timestamps,TP9,AF7,AF8,TP10,Right AUX,Marker0
182371.079,-35.156,-31.738,-27.344,-28.320,0.000,0
182371.083,-22.949,-30.273,-28.320,-21.973,0.000,0
182371.087,-17.090,-27.344,-22.461,-4.883,0.000,0
182371.091,-13.672,-22.461,-16.113,-3.418,0.000,0
182371.095,-12.207,-20.020,-12.695,-24.902,0.000,0
182371.099,-10.742,-17.578,-18.066,-15.625,0.000,0
182371.103,-5.371,-21.973,-18.555,6.836,0.000,0
182371.106,-2.930,-20.996,-14.648,0.488,0.000,0
182371.110,-17.090,-11.230,-14.648,-12.695,0.000,0
182371.114,-19.531,-14.648,-16.602,-23.926,0.000,0
182371.118,-20.996,-28.809,-23.438,-14.648,0.000,0
182371.122,-29.297,-30.762,-36.133,-10.742,0.000,0
182371.126,-37.109,-35.156,-33.203,-32.227,0.000,0
182371.130,-35.645,-40.527,-23.926,-32.715,0.000,0
182371.134,-20.020,-34.668,-18.555,-15.137,0.000,0
182371.138,-20.508,-35.156,-21.484,-31.250,0.000,0
182371.142,-32.227,-41.992,-26.367,-37.598,0.000,0
182371.145,-28.809,-39.062,-30.762,-24.414,0.000,0
182371.149,-20.508,-32.227,-29.297,-21.973,0.000,0
182371.153,-13.672,-31.738,-33.691,-26.855,0.000,0
182371.157,-4.395,-17.090,-23.438,-17.578,0.000,0
182371.161,-11.230,-15.137,-14.160,-17.578,0.000,0
182371.165,-19.043,-26.367,-23.438,-22.461,0.000,0
182371.169,-13.672,-26.855,-26.855,-16.113,0.000,0
182371.173,-11.719,-22.949,-20.996,-26.367,0.000,0
182371.177,-22.461,-29.297,-32.715,-47.852,0.000,0
182371.181,-22.461,-28.809,-37.598,-40.527,0.000,0
182371.185,-11.230,-22.461,-24.414,-13.672,0.000,0
182371.188,-13.672,-23.926,-13.672,-20.508,0.000,0
182371.192,-29.297,-20.996,-14.648,-41.992,0.000,0
182371.196,-33.691,-21.973,-25.391,-42.480,0.000,0
182371.200,-9.766,-15.625,-12.207,-22.461,0.000,0
182371.204,-0.488,-12.695,-6.348,-8.789,0.000,0
182371.208,-12.207,-15.625,-17.090,-20.508,0.000,0
182371.212,-11.230,-14.160,-19.531,-28.320,0.000,0
182371.216,-3.906,-14.160,-10.254,-15.137,0.000,0
182371.220,-11.719,-23.438,-12.695,-11.719,0.000,0
182371.224,-25.879,-28.809,-29.785,-26.367,0.000,0
182371.228,-29.297,-20.996,-31.250,-37.598,0.000,0
182371.231,-15.137,-11.230,-15.625,-27.344,0.000,0
182371.235,-6.348,-14.648,-13.184,-14.160,0.000,0
182371.239,-21.484,-23.438,-21.484,-24.902,0.000,0
182371.243,-39.062,-34.180,-36.621,-39.551,0.000,0
182371.247,-38.574,-33.691,-35.645,-43.457,0.000,0
182371.251,-15.137,-22.461,-16.602,-30.762,0.000,0
182371.255,-5.859,-11.719,-7.812,-10.254,0.000,0
182371.259,-22.949,-13.672,-16.602,-22.461,0.000,0
182371.263,-29.785,-17.578,-19.043,-32.227,0.000,0
182371.267,-26.367,-22.949,-20.508,-26.855,0.000,0
182371.270,-20.996,-24.902,-23.926,-26.855,0.000,0
182371.274,-28.809,-21.484,-25.391,-31.738,0.000,0
182371.278,-22.949,-7.324,-24.902,-24.902,0.000,0
182371.282,-8.301,-5.371,-16.113,-3.906,0.000,0
182371.286,-8.789,-12.207,-19.043,-7.812,0.000,0
182371.290,-15.625,-15.625,-28.809,-32.715,0.000,0
182371.294,-14.648,-12.695,-19.043,-23.926,0.000,0
182371.298,-14.160,-8.789,-4.883,-2.930,0.000,0
182371.302,-12.207,-10.742,-8.301,-4.395,0.000,0
182371.306,-8.301,-15.137,-16.602,-5.371,0.000,0
182371.310,-22.949,-17.578,-19.043,-26.367,0.000,0
182371.313,-28.809,-13.184,-20.508,-36.621,0.000,0
182371.317,-2.441,0.488,-5.371,-1.465,0.000,0
182371.321,0.000,-0.488,-4.883,-8.301,0.000,0
182371.325,-35.645,-18.066,-37.598,-49.805,0.000,0
182371.329,-48.828,-23.926,-36.621,-58.105,0.000,0
182371.333,-22.461,-14.648,-16.602,-27.832,0.000,0
182371.337,-15.137,-12.207,-6.348,-22.461,0.000,0
182371.341,-23.438,-12.695,-9.277,-38.086,0.000,0
182371.345,-28.809,-13.672,-20.508,-33.203,0.000,0
182371.349,-22.461,-19.531,-27.832,-31.738,0.000,0
182371.353,-12.207,-22.461,-33.691,-32.715,0.000,0
182371.356,-12.695,-23.438,-34.180,-29.297,0.000,0
182371.360,-14.160,-22.949,-21.484,-36.133,0.000,0
182371.364,-17.090,-29.785,-20.508,-35.156,0.000,0
182371.368,-16.113,-29.785,-23.438,-18.555,0.000,0
182371.372,-22.949,-20.508,-20.508,-14.160,0.000,0
182371.376,-29.785,-13.184,-19.043,-24.902,0.000,0
182371.380,-26.367,-11.719,-13.672,-18.066,0.000,0
182371.384,-26.367,-18.555,-17.578,-7.812,0.000,0
182371.388,-36.133,-27.344,-33.691,-26.367,0.000,0
182371.392,-33.203,-22.461,-26.367,-29.297,0.000,0
182371.395,-21.973,-13.184,-18.066,-11.719,0.000,0
182371.399,-19.043,-13.672,-22.949,-4.883,0.000,0
182371.403,-15.137,-7.812,-19.531,0.488,0.000,0
182371.407,-22.461,-13.184,-10.742,-24.902,0.000,0
182371.411,-31.250,-31.250,-22.461,-60.547,0.000,0
182371.415,-26.367,-35.156,-39.551,-51.270,0.000,0
182371.419,-18.066,-34.180,-38.086,-30.762,0.000,0
182371.423,-19.531,-28.320,-29.785,-31.738,0.000,0
182371.427,-25.391,-21.484,-27.344,-49.316,0.000,0
182371.431,-19.531,-22.949,-20.508,-53.223,0.000,0
182371.435,-3.418,-15.625,-15.137,-23.926,0.000,0
182371.438,-5.859,-17.578,-22.949,-18.555,0.000,0
182371.442,-35.156,-27.344,-31.250,-50.293,0.000,0
182371.446,-16.602,-11.230,-12.207,-36.621,0.000,0
182371.450,8.789,-4.883,-2.930,-3.418,0.000,0
182371.454,-9.277,-23.926,-22.949,-16.602,0.000,0
182371.458,-28.809,-31.738,-37.598,-28.320,0.000,0
182371.462,-32.715,-26.367,-32.227,-32.715,0.000,0
182371.466,-26.367,-27.344,-31.738,-34.180,0.000,0
182371.470,-22.949,-27.344,-34.668,-21.973,0.000,0
182371.474,-21.973,-15.137,-27.344,-17.578,0.000,0
182371.478,-33.203,-17.578,-26.855,-33.691,0.000,0
182371.481,-31.738,-22.949,-34.668,-28.320,0.000,0
182371.485,-7.812,-15.625,-33.691,-6.836,0.000,0
182371.489,-10.742,-15.625,-21.973,-13.184,0.000,0
182371.493,-34.180,-24.902,-28.320,-36.133,0.000,0
182371.497,-38.574,-27.832,-35.645,-45.898,0.000,0
182371.501,-34.668,-34.180,-52.734,-42.969,0.000,0
182371.505,-35.156,-37.598,-54.199,-49.316,0.000,0
182371.509,-36.133,-28.320,-43.945,-64.453,0.000,0
182371.513,-32.715,-23.926,-35.645,-57.617,0.000,0
182371.517,-14.160,-16.602,-21.973,-36.133,0.000,0
182371.520,3.418,-3.418,-1.953,-10.254,0.000,0
182371.524,-9.766,-10.742,-6.348,-18.555,0.000,0
182371.528,-13.672,-20.020,-23.438,-36.621,0.000,0
182371.532,0.977,-15.137,-12.695,-19.043,0.000,0
182371.536,6.348,-8.789,-2.441,4.395,0.000,0
182371.540,-13.184,-22.461,-22.949,-10.254,0.000,0
182371.544,-30.273,-34.180,-40.039,-34.668,0.000,0
182371.548,-29.785,-31.738,-40.527,-39.062,0.000,0
182371.552,-6.836,-25.879,-31.738,-7.324,0.000,0
182371.556,9.766,-14.160,-12.207,10.742,0.000,0
182371.560,-5.371,-6.348,2.930,2.441,0.000,0
182371.563,-6.836,-10.254,0.488,2.441,0.000,0
182371.567,-13.184,-30.273,-27.344,-13.184,0.000,0
182371.571,-21.973,-35.645,-44.922,-16.113,0.000,0
182371.575,-9.766,-13.184,-24.902,-8.301,0.000,0
182371.579,-11.230,-12.207,-23.926,-10.254,0.000,0
182371.583,-18.555,-21.484,-29.785,-7.812,0.000,0
182371.587,-10.742,-19.043,-22.461,-13.672,0.000,0
182371.591,-18.555,-20.020,-22.461,-29.297,0.000,0
182371.595,-30.273,-19.531,-25.391,-39.062,0.000,0
182371.599,-25.391,-18.066,-25.879,-30.273,0.000,0
182371.603,-9.277,-9.277,-15.137,-20.996,0.000,0
182371.606,-7.812,-6.836,-9.277,-32.715,0.000,0
182371.610,-19.043,-10.254,-27.344,-34.668,0.000,0
182371.614,16.602,3.906,-8.301,-7.812,0.000,0
182371.618,18.555,-11.230,-11.230,-13.672,0.000,0
182371.622,-29.785,-34.180,-40.527,-55.176,0.000,0
182371.626,-40.527,-28.809,-35.156,-65.918,0.000,0
182371.630,-33.691,-21.484,-31.250,-51.270,0.000,0
182371.634,-28.809,-21.484,-29.297,-37.598,0.000,0
182371.638,-21.973,-14.160,-23.438,-26.367,0.000,0
182371.642,-17.090,-4.883,-17.090,-15.625,0.000,0
182371.645,-20.996,-6.836,-7.324,-24.414,0.000,0
182371.649,-18.555,-11.719,-12.207,-21.484,0.000,0
182371.653,-10.742,-10.254,-11.230,-8.301,0.000,0
182371.657,-19.043,-15.137,-19.043,-24.902,0.000,0
182371.661,-23.926,-20.996,-31.250,-35.645,0.000,0
182371.665,-16.602,-18.555,-18.555,-29.785,0.000,0
182371.669,-8.789,-16.113,-13.184,-13.672,0.000,0
182371.673,-14.648,-21.484,-24.414,-10.742,0.000,0
182371.677,-31.738,-27.832,-39.062,-31.250,0.000,0
182371.681,-28.809,-33.203,-40.527,-33.691,0.000,0
182371.685,-20.508,-32.227,-31.738,-22.461,0.000,0
182371.688,-10.254,-25.391,-22.949,-16.113,0.000,0
182371.692,-5.859,-17.090,-16.113,-22.949,0.000,0
182371.696,-15.137,-15.137,-17.578,-23.926,0.000,0
182371.700,-2.930,-19.043,-23.926,-2.441,0.000,0
182371.704,2.441,-13.672,-14.648,-2.930,0.000,0
182371.708,-32.227,-13.672,-15.625,-41.992,0.000,0
182371.712,-37.598,-17.578,-26.367,-41.992,0.000,0
182371.716,-15.625,-24.414,-23.438,-17.090,0.000,0
182371.720,-36.621,-40.039,-29.297,-34.180,0.000,0
182371.724,-41.504,-31.738,-33.691,-44.922,0.000,0
182371.728,-16.602,-14.648,-27.344,-28.320,0.000,0
182371.731,1.465,-6.836,-13.672,-9.277,0.000,0
182371.735,1.953,-7.324,-7.812,3.906,0.000,0
182371.739,-18.066,-20.020,-25.391,-12.695,0.000,0
182371.743,-37.109,-35.156,-38.574,-37.109,0.000,0
182371.747,-37.598,-35.645,-38.086,-39.551,0.000,0
182371.751,-22.949,-34.180,-38.574,-26.367,0.000,0
182371.755,-23.438,-34.668,-27.832,-18.066,0.000,0
182371.759,-35.156,-25.879,-25.879,-34.668,0.000,0
182371.763,-30.273,-14.648,-18.555,-37.598,0.000,0
182371.767,-22.949,-20.996,-14.160,-27.344,0.000,0
182371.770,-36.621,-33.203,-30.762,-36.621,0.000,0
182371.774,-49.805,-28.320,-28.809,-38.574,0.000,0
182371.778,-51.270,-25.391,-25.879,-49.316,0.000,0
182371.782,-39.551,-20.996,-35.156,-44.922,0.000,0
182371.786,-34.180,-20.020,-29.785,-20.020,0.000,0
182371.790,-31.738,-20.508,-22.949,-20.996,0.000,0
182371.794,-31.738,-17.090,-14.160,-46.387,0.000,0
182371.798,-38.086,-23.438,-17.090,-44.434,0.000,0
182371.802,-26.367,-20.020,-19.043,-28.320,0.000,0
182371.806,-24.902,-17.578,-12.695,-36.621,0.000,0
182371.810,-30.762,-26.855,-17.578,-39.551,0.000,0
182371.813,-25.391,-27.832,-34.668,-20.996,0.000,0
182371.817,-22.461,-19.531,-35.156,-20.996,0.000,0
182371.821,-27.344,-20.996,-24.414,-36.621,0.000,0
182371.825,-24.902,-12.695,-12.207,-38.086,0.000,0
182371.829,-27.344,-8.301,-9.766,-34.180,0.000,0
182371.833,-26.855,-16.602,-17.578,-38.574,0.000,0
182371.837,-32.715,-21.973,-27.344,-37.109,0.000,0
182371.841,-37.598,-18.555,-26.367,-42.480,0.000,0
182371.845,-36.621,-11.719,-15.137,-55.664,0.000,0
182371.849,-35.645,-18.066,-26.855,-42.969,0.000,0
182371.853,-38.574,-24.414,-33.691,-39.551,0.000,0
182371.856,-54.199,-25.391,-33.203,-53.223,0.000,0
182371.860,-43.945,-17.578,-43.457,-55.664,0.000,0
182371.864,-41.016,-16.602,-32.715,-57.129,0.000,0
182371.868,-53.711,-23.438,-16.602,-55.176,0.000,0
182371.872,-46.875,-25.391,-19.531,-48.828,0.000,0
182371.876,-40.527,-26.367,-22.949,-51.270,0.000,0
182371.880,-42.969,-28.320,-20.996,-61.035,0.000,0
182371.884,-41.992,-31.250,-30.762,-58.105,0.000,0
182371.888,-31.250,-22.949,-30.273,-41.992,0.000,0
182371.892,-38.086,-14.648,-17.578,-44.922,0.000,0
182371.895,-54.199,-18.066,-21.484,-55.176,0.000,0
182371.899,-47.363,-22.949,-21.973,-54.199,0.000,0
182371.903,-27.344,-13.184,-12.207,-50.781,0.000,0
182371.907,-19.043,1.465,-4.395,-43.457,0.000,0
182371.911,-24.902,-2.930,-8.301,-45.898,0.000,0
182371.915,-28.320,-11.230,-22.949,-40.527,0.000,0
182371.919,-30.762,-16.113,-29.785,-39.551,0.000,0
182371.923,-38.574,-22.461,-26.855,-56.152,0.000,0
182371.927,-49.316,-21.484,-32.715,-54.688,0.000,0
182371.931,-51.270,-25.879,-45.898,-51.270,0.000,0
182371.935,-34.668,-28.320,-37.598,-47.363,0.000,0
182371.938,-26.367,-24.902,-17.090,-39.062,0.000,0
182371.942,-35.645,-24.414,-13.184,-48.828,0.000,0
182371.946,-37.109,-20.508,-24.902,-50.293,0.000,0
182371.950,-28.809,-18.555,-21.484,-36.621,0.000,0
182371.954,-24.414,-30.273,-24.902,-36.621,0.000,0
182371.958,-40.527,-31.250,-36.621,-58.105,0.000,0
182371.962,-42.969,-19.531,-31.250,-51.270,0.000,0
182371.966,-28.809,-17.578,-27.344,-32.715,0.000,0
182371.970,-37.598,-27.344,-33.691,-41.016,0.000,0
182371.974,-55.176,-34.668,-38.086,-67.871,0.000,0
182371.978,-51.270,-28.320,-32.715,-66.895,0.000,0
182371.981,-44.434,-27.344,-31.738,-52.734,0.000,0
182371.985,-41.992,-27.344,-31.738,-46.875,0.000,0
182371.989,-47.363,-24.902,-32.227,-46.875,0.000,0
182371.993,-43.457,-20.996,-30.762,-45.410,0.000,0
182371.997,-33.691,-20.996,-22.461,-41.016,0.000,0
182372.001,-30.762,-17.090,-14.648,-29.297,0.000,0
182372.005,-36.621,-22.461,-29.297,-33.203,0.000,0
182372.009,-50.293,-30.762,-42.480,-60.547,0.000,0
182372.013,-45.410,-23.438,-29.785,-51.758,0.000,0
182372.017,-43.945,-20.508,-23.438,-36.621,0.000,0
182372.020,-58.105,-23.926,-41.016,-53.223,0.000,0
182372.024,-53.223,-18.066,-41.992,-50.293,0.000,0
182372.028,-41.016,-11.230,-28.809,-41.016,0.000,0
182372.032,-35.645,-10.742,-22.949,-39.551,0.000,0
182372.036,-41.504,-17.578,-19.531,-36.621,0.000,0
182372.040,-50.781,-22.461,-21.973,-53.711,0.000,0
182372.044,-41.016,-21.973,-26.367,-58.105,0.000,0
182372.048,-26.855,-21.973,-30.273,-31.738,0.000,0
182372.052,-24.902,-26.367,-28.320,-20.996,0.000,0
182372.056,-32.715,-32.227,-32.715,-46.387,0.000,0
182372.060,-48.828,-29.297,-36.133,-62.988,0.000,0
182372.063,-51.270,-25.879,-37.598,-44.922,0.000,0
182372.067,-24.414,-17.578,-24.902,-27.832,0.000,0
182372.071,-17.090,-9.277,-15.625,-28.809,0.000,0
182372.075,-37.109,-14.648,-21.973,-45.898,0.000,0
182372.079,-31.738,-15.625,-22.461,-43.457,0.000,0
182372.083,-20.508,-15.625,-11.230,-24.902,0.000,0
182372.087,-29.785,-21.484,-20.020,-26.367,0.000,0
182372.091,-44.922,-20.508,-39.551,-37.598,0.000,0
182372.095,-49.316,-20.996,-40.527,-44.922,0.000,0
182372.099,-40.039,-22.461,-32.715,-40.527,0.000,0
182372.103,-38.086,-22.949,-37.598,-23.926,0.000,0
182372.106,-43.457,-20.508,-40.527,-32.715,0.000,0
182372.110,-45.410,-19.531,-27.344,-47.363,0.000,0
182372.114,-41.992,-30.762,-30.762,-36.133,0.000,0
182372.118,-43.945,-34.668,-31.250,-32.715,0.000,0
182372.122,-52.734,-32.715,-31.250,-40.527,0.000,0
182372.126,-52.246,-30.273,-29.297,-38.086,0.000,0
182372.130,-46.875,-26.367,-27.344,-28.320,0.000,0
182372.134,-41.992,-30.762,-30.762,-29.297,0.000,0
182372.138,-41.016,-24.902,-23.926,-33.691,0.000,0
182372.142,-54.199,-22.949,-25.879,-48.828,0.000,0
182372.145,-58.594,-35.645,-37.109,-55.664,0.000,0
182372.149,-39.062,-33.691,-36.621,-33.691,0.000,0
182372.153,-45.898,-32.715,-34.668,-36.133,0.000,0
182372.157,-61.035,-35.645,-36.133,-67.383,0.000,0
182372.161,-45.898,-32.227,-38.086,-46.875,0.000,0
182372.165,-32.227,-29.297,-38.086,-18.555,0.000,0
182372.169,-38.574,-24.414,-22.949,-19.043,0.000,0
182372.173,-48.340,-27.832,-21.973,-38.574,0.000,0
182372.177,-39.551,-23.926,-21.484,-44.434,0.000,0
182372.181,-36.621,-17.578,-23.926,-22.949,0.000,0
182372.185,-49.316,-29.297,-29.785,-31.738,0.000,0
182372.188,-61.035,-36.133,-36.621,-48.340,0.000,0
182372.192,-56.152,-33.203,-35.156,-45.410,0.000,0
182372.196,-45.898,-37.598,-35.156,-47.852,0.000,0
182372.200,-43.457,-43.457,-41.992,-37.109,0.000,0
182372.204,-43.457,-36.621,-43.457,-34.668,0.000,0
182372.208,-38.574,-24.414,-36.133,-28.809,0.000,0
182372.212,-38.086,-27.344,-25.879,-22.461,0.000,0
182372.216,-34.180,-23.926,-10.742,-30.762,0.000,0
182372.220,-24.414,-11.230,-3.906,-28.809,0.000,0
182372.224,-44.922,-20.020,-15.625,-42.969,0.000,0
182372.228,-49.316,-23.926,-16.113,-36.133,0.000,0
182372.231,-42.480,-26.367,-27.344,-35.156,0.000,0
182372.235,-57.129,-40.039,-45.898,-56.641,0.000,0
182372.239,-65.918,-35.156,-40.039,-58.594,0.000,0
182372.243,-54.688,-22.949,-28.320,-46.875,0.000,0
182372.247,-48.340,-30.273,-23.438,-36.621,0.000,0
182372.251,-54.199,-31.738,-13.184,-37.109,0.000,0
182372.255,-52.734,-26.367,-12.695,-51.270,0.000,0
182372.259,-45.410,-30.273,-23.438,-45.410,0.000,0
182372.263,-37.109,-28.809,-23.926,-25.391,0.000,0
182372.267,-35.156,-31.738,-25.879,-19.043,0.000,0
182372.270,-42.969,-37.109,-35.156,-35.156,0.000,0
182372.274,-49.316,-35.156,-36.133,-49.316,0.000,0
182372.278,-39.062,-27.344,-29.297,-28.809,0.000,0
182372.282,-25.879,-17.090,-18.066,-16.602,0.000,0
182372.286,-40.039,-11.719,-8.789,-30.273,0.000,0
182372.290,-54.199,-20.020,-27.832,-45.898,0.000,0
182372.294,-50.293,-20.996,-35.645,-52.734,0.000,0
182372.298,-44.922,-18.066,-23.926,-41.016,0.000,0
182372.302,-41.504,-15.625,-20.508,-33.203,0.000,0
182372.306,-26.367,0.000,-2.441,-31.738,0.000,0
182372.310,-32.227,-12.207,-12.695,-35.156,0.000,0
182372.313,-42.969,-29.297,-25.391,-36.621,0.000,0
182372.317,-42.969,-29.785,-27.344,-36.133,0.000,0
182372.321,-48.828,-29.785,-33.691,-47.852,0.000,0
182372.325,-48.828,-25.391,-35.156,-56.152,0.000,0
182372.329,-43.457,-21.484,-37.598,-29.297,0.000,0
182372.333,-31.250,-19.043,-28.809,-24.414,0.000,0
182372.337,-32.715,-18.555,-20.508,-42.480,0.000,0
182372.341,-48.828,-20.996,-22.949,-34.180,0.000,0
182372.345,-49.805,-24.902,-21.484,-28.809,0.000,0
182372.349,-42.969,-27.344,-17.090,-27.832,0.000,0
182372.353,-46.387,-24.902,-18.555,-27.832,0.000,0
182372.356,-52.734,-23.438,-19.531,-46.875,0.000,0
182372.360,-53.711,-22.461,-22.461,-44.434,0.000,0
182372.364,-56.152,-27.832,-29.785,-30.273,0.000,0
182372.368,-48.340,-21.973,-18.555,-28.320,0.000,0
182372.372,-52.734,-26.855,-32.227,-50.781,0.000,0
182372.376,-63.477,-35.645,-45.898,-62.988,0.000,0
182372.380,-52.734,-36.621,-38.086,-53.711,0.000,0
182372.384,-43.457,-33.691,-35.156,-46.875,0.000,0
182372.388,-56.152,-29.297,-32.715,-48.828,0.000,0
182372.392,-59.570,-27.344,-29.785,-59.570,0.000,0
182372.395,-48.828,-24.902,-21.973,-55.664,0.000,0
182372.399,-44.922,-22.461,-19.043,-41.504,0.000,0
182372.403,-54.199,-22.949,-29.785,-46.387,0.000,0
182372.407,-67.383,-28.809,-35.645,-60.059,0.000,0
182372.411,-68.359,-33.691,-42.969,-55.664,0.000,0
182372.415,-58.594,-30.762,-46.387,-44.434,0.000,0
182372.419,-60.547,-34.668,-43.457,-47.852,0.000,0
182372.423,-69.824,-40.527,-46.875,-58.594,0.000,0
182372.427,-55.664,-28.809,-24.902,-49.805,0.000,0
182372.431,-39.551,-25.879,-14.648,-28.809,0.000,0
182372.435,-52.246,-41.016,-40.527,-38.086,0.000,0
182372.438,-62.500,-42.969,-33.203,-56.152,0.000,0
182372.442,-50.781,-38.086,-29.297,-50.293,0.000,0
182372.446,-43.945,-34.668,-36.133,-33.691,0.000,0
182372.450,-38.574,-29.785,-22.949,-28.809,0.000,0
182372.454,-39.551,-34.668,-30.273,-38.574,0.000,0
182372.458,-46.387,-33.691,-33.691,-47.363,0.000,0
182372.462,-44.922,-27.344,-27.344,-42.969,0.000,0
182372.466,-44.434,-32.227,-31.250,-28.809,0.000,0
182372.470,-58.594,-38.086,-39.062,-47.363,0.000,0
182372.474,-76.660,-38.086,-42.969,-72.266,0.000,0
182372.478,-85.449,-38.574,-40.527,-63.965,0.000,0
182372.481,-66.406,-33.691,-35.156,-46.875,0.000,0
182372.485,-54.688,-28.320,-32.715,-46.875,0.000,0
182372.489,-64.941,-27.832,-29.297,-64.941,0.000,0
182372.493,-56.641,-19.043,-24.902,-58.594,0.000,0
182372.497,-42.480,-20.020,-27.832,-36.621,0.000,0
182372.501,-44.434,-27.344,-30.273,-34.180,0.000,0
182372.505,-64.453,-31.738,-40.039,-41.504,0.000,0
182372.509,-75.195,-36.133,-55.664,-47.363,0.000,0
182372.513,-64.941,-34.668,-43.457,-45.898,0.000,0
182372.517,-53.223,-33.691,-31.250,-41.992,0.000,0
182372.520,-54.688,-29.785,-34.668,-46.875,0.000,0
182372.524,-56.152,-25.391,-31.250,-45.410,0.000,0
182372.528,-51.758,-24.414,-28.320,-45.898,0.000,0
182372.532,-41.992,-19.531,-21.484,-40.527,0.000,0
182372.536,-42.969,-19.043,-23.926,-34.180,0.000,0
182372.540,-41.504,-12.207,-13.184,-34.668,0.000,0
182372.544,-41.016,-18.066,-14.160,-34.668,0.000,0
182372.548,-54.199,-38.086,-33.203,-41.992,0.000,0
182372.552,-62.988,-43.457,-45.898,-42.969,0.000,0
182372.556,-70.801,-41.992,-41.992,-39.551,0.000,0
182372.560,-70.312,-41.016,-39.062,-42.969,0.000,0
182372.563,-46.875,-36.133,-38.086,-43.457,0.000,0
182372.567,-40.039,-33.203,-31.250,-33.691,0.000,0
182372.571,-42.480,-19.531,-22.461,-29.785,0.000,0
182372.575,-43.945,-17.090,-16.113,-34.668,0.000,0
182372.579,-43.945,-32.715,-21.484,-28.320,0.000,0
182372.583,-41.992,-34.180,-25.879,-18.555,0.000,0
182372.587,-52.246,-33.691,-29.785,-41.504,0.000,0
182372.591,-53.711,-31.250,-31.250,-63.965,0.000,0
182372.595,-50.293,-24.414,-29.785,-42.480,0.000,0
182372.599,-42.480,-20.508,-22.949,-29.297,0.000,0
182372.603,-33.203,-18.555,-18.555,-26.367,0.000,0
182372.606,-43.945,-24.414,-27.832,-44.434,0.000,0
182372.610,-42.969,-23.438,-21.973,-52.246,0.000,0
182372.614,-41.016,-19.531,-19.043,-26.855,0.000,0
182372.618,-50.781,-27.344,-41.016,-28.809,0.000,0
182372.622,-65.430,-30.762,-43.457,-47.852,0.000,0
182372.626,-57.129,-28.320,-27.832,-37.598,0.000,0
182372.630,-45.410,-34.668,-30.762,-23.926,0.000,0
182372.634,-46.387,-41.504,-32.715,-28.809,0.000,0
182372.638,-47.852,-39.062,-26.855,-46.875,0.000,0
182372.642,-42.969,-28.809,-19.531,-50.781,0.000,0
182372.645,-37.598,-31.738,-25.879,-46.387,0.000,0
182372.649,-32.715,-28.809,-28.320,-46.387,0.000,0
182372.653,-21.973,-11.719,-16.113,-40.527,0.000,0
182372.657,-23.438,-11.719,-12.695,-36.133,0.000,0
182372.661,-31.250,-20.508,-23.438,-35.645,0.000,0
182372.665,-33.691,-20.996,-21.973,-29.785,0.000,0
182372.669,-47.363,-27.832,-22.949,-42.969,0.000,0
182372.673,-65.430,-33.203,-30.762,-54.199,0.000,0
182372.677,-64.453,-35.645,-40.039,-51.758,0.000,0
182372.681,-47.363,-26.367,-32.227,-30.273,0.000,0
182372.685,-44.434,-10.742,-11.230,-27.344,0.000,0
182372.688,-62.012,-20.996,-22.949,-48.828,0.000,0
182372.692,-57.129,-28.320,-24.414,-36.133,0.000,0
182372.696,-31.250,-15.625,-10.742,-11.719,0.000,0
182372.700,-33.691,-20.508,-20.508,-10.254,0.000,0
182372.704,-48.828,-32.715,-29.785,-28.809,0.000,0
182372.708,-57.129,-39.551,-27.832,-56.152,0.000,0
182372.712,-53.223,-38.086,-24.902,-53.223,0.000,0
182372.716,-49.316,-35.645,-22.461,-44.922,0.000,0
182372.720,-60.547,-38.086,-25.391,-47.852,0.000,0
182372.724,-54.688,-31.738,-28.809,-41.016,0.000,0
182372.728,-37.598,-23.926,-24.902,-30.762,0.000,0
182372.731,-38.086,-24.902,-26.855,-20.996,0.000,0
182372.735,-33.203,-21.973,-20.996,-20.996,0.000,0
182372.739,-32.715,-17.090,-20.996,-27.832,0.000,0
182372.743,-42.480,-23.926,-24.414,-36.621,0.000,0
182372.747,-45.898,-36.621,-26.367,-49.316,0.000,0
182372.751,-50.781,-45.410,-38.574,-55.664,0.000,0
182372.755,-48.828,-36.621,-36.621,-52.734,0.000,0
182372.759,-44.434,-24.902,-23.438,-34.668,0.000,0
182372.763,-40.527,-25.391,-19.531,-19.531,0.000,0
182372.767,-45.898,-26.855,-20.508,-26.855,0.000,0
182372.770,-64.453,-35.156,-20.508,-31.738,0.000,0
182372.774,-72.266,-47.363,-38.086,-33.691,0.000,0
182372.778,-52.246,-41.504,-38.574,-20.020,0.000,0
182372.782,-54.688,-38.086,-24.414,-21.973,0.000,0
182372.786,-68.848,-38.574,-31.250,-40.039,0.000,0
182372.790,-56.152,-38.086,-34.180,-21.484,0.000,0
182372.794,-42.969,-38.086,-26.367,-6.836,0.000,0
182372.798,-38.574,-31.250,-19.531,-9.277,0.000,0
182372.802,-46.875,-33.691,-22.949,-19.043,0.000,0
182372.806,-43.457,-40.039,-32.227,-11.230,0.000,0
182372.810,-34.180,-43.457,-38.086,-3.906,0.000,0
182372.813,-38.574,-45.410,-38.086,-9.766,0.000,0
182372.817,-41.016,-34.180,-34.668,-2.441,0.000,0
182372.821,-42.480,-27.832,-19.043,1.953,0.000,0
182372.825,-53.223,-36.133,-18.555,-6.348,0.000,0
182372.829,-66.406,-41.992,-34.668,-14.160,0.000,0
182372.833,-81.543,-47.852,-54.688,-31.738,0.000,0
182372.837,-91.309,-43.945,-46.387,-38.574,0.000,0
182372.841,-77.148,-35.645,-35.645,-31.738,0.000,0
182372.845,-61.523,-29.785,-29.785,-36.621,0.000,0
182372.849,-62.012,-29.785,-38.574,-42.480,0.000,0
182372.853,-62.500,-35.156,-49.805,-54.199,0.000,0
182372.856,-72.266,-39.551,-40.039,-53.223,0.000,0
182372.860,-52.246,-33.203,-22.461,-30.762,0.000,0
182372.864,-31.250,-28.320,-14.648,-23.438,0.000,0
182372.868,-71.777,-33.203,-29.785,-58.594,0.000,0
182372.872,-91.797,-33.691,-33.691,-70.312,0.000,0
182372.876,-73.730,-26.367,-26.855,-49.316,0.000,0
182372.880,-74.219,-29.297,-33.203,-43.945,0.000,0
182372.884,-87.891,-35.156,-35.645,-61.523,0.000,0
182372.888,-90.332,-34.180,-34.180,-67.871,0.000,0
182372.892,-66.406,-30.762,-28.320,-40.527,0.000,0
182372.895,-64.453,-27.344,-25.391,-27.832,0.000,0
182372.899,-81.055,-29.297,-29.297,-52.246,0.000,0
182372.903,-87.402,-31.250,-31.738,-71.777,0.000,0
182372.907,-86.914,-33.203,-37.598,-58.105,0.000,0
182372.911,-75.684,-34.180,-46.875,-48.340,0.000,0
182372.915,-73.730,-28.320,-41.992,-53.711,0.000,0
182372.919,-72.754,-20.508,-12.695,-68.359,0.000,0
182372.923,-70.312,-24.902,-9.277,-80.566,0.000,0
182372.927,-78.613,-29.297,-34.668,-72.266,0.000,0
182372.931,-71.777,-23.438,-38.086,-66.406,0.000,0
182372.935,-70.801,-24.902,-30.762,-64.941,0.000,0
182372.938,-83.496,-27.832,-32.227,-71.777,0.000,0
182372.942,-67.871,-23.438,-17.090,-62.012,0.000,0
182372.946,-50.293,-20.020,-10.254,-40.527,0.000,0
182372.950,-60.059,-18.066,-20.020,-48.828,0.000,0
182372.954,-71.777,-19.531,-20.020,-70.801,0.000,0
182372.958,-75.195,-28.320,-28.809,-64.453,0.000,0
182372.962,-68.848,-28.809,-31.738,-48.340,0.000,0
182372.966,-69.824,-20.020,-23.926,-49.805,0.000,0
182372.970,-74.219,-21.484,-29.297,-62.500,0.000,0
182372.974,-59.570,-33.691,-40.527,-43.457,0.000,0
182372.978,-53.711,-45.898,-51.270,-52.734,0.000,0
182372.981,-83.008,-48.828,-45.410,-104.004,0.000,0
182372.985,-84.473,-38.574,-34.668,-98.633,0.000,0
182372.989,-55.176,-31.738,-22.461,-63.477,0.000,0
182372.993,-53.223,-31.738,-20.020,-50.781,0.000,0
182372.997,-63.965,-34.180,-24.414,-45.898,0.000,0
182373.001,-73.730,-35.645,-27.344,-58.594,0.000,0
182373.005,-74.219,-32.715,-29.297,-65.918,0.000,0
182373.009,-65.430,-38.574,-36.621,-42.480,0.000,0
182373.013,-74.219,-46.875,-49.316,-45.410,0.000,0
182373.017,-90.332,-48.828,-47.363,-58.105,0.000,0
182373.020,-89.844,-45.898,-37.109,-61.035,0.000,0
182373.024,-80.566,-42.969,-36.621,-58.594,0.000,0
182373.028,-60.059,-32.227,-30.762,-40.039,0.000,0
182373.032,-59.082,-32.715,-27.344,-40.527,0.000,0
182373.036,-72.754,-41.504,-34.180,-52.734,0.000,0
182373.040,-65.918,-44.434,-41.016,-57.129,0.000,0
182373.044,-55.176,-41.016,-47.852,-46.875,0.000,0
182373.048,-58.105,-37.109,-37.109,-36.621,0.000,0
182373.052,-68.848,-41.016,-39.062,-56.641,0.000,0
182373.056,-69.336,-37.598,-39.062,-62.500,0.000,0
182373.060,-63.965,-39.062,-29.297,-55.176,0.000,0
182373.063,-60.059,-36.621,-33.203,-54.688,0.000,0
182373.067,-75.195,-35.645,-32.715,-64.941,0.000,0
182373.071,-88.867,-41.016,-36.621,-69.824,0.000,0
182373.075,-83.496,-40.527,-44.434,-61.523,0.000,0
182373.079,-68.359,-37.109,-40.039,-61.523,0.000,0
182373.083,-65.430,-32.715,-31.738,-62.012,0.000,0
182373.087,-81.055,-41.504,-52.734,-73.730,0.000,0
182373.091,-75.684,-41.016,-57.617,-66.895,0.000,0
182373.095,-62.012,-38.086,-35.645,-58.105,0.000,0
182373.099,-63.965,-42.969,-31.250,-65.430,0.000,0
182373.103,-62.012,-30.273,-24.902,-63.965,0.000,0
182373.106,-57.129,-21.484,-16.602,-49.316,0.000,0
182373.110,-51.758,-24.902,-20.996,-41.504,0.000,0
182373.114,-58.594,-24.414,-26.367,-48.828,0.000,0
182373.118,-76.660,-34.180,-38.574,-69.336,0.000,0
182373.122,-83.496,-43.945,-49.805,-76.660,0.000,0
182373.126,-75.684,-42.969,-49.805,-62.012,0.000,0
182373.130,-75.195,-38.574,-46.875,-60.059,0.000,0
182373.134,-92.285,-31.250,-33.203,-68.848,0.000,0
182373.138,-90.332,-28.320,-23.926,-67.383,0.000,0
182373.142,-77.637,-28.809,-24.414,-57.617,0.000,0
182373.145,-73.242,-26.367,-24.414,-45.410,0.000,0
182373.149,-76.172,-33.691,-28.320,-61.035,0.000,0
182373.153,-71.777,-26.855,-18.066,-73.242,0.000,0
182373.157,-70.312,-27.832,-25.391,-63.477,0.000,0
182373.161,-76.660,-40.527,-51.270,-69.336,0.000,0
182373.165,-81.055,-37.109,-47.363,-78.125,0.000,0
182373.169,-85.938,-32.715,-32.715,-76.172,0.000,0
182373.173,-80.566,-31.250,-32.715,-61.523,0.000,0
182373.177,-76.172,-33.691,-40.039,-52.246,0.000,0
182373.181,-79.590,-33.203,-35.645,-62.012,0.000,0
182373.185,-84.961,-21.484,-24.902,-49.805,0.000,0
182373.188,-79.590,-27.832,-44.434,-55.664,0.000,0
182373.192,-70.801,-34.668,-45.410,-61.035,0.000,0
182373.196,-70.312,-38.574,-38.086,-49.805,0.000,0
182373.200,-79.102,-46.387,-48.828,-63.965,0.000,0
182373.204,-85.449,-45.410,-42.969,-76.660,0.000,0
182373.208,-80.078,-41.504,-40.527,-69.824,0.000,0
182373.212,-65.918,-37.109,-42.480,-45.410,0.000,0
182373.216,-63.477,-38.574,-52.246,-46.875,0.000,0
182373.220,-83.008,-41.992,-44.922,-75.195,0.000,0
182373.224,-83.984,-36.621,-31.738,-60.547,0.000,0
182373.228,-66.895,-29.785,-24.902,-35.156,0.000,0
182373.231,-74.219,-38.086,-26.855,-55.176,0.000,0
182373.235,-96.191,-44.922,-40.039,-85.938,0.000,0
182373.239,-96.680,-39.551,-41.504,-88.379,0.000,0
182373.243,-87.891,-34.668,-41.992,-76.172,0.000,0
182373.247,-82.031,-28.320,-39.551,-75.195,0.000,0
182373.251,-84.961,-21.973,-40.039,-71.289,0.000,0
182373.255,-90.820,-26.855,-42.969,-76.660,0.000,0
182373.259,-83.008,-34.668,-31.738,-81.055,0.000,0
182373.263,-71.289,-36.621,-33.203,-69.336,0.000,0
182373.267,-71.289,-31.250,-43.945,-69.336,0.000,0
182373.270,-75.684,-18.555,-23.438,-68.359,0.000,0
182373.274,-73.242,-18.555,-22.461,-60.059,0.000,0
182373.278,-73.730,-27.344,-41.016,-54.199,0.000,0
182373.282,-81.055,-32.715,-36.621,-65.918,0.000,0
182373.286,-90.332,-28.809,-33.203,-69.824,0.000,0
182373.290,-75.195,-14.160,-26.367,-48.340,0.000,0
182373.294,-78.613,-23.438,-30.762,-57.617,0.000,0
182373.298,-102.539,-40.527,-46.875,-83.984,0.000,0
182373.302,-110.840,-38.086,-58.105,-84.473,0.000,0
182373.306,-102.539,-33.691,-60.547,-76.660,0.000,0
182373.310,-91.309,-36.621,-53.711,-67.383,0.000,0
182373.313,-84.961,-32.227,-38.086,-61.523,0.000,0
182373.317,-73.730,-17.578,-12.695,-59.570,0.000,0
182373.321,-90.332,-23.438,-26.855,-74.219,0.000,0
182373.325,-102.539,-42.480,-56.641,-70.801,0.000,0
182373.329,-85.938,-37.109,-51.758,-59.082,0.000,0
182373.333,-84.473,-23.438,-35.156,-70.312,0.000,0
182373.337,-82.031,-20.996,-32.715,-82.031,0.000,0
182373.341,-72.754,-23.926,-53.711,-75.195,0.000,0
182373.345,-61.035,-19.531,-46.387,-52.734,0.000,0
182373.349,-63.477,-20.020,-26.855,-56.641,0.000,0
182373.353,-75.684,-19.531,-30.762,-65.918,0.000,0
182373.356,-88.379,-33.691,-54.199,-76.660,0.000,0
182373.360,-93.750,-41.016,-64.941,-79.102,0.000,0
182373.364,-91.797,-27.832,-44.434,-75.684,0.000,0
182373.368,-85.449,-20.508,-32.227,-87.402,0.000,0
182373.372,-83.008,-18.066,-26.855,-81.543,0.000,0
182373.376,-82.031,-18.066,-26.855,-68.848,0.000,0
182373.380,-76.172,-16.113,-28.809,-62.988,0.000,0
182373.384,-85.449,-21.973,-36.133,-83.008,0.000,0
182373.388,-94.238,-24.902,-45.410,-79.590,0.000,0
182373.392,-83.984,-26.855,-52.734,-63.965,0.000,0
182373.395,-74.219,-22.461,-45.898,-64.453,0.000,0
182373.399,-84.473,-25.391,-41.504,-73.242,0.000,0
182373.403,-94.727,-30.273,-40.039,-80.566,0.000,0
182373.407,-83.984,-25.879,-30.762,-66.406,0.000,0
182373.411,-69.336,-28.320,-34.668,-64.941,0.000,0
182373.415,-68.359,-31.250,-38.574,-73.242,0.000,0
182373.419,-72.266,-27.832,-37.598,-68.848,0.000,0
182373.423,-70.312,-27.832,-39.551,-64.453,0.000,0
182373.427,-72.266,-30.273,-39.062,-66.895,0.000,0
182373.431,-72.754,-29.785,-38.574,-60.547,0.000,0
182373.435,-78.125,-28.809,-43.945,-67.871,0.000,0
182373.438,-82.031,-20.996,-30.762,-66.895,0.000,0
182373.442,-71.289,-20.508,-23.926,-45.898,0.000,0
182373.446,-69.824,-23.438,-29.297,-48.340,0.000,0
182373.450,-84.473,-26.367,-41.992,-66.406,0.000,0
182373.454,-93.750,-38.574,-58.105,-74.707,0.000,0
182373.458,-81.055,-36.133,-53.711,-76.172,0.000,0
182373.462,-79.590,-30.762,-38.574,-66.895,0.000,0
182373.466,-87.402,-32.227,-36.133,-63.965,0.000,0
182373.470,-100.586,-34.668,-41.992,-75.684,0.000,0
182373.474,-93.750,-34.668,-35.645,-72.754,0.000,0
182373.478,-87.402,-34.668,-39.551,-67.871,0.000,0
182373.481,-90.332,-31.250,-45.410,-60.547,0.000,0
182373.485,-92.285,-24.902,-36.133,-70.801,0.000,0
182373.489,-91.309,-17.578,-23.438,-60.059,0.000,0
182373.493,-91.309,-24.414,-30.762,-52.734,0.000,0
182373.497,-92.285,-26.367,-36.621,-68.848,0.000,0
182373.501,-93.750,-22.949,-38.086,-75.195,0.000,0
182373.505,-95.215,-31.250,-47.363,-79.102,0.000,0
182373.509,-87.891,-34.668,-47.852,-75.684,0.000,0
182373.513,-79.102,-22.461,-32.227,-60.059,0.000,0
182373.517,-99.609,-24.414,-33.691,-75.684,0.000,0
182373.520,-112.793,-30.273,-41.016,-85.449,0.000,0
182373.524,-104.980,-31.250,-46.875,-72.754,0.000,0
182373.528,-99.121,-24.902,-50.781,-66.895,0.000,0
182373.532,-95.703,-19.043,-38.086,-73.730,0.000,0
182373.536,-96.191,-26.367,-39.551,-88.379,0.000,0
182373.540,-98.633,-27.832,-45.898,-76.660,0.000,0
182373.544,-87.402,-24.414,-35.156,-54.688,0.000,0
182373.548,-78.613,-17.578,-28.809,-48.340,0.000,0
182373.552,-97.656,-26.855,-48.340,-74.219,0.000,0
182373.556,-110.352,-40.527,-53.223,-103.027,0.000,0
182373.560,-99.609,-35.645,-41.504,-103.516,0.000,0
182373.563,-83.008,-27.344,-35.156,-112.793,0.000,0
182373.567,-97.656,-29.785,-34.180,-135.254,0.000,0
182373.571,-117.676,-40.527,-52.246,-152.832,0.000,0
182373.575,-104.492,-46.875,-51.270,-161.133,0.000,0
182373.579,-91.797,-41.504,-34.668,-146.484,0.000,0
182373.583,-103.027,-35.645,-35.156,-152.832,0.000,0
182373.587,-102.539,-20.020,-26.855,-145.508,0.000,0
182373.591,-90.332,-12.207,-23.438,-111.816,0.000,0
182373.595,-81.543,-20.020,-26.855,-105.469,0.000,0
182373.599,-86.426,-25.879,-29.297,-112.793,0.000,0
182373.603,-96.680,-32.227,-41.016,-117.188,0.000,0
182373.606,-96.680,-33.691,-43.945,-106.934,0.000,0
182373.610,-91.797,-33.203,-47.852,-101.074,0.000,0
182373.614,-92.285,-35.645,-45.410,-101.562,0.000,0
182373.618,-93.262,-33.203,-46.387,-91.797,0.000,0
182373.622,-89.355,-31.250,-45.898,-85.449,0.000,0
182373.626,-83.008,-24.902,-37.598,-76.172,0.000,0
182373.630,-84.473,-21.484,-42.969,-74.219,0.000,0
182373.634,-91.797,-30.762,-42.480,-95.703,0.000,0
182373.638,-86.426,-26.855,-31.250,-86.914,0.000,0
182373.642,-74.707,-22.949,-28.320,-65.430,0.000,0
182373.645,-73.242,-27.344,-32.715,-62.012,0.000,0
182373.649,-87.402,-25.391,-31.738,-68.359,0.000,0
182373.653,-99.609,-28.320,-27.832,-85.449,0.000,0
182373.657,-96.680,-32.715,-31.250,-80.566,0.000,0
182373.661,-91.309,-30.273,-35.156,-59.570,0.000,0
182373.665,-79.590,-17.578,-22.949,-49.316,0.000,0
182373.669,-88.379,-18.555,-27.344,-54.688,0.000,0
182373.673,-103.516,-33.203,-47.363,-68.359,0.000,0
182373.677,-97.656,-32.715,-41.504,-58.594,0.000,0
182373.681,-104.004,-28.809,-36.133,-50.781,0.000,0
182373.685,-112.793,-24.414,-36.133,-65.430,0.000,0
182373.688,-113.770,-30.273,-46.875,-81.055,0.000,0
182373.692,-119.629,-37.109,-55.176,-80.078,0.000,0
182373.696,-106.445,-25.391,-44.434,-73.242,0.000,0
182373.700,-107.910,-22.949,-48.340,-86.914,0.000,0
182373.704,-113.281,-23.926,-47.363,-90.820,0.000,0
182373.708,-97.168,-16.113,-32.227,-64.941,0.000,0
182373.712,-94.238,-23.438,-38.574,-60.547,0.000,0
182373.716,-101.074,-30.273,-50.293,-65.918,0.000,0
182373.720,-104.492,-24.902,-42.969,-57.129,0.000,0
182373.724,-101.074,-24.414,-43.945,-48.340,0.000,0
182373.728,-89.355,-25.879,-45.410,-44.434,0.000,0
182373.731,-89.844,-23.438,-24.902,-45.898,0.000,0
182373.735,-99.121,-24.902,-25.391,-48.828,0.000,0
182373.739,-97.168,-33.203,-39.062,-48.340,0.000,0
182373.743,-96.191,-37.109,-49.805,-47.363,0.000,0
182373.747,-102.051,-29.297,-45.898,-57.617,0.000,0
182373.751,-108.398,-22.461,-34.668,-73.730,0.000,0
182373.755,-105.957,-18.555,-34.180,-64.941,0.000,0
182373.759,-101.562,-20.996,-32.227,-51.270,0.000,0
182373.763,-105.469,-22.949,-41.016,-50.781,0.000,0
182373.767,-116.699,-27.832,-51.270,-65.918,0.000,0
182373.770,-135.254,-34.668,-53.223,-93.750,0.000,0
182373.774,-138.184,-29.785,-44.434,-86.426,0.000,0
182373.778,-110.352,-20.508,-25.391,-45.410,0.000,0
182373.782,-115.234,-20.996,-23.926,-45.410,0.000,0
182373.786,-126.953,-23.926,-30.273,-62.500,0.000,0
182373.790,-123.047,-27.344,-31.250,-68.848,0.000,0
182373.794,-124.512,-29.297,-41.504,-60.059,0.000,0
182373.798,-114.746,-16.113,-38.574,-41.016,0.000,0
182373.802,-110.840,-15.137,-28.809,-47.363,0.000,0
182373.806,-94.238,-17.090,-28.320,-38.086,0.000,0
182373.810,-72.266,-15.137,-24.902,-13.184,0.000,0
182373.813,-80.078,-22.461,-39.062,-15.137,0.000,0
182373.817,-97.656,-21.484,-54.688,-26.855,0.000,0
182373.821,-104.004,-23.926,-59.082,-35.645,0.000,0
182373.825,-96.680,-29.297,-51.270,-22.461,0.000,0
182373.829,-100.586,-29.785,-43.457,-27.344,0.000,0
182373.833,-118.652,-33.691,-44.434,-70.312,0.000,0
182373.837,-129.395,-32.227,-47.852,-89.355,0.000,0
182373.841,-118.652,-22.461,-37.598,-76.172,0.000,0
182373.845,-107.910,-15.137,-26.855,-55.664,0.000,0
182373.849,-120.117,-15.625,-34.668,-72.266,0.000,0
182373.853,-134.766,-12.695,-44.434,-98.145,0.000,0
182373.856,-143.066,-21.973,-49.316,-91.797,0.000,0
182373.860,-138.184,-36.133,-50.781,-81.055,0.000,0
182373.864,-141.113,-34.180,-54.688,-80.566,0.000,0
182373.868,-149.902,-28.809,-49.805,-88.379,0.000,0
182373.872,-148.926,-32.715,-44.434,-95.215,0.000,0
182373.876,-126.465,-23.926,-47.363,-72.754,0.000,0
182373.880,-104.004,-11.230,-40.039,-50.293,0.000,0
182373.884,-115.234,-22.461,-34.668,-50.781,0.000,0
182373.888,-114.258,-24.902,-34.668,-59.082,0.000,0
182373.892,-111.328,-31.738,-40.039,-77.148,0.000,0
182373.895,-96.191,-31.738,-36.133,-57.617,0.000,0
182373.899,-66.406,-22.461,-31.738,-39.551,0.000,0
182373.903,-71.289,-27.344,-34.180,-63.477,0.000,0
182373.907,-70.312,-29.297,-28.320,-68.848,0.000,0
182373.911,-60.059,-23.926,-26.855,-61.523,0.000,0
182373.915,-62.500,-22.949,-39.062,-65.918,0.000,0
182373.919,-77.637,-33.691,-58.105,-72.266,0.000,0
182373.923,-74.219,-35.645,-56.152,-58.594,0.000,0
182373.927,-61.035,-35.156,-41.992,-44.434,0.000,0
182373.931,-56.152,-26.855,-32.227,-46.387,0.000,0
182373.935,-53.223,-10.254,-21.484,-35.645,0.000,0
182373.938,-48.828,1.465,-3.906,-22.461,0.000,0
182373.942,-47.852,-1.953,-13.184,-18.066,0.000,0
182373.946,-46.875,-11.230,-31.250,-9.766,0.000,0
182373.950,-66.895,-18.066,-37.109,-36.133,0.000,0
182373.954,-90.332,-23.926,-43.457,-56.152,0.000,0
182373.958,-79.102,-23.438,-36.133,-40.039,0.000,0
182373.962,-58.105,-25.391,-29.785,-31.738,0.000,0
182373.966,-53.711,-18.555,-26.367,-27.344,0.000,0
182373.970,-56.641,-11.719,-20.020,-37.109,0.000,0
182373.974,-54.688,-16.602,-26.367,-39.062,0.000,0
182373.978,-41.992,-14.160,-24.902,-28.809,0.000,0
182373.981,-33.203,-1.465,-14.648,-13.672,0.000,0
182373.985,-40.527,-5.859,-26.367,-20.020,0.000,0
182373.989,-46.387,-17.578,-40.039,-42.480,0.000,0
182373.993,-49.805,-20.996,-39.551,-52.734,0.000,0
182373.997,-53.711,-17.090,-23.438,-41.016,0.000,0
182374.001,-55.664,-5.859,-10.254,-27.832,0.000,0
182374.005,-60.059,-12.695,-36.133,-34.668,0.000,0
182374.009,-61.523,-24.902,-42.480,-47.852,0.000,0
182374.013,-64.941,-24.902,-34.668,-37.109,0.000,0
182374.017,-75.684,-27.344,-38.086,-43.457,0.000,0
182374.020,-86.426,-36.133,-40.527,-56.641,0.000,0
182374.024,-62.012,-23.926,-32.227,-29.297,0.000,0
182374.028,-43.945,-6.348,-21.973,-13.184,0.000,0
182374.032,-73.730,-25.391,-40.039,-27.832,0.000,0
182374.036,-86.914,-33.691,-50.293,-29.297,0.000,0
182374.040,-58.105,-31.250,-45.898,-14.160,0.000,0
182374.044,-41.504,-34.668,-45.410,-14.160,0.000,0
182374.048,-56.641,-31.738,-39.551,-28.320,0.000,0
182374.052,-56.152,-23.926,-34.668,-36.621,0.000,0
182374.056,-39.062,-15.625,-30.273,-19.531,0.000,0
182374.060,-27.832,-20.508,-27.344,11.230,0.000,0
182374.063,-46.875,-27.832,-38.574,-8.301,0.000,0
182374.067,-52.734,-19.043,-35.645,-38.086,0.000,0
182374.071,-32.227,-14.648,-24.414,-11.719,0.000,0
182374.075,-27.344,-17.090,-26.855,8.301,0.000,0
182374.079,-35.156,-15.625,-35.645,-9.766,0.000,0
182374.083,-43.457,-17.578,-30.762,-24.902,0.000,0
182374.087,-52.246,-30.273,-41.992,-37.109,0.000,0
182374.091,-42.480,-22.949,-41.992,-30.273,0.000,0
182374.095,-29.297,-11.719,-24.902,-31.250,0.000,0
182374.099,-37.109,-11.230,-26.855,-41.504,0.000,0
182374.103,-47.852,-20.020,-41.016,-54.199,0.000,0
182374.106,-38.574,-25.879,-53.223,-56.641,0.000,0
182374.110,-34.180,-19.531,-43.945,-48.340,0.000,0
182374.114,-40.527,-21.973,-36.133,-51.758,0.000,0
182374.118,-39.551,-19.531,-34.180,-54.688,0.000,0
182374.122,-25.879,-13.184,-24.414,-43.945,0.000,0
182374.126,-19.531,-20.996,-22.949,-41.504,0.000,0
182374.130,-26.367,-23.438,-32.715,-51.758,0.000,0
182374.134,-47.852,-31.738,-56.641,-56.152,0.000,0
182374.138,-51.758,-33.203,-55.664,-47.363,0.000,0
182374.142,-20.020,-18.555,-29.297,-8.789,0.000,0
182374.145,-17.578,-17.090,-23.926,-3.906,0.000,0
182374.149,-42.480,-24.414,-35.156,-35.156,0.000,0
182374.153,-40.527,-26.855,-38.086,-28.809,0.000,0
182374.157,-22.949,-26.367,-34.668,-8.301,0.000,0
182374.161,-33.203,-31.250,-38.574,-12.207,0.000,0
182374.165,-46.387,-29.297,-47.363,-32.715,0.000,0
182374.169,-44.434,-28.809,-46.387,-41.016,0.000,0
182374.173,-32.715,-29.297,-34.180,-20.996,0.000,0
182374.177,-25.879,-26.855,-31.250,-10.254,0.000,0
182374.181,-24.414,-25.879,-34.180,-14.648,0.000,0
182374.185,-11.719,-14.648,-18.066,-12.695,0.000,0
182374.188,-26.855,-21.484,-27.832,-32.227,0.000,0
182374.192,-41.992,-30.762,-41.504,-45.898,0.000,0
182374.196,-30.273,-25.391,-33.203,-41.504,0.000,0
182374.200,-37.598,-20.020,-33.203,-46.875,0.000,0
182374.204,-53.223,-25.879,-35.645,-72.754,0.000,0
182374.208,-46.875,-30.762,-36.133,-77.148,0.000,0
182374.212,-28.320,-12.207,-24.414,-44.922,0.000,0
182374.216,-26.855,-9.277,-13.672,-45.898,0.000,0
182374.220,-38.574,-27.832,-25.391,-60.059,0.000,0
182374.224,-41.016,-32.227,-43.945,-62.500,0.000,0
182374.228,-48.828,-27.832,-44.922,-47.852,0.000,0
182374.231,-57.617,-28.320,-37.598,-52.734,0.000,0
182374.235,-52.246,-21.973,-36.133,-62.012,0.000,0
182374.239,-46.875,-19.043,-38.574,-42.480,0.000,0
182374.243,-32.715,-12.207,-26.855,-27.832,0.000,0
182374.247,-22.949,-1.953,-12.695,-19.531,0.000,0
182374.251,-22.461,-7.812,-22.461,-20.996,0.000,0
182374.255,-25.879,-16.602,-28.809,-34.668,0.000,0
182374.259,-26.855,-22.949,-30.273,-26.367,0.000,0
182374.263,-25.391,-23.926,-25.879,-29.297,0.000,0
182374.267,-21.973,-7.812,-10.254,-35.156,0.000,0
182374.270,-21.484,-13.184,-16.113,-27.832,0.000,0
182374.274,-28.809,-26.855,-30.273,-21.973,0.000,0
182374.278,-28.320,-22.949,-26.367,-15.137,0.000,0
182374.282,-36.133,-22.949,-27.344,-35.645,0.000,0
182374.286,-34.668,-19.531,-35.156,-36.621,0.000,0
182374.290,-25.391,-20.996,-35.156,-7.812,0.000,0
182374.294,-28.809,-16.113,-26.367,-2.930,0.000,0
182374.298,-46.875,-22.461,-32.227,-24.414,0.000,0
182374.302,-54.199,-26.367,-36.621,-31.738,0.000,0
182374.306,-31.250,-7.812,-16.113,-6.836,0.000,0
182374.310,-24.414,-7.812,-12.695,3.418,0.000,0
182374.313,-36.621,-18.555,-27.344,-20.996,0.000,0
182374.317,-44.922,-19.043,-32.227,-54.199,0.000,0
182374.321,-32.227,-6.836,-16.113,-42.969,0.000,0
182374.325,-24.414,-7.812,-14.160,-28.809,0.000,0
182374.329,-30.762,-17.090,-31.250,-35.156,0.000,0
182374.333,-26.855,-9.277,-24.414,-37.598,0.000,0
182374.337,-40.527,-13.672,-24.414,-44.922,0.000,0
182374.341,-45.410,-27.344,-41.992,-49.805,0.000,0
182374.345,-27.344,-31.738,-41.016,-49.316,0.000,0
182374.349,-40.039,-20.020,-27.344,-51.758,0.000,0
182374.353,-41.016,-13.184,-25.879,-47.363,0.000,0
182374.356,-29.297,-22.949,-34.668,-34.180,0.000,0
182374.360,-48.828,-25.879,-39.551,-23.438,0.000,0
182374.364,-64.941,-13.672,-23.926,-22.949,0.000,0
182374.368,-68.359,-16.113,-22.461,-30.273,0.000,0
182374.372,-59.570,-21.484,-27.344,-14.648,0.000,0
182374.376,-54.688,-20.996,-31.738,-1.953,0.000,0
182374.380,-52.734,-13.672,-35.645,-1.465,0.000,0
182374.384,-38.574,-2.441,-30.273,2.441,0.000,0
182374.388,-37.598,-7.812,-29.297,4.395,0.000,0
182374.392,-29.297,-13.184,-21.484,11.230,0.000,0
182374.395,-32.227,-22.949,-29.785,-10.742,0.000,0
182374.399,-52.246,-30.762,-39.062,-49.805,0.000,0
182374.403,-30.273,-8.301,-19.043,-34.180,0.000,0
182374.407,-16.602,-3.418,-18.066,-14.648,0.000,0
182374.411,-32.715,-14.648,-32.227,-21.973,0.000,0
182374.415,-33.691,-8.301,-15.137,-27.344,0.000,0
182374.419,-36.621,-17.578,-4.883,-33.203,0.000,0
182374.423,-52.734,-33.691,-26.367,-27.344,0.000,0
182374.427,-52.246,-26.855,-30.762,-26.855,0.000,0
182374.431,-43.457,-24.902,-25.391,-30.762,0.000,0
182374.435,-46.875,-29.785,-28.809,-24.414,0.000,0
182374.438,-49.316,-32.715,-31.250,-25.879,0.000,0
182374.442,-47.363,-38.086,-33.691,-40.039,0.000,0
182374.446,-51.270,-36.133,-40.527,-41.992,0.000,0
182374.450,-51.270,-26.367,-35.645,-38.086,0.000,0
182374.454,-37.109,-22.461,-18.555,-30.762,0.000,0
182374.458,-43.945,-28.320,-16.602,-47.852,0.000,0
182374.462,-53.711,-36.133,-35.156,-62.500,0.000,0
182374.466,-40.527,-27.344,-33.691,-50.293,0.000,0
182374.470,-29.297,-20.996,-28.320,-37.109,0.000,0
182374.474,-25.391,-20.508,-29.297,-34.668,0.000,0
182374.478,-27.832,-19.531,-20.996,-37.109,0.000,0
182374.481,-46.387,-15.137,-26.367,-41.016,0.000,0
182374.485,-48.828,-22.949,-39.551,-38.574,0.000,1
182374.489,-22.949,-21.973,-20.996,-20.508,0.000,0
182374.493,-12.695,-12.207,-12.695,-3.906,0.000,0
182374.497,-39.062,-23.926,-28.320,-23.438,0.000,0
182374.501,-50.293,-26.855,-25.391,-35.645,0.000,0
182374.505,-30.762,-14.160,-22.949,-16.602,0.000,0
182374.509,-30.762,-15.137,-25.879,-6.348,0.000,0
182374.513,-51.270,-15.625,-23.926,-5.371,0.000,0
182374.517,-66.406,-15.625,-26.855,-20.996,0.000,0
182374.520,-67.871,-20.020,-29.297,-24.902,0.000,0
182374.524,-57.617,-12.695,-22.461,1.953,0.000,0
182374.528,-63.477,-6.836,-19.531,2.930,0.000,0
182374.532,-66.895,-5.371,-12.695,-8.301,0.000,0
182374.536,-53.711,-11.719,-21.484,-0.488,0.000,0
182374.540,-48.340,-20.508,-37.109,2.930,0.000,0
182374.544,-50.781,-20.508,-28.320,-4.395,0.000,0
182374.548,-49.805,-17.578,-21.484,-9.766,0.000,0
182374.552,-42.480,-18.555,-18.555,9.277,0.000,0
182374.556,-33.691,-19.531,-16.602,13.184,0.000,0
182374.560,-31.738,-19.043,-16.602,-2.441,0.000,0
182374.563,-42.480,-17.578,-19.531,-2.441,0.000,0
182374.567,-57.617,-22.461,-27.832,-11.719,0.000,0
182374.571,-55.664,-17.578,-33.203,-9.766,0.000,0
182374.575,-46.387,-15.137,-25.391,-2.441,0.000,0
182374.579,-45.898,-18.066,-21.973,-33.203,0.000,0
182374.583,-46.875,-13.184,-20.020,-41.504,0.000,0
182374.587,-44.922,-12.695,-18.555,-31.738,0.000,0
182374.591,-41.016,-13.672,-18.066,-21.484,0.000,0
182374.595,-51.758,-22.949,-25.879,-38.086,0.000,0
182374.599,-66.406,-30.762,-30.762,-67.383,0.000,0
182374.603,-62.500,-31.738,-40.039,-57.129,0.000,0
182374.606,-41.016,-21.973,-35.645,-41.992,0.000,0
182374.610,-38.086,-14.648,-19.531,-39.062,0.000,0
182374.614,-49.316,-12.695,-22.949,-39.551,0.000,0
182374.618,-45.410,-12.207,-21.484,-52.246,0.000,0
182374.622,-35.156,-20.020,-28.809,-45.898,0.000,0
182374.626,-39.551,-31.250,-42.480,-39.062,0.000,0
182374.630,-44.434,-31.738,-39.551,-44.434,0.000,0
182374.634,-40.039,-25.391,-36.133,-42.969,0.000,0
182374.638,-31.250,-20.508,-23.438,-36.621,0.000,0
182374.642,-12.207,-11.719,-6.836,-13.184,0.000,0
182374.645,-14.648,-8.301,-3.906,-13.184,0.000,0
182374.649,-26.367,-16.602,-19.043,-25.391,0.000,0
182374.653,-16.113,-16.602,-22.949,-0.488,0.000,0
182374.657,-22.949,-19.531,-20.020,-11.230,0.000,0
182374.661,-38.574,-25.879,-34.668,-30.273,0.000,0
182374.665,-41.992,-19.531,-28.320,-14.648,0.000,0
182374.669,-37.109,-18.066,-9.766,-3.906,0.000,0
182374.673,-31.738,-30.762,-18.066,-10.254,0.000,0
182374.677,-29.785,-23.438,-17.090,-4.395,0.000,0
182374.681,-43.945,-16.602,-25.391,-5.859,0.000,0
182374.685,-44.922,-19.531,-34.180,-19.531,0.000,0
182374.688,-25.879,-17.578,-22.461,-9.277,0.000,0
182374.692,-26.855,-21.973,-36.621,-3.906,0.000,0
182374.696,-32.715,-21.484,-35.645,-20.020,0.000,0
182374.700,-22.461,-13.672,-23.438,-30.273,0.000,0
182374.704,-8.789,0.488,-11.719,-4.883,0.000,0
182374.708,-11.230,1.465,-2.930,2.441,0.000,0
182374.712,-27.344,-13.184,-16.602,-15.137,0.000,0
182374.716,-43.457,-22.949,-22.949,-29.785,0.000,0
182374.720,-39.551,-26.367,-28.320,-33.691,0.000,0
182374.724,-8.789,-12.207,-20.508,-4.395,0.000,0
182374.728,-1.465,-14.160,-15.625,1.953,0.000,0
182374.731,-20.996,-28.320,-20.508,-16.602,0.000,0
182374.735,-22.461,-22.949,-28.809,-11.230,0.000,0
182374.739,-18.555,-20.020,-24.414,-0.488,0.000,0
182374.743,-15.625,-19.531,-9.766,9.277,0.000,0
182374.747,-14.648,-11.230,-1.465,5.371,0.000,0
182374.751,-22.461,-18.066,-17.578,-17.578,0.000,0
182374.755,-19.043,-27.344,-27.832,-20.020,0.000,0
182374.759,-2.441,-23.438,-14.648,-19.531,0.000,0
182374.763,-3.418,-18.555,-14.160,-26.855,0.000,0
182374.767,-3.906,-12.207,-11.719,-12.695,0.000,0
182374.770,13.184,-7.324,-6.836,4.395,0.000,0
182374.774,26.855,-3.418,-5.371,6.348,0.000,0
182374.778,14.648,-11.719,-14.160,0.977,0.000,0
182374.782,0.000,-14.160,-17.090,-1.953,0.000,0
182374.786,2.441,-5.859,-14.160,0.488,0.000,0
182374.790,0.000,-10.742,-28.809,5.859,0.000,0
182374.794,-8.301,-10.742,-16.113,-2.441,0.000,0
182374.798,-29.785,-11.719,-18.066,-24.902,0.000,0
182374.802,-27.344,-12.695,-20.020,-15.625,0.000,0
182374.806,-14.648,-18.555,-9.277,9.766,0.000,0
182374.810,-23.438,-18.066,-9.766,-1.465,0.000,0
182374.813,-36.133,-19.043,-15.137,-25.391,0.000,0
182374.817,-40.039,-25.879,-20.020,-25.879,0.000,0
182374.821,-24.414,-24.902,-20.020,-5.371,0.000,0
182374.825,-21.484,-29.785,-27.832,-12.207,0.000,0
182374.829,-28.809,-29.297,-31.250,-23.926,0.000,0
182374.833,-20.508,-19.043,-16.113,-24.902,0.000,0
182374.837,-0.488,-13.672,-8.789,-22.461,0.000,0
182374.841,-2.930,-16.602,-16.602,-17.090,0.000,0
182374.845,-22.949,-20.996,-22.461,-24.902,0.000,0
182374.849,-23.926,-22.461,-31.250,-36.621,0.000,0
182374.853,-19.531,-22.949,-29.785,-34.180,0.000,0
182374.856,-10.254,-19.043,-27.344,-18.555,0.000,0
182374.860,-4.395,-9.766,-17.090,-1.465,0.000,0
182374.864,-7.812,-4.883,-18.066,-18.066,0.000,0
182374.868,-15.137,-11.719,-15.137,-23.926,0.000,0
182374.872,-13.184,-11.230,0.000,-6.836,0.000,0
182374.876,-14.160,-22.461,-26.855,-14.648,0.000,0
182374.880,-19.531,-27.344,-39.062,-18.066,0.000,0
182374.884,-15.137,-13.184,-18.555,-20.508,0.000,0
182374.888,-9.277,-2.441,-5.371,-12.207,0.000,0
182374.892,-8.301,-13.184,-14.160,-5.859,0.000,0
182374.895,-15.625,-24.902,-28.320,-27.832,0.000,0
182374.899,-20.020,-20.020,-28.320,-39.062,0.000,0
182374.903,-15.625,-23.926,-30.762,-37.109,0.000,0
182374.907,-2.930,-16.602,-25.879,-14.648,0.000,0
182374.911,0.000,-10.254,-20.508,-14.648,0.000,0
182374.915,-10.742,-16.602,-23.926,-32.227,0.000,0
182374.919,-8.789,-17.578,-32.715,-15.625,0.000,0
182374.923,5.859,-16.113,-31.738,-7.324,0.000,0
182374.927,-2.441,-15.625,-19.043,-23.926,0.000,0
182374.931,-19.531,-12.695,-17.090,-35.645,0.000,0
182374.935,-25.391,-20.020,-26.855,-32.715,0.000,0
182374.938,-20.996,-22.461,-30.273,-21.484,0.000,0
182374.942,-21.484,-20.020,-34.668,-22.461,0.000,0
182374.946,-38.086,-26.367,-41.504,-35.645,0.000,0
182374.950,-30.273,-19.531,-25.879,-30.762,0.000,0
182374.954,-14.648,-20.508,-26.367,-18.555,0.000,0
182374.958,-24.414,-26.855,-27.832,-16.602,0.000,0
182374.962,-31.250,-25.879,-22.461,-27.344,0.000,0
182374.966,-25.391,-28.809,-24.414,-39.551,0.000,0
182374.970,-9.766,-19.531,-17.090,-24.414,0.000,0
182374.974,-2.930,-12.695,-15.625,-11.719,0.000,0
182374.978,-17.578,-23.438,-35.645,-25.391,0.000,0
182374.981,-19.043,-24.902,-35.645,-26.855,0.000,0
182374.985,-7.812,-28.809,-34.668,-14.160,0.000,0
182374.989,-0.977,-26.367,-36.133,-9.766,0.000,0
182374.993,-10.254,-23.438,-23.438,-24.902,0.000,0
182374.997,-12.207,-25.879,-20.508,-35.645,0.000,0
182375.001,0.000,-19.531,-19.043,-26.855,0.000,0
182375.005,12.207,-3.418,-7.324,-2.441,0.000,0
182375.009,11.719,1.953,-2.930,-3.906,0.000,0
182375.013,-12.207,-21.973,-33.203,-46.875,0.000,0
182375.017,-26.367,-36.621,-56.641,-55.664,0.000,0
182375.020,-16.602,-28.320,-51.270,-30.273,0.000,0
182375.024,-8.789,-18.066,-31.250,-19.043,0.000,0
182375.028,-16.113,-18.555,-24.902,-29.297,0.000,0
182375.032,-26.367,-27.344,-37.598,-34.668,0.000,0
182375.036,-19.043,-23.438,-39.551,-14.648,0.000,0
182375.040,-8.789,-20.020,-33.203,-12.207,0.000,0
182375.044,-12.207,-27.832,-36.133,-33.691,0.000,0
182375.048,-10.742,-29.297,-39.551,-39.062,0.000,0
182375.052,-7.324,-30.762,-35.156,-21.484,0.000,0
182375.056,-2.930,-35.156,-37.598,-15.625,0.000,0
182375.060,-3.418,-34.180,-43.457,-22.949,0.000,0
182375.063,-10.742,-27.344,-33.691,-21.484,0.000,0
182375.067,-24.414,-30.273,-32.227,-30.762,0.000,0
182375.071,-11.719,-30.762,-32.715,-24.902,0.000,0
182375.075,-5.371,-28.809,-35.156,-18.555,0.000,0
182375.079,-19.531,-33.203,-41.992,-34.668,0.000,0
182375.083,-5.859,-22.949,-40.039,-23.926,0.000,0
182375.087,8.789,-10.254,-28.320,-7.812,0.000,0
182375.091,2.930,-15.137,-24.902,-20.020,0.000,0
182375.095,-5.859,-15.137,-27.344,-20.508,0.000,0
182375.099,-10.254,-21.973,-31.738,-20.508,0.000,0
182375.103,4.883,-19.043,-22.949,-15.137,0.000,0
182375.106,10.742,-16.602,-15.625,-9.277,0.000,0
182375.110,-8.301,-28.809,-24.414,-28.320,0.000,0
182375.114,-6.836,-21.973,-17.578,-30.273,0.000,0
182375.118,8.789,-19.043,-16.602,-3.418,0.000,1
182375.122,13.672,-24.902,-27.832,9.766,0.000,0
182375.126,0.000,-26.855,-36.133,-5.371,0.000,0
182375.130,-8.789,-22.461,-31.738,-24.902,0.000,0
182375.134,2.441,-11.230,-21.973,-17.090,0.000,0
182375.138,12.695,-10.742,-21.973,7.324,0.000,0
182375.142,-2.930,-26.367,-30.273,-18.555,0.000,0
182375.145,-20.020,-36.133,-35.645,-38.086,0.000,0
182375.149,-9.766,-24.902,-23.926,-26.367,0.000,0
182375.153,5.371,-17.578,-13.184,-14.648,0.000,0
182375.157,5.859,-23.926,-18.555,-14.648,0.000,0
182375.161,-14.648,-33.691,-33.691,-30.762,0.000,0
182375.165,-8.301,-27.344,-23.926,-31.738,0.000,0
182375.169,13.184,-19.043,-8.789,-22.461,0.000,0
182375.173,9.766,-24.902,-28.809,-16.602,0.000,0
182375.177,-3.418,-33.691,-38.086,-22.461,0.000,0
182375.181,11.230,-28.809,-20.996,-7.324,0.000,0
182375.185,21.484,-12.695,-5.859,23.438,0.000,0
182375.188,0.000,-19.043,-11.719,-0.488,0.000,0
182375.192,-18.066,-29.297,-25.879,-20.508,0.000,0
182375.196,-37.598,-36.133,-36.621,-29.297,0.000,0
182375.200,-43.945,-27.832,-23.926,-37.109,0.000,0
182375.204,-25.391,-10.742,-8.789,-11.230,0.000,0
182375.208,-8.789,-6.836,-10.254,-7.324,0.000,0
182375.212,-23.438,-13.184,-16.602,-22.461,0.000,0
182375.216,-23.438,-17.578,-20.508,-24.414,0.000,0
182375.220,-8.789,-19.531,-24.414,-16.113,0.000,0
182375.224,-4.883,-14.648,-21.973,-3.418,0.000,0
182375.228,-2.930,-16.602,-16.602,-18.066,0.000,0
182375.231,1.953,-17.090,-16.113,-21.973,0.000,0
182375.235,25.391,-12.695,-10.742,8.301,0.000,0
182375.239,27.832,-25.879,-13.184,5.371,0.000,0
182375.243,-11.719,-35.645,-20.508,-32.715,0.000,0
182375.247,-13.184,-34.668,-15.625,-42.969,0.000,0
182375.251,14.160,-28.320,-15.137,-11.719,0.000,0
182375.255,6.348,-27.832,-24.414,-2.441,0.000,0
182375.259,-6.836,-29.297,-19.043,-21.484,0.000,0
182375.263,-15.137,-34.668,-21.484,-38.086,0.000,0
182375.267,-5.859,-26.367,-20.508,-23.438,0.000,0
182375.270,14.648,-15.625,-11.719,2.441,0.000,0
182375.274,4.395,-22.461,-19.043,-6.836,0.000,0
182375.278,-14.160,-25.879,-21.484,-29.785,0.000,0
182375.282,-16.602,-20.996,-25.879,-24.414,0.000,0
182375.286,-3.418,-20.508,-20.020,-10.254,0.000,0
182375.290,-7.812,-32.715,-20.996,-25.391,0.000,0
182375.294,-13.672,-36.621,-32.715,-22.949,0.000,0
182375.298,-7.324,-35.156,-30.273,-11.719,0.000,0
182375.302,-1.465,-33.203,-27.832,-7.812,0.000,0
182375.306,-5.859,-34.180,-29.785,-8.301,0.000,0
182375.310,-9.277,-34.668,-27.344,-11.230,0.000,0
182375.313,-11.719,-29.297,-16.113,-4.883,0.000,0
182375.317,-13.184,-33.203,-15.137,-12.695,0.000,0
182375.321,1.465,-31.738,-10.742,-1.465,0.000,0
182375.325,-5.859,-30.273,-15.625,0.000,0.000,0
182375.329,-26.367,-40.039,-37.109,-37.598,0.000,0
182375.333,-22.461,-44.434,-46.875,-41.016,0.000,0
182375.337,-10.742,-44.922,-33.691,-30.762,0.000,0
182375.341,-3.906,-36.621,-23.926,-30.273,0.000,0
182375.345,4.395,-24.414,-22.461,-23.438,0.000,0
182375.349,5.371,-19.043,-15.625,-19.531,0.000,0
182375.353,3.418,-26.855,-19.531,-17.090,0.000,0
182375.356,5.859,-34.180,-20.020,-12.695,0.000,0
182375.360,0.000,-31.250,-20.508,-14.648,0.000,0
182375.364,-12.207,-28.320,-23.438,-23.926,0.000,0
182375.368,-5.371,-29.785,-20.996,-20.996,0.000,0
182375.372,1.465,-35.645,-26.367,-12.695,0.000,0
182375.376,-17.090,-42.480,-43.945,-25.879,0.000,0
182375.380,-23.926,-34.668,-34.668,-29.297,0.000,0
182375.384,-13.184,-28.809,-18.555,-14.160,0.000,0
182375.388,-5.371,-28.320,-19.531,-7.324,0.000,0
182375.392,-7.812,-22.461,-20.020,-8.789,0.000,0
182375.395,-16.113,-23.438,-29.297,-21.973,0.000,0
182375.399,-20.508,-30.762,-33.203,-22.949,0.000,0
182375.403,-2.930,-24.902,-27.832,-13.184,0.000,0
182375.407,4.883,-18.555,-26.855,-10.742,0.000,0
182375.411,6.836,-11.719,-13.672,-8.301,0.000,0
182375.415,1.953,-15.625,-11.719,-22.949,0.000,0
182375.419,-7.812,-28.809,-26.367,-33.203,0.000,0
182375.423,-5.371,-37.598,-36.133,-24.414,0.000,0
182375.427,-5.371,-28.809,-29.297,-20.020,0.000,0
182375.431,-6.836,-22.949,-22.461,-30.762,0.000,0
182375.435,10.254,-23.438,-17.090,-13.184,0.000,0
182375.438,12.207,-22.949,-16.602,-2.930,0.000,0
182375.442,-6.348,-23.926,-23.438,-23.926,0.000,0
182375.446,-11.719,-18.555,-16.602,-23.926,0.000,0
182375.450,-23.438,-20.996,-20.508,-16.602,0.000,0
182375.454,-22.949,-23.438,-28.320,-11.719,0.000,0
182375.458,-26.855,-29.785,-31.250,-22.461,0.000,0
182375.462,-28.320,-28.809,-30.273,-40.039,0.000,0
182375.466,-13.672,-25.879,-22.461,-32.227,0.000,0
182375.470,-18.066,-29.297,-22.949,-25.391,0.000,0
182375.474,-17.578,-33.691,-31.250,-29.297,0.000,0
182375.478,-14.160,-38.086,-31.250,-30.762,0.000,0
182375.481,-12.207,-32.227,-27.344,-26.855,0.000,0
182375.485,8.301,-25.391,-20.020,-17.578,0.000,0
182375.489,14.648,-32.227,-26.855,-13.184,0.000,0
182375.493,8.301,-26.855,-22.461,-14.648,0.000,0
182375.497,1.465,-16.602,-11.719,-10.742,0.000,0
182375.501,5.371,-22.461,-12.207,2.441,0.000,0
182375.505,8.301,-28.809,-13.184,-8.301,0.000,0
182375.509,-10.742,-35.156,-32.715,-28.320,0.000,0
182375.513,-27.344,-40.039,-41.504,-36.621,0.000,0
182375.517,-23.438,-30.273,-23.926,-33.203,0.000,0
182375.520,-13.184,-30.762,-26.367,-14.160,0.000,0
182375.524,-7.324,-27.832,-25.879,-15.625,0.000,0
182375.528,-5.859,-19.043,-18.066,-16.602,0.000,0
182375.532,-1.953,-19.531,-12.695,-14.160,0.000,0
182375.536,7.324,-20.508,-25.391,-3.906,0.000,0
182375.540,6.836,-28.320,-41.504,2.930,0.000,0
182375.544,-8.301,-38.574,-34.668,-35.156,0.000,0
182375.548,-0.488,-27.832,-17.090,-36.621,0.000,0
182375.552,21.484,-13.184,-2.930,-5.371,0.000,0
182375.556,25.879,-17.578,-9.766,-13.184,0.000,0
182375.560,4.395,-24.902,-18.066,-24.902,0.000,0
182375.563,-13.184,-36.621,-23.926,-46.875,0.000,0
182375.567,-2.930,-35.645,-26.855,-47.363,0.000,0
182375.571,10.742,-33.203,-23.926,-21.973,0.000,0
182375.575,10.742,-35.156,-15.137,-21.484,0.000,0
182375.579,-10.742,-39.551,-15.625,-29.297,0.000,0
182375.583,-4.395,-36.133,-14.648,-29.785,0.000,0
182375.587,24.414,-14.648,6.348,0.000,0.000,0
182375.591,27.344,-12.695,11.230,21.973,0.000,0
182375.595,9.277,-30.273,-10.742,0.000,0.000,0
182375.599,-1.953,-34.668,-25.879,-11.719,0.000,0
182375.603,14.160,-33.691,-11.719,5.371,0.000,0
182375.606,24.414,-29.297,3.418,14.160,0.000,0
182375.610,19.043,-27.832,-8.789,-2.441,0.000,0
182375.614,13.184,-29.297,-20.996,-16.113,0.000,0
182375.618,19.043,-27.832,-13.672,1.953,0.000,0
182375.622,26.855,-29.297,-6.836,-12.695,0.000,0
182375.626,19.531,-29.785,-15.137,-37.598,0.000,0
182375.630,21.973,-22.461,-11.230,-24.902,0.000,0
182375.634,20.020,-23.926,-19.531,-21.484,0.000,0
182375.638,9.277,-28.320,-19.531,-19.531,0.000,0
182375.642,13.184,-24.414,-4.883,-22.461,0.000,0
182375.645,12.695,-19.043,-4.395,-19.043,0.000,0
182375.649,11.230,-11.230,-7.812,0.977,0.000,0
182375.653,8.789,-14.648,-9.277,15.625,0.000,0
182375.657,5.859,-27.832,-17.090,2.441,0.000,0
182375.661,-2.930,-25.391,-13.672,-14.648,0.000,0
182375.665,-22.461,-30.762,-15.137,-32.227,0.000,0
182375.669,-10.254,-31.738,-18.066,-19.531,0.000,0
182375.673,3.906,-26.855,-16.602,-11.719,0.000,0
182375.677,-4.395,-30.762,-20.996,-20.508,0.000,0
182375.681,5.371,-22.949,-11.719,-18.066,0.000,0
182375.685,17.090,-18.555,-6.348,-17.090,0.000,0
182375.688,24.902,-16.602,-10.742,-4.395,0.000,0
182375.692,21.484,-17.090,-16.602,-5.859,0.000,0
182375.696,-0.488,-21.484,-18.066,-23.926,0.000,0
182375.700,-5.371,-27.344,-21.484,-29.785,0.000,0
182375.704,1.465,-35.156,-23.926,-30.762,0.000,0
182375.708,3.906,-28.809,-19.043,-19.531,0.000,0
182375.712,-1.953,-26.855,-14.648,-18.066,0.000,0
182375.716,-3.418,-29.785,-13.672,-26.855,0.000,0
182375.720,3.418,-27.832,-20.508,-16.602,0.000,0
182375.724,0.977,-29.297,-19.043,-17.090,0.000,0
182375.728,-7.812,-29.297,-13.184,-26.855,0.000,0
182375.731,-5.859,-31.250,-24.414,-26.855,0.000,1
182375.735,-0.977,-33.203,-21.484,-18.555,0.000,0
182375.739,-3.906,-29.297,-15.625,-14.160,0.000,0
182375.743,-9.766,-26.855,-25.391,-28.320,0.000,0
182375.747,-7.812,-28.320,-22.461,-35.156,0.000,0
182375.751,-0.488,-30.273,-29.297,-28.320,0.000,0
182375.755,7.812,-23.926,-36.621,-15.625,0.000,0
182375.759,19.043,-11.719,-9.277,2.930,0.000,0
182375.763,18.066,-7.812,0.000,5.371,0.000,0
182375.767,15.625,-17.578,-5.859,-1.953,0.000,0
182375.770,15.625,-23.926,-13.672,-2.441,0.000,0
182375.774,0.000,-30.273,-23.438,-13.672,0.000,0
182375.778,-14.160,-31.738,-21.973,-27.832,0.000,0
182375.782,-13.672,-27.832,-15.625,-29.785,0.000,0
182375.786,-16.113,-34.668,-30.762,-22.949,0.000,0
182375.790,-17.090,-33.203,-28.809,-13.184,0.000,0
182375.794,-20.508,-33.691,-27.344,-24.902,0.000,0
182375.798,-25.391,-37.109,-35.645,-42.480,0.000,0
182375.802,-16.602,-31.250,-16.113,-33.691,0.000,0
182375.806,-7.812,-28.809,-11.230,-22.949,0.000,0
182375.810,-6.836,-31.738,-23.438,-35.156,0.000,0
182375.813,-15.625,-31.250,-24.414,-44.922,0.000,0
182375.817,-9.766,-20.996,-9.766,-33.203,0.000,0
182375.821,19.531,-8.301,6.836,-9.277,0.000,0
182375.825,12.695,-25.879,-11.719,-13.184,0.000,0
182375.829,-17.090,-42.969,-33.691,-30.273,0.000,0
182375.833,-23.438,-40.039,-35.645,-35.645,0.000,0
182375.837,-9.277,-36.621,-30.762,-22.949,0.000,0
182375.841,-8.789,-33.203,-25.879,-16.602,0.000,0
182375.845,-24.902,-33.691,-29.297,-35.645,0.000,0
182375.849,-21.484,-27.832,-15.625,-29.297,0.000,0
182375.853,-11.719,-23.926,-25.879,-19.531,0.000,0
182375.856,-8.789,-21.484,-30.762,-5.371,0.000,0
182375.860,-6.836,-20.996,-10.254,-13.672,0.000,0
182375.864,-31.250,-32.715,-20.996,-41.504,0.000,0
182375.868,-49.316,-38.574,-39.062,-38.086,0.000,0
182375.872,-36.133,-41.016,-40.039,-27.832,0.000,0
182375.876,-28.320,-30.273,-31.738,-24.414,0.000,0
182375.880,-28.320,-24.414,-28.320,-47.852,0.000,0
182375.884,-7.324,-24.902,-16.602,-51.758,0.000,0
182375.888,17.090,-18.066,-8.789,-22.949,0.000,0
182375.892,6.348,-22.949,-21.484,-21.973,0.000,0
182375.895,-3.906,-37.598,-38.574,-42.480,0.000,0
182375.899,4.395,-38.086,-30.273,-52.734,0.000,0
182375.903,7.812,-29.297,-21.973,-37.598,0.000,0
182375.907,6.836,-25.391,-21.484,-20.996,0.000,0
182375.911,0.000,-19.043,-14.160,-35.156,0.000,0
182375.915,-6.836,-16.602,-11.230,-38.574,0.000,0
182375.919,-11.719,-30.273,-28.809,-25.391,0.000,0
182375.923,-24.902,-46.387,-50.293,-28.320,0.000,0
182375.927,-33.691,-39.062,-39.062,-34.668,0.000,0
182375.931,-28.809,-23.438,-21.484,-21.973,0.000,0
182375.935,-16.602,-22.461,-20.020,-2.930,0.000,0
182375.938,-9.277,-25.879,-19.531,-6.836,0.000,0
182375.942,-20.020,-34.668,-30.762,-31.250,0.000,0
182375.946,-25.879,-37.109,-36.621,-41.504,0.000,0
182375.950,-13.184,-34.180,-33.691,-33.203,0.000,0
182375.954,4.883,-27.832,-24.902,-17.090,0.000,0
182375.958,19.043,-12.207,-12.695,-6.348,0.000,0
182375.962,14.160,-13.672,-11.719,-15.137,0.000,0
182375.966,1.953,-28.809,-27.344,-21.484,0.000,0
182375.970,-0.977,-41.016,-47.363,-21.484,0.000,0
182375.974,-2.441,-41.016,-50.293,-23.926,0.000,0
182375.978,-8.301,-35.645,-43.457,-34.180,0.000,0
182375.981,-3.418,-20.508,-18.555,-17.578,0.000,0
182375.985,11.230,-13.672,-11.230,1.465,0.000,0
182375.989,8.789,-22.949,-34.180,-3.906,0.000,0
182375.993,-9.277,-22.949,-33.203,-8.301,0.000,0
182375.997,-16.602,-25.391,-29.297,-12.207,0.000,0
182376.001,-9.277,-30.762,-26.855,-10.742,0.000,0
182376.005,5.859,-22.949,-9.766,5.859,0.000,0
182376.009,14.648,-18.555,-11.230,12.695,0.000,0
182376.013,7.324,-23.926,-26.855,-0.488,0.000,0
182376.017,12.207,-20.508,-28.320,-3.906,0.000,0
182376.020,25.879,-19.043,-29.785,3.906,0.000,0
182376.024,22.461,-24.414,-28.320,3.906,0.000,0
182376.028,13.672,-22.949,-19.043,-12.695,0.000,0
182376.032,15.137,-17.578,-16.113,-15.137,0.000,0
182376.036,20.020,-13.672,-1.953,1.953,0.000,0
182376.040,14.160,-16.602,-3.906,-4.395,0.000,0
182376.044,1.465,-26.855,-25.391,-15.137,0.000,0
182376.048,1.953,-22.949,-18.555,0.977,0.000,0
182376.052,20.020,-12.207,-3.906,24.414,0.000,0
182376.056,10.742,-22.461,-14.648,10.742,0.000,0
182376.060,-19.531,-31.738,-38.086,-21.484,0.000,0
182376.063,-22.461,-30.273,-36.133,-23.438,0.000,0
182376.067,-9.766,-28.809,-19.531,-12.695,0.000,0
182376.071,-4.395,-28.320,-12.207,-4.395,0.000,0
182376.075,11.230,-18.066,-5.371,5.371,0.000,0
182376.079,10.742,-17.578,-2.930,-6.348,0.000,0
182376.083,-11.230,-33.203,-19.043,-14.648,0.000,0
182376.087,-5.371,-32.715,-28.320,-14.160,0.000,0
182376.091,2.930,-31.250,-30.762,-24.414,0.000,0
182376.095,-5.859,-26.855,-22.461,-31.250,0.000,0
182376.099,-7.812,-19.043,-9.766,-30.273,0.000,0
182376.103,0.000,-20.020,-16.113,-16.113,0.000,0
182376.106,1.465,-28.320,-26.367,-11.230,0.000,0
182376.110,-7.812,-35.645,-27.344,-23.438,0.000,0
182376.114,-17.578,-33.203,-24.414,-30.273,0.000,0
182376.118,-11.719,-28.809,-17.578,-22.461,0.000,0
182376.122,-7.324,-27.344,-19.043,-16.602,0.000,0
182376.126,-19.531,-28.809,-27.832,-26.367,0.000,0
182376.130,-24.902,-24.902,-18.555,-36.621,0.000,0
182376.134,-22.949,-22.949,-24.902,-28.320,0.000,0
182376.138,-13.184,-25.879,-38.086,-23.926,0.000,0
182376.142,-8.301,-24.414,-30.762,-27.832,0.000,0
182376.145,-15.625,-29.297,-25.391,-40.527,0.000,0
182376.149,-15.625,-32.227,-23.926,-34.180,0.000,0
182376.153,-1.953,-32.227,-21.973,-14.648,0.000,0
182376.157,1.953,-34.180,-32.227,-25.879,0.000,0
182376.161,-4.883,-37.109,-34.668,-36.621,0.000,0
182376.165,-4.395,-31.250,-22.949,-28.320,0.000,0
182376.169,6.348,-26.367,-16.113,-13.672,0.000,0
182376.173,13.184,-27.832,-8.789,-4.395,0.000,0
182376.177,-2.441,-33.203,-20.508,-19.531,0.000,0
182376.181,-14.648,-29.297,-25.879,-18.555,0.000,0
182376.185,-10.254,-25.879,-21.484,-4.395,0.000,0
182376.188,-12.695,-35.156,-30.273,-17.090,0.000,0
182376.192,-18.066,-35.156,-33.691,-23.438,0.000,0
182376.196,-25.879,-33.203,-31.738,-35.156,0.000,0
182376.200,-18.555,-28.809,-25.879,-34.180,0.000,0
182376.204,0.488,-18.555,-17.090,-19.531,0.000,0
182376.208,3.418,-15.625,-19.531,-6.836,0.000,0
182376.212,-2.930,-22.461,-11.719,-14.160,0.000,0
182376.216,-7.812,-31.250,-16.602,-38.574,0.000,0
182376.220,-0.488,-36.133,-26.855,-20.508,0.000,0
182376.224,1.953,-35.156,-23.438,3.418,0.000,0
182376.228,-12.695,-34.668,-22.461,-16.113,0.000,0
182376.231,-22.949,-39.551,-23.926,-30.762,0.000,0
182376.235,-5.371,-31.738,-17.090,-18.066,0.000,0
182376.239,14.648,-13.672,0.977,-4.395,0.000,0
182376.243,10.254,-12.695,-10.254,-1.465,0.000,0
182376.247,-5.371,-25.391,-27.832,-24.902,0.000,0
182376.251,7.324,-11.719,-4.395,-12.695,0.000,0
182376.255,13.672,-11.230,1.465,3.906,0.000,0
182376.259,-16.113,-38.574,-30.762,-25.879,0.000,0
182376.263,-31.738,-42.969,-41.016,-37.598,0.000,0
182376.267,-22.949,-31.738,-29.297,-28.809,0.000,0
182376.270,-0.977,-21.484,-23.926,-7.812,0.000,0
182376.274,-1.465,-27.344,-25.879,-13.184,0.000,0
182376.278,-15.625,-32.227,-30.762,-38.574,0.000,0
182376.282,-12.695,-29.785,-30.762,-32.715,0.000,0
182376.286,-1.953,-23.926,-22.949,-10.254,0.000,0
182376.290,6.836,-22.461,-14.160,-0.977,0.000,0
182376.294,-1.465,-23.438,-16.602,-20.508,0.000,0
182376.298,-15.625,-21.484,-21.973,-32.227,0.000,0
182376.302,-8.789,-26.367,-28.809,-23.438,0.000,0
182376.306,1.465,-25.391,-34.180,-20.508,0.000,0
182376.310,-2.930,-17.090,-20.996,-23.438,0.000,0
182376.313,-11.230,-22.949,-11.230,-33.691,0.000,0
182376.317,-10.742,-22.949,-17.578,-39.551,0.000,0
182376.321,-7.812,-20.020,-21.484,-17.578,0.000,0
182376.325,-9.277,-26.367,-26.367,-13.672,0.000,0
182376.329,-16.113,-22.461,-21.484,-31.250,0.000,0
182376.333,-10.742,-13.184,-12.207,-25.879,0.000,0
182376.337,-5.371,-21.484,-20.508,-26.367,0.000,0
182376.341,-9.766,-32.227,-30.762,-35.645,0.000,0
182376.345,-14.648,-32.715,-41.992,-42.969,0.000,0
182376.349,-10.742,-25.391,-42.969,-30.762,0.000,0
182376.353,11.230,-17.090,-10.742,-1.465,0.000,0
182376.356,3.418,-24.414,-10.254,-5.859,0.000,0
182376.360,-8.789,-27.832,-19.043,-19.531,0.000,0
182376.364,0.488,-20.996,-14.648,-20.508,0.000,0
182376.368,3.418,-26.367,-22.461,-17.090,0.000,0
182376.372,-3.906,-29.297,-32.227,-17.578,0.000,1
182376.376,-9.277,-30.273,-37.598,-27.344,0.000,0
182376.380,-8.789,-28.809,-28.809,-37.598,0.000,0
182376.384,4.395,-12.695,-11.719,-16.113,0.000,0
182376.388,6.836,-19.043,-20.020,10.254,0.000,0
182376.392,-13.184,-31.738,-33.203,-11.719,0.000,0
182376.395,-18.555,-26.367,-22.461,-34.668,0.000,0
182376.399,-7.812,-26.855,-20.020,-24.414,0.000,0
182376.403,3.418,-32.227,-23.438,-8.301,0.000,0
182376.407,9.766,-37.109,-24.414,-17.090,0.000,0
182376.411,0.488,-38.574,-35.645,-26.367,0.000,0
182376.415,-11.719,-43.945,-48.340,-34.668,0.000,0
182376.419,3.418,-34.668,-26.367,-18.066,0.000,0
182376.423,16.113,-18.066,-11.719,1.953,0.000,0
182376.427,6.348,-23.926,-27.344,-13.184,0.000,0
182376.431,-4.883,-35.645,-27.344,-26.367,0.000,0
182376.435,-6.348,-38.574,-26.367,-31.250,0.000,0
182376.438,16.602,-26.367,-19.531,-3.418,0.000,0
182376.442,15.137,-16.113,-14.648,8.301,0.000,0
182376.446,-4.395,-17.090,-13.672,-4.395,0.000,0
182376.450,-7.324,-25.879,-18.066,-10.254,0.000,0
182376.454,-5.371,-33.691,-23.926,-12.207,0.000,0
182376.458,-6.348,-30.762,-20.996,-5.859,0.000,0
182376.462,-12.695,-31.738,-31.738,-8.789,0.000,0
182376.466,-13.672,-34.180,-35.156,-17.578,0.000,0
182376.470,-2.441,-31.738,-29.297,-3.418,0.000,0
182376.474,2.930,-30.273,-23.438,-6.348,0.000,0
182376.478,-5.859,-28.320,-28.320,-23.438,0.000,0
182376.481,-1.953,-29.785,-41.016,-25.391,0.000,0
182376.485,10.742,-30.273,-27.344,-12.207,0.000,0
182376.489,17.090,-19.531,-15.625,2.441,0.000,0
182376.493,4.883,-24.902,-27.832,-24.414,0.000,0
182376.497,-3.418,-29.785,-32.715,-39.062,0.000,0
182376.501,-1.953,-26.367,-23.438,-22.461,0.000,0
182376.505,-4.883,-31.738,-16.113,-16.602,0.000,0
182376.509,-14.160,-33.203,-22.949,-23.926,0.000,0
182376.513,-21.484,-32.227,-26.855,-44.922,0.000,0
182376.517,-13.184,-30.273,-21.973,-33.203,0.000,0
182376.520,-5.371,-30.273,-24.414,-6.836,0.000,0
182376.524,-16.113,-31.250,-23.438,-17.578,0.000,0
182376.528,-15.137,-19.043,-19.531,-20.020,0.000,0
182376.532,4.883,-6.348,-13.672,-9.277,0.000,0
182376.536,14.648,-10.742,-11.230,0.000,0.000,0
182376.540,15.137,-21.973,-24.902,-0.977,0.000,0
182376.544,4.395,-30.762,-31.738,-24.414,0.000,0
182376.548,-10.742,-37.598,-39.551,-32.715,0.000,0
182376.552,0.488,-27.344,-26.367,-21.484,0.000,0
182376.556,13.184,-21.484,-17.578,-10.254,0.000,0
182376.560,9.277,-13.672,-16.602,-8.301,0.000,0
182376.563,15.625,1.465,2.930,-7.812,0.000,0
182376.567,12.207,-7.324,-1.465,-5.371,0.000,0
182376.571,-2.930,-22.949,-19.531,-16.602,0.000,0
182376.575,-12.695,-25.879,-24.414,-20.996,0.000,0
182376.579,-27.832,-28.320,-26.855,-26.855,0.000,0
182376.583,-27.344,-35.156,-32.715,-33.203,0.000,0
182376.587,-12.695,-32.715,-27.344,-9.766,0.000,0
182376.591,-11.719,-30.762,-21.973,-5.859,0.000,0
182376.595,-22.949,-25.879,-20.508,-20.996,0.000,0
182376.599,-25.391,-26.367,-26.855,-21.484,0.000,0
182376.603,-7.324,-30.762,-35.156,-11.719,0.000,0
182376.606,5.859,-23.926,-31.738,-4.395,0.000,0
182376.610,4.883,-20.996,-28.320,-19.043,0.000,0
182376.614,0.000,-20.996,-22.949,-28.320,0.000,0
182376.618,15.137,-11.719,-7.812,-1.465,0.000,0
182376.622,23.926,-19.043,-15.625,1.953,0.000,0
182376.626,2.930,-32.715,-35.645,-25.879,0.000,0
182376.630,-4.395,-38.574,-33.691,-41.016,0.000,0
182376.634,7.324,-33.203,-24.902,-39.062,0.000,0
182376.638,7.324,-23.438,-20.996,-18.555,0.000,0
182376.642,1.953,-28.809,-29.297,-14.648,0.000,0
182376.645,-11.230,-35.645,-29.297,-36.133,0.000,0
182376.649,-15.625,-30.762,-25.879,-38.574,0.000,0
182376.653,-1.953,-25.879,-27.344,-17.578,0.000,0
182376.657,0.488,-27.344,-23.926,-12.207,0.000,0
182376.661,-11.230,-25.879,-21.973,-23.926,0.000,0
182376.665,-7.324,-17.090,-15.625,-11.719,0.000,0
182376.669,-1.953,-20.020,-20.020,5.859,0.000,0
182376.673,-6.836,-23.438,-21.484,-2.441,0.000,0
182376.677,-12.207,-17.090,-19.531,-8.301,0.000,0
182376.681,-20.996,-20.508,-43.457,-21.973,0.000,0
182376.685,-11.230,-22.949,-34.180,-23.438,0.000,0
182376.688,1.465,-19.043,-9.277,-8.789,0.000,0
182376.692,-4.883,-22.949,-14.160,-19.531,0.000,0
182376.696,-16.113,-30.762,-21.484,-42.969,0.000,0
182376.700,-16.602,-31.738,-26.367,-46.387,0.000,0
182376.704,-1.953,-28.809,-25.879,-27.344,0.000,0
182376.708,5.371,-30.273,-20.996,-20.996,0.000,0
182376.712,-15.625,-37.598,-34.668,-38.086,0.000,0
182376.716,-10.742,-23.438,-24.902,-22.461,0.000,0
182376.720,3.418,-18.555,-15.137,-8.789,0.000,0
182376.724,-3.418,-24.902,-23.926,-9.277,0.000,0
182376.728,-3.418,-20.020,-7.324,-7.812,0.000,0
182376.731,-2.930,-23.438,-9.766,-20.020,0.000,0
182376.735,-0.488,-29.785,-19.531,-20.020,0.000,0
182376.739,0.977,-35.156,-24.902,-7.812,0.000,0
182376.743,-18.066,-39.062,-34.180,-18.555,0.000,0
182376.747,-24.902,-36.621,-35.645,-35.156,0.000,0
182376.751,-18.555,-30.273,-33.203,-30.273,0.000,0
182376.755,-10.742,-20.508,-25.879,-6.836,0.000,0
182376.759,-8.789,-13.672,-15.137,-9.277,0.000,0
182376.763,-27.344,-21.484,-16.113,-27.832,0.000,0
182376.767,-32.715,-29.785,-24.414,-26.855,0.000,0
182376.770,-25.879,-36.133,-25.879,-23.926,0.000,0
182376.774,-34.180,-40.039,-28.320,-29.297,0.000,0
182376.778,-39.062,-34.668,-29.785,-29.297,0.000,0
182376.782,-25.879,-27.832,-29.297,-19.531,0.000,0
182376.786,-12.207,-22.461,-36.621,-15.137,0.000,0
182376.790,-13.672,-21.484,-26.367,-21.484,0.000,0
182376.794,-17.578,-21.973,-16.602,-28.320,0.000,0
182376.798,-17.578,-28.320,-26.367,-37.598,0.000,0
182376.802,-1.953,-34.180,-33.691,-28.809,0.000,0
182376.806,7.812,-28.809,-26.367,-21.973,0.000,0
182376.810,-9.277,-21.484,-16.113,-43.945,0.000,0
182376.813,-5.859,-13.184,-14.160,-41.016,0.000,0
182376.817,10.742,-9.766,-18.066,-21.484,0.000,0
182376.821,2.930,-17.578,-32.227,-13.672,0.000,0
182376.825,-6.836,-26.367,-40.039,-6.348,0.000,0
182376.829,-17.090,-33.203,-38.574,-32.715,0.000,0
182376.833,-18.555,-28.320,-34.668,-39.551,0.000,0
182376.837,-5.859,-21.484,-26.367,-15.625,0.000,0
182376.841,-11.719,-22.949,-27.832,-19.043,0.000,0
182376.845,-13.672,-20.508,-26.855,-19.531,0.000,0
182376.849,-3.418,-23.926,-22.949,-26.367,0.000,0
182376.853,2.441,-29.785,-23.438,-24.414,0.000,0
182376.856,6.836,-22.461,-21.484,-13.184,0.000,0
182376.860,-5.371,-24.902,-27.832,-35.156,0.000,0
182376.864,-10.742,-30.273,-39.062,-50.293,0.000,0
182376.868,-5.859,-34.180,-37.109,-40.527,0.000,0
182376.872,6.348,-32.227,-28.809,-26.855,0.000,0
182376.876,3.906,-29.297,-25.879,-27.344,0.000,0
182376.880,-4.883,-30.762,-23.926,-34.180,0.000,0
182376.884,7.324,-21.973,-16.113,-18.066,0.000,0
182376.888,22.461,-19.531,-7.812,-5.371,0.000,0
182376.892,1.953,-25.879,-15.137,-14.160,0.000,0
182376.895,-20.996,-24.414,-27.832,-26.855,0.000,0
182376.899,-6.348,-20.020,-26.855,-31.250,0.000,0
182376.903,7.812,-22.461,-26.855,-19.043,0.000,0
182376.907,2.930,-25.391,-24.414,-18.555,0.000,0
182376.911,-7.324,-22.461,-11.719,-35.156,0.000,0
182376.915,-10.742,-23.438,-12.207,-43.457,0.000,0
182376.919,-1.465,-25.879,-20.020,-33.691,0.000,0
182376.923,7.812,-17.090,-19.043,-20.020,0.000,0
182376.927,-2.441,-15.625,-17.578,-37.598,0.000,0
182376.931,-6.836,-20.996,-21.484,-44.922,0.000,0
182376.935,0.488,-19.531,-16.113,-25.879,0.000,0
182376.938,-1.465,-25.879,-16.602,-24.414,0.000,0
182376.942,0.977,-30.762,-29.297,-16.113,0.000,0
182376.946,0.977,-27.832,-19.043,-20.508,0.000,0
182376.950,0.000,-26.367,-6.836,-22.949,0.000,0
182376.954,-2.441,-25.879,-11.719,-9.766,0.000,1
182376.958,-18.555,-24.414,-16.602,-19.531,0.000,0
182376.962,-21.484,-21.484,-27.344,-36.133,0.000,0
182376.966,-9.766,-26.367,-33.691,-32.227,0.000,0
182376.970,5.371,-25.879,-25.391,-4.395,0.000,0
182376.974,7.812,-22.461,-16.602,-5.371,0.000,0
182376.978,-0.488,-20.996,-19.043,-23.438,0.000,0
182376.981,-2.441,-21.484,-22.461,-21.973,0.000,0
182376.985,9.277,-17.578,-17.090,-8.301,0.000,0
182376.989,6.836,-23.438,-25.879,-12.695,0.000,0
182376.993,-17.090,-35.156,-33.203,-28.809,0.000,0
182376.997,-15.137,-31.738,-30.273,-32.227,0.000,0
182377.001,8.789,-24.414,-27.344,-16.113,0.000,0
182377.005,18.555,-22.461,-18.066,-2.441,0.000,0
182377.009,13.672,-21.484,-15.625,-12.207,0.000,0
182377.013,-1.953,-24.902,-17.578,-25.879,0.000,0
182377.017,7.324,-21.973,-14.648,0.977,0.000,0
182377.020,14.648,-24.414,-17.090,16.602,0.000,0
182377.024,0.488,-29.785,-24.414,-4.883,0.000,0
182377.028,-11.230,-27.344,-29.297,-17.578,0.000,0
182377.032,-12.695,-19.531,-18.066,0.488,0.000,0
182377.036,0.000,-20.020,-11.230,11.230,0.000,0
182377.040,-4.883,-25.879,-20.508,-9.766,0.000,0
182377.044,-26.855,-27.832,-23.438,-32.227,0.000,0
182377.048,-20.020,-26.855,-27.344,-21.484,0.000,0
182377.052,-0.488,-25.391,-26.367,1.465,0.000,0
182377.056,-5.859,-27.832,-28.809,-4.883,0.000,0
182377.060,-5.859,-23.926,-31.738,-6.836,0.000,0
182377.063,-5.859,-22.461,-17.578,-13.184,0.000,0
182377.067,6.348,-24.902,-9.277,-10.254,0.000,0
182377.071,9.277,-23.926,-20.508,7.324,0.000,0
182377.075,-4.883,-32.227,-30.273,-7.812,0.000,0
182377.079,-9.277,-34.668,-27.832,-21.484,0.000,0
182377.083,-6.348,-36.621,-37.109,-12.695,0.000,0
182377.087,9.766,-30.273,-28.320,1.465,0.000,0
182377.091,13.672,-20.996,-22.949,0.488,0.000,0
182377.095,-7.812,-28.320,-34.180,-19.043,0.000,0
182377.099,-3.418,-28.809,-35.156,-14.160,0.000,0
182377.103,13.184,-32.227,-29.785,2.441,0.000,0
182377.106,0.000,-35.156,-24.414,-5.859,0.000,0
182377.110,0.000,-26.367,-24.414,-13.184,0.000,0
182377.114,4.883,-23.438,-32.715,-7.812,0.000,0
182377.118,5.859,-16.602,-29.297,0.977,0.000,0
182377.122,5.371,-21.484,-26.855,-3.906,0.000,0
182377.126,-9.766,-28.809,-27.344,-20.996,0.000,0
182377.130,-18.066,-31.738,-27.832,-27.344,0.000,0
182377.134,-14.648,-35.645,-32.715,-13.672,0.000,0
182377.138,-9.766,-27.832,-30.273,-6.836,0.000,0
182377.142,-20.996,-21.973,-23.926,-20.020,0.000,0
182377.145,-26.855,-28.320,-26.367,-28.320,0.000,0
182377.149,-15.625,-27.832,-34.668,-12.695,0.000,0
182377.153,-6.836,-29.785,-28.320,-8.301,0.000,0
182377.157,-8.301,-30.273,-20.508,-7.324,0.000,0
182377.161,-13.672,-24.902,-20.996,-16.602,0.000,0
182377.165,-19.043,-28.320,-28.809,-25.391,0.000,0
182377.169,-14.648,-27.832,-28.809,-5.371,0.000,0
182377.173,6.348,-10.742,-10.254,19.531,0.000,0
182377.177,-2.930,-11.719,-12.695,3.418,0.000,0
182377.181,-21.484,-34.180,-27.344,-21.484,0.000,0
182377.185,-16.602,-41.016,-25.391,-18.066,0.000,0
182377.188,-8.789,-31.738,-26.367,-3.906,0.000,0
182377.192,-14.160,-26.367,-32.227,-5.371,0.000,0
182377.196,-26.367,-27.832,-29.785,-11.230,0.000,0
182377.200,-20.020,-38.574,-34.180,-2.441,0.000,0
182377.204,-9.277,-35.156,-28.320,-7.812,0.000,0
182377.208,-0.488,-16.113,-8.301,7.324,0.000,0
182377.212,2.930,-13.672,-1.953,11.230,0.000,0
182377.216,-5.371,-30.273,-14.160,-8.301,0.000,0
182377.220,-8.789,-41.504,-30.273,-14.648,0.000,0
182377.224,-6.836,-31.250,-19.531,-19.531,0.000,0
182377.228,-6.348,-18.066,-9.766,-17.090,0.000,0
182377.231,-6.348,-24.414,-19.531,-9.277,0.000,0
182377.235,-7.324,-31.738,-25.879,3.418,0.000,0
182377.239,-8.789,-28.320,-27.344,4.395,0.000,0
182377.243,-12.207,-27.344,-26.855,-19.531,0.000,0
182377.247,-5.371,-24.902,-30.273,-21.484,0.000,0
182377.251,3.418,-20.508,-28.809,-5.859,0.000,0
182377.255,-2.930,-27.832,-29.297,-3.906,0.000,0
182377.259,-17.578,-29.785,-34.180,-24.414,0.000,0
182377.263,-21.484,-22.461,-19.531,-34.668,0.000,0
182377.267,-5.371,-8.301,-4.883,-10.254,0.000,0
182377.270,-3.418,-13.672,-18.066,-11.230,0.000,0
182377.274,-18.555,-25.391,-31.250,-28.320,0.000,0
182377.278,-31.250,-27.832,-35.156,-37.109,0.000,0
182377.282,-30.273,-33.691,-43.457,-40.527,0.000,0
182377.286,-13.184,-27.344,-30.762,-17.578,0.000,0
182377.290,-14.648,-24.414,-21.484,-27.344,0.000,0
182377.294,-10.742,-11.719,-11.719,-37.598,0.000,0
182377.298,6.348,1.953,8.301,-9.766,0.000,0
182377.302,3.906,-11.230,0.488,-5.859,0.000,0
182377.306,-0.488,-22.461,-23.926,-16.113,0.000,0
182377.310,-17.578,-28.320,-37.598,-25.879,0.000,0
182377.313,-18.555,-26.855,-25.879,-22.949,0.000,0
182377.317,-4.395,-28.809,-22.461,-24.414,0.000,0
182377.321,-11.230,-37.109,-30.762,-32.227,0.000,0
182377.325,-22.949,-35.645,-30.273,-37.598,0.000,0
182377.329,-22.949,-29.297,-21.973,-39.062,0.000,0
182377.333,-1.953,-16.602,-11.719,-15.625,0.000,0
182377.337,14.160,-7.324,-3.906,13.672,0.000,0
182377.341,0.977,-20.508,-10.254,-2.930,0.000,0
182377.345,-19.043,-34.180,-25.391,-25.879,0.000,0
182377.349,-25.391,-40.527,-41.016,-25.879,0.000,0
182377.353,-8.301,-32.227,-28.320,-13.672,0.000,0
182377.356,5.859,-17.090,-2.441,-5.371,0.000,0
182377.360,-12.695,-22.461,-10.742,-27.344,0.000,0
182377.364,-19.531,-30.273,-20.508,-31.250,0.000,0
182377.368,-3.906,-27.832,-14.648,-8.789,0.000,0
182377.372,-6.836,-35.156,-23.926,-15.137,0.000,0
182377.376,-20.020,-41.992,-31.250,-33.691,0.000,0
182377.380,-24.414,-38.574,-31.738,-34.180,0.000,0
182377.384,-13.672,-36.133,-36.621,-23.438,0.000,0
182377.388,-6.348,-31.738,-31.738,-11.719,0.000,0
182377.392,-15.137,-28.809,-19.531,-23.926,0.000,0
182377.395,-26.367,-32.227,-23.926,-41.504,0.000,0
182377.399,-12.695,-18.555,-7.812,-27.344,0.000,0
182377.403,-0.488,-12.695,0.000,-13.184,0.000,0
182377.407,-12.207,-23.438,-15.625,-25.391,0.000,0
182377.411,-18.555,-18.555,-9.277,-28.809,0.000,0
182377.415,-33.691,-28.320,-19.043,-37.109,0.000,0
182377.419,-43.457,-43.457,-41.016,-42.969,0.000,0
182377.423,-40.039,-39.551,-39.551,-34.180,0.000,0
182377.427,-40.039,-31.250,-30.273,-28.809,0.000,0
182377.431,-28.809,-30.762,-30.762,-27.832,0.000,0
182377.435,-21.973,-29.785,-32.715,-23.926,0.000,0
182377.438,-16.602,-30.762,-33.691,-20.996,0.000,0
182377.442,-2.441,-25.391,-25.391,-17.578,0.000,0
182377.446,2.441,-14.648,-9.277,-10.742,0.000,0
182377.450,7.324,-14.648,-6.348,0.977,0.000,0
182377.454,5.371,-24.414,-20.020,-6.836,0.000,0
182377.458,-10.254,-32.227,-30.762,-33.203,0.000,0
182377.462,-22.949,-33.691,-34.668,-32.227,0.000,0
182377.466,-23.438,-37.109,-40.527,-21.973,0.000,0
182377.470,-17.090,-36.621,-33.203,-11.719,0.000,0
182377.474,-19.531,-27.344,-20.020,-10.254,0.000,0
182377.478,-25.879,-24.902,-18.555,-27.832,0.000,0
182377.481,-11.719,-19.043,-13.184,-13.184,0.000,0
182377.485,4.883,-18.555,-10.742,-3.418,0.000,0
182377.489,-6.348,-20.508,-19.531,-17.578,0.000,0
182377.493,-9.277,-11.230,-14.648,-20.996,0.000,0
182377.497,-16.113,-21.484,-21.484,-34.180,0.000,0
182377.501,-13.184,-32.227,-25.391,-39.062,0.000,0
182377.505,-8.789,-25.391,-15.137,-23.438,0.000,0
182377.509,-21.484,-23.926,-14.160,-28.320,0.000,0
182377.513,-26.367,-28.320,-20.996,-26.855,0.000,0
182377.517,-12.695,-25.391,-18.555,-9.277,0.000,0
182377.520,-7.812,-23.926,-11.719,-8.301,0.000,0
182377.524,-29.297,-34.180,-22.949,-23.926,0.000,0
182377.528,-37.598,-37.598,-44.922,-41.504,0.000,0
182377.532,-24.902,-30.762,-34.668,-43.457,0.000,0
182377.536,-16.602,-25.879,-19.043,-29.785,0.000,0
182377.540,-13.672,-23.438,-15.137,-31.250,0.000,0
182377.544,-19.531,-19.531,-12.207,-37.109,0.000,0
182377.548,-25.391,-25.879,-24.902,-37.598,0.000,0
182377.552,-27.832,-34.180,-31.738,-29.785,0.000,0
182377.556,-29.297,-32.227,-27.344,-26.855,0.000,0
182377.560,-26.855,-25.879,-29.297,-41.504,0.000,0
182377.563,-24.414,-20.508,-19.043,-34.180,0.000,0
182377.567,-11.719,-18.555,-15.625,-6.836,0.000,0
182377.571,-1.465,-22.949,-19.043,0.977,0.000,0
182377.575,-4.395,-19.043,-11.719,-15.625,0.000,0
182377.579,-11.230,-13.184,-13.672,-33.203,0.000,0
182377.583,-18.555,-21.973,-18.066,-18.066,0.000,0
182377.587,-13.184,-26.367,-16.113,0.000,0.000,0
182377.591,-11.719,-22.949,-28.320,-13.184,0.000,0
182377.595,-17.090,-21.484,-32.715,-32.715,0.000,0
182377.599,-16.602,-24.414,-29.297,-29.785,0.000,0
182377.603,-19.043,-24.414,-24.414,-24.902,0.000,0
182377.606,-12.207,-16.602,-16.113,-24.902,0.000,0
182377.610,-18.066,-18.555,-18.066,-37.598,0.000,0
182377.614,-30.273,-31.738,-28.809,-44.434,0.000,1
182377.618,-20.996,-39.551,-31.250,-31.738,0.000,0
182377.622,-12.207,-39.062,-37.109,-23.926,0.000,0
182377.626,-22.461,-37.109,-37.109,-32.715,0.000,0
182377.630,-20.996,-27.344,-21.484,-24.414,0.000,0
182377.634,-4.883,-14.160,-15.625,-2.930,0.000,0
182377.638,-5.859,-16.113,-20.996,-5.859,0.000,0
182377.642,-18.066,-19.043,-20.996,-21.484,0.000,0
182377.645,-29.785,-27.832,-31.250,-34.180,0.000,0
182377.649,-32.227,-42.480,-47.852,-43.457,0.000,0
182377.653,-14.160,-20.508,-28.320,-9.766,0.000,0
182377.657,0.000,-5.859,-11.719,6.348,0.000,0
182377.661,-17.578,-19.043,-26.855,-23.926,0.000,0
182377.665,-25.391,-23.926,-36.133,-29.297,0.000,0
182377.669,-7.324,-25.391,-30.762,-16.602,0.000,0
182377.673,-11.230,-33.691,-33.691,-18.066,0.000,0
182377.677,-24.414,-35.156,-42.480,-27.832,0.000,0
182377.681,-19.043,-31.250,-32.715,-26.367,0.000,0
182377.685,-9.766,-29.785,-24.902,-18.066,0.000,0
182377.688,-11.230,-30.762,-29.785,-20.996,0.000,0
182377.692,-20.508,-26.367,-23.438,-27.344,0.000,0
182377.696,-22.461,-25.879,-22.949,-36.621,0.000,0
182377.700,-20.508,-27.832,-29.297,-31.738,0.000,0
182377.704,-23.438,-34.180,-30.273,-15.625,0.000,0
182377.708,-25.879,-36.621,-30.762,-26.367,0.000,0
182377.712,-22.461,-20.020,-18.066,-31.250,0.000,0
182377.716,-16.602,-7.324,-7.324,-10.254,0.000,0
182377.720,-5.859,-10.254,-0.488,-0.977,0.000,0
182377.724,-18.066,-24.414,-10.742,-20.996,0.000,0
182377.728,-45.410,-36.133,-32.227,-41.504,0.000,0
182377.731,-44.434,-42.480,-40.527,-43.945,0.000,0
182377.735,-24.414,-41.016,-39.551,-39.551,0.000,0
182377.739,-18.066,-38.086,-40.039,-38.086,0.000,0
182377.743,-29.297,-42.969,-41.504,-37.598,0.000,0
182377.747,-37.109,-45.410,-31.250,-37.598,0.000,0
182377.751,-26.367,-38.574,-25.879,-21.973,0.000,0
182377.755,-9.277,-29.785,-19.531,-4.883,0.000,0
182377.759,-11.230,-31.738,-16.113,-10.254,0.000,0
182377.763,-30.762,-35.645,-28.809,-20.508,0.000,0
182377.767,-27.832,-28.809,-32.715,-10.254,0.000,0
182377.770,-3.418,-19.531,-23.926,9.766,0.000,0
182377.774,-7.812,-21.973,-14.160,4.883,0.000,0
182377.778,-24.414,-33.203,-17.090,-8.789,0.000,0
182377.782,-22.949,-38.086,-28.320,-11.230,0.000,0
182377.786,-15.625,-36.133,-40.527,-12.207,0.000,0
182377.790,-8.789,-36.133,-45.898,-15.625,0.000,0
182377.794,-11.719,-33.203,-23.438,-25.879,0.000,0
182377.798,-13.672,-28.809,-19.531,-23.926,0.000,0
182377.802,-4.395,-24.414,-24.414,-8.301,0.000,0
182377.806,3.418,-16.602,-12.207,-1.465,0.000,0
182377.810,0.000,-13.184,-11.719,-6.348,0.000,0
182377.813,-15.625,-20.996,-24.902,-24.902,0.000,0
182377.817,-8.789,-25.879,-19.043,-26.855,0.000,0
182377.821,-1.953,-32.715,-24.414,-9.277,0.000,0
182377.825,-18.066,-34.668,-31.250,-22.949,0.000,0
182377.829,-18.066,-29.297,-31.250,-27.832,0.000,0
182377.833,-6.836,-24.902,-25.879,-6.836,0.000,0
182377.837,-7.324,-24.902,-16.113,-6.836,0.000,0
182377.841,-15.137,-28.809,-21.973,-15.625,0.000,0
182377.845,-15.625,-27.344,-26.855,-18.555,0.000,0
182377.849,-11.719,-25.391,-24.902,-8.789,0.000,0
182377.853,-7.812,-25.391,-23.438,4.883,0.000,0
182377.856,-13.184,-26.855,-17.578,-11.719,0.000,0
182377.860,-19.531,-35.645,-29.785,-27.832,0.000,0
182377.864,-8.789,-36.621,-35.156,-13.672,0.000,0
182377.868,1.465,-30.273,-21.484,9.277,0.000,0
182377.872,0.488,-27.344,-15.137,6.348,0.000,0
182377.876,-0.488,-23.438,-21.973,-6.836,0.000,0
182377.880,-5.371,-24.414,-35.156,-4.883,0.000,0
182377.884,-8.789,-30.273,-32.227,-1.465,0.000,0
182377.888,-6.348,-32.715,-27.344,3.418,0.000,0
182377.892,-16.113,-32.715,-33.203,-4.395,0.000,0
182377.895,-25.879,-32.227,-33.203,-18.066,0.000,0
182377.899,-19.531,-29.297,-26.855,-15.625,0.000,0
182377.903,0.488,-26.367,-22.949,-7.324,0.000,0
182377.907,1.953,-27.832,-20.508,-9.277,0.000,0
182377.911,0.000,-24.414,-25.879,-20.020,0.000,0
182377.915,0.488,-24.414,-35.156,-25.391,0.000,0
182377.919,4.395,-21.973,-27.832,-4.395,0.000,0
182377.923,12.207,-15.625,-15.137,6.348,0.000,0
182377.927,-4.883,-29.297,-21.484,-11.719,0.000,0
182377.931,-4.883,-24.902,-10.254,-3.418,0.000,0
182377.935,3.906,-16.602,-1.465,4.883,0.000,0
182377.938,-10.254,-28.809,-20.996,-1.465,0.000,0
182377.942,-29.785,-31.738,-41.016,-11.230,0.000,0
182377.946,-46.875,-33.691,-41.992,-24.414,0.000,0
182377.950,-34.668,-36.621,-35.645,-23.926,0.000,0
182377.954,-15.625,-26.855,-24.902,-18.555,0.000,0
182377.958,-26.367,-23.926,-20.020,-14.648,0.000,0
182377.962,-40.527,-25.391,-18.066,-26.855,0.000,0
182377.966,-20.996,-18.066,-9.277,-21.484,0.000,0
182377.970,-7.324,-20.996,-16.602,-8.301,0.000,0
182377.974,-17.090,-25.391,-28.320,-23.438,0.000,0
182377.978,-31.250,-30.273,-38.086,-35.645,0.000,0
182377.981,-27.344,-30.762,-35.645,-23.926,0.000,0
182377.985,-9.277,-22.949,-19.531,-0.488,0.000,0
182377.989,-10.254,-28.809,-27.832,-9.277,0.000,0
182377.993,-25.879,-34.180,-38.574,-37.109,0.000,0
182377.997,-19.531,-29.785,-27.832,-37.109,0.000,0
182378.001,6.348,-24.902,-14.160,-23.438,0.000,0
182378.005,6.836,-22.949,-17.090,-16.602,0.000,0
182378.009,-8.301,-31.738,-30.273,-19.531,0.000,0
182378.013,-6.836,-29.297,-29.785,-23.926,0.000,0
182378.017,-3.418,-27.832,-32.715,-20.508,0.000,0
182378.020,-2.930,-31.738,-40.039,-11.719,0.000,0
182378.024,-0.977,-26.855,-31.738,-13.184,0.000,0
182378.028,-11.719,-27.344,-28.320,-29.785,0.000,0
182378.032,-2.930,-19.043,-12.695,-22.461,0.000,0
182378.036,10.254,-14.648,-0.488,-0.977,0.000,0
182378.040,-9.277,-26.367,-22.461,-13.672,0.000,0
182378.044,-28.809,-36.133,-35.645,-35.156,0.000,0
182378.048,-31.738,-33.691,-31.250,-26.855,0.000,0
182378.052,-28.809,-30.762,-27.344,-22.461,0.000,0
182378.056,-18.555,-29.297,-26.367,-23.438,0.000,0
182378.060,-19.531,-30.273,-29.297,-22.461,0.000,0
182378.063,-27.832,-32.227,-30.273,-32.227,0.000,0
182378.067,-17.578,-32.227,-30.273,-18.555,0.000,0
182378.071,-5.371,-32.227,-36.133,-10.254,0.000,0
182378.075,-9.766,-27.344,-29.297,-24.414,0.000,0
182378.079,-12.695,-20.508,-12.207,-24.414,0.000,0
182378.083,-6.836,-20.020,-20.996,-17.578,0.000,0
182378.087,3.418,-15.625,-27.344,-15.137,0.000,0
182378.091,-15.625,-21.484,-25.879,-34.668,0.000,0
182378.095,-35.645,-28.809,-28.320,-43.945,0.000,0
182378.099,-26.367,-19.043,-26.367,-20.508,0.000,0
182378.103,-19.531,-19.531,-24.414,-10.742,0.000,0
182378.106,-21.484,-28.809,-27.832,-9.277,0.000,0
182378.110,-23.926,-26.367,-26.855,-17.578,0.000,0
182378.114,-11.719,-16.602,-14.160,-17.090,0.000,0
182378.118,-5.371,-20.508,-18.555,-3.418,0.000,0
182378.122,-14.160,-30.762,-37.109,-11.719,0.000,0
182378.126,-20.996,-28.320,-36.621,-25.879,0.000,0
182378.130,-26.855,-29.785,-37.598,-31.738,0.000,0
182378.134,-21.484,-29.297,-39.062,-23.926,0.000,0
182378.138,-3.906,-17.090,-23.926,0.488,0.000,0
182378.142,-4.395,-17.090,-10.254,-3.906,0.000,0
182378.145,-8.789,-16.602,-4.395,-7.812,0.000,0
182378.149,-13.672,-20.508,-14.648,1.953,0.000,0
182378.153,-13.184,-26.367,-23.438,0.000,0.000,0
182378.157,-18.066,-29.785,-20.996,-13.672,0.000,0
182378.161,-30.762,-30.762,-24.902,-34.180,0.000,0
182378.165,-21.973,-18.555,-20.508,-22.461,0.000,0
182378.169,-3.418,-12.207,-11.230,-9.277,0.000,0
182378.173,-14.648,-24.902,-18.555,-33.203,0.000,0
182378.177,-32.227,-29.785,-37.598,-48.340,0.000,0
182378.181,-30.762,-27.344,-40.039,-46.875,0.000,0
182378.185,-18.555,-20.508,-25.879,-20.996,0.000,0
182378.188,-9.277,-20.508,-22.949,-13.184,0.000,0
182378.192,-13.672,-25.391,-36.133,-35.156,0.000,0
182378.196,-27.344,-29.297,-35.645,-32.227,0.000,0
182378.200,-20.996,-23.926,-22.461,0.000,0.000,0
182378.204,-3.906,-20.508,-17.090,15.625,0.000,0
182378.208,-15.625,-27.344,-22.461,-4.395,0.000,0
182378.212,-31.250,-34.668,-38.086,-27.344,0.000,0
182378.216,-22.461,-33.203,-39.551,-17.090,0.000,0
182378.220,-5.859,-31.738,-26.367,-2.441,0.000,0
182378.224,-7.324,-30.273,-25.879,-0.488,0.000,0
182378.228,-17.578,-24.902,-23.926,-12.207,0.000,0
182378.231,-9.277,-15.625,-10.254,-21.484,0.000,0
182378.235,-1.465,-20.020,-20.996,-3.906,0.000,0
182378.239,-12.207,-26.855,-25.391,-8.789,0.000,0
182378.243,-23.438,-25.391,-26.855,-29.785,0.000,0
182378.247,-23.926,-31.250,-33.691,-28.809,0.000,0
182378.251,-13.184,-30.762,-27.344,-25.879,0.000,0
182378.255,-20.020,-34.668,-38.574,-29.297,0.000,0
182378.259,-28.320,-38.574,-35.156,-24.902,0.000,0
182378.263,-19.531,-27.832,-20.020,-11.719,0.000,0
182378.267,-17.578,-26.367,-23.438,-4.883,0.000,0
182378.270,-6.836,-28.320,-25.879,-4.395,0.000,0
182378.274,-13.184,-29.785,-25.879,-9.277,0.000,0
182378.278,-24.414,-28.320,-23.438,-19.043,0.000,0
182378.282,-10.742,-23.438,-14.648,-15.625,0.000,0
182378.286,1.953,-25.391,-13.672,-3.418,0.000,0
182378.290,-14.160,-38.086,-27.832,-19.531,0.000,0
182378.294,-28.320,-37.598,-39.551,-32.227,0.000,0
182378.298,-19.531,-29.785,-36.621,-23.438,0.000,0
182378.302,-12.207,-29.297,-24.902,-0.488,0.000,0
182378.306,-17.578,-26.855,-22.461,4.883,0.000,0
182378.310,-28.809,-17.578,-23.926,-17.578,0.000,0
182378.313,-23.926,-12.207,-17.090,-17.578,0.000,0
182378.317,-20.508,-21.484,-17.578,2.441,0.000,0
182378.321,-25.391,-25.391,-21.973,0.488,0.000,0
182378.325,-28.320,-23.438,-22.461,-16.113,0.000,0
182378.329,-22.949,-25.879,-18.555,-22.949,0.000,2
182378.333,-13.672,-29.297,-20.020,-11.230,0.000,0
182378.337,-11.230,-26.367,-30.273,1.465,0.000,0
182378.341,-18.066,-31.250,-34.668,-12.695,0.000,0
182378.345,-32.227,-40.527,-39.551,-35.645,0.000,0
182378.349,-22.461,-28.320,-29.297,-28.320,0.000,0
182378.353,-5.859,-9.766,-18.555,-12.207,0.000,0
182378.356,-13.184,-15.625,-25.879,-25.879,0.000,0
182378.360,-23.926,-24.414,-28.320,-33.203,0.000,0
182378.364,-22.949,-18.066,-23.438,-22.949,0.000,0
182378.368,-17.090,-23.926,-24.414,-20.508,0.000,0
182378.372,-15.625,-33.203,-32.715,-20.996,0.000,0
182378.376,-30.273,-33.691,-41.504,-25.879,0.000,0
182378.380,-31.738,-27.832,-33.691,-28.809,0.000,0
182378.384,-5.371,-13.184,-15.137,-11.719,0.000,0
182378.388,2.930,-11.230,-4.883,-0.977,0.000,0
182378.392,-20.020,-25.391,-14.648,-20.508,0.000,0
182378.395,-33.691,-33.203,-30.273,-33.691,0.000,0
182378.399,-33.691,-38.086,-41.016,-26.855,0.000,0
182378.403,-25.879,-38.086,-45.898,-13.184,0.000,0
182378.407,-33.691,-37.109,-53.223,-22.949,0.000,0
182378.411,-50.293,-37.598,-49.805,-46.387,0.000,0
182378.415,-32.227,-27.832,-20.996,-25.391,0.000,0
182378.419,-6.348,-15.137,4.883,-4.395,0.000,0
182378.423,-14.648,-17.578,-11.230,-17.578,0.000,0
182378.427,-33.691,-30.762,-30.273,-44.434,0.000,0
182378.431,-19.531,-26.367,-23.926,-41.016,0.000,0
182378.435,-13.184,-24.902,-27.344,-30.273,0.000,0
182378.438,-21.484,-19.043,-23.926,-20.508,0.000,0
182378.442,-15.625,-3.418,-7.324,-13.672,0.000,0
182378.446,-17.090,-13.184,-17.578,-32.715,0.000,0
182378.450,-11.230,-18.555,-23.926,-27.344,0.000,0
182378.454,-8.789,-15.625,-23.438,-11.230,0.000,0
182378.458,-19.531,-24.902,-27.344,-26.367,0.000,0
182378.462,-16.113,-30.273,-30.762,-35.645,0.000,0
182378.466,-9.766,-30.273,-32.715,-28.320,0.000,0
182378.470,-4.883,-29.297,-28.809,-14.648,0.000,0
182378.474,-5.371,-26.367,-26.367,-5.859,0.000,0
182378.478,-16.602,-22.461,-22.461,-8.789,0.000,0
182378.481,-15.625,-17.090,-22.461,-1.953,0.000,0
182378.485,-0.488,-9.277,-12.695,12.695,0.000,0
182378.489,-4.883,-20.020,-11.230,-2.930,0.000,0
182378.493,-21.484,-33.691,-23.438,-19.531,0.000,0
182378.497,-20.996,-22.461,-18.066,-24.902,0.000,0
182378.501,-1.465,-14.648,-9.766,-5.859,0.000,0
182378.505,2.441,-20.996,-15.137,4.395,0.000,0
182378.509,-11.719,-28.809,-30.762,-12.207,0.000,0
182378.513,-25.391,-31.250,-36.621,-15.137,0.000,0
182378.517,-18.555,-29.297,-36.621,-16.602,0.000,0
182378.520,-6.836,-26.855,-34.668,-11.230,0.000,0
182378.524,-10.742,-17.578,-15.137,-22.949,0.000,0
182378.528,-7.812,-12.207,-12.207,-19.531,0.000,0
182378.532,-8.789,-17.578,-23.926,-4.395,0.000,0
182378.536,-13.184,-24.414,-27.344,-12.695,0.000,0
182378.540,-22.461,-28.809,-27.344,-21.484,0.000,0
182378.544,-31.738,-32.715,-36.133,-33.203,0.000,0
182378.548,-20.020,-34.668,-38.086,-14.648,0.000,0
182378.552,-4.883,-27.832,-21.973,5.859,0.000,0
182378.556,-13.184,-20.508,-11.719,-6.836,0.000,0
182378.560,-27.344,-22.949,-13.184,-17.578,0.000,0
182378.563,-21.973,-29.785,-25.879,-25.391,0.000,0
182378.567,-14.160,-30.762,-32.715,-16.602,0.000,0
182378.571,-15.625,-27.344,-25.879,-2.930,0.000,0
182378.575,-17.578,-20.996,-17.578,-16.602,0.000,0
182378.579,-17.578,-20.020,-17.578,-22.949,0.000,0
182378.583,-4.395,-19.043,-15.137,-12.695,0.000,0
182378.587,2.441,-15.625,-15.625,-1.465,0.000,0
182378.591,-20.508,-30.273,-39.062,-19.531,0.000,0
182378.595,-23.438,-36.133,-42.480,-37.598,0.000,0
182378.599,-12.207,-31.738,-28.809,-21.973,0.000,0
182378.603,-11.719,-27.832,-26.367,-20.020,0.000,0
182378.606,-8.789,-20.508,-20.020,-21.973,0.000,0
182378.610,-11.719,-20.020,-18.555,-24.902,0.000,0
182378.614,-11.230,-20.996,-27.832,-18.066,0.000,0
182378.618,7.324,-10.742,-16.602,0.977,0.000,0
182378.622,9.766,-6.836,-6.836,-4.883,0.000,0
182378.626,-12.207,-16.113,-13.184,-17.090,0.000,0
182378.630,-23.438,-24.902,-17.578,-17.090,0.000,0
182378.634,-20.996,-30.762,-22.461,-15.625,0.000,0
182378.638,-9.277,-23.926,-19.531,-6.836,0.000,0
182378.642,-7.324,-15.625,-16.602,-15.625,0.000,0
182378.645,-8.301,-12.695,-13.672,-18.066,0.000,0
182378.649,-5.371,-18.555,-15.137,-4.395,0.000,0
182378.653,-11.719,-29.297,-20.508,-11.719,0.000,0
182378.657,-16.113,-29.785,-24.414,-23.926,0.000,0
182378.661,-19.531,-32.227,-25.879,-27.832,0.000,0
182378.665,-11.719,-29.785,-20.020,-13.672,0.000,0
182378.669,-6.348,-27.832,-22.461,-3.418,0.000,0
182378.673,-17.090,-30.762,-29.297,-24.902,0.000,0
182378.677,-18.555,-27.344,-18.066,-32.227,0.000,0
182378.681,-2.441,-20.020,-7.324,-9.766,0.000,0
182378.685,-0.977,-21.484,-19.531,0.488,0.000,0
182378.688,-10.254,-23.438,-22.949,-11.230,0.000,0
182378.692,-7.812,-18.066,-11.719,-22.949,0.000,0
182378.696,-14.160,-25.879,-14.160,-28.809,0.000,0
182378.700,-7.812,-29.785,-16.113,-25.879,0.000,0
182378.704,-8.301,-22.949,-12.207,-31.738,0.000,0
182378.708,-19.043,-27.344,-24.902,-35.645,0.000,0
182378.712,-11.230,-28.809,-31.738,-29.785,0.000,0
182378.716,-6.348,-27.344,-31.250,-27.832,0.000,0
182378.720,-17.578,-27.832,-30.762,-32.227,0.000,0
182378.724,-29.297,-25.879,-23.438,-39.551,0.000,0
182378.728,-28.809,-15.137,-11.719,-27.832,0.000,0
182378.731,-19.043,-0.977,2.930,-4.395,0.000,0
182378.735,-14.160,-7.812,-3.906,9.766,0.000,0
182378.739,-23.438,-27.344,-28.809,-13.672,0.000,0
182378.743,-39.551,-35.156,-36.133,-52.734,0.000,0
182378.747,-35.645,-32.227,-28.320,-49.316,0.000,0
182378.751,-25.879,-33.203,-39.062,-26.855,0.000,0
182378.755,-23.438,-30.762,-33.691,-18.555,0.000,0
182378.759,-23.438,-28.320,-11.230,-35.645,0.000,0
182378.763,-28.809,-32.227,-15.137,-40.527,0.000,0
182378.767,-8.789,-18.555,-13.184,-7.324,0.000,0
182378.770,-6.348,-16.113,-14.648,-1.953,0.000,0
182378.774,-25.391,-25.879,-17.090,-28.320,0.000,0
182378.778,-28.809,-21.484,-16.602,-30.762,0.000,0
182378.782,-20.996,-19.043,-11.719,-22.461,0.000,0
182378.786,-28.320,-19.531,-20.996,-25.391,0.000,0
182378.790,-43.945,-20.020,-29.785,-32.227,0.000,0
182378.794,-39.062,-22.461,-29.297,-32.227,0.000,0
182378.798,-36.621,-27.344,-39.551,-27.344,0.000,0
182378.802,-35.645,-28.320,-38.086,-17.090,0.000,0
182378.806,-23.438,-24.414,-25.879,-12.207,0.000,0
182378.810,-20.508,-21.484,-20.996,-15.625,0.000,0
182378.813,-20.020,-20.508,-18.555,-15.137,0.000,0
182378.817,-10.742,-20.996,-15.137,-2.441,0.000,0
182378.821,-7.812,-14.648,-7.324,-0.488,0.000,0
182378.825,-27.344,-22.461,-14.648,-29.785,0.000,0
182378.829,-33.203,-28.809,-28.320,-38.086,0.000,0
182378.833,-34.668,-28.809,-35.645,-30.762,0.000,0
182378.837,-43.945,-29.297,-42.969,-33.203,0.000,0
182378.841,-54.688,-26.367,-32.227,-45.410,0.000,0
182378.845,-48.828,-12.695,-17.090,-32.715,0.000,0
182378.849,-40.039,-15.625,-11.719,-21.973,0.000,0
182378.853,-43.945,-29.297,-16.602,-25.879,0.000,0
182378.856,-45.898,-29.785,-24.414,-25.391,0.000,0
182378.860,-43.945,-25.879,-17.090,-43.457,0.000,0
182378.864,-36.621,-20.020,-13.184,-39.551,0.000,0
182378.868,-28.809,-11.719,-15.625,-15.137,0.000,0
182378.872,-17.578,-6.836,-11.230,-17.090,0.000,0
182378.876,-24.414,-13.184,-15.137,-40.527,0.000,0
182378.880,-22.949,-20.996,-22.461,-37.598,0.000,0
182378.884,-17.090,-29.297,-30.273,-20.996,0.000,0
182378.888,-26.855,-29.297,-33.203,-26.855,0.000,0
182378.892,-17.578,-19.043,-28.320,-22.949,0.000,0
182378.895,-10.742,-24.902,-31.738,-19.043,0.000,0
182378.899,-12.207,-34.668,-30.762,-20.020,0.000,0
182378.903,-10.742,-21.484,-15.137,-1.953,0.000,0
182378.907,-18.066,-16.602,-10.254,-10.742,0.000,0
182378.911,-21.484,-27.344,-25.879,-19.531,0.000,1
182378.915,-16.113,-28.320,-30.762,-10.742,0.000,0
182378.919,-20.996,-28.809,-31.738,-26.855,0.000,0
182378.923,-27.344,-26.855,-32.715,-46.387,0.000,0
182378.927,-22.949,-21.484,-29.297,-38.086,0.000,0
182378.931,-7.324,-10.742,-17.090,-9.277,0.000,0
182378.935,-9.277,-9.766,-9.766,-7.812,0.000,0
182378.938,-23.438,-22.461,-29.297,-30.273,0.000,0
182378.942,-23.438,-22.949,-32.715,-28.809,0.000,0
182378.946,-23.926,-25.391,-27.832,-25.879,0.000,0
182378.950,-17.578,-26.855,-22.461,-21.484,0.000,0
182378.954,-23.926,-20.508,-17.090,-21.484,0.000,0
182378.958,-38.086,-24.902,-23.438,-34.180,0.000,0
182378.962,-25.879,-20.996,-19.531,-23.926,0.000,0
182378.966,-14.160,-17.578,-13.672,5.371,0.000,0
182378.970,-19.531,-19.531,-12.695,2.441,0.000,0
182378.974,-25.879,-15.625,-8.789,-9.277,0.000,0
182378.978,-32.715,-15.137,-16.602,-20.996,0.000,0
182378.981,-28.320,-20.508,-32.227,-19.043,0.000,0
182378.985,-20.508,-21.973,-26.855,-5.859,0.000,0
182378.989,-25.391,-20.508,-19.043,-13.672,0.000,0
182378.993,-25.391,-18.066,-16.602,-16.113,0.000,0
182378.997,-13.184,-19.043,-15.625,-7.812,0.000,0
182379.001,-8.789,-25.879,-18.555,-13.672,0.000,0
182379.005,-5.859,-26.855,-27.832,-15.625,0.000,0
182379.009,-1.953,-22.949,-30.762,7.812,0.000,0
182379.013,5.859,-17.578,-30.762,11.230,0.000,0
182379.017,-7.324,-20.020,-20.996,-1.465,0.000,0
182379.020,-23.926,-27.832,-21.484,-20.996,0.000,0
182379.024,-26.367,-28.809,-31.250,-26.855,0.000,0
182379.028,-18.066,-20.020,-18.066,-6.348,0.000,0
182379.032,-18.066,-19.531,-14.648,-5.859,0.000,0
182379.036,-32.227,-31.250,-26.367,-33.203,0.000,0
182379.040,-33.691,-30.762,-27.344,-29.297,0.000,0
182379.044,-23.438,-23.438,-24.414,-16.602,0.000,0
182379.048,-25.391,-29.785,-28.809,-27.832,0.000,0
182379.052,-32.715,-33.691,-37.598,-43.945,0.000,0
182379.056,-32.227,-24.902,-34.668,-35.156,0.000,0
182379.060,-15.625,-18.066,-19.531,-19.043,0.000,0
182379.063,-7.324,-24.902,-18.066,-19.043,0.000,0
182379.067,-20.996,-28.809,-30.762,-21.484,0.000,0
182379.071,-26.855,-26.367,-27.832,-33.203,0.000,0
182379.075,-26.367,-29.297,-19.043,-33.203,0.000,0
182379.079,-21.973,-26.855,-16.113,-7.812,0.000,0
182379.083,-17.090,-22.949,-14.648,-1.953,0.000,0
182379.087,-24.902,-26.855,-14.648,-10.742,0.000,0
182379.091,-27.832,-29.785,-17.090,-13.184,0.000,0
182379.095,-13.672,-24.414,-13.184,-3.418,0.000,0
182379.099,-12.207,-24.414,-13.184,-8.301,0.000,0
182379.103,-27.832,-33.203,-21.973,-25.391,0.000,0
182379.106,-34.668,-38.574,-28.320,-28.320,0.000,0
182379.110,-17.578,-28.809,-19.531,-11.719,0.000,0
182379.114,-10.742,-25.879,-20.508,-12.695,0.000,0
182379.118,-20.020,-25.879,-33.203,-16.602,0.000,0
182379.122,-28.320,-24.414,-27.344,-19.043,0.000,0
182379.126,-15.137,-17.090,-12.695,-11.230,0.000,0
182379.130,2.441,-15.137,-7.324,6.348,0.000,0
182379.134,-15.137,-24.902,-9.277,-3.418,0.000,0
182379.138,-34.668,-30.273,-20.020,-14.648,0.000,0
182379.142,-26.855,-33.203,-29.297,-1.465,0.000,0
182379.145,-22.949,-34.668,-29.297,9.277,0.000,0
182379.149,-27.344,-27.832,-22.461,3.418,0.000,0
182379.153,-29.297,-26.367,-19.531,-11.719,0.000,0
182379.157,-28.320,-26.367,-28.809,-8.301,0.000,0
182379.161,-17.090,-19.043,-24.902,4.395,0.000,0
182379.165,-21.973,-18.555,-25.879,11.230,0.000,0
182379.169,-42.480,-23.926,-31.738,-3.906,0.000,0
182379.173,-42.480,-29.297,-30.273,-22.949,0.000,0
182379.177,-17.578,-15.625,-16.113,9.277,0.000,0
182379.181,-16.113,-15.137,-18.555,11.230,0.000,0
182379.185,-34.668,-25.879,-29.785,-8.789,0.000,0
182379.188,-34.180,-20.020,-23.438,-10.742,0.000,0
182379.192,-25.879,-18.066,-16.113,-24.414,0.000,0
182379.196,-20.996,-20.508,-20.996,-18.066,0.000,0
182379.200,-33.203,-23.926,-29.785,-20.508,0.000,0
182379.204,-40.039,-28.320,-31.250,-22.461,0.000,0
182379.208,-29.297,-19.043,-27.344,-11.230,0.000,0
182379.212,-20.020,-13.672,-16.602,-5.371,0.000,0
182379.216,-26.367,-26.367,-20.020,-6.836,0.000,0
182379.220,-29.785,-23.926,-22.949,-25.391,0.000,0
182379.224,-11.719,-10.254,-11.719,-19.043,0.000,0
182379.228,-2.930,-19.531,-20.020,-4.395,0.000,0
182379.231,-21.973,-31.738,-31.250,-28.809,0.000,0
182379.235,-37.109,-38.574,-36.621,-40.527,0.000,0
182379.239,-29.297,-36.621,-33.203,-28.809,0.000,0
182379.243,-21.973,-41.016,-33.203,-17.578,0.000,0
182379.247,-26.855,-41.016,-33.691,-13.672,0.000,0
182379.251,-28.809,-27.832,-29.785,-21.973,0.000,0
182379.255,-23.438,-18.555,-24.414,-10.254,0.000,0
182379.259,-20.996,-20.996,-20.508,-9.277,0.000,0
182379.263,-19.531,-28.320,-25.879,-19.531,0.000,0
182379.267,-18.066,-32.715,-29.785,-18.555,0.000,0
182379.270,-28.320,-38.574,-35.645,-34.180,0.000,0
182379.274,-24.902,-36.621,-32.227,-31.738,0.000,0
182379.278,-14.648,-33.691,-29.297,-9.766,0.000,0
182379.282,-9.766,-27.344,-24.414,4.395,0.000,0
182379.286,-14.160,-18.066,-12.207,-4.395,0.000,0
182379.290,-17.578,-14.648,-13.184,-16.113,0.000,0
182379.294,-14.160,-17.578,-18.555,-6.348,0.000,0
182379.298,-15.137,-23.438,-20.020,-2.930,0.000,0
182379.302,-40.527,-34.180,-26.855,-27.832,0.000,0
182379.306,-49.316,-38.086,-36.133,-43.945,0.000,0
182379.310,-29.785,-33.203,-34.668,-30.762,0.000,0
182379.313,-24.902,-28.320,-27.832,-20.020,0.000,0
182379.317,-30.762,-18.066,-17.578,-14.648,0.000,0
182379.321,-30.273,-12.207,-9.277,-15.625,0.000,0
182379.325,-28.320,-20.020,-14.648,-14.160,0.000,0
182379.329,-28.320,-23.926,-15.625,-9.766,0.000,0
182379.333,-41.016,-26.367,-22.461,-26.855,0.000,0
182379.337,-54.199,-32.227,-34.668,-47.852,0.000,0
182379.341,-46.875,-35.645,-32.715,-43.945,0.000,0
182379.345,-33.203,-28.320,-26.855,-20.020,0.000,0
182379.349,-44.922,-24.414,-27.344,-25.879,0.000,0
182379.353,-58.594,-28.320,-33.203,-36.621,0.000,0
182379.356,-54.688,-27.344,-31.738,-32.227,0.000,0
182379.360,-52.246,-31.250,-37.598,-31.738,0.000,0
182379.364,-46.875,-27.832,-32.227,-27.344,0.000,0
182379.368,-43.945,-22.949,-14.160,-37.109,0.000,0
182379.372,-42.480,-26.367,-19.531,-31.250,0.000,0
182379.376,-36.621,-29.297,-27.832,-8.789,0.000,0
182379.380,-42.969,-34.180,-31.250,-8.789,0.000,0
182379.384,-47.363,-30.273,-34.180,-22.461,0.000,0
182379.388,-53.223,-29.785,-36.621,-33.203,0.000,0
182379.392,-45.898,-29.785,-30.762,-18.066,0.000,0
182379.395,-34.668,-21.484,-26.855,-12.207,0.000,0
182379.399,-39.062,-18.555,-23.438,-30.273,0.000,0
182379.403,-47.852,-23.926,-19.531,-37.109,0.000,0
182379.407,-42.480,-21.973,-21.484,-27.344,0.000,0
182379.411,-30.762,-18.066,-26.367,-26.367,0.000,0
182379.415,-41.016,-22.949,-21.973,-43.457,0.000,0
182379.419,-43.945,-22.461,-25.391,-43.945,0.000,0
182379.423,-32.227,-20.508,-28.809,-35.156,0.000,0
182379.427,-20.996,-22.461,-20.508,-31.250,0.000,0
182379.431,-20.020,-22.461,-19.531,-27.832,0.000,0
182379.435,-33.691,-27.832,-26.855,-34.180,0.000,0
182379.438,-42.480,-38.574,-28.809,-35.156,0.000,0
182379.442,-24.902,-25.391,-14.160,-15.137,0.000,0
182379.446,-2.441,-8.301,2.930,-4.883,0.000,0
182379.450,-20.020,-19.531,-11.719,-20.996,0.000,0
182379.454,-36.133,-31.738,-27.344,-23.438,0.000,0
182379.458,-20.508,-35.156,-29.297,-6.836,0.000,0
182379.462,-28.809,-28.320,-26.367,-6.348,0.000,0
182379.466,-52.734,-29.297,-21.973,-22.461,0.000,0
182379.470,-60.547,-41.504,-33.203,-35.645,0.000,0
182379.474,-27.832,-22.949,-24.414,-12.207,0.000,0
182379.478,-7.812,-10.254,-11.230,8.789,0.000,0
182379.481,-28.809,-28.320,-15.137,-9.277,0.000,0
182379.485,-36.133,-41.016,-30.273,-34.668,0.000,0
182379.489,-29.785,-33.203,-29.297,-30.762,0.000,0
182379.493,-21.973,-18.555,-19.531,-4.395,0.000,0
182379.497,-30.762,-20.508,-23.926,-13.672,0.000,0
182379.501,-34.668,-31.250,-22.461,-29.297,0.000,0
182379.505,-29.785,-30.762,-14.160,-36.621,0.000,0
182379.509,-23.438,-23.926,-10.742,-27.344,0.000,0
182379.513,-32.227,-34.180,-25.879,-22.949,0.000,0
182379.517,-42.969,-34.180,-30.273,-42.480,0.000,0
182379.520,-35.156,-29.297,-20.508,-29.785,0.000,0
182379.524,-14.648,-26.367,-16.602,-16.113,0.000,0
182379.528,-11.230,-23.926,-17.578,-17.578,0.000,0
182379.532,-20.996,-25.879,-23.926,-13.672,0.000,0
182379.536,-20.508,-22.461,-25.391,-21.484,0.000,0
182379.540,-14.648,-19.531,-21.973,-5.859,0.000,0
182379.544,-8.789,-25.391,-17.090,-1.465,0.000,1
182379.548,-19.531,-25.879,-13.672,-24.902,0.000,0
182379.552,-40.527,-30.762,-17.090,-33.691,0.000,0
182379.556,-31.250,-27.344,-17.090,-14.648,0.000,0
182379.560,-19.043,-20.020,-15.137,11.230,0.000,0
182379.563,-23.438,-18.555,-9.277,-0.977,0.000,0
182379.567,-32.227,-9.766,-7.324,-17.090,0.000,0
182379.571,-57.129,-25.879,-24.902,-34.668,0.000,0
182379.575,-46.875,-33.203,-26.367,-34.668,0.000,0
182379.579,-27.344,-21.484,-19.043,-17.090,0.000,0
182379.583,-43.457,-26.855,-28.320,-35.156,0.000,0
182379.587,-49.316,-30.762,-37.109,-48.828,0.000,0
182379.591,-25.391,-26.367,-30.762,-28.320,0.000,0
182379.595,-12.207,-21.973,-20.508,-18.555,0.000,0
182379.599,-31.250,-26.367,-29.297,-32.227,0.000,0
182379.603,-37.109,-30.762,-33.691,-40.039,0.000,0
182379.606,-23.438,-30.273,-30.273,-20.508,0.000,0
182379.610,-15.137,-33.691,-34.668,-3.418,0.000,0
182379.614,-22.949,-30.273,-34.180,-19.531,0.000,0
182379.618,-36.621,-27.344,-39.062,-30.273,0.000,0
182379.622,-36.621,-32.715,-44.922,-27.832,0.000,0
182379.626,-21.484,-20.508,-33.691,-10.254,0.000,0
182379.630,-16.602,-11.719,-21.484,9.277,0.000,0
182379.634,-24.414,-17.090,-18.555,2.930,0.000,0
182379.638,-20.020,-14.160,-14.648,-9.766,0.000,0
182379.642,-24.414,-21.484,-24.414,-16.602,0.000,0
182379.645,-27.832,-27.832,-28.809,-16.113,0.000,0
182379.649,-27.832,-27.832,-20.996,-22.949,0.000,0
182379.653,-35.156,-26.855,-22.461,-31.250,0.000,0
182379.657,-35.156,-23.926,-24.414,-17.090,0.000,0
182379.661,-25.391,-19.043,-17.578,-0.488,0.000,0
182379.665,-24.902,-15.137,-10.742,-12.695,0.000,0
182379.669,-34.180,-20.020,-19.043,-18.555,0.000,0
182379.673,-33.203,-24.902,-24.414,-6.348,0.000,0
182379.677,-38.086,-34.180,-31.738,-12.695,0.000,0
182379.681,-33.203,-24.414,-20.508,-8.301,0.000,0
182379.685,-19.531,-13.672,-13.672,-6.836,0.000,0
182379.688,-24.414,-22.461,-20.996,-11.719,0.000,0
182379.692,-31.250,-34.180,-27.344,-8.789,0.000,0
182379.696,-33.203,-33.691,-33.203,-7.324,0.000,0
182379.700,-34.668,-30.762,-31.738,-19.531,0.000,0
182379.704,-35.645,-32.715,-30.273,-31.738,0.000,0
182379.708,-30.273,-33.203,-34.668,-20.508,0.000,0
182379.712,-20.020,-26.367,-33.203,-16.113,0.000,0
182379.716,-23.438,-18.555,-22.461,-20.508,0.000,0
182379.720,-17.578,-13.184,-14.648,-18.066,0.000,0
182379.724,5.371,-2.930,-3.418,-1.465,0.000,0
182379.728,2.441,-6.836,-7.812,-1.953,0.000,0
182379.731,-18.066,-19.043,-14.648,-7.812,0.000,0
182379.735,-28.809,-28.320,-19.043,-5.859,0.000,0
182379.739,-25.879,-39.551,-34.180,-11.230,0.000,0
182379.743,-24.902,-39.062,-36.621,-11.719,0.000,0
182379.747,-20.020,-25.879,-10.742,1.953,0.000,0
182379.751,-17.090,-20.996,-6.348,-4.395,0.000,0
182379.755,-18.555,-27.832,-21.973,-13.672,0.000,0
182379.759,-14.648,-28.809,-20.508,-15.625,0.000,0
182379.763,-19.531,-24.902,-20.996,-23.926,0.000,0
182379.767,-26.855,-20.020,-18.066,-28.320,0.000,0
182379.770,-20.020,-21.484,-9.766,-16.602,0.000,0
182379.774,-22.461,-29.297,-28.809,-18.066,0.000,0
182379.778,-32.715,-28.320,-38.086,-34.668,0.000,0
182379.782,-33.203,-20.996,-24.414,-35.645,0.000,0
182379.786,-26.367,-19.531,-17.578,-23.438,0.000,0
182379.790,-26.367,-18.555,-18.555,-20.020,0.000,0
182379.794,-20.508,-9.766,-13.672,-7.324,0.000,0
182379.798,-27.832,-13.184,-15.625,-22.461,0.000,0
182379.802,-39.062,-19.531,-24.414,-38.574,0.000,0
182379.806,-32.227,-27.344,-27.832,-17.578,0.000,0
182379.810,-19.043,-24.902,-24.414,-3.906,0.000,0
182379.813,-23.926,-20.508,-21.973,-17.090,0.000,0
182379.817,-28.809,-22.461,-23.926,-24.414,0.000,0
182379.821,-16.113,-16.113,-16.602,-15.137,0.000,0
182379.825,-19.531,-20.508,-19.043,-5.859,0.000,0
182379.829,-38.086,-29.785,-31.250,-32.227,0.000,0
182379.833,-51.758,-36.621,-41.016,-43.945,0.000,0
182379.837,-44.434,-36.133,-39.551,-23.926,0.000,0
182379.841,-23.926,-21.484,-20.508,-18.066,0.000,0
182379.845,-29.297,-20.508,-16.602,-16.113,0.000,0
182379.849,-45.898,-33.203,-29.297,-22.949,0.000,0
182379.853,-49.316,-33.203,-35.645,-27.832,0.000,0
182379.856,-42.480,-31.738,-41.992,-25.879,0.000,0
182379.860,-41.504,-37.109,-40.527,-36.133,0.000,0
182379.864,-49.316,-31.738,-34.180,-41.992,0.000,0
182379.868,-47.852,-25.879,-30.762,-39.551,0.000,0
182379.872,-27.344,-17.578,-21.973,-13.672,0.000,0
182379.876,-15.137,-16.602,-21.973,0.000,0.000,0
182379.880,-31.738,-31.250,-27.344,-27.832,0.000,0
182379.884,-51.270,-37.109,-34.180,-32.227,0.000,0
182379.888,-43.457,-29.785,-30.273,-18.555,0.000,0
182379.892,-26.855,-27.832,-16.602,-16.602,0.000,0
182379.895,-28.320,-27.344,-18.555,-30.273,0.000,0
182379.899,-30.273,-20.996,-15.625,-40.527,0.000,0
182379.903,-17.090,-7.324,-2.441,-15.625,0.000,0
182379.907,-12.695,-13.184,-15.137,-4.395,0.000,0
182379.911,-23.926,-22.949,-24.414,-14.160,0.000,0
182379.915,-36.621,-23.438,-24.414,-33.203,0.000,0
182379.919,-32.227,-25.391,-23.926,-38.574,0.000,0
182379.923,-20.996,-20.508,-19.043,-12.695,0.000,0
182379.927,-25.879,-20.020,-19.043,-9.277,0.000,0
182379.931,-34.180,-28.809,-30.273,-24.902,0.000,0
182379.935,-38.086,-28.320,-28.320,-26.855,0.000,0
182379.938,-36.621,-29.785,-26.367,-28.809,0.000,0
182379.942,-30.273,-27.344,-26.367,-23.926,0.000,0
182379.946,-31.738,-18.555,-10.742,-23.926,0.000,0
182379.950,-41.504,-23.926,-19.531,-34.180,0.000,0
182379.954,-36.133,-28.320,-32.227,-34.668,0.000,0
182379.958,-29.297,-28.320,-33.691,-49.316,0.000,0
182379.962,-21.484,-20.020,-18.066,-41.504,0.000,0
182379.966,-12.207,-12.695,-5.371,-27.832,0.000,0
182379.970,-13.184,-11.230,-10.742,-18.555,0.000,0
182379.974,-27.832,-23.926,-28.320,-21.484,0.000,0
182379.978,-42.969,-37.598,-39.062,-41.992,0.000,0
182379.981,-45.410,-37.109,-31.738,-37.598,0.000,0
182379.985,-35.645,-29.297,-24.902,-16.602,0.000,0
182379.989,-17.578,-20.020,-20.508,-13.184,0.000,0
182379.993,-21.484,-21.484,-20.020,-26.367,0.000,0
182379.997,-39.062,-18.066,-21.484,-37.598,0.000,0
182380.001,-32.227,-9.277,-16.602,-31.250,0.000,0
182380.005,-13.672,-10.254,-15.625,-13.672,0.000,0
182380.009,-11.230,-17.090,-24.902,-8.301,0.000,0
182380.013,-30.273,-30.762,-34.668,-38.086,0.000,0
182380.017,-37.109,-31.738,-29.297,-52.246,0.000,0
182380.020,-10.254,-17.090,-15.137,-15.625,0.000,0
182380.024,0.000,-15.625,-6.836,-5.859,0.000,0
182380.028,-17.578,-22.461,-7.812,-29.785,0.000,0
182380.032,-32.227,-31.250,-23.926,-42.969,0.000,0
182380.036,-36.621,-42.480,-39.062,-41.992,0.000,0
182380.040,-20.508,-33.203,-30.762,-19.043,0.000,0
182380.044,-25.879,-31.250,-32.227,-20.996,0.000,0
182380.048,-41.992,-32.227,-29.785,-37.598,0.000,0
182380.052,-23.926,-15.137,-8.301,-17.578,0.000,0
182380.056,-18.555,-16.113,-9.766,-4.883,0.000,0
182380.060,-37.109,-22.949,-19.043,-12.695,0.000,0
182380.063,-45.410,-23.926,-21.973,-29.297,0.000,0
182380.067,-38.574,-25.879,-27.344,-24.414,0.000,0
182380.071,-33.691,-28.809,-20.508,-22.461,0.000,0
182380.075,-40.527,-26.855,-20.508,-33.691,0.000,0
182380.079,-44.922,-19.043,-21.973,-41.016,0.000,0
182380.083,-34.180,-16.113,-14.648,-30.762,0.000,0
182380.087,-34.180,-25.391,-15.625,-26.855,0.000,0
182380.091,-39.551,-32.715,-21.973,-38.574,0.000,0
182380.095,-43.457,-30.762,-28.809,-35.156,0.000,0
182380.099,-32.715,-22.461,-22.461,-21.484,0.000,0
182380.103,-9.766,-15.137,-9.766,-3.906,0.000,0
182380.106,-5.859,-13.184,-13.672,12.207,0.000,0
182380.110,-15.625,-19.043,-13.672,-2.441,0.000,0
182380.114,-26.367,-29.297,-25.391,-15.625,0.000,0
182380.118,-30.762,-27.832,-35.156,-11.230,0.000,0
182380.122,-33.691,-35.645,-34.180,-8.789,0.000,0
182380.126,-41.992,-44.434,-38.086,-19.043,0.000,0
182380.130,-45.410,-37.109,-34.668,-29.785,0.000,0
182380.134,-36.621,-32.715,-25.879,-21.973,0.000,0
182380.138,-18.555,-21.973,-21.484,-3.906,0.000,0
182380.142,-10.742,-12.695,-10.254,-6.836,0.000,0
182380.145,-28.809,-24.414,-21.484,-25.391,0.000,0
182380.149,-27.832,-28.809,-31.250,-27.832,0.000,1
182380.153,-15.625,-29.297,-26.367,-22.949,0.000,0
182380.157,-18.066,-30.273,-24.902,-18.555,0.000,0
182380.161,-31.250,-33.691,-24.902,-32.227,0.000,0
182380.165,-32.715,-33.203,-22.461,-27.832,0.000,0
182380.169,-16.602,-24.414,-13.672,-19.043,0.000,0
182380.173,-13.672,-19.531,-10.742,-12.207,0.000,0
182380.177,-28.320,-21.973,-27.344,-6.836,0.000,0
182380.181,-33.691,-18.555,-27.344,-25.879,0.000,0
182380.185,-35.645,-21.973,-25.391,-21.484,0.000,0
182380.188,-42.480,-33.203,-38.574,-21.973,0.000,0
182380.192,-49.316,-29.785,-37.109,-42.480,0.000,0
182380.196,-54.688,-27.344,-30.762,-45.898,0.000,0
182380.200,-52.246,-32.227,-28.809,-41.504,0.000,0
182380.204,-45.898,-33.203,-33.691,-39.551,0.000,0
182380.208,-49.316,-34.180,-35.645,-41.016,0.000,0
182380.212,-61.523,-33.691,-33.691,-61.523,0.000,0
182380.216,-40.527,-15.625,-17.090,-32.227,0.000,0
182380.220,-18.066,-14.648,-9.277,-3.906,0.000,0
182380.224,-28.320,-27.832,-21.484,-13.184,0.000,0
182380.228,-30.273,-29.297,-27.344,-26.855,0.000,0
182380.231,-23.438,-26.855,-21.973,-30.273,0.000,0
182380.235,-24.414,-33.203,-29.785,-15.137,0.000,0
182380.239,-27.832,-37.109,-39.062,-20.508,0.000,0
182380.243,-39.551,-36.621,-40.039,-30.762,0.000,0
182380.247,-46.387,-40.527,-41.992,-33.691,0.000,0
182380.251,-29.785,-35.645,-38.574,-37.598,0.000,0
182380.255,-18.555,-24.902,-29.785,-29.297,0.000,0
182380.259,-19.531,-20.020,-23.926,-22.461,0.000,0
182380.263,-18.066,-17.578,-18.066,-25.879,0.000,0
182380.267,-16.113,-21.484,-20.996,-21.484,0.000,0
182380.270,-19.043,-26.367,-25.879,-22.949,0.000,0
182380.274,-27.344,-20.996,-16.113,-21.973,0.000,0
182380.278,-36.133,-24.414,-20.996,-33.691,0.000,0
182380.282,-45.898,-30.273,-33.691,-51.270,0.000,0
182380.286,-38.086,-28.809,-32.715,-34.180,0.000,0
182380.290,-30.762,-24.414,-39.062,-27.832,0.000,0
182380.294,-48.340,-23.438,-41.016,-39.062,0.000,0
182380.298,-44.922,-21.973,-23.438,-22.949,0.000,0
182380.302,-26.367,-21.484,-22.949,-11.230,0.000,0
182380.306,-35.156,-30.762,-34.668,-26.367,0.000,0
182380.310,-36.621,-22.949,-23.438,-24.902,0.000,0
182380.313,-26.367,-15.625,-21.973,-13.672,0.000,0
182380.317,-19.531,-16.602,-22.461,-8.789,0.000,0
182380.321,-18.066,-20.020,-21.484,-11.230,0.000,0
182380.325,-37.109,-31.738,-32.227,-33.203,0.000,0
182380.329,-44.922,-33.203,-45.410,-52.246,0.000,0
182380.333,-23.438,-25.879,-40.527,-34.668,0.000,0
182380.337,-13.672,-19.043,-20.996,-17.578,0.000,0
182380.341,-29.297,-18.066,-15.625,-27.344,0.000,0
182380.345,-27.832,-21.484,-16.602,-17.090,0.000,0
182380.349,-20.508,-25.391,-30.273,-6.836,0.000,0
182380.353,-32.715,-32.715,-38.574,-20.508,0.000,0
182380.356,-41.016,-38.574,-39.062,-35.156,0.000,0
182380.360,-35.645,-31.738,-32.715,-31.738,0.000,0
182380.364,-24.414,-25.391,-24.902,-24.414,0.000,0
182380.368,-16.602,-24.414,-31.738,-21.973,0.000,0
182380.372,-18.555,-23.926,-31.250,-18.555,0.000,0
182380.376,-26.855,-22.949,-17.578,-25.391,0.000,0
