timestamps,TP9,AF7,AF8,TP10,Right AUX,Marker0
181976.579,-62.988,-25.391,-36.133,-55.664,0.000,0
181976.583,-21.484,-19.531,-29.297,-34.180,0.000,0
181976.587,-23.438,-29.297,-54.199,-20.508,0.000,0
181976.591,-33.691,-30.762,-45.898,-37.598,0.000,0
181976.595,-34.668,-11.230,-16.602,-45.898,0.000,0
181976.599,-22.949,-15.137,-17.578,-20.996,0.000,0
181976.603,-10.254,-26.855,-37.598,-13.672,0.000,0
181976.606,-2.441,-16.113,-31.738,0.488,0.000,0
181976.610,-15.625,-9.277,-8.301,-11.230,0.000,0
181976.614,-18.066,-19.043,-22.949,-33.203,0.000,0
181976.618,-7.324,-23.926,-33.691,-27.832,0.000,0
181976.622,-13.184,-20.996,-28.809,-26.855,0.000,0
181976.626,-25.391,-3.418,-10.742,-31.250,0.000,0
181976.630,-6.836,-0.488,-1.953,-49.805,0.000,0
181976.634,11.719,-9.277,-20.508,-29.297,0.000,0
181976.638,0.977,-18.066,-32.715,-28.809,0.000,0
181976.642,-38.086,-31.250,-44.922,-73.242,0.000,0
181976.645,-58.105,-27.832,-51.270,-56.641,0.000,0
181976.649,-33.691,-23.926,-49.805,-17.090,0.000,0
181976.653,-10.254,-22.949,-39.062,-9.766,0.000,0
181976.657,-0.977,-12.695,-17.090,-15.137,0.000,0
181976.661,-12.207,-10.254,-7.812,-24.414,0.000,0
181976.665,-18.555,-19.531,-25.391,-30.273,0.000,0
181976.669,1.953,-21.484,-32.715,-7.812,0.000,0
181976.673,-5.371,-26.367,-25.879,-0.488,0.000,0
181976.677,-37.598,-33.691,-41.016,-27.344,0.000,0
181976.681,-34.180,-28.809,-40.039,-40.527,0.000,0
181976.685,-5.371,-20.996,-26.367,-7.812,0.000,0
181976.688,-4.395,-8.789,-21.973,5.371,0.000,0
181976.692,-17.578,5.371,-15.137,-13.184,0.000,0
181976.696,-37.598,-22.461,-34.668,-37.598,0.000,0
181976.700,-25.879,-36.621,-39.062,-41.992,0.000,0
181976.704,-10.254,-26.367,-39.062,-24.414,0.000,0
181976.708,-14.648,-21.973,-39.062,-23.926,0.000,0
181976.712,-14.648,-9.766,-23.926,-20.508,0.000,0
181976.716,3.418,-5.859,-20.020,0.977,0.000,0
181976.720,0.000,-15.137,-20.020,-3.418,0.000,0
181976.724,-31.250,-22.461,-36.133,-24.902,0.000,0
181976.728,-63.965,-32.715,-47.363,-54.199,0.000,0
181976.731,-60.547,-34.180,-46.875,-56.152,0.000,0
181976.735,-19.531,-28.809,-40.527,-19.043,0.000,0
181976.739,-21.484,-26.855,-36.621,-41.016,0.000,0
181976.743,-34.668,-27.832,-50.781,-90.332,0.000,0
181976.747,-26.367,-8.301,-39.551,-45.410,0.000,0
181976.751,-2.441,7.324,-10.742,13.184,0.000,0
181976.755,8.789,-3.418,-2.441,10.254,0.000,0
181976.759,-20.508,-15.625,-12.207,-29.785,0.000,0
181976.763,-46.387,-22.461,-32.227,-55.176,0.000,0
181976.767,-41.992,-21.484,-35.645,-30.273,0.000,0
181976.770,-30.762,-20.996,-34.668,-18.066,0.000,0
181976.774,-42.969,-24.414,-39.551,-41.504,0.000,0
181976.778,-57.617,-30.762,-37.109,-69.336,0.000,0
181976.782,-41.016,-25.391,-33.691,-55.664,0.000,0
181976.786,-22.949,-21.973,-34.668,-9.277,0.000,0
181976.790,-19.043,-25.879,-38.086,-16.602,0.000,0
181976.794,-22.461,-20.020,-34.668,-52.734,0.000,0
181976.798,-33.203,-24.414,-41.504,-61.523,0.000,0
181976.802,-18.555,-33.691,-63.477,-41.504,0.000,0
181976.806,-1.465,-24.414,-44.434,-34.180,0.000,0
181976.810,-24.902,-13.672,-20.508,-46.387,0.000,0
181976.813,-27.832,-11.719,-24.414,-35.156,0.000,0
181976.817,-6.836,-19.043,-22.949,-44.922,0.000,0
181976.821,0.488,-20.020,-26.855,-23.438,0.000,0
181976.825,-25.879,-19.043,-33.203,-18.066,0.000,0
181976.829,-52.734,-31.250,-41.016,-74.707,0.000,0
181976.833,-27.344,-23.926,-35.645,-48.340,0.000,0
181976.837,9.766,-7.812,-20.996,-17.578,0.000,0
181976.841,-4.883,0.977,-14.648,-32.227,0.000,0
181976.845,-37.109,-1.465,-3.906,-53.711,0.000,0
181976.849,-15.625,-5.371,-14.648,-34.180,0.000,0
181976.853,7.324,1.465,-28.320,6.348,0.000,0
181976.856,-14.160,-12.207,-29.785,-24.902,0.000,0
181976.860,-44.922,-27.832,-34.668,-48.828,0.000,0
181976.864,-44.434,-24.414,-29.297,-29.297,0.000,0
181976.868,-21.484,-18.555,-18.066,-6.348,0.000,0
181976.872,-15.137,-16.602,-21.484,0.000,0.000,0
181976.876,-31.250,-16.602,-23.926,-25.391,0.000,0
181976.880,-27.832,-15.625,-17.090,-38.086,0.000,0
181976.884,-12.207,-12.207,-16.113,-16.113,0.000,0
181976.888,-13.184,-3.418,-6.836,10.254,0.000,0
181976.892,8.301,9.277,-10.742,12.695,0.000,0
181976.895,-20.020,-8.789,-33.203,-32.227,0.000,0
181976.899,-53.711,-27.832,-39.551,-40.039,0.000,0
181976.903,-21.484,-27.344,-34.668,-2.441,0.000,0
181976.907,-20.996,-24.902,-16.113,-11.230,0.000,0
181976.911,-33.691,-17.090,-7.812,-28.809,0.000,0
181976.915,-22.461,-16.113,-14.160,-26.367,0.000,0
181976.919,-0.488,-9.277,-6.836,-3.418,0.000,0
181976.923,-20.020,-6.836,-2.441,1.465,0.000,0
181976.927,-60.547,-17.578,-29.785,-38.086,0.000,0
181976.931,-56.152,-27.344,-61.035,-40.039,0.000,0
181976.935,-26.367,-26.855,-45.410,-18.555,0.000,0
181976.938,-13.184,-17.578,-19.043,-30.762,0.000,0
181976.942,-25.391,-20.996,-28.809,-35.645,0.000,0
181976.946,-28.320,-12.695,-23.926,-41.992,0.000,0
181976.950,-24.414,-5.371,-9.766,-12.695,0.000,0
181976.954,1.953,-7.812,-14.648,21.973,0.000,0
181976.958,8.789,-9.766,-20.508,-18.555,0.000,0
181976.962,-29.297,-15.137,-28.809,-44.922,0.000,0
181976.966,-25.391,-18.555,-29.297,-10.742,0.000,0
181976.970,3.906,-19.043,-38.086,0.977,0.000,0
181976.974,-15.625,-19.043,-45.410,-19.043,0.000,0
181976.978,-18.066,-12.695,-28.809,-36.133,0.000,0
181976.981,-9.277,-12.207,-27.344,-30.273,0.000,0
181976.985,-9.277,-17.578,-32.715,-2.930,0.000,0
181976.989,-16.602,-23.926,-36.133,7.324,0.000,0
181976.993,-41.992,-28.320,-32.227,-26.855,0.000,0
181976.997,-45.410,-27.344,-26.855,-41.504,0.000,0
181977.001,-14.160,-30.762,-39.551,-7.324,0.000,0
181977.005,-1.465,-27.344,-41.992,0.000,0.000,0
181977.009,-32.227,-23.438,-29.785,-36.621,0.000,0
181977.013,-32.715,-22.949,-35.645,-42.480,0.000,0
181977.017,-18.066,-31.250,-57.129,-35.645,0.000,0
181977.020,-25.879,-29.297,-41.992,-23.926,0.000,0
181977.024,-17.578,-14.160,-10.742,-22.949,0.000,0
181977.028,-1.953,-4.395,-6.348,-23.926,0.000,0
181977.032,0.000,-7.324,-17.578,-2.930,0.000,0
181977.036,-30.273,-20.508,-35.645,-13.184,0.000,0
181977.040,-45.410,-25.879,-39.551,-34.668,0.000,0
181977.044,-34.668,-22.949,-35.156,-40.039,0.000,0
181977.048,-16.602,-26.367,-30.762,-35.645,0.000,0
181977.052,12.695,-22.461,-25.879,-5.859,0.000,0
181977.056,0.977,-20.020,-26.855,-11.719,0.000,0
181977.060,5.859,-6.836,-18.066,-32.227,0.000,0
181977.063,13.672,-0.488,-22.949,-11.230,0.000,0
181977.067,-0.977,-15.625,-27.832,1.953,0.000,0
181977.071,1.465,-15.137,-17.090,1.953,0.000,0
181977.075,-3.906,-16.113,-20.996,-18.066,0.000,0
181977.079,-17.090,-16.113,-23.438,-33.203,0.000,0
181977.083,-21.484,-13.672,-25.879,-11.719,0.000,0
181977.087,-9.277,-15.625,-28.809,5.371,0.000,0
181977.091,-13.184,-20.996,-24.414,-15.137,0.000,0
181977.095,-38.574,-30.762,-35.156,-57.129,0.000,0
181977.099,-33.691,-27.832,-34.668,-47.363,0.000,0
181977.103,-16.602,-26.855,-35.645,-11.230,0.000,0
181977.106,-20.996,-28.809,-43.457,-13.184,0.000,0
181977.110,-36.133,-20.508,-22.949,-43.457,0.000,0
181977.114,-28.320,-13.184,-24.414,-41.504,0.000,0
181977.118,-0.977,-14.648,-45.410,1.953,0.000,0
181977.122,-15.137,-15.625,-39.062,-20.508,0.000,0
181977.126,-34.180,-9.766,-26.855,-26.367,0.000,0
181977.130,-6.348,-12.695,-33.203,-0.488,0.000,0
181977.134,-0.977,-18.555,-33.203,-10.742,0.000,0
181977.138,-12.695,-6.836,-16.113,-2.441,0.000,0
181977.142,-14.648,-2.930,-12.695,-11.719,0.000,0
181977.145,-18.066,-8.301,-27.344,-31.738,0.000,0
181977.149,-21.973,-10.254,-25.879,-14.648,0.000,0
181977.153,-28.320,-17.090,-21.484,-18.066,0.000,0
181977.157,-41.992,-19.043,-23.438,-51.270,0.000,0
181977.161,-43.945,-20.020,-36.133,-53.711,0.000,0
181977.165,-5.371,-10.254,-36.133,-6.836,0.000,0
181977.169,9.766,1.953,-16.602,10.742,0.000,0
181977.173,-11.719,1.465,-1.465,-21.973,0.000,0
181977.177,-11.230,7.324,1.953,-6.348,0.000,0
181977.181,-1.953,-2.930,-8.301,19.043,0.000,0
181977.185,-6.836,-29.297,-44.434,10.254,0.000,0
181977.188,-44.434,-35.645,-57.617,-18.066,0.000,0
181977.192,-69.336,-22.461,-33.203,-56.641,0.000,0
181977.196,-43.457,-23.926,-38.574,-41.016,0.000,0
181977.200,-22.949,-27.832,-41.504,-9.766,0.000,0
181977.204,-19.043,-19.531,-18.555,-2.441,0.000,0
181977.208,-20.508,-13.184,-22.461,-36.133,0.000,0
181977.212,-23.926,-23.438,-41.992,-76.660,0.000,0
181977.216,-36.133,-31.738,-33.203,-40.527,0.000,0
181977.220,-20.996,-20.996,-17.090,-7.324,0.000,0
181977.224,-15.137,-13.184,-14.648,-24.902,0.000,0
181977.228,-26.855,-16.602,-24.414,-47.363,0.000,0
181977.231,-37.598,-27.344,-32.227,-54.199,0.000,0
181977.235,-31.250,-27.344,-37.109,-30.762,0.000,0
181977.239,-33.203,-20.020,-41.016,-32.227,0.000,0
181977.243,-47.363,-20.996,-27.344,-49.316,0.000,0
181977.247,-38.086,-20.508,-30.273,-27.832,0.000,0
181977.251,-17.578,-2.930,-18.555,-1.953,0.000,0
181977.255,-33.691,-11.230,-15.625,-21.973,0.000,0
181977.259,-68.359,-27.344,-38.574,-56.152,0.000,0
181977.263,-67.871,-28.809,-48.828,-52.246,0.000,0
181977.267,-12.695,-18.555,-35.645,-18.555,0.000,0
181977.270,-9.277,-0.488,-9.277,-4.395,0.000,0
181977.274,-23.438,-3.418,-2.441,-26.367,0.000,0
181977.278,-32.227,-26.367,-26.367,-41.992,0.000,0
181977.282,-43.457,-33.691,-43.945,-32.227,0.000,0
181977.286,-41.992,-29.785,-44.434,-20.996,0.000,0
181977.290,-49.316,-26.367,-39.062,-49.316,0.000,0
181977.294,-52.246,-20.996,-51.758,-70.801,0.000,0
181977.298,-47.852,-34.180,-64.453,-54.688,0.000,0
181977.302,-55.176,-41.992,-45.898,-41.992,0.000,0
181977.306,-44.922,-13.184,-9.277,-18.066,0.000,0
181977.310,-39.551,-10.254,-3.906,-35.156,0.000,0
181977.313,-32.715,-22.461,-21.973,-41.504,0.000,0
181977.317,-25.391,-16.602,-24.414,-5.859,0.000,0
181977.321,-24.414,-4.883,-10.254,0.977,0.000,0
181977.325,-41.992,-9.277,-17.578,-28.809,0.000,0
181977.329,-50.293,-15.625,-22.461,-47.852,0.000,0
181977.333,-26.855,-11.719,-18.066,-29.297,0.000,0
181977.337,-39.551,-24.902,-29.785,-28.809,0.000,0
181977.341,-67.383,-38.574,-40.039,-49.805,0.000,0
181977.345,-66.895,-39.062,-40.527,-57.129,0.000,0
181977.349,-43.457,-31.250,-33.203,-40.527,0.000,0
181977.353,-32.227,-22.949,-17.578,-27.344,0.000,0
181977.356,-33.203,-23.438,-22.949,-41.016,0.000,0
181977.360,-30.273,-8.301,-16.602,-42.480,0.000,0
181977.364,-15.625,5.859,17.578,-6.348,0.000,0
181977.368,-19.043,-11.230,2.930,-10.254,0.000,0
181977.372,-20.996,-15.625,-19.531,-38.086,0.000,0
181977.376,-38.086,-20.020,-23.438,-51.758,0.000,0
181977.380,-36.133,-31.250,-36.133,-31.250,0.000,0
181977.384,11.719,-16.113,-20.996,16.602,0.000,0
181977.388,21.973,-0.977,-8.789,20.508,0.000,0
181977.392,2.930,-3.906,-9.766,-13.672,0.000,0
181977.395,2.930,-6.348,-14.648,-14.160,0.000,0
181977.399,7.324,-9.766,-28.809,1.465,0.000,0
181977.403,-1.953,-15.625,-22.949,8.789,0.000,0
181977.407,-23.438,-15.625,-21.973,-24.902,0.000,0
181977.411,-41.504,-9.277,-23.438,-53.711,0.000,0
181977.415,-16.602,1.465,-3.906,-10.254,0.000,0
181977.419,24.414,21.484,17.090,31.250,0.000,0
181977.423,1.465,11.719,1.953,1.465,0.000,0
181977.427,-47.363,-21.973,-20.508,-45.898,0.000,0
181977.431,-31.250,-23.438,-20.508,-33.691,0.000,0
181977.435,-8.789,-26.855,-40.527,-13.184,0.000,0
181977.438,-26.367,-33.691,-56.152,-41.016,0.000,0
181977.442,-46.875,-28.809,-45.410,-54.688,0.000,0
181977.446,-34.180,-25.391,-39.551,-43.945,0.000,0
181977.450,3.906,-15.137,-35.156,-24.902,0.000,0
181977.454,6.836,-7.324,-35.645,-1.953,0.000,0
181977.458,-6.348,0.000,-28.809,-26.367,0.000,0
181977.462,-4.883,4.883,-14.648,-28.320,0.000,0
181977.466,11.719,-0.488,-11.230,-4.395,0.000,0
181977.470,-5.371,-11.230,-29.785,-35.645,0.000,0
181977.474,-40.039,-22.949,-47.852,-65.430,0.000,0
181977.478,-35.156,-20.020,-37.109,-75.684,0.000,0
181977.481,-11.230,-14.160,-31.250,-35.156,0.000,0
181977.485,-11.230,-16.602,-30.762,0.488,0.000,0
181977.489,-26.367,-17.578,-28.320,-40.527,0.000,0
181977.493,-19.531,-7.324,-37.109,-48.340,0.000,0
181977.497,9.766,4.395,-30.273,-16.113,0.000,0
181977.501,-2.441,-7.324,-12.695,-18.555,0.000,0
181977.505,-30.762,-20.020,-22.461,-43.945,0.000,0
181977.509,-40.039,-24.902,-37.109,-82.031,0.000,0
181977.513,-31.250,-23.926,-35.156,-66.406,0.000,0
181977.517,-10.254,-20.508,-35.156,-12.207,0.000,0
181977.520,-21.484,-27.832,-43.945,0.488,0.000,0
181977.524,-39.062,-28.809,-43.457,-34.180,0.000,0
181977.528,-26.367,-19.531,-42.969,-48.340,0.000,0
181977.532,-24.414,-18.555,-42.480,-8.789,0.000,0
181977.536,-10.742,-14.160,-35.645,6.348,0.000,0
181977.540,5.371,-7.324,-19.043,-16.602,0.000,0
181977.544,-10.742,-10.742,-13.184,-41.016,0.000,0
181977.548,-26.367,-28.809,-33.203,-56.152,0.000,0
181977.552,-12.695,-27.832,-37.598,-31.250,0.000,0
181977.556,-26.367,-18.066,-27.344,-26.367,0.000,0
181977.560,-42.480,-20.508,-30.273,-50.781,0.000,0
181977.563,-11.719,-13.184,-27.832,-37.598,0.000,0
181977.567,14.160,-6.836,-20.020,-13.184,0.000,0
181977.571,-6.348,-16.113,-30.273,-11.230,0.000,0
181977.575,-35.156,-24.902,-41.504,-35.645,0.000,0
181977.579,-31.738,-24.902,-45.410,-43.945,0.000,0
181977.583,-28.809,-25.879,-46.387,-22.949,0.000,0
181977.587,-6.836,-19.043,-20.996,-20.020,0.000,0
181977.591,-23.926,-13.184,-16.602,-33.203,0.000,0
181977.595,-44.922,-27.344,-42.480,-41.992,0.000,0
181977.599,-19.531,-27.832,-44.922,-25.879,0.000,0
181977.603,-17.090,-27.344,-40.039,-14.648,0.000,0
181977.606,-42.969,-29.785,-37.598,-45.898,0.000,0
181977.610,-46.387,-29.297,-54.688,-67.383,0.000,0
181977.614,-28.320,-29.297,-58.105,-41.016,0.000,0
181977.618,-25.879,-31.738,-39.062,-20.020,0.000,0
181977.622,-23.926,-21.973,-24.902,-11.719,0.000,0
181977.626,-48.340,-12.207,-12.695,-22.949,0.000,0
181977.630,-48.340,-20.996,-22.461,-29.297,0.000,0
181977.634,-19.531,-30.762,-39.551,-13.184,0.000,0
181977.638,-20.996,-34.180,-39.062,-41.016,0.000,0
181977.642,-41.016,-31.250,-39.062,-72.266,0.000,0
181977.645,-42.480,-26.367,-32.715,-56.641,0.000,0
181977.649,-24.902,-24.902,-34.668,-37.109,0.000,0
181977.653,-25.879,-29.297,-48.340,-30.762,0.000,0
181977.657,-49.805,-24.414,-41.504,-41.992,0.000,0
181977.661,-46.875,-10.254,-24.414,-41.016,0.000,0
181977.665,-39.062,-13.184,-18.555,-25.391,0.000,0
181977.669,-45.898,-29.297,-45.410,-17.090,0.000,0
181977.673,-50.293,-34.668,-50.781,-26.367,0.000,0
181977.677,-57.129,-29.297,-42.480,-40.039,0.000,0
181977.681,-47.852,-30.273,-42.969,-27.832,0.000,0
181977.685,-28.809,-30.762,-39.062,-2.930,0.000,0
181977.688,-23.438,-20.508,-27.832,-14.160,0.000,0
181977.692,-50.781,-26.367,-40.039,-51.758,0.000,0
181977.696,-60.547,-37.598,-46.875,-42.969,0.000,0
181977.700,-34.180,-33.203,-38.086,-9.277,0.000,0
181977.704,-33.691,-25.879,-28.809,-14.160,0.000,0
181977.708,-54.199,-22.949,-20.508,-41.504,0.000,0
181977.712,-43.457,-16.602,-27.344,-45.898,0.000,0
181977.716,-30.273,-19.531,-25.391,-35.156,0.000,0
181977.720,-31.738,-28.809,-38.574,-32.715,0.000,0
181977.724,-53.711,-31.250,-55.664,-58.594,0.000,0
181977.728,-61.035,-26.367,-54.199,-82.031,0.000,0
181977.731,-37.598,-20.996,-37.109,-57.617,0.000,0
181977.735,-26.367,-23.438,-33.203,-26.367,0.000,0
181977.739,-25.391,-16.113,-30.273,-24.902,0.000,0
181977.743,-31.250,-13.672,-25.391,-43.945,0.000,0
181977.747,-28.320,-14.648,-23.926,-40.527,0.000,0
181977.751,-13.184,-16.113,-23.438,-7.324,0.000,0
181977.755,-21.973,-22.461,-27.344,-24.414,0.000,0
181977.759,-45.898,-23.926,-35.645,-60.059,0.000,0
181977.763,-33.203,-25.391,-39.551,-56.641,0.000,0
181977.767,-7.324,-20.020,-35.156,-19.043,0.000,0
181977.770,-27.344,-13.184,-25.391,-6.348,0.000,0
181977.774,-32.227,-12.695,-18.555,-29.785,0.000,0
181977.778,-16.602,-15.625,-27.344,-25.391,0.000,0
181977.782,-20.996,-24.902,-29.297,-27.344,0.000,0
181977.786,-35.156,-28.809,-32.227,-41.016,0.000,0
181977.790,-43.457,-26.855,-44.434,-54.688,0.000,0
181977.794,-27.344,-13.672,-21.973,-29.785,0.000,0
181977.798,0.000,2.930,0.977,24.414,0.000,0
181977.802,-10.742,-11.719,-21.973,-1.465,0.000,0
181977.806,-49.316,-37.598,-56.152,-66.895,0.000,0
181977.810,-59.082,-35.645,-58.594,-65.918,0.000,0
181977.813,-40.039,-28.320,-42.480,-22.949,0.000,0
181977.817,-26.367,-17.090,-27.832,0.977,0.000,0
181977.821,-29.785,-13.184,-22.461,-25.391,0.000,0
181977.825,-33.691,-17.090,-29.297,-52.734,0.000,0
181977.829,-13.184,-15.137,-22.949,-25.391,0.000,0
181977.833,16.602,-7.324,-10.742,14.648,0.000,0
181977.837,6.836,-10.254,-22.461,5.371,0.000,0
181977.841,-37.598,-25.879,-36.133,-58.105,0.000,0
181977.845,-34.180,-27.832,-37.109,-56.152,0.000,0
181977.849,-10.254,-26.855,-35.156,-4.395,0.000,0
181977.853,-23.438,-27.832,-37.109,-15.625,0.000,0
181977.856,-42.480,-27.832,-36.621,-51.758,0.000,0
181977.860,-39.062,-20.020,-23.926,-53.711,0.000,0
181977.864,-9.766,-9.277,-15.137,-23.438,0.000,0
181977.868,5.859,-10.742,-18.066,-24.414,0.000,0
181977.872,-34.668,-26.855,-32.227,-48.828,0.000,0
181977.876,-71.777,-37.109,-40.039,-53.223,0.000,0
181977.880,-50.293,-34.180,-36.133,-65.430,0.000,0
181977.884,-23.438,-19.531,-20.996,-32.715,0.000,0
181977.888,-32.227,-24.902,-38.086,-25.879,0.000,0
181977.892,-44.434,-33.691,-41.016,-60.059,0.000,0
181977.895,-27.344,-31.738,-32.227,-36.621,0.000,0
181977.899,-14.648,-28.809,-32.715,-20.020,0.000,0
181977.903,-25.391,-26.367,-35.645,-40.039,0.000,0
181977.907,-36.133,-16.113,-30.762,-45.410,0.000,0
181977.911,-34.668,-9.277,-20.020,-39.062,0.000,0
181977.915,1.953,-5.371,-1.465,-10.254,0.000,0
181977.919,0.977,-12.695,1.465,-23.926,0.000,0
181977.923,-38.574,-40.039,-36.621,-71.777,0.000,0
181977.927,-33.203,-40.039,-47.363,-55.176,0.000,0
181977.931,-18.555,-32.227,-41.992,-22.461,0.000,0
181977.935,-2.930,-27.832,-33.691,-7.812,0.000,0
181977.938,-23.438,-21.973,-21.484,-34.180,0.000,0
181977.942,-37.598,-13.184,-14.160,-54.199,0.000,0
181977.946,-9.766,-2.930,-8.301,8.301,0.000,0
181977.950,5.859,-13.184,-24.902,23.926,0.000,0
181977.954,-0.488,-25.391,-37.109,-35.156,0.000,0
181977.958,-33.691,-25.391,-35.156,-54.199,0.000,0
181977.962,-42.969,-33.203,-44.434,-47.363,0.000,0
181977.966,-1.465,-23.926,-32.715,-13.184,0.000,0
181977.970,16.113,-9.277,-25.879,-20.020,0.000,0
181977.974,-4.883,-8.301,-24.902,-38.574,0.000,0
181977.978,-4.883,-3.418,-12.207,-4.883,0.000,0
181977.981,22.461,1.465,-11.719,11.719,0.000,0
181977.985,19.043,-13.184,-24.414,3.906,0.000,0
181977.989,-18.066,-30.762,-46.387,-45.410,0.000,0
181977.993,-39.551,-40.527,-52.246,-77.637,0.000,0
181977.997,-21.484,-35.645,-31.250,-45.898,0.000,0
181978.001,-2.930,-15.137,-18.066,-22.949,0.000,0
181978.005,-26.855,-17.578,-28.809,-47.363,0.000,0
181978.009,-38.086,-17.578,-28.809,-50.781,0.000,0
181978.013,-34.180,-22.461,-32.227,-27.344,0.000,0
181978.017,-24.414,-30.762,-36.621,-4.395,0.000,0
181978.020,-20.020,-18.066,-17.090,-3.906,0.000,0
181978.024,-28.320,-21.484,-25.391,-38.086,0.000,0
181978.028,-3.906,-22.461,-29.297,-33.203,0.000,0
181978.032,27.832,-6.836,-14.160,2.441,0.000,0
181978.036,6.836,-7.324,-22.949,-10.254,0.000,0
181978.040,-28.320,-23.438,-36.133,-47.852,0.000,0
181978.044,-27.344,-22.461,-53.223,-59.570,0.000,0
181978.048,-17.090,-21.973,-53.711,-24.902,0.000,0
181978.052,-19.531,-25.391,-42.969,-11.719,0.000,0
181978.056,-20.996,-14.648,-25.391,-33.203,0.000,0
181978.060,-21.484,-11.230,-9.766,-35.645,0.000,0
181978.063,-13.184,-22.949,-26.367,-14.648,0.000,0
181978.067,-20.508,-35.156,-43.945,-14.160,0.000,0
181978.071,-44.434,-46.875,-48.828,-54.199,0.000,0
181978.075,-41.016,-39.551,-45.410,-55.664,0.000,0
181978.079,-31.738,-27.344,-39.062,-26.367,0.000,0
181978.083,-22.461,-27.344,-40.039,-19.043,0.000,0
181978.087,-23.438,-20.508,-39.062,-9.766,0.000,0
181978.091,-26.855,-11.230,-26.367,-19.043,0.000,0
181978.095,-6.836,-14.648,-22.949,-17.578,0.000,0
181978.099,-4.883,-20.020,-21.484,-3.906,0.000,0
181978.103,-15.625,-22.949,-28.320,-20.996,0.000,0
181978.106,-33.203,-24.414,-53.711,-37.598,0.000,0
181978.110,-38.086,-23.926,-41.504,-37.109,0.000,0
181978.114,11.719,-15.137,-16.113,12.207,0.000,0
181978.118,32.715,-6.836,-0.977,7.812,0.000,0
181978.122,0.000,-11.230,-1.953,-36.621,0.000,0
181978.126,-12.695,-12.695,-6.348,-32.227,0.000,0
181978.130,15.137,-3.906,-0.977,-0.977,0.000,0
181978.134,18.066,-15.137,-19.043,20.996,0.000,0
181978.138,-17.578,-37.109,-58.105,-28.809,0.000,0
181978.142,-39.062,-46.875,-67.383,-76.172,0.000,0
181978.145,-23.926,-36.133,-42.480,-51.270,0.000,0
181978.149,-8.789,-24.902,-20.020,-8.301,0.000,0
181978.153,-18.555,-29.297,-23.438,-6.836,0.000,0
181978.157,-33.691,-27.344,-24.902,-54.199,0.000,0
181978.161,-10.254,-12.207,-9.766,-32.715,0.000,0
181978.165,25.391,-11.719,-10.254,20.020,0.000,0
181978.169,0.488,-22.949,-15.137,-11.719,0.000,0
181978.173,-38.086,-29.297,-30.762,-62.012,0.000,0
181978.177,-22.461,-21.484,-41.992,-47.363,0.000,0
181978.181,7.324,-11.230,-6.836,-3.906,0.000,0
181978.185,-15.137,-23.926,-11.719,-17.578,0.000,0
181978.188,-29.297,-29.785,-30.762,-22.949,0.000,0
181978.192,-18.066,-30.762,-37.109,-23.926,0.000,0
181978.196,-5.371,-25.879,-42.480,-25.391,0.000,0
181978.200,-2.930,-6.836,-23.926,6.348,0.000,0
181978.204,-33.203,-21.973,-23.926,-25.879,0.000,0
181978.208,-41.016,-30.273,-39.551,-45.898,0.000,0
181978.212,-35.645,-30.762,-60.547,-29.785,0.000,0
181978.216,-29.297,-28.320,-41.504,-51.758,0.000,0
181978.220,-20.020,-6.348,-10.742,-50.293,0.000,0
181978.224,-27.344,-10.742,-5.859,-45.898,0.000,0
181978.228,-34.668,-32.227,-20.020,-31.738,0.000,0
181978.231,-35.645,-37.598,-32.715,-23.926,0.000,0
181978.235,-38.086,-32.715,-30.762,-46.875,0.000,0
181978.239,-50.781,-27.344,-29.297,-49.805,0.000,0
181978.243,-34.180,-23.438,-26.855,-29.297,0.000,0
181978.247,-17.090,-22.949,-25.879,-5.859,0.000,0
181978.251,-28.809,-26.367,-40.039,-8.301,0.000,0
181978.255,-59.570,-38.574,-48.828,-61.523,0.000,0
181978.259,-70.801,-30.273,-32.715,-71.289,0.000,0
181978.263,-32.227,-20.996,-29.297,-30.762,0.000,0
181978.267,-16.602,-27.344,-32.227,-14.648,0.000,0
181978.270,-24.414,-20.020,-24.902,-31.738,0.000,0
181978.274,-16.602,1.465,0.000,-35.645,0.000,0
181978.278,-11.719,-7.324,-10.742,-8.301,0.000,0
181978.282,-30.762,-28.809,-37.598,-9.766,0.000,0
181978.286,-59.082,-24.902,-40.527,-41.016,0.000,0
181978.290,-70.312,-24.902,-43.457,-43.457,0.000,0
181978.294,-69.824,-34.668,-47.363,-44.434,0.000,0
181978.298,-52.734,-29.785,-50.293,-30.273,0.000,0
181978.302,-48.340,-21.973,-42.480,-15.137,0.000,0
181978.306,-64.453,-22.461,-40.039,-42.480,0.000,0
181978.310,-53.223,-19.531,-33.691,-39.062,0.000,0
181978.313,-24.902,-15.137,-20.020,-14.648,0.000,0
181978.317,-41.504,-14.648,-16.113,-17.090,0.000,0
181978.321,-67.871,-13.672,-11.719,-32.715,0.000,0
181978.325,-47.852,-11.719,-4.883,-20.508,0.000,0
181978.329,-30.273,-22.949,-23.438,-12.695,0.000,0
181978.333,-33.203,-28.809,-44.922,-34.180,0.000,0
181978.337,-39.062,-28.320,-38.086,-47.852,0.000,0
181978.341,-52.246,-33.203,-46.875,-48.340,0.000,0
181978.345,-39.062,-28.320,-47.363,-29.785,0.000,0
181978.349,-26.855,-26.855,-39.062,-15.137,0.000,0
181978.353,-49.316,-31.250,-37.109,-47.852,0.000,0
181978.356,-61.035,-21.484,-25.391,-65.918,0.000,0
181978.360,-21.484,-0.977,-7.812,-22.949,0.000,0
181978.364,-11.230,-9.766,-19.043,3.418,0.000,0
181978.368,-39.062,-28.320,-36.133,-13.672,0.000,0
181978.372,-50.293,-31.250,-42.480,-54.199,0.000,0
181978.376,-53.223,-28.809,-54.688,-56.152,0.000,0
181978.380,-45.898,-37.109,-49.805,-28.809,0.000,0
181978.384,-21.484,-24.414,-26.367,-24.902,0.000,0
181978.388,-7.812,-3.418,-13.672,-28.809,0.000,0
181978.392,-5.371,-11.230,-20.508,-33.691,0.000,0
181978.395,5.371,-17.578,-20.996,-30.273,0.000,0
181978.399,4.395,-18.066,-20.508,-36.621,0.000,0
181978.403,-12.695,-31.250,-35.156,-49.805,0.000,0
181978.407,-14.160,-30.273,-35.156,-52.246,0.000,0
181978.411,-22.949,-18.555,-32.715,-37.109,0.000,0
181978.415,6.836,-10.254,-35.645,-1.465,0.000,0
181978.419,18.066,-12.695,-25.391,-6.836,0.000,0
181978.423,-25.879,-29.297,-29.785,-51.758,0.000,0
181978.427,-31.250,-38.086,-34.180,-45.410,0.000,0
181978.431,3.418,-32.227,-32.227,-15.137,0.000,0
181978.435,13.184,-27.832,-32.715,-36.133,0.000,0
181978.438,-9.277,-21.973,-30.762,-58.105,0.000,0
181978.442,5.859,-3.418,-17.090,-11.230,0.000,0
181978.446,34.668,-4.395,-26.855,17.090,0.000,0
181978.450,12.695,-21.484,-35.156,-7.324,0.000,0
181978.454,-12.695,-24.902,-31.738,-40.039,0.000,0
181978.458,-20.508,-17.578,-25.391,-53.223,0.000,0
181978.462,2.930,-22.461,-32.227,-21.484,0.000,0
181978.466,18.555,-28.320,-40.039,4.883,0.000,0
181978.470,-1.953,-26.855,-39.062,-16.602,0.000,0
181978.474,-19.043,-23.438,-28.809,-53.711,0.000,0
181978.478,0.000,-16.602,-20.508,-20.508,0.000,0
181978.481,19.043,-19.043,-32.227,2.441,0.000,0
181978.485,-6.836,-27.344,-38.086,-32.227,0.000,0
181978.489,-23.926,-26.855,-29.785,-38.086,0.000,0
181978.493,10.742,-19.531,-28.809,-23.926,0.000,0
181978.497,30.762,-19.043,-43.945,1.953,0.000,0
181978.501,20.020,-13.184,-36.621,10.742,0.000,0
181978.505,14.648,-7.812,-18.066,-3.906,0.000,0
181978.509,2.930,-25.879,-22.461,-23.438,0.000,0
181978.513,-6.836,-39.062,-26.855,-27.344,0.000,0
181978.517,10.742,-26.855,-20.508,-7.324,0.000,0
181978.520,8.301,-10.742,-16.113,-6.348,0.000,0
181978.524,-9.277,-17.090,-27.832,-23.926,0.000,0
181978.528,0.488,-21.973,-37.109,-12.207,0.000,0
181978.532,5.371,-21.484,-38.574,-14.648,0.000,0
181978.536,-8.301,-23.438,-53.711,-37.598,0.000,0
181978.540,-22.461,-23.926,-48.340,-55.176,0.000,0
181978.544,-20.996,-20.996,-27.344,-32.227,0.000,0
181978.548,13.184,-10.254,-19.043,8.789,0.000,0
181978.552,20.020,-0.488,-4.395,-7.812,0.000,0
181978.556,0.977,-5.859,-6.836,-24.902,0.000,0
181978.560,-2.930,-8.301,-4.883,-22.461,0.000,0
181978.563,7.324,-17.578,-30.762,-20.508,0.000,0
181978.567,-3.906,-25.391,-51.270,-16.602,0.000,0
181978.571,-13.672,-16.113,-28.320,-43.945,0.000,0
181978.575,2.930,2.930,-4.395,-31.738,0.000,0
181978.579,16.113,-4.395,-9.766,-0.977,0.000,0
181978.583,13.184,-28.809,-32.227,-16.602,0.000,0
181978.587,-20.508,-35.645,-33.203,-59.570,0.000,0
181978.591,-43.457,-20.020,-24.414,-53.223,0.000,0
181978.595,-36.133,-16.602,-31.738,-20.996,0.000,0
181978.599,-2.441,-7.324,-24.414,8.301,0.000,0
181978.603,-12.695,-12.207,-34.180,-7.324,0.000,0
181978.606,-55.176,-26.367,-46.387,-46.875,0.000,0
181978.610,-52.246,-26.367,-31.738,-41.992,0.000,0
181978.614,-13.672,-23.438,-31.738,-13.184,0.000,0
181978.618,-7.324,-19.531,-27.832,-9.766,0.000,0
181978.622,-29.297,-13.672,-19.043,-22.461,0.000,0
181978.626,-27.832,-12.207,-29.297,-22.461,0.000,0
181978.630,3.418,-9.277,-20.508,-12.207,0.000,0
181978.634,-23.438,-18.066,-21.484,-22.461,0.000,0
181978.638,-37.598,-22.949,-22.461,-41.992,0.000,0
181978.642,-18.066,-24.902,-23.438,-53.223,0.000,0
181978.645,0.488,-23.438,-30.762,-25.879,0.000,0
181978.649,10.742,-13.184,-23.438,-6.348,0.000,0
181978.653,-5.859,-7.324,-36.133,-28.809,0.000,0
181978.657,4.395,5.371,-32.227,-12.207,0.000,0
181978.661,-0.488,-18.555,-29.297,-5.371,0.000,0
181978.665,-3.906,-37.109,-38.086,-17.090,0.000,0
181978.669,-15.625,-30.273,-28.809,-37.109,0.000,0
181978.673,-43.457,-30.762,-25.391,-61.523,0.000,0
181978.677,-16.602,-21.484,-14.160,-50.781,0.000,0
181978.681,12.207,-14.648,-9.766,-2.930,0.000,0
181978.685,4.883,-17.578,-20.508,6.348,0.000,0
181978.688,1.465,-20.020,-22.461,-38.086,0.000,0
181978.692,-11.230,-16.113,-22.461,-31.250,0.000,0
181978.696,0.000,-7.324,-17.578,-1.465,0.000,0
181978.700,-7.812,-24.414,-39.062,-20.020,0.000,0
181978.704,-42.480,-34.668,-54.688,-49.316,0.000,0
181978.708,-41.504,-8.301,-19.043,-35.645,0.000,0
181978.712,-7.324,-7.324,-15.137,-15.137,0.000,0
181978.716,10.254,-12.695,-21.484,0.000,0.000,0
181978.720,-15.137,-20.508,-24.414,-12.207,0.000,0
181978.724,-68.848,-36.621,-42.969,-46.387,0.000,0
181978.728,-54.688,-31.738,-51.758,-30.273,0.000,0
181978.731,0.488,-15.137,-27.344,-10.742,0.000,0
181978.735,-9.766,-16.113,-26.855,-27.344,0.000,0
181978.739,-37.598,-25.391,-28.809,-49.316,0.000,0
181978.743,-30.273,-27.344,-19.043,-40.527,0.000,0
181978.747,-4.883,-18.555,-23.438,-14.160,0.000,0
181978.751,10.254,-0.488,-19.043,-14.648,0.000,0
181978.755,-41.992,-12.207,-27.832,-40.527,0.000,0
181978.759,-62.988,-36.621,-44.434,-53.223,0.000,0
181978.763,-14.648,-29.785,-45.410,-24.414,0.000,0
181978.767,-0.488,-15.625,-46.387,-8.789,0.000,0
181978.770,-33.691,-17.090,-35.645,-37.598,0.000,0
181978.774,-33.203,-13.672,-29.297,-40.527,0.000,0
181978.778,-4.883,-1.953,-33.203,0.488,0.000,0
181978.782,-23.926,-9.277,-23.926,22.461,0.000,0
181978.786,-30.273,-20.020,-11.230,-16.113,0.000,0
181978.790,-43.945,-20.508,-15.625,-67.383,0.000,0
181978.794,-40.039,-20.508,-20.996,-34.180,0.000,0
181978.798,3.418,-7.324,-18.066,21.484,0.000,0
181978.802,-15.137,-22.461,-26.367,2.441,0.000,0
181978.806,-54.688,-44.434,-44.434,-62.500,0.000,0
181978.810,-46.875,-38.086,-47.852,-77.148,0.000,0
181978.813,-11.719,-20.996,-37.109,-34.180,0.000,0
181978.817,-1.953,-10.742,-12.695,-18.066,0.000,0
181978.821,-23.438,-18.555,-20.996,-29.297,0.000,0
181978.825,-22.949,-21.484,-30.273,-33.691,0.000,0
181978.829,14.648,-5.371,-22.949,-26.855,0.000,0
181978.833,3.418,-16.602,-37.109,-18.555,0.000,0
181978.837,-31.250,-29.297,-44.922,-33.203,0.000,0
181978.841,-22.949,-17.578,-26.367,-43.457,0.000,0
181978.845,-9.766,-4.395,4.883,-20.996,0.000,0
181978.849,-3.418,-18.555,-16.602,-18.555,0.000,0
181978.853,-34.668,-35.645,-42.969,-46.875,0.000,0
181978.856,-53.711,-23.438,-29.297,-52.246,0.000,0
181978.860,-29.297,-12.207,-26.367,-9.277,0.000,0
181978.864,-17.578,-20.508,-28.320,0.977,0.000,0
181978.868,-28.809,-37.109,-39.062,-40.039,0.000,0
181978.872,-43.945,-38.086,-43.945,-44.434,0.000,0
181978.876,-16.113,-21.484,-24.414,-29.785,0.000,0
181978.880,4.395,-13.672,-11.719,-10.254,0.000,0
181978.884,-18.066,-24.902,-27.832,-32.227,0.000,0
181978.888,-42.480,-29.785,-38.574,-77.637,0.000,1
181978.892,-27.832,-11.719,-25.391,-40.527,0.000,0
181978.895,-13.184,-16.602,-37.598,-3.906,0.000,0
181978.899,-18.066,-26.367,-37.598,-11.719,0.000,0
181978.903,-18.066,-22.461,-17.090,-16.602,0.000,0
181978.907,-43.945,-27.344,-20.996,-55.664,0.000,0
181978.911,-35.156,-22.949,-26.367,-37.598,0.000,0
181978.915,-14.648,-25.879,-34.180,-3.418,0.000,0
181978.919,-22.461,-21.484,-26.367,-6.348,0.000,0
181978.923,-29.785,-19.043,-21.973,-32.227,0.000,0
181978.927,-22.461,-25.391,-32.715,-45.410,0.000,0
181978.931,-8.789,-29.785,-41.016,-23.926,0.000,0
181978.935,-39.551,-40.527,-41.504,-34.668,0.000,0
181978.938,-59.082,-28.320,-26.855,-48.340,0.000,0
181978.942,-47.363,-20.508,-48.340,-43.457,0.000,0
181978.946,-25.391,-22.461,-39.551,-32.227,0.000,0
181978.950,-17.578,-6.836,-3.418,-16.113,0.000,0
181978.954,-71.777,-21.973,-20.020,-45.410,0.000,0
181978.958,-70.801,-37.598,-48.340,-72.266,0.000,0
181978.962,-19.531,-31.738,-36.133,-34.180,0.000,0
181978.966,-26.367,-33.203,-31.250,-26.855,0.000,0
181978.970,-33.203,-31.250,-43.457,-44.922,0.000,0
181978.974,-15.625,-16.602,-25.391,-29.297,0.000,0
181978.978,-13.672,-13.672,-19.043,-23.438,0.000,0
181978.981,-15.625,-21.484,-35.645,-23.926,0.000,0
181978.985,-6.836,-10.742,-21.484,-30.762,0.000,0
181978.989,-11.230,-1.465,-14.648,-52.246,0.000,0
181978.993,0.000,4.395,-17.578,-24.902,0.000,0
181978.997,4.883,-17.090,-31.250,-21.484,0.000,0
181979.001,-29.297,-44.922,-61.035,-47.852,0.000,0
181979.005,-72.266,-42.969,-55.664,-62.500,0.000,0
181979.009,-70.801,-35.645,-40.039,-64.941,0.000,0
181979.013,-27.832,-29.297,-39.551,-21.484,0.000,0
181979.017,-13.672,-19.043,-37.598,-9.766,0.000,0
181979.020,-35.645,-10.254,-23.438,-33.203,0.000,0
181979.024,-40.527,-12.207,-16.113,-44.434,0.000,0
181979.028,-6.836,-3.906,-12.207,-27.832,0.000,0
181979.032,17.578,13.184,-2.441,7.324,0.000,0
181979.036,-23.438,0.000,-24.902,-7.324,0.000,0
181979.040,-53.223,-24.902,-51.270,-34.668,0.000,0
181979.044,-17.578,-21.484,-39.062,-27.344,0.000,0
181979.048,12.695,-15.137,-24.902,-13.184,0.000,0
181979.052,-3.418,-14.160,-14.648,-7.324,0.000,0
181979.056,-19.531,-10.742,-13.672,-31.250,0.000,0
181979.060,-23.926,-18.066,-33.203,-38.086,0.000,0
181979.063,-11.719,-23.438,-36.133,-9.766,0.000,0
181979.067,0.000,-20.996,-40.527,-19.531,0.000,0
181979.071,-29.297,-20.996,-50.293,-49.316,0.000,0
181979.075,-32.715,-24.902,-44.434,-49.805,0.000,0
181979.079,8.789,-8.301,-29.785,-19.531,0.000,0
181979.083,10.254,-0.488,-14.160,-8.789,0.000,0
181979.087,-7.812,-12.207,-19.531,-40.039,0.000,0
181979.091,-11.230,-17.578,-18.066,-38.574,0.000,0
181979.095,-2.930,-25.879,-21.973,-22.461,0.000,0
181979.099,0.488,-29.297,-35.645,-9.766,0.000,0
181979.103,-20.020,-34.180,-36.621,-24.414,0.000,0
181979.106,-24.414,-27.832,-29.297,-55.176,0.000,0
181979.110,-5.859,-17.578,-29.297,-34.668,0.000,0
181979.114,1.953,-15.625,-24.902,12.695,0.000,0
181979.118,-8.301,-20.508,-28.809,10.254,0.000,0
181979.122,-5.371,-34.180,-42.480,-55.176,0.000,0
181979.126,12.207,-27.344,-29.785,-37.598,0.000,0
181979.130,27.344,-9.766,-12.695,23.926,0.000,0
181979.134,12.695,-25.391,-35.645,-3.906,0.000,0
181979.138,-19.531,-38.574,-51.270,-40.039,0.000,0
181979.142,-17.578,-35.645,-34.180,-47.363,0.000,0
181979.145,-8.789,-37.109,-43.457,-32.227,0.000,0
181979.149,-18.555,-28.809,-46.875,-16.602,0.000,0
181979.153,-32.227,-15.137,-20.996,-38.086,0.000,0
181979.157,-35.156,-18.066,-20.508,-47.852,0.000,0
181979.161,-8.301,-23.438,-26.855,-42.969,0.000,0
181979.165,0.977,-20.996,-33.691,-38.574,0.000,0
181979.169,-29.297,-28.320,-46.387,-43.457,0.000,0
181979.173,-40.527,-25.879,-35.645,-44.434,0.000,0
181979.177,-18.066,-9.277,-17.090,1.953,0.000,0
181979.181,0.977,2.930,-4.395,5.371,0.000,0
181979.185,-22.461,-3.906,-14.648,-33.691,0.000,0
181979.188,-55.664,-27.344,-36.133,-45.898,0.000,0
181979.192,-54.688,-38.086,-38.086,-35.645,0.000,0
181979.196,-31.250,-27.832,-37.598,-8.301,0.000,0
181979.200,-20.508,-13.184,-36.133,-33.691,0.000,0
181979.204,-31.250,-10.254,-34.668,-59.570,0.000,0
181979.208,-44.922,-23.438,-39.062,-36.621,0.000,0
181979.212,-35.156,-30.762,-34.180,-9.277,0.000,0
181979.216,-41.992,-30.762,-29.785,-11.719,0.000,0
181979.220,-53.711,-26.855,-25.879,-49.316,0.000,0
181979.224,-24.902,-17.090,-23.926,-24.902,0.000,0
181979.228,-8.789,-22.461,-44.434,-7.324,0.000,0
181979.231,-22.949,-28.320,-56.152,-28.809,0.000,0
181979.235,-50.781,-29.297,-38.574,-43.945,0.000,0
181979.239,-60.059,-33.203,-29.785,-59.570,0.000,0
181979.243,-32.227,-33.691,-36.621,-26.855,0.000,0
181979.247,-19.531,-31.250,-46.875,-12.695,0.000,0
181979.251,-45.898,-29.785,-46.387,-50.781,0.000,0
181979.255,-41.016,-30.273,-35.645,-53.223,0.000,0
181979.259,-8.301,-25.391,-31.250,-21.484,0.000,0
181979.263,-1.953,-17.578,-23.438,3.418,0.000,0
181979.267,-13.672,-24.902,-24.414,-21.484,0.000,0
181979.270,-18.066,-35.645,-43.457,-48.340,0.000,0
181979.274,-8.789,-30.762,-54.688,-24.902,0.000,0
181979.278,0.488,-29.785,-47.852,-11.230,0.000,0
181979.282,-14.648,-23.438,-27.832,-32.227,0.000,0
181979.286,-10.254,-11.230,-13.184,-27.344,0.000,0
181979.290,5.371,-15.137,-15.137,4.395,0.000,0
181979.294,-31.738,-33.203,-23.438,7.812,0.000,0
181979.298,-38.086,-29.297,-26.855,-17.090,0.000,0
181979.302,-33.203,-19.531,-30.762,-42.480,0.000,0
181979.306,-41.016,-27.832,-31.250,-56.152,0.000,0
181979.310,-36.133,-33.691,-38.574,-31.250,0.000,0
181979.313,-35.156,-27.832,-43.457,-6.836,0.000,0
181979.317,-50.781,-20.508,-32.227,-40.527,0.000,0
181979.321,-54.199,-18.555,-23.438,-55.176,0.000,0
181979.325,-23.438,-18.066,-29.785,-8.301,0.000,0
181979.329,-19.043,-28.809,-41.992,-2.930,0.000,0
181979.333,-40.039,-39.062,-51.270,-25.391,0.000,0
181979.337,-61.523,-37.598,-60.059,-50.293,0.000,0
181979.341,-39.551,-23.438,-41.504,-43.457,0.000,0
181979.345,-5.371,-3.906,-7.812,9.766,0.000,0
181979.349,-30.273,-3.906,-3.906,12.207,0.000,0
181979.353,-48.828,-15.137,-25.391,-34.668,0.000,0
181979.356,-35.645,-25.391,-39.062,-45.410,0.000,0
181979.360,-14.160,-25.879,-34.180,-14.648,0.000,0
181979.364,-11.230,-26.855,-36.133,-20.508,0.000,0
181979.368,-36.621,-24.902,-29.785,-46.387,0.000,0
181979.372,-33.691,-20.020,-22.949,-33.691,0.000,0
181979.376,-23.926,-24.414,-35.156,-11.230,0.000,0
181979.380,-34.668,-32.715,-45.898,-21.973,0.000,0
181979.384,-39.551,-24.414,-29.785,-37.109,0.000,0
181979.388,-22.949,-9.766,-15.137,-30.273,0.000,0
181979.392,-4.395,-12.207,-20.508,-12.207,0.000,0
181979.395,-25.391,-28.809,-34.668,-20.508,0.000,0
181979.399,-65.430,-38.086,-60.547,-51.270,0.000,0
181979.403,-56.152,-23.926,-43.945,-59.082,0.000,0
181979.407,-13.184,-13.672,-12.695,-47.363,0.000,0
181979.411,-16.113,-14.160,-14.160,-0.488,0.000,0
181979.415,-20.996,-12.695,-5.859,-6.348,0.000,0
181979.419,-17.090,-12.695,-9.277,-45.898,0.000,0
181979.423,-12.207,-16.602,-20.996,-29.297,0.000,0
181979.427,3.906,-23.926,-26.367,6.348,0.000,0
181979.431,-13.184,-25.391,-22.461,-1.465,0.000,0
181979.435,-32.227,-18.066,-14.648,-39.551,0.000,0
181979.438,-34.668,-19.043,-26.855,-46.387,0.000,0
181979.442,-39.551,-28.320,-34.668,-22.949,0.000,0
181979.446,-38.086,-28.809,-30.762,-27.832,0.000,0
181979.450,-31.250,-14.160,-22.461,-26.855,0.000,0
181979.454,-37.598,-20.508,-35.156,-29.785,0.000,0
181979.458,-38.086,-28.320,-41.504,-50.293,0.000,0
181979.462,-13.184,-9.766,-19.531,-7.812,0.000,0
181979.466,-27.344,-7.812,-12.207,0.488,0.000,0
181979.470,-42.480,-14.160,-20.508,-28.320,0.000,0
181979.474,-30.762,-23.926,-32.227,-34.668,0.000,0
181979.478,-42.480,-27.832,-30.762,-35.645,0.000,0
181979.481,-30.762,-19.531,-23.926,-34.668,0.000,0
181979.485,-21.973,-25.879,-23.438,-58.105,0.000,0
181979.489,-33.691,-25.879,-27.344,-40.039,0.000,0
181979.493,-4.395,-14.648,-18.066,-1.953,0.000,0
181979.497,-5.371,-22.461,-18.555,-25.391,0.000,0
181979.501,-41.504,-26.367,-31.250,-49.316,0.000,1
181979.505,-38.574,-22.949,-39.062,-40.527,0.000,0
181979.509,-16.602,-29.785,-63.477,-22.949,0.000,0
181979.513,-24.414,-30.273,-56.152,-24.414,0.000,0
181979.517,-39.062,-22.949,-24.414,-58.105,0.000,0
181979.520,-35.645,-22.461,-21.973,-57.129,0.000,0
181979.524,-19.043,-23.438,-29.785,-38.574,0.000,0
181979.528,-21.973,-18.066,-29.785,-15.625,0.000,0
181979.532,-58.105,-21.973,-33.203,-28.320,0.000,0
181979.536,-68.848,-37.109,-46.875,-78.125,0.000,0
181979.540,-39.062,-26.367,-59.570,-48.828,0.000,0
181979.544,0.488,0.000,-30.762,-2.930,0.000,0
181979.548,-19.531,-6.836,-23.926,-11.230,0.000,0
181979.552,-61.035,-32.227,-52.246,-52.734,0.000,0
181979.556,-39.551,-37.109,-41.016,-64.453,0.000,0
181979.560,-5.859,-32.715,-30.273,-24.414,0.000,0
181979.563,-9.277,-30.762,-32.715,-6.348,0.000,0
181979.567,-33.203,-27.344,-33.203,-34.668,0.000,0
181979.571,-39.062,-23.438,-32.227,-53.223,0.000,0
181979.575,-16.113,-20.996,-33.691,-41.016,0.000,0
181979.579,-10.254,-21.973,-36.621,-22.461,0.000,0
181979.583,-16.602,-23.438,-37.109,-43.457,0.000,0
181979.587,-27.832,-31.738,-37.598,-65.918,0.000,0
181979.591,-23.438,-33.691,-31.250,-41.016,0.000,0
181979.595,-6.836,-16.113,-19.043,-34.180,0.000,0
181979.599,-4.395,-6.348,-23.926,-39.551,0.000,0
181979.603,-18.066,-9.766,-35.645,-41.992,0.000,0
181979.606,-33.691,-23.438,-37.598,-51.270,0.000,0
181979.610,2.441,-25.391,-33.691,-33.203,0.000,0
181979.614,20.020,-20.508,-36.133,-27.344,0.000,0
181979.618,-20.508,-22.949,-40.039,-60.547,0.000,0
181979.622,-23.926,-16.113,-27.832,-43.457,0.000,0
181979.626,-6.836,-18.066,-20.508,-13.184,0.000,0
181979.630,0.000,-14.160,-18.555,-7.812,0.000,0
181979.634,-20.996,-16.113,-18.066,-40.527,0.000,0
181979.638,-52.734,-33.203,-35.156,-73.242,0.000,0
181979.642,-55.176,-37.109,-46.387,-37.598,0.000,0
181979.645,-34.180,-29.297,-46.875,-19.531,0.000,0
181979.649,-29.297,-15.137,-48.340,-48.340,0.000,0
181979.653,-52.246,-23.926,-69.824,-79.590,0.000,0
181979.657,-43.945,-33.203,-62.012,-67.871,0.000,0
181979.661,-11.230,-25.879,-38.086,-36.133,0.000,0
181979.665,-14.648,-20.508,-24.414,-34.180,0.000,0
181979.669,-33.691,-20.508,-21.973,-50.293,0.000,0
181979.673,-7.812,-18.066,-28.320,-56.152,0.000,0
181979.677,23.926,-12.207,-32.227,-46.875,0.000,0
181979.681,18.066,-2.930,-29.297,-33.691,0.000,0
181979.685,1.465,-4.883,-21.484,-54.688,0.000,0
181979.688,-0.977,-18.555,-37.598,-62.012,0.000,0
181979.692,12.695,-20.020,-36.621,-41.016,0.000,0
181979.696,17.578,-21.973,-34.180,-38.574,0.000,0
181979.700,-6.836,-25.391,-49.316,-47.852,0.000,0
181979.704,-15.625,-24.902,-36.133,-42.969,0.000,0
181979.708,8.301,-20.020,-26.367,-12.695,0.000,0
181979.712,22.461,-24.902,-26.855,-6.348,0.000,0
181979.716,13.184,-26.367,-23.438,-22.461,0.000,0
181979.720,5.859,-17.578,-37.109,-22.461,0.000,0
181979.724,13.672,-21.484,-42.969,-24.902,0.000,0
181979.728,25.391,-13.672,-27.344,-0.488,0.000,0
181979.731,21.484,0.488,-15.137,-10.742,0.000,0
181979.735,2.930,-3.418,-19.531,-46.875,0.000,0
181979.739,-12.695,-19.531,-39.062,-37.109,0.000,0
181979.743,-29.297,-28.320,-49.805,-18.066,0.000,0
181979.747,-35.645,-31.250,-43.945,-21.973,0.000,0
181979.751,-36.621,-32.227,-39.551,-54.199,0.000,0
181979.755,-36.133,-26.855,-44.434,-62.988,0.000,0
181979.759,-8.789,-19.531,-39.551,-11.719,0.000,0
181979.763,8.301,-12.695,-34.180,11.719,0.000,0
181979.767,-13.184,-23.438,-31.738,-23.438,0.000,0
181979.770,-19.043,-28.320,-26.367,-53.223,0.000,0
181979.774,-5.859,-18.555,-22.949,-36.133,0.000,0
181979.778,9.277,-17.578,-25.391,-2.441,0.000,0
181979.782,-2.930,-23.926,-27.344,-9.766,0.000,0
181979.786,-29.785,-27.344,-33.691,-38.086,0.000,0
181979.790,-11.719,-23.438,-33.203,-19.043,0.000,0
181979.794,15.625,-25.879,-32.227,-6.836,0.000,0
181979.798,3.906,-28.809,-39.062,-26.367,0.000,0
181979.802,-23.438,-32.227,-49.316,-57.617,0.000,0
181979.806,-21.484,-23.438,-33.691,-29.785,0.000,0
181979.810,3.906,-17.090,-24.414,4.395,0.000,0
181979.813,15.137,-12.695,-22.949,-15.137,0.000,0
181979.817,-3.418,-0.488,-20.508,-29.297,0.000,0
181979.821,-28.320,-11.719,-43.945,-36.621,0.000,0
181979.825,-7.324,-15.625,-46.387,-9.766,0.000,0
181979.829,-24.414,-27.344,-36.133,-3.418,0.000,0
181979.833,-47.852,-40.039,-35.156,-53.223,0.000,0
181979.837,-33.203,-28.320,-36.621,-53.223,0.000,0
181979.841,-13.672,-22.949,-33.203,-25.879,0.000,0
181979.845,5.859,-19.043,-24.902,-2.441,0.000,0
181979.849,-18.555,-18.066,-14.648,-12.207,0.000,0
181979.853,-55.664,-30.273,-25.391,-66.895,0.000,0
181979.856,-42.480,-29.785,-37.109,-44.434,0.000,0
181979.860,-11.230,-17.578,-20.508,4.395,0.000,0
181979.864,-15.137,-7.812,-1.953,-7.324,0.000,0
181979.868,-37.598,-18.066,-13.184,-39.551,0.000,0
181979.872,-40.039,-32.715,-34.668,-56.641,0.000,0
181979.876,-13.184,-32.227,-52.246,-25.879,0.000,0
181979.880,-27.832,-30.273,-51.270,-18.066,0.000,0
181979.884,-51.758,-24.902,-51.758,-40.527,0.000,0
181979.888,-42.969,-20.020,-42.480,-60.547,0.000,0
181979.892,-23.438,-20.996,-32.715,-46.387,0.000,0
181979.895,0.000,-12.207,-30.273,11.719,0.000,0
181979.899,-10.254,-13.184,-26.367,-9.277,0.000,0
181979.903,-27.344,-5.371,-10.742,-29.785,0.000,0
181979.907,-1.465,-1.465,-12.695,-3.906,0.000,0
181979.911,-3.418,-21.973,-33.691,-19.043,0.000,0
181979.915,-43.457,-34.668,-42.480,-43.457,0.000,0
181979.919,-43.457,-30.273,-37.109,-41.504,0.000,0
181979.923,-20.508,-25.879,-26.367,-7.812,0.000,0
181979.927,-4.395,-26.855,-27.344,7.812,0.000,0
181979.931,-10.254,-21.973,-26.855,-14.648,0.000,0
181979.935,-21.973,-19.531,-30.273,-42.480,0.000,0
181979.938,-32.227,-26.367,-31.738,-46.875,0.000,0
181979.942,-32.715,-27.344,-31.738,-26.855,0.000,0
181979.946,-46.387,-26.855,-33.203,-19.531,0.000,0
181979.950,-58.594,-27.832,-31.738,-52.246,0.000,0
181979.954,-57.617,-25.391,-45.898,-69.336,0.000,0
181979.958,-51.758,-17.090,-39.551,-28.320,0.000,0
181979.962,-25.879,-12.207,-25.391,0.000,0.000,0
181979.966,-24.414,-10.742,-23.438,-26.367,0.000,0
181979.970,-35.645,-6.836,-13.184,-49.805,0.000,0
181979.974,-31.738,-17.578,-23.926,-43.457,0.000,0
181979.978,-23.438,-35.156,-42.480,-27.832,0.000,0
181979.981,-22.461,-31.738,-41.504,-20.508,0.000,0
181979.985,-47.852,-33.203,-41.992,-36.621,0.000,0
181979.989,-36.133,-30.273,-41.992,-38.574,0.000,0
181979.993,-10.254,-15.625,-38.086,-12.207,0.000,0
181979.997,-12.695,-16.602,-26.855,-7.324,0.000,0
181980.001,-19.531,-10.742,-13.184,-19.043,0.000,0
181980.005,-18.555,-10.254,-16.113,-17.578,0.000,0
181980.009,-20.996,-30.762,-26.855,-17.578,0.000,0
181980.013,-32.227,-38.086,-27.344,-25.391,0.000,0
181980.017,-45.898,-36.133,-40.039,-45.410,0.000,0
181980.020,-49.316,-34.180,-45.898,-56.152,0.000,0
181980.024,-29.785,-26.855,-31.738,-28.320,0.000,0
181980.028,-20.020,-20.996,-32.227,1.465,0.000,0
181980.032,-41.016,-26.367,-42.969,-27.832,0.000,0
181980.036,-59.082,-28.320,-32.715,-46.387,0.000,0
181980.040,-40.039,-19.531,-10.254,-26.855,0.000,0
181980.044,-18.555,-20.508,-16.113,-4.395,0.000,0
181980.048,-21.484,-19.043,-21.973,0.000,0.000,0
181980.052,-28.320,-11.230,-13.672,-30.273,0.000,0
181980.056,-27.344,-17.090,-18.066,-30.273,0.000,0
181980.060,-27.832,-27.832,-33.691,0.000,0.000,0
181980.063,-31.738,-25.879,-30.273,-3.906,0.000,0
181980.067,-48.828,-24.414,-31.738,-47.852,0.000,0
181980.071,-56.641,-22.461,-33.203,-42.969,0.000,0
181980.075,-31.738,-21.973,-29.785,-19.531,0.000,0
181980.079,-20.508,-13.184,-12.695,-22.949,0.000,0
181980.083,-35.645,-12.207,-3.418,-31.250,0.000,0
181980.087,-52.246,-20.508,-14.648,-44.434,0.000,0
181980.091,-44.922,-22.949,-21.484,-33.691,0.000,0
181980.095,-31.250,-31.250,-35.645,-26.367,0.000,0
181980.099,-54.199,-37.598,-51.270,-42.969,0.000,0
181980.103,-39.062,-24.414,-41.016,-44.922,0.000,0
181980.106,-12.695,-20.020,-26.367,-38.574,0.000,0
181980.110,-22.461,-24.902,-31.738,-30.762,0.000,0
181980.114,-38.574,-19.043,-36.621,-30.762,0.000,0
181980.118,-28.320,-10.254,-20.020,-46.875,0.000,0
181980.122,-0.977,-9.766,-3.418,-28.809,0.000,0
181980.126,-21.484,-27.832,-29.785,-20.996,0.000,0
181980.130,-55.664,-36.621,-41.992,-39.062,0.000,0
181980.134,-51.270,-31.250,-31.250,-26.367,0.000,0
181980.138,-35.156,-32.715,-42.969,-4.395,0.000,0
181980.142,-26.367,-36.133,-49.316,-9.766,0.000,0
181980.145,-45.898,-30.273,-41.992,-42.969,0.000,0
181980.149,-87.402,-26.855,-36.621,-65.918,0.000,0
181980.153,-76.172,-26.367,-31.250,-49.805,0.000,0
181980.157,-17.090,-13.184,-16.602,0.977,0.000,0
181980.161,-20.020,-14.160,-15.625,-16.113,0.000,0
181980.165,-47.363,-20.508,-29.297,-67.383,0.000,0
181980.169,-15.137,-7.812,-22.461,-33.203,0.000,0
181980.173,-0.488,-4.883,-13.672,5.371,0.000,0
181980.177,-35.645,-17.578,-23.926,-9.277,0.000,0
181980.181,-36.133,-25.879,-31.250,-48.828,0.000,0
181980.185,-42.480,-28.320,-29.297,-64.453,0.000,0
181980.188,-43.457,-27.344,-38.086,-26.855,0.000,0
181980.192,-32.715,-25.879,-40.527,-14.648,0.000,0
181980.196,-35.156,-22.949,-43.945,-31.738,0.000,0
181980.200,-40.039,-16.113,-33.203,-45.410,0.000,1
181980.204,-30.273,-14.648,-16.113,-37.598,0.000,0
181980.208,-1.953,0.000,-13.184,-4.883,0.000,0
181980.212,-2.930,2.930,-18.066,-17.578,0.000,0
181980.216,-28.809,-7.812,-22.949,-37.109,0.000,0
181980.220,-31.250,-19.531,-39.551,-32.715,0.000,0
181980.224,-33.691,-27.344,-44.434,-45.898,0.000,0
181980.228,-54.199,-21.484,-36.621,-46.387,0.000,0
181980.231,-43.457,-20.508,-32.715,-44.922,0.000,0
181980.235,-28.809,-24.902,-36.621,-38.086,0.000,0
181980.239,-12.695,-23.926,-35.156,-7.324,0.000,0
181980.243,-18.066,-30.273,-38.086,-19.531,0.000,0
181980.247,-57.617,-35.645,-51.758,-42.969,0.000,0
181980.251,-51.270,-36.133,-52.734,-38.574,0.000,0
181980.255,-20.996,-19.531,-20.508,-6.836,0.000,0
181980.259,6.836,0.977,12.207,12.695,0.000,0
181980.263,-25.879,-22.461,-18.066,-47.363,0.000,0
181980.267,-53.711,-29.785,-40.039,-71.289,0.000,0
181980.270,-11.719,-19.531,-30.762,-33.691,0.000,0
181980.274,-0.977,-26.367,-38.574,-11.230,0.000,0
181980.278,-12.207,-22.461,-30.762,-12.695,0.000,0
181980.282,-20.020,-25.879,-26.367,-51.270,0.000,0
181980.286,-16.113,-22.949,-33.691,-43.457,0.000,0
181980.290,1.465,-13.184,-31.250,-6.836,0.000,0
181980.294,-11.719,-19.043,-18.555,-34.180,0.000,0
181980.298,-20.020,-14.648,-8.301,-41.992,0.000,0
181980.302,-15.625,-9.277,-20.996,-34.180,0.000,0
181980.306,-8.789,-7.324,-28.809,-18.555,0.000,0
181980.310,-30.273,-22.461,-32.715,-20.508,0.000,0
181980.313,-60.547,-30.762,-38.574,-60.547,0.000,0
181980.317,-51.270,-26.367,-43.457,-62.012,0.000,0
181980.321,-19.531,-30.273,-44.434,-35.156,0.000,0
181980.325,0.977,-14.648,-27.832,-22.949,0.000,0
181980.329,-17.578,-9.277,-22.461,-30.762,0.000,0
181980.333,-31.738,-22.949,-36.621,-48.828,0.000,0
181980.337,-15.137,-24.902,-34.180,-29.785,0.000,0
181980.341,-3.906,-20.996,-19.531,-16.602,0.000,0
181980.345,-12.695,-17.090,-16.113,-32.227,0.000,0
181980.349,-29.297,-17.578,-27.832,-41.504,0.000,0
181980.353,-29.785,-15.625,-24.414,-20.996,0.000,0
181980.356,-25.391,-11.230,-11.719,14.648,0.000,0
181980.360,-15.137,-10.742,-17.578,3.418,0.000,0
181980.364,-20.996,-13.184,-31.738,-31.250,0.000,0
181980.368,-18.066,-15.137,-35.645,-24.902,0.000,0
181980.372,7.324,-19.043,-26.367,5.371,0.000,0
181980.376,6.348,-22.949,-29.297,13.184,0.000,0
181980.380,-25.879,-32.715,-39.062,-29.297,0.000,0
181980.384,-36.133,-36.133,-31.250,-52.246,0.000,0
181980.388,-11.230,-26.855,-20.020,-11.230,0.000,0
181980.392,-12.207,-28.320,-28.320,9.766,0.000,0
181980.395,-24.414,-26.855,-32.715,-2.441,0.000,0
181980.399,-32.715,-16.113,-27.832,-32.227,0.000,0
181980.403,-27.832,-20.508,-34.668,-34.668,0.000,0
181980.407,-1.953,-21.973,-30.762,-12.695,0.000,0
181980.411,-11.719,-27.344,-23.926,-29.785,0.000,0
181980.415,-18.555,-27.832,-26.855,-48.340,0.000,0
181980.419,-1.953,-16.602,-16.113,-45.898,0.000,0
181980.423,2.930,-14.160,-8.301,-16.602,0.000,0
181980.427,-18.555,-22.461,-35.645,-13.672,0.000,0
181980.431,-36.621,-25.879,-40.039,-57.617,0.000,0
181980.435,-18.066,-12.695,-19.531,-38.574,0.000,0
181980.438,12.207,-1.465,-7.812,-3.906,0.000,0
181980.442,1.465,-9.766,-18.066,-25.391,0.000,0
181980.446,-33.691,-25.879,-45.410,-50.781,0.000,0
181980.450,-27.344,-23.438,-43.457,-47.363,0.000,0
181980.454,10.742,-3.418,-12.695,-26.367,0.000,0
181980.458,16.602,-2.441,-8.789,-11.230,0.000,0
181980.462,-36.621,-34.180,-32.715,-63.477,0.000,0
181980.466,-52.246,-41.016,-48.828,-91.309,0.000,0
181980.470,-35.156,-35.156,-46.875,-62.012,0.000,0
181980.474,-26.367,-33.203,-40.039,-8.301,0.000,0
181980.478,-27.344,-41.016,-49.316,-13.184,0.000,0
181980.481,-41.992,-41.992,-44.922,-76.172,0.000,0
181980.485,-11.230,-5.859,-7.812,-47.363,0.000,0
181980.489,35.156,8.301,0.488,10.742,0.000,0
181980.493,27.832,-17.578,-27.832,1.465,0.000,0
181980.497,-12.695,-33.203,-41.016,-50.293,0.000,0
181980.501,-38.086,-39.062,-48.340,-76.660,0.000,0
181980.505,-26.855,-38.086,-47.852,-38.086,0.000,0
181980.509,-11.230,-36.133,-36.133,-27.344,0.000,0
181980.513,0.000,-17.578,-20.996,-28.809,0.000,0
181980.517,-2.930,-10.742,-8.301,-39.062,0.000,0
181980.520,-6.348,-26.855,-25.391,-60.059,0.000,0
181980.524,-1.953,-27.344,-36.621,-33.691,0.000,0
181980.528,-8.301,-26.367,-34.180,-35.645,0.000,0
181980.532,-22.949,-29.297,-40.039,-69.336,0.000,0
181980.536,-17.578,-29.785,-39.062,-44.434,0.000,0
181980.540,-0.977,-25.879,-29.297,-32.715,0.000,0
181980.544,-15.137,-19.531,-23.438,-45.410,0.000,0
181980.548,-30.762,-25.879,-24.902,-52.734,0.000,0
181980.552,-8.789,-33.691,-39.062,-26.367,0.000,0
181980.556,-1.953,-34.180,-39.062,-17.090,0.000,0
181980.560,-26.855,-33.691,-35.156,-35.156,0.000,0
181980.563,-35.645,-33.691,-43.457,-49.316,0.000,0
181980.567,-14.160,-18.555,-21.484,-47.852,0.000,0
181980.571,10.254,-14.648,-12.695,-15.137,0.000,0
181980.575,-1.953,-27.832,-22.949,-34.668,0.000,0
181980.579,-47.852,-36.621,-32.227,-76.172,0.000,0
181980.583,-50.781,-38.574,-40.039,-66.406,0.000,0
181980.587,-23.926,-38.574,-43.457,-31.738,0.000,0
181980.591,-13.184,-28.809,-32.227,-3.418,0.000,0
181980.595,-21.973,-24.414,-30.762,-36.621,0.000,0
181980.599,-29.785,-25.879,-27.344,-55.664,0.000,0
181980.603,-5.371,-13.672,-19.043,-13.184,0.000,0
181980.606,7.812,-11.230,-21.973,1.953,0.000,0
181980.610,-21.973,-24.902,-16.602,-32.715,0.000,0
181980.614,-42.969,-21.484,-21.973,-59.082,0.000,0
181980.618,-20.996,-11.719,-38.574,-32.227,0.000,0
181980.622,-21.973,-29.297,-35.156,-19.531,0.000,0
181980.626,-30.273,-34.180,-30.273,-23.926,0.000,0
181980.630,-33.203,-20.996,-18.555,-35.156,0.000,0
181980.634,-19.531,-23.438,-15.137,-46.387,0.000,0
181980.638,5.371,-33.203,-32.715,-34.668,0.000,0
181980.642,-2.441,-23.438,-32.715,-24.414,0.000,0
181980.645,-29.785,-21.973,-28.809,-51.270,0.000,0
181980.649,-29.297,-25.391,-27.832,-48.828,0.000,0
181980.653,-5.859,-16.602,-23.926,-8.301,0.000,0
181980.657,16.113,-4.883,-5.859,8.789,0.000,0
181980.661,0.000,-15.625,-30.273,-25.391,0.000,0
181980.665,-50.781,-25.879,-41.992,-55.176,0.000,0
181980.669,-41.992,-24.902,-35.156,-28.320,0.000,0
181980.673,-12.695,-31.250,-43.945,-8.301,0.000,0
181980.677,-39.551,-22.949,-25.879,-35.645,0.000,0
181980.681,-43.945,-11.230,-14.160,-54.688,0.000,0
181980.685,-22.949,-16.113,-14.160,-29.785,0.000,0
181980.688,0.000,-21.973,-27.832,2.441,0.000,0
181980.692,-23.926,-20.508,-24.902,-11.230,0.000,0
181980.696,-60.059,-27.344,-28.320,-46.387,0.000,0
181980.700,-50.781,-30.762,-31.738,-30.273,0.000,0
181980.704,-19.531,-23.926,-17.090,-2.441,0.000,0
181980.708,-20.508,-23.438,-20.996,-9.277,0.000,0
181980.712,-54.688,-29.785,-35.156,-38.574,0.000,0
181980.716,-65.430,-31.250,-38.086,-60.059,0.000,0
181980.720,-32.227,-20.508,-22.949,-31.738,0.000,0
181980.724,-24.902,-25.391,-26.855,-9.277,0.000,0
181980.728,-59.570,-35.156,-41.504,-33.691,0.000,0
181980.731,-65.918,-34.668,-50.293,-53.223,0.000,0
181980.735,-41.992,-44.434,-44.434,-55.176,0.000,0
181980.739,-20.020,-26.367,-8.789,-10.254,0.000,0
181980.743,-2.930,-3.906,4.395,20.508,0.000,0
181980.747,-37.109,-22.949,-19.043,-28.320,0.000,0
181980.751,-56.152,-39.551,-44.922,-41.992,0.000,0
181980.755,-24.902,-41.504,-51.758,-33.203,0.000,0
181980.759,-38.574,-43.945,-47.852,-58.105,0.000,0
181980.763,-51.270,-33.691,-37.109,-45.898,0.000,0
181980.767,-17.090,-17.090,-8.301,-12.695,0.000,0
181980.770,-9.766,-21.973,-20.508,-3.418,0.000,0
181980.774,-15.137,-20.508,-20.020,-9.277,0.000,0
181980.778,-28.809,-16.113,-20.020,-33.203,0.000,0
181980.782,-37.598,-25.879,-33.691,-41.016,0.000,0
181980.786,-26.367,-20.996,-15.625,-15.137,0.000,0
181980.790,-22.949,-10.254,-5.371,7.812,0.000,0
181980.794,-28.320,-22.461,-25.391,-32.227,0.000,0
181980.798,-24.902,-18.555,-21.484,-42.480,0.000,1
181980.802,-13.672,-16.602,-20.508,-2.441,0.000,0
181980.806,-8.789,-20.020,-20.508,8.301,0.000,0
181980.810,-23.926,-10.742,-12.207,-9.766,0.000,0
181980.813,-37.598,-17.090,-19.531,-53.711,0.000,0
181980.817,-27.832,-27.344,-38.574,-57.617,0.000,0
181980.821,-7.812,-20.020,-35.156,-11.719,0.000,0
181980.825,-6.836,-20.508,-16.602,-4.883,0.000,0
181980.829,-42.480,-28.320,-29.785,-33.691,0.000,0
181980.833,-56.641,-30.762,-33.691,-53.223,0.000,0
181980.837,-31.250,-27.344,-25.879,-29.785,0.000,0
181980.841,-17.090,-19.531,-28.320,-4.883,0.000,0
181980.845,-30.762,-20.508,-32.227,-30.273,0.000,0
181980.849,-37.109,-28.320,-37.109,-30.273,0.000,0
181980.853,-35.645,-29.785,-34.180,-19.043,0.000,0
181980.856,-31.738,-24.414,-29.297,-23.438,0.000,0
181980.860,-41.992,-21.973,-35.645,-39.551,0.000,0
181980.864,-39.062,-11.230,-25.879,-48.828,0.000,0
181980.868,-10.742,-8.789,-16.113,-20.020,0.000,0
181980.872,-7.324,-26.855,-26.367,-21.973,0.000,0
181980.876,-41.016,-35.156,-41.016,-43.457,0.000,0
181980.880,-73.242,-35.156,-56.641,-50.781,0.000,0
181980.884,-52.246,-26.855,-45.898,-33.203,0.000,0
181980.888,-15.625,-24.902,-25.879,1.465,0.000,0
181980.892,-11.719,-18.066,-18.066,1.465,0.000,0
181980.895,-18.066,-12.207,-22.461,-27.344,0.000,0
181980.899,-16.602,-18.555,-39.062,-39.551,0.000,0
181980.903,1.953,-7.324,-28.809,-0.977,0.000,0
181980.907,6.836,-7.324,-20.508,15.137,0.000,0
181980.911,-24.414,-12.207,-14.160,-26.367,0.000,0
181980.915,-48.340,-18.066,-27.344,-60.059,0.000,0
181980.919,-33.691,-31.250,-36.621,-53.711,0.000,0
181980.923,-14.160,-28.809,-24.414,-33.203,0.000,0
181980.927,-26.855,-25.879,-26.367,-31.250,0.000,0
181980.931,-46.875,-30.273,-28.320,-41.504,0.000,0
181980.935,-42.480,-34.668,-26.855,-45.898,0.000,0
181980.938,-5.859,-15.625,-12.207,-5.859,0.000,0
181980.942,-14.648,-22.461,-12.695,-22.949,0.000,0
181980.946,-55.664,-45.898,-40.527,-62.500,0.000,0
181980.950,-52.246,-42.969,-48.340,-63.477,0.000,0
181980.954,-18.066,-35.156,-41.992,-58.594,0.000,0
181980.958,-6.836,-35.156,-42.480,-51.270,0.000,0
181980.962,-37.598,-21.973,-27.344,-49.316,0.000,0
181980.966,-37.598,-10.742,-16.602,-32.227,0.000,0
181980.970,-5.859,-27.344,-31.250,-13.184,0.000,0
181980.974,0.977,-39.062,-34.180,-23.926,0.000,0
181980.978,-26.855,-42.480,-37.109,-41.016,0.000,0
181980.981,-40.527,-30.762,-28.809,-38.574,0.000,0
181980.985,-24.414,-31.250,-39.062,-24.414,0.000,0
181980.989,-3.418,-25.391,-33.691,-5.859,0.000,0
181980.993,-2.441,-16.602,-14.160,-22.461,0.000,0
181980.997,-30.273,-31.738,-37.109,-69.824,0.000,0
181981.001,-35.156,-33.691,-40.039,-59.570,0.000,0
181981.005,-0.488,-33.203,-34.668,-12.695,0.000,0
181981.009,8.789,-27.344,-31.250,-18.555,0.000,0
181981.013,-19.043,-26.367,-37.598,-57.617,0.000,0
181981.017,-15.625,-27.832,-42.480,-45.898,0.000,0
181981.020,10.742,-31.738,-37.598,-10.254,0.000,0
181981.024,10.254,-37.598,-31.250,-5.859,0.000,0
181981.028,-18.066,-34.668,-29.297,-25.391,0.000,0
181981.032,-32.227,-41.504,-34.180,-45.410,0.000,0
181981.036,1.953,-36.133,-32.715,-24.902,0.000,0
181981.040,14.648,-27.832,-25.391,-15.137,0.000,0
181981.044,-14.160,-35.645,-24.414,-48.340,0.000,0
181981.048,-20.996,-23.438,-15.137,-42.480,0.000,0
181981.052,-5.371,-16.113,-19.043,-34.180,0.000,0
181981.056,2.441,-31.738,-35.156,-38.574,0.000,0
181981.060,-22.949,-33.203,-27.344,-29.785,0.000,0
181981.063,-39.551,-34.180,-32.227,-49.316,0.000,0
181981.067,-38.574,-35.645,-34.668,-41.504,0.000,0
181981.071,-21.484,-35.156,-30.762,-17.090,0.000,0
181981.075,1.465,-22.461,-24.902,-17.578,0.000,0
181981.079,-9.766,-11.230,-17.578,-32.227,0.000,0
181981.083,-20.020,-17.090,-21.973,-28.809,0.000,0
181981.087,-9.766,-20.996,-40.527,-14.160,0.000,0
181981.091,-19.043,-35.156,-47.852,-28.809,0.000,0
181981.095,-40.039,-37.598,-37.598,-41.992,0.000,0
181981.099,-41.992,-28.320,-30.273,-32.227,0.000,0
181981.103,-20.508,-24.902,-17.090,-2.441,0.000,0
181981.106,-10.254,-28.809,-20.508,3.418,0.000,0
181981.110,-2.930,-19.043,-14.160,-28.809,0.000,0
181981.114,-19.043,-9.277,-4.395,-44.434,0.000,0
181981.118,-23.926,-26.367,-24.902,-27.344,0.000,0
181981.122,-6.348,-36.621,-41.992,-10.254,0.000,0
181981.126,-22.949,-29.297,-37.598,-20.508,0.000,0
181981.130,-49.805,-27.344,-28.320,-55.664,0.000,0
181981.134,-40.527,-29.785,-30.273,-43.945,0.000,0
181981.138,-15.625,-27.344,-25.391,-16.602,0.000,0
181981.142,-28.809,-20.020,-19.043,-24.902,0.000,0
181981.145,-61.035,-18.066,-20.508,-31.250,0.000,0
181981.149,-55.664,-17.090,-12.695,-51.270,0.000,0
181981.153,-20.996,-13.672,-12.207,-29.785,0.000,0
181981.157,-16.113,-20.996,-43.945,3.418,0.000,0
181981.161,-45.898,-34.180,-51.758,-30.273,0.000,0
181981.165,-48.340,-20.996,-33.691,-42.480,0.000,0
181981.169,-20.996,-12.695,-22.949,-30.762,0.000,0
181981.173,-7.324,-20.508,-20.020,-19.043,0.000,0
181981.177,-38.574,-21.484,-29.297,-29.785,0.000,0
181981.181,-69.824,-27.344,-38.086,-55.176,0.000,0
181981.185,-51.758,-33.691,-46.875,-30.762,0.000,0
181981.188,-35.156,-32.227,-43.457,-12.695,0.000,0
181981.192,-61.523,-27.344,-34.668,-28.320,0.000,0
181981.196,-64.453,-32.227,-45.410,-40.527,0.000,0
181981.200,-47.363,-36.133,-49.316,-51.270,0.000,0
181981.204,-30.273,-31.250,-39.551,-26.367,0.000,0
181981.208,-20.996,-29.297,-32.227,-16.602,0.000,0
181981.212,-41.992,-26.367,-26.367,-54.199,0.000,0
181981.216,-53.223,-29.785,-35.156,-70.801,0.000,0
181981.220,-41.016,-42.969,-45.898,-47.363,0.000,0
181981.224,-53.223,-48.340,-57.617,-24.414,0.000,0
181981.228,-72.754,-44.922,-57.129,-56.152,0.000,0
181981.231,-63.965,-35.156,-28.320,-58.105,0.000,0
181981.235,-35.645,-24.902,-15.137,-23.438,0.000,0
181981.239,-26.367,-29.785,-30.762,-18.066,0.000,0
181981.243,-32.227,-30.273,-30.762,-17.090,0.000,0
181981.247,-42.969,-30.273,-28.809,-44.434,0.000,0
181981.251,-40.039,-30.762,-37.598,-40.039,0.000,0
181981.255,-30.273,-35.156,-47.852,-14.160,0.000,0
181981.259,-23.926,-39.062,-44.434,-20.508,0.000,0
181981.263,-42.969,-45.410,-38.574,-43.457,0.000,0
181981.267,-58.594,-38.574,-20.020,-43.945,0.000,0
181981.270,-26.367,-20.020,-11.230,-10.254,0.000,0
181981.274,-19.043,-19.531,-20.020,2.930,0.000,0
181981.278,-34.180,-24.902,-21.973,-31.738,0.000,0
181981.282,-19.531,-17.090,-20.020,-39.551,0.000,0
181981.286,-2.930,-15.137,-16.602,-7.812,0.000,0
181981.290,-3.418,-28.809,-19.043,-14.160,0.000,0
181981.294,-36.621,-36.133,-31.250,-45.898,0.000,0
181981.298,-69.824,-38.574,-41.016,-56.641,0.000,0
181981.302,-35.645,-31.738,-34.668,-35.156,0.000,0
181981.306,-8.789,-25.391,-22.461,-15.137,0.000,0
181981.310,-24.902,-25.391,-23.438,-29.785,0.000,0
181981.313,-44.922,-30.762,-44.922,-57.617,0.000,0
181981.317,-28.320,-26.855,-39.551,-51.758,0.000,0
181981.321,3.906,-15.625,-29.297,-2.441,0.000,0
181981.325,-18.066,-22.461,-32.227,0.000,0.000,0
181981.329,-47.363,-24.902,-19.531,-47.363,0.000,0
181981.333,-36.133,-15.137,-23.926,-37.109,0.000,0
181981.337,-12.207,-19.531,-31.738,-8.301,0.000,0
181981.341,0.977,-17.090,-27.344,-2.930,0.000,0
181981.345,-15.625,-19.043,-27.344,-26.367,0.000,0
181981.349,-20.508,-18.555,-16.602,-48.340,0.000,0
181981.353,-8.789,-21.973,-21.973,-33.203,0.000,0
181981.356,-11.719,-25.879,-19.531,-3.418,0.000,0
181981.360,-42.969,-26.367,-23.438,-18.066,0.000,0
181981.364,-57.617,-32.715,-41.016,-53.711,0.000,0
181981.368,-28.320,-37.109,-43.945,-54.199,0.000,0
181981.372,-18.555,-33.203,-42.969,-37.598,0.000,0
181981.376,-30.273,-24.902,-31.250,-42.969,0.000,0
181981.380,-49.316,-27.344,-33.203,-67.871,0.000,0
181981.384,-41.016,-25.391,-41.504,-54.199,0.000,0
181981.388,-25.391,-12.695,-17.578,-27.344,0.000,0
181981.392,-28.809,-14.160,-1.465,-30.273,0.000,0
181981.395,-41.992,-24.902,-19.043,-56.641,0.000,0
181981.399,-49.805,-34.668,-33.691,-54.688,0.000,0
181981.403,-21.484,-32.715,-27.832,-22.461,0.000,0
181981.407,-2.441,-30.762,-25.391,-25.879,0.000,0
181981.411,-18.555,-32.715,-32.227,-34.180,0.000,0
181981.415,-38.574,-31.250,-31.738,-48.340,0.000,0
181981.419,-32.227,-31.738,-21.973,-46.875,0.000,0
181981.423,-10.742,-24.902,-21.484,-15.137,0.000,0
181981.427,-18.555,-23.926,-35.156,-37.598,0.000,0
181981.431,-42.969,-30.762,-32.227,-78.613,0.000,0
181981.435,-35.645,-28.809,-30.762,-49.316,0.000,1
181981.438,-13.184,-26.367,-36.133,-5.859,0.000,0
181981.442,-21.484,-18.555,-27.832,-6.836,0.000,0
181981.446,-38.086,-9.766,-13.184,-41.504,0.000,0
181981.450,-39.062,-17.578,-20.508,-49.316,0.000,0
181981.454,-20.508,-18.555,-27.832,-22.461,0.000,0
181981.458,-12.695,-5.859,-15.137,-1.465,0.000,0
181981.462,-22.461,-6.348,-14.160,-12.695,0.000,0
181981.466,-27.344,-16.602,-22.461,-33.691,0.000,0
181981.470,-9.277,-20.020,-25.391,-19.043,0.000,0
181981.474,11.230,-19.531,-31.738,7.812,0.000,0
181981.478,-24.414,-23.926,-41.016,-21.484,0.000,0
181981.481,-51.270,-29.785,-46.875,-56.641,0.000,0
181981.485,-30.273,-24.902,-43.457,-55.176,0.000,0
181981.489,-20.020,-18.066,-40.527,-39.062,0.000,0
181981.493,-37.109,-29.785,-43.457,-48.340,0.000,0
181981.497,-49.316,-32.227,-36.621,-74.219,0.000,0
181981.501,-36.133,-18.555,-25.391,-48.340,0.000,0
181981.505,-18.066,-21.484,-24.902,-30.273,0.000,0
181981.509,-29.297,-26.855,-30.273,-37.109,0.000,0
181981.513,-48.828,-27.344,-43.457,-41.016,0.000,0
181981.517,-53.223,-37.109,-46.387,-60.059,0.000,0
181981.520,-45.898,-43.945,-55.664,-40.527,0.000,0
181981.524,-39.551,-42.969,-59.570,-27.344,0.000,0
181981.528,-55.176,-40.527,-46.875,-67.383,0.000,0
181981.532,-63.965,-36.621,-40.039,-81.543,0.000,0
181981.536,-16.113,-10.254,-11.719,-15.625,0.000,0
181981.540,7.812,-2.441,-4.395,24.414,0.000,0
181981.544,-12.695,-24.902,-25.391,-36.133,0.000,0
181981.548,-40.527,-37.598,-35.156,-76.660,0.000,0
181981.552,-60.059,-40.039,-57.129,-46.387,0.000,0
181981.556,-42.969,-43.945,-79.102,-35.645,0.000,0
181981.560,-44.922,-41.504,-61.035,-36.621,0.000,0
181981.563,-61.035,-26.855,-44.434,-50.781,0.000,0
181981.567,-42.480,-21.973,-37.109,-65.430,0.000,0
181981.571,-20.508,-30.273,-36.621,-37.598,0.000,0
181981.575,-27.344,-36.133,-44.434,-24.414,0.000,0
181981.579,-50.781,-41.992,-46.875,-47.852,0.000,0
181981.583,-50.293,-39.062,-42.480,-57.129,0.000,0
181981.587,-17.090,-26.367,-34.668,-21.484,0.000,0
181981.591,-4.395,-18.555,-33.691,7.324,0.000,0
181981.595,-42.480,-29.785,-41.504,-31.738,0.000,0
181981.599,-65.430,-28.320,-41.992,-42.969,0.000,0
181981.603,-28.320,-18.555,-33.691,-12.695,0.000,0
181981.606,-14.160,-20.508,-23.926,-11.230,0.000,0
181981.610,-57.129,-31.250,-29.297,-25.879,0.000,0
181981.614,-83.496,-43.945,-53.711,-48.340,0.000,0
181981.618,-61.523,-39.062,-54.199,-43.945,0.000,0
181981.622,-40.039,-33.691,-44.922,-16.602,0.000,0
181981.626,-48.828,-31.250,-37.109,-24.414,0.000,0
181981.630,-64.453,-26.855,-26.855,-43.945,0.000,0
181981.634,-45.410,-21.973,-26.367,-36.621,0.000,0
181981.638,-12.695,-14.648,-17.090,0.000,0.000,0
181981.642,-20.996,-20.996,-20.996,4.395,0.000,0
181981.645,-48.828,-21.484,-23.926,-48.340,0.000,0
181981.649,-43.945,-15.625,-22.461,-50.293,0.000,0
181981.653,-31.250,-23.926,-43.457,-18.066,0.000,0
181981.657,-33.691,-32.715,-45.410,-35.156,0.000,0
181981.661,-32.715,-19.531,-29.297,-40.527,0.000,0
181981.665,-31.738,-12.207,-26.855,-40.039,0.000,0
181981.669,-24.902,-24.414,-28.809,-41.992,0.000,0
181981.673,-27.344,-29.785,-37.109,-26.367,0.000,0
181981.677,-66.406,-29.785,-34.668,-37.598,0.000,0
181981.681,-64.453,-32.227,-38.574,-54.688,0.000,0
181981.685,-42.480,-34.668,-49.805,-53.223,0.000,0
181981.688,-29.297,-30.273,-38.574,-20.996,0.000,0
181981.692,-20.508,-22.461,-31.250,4.395,0.000,0
181981.696,-41.016,-20.020,-34.668,-18.066,0.000,0
181981.700,-44.434,-20.996,-25.391,-22.461,0.000,0
181981.704,-0.977,-10.254,-17.578,0.000,0.000,0
181981.708,7.324,-13.184,-28.809,5.371,0.000,0
181981.712,-19.531,-27.344,-36.133,-11.230,0.000,0
181981.716,-40.039,-31.738,-45.898,-38.086,0.000,0
181981.720,-36.621,-31.738,-45.410,-17.090,0.000,0
181981.724,-10.254,-28.320,-33.203,-4.883,0.000,0
181981.728,-22.949,-25.391,-19.531,-20.996,0.000,0
181981.731,-30.273,-29.785,-33.203,-37.109,0.000,0
181981.735,-7.812,-33.691,-44.434,-39.062,0.000,0
181981.739,2.930,-32.227,-20.996,-22.461,0.000,0
181981.743,-26.367,-31.738,-18.555,-47.363,0.000,0
181981.747,-49.805,-37.109,-38.574,-66.406,0.000,0
181981.751,-38.574,-38.086,-42.969,-36.621,0.000,0
181981.755,-11.719,-20.508,-28.809,12.207,0.000,0
181981.759,8.301,-0.977,-7.812,12.695,0.000,0
181981.763,-26.855,-11.230,-12.207,-39.551,0.000,0
181981.767,-35.645,-33.691,-33.203,-49.316,0.000,0
181981.770,17.578,-40.039,-49.316,-22.461,0.000,0
181981.774,18.066,-40.527,-50.293,-15.137,0.000,0
181981.778,0.977,-28.809,-27.344,-13.184,0.000,0
181981.782,13.184,-20.996,-18.066,-32.227,0.000,0
181981.786,23.926,-26.855,-42.480,-24.414,0.000,0
181981.790,11.230,-31.738,-48.828,4.395,0.000,0
181981.794,-12.695,-25.879,-22.949,-11.230,0.000,0
181981.798,-22.949,-25.391,-17.578,-40.527,0.000,0
181981.802,-2.930,-27.832,-17.578,-46.875,0.000,0
181981.806,6.836,-19.043,-11.719,-34.668,0.000,0
181981.810,-24.902,-27.344,-33.691,-36.621,0.000,0
181981.813,-48.340,-32.715,-44.922,-59.082,0.000,0
181981.817,-41.504,-27.344,-36.133,-35.156,0.000,0
181981.821,-27.344,-26.855,-35.156,-15.137,0.000,0
181981.825,-31.738,-28.320,-28.809,-25.391,0.000,0
181981.829,-34.668,-22.949,-18.066,-20.508,0.000,0
181981.833,-27.344,-17.578,-15.137,-16.602,0.000,0
181981.837,-6.348,-18.066,-12.695,4.883,0.000,0
181981.841,-18.066,-33.691,-32.715,-19.043,0.000,0
181981.845,-41.504,-27.344,-37.109,-47.852,0.000,0
181981.849,-37.598,-15.137,-24.902,-37.109,0.000,0
181981.853,-22.461,-32.227,-30.762,-23.926,0.000,0
181981.856,-24.902,-31.250,-23.926,0.488,0.000,0
181981.860,-38.574,-14.648,-7.324,-25.879,0.000,0
181981.864,-39.551,-13.672,-6.348,-45.410,0.000,0
181981.868,-33.691,-25.879,-29.785,-20.996,0.000,0
181981.872,-8.301,-23.438,-32.227,-15.625,0.000,0
181981.876,-11.230,-18.555,-27.832,-28.320,0.000,0
181981.880,-45.898,-36.133,-47.363,-62.500,0.000,0
181981.884,-54.688,-37.598,-49.805,-71.289,0.000,0
181981.888,-30.273,-24.414,-26.367,-28.320,0.000,0
181981.892,-28.320,-27.832,-28.809,-18.555,0.000,0
181981.895,-52.734,-27.832,-36.621,-41.016,0.000,0
181981.899,-47.852,-20.020,-15.137,-52.734,0.000,0
181981.903,-5.859,-14.160,-8.789,-16.113,0.000,0
181981.907,9.766,-11.230,-14.160,19.043,0.000,0
181981.911,-9.766,-16.113,-23.438,-25.879,0.000,0
181981.915,-21.484,-17.578,-31.250,-50.781,0.000,0
181981.919,-17.578,-22.949,-27.832,-31.250,0.000,0
181981.923,6.348,-24.902,-30.273,-25.391,0.000,0
181981.927,-6.836,-20.508,-34.180,-31.738,0.000,0
181981.931,-21.973,-17.090,-35.645,-38.086,0.000,0
181981.935,-0.488,-6.348,-17.578,-21.484,0.000,0
181981.938,13.672,2.930,1.465,8.789,0.000,0
181981.942,10.742,3.906,1.953,0.000,0.000,0
181981.946,-9.766,-8.301,-13.184,-43.457,0.000,0
181981.950,-25.879,-27.832,-41.992,-64.941,0.000,0
181981.954,-13.672,-31.250,-51.270,-25.391,0.000,0
181981.958,-8.301,-31.738,-42.969,-2.441,0.000,0
181981.962,-20.020,-26.855,-26.367,-30.273,0.000,0
181981.966,-23.926,-23.926,-24.414,-47.363,0.000,0
181981.970,-8.789,-14.648,-16.113,-8.789,0.000,0
181981.974,17.090,-1.953,-7.812,25.391,0.000,0
181981.978,-6.348,-16.602,-21.973,-10.742,0.000,0
181981.981,-24.902,-22.949,-24.414,-43.457,0.000,0
181981.985,-10.254,-19.531,-31.250,-20.508,0.000,0
181981.989,-3.418,-22.949,-32.715,0.000,0.000,0
181981.993,-10.254,-30.273,-44.922,-11.230,0.000,0
181981.997,-24.414,-31.250,-44.434,-32.227,0.000,0
181982.001,-28.809,-25.391,-28.320,-47.363,0.000,0
181982.005,-16.113,-24.414,-30.762,-24.414,0.000,0
181982.009,-18.066,-26.855,-37.109,-19.043,0.000,0
181982.013,-50.781,-32.715,-42.480,-55.664,0.000,0
181982.017,-34.180,-19.531,-16.602,-47.852,0.000,0
181982.020,14.160,5.371,2.441,-6.348,0.000,0
181982.024,4.883,-1.465,-10.742,-15.625,0.000,0
181982.028,-31.738,-26.367,-29.785,-59.082,0.000,0
181982.032,-40.527,-25.879,-28.809,-54.199,0.000,0
181982.036,-27.832,-25.879,-32.227,-20.020,0.000,0
181982.040,-13.672,-33.691,-43.945,-24.902,0.000,0
181982.044,-29.785,-28.809,-37.598,-38.574,0.000,0
181982.048,-56.641,-24.414,-35.156,-55.176,0.000,0
181982.052,-37.109,-20.996,-23.438,-41.016,0.000,0
181982.056,5.371,-15.625,-21.484,-22.949,0.000,0
181982.060,-13.184,-15.625,-35.156,-50.293,0.000,0
181982.063,-41.016,-20.508,-32.227,-59.082,0.000,0
181982.067,-31.250,-21.973,-16.602,-36.621,0.000,0
181982.071,0.977,-17.578,-19.043,0.488,0.000,0
181982.075,-20.996,-18.555,-46.387,8.789,0.000,0
181982.079,-47.363,-6.348,-29.785,-26.855,0.000,0
181982.083,-22.949,-3.906,-4.395,-11.230,0.000,0
181982.087,-17.090,-20.508,-19.531,10.742,0.000,0
181982.091,-19.531,-23.438,-25.879,-0.977,0.000,0
181982.095,-32.227,-25.391,-21.484,-27.832,0.000,1
181982.099,-35.156,-32.715,-26.367,-61.035,0.000,0
181982.103,-26.855,-33.691,-36.133,-53.711,0.000,0
181982.106,-27.832,-31.250,-42.969,-32.227,0.000,0
181982.110,-22.949,-20.508,-23.438,-35.645,0.000,0
181982.114,-21.484,-12.207,-7.812,-50.781,0.000,0
181982.118,-8.789,-14.648,-28.320,-41.016,0.000,0
181982.122,-6.348,-24.902,-40.039,-33.691,0.000,0
181982.126,-26.855,-24.414,-25.391,-38.574,0.000,0
181982.130,-46.875,-21.484,-18.066,-42.969,0.000,0
181982.134,-39.551,-29.785,-23.438,-37.109,0.000,0
181982.138,-43.945,-47.363,-38.574,-48.828,0.000,0
181982.142,-67.871,-49.805,-52.246,-59.570,0.000,0
181982.145,-70.801,-33.203,-47.363,-52.734,0.000,0
181982.149,-71.777,-28.809,-38.086,-60.547,0.000,0
181982.153,-49.805,-25.391,-36.621,-31.738,0.000,0
181982.157,-37.598,-15.137,-29.785,-19.531,0.000,0
181982.161,-46.387,-15.625,-19.043,-51.270,0.000,0
181982.165,-54.199,-26.855,-28.809,-65.430,0.000,0
181982.169,-41.504,-26.855,-38.574,-44.922,0.000,0
181982.173,-12.695,-29.297,-38.086,-5.371,0.000,0
181982.177,-30.273,-29.785,-36.621,-30.273,0.000,0
181982.181,-53.223,-24.414,-37.598,-66.406,0.000,0
181982.185,-32.227,-28.809,-50.293,-40.039,0.000,0
181982.188,-11.719,-32.227,-49.805,-22.949,0.000,0
181982.192,-34.180,-36.133,-36.133,-37.598,0.000,0
181982.196,-61.035,-38.086,-32.715,-71.289,0.000,0
181982.200,-47.363,-37.109,-46.875,-55.664,0.000,0
181982.204,-16.113,-27.832,-34.180,-3.906,0.000,0
181982.208,-26.367,-24.414,-25.391,4.883,0.000,0
181982.212,-79.102,-42.480,-48.340,-46.875,0.000,0
181982.216,-78.125,-48.828,-51.270,-68.359,0.000,0
181982.220,-44.922,-41.504,-47.852,-25.879,0.000,0
181982.224,-35.645,-33.691,-44.922,-22.949,0.000,0
181982.228,-55.664,-29.297,-41.504,-56.641,0.000,0
181982.231,-52.734,-22.461,-40.527,-56.641,0.000,0
181982.235,-6.836,-9.277,-13.672,-23.926,0.000,0
181982.239,-1.953,-20.020,-22.949,-22.461,0.000,0
181982.243,-39.062,-34.180,-37.109,-54.688,0.000,0
181982.247,-36.621,-27.344,-30.762,-49.805,0.000,0
181982.251,-19.043,-29.785,-46.387,-40.039,0.000,0
181982.255,-20.020,-29.297,-38.086,-39.551,0.000,0
181982.259,-19.531,-11.719,-16.602,-21.973,0.000,0
181982.263,-30.762,-13.672,-24.902,-49.316,0.000,0
181982.267,-32.715,-25.879,-40.039,-48.340,0.000,0
181982.270,-34.180,-32.715,-54.199,-21.973,0.000,0
181982.274,-40.039,-29.785,-44.922,-36.133,0.000,0
181982.278,-26.855,-15.625,-23.926,-54.199,0.000,0
181982.282,-10.254,-18.555,-26.367,-38.574,0.000,0
181982.286,0.488,-23.926,-32.227,-16.113,0.000,0
181982.290,-11.230,-31.250,-29.297,-26.855,0.000,0
181982.294,-27.344,-28.320,-20.996,-56.152,0.000,0
181982.298,-14.648,-19.043,-15.137,-57.129,0.000,0
181982.302,-4.395,-27.832,-22.949,-26.367,0.000,0
181982.306,-22.949,-36.133,-38.086,-15.137,0.000,0
181982.310,-32.227,-40.527,-50.781,-30.762,0.000,0
181982.313,-18.066,-25.879,-32.227,-39.551,0.000,0
181982.317,11.719,-9.277,-12.695,-6.348,0.000,0
181982.321,17.578,-16.113,-21.973,24.902,0.000,0
181982.325,-9.766,-35.156,-35.645,-14.648,0.000,0
181982.329,-34.180,-40.527,-36.621,-54.199,0.000,0
181982.333,-31.738,-32.715,-20.020,-40.039,0.000,0
181982.337,-3.418,-32.715,-31.738,-19.043,0.000,0
181982.341,-1.953,-30.762,-44.434,-24.902,0.000,0
181982.345,-21.973,-14.160,-22.949,-41.992,0.000,0
181982.349,-16.113,-17.578,-24.902,-37.109,0.000,0
181982.353,-1.953,-31.250,-40.039,-22.461,0.000,0
181982.356,-8.789,-26.855,-32.227,-21.973,0.000,0
181982.360,-20.996,-18.555,-35.645,-21.973,0.000,0
181982.364,-31.250,-23.926,-42.480,-20.996,0.000,0
181982.368,-7.324,-21.973,-37.598,-3.418,0.000,0
181982.372,7.324,-15.137,-28.320,-13.672,0.000,0
181982.376,-24.414,-21.484,-39.062,-56.152,0.000,0
181982.380,-32.715,-19.531,-42.480,-45.410,0.000,0
181982.384,-17.090,-18.066,-35.645,-18.066,0.000,0
181982.388,-14.648,-25.879,-41.504,-0.977,0.000,0
181982.392,-16.602,-18.066,-34.668,-13.184,0.000,0
181982.395,-26.855,-10.254,-25.879,-41.016,0.000,0
181982.399,-44.922,-26.855,-48.340,-38.086,0.000,0
181982.403,-33.691,-31.250,-48.340,-13.184,0.000,0
181982.407,-20.020,-18.066,-21.484,-0.977,0.000,0
181982.411,-44.434,-20.508,-27.832,-36.621,0.000,0
181982.415,-50.293,-30.273,-47.363,-65.430,0.000,0
181982.419,-26.367,-25.391,-38.086,-48.828,0.000,0
181982.423,-19.531,-23.926,-30.273,-29.785,0.000,0
181982.427,-35.645,-29.297,-43.945,-46.387,0.000,0
181982.431,-41.992,-24.414,-41.016,-68.848,0.000,0
181982.435,-32.227,-18.555,-31.250,-43.457,0.000,0
181982.438,-22.949,-16.113,-26.855,-3.906,0.000,0
181982.442,-14.648,-21.973,-39.062,-28.809,0.000,0
181982.446,-32.227,-34.180,-55.664,-69.336,0.000,0
181982.450,-29.297,-37.598,-60.059,-60.547,0.000,0
181982.454,-1.953,-34.180,-40.527,-36.621,0.000,0
181982.458,-7.812,-29.297,-28.809,-28.809,0.000,0
181982.462,-14.160,-30.762,-30.762,-48.828,0.000,0
181982.466,7.324,-27.832,-23.926,-24.902,0.000,0
181982.470,19.043,-21.484,-20.020,4.883,0.000,0
181982.474,16.602,-16.113,-11.230,-12.207,0.000,0
181982.478,-9.277,-22.949,-24.902,-48.340,0.000,0
181982.481,-10.254,-22.461,-33.691,-45.410,0.000,0
181982.485,35.645,-15.137,-21.484,8.301,0.000,0
181982.489,32.227,-21.973,-31.738,7.812,0.000,0
181982.493,-6.348,-24.902,-27.832,-46.875,0.000,0
181982.497,-19.043,-26.367,-30.273,-51.270,0.000,0
181982.501,-3.906,-32.227,-39.062,-9.277,0.000,0
181982.505,7.324,-31.738,-21.484,16.113,0.000,0
181982.509,-7.812,-27.832,-19.531,-14.648,0.000,0
181982.513,-14.648,-19.531,-17.090,-42.969,0.000,0
181982.517,0.000,-14.648,-18.066,-13.184,0.000,0
181982.520,14.648,-19.043,-25.391,16.602,0.000,0
181982.524,-11.719,-38.574,-42.480,-9.277,0.000,0
181982.528,-45.898,-50.781,-58.105,-64.453,0.000,0
181982.532,-41.016,-44.434,-48.828,-83.496,0.000,0
181982.536,-14.160,-35.645,-36.133,-30.273,0.000,0
181982.540,-12.695,-34.668,-22.949,-3.906,0.000,0
181982.544,-31.250,-35.156,-27.832,-38.574,0.000,0
181982.548,-19.531,-24.902,-31.738,-52.734,0.000,0
181982.552,-9.766,-23.926,-20.020,-34.180,0.000,0
181982.556,-33.203,-30.273,-34.180,-41.992,0.000,0
181982.560,-38.086,-22.461,-32.227,-51.270,0.000,0
181982.563,-8.789,-17.090,-21.973,-29.297,0.000,0
181982.567,5.859,-20.020,-26.367,-20.996,0.000,0
181982.571,-11.719,-23.926,-29.785,-23.926,0.000,0
181982.575,-23.926,-33.203,-34.668,-41.992,0.000,0
181982.579,-27.832,-37.109,-31.250,-50.293,0.000,0
181982.583,-10.742,-38.086,-29.785,-9.766,0.000,0
181982.587,0.977,-36.621,-33.691,-3.418,0.000,0
181982.591,1.465,-17.090,-20.508,-23.926,0.000,0
181982.595,-5.371,-11.230,-19.531,-30.762,0.000,0
181982.599,-11.719,-20.508,-27.832,-21.484,0.000,0
181982.603,-4.883,-18.555,-33.203,-1.953,0.000,0
181982.606,-22.949,-25.391,-37.109,-18.555,0.000,0
181982.610,-45.898,-25.879,-20.508,-50.781,0.000,0
181982.614,-24.902,-9.766,-6.836,-24.414,0.000,0
181982.618,-3.906,-15.625,-11.719,-4.883,0.000,0
181982.622,-34.668,-33.203,-34.180,-30.273,0.000,0
181982.626,-65.430,-34.180,-37.109,-47.852,0.000,0
181982.630,-49.805,-26.855,-34.668,-59.082,0.000,0
181982.634,-23.926,-27.832,-40.039,-29.297,0.000,0
181982.638,-22.461,-33.691,-53.223,-0.488,0.000,0
181982.642,-45.898,-26.367,-36.621,-32.227,0.000,0
181982.645,-34.180,-7.324,-9.277,-35.156,0.000,0
181982.649,4.883,-2.441,-2.441,-5.859,0.000,0
181982.653,-2.930,-20.996,-15.137,-4.883,0.000,0
181982.657,-30.273,-21.484,-24.414,-18.066,0.000,0
181982.661,-31.738,-15.625,-21.973,-24.414,0.000,0
181982.665,-17.578,-29.785,-34.180,-12.695,0.000,0
181982.669,-13.672,-29.785,-37.109,-17.090,0.000,0
181982.673,-27.344,-24.902,-41.504,-19.531,0.000,0
181982.677,-42.480,-25.391,-45.410,-39.551,0.000,1
181982.681,-20.996,-22.949,-32.227,-43.457,0.000,0
181982.685,-2.930,-20.508,-18.066,-4.395,0.000,0
181982.688,-15.625,-23.926,-28.809,-18.066,0.000,0
181982.692,-22.949,-22.949,-36.621,-48.828,0.000,0
181982.696,-20.996,-24.414,-26.367,-48.828,0.000,0
181982.700,6.348,-20.508,-24.414,-9.277,0.000,0
181982.704,-3.906,-20.508,-38.086,-17.090,0.000,0
181982.708,-37.598,-20.996,-41.016,-66.406,0.000,0
181982.712,-40.039,-16.113,-39.551,-59.570,0.000,0
181982.716,-29.297,-20.996,-36.133,-33.203,0.000,0
181982.720,-30.762,-26.855,-30.273,-22.949,0.000,0
181982.724,-37.109,-30.762,-30.762,-41.992,0.000,0
181982.728,-50.293,-30.762,-36.621,-72.266,0.000,0
181982.731,-33.203,-29.297,-51.270,-48.828,0.000,0
181982.735,-11.719,-20.508,-36.133,-11.719,0.000,0
181982.739,-26.367,-10.254,-35.156,-22.461,0.000,0
181982.743,-36.621,-9.766,-37.109,-48.828,0.000,0
181982.747,-30.762,-19.043,-23.926,-55.664,0.000,0
181982.751,-11.230,-15.625,-15.625,-21.484,0.000,0
181982.755,-18.555,-15.625,-23.438,-9.277,0.000,0
181982.759,-48.340,-26.855,-35.645,-57.617,0.000,0
181982.763,-48.828,-27.344,-27.832,-64.453,0.000,0
181982.767,-20.508,-24.902,-19.531,-38.086,0.000,0
181982.770,-9.277,-26.367,-32.715,-29.785,0.000,0
181982.774,-29.297,-22.461,-38.086,-32.715,0.000,0
181982.778,-41.992,-20.996,-35.645,-37.109,0.000,0
181982.782,-38.574,-27.344,-40.527,-23.926,0.000,0
181982.786,-17.090,-21.484,-27.832,-3.906,0.000,0
181982.790,-32.715,-27.344,-35.645,-40.039,0.000,0
181982.794,-44.434,-35.156,-47.852,-60.547,0.000,0
181982.798,-31.250,-35.156,-52.246,-23.438,0.000,0
181982.802,-15.625,-28.320,-50.781,-4.883,0.000,0
181982.806,-34.180,-26.855,-31.738,-51.270,0.000,0
181982.810,-56.641,-20.508,-23.926,-59.082,0.000,0
181982.813,-16.113,-16.602,-24.414,-17.090,0.000,0
181982.817,-7.324,-27.832,-30.762,-9.277,0.000,0
181982.821,-37.598,-34.180,-41.504,-46.875,0.000,0
181982.825,-60.547,-42.969,-51.270,-94.238,0.000,0
181982.829,-35.645,-28.809,-36.621,-59.082,0.000,0
181982.833,-10.254,-13.672,-25.879,-16.602,0.000,0
181982.837,-28.809,-19.043,-29.785,-5.371,0.000,0
181982.841,-55.176,-31.738,-44.434,-37.598,0.000,0
181982.845,-47.852,-38.086,-48.828,-67.871,0.000,0
181982.849,-27.832,-39.551,-47.363,-27.832,0.000,0
181982.853,-25.879,-36.133,-45.898,-7.324,0.000,0
181982.856,-34.668,-23.438,-38.086,-36.621,0.000,0
181982.860,-39.062,-20.996,-44.434,-49.316,0.000,0
181982.864,-25.391,-24.414,-29.297,-40.039,0.000,0
181982.868,-7.812,-20.020,-26.367,-18.066,0.000,0
181982.872,-7.812,-17.090,-32.227,-19.043,0.000,0
181982.876,-20.508,-20.020,-27.832,-35.156,0.000,0
181982.880,-16.113,-19.531,-24.414,-35.645,0.000,0
181982.884,-4.883,-19.531,-21.973,-29.785,0.000,0
181982.888,-20.508,-19.043,-28.320,-41.016,0.000,0
181982.892,-49.805,-22.949,-32.715,-65.918,0.000,0
181982.895,-62.500,-28.809,-39.551,-55.664,0.000,0
181982.899,-54.199,-29.785,-42.969,-46.875,0.000,0
181982.903,-52.734,-31.738,-48.828,-69.824,0.000,0
181982.907,-46.387,-20.508,-38.574,-68.848,0.000,0
181982.911,-20.996,-13.184,-30.762,-25.879,0.000,0
181982.915,-17.090,-14.648,-24.414,2.930,0.000,0
181982.919,-21.973,-13.672,-13.672,-35.645,0.000,0
181982.923,-29.297,-17.578,-17.090,-68.359,0.000,0
181982.927,-30.273,-24.902,-27.344,-39.062,0.000,0
181982.931,-19.043,-28.320,-34.180,-20.508,0.000,0
181982.935,-16.602,-23.926,-40.039,-24.414,0.000,0
181982.938,-36.621,-12.695,-33.691,-40.039,0.000,0
181982.942,-45.410,-8.789,-20.508,-53.223,0.000,0
181982.946,-22.949,-15.625,-22.949,-19.043,0.000,0
181982.950,11.230,-11.719,-18.555,10.742,0.000,0
181982.954,-15.137,-9.277,-22.461,-17.090,0.000,0
181982.958,-43.457,-20.996,-36.621,-51.270,0.000,0
181982.962,-6.348,-24.414,-36.621,-40.039,0.000,0
181982.966,10.742,-15.137,-21.484,-16.113,0.000,0
181982.970,6.836,-10.254,-15.137,-28.320,0.000,0
181982.974,-5.371,-10.254,-8.301,-29.297,0.000,0
181982.978,-20.508,-17.578,-11.230,-12.207,0.000,0
181982.981,-10.254,-31.738,-26.855,-34.180,0.000,0
181982.985,-20.996,-33.203,-36.133,-35.645,0.000,0
181982.989,-35.156,-31.250,-32.227,-29.297,0.000,0
181982.993,-15.137,-27.344,-22.949,-32.227,0.000,0
181982.997,0.977,-16.602,-20.508,-5.371,0.000,0
181983.001,-0.977,-17.578,-22.461,-10.742,0.000,0
181983.005,-28.809,-20.508,-38.086,-49.316,0.000,0
181983.009,-39.551,-14.648,-37.109,-53.223,0.000,0
181983.013,-15.137,-13.672,-20.020,-7.812,0.000,0
181983.017,-27.344,-23.926,-28.320,-6.836,0.000,0
181983.020,-59.570,-19.043,-32.715,-47.363,0.000,0
181983.024,-54.199,-11.719,-25.879,-34.180,0.000,0
181983.028,-25.879,-15.625,-19.043,6.836,0.000,0
181983.032,-14.160,-20.996,-20.996,16.602,0.000,0
181983.036,-22.461,-27.832,-39.551,-13.672,0.000,0
181983.040,-31.738,-33.203,-45.898,-55.176,0.000,0
181983.044,-26.367,-39.062,-42.480,-55.664,0.000,0
181983.048,-6.836,-30.762,-36.133,-12.695,0.000,0
181983.052,-5.371,-21.484,-32.715,0.000,0.000,0
181983.056,-38.086,-33.203,-48.340,-52.734,0.000,0
181983.060,-40.527,-43.945,-54.199,-82.520,0.000,0
181983.063,-19.043,-38.086,-36.621,-33.203,0.000,0
181983.067,-34.180,-26.855,-32.227,-14.648,0.000,0
181983.071,-45.898,-28.809,-41.504,-55.664,0.000,0
181983.075,-40.039,-18.066,-24.414,-48.828,0.000,0
181983.079,-19.531,-10.742,-20.508,-23.926,0.000,0
181983.083,-5.859,-7.812,-30.273,-16.602,0.000,0
181983.087,-39.551,-12.695,-32.227,-35.645,0.000,0
181983.091,-60.059,-28.320,-45.410,-47.852,0.000,0
181983.095,-39.551,-26.855,-45.410,-29.297,0.000,0
181983.099,-26.367,-27.832,-41.992,-18.555,0.000,0
181983.103,-26.367,-27.344,-38.574,-21.484,0.000,0
181983.106,-47.852,-20.996,-44.922,-30.762,0.000,0
181983.110,-50.293,-20.508,-57.129,-29.785,0.000,0
181983.114,-38.086,-25.879,-44.434,-24.902,0.000,0
181983.118,-43.457,-22.949,-24.414,-55.664,0.000,0
181983.122,-40.527,-17.090,-27.344,-62.012,0.000,0
181983.126,-23.438,-22.461,-33.203,-37.109,0.000,0
181983.130,-18.555,-35.645,-37.598,-17.578,0.000,0
181983.134,-29.785,-38.574,-41.992,-38.574,0.000,0
181983.138,-48.340,-40.527,-39.062,-96.680,0.000,0
181983.142,-36.133,-30.762,-32.715,-74.219,0.000,0
181983.145,-8.789,-14.160,-20.508,-23.926,0.000,0
181983.149,-17.090,-12.695,-19.043,-5.371,0.000,0
181983.153,-19.531,-10.254,-18.066,-16.113,0.000,0
181983.157,-29.785,-19.531,-37.109,-52.246,0.000,0
181983.161,-19.043,-17.090,-26.855,-23.926,0.000,0
181983.165,-19.043,-26.855,-22.461,-7.812,0.000,0
181983.169,-40.039,-37.598,-41.016,-47.852,0.000,0
181983.173,-52.246,-28.809,-30.762,-61.035,0.000,0
181983.177,-41.016,-27.832,-17.578,-50.293,0.000,0
181983.181,-9.766,-29.785,-27.832,-28.809,0.000,0
181983.185,-30.273,-29.297,-37.109,-39.062,0.000,0
181983.188,-46.875,-27.344,-43.457,-47.852,0.000,0
181983.192,-13.184,-17.090,-33.203,-12.695,0.000,0
181983.196,-6.836,-17.578,-22.461,-14.648,0.000,0
181983.200,-31.738,-33.691,-38.086,-24.902,0.000,0
181983.204,-42.969,-35.645,-42.480,-37.109,0.000,0
181983.208,-33.203,-21.973,-37.109,-36.133,0.000,0
181983.212,-9.277,-23.926,-35.645,-13.184,0.000,0
181983.216,-16.602,-35.645,-44.434,-27.832,0.000,0
181983.220,-36.621,-30.273,-50.293,-49.805,0.000,0
181983.224,-36.621,-27.344,-29.297,-43.945,0.000,0
181983.228,-20.020,-26.855,-26.367,-8.301,0.000,0
181983.231,-6.836,-22.461,-21.484,6.348,0.000,0
181983.235,-28.320,-27.832,-17.578,-34.668,0.000,0
181983.239,-38.574,-23.438,-19.043,-35.645,0.000,0
181983.243,-9.277,-10.254,-10.254,-0.977,0.000,0
181983.247,-3.418,-15.137,-15.137,-3.418,0.000,0
181983.251,-21.973,-25.879,-26.855,-20.996,0.000,0
181983.255,-42.480,-24.414,-32.227,-53.223,0.000,0
181983.259,-41.016,-29.297,-31.738,-63.965,0.000,0
181983.263,-20.508,-33.691,-26.367,-25.391,0.000,0
181983.267,-18.066,-22.461,-16.113,-2.930,0.000,0
181983.270,-43.945,-21.484,-20.508,-26.855,0.000,0
181983.274,-21.484,-18.555,-23.926,-34.668,0.000,0
181983.278,0.488,-24.902,-26.855,-10.742,0.000,0
181983.282,-26.855,-42.969,-44.922,-15.625,0.000,0
181983.286,-56.152,-41.992,-40.527,-49.805,0.000,0
181983.290,-55.176,-33.203,-41.992,-43.457,0.000,0
181983.294,-25.391,-30.762,-45.898,-22.949,0.000,0
181983.298,-17.090,-33.203,-40.527,-29.785,0.000,0
181983.302,-37.598,-34.668,-41.992,-40.039,0.000,0
181983.306,-37.109,-21.484,-27.832,-47.852,0.000,0
181983.310,-19.531,-17.090,-15.625,-22.949,0.000,0
181983.313,-20.996,-26.367,-20.020,-7.812,0.000,0
181983.317,-42.480,-25.879,-38.574,-40.527,0.000,0
181983.321,-54.199,-29.785,-47.363,-64.453,0.000,0
181983.325,-40.039,-26.855,-37.598,-42.969,0.000,0
181983.329,-31.250,-23.438,-33.203,-8.301,0.000,0
181983.333,-31.250,-26.367,-41.504,-29.297,0.000,0
181983.337,-34.668,-21.973,-49.805,-61.035,0.000,0
181983.341,-37.598,-21.973,-43.457,-44.434,0.000,0
181983.345,-19.531,-18.066,-29.297,-16.113,0.000,0
181983.349,-11.230,-13.184,-18.555,-14.648,0.000,1
181983.353,-32.227,-13.184,-25.391,-54.199,0.000,0
181983.356,-41.016,-15.625,-36.133,-71.777,0.000,0
181983.360,-17.090,-13.184,-21.484,-40.527,0.000,0
181983.364,-13.672,-15.625,-29.297,-23.438,0.000,0
181983.368,-32.227,-16.113,-38.086,-35.156,0.000,0
181983.372,-33.691,-12.695,-20.996,-55.664,0.000,0
181983.376,-19.043,-9.766,-16.113,-41.992,0.000,0
181983.380,8.789,-6.348,-15.625,-3.418,0.000,0
181983.384,-2.930,-11.719,-20.020,-5.859,0.000,0
181983.388,-59.570,-25.879,-30.762,-44.922,0.000,0
181983.392,-47.363,-38.086,-39.551,-46.875,0.000,0
181983.395,-21.973,-44.434,-39.551,-21.973,0.000,0
181983.399,-37.598,-41.504,-50.781,-34.668,0.000,0
181983.403,-48.340,-40.039,-58.105,-57.129,0.000,0
181983.407,-30.273,-31.738,-32.227,-46.387,0.000,0
181983.411,3.418,-15.625,-7.324,-15.625,0.000,0
181983.415,13.184,-9.766,-6.348,4.395,0.000,0
181983.419,-11.230,-19.043,-23.438,-20.020,0.000,0
181983.423,-40.039,-34.668,-35.645,-62.988,0.000,0
181983.427,-36.621,-44.434,-35.645,-41.504,0.000,0
181983.431,-9.277,-38.086,-34.668,-21.484,0.000,0
181983.435,-15.137,-27.832,-32.227,-50.293,0.000,0
181983.438,-41.016,-26.367,-41.504,-67.871,0.000,0
181983.442,-29.785,-24.902,-35.645,-41.016,0.000,0
181983.446,-5.371,-22.949,-24.414,-2.930,0.000,0
181983.450,-27.344,-28.809,-26.367,-19.043,0.000,0
181983.454,-49.805,-29.297,-28.809,-69.336,0.000,0
181983.458,-41.504,-31.250,-36.621,-58.105,0.000,0
181983.462,-25.391,-31.250,-36.621,-20.996,0.000,0
181983.466,-31.250,-36.133,-45.898,-25.391,0.000,0
181983.470,-41.016,-29.297,-41.992,-42.480,0.000,0
181983.474,-26.855,-3.906,-2.441,-40.527,0.000,0
181983.478,-33.203,-24.902,-15.625,-28.809,0.000,0
181983.481,-39.062,-47.852,-50.293,-21.973,0.000,0
181983.485,-52.734,-40.039,-42.969,-38.574,0.000,0
181983.489,-62.012,-35.156,-32.715,-63.477,0.000,0
181983.493,-40.527,-34.668,-38.086,-51.758,0.000,0
181983.497,-20.020,-33.691,-41.504,-34.180,0.000,0
181983.501,-18.066,-28.320,-33.691,-52.246,0.000,0
181983.505,-36.133,-23.926,-33.203,-44.922,0.000,0
181983.509,-30.762,-28.809,-31.250,-26.855,0.000,0
181983.513,-18.555,-26.367,-21.484,-33.691,0.000,0
181983.517,-32.227,-21.973,-23.926,-30.762,0.000,0
181983.520,-53.711,-31.250,-37.598,-49.805,0.000,0
181983.524,-63.477,-35.156,-41.016,-69.336,0.000,0
181983.528,-43.945,-27.832,-31.738,-38.574,0.000,0
181983.532,-35.156,-28.809,-29.785,-44.434,0.000,0
181983.536,-59.570,-29.297,-32.715,-79.102,0.000,0
181983.540,-55.176,-18.066,-22.949,-62.500,0.000,0
181983.544,-20.020,-5.371,-12.207,-6.836,0.000,0
181983.548,-4.883,-5.859,-14.160,15.625,0.000,0
181983.552,-37.109,-26.855,-36.133,-36.621,0.000,0
181983.556,-73.730,-35.645,-46.387,-58.105,0.000,0
181983.560,-50.293,-34.180,-43.457,-33.203,0.000,0
181983.563,-41.504,-34.180,-31.250,-21.973,0.000,0
181983.567,-68.359,-27.344,-21.973,-33.203,0.000,0
181983.571,-70.801,-29.785,-27.832,-68.359,0.000,0
181983.575,-62.012,-30.762,-32.715,-65.918,0.000,0
181983.579,-62.500,-34.180,-30.762,-34.180,0.000,0
181983.583,-65.918,-39.551,-34.180,-26.367,0.000,0
181983.587,-68.359,-35.156,-30.762,-46.387,0.000,0
181983.591,-52.246,-20.996,-20.508,-53.223,0.000,0
181983.595,-14.648,-13.672,-10.742,-9.766,0.000,0
181983.599,-7.812,-19.531,-6.836,-6.348,0.000,0
181983.603,-39.062,-29.297,-14.160,-60.547,0.000,0
181983.606,-37.598,-24.902,-20.020,-49.805,0.000,0
181983.610,-23.438,-21.484,-13.184,-20.996,0.000,0
181983.614,-40.527,-28.320,-22.949,-19.531,0.000,0
181983.618,-43.945,-24.902,-35.645,-30.762,0.000,0
181983.622,-45.410,-23.926,-29.785,-53.223,0.000,0
181983.626,-51.758,-29.785,-31.738,-39.551,0.000,0
181983.630,-51.758,-33.203,-33.691,-15.625,0.000,0
181983.634,-60.547,-37.109,-30.762,-50.293,0.000,0
181983.638,-67.383,-38.086,-36.621,-80.078,0.000,0
181983.642,-62.988,-33.691,-37.598,-54.688,0.000,0
181983.645,-45.410,-34.668,-24.902,-6.348,0.000,0
181983.649,-25.391,-28.320,-17.578,-6.836,0.000,0
181983.653,-29.297,-16.113,-8.789,-34.668,0.000,0
181983.657,-44.434,-25.879,-24.902,-28.320,0.000,0
181983.661,-40.527,-40.527,-31.250,-12.695,0.000,0
181983.665,-25.879,-39.062,-20.020,-18.555,0.000,0
181983.669,-39.551,-35.645,-18.066,-41.992,0.000,0
181983.673,-52.246,-41.504,-31.250,-58.105,0.000,0
181983.677,-39.551,-46.875,-43.945,-44.434,0.000,0
181983.681,-27.344,-37.598,-43.945,-21.973,0.000,0
181983.685,-31.250,-32.227,-28.809,-17.090,0.000,0
181983.688,-54.199,-43.457,-24.902,-47.852,0.000,0
181983.692,-47.852,-43.945,-27.832,-57.617,0.000,0
181983.696,-23.438,-39.551,-30.762,-10.742,0.000,0
181983.700,-31.738,-42.969,-39.062,-6.348,0.000,0
181983.704,-59.570,-50.781,-38.086,-54.199,0.000,0
181983.708,-52.246,-47.363,-43.945,-45.898,0.000,0
181983.712,-7.812,-18.555,-27.832,-2.930,0.000,0
181983.716,-2.930,-13.184,-11.230,-5.859,0.000,0
181983.720,-45.898,-32.715,-24.414,-40.527,0.000,0
181983.724,-55.664,-25.391,-20.508,-35.156,0.000,0
181983.728,-34.668,-23.438,-13.672,-24.414,0.000,0
181983.731,-31.250,-40.039,-25.391,-31.738,0.000,0
181983.735,-54.688,-50.293,-34.668,-38.086,0.000,0
181983.739,-55.176,-46.387,-33.203,-46.875,0.000,0
181983.743,-41.992,-35.645,-20.508,-18.555,0.000,0
181983.747,-28.320,-32.227,-9.277,6.348,0.000,0
181983.751,-29.785,-26.855,-10.254,-13.672,0.000,0
181983.755,-42.480,-30.762,-18.066,-40.039,0.000,0
181983.759,-38.574,-42.969,-20.508,-30.273,0.000,0
181983.763,-27.832,-44.434,-25.879,-13.184,0.000,0
181983.767,-41.504,-45.410,-34.668,-25.391,0.000,0
181983.770,-54.199,-46.387,-29.785,-61.035,0.000,0
181983.774,-44.922,-44.922,-34.668,-48.828,0.000,0
181983.778,-32.715,-53.711,-50.781,-18.066,0.000,0
181983.782,-29.297,-52.734,-42.969,-8.789,0.000,0
181983.786,-37.109,-41.016,-19.531,-29.785,0.000,0
181983.790,-42.969,-37.109,-11.230,-57.129,0.000,0
181983.794,-29.785,-32.715,0.000,-17.578,0.000,0
181983.798,-19.531,-40.039,-7.812,6.348,0.000,0
181983.802,-36.621,-44.922,-20.020,-23.438,0.000,0
181983.806,-41.016,-31.738,-2.441,-36.621,0.000,0
181983.810,-42.969,-38.086,-4.883,-32.715,0.000,0
181983.813,-33.691,-45.898,-27.832,-13.672,0.000,0
181983.817,-29.297,-41.992,-25.879,-19.531,0.000,0
181983.821,-51.758,-30.762,-14.648,-34.180,0.000,0
181983.825,-61.523,-32.715,-25.879,-22.461,0.000,0
181983.829,-27.344,-43.457,-20.996,-21.973,0.000,0
181983.833,-23.438,-46.387,-14.160,-14.648,0.000,0
181983.837,-54.688,-40.527,-11.230,-23.438,0.000,0
181983.841,-65.430,-36.621,-10.742,-37.598,0.000,0
181983.845,-43.457,-36.621,-7.812,-12.207,0.000,0
181983.849,-41.504,-40.527,-0.977,-18.555,0.000,0
181983.853,-75.195,-54.199,-36.621,-54.688,0.000,0
181983.856,-71.777,-48.340,-53.711,-66.895,0.000,0
181983.860,-43.945,-40.527,-27.344,-21.484,0.000,0
181983.864,-40.527,-41.992,-8.301,3.418,0.000,0
181983.868,-44.922,-37.109,-1.465,-37.598,0.000,0
181983.872,-52.734,-37.598,-15.625,-46.875,0.000,0
181983.876,-54.688,-41.992,-20.508,-32.227,0.000,0
181983.880,-53.711,-53.711,-30.273,-22.949,0.000,0
181983.884,-73.242,-60.547,-46.875,-36.621,0.000,0
181983.888,-78.613,-43.945,-24.414,-70.801,0.000,0
181983.892,-60.547,-36.133,-18.555,-66.895,0.000,0
181983.895,-49.805,-42.969,-26.855,-38.574,0.000,0
181983.899,-61.523,-48.340,-18.066,-24.414,0.000,0
181983.903,-81.055,-42.969,-8.789,-49.805,0.000,0
181983.907,-83.008,-44.434,-20.020,-70.312,0.000,0
181983.911,-71.777,-46.875,-25.879,-33.691,0.000,0
181983.915,-60.059,-35.156,-11.719,-14.648,0.000,0
181983.919,-60.059,-35.156,-9.766,-44.922,0.000,0
181983.923,-68.848,-42.480,-20.996,-57.129,0.000,0
181983.927,-56.641,-43.945,-27.344,-50.293,0.000,0
181983.931,-43.945,-45.898,-29.785,-34.180,0.000,0
181983.935,-47.363,-49.805,-21.973,-41.016,0.000,0
181983.938,-67.383,-55.176,-21.484,-61.523,0.000,0
181983.942,-70.801,-52.246,-22.461,-39.551,0.000,0
181983.946,-51.270,-49.805,-11.719,-22.461,0.000,0
181983.950,-47.852,-45.898,-6.348,-36.621,0.000,0
181983.954,-62.988,-42.969,-11.230,-47.363,0.000,0
181983.958,-75.195,-52.734,-26.855,-34.668,0.000,0
181983.962,-68.848,-61.035,-36.133,-3.418,0.000,0
181983.966,-66.406,-62.500,-40.039,-20.996,0.000,0
181983.970,-80.566,-49.805,-21.973,-55.176,0.000,0
181983.974,-85.938,-41.504,-8.789,-39.551,0.000,0
181983.978,-66.406,-45.410,-14.160,-4.883,0.000,0
181983.981,-62.012,-59.082,-33.203,-2.441,0.000,0
181983.985,-94.727,-68.848,-39.551,-41.016,0.000,0
181983.989,-115.234,-59.570,-32.227,-66.895,0.000,0
181983.993,-89.355,-58.594,-32.227,-40.527,0.000,0
181983.997,-63.477,-54.688,-19.531,3.906,0.000,0
181984.001,-81.543,-52.246,-23.438,-10.254,0.000,0
181984.005,-98.633,-51.758,-24.414,-52.246,0.000,0
181984.009,-84.473,-55.176,-20.020,-51.270,0.000,0
181984.013,-64.941,-58.105,-20.020,-7.324,0.000,0
181984.017,-58.594,-44.922,-9.766,-5.371,0.000,0
181984.020,-76.660,-41.504,-10.742,-26.367,0.000,0
181984.024,-67.871,-42.969,-9.766,-27.832,0.000,0
181984.028,-61.523,-50.781,-12.695,-20.020,0.000,1
181984.032,-77.148,-60.547,-23.438,-9.277,0.000,0
181984.036,-84.961,-67.383,-27.344,-43.945,0.000,0
181984.040,-88.867,-64.453,-15.625,-55.664,0.000,0
181984.044,-85.449,-58.594,-10.254,-37.109,0.000,0
181984.048,-92.285,-65.430,-17.090,-28.320,0.000,0
181984.052,-95.703,-56.641,-0.977,-9.766,0.000,0
181984.056,-89.355,-44.434,4.883,-30.762,0.000,0
181984.060,-72.754,-43.945,-3.906,-24.414,0.000,0
181984.063,-68.848,-54.199,-1.953,-7.324,0.000,0
181984.067,-83.008,-61.035,-11.719,-35.156,0.000,0
181984.071,-102.539,-65.918,-25.879,-60.547,0.000,0
181984.075,-96.680,-66.895,-29.785,-39.551,0.000,0
181984.079,-69.824,-57.617,-16.602,4.395,0.000,0
181984.083,-72.754,-55.664,-5.371,-10.254,0.000,0
181984.087,-99.121,-57.617,-19.531,-52.246,0.000,0
181984.091,-94.727,-59.082,-21.484,-39.551,0.000,0
181984.095,-76.172,-60.547,-6.348,-13.672,0.000,0
181984.099,-89.844,-68.359,-16.602,-20.996,0.000,0
181984.103,-91.797,-71.777,-31.250,-52.734,0.000,0
181984.106,-88.867,-60.059,-24.414,-63.477,0.000,0
181984.110,-76.172,-52.734,-15.625,-24.902,0.000,0
181984.114,-59.570,-54.688,-11.719,3.418,0.000,0
181984.118,-76.660,-65.430,-18.066,-39.551,0.000,0
181984.122,-101.074,-74.219,-33.691,-82.031,0.000,0
181984.126,-91.309,-74.219,-64.941,-67.871,0.000,0
181984.130,-54.199,-65.918,-86.426,-20.508,0.000,0
181984.134,-52.246,-60.059,-78.613,-20.508,0.000,0
181984.138,-85.938,-65.918,-75.195,-43.945,0.000,0
181984.142,-78.613,-62.012,-79.102,-31.250,0.000,0
181984.145,-51.270,-61.523,-88.379,-17.578,0.000,0
181984.149,-64.453,-66.406,-96.191,-16.113,0.000,0
181984.153,-101.562,-65.430,-87.402,-33.203,0.000,0
181984.157,-93.750,-63.965,-83.984,-41.504,0.000,0
181984.161,-66.406,-60.059,-77.637,-26.367,0.000,0
181984.165,-71.289,-58.594,-70.801,-27.832,0.000,0
181984.169,-81.055,-45.410,-68.848,-24.414,0.000,0
181984.173,-94.238,-47.363,-71.289,-38.574,0.000,0
181984.177,-92.773,-62.500,-83.008,-23.438,0.000,0
181984.181,-81.055,-70.801,-87.891,-6.836,0.000,0
181984.185,-89.844,-70.312,-76.660,-52.734,0.000,0
181984.188,-111.816,-66.895,-72.754,-72.266,0.000,0
181984.192,-103.027,-60.547,-69.824,-36.133,0.000,0
181984.196,-74.707,-54.199,-65.430,-9.766,0.000,0
181984.200,-100.586,-60.059,-77.637,-28.809,0.000,0
181984.204,-108.398,-57.617,-62.012,-67.871,0.000,0
181984.208,-89.844,-47.852,-52.734,-50.781,0.000,0
181984.212,-87.402,-54.199,-60.059,-16.602,0.000,0
181984.216,-106.934,-62.988,-62.012,-21.973,0.000,0
181984.220,-113.281,-59.570,-54.688,-51.758,0.000,0
181984.224,-115.234,-64.453,-52.246,-56.641,0.000,0
181984.228,-95.215,-61.523,-49.316,-27.344,0.000,0
181984.231,-82.520,-64.453,-46.875,-21.484,0.000,0
181984.235,-109.375,-73.242,-59.082,-44.922,0.000,0
181984.239,-125.977,-71.777,-51.758,-62.988,0.000,0
181984.243,-102.539,-65.918,-48.340,-60.059,0.000,0
181984.247,-81.543,-61.523,-51.270,-35.156,0.000,0
181984.251,-88.867,-62.988,-50.781,-33.203,0.000,0
181984.255,-106.445,-66.406,-49.805,-55.176,0.000,0
181984.259,-107.910,-64.453,-39.062,-51.758,0.000,0
181984.263,-87.891,-62.988,-40.527,-34.180,0.000,0
181984.267,-91.309,-68.848,-57.617,-32.227,0.000,0
181984.270,-117.188,-73.242,-55.664,-74.219,0.000,0
181984.274,-117.676,-62.012,-30.273,-82.520,0.000,0
181984.278,-110.352,-61.035,-28.320,-39.062,0.000,0
181984.282,-124.023,-71.289,-48.340,-44.434,0.000,0
181984.286,-142.090,-67.871,-53.711,-71.777,0.000,0
181984.290,-146.973,-64.941,-45.410,-61.035,0.000,0
181984.294,-125.977,-58.105,-34.668,-24.414,0.000,0
181984.298,-111.328,-57.617,-25.879,-1.953,0.000,0
181984.302,-139.648,-68.848,-29.785,-28.809,0.000,0
181984.306,-163.574,-64.453,-34.668,-57.617,0.000,0
181984.310,-152.344,-63.965,-36.621,-41.504,0.000,0
181984.313,-141.602,-69.336,-34.668,-20.020,0.000,0
181984.317,-165.527,-70.801,-37.109,-19.043,0.000,0
181984.321,-208.008,-76.660,-38.574,-54.688,0.000,0
181984.325,-200.195,-77.637,-40.527,-57.617,0.000,0
181984.329,-175.781,-69.824,-46.875,-16.113,0.000,0
181984.333,-173.828,-59.570,-38.574,-24.414,0.000,0
181984.337,-176.758,-53.223,-24.414,-49.316,0.000,0
181984.341,-168.457,-55.176,-20.996,-46.875,0.000,0
181984.345,-165.039,-71.289,-34.180,-39.062,0.000,0
181984.349,-175.781,-83.496,-42.480,-34.668,0.000,0
181984.353,-189.453,-81.055,-41.992,-52.246,0.000,0
181984.356,-183.594,-73.242,-40.039,-53.223,0.000,0
181984.360,-156.738,-71.777,-36.621,-37.109,0.000,0
181984.364,-147.461,-72.754,-34.180,-20.508,0.000,0
181984.368,-159.668,-78.613,-46.387,-23.926,0.000,0
181984.372,-159.668,-76.172,-44.434,-48.340,0.000,0
181984.376,-150.879,-67.871,-35.645,-39.551,0.000,0
181984.380,-146.484,-60.547,-26.855,-17.578,0.000,0
181984.384,-141.113,-54.688,-10.742,-31.250,0.000,0
181984.388,-167.480,-68.359,-28.320,-60.059,0.000,0
181984.392,-176.270,-82.520,-48.828,-56.641,0.000,0
181984.395,-141.602,-70.312,-41.016,-20.508,0.000,0
181984.399,-131.348,-62.500,-31.738,-20.508,0.000,0
181984.403,-156.738,-76.172,-41.992,-65.430,0.000,0
181984.407,-172.852,-78.125,-54.199,-62.500,0.000,0
181984.411,-159.180,-75.684,-46.387,-37.598,0.000,0
181984.415,-143.555,-81.055,-39.062,-31.250,0.000,0
181984.419,-162.109,-78.613,-41.016,-53.711,0.000,0
181984.423,-157.227,-52.734,-16.602,-55.664,0.000,0
181984.427,-139.648,-46.875,-19.043,-29.297,0.000,0
181984.431,-153.320,-69.336,-43.945,-17.090,0.000,0
181984.435,-158.691,-83.496,-58.105,-41.016,0.000,0
181984.438,-154.785,-77.637,-46.875,-75.195,0.000,0
181984.442,-129.883,-67.383,-32.715,-51.270,0.000,0
181984.446,-105.957,-65.918,-39.062,-13.672,0.000,0
181984.450,-110.840,-63.965,-38.574,-44.922,0.000,0
181984.454,-134.277,-65.430,-38.574,-75.684,0.000,0
181984.458,-137.207,-68.848,-43.945,-70.801,0.000,0
181984.462,-112.305,-72.754,-48.340,-59.082,0.000,0
181984.466,-117.676,-73.242,-47.852,-45.898,0.000,0
181984.470,-152.832,-70.801,-53.223,-68.359,0.000,0
181984.474,-158.203,-69.824,-49.805,-84.961,0.000,0
181984.478,-120.117,-62.012,-25.879,-49.805,0.000,0
181984.481,-92.773,-50.781,-13.184,-30.762,0.000,0
181984.485,-120.117,-56.152,-24.414,-52.246,0.000,0
181984.489,-129.883,-71.777,-37.598,-82.031,0.000,0
181984.493,-120.605,-70.801,-39.551,-57.129,0.000,0
181984.497,-118.164,-67.383,-41.016,-34.180,0.000,0
181984.501,-131.348,-73.730,-42.969,-69.336,0.000,0
181984.505,-150.391,-71.289,-51.270,-83.008,0.000,0
181984.509,-136.719,-66.895,-46.387,-58.105,0.000,0
181984.513,-116.699,-67.871,-36.133,-35.645,0.000,0
181984.517,-135.254,-74.219,-41.504,-57.617,0.000,0
181984.520,-157.227,-72.754,-44.922,-103.516,0.000,0
181984.524,-151.367,-73.242,-48.828,-80.078,0.000,0
181984.528,-123.535,-74.219,-43.945,-42.969,0.000,0
181984.532,-98.145,-64.453,-31.250,-23.926,0.000,0
181984.536,-106.934,-63.477,-29.785,-63.965,0.000,0
181984.540,-118.164,-59.082,-25.391,-83.496,0.000,0
181984.544,-108.398,-61.523,-22.461,-36.621,0.000,0
181984.548,-112.305,-78.613,-44.922,-62.988,0.000,0
181984.552,-129.883,-78.125,-50.781,-90.332,0.000,0
181984.556,-124.023,-72.754,-29.297,-82.520,0.000,0
181984.560,-108.887,-71.289,-21.973,-62.988,0.000,0
181984.563,-100.586,-65.918,-33.691,-43.945,0.000,0
181984.567,-113.770,-66.895,-38.086,-60.547,0.000,0
181984.571,-142.090,-77.637,-38.574,-79.102,0.000,0
181984.575,-132.812,-83.496,-36.621,-73.730,0.000,0
181984.579,-104.492,-72.754,-27.832,-52.246,0.000,0
181984.583,-109.375,-60.547,-26.367,-50.293,0.000,0
181984.587,-116.211,-47.852,-18.066,-67.383,0.000,0
181984.591,-105.957,-51.270,-23.438,-55.664,0.000,0
181984.595,-102.051,-71.777,-42.969,-55.664,0.000,0
181984.599,-110.840,-79.590,-50.781,-87.402,0.000,0
181984.603,-119.629,-67.871,-40.039,-103.516,0.000,0
181984.606,-94.238,-54.199,-20.508,-72.754,0.000,0
181984.610,-57.129,-47.363,-11.719,-29.297,0.000,0
181984.614,-53.711,-50.293,-11.719,-28.320,0.000,0
181984.618,-94.238,-61.523,-26.367,-62.500,0.000,0
181984.622,-104.004,-72.266,-43.945,-77.637,0.000,0
181984.626,-70.312,-74.219,-49.316,-52.246,0.000,0
181984.630,-81.055,-71.777,-43.945,-41.992,0.000,0
181984.634,-109.863,-71.289,-59.570,-58.105,0.000,0
181984.638,-104.492,-57.617,-54.199,-70.801,0.000,0
181984.642,-87.891,-50.781,-22.461,-52.246,0.000,0
181984.645,-83.496,-57.617,-23.438,-34.180,0.000,0
181984.649,-91.797,-62.988,-30.273,-55.176,0.000,0
181984.653,-101.562,-60.547,-30.762,-77.637,0.000,0
181984.657,-101.074,-64.941,-37.598,-93.750,0.000,0
181984.661,-95.703,-68.848,-46.387,-73.730,0.000,0
181984.665,-105.469,-66.895,-43.457,-62.500,0.000,0
181984.669,-116.211,-63.965,-37.598,-78.613,0.000,0
181984.673,-109.863,-54.688,-33.203,-67.871,0.000,0
181984.677,-96.191,-50.293,-27.344,-55.664,0.000,0
181984.681,-94.727,-60.547,-29.297,-51.758,0.000,0
181984.685,-120.117,-64.941,-32.715,-75.684,0.000,0
181984.688,-126.465,-63.965,-34.180,-94.727,0.000,0
181984.692,-97.168,-69.336,-42.480,-62.988,0.000,0
181984.696,-92.285,-72.754,-40.527,-61.523,0.000,0
181984.700,-113.281,-59.570,-30.273,-86.914,0.000,0
181984.704,-122.559,-56.641,-28.809,-96.680,0.000,0
181984.708,-124.023,-52.246,-30.273,-70.801,0.000,0
181984.712,-109.863,-40.527,-23.926,-37.598,0.000,0
181984.716,-98.145,-49.805,-25.879,-72.754,0.000,0
181984.720,-124.023,-51.270,-27.832,-94.238,0.000,0
181984.724,-115.234,-58.105,-36.621,-70.312,0.000,0
181984.728,-89.355,-72.266,-53.711,-52.246,0.000,0
181984.731,-105.957,-71.777,-41.992,-74.707,0.000,0
181984.735,-115.723,-63.477,-24.414,-115.723,0.000,0
181984.739,-114.746,-56.641,-31.250,-106.445,0.000,0
181984.743,-94.727,-62.988,-47.363,-68.848,0.000,0
181984.747,-84.473,-63.965,-42.480,-46.387,0.000,0
181984.751,-111.328,-61.035,-35.645,-74.707,0.000,0
181984.755,-108.887,-57.129,-35.645,-90.820,0.000,0
181984.759,-68.359,-46.387,-21.973,-50.293,0.000,1
181984.763,-64.453,-41.504,-13.672,-39.551,0.000,0
181984.767,-88.379,-45.410,-18.555,-52.246,0.000,0
181984.770,-98.145,-62.012,-38.574,-76.172,0.000,0
181984.774,-88.379,-66.895,-42.969,-80.566,0.000,0
181984.778,-74.707,-60.059,-40.527,-44.922,0.000,0
181984.782,-91.309,-60.547,-43.945,-63.965,0.000,0
181984.786,-102.051,-58.594,-37.109,-90.332,0.000,0
181984.790,-73.242,-42.480,-20.508,-58.105,0.000,0
181984.794,-54.688,-31.738,-5.859,-38.574,0.000,0
181984.798,-86.914,-45.898,-29.785,-63.965,0.000,0
181984.802,-116.699,-61.035,-43.457,-99.121,0.000,0
181984.806,-106.934,-60.059,-44.434,-75.684,0.000,0
181984.810,-81.543,-54.199,-37.598,-36.133,0.000,0
181984.813,-83.984,-49.805,-30.762,-63.477,0.000,0
181984.817,-96.191,-40.039,-25.879,-80.566,0.000,0
181984.821,-79.590,-29.785,-23.438,-52.246,0.000,0
181984.825,-67.871,-38.086,-24.902,-21.973,0.000,0
181984.829,-80.078,-48.340,-26.855,-23.926,0.000,0
181984.833,-84.961,-52.246,-37.598,-79.590,0.000,0
181984.837,-84.961,-45.898,-38.086,-81.055,0.000,0
181984.841,-84.961,-41.504,-30.273,-44.922,0.000,0
181984.845,-69.824,-39.062,-25.879,-21.484,0.000,0
181984.849,-84.961,-40.527,-22.949,-35.156,0.000,0
181984.853,-106.934,-47.363,-25.879,-72.754,0.000,0
181984.856,-96.680,-48.340,-29.785,-51.270,0.000,0
181984.860,-77.637,-46.387,-42.480,-31.250,0.000,0
181984.864,-88.379,-55.664,-46.387,-61.523,0.000,0
181984.868,-98.145,-53.711,-40.527,-92.773,0.000,0
181984.872,-74.219,-41.504,-31.738,-77.148,0.000,0
181984.876,-63.965,-50.781,-28.809,-58.105,0.000,0
181984.880,-87.891,-58.594,-35.645,-63.477,0.000,0
181984.884,-107.910,-41.992,-31.738,-37.109,0.000,0
181984.888,-96.191,-46.387,-40.527,-35.645,0.000,0
181984.892,-82.031,-59.082,-39.551,-48.340,0.000,0
181984.895,-96.680,-57.617,-41.016,-39.062,0.000,0
181984.899,-116.699,-55.176,-46.387,-50.293,0.000,0
181984.903,-103.516,-48.828,-41.992,-62.988,0.000,0
181984.907,-73.242,-41.016,-41.504,-35.156,0.000,0
181984.911,-67.871,-43.945,-40.527,-30.762,0.000,0
181984.915,-83.984,-46.387,-41.992,-48.340,0.000,0
181984.919,-95.703,-50.293,-47.363,-64.453,0.000,0
181984.923,-82.031,-52.734,-45.898,-46.387,0.000,0
181984.927,-57.617,-44.922,-35.645,-18.066,0.000,0
181984.931,-73.242,-54.199,-44.922,-38.574,0.000,0
181984.935,-93.262,-64.453,-46.875,-65.430,0.000,0
181984.938,-75.195,-55.664,-40.527,-34.668,0.000,0
181984.942,-49.316,-42.969,-36.621,4.883,0.000,0
181984.946,-59.082,-47.363,-31.250,-14.648,0.000,0
181984.950,-84.961,-53.223,-43.457,-61.035,0.000,0
181984.954,-102.539,-59.082,-58.594,-69.336,0.000,0
181984.958,-85.938,-65.918,-49.316,-38.574,0.000,0
181984.962,-73.242,-62.988,-38.086,-30.762,0.000,0
181984.966,-76.172,-49.316,-30.273,-47.363,0.000,0
181984.970,-77.637,-45.410,-27.832,-67.871,0.000,0
181984.974,-69.336,-48.340,-38.574,-58.594,0.000,0
181984.978,-63.965,-50.293,-53.711,-36.621,0.000,0
181984.981,-88.379,-51.758,-43.457,-57.129,0.000,0
181984.985,-94.727,-51.270,-35.645,-55.664,0.000,0
181984.989,-83.496,-46.387,-32.227,-35.645,0.000,0
181984.993,-67.383,-48.340,-28.809,-38.086,0.000,0
181984.997,-68.848,-50.781,-27.832,-30.762,0.000,0
181985.001,-88.867,-46.875,-30.273,-41.992,0.000,0
181985.005,-90.820,-52.734,-35.645,-51.270,0.000,0
181985.009,-74.219,-63.965,-41.992,-43.945,0.000,0
181985.013,-87.891,-63.965,-50.781,-50.293,0.000,0
181985.017,-114.258,-54.688,-52.246,-69.824,0.000,0
181985.020,-95.703,-41.504,-43.457,-55.664,0.000,0
181985.024,-65.430,-41.016,-35.645,-18.555,0.000,0
181985.028,-71.289,-53.223,-32.715,-37.109,0.000,0
181985.032,-94.238,-49.805,-35.156,-70.801,0.000,0
181985.036,-98.145,-43.457,-40.039,-58.105,0.000,0
181985.040,-76.660,-43.945,-36.621,-39.062,0.000,0
181985.044,-58.594,-31.738,-28.809,-24.414,0.000,0
181985.048,-72.754,-27.344,-20.508,-33.203,0.000,0
181985.052,-103.516,-40.527,-32.227,-78.125,0.000,0
181985.056,-85.449,-38.086,-40.527,-60.547,0.000,0
181985.060,-59.570,-32.227,-33.691,-19.043,0.000,0
181985.063,-67.383,-34.668,-28.320,-32.715,0.000,0
181985.067,-81.543,-33.691,-29.785,-69.336,0.000,0
181985.071,-84.961,-38.086,-41.504,-64.453,0.000,0
181985.075,-66.895,-39.551,-32.715,-24.902,0.000,0
181985.079,-59.570,-41.504,-28.809,-28.809,0.000,0
181985.083,-76.660,-43.945,-39.551,-50.781,0.000,0
181985.087,-74.219,-43.457,-37.109,-51.270,0.000,0
181985.091,-51.758,-40.527,-34.180,-33.203,0.000,0
181985.095,-40.527,-24.902,-24.902,-11.230,0.000,0
181985.099,-59.570,-30.273,-27.344,-25.391,0.000,0
181985.103,-69.336,-35.156,-30.762,-53.223,0.000,0
181985.106,-50.781,-21.973,-22.949,-40.039,0.000,0
181985.110,-49.316,-31.738,-17.090,-14.648,0.000,0
181985.114,-64.453,-46.387,-28.809,-29.297,0.000,0
181985.118,-74.707,-48.828,-29.785,-74.707,0.000,0
181985.122,-73.242,-49.805,-24.414,-80.078,0.000,0
181985.126,-56.152,-44.922,-37.109,-37.109,0.000,0
181985.130,-41.992,-35.156,-20.020,-41.504,0.000,0
181985.134,-54.688,-27.344,-11.719,-43.457,0.000,0
181985.138,-62.012,-34.668,-34.668,-28.809,0.000,0
181985.142,-50.293,-41.992,-32.227,-28.320,0.000,0
181985.145,-48.340,-45.898,-30.273,-31.250,0.000,0
181985.149,-63.965,-45.410,-33.203,-52.246,0.000,0
181985.153,-63.477,-38.574,-29.297,-54.688,0.000,0
181985.157,-46.387,-39.062,-30.762,-35.645,0.000,0
181985.161,-41.016,-34.180,-26.855,4.395,0.000,0
181985.165,-44.434,-20.020,-14.648,-1.465,0.000,0
181985.169,-60.059,-23.926,-18.555,-53.223,0.000,0
181985.173,-63.477,-41.016,-34.668,-44.922,0.000,0
181985.177,-71.777,-50.781,-50.293,-18.555,0.000,0
181985.181,-84.473,-51.270,-58.594,-39.062,0.000,0
181985.185,-80.078,-39.551,-31.738,-61.523,0.000,0
181985.188,-61.035,-34.668,-26.367,-62.012,0.000,0
181985.192,-45.410,-41.016,-41.016,-36.133,0.000,0
181985.196,-52.734,-38.574,-28.320,-33.203,0.000,0
181985.200,-72.266,-26.855,-20.996,-50.293,0.000,0
181985.204,-64.941,-25.391,-16.113,-48.340,0.000,0
181985.208,-46.387,-33.203,-15.137,-41.504,0.000,0
181985.212,-53.711,-37.109,-25.879,-24.902,0.000,0
181985.216,-69.824,-33.691,-28.809,-43.457,0.000,0
181985.220,-79.590,-29.785,-28.320,-62.988,0.000,0
181985.224,-68.848,-31.250,-31.738,-43.457,0.000,0
181985.228,-64.453,-30.273,-31.738,-35.156,0.000,0
181985.231,-72.266,-26.367,-26.855,-59.570,0.000,0
181985.235,-61.035,-13.672,-7.812,-68.848,0.000,0
181985.239,-58.105,-17.090,-7.812,-47.363,0.000,0
181985.243,-46.387,-19.531,-18.555,-24.414,0.000,0
181985.247,-59.082,-26.855,-20.996,-48.828,0.000,0
181985.251,-85.938,-38.086,-34.668,-71.289,0.000,0
181985.255,-78.613,-47.363,-47.363,-60.059,0.000,0
181985.259,-71.777,-50.781,-46.387,-52.246,0.000,0
181985.263,-64.453,-41.992,-32.715,-51.270,0.000,0
181985.267,-71.289,-27.344,-13.672,-75.195,0.000,0
181985.270,-72.754,-18.555,-14.648,-74.707,0.000,0
181985.274,-44.922,-28.320,-26.855,-34.668,0.000,0
181985.278,-49.316,-32.715,-34.668,-28.320,0.000,0
181985.282,-68.359,-32.715,-41.992,-62.988,0.000,0
181985.286,-78.125,-37.598,-53.223,-88.379,0.000,0
181985.290,-78.125,-47.363,-63.477,-74.707,0.000,0
181985.294,-69.336,-49.805,-58.105,-50.293,0.000,0
181985.298,-70.312,-41.504,-43.945,-69.824,0.000,0
181985.302,-69.824,-25.391,-22.461,-67.871,0.000,0
181985.306,-54.688,-15.625,-6.348,-35.156,0.000,0
181985.310,-40.527,-26.855,-19.531,-26.367,0.000,0
181985.313,-49.316,-36.621,-35.156,-39.062,0.000,0
181985.317,-65.430,-26.855,-40.527,-57.129,0.000,0
181985.321,-67.871,-29.785,-45.898,-59.570,0.000,0
181985.325,-43.945,-40.527,-44.434,-43.945,0.000,0
181985.329,-41.992,-30.273,-39.551,-40.039,0.000,0
181985.333,-65.430,-20.996,-29.297,-51.758,0.000,0
181985.337,-67.871,-27.832,-24.414,-56.152,0.000,0
181985.341,-83.496,-40.527,-41.016,-28.320,0.000,0
181985.345,-77.148,-42.480,-47.363,-20.508,0.000,0
181985.349,-65.918,-35.156,-37.598,-54.688,0.000,0
181985.353,-75.195,-22.461,-33.203,-54.688,0.000,0
181985.356,-48.828,-13.184,-18.555,-31.738,0.000,0
181985.360,-27.832,-12.207,-21.973,-11.719,0.000,0
181985.364,-61.523,-23.438,-40.039,-37.598,0.000,0
181985.368,-91.797,-33.691,-40.039,-82.520,0.000,0
181985.372,-71.289,-34.180,-34.668,-64.941,0.000,1
181985.376,-52.246,-35.156,-31.738,-31.250,0.000,0
181985.380,-56.641,-25.879,-21.973,-23.438,0.000,0
181985.384,-74.707,-24.902,-19.531,-56.641,0.000,0
181985.388,-79.102,-36.133,-39.551,-61.035,0.000,0
181985.392,-47.852,-25.879,-41.016,-12.695,0.000,0
181985.395,-42.480,-14.160,-24.414,-13.672,0.000,0
181985.399,-84.961,-24.902,-30.762,-53.223,0.000,0
181985.403,-79.102,-23.926,-27.832,-59.082,0.000,0
181985.407,-54.688,-30.762,-41.504,-60.547,0.000,0
181985.411,-63.965,-39.551,-56.152,-48.828,0.000,0
181985.415,-66.895,-35.156,-52.734,-45.410,0.000,0
181985.419,-69.336,-18.555,-35.156,-47.852,0.000,0
181985.423,-80.078,-5.859,-15.625,-32.227,0.000,0
181985.427,-47.363,-6.348,-6.348,-14.160,0.000,0
181985.431,-44.434,-17.578,-22.949,-26.855,0.000,0
181985.435,-61.035,-21.973,-32.227,-67.383,0.000,0
181985.438,-61.523,-28.320,-30.762,-60.059,0.000,0
181985.442,-62.012,-36.621,-35.156,-38.086,0.000,0
181985.446,-55.176,-32.227,-33.203,-55.176,0.000,0
181985.450,-69.824,-23.438,-35.156,-70.312,0.000,0
181985.454,-74.707,-20.508,-36.133,-55.664,0.000,0
181985.458,-48.340,-18.555,-23.438,-26.855,0.000,0
181985.462,-33.203,-22.461,-29.785,-25.879,0.000,0
181985.466,-57.129,-21.973,-33.691,-64.453,0.000,0
181985.470,-71.289,-19.531,-30.762,-68.848,0.000,0
181985.474,-43.945,-19.531,-33.203,-37.109,0.000,0
181985.478,-21.484,-14.648,-35.156,-13.672,0.000,0
181985.481,-47.363,-20.020,-33.691,-30.762,0.000,0
181985.485,-73.730,-20.508,-21.484,-65.430,0.000,0
181985.489,-52.734,-14.648,-18.066,-45.410,0.000,0
181985.493,-40.527,-24.902,-33.691,-20.996,0.000,0
181985.497,-48.828,-26.855,-35.645,-26.367,0.000,0
181985.501,-67.871,-27.832,-34.180,-54.199,0.000,0
181985.505,-63.965,-30.762,-37.109,-62.988,0.000,0
181985.509,-31.738,-29.297,-40.527,-30.762,0.000,0
181985.513,-34.668,-32.715,-43.945,-28.809,0.000,0
181985.517,-54.199,-30.273,-49.316,-50.293,0.000,0
181985.520,-39.062,-27.832,-48.340,-47.363,0.000,0
181985.524,-20.020,-20.996,-32.715,-37.598,0.000,0
181985.528,-4.395,-7.324,-13.184,-9.766,0.000,0
181985.532,-18.066,-14.648,-15.625,-16.113,0.000,0
181985.536,-44.922,-28.809,-30.273,-44.922,0.000,0
181985.540,-24.902,-27.344,-27.344,-29.785,0.000,0
181985.544,-21.484,-32.227,-28.809,-27.832,0.000,0
181985.548,-38.086,-31.250,-37.598,-41.016,0.000,0
181985.552,-42.480,-29.785,-43.457,-50.293,0.000,0
181985.556,-45.898,-36.621,-47.852,-45.898,0.000,0
181985.560,-22.949,-22.461,-25.879,10.254,0.000,0
181985.563,-23.926,-13.184,-16.602,-5.371,0.000,0
181985.567,-40.039,-16.113,-36.133,-39.551,0.000,0
181985.571,-41.504,-17.578,-32.715,-22.461,0.000,0
181985.575,-45.898,-22.461,-22.461,-13.672,0.000,0
181985.579,-46.387,-20.508,-23.926,-24.902,0.000,0
181985.583,-62.012,-24.414,-27.344,-61.035,0.000,0
181985.587,-69.824,-20.508,-29.297,-66.895,0.000,0
181985.591,-45.898,-13.184,-23.926,-23.926,0.000,0
181985.595,-32.715,-19.043,-23.438,8.789,0.000,0
181985.599,-55.664,-29.785,-37.109,-20.508,0.000,0
181985.603,-56.152,-26.855,-37.598,-56.641,0.000,0
181985.606,-45.410,-29.785,-37.109,-28.809,0.000,0
181985.610,-19.531,-24.902,-30.273,3.418,0.000,0
181985.614,-9.766,-12.207,-15.137,-10.254,0.000,0
181985.618,-30.762,-14.648,-18.555,-26.367,0.000,0
181985.622,-24.902,-21.484,-32.715,-27.344,0.000,0
181985.626,-11.719,-21.973,-35.645,-4.395,0.000,0
181985.630,-13.184,-13.672,-20.996,11.230,0.000,0
181985.634,-23.438,-6.836,-3.418,-13.672,0.000,0
181985.638,-27.344,-13.184,-7.812,-31.250,0.000,0
181985.642,-38.086,-25.391,-28.320,-29.297,0.000,0
181985.645,-46.875,-26.855,-38.086,-23.926,0.000,0
181985.649,-51.270,-20.020,-45.898,-31.250,0.000,0
181985.653,-43.457,-13.184,-36.621,-39.551,0.000,0
181985.657,-11.230,-11.719,-15.625,-7.812,0.000,0
181985.661,-18.066,-22.949,-26.367,1.953,0.000,0
181985.665,-38.574,-23.438,-41.504,-31.250,0.000,0
181985.669,-31.250,-7.324,-20.020,-21.973,0.000,0
181985.673,-8.301,-9.277,-8.301,-8.301,0.000,0
181985.677,-6.348,-17.090,-25.391,-6.348,0.000,0
181985.681,-32.715,-22.949,-33.691,-28.809,0.000,0
181985.685,-36.133,-20.020,-30.762,-53.223,0.000,0
181985.688,-13.672,1.953,-12.207,-21.973,0.000,0
181985.692,6.348,13.184,0.000,18.555,0.000,0
181985.696,-16.113,-9.277,-32.715,7.812,0.000,0
181985.700,-46.875,-21.973,-55.176,-41.992,0.000,0
181985.704,-36.621,-15.625,-39.062,-46.875,0.000,0
181985.708,-25.879,-16.602,-23.926,-0.977,0.000,0
181985.712,-42.480,-25.391,-25.879,4.883,0.000,0
181985.716,-47.363,-19.531,-25.391,-25.879,0.000,0
181985.720,-52.246,-13.672,-20.020,-45.898,0.000,0
181985.724,-42.480,-21.484,-32.227,-31.738,0.000,0
181985.728,-31.738,-23.926,-38.574,-12.695,0.000,0
181985.731,-50.781,-16.602,-26.855,-24.902,0.000,0
181985.735,-54.688,-8.789,-20.020,-38.574,0.000,0
181985.739,-41.504,-17.090,-17.578,-29.297,0.000,0
181985.743,-44.434,-28.320,-29.297,-9.277,0.000,0
181985.747,-48.828,-32.227,-41.992,-22.949,0.000,0
181985.751,-49.316,-34.180,-37.598,-53.711,0.000,0
181985.755,-50.293,-28.320,-33.203,-33.691,0.000,0
181985.759,-38.574,-23.926,-35.156,-20.996,0.000,0
181985.763,-39.062,-17.578,-28.809,-42.969,0.000,0
181985.767,-57.617,-10.742,-21.484,-46.875,0.000,0
181985.770,-46.387,-11.230,-13.184,-42.480,0.000,0
181985.774,-22.461,-14.648,-16.113,-19.531,0.000,0
181985.778,-12.207,-14.160,-20.020,-6.836,0.000,0
181985.782,-33.691,-19.043,-22.949,-31.738,0.000,0
181985.786,-62.988,-15.625,-26.367,-31.250,0.000,0
181985.790,-39.551,-13.672,-26.855,-9.277,0.000,0
181985.794,-26.367,-20.020,-31.250,-13.672,0.000,0
181985.798,-53.223,-21.973,-41.992,-39.551,0.000,0
181985.802,-63.965,-21.484,-40.039,-66.895,0.000,0
181985.806,-33.691,-15.137,-27.832,-31.738,0.000,0
181985.810,-11.230,-19.043,-24.902,3.906,0.000,0
181985.813,-24.414,-24.902,-30.762,-25.391,0.000,0
181985.817,-35.645,-19.043,-34.180,-50.293,0.000,0
181985.821,-20.996,-18.555,-34.180,-59.082,0.000,0
181985.825,-14.160,-23.438,-31.738,-42.969,0.000,0
181985.829,-24.414,-24.414,-30.762,-24.414,0.000,0
181985.833,-43.945,-25.391,-39.062,-35.645,0.000,0
181985.837,-45.410,-26.855,-35.645,-66.406,0.000,0
181985.841,-18.555,-17.578,-14.160,-50.293,0.000,0
181985.845,-24.414,-10.254,-9.277,-15.137,0.000,0
181985.849,-60.059,-18.555,-21.973,-38.574,0.000,0
181985.853,-53.711,-20.508,-24.902,-61.523,0.000,0
181985.856,-34.668,-15.625,-20.020,-34.180,0.000,0
181985.860,-25.879,-14.160,-20.996,-29.297,0.000,0
