timestamps,TP9,AF7,AF8,TP10,Right AUX,Marker0
182502.188,-141.113,-14.160,-68.359,-50.781,0.000,0
182502.192,-136.230,-15.625,-55.176,-53.223,0.000,0
182502.196,-130.371,-35.645,-45.898,-67.383,0.000,0
182502.200,-136.230,-39.062,-57.617,-75.684,0.000,0
182502.204,-145.996,-28.809,-49.805,-86.914,0.000,0
182502.208,-125.000,-20.020,-40.039,-66.406,0.000,0
182502.212,-107.910,-18.066,-44.434,-67.871,0.000,0
182502.216,-117.188,-15.137,-42.480,-89.844,0.000,0
182502.220,-111.328,-7.324,-43.945,-76.660,0.000,0
182502.224,-100.098,-15.625,-40.039,-63.477,0.000,0
182502.227,-100.586,-25.879,-38.086,-71.289,0.000,0
182502.231,-109.375,-30.273,-51.758,-83.496,0.000,0
182502.235,-111.816,-25.879,-67.383,-73.242,0.000,0
182502.239,-122.070,-21.973,-61.035,-76.172,0.000,0
182502.243,-114.258,-20.996,-49.805,-63.477,0.000,0
182502.247,-61.523,6.836,-21.973,-16.113,0.000,0
182502.251,-91.797,-17.578,-44.434,-54.688,0.000,0
182502.255,-129.395,-47.852,-75.684,-88.379,0.000,0
182502.259,-119.629,-38.086,-56.152,-74.707,0.000,0
182502.263,-107.422,-29.785,-52.246,-65.918,0.000,0
182502.267,-94.727,-25.391,-51.270,-68.848,0.000,0
182502.270,-97.168,-16.113,-36.133,-69.824,0.000,0
182502.274,-113.770,-29.785,-51.270,-80.566,0.000,0
182502.278,-114.746,-35.156,-68.359,-69.824,0.000,0
182502.282,-95.215,-18.555,-50.781,-54.688,0.000,0
182502.286,-102.051,-16.113,-41.992,-76.660,0.000,0
182502.290,-90.820,-11.719,-39.062,-77.148,0.000,0
182502.294,-80.078,-19.531,-50.781,-71.289,0.000,0
182502.298,-80.078,-17.090,-40.527,-74.707,0.000,0
182502.302,-73.242,-9.277,-33.203,-66.895,0.000,0
182502.306,-80.566,-16.602,-59.570,-73.730,0.000,0
182502.310,-81.055,-23.438,-63.477,-68.848,0.000,0
182502.313,-88.867,-22.949,-54.199,-76.172,0.000,0
182502.317,-90.820,-27.832,-54.688,-90.820,0.000,0
182502.321,-93.750,-34.180,-65.430,-83.984,0.000,0
182502.325,-51.758,1.465,-21.973,-47.852,0.000,0
182502.329,-63.477,-22.949,-38.086,-74.219,0.000,0
182502.333,-106.445,-60.547,-76.660,-112.793,0.000,0
182502.337,-109.375,-42.480,-63.965,-92.773,0.000,0
182502.341,-107.422,-36.133,-66.895,-76.660,0.000,0
182502.345,-89.844,-31.738,-63.477,-78.613,0.000,0
182502.349,-72.266,-23.438,-56.641,-50.781,0.000,0
182502.352,-87.891,-22.949,-55.664,-43.457,0.000,0
182502.356,-113.281,-10.254,-55.664,-72.266,0.000,0
182502.360,-72.754,17.090,-13.184,-36.133,0.000,0
182502.364,-56.641,12.207,6.836,-19.531,0.000,0
182502.368,-106.934,-33.691,-38.574,-77.148,0.000,0
182502.372,-121.094,-40.039,-51.270,-73.242,0.000,0
182502.376,-108.887,-25.879,-45.898,-58.105,0.000,0
182502.380,-97.656,-20.996,-62.988,-60.059,0.000,0
182502.384,-78.613,-7.812,-47.363,-36.621,0.000,0
182502.388,-87.891,-5.371,-22.461,-55.176,0.000,0
182502.392,-94.238,-19.043,-26.855,-57.617,0.000,0
182502.395,-74.707,-8.789,-19.531,-31.250,0.000,0
182502.399,-91.309,-24.414,-40.527,-48.828,0.000,0
182502.403,-105.957,-39.062,-62.012,-69.336,0.000,0
182502.407,-86.426,-27.832,-56.152,-62.500,0.000,0
182502.411,-85.938,-18.066,-59.082,-57.129,0.000,0
182502.415,-89.355,-16.602,-51.758,-58.105,0.000,0
182502.419,-87.891,-23.438,-50.293,-61.035,0.000,0
182502.423,-87.402,-30.273,-63.477,-66.895,0.000,0
182502.427,-60.547,-17.578,-50.781,-33.203,0.000,0
182502.431,-59.082,-3.906,-32.715,-20.996,0.000,0
182502.435,-93.750,-9.766,-22.461,-73.730,0.000,0
182502.438,-112.793,-28.320,-42.969,-96.680,0.000,0
182502.442,-106.445,-43.457,-66.406,-69.336,0.000,0
182502.446,-96.680,-35.645,-64.941,-59.570,0.000,0
182502.450,-114.746,-21.973,-61.035,-59.082,0.000,0
182502.454,-119.629,-13.184,-50.781,-53.711,0.000,0
182502.458,-104.492,-9.766,-31.250,-55.176,0.000,0
182502.462,-89.844,-11.719,-25.879,-46.387,0.000,0
182502.466,-103.027,-17.578,-37.109,-49.316,0.000,0
182502.470,-117.676,-21.973,-54.199,-55.176,0.000,0
182502.474,-95.215,-23.926,-53.223,-60.547,0.000,0
182502.477,-71.777,-22.461,-41.016,-49.805,0.000,0
182502.481,-61.035,-20.996,-34.180,-36.133,0.000,0
182502.485,-62.988,-19.043,-28.809,-54.199,0.000,0
182502.489,-60.547,-12.207,-27.832,-52.734,0.000,0
182502.493,-49.316,-3.906,-29.297,-27.344,0.000,0
182502.497,-60.547,-10.254,-30.273,-23.926,0.000,0
182502.501,-88.867,-35.645,-52.734,-53.223,0.000,0
182502.505,-115.234,-52.734,-76.172,-94.238,0.000,0
182502.509,-78.125,-21.973,-55.664,-58.105,0.000,0
182502.513,-40.039,-3.418,-33.203,-27.344,0.000,0
182502.517,-81.055,-36.133,-49.316,-49.316,0.000,0
182502.520,-99.609,-46.875,-60.059,-63.965,0.000,0
182502.524,-86.426,-25.879,-47.852,-54.688,0.000,0
182502.528,-81.055,-22.949,-49.316,-39.551,0.000,0
182502.532,-76.660,-22.949,-54.199,-21.973,0.000,0
182502.536,-80.078,-22.949,-50.781,-33.203,0.000,0
182502.540,-76.660,-22.949,-53.223,-54.199,0.000,0
182502.544,-70.312,-22.461,-62.012,-38.086,0.000,0
182502.548,-53.711,-10.254,-43.945,-10.254,0.000,0
182502.552,-60.547,-13.672,-52.734,-16.113,0.000,0
182502.556,-71.289,-15.137,-58.105,-22.949,0.000,0
182502.560,-68.848,-14.160,-31.738,-25.391,0.000,0
182502.563,-86.426,-26.855,-41.992,-45.898,0.000,0
182502.567,-98.145,-29.297,-56.152,-60.059,0.000,0
182502.571,-103.516,-25.879,-53.223,-76.172,0.000,0
182502.575,-98.145,-24.414,-50.293,-74.219,0.000,0
182502.579,-75.684,-15.625,-42.480,-43.945,0.000,0
182502.583,-68.359,-15.625,-35.156,-47.363,0.000,0
182502.587,-90.820,-31.738,-41.504,-78.125,0.000,0
182502.591,-92.285,-36.133,-50.781,-76.660,0.000,0
182502.595,-86.426,-35.645,-46.387,-59.570,0.000,0
182502.599,-102.539,-30.273,-40.527,-61.035,0.000,0
182502.602,-92.285,-20.508,-40.039,-64.453,0.000,0
182502.606,-85.449,-23.438,-34.668,-61.035,0.000,0
182502.610,-92.285,-23.438,-37.598,-45.410,0.000,0
182502.614,-74.219,-7.324,-29.785,-19.043,0.000,0
182502.618,-66.406,-26.367,-42.480,-17.578,0.000,0
182502.622,-81.055,-41.016,-67.871,-60.547,0.000,0
182502.626,-109.375,-28.809,-49.805,-82.031,0.000,0
182502.630,-86.426,-10.742,-22.461,-35.645,0.000,0
182502.634,-74.707,-12.695,-32.227,-28.809,0.000,0
182502.638,-105.469,-22.461,-38.574,-73.730,0.000,0
182502.642,-71.777,9.277,-0.977,-39.551,0.000,0
182502.645,-46.875,9.277,-0.977,-10.254,0.000,0
182502.649,-81.055,-21.973,-37.598,-42.969,0.000,0
182502.653,-106.445,-38.574,-62.988,-70.801,0.000,0
182502.657,-108.887,-32.715,-67.871,-71.289,0.000,0
182502.661,-35.156,15.137,-5.859,-10.254,0.000,0
182502.665,-33.203,0.977,-11.230,-5.859,0.000,0
182502.669,-104.492,-58.105,-77.637,-52.246,0.000,0
182502.673,-131.836,-59.082,-68.359,-55.176,0.000,0
182502.677,-91.309,-30.273,-24.414,-41.992,0.000,0
182502.681,-51.270,-9.277,-1.465,-11.719,0.000,0
182502.685,-91.309,-17.578,-28.320,-13.672,0.000,0
182502.688,-97.168,-29.297,-54.688,-37.598,0.000,0
182502.692,-83.008,-40.039,-58.105,-48.340,0.000,0
182502.696,-78.613,-37.109,-54.199,-28.809,0.000,0
182502.700,-85.938,-36.621,-56.152,-29.297,0.000,0
182502.704,-93.750,-30.762,-50.293,-50.781,0.000,0
182502.708,-78.125,-10.742,-34.180,-44.922,0.000,0
182502.712,-58.594,-9.277,-31.738,-31.250,0.000,0
182502.716,-68.359,-23.438,-44.922,-32.227,0.000,0
182502.720,-92.773,-25.391,-56.641,-57.617,0.000,0
182502.724,-80.078,-23.438,-49.316,-64.453,0.000,0
182502.727,-61.035,-23.438,-44.922,-40.527,0.000,0
182502.731,-61.035,-20.508,-50.781,-33.203,0.000,0
182502.735,-79.102,-22.949,-49.805,-61.523,0.000,0
182502.739,-76.660,-24.414,-42.969,-63.965,0.000,0
182502.743,-67.871,-35.156,-56.152,-49.316,0.000,0
182502.747,-62.012,-25.879,-47.852,-48.340,0.000,0
182502.751,-70.312,-28.809,-46.387,-65.918,0.000,0
182502.755,-96.191,-52.246,-81.055,-91.309,0.000,0
182502.759,-96.680,-63.965,-90.820,-98.145,0.000,0
182502.763,-94.727,-65.918,-76.172,-92.773,0.000,0
182502.767,-84.961,-47.363,-55.664,-76.172,0.000,0
182502.770,-80.078,-32.715,-43.457,-66.895,0.000,0
182502.774,-65.430,-13.672,-33.203,-46.875,0.000,0
182502.778,-61.035,-14.160,-33.203,-54.199,0.000,0
182502.782,-76.172,-36.133,-57.129,-75.684,0.000,0
182502.786,-83.984,-49.316,-67.871,-76.172,0.000,0
182502.790,-87.891,-57.129,-65.918,-61.035,0.000,0
182502.794,-45.410,-41.992,-43.945,-8.789,0.000,0
182502.798,-20.020,-41.016,-26.367,-9.277,0.000,0
182502.802,-85.449,-68.848,-56.641,-80.566,0.000,0
182502.806,-123.047,-68.848,-66.406,-97.168,0.000,0
182502.810,-85.449,-46.875,-49.316,-49.805,0.000,0
182502.813,-63.965,-42.480,-44.434,-40.039,0.000,0
182502.817,-65.430,-37.598,-31.250,-62.988,0.000,0
182502.821,-62.988,-34.180,-25.391,-58.594,0.000,0
182502.825,-65.430,-40.527,-49.805,-52.246,0.000,0
182502.829,-57.129,-37.109,-55.176,-53.223,0.000,0
182502.833,-58.594,-32.715,-43.457,-69.336,0.000,0
182502.837,-54.199,-30.762,-57.129,-62.500,0.000,0
182502.841,-41.504,-33.203,-75.195,-30.273,0.000,0
182502.845,-36.133,-31.250,-62.500,-18.555,0.000,0
182502.849,-41.504,-22.949,-36.621,-24.414,0.000,0
182502.852,-40.527,0.000,-0.977,-15.137,0.000,0
182502.856,-25.391,0.977,5.859,-6.836,0.000,0
182502.860,-41.992,-32.715,-31.250,-37.109,0.000,0
182502.864,-64.453,-43.457,-53.711,-53.223,0.000,0
182502.868,-78.125,-40.039,-59.082,-55.664,0.000,0
182502.872,-67.383,-27.832,-54.688,-27.344,0.000,0
182502.876,-42.480,-21.484,-36.621,0.977,0.000,0
182502.880,-41.992,-22.461,-25.391,0.977,0.000,0
182502.884,-51.758,-16.602,-24.414,0.488,0.000,0
182502.888,-63.477,-29.297,-39.551,-14.160,0.000,0
182502.892,-67.383,-39.551,-48.340,-17.578,0.000,0
182502.895,-44.434,-14.648,-30.273,-9.277,0.000,0
182502.899,-47.363,-3.906,-12.207,-1.953,0.000,0
182502.903,-72.266,-22.949,-22.461,-33.203,0.000,0
182502.907,-76.172,-44.434,-51.270,-32.715,0.000,0
182502.911,-67.383,-45.410,-63.965,-0.977,0.000,0
182502.915,-59.570,-32.715,-53.711,0.977,0.000,0
182502.919,-56.641,-27.832,-45.410,-13.184,0.000,0
182502.923,-51.758,-26.855,-44.434,-2.930,0.000,0
182502.927,-50.781,-28.320,-36.621,4.395,0.000,0
182502.931,-24.414,-5.859,-12.695,4.883,0.000,0
182502.935,-25.879,-5.371,-21.973,25.391,0.000,0
182502.938,-51.270,-30.762,-43.945,7.812,0.000,0
182502.942,-53.223,-26.367,-36.621,-9.277,0.000,0
182502.946,-42.969,-23.438,-38.086,-8.789,0.000,0
182502.950,-45.410,-14.648,-39.062,-24.902,0.000,0
182502.954,-52.734,-5.859,-27.832,-30.273,0.000,0
182502.958,-50.293,-21.973,-38.086,-21.484,0.000,0
182502.962,-51.758,-34.180,-49.805,-1.953,0.000,0
182502.966,-51.758,-22.949,-41.016,-2.930,0.000,0
182502.970,-70.312,-33.203,-41.992,-16.113,0.000,0
182502.974,-73.730,-39.062,-37.109,-7.812,0.000,0
182502.977,-49.805,-22.949,-23.438,10.254,0.000,0
182502.981,-56.641,-31.250,-37.109,-4.395,0.000,0
182502.985,-62.988,-31.250,-42.969,-1.465,0.000,0
182502.989,-45.898,-20.996,-34.668,14.160,0.000,0
182502.993,-44.434,-26.367,-36.621,16.602,0.000,0
182502.997,-55.664,-29.785,-55.176,8.301,0.000,0
182503.001,-58.105,-35.645,-64.941,1.465,0.000,0
182503.005,-80.566,-41.504,-34.180,7.324,0.000,0
182503.009,-91.797,-39.062,-24.902,7.324,0.000,0
182503.013,-60.547,-48.340,-40.039,-1.465,0.000,0
182503.017,-63.965,-57.617,-47.852,-17.090,0.000,0
182503.020,-47.852,-20.508,-25.879,6.836,0.000,0
182503.024,0.488,7.324,5.371,33.203,0.000,0
182503.028,-24.902,-32.227,-33.691,1.953,0.000,0
182503.032,-66.895,-60.547,-62.012,-21.484,0.000,0
182503.036,-48.828,-46.875,-32.227,4.883,0.000,0
182503.040,-33.203,-26.855,-10.742,20.508,0.000,0
182503.044,-54.688,-32.227,-14.648,9.277,0.000,0
182503.048,-70.312,-33.691,-31.250,-15.137,0.000,0
182503.052,-71.777,-24.902,-27.832,-8.301,0.000,0
182503.056,-66.895,-24.902,-22.949,2.930,0.000,0
182503.060,-67.383,-31.250,-40.527,12.695,0.000,0
182503.063,-63.965,-25.879,-40.039,-17.578,0.000,0
182503.067,-50.293,-27.832,-33.203,-18.066,0.000,0
182503.071,-57.617,-34.180,-34.180,15.137,0.000,0
182503.075,-52.734,-32.715,-22.461,8.789,0.000,0
182503.079,-38.086,-21.484,-4.883,22.461,0.000,0
182503.083,-53.223,-26.367,-15.137,3.418,0.000,0
182503.087,-62.500,-47.363,-46.875,-27.344,0.000,0
182503.091,-54.199,-48.340,-53.223,-17.578,0.000,0
182503.095,-31.738,-10.742,-14.648,16.602,0.000,0
182503.099,-5.859,19.531,16.602,44.434,0.000,0
182503.102,-46.875,-22.461,-5.859,13.184,0.000,0
182503.106,-92.773,-67.871,-64.941,-33.691,0.000,0
182503.110,-96.680,-64.453,-88.867,-26.855,0.000,0
182503.114,-85.938,-39.062,-56.152,7.324,0.000,0
182503.118,-73.242,-26.855,-42.969,-0.977,0.000,0
182503.122,-70.312,-33.691,-38.574,1.465,0.000,0
182503.126,-42.480,-15.137,-20.508,36.621,0.000,0
182503.130,-41.016,-4.883,-19.531,35.645,0.000,0
182503.134,-74.707,-24.902,-17.578,-13.184,0.000,0
182503.138,-65.430,-31.738,-15.625,-13.672,0.000,0
182503.142,-45.898,-29.785,-32.227,7.324,0.000,0
182503.145,-53.711,-27.832,-43.945,13.184,0.000,0
182503.149,-55.176,-9.277,-30.273,25.391,0.000,0
182503.153,-41.992,-15.137,-22.949,9.277,0.000,0
182503.157,-12.207,-7.324,-11.719,36.133,0.000,0
182503.161,-38.574,-25.391,-15.137,7.812,0.000,0
182503.165,-80.566,-58.105,-42.480,-42.480,0.000,0
182503.169,-71.289,-44.922,-42.969,-24.902,0.000,0
182503.173,-65.430,-38.086,-51.758,-28.809,0.000,0
182503.177,-58.105,-31.250,-60.547,-14.648,0.000,0
182503.181,-33.203,2.930,-21.484,18.555,0.000,0
182503.185,-37.109,5.859,-9.277,9.766,0.000,0
182503.188,-49.805,-18.066,-19.043,13.184,0.000,0
182503.192,-53.711,-39.551,-24.902,-1.465,0.000,0
182503.196,-62.988,-44.922,-51.270,-6.348,0.000,0
182503.200,-45.898,-25.879,-38.086,17.090,0.000,0
182503.204,-50.293,-39.551,-50.781,1.953,0.000,0
182503.208,-54.688,-41.992,-61.523,3.906,0.000,0
182503.212,-33.691,-7.324,-28.809,23.926,0.000,0
182503.216,-33.203,-4.395,-8.789,12.207,0.000,0
182503.220,-46.387,-21.484,-5.371,-4.395,0.000,0
182503.224,-43.457,-20.508,-8.301,-3.906,0.000,0
182503.227,-62.012,-20.508,-25.879,-7.812,0.000,0
182503.231,-78.613,-28.809,-50.781,-14.160,0.000,0
182503.235,-67.871,-16.602,-29.297,0.000,0.000,0
182503.239,-43.945,-6.348,-9.766,6.836,0.000,0
182503.243,-46.387,-26.855,-36.133,-9.277,0.000,0
182503.247,-56.641,-39.551,-48.828,-26.855,0.000,0
182503.251,-66.895,-39.551,-49.805,-22.461,0.000,0
182503.255,-38.574,-17.578,-15.625,3.906,0.000,0
182503.259,-4.883,-8.301,-0.977,27.344,0.000,0
182503.263,-33.691,-21.484,-24.414,6.348,0.000,0
182503.267,-32.715,-6.836,-9.277,2.930,0.000,0
182503.270,-20.508,-9.277,-0.977,7.324,0.000,0
182503.274,-30.762,-16.602,-27.344,4.883,0.000,0
182503.278,-33.203,-9.766,-23.438,-5.371,0.000,0
182503.282,-42.480,-19.043,-19.531,-17.578,0.000,0
182503.286,-61.035,-35.156,-47.363,-17.090,0.000,0
182503.290,-56.152,-28.320,-34.180,-16.602,0.000,0
182503.294,-33.203,-2.441,0.000,4.883,0.000,0
182503.298,-41.504,-14.648,-12.207,1.953,0.000,0
182503.302,-51.270,-29.785,-25.391,-7.324,0.000,0
182503.306,-38.574,-21.973,-20.996,13.672,0.000,0
182503.310,-32.227,-20.020,-21.973,9.766,0.000,0
182503.313,-40.039,-26.367,-29.297,-14.160,0.000,0
182503.317,-41.016,-26.367,-32.227,-14.160,0.000,0
182503.321,-21.973,-14.160,-20.996,5.859,0.000,0
182503.325,-15.137,-20.020,-17.090,24.414,0.000,0
182503.329,-35.156,-36.621,-38.086,-11.719,0.000,0
182503.333,-33.691,-31.250,-39.062,-6.836,0.000,0
182503.337,-15.137,-21.973,-20.020,25.391,0.000,0
182503.341,-14.160,-17.090,-14.160,16.602,0.000,0
182503.345,-15.625,-13.672,-7.812,15.137,0.000,0
182503.349,-24.902,-32.227,-29.785,-6.836,0.000,0
182503.352,-31.738,-41.016,-54.199,-34.180,0.000,0
182503.356,-19.043,-30.273,-34.180,-9.766,0.000,0
182503.360,9.766,-8.301,0.488,44.922,0.000,0
182503.364,0.977,-2.441,-1.953,30.273,0.000,0
182503.368,-27.344,-15.625,-3.418,-2.930,0.000,0
182503.372,-25.879,-24.414,-20.508,0.488,0.000,0
182503.376,-31.250,-34.180,-38.574,3.906,0.000,0
182503.380,-51.270,-41.992,-37.598,-17.090,0.000,0
182503.384,-46.875,-30.273,-27.344,-12.695,0.000,0
182503.388,-19.043,-18.066,-18.066,7.812,0.000,0
182503.392,1.953,-14.160,-7.324,25.879,0.000,0
182503.395,-12.695,-27.344,-22.949,17.090,0.000,0
182503.399,-38.086,-52.246,-48.340,-20.020,0.000,0
182503.403,-40.039,-56.641,-41.992,-23.926,0.000,0
182503.407,-15.625,-38.086,-22.949,-2.441,0.000,0
182503.411,0.977,-20.020,-20.020,12.695,0.000,0
182503.415,4.395,-8.789,-9.766,0.000,0.000,0
182503.419,1.953,-18.066,-10.742,-1.465,0.000,0
182503.423,-12.207,-42.969,-34.668,-3.906,0.000,0
182503.427,-16.113,-36.133,-29.785,-0.977,0.000,0
182503.431,-10.254,-26.855,-21.973,8.301,0.000,0
182503.435,-4.395,-24.902,-36.133,7.812,0.000,0
182503.438,1.465,-17.578,-27.344,18.066,0.000,0
182503.442,-2.441,-29.297,-18.555,20.508,0.000,0
182503.446,-20.508,-32.227,-29.297,0.488,0.000,0
182503.450,-19.531,-30.273,-26.367,-5.859,0.000,0
182503.454,-1.953,-34.668,-23.438,11.230,0.000,0
182503.458,0.488,-33.203,-18.555,7.324,0.000,0
182503.462,-0.977,-26.367,-8.301,11.230,0.000,0
182503.466,-14.160,-33.691,-23.438,-0.488,0.000,0
182503.470,-15.137,-39.551,-24.414,-8.789,0.000,0
182503.474,-4.395,-38.086,-27.832,6.348,0.000,0
182503.477,-5.859,-33.203,-37.109,8.789,0.000,0
182503.481,-6.348,-18.555,-13.672,9.277,0.000,0
182503.485,-12.207,-33.203,-26.855,-11.230,0.000,0
182503.489,-10.254,-45.898,-44.434,-26.367,0.000,0
182503.493,8.789,-28.320,-29.297,-0.488,0.000,0
182503.497,-12.695,-25.391,-24.414,9.277,0.000,0
182503.501,-23.438,-39.551,-36.621,8.789,0.000,0
182503.505,10.742,-43.457,-30.273,9.277,0.000,0
182503.509,15.137,-33.691,-23.438,12.207,0.000,0
182503.513,-1.465,-34.668,-41.504,1.465,0.000,0
182503.517,9.277,-19.043,-17.090,10.254,0.000,0
182503.520,29.297,-4.883,5.859,32.715,0.000,0
182503.524,22.949,-14.648,-10.254,20.508,0.000,0
182503.528,0.977,-32.715,-30.273,-18.066,0.000,0
182503.532,-17.578,-42.480,-34.668,-34.180,0.000,0
182503.536,-3.418,-34.180,-22.949,-8.789,0.000,0
182503.540,19.531,-31.738,-26.855,10.254,0.000,0
182503.544,20.020,-13.184,-24.414,16.602,0.000,0
182503.548,4.395,-16.602,-40.039,12.207,0.000,0
182503.552,-11.719,-45.410,-41.504,4.883,0.000,0
182503.556,3.906,-33.203,-0.977,11.230,0.000,0
182503.560,22.461,-20.508,-4.395,13.184,0.000,0
182503.563,14.160,-27.344,-27.832,-6.836,0.000,0
182503.567,12.207,-22.949,-20.996,-10.254,0.000,0
182503.571,39.551,-3.906,-1.465,28.320,0.000,0
182503.575,52.734,-2.441,7.812,38.574,0.000,0
182503.579,39.062,-17.578,-15.137,16.602,0.000,0
182503.583,23.438,-26.367,-50.781,-2.930,0.000,0
182503.587,14.648,-30.762,-50.293,-3.418,0.000,0
182503.591,33.691,-25.391,-21.973,17.578,0.000,0
182503.595,39.551,-23.926,-11.230,22.949,0.000,0
182503.599,24.902,-21.484,-19.043,12.207,0.000,0
182503.602,32.227,-13.672,-11.719,20.020,0.000,0
182503.606,48.828,-9.277,0.977,33.691,0.000,0
182503.610,41.504,-13.672,-3.906,17.578,0.000,0
182503.614,29.297,-17.578,-1.465,9.277,0.000,0
182503.618,20.508,-23.438,-13.672,-2.930,0.000,0
182503.622,9.766,-31.250,-23.438,-19.043,0.000,0
182503.626,7.324,-27.344,-21.973,-31.250,0.000,0
182503.630,12.207,-20.996,-28.320,-29.297,0.000,0
182503.634,13.672,-22.461,-23.438,-17.090,0.000,0
182503.638,35.156,-14.648,-4.883,13.672,0.000,0
182503.642,43.945,-13.672,-15.137,27.832,0.000,0
182503.645,30.762,-10.742,-6.348,3.906,0.000,0
182503.649,21.484,-6.836,1.953,-2.441,0.000,0
182503.653,21.973,-20.020,-15.625,-0.488,0.000,0
182503.657,32.227,-18.555,-10.254,-1.465,0.000,0
182503.661,24.414,-18.555,-17.090,-10.742,0.000,0
182503.665,16.113,-24.414,-34.180,-15.625,0.000,0
182503.669,33.691,-10.742,-27.344,10.742,0.000,0
182503.673,35.156,-20.020,-31.250,5.371,0.000,0
182503.677,24.902,-42.969,-36.621,-13.672,0.000,0
182503.681,17.090,-34.668,-14.160,-12.695,0.000,0
182503.685,2.930,-27.832,-9.277,-14.648,0.000,0
182503.688,30.762,-20.508,-9.277,19.531,0.000,0
182503.692,43.457,-20.020,-19.043,12.207,0.000,0
182503.696,23.926,-30.762,-35.156,-30.273,0.000,0
182503.700,27.832,-31.250,-32.227,-9.766,0.000,0
182503.704,49.805,-19.043,-12.695,10.254,0.000,0
182503.708,54.199,-15.137,-6.348,0.977,0.000,0
182503.712,27.832,-25.879,-25.391,-4.395,0.000,0
182503.716,20.508,-29.785,-30.273,-14.648,0.000,0
182503.720,27.344,-27.832,-27.344,-6.836,0.000,0
182503.724,48.828,-22.949,-10.254,14.160,0.000,0
182503.727,45.410,-28.809,-29.297,6.348,0.000,0
182503.731,31.738,-21.973,-40.527,-7.324,0.000,0
182503.735,73.730,13.184,26.367,30.762,0.000,0
182503.739,64.453,-8.789,10.742,22.461,0.000,0
182503.743,12.695,-48.828,-37.598,-25.879,0.000,0
182503.747,8.789,-47.852,-32.227,-26.855,0.000,0
182503.751,33.691,-26.855,-20.020,4.883,0.000,0
182503.755,42.969,-17.090,-12.695,17.578,0.000,0
182503.759,14.160,-30.273,-33.691,-23.926,0.000,0
182503.763,1.953,-29.297,-39.551,-37.598,0.000,0
182503.767,17.578,-20.020,-34.180,-18.555,0.000,0
182503.770,42.969,-9.277,-18.555,6.348,0.000,0
182503.774,47.852,-3.906,1.465,23.438,0.000,0
182503.778,33.203,-9.766,-11.230,6.348,0.000,0
182503.782,38.086,1.465,-8.789,-15.625,0.000,0
182503.786,67.383,15.625,16.113,27.344,0.000,0
182503.790,43.945,-11.230,-17.578,23.438,0.000,0
182503.794,11.230,-37.598,-47.852,-22.461,0.000,0
182503.798,25.391,-50.781,-49.805,-6.836,0.000,0
182503.802,23.438,-42.969,-28.809,-12.207,0.000,0
182503.806,15.625,-25.879,2.930,-24.414,0.000,0
182503.810,43.457,-20.020,-2.930,-5.371,0.000,0
182503.813,60.547,-6.836,-6.348,6.836,0.000,0
182503.817,60.059,-0.977,3.418,12.695,0.000,0
182503.821,49.316,-20.508,-19.531,0.488,0.000,0
182503.825,51.270,-11.230,-23.926,1.465,0.000,0
182503.829,65.918,8.301,-10.742,20.996,0.000,0
182503.833,51.270,-13.184,-14.648,9.766,0.000,0
182503.837,36.621,-38.086,-31.250,-3.418,0.000,0
182503.841,32.715,-42.969,-35.645,-20.508,0.000,0
182503.845,42.969,-25.879,-20.020,-32.715,0.000,0
182503.849,54.199,-8.301,-2.930,-7.812,0.000,0
182503.852,35.156,-24.902,-17.578,-5.371,0.000,0
182503.856,32.227,-35.645,-33.691,-8.301,0.000,0
182503.860,25.391,-35.645,-52.734,-23.926,0.000,0
182503.864,18.555,-29.297,-48.828,-30.273,0.000,0
182503.868,50.781,-7.324,-2.441,9.766,0.000,0
182503.872,61.035,-7.324,6.836,19.043,0.000,0
182503.876,40.039,-23.926,-13.184,9.277,0.000,0
182503.880,16.113,-43.945,-32.227,-23.438,0.000,0
182503.884,10.742,-45.410,-41.504,-37.109,0.000,0
182503.888,37.109,-29.785,-27.344,-1.465,0.000,0
182503.892,29.297,-29.785,-22.461,-6.836,0.000,0
182503.895,5.371,-34.668,-36.133,-17.578,0.000,0
182503.899,18.555,-33.203,-42.480,-17.578,0.000,0
182503.903,51.270,-15.137,-26.855,2.441,0.000,0
182503.907,45.898,-14.648,-13.184,13.184,0.000,0
182503.911,24.414,-23.926,-9.277,-7.812,0.000,0
182503.915,22.949,-28.320,-21.484,-11.719,0.000,0
182503.919,35.156,-24.902,-16.113,-1.465,0.000,0
182503.923,45.898,-16.113,0.000,-2.930,0.000,0
182503.927,29.785,-24.902,-11.719,-20.508,0.000,0
182503.931,17.578,-27.832,-21.484,-22.949,0.000,0
182503.935,26.855,-17.578,-16.113,-14.648,0.000,0
182503.938,42.480,-17.090,-14.648,-10.254,0.000,0
182503.942,39.551,-23.438,-30.762,-7.324,0.000,0
182503.946,39.062,-15.625,-31.250,-0.488,0.000,0
182503.950,53.223,-10.254,-5.859,13.184,0.000,0
182503.954,51.758,-21.973,-3.906,17.090,0.000,0
182503.958,38.086,-22.461,-18.555,-11.719,0.000,0
182503.962,32.227,-12.207,-8.789,-14.160,0.000,0
182503.966,37.109,-16.113,5.371,11.719,0.000,0
182503.970,34.668,-33.691,-5.371,-0.488,0.000,0
182503.974,22.949,-29.785,-17.578,-2.441,0.000,0
182503.977,12.207,-22.949,-32.227,-5.371,0.000,0
182503.981,22.949,-26.855,-18.066,-12.207,0.000,0
182503.985,42.969,-16.602,5.371,7.812,0.000,0
182503.989,54.688,-9.277,-0.488,10.742,0.000,0
182503.993,27.832,-23.926,-9.766,-1.465,0.000,0
182503.997,0.977,-41.992,-22.461,-23.926,0.000,0
182504.001,17.090,-37.598,-40.527,-18.066,0.000,0
182504.005,42.969,-19.531,-13.184,3.418,0.000,0
182504.009,57.617,1.953,21.484,-0.488,0.000,0
182504.013,41.992,-10.742,0.488,-17.578,0.000,0
182504.017,17.578,-36.621,-28.320,-33.203,0.000,0
182504.020,12.207,-41.504,-37.598,-43.457,0.000,0
182504.024,12.695,-38.086,-38.086,-38.086,0.000,0
182504.028,9.766,-37.598,-39.551,-21.973,0.000,0
182504.032,31.250,-24.414,-21.484,-12.695,0.000,0
182504.036,25.879,-22.949,-20.020,-9.766,0.000,0
182504.040,5.859,-21.973,-20.508,-11.230,0.000,0
182504.044,21.973,-13.184,-13.184,-10.254,0.000,0
182504.048,25.391,-22.461,-21.973,-12.207,0.000,0
182504.052,12.695,-29.785,-24.902,-20.508,0.000,0
182504.056,28.320,-19.043,-7.324,-3.906,0.000,0
182504.060,40.039,-13.184,-2.441,-2.441,0.000,0
182504.063,45.898,-9.766,0.977,5.371,0.000,0
182504.067,45.898,-17.578,-7.812,20.996,0.000,0
182504.071,34.180,-18.066,-34.668,5.371,0.000,0
182504.075,44.922,1.465,-6.348,4.395,0.000,0
182504.079,37.109,-15.625,-6.348,-2.441,0.000,0
182504.083,35.645,-27.832,-29.297,-3.418,0.000,0
182504.087,37.598,-26.367,-24.414,-8.789,0.000,0
182504.091,32.227,-29.297,-24.902,-16.113,0.000,0
182504.095,31.250,-26.367,-19.531,-14.648,0.000,0
182504.099,35.645,-21.484,-10.254,1.465,0.000,0
182504.102,60.547,-20.508,-24.414,23.438,0.000,0
182504.106,62.988,-18.555,-35.156,23.926,0.000,0
182504.110,23.438,-23.438,-28.809,-24.902,0.000,0
182504.114,-4.883,-42.480,-38.086,-62.012,0.000,0
182504.118,10.254,-32.227,-35.645,-40.527,0.000,0
182504.122,26.367,-19.531,-33.203,-23.926,0.000,0
182504.126,36.133,-16.602,-21.973,-19.531,0.000,0
182504.130,49.805,-8.789,0.488,-1.953,0.000,0
182504.134,73.730,4.883,13.184,9.766,0.000,0
182504.138,80.078,18.066,15.625,9.766,0.000,0
182504.142,40.527,-10.254,-11.230,-11.230,0.000,0
182504.145,17.578,-32.715,-24.902,-28.809,0.000,0
182504.149,18.555,-30.273,-35.156,-20.508,0.000,0
182504.153,25.879,-20.020,-30.762,-10.254,0.000,0
182504.157,31.738,-8.789,-7.324,-5.371,0.000,0
182504.161,38.574,-4.395,-1.465,-0.488,0.000,0
182504.165,47.363,0.000,-0.488,14.160,0.000,0
182504.169,47.363,4.883,10.254,24.414,0.000,0
182504.173,32.715,-8.789,-0.977,-8.301,0.000,0
182504.177,13.672,-20.508,-25.391,-36.621,0.000,0
182504.181,10.742,-20.020,-33.203,-26.855,0.000,0
182504.185,9.766,-28.809,-39.062,-26.855,0.000,0
182504.188,9.277,-34.668,-40.527,-31.738,0.000,0
182504.192,4.883,-31.738,-37.109,-34.668,0.000,0
182504.196,19.531,-20.508,-29.297,-17.578,0.000,0
182504.200,36.133,-14.648,-12.207,3.418,0.000,0
182504.204,32.227,-15.137,-9.277,10.254,0.000,0
182504.208,36.133,-14.160,-23.926,17.090,0.000,0
182504.212,39.551,-20.508,-22.949,10.742,0.000,0
182504.216,18.066,-21.973,-9.277,-12.695,0.000,0
182504.220,10.742,-21.973,-14.648,-16.113,0.000,0
182504.224,23.926,-24.414,-20.996,-9.766,0.000,0
182504.227,24.902,-20.020,-28.809,-25.879,0.000,0
182504.231,24.902,-18.066,-35.156,-16.602,0.000,0
182504.235,30.273,-26.367,-29.785,-7.324,0.000,0
182504.239,20.996,-28.809,-19.531,-30.273,0.000,0
182504.243,27.344,-15.625,-9.277,-24.414,0.000,0
182504.247,26.367,-17.578,-8.301,-13.184,0.000,0
182504.251,18.555,-27.832,-27.832,-24.414,0.000,0
182504.255,24.414,-21.973,-22.461,-20.996,0.000,0
182504.259,40.527,-5.371,-3.906,-3.906,0.000,0
182504.263,41.016,-7.324,-16.113,3.906,0.000,0
182504.267,25.391,-24.902,-20.996,-3.418,0.000,0
182504.270,24.902,-26.855,-8.301,-3.418,0.000,0
182504.274,30.762,-18.066,-0.977,-6.836,0.000,0
182504.278,31.250,-18.066,-9.277,-22.949,0.000,0
182504.282,33.691,-10.254,-11.719,-9.766,0.000,0
182504.286,46.875,-0.977,4.395,17.090,0.000,0
182504.290,38.086,-19.531,-6.836,-5.859,0.000,0
182504.294,16.113,-37.109,-33.203,-30.762,0.000,0
182504.298,20.020,-27.832,-27.344,-15.137,0.000,0
182504.302,25.879,-28.809,-35.156,-0.488,0.000,0
182504.306,23.438,-30.762,-26.367,-2.441,0.000,0
182504.310,34.668,-13.184,3.906,-12.695,0.000,0
182504.313,45.410,-10.254,-0.488,-3.906,0.000,0
182504.317,42.969,-20.996,-9.766,19.531,0.000,0
182504.321,13.672,-28.320,-22.461,0.488,0.000,0
182504.325,4.883,-25.391,-16.113,-25.391,0.000,0
182504.329,25.879,-24.902,-10.254,-28.320,0.000,0
182504.333,46.875,-23.926,-11.230,-10.254,0.000,0
182504.337,45.898,-15.137,1.465,5.859,0.000,0
182504.341,39.551,-10.742,2.930,-3.906,0.000,0
182504.345,14.160,-36.621,-40.527,-35.645,0.000,0
182504.349,-0.977,-50.293,-55.664,-57.617,0.000,0
182504.352,7.324,-37.598,-38.086,-36.621,0.000,0
182504.356,7.812,-27.344,-32.227,-1.465,0.000,0
182504.360,16.113,-21.484,-19.531,-17.090,0.000,0
182504.364,65.430,14.648,15.625,19.531,0.000,0
182504.368,71.289,-0.977,15.137,34.180,0.000,0
182504.372,22.949,-50.781,-26.367,-33.691,0.000,0
182504.376,10.742,-51.270,-41.504,-50.781,0.000,0
182504.380,17.090,-41.504,-34.668,-25.879,0.000,0
182504.384,25.391,-37.109,-30.273,-12.207,0.000,0
182504.388,24.902,-35.156,-40.527,-25.391,0.000,0
182504.392,15.625,-28.809,-38.086,-43.457,0.000,0
182504.395,12.695,-19.531,-35.645,-21.973,0.000,0
182504.399,24.902,-13.672,-15.625,0.977,0.000,0
182504.403,37.598,-3.906,14.160,2.441,0.000,0
182504.407,24.902,0.977,10.742,-3.418,0.000,0
182504.411,25.879,-7.812,-8.301,-0.977,0.000,0
182504.415,-0.977,-45.898,-47.363,-25.391,0.000,0
182504.419,-6.348,-54.688,-54.199,-30.273,0.000,0
182504.423,17.090,-44.922,-44.922,-14.160,0.000,0
182504.427,8.301,-39.062,-43.457,-22.461,0.000,0
182504.431,16.602,-32.227,-38.574,-20.996,0.000,0
182504.435,41.992,-24.902,-29.297,-3.418,0.000,0
182504.438,48.340,-9.766,-13.672,-9.766,0.000,0
182504.442,38.086,-3.906,-7.812,-13.672,0.000,0
182504.446,37.598,-11.230,-10.742,0.000,0.000,0
182504.450,40.527,-20.020,-21.973,-11.719,0.000,0
182504.454,29.297,-20.020,-31.250,-16.602,0.000,0
182504.458,12.207,-27.344,-38.574,-28.809,0.000,0
182504.462,-2.930,-30.762,-28.809,-57.617,0.000,0
182504.466,6.348,-29.785,-23.438,-52.734,0.000,0
182504.470,10.742,-34.180,-30.273,-41.992,0.000,0
182504.474,12.207,-28.320,-24.902,-34.180,0.000,0
182504.477,17.090,-16.113,-19.043,-36.621,0.000,0
182504.481,29.297,-9.766,-25.879,-30.273,0.000,0
182504.485,32.227,-26.855,-27.832,-19.531,0.000,0
182504.489,15.137,-42.480,-24.414,-45.898,0.000,0
182504.493,4.395,-32.715,-17.578,-43.945,0.000,0
182504.497,4.883,-28.320,-18.555,-46.387,0.000,0
182504.501,32.227,-5.859,-3.418,-20.020,0.000,0
182504.505,38.574,13.184,15.625,21.973,0.000,0
182504.509,-0.488,-18.555,-19.043,-17.090,0.000,0
182504.513,-16.113,-35.645,-44.922,-36.621,0.000,0
182504.517,-2.930,-34.180,-37.598,-11.230,0.000,0
182504.520,4.883,-25.879,-25.879,-4.883,0.000,0
182504.524,12.695,-14.648,-24.902,-10.254,0.000,0
182504.528,26.855,-14.648,-22.949,-0.977,0.000,0
182504.532,31.738,-28.809,-28.809,-8.301,0.000,0
182504.536,38.574,-33.691,-32.715,-18.066,0.000,0
182504.540,46.387,-13.184,-14.648,-19.531,0.000,0
182504.544,35.156,-13.672,-21.973,-21.484,0.000,0
182504.548,34.180,-22.461,-24.902,-27.832,0.000,0
182504.552,44.922,-11.230,-15.137,-23.438,0.000,0
182504.556,49.316,-9.766,-15.625,-20.508,0.000,0
182504.560,43.945,-10.254,-5.371,-24.414,0.000,0
182504.563,33.203,-10.254,-3.906,-19.043,0.000,0
182504.567,16.602,-33.691,-23.926,-29.297,0.000,0
182504.571,2.930,-43.945,-40.039,-43.945,0.000,0
182504.575,5.371,-29.785,-35.156,-37.598,0.000,0
182504.579,4.883,-22.949,-26.367,-33.203,0.000,0
182504.583,26.367,-7.812,-5.371,-10.254,0.000,0
182504.587,28.320,-7.812,1.465,-11.230,0.000,0
182504.591,-3.906,-27.832,-22.461,-37.109,0.000,0
182504.595,-16.113,-36.133,-33.203,-45.898,0.000,0
182504.599,3.906,-24.414,-22.949,-31.738,0.000,0
182504.602,29.785,-12.207,-28.809,-20.508,0.000,0
182504.606,26.367,-9.766,-25.879,-32.715,0.000,0
182504.610,3.418,-21.973,-19.043,-44.922,0.000,0
182504.614,-14.648,-33.203,-24.902,-42.969,0.000,0
182504.618,-4.395,-25.391,-18.555,-25.391,0.000,0
182504.622,7.324,-18.066,-18.066,-7.812,0.000,0
182504.626,-0.488,-20.020,-23.438,-11.230,0.000,0
182504.630,37.109,7.324,4.395,17.578,0.000,0
182504.634,43.457,-0.977,-2.930,11.719,0.000,0
182504.638,5.859,-34.180,-31.250,-22.949,0.000,0
182504.642,-3.418,-35.645,-30.762,-25.391,0.000,0
182504.645,5.859,-29.785,-33.203,-24.902,0.000,0
182504.649,25.391,-20.996,-28.809,-19.531,0.000,0
182504.653,17.090,-17.578,-27.832,-17.578,0.000,0
182504.657,4.395,-15.625,-16.113,-21.484,0.000,0
182504.661,24.902,-10.254,3.906,-16.113,0.000,0
182504.665,31.250,-20.996,-10.254,-26.367,0.000,0
182504.669,19.531,-31.738,-31.250,-37.109,0.000,0
182504.673,28.320,-21.484,-20.996,-19.531,0.000,0
182504.677,32.715,-14.160,-12.695,-17.090,0.000,0
182504.681,26.367,-10.254,-12.695,-11.719,0.000,0
182504.685,28.809,-4.395,-17.090,-13.184,0.000,0
182504.688,20.020,-4.883,-13.672,-19.043,0.000,0
182504.692,18.555,-5.859,-12.207,-22.461,0.000,0
182504.696,5.371,-25.391,-48.340,-38.574,0.000,0
182504.700,-10.254,-33.203,-35.156,-21.484,0.000,0
182504.704,-20.020,-34.180,-15.137,-32.715,0.000,0
182504.708,-10.742,-22.949,-13.672,-33.691,0.000,0
182504.712,18.066,-3.906,-7.812,2.930,0.000,0
182504.716,7.812,-21.973,-23.926,-3.906,0.000,0
182504.720,-6.348,-36.621,-34.180,-30.273,0.000,0
182504.724,-15.137,-41.016,-41.016,-50.293,0.000,0
182504.727,-18.066,-43.945,-45.898,-48.340,0.000,0
182504.731,2.930,-42.480,-45.898,-24.902,0.000,0
182504.735,6.348,-41.504,-36.133,-27.832,0.000,0
182504.739,4.395,-30.762,-22.949,-34.668,0.000,0
182504.743,41.504,4.395,15.625,-9.766,0.000,0
182504.747,80.078,15.625,23.438,19.531,0.000,0
182504.751,54.199,-11.719,-13.672,-4.395,0.000,0
182504.755,3.906,-45.410,-39.062,-56.152,0.000,0
182504.759,-0.488,-50.293,-45.898,-47.852,0.000,0
182504.763,26.855,-25.391,-17.578,-23.438,0.000,0
182504.767,29.785,-21.973,-7.324,-28.320,0.000,0
182504.770,8.789,-29.297,-29.785,-36.133,0.000,0
182504.774,3.906,-25.879,-25.391,-41.504,0.000,0
182504.778,7.812,-23.926,-21.484,-47.363,0.000,0
182504.782,13.184,-21.973,-28.320,-27.832,0.000,0
182504.786,-1.953,-25.391,-28.809,-29.785,0.000,0
182504.790,-11.230,-22.949,-23.926,-34.668,0.000,0
182504.794,12.207,-1.465,-6.348,-13.184,0.000,0
182504.798,22.461,0.000,-4.883,-22.949,0.000,0
182504.802,6.836,-15.137,-18.555,-44.922,0.000,0
182504.806,-7.324,-26.367,-39.062,-62.012,0.000,0
182504.810,17.090,-0.488,-20.996,-28.809,0.000,0
182504.813,25.879,0.000,-6.348,-11.230,0.000,0
182504.817,11.230,-32.227,-26.367,-31.738,0.000,0
182504.821,4.395,-41.504,-36.133,-51.758,0.000,0
182504.825,4.395,-38.086,-31.250,-53.223,0.000,0
182504.829,19.043,-31.250,-32.715,-26.855,0.000,0
182504.833,14.648,-32.227,-35.645,-18.555,0.000,0
182504.837,12.207,-26.855,-24.902,-17.090,0.000,0
182504.841,20.996,-23.926,-16.113,-27.344,0.000,0
182504.845,19.043,-20.508,-14.648,-41.504,0.000,0
182504.849,18.555,-19.531,-26.367,-26.855,0.000,0
182504.852,15.137,-22.461,-31.738,-23.926,0.000,0
182504.856,13.184,-20.508,-13.672,-32.715,0.000,0
182504.860,11.230,-22.949,-13.184,-41.016,0.000,0
182504.864,13.184,-24.414,-20.996,-38.574,0.000,0
182504.868,17.578,-26.855,-22.949,-24.414,0.000,0
182504.872,26.367,-17.090,-14.648,-32.715,0.000,0
182504.876,25.879,-10.742,-19.531,-26.367,0.000,0
182504.880,4.395,-33.691,-39.062,-21.484,0.000,0
182504.884,15.625,-27.344,-26.855,-10.254,0.000,0
182504.888,15.625,-24.414,-15.137,-18.555,0.000,0
182504.892,-4.395,-41.016,-17.090,-56.152,0.000,0
182504.895,16.602,-26.855,-8.789,-36.621,0.000,0
182504.899,40.039,-11.230,-1.953,-7.812,0.000,0
182504.903,15.137,-25.391,-28.320,-23.438,0.000,0
182504.907,-3.418,-34.180,-35.156,-43.945,0.000,0
182504.911,15.625,-29.785,-27.832,-28.809,0.000,0
182504.915,29.785,-23.438,-26.855,-10.254,0.000,0
182504.919,42.480,0.977,-3.906,0.000,0.000,0
182504.923,33.203,-2.930,-6.348,-18.066,0.000,0
182504.927,9.766,-23.926,-26.367,-29.297,0.000,0
182504.931,15.625,-29.297,-39.062,-14.160,0.000,0
182504.935,13.672,-35.156,-42.969,-25.391,0.000,0
182504.938,6.836,-33.203,-32.715,-31.250,0.000,0
182504.942,6.836,-27.344,-35.645,-27.344,0.000,0
182504.946,22.949,-19.043,-21.484,-14.648,0.000,0
182504.950,19.043,-30.273,-34.180,-20.508,0.000,0
182504.954,-15.137,-40.039,-48.340,-43.457,0.000,0
182504.958,-13.184,-21.973,-30.762,-37.109,0.000,0
182504.962,3.418,-9.277,-31.250,-33.691,0.000,0
182504.966,18.066,-7.812,-32.227,-27.832,0.000,0
182504.970,28.809,-0.488,-10.254,-12.695,0.000,0
182504.974,5.371,-19.043,-15.625,-30.762,0.000,0
182504.977,-10.254,-36.621,-30.762,-42.969,0.000,0
182504.981,2.930,-38.086,-29.785,-40.039,0.000,0
182504.985,19.043,-31.250,-35.645,-28.809,0.000,0
182504.989,13.672,-27.832,-35.645,-25.879,0.000,0
182504.993,9.277,-28.809,-38.574,-31.738,0.000,0
182504.997,24.414,-19.043,-32.715,-24.902,0.000,0
182505.001,41.992,-1.953,-15.137,7.812,0.000,0
182505.005,42.969,-1.953,3.906,6.836,0.000,0
182505.009,20.020,-24.902,-10.254,-30.273,0.000,0
182505.013,3.906,-37.598,-36.621,-33.691,0.000,0
182505.017,20.020,-26.367,-29.785,-17.090,0.000,0
182505.020,28.320,-17.578,-20.996,-11.719,0.000,0
182505.024,13.672,-19.531,-26.367,-12.695,0.000,0
182505.028,14.648,-16.602,-30.273,-1.953,0.000,0
182505.032,16.602,-19.531,-30.762,0.000,0.000,0
182505.036,13.672,-19.531,-25.879,-8.301,0.000,0
182505.040,-3.906,-22.949,-29.785,-32.227,0.000,0
182505.044,-12.695,-27.832,-28.320,-30.273,0.000,0
182505.048,4.883,-22.461,-27.832,-11.719,0.000,0
182505.052,13.184,-14.160,-21.973,-7.324,0.000,0
182505.056,-3.906,-22.949,-27.344,-18.555,0.000,0
182505.060,-5.371,-20.508,-22.461,-20.996,0.000,0
182505.063,9.277,-10.742,-19.531,-17.578,0.000,0
182505.067,12.695,-16.602,-30.762,-16.602,0.000,0
182505.071,-5.859,-25.391,-36.621,-36.621,0.000,0
182505.075,-4.395,-18.555,-25.879,-41.016,0.000,0
182505.079,13.184,-14.648,-17.090,-35.156,0.000,0
182505.083,20.508,-11.719,-18.555,-31.250,0.000,0
182505.087,11.719,-1.953,-18.555,-20.508,0.000,0
182505.091,-11.719,-20.020,-35.645,-44.434,0.000,0
182505.095,-11.719,-40.039,-43.457,-50.781,0.000,0
182505.099,-3.906,-40.527,-38.574,-36.133,0.000,0
182505.102,-11.230,-33.203,-31.738,-33.691,0.000,0
182505.106,-32.227,-39.062,-45.898,-47.852,0.000,0
182505.110,-7.324,-20.020,-23.926,-25.879,0.000,0
182505.114,20.996,-4.395,-4.395,0.977,0.000,0
182505.118,6.348,-17.090,-20.996,-18.066,0.000,0
182505.122,11.719,2.441,0.977,-20.020,0.000,0
182505.126,4.395,-8.301,-15.625,-21.484,0.000,0
182505.130,0.488,-24.414,-40.527,-28.320,0.000,0
182505.134,3.418,-19.531,-37.598,-19.531,0.000,0
182505.138,-8.301,-27.832,-32.227,-29.297,0.000,0
182505.142,-8.301,-24.414,-21.973,-40.527,0.000,0
182505.145,-10.254,-19.043,-29.785,-37.109,0.000,0
182505.149,0.000,-20.020,-23.926,-28.809,0.000,0
182505.153,15.137,-5.859,-8.789,-18.066,0.000,0
182505.157,20.508,3.418,1.953,-19.531,0.000,0
182505.161,10.254,-17.578,-19.043,-24.902,0.000,0
182505.165,10.254,-23.438,-37.598,-15.625,0.000,0
182505.169,6.836,-27.344,-39.551,-30.762,0.000,0
182505.173,-8.301,-32.715,-37.598,-59.570,0.000,0
182505.177,5.371,-15.625,-18.066,-34.668,0.000,0
182505.181,21.973,-11.230,-8.301,-22.949,0.000,0
182505.185,29.297,-12.695,-11.719,-22.949,0.000,0
182505.188,21.973,-5.371,-19.531,-11.230,0.000,0
182505.192,-5.371,-22.461,-36.133,-30.273,0.000,0
182505.196,-2.930,-37.109,-37.598,-37.109,0.000,0
182505.200,10.254,-30.762,-33.203,-20.020,0.000,0
182505.204,-1.465,-26.855,-23.438,-14.160,0.000,0
182505.208,2.930,-15.137,-4.883,-9.766,0.000,0
182505.212,2.441,-22.461,-16.113,-4.883,0.000,0
182505.216,-2.441,-31.738,-32.227,-14.160,0.000,0
182505.220,5.859,-17.578,-21.484,-14.648,0.000,0
182505.224,-3.906,-12.207,-17.578,-16.602,0.000,0
182505.227,-7.812,-14.160,-28.320,-15.137,0.000,0
182505.231,-2.441,-27.344,-34.180,-21.973,0.000,0
182505.235,-6.836,-21.973,-23.926,-28.320,0.000,0
182505.239,6.836,-1.953,-1.465,-0.977,0.000,0
182505.243,-10.254,-21.973,-19.043,-18.555,0.000,0
182505.247,-5.859,-26.855,-25.391,-29.785,0.000,0
182505.251,9.766,-22.949,-17.578,-9.277,0.000,0
182505.255,-10.254,-32.227,-34.668,-21.484,0.000,0
182505.259,-10.254,-30.762,-34.668,-36.133,0.000,0
182505.263,4.883,-25.879,-19.043,-17.578,0.000,0
182505.267,9.766,-22.461,-18.066,-5.371,0.000,0
182505.270,7.324,-16.113,-11.719,-12.695,0.000,0
182505.274,9.766,-16.602,-14.648,-21.484,0.000,0
182505.278,9.766,-29.297,-39.062,-28.809,0.000,0
182505.282,5.859,-25.879,-35.645,-18.066,0.000,0
182505.286,20.996,-10.742,-6.348,-10.254,0.000,0
182505.290,8.301,-22.949,-17.090,-32.227,0.000,0
182505.294,-3.906,-32.715,-31.738,-30.273,0.000,0
182505.298,16.602,-23.438,-24.414,-10.254,0.000,0
182505.302,9.766,-23.438,-26.855,-11.230,0.000,0
182505.306,-17.090,-32.715,-33.203,-22.949,0.000,0
182505.310,-4.883,-28.809,-28.809,-21.973,0.000,0
182505.313,9.277,-24.414,-20.020,-11.230,0.000,0
182505.317,-5.371,-37.109,-30.273,-30.273,0.000,0
182505.321,-5.371,-33.203,-30.273,-27.832,0.000,0
182505.325,-8.789,-26.367,-30.762,-10.742,0.000,0
182505.329,-11.230,-24.414,-41.504,6.836,0.000,0
182505.333,-1.465,-21.973,-34.668,18.066,0.000,0
182505.337,11.230,-28.320,-24.902,-2.441,0.000,0
182505.341,-7.812,-19.043,-7.812,-18.555,0.000,0
182505.345,-15.625,-5.371,7.812,-19.043,0.000,0
182505.349,-1.465,-12.207,-2.441,-16.113,0.000,0
182505.352,-10.254,-24.414,-30.762,-18.555,0.000,0
182505.356,-14.160,-21.484,-23.438,-36.621,0.000,0
182505.360,-2.930,-15.137,-14.160,-39.062,0.000,0
182505.364,0.977,-20.508,-19.531,-26.367,0.000,0
182505.368,4.395,-25.879,-23.926,-15.625,0.000,0
182505.372,-3.418,-20.996,-38.574,-17.578,0.000,0
182505.376,-8.301,-16.113,-24.414,-25.879,0.000,0
182505.380,11.719,-14.160,-7.324,-4.883,0.000,0
182505.384,13.672,-17.578,-16.113,-7.812,0.000,0
182505.388,11.719,-15.625,-7.812,-17.090,0.000,0
182505.392,10.742,-16.602,-6.836,-9.766,0.000,0
182505.395,10.742,-18.066,-19.531,-16.113,0.000,0
182505.399,31.738,-1.953,-12.207,-6.348,0.000,0
182505.403,19.531,-20.996,-21.973,-0.488,0.000,0
182505.407,1.953,-44.434,-41.504,-14.160,0.000,0
182505.411,-7.812,-33.691,-36.621,-38.086,0.000,0
182505.415,-16.602,-26.855,-19.531,-58.594,0.000,0
182505.419,-9.766,-33.691,-19.531,-41.016,0.000,0
182505.423,0.977,-36.621,-35.156,-36.133,0.000,0
182505.427,8.789,-27.344,-20.020,-48.340,0.000,0
182505.431,30.762,-18.066,0.000,-9.766,0.000,0
182505.435,29.785,-26.367,-11.719,-16.113,0.000,0
182505.438,10.742,-30.273,-20.996,-42.480,0.000,0
182505.442,-7.324,-41.016,-39.062,-41.504,0.000,0
182505.446,-15.625,-50.781,-57.129,-40.039,0.000,0
182505.450,7.812,-37.109,-30.273,-12.695,0.000,0
182505.454,18.555,-20.508,1.953,-13.672,0.000,0
182505.458,2.930,-33.203,-12.695,-51.270,0.000,0
182505.462,-2.930,-49.316,-26.855,-47.363,0.000,0
182505.466,-7.324,-51.758,-31.250,-33.203,0.000,0
182505.470,-6.348,-43.457,-35.645,-32.227,0.000,0
182505.474,-9.766,-35.156,-26.367,-36.133,0.000,0
182505.477,-13.184,-34.668,-33.691,-31.738,0.000,0
182505.481,6.348,-32.227,-40.527,-10.254,0.000,0
182505.485,16.602,-24.902,-19.531,3.418,0.000,0
182505.489,-10.254,-31.250,-20.996,-18.555,0.000,0
182505.493,-28.320,-43.945,-29.785,-48.340,0.000,0
182505.497,-4.395,-29.785,-25.879,-31.738,0.000,0
182505.501,13.672,-22.461,-32.715,-10.254,0.000,0
182505.505,-2.441,-32.227,-31.738,-25.391,0.000,0
182505.509,-19.531,-37.109,-27.344,-34.668,0.000,0
182505.513,-11.719,-37.109,-21.484,-22.949,0.000,0
182505.517,-3.418,-41.016,-30.762,-22.949,0.000,0
182505.520,-16.602,-41.992,-40.527,-28.320,0.000,0
182505.524,-18.066,-35.156,-36.621,-25.391,0.000,0
182505.528,-4.395,-29.297,-33.203,-15.625,0.000,0
182505.532,3.906,-24.902,-30.762,-4.395,0.000,0
182505.536,-2.441,-28.320,-25.391,-27.344,0.000,0
182505.540,-18.066,-25.879,-33.203,-46.387,0.000,0
182505.544,-15.137,-24.902,-35.156,-42.969,0.000,0
182505.548,-2.930,-32.715,-26.855,-43.945,0.000,0
182505.552,26.367,-7.812,-2.930,-15.625,0.000,0
182505.556,26.367,3.906,1.465,1.465,0.000,0
182505.560,-10.254,-32.227,-43.457,-31.250,0.000,0
182505.563,-18.555,-51.758,-49.805,-47.852,0.000,0
182505.567,-2.441,-36.621,-27.832,-29.785,0.000,0
182505.571,8.301,-16.602,-14.648,-27.344,0.000,0
182505.575,4.883,-15.625,-22.949,-38.574,0.000,0
182505.579,-0.977,-38.574,-54.688,-41.016,0.000,0
182505.583,3.906,-39.551,-49.805,-25.879,0.000,0
182505.587,11.719,-17.578,-23.926,-11.719,0.000,0
182505.591,10.254,-12.695,-14.160,-19.043,0.000,0
182505.595,-15.625,-28.809,-29.785,-41.504,0.000,0
182505.599,-3.906,-22.949,-33.691,-32.715,0.000,0
182505.602,22.949,-13.184,-12.695,-6.348,0.000,0
182505.606,9.277,-25.391,-16.113,-13.184,0.000,0
182505.610,-15.137,-36.621,-40.039,-28.809,0.000,0
182505.614,0.488,-24.902,-25.391,-18.555,0.000,0
182505.618,-0.977,-36.133,-36.621,-17.090,0.000,0
182505.622,-28.320,-47.363,-59.570,-39.551,0.000,0
182505.626,-19.531,-34.668,-37.598,-48.340,0.000,0
182505.630,-5.859,-29.785,-24.414,-36.133,0.000,0
182505.634,1.465,-22.949,-25.879,-36.621,0.000,0
182505.638,-8.301,-29.297,-34.180,-60.059,0.000,0
182505.642,-17.578,-32.227,-37.598,-45.898,0.000,0
182505.645,4.395,-17.090,-21.973,-11.230,0.000,0
182505.649,24.414,-7.324,-3.418,-0.488,0.000,0
182505.653,14.160,-21.484,-13.184,-10.742,0.000,0
182505.657,-4.883,-37.109,-35.645,-21.484,0.000,0
182505.661,-7.324,-37.598,-39.062,-30.762,0.000,0
182505.665,-2.930,-30.762,-39.062,-22.461,0.000,0
182505.669,-1.465,-26.855,-36.133,-16.113,0.000,0
182505.673,1.953,-22.949,-25.391,-32.227,0.000,0
182505.677,7.324,-21.973,-26.855,-21.973,0.000,0
182505.681,15.625,-16.113,-14.160,4.395,0.000,0
182505.685,18.066,-15.625,-10.254,-4.883,0.000,0
182505.688,6.836,-23.438,-27.832,-29.297,0.000,0
182505.692,8.301,-18.066,-27.832,-24.902,0.000,0
182505.696,13.184,-14.648,-22.461,0.488,0.000,0
182505.700,1.465,-21.973,-22.949,-8.301,0.000,0
182505.704,-10.254,-25.391,-26.367,-25.391,0.000,0
182505.708,4.395,-9.277,-11.719,-4.395,0.000,0
182505.712,19.531,1.465,-1.953,2.441,0.000,0
182505.716,10.254,-7.812,-10.742,-7.812,0.000,0
182505.720,-4.883,-26.367,-26.855,-15.625,0.000,0
182505.724,-12.695,-35.156,-41.992,-23.926,0.000,0
182505.727,0.488,-31.250,-41.016,-21.973,0.000,0
182505.731,2.930,-33.691,-39.062,-20.020,0.000,0
182505.735,7.812,-26.855,-29.297,-3.906,0.000,0
182505.739,27.832,-19.043,-14.160,8.301,0.000,0
182505.743,20.996,-26.367,-25.879,3.906,0.000,0
182505.747,21.973,-19.531,-26.367,11.719,0.000,0
182505.751,39.062,2.441,6.348,26.367,0.000,0
182505.755,26.855,0.977,6.836,23.926,0.000,0
182505.759,14.160,-13.184,-5.859,10.254,0.000,0
182505.763,8.789,-14.648,-13.672,-0.488,0.000,0
182505.767,13.672,0.488,-15.137,3.906,0.000,0
182505.770,21.484,10.254,-3.906,0.977,0.000,0
182505.774,17.090,11.719,9.277,1.465,0.000,0
182505.778,28.320,11.719,-1.953,13.672,0.000,0
182505.782,40.039,2.441,-3.418,17.090,0.000,0
182505.786,5.859,-14.648,-0.977,-23.438,0.000,0
182505.790,10.254,-6.836,-13.184,-34.180,0.000,0
182505.794,49.316,10.742,0.488,13.672,0.000,0
182505.798,38.574,0.488,2.441,7.324,0.000,0
182505.802,16.602,-15.137,-21.484,-17.578,0.000,0
182505.806,19.043,-6.836,-17.090,-18.555,0.000,0
182505.810,20.996,-2.930,-4.883,-14.648,0.000,0
182505.813,39.551,2.441,-1.953,10.254,0.000,0
182505.817,29.785,1.465,-8.789,2.441,0.000,0
182505.821,-11.230,-20.996,-45.898,-21.973,0.000,0
182505.825,0.000,-24.414,-44.922,-14.648,0.000,0
182505.829,13.672,-20.508,-32.227,-20.020,0.000,0
182505.833,18.066,-5.859,-23.438,-2.441,0.000,0
182505.837,17.578,0.977,-11.230,-0.488,0.000,0
182505.841,21.973,-5.371,-21.973,-7.324,0.000,0
182505.845,35.156,-9.766,-12.695,2.930,0.000,0
182505.849,36.133,-11.719,0.000,-5.371,0.000,0
182505.852,18.066,-13.672,-12.207,-19.043,0.000,0
182505.856,10.254,-15.137,-23.926,-23.438,0.000,0
182505.860,14.160,-12.695,-12.695,-7.324,0.000,0
182505.864,6.836,-18.555,-7.324,-13.672,0.000,0
182505.868,17.090,1.953,0.000,-7.324,0.000,0
182505.872,31.738,11.230,8.301,13.184,0.000,0
182505.876,15.137,-20.996,-20.508,-2.441,0.000,0
182505.880,10.254,-26.855,-35.645,-11.230,0.000,0
182505.884,7.324,-27.832,-30.762,-21.484,0.000,0
182505.888,-6.348,-29.785,-28.320,-30.273,0.000,0
182505.892,18.555,-11.719,-14.648,-3.906,0.000,0
182505.895,17.578,-9.766,-17.578,9.766,0.000,0
182505.899,-21.973,-30.273,-29.297,-15.625,0.000,0
182505.903,-23.438,-39.062,-29.785,-43.457,0.000,0
182505.907,-15.137,-31.738,-27.832,-34.180,0.000,0
182505.911,-6.836,-20.996,-22.949,-2.441,0.000,0
182505.915,-9.766,-26.367,-31.738,-11.719,0.000,0
182505.919,12.207,4.395,-2.441,-12.695,0.000,0
182505.923,38.574,24.902,27.832,6.836,0.000,0
182505.927,16.602,-13.672,-8.301,-11.230,0.000,0
182505.931,2.930,-26.855,-31.738,-31.250,0.000,0
182505.935,-3.906,-26.855,-31.250,-43.457,0.000,0
182505.938,-2.930,-20.020,-20.996,-28.809,0.000,0
182505.942,4.395,-18.555,-20.508,-14.160,0.000,0
182505.946,5.371,-22.461,-16.113,-17.090,0.000,0
182505.950,9.766,-17.578,-17.578,-17.578,0.000,0
182505.954,4.395,-20.996,-28.320,-36.621,0.000,0
182505.958,1.953,-20.508,-25.879,-33.203,0.000,0
182505.962,22.461,-11.719,-15.625,-5.371,0.000,0
182505.966,18.066,-24.414,-19.043,-12.207,0.000,0
182505.970,-7.812,-33.203,-35.156,-27.344,0.000,0
182505.974,-13.184,-34.180,-33.691,-23.438,0.000,0
182505.977,8.789,-27.344,-29.297,-4.395,0.000,0
182505.981,34.180,-6.836,-12.695,23.438,0.000,0
182505.985,7.324,-22.461,-20.020,-7.812,0.000,0
182505.989,-22.461,-43.457,-48.828,-45.898,0.000,0
182505.993,-22.461,-42.480,-41.992,-32.227,0.000,0
182505.997,-8.789,-33.691,-17.578,-13.672,0.000,0
182506.001,-10.254,-27.344,-13.184,-20.996,0.000,0
182506.005,-24.414,-28.809,-28.809,-44.922,0.000,0
182506.009,-15.137,-26.367,-33.203,-37.109,0.000,0
182506.013,-3.418,-21.973,-38.574,-14.648,0.000,0
182506.017,-9.766,-20.996,-41.992,-28.320,0.000,0
182506.020,-12.695,-12.207,-19.531,-36.133,0.000,0
182506.024,14.160,-4.883,5.371,-20.508,0.000,0
182506.028,20.508,-15.137,-2.441,-10.254,0.000,0
182506.032,8.789,-21.484,-18.066,-20.020,0.000,0
182506.036,-11.719,-24.414,-32.227,-60.547,0.000,0
182506.040,-7.812,-22.949,-40.527,-49.316,0.000,0
182506.044,11.719,-18.066,-36.133,-16.602,0.000,0
182506.048,10.254,-20.020,-26.367,-14.648,0.000,0
182506.052,1.953,-27.344,-21.973,-26.855,0.000,0
182506.056,9.277,-20.996,-20.020,-31.250,0.000,0
182506.060,23.438,-9.766,-20.508,-3.418,0.000,0
182506.063,11.719,-14.160,-17.090,0.977,0.000,0
182506.067,-17.090,-27.832,-31.738,-20.508,0.000,0
182506.071,-21.484,-20.996,-31.250,-21.484,0.000,0
182506.075,-1.953,-15.625,-18.066,-0.488,0.000,0
182506.079,8.301,-17.578,-22.461,-0.488,0.000,0
182506.083,2.930,-13.672,-13.672,-29.297,0.000,0
182506.087,0.488,-8.789,-7.812,-32.715,0.000,0
182506.091,8.301,-1.465,-2.930,-17.090,0.000,0
182506.095,13.184,-9.277,-9.277,-15.625,0.000,0
182506.099,-15.137,-35.156,-42.480,-28.809,0.000,0
182506.102,-41.016,-39.551,-61.035,-50.781,0.000,0
182506.106,-24.414,-34.668,-52.246,-44.922,0.000,0
182506.110,13.184,-21.484,-27.344,-2.441,0.000,0
182506.114,21.484,-13.672,-18.555,2.930,0.000,0
182506.118,15.137,-15.137,-18.066,-12.207,0.000,0
182506.122,10.742,-21.973,-18.066,-21.973,0.000,0
182506.126,23.926,-18.066,-18.555,-13.672,0.000,0
182506.130,23.438,-22.461,-21.484,-9.277,0.000,0
182506.134,-6.836,-38.574,-37.109,-37.109,0.000,0
182506.138,-19.043,-40.039,-42.969,-44.434,0.000,0
182506.142,-10.742,-34.180,-37.109,-26.855,0.000,0
182506.145,-5.371,-23.926,-28.809,-7.324,0.000,0
182506.149,-15.625,-20.020,-32.715,-8.789,0.000,0
182506.153,-24.414,-16.602,-30.762,-16.602,0.000,0
182506.157,-14.160,-10.254,-23.438,-22.461,0.000,0
182506.161,-1.953,-8.789,-16.602,-20.996,0.000,0
182506.165,17.578,4.883,7.812,-5.371,0.000,0
182506.169,-4.883,-16.602,-7.812,-30.273,0.000,0
182506.173,-41.504,-45.898,-41.016,-64.453,0.000,0
182506.177,-25.391,-37.598,-40.527,-43.457,0.000,0
182506.181,-9.277,-31.738,-41.504,-23.926,0.000,0
182506.185,-10.254,-28.320,-42.480,-31.250,0.000,0
182506.188,-11.230,-25.391,-39.062,-34.668,0.000,0
182506.192,3.418,-25.391,-38.086,-24.902,0.000,0
182506.196,17.090,-15.137,-27.832,-21.973,0.000,0
182506.200,24.902,-3.906,-0.977,-26.367,0.000,0
182506.204,21.973,-8.789,0.488,-40.039,0.000,0
182506.208,18.066,-17.578,-15.137,-38.086,0.000,0
182506.212,21.973,-16.602,-29.297,-19.043,0.000,0
182506.216,26.367,-9.766,-24.414,-20.996,0.000,0
182506.220,14.648,-15.625,-23.438,-33.203,0.000,0
182506.224,-2.441,-22.461,-27.344,-25.879,0.000,0
182506.227,9.766,-16.602,-20.996,-1.953,0.000,1
182506.231,29.785,-0.488,-5.859,5.859,0.000,0
182506.235,16.602,-4.883,0.000,-11.230,0.000,0
182506.239,-4.883,-23.926,-14.160,-22.949,0.000,0
182506.243,-2.441,-21.484,-18.555,-4.395,0.000,0
182506.247,-9.766,-21.484,-19.043,-4.883,0.000,0
182506.251,-5.371,-6.836,-13.672,-4.883,0.000,0
182506.255,32.227,17.090,2.930,21.484,0.000,0
182506.259,14.160,-12.207,-12.207,10.742,0.000,0
182506.263,-37.598,-56.641,-62.500,-34.668,0.000,0
182506.267,-39.062,-55.664,-57.617,-52.734,0.000,0
182506.270,-21.484,-34.668,-31.250,-35.156,0.000,0
182506.274,-6.348,-18.555,-18.555,-8.301,0.000,0
182506.278,-5.371,-29.785,-26.855,-5.859,0.000,0
182506.282,-19.531,-38.574,-43.945,-28.320,0.000,0
182506.286,-25.879,-27.344,-36.621,-34.668,0.000,0
182506.290,-1.953,-22.461,-19.531,-9.277,0.000,0
182506.294,15.137,-27.344,-18.555,-5.859,0.000,0
182506.298,15.137,-24.414,-21.484,-17.090,0.000,0
182506.302,0.488,-18.555,-22.949,-22.949,0.000,0
182506.306,-5.371,-18.066,-21.973,-20.996,0.000,0
182506.310,0.977,-19.531,-28.320,-17.578,0.000,0
182506.313,0.488,-16.113,-24.902,-19.043,0.000,0
182506.317,-0.977,-6.348,-12.695,-37.598,0.000,0
182506.321,-3.906,-10.254,-15.625,-38.086,0.000,0
182506.325,3.906,-17.578,-18.066,-15.625,0.000,0
182506.329,-2.930,-23.926,-26.855,-17.090,0.000,0
182506.333,-9.766,-20.996,-26.855,-28.320,0.000,0
182506.337,-1.953,-19.043,-21.973,-26.367,0.000,0
182506.341,0.977,-20.020,-19.043,-23.438,0.000,0
182506.345,-2.441,-15.625,-20.996,-18.066,0.000,0
182506.349,3.906,-12.695,-16.113,-16.113,0.000,0
182506.352,11.719,-8.789,-7.324,-26.367,0.000,0
182506.356,9.766,-16.602,-19.043,-34.668,0.000,0
182506.360,-4.395,-33.203,-40.527,-33.203,0.000,0
182506.364,-20.020,-34.668,-35.645,-27.344,0.000,0
182506.368,-18.555,-20.508,-16.602,-24.414,0.000,0
182506.372,-1.465,-16.113,-20.996,-9.277,0.000,0
182506.376,-1.953,-24.902,-30.273,-3.906,0.000,0
182506.380,-6.836,-23.438,-24.414,-19.043,0.000,0
182506.384,-14.160,-25.879,-28.809,-33.203,0.000,0
182506.388,-15.137,-27.344,-32.715,-27.344,0.000,0
182506.392,0.977,-17.578,-19.531,-12.695,0.000,0
182506.395,-11.719,-23.926,-26.367,-34.180,0.000,0
182506.399,-32.227,-35.156,-34.180,-51.270,0.000,0
182506.403,-26.855,-30.762,-26.367,-35.156,0.000,0
182506.407,-5.859,-20.020,-13.672,-22.461,0.000,0
182506.411,5.371,-16.113,-18.066,-20.508,0.000,0
182506.415,2.930,-18.555,-21.973,-36.133,0.000,0
182506.419,0.488,-18.066,-28.320,-41.992,0.000,0
182506.423,22.461,-4.395,-29.297,-5.371,0.000,0
182506.427,11.719,-20.508,-26.367,-0.977,0.000,0
182506.431,-29.297,-41.504,-45.410,-42.969,0.000,0
182506.435,-14.160,-24.414,-26.367,-49.316,0.000,0
182506.438,0.488,-20.996,-13.184,-29.785,0.000,0
182506.442,-20.020,-38.086,-35.645,-19.531,0.000,0
182506.446,-14.160,-28.320,-30.273,-20.508,0.000,0
182506.450,-14.648,-20.020,-34.180,-28.809,0.000,0
182506.454,-24.414,-30.762,-41.016,-30.273,0.000,0
182506.458,-15.137,-36.621,-32.227,-25.879,0.000,0
182506.462,-10.254,-27.832,-24.902,-12.695,0.000,0
182506.466,-17.090,-17.578,-17.090,-19.531,0.000,0
182506.470,-18.555,-23.438,-34.180,-31.250,0.000,0
182506.474,-5.859,-16.602,-39.551,-24.902,0.000,0
182506.477,1.953,-8.301,-33.203,-14.648,0.000,0
182506.481,-3.418,-9.766,-24.902,-15.137,0.000,0
182506.485,8.301,-4.395,-7.812,-6.348,0.000,0
182506.489,-5.371,-26.367,-26.367,-8.301,0.000,0
182506.493,-17.578,-41.504,-32.715,-19.531,0.000,0
182506.497,-5.859,-26.367,-23.926,-15.137,0.000,0
182506.501,-0.977,-13.184,-12.695,0.488,0.000,0
182506.505,-6.836,-22.461,-18.066,-6.348,0.000,0
182506.509,-7.324,-30.762,-32.715,-9.766,0.000,0
182506.513,-16.602,-32.227,-46.875,-24.902,0.000,0
182506.517,-6.836,-13.672,-36.621,-35.645,0.000,0
182506.520,11.230,-1.953,-11.719,-8.301,0.000,0
182506.524,-0.977,-20.508,-22.949,-9.766,0.000,0
182506.528,9.277,-14.648,-21.973,-13.672,0.000,0
182506.532,3.418,-15.137,-16.113,-26.855,0.000,0
182506.536,-17.578,-27.832,-31.738,-42.969,0.000,0
182506.540,-6.348,-27.832,-40.039,-22.949,0.000,0
182506.544,14.160,-21.973,-29.297,-7.324,0.000,0
182506.548,1.953,-20.508,-28.320,-23.438,0.000,0
182506.552,-2.441,-18.555,-22.949,-34.180,0.000,0
182506.556,19.531,-13.672,-15.137,-14.648,0.000,0
182506.560,21.484,-19.531,-21.973,-18.066,0.000,0
182506.563,16.602,-20.508,-25.391,-29.785,0.000,0
182506.567,5.859,-23.926,-32.715,-41.016,0.000,0
182506.571,12.207,-20.508,-27.344,-25.879,0.000,0
182506.575,18.555,-21.484,-27.344,-3.418,0.000,0
182506.579,23.926,-15.137,-15.137,1.465,0.000,0
182506.583,24.414,-5.371,-9.277,-14.648,0.000,0
182506.587,17.578,-12.695,-7.812,-20.508,0.000,0
182506.591,25.879,-17.090,-8.301,-8.789,0.000,0
182506.595,17.578,-27.832,-34.180,-26.367,0.000,0
182506.599,-1.465,-29.297,-39.551,-38.574,0.000,0
182506.602,-2.441,-21.973,-27.344,-36.133,0.000,0
182506.606,5.859,-21.484,-23.926,-32.227,0.000,0
182506.610,10.742,-24.414,-29.297,-28.809,0.000,0
182506.614,8.789,-14.648,-11.719,-34.180,0.000,0
182506.618,-0.488,-18.555,-9.277,-36.133,0.000,0
182506.622,6.836,-26.855,-31.250,-29.297,0.000,0
182506.626,5.859,-28.809,-37.109,-31.250,0.000,0
182506.630,1.465,-29.297,-36.621,-29.785,0.000,0
182506.634,-1.465,-27.832,-35.156,-37.598,0.000,0
182506.638,1.953,-21.973,-31.250,-34.180,0.000,0
182506.642,19.043,-14.160,-17.578,-11.719,0.000,0
182506.645,23.926,-15.137,-22.949,-12.695,0.000,0
182506.649,3.418,-25.879,-44.434,-38.574,0.000,0
182506.653,-9.766,-31.738,-37.598,-59.082,0.000,0
182506.657,1.465,-28.809,-26.855,-42.480,0.000,0
182506.661,2.441,-30.273,-37.109,-28.809,0.000,0
182506.665,-0.488,-21.973,-35.156,-29.785,0.000,0
182506.669,3.906,-14.648,-26.367,-20.996,0.000,0
182506.673,18.066,-10.742,-18.066,-9.766,0.000,0
182506.677,14.160,-13.184,-17.578,-8.301,0.000,0
182506.681,-5.371,-19.531,-25.879,-18.066,0.000,0
182506.685,-10.254,-24.902,-24.902,-32.715,0.000,0
182506.688,-2.441,-25.879,-25.391,-26.367,0.000,0
182506.692,5.371,-22.461,-26.367,-16.113,0.000,0
182506.696,0.977,-26.367,-35.645,-24.414,0.000,0
182506.700,-3.906,-21.484,-33.691,-29.785,0.000,0
182506.704,-2.441,-14.648,-15.625,-16.113,0.000,0
182506.708,1.953,-24.414,-16.602,-5.859,0.000,0
182506.712,-0.488,-29.297,-34.180,-24.902,0.000,0
182506.716,-20.508,-29.297,-51.758,-35.645,0.000,0
182506.720,-20.996,-27.344,-37.109,-28.320,0.000,0
182506.724,8.789,-20.996,-19.043,-17.578,0.000,0
182506.727,6.836,-25.391,-18.555,-16.602,0.000,0
182506.731,-9.277,-35.645,-29.297,-39.551,0.000,0
182506.735,-10.254,-35.645,-27.832,-53.711,0.000,0
182506.739,2.441,-19.531,-18.066,-29.785,0.000,0
182506.743,9.277,-10.742,-28.320,-8.301,0.000,0
182506.747,-4.395,-19.043,-31.250,-25.391,0.000,0
182506.751,-24.902,-25.879,-20.020,-46.387,0.000,0
182506.755,-28.320,-35.645,-38.574,-42.480,0.000,0
182506.759,-19.531,-39.062,-57.617,-38.574,0.000,0
182506.763,-30.762,-33.691,-34.180,-35.645,0.000,0
182506.767,-26.855,-23.926,-17.090,-27.344,0.000,0
182506.770,-10.742,-22.949,-22.461,-27.344,0.000,0
182506.774,-8.789,-23.438,-19.043,-19.531,0.000,0
182506.778,3.418,-11.230,-5.859,-8.789,0.000,0
182506.782,-6.348,-18.555,-14.648,-33.691,0.000,0
182506.786,-21.973,-34.180,-27.344,-45.410,0.000,0
182506.790,-4.883,-21.484,-21.484,-17.090,0.000,0
182506.794,5.859,-10.742,-16.113,-10.254,0.000,0
182506.798,2.441,-15.625,-20.996,-25.391,0.000,0
182506.802,0.488,-12.207,-24.414,-14.648,0.000,0
182506.806,-15.625,-27.832,-30.762,-19.043,0.000,0
182506.810,-21.973,-43.945,-38.574,-50.781,0.000,0
182506.813,-24.414,-32.227,-36.133,-51.270,0.000,0
182506.817,-28.320,-24.414,-39.551,-31.250,0.000,0
182506.821,-23.926,-28.809,-36.133,-32.227,0.000,0
182506.825,-11.719,-17.090,-15.137,-30.762,0.000,0
182506.829,-13.184,-8.789,-5.371,-36.133,0.000,1
182506.833,-33.691,-21.484,-29.785,-53.711,0.000,0
182506.837,-38.574,-29.297,-43.457,-52.734,0.000,0
182506.841,-11.230,-16.602,-19.043,-20.020,0.000,0
182506.845,-4.395,-11.719,-10.254,-14.160,0.000,0
182506.849,-25.879,-23.926,-28.320,-34.668,0.000,0
182506.852,-28.809,-36.133,-38.086,-37.109,0.000,0
182506.856,-9.277,-27.832,-33.203,-10.742,0.000,0
182506.860,1.953,-12.207,-28.809,-3.906,0.000,0
182506.864,-11.230,-15.137,-19.531,-25.879,0.000,0
182506.868,-14.648,-27.344,-22.949,-25.391,0.000,0
182506.872,0.977,-26.367,-32.227,-6.348,0.000,0
182506.876,-3.418,-22.949,-29.785,-17.090,0.000,0
182506.880,-7.812,-20.508,-18.066,-26.855,0.000,0
182506.884,3.418,-17.090,-10.742,-25.391,0.000,0
182506.888,-8.301,-20.508,-27.832,-28.320,0.000,0
182506.892,-19.531,-23.438,-43.945,-25.391,0.000,0
182506.895,-17.578,-19.043,-30.762,-21.484,0.000,0
182506.899,-18.066,-21.973,-26.855,-26.367,0.000,0
182506.903,-9.277,-27.344,-31.738,-26.855,0.000,0
182506.907,11.230,-12.207,-11.719,-2.441,0.000,0
182506.911,-1.465,-13.672,-20.508,0.000,0.000,0
182506.915,-19.043,-25.879,-32.227,-27.344,0.000,0
182506.919,-22.949,-36.621,-32.227,-46.387,0.000,0
182506.923,-16.602,-35.156,-33.203,-38.086,0.000,0
182506.927,-14.648,-32.227,-27.832,-34.180,0.000,0
182506.931,-19.043,-26.367,-18.555,-37.109,0.000,0
182506.935,2.930,-8.301,-4.883,-24.414,0.000,0
182506.938,8.301,-11.230,-11.230,-18.555,0.000,0
182506.942,-14.648,-29.785,-30.273,-28.809,0.000,0
182506.946,-22.949,-41.016,-39.551,-50.293,0.000,0
182506.950,-21.484,-44.922,-44.434,-62.012,0.000,0
182506.954,-17.090,-46.875,-42.969,-55.664,0.000,0
182506.958,-2.441,-39.551,-35.156,-31.738,0.000,0
182506.962,-9.277,-38.086,-39.551,-30.762,0.000,0
182506.966,-9.277,-31.250,-26.855,-31.738,0.000,0
182506.970,16.113,-24.414,-22.949,-11.719,0.000,0
182506.974,16.602,-30.273,-40.039,-3.418,0.000,0
182506.977,6.348,-30.273,-27.344,-9.277,0.000,0
182506.981,-3.906,-31.250,-20.508,-15.137,0.000,0
182506.985,-20.508,-41.504,-36.133,-25.391,0.000,0
182506.989,-15.625,-42.480,-51.758,-23.438,0.000,0
182506.993,0.977,-22.461,-34.668,-7.324,0.000,0
182506.997,-3.418,-16.602,-15.137,-18.555,0.000,0
182507.001,-5.371,-26.367,-16.113,-30.273,0.000,0
182507.005,9.766,-23.926,-20.508,-19.531,0.000,0
182507.009,8.301,-16.113,-20.508,-20.020,0.000,0
182507.013,0.488,-18.555,-21.484,-30.273,0.000,0
182507.017,6.348,-19.043,-20.020,-21.484,0.000,0
182507.020,16.602,-19.531,-23.438,-4.883,0.000,0
182507.024,14.160,-29.297,-36.621,-23.926,0.000,0
182507.028,15.137,-18.066,-23.926,-20.508,0.000,0
182507.032,20.508,-8.301,-5.371,-9.766,0.000,0
182507.036,17.578,-19.043,-26.855,-21.484,0.000,0
182507.040,11.719,-21.484,-42.480,-15.137,0.000,0
182507.044,1.953,-25.391,-34.180,-27.344,0.000,0
182507.048,1.953,-22.461,-26.367,-30.273,0.000,0
182507.052,3.906,-19.531,-30.762,-13.672,0.000,0
182507.056,-0.488,-26.855,-40.527,-1.953,0.000,0
182507.060,-1.953,-20.508,-24.902,-1.953,0.000,0
182507.063,-3.906,-15.625,-22.949,-17.578,0.000,0
182507.067,-5.859,-20.996,-26.855,-17.090,0.000,0
182507.071,8.789,-11.230,-18.066,4.395,0.000,0
182507.075,7.324,-1.953,-11.719,-1.465,0.000,0
182507.079,-0.977,1.465,-11.230,-10.254,0.000,0
182507.083,9.277,4.883,-8.301,1.953,0.000,0
182507.087,-5.371,-14.648,-23.926,-10.254,0.000,0
182507.091,-13.184,-23.438,-33.691,-14.160,0.000,0
182507.095,-7.812,-20.996,-34.180,-16.113,0.000,0
182507.099,-22.949,-27.832,-42.480,-33.691,0.000,0
182507.102,-23.926,-28.320,-35.156,-36.133,0.000,0
182507.106,-18.066,-29.297,-35.645,-25.391,0.000,0
182507.110,-27.832,-29.297,-37.109,-27.344,0.000,0
182507.114,-25.879,-19.043,-20.020,-30.762,0.000,0
182507.118,-12.695,-17.090,-17.090,-11.719,0.000,0
182507.122,-6.348,-25.391,-30.273,-8.789,0.000,0
182507.126,-3.418,-13.184,-27.832,-16.602,0.000,0
182507.130,-9.766,-7.324,-21.484,-19.043,0.000,0
182507.134,-6.836,-18.555,-28.809,-20.020,0.000,0
182507.138,6.836,-17.578,-21.973,-3.418,0.000,0
182507.142,-7.324,-25.879,-26.367,-24.414,0.000,0
182507.145,-8.789,-24.902,-24.414,-39.062,0.000,0
182507.149,-2.930,-14.160,-16.602,-14.648,0.000,0
182507.153,-2.930,-20.996,-33.203,-16.602,0.000,0
182507.157,-2.930,-29.785,-40.527,-6.836,0.000,0
182507.161,-11.230,-31.250,-37.109,-7.324,0.000,0
182507.165,-6.836,-24.414,-28.320,-14.648,0.000,0
182507.169,1.465,-22.949,-20.996,4.395,0.000,0
182507.173,-4.883,-28.809,-21.484,-2.441,0.000,0
182507.177,-9.766,-18.066,-15.137,-10.742,0.000,0
182507.181,-12.695,-19.043,-26.367,-7.324,0.000,0
182507.185,-2.441,-22.461,-37.598,-5.371,0.000,0
182507.188,17.578,-14.648,-15.625,8.301,0.000,0
182507.192,-5.371,-39.062,-26.367,-7.812,0.000,0
182507.196,-21.973,-32.715,-26.367,-14.160,0.000,0
182507.200,-22.949,-33.203,-29.297,-13.672,0.000,0
182507.204,-26.367,-50.781,-42.969,-29.297,0.000,0
182507.208,-13.672,-36.621,-32.715,-20.508,0.000,0
182507.212,-5.859,-25.879,-26.855,-19.531,0.000,0
182507.216,-9.766,-30.762,-28.320,-17.578,0.000,0
182507.220,2.930,-24.414,-20.996,-6.348,0.000,0
182507.224,3.418,-18.555,-22.949,-17.578,0.000,0
182507.227,-26.367,-31.738,-38.086,-46.387,0.000,0
182507.231,-26.367,-38.574,-47.363,-41.992,0.000,0
182507.235,-10.742,-34.668,-48.340,-9.277,0.000,0
182507.239,6.348,-19.043,-18.066,-1.465,0.000,0
182507.243,11.719,-4.395,-7.812,-6.836,0.000,0
182507.247,-7.812,-16.602,-37.109,-27.344,0.000,0
182507.251,-14.648,-29.785,-37.598,-45.898,0.000,0
182507.255,-8.301,-32.227,-22.461,-39.551,0.000,0
182507.259,-7.812,-32.715,-29.785,-27.344,0.000,0
182507.263,-14.648,-20.996,-33.203,-31.738,0.000,0
182507.267,0.000,-11.230,-17.578,-30.762,0.000,0
182507.270,-6.348,-19.043,-32.227,-18.066,0.000,0
182507.274,-14.648,-19.043,-30.762,-25.879,0.000,0
182507.278,-12.695,-19.043,-16.113,-33.203,0.000,0
182507.282,-27.344,-31.250,-33.203,-46.387,0.000,0
182507.286,-31.250,-33.691,-38.086,-40.039,0.000,0
182507.290,-20.508,-28.809,-29.785,-28.320,0.000,0
182507.294,-22.949,-29.297,-31.738,-41.016,0.000,0
182507.298,-23.926,-30.273,-35.156,-46.387,0.000,0
182507.302,-6.348,-23.926,-20.996,-28.320,0.000,0
182507.306,0.977,-20.996,-24.902,-16.113,0.000,0
182507.310,-4.883,-20.020,-35.156,-18.066,0.000,0
182507.313,-6.836,-19.043,-33.203,-22.461,0.000,0
182507.317,4.395,-13.672,-22.461,-11.230,0.000,0
182507.321,-5.859,-22.949,-25.879,-18.555,0.000,0
182507.325,-13.184,-28.809,-32.227,-31.738,0.000,0
182507.329,-17.090,-34.668,-34.180,-42.480,0.000,0
182507.333,-13.672,-27.832,-33.203,-33.203,0.000,0
182507.337,8.789,-20.020,-24.902,-6.348,0.000,0
182507.341,-2.930,-38.086,-28.809,-26.855,0.000,0
182507.345,-15.137,-38.086,-33.691,-43.457,0.000,0
182507.349,-20.996,-40.039,-39.551,-41.504,0.000,0
182507.352,-23.926,-49.805,-48.340,-41.504,0.000,0
182507.356,-31.250,-46.875,-42.480,-32.227,0.000,0
182507.360,-28.320,-31.250,-21.973,-32.715,0.000,0
182507.364,-6.348,-18.066,-16.113,-22.949,0.000,0
182507.368,-12.695,-23.926,-23.926,-18.555,0.000,0
182507.372,-21.973,-35.156,-26.367,-24.902,0.000,0
182507.376,-20.508,-38.086,-45.898,-37.598,0.000,0
182507.380,-33.203,-39.062,-47.852,-60.547,0.000,0
182507.384,-32.227,-31.250,-26.855,-46.387,0.000,0
182507.388,-25.391,-29.785,-27.344,-24.414,0.000,0
182507.392,-26.367,-26.367,-25.879,-28.809,0.000,0
182507.395,-12.695,-13.184,-14.160,-21.484,0.000,0
182507.399,-19.043,-25.879,-24.902,-27.344,0.000,1
182507.403,-26.367,-40.527,-47.852,-37.109,0.000,0
182507.407,-7.324,-33.203,-32.227,-21.484,0.000,0
182507.411,1.465,-26.367,-15.625,-16.602,0.000,0
182507.415,-6.836,-33.203,-27.832,-32.715,0.000,0
182507.419,-2.441,-35.156,-34.180,-31.738,0.000,0
182507.423,23.926,-13.184,-8.301,3.906,0.000,0
182507.427,22.949,-5.859,6.348,2.930,0.000,0
182507.431,-0.488,-29.785,-15.625,-34.668,0.000,0
182507.435,-8.301,-36.133,-38.574,-29.297,0.000,0
182507.438,-4.395,-27.832,-27.832,-13.672,0.000,0
182507.442,-10.742,-37.598,-31.738,-39.551,0.000,0
182507.446,-6.836,-31.250,-30.273,-41.016,0.000,0
182507.450,18.066,-13.184,-11.719,-10.742,0.000,0
182507.454,24.414,-14.160,-18.066,-6.348,0.000,0
182507.458,13.184,-22.949,-21.484,-17.090,0.000,0
182507.462,0.000,-29.785,-21.484,-34.668,0.000,0
182507.466,-0.977,-22.461,-24.902,-22.461,0.000,0
182507.470,18.555,-6.348,-8.301,4.883,0.000,0
182507.474,12.695,-13.184,-13.672,8.789,0.000,0
182507.477,-10.254,-21.484,-31.250,-5.859,0.000,0
182507.481,-7.324,-8.301,-10.254,-9.277,0.000,0
182507.485,0.977,-8.789,-7.812,4.883,0.000,0
182507.489,-12.695,-20.996,-22.461,3.906,0.000,0
182507.493,-21.973,-23.438,-20.020,1.465,0.000,0
182507.497,-27.344,-26.367,-23.438,-14.648,0.000,0
182507.501,-14.160,-16.113,-20.508,-17.578,0.000,0
182507.505,-5.371,-14.648,-30.762,-13.184,0.000,0
182507.509,-10.742,-20.508,-43.457,-16.602,0.000,0
182507.513,-8.301,-12.695,-22.949,-21.484,0.000,0
182507.517,8.301,-2.441,-5.371,-16.113,0.000,0
182507.520,4.395,-13.672,-16.602,-8.789,0.000,0
182507.524,-3.418,-14.648,-15.625,-7.324,0.000,0
182507.528,8.789,0.000,-0.488,-1.465,0.000,0
182507.532,3.418,-6.348,-14.160,-13.672,0.000,0
182507.536,4.395,-20.020,-32.715,-25.879,0.000,0
182507.540,2.930,-27.344,-31.738,-29.297,0.000,0
182507.544,-9.766,-25.879,-25.391,-38.574,0.000,0
182507.548,0.000,-10.742,-14.648,-21.973,0.000,0
182507.552,17.578,-1.465,-7.812,6.836,0.000,0
182507.556,23.438,-10.742,-16.113,7.324,0.000,0
182507.560,-0.488,-20.508,-28.320,-11.719,0.000,0
182507.563,-28.320,-29.297,-33.203,-34.668,0.000,0
182507.567,-20.508,-20.020,-21.973,-21.484,0.000,0
182507.571,-9.766,-12.207,-13.672,-9.766,0.000,0
182507.575,-16.113,-14.160,-14.160,-26.855,0.000,0
182507.579,-15.625,-14.648,-20.996,-31.738,0.000,0
182507.583,-6.836,-13.672,-22.949,-28.809,0.000,0
182507.587,-6.836,-17.578,-27.832,-25.879,0.000,0
182507.591,3.418,-16.602,-26.367,-15.625,0.000,0
182507.595,-9.277,-20.508,-29.785,-37.109,0.000,0
182507.599,-21.484,-29.297,-37.109,-61.035,0.000,0
182507.602,-4.395,-24.414,-22.949,-41.016,0.000,0
182507.606,5.371,-8.789,-7.324,-38.574,0.000,0
182507.610,17.090,6.836,3.906,-20.508,0.000,0
182507.614,10.742,-4.395,-2.930,-6.348,0.000,0
182507.618,-2.441,-20.508,-21.973,-18.066,0.000,0
182507.622,-16.602,-28.320,-47.363,-27.344,0.000,0
182507.626,-24.414,-22.949,-37.109,-31.250,0.000,0
182507.630,-29.785,-21.484,-21.484,-24.902,0.000,0
182507.634,-26.367,-29.785,-32.227,-17.090,0.000,0
182507.638,-28.809,-35.156,-28.809,-22.949,0.000,0
182507.642,-38.086,-32.227,-29.297,-34.180,0.000,0
182507.645,-39.551,-29.297,-40.039,-42.969,0.000,0
182507.649,-21.484,-18.555,-27.832,-24.414,0.000,0
182507.653,-13.184,-14.648,-21.484,-16.113,0.000,0
182507.657,-31.250,-28.320,-27.832,-43.945,0.000,0
182507.661,-34.668,-27.832,-39.062,-48.340,0.000,0
182507.665,-25.879,-17.090,-27.832,-39.062,0.000,0
182507.669,-22.461,-23.438,-20.508,-28.320,0.000,0
182507.673,-25.879,-28.320,-31.250,-27.832,0.000,0
182507.677,-27.344,-19.043,-33.203,-42.969,0.000,0
182507.681,-24.902,-19.531,-25.879,-43.945,0.000,0
182507.685,-16.602,-24.902,-20.996,-32.227,0.000,0
182507.688,-12.207,-24.902,-28.320,-19.531,0.000,0
182507.692,-15.137,-18.555,-22.461,-20.020,0.000,0
182507.696,-14.160,-23.438,-19.531,-21.973,0.000,0
182507.700,-25.391,-31.250,-24.902,-10.742,0.000,0
182507.704,-21.973,-29.297,-20.996,1.465,0.000,0
182507.708,-19.043,-31.738,-29.297,-3.906,0.000,0
182507.712,-22.461,-28.320,-29.785,-21.973,0.000,0
182507.716,-12.695,-23.438,-20.996,-23.926,0.000,0
182507.720,-3.906,-24.414,-20.508,-14.160,0.000,0
182507.724,1.953,-18.555,-17.090,-1.953,0.000,0
182507.727,-4.883,-16.113,-15.137,-8.789,0.000,0
182507.731,-10.254,-26.367,-18.066,-18.066,0.000,0
182507.735,4.395,-28.320,-25.879,-7.324,0.000,0
182507.739,-5.859,-21.973,-35.156,-6.836,0.000,0
182507.743,-6.836,-22.949,-35.156,-22.949,0.000,0
182507.747,6.836,-16.113,-22.949,-14.648,0.000,0
182507.751,-3.906,-21.484,-22.949,-7.812,0.000,0
182507.755,-6.348,-26.367,-20.996,-23.438,0.000,0
182507.759,0.977,-19.043,-10.742,-21.973,0.000,0
182507.763,-8.789,-23.438,-20.020,-32.227,0.000,0
182507.767,-10.254,-18.066,-18.066,-28.809,0.000,0
182507.770,2.441,-13.184,-3.906,-3.418,0.000,0
182507.774,-14.648,-34.180,-23.926,-22.949,0.000,0
182507.778,-38.086,-45.898,-44.922,-45.410,0.000,0
182507.782,-37.598,-42.480,-41.992,-43.945,0.000,0
182507.786,-25.879,-33.691,-33.203,-23.926,0.000,0
182507.790,-21.484,-27.344,-36.133,-16.602,0.000,0
182507.794,-27.344,-23.438,-34.668,-35.645,0.000,0
182507.798,-25.879,-26.367,-32.715,-26.367,0.000,0
182507.802,-9.277,-31.250,-30.762,-3.906,0.000,0
182507.806,-0.977,-23.926,-20.996,7.812,0.000,0
182507.810,-23.438,-18.066,-14.160,-14.648,0.000,0
182507.813,-33.691,-24.414,-19.043,-29.297,0.000,0
182507.817,-23.926,-29.297,-21.484,-11.230,0.000,0
182507.821,-20.508,-31.738,-24.902,-11.230,0.000,0
182507.825,-18.066,-28.320,-24.902,-15.137,0.000,0
182507.829,-15.137,-26.855,-25.879,-17.090,0.000,0
182507.833,-10.254,-32.227,-25.879,-21.973,0.000,0
182507.837,-6.836,-20.996,-23.438,-9.277,0.000,0
182507.841,0.488,-10.254,-23.926,7.812,0.000,0
182507.845,-9.277,-20.508,-27.832,-17.090,0.000,0
182507.849,-16.113,-27.344,-35.156,-25.391,0.000,0
182507.852,-8.789,-29.785,-26.855,-17.090,0.000,0
182507.856,-8.789,-27.832,-22.949,-22.949,0.000,0
182507.860,-7.324,-21.484,-16.113,-19.531,0.000,0
182507.864,-5.859,-24.414,-16.113,-11.719,0.000,0
182507.868,-0.488,-24.414,-21.973,-7.812,0.000,0
182507.872,-6.348,-31.250,-38.086,-8.789,0.000,0
182507.876,-8.301,-32.715,-39.551,-13.672,0.000,0
182507.880,12.207,-5.371,-14.160,0.000,0.000,0
182507.884,37.109,7.324,-3.418,24.902,0.000,0
182507.888,22.949,-13.672,-20.020,14.160,0.000,0
182507.892,-8.789,-27.832,-30.762,-7.324,0.000,0
182507.895,-25.879,-32.715,-30.762,-13.184,0.000,0
182507.899,-31.250,-37.598,-40.527,-28.809,0.000,0
182507.903,-14.648,-28.320,-32.715,-20.996,0.000,0
182507.907,-11.230,-28.320,-23.926,-9.277,0.000,0
182507.911,-22.461,-29.785,-28.320,-23.926,0.000,0
182507.915,-20.020,-32.715,-46.875,-26.367,0.000,0
182507.919,-18.066,-36.133,-56.641,-22.949,0.000,0
182507.923,-20.020,-35.156,-41.992,-24.902,0.000,0
182507.927,-18.066,-31.738,-28.320,-29.785,0.000,0
182507.931,-16.113,-31.738,-28.320,-28.320,0.000,0
182507.935,-6.348,-32.227,-29.785,-16.113,0.000,0
182507.938,4.883,-21.973,-25.879,-4.395,0.000,0
182507.942,-0.977,-23.438,-27.832,-12.695,0.000,0
182507.946,-8.301,-22.949,-28.320,-29.297,0.000,0
182507.950,5.859,-19.043,-27.832,-16.113,0.000,0
182507.954,10.254,-24.902,-51.270,-6.348,0.000,0
182507.958,-1.953,-20.020,-49.316,-21.484,0.000,0
182507.962,10.742,-4.883,-8.789,-3.906,0.000,0
182507.966,3.906,-19.531,-9.766,-1.465,0.000,0
182507.970,-5.371,-34.180,-22.949,-15.137,0.000,0
182507.974,-5.859,-30.762,-26.367,-29.297,0.000,0
182507.977,-26.367,-39.551,-43.457,-44.434,0.000,0
182507.981,-26.367,-39.551,-44.922,-33.203,0.000,0
182507.985,-7.812,-28.320,-37.109,-13.672,0.000,0
182507.989,-5.859,-28.809,-38.086,-30.273,0.000,0
182507.993,-10.254,-29.297,-28.809,-50.293,0.000,0
182507.997,-2.441,-19.531,-18.066,-31.250,0.000,0
182508.001,3.906,-16.113,-23.438,-15.137,0.000,0
182508.005,3.418,-17.090,-16.113,-11.230,0.000,0
182508.009,-4.883,-26.855,-17.090,-27.832,0.000,0
182508.013,-13.672,-34.668,-32.715,-45.898,0.000,0
182508.017,-14.648,-29.297,-39.551,-21.973,0.000,0
182508.020,-5.859,-27.832,-45.410,-5.859,0.000,0
182508.024,-7.324,-21.484,-33.691,-26.367,0.000,0
182508.028,-11.230,-17.090,-17.578,-24.902,0.000,0
182508.032,-6.348,-25.391,-29.297,-18.555,0.000,0
182508.036,1.953,-23.926,-29.297,-8.789,0.000,0
182508.040,-7.812,-27.832,-27.832,-11.719,0.000,0
182508.044,-21.973,-29.785,-36.621,-25.391,0.000,0
182508.048,-13.184,-26.367,-31.250,-23.926,0.000,0
182508.052,-10.742,-31.738,-33.691,-23.926,0.000,0
182508.056,-7.324,-28.320,-38.086,-12.207,0.000,0
182508.060,-9.766,-23.438,-38.574,-18.066,0.000,0
182508.063,-23.438,-26.367,-36.133,-32.227,0.000,0
182508.067,-6.836,-22.461,-16.602,-6.348,0.000,0
182508.071,1.465,-26.367,-17.578,-5.371,0.000,0
182508.075,-23.926,-40.039,-42.969,-35.645,0.000,0
182508.079,-21.973,-37.109,-39.062,-29.785,0.000,0
182508.083,4.883,-20.508,-24.414,-6.836,0.000,0
182508.087,-5.371,-29.297,-41.016,-18.555,0.000,0
182508.091,-16.113,-40.039,-47.363,-38.574,0.000,0
182508.095,-9.277,-24.902,-26.855,-28.809,0.000,0
182508.099,-5.371,-20.996,-16.602,-21.973,0.000,0
182508.102,-0.977,-21.484,-17.090,-17.578,0.000,0
182508.106,-15.137,-13.672,-20.508,-14.160,0.000,1
182508.110,-34.668,-15.625,-31.738,-37.598,0.000,0
182508.114,-31.738,-14.648,-39.062,-38.086,0.000,0
182508.118,-19.043,-10.742,-30.273,-11.230,0.000,0
182508.122,-27.344,-19.531,-26.855,-14.160,0.000,0
182508.126,-33.691,-26.367,-35.156,-33.691,0.000,0
182508.130,-32.227,-28.809,-36.133,-42.969,0.000,0
182508.134,-20.020,-25.879,-39.551,-36.621,0.000,0
182508.138,2.441,-14.648,-25.391,-19.043,0.000,0
182508.142,-13.184,-19.043,-15.625,-28.809,0.000,0
182508.145,-26.855,-28.320,-25.879,-44.434,0.000,0
182508.149,-7.324,-21.973,-31.250,-38.086,0.000,0
182508.153,6.348,-19.531,-35.645,-34.180,0.000,0
182508.157,9.277,-13.672,-20.020,-21.973,0.000,0
182508.161,-11.230,-22.949,-27.344,-37.109,0.000,0
182508.165,-25.391,-39.062,-39.062,-47.363,0.000,0
182508.169,-16.113,-34.668,-25.391,-32.715,0.000,0
182508.173,-10.254,-31.250,-21.973,-25.879,0.000,0
182508.177,-7.812,-25.879,-19.043,-15.137,0.000,0
182508.181,-8.789,-22.461,-14.160,-17.090,0.000,0
182508.185,-9.277,-26.367,-20.508,-13.672,0.000,0
182508.188,-22.461,-34.668,-31.250,-21.973,0.000,0
182508.192,-34.668,-39.551,-32.227,-32.227,0.000,0
182508.196,-41.992,-42.969,-38.574,-26.367,0.000,0
182508.200,-33.691,-38.574,-21.484,-14.160,0.000,0
182508.204,-24.414,-31.250,-8.789,-15.137,0.000,0
182508.208,-32.227,-27.832,-10.254,-29.785,0.000,0
182508.212,-27.344,-14.648,-0.977,-28.809,0.000,0
182508.216,-22.949,-20.508,-12.207,-27.832,0.000,0
182508.220,-28.320,-38.086,-33.203,-30.273,0.000,0
182508.224,-14.648,-26.855,-19.531,-27.344,0.000,0
182508.227,-21.973,-29.785,-14.160,-38.086,0.000,0
182508.231,-27.344,-38.574,-25.879,-40.527,0.000,0
182508.235,-24.414,-39.551,-45.410,-44.922,0.000,0
182508.239,-24.902,-34.180,-36.621,-41.016,0.000,0
182508.243,-19.531,-20.508,-8.789,-26.855,0.000,0
182508.247,-14.648,-20.020,-13.672,-30.273,0.000,0
182508.251,-15.137,-29.297,-26.855,-37.598,0.000,0
182508.255,-12.695,-27.832,-28.809,-22.949,0.000,0
182508.259,-24.902,-27.344,-41.016,-32.715,0.000,0
182508.263,-33.203,-31.738,-40.527,-44.434,0.000,0
182508.267,-20.020,-27.832,-19.531,-25.391,0.000,0
182508.270,-7.812,-21.973,-31.738,-17.090,0.000,0
182508.274,-10.742,-19.531,-33.203,-31.250,0.000,0
182508.278,-29.297,-23.926,-30.273,-51.758,0.000,0
182508.282,-43.457,-34.668,-31.250,-53.223,0.000,0
182508.286,-32.227,-35.156,-24.902,-45.898,0.000,0
182508.290,-28.809,-26.855,-28.320,-51.758,0.000,0
182508.294,-26.855,-21.484,-26.855,-44.922,0.000,0
182508.298,-19.531,-21.973,-22.949,-30.273,0.000,0
182508.302,-13.672,-21.973,-20.996,-17.090,0.000,0
182508.306,-1.465,-17.090,-24.414,-7.324,0.000,0
182508.310,-16.602,-20.020,-33.691,-26.367,0.000,0
182508.313,-16.113,-16.602,-29.297,-20.508,0.000,0
182508.317,2.930,-20.020,-20.996,3.906,0.000,0
182508.321,-15.137,-40.039,-29.785,-7.324,0.000,0
182508.325,-32.715,-43.945,-32.715,-38.574,0.000,0
182508.329,-30.273,-39.062,-32.715,-49.805,0.000,0
182508.333,-23.438,-38.574,-44.434,-31.250,0.000,0
182508.337,-7.812,-32.227,-49.316,-22.461,0.000,0
182508.341,-3.418,-29.297,-37.598,-27.344,0.000,0
182508.345,-15.625,-37.598,-32.715,-44.434,0.000,0
182508.349,-12.695,-28.320,-19.531,-37.109,0.000,0
182508.352,3.418,-18.066,-5.859,-7.324,0.000,0
182508.356,-4.395,-24.902,-13.184,-16.113,0.000,0
182508.360,-28.320,-27.344,-21.973,-41.504,0.000,0
182508.364,-17.578,-18.066,-18.066,-33.203,0.000,0
182508.368,-4.395,-18.555,-22.461,-17.578,0.000,0
182508.372,-20.020,-22.949,-31.250,-20.020,0.000,0
182508.376,-30.273,-32.715,-41.016,-37.598,0.000,0
182508.380,-29.297,-34.180,-36.133,-43.457,0.000,0
182508.384,-20.508,-24.902,-17.578,-29.785,0.000,0
182508.388,-22.949,-25.391,-21.973,-22.949,0.000,0
182508.392,-25.879,-19.531,-19.043,-24.414,0.000,0
182508.395,-34.668,-27.344,-23.926,-43.457,0.000,0
182508.399,-38.086,-40.039,-31.250,-42.969,0.000,0
182508.403,-33.203,-35.645,-28.320,-33.203,0.000,0
182508.407,-35.645,-24.902,-19.043,-34.180,0.000,0
182508.411,-30.273,-19.531,-15.625,-32.227,0.000,0
182508.415,-20.996,-21.973,-27.832,-30.762,0.000,0
182508.419,-3.906,-13.184,-19.043,-12.207,0.000,0
182508.423,16.113,-3.906,-4.395,-3.418,0.000,0
182508.427,-8.789,-14.648,-9.277,-29.297,0.000,0
182508.431,-21.484,-21.973,-15.137,-27.832,0.000,0
182508.435,-0.977,-13.672,-21.484,-9.277,0.000,0
182508.438,-3.906,-15.137,-22.949,-15.625,0.000,0
182508.442,-18.066,-21.973,-20.508,-27.832,0.000,0
182508.446,-11.230,-14.648,-18.066,-20.996,0.000,0
182508.450,-2.441,-15.625,-24.902,-11.719,0.000,0
182508.454,-8.301,-34.668,-29.785,-25.879,0.000,0
182508.458,-16.113,-42.480,-37.598,-40.039,0.000,0
182508.462,-20.020,-32.227,-31.738,-36.133,0.000,0
182508.466,-10.742,-22.461,-12.207,-22.949,0.000,0
182508.470,-2.441,-19.043,-13.672,-1.953,0.000,0
182508.474,-6.836,-23.926,-26.855,-5.371,0.000,0
182508.477,-12.207,-23.926,-25.391,-24.902,0.000,0
182508.481,-2.441,-16.113,-10.742,-15.137,0.000,0
182508.485,0.977,-20.020,-14.648,-11.719,0.000,0
182508.489,-4.395,-26.855,-34.668,-6.836,0.000,0
182508.493,-7.812,-25.391,-23.438,-12.695,0.000,0
182508.497,-17.578,-28.809,-17.090,-31.250,0.000,0
182508.501,-7.812,-25.391,-26.855,-15.137,0.000,0
182508.505,4.883,-11.230,-13.184,-7.324,0.000,0
182508.509,1.953,-6.348,-7.812,-15.137,0.000,0
182508.513,-9.766,-22.949,-25.391,-29.785,0.000,0
182508.517,-7.324,-27.344,-30.762,-34.668,0.000,0
182508.520,-6.348,-24.902,-30.762,-26.367,0.000,0
182508.524,-21.484,-29.297,-35.645,-36.621,0.000,0
182508.528,-27.344,-29.785,-31.250,-48.828,0.000,0
182508.532,-16.113,-23.926,-22.949,-30.273,0.000,0
182508.536,-6.836,-18.555,-22.949,-2.930,0.000,0
182508.540,6.348,-2.441,-3.906,4.395,0.000,0
182508.544,-12.695,-18.066,-17.090,-23.438,0.000,0
182508.548,-18.555,-32.715,-42.969,-29.297,0.000,0
182508.552,-6.348,-27.832,-41.016,-24.414,0.000,0
182508.556,-11.719,-29.297,-40.039,-24.414,0.000,0
182508.560,-14.160,-31.738,-41.992,-28.320,0.000,0
182508.563,-14.648,-27.344,-37.598,-36.133,0.000,0
182508.567,-10.254,-25.391,-33.203,-27.344,0.000,0
182508.571,8.301,-15.137,-21.484,-12.695,0.000,0
182508.575,4.883,-14.648,-20.020,-13.184,0.000,0
182508.579,0.488,-19.531,-33.203,-20.020,0.000,0
182508.583,9.766,-20.020,-25.879,-18.066,0.000,0
182508.587,4.883,-31.250,-19.531,-16.113,0.000,0
182508.591,-8.789,-45.410,-35.156,-35.156,0.000,0
182508.595,-18.555,-44.922,-37.109,-48.340,0.000,0
182508.599,-10.742,-34.668,-24.414,-37.109,0.000,0
182508.602,17.090,-18.066,-11.719,3.418,0.000,0
182508.606,18.555,-11.719,-8.789,10.742,0.000,0
182508.610,0.488,-17.578,-19.043,-11.719,0.000,0
182508.614,-6.836,-31.738,-46.875,-14.648,0.000,0
182508.618,-9.277,-47.363,-59.082,-11.230,0.000,0
182508.622,-16.602,-48.828,-38.086,-25.879,0.000,0
182508.626,-24.902,-37.598,-24.902,-46.387,0.000,0
182508.630,-20.020,-30.762,-28.809,-43.945,0.000,0
182508.634,-13.184,-22.949,-25.879,-28.320,0.000,1
182508.638,-5.371,-6.836,-18.066,-11.230,0.000,0
182508.642,-5.371,-13.184,-14.648,-19.531,0.000,0
182508.645,-17.090,-25.391,-27.832,-37.598,0.000,0
182508.649,-6.836,-24.414,-43.457,-23.438,0.000,0
182508.653,-4.395,-30.273,-37.598,-13.672,0.000,0
182508.657,-23.926,-35.156,-36.621,-25.879,0.000,0
182508.661,-15.625,-16.602,-19.531,-18.066,0.000,0
182508.665,4.395,-6.348,0.000,-1.465,0.000,0
182508.669,4.883,-18.066,-13.672,5.371,0.000,0
182508.673,-12.207,-37.109,-43.457,-11.230,0.000,0
182508.677,-19.043,-44.434,-48.828,-31.250,0.000,0
182508.681,-13.672,-36.621,-40.039,-32.715,0.000,0
182508.685,-16.602,-32.715,-34.668,-18.066,0.000,0
182508.688,1.465,-19.043,-21.484,7.812,0.000,0
182508.692,-3.418,-13.184,-25.879,-4.395,0.000,0
182508.696,-15.137,-12.207,-22.461,-29.297,0.000,0
182508.700,6.836,0.488,-8.301,-10.742,0.000,0
182508.704,5.859,-7.812,-18.066,-5.371,0.000,0
182508.708,-11.230,-20.996,-17.090,-27.832,0.000,0
182508.712,-21.973,-23.926,-21.973,-44.434,0.000,0
182508.716,-31.738,-35.156,-32.715,-43.945,0.000,0
182508.720,-25.879,-31.250,-33.691,-33.203,0.000,0
182508.724,-31.738,-25.391,-38.086,-35.645,0.000,0
182508.727,-43.945,-22.461,-40.527,-46.387,0.000,0
182508.731,-21.484,-6.836,-18.066,-30.762,0.000,0
182508.735,-10.254,-10.254,-25.391,-13.184,0.000,0
182508.739,-16.602,-22.461,-46.875,-25.391,0.000,0
182508.743,-10.742,-19.043,-22.461,-35.645,0.000,0
182508.747,-8.301,-26.367,-24.414,-17.578,0.000,0
182508.751,-13.184,-40.527,-39.062,-19.043,0.000,0
182508.755,-16.113,-42.480,-43.945,-32.227,0.000,0
182508.759,-23.926,-42.969,-42.969,-42.480,0.000,0
182508.763,-24.414,-36.133,-33.203,-41.504,0.000,0
182508.767,3.906,-14.160,-12.695,-6.348,0.000,0
182508.770,8.789,-7.812,-12.695,-4.883,0.000,0
182508.774,-15.137,-25.391,-35.156,-20.508,0.000,0
182508.778,-21.973,-38.086,-37.109,-24.414,0.000,0
182508.782,-11.719,-37.598,-32.227,-27.344,0.000,0
182508.786,-3.906,-33.203,-30.762,-15.625,0.000,0
182508.790,-6.348,-19.043,-13.672,-6.836,0.000,0
182508.794,-1.465,-6.348,-5.859,-7.324,0.000,0
182508.798,-3.418,-19.531,-28.320,-20.996,0.000,0
182508.802,-6.836,-29.297,-29.785,-22.949,0.000,0
182508.806,-11.230,-28.809,-22.949,-26.367,0.000,0
182508.810,-7.812,-27.344,-25.391,-25.879,0.000,0
182508.813,0.977,-26.367,-27.344,-17.578,0.000,0
182508.817,1.465,-28.320,-27.344,-16.113,0.000,0
182508.821,-12.695,-27.832,-27.832,-19.043,0.000,0
182508.825,-15.625,-20.996,-25.391,-20.508,0.000,0
182508.829,7.812,-11.230,-2.930,-4.883,0.000,0
182508.833,10.254,-10.742,-8.789,-4.395,0.000,0
182508.837,-21.484,-27.832,-52.734,-31.738,0.000,0
182508.841,-33.203,-34.180,-39.551,-44.922,0.000,0
182508.845,-22.949,-36.133,-20.996,-38.086,0.000,0
182508.849,-13.184,-31.250,-21.484,-25.391,0.000,0
182508.852,-10.742,-18.066,-15.625,-18.066,0.000,0
182508.856,-15.625,-15.137,-10.742,-26.855,0.000,0
182508.860,-29.785,-23.926,-22.949,-38.574,0.000,0
182508.864,-32.715,-30.762,-37.598,-24.414,0.000,0
182508.868,-8.301,-10.742,-17.578,0.000,0.000,0
182508.872,0.488,-4.883,-14.160,0.000,0.000,0
182508.876,-20.020,-20.020,-31.738,-20.020,0.000,0
182508.880,-6.836,-20.996,-27.832,-11.230,0.000,0
182508.884,5.859,-21.484,-31.250,-0.977,0.000,0
182508.888,-3.418,-22.461,-29.785,4.883,0.000,0
182508.892,-7.812,-22.461,-31.250,-0.977,0.000,0
182508.895,-0.488,-16.602,-26.367,-5.859,0.000,0
182508.899,-2.441,-21.973,-34.668,-4.395,0.000,0
182508.903,-18.555,-31.738,-44.922,-28.809,0.000,0
182508.907,-21.484,-17.090,-28.320,-32.227,0.000,0
182508.911,-15.137,-8.301,-27.832,-20.508,0.000,0
182508.915,-6.836,-8.301,-27.832,-13.672,0.000,0
182508.919,-7.324,-5.371,-26.855,-9.277,0.000,0
182508.923,-21.973,-12.695,-29.785,-24.414,0.000,0
182508.927,-20.508,-6.836,-21.484,-22.461,0.000,0
182508.931,-16.602,-8.789,-16.602,-17.090,0.000,0
182508.935,-22.461,-23.926,-40.527,-16.602,0.000,0
182508.938,-32.715,-31.738,-47.852,-35.645,0.000,0
182508.942,-33.203,-26.367,-38.086,-44.922,0.000,0
182508.946,-20.020,-12.207,-28.809,-15.625,0.000,0
182508.950,-21.973,-16.602,-25.391,4.883,0.000,0
182508.954,-37.598,-30.273,-38.086,-18.555,0.000,0
182508.958,-45.898,-34.180,-36.621,-41.504,0.000,0
182508.962,-37.598,-31.738,-33.203,-22.461,0.000,0
182508.966,-21.484,-27.344,-34.180,-13.672,0.000,0
182508.970,-4.395,-23.438,-32.227,-24.902,0.000,0
182508.974,-2.930,-20.996,-30.273,-28.809,0.000,0
182508.977,-11.230,-25.879,-23.438,-27.344,0.000,0
182508.981,-5.371,-30.762,-23.926,-19.531,0.000,0
182508.985,-11.719,-29.297,-30.762,-27.344,0.000,0
182508.989,-20.996,-27.344,-28.809,-38.574,0.000,0
182508.993,-17.090,-24.902,-22.461,-35.156,0.000,0
182508.997,-11.230,-20.996,-17.090,-23.438,0.000,0
182509.001,-16.113,-26.855,-27.832,-19.043,0.000,0
182509.005,-35.645,-33.691,-41.504,-40.039,0.000,0
182509.009,-38.574,-27.832,-39.062,-52.246,0.000,0
182509.013,-26.855,-20.508,-23.926,-24.414,0.000,0
182509.017,-28.809,-29.785,-32.715,-27.832,0.000,0
182509.020,-35.156,-32.715,-41.016,-48.828,0.000,0
182509.024,-24.902,-19.531,-21.484,-38.086,0.000,0
182509.028,-24.902,-28.320,-14.648,-28.320,0.000,0
182509.032,-28.320,-39.062,-23.438,-29.297,0.000,0
182509.036,-21.973,-32.715,-31.738,-29.785,0.000,0
182509.040,-30.273,-31.738,-38.086,-44.922,0.000,0
182509.044,-34.180,-32.715,-32.227,-48.340,0.000,0
182509.048,-13.184,-20.508,-26.367,-18.066,0.000,0
182509.052,-0.488,-12.695,-20.996,-5.371,0.000,0
182509.056,-0.977,-11.230,-4.883,-17.578,0.000,0
182509.060,-11.230,-8.301,1.465,-20.996,0.000,0
182509.063,-28.320,-17.578,-6.348,-19.531,0.000,0
182509.067,-34.180,-31.250,-28.320,-24.902,0.000,0
182509.071,-40.527,-30.273,-30.273,-37.598,0.000,0
182509.075,-41.992,-26.855,-26.855,-41.992,0.000,0
182509.079,-43.945,-27.832,-34.180,-27.344,0.000,0
182509.083,-22.949,-16.113,-22.461,-4.395,0.000,0
182509.087,-25.391,-18.555,-20.996,-7.324,0.000,0
182509.091,-51.758,-30.273,-40.527,-34.668,0.000,0
182509.095,-46.875,-32.715,-38.574,-38.574,0.000,0
182509.099,-29.785,-22.461,-25.879,-14.648,0.000,0
182509.102,-25.879,-19.043,-27.344,-7.324,0.000,0
182509.106,-37.598,-26.367,-29.297,-35.156,0.000,0
182509.110,-39.062,-30.762,-24.414,-34.180,0.000,0
182509.114,-12.695,-23.438,-15.625,-2.441,0.000,0
182509.118,-2.441,-15.137,-10.742,3.906,0.000,0
182509.122,-20.996,-29.785,-30.273,-17.090,0.000,0
182509.126,-29.297,-37.109,-31.738,-29.785,0.000,0
182509.130,-15.625,-33.691,-21.484,-15.137,0.000,0
182509.134,-13.672,-30.273,-16.602,-16.113,0.000,0
182509.138,-23.438,-26.855,-23.438,-14.648,0.000,0
182509.142,-22.949,-20.996,-27.832,-15.137,0.000,0
182509.145,-17.578,-15.137,-22.461,-19.043,0.000,0
182509.149,-24.414,-20.020,-20.508,-15.625,0.000,0
182509.153,-34.668,-27.832,-28.320,-26.367,0.000,0
182509.157,-28.809,-18.555,-25.391,-34.668,0.000,0
182509.161,-11.230,-7.324,-16.602,-22.949,0.000,0
182509.165,-9.766,-13.672,-22.461,-13.672,0.000,0
182509.169,-29.785,-28.320,-31.250,-26.855,0.000,0
182509.173,-41.504,-28.320,-33.691,-52.734,0.000,0
182509.177,-19.043,-12.207,-17.090,-34.180,0.000,0
182509.181,-7.324,-21.484,-27.344,-14.648,0.000,0
182509.185,-20.996,-35.645,-37.598,-34.180,0.000,0
182509.188,-23.926,-28.320,-20.508,-29.785,0.000,0
182509.192,-34.180,-30.762,-27.832,-40.527,0.000,1
182509.196,-34.668,-35.645,-33.203,-46.387,0.000,0
182509.200,-24.414,-36.133,-36.133,-33.691,0.000,0
182509.204,-27.344,-34.180,-52.734,-31.250,0.000,0
182509.208,-36.133,-27.832,-39.551,-37.109,0.000,0
182509.212,-31.250,-22.461,-17.578,-31.250,0.000,0
182509.216,-15.625,-20.508,-22.461,-5.371,0.000,0
182509.220,-25.391,-23.438,-31.738,-24.902,0.000,0
182509.224,-20.020,-15.625,-21.973,-40.527,0.000,0
182509.227,9.277,2.930,3.418,-3.906,0.000,0
182509.231,-5.371,-18.555,-16.602,-17.090,0.000,0
182509.235,-18.066,-33.203,-39.551,-40.527,0.000,0
182509.239,-7.812,-25.879,-37.109,-40.039,0.000,0
182509.243,-23.438,-32.715,-48.340,-45.898,0.000,0
182509.247,-22.949,-27.832,-39.062,-36.133,0.000,0
182509.251,-4.395,-16.113,-22.949,-29.785,0.000,0
182509.255,-10.742,-14.160,-27.344,-36.621,0.000,0
182509.259,-18.555,-11.230,-30.273,-40.527,0.000,0
182509.263,4.883,0.000,-13.184,-14.160,0.000,0
182509.267,3.418,-8.789,-13.672,-8.789,0.000,0
182509.270,-20.996,-23.438,-23.926,-35.645,0.000,0
182509.274,-33.203,-25.879,-35.156,-46.875,0.000,0
182509.278,-30.273,-17.090,-41.016,-28.320,0.000,0
182509.282,-26.367,-20.508,-40.527,-18.555,0.000,0
182509.286,-43.457,-28.809,-48.828,-31.250,0.000,0
182509.290,-51.270,-24.902,-40.039,-36.133,0.000,0
182509.294,-27.832,-17.090,-25.879,-24.902,0.000,0
182509.298,-12.695,-17.578,-27.344,-13.672,0.000,0
182509.302,-26.855,-34.668,-28.320,-28.320,0.000,0
182509.306,-30.762,-40.039,-30.762,-40.039,0.000,0
182509.310,-11.230,-28.809,-25.879,-25.879,0.000,0
182509.313,-9.277,-37.598,-29.785,-24.902,0.000,0
182509.317,0.977,-29.785,-28.320,-22.949,0.000,0
182509.321,-10.254,-27.832,-37.109,-26.367,0.000,0
182509.325,-20.508,-33.691,-37.598,-29.785,0.000,0
182509.329,5.859,-17.578,-11.719,-13.672,0.000,0
182509.333,-1.465,-24.902,-18.555,-30.273,0.000,0
182509.337,-24.414,-29.785,-33.203,-49.805,0.000,0
182509.341,-28.320,-30.273,-39.551,-52.734,0.000,0
182509.345,-24.414,-24.902,-31.250,-38.574,0.000,0
182509.349,-11.719,-12.207,-17.578,-21.973,0.000,0
182509.352,-10.742,-22.949,-28.320,-30.273,0.000,0
182509.356,-21.484,-21.484,-23.926,-22.949,0.000,0
182509.360,-37.598,-24.902,-23.926,-28.320,0.000,0
182509.364,-46.387,-30.762,-28.320,-43.945,0.000,0
182509.368,-37.598,-27.344,-29.785,-40.039,0.000,0
182509.372,-35.156,-27.832,-38.086,-38.574,0.000,0
182509.376,-42.480,-23.438,-35.645,-44.922,0.000,0
182509.380,-34.180,-13.672,-20.996,-37.598,0.000,0
182509.384,-26.367,-17.578,-21.484,-26.855,0.000,0
182509.388,-38.086,-27.832,-31.250,-50.781,0.000,0
182509.392,-49.316,-35.645,-42.480,-78.613,0.000,0
182509.395,-30.273,-29.297,-41.504,-48.340,0.000,0
182509.399,-13.184,-24.902,-41.992,-31.250,0.000,0
182509.403,-20.508,-29.297,-38.086,-43.945,0.000,0
182509.407,-23.438,-28.320,-23.438,-50.293,0.000,0
182509.411,-12.695,-18.555,-20.020,-39.062,0.000,0
182509.415,-19.043,-17.090,-26.367,-20.996,0.000,0
182509.419,-31.738,-19.043,-24.414,-17.578,0.000,0
182509.423,-43.945,-24.414,-26.855,-33.203,0.000,0
182509.427,-50.781,-32.227,-37.598,-41.504,0.000,0
182509.431,-33.691,-31.250,-27.832,-25.391,0.000,0
182509.435,-39.062,-33.691,-26.855,-23.438,0.000,0
182509.438,-48.828,-38.086,-48.340,-40.039,0.000,0
182509.442,-51.270,-46.387,-62.500,-56.152,0.000,0
182509.446,-42.480,-40.527,-36.621,-41.016,0.000,0
182509.450,-23.926,-29.785,-16.113,-26.855,0.000,0
182509.454,-21.973,-28.809,-24.902,-34.180,0.000,0
182509.458,-22.949,-23.926,-21.484,-39.062,0.000,0
182509.462,-16.602,-18.066,-10.742,-31.738,0.000,0
182509.466,-16.602,-25.391,-16.113,-26.367,0.000,0
182509.470,-29.297,-32.715,-26.855,-53.711,0.000,0
182509.474,-42.480,-31.250,-35.645,-64.453,0.000,0
182509.477,-42.969,-30.762,-41.016,-56.641,0.000,0
182509.481,-24.902,-20.508,-21.484,-33.691,0.000,0
182509.485,-15.137,-13.184,-20.020,-17.090,0.000,0
182509.489,-15.625,-16.113,-18.555,-32.227,0.000,0
182509.493,-15.137,-14.160,-11.230,-29.785,0.000,0
182509.497,-0.488,-14.160,-17.090,-4.395,0.000,0
182509.501,13.672,-12.695,-10.254,9.277,0.000,0
182509.505,8.789,-12.207,-8.301,2.441,0.000,0
182509.509,-6.348,-20.996,-25.391,-23.438,0.000,0
182509.513,-20.020,-34.668,-36.621,-38.574,0.000,0
182509.517,-17.090,-38.086,-31.250,-29.785,0.000,0
182509.520,-15.625,-30.762,-34.668,-22.461,0.000,0
182509.524,-20.996,-28.320,-43.945,-37.109,0.000,0
182509.528,-10.742,-23.926,-30.762,-22.461,0.000,0
182509.532,17.090,-7.324,-10.254,12.207,0.000,0
182509.536,20.020,-2.441,-3.418,12.695,0.000,0
182509.540,3.418,-11.719,-8.789,-18.066,0.000,0
182509.544,-8.789,-24.414,-27.832,-28.809,0.000,0
182509.548,-3.418,-27.832,-28.320,-17.090,0.000,0
182509.552,3.418,-20.508,-18.555,-6.348,0.000,0
182509.556,-9.277,-13.184,-20.996,-13.672,0.000,0
182509.560,-5.371,-3.906,-16.113,-12.207,0.000,0
182509.563,-0.488,-10.742,-21.484,-7.324,0.000,0
182509.567,-23.926,-27.832,-27.344,-26.367,0.000,0
182509.571,-42.480,-30.762,-24.902,-41.992,0.000,0
182509.575,-42.480,-33.691,-29.785,-46.875,0.000,0
182509.579,-27.832,-36.621,-29.297,-38.086,0.000,0
182509.583,-23.438,-31.250,-33.691,-36.621,0.000,0
182509.587,-0.488,0.977,-3.418,-14.160,0.000,0
182509.591,22.949,6.836,19.043,-3.906,0.000,0
182509.595,-11.719,-41.016,-30.762,-38.086,0.000,0
182509.599,-23.438,-55.176,-46.387,-33.691,0.000,0
182509.602,-22.949,-44.922,-33.691,-34.180,0.000,0
182509.606,-22.949,-34.668,-35.645,-49.805,0.000,0
182509.610,-17.090,-26.367,-27.832,-43.945,0.000,0
182509.614,-9.277,-27.344,-32.227,-31.738,0.000,0
182509.618,-5.371,-20.996,-19.531,-22.949,0.000,0
182509.622,-12.207,-18.066,-6.836,-24.902,0.000,0
182509.626,-17.090,-22.949,-11.719,-28.809,0.000,0
182509.630,-20.996,-25.879,-21.973,-21.484,0.000,0
182509.634,-20.508,-25.391,-31.738,-19.043,0.000,0
182509.638,-13.672,-20.996,-22.949,-19.531,0.000,0
182509.642,-21.973,-20.508,-20.996,-24.902,0.000,0
182509.645,-14.160,-13.672,-20.020,-18.555,0.000,0
182509.649,2.441,-10.254,-18.066,-9.277,0.000,0
182509.653,2.441,-12.695,-19.043,-11.719,0.000,0
182509.657,-16.113,-18.555,-22.461,-20.996,0.000,0
182509.661,-24.902,-27.832,-23.438,-19.531,0.000,0
182509.665,-21.484,-32.227,-27.344,-16.113,0.000,0
182509.669,-22.461,-28.320,-25.879,-24.902,0.000,0
182509.673,-20.508,-15.137,-11.719,-13.672,0.000,0
182509.677,-22.461,-17.578,-8.789,-12.695,0.000,0
182509.681,-23.926,-27.344,-29.785,-14.160,0.000,0
182509.685,-20.996,-27.832,-40.039,-13.672,0.000,0
182509.688,-30.273,-27.832,-28.320,-28.320,0.000,0
182509.692,-25.391,-14.648,-12.695,-18.555,0.000,0
182509.696,-2.441,-1.953,5.371,0.488,0.000,0
182509.700,5.859,-7.324,0.000,8.301,0.000,0
182509.704,-11.719,-15.625,-5.371,-8.301,0.000,0
182509.708,-29.785,-26.367,-28.809,-35.156,0.000,0
182509.712,-30.273,-32.227,-52.734,-27.832,0.000,0
182509.716,-19.531,-35.156,-43.945,-8.789,0.000,0
182509.720,-24.414,-27.344,-31.738,-12.207,0.000,0
182509.724,-38.574,-26.367,-32.227,-36.133,0.000,0
182509.727,-18.066,-20.996,-20.508,-30.762,0.000,0
182509.731,2.441,-18.066,-8.789,-8.301,0.000,0
182509.735,0.977,-20.508,-20.508,-9.766,0.000,0
182509.739,-35.156,-36.621,-43.945,-32.715,0.000,0
182509.743,-34.180,-35.645,-29.297,-30.762,0.000,0
182509.747,-12.207,-24.414,-4.883,-20.996,0.000,0
182509.751,-25.391,-37.109,-39.062,-21.973,0.000,0
182509.755,-39.062,-41.992,-50.293,-35.645,0.000,0
182509.759,-44.434,-40.039,-41.504,-56.641,0.000,0
182509.763,-25.879,-28.320,-33.691,-42.969,0.000,0
182509.767,-17.578,-26.855,-23.438,-31.250,0.000,0
182509.770,-29.785,-26.855,-24.414,-34.180,0.000,0
182509.774,-34.180,-21.484,-32.715,-41.992,0.000,0
182509.778,-37.109,-32.227,-46.387,-43.945,0.000,0
182509.782,-34.668,-37.598,-44.434,-32.227,0.000,0
182509.786,-27.344,-32.715,-35.156,-36.133,0.000,0
182509.790,-28.320,-25.391,-33.691,-45.410,0.000,0
182509.794,-30.273,-27.832,-32.715,-46.875,0.000,0
182509.798,-9.766,-12.207,-9.277,-16.113,0.000,0
182509.802,-7.324,-3.906,-7.324,-0.977,0.000,0
182509.806,-33.203,-28.320,-31.250,-39.062,0.000,0
182509.810,-36.621,-40.039,-39.062,-48.340,0.000,0
182509.813,-33.203,-39.062,-38.574,-29.785,0.000,0
182509.817,-26.855,-37.109,-34.180,-24.414,0.000,0
182509.821,-22.461,-31.738,-35.645,-28.320,0.000,0
182509.825,-27.344,-27.832,-39.551,-41.504,0.000,0
182509.829,-17.578,-20.020,-29.785,-25.879,0.000,0
182509.833,-6.836,-20.996,-22.461,-2.930,0.000,0
182509.837,-26.855,-30.762,-22.949,-20.020,0.000,0
182509.841,-46.387,-34.668,-26.367,-45.410,0.000,1
182509.845,-39.062,-29.785,-33.203,-48.340,0.000,0
182509.849,-14.648,-10.742,-14.648,-14.160,0.000,0
182509.852,-10.254,-14.648,-16.113,-6.836,0.000,0
182509.856,-26.855,-31.250,-33.203,-33.203,0.000,0
182509.860,-32.715,-30.273,-28.320,-34.180,0.000,0
182509.864,-14.648,-17.090,-25.391,-19.531,0.000,0
182509.868,-13.672,-16.602,-38.574,-20.020,0.000,0
182509.872,-26.367,-20.020,-29.297,-30.762,0.000,0
182509.876,-27.344,-20.996,-22.461,-25.879,0.000,0
182509.880,-32.227,-34.180,-42.969,-32.715,0.000,0
182509.884,-30.273,-28.809,-37.598,-29.785,0.000,0
182509.888,-22.949,-21.973,-26.855,-18.555,0.000,0
182509.892,-26.367,-34.668,-36.621,-38.574,0.000,0
182509.895,-19.531,-30.273,-35.645,-46.387,0.000,0
182509.899,-5.859,-21.484,-32.715,-28.809,0.000,0
182509.903,-17.090,-20.996,-29.297,-30.762,0.000,0
182509.907,-21.484,-19.043,-19.043,-38.086,0.000,0
182509.911,-5.371,-15.137,-25.391,-28.320,0.000,0
182509.915,5.371,-2.441,-17.578,-8.301,0.000,0
182509.919,-6.836,-20.020,-18.066,-20.020,0.000,0
182509.923,-27.832,-39.062,-34.180,-42.480,0.000,0
182509.927,-27.832,-27.344,-20.508,-44.434,0.000,0
182509.931,-0.977,-10.742,-1.465,-22.949,0.000,0
182509.935,0.977,-16.602,-16.602,-14.648,0.000,0
182509.938,-12.207,-22.461,-37.109,-21.973,0.000,0
182509.942,-7.812,-19.043,-34.668,-24.414,0.000,0
182509.946,-4.883,-13.672,-21.973,-21.484,0.000,0
182509.950,-17.578,-20.996,-33.691,-13.184,0.000,0
182509.954,-20.020,-22.461,-33.691,-18.555,0.000,0
182509.958,-14.648,-13.184,-19.531,-32.227,0.000,0
182509.962,-17.090,-14.160,-19.531,-24.902,0.000,0
182509.966,-20.996,-21.484,-25.879,-20.020,0.000,0
182509.970,-29.297,-27.344,-45.410,-32.715,0.000,0
182509.974,-26.367,-19.043,-41.992,-32.227,0.000,0
182509.977,-31.738,-28.320,-41.992,-30.273,0.000,0
182509.981,-31.738,-38.086,-38.086,-30.762,0.000,0
182509.985,-25.879,-34.180,-27.344,-33.691,0.000,0
182509.989,-34.180,-32.715,-30.762,-40.527,0.000,0
182509.993,-35.156,-21.484,-21.973,-42.480,0.000,0
182509.997,-8.301,1.953,-5.371,-22.949,0.000,0
182510.001,-6.836,-6.836,-15.137,-26.855,0.000,0
182510.005,-40.527,-31.738,-38.086,-58.105,0.000,0
182510.009,-42.969,-28.320,-44.922,-53.223,0.000,0
182510.013,-27.832,-20.508,-41.016,-35.156,0.000,0
182510.017,-15.137,-11.230,-18.066,-10.254,0.000,0
182510.020,-21.973,-19.531,-8.301,-17.578,0.000,0
182510.024,-38.086,-29.785,-16.602,-40.039,0.000,0
182510.028,-26.367,-26.855,-28.320,-20.020,0.000,0
182510.032,-9.766,-28.320,-28.320,-3.418,0.000,0
182510.036,-17.578,-32.227,-29.785,-10.254,0.000,0
182510.040,-36.621,-35.645,-40.527,-24.902,0.000,0
182510.044,-30.273,-30.762,-29.785,-26.367,0.000,0
182510.048,-18.555,-20.020,-20.508,-21.484,0.000,0
182510.052,-31.250,-20.020,-26.367,-23.438,0.000,0
182510.056,-36.621,-17.090,-23.438,-24.414,0.000,0
182510.060,-40.039,-21.973,-29.785,-39.062,0.000,0
182510.063,-34.180,-27.832,-31.738,-48.340,0.000,0
182510.067,-11.719,-6.836,-9.277,-21.973,0.000,0
182510.071,-16.602,-11.230,-25.391,-20.020,0.000,0
182510.075,-23.438,-23.926,-33.203,-31.738,0.000,0
182510.079,-13.184,-23.926,-18.555,-20.996,0.000,0
182510.083,-18.066,-26.855,-27.344,-15.137,0.000,0
182510.087,-19.531,-23.438,-32.715,-20.020,0.000,0
182510.091,-28.809,-25.879,-37.109,-36.621,0.000,0
182510.095,-35.645,-31.250,-39.062,-32.715,0.000,0
182510.099,-19.043,-27.344,-29.297,-14.648,0.000,0
182510.102,-16.602,-19.043,-19.043,-26.855,0.000,0
182510.106,-20.020,-16.113,-23.926,-35.645,0.000,0
182510.110,-20.996,-27.344,-37.109,-37.109,0.000,0
182510.114,-16.113,-26.855,-27.344,-24.902,0.000,0
182510.118,-16.602,-19.531,-18.066,-27.832,0.000,0
182510.122,-23.926,-17.090,-20.020,-38.086,0.000,0
182510.126,-22.461,-21.484,-23.438,-21.484,0.000,0
182510.130,-7.812,-24.902,-27.832,-7.812,0.000,0
182510.134,-11.230,-26.367,-38.574,-19.531,0.000,0
182510.138,-32.715,-26.855,-32.227,-37.598,0.000,0
182510.142,-42.480,-22.949,-23.926,-30.762,0.000,0
182510.145,-31.250,-21.973,-21.484,-22.949,0.000,0
182510.149,-25.879,-27.344,-28.320,-23.926,0.000,0
182510.153,-34.668,-34.180,-34.180,-18.066,0.000,0
182510.157,-37.109,-36.621,-27.832,-20.020,0.000,0
182510.161,-20.508,-27.344,-21.973,-14.648,0.000,0
182510.165,-3.906,-22.949,-20.020,-4.883,0.000,0
182510.169,-4.883,-22.949,-25.879,-8.789,0.000,0
182510.173,-2.930,-19.043,-24.902,-16.602,0.000,0
182510.177,-1.953,-21.973,-26.855,-21.484,0.000,0
182510.181,-1.465,-21.484,-30.273,-22.949,0.000,0
182510.185,-16.113,-33.203,-34.668,-25.391,0.000,0
182510.188,-24.902,-32.227,-26.367,-29.785,0.000,0
182510.192,-4.883,-24.902,-26.367,-24.902,0.000,0
182510.196,-3.906,-28.809,-31.738,-15.625,0.000,0
182510.200,-13.672,-25.879,-27.832,-13.672,0.000,0
182510.204,-9.277,-22.461,-24.414,-17.090,0.000,0
182510.208,-5.859,-20.020,-22.949,-24.414,0.000,0
182510.212,16.602,-15.137,-22.461,-4.395,0.000,0
182510.216,18.555,-17.578,-15.625,-10.742,0.000,0
182510.220,-1.953,-18.066,-14.160,-32.227,0.000,0
182510.224,-3.418,-20.996,-18.066,-29.297,0.000,0
182510.227,-10.742,-30.762,-33.203,-30.273,0.000,0
182510.231,-22.949,-33.203,-38.574,-28.320,0.000,0
182510.235,-20.996,-22.461,-20.996,-25.391,0.000,0
182510.239,-18.066,-20.996,-17.090,-27.832,0.000,0
182510.243,-25.879,-30.273,-37.109,-29.297,0.000,0
182510.247,-21.484,-28.320,-39.551,-28.809,0.000,0
182510.251,-18.066,-28.320,-38.086,-25.879,0.000,0
182510.255,-21.484,-15.625,-30.273,-22.461,0.000,0
182510.259,-25.879,-10.742,-24.414,-24.902,0.000,0
182510.263,-17.090,-12.695,-15.625,-12.695,0.000,0
182510.267,-12.207,-10.742,-10.254,-1.953,0.000,0
182510.270,-34.180,-19.043,-30.273,-16.113,0.000,0
182510.274,-34.668,-22.949,-36.621,-30.762,0.000,0
182510.278,-18.555,-19.043,-28.809,-22.949,0.000,0
182510.282,-21.484,-20.996,-33.203,-10.254,0.000,0
182510.286,-21.973,-18.066,-17.090,-10.742,0.000,0
182510.290,-18.555,-12.695,-13.672,-14.160,0.000,0
182510.294,-15.137,-17.578,-26.367,-13.672,0.000,0
182510.298,-3.418,-11.719,-15.137,-8.301,0.000,0
182510.302,1.465,-5.371,-8.789,1.465,0.000,0
182510.306,-19.043,-20.020,-19.531,-13.184,0.000,0
182510.310,-29.297,-31.250,-28.809,-35.156,0.000,0
182510.313,-23.926,-25.391,-23.926,-21.973,0.000,0
182510.317,-21.973,-23.438,-20.508,-17.578,0.000,0
182510.321,-26.855,-21.484,-31.250,-21.484,0.000,0
182510.325,-35.645,-25.879,-39.062,-24.902,0.000,0
182510.329,-24.414,-29.785,-25.879,-13.184,0.000,0
182510.333,-25.879,-33.691,-26.855,-1.465,0.000,0
182510.337,-34.668,-34.180,-26.855,-20.508,0.000,0
182510.341,-29.785,-24.414,-16.602,-28.320,0.000,0
182510.345,-22.461,-28.320,-26.855,-11.230,0.000,0
182510.349,-19.043,-36.133,-39.062,-7.812,0.000,0
182510.352,-27.832,-35.156,-33.691,-20.508,0.000,0
182510.356,-35.156,-37.598,-30.762,-35.645,0.000,0
182510.360,-16.602,-34.668,-31.738,-24.902,0.000,0
182510.364,-8.301,-31.250,-31.738,-9.277,0.000,0
182510.368,-15.137,-35.156,-30.273,-18.555,0.000,0
182510.372,-9.277,-26.367,-17.090,-21.973,0.000,0
182510.376,-12.207,-22.949,-16.113,-22.461,0.000,0
182510.380,-19.043,-33.691,-32.715,-20.508,0.000,0
182510.384,-14.160,-33.203,-36.133,-13.184,0.000,0
182510.388,-14.160,-32.715,-40.039,-17.090,0.000,0
182510.392,-18.555,-31.250,-40.039,-17.090,0.000,0
182510.395,-5.859,-24.414,-22.949,-16.113,0.000,0
182510.399,-5.859,-19.531,-21.484,-25.391,0.000,0
182510.403,-17.090,-20.020,-21.973,-27.344,0.000,0
182510.407,-14.648,-21.484,-25.879,-24.902,0.000,0
182510.411,-16.113,-23.926,-35.645,-19.531,0.000,0
182510.415,-24.902,-35.645,-48.340,-23.926,0.000,0
182510.419,-26.367,-37.109,-44.922,-24.414,0.000,0
182510.423,-20.996,-28.809,-32.715,-19.531,0.000,0
182510.427,-23.926,-33.203,-31.250,-30.273,0.000,0
182510.431,-15.137,-23.438,-20.020,-13.184,0.000,0
182510.435,-3.906,-10.742,-9.277,-2.441,0.000,0
182510.438,-11.719,-16.113,-13.184,-16.113,0.000,0
182510.442,-15.625,-22.461,-16.113,-20.020,0.000,0
182510.446,-11.230,-27.344,-23.438,-21.484,0.000,0
182510.450,-13.184,-28.320,-30.273,-25.879,0.000,0
182510.454,-27.344,-32.227,-37.598,-44.434,0.000,0
182510.458,-31.738,-34.668,-40.039,-47.363,0.000,0
182510.462,-14.160,-27.832,-29.297,-21.973,0.000,0
182510.466,-16.113,-24.414,-34.668,-15.625,0.000,0
182510.470,-31.738,-21.973,-33.203,-26.367,0.000,0
182510.474,-19.531,-15.137,-17.090,-25.879,0.000,0
182510.477,-6.348,-16.602,-15.625,-22.949,0.000,0
182510.481,-0.488,-8.301,-9.277,-12.207,0.000,0
182510.485,-5.371,-10.254,-15.625,-22.949,0.000,0
182510.489,-6.836,-21.973,-26.367,-36.133,0.000,0
182510.493,-6.348,-18.555,-25.879,-31.738,0.000,0
182510.497,-7.812,-12.695,-19.531,-22.949,0.000,0
182510.501,-8.301,-8.789,-13.672,-24.902,0.000,0
182510.505,-25.879,-12.695,-25.391,-37.598,0.000,0
182510.509,-21.484,-19.531,-28.809,-31.250,0.000,1
182510.513,-26.367,-24.414,-29.785,-24.902,0.000,0
182510.517,-34.668,-29.297,-35.156,-38.574,0.000,0
182510.520,-22.461,-22.461,-30.273,-41.504,0.000,0
182510.524,-13.672,-20.996,-18.555,-30.762,0.000,0
182510.528,-3.418,-28.320,-26.855,-27.344,0.000,0
182510.532,-4.395,-23.926,-29.297,-34.668,0.000,0
182510.536,-12.695,-17.578,-18.066,-43.945,0.000,0
182510.540,-10.254,-20.996,-17.090,-48.828,0.000,0
182510.544,-9.277,-23.926,-17.090,-39.062,0.000,0
182510.548,-9.277,-26.855,-23.926,-22.461,0.000,0
182510.552,-20.508,-30.762,-38.574,-31.250,0.000,0
182510.556,-27.344,-29.297,-47.363,-35.156,0.000,0
182510.560,3.906,-11.230,-13.672,-4.883,0.000,0
182510.563,19.531,-8.789,-3.906,2.930,0.000,0
182510.567,-5.371,-22.461,-27.344,-21.484,0.000,0
182510.571,-28.320,-32.715,-25.879,-47.363,0.000,0
182510.575,-24.902,-31.250,-20.996,-50.293,0.000,0
182510.579,-17.578,-33.691,-28.320,-38.086,0.000,0
182510.583,-28.320,-38.574,-34.180,-40.527,0.000,0
182510.587,-38.574,-30.273,-26.367,-59.082,0.000,0
182510.591,-25.879,-23.438,-22.461,-62.012,0.000,0
182510.595,-23.926,-26.855,-25.879,-49.316,0.000,0
182510.599,-22.461,-23.438,-25.391,-45.898,0.000,0
182510.602,-28.809,-24.902,-21.484,-57.617,0.000,0
182510.606,-39.062,-30.273,-23.926,-55.176,0.000,0
182510.610,-23.926,-30.273,-29.297,-37.598,0.000,0
182510.614,-12.207,-22.949,-26.855,-43.457,0.000,0
182510.618,-29.785,-20.996,-32.715,-62.500,0.000,0
182510.622,-43.457,-26.367,-39.551,-61.035,0.000,0
182510.626,-1.953,-5.859,-7.324,-20.020,0.000,0
182510.630,14.160,-0.977,0.000,-17.578,0.000,0
182510.634,-33.691,-33.203,-38.574,-67.871,0.000,0
182510.638,-41.992,-41.016,-42.969,-74.707,0.000,0
182510.642,-24.414,-32.227,-38.086,-56.152,0.000,0
182510.645,-23.438,-30.762,-41.504,-39.062,0.000,0
182510.649,-25.391,-35.645,-34.180,-42.480,0.000,0
182510.653,-31.250,-38.574,-38.574,-56.152,0.000,0
182510.657,-30.273,-31.250,-34.180,-48.828,0.000,0
182510.661,-9.277,-18.066,-12.207,-23.926,0.000,0
182510.665,-6.836,-14.160,-10.742,-22.461,0.000,0
182510.669,-27.832,-21.973,-27.344,-51.270,0.000,0
182510.673,-24.414,-23.438,-37.598,-54.688,0.000,0
182510.677,-10.742,-19.531,-32.227,-31.738,0.000,0
182510.681,-1.465,-12.207,-11.230,-15.625,0.000,0
182510.685,-7.812,-17.578,-17.090,-28.809,0.000,0
182510.688,-20.508,-27.832,-37.598,-51.758,0.000,0
182510.692,-19.531,-33.203,-33.203,-50.293,0.000,0
182510.696,-24.902,-35.156,-29.297,-35.156,0.000,0
182510.700,-24.902,-27.832,-20.508,-38.086,0.000,0
182510.704,-24.902,-23.438,-25.391,-41.992,0.000,0
182510.708,-22.949,-25.391,-27.832,-37.598,0.000,0
182510.712,-6.836,-17.090,-14.160,-26.855,0.000,0
182510.716,-9.766,-10.742,-3.418,-24.414,0.000,0
182510.720,-24.414,-19.043,-11.719,-40.527,0.000,0
182510.724,-20.996,-19.531,-30.273,-27.832,0.000,0
182510.727,-14.648,-25.879,-41.504,-31.250,0.000,0
182510.731,-25.391,-38.086,-41.504,-61.523,0.000,0
182510.735,-24.902,-21.973,-26.367,-41.504,0.000,0
182510.739,-11.230,-5.859,-14.648,-29.297,0.000,0
182510.743,-3.418,-17.578,-25.879,-38.086,0.000,0
182510.747,4.395,-12.695,-25.879,-27.832,0.000,0
182510.751,-6.836,-9.277,-12.207,-27.344,0.000,0
182510.755,-38.574,-44.922,-43.457,-52.246,0.000,0
182510.759,-38.574,-48.340,-51.758,-51.270,0.000,0
182510.763,-21.484,-26.855,-26.855,-34.180,0.000,0
182510.767,-23.438,-21.484,-17.578,-41.992,0.000,0
182510.770,-25.879,-24.902,-17.578,-49.805,0.000,0
182510.774,-18.555,-22.949,-23.438,-25.391,0.000,0
182510.778,-20.996,-25.879,-30.762,-27.832,0.000,0
182510.782,-33.203,-35.156,-33.203,-49.316,0.000,0
182510.786,-20.996,-29.297,-34.668,-41.504,0.000,0
182510.790,-10.254,-24.902,-29.785,-29.297,0.000,0
182510.794,-22.949,-32.227,-32.227,-31.250,0.000,0
182510.798,-28.320,-32.715,-28.320,-35.645,0.000,0
182510.802,-15.137,-20.996,-16.113,-34.668,0.000,0
182510.806,-12.695,-13.672,-8.789,-27.832,0.000,0
182510.810,-9.766,-20.020,-15.137,-18.066,0.000,0
182510.813,-19.531,-28.809,-24.414,-26.855,0.000,0
182510.817,-31.250,-27.344,-22.949,-39.062,0.000,0
182510.821,-21.973,-20.508,-18.066,-32.715,0.000,0
182510.825,-20.508,-21.484,-20.508,-31.738,0.000,0
182510.829,-20.020,-22.461,-20.996,-31.738,0.000,0
182510.833,-23.438,-25.879,-28.809,-27.832,0.000,0
182510.837,-29.297,-22.461,-33.203,-23.926,0.000,0
182510.841,-20.020,-17.578,-26.367,-18.555,0.000,0
182510.845,-11.719,-28.809,-32.715,-25.391,0.000,0
182510.849,-13.184,-33.203,-33.203,-34.180,0.000,0
182510.852,-22.949,-39.062,-27.832,-47.363,0.000,0
182510.856,-14.160,-36.621,-30.273,-25.391,0.000,0
182510.860,-1.465,-26.367,-29.785,3.906,0.000,0
182510.864,-13.672,-33.203,-29.785,-21.973,0.000,0
182510.868,-25.879,-31.250,-28.320,-33.203,0.000,0
182510.872,-12.207,-24.902,-29.785,-19.043,0.000,0
182510.876,-11.719,-29.785,-37.598,-19.531,0.000,0
182510.880,-18.066,-29.785,-31.738,-27.344,0.000,0
182510.884,-15.137,-21.484,-19.531,-27.832,0.000,0
182510.888,-14.648,-17.090,-16.113,-29.297,0.000,0
182510.892,-8.301,-25.879,-20.508,-19.531,0.000,0
182510.895,-2.441,-28.320,-23.438,-12.695,0.000,0
182510.899,-9.277,-24.902,-28.809,-25.879,0.000,0
182510.903,-35.156,-32.715,-34.668,-46.875,0.000,0
182510.907,-26.855,-33.203,-31.738,-36.621,0.000,0
182510.911,-4.883,-19.531,-24.414,-11.230,0.000,0
182510.915,-15.625,-20.996,-23.438,-18.066,0.000,0
182510.919,-23.438,-26.367,-25.391,-37.109,0.000,0
182510.923,-9.277,-18.555,-25.879,-25.391,0.000,0
182510.927,-8.789,-15.137,-23.926,-20.508,0.000,0
182510.931,-12.207,-10.742,-11.719,-23.926,0.000,0
182510.935,-21.973,-20.996,-28.809,-27.832,0.000,0
182510.938,-31.250,-34.180,-43.457,-41.016,0.000,0
182510.942,1.953,-12.207,-15.137,-14.648,0.000,0
182510.946,10.254,-7.812,-7.812,0.488,0.000,0
182510.950,-12.695,-23.926,-22.949,-18.066,0.000,0
182510.954,-18.555,-25.391,-29.297,-28.809,0.000,0
182510.958,-5.859,-20.996,-28.320,-1.465,0.000,0
182510.962,-7.812,-23.438,-36.133,2.930,0.000,0
182510.966,-19.043,-24.414,-30.273,-17.090,0.000,0
182510.970,-6.836,-11.719,-14.648,5.859,0.000,0
182510.974,-9.277,-21.484,-14.160,9.766,0.000,0
182510.977,-23.926,-41.016,-29.297,-7.812,0.000,0
182510.981,-34.180,-41.504,-41.016,-26.367,0.000,0
182510.985,-30.273,-37.109,-42.480,-26.367,0.000,0
182510.989,-13.184,-32.227,-34.180,-13.672,0.000,0
182510.993,-0.977,-20.996,-16.602,-11.230,0.000,0
182510.997,-8.301,-21.484,-23.926,-14.160,0.000,0
182511.001,-33.691,-35.156,-46.875,-40.039,0.000,0
182511.005,-24.414,-28.320,-38.086,-39.062,0.000,0
182511.009,-2.930,-19.043,-14.160,-2.930,0.000,0
182511.013,-13.184,-22.949,-10.254,-8.789,0.000,0
182511.017,-27.344,-33.691,-22.949,-35.645,0.000,0
182511.020,-27.832,-36.621,-22.461,-32.715,0.000,0
182511.024,-10.742,-22.461,-27.832,-17.578,0.000,0
182511.028,-4.395,-16.113,-29.785,-16.113,0.000,0
182511.032,-19.531,-21.973,-19.531,-30.762,0.000,0
182511.036,-27.344,-24.902,-16.602,-30.273,0.000,0
182511.040,-19.531,-27.344,-22.461,-22.949,0.000,0
182511.044,-12.695,-31.250,-31.250,-26.367,0.000,0
182511.048,-13.672,-28.809,-31.250,-20.996,0.000,0
182511.052,-19.043,-27.344,-28.320,-22.949,0.000,0
182511.056,-19.531,-30.762,-38.574,-29.297,0.000,0
182511.060,-16.602,-25.879,-30.762,-16.602,0.000,0
182511.063,-17.578,-26.855,-20.508,-20.996,0.000,0
182511.067,-18.555,-20.508,-15.625,-24.414,0.000,0
182511.071,-20.996,-20.996,-23.926,-21.973,0.000,0
182511.075,-16.602,-26.855,-31.250,-15.625,0.000,0
182511.079,-7.812,-24.902,-24.902,-15.137,0.000,0
182511.083,-13.672,-25.879,-26.367,-22.461,0.000,0
182511.087,-13.184,-27.832,-31.250,-11.719,0.000,0
182511.091,-1.465,-26.367,-22.949,-7.812,0.000,0
182511.095,-7.324,-25.391,-28.809,-11.719,0.000,0
182511.099,-16.113,-20.508,-33.691,-12.695,0.000,0
182511.102,-11.230,-18.555,-19.043,-19.531,0.000,0
182511.106,-3.906,-17.578,-16.602,-18.066,0.000,0
182511.110,-4.395,-21.973,-28.809,-10.742,0.000,0
182511.114,-17.090,-25.879,-33.691,-22.461,0.000,0
182511.118,-15.625,-20.996,-31.250,-26.855,0.000,0
182511.122,-8.789,-25.879,-35.645,-15.625,0.000,0
182511.126,-0.977,-23.438,-27.344,-9.766,0.000,0
182511.130,-2.930,-20.020,-18.555,-24.902,0.000,0
182511.134,-21.973,-24.414,-24.902,-38.574,0.000,0
182511.138,-10.742,-15.625,-15.137,-12.695,0.000,0
182511.142,6.348,-12.207,-7.324,2.441,0.000,0
182511.145,-3.906,-24.414,-23.438,-12.207,0.000,0
182511.149,-28.320,-32.227,-37.598,-16.113,0.000,0
182511.153,-40.039,-43.457,-53.223,-21.973,0.000,0
182511.157,-30.273,-44.434,-50.293,-25.391,0.000,0
182511.161,-21.484,-40.039,-39.062,-25.879,0.000,0
182511.165,-16.602,-33.691,-29.785,-21.484,0.000,0
182511.169,-2.441,-20.508,-15.625,-2.441,0.000,0
182511.173,16.113,-19.531,-19.531,10.254,0.000,0
182511.177,14.648,-20.996,-25.391,2.930,0.000,0
182511.181,-15.625,-21.973,-24.902,-21.484,0.000,0
182511.185,-24.902,-26.855,-29.297,-20.508,0.000,0
182511.188,-24.902,-32.227,-36.621,-19.043,0.000,0
182511.192,-28.809,-31.738,-36.133,-24.902,0.000,0
182511.196,-33.691,-30.273,-40.527,-28.809,0.000,0
182511.200,-44.434,-31.250,-53.223,-31.250,0.000,1
182511.204,-36.621,-28.809,-44.434,-19.043,0.000,0
182511.208,-25.391,-22.949,-26.855,-7.812,0.000,0
182511.212,-26.855,-17.578,-20.020,-6.836,0.000,0
182511.216,-15.625,-6.836,-12.207,-13.184,0.000,0
182511.220,-12.695,-13.672,-15.625,-18.066,0.000,0
182511.224,-21.484,-30.273,-36.621,-16.602,0.000,0
182511.227,-21.484,-31.738,-41.992,-26.855,0.000,0
182511.231,-27.832,-33.691,-33.691,-34.180,0.000,0
182511.235,-25.879,-30.273,-30.762,-26.367,0.000,0
182511.239,-10.742,-20.020,-26.367,-13.184,0.000,0
182511.243,-7.324,-13.672,-13.672,-3.418,0.000,0
182511.247,-12.695,-16.113,-19.531,-7.812,0.000,0
182511.251,-17.090,-22.949,-29.785,-18.066,0.000,0
182511.255,-18.555,-20.020,-34.180,-17.090,0.000,0
182511.259,-19.043,-10.742,-29.297,-13.184,0.000,0
182511.263,-30.273,-12.695,-17.578,-20.020,0.000,0
182511.267,-37.109,-19.043,-29.785,-26.367,0.000,0
182511.270,-40.039,-19.531,-31.250,-28.809,0.000,0
182511.274,-48.340,-22.461,-32.715,-27.832,0.000,0
182511.278,-44.434,-15.625,-29.297,-30.762,0.000,0
182511.282,-40.527,-12.695,-20.996,-39.062,0.000,0
182511.286,-31.738,-11.719,-16.113,-20.996,0.000,0
182511.290,-24.414,-7.812,-17.090,-14.160,0.000,0
182511.294,-16.602,4.883,-11.230,-16.602,0.000,0
182511.298,-22.949,5.859,-2.441,-13.184,0.000,0
182511.302,-48.828,-20.996,-24.902,-35.645,0.000,0
182511.306,-36.621,-32.715,-41.992,-30.273,0.000,0
182511.310,-24.902,-27.832,-40.039,-19.531,0.000,0
182511.313,-30.273,-19.043,-25.879,-29.785,0.000,0
182511.317,-26.855,-21.973,-29.785,-34.668,0.000,0
182511.321,-19.531,-23.438,-42.480,-16.602,0.000,0
182511.325,-10.742,-9.277,-17.578,3.906,0.000,0
182511.329,-20.996,-14.160,-5.371,-16.113,0.000,0
182511.333,-34.180,-23.438,-20.020,-31.250,0.000,0
182511.337,-35.156,-28.320,-38.086,-39.551,0.000,0
182511.341,-26.367,-21.484,-31.738,-27.344,0.000,0
182511.345,-19.043,-13.672,-16.113,-11.719,0.000,0
182511.349,-29.297,-25.879,-30.762,-24.414,0.000,0
182511.352,-26.367,-28.320,-38.574,-22.949,0.000,0
182511.356,-23.926,-28.809,-31.250,-22.949,0.000,0
182511.360,-30.762,-30.273,-20.508,-13.184,0.000,0
182511.364,-30.762,-28.809,-25.391,-10.742,0.000,0
182511.368,-21.973,-25.391,-28.809,-21.484,0.000,0
182511.372,-0.977,-15.625,-19.531,3.418,0.000,0
182511.376,2.930,-12.207,-13.184,0.977,0.000,0
182511.380,-22.949,-21.484,-21.484,-32.227,0.000,0
182511.384,-31.738,-28.809,-33.691,-29.785,0.000,0
182511.388,-38.086,-34.180,-38.574,-24.902,0.000,0
182511.392,-24.902,-28.809,-26.855,-22.461,0.000,0
182511.395,-16.602,-23.438,-29.785,-18.555,0.000,0
182511.399,-26.855,-19.531,-31.250,-30.273,0.000,0
182511.403,-17.090,-16.602,-15.137,-30.273,0.000,0
182511.407,-20.508,-22.461,-17.578,-26.367,0.000,0
182511.411,-34.668,-26.855,-30.762,-35.156,0.000,0
182511.415,-26.855,-26.367,-33.691,-41.992,0.000,0
182511.419,-29.785,-29.297,-32.227,-38.086,0.000,0
182511.423,-29.297,-28.320,-30.762,-23.438,0.000,0
182511.427,-5.371,-9.277,-14.160,-12.207,0.000,0
182511.431,-10.254,-3.906,-14.648,-13.184,0.000,0
182511.435,-16.602,-11.719,-17.090,-21.973,0.000,0
182511.438,-10.742,-20.020,-16.113,-15.625,0.000,0
182511.442,-20.996,-29.297,-40.527,-14.160,0.000,0
182511.446,-32.715,-31.738,-46.875,-36.133,0.000,0
182511.450,-30.273,-29.785,-42.480,-34.180,0.000,0
182511.454,-28.320,-26.855,-29.785,-18.066,0.000,0
182511.458,-27.344,-31.250,-20.020,-26.367,0.000,0
182511.462,-29.297,-35.156,-26.367,-34.668,0.000,0
182511.466,-27.344,-21.484,-19.043,-20.996,0.000,0
182511.470,-17.578,-20.020,-19.531,-14.648,0.000,0
182511.474,-15.137,-26.367,-15.625,-13.672,0.000,0
182511.477,-9.277,-21.484,-20.020,-13.184,0.000,0
182511.481,-12.695,-20.020,-31.738,-19.043,0.000,0
182511.485,-15.137,-18.066,-24.902,-13.672,0.000,0
182511.489,4.883,-3.906,0.000,7.812,0.000,0
182511.493,9.277,-4.883,-1.953,5.371,0.000,0
182511.497,-20.996,-30.273,-36.133,-30.273,0.000,0
182511.501,-34.668,-36.133,-35.156,-29.785,0.000,0
182511.505,-32.227,-34.180,-34.668,-19.043,0.000,0
182511.509,-25.879,-29.297,-31.738,-26.367,0.000,0
182511.513,-20.508,-14.160,-16.113,-24.902,0.000,0
182511.517,-27.344,-16.602,-17.578,-26.855,0.000,0
182511.520,-11.719,-12.207,-9.277,-7.324,0.000,0
182511.524,-4.883,-12.207,-7.812,6.348,0.000,0
182511.528,-25.879,-25.879,-20.020,-12.207,0.000,0
182511.532,-40.039,-31.250,-33.203,-33.691,0.000,0
182511.536,-38.574,-37.109,-51.270,-30.273,0.000,0
182511.540,-27.832,-27.832,-41.992,-9.277,0.000,0
182511.544,-29.297,-17.090,-18.555,-6.348,0.000,0
182511.548,-31.250,-20.508,-28.320,-22.949,0.000,0
182511.552,-23.438,-23.926,-29.785,-26.367,0.000,0
182511.556,-11.719,-19.043,-16.113,-12.207,0.000,0
182511.560,-6.836,-13.184,-9.766,-4.395,0.000,0
182511.563,-19.043,-18.066,-13.184,-9.277,0.000,0
182511.567,-30.273,-26.855,-34.180,-8.301,0.000,0
182511.571,-20.996,-30.273,-33.203,-9.277,0.000,0
182511.575,-9.277,-21.973,-16.602,-5.371,0.000,0
182511.579,-8.789,-16.602,-8.301,-2.930,0.000,0
