timestamps,TP9,AF7,AF8,TP10,Right AUX,Marker0
182108.860,-10.254,-19.531,-30.273,-18.066,0.000,0
182108.864,1.953,-7.812,-22.461,17.578,0.000,0
182108.868,4.395,-9.766,-26.367,23.438,0.000,0
182108.872,-15.625,-14.648,-26.855,-11.230,0.000,0
182108.876,-36.133,-21.484,-20.508,-35.645,0.000,0
182108.880,-5.859,-18.066,-34.180,0.488,0.000,0
182108.884,-0.488,-22.949,-58.105,4.883,0.000,0
182108.888,-18.066,-19.043,-43.945,-9.277,0.000,0
182108.892,1.465,-13.672,-19.531,-8.301,0.000,0
182108.895,20.996,-16.602,-11.719,-13.184,0.000,0
182108.899,26.367,-24.414,-22.461,-2.441,0.000,0
182108.903,2.930,-31.738,-45.898,-11.230,0.000,0
182108.907,-14.160,-28.809,-52.246,-28.809,0.000,0
182108.911,6.348,-22.461,-28.320,-25.879,0.000,0
182108.915,29.297,-16.602,-17.578,-6.836,0.000,0
182108.919,20.508,-21.973,-34.668,-7.324,0.000,0
182108.923,1.465,-17.090,-36.133,-33.691,0.000,0
182108.927,2.930,-16.602,-35.156,-41.992,0.000,0
182108.931,16.602,-13.672,-28.320,-16.113,0.000,0
182108.935,15.137,-4.883,-16.602,-12.207,0.000,0
182108.938,-7.324,-16.602,-21.973,-31.250,0.000,0
182108.942,-6.836,-24.902,-31.738,-36.133,0.000,0
182108.946,-6.836,-21.484,-37.109,-41.992,0.000,0
182108.950,-7.812,-23.438,-37.598,-28.320,0.000,0
182108.954,4.883,-24.414,-43.457,-11.719,0.000,0
182108.958,-13.672,-20.020,-31.250,-20.020,0.000,0
182108.962,-7.324,-15.625,-16.113,-18.066,0.000,0
182108.966,9.277,-19.043,-24.414,-9.766,0.000,0
182108.970,13.184,-17.578,-28.320,-14.648,0.000,0
182108.974,6.348,-9.277,-19.531,-32.715,0.000,0
182108.978,-9.277,-19.043,-30.273,-41.016,0.000,0
182108.981,14.160,-22.461,-30.762,-12.695,0.000,0
182108.985,33.691,-20.020,-32.715,-3.906,0.000,0
182108.989,19.043,-24.414,-39.062,-22.461,0.000,0
182108.993,-10.742,-33.691,-47.363,-40.527,0.000,0
182108.997,0.488,-30.762,-48.828,-22.949,0.000,0
182109.001,14.648,-17.090,-36.621,-16.602,0.000,0
182109.005,-1.953,-3.906,-23.438,-9.766,0.000,0
182109.009,-4.395,-14.160,-20.996,-18.066,0.000,0
182109.013,-10.742,-28.320,-34.180,-37.598,0.000,0
182109.017,-16.602,-25.879,-31.738,-13.184,0.000,0
182109.020,-23.438,-26.367,-29.785,-4.395,0.000,0
182109.024,-22.461,-28.320,-35.156,-20.508,0.000,0
182109.028,-18.066,-27.344,-36.133,-26.855,0.000,0
182109.032,6.348,-12.695,-42.480,-17.090,0.000,0
182109.036,31.250,-4.883,-30.762,3.418,0.000,0
182109.040,12.207,-19.531,-20.020,-21.973,0.000,0
182109.044,-7.324,-26.855,-33.203,-27.344,0.000,0
182109.048,10.254,-23.438,-30.762,-5.371,0.000,0
182109.052,4.395,-30.273,-27.832,-19.531,0.000,0
182109.056,-14.160,-28.809,-20.996,-32.715,0.000,0
182109.060,4.395,-21.484,-21.484,-34.668,0.000,0
182109.063,11.719,-26.367,-32.227,-25.879,0.000,0
182109.067,-6.836,-26.855,-21.484,-10.742,0.000,0
182109.071,-31.250,-30.273,-37.598,-50.293,0.000,0
182109.075,-23.926,-33.691,-52.246,-65.918,0.000,0
182109.079,-4.883,-26.367,-28.809,-29.785,0.000,0
182109.083,-8.301,-27.832,-19.531,-11.230,0.000,0
182109.087,-5.371,-30.762,-25.391,-34.668,0.000,0
182109.091,-23.926,-34.180,-29.785,-62.500,0.000,0
182109.095,-19.531,-29.297,-26.367,-32.227,0.000,0
182109.099,-12.207,-20.508,-26.367,-1.465,0.000,0
182109.103,-18.066,-20.020,-30.273,-6.836,0.000,0
182109.106,-9.277,-13.672,-18.066,-35.645,0.000,0
182109.110,-7.812,-5.859,-11.230,-40.527,0.000,0
182109.114,9.277,1.465,-4.883,1.465,0.000,0
182109.118,6.348,-14.648,-28.809,6.836,0.000,0
182109.122,-13.672,-30.273,-49.316,-39.551,0.000,0
182109.126,-13.672,-28.809,-40.039,-55.176,0.000,0
182109.130,-9.766,-30.273,-40.527,-42.480,0.000,0
182109.134,4.883,-29.297,-38.086,-29.785,0.000,0
182109.138,-8.789,-29.297,-30.762,-36.621,0.000,0
182109.142,-31.250,-23.438,-30.762,-41.504,0.000,0
182109.145,-10.742,-16.602,-29.297,-11.230,0.000,0
182109.149,-1.465,-24.414,-31.738,-21.484,0.000,0
182109.153,-2.441,-21.973,-23.926,-25.879,0.000,0
182109.157,-8.789,-17.578,-17.090,-29.297,0.000,0
182109.161,-5.371,-18.066,-19.043,-25.879,0.000,0
182109.165,8.301,-18.555,-22.461,2.441,0.000,0
182109.169,-11.230,-21.484,-22.461,-20.020,0.000,0
182109.173,-35.156,-22.461,-25.879,-47.363,0.000,0
182109.177,-24.414,-25.879,-42.969,-35.645,0.000,0
182109.181,-15.625,-22.949,-39.062,-6.348,0.000,0
182109.185,-19.531,-20.020,-23.926,0.488,0.000,0
182109.188,-33.203,-23.926,-27.344,-31.250,0.000,0
182109.192,-29.297,-21.973,-35.156,-30.273,0.000,0
182109.196,-15.137,-25.391,-20.996,-2.930,0.000,0
182109.200,-7.812,-24.902,-19.531,-8.789,0.000,0
182109.204,-21.484,-24.902,-34.180,-28.809,0.000,0
182109.208,-25.879,-30.762,-42.969,-45.898,0.000,0
182109.212,11.719,-24.414,-23.438,-24.414,0.000,0
182109.216,5.859,-11.230,-5.371,5.859,0.000,0
182109.220,-17.090,-15.137,-21.973,4.883,0.000,0
182109.224,-13.672,-23.438,-34.180,-22.949,0.000,0
182109.228,-15.137,-28.809,-29.785,-30.273,0.000,0
182109.231,-12.695,-29.297,-41.504,-9.766,0.000,0
182109.235,-4.395,-26.855,-41.504,-31.250,0.000,0
182109.239,-2.441,-21.973,-29.785,-33.203,0.000,0
182109.243,-12.207,-34.668,-35.156,-20.996,0.000,0
182109.247,-15.625,-43.457,-40.527,-29.297,0.000,0
182109.251,-24.414,-37.109,-45.410,-36.133,0.000,0
182109.255,-39.551,-37.598,-44.922,-42.969,0.000,0
182109.259,-22.949,-32.227,-40.039,-27.344,0.000,0
182109.263,-5.859,-32.227,-45.410,-23.438,0.000,0
182109.267,-7.324,-32.715,-36.133,-34.668,0.000,0
182109.270,-10.254,-24.414,-25.391,-17.578,0.000,0
182109.274,-4.883,-22.461,-36.621,-14.160,0.000,0
182109.278,10.254,-24.414,-33.691,-12.207,0.000,0
182109.282,4.395,-26.855,-24.902,-8.789,0.000,0
182109.286,-18.555,-26.367,-25.879,-26.855,0.000,0
182109.290,-17.578,-26.367,-33.691,-27.832,0.000,0
182109.294,-13.184,-34.668,-43.945,-15.137,0.000,0
182109.298,-23.438,-39.551,-43.945,-21.973,0.000,0
182109.302,-41.504,-33.203,-43.457,-20.996,0.000,0
182109.306,-35.156,-26.855,-34.668,-35.156,0.000,0
182109.310,-3.906,-30.273,-44.922,-35.156,0.000,0
182109.313,16.113,-24.902,-36.621,-21.973,0.000,0
182109.317,8.301,-24.414,-33.691,-23.438,0.000,0
182109.321,-5.371,-27.832,-35.156,-35.645,0.000,0
182109.325,-7.812,-32.715,-29.297,-49.316,0.000,0
182109.329,-5.371,-32.227,-28.809,-28.320,0.000,0
182109.333,-15.137,-26.367,-28.320,-19.531,0.000,0
182109.337,-27.344,-25.879,-28.320,-36.133,0.000,0
182109.341,-20.508,-20.508,-35.156,-35.645,0.000,0
182109.345,-20.020,-23.438,-45.410,-41.016,0.000,0
182109.349,-22.461,-20.508,-37.109,-37.109,0.000,0
182109.353,-21.973,-17.578,-36.621,-42.480,0.000,0
182109.356,-23.926,-25.879,-40.527,-53.711,0.000,0
182109.360,-6.348,-28.809,-36.133,-21.484,0.000,0
182109.364,0.977,-27.344,-33.691,-15.137,0.000,0
182109.368,0.488,-17.090,-21.973,-26.855,0.000,0
182109.372,-16.113,-16.113,-27.832,-50.781,0.000,0
182109.376,-23.438,-16.113,-35.156,-47.363,0.000,0
182109.380,-4.395,-4.395,-23.926,-8.301,0.000,0
182109.384,-22.949,-17.090,-41.992,-37.109,0.000,0
182109.388,-47.852,-27.832,-55.664,-71.777,0.000,0
182109.392,-46.387,-29.297,-51.270,-63.965,0.000,0
182109.395,-29.297,-28.809,-39.551,-36.621,0.000,0
182109.399,-22.461,-23.438,-30.273,-19.531,0.000,0
182109.403,-23.926,-16.113,-27.832,-42.969,0.000,0
182109.407,-14.648,-15.625,-31.738,-41.504,0.000,0
182109.411,-3.906,-17.578,-33.203,-23.926,0.000,0
182109.415,0.000,-25.391,-45.410,-33.691,0.000,0
182109.419,-11.719,-30.273,-53.223,-48.340,0.000,0
182109.423,-23.438,-25.391,-33.691,-57.617,0.000,0
182109.427,-19.043,-23.926,-28.809,-48.828,0.000,0
182109.431,-9.277,-23.438,-40.039,-28.320,0.000,0
182109.435,-13.672,-19.531,-32.715,-15.625,0.000,0
182109.438,-33.691,-15.625,-19.043,-29.297,0.000,0
182109.442,-32.227,-16.113,-18.066,-37.598,0.000,0
182109.446,-11.230,-19.531,-33.691,-18.555,0.000,0
182109.450,-5.371,-17.090,-31.250,-15.625,0.000,0
182109.454,-17.578,-16.602,-26.367,-37.109,0.000,0
182109.458,-14.648,-19.043,-35.156,-27.344,0.000,0
182109.462,2.930,-20.020,-29.785,-11.230,0.000,0
182109.466,-2.930,-21.484,-31.250,-21.973,0.000,0
182109.470,-17.578,-30.273,-40.527,-31.250,0.000,0
182109.474,-8.301,-31.738,-29.297,-26.855,0.000,0
182109.478,13.672,-22.461,-34.668,-7.324,0.000,0
182109.481,19.531,-20.508,-33.203,-4.395,0.000,0
182109.485,13.672,-20.508,-19.043,-20.508,0.000,0
182109.489,-9.277,-19.531,-23.926,-30.273,0.000,0
182109.493,-2.441,-17.578,-19.043,-11.719,0.000,0
182109.497,24.414,-13.672,-18.066,16.113,0.000,0
182109.501,17.578,-16.602,-19.531,5.859,0.000,0
182109.505,-4.395,-21.484,-29.297,-28.320,0.000,0
182109.509,0.488,-11.230,-24.902,-4.883,0.000,0
182109.513,9.277,-13.184,-27.344,12.695,0.000,0
182109.517,-13.672,-33.203,-55.176,-22.949,0.000,0
182109.520,-25.879,-42.480,-57.617,-51.270,0.000,0
182109.524,-20.508,-41.504,-47.852,-61.523,0.000,0
182109.528,-0.977,-32.715,-41.992,-26.367,0.000,0
182109.532,4.883,-30.273,-37.598,-3.906,0.000,0
182109.536,-1.465,-24.414,-35.645,-3.906,0.000,0
182109.540,-16.602,-29.785,-56.641,-17.090,0.000,0
182109.544,-22.949,-30.762,-56.641,-23.438,0.000,0
182109.548,-10.742,-26.855,-30.273,-9.277,0.000,0
182109.552,-11.719,-25.879,-24.414,-13.184,0.000,0
182109.556,-24.414,-19.531,-21.484,-32.227,0.000,0
182109.560,-16.602,-26.855,-25.391,-28.809,0.000,0
182109.563,-2.441,-33.691,-38.086,-23.926,0.000,0
182109.567,-10.254,-35.645,-40.527,-46.387,0.000,0
182109.571,-26.855,-35.645,-38.574,-49.805,0.000,0
182109.575,-11.719,-27.832,-30.273,-23.926,0.000,0
182109.579,-4.395,-14.648,-21.973,-2.441,0.000,0
182109.583,-16.113,-14.160,-30.273,3.906,0.000,0
182109.587,-7.324,-18.555,-28.320,-7.324,0.000,0
182109.591,-5.371,-22.461,-33.691,-29.297,0.000,0
182109.595,12.207,-14.160,-23.926,-10.742,0.000,0
182109.599,24.902,-7.812,-10.254,-18.066,0.000,0
182109.603,5.859,-11.230,-24.414,-30.762,0.000,0
182109.606,-1.953,-12.207,-27.832,-11.719,0.000,0
182109.610,2.930,-18.555,-37.598,3.906,0.000,0
182109.614,6.836,-14.160,-30.762,11.719,0.000,0
182109.618,-6.348,-17.578,-25.879,-1.953,0.000,0
182109.622,-26.855,-34.668,-51.758,-21.973,0.000,0
182109.626,-17.578,-39.062,-45.898,-21.973,0.000,0
182109.630,-0.977,-22.949,-30.762,8.789,0.000,0
182109.634,-0.977,-17.090,-32.227,24.902,0.000,0
182109.638,-6.348,-22.949,-28.320,-6.836,0.000,0
182109.642,-1.953,-26.855,-30.762,-39.551,0.000,0
182109.645,8.789,-23.438,-31.250,-13.672,0.000,0
182109.649,20.508,-7.812,-7.324,15.137,0.000,0
182109.653,4.395,-9.766,-13.184,-19.531,0.000,0
182109.657,-7.812,-22.949,-37.598,-45.898,0.000,0
182109.661,-0.488,-30.762,-37.598,-37.109,0.000,0
182109.665,-3.418,-28.320,-34.668,-22.949,0.000,0
182109.669,7.812,-15.625,-18.066,-7.812,0.000,0
182109.673,2.441,-24.414,-22.949,-13.184,0.000,0
182109.677,-27.832,-30.762,-38.574,-16.602,0.000,0
182109.681,-33.203,-14.160,-35.156,-20.020,0.000,0
182109.685,-23.926,-14.648,-32.715,-32.227,0.000,0
182109.688,-16.602,-13.184,-18.555,-30.273,0.000,0
182109.692,2.930,-8.301,-13.672,-18.066,0.000,0
182109.696,5.859,-23.438,-21.973,-11.719,0.000,0
182109.700,-6.348,-30.762,-30.273,-35.156,0.000,0
182109.704,-24.902,-27.832,-39.551,-56.152,0.000,0
182109.708,-19.043,-20.020,-24.902,-35.156,0.000,0
182109.712,-10.742,-19.043,-15.625,-13.672,0.000,0
182109.716,-13.184,-21.973,-26.855,-8.789,0.000,0
182109.720,-15.625,-19.043,-19.531,-36.133,0.000,0
182109.724,-27.832,-23.438,-23.438,-41.016,0.000,0
182109.728,-16.113,-22.461,-33.203,0.488,0.000,0
182109.731,-0.488,-12.207,-20.508,1.953,0.000,0
182109.735,-12.207,-4.883,-10.742,-12.695,0.000,0
182109.739,-20.508,-19.531,-28.320,-12.207,0.000,0
182109.743,-2.441,-29.785,-36.133,-3.906,0.000,0
182109.747,-18.066,-18.555,-20.508,-21.973,0.000,0
182109.751,-45.898,-22.949,-21.973,-41.504,0.000,0
182109.755,-31.250,-29.297,-27.344,-34.180,0.000,0
182109.759,-18.066,-28.809,-25.391,-21.973,0.000,0
182109.763,-13.672,-31.250,-35.156,-13.672,0.000,0
182109.767,-3.418,-28.809,-37.109,-8.789,0.000,0
182109.770,-20.508,-45.898,-44.434,-32.227,0.000,0
182109.774,-23.438,-62.500,-34.180,-41.992,0.000,0
182109.778,7.812,-60.547,-29.297,-19.043,0.000,0
182109.782,-16.113,-70.312,-48.828,-35.156,0.000,0
182109.786,-49.805,-69.336,-43.457,-53.711,0.000,0
182109.790,-28.809,-59.082,-31.738,-41.992,0.000,0
182109.794,-6.348,-62.012,-32.715,-18.066,0.000,0
182109.798,-11.230,-65.430,-39.551,-25.879,0.000,0
182109.802,-23.438,-59.570,-42.969,-43.945,0.000,0
182109.806,-22.461,-55.664,-36.621,-40.527,0.000,0
182109.810,-16.602,-61.035,-34.180,-41.504,0.000,0
182109.813,-5.859,-60.059,-39.551,-14.160,0.000,0
182109.817,-6.348,-56.152,-34.668,-23.438,0.000,0
182109.821,-18.066,-59.570,-34.180,-47.852,0.000,0
182109.825,-22.949,-58.105,-32.227,-16.113,0.000,0
182109.829,-8.789,-48.828,-27.344,4.395,0.000,0
182109.833,-9.277,-57.129,-36.621,-22.949,0.000,0
182109.837,-29.297,-64.941,-38.574,-54.199,0.000,0
182109.841,-31.738,-60.547,-41.504,-56.152,0.000,0
182109.845,-21.973,-53.223,-34.180,-27.832,0.000,0
182109.849,-21.973,-45.410,-18.555,-20.020,0.000,0
182109.853,-19.531,-37.598,-20.508,-24.902,0.000,0
182109.856,-21.484,-40.527,-21.484,-39.062,0.000,0
182109.860,-21.973,-42.480,-26.855,-26.367,0.000,0
182109.864,-9.766,-36.133,-21.973,-5.371,0.000,0
182109.868,-19.043,-45.410,-31.738,-45.898,0.000,0
182109.872,-30.762,-51.758,-53.711,-58.594,0.000,0
182109.876,-30.273,-47.363,-35.156,-35.156,0.000,0
182109.880,-21.973,-48.828,-26.855,-24.414,0.000,0
182109.884,-18.066,-47.363,-35.645,-33.691,0.000,0
182109.888,-32.715,-44.434,-38.574,-56.641,0.000,0
182109.892,-30.273,-38.086,-31.738,-43.945,0.000,0
182109.895,-9.766,-34.668,-25.879,-23.438,0.000,0
182109.899,-14.160,-35.645,-28.809,-42.969,0.000,0
182109.903,-30.273,-29.297,-25.391,-41.992,0.000,0
182109.907,-29.297,-37.109,-32.715,-43.945,0.000,0
182109.911,-27.344,-44.434,-43.457,-41.992,0.000,0
182109.915,-28.809,-42.480,-39.062,-28.809,0.000,0
182109.919,-34.180,-39.551,-30.762,-36.133,0.000,0
182109.923,-42.480,-36.133,-28.809,-41.504,0.000,0
182109.927,-23.438,-33.691,-27.344,-19.531,0.000,0
182109.931,3.906,-23.438,-16.602,0.488,0.000,0
182109.935,1.465,-11.230,-10.254,-16.602,0.000,0
182109.938,-20.508,-20.020,-16.113,-42.969,0.000,0
182109.942,-20.996,-29.785,-38.574,-41.016,0.000,0
182109.946,-13.672,-26.855,-55.664,-33.691,0.000,0
182109.950,-38.574,-42.480,-43.945,-44.434,0.000,0
182109.954,-50.781,-45.410,-27.344,-61.035,0.000,0
182109.958,-28.809,-28.809,-18.066,-44.434,0.000,0
182109.962,0.977,-16.113,-7.324,2.930,0.000,0
182109.966,-11.230,-20.996,-13.184,-7.324,0.000,0
182109.970,-24.414,-29.785,-23.926,-40.527,0.000,0
182109.974,-29.785,-31.250,-41.016,-41.992,0.000,0
182109.978,-44.922,-40.527,-55.664,-39.062,0.000,0
182109.981,-49.316,-44.434,-49.316,-48.340,0.000,0
182109.985,-43.945,-26.367,-29.297,-51.270,0.000,0
182109.989,-41.992,-20.508,-15.137,-31.738,0.000,0
182109.993,-32.715,-30.762,-26.855,-23.926,0.000,0
182109.997,-29.297,-37.598,-43.457,-29.785,0.000,0
182110.001,-38.574,-39.551,-50.781,-43.945,0.000,0
182110.005,-33.203,-29.297,-38.574,-40.527,0.000,0
182110.009,-9.766,-12.207,-21.484,-13.184,0.000,0
182110.013,2.930,-18.066,-28.809,-11.719,0.000,0
182110.017,-9.277,-29.785,-37.109,-31.250,0.000,0
182110.020,-22.461,-28.809,-31.738,-51.270,0.000,0
182110.024,-15.625,-31.738,-36.133,-44.434,0.000,0
182110.028,-11.719,-30.762,-35.156,-11.230,0.000,0
182110.032,-22.461,-23.438,-23.926,-17.578,0.000,0
182110.036,-29.785,-15.625,-16.602,-44.434,0.000,0
182110.040,-20.020,-20.996,-33.691,-32.715,0.000,0
182110.044,5.859,-18.066,-35.156,-8.789,0.000,0
182110.048,5.371,-13.672,-20.020,-2.441,0.000,0
182110.052,-23.438,-21.973,-30.273,-32.715,0.000,0
182110.056,-24.902,-20.996,-38.086,-42.969,0.000,0
182110.060,1.953,-20.508,-29.785,-15.137,0.000,0
182110.063,-10.742,-33.691,-37.598,-6.836,0.000,0
182110.067,-53.223,-38.574,-42.969,-44.434,0.000,0
182110.071,-16.602,-17.090,-18.555,-29.297,0.000,0
182110.075,13.184,-3.418,-7.812,16.113,0.000,0
182110.079,-20.508,-22.949,-26.855,-18.066,0.000,0
182110.083,-27.832,-37.598,-39.062,-63.965,0.000,0
182110.087,-15.625,-30.762,-35.156,-55.176,0.000,0
182110.091,-10.254,-22.461,-26.367,-40.527,0.000,0
182110.095,-4.395,-16.113,-21.484,-39.062,0.000,0
182110.099,-18.555,-23.926,-39.062,-41.016,0.000,0
182110.103,-15.137,-18.066,-34.180,-33.691,0.000,0
182110.106,12.207,-3.906,-13.672,-5.371,0.000,0
182110.110,8.301,-4.883,-12.695,11.719,0.000,0
182110.114,-6.348,-9.277,-22.949,1.953,0.000,0
182110.118,-5.371,-22.949,-27.832,-16.602,0.000,0
182110.122,4.883,-17.578,-14.648,4.395,0.000,0
182110.126,-1.465,-13.672,-17.090,30.273,0.000,0
182110.130,-32.227,-31.738,-36.621,-16.113,0.000,0
182110.134,-58.105,-39.551,-47.363,-62.012,0.000,0
182110.138,-42.969,-32.227,-33.203,-41.992,0.000,0
182110.142,-34.180,-30.762,-29.297,-20.020,0.000,0
182110.145,-40.039,-33.203,-37.598,-19.531,0.000,0
182110.149,-31.738,-32.715,-31.738,-37.109,0.000,0
182110.153,-25.391,-21.484,-23.926,-55.664,0.000,0
182110.157,-6.836,-15.625,-20.996,-28.809,0.000,0
182110.161,13.672,-13.184,-18.555,-8.301,0.000,0
182110.165,3.906,-11.719,-21.484,-23.438,0.000,0
182110.169,-18.066,-26.855,-31.738,-47.852,0.000,0
182110.173,-14.648,-28.809,-40.527,-40.527,0.000,0
182110.177,5.371,-10.742,-20.508,7.812,0.000,0
182110.181,10.742,-6.836,-12.695,-0.977,0.000,0
182110.185,-18.555,-25.879,-32.227,-57.129,0.000,0
182110.188,-30.273,-40.039,-40.527,-58.594,0.000,0
182110.192,-6.348,-32.227,-37.598,-29.297,0.000,0
182110.196,-12.207,-29.785,-39.062,-30.762,0.000,0
182110.200,-26.855,-31.250,-46.387,-30.762,0.000,0
182110.204,-19.043,-30.762,-40.527,-14.160,0.000,0
182110.208,-5.859,-29.297,-32.715,-11.230,0.000,0
182110.212,-13.672,-32.227,-32.227,-14.160,0.000,0
182110.216,-42.480,-38.574,-35.645,-22.461,0.000,0
182110.220,-41.992,-31.250,-33.203,-44.922,0.000,0
182110.224,-13.184,-23.926,-27.832,-24.902,0.000,0
182110.228,-7.812,-28.809,-34.180,3.906,0.000,0
182110.231,-10.254,-25.391,-30.762,-24.414,0.000,0
182110.235,-6.348,-20.508,-25.391,-42.480,0.000,0
182110.239,-9.766,-26.367,-41.016,-14.648,0.000,0
182110.243,-17.578,-41.504,-54.199,-11.719,0.000,0
182110.247,-30.273,-49.805,-46.875,-38.086,0.000,0
182110.251,-25.391,-38.086,-30.273,-41.016,0.000,0
182110.255,-21.484,-32.227,-28.809,-30.762,0.000,0
182110.259,-9.766,-34.180,-33.691,-18.066,0.000,0
182110.263,-2.441,-30.273,-39.062,-10.254,0.000,0
182110.267,-25.391,-40.527,-44.434,-36.621,0.000,0
182110.270,-26.855,-43.457,-41.016,-51.270,0.000,0
182110.274,-12.695,-36.621,-43.945,-20.508,0.000,0
182110.278,-20.996,-44.434,-54.688,-12.695,0.000,0
182110.282,-36.133,-43.945,-54.688,-49.316,0.000,0
182110.286,-30.273,-34.668,-36.133,-41.992,0.000,0
182110.290,-10.254,-28.320,-20.996,-17.090,0.000,0
182110.294,-6.348,-29.297,-23.926,-11.719,0.000,0
182110.298,-14.160,-30.273,-32.715,-20.508,0.000,0
182110.302,-27.832,-35.156,-34.180,-36.133,0.000,0
182110.306,-22.461,-35.645,-32.715,-22.949,0.000,0
182110.310,-16.602,-35.645,-41.992,-18.555,0.000,0
182110.313,-40.527,-48.340,-55.176,-44.922,0.000,0
182110.317,-45.898,-46.387,-49.316,-50.293,0.000,0
182110.321,-29.297,-39.062,-43.457,-44.434,0.000,0
182110.325,-20.996,-41.992,-48.340,-27.832,0.000,0
182110.329,-13.672,-40.527,-41.504,-28.809,0.000,0
182110.333,-14.160,-30.762,-29.297,-50.293,0.000,0
182110.337,-14.648,-30.273,-30.273,-43.945,0.000,0
182110.341,-10.254,-40.039,-38.574,-25.879,0.000,0
182110.345,1.465,-40.039,-32.227,-10.742,0.000,0
182110.349,-1.465,-34.180,-23.438,-20.020,0.000,0
182110.353,-2.930,-34.180,-24.414,-26.367,0.000,0
182110.356,3.906,-38.574,-33.691,-20.996,0.000,0
182110.360,3.906,-37.109,-34.180,-29.785,0.000,0
182110.364,-20.020,-38.574,-40.039,-49.805,0.000,0
182110.368,-24.902,-41.504,-41.504,-59.082,0.000,0
182110.372,-12.695,-40.527,-35.156,-39.551,0.000,0
182110.376,-1.465,-33.203,-29.297,-18.066,0.000,0
182110.380,-11.719,-36.133,-38.574,-13.672,0.000,0
182110.384,-39.062,-39.062,-41.992,-28.320,0.000,0
182110.388,-16.602,-31.250,-33.203,-48.340,0.000,0
182110.392,8.789,-25.391,-24.414,-21.484,0.000,0
182110.395,-2.930,-23.926,-16.602,10.254,0.000,0
182110.399,-22.461,-31.250,-26.855,-38.086,0.000,0
182110.403,-14.648,-36.621,-33.691,-56.152,0.000,0
182110.407,0.977,-30.762,-33.203,-27.832,0.000,0
182110.411,1.465,-29.297,-29.297,-18.066,0.000,0
182110.415,-10.742,-30.762,-25.879,-22.949,0.000,0
182110.419,-10.254,-26.855,-27.344,-22.949,0.000,0
182110.423,-15.625,-25.879,-20.996,-11.719,0.000,0
182110.427,-23.438,-34.180,-26.855,-19.043,0.000,0
182110.431,-19.531,-37.598,-57.129,-48.340,0.000,0
182110.435,-26.367,-33.691,-54.688,-50.293,0.000,0
182110.438,-11.719,-33.691,-31.250,-39.062,0.000,0
182110.442,7.324,-21.973,-17.090,-14.648,0.000,0
182110.446,11.719,-16.602,-10.254,-16.602,0.000,0
182110.450,-8.789,-25.391,-16.113,-38.574,0.000,0
182110.454,-21.484,-32.715,-28.320,-32.227,0.000,0
182110.458,-7.324,-39.062,-37.598,-13.672,0.000,0
182110.462,-13.672,-41.504,-47.852,-6.348,0.000,0
182110.466,-25.879,-33.203,-47.363,-35.645,0.000,0
182110.470,-20.996,-27.344,-42.969,-45.410,0.000,0
182110.474,-10.742,-22.461,-36.133,-20.508,0.000,0
182110.478,-12.207,-25.391,-33.203,-24.414,0.000,0
182110.481,-23.438,-31.250,-36.621,-25.879,0.000,0
182110.485,-32.715,-27.832,-37.598,-31.738,0.000,0
182110.489,-28.320,-28.320,-35.156,-30.762,0.000,0
182110.493,-18.555,-37.109,-38.574,2.930,0.000,0
182110.497,-24.902,-27.344,-28.809,0.488,0.000,0
182110.501,-21.484,-13.184,-20.508,-7.324,0.000,0
182110.505,-24.902,-29.297,-35.156,-24.902,0.000,0
182110.509,-37.109,-39.062,-41.992,-42.969,0.000,0
182110.513,-36.133,-38.574,-53.223,-35.645,0.000,0
182110.517,-45.410,-41.504,-47.363,-46.387,0.000,0
182110.520,-47.363,-32.715,-32.227,-35.645,0.000,0
182110.524,-15.137,-19.043,-19.043,-22.461,0.000,0
182110.528,-7.812,-15.137,-16.113,-23.438,0.000,0
182110.532,-24.414,-22.949,-42.969,-36.621,0.000,0
182110.536,-20.508,-22.949,-41.992,-50.781,0.000,0
182110.540,-2.930,-15.625,-11.230,-27.344,0.000,0
182110.544,-14.648,-29.785,-15.137,-24.414,0.000,0
182110.548,-31.738,-37.598,-29.297,-46.875,0.000,0
182110.552,-31.738,-37.109,-34.668,-63.477,0.000,0
182110.556,-31.250,-42.480,-44.434,-48.828,0.000,0
182110.560,-31.738,-43.457,-48.828,-28.809,0.000,0
182110.563,-30.273,-37.109,-32.227,-32.227,0.000,0
182110.567,-32.715,-32.715,-25.879,-39.062,0.000,0
182110.571,-32.715,-33.203,-33.203,-28.320,0.000,0
182110.575,-18.555,-30.762,-25.391,-10.254,0.000,0
182110.579,-18.555,-30.762,-21.484,-16.113,0.000,0
182110.583,-31.250,-30.762,-24.902,-39.062,0.000,0
182110.587,-24.902,-24.414,-34.668,-29.297,0.000,0
182110.591,-1.465,-26.367,-41.504,-2.930,0.000,0
182110.595,-11.719,-36.621,-34.668,-16.602,0.000,0
182110.599,-19.531,-34.180,-21.973,-31.738,0.000,0
182110.603,-10.254,-27.832,-8.789,-29.297,0.000,0
182110.606,-4.883,-35.645,-26.367,-30.273,0.000,0
182110.610,-12.207,-41.504,-41.992,-36.621,0.000,0
182110.614,-26.855,-32.227,-30.273,-42.969,0.000,0
182110.618,-37.109,-27.344,-27.832,-30.273,0.000,0
182110.622,-28.809,-20.508,-28.320,-18.555,0.000,0
182110.626,-4.883,-13.184,-20.020,-20.996,0.000,0
182110.630,-9.766,-14.648,-16.113,-20.508,0.000,0
182110.634,-16.602,-20.508,-29.297,-40.527,0.000,0
182110.638,-7.324,-31.738,-41.992,-48.828,0.000,0
182110.642,-4.395,-30.273,-29.297,-23.926,0.000,0
182110.645,-9.277,-29.297,-28.320,-27.344,0.000,0
182110.649,-14.160,-35.156,-38.086,-48.340,0.000,0
182110.653,-6.348,-37.598,-43.945,-41.992,0.000,0
182110.657,-1.953,-34.668,-40.527,-16.113,0.000,0
182110.661,-3.906,-25.391,-23.926,-20.508,0.000,0
182110.665,-8.789,-21.484,-14.648,-46.875,0.000,0
182110.669,-8.301,-26.855,-27.344,-41.992,0.000,0
182110.673,2.930,-34.180,-44.434,-22.949,0.000,0
182110.677,-6.348,-34.180,-44.434,-19.043,0.000,0
182110.681,-34.668,-33.203,-37.109,-38.574,0.000,0
182110.685,-25.391,-26.367,-22.949,-46.875,0.000,0
182110.688,-2.930,-22.461,-22.949,-30.273,0.000,0
182110.692,-10.254,-27.832,-33.691,-10.742,0.000,0
182110.696,-18.555,-21.484,-24.902,0.488,0.000,0
182110.700,-15.137,-18.555,-13.672,-16.113,0.000,0
182110.704,-17.090,-27.832,-17.578,-29.297,0.000,0
182110.708,-15.625,-29.785,-20.508,-7.324,0.000,0
182110.712,-15.137,-30.273,-26.855,-14.160,0.000,0
182110.716,-26.855,-36.133,-30.762,-40.527,0.000,0
182110.720,-30.762,-40.527,-36.621,-45.410,0.000,0
182110.724,-10.742,-29.785,-41.504,-18.555,0.000,0
182110.728,-3.906,-18.555,-21.484,-10.254,0.000,0
182110.731,-22.461,-27.832,-14.648,-33.203,0.000,0
182110.735,-28.320,-41.016,-32.227,-33.203,0.000,0
182110.739,-13.184,-40.527,-30.273,-30.273,0.000,0
182110.743,-3.906,-34.668,-25.879,-33.691,0.000,0
182110.747,-11.719,-29.297,-29.785,-41.504,0.000,0
182110.751,-17.090,-26.855,-25.879,-41.504,0.000,0
182110.755,-14.160,-30.762,-32.227,-11.230,0.000,0
182110.759,-14.160,-37.109,-39.062,-8.301,0.000,0
182110.763,-20.020,-37.109,-28.320,-39.062,0.000,0
182110.767,-14.648,-33.203,-21.973,-39.551,0.000,0
182110.770,-3.418,-36.133,-24.414,-23.438,0.000,0
182110.774,-6.836,-34.180,-22.949,-6.836,0.000,0
182110.778,-18.066,-33.691,-26.367,-25.879,0.000,0
182110.782,-10.742,-22.461,-16.113,-66.406,0.000,0
182110.786,-4.395,-14.648,-11.719,-38.086,0.000,0
182110.790,6.348,-23.926,-22.949,-7.324,0.000,0
182110.794,5.371,-29.297,-26.367,-14.160,0.000,0
182110.798,-17.090,-35.645,-29.785,-29.785,0.000,0
182110.802,-25.391,-41.016,-29.785,-45.410,0.000,0
182110.806,-3.906,-39.551,-32.715,-27.832,0.000,0
182110.810,-12.207,-38.086,-35.156,-26.367,0.000,0
182110.813,-45.410,-28.809,-29.297,-54.199,0.000,0
182110.817,-23.438,-25.879,-24.902,-58.105,0.000,0
182110.821,10.254,-21.973,-33.691,-33.203,0.000,0
182110.825,4.883,-14.648,-32.715,-18.555,0.000,0
182110.829,-14.160,-14.648,-12.207,-27.832,0.000,0
182110.833,-14.160,-20.996,-12.695,-23.926,0.000,0
182110.837,-9.766,-37.109,-30.762,-28.809,0.000,0
182110.841,-11.719,-40.527,-31.738,-30.762,0.000,0
182110.845,-8.301,-24.414,-17.090,-7.324,0.000,0
182110.849,-13.184,-20.508,-20.508,-16.602,0.000,0
182110.853,-15.137,-29.297,-30.762,-18.066,0.000,0
182110.856,-3.906,-33.203,-34.180,-8.301,0.000,0
182110.860,-9.766,-34.180,-35.645,-27.832,0.000,0
182110.864,-30.762,-36.621,-47.363,-37.109,0.000,0
182110.868,-24.902,-29.297,-33.203,-10.254,0.000,0
182110.872,8.789,-14.648,-1.465,17.090,0.000,0
182110.876,-9.766,-29.297,-15.625,-14.160,0.000,0
182110.880,-31.738,-35.645,-27.344,-38.574,0.000,0
182110.884,-21.973,-36.621,-31.738,-28.320,0.000,0
182110.888,-15.625,-42.969,-39.062,-16.602,0.000,0
182110.892,-23.926,-36.621,-38.086,-19.531,0.000,0
182110.895,-29.297,-35.645,-39.062,-47.852,0.000,0
182110.899,-17.090,-27.832,-30.762,-51.270,0.000,0
182110.903,-24.414,-23.438,-31.738,-26.367,0.000,0
182110.907,-27.344,-34.668,-37.109,-6.348,0.000,0
182110.911,-21.484,-42.480,-37.109,-18.555,0.000,0
182110.915,-23.926,-37.109,-31.250,-34.180,0.000,0
182110.919,-13.184,-32.227,-28.809,-11.230,0.000,0
182110.923,-5.371,-33.203,-39.062,-1.465,0.000,0
182110.927,-16.602,-35.645,-41.504,-18.066,0.000,0
182110.931,-28.809,-39.062,-37.598,-27.832,0.000,0
182110.935,-10.254,-38.086,-25.879,-19.531,0.000,0
182110.938,-3.418,-42.969,-33.691,-16.602,0.000,0
182110.942,-17.090,-43.945,-46.387,-28.809,0.000,0
182110.946,-36.621,-38.574,-46.387,-45.898,0.000,0
182110.950,-39.551,-41.016,-43.457,-45.898,0.000,0
182110.954,-15.137,-37.598,-31.250,-22.461,0.000,0
182110.958,-14.648,-37.598,-26.367,-19.043,0.000,0
182110.962,-27.344,-38.086,-23.926,-26.367,0.000,0
182110.966,-31.250,-37.109,-24.414,-35.156,0.000,0
182110.970,-19.043,-34.668,-25.879,-17.578,0.000,0
182110.974,-15.137,-35.645,-27.832,0.977,0.000,0
182110.978,-29.785,-42.480,-32.227,-33.691,0.000,0
182110.981,-38.574,-40.039,-36.621,-45.898,0.000,0
182110.985,-38.086,-44.434,-44.434,-44.434,0.000,0
182110.989,-20.508,-34.180,-35.156,-17.090,0.000,0
182110.993,-22.461,-23.926,-20.996,-7.324,0.000,0
182110.997,-27.832,-36.133,-19.043,-38.574,0.000,0
182111.001,-17.578,-38.086,-19.531,-33.203,0.000,0
182111.005,-11.230,-42.969,-24.414,-18.555,0.000,0
182111.009,-22.461,-42.480,-30.273,-5.859,0.000,0
182111.013,-17.578,-32.715,-25.391,-16.602,0.000,0
182111.017,7.324,-20.508,-9.766,-28.809,0.000,0
182111.020,7.812,-17.578,-11.719,-8.789,0.000,0
182111.024,-1.465,-30.762,-26.855,-5.859,0.000,0
182111.028,-13.672,-34.668,-24.414,-32.227,0.000,0
182111.032,-19.531,-38.574,-34.668,-47.363,0.000,0
182111.036,-15.137,-43.457,-41.992,-37.598,0.000,0
182111.040,-5.859,-39.551,-36.621,-16.113,0.000,0
182111.044,-8.301,-36.133,-30.762,-10.254,0.000,0
182111.048,-21.484,-36.133,-28.320,-25.391,0.000,0
182111.052,-17.578,-36.621,-24.902,-26.855,0.000,0
182111.056,-2.441,-34.668,-23.438,-27.832,0.000,0
182111.060,-12.695,-39.062,-40.527,-38.086,0.000,0
182111.063,-35.156,-45.898,-47.852,-49.805,0.000,0
182111.067,-18.066,-36.133,-37.109,-36.133,0.000,0
182111.071,13.184,-21.484,-21.973,2.441,0.000,0
182111.075,2.441,-23.926,-14.648,-1.953,0.000,0
182111.079,-12.207,-32.227,-31.738,-37.598,0.000,0
182111.083,-16.113,-26.367,-41.992,-32.715,0.000,0
182111.087,-8.789,-26.367,-29.785,-20.508,0.000,0
182111.091,5.859,-36.621,-28.320,-22.949,0.000,0
182111.095,-10.742,-35.156,-30.273,-34.180,0.000,0
182111.099,-30.762,-32.715,-37.109,-55.176,0.000,0
182111.103,-22.461,-29.785,-36.621,-37.598,0.000,0
182111.106,-15.137,-27.832,-35.156,-17.578,0.000,0
182111.110,-17.578,-21.973,-34.668,-14.160,0.000,0
182111.114,-19.531,-14.648,-25.391,-33.691,0.000,0
182111.118,-17.090,-19.043,-24.414,-40.527,0.000,0
182111.122,2.441,-22.949,-25.391,-8.789,0.000,0
182111.126,-14.648,-30.762,-32.227,-24.902,0.000,0
182111.130,-43.457,-35.156,-44.434,-50.293,0.000,0
182111.134,-34.180,-36.133,-41.992,-54.199,0.000,0
182111.138,-30.762,-37.109,-39.551,-41.016,0.000,0
182111.142,-33.203,-34.668,-38.574,-18.066,0.000,0
182111.145,-40.039,-29.785,-27.832,-20.996,0.000,0
182111.149,-43.457,-27.832,-26.367,-12.207,0.000,0
182111.153,-43.457,-33.691,-27.832,6.348,0.000,0
182111.157,-49.316,-35.156,-26.367,0.977,0.000,0
182111.161,-50.293,-16.602,-13.184,-21.973,0.000,0
182111.165,-45.410,-5.859,0.000,-57.129,0.000,0
182111.169,-58.594,-26.855,-24.414,-75.684,0.000,0
182111.173,-74.219,-34.668,-40.039,-89.844,0.000,0
182111.177,-92.773,-29.785,-42.969,-115.234,0.000,0
182111.181,-109.863,-35.156,-50.293,-127.441,0.000,0
182111.185,-93.750,-30.762,-32.715,-108.398,0.000,0
182111.188,-76.172,-20.996,-18.066,-95.215,0.000,0
182111.192,-91.309,-23.438,-27.832,-119.629,0.000,0
182111.196,-112.305,-24.414,-29.785,-122.559,0.000,0
182111.200,-111.328,-21.973,-30.273,-82.031,0.000,0
182111.204,-107.910,-23.438,-33.691,-50.293,0.000,0
182111.208,-139.648,-31.250,-39.062,-52.734,0.000,0
182111.212,-178.711,-34.180,-39.062,-58.105,0.000,0
182111.216,-171.875,-30.762,-31.738,-29.785,0.000,0
182111.220,-160.645,-31.738,-23.438,0.977,0.000,0
182111.224,-170.898,-33.691,-12.695,3.906,0.000,0
182111.228,-179.688,-27.344,-20.020,-8.301,0.000,0
182111.231,-181.152,-20.508,-14.648,-0.488,0.000,0
182111.235,-170.410,-20.020,-11.230,29.297,0.000,0
182111.239,-162.598,-23.926,-18.555,48.828,0.000,0
182111.243,-180.664,-32.715,-23.438,13.672,0.000,0
182111.247,-197.754,-33.203,-28.809,-16.602,0.000,0
182111.251,-181.641,-33.691,-31.250,12.695,0.000,0
182111.255,-170.410,-34.180,-23.438,32.715,0.000,0
182111.259,-177.246,-29.297,-18.066,24.414,0.000,0
182111.263,-178.223,-29.297,-24.414,20.020,0.000,0
182111.267,-176.270,-35.645,-34.668,26.855,0.000,0
182111.270,-179.688,-41.016,-32.227,27.344,0.000,0
182111.274,-187.012,-38.086,-31.250,9.277,0.000,0
182111.278,-198.730,-44.922,-40.039,-9.766,0.000,0
182111.282,-172.363,-39.551,-33.691,12.207,0.000,0
182111.286,-140.625,-32.715,-27.344,47.852,0.000,0
182111.290,-142.090,-39.062,-29.785,38.086,0.000,0
182111.294,-135.742,-34.668,-28.809,25.879,0.000,0
182111.298,-118.652,-29.785,-32.227,33.691,0.000,0
182111.302,-105.957,-31.738,-32.715,43.457,0.000,0
182111.306,-107.422,-37.598,-41.504,41.016,0.000,0
182111.310,-112.305,-38.574,-44.922,19.531,0.000,0
182111.313,-101.074,-35.156,-33.691,20.020,0.000,0
182111.317,-82.031,-29.785,-26.367,44.434,0.000,0
182111.321,-74.707,-29.785,-26.855,43.945,0.000,0
182111.325,-85.938,-24.414,-26.855,32.715,0.000,0
182111.329,-70.801,-1.465,-2.441,47.852,0.000,0
182111.333,-33.203,-1.465,4.395,76.172,0.000,0
182111.337,-40.039,-23.926,-29.785,57.617,0.000,0
182111.341,-64.941,-42.480,-49.316,6.348,0.000,0
182111.345,-57.617,-35.645,-35.645,0.488,0.000,0
182111.349,-39.062,-26.855,-19.043,17.578,0.000,0
182111.353,-27.344,-29.297,-21.484,20.996,0.000,0
182111.356,-20.996,-29.785,-25.391,15.137,0.000,0
182111.360,-25.879,-28.320,-22.949,16.602,0.000,0
182111.364,-18.555,-26.367,-24.414,35.156,0.000,0
182111.368,-3.418,-30.762,-26.855,45.898,0.000,0
182111.372,-18.066,-33.691,-28.809,25.391,0.000,0
182111.376,-35.156,-27.344,-33.203,0.977,0.000,0
182111.380,-10.254,-12.695,-15.625,23.438,0.000,0
182111.384,8.301,-14.160,-15.137,48.340,0.000,0
182111.388,-10.254,-31.250,-37.598,28.320,0.000,0
182111.392,-31.250,-41.504,-40.527,-4.883,0.000,0
182111.395,-23.926,-36.621,-37.109,8.301,0.000,0
182111.399,6.348,-21.973,-28.320,42.480,0.000,0
182111.403,11.719,-19.531,-27.832,36.133,0.000,0
182111.407,1.465,-22.949,-26.855,2.930,0.000,0
182111.411,-0.977,-13.184,-20.996,13.184,0.000,0
182111.415,9.766,-9.277,-16.113,37.598,0.000,0
182111.419,20.996,-17.090,-14.160,31.250,0.000,0
182111.423,0.000,-33.691,-28.809,8.789,0.000,0
182111.427,-17.578,-43.945,-47.363,-27.344,0.000,0
182111.431,-7.812,-41.016,-62.988,-26.367,0.000,0
182111.435,7.324,-33.203,-56.641,19.043,0.000,0
182111.438,8.789,-25.391,-27.832,22.461,0.000,0
182111.442,17.578,-14.648,-14.160,8.301,0.000,0
182111.446,38.086,-13.184,-18.066,8.789,0.000,0
182111.450,56.152,-15.137,-12.207,16.602,0.000,0
182111.454,49.316,-20.996,-15.137,24.414,0.000,0
182111.458,23.926,-25.879,-29.785,1.465,0.000,0
182111.462,24.902,-28.809,-36.133,-12.695,0.000,0
182111.466,45.410,-37.109,-30.762,7.324,0.000,0
182111.470,55.176,-29.785,-23.926,28.809,0.000,0
182111.474,39.062,-29.785,-41.016,29.785,0.000,0
182111.478,20.996,-33.203,-45.410,19.043,0.000,0
182111.481,15.625,-25.879,-31.250,28.320,0.000,0
182111.485,26.855,-25.391,-24.414,28.809,0.000,0
182111.489,35.645,-21.973,-16.602,8.789,0.000,0
182111.493,22.461,-22.461,-28.320,-7.812,0.000,0
182111.497,5.859,-32.715,-43.457,-3.418,0.000,0
182111.501,14.648,-34.668,-47.363,25.391,0.000,0
182111.505,-0.977,-34.180,-48.828,7.812,0.000,0
182111.509,-30.273,-32.227,-40.039,-29.785,0.000,0
182111.513,-3.906,-9.766,-10.742,2.441,0.000,0
182111.517,27.832,0.488,3.418,32.715,0.000,0
182111.520,3.906,-25.879,-25.879,4.883,0.000,0
182111.524,-16.113,-34.668,-34.180,-30.762,0.000,0
182111.528,-5.371,-30.273,-32.227,-23.926,0.000,0
182111.532,13.184,-27.832,-41.016,-3.906,0.000,0
182111.536,15.137,-27.832,-41.992,0.488,0.000,0
182111.540,4.883,-25.879,-30.762,-6.836,0.000,0
182111.544,6.836,-27.832,-30.273,-20.020,0.000,0
182111.548,17.578,-33.691,-46.875,0.977,0.000,0
182111.552,38.086,-17.578,-25.391,28.809,0.000,0
182111.556,25.879,-16.602,-10.254,3.418,0.000,0
182111.560,2.930,-19.531,-16.113,-14.160,0.000,0
182111.563,14.648,-23.438,-28.809,1.465,0.000,0
182111.567,20.508,-42.969,-39.062,2.441,0.000,0
182111.571,4.883,-48.828,-32.715,-11.719,0.000,0
182111.575,-4.395,-46.387,-32.227,-14.160,0.000,0
182111.579,16.602,-39.062,-33.203,-4.395,0.000,0
182111.583,27.832,-30.273,-25.879,-0.977,0.000,0
182111.587,18.066,-21.973,-17.090,-0.977,0.000,0
182111.591,15.625,-18.066,-22.461,-12.695,0.000,0
182111.595,16.113,-21.973,-28.320,-11.230,0.000,0
182111.599,20.508,-21.484,-18.555,20.020,0.000,0
182111.603,14.160,-27.832,-24.414,10.742,0.000,0
182111.606,8.789,-29.297,-27.344,-10.254,0.000,0
182111.610,11.230,-20.020,-20.996,-8.789,0.000,0
182111.614,21.484,-17.090,-23.438,11.719,0.000,0
182111.618,20.508,-25.879,-27.344,13.672,0.000,0
182111.622,12.695,-24.902,-20.996,-7.324,0.000,0
182111.626,10.254,-24.414,-24.902,-32.227,0.000,0
182111.630,9.277,-20.996,-25.879,-20.020,0.000,0
182111.634,16.113,-18.066,-18.066,-0.488,0.000,0
182111.638,4.395,-27.832,-20.508,3.418,0.000,0
182111.642,-16.602,-34.668,-28.809,-19.531,0.000,0
182111.645,18.555,-32.227,-23.926,-10.254,0.000,0
182111.649,23.926,-31.738,-28.809,35.156,0.000,0
182111.653,-15.137,-40.039,-42.969,-14.160,0.000,1
182111.657,-22.461,-25.879,-24.902,-48.828,0.000,0
182111.661,0.977,-5.859,-6.348,-18.555,0.000,0
182111.665,9.277,-13.672,-15.625,-10.254,0.000,0
182111.669,-1.953,-20.996,-24.414,-14.648,0.000,0
182111.673,-15.137,-23.438,-33.691,-26.367,0.000,0
182111.677,-30.762,-26.855,-36.133,-28.320,0.000,0
182111.681,-20.996,-27.344,-35.156,-20.508,0.000,0
182111.685,-4.883,-21.973,-27.832,-16.602,0.000,0
182111.688,-21.484,-26.855,-29.297,-21.973,0.000,0
182111.692,-41.504,-29.297,-31.250,-43.945,0.000,0
182111.696,-13.672,-9.766,-12.695,-21.973,0.000,0
182111.700,3.418,-4.883,-13.184,9.766,0.000,0
182111.704,-17.578,-15.137,-22.949,-22.949,0.000,0
182111.708,-31.738,-22.949,-35.156,-52.734,0.000,0
182111.712,-22.461,-29.785,-40.527,-44.922,0.000,0
182111.716,1.953,-28.320,-37.109,-16.602,0.000,0
182111.720,6.836,-19.531,-26.855,-3.418,0.000,0
182111.724,0.977,-17.578,-22.461,-18.555,0.000,0
182111.728,-5.371,-13.184,-21.973,-27.832,0.000,0
182111.731,7.324,-14.648,-27.344,1.465,0.000,0
182111.735,26.855,-21.484,-31.250,22.461,0.000,0
182111.739,-14.648,-30.273,-36.133,-28.320,0.000,0
182111.743,-49.316,-30.762,-35.156,-79.102,0.000,0
182111.747,-16.602,-22.461,-26.855,-42.480,0.000,0
182111.751,0.488,-21.484,-22.949,-3.906,0.000,0
182111.755,-23.438,-20.996,-31.250,-37.598,0.000,0
182111.759,-31.738,-15.625,-39.551,-56.152,0.000,0
182111.763,-27.832,-18.066,-35.156,-56.641,0.000,0
182111.767,-17.578,-26.367,-45.898,-48.828,0.000,0
182111.770,-13.184,-25.879,-46.387,-46.387,0.000,0
182111.774,-38.086,-18.555,-32.715,-62.012,0.000,0
182111.778,-33.203,-20.508,-29.297,-48.340,0.000,0
182111.782,-2.930,-20.020,-22.949,-30.273,0.000,0
182111.786,-5.859,-12.207,-16.602,-19.043,0.000,0
182111.790,-30.762,-22.461,-30.762,-34.668,0.000,0
182111.794,-34.180,-39.551,-44.922,-49.316,0.000,0
182111.798,-20.508,-43.457,-48.828,-49.316,0.000,0
182111.802,-16.113,-43.945,-52.734,-42.969,0.000,0
182111.806,-32.227,-44.922,-53.711,-50.781,0.000,0
182111.810,-36.133,-39.551,-43.457,-60.059,0.000,0
182111.813,-17.578,-28.809,-31.738,-39.062,0.000,0
182111.817,3.906,-27.832,-39.551,-22.461,0.000,0
182111.821,-4.395,-34.668,-40.527,-51.758,0.000,0
182111.825,-14.648,-34.668,-43.945,-58.105,0.000,0
182111.829,-7.812,-32.715,-41.992,-33.691,0.000,0
182111.833,-2.441,-31.738,-33.203,-18.066,0.000,0
182111.837,-9.277,-30.273,-29.297,-23.438,0.000,0
182111.841,-16.113,-37.109,-33.203,-49.805,0.000,0
182111.845,-18.555,-39.551,-37.598,-41.504,0.000,0
182111.849,-4.395,-29.785,-31.738,-24.414,0.000,0
182111.853,9.766,-23.926,-32.227,-24.902,0.000,0
182111.856,-14.648,-34.668,-36.621,-43.457,0.000,0
182111.860,-41.016,-46.387,-41.504,-72.266,0.000,0
182111.864,-30.273,-42.969,-48.340,-56.641,0.000,0
182111.868,-14.648,-38.086,-36.621,-32.715,0.000,0
182111.872,-22.949,-42.969,-36.133,-47.363,0.000,0
182111.876,-26.855,-43.457,-45.410,-66.406,0.000,0
182111.880,-20.508,-34.180,-40.039,-47.363,0.000,0
182111.884,-10.742,-35.156,-36.621,-24.414,0.000,0
182111.888,-18.555,-35.156,-31.250,-26.855,0.000,0
182111.892,-26.855,-29.785,-36.621,-49.316,0.000,0
182111.895,-25.879,-36.133,-39.062,-57.129,0.000,0
182111.899,-15.137,-36.133,-28.809,-52.246,0.000,0
182111.903,-27.832,-34.668,-43.457,-50.781,0.000,0
182111.907,-33.203,-28.320,-46.387,-61.523,0.000,0
182111.911,-17.090,-22.949,-23.926,-43.945,0.000,0
182111.915,-0.977,-24.902,-15.625,-6.348,0.000,0
182111.919,-10.254,-30.762,-19.531,-32.227,0.000,0
182111.923,-29.297,-39.551,-42.969,-62.988,0.000,0
182111.927,-28.809,-41.016,-55.176,-53.711,0.000,0
182111.931,-29.297,-45.898,-45.898,-32.227,0.000,0
182111.935,-24.414,-41.992,-38.086,-13.672,0.000,0
182111.938,-15.625,-30.762,-27.344,-21.484,0.000,0
182111.942,-43.457,-33.203,-28.809,-45.410,0.000,0
182111.946,-35.156,-33.203,-36.621,-33.691,0.000,0
182111.950,-5.371,-35.156,-41.504,-9.277,0.000,0
182111.954,-15.625,-37.109,-40.039,-2.930,0.000,0
182111.958,-23.926,-38.086,-28.809,-25.391,0.000,0
182111.962,-15.625,-49.316,-33.691,-43.945,0.000,0
182111.966,-27.832,-46.387,-34.668,-18.555,0.000,0
182111.970,-29.785,-35.156,-34.668,-16.113,0.000,0
182111.974,-30.762,-33.203,-41.016,-51.270,0.000,0
182111.978,-19.531,-36.133,-30.762,-43.457,0.000,0
182111.981,0.488,-37.109,-30.273,-35.156,0.000,0
182111.985,-6.348,-38.086,-36.133,-41.016,0.000,0
182111.989,-24.414,-39.551,-32.715,-46.875,0.000,0
182111.993,-29.785,-35.156,-36.133,-45.410,0.000,0
182111.997,-20.020,-39.551,-42.480,-39.062,0.000,0
182112.001,-10.742,-39.551,-39.062,-23.438,0.000,0
182112.005,-24.414,-40.527,-36.621,-32.227,0.000,0
182112.009,-26.855,-39.062,-34.668,-48.340,0.000,0
182112.013,-13.184,-29.297,-33.203,-33.691,0.000,0
182112.017,0.977,-23.926,-25.879,-14.648,0.000,0
182112.020,-4.395,-24.414,-23.926,-30.273,0.000,0
182112.024,-25.879,-29.297,-35.645,-53.223,0.000,0
182112.028,-12.207,-31.738,-38.574,-45.898,0.000,0
182112.032,-6.836,-39.062,-41.016,-32.715,0.000,0
182112.036,-15.137,-30.762,-30.762,-37.109,0.000,0
182112.040,-26.855,-32.227,-28.809,-53.711,0.000,0
182112.044,-37.598,-39.062,-42.480,-45.898,0.000,0
182112.048,-24.902,-35.645,-47.852,-25.879,0.000,0
182112.052,-18.555,-34.180,-47.363,-21.484,0.000,0
182112.056,-31.738,-37.109,-42.969,-44.922,0.000,0
182112.060,-30.762,-32.715,-37.109,-63.477,0.000,0
182112.063,-20.996,-26.367,-35.156,-33.203,0.000,0
182112.067,-25.391,-38.086,-43.457,-15.137,0.000,0
182112.071,-29.785,-42.969,-42.480,-24.414,0.000,0
182112.075,-44.434,-39.062,-32.227,-54.688,0.000,0
182112.079,-47.363,-41.016,-37.109,-66.895,0.000,0
182112.083,-44.434,-37.598,-39.551,-29.785,0.000,0
182112.087,-49.805,-31.738,-39.062,-28.320,0.000,0
182112.091,-29.785,-24.902,-31.738,-41.504,0.000,0
182112.095,-8.301,-26.367,-23.926,-36.133,0.000,0
182112.099,-3.418,-28.320,-24.414,-26.367,0.000,0
182112.103,-15.625,-31.250,-36.621,-30.273,0.000,0
182112.106,-25.879,-36.133,-41.504,-38.086,0.000,0
182112.110,-29.297,-38.574,-37.598,-37.109,0.000,0
182112.114,-16.113,-38.574,-36.621,-36.133,0.000,0
182112.118,-2.441,-39.551,-35.156,-40.527,0.000,0
182112.122,-17.090,-36.621,-37.109,-39.062,0.000,0
182112.126,-20.996,-24.902,-25.879,-29.297,0.000,0
182112.130,-3.906,-22.949,-20.996,-18.555,0.000,0
182112.134,2.441,-29.297,-27.832,-14.648,0.000,0
182112.138,-10.742,-35.156,-32.227,-34.180,0.000,0
182112.142,-36.621,-46.387,-46.387,-44.434,0.000,0
182112.145,-39.062,-56.641,-64.453,-39.551,0.000,0
182112.149,-17.090,-55.664,-54.688,-28.320,0.000,0
182112.153,-22.949,-44.434,-30.273,-26.367,0.000,0
182112.157,-54.199,-43.945,-28.320,-52.246,0.000,0
182112.161,-59.570,-46.875,-45.898,-55.176,0.000,0
182112.165,-25.879,-35.645,-41.016,-33.203,0.000,0
182112.169,-15.137,-34.668,-30.762,-15.625,0.000,0
182112.173,-35.156,-38.086,-30.762,-26.855,0.000,0
182112.177,-36.133,-32.227,-22.949,-49.316,0.000,0
182112.181,-12.695,-26.855,-36.133,-24.902,0.000,0
182112.185,7.812,-24.414,-53.223,-16.113,0.000,0
182112.188,-7.324,-35.156,-40.527,-41.016,0.000,0
182112.192,-26.855,-40.039,-27.344,-56.152,0.000,0
182112.196,-10.254,-36.621,-27.344,-62.988,0.000,0
182112.200,-5.371,-35.156,-32.715,-52.246,0.000,0
182112.204,-11.230,-27.344,-25.391,-37.109,0.000,1
182112.208,-15.137,-30.762,-29.297,-41.992,0.000,0
182112.212,-21.484,-38.574,-40.039,-44.922,0.000,0
182112.216,-7.324,-24.902,-27.832,-30.273,0.000,0
182112.220,-1.465,-10.742,-12.207,-14.160,0.000,0
182112.224,-4.883,-18.066,-15.625,-22.949,0.000,0
182112.228,-22.949,-34.668,-38.574,-47.852,0.000,0
182112.231,-28.809,-38.574,-41.992,-42.969,0.000,0
182112.235,-32.715,-36.133,-32.715,-41.992,0.000,0
182112.239,-55.664,-41.016,-42.969,-60.059,0.000,0
182112.243,-50.781,-35.645,-45.410,-54.199,0.000,0
182112.247,-27.344,-26.855,-26.367,-20.996,0.000,0
182112.251,-19.531,-31.250,-20.508,-13.672,0.000,0
182112.255,-35.156,-30.762,-22.949,-40.527,0.000,0
182112.259,-42.480,-30.762,-31.738,-58.594,0.000,0
182112.263,-27.344,-30.762,-34.180,-52.734,0.000,0
182112.267,-30.762,-32.715,-29.785,-35.156,0.000,0
182112.270,-37.109,-35.645,-31.738,-28.320,0.000,0
182112.274,-26.855,-28.809,-24.414,-43.457,0.000,0
182112.278,-6.836,-20.996,-13.184,-31.250,0.000,0
182112.282,5.371,-25.879,-19.043,-7.812,0.000,0
182112.286,8.301,-26.367,-20.020,-5.371,0.000,0
182112.290,-2.441,-26.855,-30.273,-32.715,0.000,0
182112.294,-15.625,-34.180,-35.645,-53.223,0.000,0
182112.298,-14.160,-41.016,-33.691,-45.410,0.000,0
182112.302,-4.883,-34.180,-32.227,-30.273,0.000,0
182112.306,-2.441,-17.578,-10.742,-21.973,0.000,0
182112.310,-21.484,-27.832,-17.578,-46.387,0.000,0
182112.313,-20.996,-33.691,-28.809,-43.945,0.000,0
182112.317,-15.625,-29.785,-29.297,-35.645,0.000,0
182112.321,-32.227,-33.691,-39.551,-57.129,0.000,0
182112.325,-35.156,-27.344,-38.086,-65.918,0.000,0
182112.329,-25.391,-29.785,-37.109,-48.828,0.000,0
182112.333,-19.531,-38.574,-42.480,-38.086,0.000,0
182112.337,-14.160,-29.297,-28.809,-38.574,0.000,0
182112.341,-20.996,-26.855,-32.715,-56.641,0.000,0
182112.345,-36.133,-34.668,-47.852,-66.895,0.000,0
182112.349,-34.180,-35.645,-35.645,-41.992,0.000,0
182112.353,-33.203,-35.645,-22.949,-34.668,0.000,0
182112.356,-37.598,-36.133,-28.809,-40.527,0.000,0
182112.360,-34.180,-31.738,-31.250,-25.879,0.000,0
182112.364,-23.438,-36.621,-35.645,-20.996,0.000,0
182112.368,-20.996,-36.621,-35.645,-19.043,0.000,0
182112.372,-19.043,-21.484,-25.391,-33.691,0.000,0
182112.376,-28.320,-25.879,-27.832,-58.594,0.000,0
182112.380,-20.020,-35.645,-38.086,-41.504,0.000,0
182112.384,-1.465,-28.809,-38.574,-20.020,0.000,0
182112.388,-19.043,-20.020,-30.762,-27.832,0.000,0
182112.392,-41.504,-27.344,-31.250,-53.711,0.000,0
182112.395,-30.273,-33.203,-33.691,-48.828,0.000,0
182112.399,-19.043,-29.785,-40.039,-31.738,0.000,0
182112.403,-25.879,-27.344,-37.598,-36.621,0.000,0
182112.407,-41.992,-34.180,-51.758,-58.594,0.000,0
182112.411,-46.875,-34.180,-46.387,-69.824,0.000,0
182112.415,-20.020,-24.902,-19.043,-49.805,0.000,0
182112.419,-7.324,-18.555,-17.578,-30.762,0.000,0
182112.423,-20.996,-15.625,-20.508,-41.016,0.000,0
182112.427,-22.461,-12.207,-19.043,-49.805,0.000,0
182112.431,-31.250,-27.832,-29.785,-48.340,0.000,0
182112.435,-37.598,-40.039,-42.969,-58.105,0.000,0
182112.438,-38.086,-34.180,-43.457,-61.035,0.000,0
182112.442,-49.316,-29.297,-41.016,-72.266,0.000,0
182112.446,-27.832,-23.926,-32.227,-52.734,0.000,0
182112.450,2.441,-16.113,-22.461,-20.508,0.000,0
182112.454,-7.812,-10.742,-12.695,-38.086,0.000,0
182112.458,-24.414,-9.277,-1.953,-45.898,0.000,0
182112.462,-24.414,-22.949,-18.066,-55.176,0.000,0
182112.466,-18.066,-35.645,-43.457,-49.805,0.000,0
182112.470,-29.785,-38.086,-41.504,-41.992,0.000,0
182112.474,-46.875,-36.621,-35.156,-73.242,0.000,0
182112.478,-25.879,-20.996,-25.879,-60.059,0.000,0
182112.481,4.883,-5.859,-7.812,-29.297,0.000,0
182112.485,-9.277,-17.090,-16.602,-36.133,0.000,0
182112.489,-41.504,-30.273,-31.250,-55.664,0.000,0
182112.493,-55.664,-38.574,-39.062,-88.867,0.000,0
182112.497,-37.598,-36.621,-37.109,-68.848,0.000,0
182112.501,-20.020,-28.809,-29.297,-37.109,0.000,0
182112.505,-29.785,-20.020,-22.461,-37.598,0.000,0
182112.509,-32.715,-14.648,-11.719,-41.992,0.000,0
182112.513,-24.902,-21.484,-8.301,-45.410,0.000,0
182112.517,-20.508,-29.785,-26.367,-35.645,0.000,0
182112.520,-35.156,-37.109,-41.504,-47.852,0.000,0
182112.524,-48.828,-35.156,-38.574,-61.523,0.000,0
182112.528,-29.785,-28.320,-32.715,-47.363,0.000,0
182112.532,-15.625,-29.785,-31.250,-37.598,0.000,0
182112.536,-10.742,-23.926,-26.367,-21.973,0.000,0
182112.540,-18.066,-20.020,-32.715,-37.598,0.000,0
182112.544,-28.320,-21.484,-26.367,-39.062,0.000,0
182112.548,-22.461,-25.391,-38.086,-12.207,0.000,0
182112.552,-24.902,-32.227,-51.758,-27.344,0.000,0
182112.556,-41.016,-35.156,-45.410,-55.176,0.000,0
182112.560,-49.805,-34.180,-40.527,-76.172,0.000,0
182112.563,-43.457,-33.203,-33.691,-51.758,0.000,0
182112.567,-32.227,-34.668,-35.156,-41.504,0.000,0
182112.571,-36.133,-34.668,-39.551,-61.523,0.000,0
182112.575,-42.480,-28.320,-37.109,-58.594,0.000,0
182112.579,-30.762,-21.973,-29.785,-39.062,0.000,0
182112.583,-16.602,-26.367,-33.203,-24.902,0.000,0
182112.587,-22.461,-34.180,-40.527,-31.738,0.000,0
182112.591,-29.297,-24.902,-36.133,-44.434,0.000,0
182112.595,-24.902,-25.391,-32.715,-49.805,0.000,0
182112.599,-10.742,-24.414,-36.621,-26.367,0.000,0
182112.603,-16.113,-26.855,-41.504,-28.320,0.000,0
182112.606,-30.762,-32.227,-38.086,-42.480,0.000,0
182112.610,-32.227,-28.320,-40.039,-52.734,0.000,0
182112.614,-21.973,-28.809,-43.945,-59.082,0.000,0
182112.618,-20.020,-29.297,-48.340,-41.992,0.000,0
182112.622,-29.785,-31.738,-43.457,-41.504,0.000,0
182112.626,-35.156,-31.738,-36.621,-35.645,0.000,0
182112.630,-22.949,-21.973,-25.879,-17.578,0.000,0
182112.634,-11.230,-19.531,-22.949,-9.277,0.000,0
182112.638,-31.738,-18.555,-21.484,-6.836,0.000,0
182112.642,-43.457,-17.090,-17.090,-33.691,0.000,0
182112.645,-28.809,-24.414,-25.391,-36.133,0.000,0
182112.649,-29.785,-34.180,-33.203,-24.414,0.000,0
182112.653,-43.945,-39.551,-45.410,-36.621,0.000,0
182112.657,-40.527,-37.109,-48.340,-44.922,0.000,0
182112.661,-33.691,-35.156,-32.715,-36.133,0.000,0
182112.665,-22.461,-31.738,-25.879,-6.836,0.000,0
182112.669,-8.789,-23.438,-22.949,3.418,0.000,0
182112.673,-14.648,-25.391,-20.508,-22.949,0.000,0
182112.677,-18.555,-23.438,-21.973,-30.762,0.000,0
182112.681,-5.859,-20.996,-20.996,-13.672,0.000,0
182112.685,-1.465,-26.367,-19.531,-10.742,0.000,0
182112.688,2.930,-26.367,-22.461,-34.668,0.000,0
182112.692,2.930,-30.762,-28.809,-50.781,0.000,0
182112.696,7.324,-22.461,-23.438,-22.949,0.000,0
182112.700,6.836,-13.672,-13.672,-0.977,0.000,0
182112.704,-10.254,-24.902,-27.344,-17.578,0.000,0
182112.708,-15.137,-32.715,-29.297,-44.434,0.000,0
182112.712,-7.324,-30.762,-33.203,-36.621,0.000,0
182112.716,3.906,-21.484,-37.109,-3.906,0.000,0
182112.720,9.277,-13.672,-28.320,2.930,0.000,0
182112.724,-20.020,-22.461,-28.320,-17.090,0.000,0
182112.728,-34.668,-31.250,-27.832,-35.156,0.000,0
182112.731,-17.578,-24.414,-25.879,-33.691,0.000,0
182112.735,-12.207,-20.020,-31.738,-23.438,0.000,0
182112.739,-28.809,-28.320,-39.062,-25.879,0.000,0
182112.743,-37.598,-34.180,-48.340,-40.527,0.000,0
182112.747,-20.996,-32.227,-34.668,-36.621,0.000,0
182112.751,-10.254,-34.668,-27.344,-29.785,0.000,0
182112.755,-14.160,-34.668,-35.645,-23.926,0.000,0
182112.759,-35.156,-35.645,-34.668,-42.480,0.000,0
182112.763,-23.926,-26.367,-25.391,-26.367,0.000,0
182112.767,1.465,-24.414,-24.414,-1.953,0.000,0
182112.770,-18.066,-31.738,-33.203,-32.715,0.000,0
182112.774,-37.598,-33.203,-36.621,-59.082,0.000,0
182112.778,-20.020,-25.879,-25.391,-40.039,0.000,0
182112.782,-12.207,-24.902,-28.320,-28.320,0.000,0
182112.786,-17.090,-24.414,-30.273,-26.367,0.000,0
182112.790,-25.879,-21.484,-24.414,-39.551,0.000,0
182112.794,-27.344,-20.996,-31.738,-51.758,0.000,0
182112.798,-14.160,-26.855,-46.387,-48.828,0.000,0
182112.802,-15.625,-29.785,-43.945,-39.062,0.000,0
182112.806,-24.414,-25.879,-29.785,-35.645,0.000,0
182112.810,-28.809,-28.320,-22.461,-60.547,0.000,0
182112.813,-35.156,-29.297,-27.832,-57.129,0.000,0
182112.817,-33.691,-22.949,-29.785,-31.738,0.000,0
182112.821,-16.113,-19.531,-20.996,-26.367,0.000,0
182112.825,-24.902,-22.949,-21.484,-45.410,0.000,0
182112.829,-26.855,-28.809,-25.879,-51.758,0.000,0
182112.833,-14.648,-31.250,-32.227,-30.273,0.000,0
182112.837,-18.555,-28.320,-34.180,-22.461,0.000,0
182112.841,-30.762,-30.762,-47.363,-44.434,0.000,0
182112.845,-42.969,-34.668,-51.270,-47.852,0.000,0
182112.849,-44.434,-34.180,-30.273,-38.086,0.000,0
182112.853,-22.461,-23.438,-16.113,-21.484,0.000,0
182112.856,-11.719,-19.531,-15.137,-26.367,0.000,0
182112.860,-24.902,-27.832,-21.484,-55.176,0.000,0
182112.864,-32.227,-35.156,-37.598,-49.316,0.000,0
182112.868,-23.926,-38.086,-40.527,-50.293,0.000,0
182112.872,-22.949,-33.203,-33.691,-70.312,0.000,0
182112.876,-34.668,-31.738,-36.621,-57.129,0.000,0
182112.880,-39.062,-39.062,-41.992,-32.715,0.000,0
182112.884,-18.066,-27.832,-31.738,-19.531,0.000,0
182112.888,-17.578,-9.766,-12.695,-25.391,0.000,0
182112.892,-35.156,-14.648,-17.090,-45.410,0.000,0
182112.895,-27.832,-20.996,-21.484,-49.805,0.000,0
182112.899,-13.184,-20.996,-24.902,-31.738,0.000,0
182112.903,-18.066,-23.926,-30.762,-23.438,0.000,0
182112.907,-40.527,-24.902,-31.250,-53.223,0.000,0
182112.911,-42.480,-25.879,-37.109,-62.012,0.000,0
182112.915,-30.762,-29.785,-41.992,-37.109,0.000,0
182112.919,-24.902,-29.297,-41.016,-28.809,0.000,0
182112.923,-43.457,-29.297,-37.109,-43.945,0.000,1
182112.927,-47.852,-31.250,-45.898,-61.523,0.000,0
182112.931,-31.738,-28.320,-48.828,-61.035,0.000,0
182112.935,-30.762,-27.344,-35.156,-35.156,0.000,0
182112.938,-38.086,-29.297,-35.156,-45.410,0.000,0
182112.942,-36.621,-28.809,-40.527,-54.688,0.000,0
182112.946,-24.902,-29.297,-34.180,-43.457,0.000,0
182112.950,-15.625,-24.414,-26.855,-48.340,0.000,0
182112.954,-19.043,-19.531,-20.020,-42.969,0.000,0
182112.958,-41.016,-26.367,-33.203,-52.734,0.000,0
182112.962,-38.086,-32.227,-46.387,-50.781,0.000,0
182112.966,-34.668,-35.156,-38.086,-31.250,0.000,0
182112.970,-25.391,-35.156,-28.320,-22.461,0.000,0
182112.974,-9.277,-20.020,-18.066,-23.926,0.000,0
182112.978,-11.230,-22.949,-20.996,-39.551,0.000,0
182112.981,-8.301,-27.832,-29.785,-26.367,0.000,0
182112.985,-11.230,-26.367,-37.109,-22.461,0.000,0
182112.989,-19.531,-23.926,-33.203,-41.016,0.000,0
182112.993,-30.273,-22.949,-29.785,-50.781,0.000,0
182112.997,-31.738,-28.320,-32.227,-47.852,0.000,0
182113.001,-20.020,-20.996,-31.738,-29.297,0.000,0
182113.005,-21.484,-12.695,-32.227,-26.855,0.000,0
182113.009,-31.738,-20.996,-42.480,-54.688,0.000,0
182113.013,-33.691,-20.020,-46.387,-46.387,0.000,0
182113.017,-4.395,-12.695,-34.180,-17.578,0.000,0
182113.020,-0.488,-8.789,-27.344,-16.602,0.000,0
182113.024,-32.715,-12.207,-20.020,-43.457,0.000,0
182113.028,-30.762,-20.508,-25.879,-54.688,0.000,0
182113.032,-10.254,-18.555,-26.855,-27.832,0.000,0
182113.036,-10.742,-20.020,-20.508,-11.230,0.000,0
182113.040,-32.227,-25.391,-32.227,-28.809,0.000,0
182113.044,-42.969,-30.273,-31.738,-54.199,0.000,0
182113.048,-34.668,-38.086,-40.527,-46.875,0.000,0
182113.052,-19.043,-38.086,-48.340,-31.250,0.000,0
182113.056,-26.855,-37.109,-42.969,-33.203,0.000,0
182113.060,-34.668,-29.297,-29.785,-28.809,0.000,0
182113.063,-8.301,-18.555,-20.996,-26.367,0.000,0
182113.067,2.930,-17.578,-23.926,-21.484,0.000,0
182113.071,-30.273,-31.250,-46.875,-24.414,0.000,0
182113.075,-47.363,-29.785,-42.480,-49.805,0.000,0
182113.079,-38.574,-27.344,-37.598,-65.430,0.000,0
182113.083,-19.531,-25.879,-39.062,-45.898,0.000,0
182113.087,-16.602,-23.438,-33.203,-50.781,0.000,0
182113.091,-30.762,-20.508,-35.156,-65.918,0.000,0
182113.095,-20.020,-4.883,-20.996,-31.250,0.000,0
182113.099,-7.324,-4.395,-12.695,-7.324,0.000,0
182113.103,-6.348,-12.207,-19.043,-20.996,0.000,0
182113.106,-21.484,-11.719,-17.578,-53.223,0.000,0
182113.110,-32.715,-15.137,-22.949,-47.852,0.000,0
182113.114,-17.090,-17.578,-26.367,-20.996,0.000,0
182113.118,8.301,-1.465,0.000,7.324,0.000,0
182113.122,5.859,4.883,5.371,-9.766,0.000,0
182113.126,-3.418,-8.789,-7.324,-52.246,0.000,0
182113.130,0.000,-10.742,-16.602,-31.250,0.000,0
182113.134,-11.230,-15.137,-28.809,-9.277,0.000,0
182113.138,-29.297,-17.090,-26.367,-32.227,0.000,0
182113.142,-18.555,-3.906,-15.625,-30.762,0.000,0
182113.145,-19.043,-5.859,-8.301,-16.602,0.000,0
182113.149,-9.277,-8.301,-6.348,-10.742,0.000,0
182113.153,9.766,-2.441,1.465,-13.672,0.000,0
182113.157,-9.277,-10.254,-9.766,-24.902,0.000,0
182113.161,-18.555,-17.090,-25.391,-28.320,0.000,0
182113.165,1.465,-15.625,-19.043,-19.043,0.000,0
182113.169,6.348,-11.719,-16.113,1.465,0.000,0
182113.173,-6.348,-14.160,-22.949,-12.207,0.000,0
182113.177,-10.742,-21.484,-25.391,-25.391,0.000,0
182113.181,1.465,-20.996,-20.508,-9.277,0.000,0
182113.185,3.418,-16.113,-25.391,-4.883,0.000,0
182113.188,-19.531,-18.555,-24.414,-23.926,0.000,0
182113.192,-25.391,-23.926,-14.648,-41.016,0.000,0
182113.196,-16.113,-22.949,-18.555,-17.090,0.000,0
182113.200,-4.395,-24.902,-20.020,-8.301,0.000,0
182113.204,-7.812,-30.273,-24.902,-28.320,0.000,0
182113.208,-29.297,-28.320,-25.879,-40.527,0.000,0
182113.212,-29.297,-25.879,-24.414,-35.156,0.000,0
182113.216,-14.160,-27.832,-33.203,-28.320,0.000,0
182113.220,-14.160,-31.250,-27.344,-33.203,0.000,0
182113.224,-34.180,-31.738,-20.996,-48.340,0.000,0
182113.228,-38.086,-29.785,-22.949,-61.523,0.000,0
182113.231,-8.789,-18.555,-14.160,-28.809,0.000,0
182113.235,9.766,-13.672,-17.090,4.395,0.000,0
182113.239,-18.555,-29.297,-34.180,-25.391,0.000,0
182113.243,-26.855,-37.598,-42.480,-51.270,0.000,0
182113.247,-8.301,-39.062,-43.945,-26.367,0.000,0
182113.251,-21.484,-39.551,-38.574,-24.902,0.000,0
182113.255,-44.434,-31.250,-31.738,-33.691,0.000,0
182113.259,-21.973,-25.391,-34.668,-26.855,0.000,0
182113.263,7.324,-18.066,-32.227,-8.789,0.000,0
182113.267,10.254,-11.230,-23.438,1.465,0.000,0
182113.270,-7.324,-16.602,-17.578,-15.625,0.000,0
182113.274,-19.531,-26.367,-21.484,-35.645,0.000,0
182113.278,-24.902,-38.574,-30.762,-42.480,0.000,0
182113.282,-17.578,-44.434,-32.715,-35.645,0.000,0
182113.286,-14.648,-38.574,-27.832,-24.414,0.000,0
182113.290,-14.160,-31.250,-28.809,-32.227,0.000,0
182113.294,-0.488,-25.879,-24.414,-18.066,0.000,0
182113.298,-9.766,-32.227,-27.832,-2.930,0.000,0
182113.302,-18.555,-42.969,-43.457,-28.320,0.000,0
182113.306,-27.832,-40.527,-42.969,-42.969,0.000,0
182113.310,-35.156,-38.086,-42.480,-49.805,0.000,0
182113.313,-17.578,-30.762,-34.180,-29.297,0.000,0
182113.317,-5.859,-22.949,-20.508,-15.625,0.000,0
182113.321,-22.949,-24.414,-23.438,-46.387,0.000,0
182113.325,-39.551,-28.809,-37.109,-55.664,0.000,0
182113.329,-22.949,-25.391,-33.691,-30.273,0.000,0
182113.333,-8.301,-18.066,-23.926,-4.395,0.000,0
182113.337,-26.367,-20.508,-24.902,-17.090,0.000,0
182113.341,-38.574,-24.902,-27.832,-58.594,0.000,0
182113.345,-24.414,-19.043,-24.414,-33.203,0.000,0
182113.349,-13.672,-19.043,-27.832,7.324,0.000,0
182113.353,-25.879,-21.973,-39.551,-27.344,0.000,0
182113.356,-29.297,-15.137,-34.180,-51.758,0.000,0
182113.360,-29.785,-26.855,-28.809,-48.828,0.000,0
182113.364,-27.832,-33.203,-32.715,-42.480,0.000,0
182113.368,-26.367,-33.691,-37.109,-33.691,0.000,0
182113.372,-50.781,-36.133,-42.480,-40.527,0.000,0
182113.376,-36.133,-28.320,-33.203,-41.504,0.000,0
182113.380,-2.441,-27.344,-28.809,-16.602,0.000,0
182113.384,-34.668,-36.621,-40.039,-35.645,0.000,0
182113.388,-48.340,-41.992,-47.852,-74.707,0.000,0
182113.392,-24.414,-34.180,-44.922,-60.059,0.000,0
182113.395,-16.113,-30.273,-32.715,-40.527,0.000,0
182113.399,-21.973,-34.180,-36.133,-45.410,0.000,0
182113.403,-27.344,-30.762,-41.992,-43.945,0.000,0
182113.407,-32.715,-31.250,-36.133,-34.180,0.000,0
182113.411,-25.391,-32.715,-32.227,-32.715,0.000,0
182113.415,-13.672,-32.227,-34.180,-30.273,0.000,0
182113.419,-30.762,-37.598,-40.527,-48.828,0.000,0
182113.423,-37.598,-28.809,-40.527,-41.504,0.000,0
182113.427,-20.508,-19.043,-26.855,-12.207,0.000,0
182113.431,-23.926,-28.320,-31.250,-17.090,0.000,0
182113.435,-23.926,-31.738,-40.039,-29.297,0.000,0
182113.438,-1.953,-30.273,-33.203,-30.762,0.000,0
182113.442,-11.230,-24.414,-22.949,-33.691,0.000,0
182113.446,-7.812,-20.996,-25.391,-25.391,0.000,0
182113.450,-10.742,-28.320,-38.574,-23.926,0.000,0
182113.454,-53.711,-31.250,-50.293,-57.129,0.000,0
182113.458,-49.316,-29.785,-41.504,-67.871,0.000,0
182113.462,-15.625,-23.438,-35.645,-34.180,0.000,0
182113.466,-18.555,-25.391,-36.621,-32.715,0.000,0
182113.470,-23.926,-24.414,-19.043,-41.016,0.000,0
182113.474,-16.602,-19.043,-8.301,-26.367,0.000,0
182113.478,1.465,-21.484,-10.742,-16.113,0.000,0
182113.481,3.418,-22.461,-19.043,-10.254,0.000,0
182113.485,-15.137,-29.297,-36.621,-12.207,0.000,0
182113.489,-29.785,-38.574,-51.758,-42.480,0.000,0
182113.493,-24.414,-35.156,-43.457,-35.645,0.000,0
182113.497,-9.277,-28.809,-27.344,-15.625,0.000,0
182113.501,-15.137,-29.785,-23.438,-26.367,0.000,0
182113.505,-31.250,-31.738,-26.855,-39.551,0.000,0
182113.509,-18.555,-24.902,-24.414,-13.672,0.000,0
182113.513,-10.254,-28.809,-27.832,3.906,0.000,0
182113.517,-22.949,-33.203,-27.344,-24.902,0.000,0
182113.520,-32.715,-28.809,-22.461,-33.203,0.000,0
182113.524,-34.668,-35.645,-30.273,-38.086,0.000,0
182113.528,-23.926,-36.133,-28.320,-36.621,0.000,0
182113.532,-23.438,-31.738,-30.762,-22.949,0.000,0
182113.536,-42.969,-36.621,-34.668,-61.035,0.000,0
182113.540,-43.945,-37.598,-49.316,-66.406,0.000,0
182113.544,-8.301,-24.902,-38.574,-26.855,0.000,0
182113.548,-14.648,-22.461,-25.391,-14.648,0.000,0
182113.552,-38.086,-24.414,-28.320,-36.133,0.000,0
182113.556,-41.504,-31.738,-31.738,-64.453,0.000,0
182113.560,-27.344,-32.715,-32.227,-45.898,0.000,0
182113.563,-16.602,-30.273,-29.785,-28.320,0.000,0
182113.567,-32.227,-34.180,-45.898,-41.016,0.000,0
182113.571,-37.598,-28.320,-37.109,-50.781,0.000,0
182113.575,-11.719,-18.066,-14.648,-38.086,0.000,0
182113.579,-11.230,-31.250,-37.109,-31.738,0.000,0
182113.583,-20.508,-36.133,-51.758,-34.668,0.000,0
182113.587,-7.812,-19.043,-25.391,-30.273,0.000,0
182113.591,3.418,-17.090,-14.160,-27.344,0.000,0
182113.595,13.672,-22.461,-18.066,-21.973,0.000,0
182113.599,8.301,-26.855,-28.809,-26.367,0.000,0
182113.603,-14.648,-28.320,-37.109,-41.016,0.000,0
182113.606,-15.137,-17.578,-29.297,-49.316,0.000,0
182113.610,-10.742,-20.996,-33.203,-35.156,0.000,0
182113.614,-19.043,-35.645,-42.969,-36.621,0.000,0
182113.618,-33.203,-41.504,-47.363,-46.387,0.000,0
182113.622,-42.969,-34.668,-48.340,-50.293,0.000,0
182113.626,-30.273,-21.973,-33.203,-50.781,0.000,0
182113.630,-18.066,-22.949,-22.949,-31.250,0.000,0
182113.634,-38.086,-36.621,-38.086,-42.969,0.000,0
182113.638,-57.617,-40.527,-48.828,-72.754,0.000,1
182113.642,-42.969,-23.926,-30.762,-53.711,0.000,0
182113.645,-19.531,-14.160,-16.113,-24.902,0.000,0
182113.649,-25.879,-23.438,-29.785,-9.277,0.000,0
182113.653,-47.852,-28.809,-38.086,-34.668,0.000,0
182113.657,-52.246,-30.762,-38.086,-63.965,0.000,0
182113.661,-37.598,-30.762,-33.203,-37.598,0.000,0
182113.665,-26.367,-28.320,-34.180,-20.996,0.000,0
182113.669,-32.715,-25.879,-42.969,-38.574,0.000,0
182113.673,-33.691,-31.250,-32.715,-54.199,0.000,0
182113.677,-16.602,-30.762,-21.484,-30.762,0.000,0
182113.681,-14.160,-22.949,-18.555,-9.277,0.000,0
182113.685,-35.156,-31.738,-29.297,-30.762,0.000,0
182113.688,-49.316,-35.645,-39.062,-55.664,0.000,0
182113.692,-35.156,-28.809,-32.715,-51.758,0.000,0
182113.696,-29.297,-34.668,-37.109,-32.227,0.000,0
182113.700,-32.227,-36.621,-40.527,-30.273,0.000,0
182113.704,-27.832,-23.926,-26.367,-41.992,0.000,0
182113.708,-34.668,-17.090,-27.832,-36.133,0.000,0
182113.712,-31.250,-25.879,-31.250,-28.809,0.000,0
182113.716,-22.949,-20.996,-25.879,-41.504,0.000,0
182113.720,-37.598,-16.602,-43.457,-52.246,0.000,0
182113.724,-31.738,-15.137,-46.875,-37.109,0.000,0
182113.728,-16.602,-22.461,-33.203,-25.879,0.000,0
182113.731,-34.668,-29.297,-29.297,-37.598,0.000,0
182113.735,-56.152,-29.785,-23.926,-44.434,0.000,0
182113.739,-41.016,-30.273,-23.926,-44.434,0.000,0
182113.743,-19.531,-22.949,-24.414,-25.879,0.000,0
182113.747,-4.395,-14.648,-22.949,4.883,0.000,0
182113.751,-0.977,-9.277,-22.461,-8.789,0.000,0
182113.755,-2.930,-9.277,-11.719,-21.484,0.000,0
182113.759,-3.418,-21.484,-26.367,-22.461,0.000,0
182113.763,-0.977,-28.809,-41.016,-21.973,0.000,0
182113.767,-5.859,-31.738,-35.645,-19.531,0.000,0
182113.770,-19.531,-28.320,-24.414,-34.668,0.000,0
182113.774,-16.113,-22.461,-23.926,-36.133,0.000,0
182113.778,-8.789,-25.391,-33.691,-26.367,0.000,0
182113.782,-23.438,-27.344,-36.621,-23.926,0.000,0
182113.786,-48.828,-31.250,-43.945,-33.691,0.000,0
182113.790,-36.621,-33.203,-41.504,-42.480,0.000,0
182113.794,-15.625,-26.855,-36.621,-29.785,0.000,0
182113.798,-20.996,-15.137,-30.273,-27.832,0.000,0
182113.802,-28.320,-9.277,-29.785,-42.480,0.000,0
182113.806,-22.461,-13.184,-31.250,-36.133,0.000,0
182113.810,-12.207,-15.137,-16.113,-17.090,0.000,0
182113.813,-15.137,-16.113,-15.137,-18.555,0.000,0
182113.817,-32.715,-21.973,-27.344,-33.203,0.000,0
182113.821,-36.621,-23.926,-30.762,-44.434,0.000,0
182113.825,-17.578,-20.996,-34.668,-28.320,0.000,0
182113.829,-8.301,-14.648,-26.367,-16.602,0.000,0
182113.833,-15.625,-9.277,-8.789,-23.926,0.000,0
182113.837,-28.320,-17.578,-21.973,-25.879,0.000,0
182113.841,-16.602,-20.508,-24.414,-21.484,0.000,0
182113.845,-3.418,-21.484,-18.066,-0.488,0.000,0
182113.849,-16.602,-27.832,-23.926,-0.977,0.000,0
182113.853,-27.832,-32.715,-30.762,-31.250,0.000,0
182113.856,-12.695,-30.762,-35.156,-21.973,0.000,0
182113.860,0.488,-29.785,-41.992,7.324,0.000,0
182113.864,-6.348,-27.344,-31.738,7.324,0.000,0
182113.868,-17.090,-25.391,-22.461,-20.508,0.000,0
182113.872,-17.578,-25.391,-20.508,-25.879,0.000,0
182113.876,-9.277,-21.484,-14.648,-2.441,0.000,0
182113.880,-4.883,-20.508,-22.949,13.184,0.000,0
182113.884,-10.254,-25.879,-23.438,4.883,0.000,0
182113.888,-9.766,-18.066,-12.695,-13.184,0.000,0
182113.892,-4.883,-22.461,-20.508,-25.391,0.000,0
182113.895,-20.020,-37.598,-36.621,-24.414,0.000,0
182113.899,-35.645,-33.203,-39.551,-26.367,0.000,0
182113.903,-34.668,-27.344,-30.762,-31.250,0.000,0
182113.907,-17.578,-29.297,-24.414,-20.996,0.000,0
182113.911,-4.883,-29.785,-34.180,-12.695,0.000,0
182113.915,-8.301,-21.973,-31.738,-16.602,0.000,0
182113.919,-37.109,-26.855,-37.109,-43.945,0.000,0
182113.923,-37.109,-32.715,-46.387,-44.922,0.000,0
182113.927,-10.742,-31.250,-36.621,-19.043,0.000,0
182113.931,-5.859,-25.391,-26.855,-14.648,0.000,0
182113.935,-15.625,-23.438,-22.949,-20.996,0.000,0
182113.938,-17.090,-17.090,-20.020,-22.461,0.000,0
182113.942,2.930,-10.254,-17.578,-5.371,0.000,0
182113.946,-0.488,-23.926,-32.715,-6.836,0.000,0
182113.950,-35.156,-34.668,-47.852,-29.785,0.000,0
182113.954,-42.480,-34.668,-44.922,-53.223,0.000,0
182113.958,-21.484,-32.715,-42.480,-53.711,0.000,0
182113.962,-22.949,-31.250,-39.551,-28.809,0.000,0
182113.966,-39.062,-34.668,-35.156,-24.414,0.000,0
182113.970,-38.086,-28.320,-30.762,-32.227,0.000,0
182113.974,-12.207,-10.742,-15.137,-3.418,0.000,0
182113.978,5.371,-1.465,-9.277,19.531,0.000,0
182113.981,-9.277,-10.254,-12.207,-8.789,0.000,0
182113.985,-35.645,-30.273,-34.180,-39.062,0.000,0
182113.989,-44.434,-38.086,-58.594,-46.387,0.000,0
182113.993,-31.738,-31.738,-42.480,-30.273,0.000,0
182113.997,-21.484,-26.855,-21.973,-16.113,0.000,0
182114.001,-26.367,-28.809,-25.879,-32.715,0.000,0
182114.005,-20.508,-25.879,-19.531,-37.109,0.000,0
182114.009,-7.324,-20.508,-7.324,-8.789,0.000,0
182114.013,-20.508,-26.367,-24.902,-10.742,0.000,0
182114.017,-34.668,-27.344,-35.645,-40.527,0.000,0
182114.020,-27.344,-26.367,-27.344,-41.992,0.000,0
182114.024,-19.531,-28.320,-29.297,-30.762,0.000,0
182114.028,-3.906,-12.207,-24.902,-24.414,0.000,0
182114.032,-6.836,-0.488,-9.766,-35.645,0.000,0
182114.036,-25.879,-9.277,-15.137,-38.086,0.000,0
182114.040,-21.973,-17.090,-23.438,-20.508,0.000,0
182114.044,-3.906,-15.625,-20.508,-13.184,0.000,0
182114.048,-1.953,-8.301,-12.695,-26.367,0.000,0
182114.052,-19.043,-9.277,-11.719,-37.109,0.000,0
182114.056,-29.785,-27.344,-20.996,-57.617,0.000,0
182114.060,-23.926,-25.879,-33.203,-38.086,0.000,0
182114.063,-28.809,-18.555,-35.645,-30.273,0.000,0
182114.067,-36.621,-19.531,-30.273,-54.688,0.000,0
182114.071,-26.855,-16.602,-24.414,-45.898,0.000,0
182114.075,-11.230,-15.137,-24.902,-14.648,0.000,0
182114.079,-6.836,-12.695,-31.738,-14.648,0.000,0
182114.083,-24.414,-9.277,-23.438,-40.039,0.000,0
182114.087,-39.062,-7.812,-9.766,-49.805,0.000,0
182114.091,-8.789,0.488,-2.930,-24.902,0.000,0
182114.095,0.977,-3.906,-7.324,-13.672,0.000,0
182114.099,-28.320,-19.531,-21.973,-39.062,0.000,0
182114.103,-43.945,-32.227,-36.621,-59.082,0.000,0
182114.106,-35.156,-38.574,-47.852,-62.500,0.000,0
182114.110,-31.738,-34.180,-52.734,-49.316,0.000,0
182114.114,-31.738,-32.715,-40.527,-35.156,0.000,0
182114.118,-32.715,-32.227,-25.391,-55.176,0.000,0
182114.122,-21.484,-29.785,-19.043,-60.547,0.000,0
182114.126,-2.930,-22.949,-14.648,-41.016,0.000,0
182114.130,-7.812,-22.949,-20.020,-29.785,0.000,0
182114.134,-19.043,-15.625,-28.809,-44.922,0.000,0
182114.138,-9.766,-8.301,-19.043,-29.785,0.000,0
182114.142,-8.789,-26.367,-32.715,-14.160,0.000,0
182114.145,-37.109,-35.156,-44.434,-36.621,0.000,0
182114.149,-51.270,-34.668,-48.828,-51.270,0.000,0
182114.153,-43.457,-35.156,-43.945,-47.852,0.000,0
182114.157,-39.062,-29.785,-29.785,-52.246,0.000,0
182114.161,-41.504,-24.902,-31.738,-51.758,0.000,0
182114.165,-49.316,-22.949,-32.715,-67.383,0.000,0
182114.169,-55.664,-26.855,-36.133,-82.031,0.000,0
182114.173,-43.945,-24.902,-37.109,-55.664,0.000,0
182114.177,-26.855,-23.926,-33.691,-26.855,0.000,0
182114.181,-30.273,-27.832,-30.273,-33.203,0.000,0
182114.185,-38.086,-22.461,-24.902,-57.129,0.000,0
182114.188,-34.180,-20.020,-29.297,-39.551,0.000,0
182114.192,-21.484,-25.391,-37.598,-15.137,0.000,1
182114.196,-18.555,-27.344,-34.180,-25.879,0.000,0
182114.200,-35.156,-24.414,-26.367,-42.969,0.000,0
182114.204,-52.734,-25.879,-29.785,-61.035,0.000,0
182114.208,-27.832,-22.461,-28.320,-47.852,0.000,0
182114.212,-16.602,-11.719,-19.531,-27.832,0.000,0
182114.216,-39.551,-8.301,-20.020,-40.527,0.000,0
182114.220,-45.898,-14.160,-25.879,-55.664,0.000,0
182114.224,-25.391,-17.578,-31.250,-47.363,0.000,0
182114.228,-17.578,-23.438,-33.691,-38.086,0.000,0
182114.231,-32.715,-28.809,-34.180,-42.480,0.000,0
182114.235,-50.781,-32.227,-33.203,-53.223,0.000,0
182114.239,-29.785,-27.832,-21.973,-28.320,0.000,0
182114.243,-7.324,-23.438,-21.484,-8.301,0.000,0
182114.247,-21.484,-19.531,-26.855,-25.879,0.000,0
182114.251,-36.621,-10.742,-20.020,-31.250,0.000,0
182114.255,-33.203,-9.277,-13.184,-17.578,0.000,0
182114.259,-16.602,-14.160,-16.113,-7.812,0.000,0
182114.263,-22.461,-18.555,-20.996,-15.625,0.000,0
182114.267,-32.227,-12.207,-17.578,-31.738,0.000,0
182114.270,-29.785,-10.742,-22.949,-30.762,0.000,0
182114.274,-22.949,-18.066,-29.785,-35.156,0.000,0
182114.278,-19.531,-23.926,-36.621,-31.738,0.000,0
182114.282,-32.715,-24.414,-40.039,-42.480,0.000,0
182114.286,-33.691,-25.391,-37.109,-52.734,0.000,0
182114.290,-15.137,-22.461,-29.297,-20.996,0.000,0
182114.294,-20.996,-28.320,-36.133,-12.207,0.000,0
182114.298,-35.156,-35.156,-47.852,-35.645,0.000,0
182114.302,-20.020,-13.184,-22.461,-32.227,0.000,0
182114.306,-21.973,-9.766,-8.789,-23.926,0.000,0
182114.310,-15.137,-19.531,-17.578,-12.207,0.000,0
182114.313,-9.277,-18.555,-18.066,-20.508,0.000,0
182114.317,-32.227,-25.391,-21.484,-43.945,0.000,0
182114.321,-32.715,-33.203,-35.156,-48.828,0.000,0
182114.325,-21.484,-31.738,-34.668,-42.969,0.000,0
182114.329,-22.461,-27.344,-35.645,-29.785,0.000,0
182114.333,-28.809,-22.949,-35.156,-33.203,0.000,0
182114.337,-22.461,-14.648,-16.113,-26.367,0.000,0
182114.341,-13.184,-21.484,-13.184,-14.160,0.000,0
182114.345,-24.902,-26.855,-24.902,-17.090,0.000,0
182114.349,-44.434,-27.832,-29.785,-23.438,0.000,0
182114.353,-47.363,-35.156,-37.109,-35.645,0.000,0
182114.356,-23.438,-37.109,-40.527,-29.297,0.000,0
182114.360,-16.602,-30.273,-30.762,-26.855,0.000,0
182114.364,-30.762,-19.531,-25.391,-28.320,0.000,0
182114.368,-25.879,-17.578,-37.598,-23.438,0.000,0
182114.372,-0.977,-16.602,-42.969,-12.207,0.000,0
182114.376,5.859,-16.113,-23.438,-3.906,0.000,0
182114.380,-15.137,-19.043,-18.555,-34.668,0.000,0
182114.384,-25.879,-19.043,-22.461,-58.105,0.000,0
182114.388,-17.090,-21.973,-24.902,-37.598,0.000,0
182114.392,-9.766,-23.438,-27.832,-19.531,0.000,0
182114.395,-26.855,-24.414,-25.391,-38.574,0.000,0
182114.399,-38.574,-27.832,-24.902,-50.293,0.000,0
182114.403,-27.832,-26.855,-34.180,-36.133,0.000,0
182114.407,-25.391,-29.297,-38.086,-30.273,0.000,0
182114.411,-29.785,-24.902,-21.973,-18.555,0.000,0
182114.415,-31.250,-22.461,-14.648,-16.113,0.000,0
182114.419,-25.879,-28.809,-21.484,-27.832,0.000,0
182114.423,-18.555,-22.949,-20.508,-16.113,0.000,0
182114.427,-16.602,-16.113,-18.555,-1.465,0.000,0
182114.431,-28.809,-16.602,-25.879,-21.484,0.000,0
182114.435,-33.203,-23.438,-33.203,-37.109,0.000,0
182114.438,-12.695,-27.344,-24.902,-23.438,0.000,0
182114.442,0.000,-24.414,-24.414,-17.578,0.000,0
182114.446,-18.066,-26.367,-35.645,-34.668,0.000,0
182114.450,-30.762,-34.668,-32.715,-50.293,0.000,0
182114.454,-23.438,-33.691,-34.180,-28.320,0.000,0
182114.458,-10.254,-26.367,-27.832,-14.160,0.000,0
182114.462,-21.484,-30.762,-30.273,-46.875,0.000,0
182114.466,-38.574,-34.668,-37.598,-43.457,0.000,0
182114.470,-37.109,-38.086,-32.227,-22.461,0.000,0
182114.474,-32.715,-45.898,-42.969,-18.066,0.000,0
182114.478,-36.621,-42.480,-41.016,-37.598,0.000,0
182114.481,-44.434,-30.762,-27.832,-57.129,0.000,0
182114.485,-41.016,-26.855,-36.133,-53.711,0.000,0
182114.489,-29.297,-32.715,-47.363,-33.691,0.000,0
182114.493,-23.438,-35.645,-40.039,-16.602,0.000,0
182114.497,-39.551,-40.527,-40.527,-46.875,0.000,0
182114.501,-32.715,-34.668,-35.156,-53.711,0.000,0
182114.505,-4.883,-21.484,-19.531,-13.672,0.000,0
182114.509,0.977,-18.066,-25.391,0.977,0.000,0
182114.513,-17.578,-23.926,-35.156,-27.344,0.000,0
182114.517,-23.438,-23.926,-29.785,-41.992,0.000,0
182114.520,-8.301,-18.066,-28.809,-24.902,0.000,0
182114.524,-8.789,-31.250,-36.621,-19.043,0.000,0
182114.528,-18.555,-36.133,-32.227,-26.367,0.000,0
182114.532,-26.367,-32.227,-29.297,-37.109,0.000,0
182114.536,-25.391,-38.574,-35.156,-48.828,0.000,0
182114.540,-18.066,-38.086,-38.574,-35.156,0.000,0
182114.544,-0.977,-17.578,-23.438,5.859,0.000,0
182114.548,-0.488,-9.277,-9.766,-12.695,0.000,0
182114.552,-25.879,-27.344,-26.367,-42.969,0.000,0
182114.556,-11.230,-32.227,-40.039,-23.926,0.000,0
182114.560,0.977,-34.180,-39.551,-16.602,0.000,0
182114.563,-26.367,-42.969,-34.668,-41.992,0.000,0
182114.567,-37.109,-37.109,-36.621,-39.551,0.000,0
182114.571,-10.742,-19.043,-23.438,-14.160,0.000,0
182114.575,-0.977,-22.461,-19.043,-11.230,0.000,0
182114.579,-18.066,-33.203,-30.762,-34.180,0.000,0
182114.583,-15.625,-28.809,-28.320,-39.062,0.000,0
182114.587,0.977,-26.855,-29.297,-2.930,0.000,0
182114.591,0.977,-22.461,-20.508,5.859,0.000,0
182114.595,-4.883,-21.484,-15.137,-28.809,0.000,0
182114.599,-3.906,-20.020,-13.672,-49.805,0.000,0
182114.603,1.953,-18.066,-14.648,-13.672,0.000,0
182114.606,20.508,-12.695,-13.672,16.602,0.000,0
182114.610,17.090,-9.766,-9.766,-2.441,0.000,0
182114.614,-10.254,-20.508,-28.809,-28.320,0.000,0
182114.618,-9.277,-27.344,-38.574,-30.762,0.000,0
182114.622,-5.371,-21.973,-27.832,-16.602,0.000,0
182114.626,-12.695,-24.414,-36.133,-12.695,0.000,0
182114.630,-29.785,-27.832,-38.086,-12.695,0.000,0
182114.634,-28.320,-19.531,-23.926,-13.184,0.000,0
182114.638,-8.789,-13.672,-17.578,-5.859,0.000,0
182114.642,-16.602,-24.414,-27.344,0.000,0.000,0
182114.645,-35.645,-33.691,-41.016,-22.461,0.000,0
182114.649,-41.016,-33.691,-42.969,-48.828,0.000,0
182114.653,-38.086,-33.691,-37.109,-38.574,0.000,0
182114.657,-20.996,-34.180,-33.203,-26.855,0.000,0
182114.661,-22.461,-29.785,-35.156,-42.969,0.000,0
182114.665,-41.504,-28.320,-36.133,-62.988,0.000,0
182114.669,-28.320,-20.996,-22.949,-14.648,0.000,0
182114.673,2.930,-3.418,-0.977,19.043,0.000,0
182114.677,-4.395,-11.230,-10.254,-14.160,0.000,0
182114.681,-33.203,-29.297,-29.297,-39.062,0.000,0
182114.685,-30.273,-31.250,-30.273,-35.156,0.000,0
182114.688,-9.766,-28.809,-25.879,-16.602,0.000,0
182114.692,-21.973,-35.645,-38.574,-29.785,0.000,0
182114.696,-30.273,-36.133,-42.480,-47.363,0.000,0
182114.700,-12.207,-26.855,-30.273,-34.668,0.000,0
182114.704,4.395,-23.926,-19.043,-15.625,0.000,0
182114.708,1.953,-22.461,-17.578,-17.090,0.000,0
182114.712,-18.555,-24.414,-25.391,-39.551,0.000,0
182114.716,-31.738,-26.367,-31.250,-49.805,0.000,0
182114.720,-26.367,-20.020,-27.832,-28.320,0.000,0
182114.724,-19.043,-20.996,-29.297,-28.809,0.000,0
182114.728,-31.738,-28.320,-35.156,-53.223,0.000,0
182114.731,-41.504,-23.926,-31.250,-66.895,0.000,0
182114.735,-29.297,-20.020,-24.414,-55.176,0.000,0
182114.739,-31.738,-22.461,-27.832,-29.785,0.000,0
182114.743,-49.316,-29.785,-36.621,-40.527,0.000,0
182114.747,-53.711,-38.086,-44.434,-70.312,0.000,0
182114.751,-49.316,-36.133,-40.527,-71.289,0.000,0
182114.755,-33.691,-34.180,-33.203,-49.316,0.000,0
182114.759,-34.668,-36.621,-45.898,-36.621,0.000,1
182114.763,-35.645,-29.297,-39.551,-43.457,0.000,0
182114.767,-26.855,-25.391,-28.320,-49.316,0.000,0
182114.770,-17.578,-26.367,-28.809,-28.320,0.000,0
182114.774,-5.371,-28.809,-35.156,-35.156,0.000,0
182114.778,-21.484,-35.156,-44.434,-52.734,0.000,0
182114.782,-27.832,-25.879,-27.832,-39.551,0.000,0
182114.786,-16.113,-21.973,-20.020,-27.344,0.000,0
182114.790,7.812,-17.578,-22.949,-13.184,0.000,0
182114.794,10.742,-12.695,-20.020,-26.855,0.000,0
182114.798,-15.137,-15.137,-24.414,-48.340,0.000,0
182114.802,-14.160,-17.578,-26.855,-24.414,0.000,0
182114.806,0.000,-22.949,-24.414,7.812,0.000,0
182114.810,-24.414,-34.180,-34.668,-24.414,0.000,0
182114.813,-45.898,-37.598,-41.016,-68.848,0.000,0
182114.817,-40.039,-31.738,-43.945,-50.781,0.000,0
182114.821,-24.414,-22.949,-37.598,-12.207,0.000,0
182114.825,-18.555,-23.438,-32.227,-23.926,0.000,0
182114.829,-29.297,-19.531,-30.762,-43.945,0.000,0
182114.833,-34.668,-16.113,-24.414,-45.410,0.000,0
182114.837,-24.902,-23.438,-26.367,-44.922,0.000,0
182114.841,-14.648,-26.855,-31.250,-29.785,0.000,0
182114.845,-23.438,-21.484,-23.926,-18.066,0.000,0
182114.849,-27.832,-22.949,-21.973,-33.691,0.000,0
182114.853,-19.531,-28.320,-33.691,-50.781,0.000,0
182114.856,-20.996,-26.855,-37.598,-30.762,0.000,0
182114.860,-30.762,-26.367,-39.062,-29.297,0.000,0
182114.864,-42.480,-24.902,-38.086,-54.688,0.000,0
182114.868,-37.109,-25.879,-35.156,-52.246,0.000,0
182114.872,-19.531,-27.344,-29.297,-30.762,0.000,0
182114.876,-14.648,-19.043,-23.438,-13.672,0.000,0
182114.880,-24.902,-12.207,-21.484,-20.020,0.000,0
182114.884,-18.555,-11.719,-12.207,-23.438,0.000,0
182114.888,0.000,-9.766,-2.930,-14.648,0.000,0
182114.892,-15.625,-20.508,-14.648,-32.227,0.000,0
182114.895,-29.297,-21.973,-28.320,-48.828,0.000,0
182114.899,-10.742,-2.930,-14.160,-23.926,0.000,0
182114.903,-7.324,-3.906,-9.277,-3.418,0.000,0
182114.907,-26.367,-20.508,-32.715,-5.859,0.000,0
182114.911,-34.668,-18.066,-34.668,-26.367,0.000,0
182114.915,-36.621,-11.719,-21.973,-40.527,0.000,0
182114.919,-32.715,-15.625,-27.344,-26.367,0.000,0
182114.923,-16.113,-17.090,-22.461,-11.719,0.000,0
182114.927,-15.137,-16.602,-19.531,-20.508,0.000,0
182114.931,-30.273,-20.508,-27.832,-44.434,0.000,0
182114.935,-23.926,-22.949,-28.809,-37.109,0.000,0
182114.938,-14.648,-23.438,-34.668,-5.371,0.000,0
182114.942,-20.020,-26.367,-35.645,-17.578,0.000,0
182114.946,-31.738,-24.902,-31.250,-42.480,0.000,0
182114.950,-29.297,-19.043,-20.996,-34.668,0.000,0
182114.954,-10.742,-8.789,-6.348,-17.090,0.000,0
182114.958,-8.789,-14.160,-11.719,-11.719,0.000,0
182114.962,-25.879,-27.832,-40.527,-20.020,0.000,0
182114.966,-38.086,-27.344,-42.969,-30.762,0.000,0
182114.970,-24.414,-21.484,-21.484,-26.855,0.000,0
182114.974,-14.648,-15.625,-17.090,-23.926,0.000,0
182114.978,-26.855,-21.484,-27.832,-33.203,0.000,0
182114.981,-22.461,-23.926,-23.438,-16.113,0.000,0
182114.985,2.441,-6.836,-5.859,11.230,0.000,0
182114.989,6.348,-5.371,-10.254,-6.348,0.000,0
182114.993,-12.695,-12.695,-18.555,-28.320,0.000,0
182114.997,-16.113,-13.672,-31.738,-22.949,0.000,0
182115.001,-1.953,-15.625,-40.039,-23.438,0.000,0
182115.005,-1.953,-23.438,-33.203,-16.113,0.000,0
182115.009,-20.020,-29.297,-26.855,-26.367,0.000,0
182115.013,-34.180,-24.414,-25.879,-28.320,0.000,0
182115.017,-24.414,-22.461,-26.855,-13.184,0.000,0
182115.020,-10.742,-22.461,-23.438,-6.836,0.000,0
182115.024,-19.531,-20.508,-25.879,-13.672,0.000,0
182115.028,-21.484,-13.184,-20.996,-30.762,0.000,0
182115.032,-14.160,-9.766,-18.066,-19.531,0.000,0
182115.036,-7.324,-13.184,-23.926,-3.906,0.000,0
182115.040,-12.207,-19.531,-35.156,-12.207,0.000,0
182115.044,-31.738,-23.438,-43.945,-29.297,0.000,0
182115.048,-37.109,-27.344,-43.457,-53.223,0.000,0
182115.052,-18.066,-20.508,-28.809,-41.992,0.000,0
182115.056,-11.230,-20.996,-20.996,-21.484,0.000,0
182115.060,-24.414,-25.879,-24.414,-41.992,0.000,0
182115.063,-29.297,-22.949,-27.832,-57.129,0.000,0
182115.067,-28.320,-33.691,-43.457,-52.246,0.000,0
182115.071,-16.113,-32.715,-38.086,-39.551,0.000,0
182115.075,-33.203,-25.879,-33.691,-44.434,0.000,0
182115.079,-51.270,-32.227,-48.828,-40.039,0.000,0
182115.083,-29.785,-39.062,-50.781,-26.855,0.000,0
182115.087,-15.625,-33.203,-32.227,-28.320,0.000,0
182115.091,-21.973,-24.414,-25.391,-31.738,0.000,0
182115.095,-19.043,-17.090,-16.113,-25.391,0.000,0
182115.099,-12.207,-24.902,-18.066,-18.555,0.000,0
182115.103,-14.160,-32.715,-24.414,-21.484,0.000,0
182115.106,-25.391,-24.902,-25.879,-34.180,0.000,0
182115.110,-37.598,-25.391,-37.109,-45.898,0.000,0
182115.114,-35.156,-27.832,-46.387,-30.273,0.000,0
182115.118,-26.855,-29.785,-48.340,-8.301,0.000,0
182115.122,-21.973,-30.762,-38.574,-16.602,0.000,0
182115.126,-25.879,-21.973,-20.996,-43.457,0.000,0
182115.130,-25.391,-16.113,-17.578,-27.832,0.000,0
182115.134,-10.742,-21.484,-30.762,-14.160,0.000,0
182115.138,-6.836,-20.020,-28.320,-16.602,0.000,0
182115.142,-18.555,-20.508,-18.555,-19.043,0.000,0
182115.145,-29.297,-25.879,-25.391,-47.363,0.000,0
182115.149,-25.879,-31.250,-42.480,-52.734,0.000,0
182115.153,-23.438,-31.738,-31.250,-22.949,0.000,0
182115.157,-27.344,-24.902,-20.020,-12.695,0.000,0
182115.161,-21.973,-14.160,-19.531,-17.090,0.000,0
182115.165,-20.996,-20.020,-20.508,-29.297,0.000,0
182115.169,-23.438,-32.715,-31.250,-20.020,0.000,0
182115.173,-41.016,-34.180,-34.180,-31.738,0.000,0
182115.177,-49.805,-24.414,-27.832,-58.105,0.000,0
182115.181,-30.273,-18.555,-29.297,-27.832,0.000,0
182115.185,-23.438,-19.531,-26.855,-20.508,0.000,0
182115.188,-24.902,-14.648,-26.367,-22.461,0.000,0
182115.192,-38.086,-18.066,-30.762,-35.156,0.000,0
182115.196,-36.133,-20.996,-31.738,-39.551,0.000,0
182115.200,-15.137,-21.484,-32.715,-18.066,0.000,0
182115.204,-14.648,-21.973,-24.414,-19.043,0.000,0
182115.208,-35.645,-21.484,-28.809,-30.273,0.000,0
182115.212,-49.805,-28.320,-42.480,-53.711,0.000,0
182115.216,-37.598,-28.809,-37.598,-45.898,0.000,0
182115.220,-24.414,-20.508,-21.973,-15.137,0.000,0
182115.224,-29.297,-25.879,-31.738,-40.527,0.000,0
182115.228,-44.434,-29.785,-44.922,-65.918,0.000,0
182115.231,-42.480,-26.367,-32.227,-47.852,0.000,0
182115.235,-32.227,-27.344,-29.785,-35.156,0.000,0
182115.239,-31.250,-21.484,-27.832,-46.875,0.000,0
182115.243,-46.387,-27.344,-29.297,-69.336,0.000,0
182115.247,-50.293,-28.320,-37.598,-58.105,0.000,0
182115.251,-33.203,-23.926,-30.762,-27.344,0.000,0
182115.255,-35.645,-26.855,-27.832,-26.855,0.000,0
182115.259,-47.363,-28.320,-37.109,-28.320,0.000,0
182115.263,-35.156,-26.855,-36.133,-40.527,0.000,0
182115.267,-21.484,-34.668,-41.992,-54.199,0.000,0
182115.270,-30.273,-36.133,-41.992,-41.016,0.000,0
182115.274,-35.645,-20.996,-23.926,-31.250,0.000,0
182115.278,-32.715,-14.648,-17.090,-50.293,0.000,0
182115.282,-20.020,-22.461,-23.926,-39.551,0.000,0
182115.286,-10.254,-28.320,-30.273,-33.203,0.000,0
182115.290,-20.996,-27.832,-24.414,-40.527,0.000,0
182115.294,-35.156,-27.344,-22.461,-43.945,0.000,0
182115.298,-35.156,-34.668,-31.738,-48.828,0.000,0
182115.302,-19.043,-34.180,-32.227,-40.527,0.000,0
182115.306,-28.320,-29.297,-36.621,-49.805,0.000,0
182115.310,-46.387,-24.414,-25.879,-45.898,0.000,0
182115.313,-29.297,-16.602,-14.648,-29.785,0.000,0
182115.317,-15.137,-19.531,-23.926,-15.625,0.000,0
182115.321,-19.531,-16.602,-16.113,-16.113,0.000,1
182115.325,-36.621,-18.066,-17.090,-37.109,0.000,0
182115.329,-36.621,-22.461,-23.438,-44.922,0.000,0
182115.333,-16.602,-23.926,-18.555,-30.273,0.000,0
182115.337,-14.648,-22.949,-20.020,-25.391,0.000,0
182115.341,-23.438,-18.066,-21.973,-33.691,0.000,0
182115.345,-20.020,-20.020,-30.762,-42.480,0.000,0
182115.349,-16.113,-26.367,-33.691,-42.969,0.000,0
182115.353,-7.324,-27.832,-32.227,-27.832,0.000,0
182115.356,-9.766,-29.297,-31.738,-31.250,0.000,0
182115.360,-16.602,-25.391,-16.602,-44.434,0.000,0
182115.364,-14.160,-22.949,-7.324,-39.062,0.000,0
182115.368,-1.465,-23.926,-15.625,-20.020,0.000,0
182115.372,-19.043,-27.832,-32.227,-18.555,0.000,0
182115.376,-37.598,-23.926,-32.715,-40.527,0.000,0
182115.380,-21.484,-21.484,-17.090,-42.969,0.000,0
182115.384,-10.742,-29.785,-20.508,-24.414,0.000,0
182115.388,-12.695,-31.738,-26.855,-32.227,0.000,0
182115.392,-35.645,-35.156,-34.668,-61.523,0.000,0
182115.395,-43.945,-32.227,-38.086,-61.523,0.000,0
182115.399,-19.531,-22.949,-20.508,-24.414,0.000,0
182115.403,-16.113,-17.578,-9.277,-25.391,0.000,0
182115.407,-25.879,-8.789,-12.207,-43.945,0.000,0
182115.411,-30.273,-21.484,-33.691,-47.852,0.000,0
182115.415,-31.250,-41.504,-47.363,-43.457,0.000,0
182115.419,-21.973,-39.062,-35.156,-30.273,0.000,0
182115.423,-34.668,-41.016,-38.574,-47.852,0.000,0
182115.427,-27.832,-26.855,-29.785,-53.711,0.000,0
182115.431,-12.207,-14.160,-18.555,-42.480,0.000,0
182115.435,-8.789,-18.066,-24.902,-23.438,0.000,0
182115.438,-5.371,-18.066,-24.902,-13.672,0.000,0
182115.442,-29.297,-27.344,-33.203,-51.758,0.000,0
182115.446,-41.504,-28.320,-42.480,-58.594,0.000,0
182115.450,-18.555,-19.043,-39.551,-35.156,0.000,0
182115.454,-13.184,-20.996,-36.621,-30.273,0.000,0
182115.458,-20.508,-16.113,-23.438,-37.109,0.000,0
182115.462,-3.418,-5.371,-3.906,-45.410,0.000,0
182115.466,-6.348,-18.555,-14.160,-38.574,0.000,0
182115.470,-13.184,-28.809,-22.949,-29.297,0.000,0
182115.474,-26.367,-24.414,-27.832,-31.738,0.000,0
182115.478,-40.527,-22.461,-33.203,-45.898,0.000,0
182115.481,-29.297,-23.438,-28.320,-53.223,0.000,0
182115.485,-17.578,-20.996,-25.391,-18.066,0.000,0
182115.489,-25.391,-23.438,-34.668,-18.066,0.000,0
182115.493,-32.715,-26.855,-35.156,-57.617,0.000,0
182115.497,-20.996,-27.832,-33.691,-49.316,0.000,0
182115.501,-9.766,-16.113,-27.832,-25.391,0.000,0
182115.505,-11.719,-6.348,-9.766,-18.066,0.000,0
182115.509,-23.438,-20.508,-20.020,-37.598,0.000,0
182115.513,-20.996,-27.832,-27.832,-34.668,0.000,0
182115.517,-15.625,-32.227,-32.715,-14.648,0.000,0
182115.520,-17.090,-37.598,-34.668,-44.434,0.000,0
182115.524,-19.531,-35.645,-38.086,-70.312,0.000,0
182115.528,-19.043,-34.668,-37.598,-54.688,0.000,0
182115.532,-11.719,-26.367,-27.832,-31.250,0.000,0
182115.536,-11.230,-22.949,-32.227,-19.531,0.000,0
182115.540,-29.297,-30.273,-35.156,-33.691,0.000,0
182115.544,-40.039,-26.367,-24.902,-46.387,0.000,0
182115.548,-34.180,-28.320,-32.227,-40.527,0.000,0
182115.552,-23.438,-34.180,-41.016,-19.531,0.000,0
182115.556,-23.926,-32.227,-37.598,-23.926,0.000,0
182115.560,-39.062,-28.809,-37.109,-45.410,0.000,0
182115.563,-27.344,-17.578,-20.020,-30.762,0.000,0
182115.567,0.000,-10.254,-5.859,-12.207,0.000,0
182115.571,-7.812,-16.602,-23.926,-14.160,0.000,0
182115.575,-39.062,-38.574,-48.340,-46.875,0.000,0
182115.579,-41.992,-47.852,-50.781,-72.754,0.000,0
182115.583,-24.902,-35.645,-37.109,-50.293,0.000,0
182115.587,-19.043,-25.391,-26.367,-11.719,0.000,0
182115.591,-38.574,-28.320,-31.738,-25.879,0.000,0
182115.595,-53.223,-29.297,-30.762,-42.969,0.000,0
182115.599,-25.391,-24.902,-20.996,-17.578,0.000,0
182115.603,-20.508,-33.203,-29.785,-10.254,0.000,0
182115.606,-41.016,-40.039,-38.574,-27.832,0.000,0
182115.610,-46.875,-38.086,-34.180,-46.387,0.000,0
182115.614,-38.086,-34.180,-41.504,-41.504,0.000,0
182115.618,-25.879,-27.832,-40.527,-24.414,0.000,0
182115.622,-16.113,-19.531,-20.508,-18.066,0.000,0
182115.626,-17.090,-17.090,-17.090,-20.996,0.000,0
182115.630,-18.555,-23.438,-25.391,-25.879,0.000,0
182115.634,-20.996,-32.715,-30.762,-16.113,0.000,0
182115.638,-39.062,-40.527,-34.668,-24.414,0.000,0
182115.642,-38.086,-37.109,-38.086,-51.270,0.000,0
182115.645,-24.414,-30.273,-38.574,-56.152,0.000,0
182115.649,-19.043,-28.320,-33.691,-38.086,0.000,0
182115.653,-19.043,-28.809,-30.762,-24.902,0.000,0
182115.657,-22.949,-29.297,-30.273,-42.480,0.000,0
182115.661,-18.555,-17.090,-18.066,-44.922,0.000,0
182115.665,-4.883,-14.160,-21.973,-12.695,0.000,0
182115.669,6.836,-19.531,-27.832,5.371,0.000,0
182115.673,-5.371,-24.414,-27.344,2.441,0.000,0
182115.677,-25.879,-30.762,-34.180,-15.137,0.000,0
182115.681,-20.996,-36.133,-34.668,-32.227,0.000,0
182115.685,-10.254,-30.273,-25.391,-9.766,0.000,0
182115.688,-8.789,-25.391,-19.531,0.000,0.000,0
182115.692,-31.738,-30.762,-39.551,-27.832,0.000,0
182115.696,-42.480,-32.715,-49.805,-31.250,0.000,0
182115.700,-31.738,-27.832,-32.227,-9.277,0.000,0
182115.704,-30.762,-29.785,-29.785,-14.160,0.000,0
182115.708,-45.410,-38.574,-36.621,-51.270,0.000,0
182115.712,-51.270,-32.227,-31.738,-50.293,0.000,0
182115.716,-18.066,-16.602,-12.695,-23.438,0.000,0
182115.720,2.441,-15.137,-7.812,-21.973,0.000,0
182115.724,-19.531,-26.855,-23.438,-34.180,0.000,0
182115.728,-32.715,-33.203,-30.762,-44.434,0.000,0
182115.731,-13.672,-26.367,-28.320,-39.551,0.000,0
182115.735,4.395,-9.277,-23.926,-22.461,0.000,0
182115.739,-6.836,-10.254,-18.555,-28.809,0.000,0
182115.743,-28.809,-15.137,-16.602,-34.668,0.000,0
182115.747,-25.879,-17.090,-18.555,-46.387,0.000,0
182115.751,-14.160,-18.066,-23.438,-31.738,0.000,0
182115.755,-18.066,-23.438,-31.738,-14.160,0.000,0
182115.759,-32.715,-34.668,-34.668,-37.109,0.000,0
182115.763,-37.598,-32.715,-34.180,-36.133,0.000,0
182115.767,-18.555,-25.391,-26.855,-9.277,0.000,0
182115.770,-14.160,-23.926,-21.484,2.441,0.000,0
182115.774,-21.973,-17.090,-14.648,-24.414,0.000,0
182115.778,-19.043,-21.484,-19.531,-49.805,0.000,0
182115.782,-11.719,-29.785,-28.809,-32.715,0.000,0
182115.786,-4.883,-29.785,-30.762,-16.602,0.000,0
182115.790,-13.184,-27.832,-28.809,-22.949,0.000,0
182115.794,-22.461,-18.555,-19.043,-31.250,0.000,0
182115.798,-13.672,-14.160,-12.695,-18.066,0.000,0
182115.802,-8.789,-26.855,-20.508,-5.859,0.000,0
182115.806,-10.254,-33.203,-32.715,-17.578,0.000,0
182115.810,-15.137,-25.879,-27.832,-33.691,0.000,0
182115.813,-17.090,-24.902,-22.949,-19.043,0.000,0
182115.817,-7.812,-29.785,-24.414,-12.695,0.000,0
182115.821,0.488,-30.273,-28.809,-16.113,0.000,0
182115.825,-4.883,-29.297,-30.762,-20.996,0.000,0
182115.829,-16.113,-28.809,-22.949,-25.391,0.000,0
182115.833,-12.695,-25.391,-17.578,-8.789,0.000,0
182115.837,0.977,-22.949,-18.066,-8.789,0.000,0
182115.841,-13.672,-28.809,-28.320,-21.973,0.000,0
182115.845,-30.762,-31.738,-35.645,-37.598,0.000,0
182115.849,-25.879,-32.715,-30.762,-37.109,0.000,0
182115.853,-15.137,-24.902,-22.461,-13.184,0.000,0
182115.856,-18.066,-22.949,-26.855,-26.367,0.000,0
182115.860,-27.832,-25.391,-29.785,-42.969,0.000,0
182115.864,-27.832,-23.438,-33.203,-24.414,0.000,0
182115.868,-21.484,-26.855,-33.203,-3.906,0.000,0
182115.872,-19.043,-24.902,-31.250,-11.719,0.000,0
182115.876,-24.902,-12.207,-19.043,-26.855,0.000,0
182115.880,-25.879,-16.602,-20.508,-18.066,0.000,0
182115.884,-22.949,-36.621,-36.621,-11.230,0.000,0
182115.888,-26.367,-38.574,-34.668,-17.578,0.000,0
182115.892,-28.320,-27.344,-21.973,-27.344,0.000,0
182115.895,-12.695,-18.555,-20.508,-32.715,0.000,0
182115.899,-8.301,-23.926,-30.273,-14.648,0.000,0
182115.903,-20.508,-25.879,-39.062,-8.789,0.000,0
182115.907,-32.715,-27.832,-42.480,-32.715,0.000,0
182115.911,-41.992,-35.645,-41.992,-50.781,0.000,0
182115.915,-28.320,-28.320,-36.621,-32.227,0.000,0
182115.919,-15.625,-18.066,-23.438,-19.531,0.000,0
182115.923,-22.461,-11.230,-15.625,-29.785,0.000,0
182115.927,-22.949,-10.254,-11.719,-25.879,0.000,1
182115.931,-10.742,-19.531,-15.137,-16.602,0.000,0
182115.935,-22.949,-29.785,-29.297,-35.645,0.000,0
182115.938,-45.410,-31.250,-29.785,-43.457,0.000,0
182115.942,-46.875,-28.809,-26.855,-52.734,0.000,0
182115.946,-27.344,-23.926,-27.344,-47.852,0.000,0
182115.950,-7.812,-15.137,-20.020,-19.043,0.000,0
182115.954,-11.719,-10.254,-14.648,-24.902,0.000,0
182115.958,-30.273,-11.230,-19.531,-44.434,0.000,0
182115.962,-34.180,-26.855,-32.227,-44.922,0.000,0
182115.966,-20.020,-32.227,-31.738,-32.715,0.000,0
182115.970,-20.020,-25.391,-24.414,-36.133,0.000,0
182115.974,-33.691,-25.879,-24.414,-65.430,0.000,0
182115.978,-26.855,-16.602,-13.672,-48.828,0.000,0
182115.981,-10.742,-18.066,-13.184,-17.090,0.000,0
182115.985,-23.438,-33.203,-33.203,-25.391,0.000,0
182115.989,-38.086,-29.785,-35.156,-37.109,0.000,0
182115.993,-38.086,-28.809,-33.203,-61.523,0.000,0
182115.997,-26.367,-28.809,-33.691,-52.734,0.000,0
182116.001,-25.391,-26.367,-34.668,-20.020,0.000,0
182116.005,-27.832,-17.578,-26.367,-13.184,0.000,0
182116.009,-27.344,-13.184,-21.484,-24.414,0.000,0
182116.013,-31.738,-22.461,-24.902,-33.691,0.000,0
182116.017,-31.250,-26.367,-32.715,-24.414,0.000,0
182116.020,-34.668,-21.973,-36.621,-29.297,0.000,0
182116.024,-41.992,-22.461,-30.762,-55.664,0.000,0
182116.028,-38.574,-21.484,-25.391,-56.152,0.000,0
182116.032,-18.555,-13.184,-14.648,-28.320,0.000,0
182116.036,-17.090,-14.160,-14.160,-20.508,0.000,0
182116.040,-32.227,-18.555,-29.297,-38.574,0.000,0
182116.044,-38.574,-16.602,-30.273,-46.875,0.000,0
182116.048,-26.367,-19.043,-22.949,-35.645,0.000,0
182116.052,-22.461,-27.832,-32.227,-42.969,0.000,0
182116.056,-41.504,-33.203,-41.992,-67.383,0.000,0
182116.060,-45.410,-23.438,-27.832,-66.406,0.000,0
182116.063,-26.367,-11.230,-11.719,-35.645,0.000,0
182116.067,-20.020,-19.043,-15.137,-16.602,0.000,0
182116.071,-40.527,-29.297,-22.949,-33.203,0.000,0
182116.075,-47.363,-31.738,-22.461,-48.828,0.000,0
182116.079,-24.902,-26.367,-21.484,-28.809,0.000,0
182116.083,-19.531,-27.344,-25.879,-11.719,0.000,0
182116.087,-26.855,-31.250,-21.484,-33.691,0.000,0
182116.091,-24.414,-24.414,-15.625,-53.223,0.000,0
182116.095,-17.578,-20.996,-9.277,-35.156,0.000,0
182116.099,-2.930,-20.508,-0.977,-3.906,0.000,0
182116.103,-4.395,-24.902,-11.719,-7.812,0.000,0
182116.106,-17.090,-22.461,-18.555,-12.207,0.000,0
182116.110,-18.066,-19.531,-5.371,-24.902,0.000,0
182116.114,-6.836,-23.438,-13.672,-18.555,0.000,0
182116.118,-5.371,-24.902,-20.508,2.930,0.000,0
182116.122,-23.438,-26.367,-13.184,-20.508,0.000,0
182116.126,-39.551,-33.691,-28.320,-44.922,0.000,0
182116.130,-28.320,-35.156,-25.391,-37.109,0.000,0
182116.134,-15.625,-28.809,-17.578,-26.855,0.000,0
182116.138,-24.902,-20.996,-17.090,-19.531,0.000,0
182116.142,-37.598,-19.043,-15.137,-37.109,0.000,0
182116.145,-40.039,-17.578,-17.090,-39.062,0.000,0
182116.149,-18.555,-14.648,-12.695,-23.438,0.000,0
182116.153,-17.090,-16.602,-11.719,-26.367,0.000,0
182116.157,-39.062,-19.531,-26.855,-28.809,0.000,0
182116.161,-42.969,-24.902,-27.832,-32.715,0.000,0
182116.165,-40.039,-31.250,-25.391,-28.320,0.000,0
182116.169,-36.133,-28.320,-21.484,-27.344,0.000,0
182116.173,-41.504,-19.043,-11.230,-50.293,0.000,0
182116.177,-50.293,-18.555,-14.160,-56.641,0.000,0
182116.181,-32.227,-26.855,-20.020,-29.297,0.000,0
182116.185,-17.578,-24.902,-15.137,-15.137,0.000,0
182116.188,-18.555,-14.648,-2.930,-20.508,0.000,0
182116.192,-24.414,-16.113,-4.395,-24.902,0.000,0
182116.196,-12.695,-17.578,-10.742,-23.926,0.000,0
182116.200,8.301,-12.207,-4.395,-15.137,0.000,0
182116.204,-12.207,-21.973,-20.508,-26.367,0.000,0
182116.208,-35.645,-30.762,-34.668,-47.363,0.000,0
182116.212,-16.602,-23.926,-21.973,-45.898,0.000,0
182116.216,2.441,-15.625,-14.648,-19.043,0.000,0
182116.220,-14.648,-20.508,-16.602,-10.254,0.000,0
182116.224,-26.367,-25.391,-20.508,-29.785,0.000,0
182116.228,-17.578,-25.879,-23.926,-36.133,0.000,0
182116.231,-13.672,-25.391,-26.367,-16.602,0.000,0
182116.235,-12.207,-21.484,-19.531,-2.441,0.000,0
182116.239,-17.578,-20.508,-18.555,-27.344,0.000,0
182116.243,-23.926,-21.484,-25.391,-37.598,0.000,0
182116.247,-21.484,-26.367,-36.621,-18.066,0.000,0
182116.251,-28.320,-28.809,-35.645,-24.902,0.000,0
182116.255,-31.250,-19.043,-24.414,-33.691,0.000,0
182116.259,-27.344,-8.301,-13.184,-34.180,0.000,0
182116.263,-28.809,-14.160,-9.277,-39.551,0.000,0
182116.267,-26.367,-21.973,-17.090,-25.879,0.000,0
182116.270,-41.504,-31.250,-32.227,-33.203,0.000,0
182116.274,-45.410,-28.809,-31.250,-52.734,0.000,0
182116.278,-27.832,-23.926,-22.461,-44.922,0.000,0
182116.282,-18.555,-28.809,-29.297,-17.578,0.000,0
182116.286,-8.301,-25.879,-37.109,-6.836,0.000,0
182116.290,-8.301,-23.926,-34.180,-46.387,0.000,0
182116.294,-20.996,-22.949,-27.344,-52.734,0.000,0
182116.298,-15.625,-26.367,-29.297,-23.438,0.000,0
182116.302,-1.953,-27.832,-27.344,-20.508,0.000,0
182116.306,-13.672,-20.508,-18.555,-29.785,0.000,0
182116.310,-25.879,-21.484,-19.531,-37.109,0.000,0
182116.313,-20.996,-24.902,-30.762,-25.879,0.000,0
182116.317,-13.672,-22.461,-28.809,-13.184,0.000,0
182116.321,-25.879,-22.949,-32.227,-23.926,0.000,0
182116.325,-40.527,-21.484,-31.250,-43.945,0.000,0
182116.329,-35.156,-20.020,-35.156,-52.246,0.000,0
182116.333,-20.020,-19.531,-41.504,-21.484,0.000,0
182116.337,-15.137,-19.043,-22.461,-11.230,0.000,0
182116.341,-28.320,-19.043,-16.602,-39.062,0.000,0
182116.345,-24.902,-21.484,-21.484,-31.250,0.000,0
182116.349,-8.301,-22.949,-24.414,-7.812,0.000,0
182116.353,-13.184,-20.020,-24.902,-8.789,0.000,0
182116.356,-32.715,-21.484,-30.762,-25.879,0.000,0
182116.360,-34.668,-20.996,-33.691,-30.762,0.000,0
182116.364,-24.902,-20.020,-24.902,-22.949,0.000,0
182116.368,-22.461,-20.020,-19.531,-25.391,0.000,0
182116.372,-29.297,-18.555,-24.902,-35.645,0.000,0
182116.376,-39.062,-24.902,-31.250,-52.734,0.000,0
182116.380,-30.273,-27.832,-34.180,-52.734,0.000,0
182116.384,-18.066,-20.508,-30.762,-36.621,0.000,0
182116.388,-24.902,-20.020,-29.297,-45.898,0.000,0
182116.392,-31.250,-21.484,-33.691,-60.059,0.000,0
182116.395,-19.043,-19.043,-31.250,-38.574,0.000,0
182116.399,-14.160,-18.555,-20.508,-10.254,0.000,0
182116.403,-17.090,-21.973,-20.996,-12.695,0.000,0
182116.407,-9.277,-16.602,-4.883,-30.273,0.000,0
182116.411,-10.254,-13.184,-0.488,-21.973,0.000,0
182116.415,-19.043,-31.738,-30.273,-21.973,0.000,0
182116.419,-17.578,-46.387,-41.504,-38.574,0.000,0
182116.423,-30.273,-32.227,-37.109,-41.992,0.000,0
182116.427,-33.203,-26.855,-35.156,-51.270,0.000,0
182116.431,-12.695,-33.691,-34.668,-40.039,0.000,0
182116.435,-3.418,-29.297,-24.902,-22.949,0.000,0
182116.438,-17.090,-27.832,-21.973,-38.574,0.000,0
182116.442,-32.715,-23.926,-21.484,-56.641,0.000,0
182116.446,-32.715,-27.832,-20.508,-54.199,0.000,0
182116.450,-22.461,-27.832,-17.578,-41.992,0.000,0
182116.454,-18.066,-15.137,-12.207,-36.133,0.000,0
182116.458,-32.227,-14.160,-13.184,-44.434,0.000,0
182116.462,-26.367,-10.254,-12.207,-27.344,0.000,0
182116.466,-9.277,-15.137,-21.973,-23.438,0.000,0
182116.470,-23.926,-31.250,-32.715,-43.457,0.000,0
182116.474,-38.086,-28.320,-31.250,-36.133,0.000,0
182116.478,-32.227,-27.832,-33.691,-45.410,0.000,0
182116.481,-20.508,-31.738,-33.691,-37.598,0.000,0
182116.485,-22.949,-29.785,-32.227,-32.227,0.000,0
182116.489,-35.156,-27.832,-34.180,-50.781,0.000,0
182116.493,-35.645,-23.926,-30.762,-50.293,0.000,0
182116.497,-11.230,-15.625,-18.066,-14.648,0.000,0
182116.501,-3.418,-18.066,-15.137,3.418,0.000,0
182116.505,-23.926,-27.832,-26.367,-34.668,0.000,0
182116.509,-34.180,-32.227,-33.203,-53.223,0.000,0
182116.513,-29.785,-37.109,-37.109,-39.551,0.000,0
182116.517,-10.742,-41.992,-44.434,-23.438,0.000,0
182116.520,-13.184,-38.086,-39.062,-20.020,0.000,0
182116.524,-23.926,-24.414,-21.973,-40.527,0.000,0
182116.528,-13.672,-27.832,-24.414,-42.969,0.000,0
182116.532,-15.137,-36.133,-33.203,-28.320,0.000,0
182116.536,-23.926,-26.367,-23.438,-14.648,0.000,0
182116.540,-36.133,-29.297,-32.227,-31.738,0.000,0
182116.544,-40.527,-27.344,-32.227,-41.504,0.000,0
182116.548,-21.973,-11.230,-7.812,-0.977,0.000,0
182116.552,-18.555,-13.672,-5.859,10.254,0.000,0
182116.556,-29.785,-19.531,-24.902,-19.043,0.000,0
182116.560,-40.527,-29.785,-40.039,-42.480,0.000,0
182116.563,-34.180,-29.785,-37.598,-29.785,0.000,0
182116.567,-15.625,-17.578,-21.484,-4.395,0.000,0
182116.571,-14.160,-14.160,-14.160,-1.465,0.000,0
182116.575,-19.043,-13.184,-20.996,-14.160,0.000,0
182116.579,-29.297,-28.320,-29.785,-25.391,0.000,0
182116.583,-31.250,-41.992,-36.621,-29.297,0.000,0
182116.587,-28.809,-35.156,-34.180,-30.273,0.000,0
182116.591,-32.715,-21.973,-28.320,-38.574,0.000,0
182116.595,-28.320,-16.602,-20.020,-49.316,0.000,1
182116.599,-20.996,-20.020,-21.484,-32.715,0.000,0
182116.603,-15.625,-22.461,-24.414,-18.066,0.000,0
182116.606,-30.273,-25.391,-23.438,-39.551,0.000,0
182116.610,-40.039,-25.391,-20.020,-48.828,0.000,0
182116.614,-26.367,-27.344,-29.785,-22.461,0.000,0
182116.618,-14.160,-28.320,-35.645,-6.348,0.000,0
182116.622,-6.836,-13.184,-7.812,-18.066,0.000,0
182116.626,-5.859,-8.789,0.977,-30.273,0.000,0
182116.630,-9.277,-18.066,-18.066,-24.414,0.000,0
182116.634,-4.395,-25.879,-25.391,-11.230,0.000,0
182116.638,-10.742,-29.297,-21.973,-4.883,0.000,0
182116.642,-32.227,-29.785,-26.855,-27.344,0.000,0
182116.645,-25.879,-24.902,-23.438,-40.039,0.000,0
182116.649,-0.488,-12.207,-6.348,-7.324,0.000,0
182116.653,-0.488,-8.301,-3.906,2.930,0.000,0
182116.657,-17.090,-15.625,-12.207,-28.809,0.000,0
182116.661,-31.250,-21.484,-21.973,-38.574,0.000,0
182116.665,-18.555,-19.531,-21.973,-26.855,0.000,0
182116.669,-10.254,-21.973,-21.973,-19.043,0.000,0
182116.673,-31.250,-28.320,-36.133,-31.738,0.000,0
182116.677,-39.062,-25.391,-38.574,-41.504,0.000,0
182116.681,-12.695,-14.648,-22.461,-23.438,0.000,0
182116.685,-8.789,-12.207,-17.578,-19.043,0.000,0
182116.688,-29.785,-21.484,-18.066,-28.320,0.000,0
182116.692,-28.320,-18.066,-13.184,-35.156,0.000,0
182116.696,-28.320,-19.531,-19.043,-38.086,0.000,0
182116.700,-21.484,-20.508,-17.578,-23.438,0.000,0
182116.704,-10.742,-13.672,-14.648,-19.043,0.000,0
182116.708,-26.855,-15.625,-17.090,-27.344,0.000,0
182116.712,-32.227,-23.926,-21.484,-42.969,0.000,0
182116.716,-10.742,-21.484,-20.020,-34.180,0.000,0
182116.720,-11.719,-19.043,-30.762,-16.602,0.000,0
182116.724,-28.809,-21.484,-36.621,-49.805,0.000,0
182116.728,-25.879,-14.160,-21.484,-55.664,0.000,0
182116.731,0.488,-10.742,-14.648,-19.531,0.000,0
182116.735,2.441,-8.789,-8.789,-15.137,0.000,0
182116.739,-19.531,-12.207,-17.090,-27.832,0.000,0
182116.743,-37.109,-20.996,-25.879,-46.875,0.000,0
182116.747,-32.227,-24.414,-26.855,-44.922,0.000,0
182116.751,-20.020,-24.902,-28.320,-22.461,0.000,0
182116.755,-37.598,-22.461,-26.367,-33.203,0.000,0
182116.759,-37.598,-8.301,-11.719,-29.297,0.000,0
182116.763,-28.320,-15.137,-15.137,-32.227,0.000,0
182116.767,-29.297,-32.227,-28.320,-42.969,0.000,0
182116.770,-29.785,-30.273,-23.438,-35.645,0.000,0
182116.774,-35.156,-19.531,-16.602,-39.551,0.000,0
182116.778,-35.156,-15.625,-17.090,-37.598,0.000,0
182116.782,-28.320,-20.508,-19.531,-37.109,0.000,0
182116.786,-26.367,-22.949,-19.531,-23.926,0.000,0
182116.790,-37.109,-22.461,-21.484,-24.902,0.000,0
182116.794,-52.734,-27.344,-23.926,-45.898,0.000,0
182116.798,-40.527,-26.367,-21.973,-27.832,0.000,0
182116.802,-22.461,-23.926,-24.414,-16.602,0.000,0
182116.806,-21.484,-10.742,-6.348,-27.832,0.000,0
182116.810,-20.996,-5.371,-4.395,-29.785,0.000,0
182116.813,-16.602,-18.555,-18.555,-31.250,0.000,0
182116.817,-14.160,-23.926,-13.184,-16.602,0.000,0
182116.821,-13.184,-22.949,-22.949,-27.832,0.000,0
182116.825,-32.227,-24.902,-26.367,-59.082,0.000,0
182116.829,-20.996,-20.020,-24.902,-38.574,0.000,0
182116.833,-1.465,-13.672,-22.461,-26.855,0.000,0
182116.837,-21.973,-20.020,-20.508,-37.109,0.000,0
182116.841,-38.086,-21.973,-29.297,-61.035,0.000,0
182116.845,-28.320,-20.508,-23.926,-52.734,0.000,0
182116.849,-18.066,-21.973,-24.414,-28.320,0.000,0
182116.853,-12.695,-20.020,-21.973,-18.066,0.000,0
182116.856,-12.695,-17.578,-13.672,-17.090,0.000,0
182116.860,-26.367,-26.855,-20.020,-48.340,0.000,0
182116.864,-27.832,-38.574,-28.809,-47.363,0.000,0
182116.868,-7.812,-26.855,-23.438,-13.184,0.000,0
182116.872,4.395,-9.277,-14.648,-6.836,0.000,0
182116.876,-17.090,-16.113,-20.996,-20.020,0.000,0
182116.880,-20.996,-29.297,-28.320,-15.137,0.000,0
182116.884,-12.207,-32.715,-38.574,-11.230,0.000,0
182116.888,0.488,-16.113,-23.926,-5.371,0.000,0
182116.892,-12.207,-13.672,-12.207,-22.461,0.000,0
182116.895,-37.598,-28.320,-26.855,-41.992,0.000,0
182116.899,-20.508,-30.762,-28.320,-27.344,0.000,0
182116.903,-20.508,-31.250,-25.879,-41.504,0.000,0
182116.907,-31.250,-25.879,-24.902,-59.570,0.000,0
182116.911,-29.297,-30.273,-23.438,-54.688,0.000,0
182116.915,-19.043,-35.645,-27.832,-33.203,0.000,0
182116.919,-16.602,-30.762,-40.039,-11.719,0.000,0
182116.923,-26.367,-22.949,-33.691,-21.973,0.000,0
182116.927,-26.855,-23.926,-24.902,-40.039,0.000,0
182116.931,-21.484,-31.738,-26.855,-21.484,0.000,0
182116.935,-5.371,-23.438,-17.578,-4.883,0.000,0
182116.938,-8.301,-20.996,-15.625,-14.160,0.000,0
182116.942,-31.250,-29.297,-29.297,-44.922,0.000,0
182116.946,-20.996,-31.738,-44.434,-45.898,0.000,0
182116.950,0.000,-22.461,-34.668,-13.672,0.000,0
182116.954,-13.672,-12.695,-17.578,-7.812,0.000,0
182116.958,-29.297,-14.160,-14.160,-23.438,0.000,0
182116.962,-23.926,-18.066,-20.020,-40.039,0.000,0
182116.966,-5.859,-20.996,-26.855,-14.160,0.000,0
182116.970,-1.465,-17.578,-22.461,-1.465,0.000,0
182116.974,-24.414,-19.043,-26.367,-35.645,0.000,0
182116.978,-26.367,-23.438,-26.367,-43.945,0.000,0
182116.981,-20.996,-27.832,-29.297,-29.297,0.000,0
182116.985,-23.926,-28.320,-30.273,-23.438,0.000,0
182116.989,-35.156,-24.902,-26.367,-25.391,0.000,0
182116.993,-35.156,-22.461,-23.438,-25.391,0.000,0
182116.997,-23.438,-20.020,-20.508,-13.672,0.000,0
182117.001,-17.090,-22.949,-24.414,-10.254,0.000,0
182117.005,-16.602,-19.043,-22.461,-8.301,0.000,0
182117.009,-32.715,-26.855,-28.320,-22.949,0.000,0
182117.013,-28.809,-29.785,-31.738,-28.809,0.000,0
182117.017,-8.789,-18.555,-17.090,-11.719,0.000,0
182117.020,-20.996,-27.344,-20.508,-32.227,0.000,0
182117.024,-30.762,-26.855,-34.180,-46.875,0.000,0
182117.028,-13.672,-16.113,-21.973,-22.461,0.000,0
182117.032,-13.184,-24.902,-25.391,-15.137,0.000,0
182117.036,-35.156,-31.250,-34.668,-42.969,0.000,0
182117.040,-33.691,-25.391,-23.438,-62.500,0.000,0
182117.044,-36.621,-30.273,-30.273,-49.805,0.000,0
182117.048,-31.250,-34.668,-34.668,-31.738,0.000,0
182117.052,-21.973,-28.320,-22.949,-29.297,0.000,0
182117.056,-25.391,-15.137,-10.254,-39.551,0.000,0
182117.060,-13.184,-13.672,-8.301,-34.668,0.000,0
182117.063,4.395,-22.461,-24.414,-7.324,0.000,0
182117.067,0.488,-25.391,-31.738,0.000,0.000,0
182117.071,-20.996,-27.344,-34.668,-26.855,0.000,0
182117.075,-29.297,-32.715,-43.457,-39.062,0.000,0
182117.079,-21.973,-36.621,-38.086,-30.273,0.000,0
182117.083,-22.949,-31.250,-34.180,-20.020,0.000,0
182117.087,-34.180,-26.855,-28.809,-26.855,0.000,0
182117.091,-29.785,-24.414,-23.438,-33.691,0.000,0
182117.095,-5.859,-20.020,-27.344,-27.344,0.000,0
182117.099,-8.789,-19.531,-22.461,-23.926,0.000,0
182117.103,-12.207,-10.742,-12.207,-16.602,0.000,0
182117.106,-15.625,-17.578,-21.973,-26.367,0.000,0
182117.110,-25.879,-38.574,-38.574,-22.461,0.000,0
182117.114,-25.879,-51.270,-47.852,-29.785,0.000,0
182117.118,-35.645,-51.758,-41.992,-54.199,0.000,0
182117.122,-35.645,-41.504,-34.668,-49.316,0.000,0
182117.126,-23.438,-36.133,-34.668,-29.785,0.000,0
182117.130,-24.902,-29.297,-37.598,-12.695,0.000,0
182117.134,-23.438,-22.461,-27.832,-24.902,0.000,0
182117.138,-34.180,-29.785,-25.879,-50.293,0.000,0
182117.142,-39.551,-27.832,-36.133,-32.715,0.000,0
182117.145,-14.648,-13.672,-24.902,-7.324,0.000,0
182117.149,-11.230,-13.672,-13.184,-14.648,0.000,1
182117.153,-37.598,-24.902,-17.578,-43.457,0.000,0
182117.157,-37.598,-25.391,-21.484,-65.430,0.000,0
182117.161,-11.230,-21.973,-22.461,-56.641,0.000,0
182117.165,-12.207,-30.762,-32.227,-42.480,0.000,0
182117.169,-27.832,-27.344,-28.809,-45.898,0.000,0
182117.173,-32.715,-27.344,-30.762,-53.711,0.000,0
182117.177,-24.902,-32.227,-36.621,-34.180,0.000,0
182117.181,-12.207,-26.367,-35.645,-14.160,0.000,0
182117.185,-7.812,-17.090,-27.832,-13.184,0.000,0
182117.188,-25.391,-16.113,-22.461,-26.367,0.000,0
182117.192,-22.949,-18.555,-25.391,-24.902,0.000,0
182117.196,-15.137,-24.902,-28.320,-14.648,0.000,0
182117.200,-39.551,-34.180,-36.621,-27.832,0.000,0
182117.204,-56.641,-36.621,-39.062,-42.969,0.000,0
182117.208,-43.945,-34.180,-36.621,-37.109,0.000,0
182117.212,-35.156,-37.598,-40.527,-23.926,0.000,0
182117.216,-31.738,-39.062,-31.250,-17.090,0.000,0
182117.220,-33.203,-30.762,-21.973,-34.180,0.000,0
182117.224,-27.832,-20.508,-20.508,-22.949,0.000,0
182117.228,-7.324,-20.508,-19.531,11.230,0.000,0
182117.231,-12.695,-31.738,-27.832,-4.395,0.000,0
182117.235,-35.156,-36.133,-39.062,-50.781,0.000,0
182117.239,-30.273,-29.785,-30.273,-51.270,0.000,0
182117.243,-17.090,-27.832,-25.391,-21.973,0.000,0
182117.247,-11.719,-28.320,-25.391,-11.230,0.000,0
182117.251,-13.184,-28.320,-29.297,-23.438,0.000,0
182117.255,-44.434,-33.691,-41.016,-59.570,0.000,0
182117.259,-53.223,-35.645,-40.527,-51.758,0.000,0
182117.263,-30.273,-27.832,-28.809,-16.602,0.000,0
182117.267,-37.598,-27.832,-26.367,-24.902,0.000,0
182117.270,-48.340,-26.855,-30.762,-50.293,0.000,0
182117.274,-34.180,-21.484,-28.809,-48.340,0.000,0
182117.278,-19.531,-26.855,-27.344,-26.855,0.000,0
182117.282,-25.391,-31.250,-36.133,-24.414,0.000,0
182117.286,-41.992,-28.809,-39.062,-48.340,0.000,0
182117.290,-43.945,-29.297,-33.203,-53.223,0.000,0
182117.294,-20.020,-20.996,-21.484,-30.762,0.000,0
182117.298,-13.672,-13.672,-23.438,-22.461,0.000,0
182117.302,-31.250,-25.391,-34.180,-51.270,0.000,0
182117.306,-40.039,-31.250,-31.738,-55.176,0.000,0
182117.310,-35.156,-26.367,-24.414,-30.273,0.000,0
182117.313,-20.508,-19.531,-17.578,-20.508,0.000,0
182117.317,-30.762,-22.949,-32.715,-31.738,0.000,0
182117.321,-37.109,-18.555,-35.156,-42.480,0.000,0
182117.325,-22.949,-5.371,-11.230,-37.109,0.000,0
182117.329,-24.414,-14.160,-20.996,-33.203,0.000,0
182117.333,-32.227,-26.367,-38.574,-40.527,0.000,0
182117.337,-43.945,-19.531,-33.691,-54.199,0.000,0
182117.341,-42.969,-16.602,-30.762,-45.898,0.000,0
182117.345,-15.625,-16.113,-25.879,-13.184,0.000,0
182117.349,-4.883,-11.719,-21.973,-9.277,0.000,0
182117.353,-24.414,-13.672,-29.297,-43.945,0.000,0
182117.356,-35.156,-15.137,-35.645,-52.246,0.000,0
182117.360,-18.066,-9.766,-26.367,-21.484,0.000,0
182117.364,-10.254,-10.254,-20.996,-18.066,0.000,0
182117.368,-28.320,-16.602,-30.762,-41.992,0.000,0
182117.372,-44.922,-26.367,-40.527,-64.941,0.000,0
182117.376,-42.480,-30.762,-41.016,-51.758,0.000,0
182117.380,-27.344,-23.438,-37.598,-17.578,0.000,0
182117.384,-26.367,-25.879,-40.527,-25.391,0.000,0
182117.388,-39.551,-24.902,-35.156,-47.363,0.000,0
182117.392,-43.457,-20.508,-28.809,-49.316,0.000,0
182117.395,-22.949,-19.043,-26.367,-32.715,0.000,0
182117.399,-20.508,-20.508,-32.715,-25.879,0.000,0
182117.403,-34.180,-20.020,-34.180,-40.039,0.000,0
182117.407,-31.250,-15.137,-26.367,-37.598,0.000,0
182117.411,-10.254,-8.789,-14.648,-22.461,0.000,0
182117.415,-0.977,-8.789,-14.160,-19.043,0.000,0
182117.419,-20.020,-14.160,-27.832,-24.902,0.000,0
182117.423,-20.508,-10.254,-22.461,-28.809,0.000,0
182117.427,-13.184,-15.137,-20.020,-34.180,0.000,0
182117.431,-13.672,-12.207,-17.090,-32.227,0.000,0
182117.435,-23.926,-13.184,-22.461,-33.203,0.000,0
182117.438,-36.133,-26.855,-47.363,-55.176,0.000,0
182117.442,-24.414,-24.414,-55.664,-54.688,0.000,0
182117.446,-15.625,-20.508,-51.270,-32.715,0.000,0
182117.450,-24.414,-21.973,-43.945,-40.527,0.000,0
182117.454,-33.203,-24.902,-41.992,-60.059,0.000,0
182117.458,-31.250,-25.879,-49.316,-46.875,0.000,0
182117.462,-25.879,-25.879,-54.199,-32.715,0.000,0
182117.466,-18.555,-23.438,-48.340,-26.367,0.000,0
182117.470,-26.367,-23.926,-46.875,-47.852,0.000,0
182117.474,-37.598,-23.926,-47.363,-57.617,0.000,0
182117.478,-25.391,-23.926,-42.480,-33.691,0.000,0
182117.481,-15.137,-18.555,-39.062,-20.020,0.000,0
182117.485,-16.113,-9.277,-33.203,-18.555,0.000,0
182117.489,-30.273,-13.184,-31.250,-43.945,0.000,0
182117.493,-36.133,-25.879,-43.945,-44.922,0.000,0
182117.497,-24.414,-30.273,-53.223,-27.344,0.000,0
182117.501,-24.414,-30.273,-56.641,-45.410,0.000,0
182117.505,-39.551,-29.785,-49.805,-58.105,0.000,0
182117.509,-38.574,-22.949,-37.598,-56.152,0.000,0
182117.513,-19.043,-17.578,-35.645,-43.945,0.000,0
182117.517,-26.855,-21.484,-49.805,-40.039,0.000,0
182117.520,-53.223,-27.344,-53.711,-54.199,0.000,0
182117.524,-40.039,-18.555,-39.551,-28.809,0.000,0
182117.528,-18.066,-19.531,-37.109,-11.719,0.000,0
182117.532,-26.855,-23.926,-40.527,-21.973,0.000,0
182117.536,-35.645,-24.414,-46.875,-26.855,0.000,0
182117.540,-31.738,-26.855,-48.828,-37.598,0.000,0
182117.544,-27.832,-24.414,-42.480,-38.574,0.000,0
182117.548,-33.203,-27.832,-37.598,-39.551,0.000,0
182117.552,-41.992,-26.855,-29.297,-52.246,0.000,0
182117.556,-36.621,-14.160,-23.926,-57.129,0.000,0
182117.560,-18.066,-14.648,-31.738,-30.273,0.000,0
182117.563,-8.789,-26.367,-39.551,-20.508,0.000,0
182117.567,-27.344,-28.809,-35.156,-41.504,0.000,0
182117.571,-39.551,-32.715,-37.598,-53.223,0.000,0
182117.575,-18.555,-30.273,-36.133,-37.109,0.000,0
182117.579,-1.465,-16.602,-25.391,-3.906,0.000,0
182117.583,-7.812,-12.207,-17.090,6.348,0.000,0
182117.587,-18.555,-13.184,-20.508,-12.207,0.000,0
182117.591,-22.949,-20.508,-29.785,-33.203,0.000,0
182117.595,-27.344,-28.809,-31.738,-25.391,0.000,0
182117.599,-36.133,-25.879,-34.180,-14.648,0.000,0
182117.603,-48.340,-30.762,-41.992,-38.086,0.000,0
182117.606,-37.598,-24.414,-30.762,-45.898,0.000,0
182117.610,-29.785,-18.555,-30.762,-33.691,0.000,0
182117.614,-27.832,-22.949,-38.086,-27.832,0.000,0
182117.618,-20.508,-20.020,-31.738,-31.738,0.000,0
182117.622,-30.273,-18.555,-30.273,-39.062,0.000,0
182117.626,-30.762,-21.484,-29.297,-30.762,0.000,0
182117.630,-13.672,-20.020,-22.461,-27.344,0.000,0
182117.634,-20.020,-19.531,-26.367,-24.902,0.000,0
182117.638,-22.949,-21.484,-33.203,-24.902,0.000,0
182117.642,-8.789,-19.531,-24.902,-34.180,0.000,0
182117.645,-14.160,-34.180,-35.645,-25.391,0.000,0
182117.649,-22.949,-40.039,-41.504,-27.344,0.000,0
182117.653,-20.020,-26.855,-24.902,-47.363,0.000,0
182117.657,-27.832,-26.367,-20.996,-50.781,0.000,0
182117.661,-23.438,-26.367,-26.367,-22.461,0.000,0
182117.665,-13.672,-27.344,-30.762,-19.531,0.000,0
182117.669,-26.855,-26.855,-25.879,-46.875,0.000,0
182117.673,-32.715,-22.461,-28.809,-48.828,0.000,0
182117.677,-19.043,-12.207,-21.484,-25.879,0.000,0
182117.681,-10.742,-13.184,-13.672,-14.160,0.000,0
182117.685,-22.461,-24.414,-28.809,-37.109,0.000,0
182117.688,-34.668,-28.809,-34.668,-65.918,0.000,0
182117.692,-21.484,-21.484,-22.461,-47.363,0.000,0
182117.696,-9.277,-18.555,-11.719,-15.137,0.000,0
182117.700,-21.484,-26.367,-16.113,-6.836,0.000,0
182117.704,-50.781,-30.273,-27.832,-23.926,0.000,0
182117.708,-42.969,-20.996,-20.508,-26.855,0.000,0
182117.712,-20.020,-18.066,-14.160,3.906,0.000,0
182117.716,-34.668,-25.879,-19.043,-0.488,0.000,0
182117.720,-48.340,-25.391,-23.438,-33.691,0.000,0
182117.724,-45.410,-21.973,-24.902,-38.574,0.000,0
182117.728,-28.809,-15.625,-18.555,-33.691,0.000,0
182117.731,-32.715,-20.508,-20.996,-30.762,0.000,0
182117.735,-48.828,-29.297,-26.855,-31.738,0.000,0
182117.739,-46.387,-25.879,-25.391,-33.691,0.000,0
182117.743,-21.973,-14.648,-15.137,-18.066,0.000,0
182117.747,-26.367,-26.367,-20.996,-35.156,0.000,0
182117.751,-33.203,-28.320,-29.785,-47.363,0.000,0
182117.755,-23.438,-13.184,-23.926,-39.551,0.000,0
182117.759,-25.391,-19.043,-22.461,-35.645,0.000,0
182117.763,-14.160,-20.508,-21.973,-11.230,0.000,0
182117.767,-15.625,-23.926,-33.203,-23.926,0.000,0
182117.770,-30.273,-29.785,-32.227,-47.852,0.000,0
182117.774,-19.531,-15.625,-12.695,-28.809,0.000,0
182117.778,-1.953,-14.648,-7.812,-5.859,0.000,0
182117.782,-13.184,-31.250,-28.320,-18.066,0.000,0
182117.786,-33.203,-30.273,-32.227,-44.922,0.000,0
182117.790,-28.320,-22.949,-23.926,-34.668,0.000,0
182117.794,-12.207,-27.832,-27.832,-10.742,0.000,0
182117.798,-8.301,-29.785,-24.414,-5.859,0.000,0
182117.802,-16.602,-24.902,-22.461,-11.230,0.000,0
182117.806,-20.020,-34.668,-25.391,-28.809,0.000,0
182117.810,-4.395,-32.715,-19.531,-15.137,0.000,0
182117.813,3.906,-25.391,-15.137,1.465,0.000,0
182117.817,-15.137,-36.133,-29.785,-21.484,0.000,0
182117.821,-26.367,-38.086,-35.645,-27.344,0.000,0
182117.825,-17.090,-28.809,-26.855,-21.973,0.000,0
182117.829,-9.766,-23.438,-21.973,-9.277,0.000,0
182117.833,-30.273,-22.461,-29.785,-17.090,0.000,0
182117.837,-37.598,-24.414,-32.715,-26.855,0.000,0
182117.841,-12.207,-24.414,-31.738,-5.859,0.000,0
182117.845,-8.301,-27.344,-35.645,-24.902,0.000,0
182117.849,-30.762,-28.320,-41.504,-40.527,0.000,0
182117.853,-37.598,-25.879,-37.109,-39.551,0.000,1
182117.856,-21.973,-20.508,-24.902,-35.156,0.000,0
182117.860,-23.926,-24.414,-28.320,-28.320,0.000,0
182117.864,-31.250,-26.855,-28.809,-38.574,0.000,0
182117.868,-25.391,-13.184,-17.578,-46.387,0.000,0
182117.872,-7.324,-4.395,-11.230,-34.180,0.000,0
182117.876,2.441,-11.230,-17.090,-17.578,0.000,0
182117.880,-16.602,-17.090,-24.414,-23.438,0.000,0
182117.884,-28.320,-21.484,-30.762,-49.805,0.000,0
182117.888,-26.367,-25.391,-44.922,-67.871,0.000,0
182117.892,-16.602,-25.879,-38.574,-51.270,0.000,0
182117.895,-3.418,-24.414,-26.367,-23.926,0.000,0
182117.899,-1.953,-18.555,-18.066,-11.230,0.000,0
182117.903,-13.672,-20.996,-18.555,-36.621,0.000,0
182117.907,-17.090,-16.602,-17.578,-33.691,0.000,0
182117.911,-2.930,-12.695,-10.254,10.742,0.000,0
182117.915,-15.137,-22.461,-16.602,-0.488,0.000,0
182117.919,-32.715,-22.461,-20.508,-31.250,0.000,0
182117.923,-23.438,-23.926,-31.738,-34.668,0.000,0
182117.927,-13.672,-24.902,-37.598,-16.602,0.000,0
182117.931,-14.648,-22.461,-26.855,-11.719,0.000,0
182117.935,-26.367,-22.949,-27.832,-40.527,0.000,0
182117.938,-24.902,-21.484,-25.391,-35.156,0.000,0
182117.942,-8.301,-18.066,-17.090,1.465,0.000,0
182117.946,-4.395,-22.461,-19.531,-4.883,0.000,0
182117.950,-23.438,-33.691,-29.785,-29.297,0.000,0
182117.954,-35.645,-29.785,-22.949,-37.109,0.000,0
182117.958,-13.672,-17.090,-18.066,-14.648,0.000,0
182117.962,-4.883,-20.508,-22.461,-7.324,0.000,0
182117.966,-13.672,-19.531,-20.020,-19.531,0.000,0
182117.970,-21.484,-21.484,-24.902,-30.273,0.000,0
182117.974,-21.484,-22.461,-22.461,-32.715,0.000,0
182117.978,-13.672,-21.484,-28.809,-22.461,0.000,0
182117.981,-24.414,-29.297,-42.969,-34.668,0.000,0
182117.985,-50.293,-33.203,-42.480,-49.316,0.000,0
182117.989,-51.758,-34.180,-45.898,-42.969,0.000,0
182117.993,-33.203,-26.855,-34.668,-25.391,0.000,0
182117.997,-24.414,-11.230,-17.578,-16.602,0.000,0
182118.001,-44.922,-16.602,-21.973,-47.363,0.000,0
182118.005,-58.105,-26.367,-35.645,-56.152,0.000,0
182118.009,-36.621,-22.949,-33.691,-32.715,0.000,0
182118.013,-24.414,-24.414,-23.926,-29.785,0.000,0
182118.017,-43.457,-27.344,-26.367,-37.109,0.000,0
182118.020,-54.199,-31.738,-34.668,-53.223,0.000,0
182118.024,-28.809,-28.809,-30.273,-54.199,0.000,0
182118.028,-4.883,-17.090,-20.020,-19.043,0.000,0
182118.032,-21.973,-27.832,-30.762,-24.902,0.000,0
182118.036,-30.762,-35.645,-43.457,-57.617,0.000,0
182118.040,-12.695,-25.879,-30.273,-51.758,0.000,0
182118.044,4.395,-13.184,-12.695,-17.578,0.000,0
182118.048,-8.789,-20.020,-24.902,-12.207,0.000,0
182118.052,-17.578,-18.555,-24.902,-19.043,0.000,0
182118.056,-15.625,-9.766,-16.113,-20.996,0.000,0
182118.060,-20.996,-22.949,-21.484,-22.461,0.000,0
182118.063,-27.832,-34.180,-30.762,-35.156,0.000,0
182118.067,-26.367,-17.090,-28.320,-35.156,0.000,0
182118.071,-24.414,-11.230,-24.414,-32.227,0.000,0
182118.075,-22.461,-20.020,-20.508,-14.648,0.000,0
182118.079,-19.531,-25.391,-20.996,-1.953,0.000,0
182118.083,-20.996,-21.973,-18.555,-31.250,0.000,0
182118.087,-29.785,-15.625,-15.137,-40.527,0.000,0
182118.091,-30.273,-22.949,-27.344,-19.531,0.000,0
182118.095,-14.648,-28.320,-34.180,-10.254,0.000,0
182118.099,-17.090,-26.855,-27.832,-27.832,0.000,0
182118.103,-34.668,-23.438,-23.438,-58.594,0.000,0
182118.106,-36.133,-24.902,-35.645,-53.223,0.000,0
182118.110,-14.648,-23.438,-32.227,-19.531,0.000,0
182118.114,-9.277,-16.113,-20.508,-5.859,0.000,0
182118.118,-23.438,-18.066,-28.320,-17.578,0.000,0
182118.122,-27.344,-21.973,-22.461,-34.180,0.000,0
182118.126,-13.672,-27.344,-25.391,-14.648,0.000,0
182118.130,0.488,-17.090,-15.625,6.348,0.000,0
182118.134,0.000,-5.371,-6.348,-2.441,0.000,0
182118.138,-9.766,-28.320,-32.227,-17.578,0.000,0
