timestamps,TP9,AF7,AF8,TP10,Right AUX,Marker0
182239.829,-18.066,-42.969,-46.387,-28.320,0.000,0
182239.833,-3.418,-37.109,-40.039,-14.648,0.000,0
182239.837,3.906,-20.996,-31.250,-2.441,0.000,0
182239.841,-1.465,-15.625,-27.344,-24.414,0.000,0
182239.845,-7.812,-30.273,-41.504,-38.086,0.000,0
182239.849,-13.672,-36.621,-42.480,-31.738,0.000,0
182239.853,-8.301,-30.273,-27.832,-35.156,0.000,0
182239.856,-15.137,-34.668,-36.133,-40.527,0.000,0
182239.860,-34.668,-37.109,-37.109,-34.668,0.000,0
182239.864,-25.391,-36.621,-31.738,-19.043,0.000,0
182239.868,-21.973,-41.992,-37.598,-17.090,0.000,0
182239.872,-29.785,-31.250,-34.180,-27.344,0.000,0
182239.876,-28.809,-22.461,-29.297,-41.016,0.000,0
182239.880,-19.531,-32.715,-31.250,-46.387,0.000,0
182239.884,-14.648,-30.273,-36.621,-20.996,0.000,0
182239.888,-33.203,-31.250,-46.387,-18.555,0.000,0
182239.892,-47.363,-31.738,-35.156,-43.457,0.000,0
182239.895,-32.715,-28.320,-35.645,-31.250,0.000,0
182239.899,-20.020,-28.320,-37.109,-25.391,0.000,0
182239.903,-10.742,-5.859,-8.301,-22.461,0.000,0
182239.907,4.395,10.742,13.672,-11.719,0.000,0
182239.911,-20.508,-9.766,-0.977,-24.414,0.000,0
182239.915,-37.598,-35.645,-33.203,-32.715,0.000,0
182239.919,-30.273,-40.527,-41.992,-38.086,0.000,0
182239.923,-40.527,-34.668,-40.039,-42.480,0.000,0
182239.927,-38.574,-33.203,-37.598,-34.668,0.000,0
182239.931,-25.879,-26.855,-28.320,-37.109,0.000,0
182239.935,-19.043,-20.508,-31.738,-28.809,0.000,0
182239.938,-37.598,-24.414,-42.480,-32.227,0.000,0
182239.942,-49.316,-25.879,-33.203,-41.016,0.000,0
182239.946,-18.066,-27.344,-27.832,-17.578,0.000,0
182239.950,-19.043,-29.785,-27.832,-17.090,0.000,0
182239.954,-58.105,-27.344,-21.973,-48.340,0.000,0
182239.958,-62.988,-25.391,-28.320,-65.918,0.000,0
182239.962,-28.320,-9.277,-22.949,-25.879,0.000,0
182239.966,-10.742,-6.348,-8.301,-1.465,0.000,0
182239.970,-31.250,-22.949,-21.973,-36.133,0.000,0
182239.974,-34.668,-22.949,-21.973,-52.734,0.000,0
182239.978,-34.180,-24.414,-16.602,-33.691,0.000,0
182239.981,-34.180,-36.133,-28.809,-24.414,0.000,0
182239.985,-30.273,-42.969,-44.434,-24.414,0.000,0
182239.989,-40.039,-36.133,-42.480,-48.340,0.000,0
182239.993,-44.922,-37.598,-39.062,-68.848,0.000,0
182239.997,-14.160,-33.691,-30.762,-22.949,0.000,0
182240.001,-0.977,-23.438,-14.160,8.301,0.000,0
182240.005,-27.832,-30.762,-23.438,-27.344,0.000,0
182240.009,-31.738,-36.133,-32.227,-64.941,0.000,0
182240.013,-23.438,-32.227,-43.945,-47.852,0.000,0
182240.017,-21.973,-29.785,-35.645,-26.367,0.000,0
182240.020,-35.156,-37.598,-28.809,-31.250,0.000,0
182240.024,-56.152,-42.969,-42.480,-45.410,0.000,0
182240.028,-55.664,-35.156,-35.645,-52.734,0.000,0
182240.032,-41.992,-29.785,-33.691,-40.039,0.000,0
182240.036,-38.086,-23.438,-33.203,-34.668,0.000,0
182240.040,-50.781,-22.949,-35.156,-47.363,0.000,0
182240.044,-66.406,-25.879,-43.457,-54.199,0.000,0
182240.048,-56.641,-26.367,-42.480,-51.758,0.000,0
182240.052,-47.363,-29.297,-35.156,-48.340,0.000,0
182240.056,-54.688,-23.438,-33.203,-44.922,0.000,0
182240.060,-33.691,-14.160,-25.879,-46.387,0.000,0
182240.063,-20.020,-25.391,-34.180,-39.551,0.000,0
182240.067,-34.668,-31.250,-41.504,-38.086,0.000,0
182240.071,-32.227,-23.926,-29.785,-50.293,0.000,0
182240.075,-22.461,-11.719,-18.066,-43.457,0.000,0
182240.079,-19.043,-8.789,-17.090,-25.879,0.000,0
182240.083,-21.484,-25.391,-33.691,-23.438,0.000,0
182240.087,-30.273,-30.273,-46.875,-46.875,0.000,0
182240.091,-40.039,-23.438,-44.434,-66.895,0.000,0
182240.095,-26.367,-18.555,-33.691,-48.340,0.000,0
182240.099,-15.137,-20.508,-30.273,-16.602,0.000,0
182240.103,-41.016,-32.227,-44.434,-34.180,0.000,0
182240.106,-92.285,-39.551,-56.152,-84.961,0.000,0
182240.110,-99.121,-33.691,-49.316,-80.566,0.000,0
182240.114,-60.547,-26.367,-35.645,-39.551,0.000,0
182240.118,-42.969,-17.578,-23.438,-20.508,0.000,0
182240.122,-49.316,-15.625,-21.973,-33.203,0.000,0
182240.126,-44.922,-17.578,-30.762,-48.340,0.000,0
182240.130,-33.691,-22.949,-40.039,-41.992,0.000,0
182240.134,-23.438,-27.344,-35.645,-38.086,0.000,0
182240.138,-20.020,-33.691,-32.715,-47.852,0.000,0
182240.142,-31.738,-35.156,-43.945,-64.941,0.000,0
182240.145,-16.602,-20.996,-28.809,-54.688,0.000,0
182240.149,1.465,-3.906,0.488,-26.367,0.000,0
182240.153,-32.227,-16.602,-14.160,-46.875,0.000,0
182240.157,-51.270,-42.969,-36.621,-75.684,0.000,0
182240.161,-41.992,-37.109,-35.156,-54.688,0.000,0
182240.165,-31.738,-33.691,-36.133,-41.504,0.000,0
182240.169,-32.715,-34.180,-33.203,-50.781,0.000,0
182240.173,-54.199,-26.855,-31.250,-54.199,0.000,0
182240.177,-50.781,-24.902,-33.203,-52.246,0.000,0
182240.181,-29.297,-23.438,-29.297,-37.109,0.000,0
182240.185,-21.973,-25.879,-34.668,-31.738,0.000,0
182240.188,-32.715,-29.785,-39.062,-52.246,0.000,0
182240.192,-37.598,-22.949,-36.133,-41.992,0.000,0
182240.196,-31.250,-25.879,-32.715,-31.738,0.000,0
182240.200,-20.996,-22.949,-20.020,-17.578,0.000,0
182240.204,-17.090,-9.766,-10.742,-12.207,0.000,0
182240.208,-15.625,-8.301,-14.160,-46.387,0.000,0
182240.212,-23.926,-24.414,-30.762,-45.898,0.000,0
182240.216,-28.809,-31.250,-45.898,-28.809,0.000,0
182240.220,-41.992,-30.273,-38.574,-34.180,0.000,0
182240.224,-67.383,-34.180,-37.109,-57.129,0.000,0
182240.228,-65.430,-30.273,-41.016,-69.824,0.000,0
182240.231,-37.598,-20.020,-39.062,-41.992,0.000,0
182240.235,-22.949,-6.836,-20.508,-17.578,0.000,0
182240.239,-28.320,-7.812,-13.184,-26.855,0.000,0
182240.243,-38.574,-28.809,-38.574,-47.852,0.000,0
182240.247,-34.180,-41.504,-50.781,-49.805,0.000,0
182240.251,-18.555,-30.762,-47.852,-25.391,0.000,0
182240.255,-32.227,-25.879,-44.922,-36.133,0.000,0
182240.259,-53.223,-29.297,-42.480,-59.570,0.000,0
182240.263,-26.367,-16.602,-30.273,-29.297,0.000,0
182240.267,-10.254,-15.137,-16.113,-18.555,0.000,0
182240.270,-38.574,-30.273,-29.297,-49.805,0.000,0
182240.274,-47.363,-32.227,-34.180,-64.941,0.000,0
182240.278,-21.484,-16.602,-15.625,-45.898,0.000,0
182240.282,-3.906,-10.254,-12.207,-32.227,0.000,0
182240.286,1.465,-20.508,-30.273,-38.086,0.000,0
182240.290,-20.508,-38.086,-47.852,-49.316,0.000,0
182240.294,-61.523,-46.875,-53.223,-66.895,0.000,0
182240.298,-45.410,-38.086,-42.480,-45.410,0.000,0
182240.302,-21.973,-31.738,-34.180,-19.043,0.000,0
182240.306,-40.039,-35.645,-40.039,-46.387,0.000,0
182240.310,-51.270,-40.527,-47.852,-62.012,0.000,0
182240.313,-12.207,-32.227,-43.457,-19.043,0.000,0
182240.317,0.488,-25.391,-34.180,3.906,0.000,0
182240.321,-30.273,-24.902,-25.879,-16.602,0.000,0
182240.325,-44.434,-32.715,-36.133,-44.434,0.000,0
182240.329,-45.898,-37.598,-34.180,-52.246,0.000,0
182240.333,-22.461,-25.879,-18.066,-33.203,0.000,0
182240.337,-34.180,-34.180,-32.715,-39.551,0.000,0
182240.341,-64.941,-50.293,-52.246,-50.781,0.000,0
182240.345,-51.758,-45.898,-43.457,-46.387,0.000,0
182240.349,-33.203,-35.156,-43.945,-36.621,0.000,0
182240.353,-38.574,-32.227,-49.316,-28.320,0.000,0
182240.356,-42.480,-31.250,-40.527,-24.414,0.000,0
182240.360,-32.227,-29.785,-45.898,-31.738,0.000,0
182240.364,-21.484,-26.367,-32.715,-20.020,0.000,0
182240.368,-9.277,-23.438,-27.344,2.441,0.000,0
182240.372,-15.625,-23.438,-36.621,-20.020,0.000,0
182240.376,-27.344,-24.902,-30.762,-34.180,0.000,0
182240.380,-19.043,-33.691,-35.645,-15.137,0.000,0
182240.384,-12.207,-38.574,-39.062,-17.090,0.000,0
182240.388,-16.602,-23.926,-43.945,-25.391,0.000,0
182240.392,-18.555,-9.766,-36.133,-19.043,0.000,0
182240.395,-17.578,-20.020,-27.344,-15.625,0.000,0
182240.399,-12.695,-30.273,-37.109,-7.812,0.000,0
182240.403,-11.719,-24.414,-24.902,-22.949,0.000,0
182240.407,-30.762,-25.879,-27.832,-49.316,0.000,0
182240.411,-26.855,-19.531,-31.738,-31.738,0.000,0
182240.415,-14.160,-12.695,-19.043,-16.113,0.000,0
182240.419,-29.785,-22.949,-34.668,-32.227,0.000,0
182240.423,-52.246,-35.156,-58.105,-60.547,0.000,0
182240.427,-45.410,-33.691,-54.199,-54.688,0.000,0
182240.431,-9.766,-18.555,-27.344,-6.836,0.000,0
182240.435,-5.859,-28.809,-42.480,-12.695,0.000,0
182240.438,-24.414,-35.645,-59.570,-37.109,0.000,0
182240.442,-15.137,-27.832,-49.805,-34.668,0.000,0
182240.446,-9.277,-32.227,-45.898,-23.438,0.000,0
182240.450,0.488,-18.555,-21.973,-1.465,0.000,0
182240.454,-4.395,-9.766,-16.602,-2.441,0.000,0
182240.458,-28.809,-16.602,-34.668,-18.555,0.000,0
182240.462,-24.414,-18.066,-38.574,-22.461,0.000,0
182240.466,-14.160,-24.414,-37.598,-8.789,0.000,0
182240.470,-13.184,-29.297,-45.898,-6.836,0.000,0
182240.474,-16.113,-32.227,-61.523,-28.809,0.000,0
182240.478,-8.301,-17.090,-42.969,-22.461,0.000,0
182240.481,16.602,0.977,-15.137,10.742,0.000,0
182240.485,10.254,-18.066,-29.785,-6.348,0.000,0
182240.489,-22.949,-39.062,-46.387,-45.898,0.000,0
182240.493,-29.785,-36.621,-52.734,-45.410,0.000,0
182240.497,-11.230,-34.668,-40.039,-24.902,0.000,0
182240.501,-10.254,-35.645,-41.016,-17.090,0.000,0
182240.505,-19.043,-20.996,-45.410,-24.414,0.000,0
182240.509,-20.996,-18.555,-46.387,-30.273,0.000,0
182240.513,-10.742,-26.367,-46.387,-22.461,0.000,0
182240.517,-3.906,-25.391,-42.480,-8.301,0.000,0
182240.520,-24.414,-33.203,-51.758,-34.668,0.000,0
182240.524,-45.898,-34.180,-49.805,-56.152,0.000,0
182240.528,-21.973,-20.508,-40.039,-28.809,0.000,0
182240.532,0.488,-15.137,-30.762,-23.438,0.000,0
182240.536,-26.367,-18.555,-33.203,-39.551,0.000,0
182240.540,-33.203,-20.020,-40.039,-45.898,0.000,0
182240.544,6.836,-8.789,-33.691,-22.949,0.000,0
182240.548,17.090,-3.906,-24.902,-1.465,0.000,0
182240.552,-7.812,-15.137,-28.320,-12.207,0.000,0
182240.556,-9.766,-33.203,-51.758,-18.066,0.000,0
182240.560,-14.648,-34.180,-61.523,-33.691,0.000,0
182240.563,-13.184,-14.648,-38.086,-23.926,0.000,0
182240.567,-7.324,-11.719,-26.367,-3.418,0.000,0
182240.571,-20.996,-18.555,-32.227,-18.066,0.000,0
182240.575,-23.438,-8.789,-31.738,-18.555,0.000,0
182240.579,-5.371,-2.441,-29.297,-20.020,0.000,0
182240.583,-2.930,-16.113,-32.227,-23.926,0.000,0
182240.587,-22.461,-25.879,-47.363,-36.621,0.000,0
182240.591,-29.785,-31.738,-54.199,-57.129,0.000,0
182240.595,-22.949,-31.738,-45.410,-32.715,0.000,0
182240.599,-14.160,-19.531,-28.809,-3.906,0.000,0
182240.603,-10.254,-15.625,-26.855,-22.949,0.000,0
182240.606,-21.484,-18.555,-41.504,-34.180,0.000,0
182240.610,-16.602,-18.555,-38.086,-17.090,0.000,0
182240.614,9.766,-0.488,-21.484,8.789,0.000,0
182240.618,20.020,13.184,-18.555,19.043,0.000,0
182240.622,-14.648,-4.883,-47.363,-10.254,0.000,0
182240.626,-22.461,-13.672,-58.105,-14.160,0.000,0
182240.630,15.137,4.883,-51.758,20.508,0.000,0
182240.634,11.230,13.184,-41.992,21.484,0.000,0
182240.638,-13.184,26.855,-22.949,0.488,0.000,0
182240.642,-4.883,61.035,-26.367,0.000,0.000,0
182240.645,8.301,117.188,-32.227,10.254,0.000,0
182240.649,-10.742,145.508,-21.484,-12.695,0.000,0
182240.653,-31.250,175.781,-16.602,-36.621,0.000,0
182240.657,-2.441,252.930,-5.859,-6.836,0.000,0
182240.661,8.301,276.367,-0.977,-12.207,0.000,0
182240.665,-14.648,271.484,-14.160,-34.180,0.000,0
182240.669,-18.555,292.480,-23.926,-23.926,0.000,0
182240.673,-10.742,312.012,-8.789,-27.832,0.000,0
182240.677,36.621,337.402,20.020,0.977,0.000,0
182240.681,64.453,333.008,22.949,27.344,0.000,0
182240.685,26.855,306.152,-3.418,11.719,0.000,0
182240.688,-3.418,284.180,-25.879,-7.812,0.000,0
182240.692,8.789,268.555,-24.902,0.488,0.000,0
182240.696,30.273,252.441,-22.461,19.043,0.000,0
182240.700,17.578,224.609,-15.625,15.137,0.000,0
182240.704,14.160,193.848,-12.695,16.602,0.000,0
182240.708,30.762,172.852,-16.602,27.344,0.000,0
182240.712,43.945,160.645,-10.742,39.551,0.000,0
182240.716,38.574,131.836,-21.973,28.809,0.000,0
182240.720,0.488,86.914,-46.875,-26.855,0.000,0
182240.724,-4.395,64.941,-46.387,-32.227,0.000,0
182240.728,8.789,54.688,-31.250,-6.348,0.000,0
182240.731,-11.230,28.809,-32.715,-2.930,0.000,0
182240.735,-7.812,17.090,-26.367,6.836,0.000,0
182240.739,2.930,9.766,-21.484,-4.883,0.000,0
182240.743,-0.488,-10.254,-29.297,-18.555,0.000,0
182240.747,-0.977,-21.973,-35.645,-13.184,0.000,0
182240.751,2.441,-30.273,-37.598,-17.090,0.000,0
182240.755,-16.113,-53.711,-42.969,-49.805,0.000,0
182240.759,-18.066,-67.871,-35.156,-57.129,0.000,0
182240.763,0.000,-71.777,-34.668,-30.273,0.000,0
182240.767,5.859,-78.613,-36.133,-16.602,0.000,0
182240.770,-1.953,-85.449,-34.668,-31.250,0.000,0
182240.774,-23.438,-94.238,-38.574,-45.410,0.000,0
182240.778,-21.484,-97.656,-27.832,-30.273,0.000,0
182240.782,1.953,-98.633,-27.832,7.324,0.000,0
182240.786,-15.137,-119.629,-60.547,-12.207,0.000,0
182240.790,-49.805,-138.184,-62.988,-50.781,0.000,0
182240.794,-50.293,-136.230,-42.480,-39.551,0.000,0
182240.798,-27.344,-129.395,-31.738,-18.555,0.000,0
182240.802,-18.555,-115.723,-20.508,-15.137,0.000,0
182240.806,-35.645,-125.000,-28.320,-36.133,0.000,0
182240.810,-46.875,-143.555,-50.293,-46.875,0.000,0
182240.813,-42.969,-136.719,-54.688,-39.551,0.000,0
182240.817,-29.297,-126.953,-38.086,-41.016,0.000,0
182240.821,-37.109,-131.836,-40.527,-56.641,0.000,0
182240.825,-34.180,-137.207,-58.105,-55.664,0.000,0
182240.829,-11.719,-133.789,-58.105,-39.551,0.000,0
182240.833,-17.090,-136.230,-57.617,-32.715,0.000,0
182240.837,-16.113,-122.559,-45.898,-42.969,0.000,0
182240.841,-8.789,-120.117,-40.039,-56.641,0.000,0
182240.845,-9.277,-135.742,-49.316,-54.688,0.000,0
182240.849,-6.836,-127.930,-44.434,-21.973,0.000,0
182240.853,-19.043,-120.117,-41.504,-18.555,0.000,0
182240.856,-22.461,-109.375,-31.250,-48.340,0.000,0
182240.860,11.719,-84.961,-5.859,-20.996,0.000,0
182240.864,6.836,-109.375,-30.273,-15.137,0.000,0
182240.868,-34.180,-135.742,-62.988,-42.480,0.000,0
182240.872,-60.059,-137.207,-74.707,-57.129,0.000,0
182240.876,-44.922,-130.859,-71.289,-45.898,0.000,0
182240.880,-21.973,-125.488,-61.035,-35.645,0.000,0
182240.884,-17.578,-108.887,-45.410,-16.602,0.000,0
182240.888,-29.785,-98.633,-44.434,-21.973,0.000,0
182240.892,-36.133,-96.191,-50.293,-42.969,0.000,0
182240.895,-18.555,-92.285,-39.062,-31.738,0.000,0
182240.899,-19.043,-96.191,-41.504,-35.156,0.000,0
182240.903,-34.668,-96.191,-50.781,-49.316,0.000,0
182240.907,-42.480,-94.727,-50.781,-60.547,0.000,0
182240.911,-19.531,-83.496,-40.527,-33.691,0.000,0
182240.915,0.977,-73.242,-40.039,-17.090,0.000,0
182240.919,-6.836,-72.266,-48.828,-30.762,0.000,0
182240.923,-23.438,-73.730,-59.082,-47.363,0.000,0
182240.927,-28.809,-72.266,-56.152,-54.688,0.000,0
182240.931,0.000,-62.012,-34.180,-24.902,0.000,0
182240.935,-0.488,-61.523,-36.133,-31.250,0.000,0
182240.938,-24.414,-58.594,-37.109,-58.105,0.000,0
182240.942,-31.738,-55.176,-37.109,-43.457,0.000,0
182240.946,-17.090,-51.758,-33.691,-20.020,0.000,0
182240.950,-16.602,-47.852,-36.133,-24.902,0.000,0
182240.954,-46.875,-61.523,-48.340,-59.082,0.000,0
182240.958,-44.434,-60.059,-43.945,-73.242,0.000,0
182240.962,-16.113,-43.457,-38.574,-40.527,0.000,0
182240.966,-3.906,-33.203,-31.250,-32.715,0.000,0
182240.970,8.789,-25.879,-29.297,-25.879,0.000,0
182240.974,-15.137,-44.922,-59.082,-38.086,0.000,0
182240.978,-37.109,-54.688,-52.734,-75.195,0.000,0
182240.981,-20.996,-43.457,-34.180,-62.500,0.000,0
182240.985,-20.020,-27.832,-34.668,-46.387,0.000,0
182240.989,-34.668,-19.531,-35.645,-56.152,0.000,0
182240.993,-31.250,-31.738,-37.109,-55.176,0.000,0
182240.997,-31.250,-37.109,-36.133,-63.965,0.000,0
182241.001,-35.156,-37.109,-55.664,-60.059,0.000,0
182241.005,-33.691,-36.133,-60.547,-65.430,0.000,0
182241.009,-40.527,-27.344,-45.410,-93.750,0.000,0
182241.013,-29.785,-23.438,-37.109,-76.172,0.000,0
182241.017,-21.973,-25.391,-53.223,-54.199,0.000,0
182241.020,-46.387,-41.016,-84.961,-68.848,0.000,0
182241.024,-48.340,-42.969,-56.152,-68.848,0.000,0
182241.028,-17.578,-25.391,-21.973,-27.832,0.000,0
182241.032,-12.207,-28.320,-26.855,-21.484,0.000,0
182241.036,-25.391,-22.949,-25.391,-34.668,0.000,0
182241.040,-28.809,-14.648,-24.902,-30.762,0.000,0
182241.044,-32.227,-25.391,-44.434,-22.461,0.000,0
182241.048,-22.949,-21.484,-36.133,-17.090,0.000,0
182241.052,-23.438,-26.367,-31.738,-37.109,0.000,0
182241.056,-45.410,-40.527,-50.781,-62.988,0.000,0
182241.060,-59.570,-38.574,-52.734,-58.594,0.000,0
182241.063,-37.598,-27.832,-46.387,-16.602,0.000,0
182241.067,-27.344,-23.926,-36.133,-7.324,0.000,0
182241.071,-44.434,-26.855,-38.086,-45.898,0.000,0
182241.075,-30.273,-18.066,-28.809,-38.574,0.000,0
182241.079,-13.672,-16.602,-17.090,-10.254,0.000,0
182241.083,-19.531,-20.508,-23.926,-13.184,0.000,0
182241.087,-39.551,-22.461,-34.180,-31.250,0.000,0
182241.091,-47.363,-32.227,-44.922,-41.504,0.000,0
182241.095,-37.109,-30.273,-49.316,-36.133,0.000,0
182241.099,-35.645,-28.809,-53.223,-22.949,0.000,0
182241.103,-35.645,-27.344,-40.527,-22.949,0.000,0
182241.106,-41.992,-20.020,-37.109,-35.156,0.000,0
182241.110,-42.969,-25.879,-53.223,-26.855,0.000,0
182241.114,-33.691,-23.926,-44.922,-18.066,0.000,0
182241.118,-47.852,-22.949,-32.227,-40.527,0.000,0
182241.122,-70.801,-30.273,-33.691,-64.453,0.000,0
182241.126,-59.570,-28.320,-40.039,-51.758,0.000,0
182241.130,-26.367,-19.531,-31.738,-20.996,0.000,0
182241.134,-31.250,-22.461,-29.297,-29.297,0.000,0
182241.138,-59.082,-32.715,-50.781,-57.129,0.000,0
182241.142,-49.805,-23.926,-54.688,-52.734,0.000,0
182241.145,-34.180,-16.602,-41.992,-35.645,0.000,0
182241.149,-33.203,-13.184,-32.715,-26.367,0.000,0
182241.153,-35.156,-8.789,-23.438,-32.715,0.000,0
182241.157,-42.480,-14.648,-26.855,-46.875,0.000,0
182241.161,-49.805,-26.367,-47.852,-44.434,0.000,0
182241.165,-38.574,-29.297,-58.594,-34.180,0.000,0
182241.169,-41.504,-26.367,-43.945,-32.715,0.000,0
182241.173,-62.988,-21.973,-31.250,-41.016,0.000,0
182241.177,-61.523,-20.020,-33.691,-43.457,0.000,0
182241.181,-31.738,-18.066,-29.785,-21.484,0.000,0
182241.185,-32.715,-21.484,-27.832,-24.414,0.000,0
182241.188,-44.922,-24.902,-33.691,-39.551,0.000,0
182241.192,-40.039,-23.438,-36.621,-35.156,0.000,0
182241.196,-39.062,-26.367,-42.480,-36.621,0.000,0
182241.200,-41.016,-26.367,-49.805,-32.715,0.000,0
182241.204,-46.387,-25.879,-48.340,-34.668,0.000,0
182241.208,-54.199,-26.367,-44.434,-41.992,0.000,0
182241.212,-40.039,-19.043,-40.039,-31.738,0.000,0
182241.216,-30.762,-18.555,-45.410,-23.438,0.000,0
182241.220,-41.504,-22.461,-35.645,-28.809,0.000,0
182241.224,-56.641,-29.785,-33.691,-36.133,0.000,0
182241.228,-59.082,-29.297,-36.133,-18.066,0.000,0
182241.231,-42.480,-24.414,-30.762,-4.395,0.000,0
182241.235,-61.035,-32.227,-51.270,-33.691,0.000,0
182241.239,-83.496,-34.668,-62.012,-44.922,0.000,0
182241.243,-68.848,-30.762,-51.758,-30.273,0.000,0
182241.247,-59.082,-32.227,-45.898,-18.066,0.000,0
182241.251,-62.500,-31.250,-41.992,-20.020,0.000,0
182241.255,-64.453,-29.785,-37.598,-46.387,0.000,0
182241.259,-63.965,-35.645,-44.434,-57.129,0.000,0
182241.263,-54.688,-37.598,-49.805,-41.992,0.000,0
182241.267,-47.852,-30.273,-44.434,-39.062,0.000,0
182241.270,-50.293,-17.578,-36.133,-53.223,0.000,0
182241.274,-59.570,-15.137,-37.598,-59.082,0.000,0
182241.278,-53.223,-13.672,-34.668,-31.738,0.000,0
182241.282,-58.105,-20.508,-40.039,-27.344,0.000,0
182241.286,-83.008,-23.438,-47.363,-37.109,0.000,0
182241.290,-87.891,-16.602,-39.062,-44.922,0.000,0
182241.294,-78.125,-15.625,-34.668,-47.852,0.000,0
182241.298,-79.590,-17.578,-31.250,-23.438,0.000,0
182241.302,-89.844,-19.043,-34.180,-17.090,0.000,0
182241.306,-105.469,-24.414,-47.363,-41.504,0.000,0
182241.310,-109.375,-32.715,-53.223,-51.758,0.000,0
182241.313,-104.004,-29.297,-44.922,-43.457,0.000,0
182241.317,-104.492,-20.020,-41.016,-37.598,0.000,0
182241.321,-112.305,-18.555,-45.410,-58.594,0.000,0
182241.325,-106.934,-8.789,-29.297,-60.547,0.000,0
182241.329,-86.914,-7.812,-23.438,-26.367,0.000,0
182241.333,-88.867,-20.508,-42.969,-29.785,0.000,0
182241.337,-109.375,-27.344,-50.781,-59.570,0.000,0
182241.341,-113.770,-23.438,-44.434,-54.199,0.000,0
182241.345,-97.656,-15.137,-31.250,-30.762,0.000,0
182241.349,-98.145,-9.766,-34.180,-24.902,0.000,0
182241.353,-103.516,-8.301,-33.203,-35.156,0.000,0
182241.356,-102.539,-4.395,-34.668,-35.645,0.000,0
182241.360,-104.980,-18.066,-56.152,-42.969,0.000,0
182241.364,-112.793,-36.621,-52.246,-24.902,0.000,0
182241.368,-119.141,-33.691,-46.387,-27.344,0.000,0
182241.372,-119.141,-22.461,-40.039,-68.848,0.000,0
182241.376,-111.328,-19.531,-35.156,-54.688,0.000,0
182241.380,-101.074,-20.508,-39.062,-33.203,0.000,0
182241.384,-93.262,-17.090,-34.180,-33.203,0.000,0
182241.388,-98.633,-11.719,-30.273,-36.621,0.000,0
182241.392,-87.402,7.324,-8.301,-36.133,0.000,0
182241.395,-69.336,15.137,-1.465,-13.672,0.000,0
182241.399,-73.730,5.371,-16.602,-4.883,0.000,0
182241.403,-83.984,0.977,-19.043,-23.926,0.000,0
182241.407,-75.684,8.789,-10.742,-33.691,0.000,0
182241.411,-43.945,19.043,0.000,-18.066,0.000,0
182241.415,-38.086,13.184,1.953,3.418,0.000,0
182241.419,-58.105,0.000,-11.719,-11.230,0.000,0
182241.423,-65.430,0.977,-16.113,-33.691,0.000,0
182241.427,-54.688,4.883,-15.625,-35.645,0.000,0
182241.431,-46.875,5.371,-11.719,-26.855,0.000,0
182241.435,-46.387,12.207,-8.789,-26.855,0.000,0
182241.438,-69.336,-2.441,-20.996,-57.129,0.000,0
182241.442,-76.660,-6.348,-25.879,-52.734,0.000,0
182241.446,-48.828,0.977,-18.066,-22.949,0.000,0
182241.450,-50.781,-5.859,-18.555,-40.039,0.000,0
182241.454,-84.961,-8.789,-23.926,-69.824,0.000,0
182241.458,-84.473,-2.930,-18.555,-75.684,0.000,0
182241.462,-63.965,-1.953,-20.508,-63.477,0.000,0
182241.466,-56.641,2.441,-18.555,-46.875,0.000,0
182241.470,-59.570,0.000,-15.137,-52.246,0.000,0
182241.474,-55.176,1.953,-20.508,-57.617,0.000,0
182241.478,-45.898,3.418,-19.043,-39.062,0.000,0
182241.481,-43.945,-3.418,-17.090,-26.855,0.000,0
182241.485,-56.641,-10.254,-26.855,-48.828,0.000,0
182241.489,-74.219,-13.184,-31.738,-67.871,0.000,0
182241.493,-62.988,-7.324,-34.180,-61.523,0.000,0
182241.497,-51.270,-7.324,-35.645,-51.758,0.000,0
182241.501,-60.059,-10.254,-36.621,-49.805,0.000,0
182241.505,-56.152,-1.953,-19.531,-41.992,0.000,0
182241.509,-43.457,3.418,1.465,-40.039,0.000,0
182241.513,-44.434,-3.418,-9.277,-44.434,0.000,0
182241.517,-51.270,-16.602,-24.902,-43.945,0.000,0
182241.520,-66.895,-20.996,-32.715,-59.082,0.000,0
182241.524,-72.754,-20.020,-38.574,-69.824,0.000,0
182241.528,-49.316,-14.648,-32.715,-52.734,0.000,0
182241.532,-37.109,-13.672,-30.762,-36.133,0.000,0
182241.536,-60.059,-23.438,-38.574,-41.016,0.000,0
182241.540,-86.914,-31.250,-37.109,-61.035,0.000,0
182241.544,-75.195,-25.879,-38.086,-35.645,0.000,0
182241.548,-49.805,-22.949,-23.438,-9.766,0.000,0
182241.552,-55.664,-22.949,-13.672,-29.297,0.000,0
182241.556,-57.129,-20.508,-22.949,-31.738,0.000,0
182241.560,-56.641,-29.297,-38.086,-41.016,0.000,0
182241.563,-61.035,-40.527,-45.410,-41.016,0.000,0
182241.567,-61.523,-45.898,-54.688,-36.621,0.000,0
182241.571,-63.965,-33.203,-41.992,-44.922,0.000,0
182241.575,-44.922,-16.602,-9.277,-25.879,0.000,0
182241.579,-42.969,-36.621,-22.461,-22.461,0.000,0
182241.583,-52.246,-41.504,-41.504,-22.461,0.000,0
182241.587,-67.871,-43.457,-42.969,-30.273,0.000,0
182241.591,-71.289,-41.016,-36.621,-50.293,0.000,0
182241.595,-49.316,-31.738,-36.621,-32.227,0.000,0
182241.599,-42.480,-36.621,-42.480,-17.578,0.000,0
182241.603,-49.805,-33.691,-41.992,-23.926,0.000,0
182241.606,-58.105,-31.250,-27.344,-36.621,0.000,0
182241.610,-50.781,-35.645,-23.926,-41.016,0.000,0
182241.614,-32.227,-30.762,-25.879,-19.531,0.000,0
182241.618,-43.457,-32.227,-29.297,-20.996,0.000,0
182241.622,-57.129,-34.180,-38.574,-33.691,0.000,0
182241.626,-54.688,-35.156,-38.086,-15.625,0.000,0
182241.630,-43.457,-33.203,-37.598,-4.395,0.000,0
182241.634,-46.875,-30.762,-41.504,-7.324,0.000,0
182241.638,-64.453,-32.227,-44.922,-20.996,0.000,0
182241.642,-60.547,-26.855,-41.992,-25.391,0.000,0
182241.645,-30.273,-17.578,-27.344,-1.953,0.000,0
182241.649,-14.160,-11.230,-12.207,1.953,0.000,0
182241.653,-33.203,-14.160,-22.461,-7.324,0.000,0
182241.657,-47.852,-19.531,-30.762,-14.160,0.000,0
182241.661,-53.223,-29.297,-39.062,-16.602,0.000,0
182241.665,-48.340,-32.227,-55.664,-2.441,0.000,0
182241.669,-58.594,-34.180,-54.199,-23.926,0.000,0
182241.673,-60.547,-23.926,-32.715,-33.203,0.000,0
182241.677,-43.457,-11.719,-23.926,-10.742,0.000,0
182241.681,-15.625,-5.371,-18.555,19.531,0.000,0
182241.685,-26.855,-17.090,-26.855,6.836,0.000,0
182241.688,-64.453,-35.156,-37.109,-36.621,0.000,0
182241.692,-66.406,-30.762,-37.109,-24.414,0.000,0
182241.696,-37.598,-19.043,-31.738,1.465,0.000,0
182241.700,-27.344,-16.602,-34.180,5.859,0.000,0
182241.704,-35.645,-13.672,-36.133,-4.395,0.000,0
182241.708,-33.203,-1.465,-22.461,-9.277,0.000,0
182241.712,-26.367,3.418,-28.320,22.461,0.000,0
182241.716,-31.738,-10.742,-51.758,24.902,0.000,0
182241.720,-63.477,-34.180,-60.059,-17.090,0.000,0
182241.724,-80.566,-39.062,-55.664,-29.297,0.000,0
182241.728,-73.242,-31.738,-39.062,-17.578,0.000,0
182241.731,-60.059,-32.227,-30.273,-8.301,0.000,0
182241.735,-72.266,-31.250,-31.738,-12.207,0.000,0
182241.739,-83.984,-28.809,-37.598,-20.508,0.000,0
182241.743,-63.965,-29.297,-36.133,-16.602,0.000,0
182241.747,-36.133,-21.973,-27.832,-5.371,0.000,0
182241.751,-46.875,-22.949,-31.738,-14.648,0.000,0
182241.755,-61.035,-20.020,-23.438,-20.996,0.000,0
182241.759,-53.711,-14.648,-18.066,-10.254,0.000,0
182241.763,-47.852,-24.414,-24.414,-7.324,0.000,0
182241.767,-62.012,-37.598,-40.039,-28.320,0.000,0
182241.770,-77.148,-40.039,-48.828,-41.504,0.000,0
182241.774,-69.824,-31.738,-38.086,-38.086,0.000,0
182241.778,-54.688,-25.879,-44.922,-27.832,0.000,0
182241.782,-47.852,-25.879,-39.551,-7.812,0.000,0
182241.786,-39.062,-15.137,-9.277,-9.277,0.000,0
182241.790,-44.922,-11.719,-10.254,-31.738,0.000,0
182241.794,-66.406,-28.320,-24.902,-39.062,0.000,0
182241.798,-57.617,-21.973,-20.508,-7.812,0.000,0
182241.802,-56.641,-22.949,-28.320,-12.695,0.000,0
182241.806,-64.941,-27.832,-35.156,-36.133,0.000,0
182241.810,-58.594,-17.090,-26.855,-14.648,0.000,0
182241.813,-45.898,-18.066,-21.973,1.953,0.000,0
182241.817,-42.969,-22.461,-38.574,-4.395,0.000,0
182241.821,-47.363,-23.926,-57.617,-14.160,0.000,0
182241.825,-60.059,-27.832,-44.922,-33.203,0.000,0
182241.829,-69.336,-24.414,-26.367,-45.410,0.000,0
182241.833,-56.641,-20.508,-23.438,-34.180,0.000,0
182241.837,-54.688,-18.066,-19.531,-24.902,0.000,0
182241.841,-50.781,-13.672,-18.555,-17.090,0.000,0
182241.845,-42.969,-27.832,-34.668,-16.113,0.000,0
182241.849,-46.875,-34.180,-42.969,-28.809,0.000,0
182241.853,-56.152,-40.039,-49.805,-32.715,0.000,0
182241.856,-58.594,-41.992,-46.387,-27.344,0.000,0
182241.860,-44.434,-21.484,-32.715,5.859,0.000,0
182241.864,-40.039,-17.578,-32.715,3.418,0.000,0
182241.868,-46.387,-17.578,-27.832,-20.996,0.000,0
182241.872,-60.547,-16.602,-18.066,-9.277,0.000,0
182241.876,-68.359,-30.273,-27.344,-21.973,0.000,0
182241.880,-49.805,-29.297,-28.809,-20.508,0.000,0
182241.884,-50.781,-35.156,-38.574,-13.672,0.000,0
182241.888,-65.430,-40.527,-49.805,-37.109,0.000,0
182241.892,-47.852,-28.809,-35.645,-28.809,0.000,0
182241.895,-33.691,-33.203,-42.969,-14.160,0.000,0
182241.899,-44.434,-37.109,-47.852,-9.277,0.000,0
182241.903,-63.477,-39.062,-48.828,-33.691,0.000,0
182241.907,-72.266,-33.691,-43.945,-48.340,0.000,0
182241.911,-45.898,-19.531,-18.066,-9.766,0.000,0
182241.915,-34.180,-18.555,-13.672,3.906,0.000,0
182241.919,-50.781,-21.973,-22.461,-8.789,0.000,0
182241.923,-62.012,-24.902,-29.297,-26.367,0.000,0
182241.927,-59.082,-25.391,-25.879,-33.691,0.000,0
182241.931,-42.480,-21.973,-22.461,-8.789,0.000,0
182241.935,-49.316,-25.391,-39.062,-3.418,0.000,0
182241.938,-62.500,-30.762,-37.109,-23.926,0.000,0
182241.942,-54.688,-30.762,-35.645,-25.391,0.000,0
182241.946,-37.109,-22.949,-39.062,-1.953,0.000,0
182241.950,-28.320,-15.625,-37.109,10.742,0.000,0
182241.954,-39.551,-20.996,-25.391,-12.695,0.000,0
182241.958,-41.016,-23.438,-24.902,-9.766,0.000,0
182241.962,-54.199,-24.414,-33.691,-9.766,0.000,0
182241.966,-63.965,-23.926,-29.297,-19.043,0.000,0
182241.970,-64.941,-21.973,-35.156,-27.832,0.000,0
182241.974,-71.289,-28.809,-51.758,-25.879,0.000,0
182241.978,-66.406,-25.391,-42.969,-13.672,0.000,0
182241.981,-54.199,-20.996,-34.180,-8.301,0.000,0
182241.985,-54.199,-21.484,-33.691,-10.254,0.000,0
182241.989,-61.523,-11.719,-17.090,-9.277,0.000,0
182241.993,-51.758,-3.418,-2.441,-6.348,0.000,0
182241.997,-35.156,-10.254,-3.418,7.324,0.000,0
182242.001,-52.246,-23.926,-30.273,1.465,0.000,0
182242.005,-82.031,-27.344,-41.016,-21.973,0.000,0
182242.009,-69.336,-20.508,-23.438,-5.371,0.000,0
182242.013,-51.758,-20.996,-23.926,0.977,0.000,0
182242.017,-54.199,-30.273,-50.293,-19.531,0.000,0
182242.020,-69.824,-34.180,-62.012,-37.598,0.000,0
182242.024,-70.312,-32.227,-52.734,-35.645,0.000,0
182242.028,-50.781,-24.902,-38.086,-9.277,0.000,0
182242.032,-54.688,-26.855,-29.785,-1.465,0.000,0
182242.036,-66.406,-25.391,-21.973,-6.348,0.000,0
182242.040,-51.758,-11.230,-10.742,-3.418,0.000,0
182242.044,-38.086,-13.184,-17.090,6.836,0.000,0
182242.048,-58.594,-35.156,-36.133,-9.277,0.000,0
182242.052,-86.426,-41.992,-43.945,-36.621,0.000,0
182242.056,-83.496,-36.621,-54.199,-35.645,0.000,0
182242.060,-63.477,-33.203,-51.758,-11.719,0.000,0
182242.063,-56.641,-34.180,-40.039,-1.953,0.000,0
182242.067,-65.918,-32.227,-37.109,-11.230,0.000,0
182242.071,-60.547,-19.531,-29.785,-13.672,0.000,0
182242.075,-44.922,-12.207,-15.137,7.324,0.000,0
182242.079,-45.410,-22.949,-19.531,10.742,0.000,0
182242.083,-56.641,-32.715,-38.574,-3.418,0.000,0
182242.087,-75.684,-38.086,-48.340,-15.625,0.000,0
182242.091,-69.824,-36.621,-52.734,-11.719,0.000,0
182242.095,-51.270,-35.156,-52.246,0.000,0.000,0
182242.099,-54.199,-34.180,-41.016,-3.418,0.000,0
182242.103,-62.500,-24.414,-38.574,-20.996,0.000,0
182242.106,-61.035,-21.973,-41.992,-29.785,0.000,0
182242.110,-46.875,-24.902,-37.598,-7.812,0.000,0
182242.114,-41.992,-26.367,-28.809,-0.977,0.000,0
182242.118,-45.898,-22.949,-33.691,-17.578,0.000,0
182242.122,-65.430,-25.391,-52.734,-20.996,0.000,0
182242.126,-75.684,-38.086,-51.758,-21.973,0.000,0
182242.130,-61.523,-31.250,-41.504,-9.277,0.000,0
182242.134,-62.500,-22.949,-51.758,-8.301,0.000,0
182242.138,-79.102,-29.785,-50.293,-33.691,0.000,0
182242.142,-70.801,-28.320,-36.621,-29.297,0.000,0
182242.145,-60.547,-26.855,-41.504,-6.348,0.000,0
182242.149,-55.176,-20.996,-40.039,-7.324,0.000,0
182242.153,-63.965,-15.625,-36.621,-32.715,0.000,0
182242.157,-58.105,-13.184,-34.668,-29.297,0.000,0
182242.161,-37.598,-14.648,-39.551,-20.020,0.000,0
182242.165,-48.828,-24.902,-39.062,-36.621,0.000,0
182242.169,-72.754,-27.832,-40.039,-50.293,0.000,0
182242.173,-77.637,-32.715,-60.059,-42.480,0.000,0
182242.177,-58.105,-35.645,-55.664,-26.855,0.000,0
182242.181,-47.852,-29.785,-37.598,-26.367,0.000,0
182242.185,-48.828,-30.273,-36.133,-26.855,0.000,0
182242.188,-55.664,-31.738,-41.504,-34.668,0.000,0
182242.192,-48.828,-21.973,-45.410,-18.555,0.000,0
182242.196,-31.738,-20.020,-40.527,-3.418,0.000,0
182242.200,-39.062,-22.461,-29.297,-23.926,0.000,0
182242.204,-56.641,-31.738,-37.109,-43.457,0.000,0
182242.208,-55.176,-40.527,-46.387,-40.527,0.000,0
182242.212,-49.316,-35.156,-41.992,-21.484,0.000,0
182242.216,-55.176,-30.273,-44.434,-10.254,0.000,0
182242.220,-44.434,-22.949,-34.180,-14.648,0.000,0
182242.224,-28.320,-10.742,-24.414,-9.766,0.000,0
182242.228,-58.105,-27.344,-40.527,-25.879,0.000,0
182242.231,-66.895,-39.551,-45.410,-25.391,0.000,0
182242.235,-56.641,-30.762,-35.645,-17.090,0.000,0
182242.239,-62.012,-18.555,-27.344,-35.156,0.000,0
182242.243,-61.035,-10.742,-40.039,-8.301,0.000,0
182242.247,-57.617,-7.812,-31.250,14.160,0.000,0
182242.251,-69.824,-19.043,-30.273,-19.531,0.000,0
182242.255,-76.172,-28.320,-35.645,-38.574,0.000,0
182242.259,-57.617,-24.902,-32.715,-20.020,0.000,0
182242.263,-43.945,-22.949,-37.109,-1.465,0.000,0
182242.267,-54.199,-26.367,-41.016,-17.578,0.000,0
182242.270,-53.223,-26.855,-36.133,-20.508,0.000,0
182242.274,-36.133,-19.531,-25.879,-19.043,0.000,0
182242.278,-35.156,-12.207,-16.602,-21.973,0.000,0
182242.282,-51.758,-12.207,-23.926,-21.484,0.000,0
182242.286,-61.523,-16.113,-33.691,-26.367,0.000,0
182242.290,-42.480,-16.113,-28.320,-10.742,0.000,0
182242.294,-29.297,-20.996,-23.438,-3.418,0.000,0
182242.298,-46.387,-20.996,-25.391,-23.926,0.000,0
182242.302,-59.082,-11.719,-37.598,-26.367,0.000,0
182242.306,-52.246,-21.973,-42.480,-24.902,0.000,0
182242.310,-46.875,-33.203,-38.086,-23.438,0.000,0
182242.313,-47.363,-34.180,-41.016,-25.879,0.000,0
182242.317,-60.547,-35.156,-39.062,-48.828,0.000,0
182242.321,-66.895,-30.273,-41.504,-39.551,0.000,0
182242.325,-49.316,-23.926,-43.457,-10.254,0.000,0
182242.329,-41.992,-18.066,-38.574,-3.418,0.000,0
182242.333,-54.199,-15.137,-30.273,-23.926,0.000,0
182242.337,-48.340,-10.742,-20.508,-40.039,0.000,0
182242.341,-36.133,-11.719,-17.090,-20.996,0.000,0
182242.345,-36.621,-16.602,-18.066,-12.207,0.000,0
182242.349,-46.387,-14.160,-30.762,-11.230,0.000,0
182242.353,-60.547,-19.043,-37.598,-25.879,0.000,0
182242.356,-51.758,-20.020,-30.273,-28.809,0.000,0
182242.360,-30.762,-6.836,-16.602,11.719,0.000,0
182242.364,-37.598,-17.578,-20.996,17.090,0.000,0
182242.368,-55.664,-37.109,-40.527,-15.137,0.000,0
182242.372,-57.129,-31.738,-42.969,-37.598,0.000,0
182242.376,-44.922,-24.902,-30.762,-34.668,0.000,0
182242.380,-45.898,-22.949,-27.832,-6.836,0.000,0
182242.384,-57.617,-13.672,-34.668,-13.184,0.000,0
182242.388,-56.641,-12.207,-39.062,-28.809,0.000,0
182242.392,-44.434,-14.160,-32.715,-14.160,0.000,0
182242.395,-43.945,-19.043,-28.809,-11.230,0.000,0
182242.399,-49.316,-7.324,-20.020,-11.719,0.000,0
182242.403,-33.203,4.395,-2.441,-1.953,0.000,0
182242.407,-27.344,-8.301,-11.719,2.441,0.000,0
182242.411,-25.879,-12.695,-21.973,0.977,0.000,0
182242.415,-31.738,-16.602,-26.855,-21.973,0.000,0
182242.419,-49.316,-18.066,-38.574,-38.086,0.000,0
182242.423,-44.434,-5.859,-37.598,-17.578,0.000,0
182242.427,-25.879,-2.441,-27.344,1.953,0.000,0
182242.431,-27.344,-8.301,-29.297,-5.371,0.000,0
182242.435,-37.598,-9.766,-28.320,-24.414,0.000,0
182242.438,-40.527,-7.812,-23.926,-12.695,0.000,0
182242.442,-30.273,-6.836,-30.762,13.184,0.000,0
182242.446,-39.062,-15.625,-42.480,-13.184,0.000,0
182242.450,-58.105,-11.719,-30.273,-28.809,0.000,0
182242.454,-50.781,-10.742,-20.020,-21.484,0.000,0
182242.458,-34.668,-22.461,-28.320,-27.344,0.000,0
182242.462,-32.715,-23.926,-37.109,-17.578,0.000,0
182242.466,-46.387,-22.949,-55.664,-20.020,0.000,0
182242.470,-47.852,-21.973,-39.551,-25.879,0.000,0
182242.474,-43.457,-17.578,-10.742,-28.809,0.000,0
182242.478,-31.738,-8.301,-3.418,-24.902,0.000,0
182242.481,-38.086,-8.301,-10.254,-23.438,0.000,0
182242.485,-56.641,-16.113,-25.391,-33.691,0.000,0
182242.489,-44.922,-18.555,-28.320,-28.320,0.000,0
182242.493,-31.250,-18.066,-30.762,-18.555,0.000,0
182242.497,-51.270,-18.066,-39.551,-25.879,0.000,0
182242.501,-71.777,-13.184,-35.645,-30.762,0.000,0
182242.505,-53.223,-8.789,-36.133,-26.367,0.000,0
182242.509,-40.527,-16.602,-41.992,-26.855,0.000,0
182242.513,-42.480,-17.090,-34.668,-29.297,0.000,0
182242.517,-38.574,-6.348,-19.043,-29.785,0.000,0
182242.520,-37.598,-7.812,-17.578,-27.344,0.000,0
182242.524,-35.156,-11.719,-22.949,-22.461,0.000,0
182242.528,-39.551,-17.578,-31.738,-5.371,0.000,0
182242.532,-38.574,-24.414,-50.293,-10.742,0.000,0
182242.536,-44.922,-28.320,-61.035,-32.227,0.000,0
182242.540,-35.156,-25.391,-38.574,-11.230,0.000,0
182242.544,-15.137,-20.996,-19.043,6.836,0.000,0
182242.548,-23.438,-24.902,-26.367,-10.742,0.000,0
182242.552,-38.574,-26.367,-27.832,-21.484,0.000,0
182242.556,-41.504,-30.762,-26.367,-20.508,0.000,0
182242.560,-27.832,-26.855,-33.691,-6.836,0.000,0
182242.563,-30.762,-20.508,-29.297,-1.465,0.000,0
182242.567,-35.156,-26.855,-34.180,-23.438,0.000,0
182242.571,-41.992,-35.156,-47.852,-45.898,0.000,0
182242.575,-41.016,-28.809,-32.715,-41.992,0.000,0
182242.579,-20.020,-18.555,-12.695,-15.137,0.000,0
182242.583,-33.203,-22.461,-14.160,-22.461,0.000,0
182242.587,-42.480,-22.461,-13.184,-25.391,0.000,0
182242.591,-28.809,-26.367,-20.020,-23.926,0.000,0
182242.595,-34.668,-28.809,-26.855,-29.785,0.000,0
182242.599,-41.016,-25.391,-22.949,-23.926,0.000,0
182242.603,-31.250,-13.672,-12.207,-13.672,0.000,0
182242.606,-23.926,-16.602,-14.648,2.441,0.000,0
182242.610,-24.902,-28.809,-28.809,8.301,0.000,0
182242.614,-42.480,-29.785,-43.945,-17.578,0.000,0
182242.618,-65.918,-32.227,-50.781,-32.715,0.000,0
182242.622,-60.547,-32.227,-37.109,-27.344,0.000,0
182242.626,-36.621,-22.949,-24.414,-10.254,0.000,0
182242.630,-40.039,-19.531,-20.996,-15.137,0.000,0
182242.634,-46.387,-14.648,-10.254,-29.297,0.000,0
182242.638,-38.086,-10.742,-7.324,-17.578,0.000,0
182242.642,-27.832,-16.602,-15.137,-4.395,0.000,0
182242.645,-24.414,-17.578,-18.555,-3.906,0.000,0
182242.649,-37.109,-18.066,-24.414,-21.973,0.000,0
182242.653,-42.480,-23.438,-24.414,-25.879,0.000,0
182242.657,-30.273,-28.320,-20.508,-17.578,0.000,0
182242.661,-24.414,-24.902,-17.578,-18.066,0.000,0
182242.665,-20.996,-17.090,-12.695,-10.742,0.000,0
182242.669,-20.996,-16.602,-17.578,-21.973,0.000,0
182242.673,-18.555,-21.973,-24.414,-24.414,0.000,0
182242.677,-8.789,-12.695,-26.855,-15.137,0.000,0
182242.681,-11.230,-4.395,-15.137,-30.762,0.000,0
182242.685,-28.809,-16.113,-18.066,-43.945,0.000,0
182242.688,-43.945,-29.785,-39.551,-42.969,0.000,0
182242.692,-40.039,-30.762,-33.203,-20.508,0.000,0
182242.696,-40.527,-31.738,-35.156,-20.020,0.000,0
182242.700,-52.734,-27.344,-28.809,-35.156,0.000,0
182242.704,-41.504,-20.508,-16.602,-9.277,0.000,0
182242.708,-23.926,-14.648,-14.648,1.465,0.000,0
182242.712,-24.414,-10.742,-22.949,-16.602,0.000,0
182242.716,-36.133,-9.277,-23.438,-32.227,0.000,0
182242.720,-34.180,-8.789,-15.625,-31.738,0.000,0
182242.724,-18.066,-12.207,-13.672,-13.672,0.000,0
182242.728,-28.320,-22.949,-20.508,-37.109,0.000,0
182242.731,-43.945,-24.902,-25.879,-62.012,0.000,0
182242.735,-50.293,-23.438,-34.668,-61.523,0.000,0
182242.739,-36.621,-22.949,-37.598,-36.621,0.000,0
182242.743,-18.555,-20.020,-26.367,-8.789,0.000,0
182242.747,-29.785,-18.066,-14.648,-27.832,0.000,0
182242.751,-34.668,-21.973,-14.160,-43.457,0.000,0
182242.755,-15.137,-16.602,-3.906,-15.625,0.000,0
182242.759,5.371,-10.742,3.906,-0.488,0.000,0
182242.763,-8.301,-21.973,-18.555,-19.043,0.000,0
182242.767,-32.715,-32.715,-29.297,-53.711,0.000,0
182242.770,-21.484,-24.902,-16.602,-46.387,0.000,0
182242.774,-7.812,-19.531,-9.766,-9.277,0.000,0
182242.778,-21.973,-30.273,-15.625,-21.973,0.000,0
182242.782,-33.203,-26.367,-23.926,-42.480,0.000,0
182242.786,-29.785,-30.273,-30.273,-43.945,0.000,0
182242.790,-24.902,-41.504,-45.898,-26.367,0.000,0
182242.794,-28.809,-37.109,-47.852,-9.766,0.000,0
182242.798,-41.992,-32.715,-32.227,-27.832,0.000,0
182242.802,-53.223,-35.156,-23.438,-41.992,0.000,0
182242.806,-35.156,-27.344,-19.531,-21.484,0.000,0
182242.810,-16.113,-17.578,-11.719,-7.812,0.000,0
182242.813,-29.785,-22.461,-17.090,-25.391,0.000,0
182242.817,-35.645,-32.715,-28.320,-34.668,0.000,0
182242.821,-24.414,-31.250,-24.414,-19.531,0.000,0
182242.825,-15.137,-23.926,-18.555,3.418,0.000,0
182242.829,-18.066,-27.344,-24.902,-15.137,0.000,0
182242.833,-23.926,-29.297,-26.855,-46.387,0.000,0
182242.837,-31.250,-30.273,-30.762,-42.480,0.000,0
182242.841,-26.367,-30.762,-28.809,-12.207,0.000,0
182242.845,-19.531,-28.320,-21.484,-5.371,0.000,0
182242.849,-28.320,-25.391,-26.367,-30.762,0.000,0
182242.853,-28.320,-28.320,-32.227,-24.414,0.000,0
182242.856,-18.066,-29.297,-37.598,3.418,0.000,0
182242.860,-20.020,-28.809,-37.598,0.488,0.000,0
182242.864,-26.367,-29.785,-31.250,-17.090,0.000,0
182242.868,-33.691,-30.273,-26.855,-24.414,0.000,0
182242.872,-29.297,-28.320,-21.484,-17.090,0.000,0
182242.876,-15.137,-20.996,-16.113,-5.859,0.000,0
182242.880,-23.926,-20.996,-14.648,-15.137,0.000,0
182242.884,-31.250,-24.414,-16.113,-34.180,0.000,0
182242.888,-16.602,-25.391,-16.602,-22.949,0.000,0
182242.892,-18.555,-31.250,-27.344,-4.395,0.000,0
182242.895,-36.133,-36.621,-45.898,-18.066,0.000,0
182242.899,-39.062,-35.645,-51.758,-51.270,0.000,0
182242.903,-23.926,-29.785,-35.645,-46.875,0.000,0
182242.907,-6.836,-14.648,-12.207,-20.996,0.000,0
182242.911,-18.066,-16.602,-18.066,-28.809,0.000,0
182242.915,-35.645,-25.879,-26.855,-36.133,0.000,0
182242.919,-29.297,-25.879,-27.832,-28.809,0.000,0
182242.923,-19.531,-25.391,-29.297,-19.043,0.000,0
182242.927,-29.297,-24.902,-35.156,-20.996,0.000,0
182242.931,-32.715,-17.578,-25.391,-14.160,0.000,0
182242.935,-13.672,-7.812,-2.441,-4.395,0.000,0
182242.938,-17.090,-18.555,-8.301,-10.254,0.000,0
182242.942,-37.598,-31.250,-22.461,-19.531,0.000,0
182242.946,-50.293,-35.156,-32.715,-36.133,0.000,0
182242.950,-48.340,-35.156,-50.293,-44.434,0.000,0
182242.954,-13.672,-16.113,-39.551,-5.371,0.000,0
182242.958,3.418,-10.254,-26.855,21.973,0.000,0
182242.962,-32.227,-27.832,-29.297,-15.137,0.000,1
182242.966,-55.664,-39.551,-38.574,-53.711,0.000,0
182242.970,-35.156,-31.250,-31.250,-36.621,0.000,0
182242.974,-18.555,-22.949,-20.508,-11.230,0.000,0
182242.978,-31.738,-23.438,-27.344,-19.531,0.000,0
182242.981,-44.922,-22.949,-27.344,-37.598,0.000,0
182242.985,-40.527,-21.484,-25.879,-37.598,0.000,0
182242.989,-41.992,-22.949,-37.598,-20.020,0.000,0
182242.993,-41.016,-25.879,-41.504,-19.531,0.000,0
182242.997,-29.785,-21.484,-41.504,-23.438,0.000,0
182243.001,-24.902,-14.160,-26.855,-23.438,0.000,0
182243.005,-12.695,-6.836,3.418,-26.855,0.000,0
182243.009,1.465,-4.395,2.441,-12.207,0.000,0
182243.013,-6.836,-24.902,-23.926,-21.973,0.000,0
182243.017,-41.016,-40.527,-46.387,-47.852,0.000,0
182243.020,-38.574,-39.062,-47.363,-37.109,0.000,0
182243.024,-13.184,-35.156,-32.715,-13.184,0.000,0
182243.028,-17.578,-25.391,-27.344,-7.812,0.000,0
182243.032,-25.879,-17.090,-19.531,-2.930,0.000,0
182243.036,-25.879,-17.578,-15.137,-7.324,0.000,0
182243.040,-14.648,-17.578,-19.531,4.395,0.000,0
182243.044,-17.090,-21.484,-21.973,-10.254,0.000,0
182243.048,-34.668,-27.344,-30.762,-33.691,0.000,0
182243.052,-34.668,-21.484,-22.949,-23.438,0.000,0
182243.056,-17.578,-18.066,-23.926,-5.859,0.000,0
182243.060,-18.066,-24.414,-30.762,-4.395,0.000,0
182243.063,-43.945,-34.180,-36.621,-46.875,0.000,0
182243.067,-44.434,-32.715,-32.715,-52.734,0.000,0
182243.071,-14.160,-20.508,-16.602,-13.672,0.000,0
182243.075,-5.371,-20.020,-10.742,-4.395,0.000,0
182243.079,-25.391,-25.391,-19.531,-26.855,0.000,0
182243.083,-32.227,-22.461,-20.508,-42.969,0.000,0
182243.087,-17.090,-25.391,-17.578,-33.691,0.000,0
182243.091,-9.277,-28.809,-20.508,-21.484,0.000,0
182243.095,-30.273,-30.273,-26.855,-24.902,0.000,0
182243.099,-46.387,-35.645,-34.180,-40.039,0.000,0
182243.103,-35.156,-34.180,-35.156,-31.250,0.000,0
182243.106,-24.902,-30.762,-31.738,-6.348,0.000,0
182243.110,-28.320,-28.809,-23.926,-17.578,0.000,0
182243.114,-31.738,-20.020,-11.230,-33.203,0.000,0
182243.118,-20.020,-17.090,-8.789,-14.160,0.000,0
182243.122,-11.230,-19.043,-16.602,-1.953,0.000,0
182243.126,-15.625,-22.949,-21.484,-20.020,0.000,0
182243.130,-33.203,-26.367,-24.414,-33.691,0.000,0
182243.134,-37.598,-19.531,-21.484,-27.832,0.000,0
182243.138,-29.297,-21.973,-23.438,-18.555,0.000,0
182243.142,-28.809,-24.902,-36.133,-17.578,0.000,0
182243.145,-34.180,-21.484,-35.156,-40.527,0.000,0
182243.149,-43.457,-24.902,-29.785,-50.781,0.000,0
182243.153,-35.645,-22.949,-26.367,-34.180,0.000,0
182243.157,-21.484,-13.184,-16.113,-9.766,0.000,0
182243.161,-21.484,-8.789,-6.836,-4.395,0.000,0
182243.165,-32.227,-13.184,-9.766,-30.762,0.000,0
182243.169,-38.086,-19.531,-31.738,-33.691,0.000,0
182243.173,-20.508,-18.555,-33.691,-14.648,0.000,0
182243.177,-16.113,-15.137,-22.949,-38.086,0.000,0
182243.181,-31.738,-13.184,-17.578,-63.477,0.000,0
182243.185,-32.715,-18.555,-27.832,-54.199,0.000,0
182243.188,-26.367,-24.414,-38.574,-41.992,0.000,0
182243.192,-27.832,-26.855,-29.785,-38.574,0.000,0
182243.196,-36.133,-29.297,-25.879,-44.922,0.000,0
182243.200,-35.645,-23.926,-22.949,-51.270,0.000,0
182243.204,-28.320,-24.902,-20.020,-43.945,0.000,0
182243.208,-20.996,-24.414,-22.949,-20.020,0.000,0
182243.212,-16.602,-15.137,-20.996,-10.742,0.000,0
182243.216,-33.691,-21.484,-23.438,-32.227,0.000,0
182243.220,-40.527,-36.133,-27.832,-45.410,0.000,0
182243.224,-30.273,-45.410,-52.246,-46.875,0.000,0
182243.228,-46.387,-44.922,-50.293,-50.293,0.000,0
182243.231,-55.176,-36.133,-24.902,-57.129,0.000,0
182243.235,-32.715,-25.391,-18.066,-34.180,0.000,0
182243.239,-8.789,-17.578,-7.812,-4.883,0.000,0
182243.243,-18.555,-17.578,-12.695,-21.484,0.000,0
182243.247,-43.945,-15.625,-29.785,-35.645,0.000,0
182243.251,-44.922,-19.043,-40.527,-33.691,0.000,0
182243.255,-31.250,-20.508,-36.133,-23.926,0.000,0
182243.259,-33.691,-26.367,-24.902,-25.391,0.000,0
182243.263,-25.879,-21.484,-14.160,-36.133,0.000,0
182243.267,4.883,6.348,2.441,-12.207,0.000,0
182243.270,-10.742,-7.812,-11.719,4.395,0.000,0
182243.274,-28.809,-33.203,-37.109,-5.371,0.000,0
182243.278,-25.879,-33.203,-41.504,-31.250,0.000,0
182243.282,-32.715,-31.738,-38.574,-54.199,0.000,0
182243.286,-28.809,-30.273,-34.180,-40.527,0.000,0
182243.290,-12.695,-27.344,-30.273,-16.113,0.000,0
182243.294,-17.090,-22.461,-35.156,-23.438,0.000,0
182243.298,-32.715,-20.020,-40.039,-50.781,0.000,0
182243.302,-30.762,-16.602,-21.973,-51.758,0.000,0
182243.306,-16.113,-16.602,-13.184,-24.902,0.000,0
182243.310,-13.672,-18.066,-20.508,-12.695,0.000,0
182243.313,-25.391,-19.043,-27.832,-20.508,0.000,0
182243.317,-38.574,-20.996,-29.297,-25.391,0.000,0
182243.321,-38.086,-25.879,-22.461,-23.438,0.000,0
182243.325,-18.066,-28.320,-20.508,-25.391,0.000,0
182243.329,-34.180,-30.762,-28.809,-49.316,0.000,0
182243.333,-54.199,-34.668,-40.039,-61.523,0.000,0
182243.337,-42.480,-27.344,-31.250,-32.715,0.000,0
182243.341,-35.156,-28.809,-35.156,-25.879,0.000,0
182243.345,-42.969,-34.180,-45.898,-48.340,0.000,0
182243.349,-58.594,-33.203,-30.762,-55.176,0.000,0
182243.353,-53.711,-27.344,-17.578,-39.551,0.000,0
182243.356,-31.250,-21.973,-14.160,-27.344,0.000,0
182243.360,-41.504,-22.949,-18.066,-41.504,0.000,0
182243.364,-54.199,-18.555,-28.809,-43.457,0.000,0
182243.368,-42.480,-17.090,-38.574,-35.645,0.000,0
182243.372,-23.438,-14.160,-29.297,-12.695,0.000,0
182243.376,-18.066,-7.324,-17.578,2.930,0.000,0
182243.380,-22.949,-10.254,-19.043,-24.414,0.000,0
182243.384,-17.578,-13.672,-23.438,-16.113,0.000,0
182243.388,-3.418,-13.672,-18.066,8.301,0.000,0
182243.392,0.488,-23.926,-22.461,4.395,0.000,0
182243.395,-25.879,-35.645,-39.551,-9.766,0.000,0
182243.399,-32.715,-34.668,-34.180,-32.715,0.000,0
182243.403,-17.090,-28.320,-29.297,-25.879,0.000,0
182243.407,-7.324,-24.414,-26.367,1.953,0.000,0
182243.411,-15.137,-20.996,-39.062,0.488,0.000,0
182243.415,-26.367,-22.949,-35.645,-22.461,0.000,0
182243.419,-22.461,-27.832,-14.648,-30.273,0.000,0
182243.423,-11.230,-29.297,-11.230,-13.184,0.000,0
182243.427,-6.348,-18.555,-6.348,0.000,0.000,0
182243.431,-8.301,-15.137,-8.301,-12.695,0.000,0
182243.435,-7.812,-19.043,-12.695,-14.160,0.000,0
182243.438,-3.906,-26.855,-20.996,-6.836,0.000,0
182243.442,-16.113,-35.645,-29.297,-19.043,0.000,0
182243.446,-27.832,-34.668,-32.227,-27.344,0.000,0
182243.450,-20.996,-25.391,-25.879,-17.090,0.000,0
182243.454,-19.531,-20.996,-21.484,0.000,0.000,0
182243.458,-9.766,-20.508,-23.926,1.953,0.000,0
182243.462,-6.348,-24.902,-14.160,-15.137,0.000,0
182243.466,-16.602,-21.484,-7.812,-16.113,0.000,0
182243.470,-16.602,-22.949,-13.672,-10.742,0.000,0
182243.474,-13.672,-31.250,-19.531,-6.348,0.000,0
182243.478,-13.184,-28.320,-19.531,-10.742,0.000,0
182243.481,-20.020,-21.973,-22.949,-28.809,0.000,0
182243.485,-23.926,-21.484,-23.438,-18.555,0.000,0
182243.489,-26.855,-33.691,-46.387,-9.766,0.000,0
182243.493,-22.949,-33.203,-39.062,-11.230,0.000,0
182243.497,-23.438,-31.738,-25.879,-24.414,0.000,0
182243.501,-30.273,-36.133,-30.273,-37.109,0.000,0
182243.505,-24.902,-27.832,-18.555,-13.184,0.000,0
182243.509,-7.324,-20.508,-11.719,11.230,0.000,1
182243.513,-7.812,-12.695,-8.301,5.371,0.000,0
182243.517,-14.648,-6.348,3.906,-1.465,0.000,0
182243.520,-15.625,-18.555,-1.465,-3.418,0.000,0
182243.524,-26.855,-33.691,-36.133,-12.207,0.000,0
182243.528,-40.039,-39.062,-52.246,-20.508,0.000,0
182243.532,-28.809,-27.832,-33.691,-18.066,0.000,0
182243.536,-12.695,-22.949,-17.090,-15.137,0.000,0
182243.540,-9.277,-26.367,-6.836,-13.672,0.000,0
182243.544,-24.414,-28.809,-9.277,-14.160,0.000,0
182243.548,-39.062,-30.273,-17.090,-22.949,0.000,0
182243.552,-41.504,-36.621,-33.691,-25.879,0.000,0
182243.556,-29.785,-38.574,-39.062,-17.578,0.000,0
182243.560,-28.320,-34.180,-32.227,-19.531,0.000,0
182243.563,-41.016,-33.203,-33.691,-27.832,0.000,0
182243.567,-32.227,-26.855,-24.902,-29.785,0.000,0
182243.571,-19.043,-22.461,-6.348,-23.438,0.000,0
182243.575,-15.625,-32.227,-16.602,-24.902,0.000,0
182243.579,-20.996,-32.715,-19.043,-31.738,0.000,0
182243.583,-30.273,-20.996,-13.672,-22.949,0.000,0
182243.587,-14.160,-15.625,-13.672,-2.930,0.000,0
182243.591,-7.812,-26.367,-15.625,-2.441,0.000,0
182243.595,-18.066,-29.297,-24.902,-26.855,0.000,0
182243.599,-16.602,-17.578,-11.719,-37.109,0.000,0
182243.603,-9.766,-14.160,0.977,-20.508,0.000,0
182243.606,-19.043,-31.738,-14.648,-18.555,0.000,0
182243.610,-34.668,-51.758,-37.109,-35.645,0.000,0
182243.614,-54.199,-53.711,-49.805,-68.848,0.000,0
182243.618,-52.734,-49.316,-43.945,-78.613,0.000,0
182243.622,-27.344,-34.180,-27.344,-46.387,0.000,0
182243.626,-26.855,-31.250,-22.949,-38.574,0.000,0
182243.630,-31.738,-27.344,-15.625,-47.852,0.000,0
182243.634,-23.438,-19.043,-4.395,-40.527,0.000,0
182243.638,-10.742,-26.855,-9.277,-32.227,0.000,0
182243.642,-13.672,-31.738,-18.066,-28.320,0.000,0
182243.645,-31.250,-28.809,-22.949,-38.574,0.000,0
182243.649,-23.926,-19.531,-16.602,-31.738,0.000,0
182243.653,-1.465,-19.531,-11.230,-5.371,0.000,0
182243.657,-5.371,-25.879,-18.066,-7.812,0.000,0
182243.661,-23.926,-27.832,-19.043,-18.555,0.000,0
182243.665,-30.762,-33.691,-28.320,-27.832,0.000,0
182243.669,-24.414,-33.691,-38.574,-29.785,0.000,0
182243.673,-9.277,-29.785,-16.113,-17.578,0.000,0
182243.677,-17.090,-35.645,-7.324,-30.762,0.000,0
182243.681,-24.902,-20.508,-5.859,-32.227,0.000,0
182243.685,-7.324,-12.207,-0.977,-14.160,0.000,0
182243.688,-1.465,-23.438,-11.719,2.441,0.000,0
182243.692,-15.137,-27.832,-22.949,4.395,0.000,0
182243.696,-29.785,-32.227,-27.832,-33.203,0.000,0
182243.700,-18.066,-23.438,-19.043,-39.062,0.000,0
182243.704,-1.465,-21.973,-14.648,-13.672,0.000,0
182243.708,4.395,-25.879,-13.672,1.953,0.000,0
182243.712,2.441,-18.555,-8.789,-12.695,0.000,0
182243.716,-3.418,-17.090,-12.207,-33.691,0.000,0
182243.720,-3.906,-19.531,-5.859,-17.090,0.000,0
182243.724,-8.301,-23.926,-8.789,-5.371,0.000,0
182243.728,-12.207,-28.809,-27.344,-7.324,0.000,0
182243.731,-15.137,-24.902,-18.066,-14.648,0.000,0
182243.735,-12.207,-20.508,-5.859,-20.996,0.000,0
182243.739,-11.719,-21.973,-11.719,-3.906,0.000,0
182243.743,-18.066,-28.320,-23.438,-2.930,0.000,0
182243.747,-24.414,-33.691,-34.668,-19.531,0.000,0
182243.751,-21.973,-30.273,-34.668,-29.785,0.000,0
182243.755,-26.855,-22.949,-30.762,-36.133,0.000,0
182243.759,-26.367,-27.344,-26.367,-38.086,0.000,0
182243.763,-32.715,-35.156,-24.902,-50.781,0.000,0
182243.767,-45.898,-32.227,-29.297,-60.059,0.000,0
182243.770,-41.992,-25.391,-33.691,-42.969,0.000,0
182243.774,-33.691,-24.414,-25.879,-24.902,0.000,0
182243.778,-33.691,-18.555,-11.719,-25.879,0.000,0
182243.782,-34.668,-9.277,-6.348,-43.945,0.000,0
182243.786,-36.133,-17.578,-25.391,-41.992,0.000,0
182243.790,-32.715,-31.250,-40.039,-29.297,0.000,0
182243.794,-31.250,-34.180,-37.109,-37.598,0.000,0
182243.798,-45.410,-31.738,-35.156,-49.805,0.000,0
182243.802,-40.527,-30.762,-31.738,-31.738,0.000,0
182243.806,-24.414,-24.414,-24.414,-8.301,0.000,0
182243.810,-23.438,-13.184,-12.207,-15.137,0.000,0
182243.813,-32.227,-15.137,-6.348,-39.551,0.000,0
182243.817,-41.992,-26.855,-17.578,-52.246,0.000,0
182243.821,-42.480,-30.273,-33.203,-39.062,0.000,0
182243.825,-38.574,-31.738,-32.227,-32.227,0.000,0
182243.829,-34.180,-26.367,-20.020,-31.250,0.000,0
182243.833,-36.133,-25.391,-36.133,-37.598,0.000,0
182243.837,-35.156,-29.297,-41.016,-28.320,0.000,0
182243.841,-14.648,-19.043,-10.742,-0.977,0.000,0
182243.845,-16.113,-16.113,-6.836,-14.648,0.000,0
182243.849,-37.109,-34.180,-20.508,-52.246,0.000,0
182243.853,-26.855,-37.109,-19.043,-49.316,0.000,0
182243.856,-1.953,-25.879,-13.672,-23.926,0.000,0
182243.860,-14.160,-26.855,-19.043,-28.809,0.000,0
182243.864,-32.227,-28.320,-25.391,-46.875,0.000,0
182243.868,-14.648,-19.043,-18.066,-23.926,0.000,0
182243.872,-0.977,-16.113,-16.113,-5.859,0.000,0
182243.876,-6.836,-20.020,-17.578,-16.602,0.000,0
182243.880,-24.902,-23.438,-26.367,-31.738,0.000,0
182243.884,-38.574,-28.809,-36.621,-50.293,0.000,0
182243.888,-33.691,-28.809,-36.621,-35.156,0.000,0
182243.892,-18.066,-26.855,-31.250,-26.367,0.000,0
182243.895,-17.090,-15.137,-18.066,-27.832,0.000,0
182243.899,-24.414,-14.648,-17.090,-19.043,0.000,0
182243.903,-18.066,-23.438,-27.344,-22.949,0.000,0
182243.907,-14.648,-25.879,-26.855,-20.996,0.000,0
182243.911,-4.395,-20.508,-14.160,-18.066,0.000,0
182243.915,-10.742,-19.531,-7.812,-29.785,0.000,0
182243.919,-21.484,-23.926,-17.090,-17.090,0.000,0
182243.923,-0.977,-11.719,-8.301,10.254,0.000,0
182243.927,-12.207,-14.648,-17.578,-7.812,0.000,0
182243.931,-29.297,-18.555,-24.414,-34.668,0.000,0
182243.935,-34.180,-22.461,-19.531,-41.504,0.000,0
182243.938,-24.902,-19.531,-19.531,-7.324,0.000,0
182243.942,-9.277,-7.324,-9.766,10.254,0.000,0
182243.946,-20.020,-5.859,-2.441,-21.484,0.000,0
182243.950,-31.250,-16.602,-17.090,-48.340,0.000,0
182243.954,-20.996,-25.879,-25.879,-41.992,0.000,0
182243.958,-17.578,-31.250,-35.156,-29.297,0.000,0
182243.962,-18.555,-28.320,-28.809,-41.016,0.000,0
182243.966,2.441,-4.395,0.977,-26.855,0.000,0
182243.970,10.742,-9.277,-1.953,-14.160,0.000,0
182243.974,-13.672,-35.156,-33.691,-33.691,0.000,0
182243.978,-31.250,-40.039,-44.922,-34.668,0.000,0
182243.981,-36.133,-34.180,-38.086,-27.832,0.000,0
182243.985,-25.879,-31.250,-32.227,-35.645,0.000,0
182243.989,-16.602,-27.832,-27.832,-18.555,0.000,0
182243.993,-19.531,-26.367,-23.926,-16.602,0.000,0
182243.997,-24.902,-25.879,-23.926,-32.715,0.000,0
182244.001,-15.137,-16.113,-21.484,-21.973,0.000,0
182244.005,0.488,-14.648,-13.672,3.906,0.000,0
182244.009,-3.418,-22.949,-17.578,5.371,0.000,0
182244.013,-24.414,-26.855,-26.367,-25.879,0.000,0
182244.017,-26.367,-18.066,-23.926,-21.484,0.000,0
182244.020,-9.277,-17.090,-14.648,3.418,0.000,0
182244.024,-2.441,-24.414,-15.137,5.859,0.000,0
182244.028,-14.160,-32.227,-30.762,-17.090,0.000,0
182244.032,-20.996,-35.156,-25.391,-43.457,0.000,0
182244.036,-32.227,-32.715,-19.531,-37.598,0.000,0
182244.040,-20.020,-17.578,-10.742,-10.254,0.000,0
182244.044,-12.207,-16.602,-4.883,0.000,0.000,0
182244.048,-24.902,-25.879,-20.996,-14.648,0.000,0
182244.052,-19.043,-25.391,-31.250,-30.273,0.000,0
182244.056,-10.254,-26.855,-24.414,-3.418,0.000,0
182244.060,-9.766,-26.367,-11.230,12.695,0.000,0
182244.063,-29.297,-28.809,-21.484,-18.555,0.000,0
182244.067,-30.273,-20.508,-17.090,-23.926,0.000,0
182244.071,-17.578,-24.414,-14.648,-18.555,0.000,0
182244.075,-36.133,-32.227,-26.855,-30.273,0.000,0
182244.079,-48.828,-26.855,-25.391,-41.016,0.000,0
182244.083,-45.410,-30.273,-22.461,-37.598,0.000,0
182244.087,-29.785,-23.926,-12.207,-20.020,0.000,0
182244.091,-22.949,-20.996,-16.113,-16.113,0.000,0
182244.095,-27.344,-23.438,-23.926,-17.090,0.000,0
182244.099,-37.598,-27.344,-25.879,-31.250,0.000,0
182244.103,-43.945,-36.133,-31.738,-44.922,0.000,0
182244.106,-33.691,-33.691,-25.391,-25.391,0.000,0
182244.110,-35.645,-23.926,-20.996,-31.250,0.000,0
182244.114,-38.086,-18.555,-22.949,-39.551,0.000,0
182244.118,-31.738,-21.973,-24.902,-15.137,0.000,0
182244.122,-27.344,-25.391,-28.809,-14.160,0.000,0
182244.126,-25.879,-24.902,-26.855,-23.438,0.000,0
182244.130,-37.109,-31.250,-22.461,-28.320,0.000,1
182244.134,-42.480,-36.133,-27.344,-39.062,0.000,0
182244.138,-26.367,-34.180,-37.109,-33.691,0.000,0
182244.142,-31.250,-36.133,-36.133,-27.832,0.000,0
182244.145,-41.504,-33.203,-38.086,-24.902,0.000,0
182244.149,-38.574,-24.902,-29.297,-26.367,0.000,0
182244.153,-18.066,-20.020,-12.207,-11.719,0.000,0
182244.157,-14.160,-27.344,-20.508,4.883,0.000,0
182244.161,-39.062,-33.691,-30.762,-18.066,0.000,0
182244.165,-38.574,-27.832,-28.320,-35.645,0.000,0
182244.169,-21.973,-22.461,-23.438,-22.949,0.000,0
182244.173,-19.043,-27.344,-30.273,-15.137,0.000,0
182244.177,-34.180,-38.086,-34.668,-30.762,0.000,0
182244.181,-47.852,-45.410,-21.973,-51.270,0.000,0
182244.185,-33.203,-32.227,-9.766,-28.320,0.000,0
182244.188,-22.461,-25.391,-8.789,-14.648,0.000,0
182244.192,-24.414,-30.762,-16.602,-19.531,0.000,0
182244.196,-18.555,-25.879,-20.508,-8.301,0.000,0
182244.200,-21.973,-24.902,-20.508,-10.254,0.000,0
182244.204,-21.484,-24.902,-12.207,4.395,0.000,0
182244.208,-10.254,-27.344,-15.625,5.859,0.000,0
182244.212,-15.625,-30.273,-34.180,-22.461,0.000,0
182244.216,-30.273,-33.203,-29.297,-33.203,0.000,0
182244.220,-35.156,-38.086,-18.066,-21.973,0.000,0
182244.224,-19.043,-25.879,-3.418,-5.371,0.000,0
182244.228,-21.973,-24.902,-9.766,-17.090,0.000,0
182244.231,-47.363,-36.133,-34.668,-43.945,0.000,0
182244.235,-54.199,-35.645,-26.367,-42.480,0.000,0
182244.239,-31.738,-26.367,-15.137,-23.926,0.000,0
182244.243,-29.297,-23.438,-16.602,-20.020,0.000,0
182244.247,-38.574,-34.180,-28.320,-46.387,0.000,0
182244.251,-37.598,-38.086,-34.180,-54.199,0.000,0
182244.255,-26.367,-15.137,-8.789,-20.996,0.000,0
182244.259,-22.461,-19.043,-6.836,-7.324,0.000,0
182244.263,-50.781,-31.250,-19.531,-41.016,0.000,0
182244.267,-62.500,-33.691,-25.879,-60.547,0.000,0
182244.270,-42.480,-36.621,-39.062,-39.551,0.000,0
182244.274,-32.227,-29.785,-48.340,-19.043,0.000,0
182244.278,-41.504,-21.973,-35.645,-30.273,0.000,0
182244.282,-35.645,-7.324,-10.254,-28.809,0.000,0
182244.286,-35.156,-13.184,-18.555,-28.320,0.000,0
182244.290,-23.926,-16.602,-22.461,-38.086,0.000,0
182244.294,-19.043,-8.789,-13.184,-32.227,0.000,0
182244.298,-48.340,-19.531,-23.926,-30.273,0.000,0
182244.302,-46.875,-21.973,-26.855,-50.781,0.000,0
182244.306,-26.855,-13.184,-20.020,-48.340,0.000,0
182244.310,-33.203,-13.672,-27.344,-32.227,0.000,0
182244.313,-40.039,-18.066,-37.109,-45.410,0.000,0
182244.317,-32.715,-16.602,-28.320,-36.133,0.000,0
182244.321,-27.344,-17.090,-32.227,-13.184,0.000,0
182244.325,-16.113,-7.324,-20.508,-14.648,0.000,0
182244.329,-18.555,-3.418,-9.766,-27.832,0.000,0
182244.333,-35.156,-17.090,-32.227,-37.109,0.000,0
182244.337,-34.668,-28.809,-44.434,-36.621,0.000,0
182244.341,-36.133,-22.949,-36.133,-33.203,0.000,0
182244.345,-37.109,-13.672,-25.879,-47.363,0.000,0
182244.349,-37.109,-11.230,-17.090,-62.012,0.000,0
182244.353,-24.414,-7.324,-5.859,-38.086,0.000,0
182244.356,-26.367,-9.277,-8.789,-27.344,0.000,0
182244.360,-43.457,-14.160,-25.879,-43.945,0.000,0
182244.364,-29.785,0.977,-11.230,-46.387,0.000,0
182244.368,-9.277,5.859,-1.465,-21.973,0.000,0
182244.372,-19.043,-19.043,-24.902,-14.648,0.000,0
182244.376,-37.598,-32.227,-37.598,-37.109,0.000,0
182244.380,-45.898,-25.391,-37.598,-51.758,0.000,0
182244.384,-39.551,-17.578,-28.809,-40.039,0.000,0
182244.388,-20.996,-11.719,-24.902,-20.020,0.000,0
182244.392,-22.461,-10.742,-28.320,-25.391,0.000,0
182244.395,-26.855,-6.836,-8.301,-17.578,0.000,0
182244.399,-19.043,-5.371,3.906,8.301,0.000,0
182244.403,-14.648,-13.672,-10.254,-10.254,0.000,0
182244.407,-21.973,-15.137,-27.344,-26.367,0.000,0
182244.411,-43.457,-16.113,-28.320,-24.902,0.000,0
182244.415,-41.504,-13.184,-20.508,-32.715,0.000,0
182244.419,-29.785,-14.648,-22.949,-28.320,0.000,0
182244.423,-28.320,-14.648,-26.855,-13.184,0.000,0
182244.427,-27.344,-6.348,-18.555,-22.461,0.000,0
182244.431,-32.715,-4.395,-15.625,-44.434,0.000,0
182244.435,-26.367,-7.812,-16.602,-27.344,0.000,0
182244.438,-26.855,-21.973,-40.039,-16.602,0.000,0
182244.442,-48.828,-34.180,-52.246,-39.062,0.000,0
182244.446,-41.504,-24.414,-26.367,-46.875,0.000,0
182244.450,-16.113,-14.648,-12.207,-27.344,0.000,0
182244.454,-13.184,-21.973,-19.531,-22.461,0.000,0
182244.458,-20.508,-17.090,-16.602,-21.973,0.000,0
182244.462,-25.879,-17.090,-16.113,-37.598,0.000,0
182244.466,-26.855,-33.203,-34.668,-52.734,0.000,0
182244.470,-26.367,-37.598,-41.016,-34.668,0.000,0
182244.474,-26.367,-26.367,-31.738,-18.555,0.000,0
182244.478,-29.785,-21.973,-26.855,-30.762,0.000,0
182244.481,-31.250,-18.066,-25.879,-32.227,0.000,0
182244.485,-25.391,-17.090,-24.414,-13.184,0.000,0
182244.489,-20.020,-18.066,-27.832,-0.488,0.000,0
182244.493,-21.484,-15.137,-28.809,-15.137,0.000,0
182244.497,-36.621,-25.879,-33.203,-34.180,0.000,0
182244.501,-25.391,-20.996,-20.996,-13.184,0.000,0
182244.505,-1.465,-4.883,-0.977,-1.953,0.000,0
182244.509,-7.812,-10.254,-7.812,-10.742,0.000,0
182244.513,-30.273,-23.926,-16.113,-26.367,0.000,0
182244.517,-35.645,-25.391,-17.578,-36.133,0.000,0
182244.520,-22.461,-25.879,-32.227,-20.020,0.000,0
182244.524,-17.578,-17.578,-31.250,-15.625,0.000,0
182244.528,-28.320,-19.531,-22.949,-30.273,0.000,0
182244.532,-33.691,-26.367,-27.344,-34.668,0.000,0
182244.536,-23.438,-21.973,-24.414,-15.137,0.000,0
182244.540,-15.137,-24.902,-23.438,-1.465,0.000,0
182244.544,-25.879,-27.832,-22.461,-18.066,0.000,0
182244.548,-31.738,-23.926,-20.996,-25.879,0.000,0
182244.552,-19.531,-24.902,-25.879,-11.230,0.000,0
182244.556,0.488,-16.602,-19.043,0.977,0.000,0
182244.560,0.488,-0.488,-12.695,-0.488,0.000,0
182244.563,-23.438,-12.207,-25.391,-25.879,0.000,0
182244.567,-16.602,-20.508,-19.043,-25.879,0.000,0
182244.571,4.395,-13.672,-5.371,1.465,0.000,0
182244.575,0.488,-12.695,-12.695,5.859,0.000,0
182244.579,-21.484,-16.602,-20.020,-16.113,0.000,0
182244.583,-31.738,-20.508,-24.902,-16.113,0.000,0
182244.587,-19.043,-20.996,-26.367,-4.883,0.000,0
182244.591,-17.578,-16.113,-20.020,-8.301,0.000,0
182244.595,-25.391,-20.508,-17.578,-20.996,0.000,0
182244.599,-26.855,-22.949,-19.531,-30.762,0.000,0
182244.603,-3.906,-9.277,-5.371,-1.953,0.000,0
182244.606,-0.488,-6.348,-3.906,6.348,0.000,0
182244.610,-30.273,-23.438,-27.832,-21.484,0.000,0
182244.614,-36.133,-33.203,-33.203,-31.250,0.000,0
182244.618,-19.531,-25.391,-20.996,-17.578,0.000,0
182244.622,-18.066,-20.508,-19.531,-10.254,0.000,0
182244.626,-12.695,-12.695,-12.207,-4.883,0.000,0
182244.630,-30.273,-21.973,-22.461,-26.855,0.000,0
182244.634,-43.457,-30.762,-31.250,-22.949,0.000,0
182244.638,-28.809,-31.738,-30.762,-13.672,0.000,0
182244.642,-27.832,-31.250,-32.715,-42.480,0.000,0
182244.645,-35.645,-25.391,-27.344,-41.992,0.000,0
182244.649,-15.625,-18.555,-19.531,-5.371,0.000,0
182244.653,-6.348,-19.043,-21.973,4.395,0.000,0
182244.657,-13.184,-16.113,-21.973,-5.371,0.000,0
182244.661,-15.625,-6.348,-6.836,-25.879,0.000,0
182244.665,-20.020,-6.836,-3.906,-29.785,0.000,0
182244.669,-14.648,-16.602,-15.625,-16.602,0.000,0
182244.673,-23.438,-20.020,-25.879,-17.090,0.000,0
182244.677,-39.062,-18.555,-31.738,-30.762,0.000,0
182244.681,-30.762,-11.230,-23.438,-40.039,0.000,0
182244.685,-11.230,-9.766,-20.020,-14.648,0.000,0
182244.688,-7.324,-17.090,-20.508,-3.418,0.000,0
182244.692,-24.902,-16.602,-13.184,-27.832,0.000,0
182244.696,-26.855,-16.602,-10.742,-38.574,0.000,0
182244.700,-7.812,-19.531,-9.766,-17.578,0.000,0
182244.704,-7.324,-21.973,-23.926,-9.277,0.000,0
182244.708,-13.672,-27.344,-30.273,-22.949,0.000,1
182244.712,-14.160,-26.367,-23.926,-24.902,0.000,0
182244.716,11.719,-14.648,-15.137,0.488,0.000,0
182244.720,22.461,-11.230,-15.137,12.695,0.000,0
182244.724,-4.883,-8.301,-20.996,1.953,0.000,0
182244.728,-7.812,-2.441,-11.230,4.395,0.000,0
182244.731,8.789,-9.277,-14.160,6.348,0.000,0
182244.735,-5.371,-26.367,-29.297,0.000,0.000,0
182244.739,-34.668,-41.504,-38.086,-19.531,0.000,0
182244.743,-42.969,-40.039,-30.762,-33.203,0.000,0
182244.747,-29.785,-33.203,-24.414,-32.227,0.000,0
182244.751,-7.812,-16.113,-10.254,4.395,0.000,0
182244.755,6.836,-2.441,2.441,24.902,0.000,0
182244.759,-11.230,-23.438,-17.578,-20.996,0.000,0
182244.763,-26.855,-40.039,-37.109,-40.527,0.000,0
182244.767,-22.461,-35.156,-34.668,-17.578,0.000,0
182244.770,-10.742,-30.273,-28.320,-4.395,0.000,0
182244.774,-14.160,-28.809,-25.879,-18.066,0.000,0
182244.778,-31.250,-22.949,-25.879,-29.297,0.000,0
182244.782,-17.578,-16.113,-15.625,-14.160,0.000,0
182244.786,0.488,-7.324,-2.930,6.348,0.000,0
182244.790,-8.789,-13.184,-11.719,-9.277,0.000,0
182244.794,-32.715,-34.180,-36.133,-45.898,0.000,0
182244.798,-24.414,-29.785,-25.391,-42.969,0.000,0
182244.802,-14.648,-30.762,-25.879,-34.668,0.000,0
182244.806,-11.230,-31.250,-33.203,-20.508,0.000,0
182244.810,-31.250,-30.273,-38.574,-37.598,0.000,0
182244.813,-43.457,-29.785,-40.039,-45.898,0.000,0
182244.817,-14.648,-20.508,-18.066,-20.508,0.000,0
182244.821,1.465,-12.695,-0.488,-20.508,0.000,0
182244.825,-18.555,-9.766,3.906,-25.391,0.000,0
182244.829,-29.297,-16.113,-4.883,-20.996,0.000,0
182244.833,-20.508,-27.832,-16.113,-8.301,0.000,0
182244.837,-20.508,-33.691,-19.043,-17.090,0.000,0
182244.841,-22.461,-25.391,-24.414,-36.133,0.000,0
182244.845,-28.320,-23.438,-39.062,-43.945,0.000,0
182244.849,-24.902,-21.973,-32.715,-37.109,0.000,0
182244.853,-1.953,-16.113,-14.160,-4.883,0.000,0
182244.856,-3.418,-14.648,-3.906,-3.418,0.000,0
182244.860,-19.043,-10.742,3.418,-20.508,0.000,0
182244.864,-30.273,-20.020,-10.742,-16.113,0.000,0
182244.868,-26.367,-25.879,-28.320,-9.766,0.000,0
182244.872,-13.672,-24.902,-23.926,-5.371,0.000,0
182244.876,-32.715,-26.855,-24.414,-20.508,0.000,0
182244.880,-47.852,-21.973,-37.598,-41.016,0.000,0
182244.884,-20.508,-7.812,-16.602,-16.113,0.000,0
182244.888,-9.277,-4.395,-3.906,2.441,0.000,0
182244.892,-20.996,-10.742,-8.789,-6.836,0.000,0
182244.895,-22.949,-11.719,-1.953,-32.715,0.000,0
182244.899,-17.578,-19.531,-16.113,-41.016,0.000,0
182244.903,-7.324,-14.160,-26.367,-5.371,0.000,0
182244.907,-19.531,-17.578,-27.344,-10.742,0.000,0
182244.911,-50.781,-29.297,-35.645,-39.062,0.000,0
182244.915,-33.203,-10.742,-18.555,-21.484,0.000,0
182244.919,-1.465,4.883,1.465,9.277,0.000,0
182244.923,-20.508,-7.324,-6.348,3.906,0.000,0
182244.927,-50.781,-25.391,-34.668,-26.855,0.000,0
182244.931,-49.316,-34.180,-45.898,-33.691,0.000,0
182244.935,-31.250,-30.762,-37.109,-26.855,0.000,0
182244.938,-18.555,-13.184,-23.438,-22.461,0.000,0
182244.942,-16.602,-5.371,-13.672,-18.555,0.000,0
182244.946,-22.461,-14.648,-15.625,-23.926,0.000,0
182244.950,-18.066,-11.719,-2.930,-16.113,0.000,0
182244.954,-16.113,-5.859,2.930,-5.859,0.000,0
182244.958,-36.133,-25.879,-23.926,-37.598,0.000,0
182244.962,-62.988,-45.898,-42.480,-69.336,0.000,0
182244.966,-55.664,-42.969,-33.203,-47.363,0.000,0
182244.970,-17.578,-25.391,-25.879,-15.625,0.000,0
182244.974,-18.555,-13.184,-17.578,-27.344,0.000,0
182244.978,-30.273,-14.648,-7.324,-49.316,0.000,0
182244.981,-30.273,-21.484,-10.742,-40.039,0.000,0
182244.985,-4.395,-5.371,-4.883,-12.207,0.000,0
182244.989,4.883,-3.906,0.488,-2.441,0.000,0
182244.993,-34.180,-24.414,-19.043,-25.879,0.000,0
182244.997,-44.922,-30.273,-30.273,-51.758,0.000,0
182245.001,-18.066,-18.555,-16.602,-32.227,0.000,0
182245.005,6.836,-5.371,-0.488,-0.488,0.000,0
182245.009,-19.043,-17.578,-19.043,-23.438,0.000,0
182245.013,-32.715,-27.832,-32.227,-33.203,0.000,0
182245.017,-9.766,-23.438,-23.926,-16.113,0.000,0
182245.020,-17.090,-20.020,-25.879,-18.555,0.000,0
182245.024,-27.832,-19.043,-24.414,-30.762,0.000,0
182245.028,-32.715,-13.184,-17.578,-33.203,0.000,0
182245.032,-19.043,1.953,-11.230,-22.461,0.000,0
182245.036,-10.254,-4.395,-12.695,-18.066,0.000,0
182245.040,-36.133,-16.113,-20.020,-33.203,0.000,0
182245.044,-45.898,-13.184,-27.344,-39.062,0.000,0
182245.048,-26.367,-8.789,-17.090,-28.320,0.000,0
182245.052,-24.902,-15.625,-9.766,-22.461,0.000,0
182245.056,-28.809,-19.531,-16.113,-22.461,0.000,0
182245.060,-25.879,-17.090,-12.207,-34.668,0.000,0
182245.063,-40.039,-20.996,-19.531,-50.293,0.000,0
182245.067,-41.992,-26.367,-31.250,-29.785,0.000,0
182245.071,-20.508,-24.414,-20.020,-10.254,0.000,0
182245.075,-20.020,-16.602,-11.719,-24.902,0.000,0
182245.079,-32.715,-10.254,-18.555,-20.996,0.000,0
182245.083,-17.090,-11.230,-11.230,-3.418,0.000,0
182245.087,-14.648,-20.508,-12.695,-11.230,0.000,0
182245.091,-28.809,-21.973,-26.367,-14.648,0.000,0
182245.095,-27.344,-20.020,-25.879,-21.484,0.000,0
182245.099,-28.320,-27.344,-20.020,-22.461,0.000,0
182245.103,-28.320,-28.320,-23.926,-6.836,0.000,0
182245.106,-19.043,-21.484,-10.254,-9.277,0.000,0
182245.110,-4.395,-7.324,6.348,-16.602,0.000,0
182245.114,-10.254,-10.742,-16.602,-24.902,0.000,0
182245.118,-12.695,-24.414,-29.785,-19.531,0.000,0
182245.122,-9.277,-28.809,-20.508,-18.066,0.000,0
182245.126,-29.785,-32.715,-17.578,-40.527,0.000,0
182245.130,-32.715,-34.180,-21.484,-43.945,0.000,0
182245.134,-10.742,-22.461,-12.207,-24.902,0.000,0
182245.138,-11.719,-21.973,-19.531,-27.344,0.000,0
182245.142,-21.973,-25.391,-29.297,-31.250,0.000,0
182245.145,-27.832,-16.602,-10.742,-20.508,0.000,0
182245.149,-19.531,-20.996,-8.789,-17.090,0.000,0
182245.153,-3.906,-25.391,-12.695,-12.207,0.000,0
182245.157,-12.695,-18.066,-8.301,-14.648,0.000,0
182245.161,-19.043,-12.207,-7.324,-30.273,0.000,0
182245.165,-20.996,-27.344,-33.203,-40.527,0.000,0
182245.169,-19.043,-32.715,-36.133,-14.648,0.000,0
182245.173,-27.344,-33.691,-18.555,-13.672,0.000,0
182245.177,-44.922,-34.180,-23.926,-42.480,0.000,0
182245.181,-43.945,-27.344,-34.668,-44.434,0.000,0
182245.185,-26.855,-25.879,-41.504,-24.414,0.000,0
182245.188,-15.625,-16.602,-23.926,-6.348,0.000,0
182245.192,-25.879,-11.230,-12.695,-11.230,0.000,0
182245.196,-28.809,-16.602,-20.996,-22.949,0.000,0
182245.200,-12.207,-19.531,-25.391,-16.113,0.000,0
182245.204,-10.254,-20.508,-15.137,-1.465,0.000,0
182245.208,-34.668,-26.855,-18.066,-8.789,0.000,0
182245.212,-34.668,-24.414,-18.555,-25.879,0.000,0
182245.216,-21.484,-21.973,-14.160,-10.742,0.000,0
182245.220,-15.625,-25.879,-25.879,14.160,0.000,0
182245.224,-33.203,-41.016,-43.457,-4.395,0.000,0
182245.228,-43.945,-46.387,-33.691,-15.137,0.000,0
182245.231,-30.762,-46.387,-26.855,-18.066,0.000,0
182245.235,-19.531,-41.992,-30.273,-5.371,0.000,0
182245.239,-29.785,-35.156,-26.855,0.977,0.000,0
182245.243,-33.203,-31.250,-11.719,-10.742,0.000,0
182245.247,-6.348,-23.926,0.000,13.672,0.000,0
182245.251,0.488,-19.531,-2.441,34.180,0.000,0
182245.255,-32.227,-28.320,-18.066,-2.441,0.000,0
182245.259,-49.805,-34.668,-32.715,-28.320,0.000,0
182245.263,-47.852,-30.762,-35.645,-30.762,0.000,0
182245.267,-37.109,-36.621,-33.691,-25.879,0.000,0
182245.270,-27.344,-35.645,-21.973,-13.184,0.000,0
182245.274,-22.461,-21.973,-28.320,-7.812,0.000,0
182245.278,-22.949,-11.230,-23.926,-7.324,0.000,0
182245.282,-8.789,-3.418,9.766,7.812,0.000,0
182245.286,1.465,-15.625,-1.953,12.695,0.000,0
182245.290,-22.461,-40.039,-30.273,-23.926,0.000,0
182245.294,-42.969,-41.504,-31.738,-49.316,0.000,0
182245.298,-52.734,-40.527,-40.039,-32.227,0.000,0
182245.302,-28.320,-32.227,-28.809,-11.719,0.000,0
182245.306,-11.719,-20.508,-17.090,-10.742,0.000,0
182245.310,-30.762,-22.949,-29.785,-24.902,0.000,0
182245.313,-33.691,-19.043,-30.273,-35.156,0.000,0
182245.317,-13.672,-17.090,-17.090,-15.137,0.000,0
182245.321,-6.348,-22.949,-17.578,-1.953,0.000,0
182245.325,-19.531,-22.949,-33.203,-17.578,0.000,0
182245.329,-36.621,-23.926,-32.715,-31.738,0.000,0
182245.333,-24.902,-25.879,-18.555,-26.367,0.000,0
182245.337,-1.953,-16.602,-17.578,-5.859,0.000,0
182245.341,4.883,-2.441,1.465,1.953,0.000,0
182245.345,-9.277,-0.977,2.441,-0.977,0.000,1
182245.349,-16.113,-11.230,-16.113,-10.254,0.000,0
182245.353,-13.672,-22.461,-33.691,-17.578,0.000,0
182245.356,-12.695,-18.066,-49.316,-2.930,0.000,0
182245.360,-4.883,3.418,-23.438,0.000,0.000,0
182245.364,7.812,19.043,-1.465,10.742,0.000,0
182245.368,4.395,21.484,-19.043,22.949,0.000,0
182245.372,-8.789,43.945,-12.695,-4.883,0.000,0
182245.376,-35.645,77.148,-10.254,-38.574,0.000,0
182245.380,-45.898,107.422,-12.695,-44.922,0.000,0
182245.384,-25.391,145.020,-23.438,-19.531,0.000,0
182245.388,-14.648,176.270,-28.320,-3.906,0.000,0
182245.392,-6.836,209.473,-0.977,-26.855,0.000,0
182245.395,-7.324,229.980,1.953,-33.203,0.000,0
182245.399,-5.371,232.422,-10.742,-9.766,0.000,0
182245.403,0.977,247.559,-3.906,-3.418,0.000,0
182245.407,-12.695,242.188,-3.906,-22.949,0.000,0
182245.411,-21.973,219.238,-11.230,-39.551,0.000,0
182245.415,-16.113,219.238,-10.742,-24.414,0.000,0
182245.419,10.254,219.238,5.371,-1.465,0.000,0
182245.423,10.254,204.590,8.301,11.230,0.000,0
182245.427,-11.230,183.594,-2.441,-15.137,0.000,0
182245.431,-3.418,170.898,1.953,-20.996,0.000,0
182245.435,12.695,149.414,-11.719,13.184,0.000,0
182245.438,0.977,122.070,-23.926,7.324,0.000,0
182245.442,-13.672,106.934,-10.742,-19.043,0.000,0
182245.446,-17.578,88.867,-18.555,-28.320,0.000,0
182245.450,-17.578,68.359,-26.367,-25.879,0.000,0
182245.454,-13.672,50.781,-19.043,-22.461,0.000,0
182245.458,-10.254,44.434,-1.953,-10.254,0.000,0
182245.462,-22.949,35.156,5.371,-13.184,0.000,0
182245.466,-28.320,8.301,-2.930,-13.184,0.000,0
182245.470,-26.855,-14.160,-16.113,-10.254,0.000,0
182245.474,-41.504,-27.832,-31.738,-20.508,0.000,0
182245.478,-33.203,-29.297,-20.996,-20.508,0.000,0
182245.481,-12.207,-38.086,-8.789,-17.578,0.000,0
182245.485,-4.395,-52.734,-24.414,-2.441,0.000,0
182245.489,-9.277,-51.270,-23.926,-8.789,0.000,0
182245.493,-35.645,-61.523,-18.555,-49.316,0.000,0
182245.497,-36.621,-66.895,-13.672,-42.480,0.000,0
182245.501,-15.137,-77.148,-15.625,-25.391,0.000,0
182245.505,-17.090,-95.215,-36.621,-39.062,0.000,0
182245.509,-33.691,-97.168,-39.062,-47.852,0.000,0
182245.513,-41.504,-97.656,-34.180,-52.246,0.000,0
182245.517,-32.227,-104.980,-34.180,-34.180,0.000,0
182245.520,-20.996,-99.609,-19.043,-19.043,0.000,0
182245.524,-17.090,-87.891,-10.254,-11.719,0.000,0
182245.528,-29.785,-98.145,-17.578,-28.320,0.000,0
182245.532,-46.387,-122.070,-43.457,-48.828,0.000,0
182245.536,-44.434,-129.395,-54.199,-36.133,0.000,0
182245.540,-38.086,-126.465,-48.340,-42.480,0.000,0
182245.544,-22.949,-112.305,-28.809,-37.109,0.000,0
182245.548,-11.719,-106.445,-14.648,-25.391,0.000,0
182245.552,-12.207,-112.793,-16.113,-23.438,0.000,0
182245.556,-21.973,-117.188,-43.457,-30.762,0.000,0
182245.560,-38.086,-115.723,-55.176,-45.898,0.000,0
182245.563,-35.645,-113.281,-35.156,-45.898,0.000,0
182245.567,-26.367,-109.375,-21.484,-37.598,0.000,0
182245.571,-25.391,-97.168,-12.695,-35.645,0.000,0
182245.575,-34.180,-98.145,-15.137,-34.668,0.000,0
182245.579,-42.969,-103.516,-25.879,-48.828,0.000,0
182245.583,-36.621,-105.957,-32.227,-46.875,0.000,0
182245.587,-30.273,-116.699,-40.527,-35.156,0.000,0
182245.591,-32.715,-113.770,-41.016,-34.668,0.000,0
182245.595,-31.738,-98.633,-32.227,-24.902,0.000,0
182245.599,-22.949,-91.797,-26.855,-8.301,0.000,0
182245.603,-1.953,-91.309,-24.902,14.160,0.000,0
182245.606,-11.230,-97.168,-26.367,-6.348,0.000,0
182245.610,-41.504,-104.980,-30.273,-40.527,0.000,0
182245.614,-27.832,-90.820,-22.949,-25.391,0.000,0
182245.618,-2.930,-83.984,-26.367,-1.953,0.000,0
182245.622,-4.395,-90.332,-36.133,-18.066,0.000,0
182245.626,-30.273,-91.797,-36.621,-51.270,0.000,0
182245.630,-21.484,-77.148,-14.648,-37.109,0.000,0
182245.634,6.348,-72.266,-11.230,-22.949,0.000,0
182245.638,0.000,-75.684,-20.996,-16.113,0.000,0
182245.642,-12.695,-75.195,-26.367,-21.484,0.000,0
182245.645,-20.020,-81.055,-31.250,-51.758,0.000,0
182245.649,-16.113,-77.637,-23.438,-49.805,0.000,0
182245.653,2.441,-63.965,-13.672,-21.484,0.000,0
182245.657,10.742,-54.688,-8.789,-17.578,0.000,0
182245.661,-9.277,-59.082,-20.996,-22.461,0.000,0
182245.665,-17.578,-73.242,-42.969,-17.090,0.000,0
182245.669,-4.395,-70.801,-32.227,-13.672,0.000,0
182245.673,-22.461,-72.266,-28.809,-15.625,0.000,0
182245.677,-37.109,-69.336,-28.320,-32.715,0.000,0
182245.681,-20.508,-58.594,-14.648,-33.203,0.000,0
182245.685,-21.484,-61.035,-19.043,-33.691,0.000,0
182245.688,-41.504,-60.059,-20.020,-40.527,0.000,0
182245.692,-17.578,-32.227,-4.395,-18.066,0.000,0
182245.696,-5.859,-29.785,3.418,-16.602,0.000,0
182245.700,-30.273,-63.477,-19.531,-26.855,0.000,0
182245.704,-25.391,-66.406,-30.762,-22.461,0.000,0
182245.708,-32.227,-54.688,-30.762,-40.039,0.000,0
182245.712,-37.109,-45.410,-26.367,-42.969,0.000,0
182245.716,-28.809,-48.828,-20.020,-20.996,0.000,0
182245.720,-17.578,-58.594,-37.109,-10.742,0.000,0
182245.724,-24.902,-62.500,-54.199,-40.039,0.000,0
182245.728,-37.109,-61.523,-41.016,-59.570,0.000,0
182245.731,-25.391,-54.688,-24.414,-31.738,0.000,0
182245.735,-3.906,-37.109,-13.672,-8.301,0.000,0
182245.739,-2.441,-28.809,-8.789,-3.906,0.000,0
182245.743,-32.715,-46.387,-25.391,-32.715,0.000,0
182245.747,-18.066,-51.270,-33.203,-26.367,0.000,0
182245.751,3.418,-47.852,-46.387,-9.766,0.000,0
182245.755,-8.301,-43.457,-36.133,-15.137,0.000,0
182245.759,-21.973,-43.457,-18.555,-17.578,0.000,0
182245.763,-19.531,-42.480,-27.344,-10.742,0.000,0
182245.767,-7.324,-43.945,-25.879,-9.277,0.000,0
182245.770,-18.066,-51.758,-39.551,-26.367,0.000,0
182245.774,-28.809,-44.922,-40.527,-34.668,0.000,0
182245.778,-16.113,-30.273,-26.855,-30.273,0.000,0
182245.782,-0.977,-36.621,-29.297,-25.391,0.000,0
182245.786,-6.348,-43.457,-33.691,-23.438,0.000,0
182245.790,-20.508,-36.133,-31.738,-26.367,0.000,0
182245.794,-25.391,-40.527,-33.691,-41.992,0.000,0
182245.798,-13.672,-44.434,-34.668,-32.715,0.000,0
182245.802,-8.789,-41.992,-32.715,-16.113,0.000,0
182245.806,-18.066,-38.574,-26.855,-26.367,0.000,0
182245.810,-17.578,-31.250,-30.762,-41.504,0.000,0
182245.813,-26.367,-38.574,-38.574,-36.133,0.000,0
182245.817,-22.461,-39.062,-26.367,-14.160,0.000,0
182245.821,-9.766,-26.367,-10.742,-15.625,0.000,0
182245.825,-27.344,-41.504,-29.785,-51.270,0.000,0
182245.829,-29.785,-45.898,-44.434,-50.293,0.000,0
182245.833,-5.371,-27.344,-25.879,-10.254,0.000,0
182245.837,-5.371,-25.879,-24.902,1.953,0.000,0
182245.841,-29.785,-30.762,-30.762,-19.531,0.000,0
182245.845,-38.574,-32.715,-22.949,-36.133,0.000,0
182245.849,-33.691,-45.410,-38.086,-22.949,0.000,0
182245.853,-42.969,-46.875,-45.898,-9.277,0.000,0
182245.856,-41.504,-29.785,-35.645,-12.695,0.000,0
182245.860,-22.461,-26.855,-34.668,-15.137,0.000,0
182245.864,-30.762,-36.133,-32.715,-12.207,0.000,0
182245.868,-28.809,-34.180,-31.738,0.000,0.000,0
182245.872,-26.855,-46.387,-35.156,-12.207,0.000,0
182245.876,-42.480,-55.176,-45.898,-37.598,0.000,0
182245.880,-49.316,-53.223,-48.340,-53.711,0.000,0
182245.884,-22.461,-45.898,-36.133,-34.668,0.000,0
182245.888,-17.090,-45.410,-44.922,-9.277,0.000,0
182245.892,-37.109,-41.992,-48.828,-23.926,0.000,0
182245.895,-35.156,-23.438,-22.949,-37.598,0.000,0
182245.899,-19.043,-19.531,-32.715,-26.367,0.000,0
182245.903,-26.855,-26.855,-52.246,-26.367,0.000,0
182245.907,-49.316,-31.250,-50.293,-47.363,0.000,0
182245.911,-60.059,-46.875,-56.152,-75.684,0.000,0
182245.915,-41.504,-39.551,-44.922,-38.086,0.000,0
182245.919,-27.832,-21.973,-26.367,-10.254,0.000,0
182245.923,-41.992,-28.809,-26.855,-42.969,0.000,0
182245.927,-42.480,-30.762,-39.062,-46.387,0.000,0
182245.931,-18.066,-23.438,-40.039,-20.020,0.000,0
182245.935,3.906,-17.578,-25.879,5.859,0.000,0
182245.938,-13.672,-16.602,-27.832,-5.859,0.000,0
182245.942,-37.598,-24.902,-38.086,-30.273,0.000,0
182245.946,-20.508,-25.391,-48.340,-20.020,0.000,0
182245.950,-23.438,-30.762,-52.246,-21.973,0.000,0
182245.954,-34.180,-32.715,-40.527,-34.668,0.000,0
182245.958,-26.855,-17.090,-41.504,-31.738,0.000,0
182245.962,-26.367,-14.160,-42.480,-33.203,0.000,0
182245.966,-19.043,-18.066,-34.668,-16.602,0.000,0
182245.970,-2.441,-11.230,-32.715,5.859,0.000,0
182245.974,-17.090,-13.672,-24.414,-15.137,0.000,0
182245.978,-29.297,-17.090,-22.461,-23.926,0.000,0
182245.981,-16.113,-20.996,-31.738,-16.113,0.000,0
182245.985,-10.742,-19.531,-33.691,-15.625,0.000,0
182245.989,-11.719,-12.695,-30.273,-17.578,0.000,0
182245.993,-36.621,-29.785,-53.711,-48.828,0.000,0
182245.997,-35.645,-27.344,-53.223,-35.156,0.000,0
182246.001,-15.137,-14.648,-26.855,-9.766,0.000,2
182246.005,-17.090,-19.531,-30.762,-33.203,0.000,0
182246.009,-39.551,-32.227,-55.176,-62.988,0.000,0
182246.013,-53.711,-35.156,-50.781,-63.965,0.000,0
182246.017,-28.320,-25.391,-33.691,-21.484,0.000,0
182246.020,-17.578,-22.461,-30.273,-19.043,0.000,0
182246.024,-49.805,-22.949,-32.227,-45.898,0.000,0
182246.028,-59.570,-29.785,-49.805,-46.387,0.000,0
182246.032,-36.133,-23.438,-39.551,-25.879,0.000,0
182246.036,-15.137,-9.766,-28.320,3.418,0.000,0
182246.040,-18.555,-17.578,-33.691,-22.461,0.000,0
182246.044,-34.180,-32.227,-53.223,-45.410,0.000,0
182246.048,-36.621,-27.832,-55.664,-34.668,0.000,0
182246.052,-22.461,-10.742,-26.855,-23.926,0.000,0
182246.056,-22.949,-17.578,-32.227,-26.367,0.000,0
182246.060,-29.785,-25.391,-35.156,-48.340,0.000,0
182246.063,-22.949,-21.484,-32.715,-43.945,0.000,0
182246.067,-12.695,-16.113,-33.203,-17.090,0.000,0
182246.071,-15.625,-15.137,-28.809,-23.438,0.000,0
182246.075,-30.762,-20.508,-37.598,-43.945,0.000,0
182246.079,-26.367,-21.484,-37.598,-41.016,0.000,0
182246.083,-17.090,-28.320,-43.457,-25.879,0.000,0
182246.087,-22.949,-25.879,-51.758,-21.973,0.000,0
182246.091,-36.621,-20.996,-52.734,-37.109,0.000,0
182246.095,-32.227,-19.531,-39.062,-45.410,0.000,0
182246.099,-29.297,-16.602,-32.227,-36.133,0.000,0
182246.103,-40.527,-28.320,-36.621,-35.156,0.000,0
182246.106,-51.270,-31.738,-41.992,-44.434,0.000,0
182246.110,-42.480,-28.809,-55.176,-39.551,0.000,0
182246.114,-37.598,-33.203,-53.711,-27.344,0.000,0
182246.118,-31.250,-28.809,-37.109,-13.672,0.000,0
182246.122,-27.344,-25.391,-37.598,-17.578,0.000,0
182246.126,-46.387,-30.273,-59.570,-41.016,0.000,0
182246.130,-56.152,-33.203,-65.430,-35.645,0.000,0
182246.134,-37.109,-28.809,-51.758,-17.090,0.000,0
182246.138,-35.156,-27.344,-40.527,-23.438,0.000,0
182246.142,-49.805,-30.762,-46.387,-39.551,0.000,0
182246.145,-38.574,-27.344,-46.875,-31.250,0.000,0
182246.149,-25.879,-25.879,-48.340,-25.391,0.000,0
182246.153,-40.039,-32.227,-59.082,-25.391,0.000,0
182246.157,-43.945,-24.902,-40.527,-35.645,0.000,0
182246.161,-38.574,-21.484,-35.645,-48.828,0.000,0
182246.165,-27.344,-26.855,-44.434,-25.391,0.000,0
182246.169,-23.926,-27.344,-51.758,-13.672,0.000,0
182246.173,-41.016,-32.227,-62.500,-33.203,0.000,0
182246.177,-47.363,-28.809,-52.734,-50.781,0.000,0
182246.181,-35.645,-20.996,-41.992,-33.691,0.000,0
182246.185,-25.879,-17.090,-44.434,-12.207,0.000,0
182246.188,-24.414,-17.578,-39.551,-27.344,0.000,0
182246.192,-35.645,-24.414,-45.410,-44.922,0.000,0
182246.196,-58.105,-34.668,-66.895,-48.828,0.000,0
182246.200,-59.082,-41.016,-73.730,-47.363,0.000,0
182246.204,-48.828,-36.621,-64.941,-46.875,0.000,0
182246.208,-57.617,-35.156,-49.316,-47.852,0.000,0
182246.212,-55.176,-31.250,-45.410,-41.504,0.000,0
182246.216,-32.227,-27.832,-46.387,-30.762,0.000,0
182246.220,-26.367,-27.832,-46.875,-29.785,0.000,0
182246.224,-48.828,-33.203,-60.059,-38.086,0.000,0
182246.228,-54.199,-38.574,-68.848,-41.504,0.000,0
182246.231,-46.387,-39.551,-66.406,-28.320,0.000,0
182246.235,-41.992,-37.598,-54.199,-14.648,0.000,0
182246.239,-35.156,-21.973,-38.574,-17.090,0.000,0
182246.243,-50.781,-21.973,-42.480,-29.785,0.000,0
182246.247,-59.082,-34.668,-56.641,-33.691,0.000,0
182246.251,-43.457,-34.668,-64.941,-30.762,0.000,0
182246.255,-19.531,-10.742,-40.039,-17.090,0.000,0
182246.259,-20.996,-0.977,-24.902,-30.762,0.000,0
182246.263,-40.527,-26.855,-59.082,-52.734,0.000,0
182246.267,-33.203,-44.922,-80.566,-33.203,0.000,0
182246.270,-30.762,-39.551,-77.148,-22.461,0.000,0
182246.274,-31.738,-31.250,-64.453,-39.551,0.000,0
182246.278,-28.320,-30.762,-56.152,-47.363,0.000,0
182246.282,-8.301,-10.742,-32.715,-6.836,0.000,0
182246.286,8.789,3.418,-16.113,13.184,0.000,0
182246.290,-17.578,-23.438,-45.410,-37.598,0.000,0
182246.294,-41.992,-41.016,-66.895,-56.641,0.000,0
182246.298,-39.062,-37.598,-65.430,-37.598,0.000,0
182246.302,-29.785,-30.273,-61.523,-24.902,0.000,0
182246.306,-37.598,-32.227,-58.594,-27.832,0.000,0
182246.310,-48.340,-30.273,-60.547,-41.016,0.000,0
182246.313,-39.551,-20.508,-61.035,-28.320,0.000,0
182246.317,-27.344,-16.602,-51.758,-19.531,0.000,0
182246.321,-20.020,-12.695,-41.504,-21.973,0.000,0
182246.325,-21.484,-7.812,-38.574,-22.949,0.000,0
182246.329,-32.227,-14.160,-39.062,-22.949,0.000,0
182246.333,-21.973,-7.812,-26.367,5.371,0.000,0
182246.337,-18.066,-8.301,-23.438,-4.395,0.000,0
182246.341,-44.922,-26.855,-50.293,-36.133,0.000,0
182246.345,-50.781,-31.738,-69.336,-29.297,0.000,0
182246.349,-31.738,-28.320,-62.500,-16.602,0.000,0
182246.353,-20.020,-23.926,-50.293,-16.113,0.000,0
182246.356,-32.715,-29.297,-52.246,-34.668,0.000,0
182246.360,-30.762,-24.902,-43.945,-31.738,0.000,0
182246.364,-7.812,-9.277,-31.250,2.441,0.000,0
182246.368,-8.789,-16.602,-33.203,2.930,0.000,0
182246.372,-30.762,-27.832,-42.480,-19.043,0.000,0
182246.376,-39.551,-26.855,-43.457,-34.180,0.000,0
182246.380,-30.273,-21.973,-39.551,-28.320,0.000,0
182246.384,-13.184,-17.090,-39.551,-4.883,0.000,0
182246.388,-10.742,-13.184,-32.715,-5.371,0.000,0
182246.392,-31.250,-17.578,-30.762,-32.227,0.000,0
182246.395,-22.949,-12.207,-23.926,-40.039,0.000,0
182246.399,-11.719,-21.973,-37.598,-34.180,0.000,0
182246.403,-19.043,-30.762,-49.805,-20.508,0.000,0
182246.407,-21.973,-24.414,-43.945,-13.184,0.000,0
182246.411,-33.691,-23.438,-44.922,-25.879,0.000,0
182246.415,-22.949,-18.555,-40.527,-25.391,0.000,0
182246.419,-9.766,-17.578,-38.086,-7.324,0.000,0
182246.423,-32.715,-25.391,-55.664,-19.043,0.000,0
182246.427,-46.387,-36.133,-68.848,-41.504,0.000,0
182246.431,-38.574,-38.086,-63.477,-29.785,0.000,0
182246.435,-26.855,-34.668,-54.688,-24.902,0.000,0
182246.438,-27.832,-33.691,-51.270,-42.480,0.000,0
182246.442,-29.785,-23.926,-50.293,-45.410,0.000,0
182246.446,-28.809,-6.836,-45.898,-20.996,0.000,0
182246.450,3.418,13.672,-17.578,17.578,0.000,0
182246.454,13.184,-5.859,-18.555,11.230,0.000,0
182246.458,-38.086,-40.527,-58.105,-35.156,0.000,0
182246.462,-72.754,-42.969,-75.195,-55.664,0.000,0
182246.466,-59.570,-34.180,-74.219,-34.180,0.000,0
182246.470,-38.574,-31.738,-61.035,-7.812,0.000,0
182246.474,-41.992,-25.391,-44.434,-13.184,0.000,0
182246.478,-36.621,-5.371,-31.738,-19.531,0.000,0
182246.481,-14.648,-1.953,-33.691,0.488,0.000,0
182246.485,-6.348,-7.812,-30.273,21.484,0.000,0
182246.489,-14.160,-3.906,-21.973,7.812,0.000,0
182246.493,-31.738,-15.137,-28.809,-21.484,0.000,0
182246.497,-29.785,-21.484,-37.598,-12.207,0.000,0
182246.501,-31.250,-23.438,-49.316,0.000,0.000,0
182246.505,-40.527,-24.902,-49.805,-7.324,0.000,0
182246.509,-53.711,-30.273,-47.852,-34.180,0.000,0
182246.513,-45.898,-25.391,-43.457,-34.180,0.000,0
182246.517,-24.414,-21.484,-43.457,-17.090,0.000,0
182246.520,-27.344,-23.438,-50.293,-9.277,0.000,0
182246.524,-32.715,-17.578,-45.410,-14.160,0.000,0
182246.528,-24.414,-7.324,-28.809,-11.719,0.000,0
182246.532,-14.160,2.441,-12.207,13.184,0.000,0
182246.536,-20.020,-11.230,-22.949,11.719,0.000,0
182246.540,-42.480,-34.180,-48.340,-25.391,0.000,0
182246.544,-49.805,-36.133,-51.758,-51.270,0.000,0
182246.548,-29.785,-27.344,-41.016,-33.203,0.000,1
182246.552,-6.348,-16.602,-38.086,8.789,0.000,0
182246.556,-12.695,-8.789,-35.156,-1.465,0.000,0
182246.560,-38.086,-20.508,-51.758,-35.156,0.000,0
182246.563,-42.480,-39.062,-63.477,-30.273,0.000,0
182246.567,-38.086,-39.062,-55.664,-11.719,0.000,0
182246.571,-37.109,-29.297,-50.293,-11.230,0.000,0
182246.575,-45.898,-20.020,-58.105,-25.391,0.000,0
182246.579,-44.922,-16.602,-57.129,-19.531,0.000,0
182246.583,-32.715,-18.066,-43.945,-1.953,0.000,0
182246.587,-21.484,-14.648,-37.598,9.277,0.000,0
182246.591,-38.574,-17.090,-44.922,-10.254,0.000,0
182246.595,-50.293,-20.020,-45.410,-30.762,0.000,0
182246.599,-31.738,-11.230,-29.297,-11.230,0.000,0
182246.603,-31.250,-12.207,-51.758,-14.648,0.000,0
182246.606,-44.434,-18.066,-59.082,-35.645,0.000,0
182246.610,-60.547,-25.391,-42.480,-57.129,0.000,0
182246.614,-52.734,-25.879,-39.062,-50.293,0.000,0
182246.618,-30.273,-13.184,-30.762,-21.484,0.000,0
182246.622,-36.621,-14.160,-38.086,-22.461,0.000,0
182246.626,-51.758,-15.625,-47.363,-37.598,0.000,0
182246.630,-52.246,-15.625,-48.828,-32.227,0.000,0
182246.634,-35.156,-13.184,-36.133,-14.160,0.000,0
182246.638,-36.133,-7.324,-37.109,-11.719,0.000,0
182246.642,-53.223,-8.301,-41.992,-26.855,0.000,0
182246.645,-69.336,-24.414,-47.852,-43.457,0.000,0
182246.649,-67.383,-35.645,-56.641,-15.137,0.000,0
182246.653,-56.152,-32.715,-50.781,-16.602,0.000,0
182246.657,-48.828,-19.531,-41.992,-45.410,0.000,0
182246.661,-52.246,-17.578,-39.551,-44.922,0.000,0
182246.665,-32.715,-20.996,-53.223,-25.391,0.000,0
182246.669,-7.812,-12.695,-55.664,3.418,0.000,0
182246.673,-47.363,-29.297,-52.734,-41.016,0.000,0
182246.677,-67.871,-25.391,-44.434,-74.219,0.000,0
182246.681,-50.781,-17.090,-42.480,-40.039,0.000,0
182246.685,-54.688,-22.949,-55.176,-23.438,0.000,0
182246.688,-66.895,-18.066,-59.082,-41.504,0.000,0
182246.692,-76.660,-11.230,-59.570,-55.176,0.000,0
182246.696,-57.129,-8.301,-44.922,-40.039,0.000,0
182246.700,-38.574,-9.766,-41.992,-18.555,0.000,0
182246.704,-50.293,-8.789,-36.133,-16.113,0.000,0
182246.708,-65.918,-17.578,-37.109,-37.598,0.000,0
182246.712,-53.711,-12.207,-34.668,-39.062,0.000,0
182246.716,-28.809,-3.906,-26.855,-8.301,0.000,0
182246.720,-28.809,-18.555,-33.691,2.930,0.000,0
182246.724,-47.363,-45.898,-46.387,-18.066,0.000,0
182246.728,-59.082,-67.871,-62.012,-40.527,0.000,0
182246.731,-50.781,-73.242,-64.941,-45.898,0.000,0
182246.735,-50.293,-73.242,-61.523,-34.180,0.000,0
182246.739,-61.523,-64.941,-59.082,-34.180,0.000,0
182246.743,-62.988,-55.664,-50.293,-36.133,0.000,0
182246.747,-42.969,-47.363,-33.691,-20.020,0.000,0
182246.751,-36.621,-48.828,-29.785,-18.555,0.000,0
182246.755,-39.551,-46.387,-35.156,-15.137,0.000,0
182246.759,-48.828,-39.062,-37.109,-15.137,0.000,0
182246.763,-56.152,-43.457,-36.133,-20.996,0.000,0
182246.767,-50.293,-55.664,-55.176,-20.020,0.000,0
182246.770,-50.781,-55.664,-57.617,-25.879,0.000,0
182246.774,-58.105,-47.852,-59.082,-30.762,0.000,0
182246.778,-61.035,-41.992,-53.223,-25.391,0.000,0
182246.782,-53.223,-35.156,-30.273,-9.766,0.000,0
182246.786,-50.293,-29.297,-27.344,3.418,0.000,0
182246.790,-53.223,-25.391,-25.391,-9.277,0.000,0
182246.794,-61.523,-31.738,-41.992,-39.551,0.000,0
182246.798,-60.059,-39.551,-60.059,-45.410,0.000,0
182246.802,-53.711,-35.645,-51.270,-21.484,0.000,0
182246.806,-57.129,-26.855,-39.551,-33.203,0.000,0
182246.810,-49.316,-12.695,-29.297,-42.480,0.000,0
182246.813,-46.387,-21.973,-29.785,-33.203,0.000,0
182246.817,-51.270,-42.480,-45.410,-46.875,0.000,0
182246.821,-52.734,-40.527,-45.410,-51.758,0.000,0
182246.825,-66.406,-38.574,-48.340,-49.805,0.000,0
182246.829,-60.059,-34.668,-48.828,-39.551,0.000,0
182246.833,-36.621,-22.949,-44.434,-18.066,0.000,0
182246.837,-33.691,-19.531,-50.781,-7.812,0.000,0
182246.841,-58.105,-13.672,-42.480,-15.137,0.000,0
182246.845,-53.223,-6.836,-19.043,-8.301,0.000,0
182246.849,-37.109,-12.695,-9.277,2.930,0.000,0
182246.853,-46.875,-19.043,-17.090,-14.160,0.000,0
182246.856,-55.664,-15.137,-24.414,-34.180,0.000,0
182246.860,-45.410,-13.672,-24.414,-29.297,0.000,0
182246.864,-32.227,-16.113,-28.320,-11.230,0.000,0
182246.868,-37.109,-19.531,-32.715,-21.973,0.000,0
182246.872,-39.551,-13.672,-34.668,-37.598,0.000,0
182246.876,-34.180,-4.395,-33.203,-32.715,0.000,0
182246.880,-29.297,-6.836,-33.203,-24.414,0.000,0
182246.884,-11.719,7.324,-8.789,2.441,0.000,0
182246.888,-12.207,12.695,6.348,-0.488,0.000,0
182246.892,-29.297,6.348,-10.254,-22.949,0.000,0
182246.895,-29.785,1.953,-22.461,-5.371,0.000,0
182246.899,-20.508,1.465,-17.578,16.113,0.000,0
182246.903,-12.207,8.301,-7.812,7.812,0.000,0
182246.907,-20.508,16.602,3.418,-7.324,0.000,0
182246.911,-20.508,24.414,1.465,7.324,0.000,0
182246.915,-5.859,20.996,-7.812,31.738,0.000,0
182246.919,4.395,23.926,1.465,37.598,0.000,0
182246.923,6.348,37.109,19.043,30.762,0.000,0
182246.927,2.930,40.527,13.672,19.043,0.000,0
182246.931,11.719,37.598,13.672,19.043,0.000,0
182246.935,5.859,29.297,11.719,22.461,0.000,0
182246.938,-20.996,12.207,-10.742,7.812,0.000,0
182246.942,-25.391,11.230,-18.066,-5.859,0.000,0
182246.946,-9.277,14.160,-16.602,-5.859,0.000,0
182246.950,-11.719,7.812,-11.719,-6.348,0.000,0
182246.954,-19.531,13.184,-1.465,-1.953,0.000,0
182246.958,-11.230,20.508,7.812,3.906,0.000,0
182246.962,-16.602,6.348,-5.371,2.441,0.000,0
182246.966,-4.395,11.230,0.488,19.043,0.000,0
182246.970,-9.766,15.625,8.301,2.441,0.000,0
182246.974,-32.715,7.324,-12.695,-20.020,0.000,0
182246.978,-27.344,4.883,-22.949,-12.695,0.000,0
182246.981,-6.836,2.930,-15.625,9.277,0.000,0
182246.985,-13.184,-10.742,-33.691,4.883,0.000,0
182246.989,-41.016,-9.277,-36.621,-24.414,0.000,0
182246.993,-40.039,-0.977,-22.461,-24.414,0.000,0
182246.997,-22.949,-1.953,-12.695,-10.742,0.000,0
182247.001,-13.184,2.441,-5.371,2.441,0.000,0
182247.005,-16.602,5.371,-9.277,4.883,0.000,0
182247.009,-25.879,0.000,-9.766,-24.902,0.000,0
182247.013,-12.695,-3.418,-15.625,-12.695,0.000,0
182247.017,-7.324,-4.395,-28.320,14.160,0.000,0
182247.020,-31.250,-8.789,-29.785,-13.184,0.000,0
182247.024,-36.133,-12.695,-26.855,-34.668,0.000,0
182247.028,-16.602,-5.859,-21.973,-22.949,0.000,0
182247.032,-0.977,14.648,-2.930,8.789,0.000,0
182247.036,-11.719,11.719,-7.812,1.465,0.000,0
182247.040,-16.113,6.836,-10.254,-14.160,0.000,0
182247.044,-1.953,2.441,-6.836,3.906,0.000,0
182247.048,-12.695,-18.066,-25.391,-0.488,0.000,0
182247.052,-46.875,-19.531,-36.621,-21.973,0.000,0
182247.056,-64.941,-14.648,-47.852,-47.852,0.000,0
182247.060,-66.895,-10.254,-44.922,-39.551,0.000,0
182247.063,-48.340,-6.836,-26.367,-13.184,0.000,0
182247.067,-40.039,-6.836,-26.367,-20.020,0.000,0
182247.071,-47.852,-1.465,-25.391,-33.203,0.000,0
182247.075,-58.594,-5.859,-29.785,-33.203,0.000,0
182247.079,-57.129,-13.184,-32.227,-25.391,0.000,0
182247.083,-37.598,-7.324,-20.020,-17.090,0.000,0
182247.087,-48.828,-10.254,-19.043,-30.762,0.000,0
182247.091,-67.871,-16.113,-27.344,-35.156,0.000,0
182247.095,-52.734,-11.230,-22.461,-17.578,0.000,0
182247.099,-36.621,-17.090,-27.344,-17.578,0.000,0
182247.103,-49.805,-23.926,-41.504,-27.344,0.000,2
182247.106,-66.895,-20.020,-38.086,-34.668,0.000,0
182247.110,-51.758,-12.207,-14.160,-20.508,0.000,0
182247.114,-31.738,-17.578,-13.672,1.953,0.000,0
182247.118,-25.879,-17.090,-22.461,1.465,0.000,0
182247.122,-44.922,-15.625,-23.438,-11.719,0.000,0
182247.126,-57.129,-20.508,-33.691,-20.996,0.000,0
182247.130,-41.016,-20.996,-43.457,-21.973,0.000,0
182247.134,-38.574,-21.973,-43.945,-22.949,0.000,0
182247.138,-49.316,-27.344,-41.992,-38.086,0.000,0
182247.142,-47.363,-25.391,-28.809,-35.156,0.000,0
182247.145,-41.016,-18.066,-18.555,-29.297,0.000,0
182247.149,-39.062,-20.996,-27.344,-27.832,0.000,0
182247.153,-41.504,-19.043,-35.645,-21.484,0.000,0
182247.157,-32.715,-10.254,-18.066,-19.043,0.000,0
182247.161,-33.203,-14.160,-18.555,-9.766,0.000,0
182247.165,-43.945,-18.555,-28.809,-12.695,0.000,0
182247.169,-44.434,-14.160,-25.391,-18.066,0.000,0
182247.173,-48.828,-13.672,-26.367,-30.762,0.000,0
182247.177,-54.199,-17.578,-36.621,-38.086,0.000,0
182247.181,-44.922,-21.484,-39.551,-22.461,0.000,0
182247.185,-42.969,-22.461,-28.809,-25.879,0.000,0
182247.188,-51.270,-20.020,-27.344,-38.574,0.000,0
182247.192,-60.059,-22.949,-34.668,-38.086,0.000,0
182247.196,-46.875,-23.438,-29.297,-32.715,0.000,0
182247.200,-35.156,-22.461,-34.180,-33.203,0.000,0
182247.204,-35.645,-13.184,-20.508,-39.551,0.000,0
182247.208,-39.062,-12.695,-10.742,-53.711,0.000,0
182247.212,-47.852,-23.926,-24.902,-53.711,0.000,0
182247.216,-43.457,-28.809,-34.180,-41.992,0.000,0
182247.220,-30.762,-19.531,-30.273,-33.203,0.000,0
182247.224,-30.762,-15.625,-33.203,-41.016,0.000,0
182247.228,-23.926,-20.996,-35.156,-28.320,0.000,0
182247.231,-18.066,-21.484,-32.227,-15.137,0.000,0
182247.235,-33.691,-16.113,-32.715,-46.875,0.000,0
182247.239,-53.711,-20.508,-36.621,-63.477,0.000,0
182247.243,-57.129,-32.227,-36.621,-67.871,0.000,0
182247.247,-37.598,-26.367,-28.320,-56.641,0.000,0
182247.251,-41.992,-31.250,-40.527,-49.805,0.000,0
182247.255,-69.336,-34.180,-44.434,-63.477,0.000,0
182247.259,-63.477,-20.996,-30.273,-65.918,0.000,0
182247.263,-38.574,-18.066,-27.344,-56.641,0.000,0
182247.267,-32.227,-23.438,-30.762,-53.223,0.000,0
182247.270,-37.109,-19.043,-27.344,-58.594,0.000,0
182247.274,-51.270,-31.250,-36.621,-78.125,0.000,0
182247.278,-50.293,-40.527,-52.734,-81.543,0.000,0
182247.282,-31.738,-29.297,-41.504,-75.684,0.000,0
182247.286,-34.180,-26.855,-28.320,-83.496,0.000,0
182247.290,-43.457,-30.762,-43.457,-89.844,0.000,0
182247.294,-38.574,-26.855,-39.551,-71.289,0.000,0
182247.298,-24.902,-22.949,-23.926,-50.781,0.000,0
182247.302,-29.785,-20.508,-20.508,-55.176,0.000,0
182247.306,-46.875,-24.902,-32.715,-79.102,0.000,0
182247.310,-32.227,-24.414,-29.785,-83.008,0.000,0
182247.313,-6.348,-7.812,-10.742,-58.594,0.000,0
182247.317,-13.672,-2.441,-7.812,-47.852,0.000,0
182247.321,-46.875,-21.484,-27.832,-76.172,0.000,0
182247.325,-64.941,-38.574,-47.363,-114.258,0.000,0
182247.329,-58.594,-37.598,-50.781,-96.191,0.000,0
182247.333,-39.551,-31.738,-46.387,-62.012,0.000,0
182247.337,-37.109,-36.133,-58.594,-58.594,0.000,0
182247.341,-45.898,-35.156,-57.617,-72.754,0.000,0
182247.345,-24.414,-19.043,-27.832,-68.848,0.000,0
182247.349,-14.648,-19.531,-22.461,-41.504,0.000,0
182247.353,-26.367,-20.020,-23.438,-54.688,0.000,0
182247.356,-27.832,-8.301,-16.113,-58.105,0.000,0
182247.360,-26.367,-16.602,-29.297,-55.664,0.000,0
182247.364,-24.414,-26.367,-41.504,-75.684,0.000,0
182247.368,-32.227,-25.879,-40.039,-75.684,0.000,0
182247.372,-39.551,-23.438,-39.062,-79.102,0.000,0
182247.376,-39.551,-16.113,-33.691,-78.613,0.000,0
182247.380,-35.645,-10.254,-27.832,-58.594,0.000,0
182247.384,-18.555,-7.324,-19.043,-55.176,0.000,0
182247.388,-34.668,-15.137,-31.738,-80.566,0.000,0
182247.392,-55.176,-24.414,-50.781,-92.773,0.000,0
182247.395,-45.898,-30.273,-51.758,-73.730,0.000,0
182247.399,-23.438,-21.973,-34.180,-56.152,0.000,0
182247.403,-1.953,0.000,-6.348,-52.734,0.000,0
182247.407,-12.207,-0.977,-11.719,-48.828,0.000,0
182247.411,-17.578,-17.090,-30.762,-41.016,0.000,0
182247.415,-0.977,-21.973,-33.691,-41.992,0.000,0
182247.419,-2.441,-16.113,-30.762,-51.758,0.000,0
182247.423,-17.578,-18.066,-35.645,-73.242,0.000,0
182247.427,-29.297,-21.973,-33.203,-83.984,0.000,0
182247.431,-22.461,-20.996,-31.738,-65.918,0.000,0
182247.435,-18.066,-22.949,-37.109,-58.105,0.000,0
182247.438,-21.973,-18.066,-25.879,-68.359,0.000,0
182247.442,-13.184,-8.301,-12.207,-83.008,0.000,0
182247.446,10.742,-0.977,-5.859,-73.242,0.000,0
182247.450,10.742,-8.301,-9.766,-63.965,0.000,0
182247.454,-11.230,-21.973,-19.043,-82.520,0.000,0
182247.458,-24.414,-23.438,-30.762,-96.191,0.000,0
182247.462,-21.484,-22.461,-27.344,-91.797,0.000,0
182247.466,-14.648,-25.879,-25.391,-85.938,0.000,0
182247.470,-24.902,-27.344,-28.809,-94.727,0.000,0
182247.474,-31.738,-20.020,-21.973,-104.492,0.000,0
182247.478,-24.902,-15.137,-16.602,-103.516,0.000,0
182247.481,-6.348,-8.789,-14.648,-99.609,0.000,0
182247.485,-7.324,-11.230,-22.949,-98.633,0.000,0
182247.489,-24.414,-20.508,-30.273,-109.375,0.000,0
182247.493,-18.555,-17.578,-32.227,-113.281,0.000,0
182247.497,-7.812,-13.672,-22.461,-97.168,0.000,0
182247.501,3.906,0.000,-0.977,-95.703,0.000,0
182247.505,7.812,5.859,5.371,-108.887,0.000,0
182247.509,-13.184,-11.230,-8.301,-124.512,0.000,0
182247.513,-17.090,-21.973,-20.508,-127.930,0.000,0
182247.517,-1.465,-24.414,-27.344,-120.117,0.000,0
182247.520,-7.324,-26.367,-32.715,-125.977,0.000,0
182247.524,-16.602,-23.926,-28.320,-138.672,0.000,0
182247.528,-2.441,-14.648,-8.789,-126.465,0.000,0
182247.532,20.508,-2.441,3.418,-104.980,0.000,0
182247.536,7.324,-11.230,-14.160,-109.375,0.000,0
182247.540,-22.461,-21.973,-28.320,-147.461,0.000,0
182247.544,-28.320,-25.879,-35.156,-170.898,0.000,0
182247.548,-15.137,-24.902,-24.902,-156.250,0.000,0
182247.552,3.418,-15.137,-8.789,-150.391,0.000,0
182247.556,-9.766,-16.113,-13.184,-172.363,0.000,0
182247.560,-13.672,-7.812,-11.230,-173.828,0.000,0
182247.563,9.766,-1.465,-12.695,-158.203,0.000,0
182247.567,4.395,-10.254,-19.043,-153.320,0.000,0
182247.571,0.977,-2.441,-15.137,-135.254,0.000,0
182247.575,3.418,-4.883,-26.855,-137.207,0.000,0
182247.579,-16.602,-21.973,-26.855,-171.387,0.000,0
182247.583,-19.531,-27.832,-26.367,-178.223,0.000,0
182247.587,-11.719,-18.555,-26.855,-167.480,0.000,0
182247.591,-14.648,-12.207,-15.625,-172.852,0.000,0
182247.595,-11.719,-14.160,-11.230,-165.039,0.000,0
182247.599,-13.672,-17.578,-14.648,-167.480,0.000,0
182247.603,-29.297,-23.926,-26.855,-201.172,0.000,0
182247.606,-37.109,-21.484,-32.715,-205.078,0.000,0
182247.610,-32.715,-18.066,-28.809,-194.824,0.000,0
182247.614,-7.812,-6.348,-14.160,-184.570,0.000,0
182247.618,-2.930,-3.418,-5.371,-178.223,0.000,0
182247.622,-19.531,-17.090,-11.719,-199.707,0.000,0
182247.626,-12.695,-17.578,-18.555,-203.125,0.000,0
182247.630,-3.906,-19.531,-24.902,-193.359,0.000,0
182247.634,-3.418,-22.461,-27.344,-186.523,0.000,0
182247.638,-5.859,-12.695,-19.531,-178.711,0.000,0
182247.642,-8.789,-7.812,-16.113,-189.941,0.000,0
182247.645,-3.418,-13.672,-21.973,-187.500,0.000,0
182247.649,-0.488,-11.230,-10.254,-159.668,0.000,0
182247.653,-4.395,-0.488,3.906,-154.785,0.000,0
182247.657,-21.484,-12.207,-9.277,-180.664,0.000,0
182247.661,-20.996,-17.578,-11.230,-189.941,0.000,0
182247.665,-7.812,-12.695,-11.719,-165.039,0.000,0
182247.669,-8.301,-13.672,-24.414,-159.668,0.000,0
182247.673,-13.184,-8.301,-15.625,-162.598,0.000,0
182247.677,-16.602,-14.160,-14.160,-159.180,0.000,0
182247.681,-18.066,-21.973,-26.367,-170.410,0.000,0
182247.685,-3.906,-10.742,-20.020,-154.297,0.000,0
182247.688,-4.883,-5.859,-11.719,-149.902,0.000,0
182247.692,-15.625,-7.812,-6.836,-150.879,0.000,0
182247.696,-4.395,-9.277,-2.930,-122.070,0.000,0
182247.700,4.883,-15.137,-9.766,-118.652,0.000,0
182247.704,-7.324,-12.207,-11.719,-128.906,0.000,0
182247.708,-19.531,-10.742,-11.230,-128.418,0.000,0
182247.712,-12.207,-11.230,-18.066,-117.188,0.000,0
182247.716,-0.977,-6.836,-11.719,-113.770,0.000,0
182247.720,-20.020,-6.348,-4.883,-136.230,0.000,0
182247.724,-42.969,-8.789,-14.160,-143.066,0.000,1
182247.728,-28.809,-0.977,-10.742,-113.770,0.000,0
182247.731,-17.578,-7.812,-10.254,-98.633,0.000,0
182247.735,-16.602,-8.789,-11.230,-97.656,0.000,0
182247.739,-30.762,-6.348,-11.230,-120.117,0.000,0
182247.743,-40.527,-10.254,-18.555,-128.906,0.000,0
182247.747,-27.344,-7.324,-26.367,-102.051,0.000,0
182247.751,-23.926,-2.930,-20.020,-93.262,0.000,0
182247.755,-20.996,7.812,-4.883,-93.750,0.000,0
182247.759,-18.555,10.254,0.000,-97.168,0.000,0
182247.763,-8.789,2.441,-11.230,-82.031,0.000,0
182247.767,4.395,9.277,-7.812,-55.176,0.000,0
182247.770,-13.184,11.230,-10.742,-74.219,0.000,0
182247.774,-20.508,5.859,-24.902,-86.914,0.000,0
182247.778,0.488,13.672,-19.531,-62.012,0.000,0
182247.782,-5.371,5.859,-18.066,-55.176,0.000,0
182247.786,-16.602,-5.859,-19.531,-61.035,0.000,0
182247.790,-22.461,-1.953,-22.461,-76.660,0.000,0
182247.794,-26.855,0.977,-19.531,-74.707,0.000,0
182247.798,-20.020,-2.441,-14.648,-62.012,0.000,0
182247.802,-23.438,-0.488,-17.090,-71.777,0.000,0
182247.806,-29.785,8.789,-19.531,-87.402,0.000,0
182247.810,-30.762,8.301,-22.949,-94.727,0.000,0
182247.813,-24.902,9.277,-18.555,-63.965,0.000,0
182247.817,-28.809,6.348,-27.832,-63.965,0.000,0
182247.821,-42.969,-1.465,-46.387,-94.727,0.000,0
182247.825,-44.922,0.977,-43.945,-89.844,0.000,0
182247.829,-26.855,6.836,-27.344,-64.453,0.000,0
182247.833,-6.348,10.254,-21.484,-57.129,0.000,0
182247.837,-20.020,8.789,-18.555,-82.520,0.000,0
182247.841,-31.738,7.812,-16.113,-112.793,0.000,0
182247.845,-21.973,4.395,-30.762,-109.863,0.000,0
182247.849,-10.742,4.395,-32.715,-82.520,0.000,0
182247.853,-18.555,4.883,-30.762,-77.148,0.000,0
182247.856,-39.551,1.953,-39.551,-104.980,0.000,0
182247.860,-40.039,4.395,-47.363,-106.934,0.000,0
182247.864,-31.250,3.906,-45.410,-78.125,0.000,0
182247.868,-33.203,0.488,-41.016,-79.102,0.000,0
182247.872,-37.598,10.742,-36.621,-106.934,0.000,0
182247.876,-28.320,25.391,-30.273,-103.516,0.000,0
182247.880,-15.625,24.414,-35.156,-75.684,0.000,0
182247.884,-21.973,19.531,-36.621,-69.824,0.000,0
182247.888,-32.227,15.625,-32.227,-79.590,0.000,0
182247.892,-36.133,3.906,-47.852,-103.027,0.000,0
182247.895,-36.133,-3.906,-63.477,-111.816,0.000,0
182247.899,-24.902,3.906,-46.875,-93.750,0.000,0
182247.903,-23.438,13.184,-42.969,-98.145,0.000,0
182247.907,-32.715,14.648,-45.410,-120.117,0.000,0
182247.911,-30.273,15.625,-41.016,-112.793,0.000,0
182247.915,-36.621,10.742,-47.852,-100.098,0.000,0
182247.919,-48.340,7.812,-54.688,-103.516,0.000,0
182247.923,-47.363,11.230,-62.012,-117.188,0.000,0
182247.927,-56.641,11.719,-59.082,-115.234,0.000,0
182247.931,-59.570,9.766,-65.430,-104.980,0.000,0
182247.935,-41.016,20.996,-54.199,-94.727,0.000,0
182247.938,-44.922,21.484,-35.645,-105.957,0.000,0
182247.942,-66.895,8.301,-50.293,-125.977,0.000,0
182247.946,-63.477,10.254,-57.129,-125.488,0.000,0
182247.950,-52.734,16.602,-50.293,-107.422,0.000,0
182247.954,-63.477,12.695,-57.129,-120.605,0.000,0
182247.958,-88.379,7.324,-68.359,-151.855,0.000,0
182247.962,-85.938,8.789,-68.848,-131.836,0.000,0
182247.966,-68.848,13.184,-65.430,-107.422,0.000,0
182247.970,-61.035,18.066,-78.125,-114.258,0.000,0
182247.974,-61.523,25.879,-63.477,-131.348,0.000,0
182247.978,-57.617,23.438,-55.664,-139.648,0.000,0
182247.981,-42.480,22.949,-69.336,-111.816,0.000,0
182247.985,-40.527,25.879,-64.941,-110.840,0.000,0
182247.989,-62.988,28.320,-61.523,-128.906,0.000,0
182247.993,-61.523,34.180,-62.012,-120.117,0.000,0
182247.997,-41.992,34.668,-62.988,-124.023,0.000,0
182248.001,-59.570,21.484,-86.426,-130.371,0.000,0
182248.005,-81.543,18.066,-91.797,-133.789,0.000,0
182248.009,-83.496,22.461,-81.055,-135.254,0.000,0
182248.013,-65.430,29.297,-71.777,-116.699,0.000,0
182248.017,-54.688,37.598,-52.734,-112.305,0.000,0
182248.020,-67.383,35.156,-57.617,-119.629,0.000,0
182248.024,-89.355,26.367,-73.730,-139.160,0.000,0
182248.028,-93.750,23.438,-79.590,-138.184,0.000,0
182248.032,-79.590,23.926,-84.473,-120.605,0.000,0
182248.036,-86.914,28.320,-73.730,-131.836,0.000,0
182248.040,-104.980,33.203,-70.801,-133.301,0.000,0
182248.044,-106.934,28.320,-82.031,-136.230,0.000,0
182248.048,-99.121,17.090,-91.309,-146.484,0.000,0
182248.052,-106.445,16.113,-91.309,-149.902,0.000,0
182248.056,-108.398,20.996,-89.844,-162.109,0.000,0
182248.060,-99.609,26.367,-88.867,-164.551,0.000,0
182248.063,-92.285,24.414,-85.938,-149.414,0.000,0
182248.067,-84.473,25.391,-86.914,-138.672,0.000,0
182248.071,-84.961,36.621,-86.914,-153.320,0.000,0
182248.075,-83.008,40.039,-69.336,-170.898,0.000,0
182248.079,-71.777,40.039,-59.570,-155.273,0.000,0
182248.083,-83.008,31.250,-79.590,-136.230,0.000,0
182248.087,-98.633,20.996,-95.703,-153.809,0.000,0
182248.091,-103.027,17.090,-100.098,-176.270,0.000,0
182248.095,-83.984,20.996,-95.703,-163.574,0.000,0
182248.099,-65.918,28.809,-89.844,-140.137,0.000,0
182248.103,-73.242,30.762,-88.379,-134.766,0.000,0
182248.106,-78.613,31.738,-97.656,-145.508,0.000,0
182248.110,-72.754,28.809,-100.586,-151.855,0.000,0
182248.114,-68.848,21.973,-95.703,-143.555,0.000,0
182248.118,-71.777,19.531,-105.957,-147.461,0.000,0
182248.122,-68.359,33.203,-95.215,-153.320,0.000,0
182248.126,-54.688,44.922,-78.613,-146.484,0.000,0
182248.130,-43.457,41.992,-81.543,-125.000,0.000,0
182248.134,-44.922,30.273,-92.773,-129.883,0.000,0
182248.138,-47.363,38.086,-89.844,-140.625,0.000,0
182248.142,-47.363,47.852,-86.426,-129.883,0.000,0
182248.145,-50.781,35.156,-95.215,-123.047,0.000,0
182248.149,-44.922,29.297,-96.191,-122.070,0.000,0
182248.153,-52.246,27.344,-99.121,-136.230,0.000,0
182248.157,-62.500,32.227,-101.074,-143.555,0.000,0
182248.161,-40.039,47.363,-91.309,-116.699,0.000,0
182248.165,-30.762,37.598,-92.773,-103.027,0.000,0
182248.169,-39.062,34.668,-92.773,-106.934,0.000,0
182248.173,-42.480,49.316,-85.449,-111.328,0.000,0
182248.177,-46.387,37.109,-96.191,-120.605,0.000,0
182248.181,-53.223,18.555,-108.398,-127.441,0.000,0
182248.185,-59.082,21.973,-114.258,-125.000,0.000,0
182248.188,-70.801,23.926,-114.746,-148.926,0.000,0
182248.192,-62.012,34.668,-101.562,-170.898,0.000,0
182248.196,-32.227,44.922,-96.680,-146.484,0.000,0
182248.200,-30.762,40.527,-102.051,-142.090,0.000,0
182248.204,-48.828,43.945,-109.863,-165.039,0.000,0
182248.208,-38.574,46.387,-112.793,-178.223,0.000,0
182248.212,-16.602,50.293,-87.891,-163.574,0.000,0
182248.216,-19.043,49.316,-80.078,-162.109,0.000,0
182248.220,-41.504,30.273,-103.516,-197.754,0.000,0
182248.224,-45.410,24.414,-112.793,-219.727,0.000,0
182248.228,-36.133,27.344,-105.469,-224.121,0.000,0
182248.231,-32.715,33.203,-97.656,-235.352,0.000,0
182248.235,-40.039,33.203,-101.562,-252.930,0.000,0
182248.239,-44.922,21.973,-115.234,-260.254,0.000,0
182248.243,-28.809,18.555,-110.352,-252.930,0.000,0
182248.247,-20.020,17.578,-106.445,-266.602,0.000,0
182248.251,-30.273,19.531,-106.445,-304.199,0.000,0
182248.255,-34.668,17.578,-108.887,-322.266,0.000,0
182248.259,-34.668,14.160,-122.559,-325.684,0.000,0
182248.263,-31.738,21.484,-131.836,-317.383,0.000,0
182248.267,-34.180,25.879,-140.137,-317.383,0.000,0
182248.270,-47.363,17.578,-148.438,-338.867,0.000,0
182248.274,-36.621,24.414,-129.395,-320.312,0.000,0
182248.278,-25.391,20.508,-124.512,-295.410,0.000,0
182248.282,-33.691,11.719,-132.812,-296.875,0.000,0
182248.286,-41.992,17.578,-132.812,-299.805,0.000,0
182248.290,-41.016,15.137,-138.184,-296.875,0.000,0
182248.294,-23.926,15.137,-136.719,-267.578,0.000,0
182248.298,-20.996,22.461,-125.488,-248.535,0.000,0
182248.302,-28.809,24.902,-118.652,-240.234,0.000,0
182248.306,-41.016,15.625,-122.559,-238.281,0.000,0
182248.310,-27.832,16.602,-118.164,-226.562,0.000,0
182248.313,-12.207,24.902,-116.211,-195.801,0.000,0
182248.317,-19.531,26.367,-106.445,-201.172,0.000,0
182248.321,-33.691,27.344,-105.957,-213.379,0.000,0
182248.325,-48.828,12.695,-124.023,-204.102,0.000,0
182248.329,-45.410,10.742,-120.117,-191.406,0.000,0
182248.333,-45.898,13.184,-121.582,-179.688,0.000,0
182248.337,-56.152,13.184,-120.117,-178.711,0.000,0
182248.341,-40.039,22.461,-110.352,-148.438,0.000,0
182248.345,-18.066,21.484,-118.652,-119.629,0.000,0
182248.349,-32.227,15.137,-116.699,-133.789,0.000,1
182248.353,-52.734,10.742,-117.188,-137.207,0.000,0
182248.356,-58.594,6.348,-122.070,-127.441,0.000,0
182248.360,-42.969,14.160,-112.793,-104.980,0.000,0
182248.364,-38.086,16.113,-109.863,-95.215,0.000,0
182248.368,-43.945,5.371,-109.863,-105.469,0.000,0
182248.372,-44.922,7.324,-101.074,-100.586,0.000,0
182248.376,-41.992,4.395,-110.352,-82.520,0.000,0
182248.380,-39.062,-0.488,-120.605,-67.871,0.000,0
182248.384,-27.832,13.184,-98.633,-63.965,0.000,0
182248.388,-26.367,19.043,-95.215,-75.195,0.000,0
182248.392,-32.227,10.254,-110.352,-60.547,0.000,0
182248.395,-32.227,7.324,-110.840,-47.363,0.000,0
182248.399,-35.156,9.277,-106.445,-58.105,0.000,0
182248.403,-41.992,9.277,-105.469,-61.035,0.000,0
182248.407,-41.992,5.859,-108.398,-62.012,0.000,0
182248.411,-28.320,7.324,-107.422,-46.875,0.000,0
182248.415,-27.344,7.812,-105.957,-36.621,0.000,0
182248.419,-37.598,14.648,-100.586,-36.133,0.000,0
182248.423,-28.320,28.320,-83.496,-22.949,0.000,0
182248.427,-25.879,19.531,-91.309,-17.090,0.000,0
182248.431,-39.551,6.348,-122.559,-20.996,0.000,0
182248.435,-46.875,4.395,-127.441,-32.227,0.000,0
182248.438,-62.500,1.465,-115.723,-47.852,0.000,0
182248.442,-62.500,-7.324,-116.211,-44.434,0.000,0
182248.446,-44.922,-5.371,-109.863,-32.227,0.000,0
182248.450,-54.688,-3.418,-114.258,-37.598,0.000,0
182248.454,-58.105,0.977,-116.211,-31.738,0.000,0
182248.458,-38.574,7.324,-101.074,-6.348,0.000,0
182248.462,-32.227,3.418,-96.680,13.184,0.000,0
182248.466,-48.340,-1.465,-104.492,2.930,0.000,0
182248.470,-64.941,-3.418,-113.770,-20.508,0.000,0
182248.474,-66.406,-7.812,-125.488,-18.066,0.000,0
182248.478,-47.852,-6.836,-125.488,6.348,0.000,0
182248.481,-37.598,1.953,-109.375,19.531,0.000,0
182248.485,-53.711,3.906,-100.098,-6.348,0.000,0
182248.489,-48.828,12.695,-92.285,-3.418,0.000,0
182248.493,-32.227,16.602,-88.867,17.090,0.000,0
182248.497,-18.066,6.348,-112.305,17.578,0.000,0
182248.501,-33.691,-2.441,-125.488,4.883,0.000,0
182248.505,-63.477,1.953,-109.375,-6.836,0.000,0
182248.509,-50.293,16.602,-88.867,12.695,0.000,0
182248.513,-43.457,1.953,-102.051,18.555,0.000,0
182248.517,-49.805,-3.418,-109.375,5.371,0.000,0
182248.520,-58.594,3.418,-103.027,-7.812,0.000,0
182248.524,-61.035,-5.859,-109.863,-3.906,0.000,0
182248.528,-50.781,-4.395,-105.469,18.555,0.000,0
182248.532,-56.152,-2.930,-103.027,17.578,0.000,0
182248.536,-68.848,-8.789,-109.863,-4.395,0.000,0
182248.540,-71.289,-4.883,-106.445,-5.859,0.000,0
182248.544,-58.105,-2.930,-103.516,6.348,0.000,0
182248.548,-51.758,-7.324,-105.957,-3.906,0.000,0
182248.552,-53.711,-2.930,-97.168,-12.207,0.000,0
182248.556,-59.570,-4.883,-97.656,-10.742,0.000,0
182248.560,-61.035,-9.277,-104.980,-3.418,0.000,0
182248.563,-64.453,-15.625,-109.863,-14.648,0.000,0
182248.567,-77.148,-15.137,-120.117,-34.668,0.000,0
182248.571,-81.055,-4.395,-114.258,-19.043,0.000,0
182248.575,-71.777,-1.465,-92.773,-3.418,0.000,0
182248.579,-58.594,-8.789,-93.750,1.465,0.000,0
182248.583,-63.965,-15.625,-100.098,-5.371,0.000,0
182248.587,-79.102,-16.602,-101.562,-26.855,0.000,0
182248.591,-71.289,-11.230,-102.539,-10.254,0.000,0
182248.595,-56.152,-8.789,-97.656,10.742,0.000,0
182248.599,-61.035,-8.789,-104.980,2.441,0.000,0
182248.603,-70.801,-12.695,-118.164,-17.090,0.000,0
182248.606,-64.941,-12.207,-103.027,-21.484,0.000,0
182248.610,-56.152,-8.789,-95.703,-11.230,0.000,0
182248.614,-48.828,-9.277,-99.609,-12.695,0.000,0
182248.618,-56.152,-3.906,-99.121,-25.391,0.000,0
182248.622,-63.965,-0.488,-94.727,-30.762,0.000,0
182248.626,-48.828,-5.859,-95.703,-21.973,0.000,0
182248.630,-44.434,-6.836,-103.027,-11.230,0.000,0
182248.634,-65.918,-8.789,-108.398,-22.461,0.000,0
182248.638,-78.125,-11.230,-110.840,-33.203,0.000,0
182248.642,-62.988,-9.766,-106.934,-23.926,0.000,0
182248.645,-57.129,-14.648,-107.910,-24.414,0.000,0
182248.649,-70.801,-17.578,-112.305,-29.297,0.000,0
182248.653,-66.895,-10.742,-111.328,-29.297,0.000,0
182248.657,-48.340,-6.348,-103.027,-9.277,0.000,0
182248.661,-45.898,-3.906,-92.773,5.859,0.000,0
182248.665,-48.828,-2.930,-95.703,-9.277,0.000,0
182248.669,-56.641,-6.348,-105.469,-19.043,0.000,0
182248.673,-60.547,-9.277,-104.492,-19.043,0.000,0
182248.677,-44.434,-1.465,-95.215,-2.441,0.000,0
182248.681,-44.922,-4.395,-104.980,-3.906,0.000,0
182248.685,-49.805,-5.371,-118.164,-25.391,0.000,0
182248.688,-39.062,6.836,-106.445,-6.836,0.000,0
182248.692,-32.227,0.000,-98.145,34.668,0.000,0
182248.696,-22.949,1.465,-94.727,108.398,0.000,0
182248.700,-26.367,8.301,-90.332,180.176,0.000,0
182248.704,-46.387,-3.906,-104.492,209.473,0.000,0
182248.708,-52.734,-10.254,-115.723,249.512,0.000,0
182248.712,-46.387,-10.742,-126.953,260.254,0.000,0
182248.716,-53.711,-9.766,-137.695,244.629,0.000,0
182248.720,-69.824,-9.277,-125.000,260.742,0.000,0
182248.724,-61.523,-15.625,-105.957,300.781,0.000,0
182248.728,-49.316,-14.160,-111.328,343.750,0.000,0
182248.731,-50.781,-5.371,-115.234,396.484,0.000,0
182248.735,-56.152,4.883,-104.492,432.617,0.000,0
182248.739,-59.082,6.836,-103.027,441.895,0.000,0
182248.743,-48.340,-2.441,-104.004,456.055,0.000,0
182248.747,-52.246,-8.789,-115.723,475.098,0.000,0
182248.751,-63.965,-13.672,-135.254,477.051,0.000,0
182248.755,-62.012,-20.508,-134.277,482.422,0.000,0
182248.759,-47.363,-16.602,-119.141,507.812,0.000,0
182248.763,-43.457,-9.766,-104.492,536.621,0.000,0
182248.767,-51.758,-9.766,-104.492,544.922,0.000,0
182248.770,-66.895,-8.789,-112.305,530.762,0.000,0
182248.774,-63.965,-10.742,-118.164,530.762,0.000,0
182248.778,-58.105,-18.555,-122.559,526.855,0.000,0
182248.782,-76.660,-24.414,-124.023,506.348,0.000,0
182248.786,-85.938,-18.555,-123.047,488.770,0.000,0
182248.790,-70.312,-10.254,-118.164,487.305,0.000,0
182248.794,-56.152,-12.695,-116.211,495.117,0.000,0
182248.798,-55.176,-14.648,-123.047,495.117,0.000,0
182248.802,-68.848,-21.484,-131.836,468.750,0.000,0
182248.806,-65.918,-24.414,-123.047,458.984,0.000,0
182248.810,-53.711,-20.508,-117.188,474.609,0.000,0
182248.813,-56.152,-20.020,-114.746,466.309,0.000,0
182248.817,-61.035,-24.414,-119.629,435.547,0.000,0
182248.821,-62.012,-22.461,-127.441,400.391,0.000,0
182248.825,-63.477,-21.484,-119.629,381.836,0.000,0
182248.829,-52.734,-18.066,-108.887,380.371,0.000,0
182248.833,-56.152,-19.043,-111.328,359.375,0.000,0
182248.837,-82.520,-26.855,-119.629,314.941,0.000,0
182248.841,-69.824,-24.414,-111.328,298.828,0.000,0
182248.845,-37.598,-15.625,-106.934,299.316,0.000,0
182248.849,-50.293,-18.555,-111.328,273.926,0.000,0
182248.853,-74.707,-30.273,-121.582,242.188,0.000,0
182248.856,-62.012,-24.902,-120.605,247.559,0.000,0
182248.860,-49.805,-23.926,-110.352,257.324,0.000,0
182248.864,-52.246,-29.297,-108.887,247.559,0.000,0
182248.868,-60.059,-22.461,-104.004,223.633,0.000,0
182248.872,-54.688,-15.137,-94.727,204.590,0.000,0
182248.876,-42.480,-19.043,-101.562,211.914,0.000,0
182248.880,-54.199,-24.902,-108.398,205.078,0.000,0
182248.884,-64.453,-23.926,-98.145,197.754,0.000,0
182248.888,-60.547,-18.066,-89.844,202.148,0.000,0
182248.892,-60.547,-19.043,-91.309,187.012,0.000,0
182248.895,-57.129,-25.879,-99.609,176.758,0.000,0
182248.899,-69.336,-34.180,-112.305,146.484,0.000,0
182248.903,-77.148,-32.715,-104.004,122.070,0.000,0
182248.907,-62.012,-33.691,-99.121,127.930,0.000,0
182248.911,-50.781,-33.691,-101.562,125.977,0.000,0
182248.915,-71.289,-33.691,-96.191,104.492,0.000,0
182248.919,-79.102,-26.367,-86.914,92.773,0.000,0
182248.923,-49.316,-14.648,-78.613,115.723,0.000,0
182248.927,-37.109,-17.090,-77.148,117.676,0.000,0
182248.931,-49.805,-20.020,-80.566,98.145,0.000,0
182248.935,-51.758,-17.578,-76.660,88.379,0.000,0
182248.938,-46.875,-18.066,-70.312,64.453,0.000,0
182248.942,-51.758,-24.902,-85.938,56.152,0.000,0
182248.946,-57.617,-27.344,-89.355,57.129,0.000,0
182248.950,-60.059,-23.926,-81.543,48.828,0.000,1
182248.954,-43.945,-14.160,-72.266,54.688,0.000,0
182248.958,-31.738,-11.230,-64.941,56.641,0.000,0
182248.962,-45.898,-19.531,-71.289,46.387,0.000,0
182248.966,-60.547,-20.508,-69.336,32.227,0.000,0
182248.970,-62.988,-22.949,-73.242,24.414,0.000,0
182248.974,-50.781,-23.438,-68.848,41.504,0.000,0
182248.978,-45.898,-23.438,-65.430,35.645,0.000,0
182248.981,-50.293,-21.484,-73.242,19.531,0.000,0
182248.985,-55.664,-18.066,-75.195,17.578,0.000,0
182248.989,-60.547,-22.461,-70.801,21.973,0.000,0
182248.993,-65.918,-26.367,-71.289,20.020,0.000,0
182248.997,-71.289,-29.297,-77.148,-10.254,0.000,0
182249.001,-74.219,-25.391,-75.684,-23.926,0.000,0
182249.005,-73.730,-28.320,-79.590,-20.508,0.000,0
182249.009,-64.453,-32.715,-77.637,-2.441,0.000,0
182249.013,-60.547,-28.809,-67.871,-0.977,0.000,0
182249.017,-65.918,-26.367,-64.941,-31.738,0.000,0
182249.020,-63.965,-25.879,-62.012,-41.504,0.000,0
182249.024,-54.688,-26.855,-64.941,-18.066,0.000,0
182249.028,-54.199,-27.344,-69.336,-15.625,0.000,0
182249.032,-64.453,-23.438,-64.453,-31.250,0.000,0
182249.036,-69.336,-21.973,-55.664,-45.410,0.000,0
182249.040,-62.500,-28.320,-49.805,-51.758,0.000,0
182249.044,-56.152,-32.715,-58.594,-39.551,0.000,0
182249.048,-70.312,-30.273,-60.547,-37.598,0.000,0
182249.052,-72.754,-22.949,-41.992,-29.297,0.000,0
182249.056,-58.105,-21.484,-31.738,-15.625,0.000,0
182249.060,-33.691,-10.742,-21.484,7.812,0.000,0
182249.063,-36.621,-16.113,-26.855,9.766,0.000,0
182249.067,-69.824,-34.668,-47.852,-30.762,0.000,0
182249.071,-70.801,-33.691,-52.734,-48.340,0.000,0
182249.075,-51.270,-28.320,-40.527,-34.180,0.000,0
182249.079,-55.176,-32.715,-42.480,-33.203,0.000,0
182249.083,-68.359,-33.691,-58.594,-43.457,0.000,0
182249.087,-61.523,-33.691,-54.199,-41.016,0.000,0
182249.091,-45.898,-32.227,-40.039,-20.996,0.000,0
182249.095,-47.852,-30.273,-36.621,-14.160,0.000,0
182249.099,-63.965,-36.133,-46.875,-21.484,0.000,0
182249.103,-61.035,-36.621,-51.758,-31.250,0.000,0
182249.106,-43.945,-32.715,-51.270,-23.926,0.000,0
182249.110,-41.992,-26.855,-51.270,-11.230,0.000,0
