timestamps,TP9,AF7,AF8,TP10,Right AUX,Marker0
110710.480,-91.309,-300.781,-171.875,-75.684,0.000,0
110710.484,-69.336,-305.664,-96.191,-71.777,0.000,0
110710.488,-60.059,-312.500,-86.426,-74.707,0.000,0
110710.491,-71.777,-310.547,-138.672,-65.430,0.000,0
110710.495,-78.613,-305.176,-164.062,-45.410,0.000,0
110710.499,-72.266,-311.523,-122.559,-72.754,0.000,0
110710.503,-77.637,-319.824,-82.520,-89.355,0.000,0
110710.507,-83.496,-307.617,-167.480,-82.520,0.000,0
110710.511,-86.914,-298.340,-230.957,-86.426,0.000,0
110710.515,-89.844,-304.199,-169.434,-93.750,0.000,0
110710.519,-84.473,-316.406,-93.750,-110.352,0.000,0
110710.523,-82.031,-313.965,-100.586,-99.609,0.000,0
110710.527,-95.215,-300.293,-159.180,-83.984,0.000,0
110710.530,-108.398,-288.574,-131.836,-81.055,0.000,0
110710.534,-90.332,-285.156,-93.262,-87.891,0.000,0
110710.538,-87.402,-296.875,-108.887,-106.934,0.000,0
110710.542,-122.559,-293.457,-134.766,-102.539,0.000,0
110710.546,-151.367,-272.461,-149.414,-76.660,0.000,0
110710.550,-108.887,-272.949,-119.141,-63.965,0.000,0
110710.554,-55.176,-267.578,-76.660,-64.453,0.000,0
110710.558,-60.547,-250.000,-78.613,-57.617,0.000,0
110710.562,-108.887,-248.535,-64.453,-59.570,0.000,0
110710.566,-104.492,-254.883,-47.852,-63.477,0.000,0
110710.570,-56.641,-247.559,-69.336,-62.500,0.000,0
110710.573,-66.895,-239.258,-122.070,-64.453,0.000,0
110710.577,-101.074,-236.816,-130.859,-53.711,0.000,0
110710.581,-83.984,-231.934,-71.289,-43.945,0.000,0
110710.585,-40.527,-228.516,-44.434,-54.688,0.000,0
110710.589,-48.340,-234.863,-63.477,-57.617,0.000,0
110710.593,-98.145,-243.652,-105.957,-41.016,0.000,0
110710.597,-102.539,-249.023,-126.465,-45.410,0.000,0
110710.601,-50.293,-252.441,-67.871,-76.660,0.000,0
110710.605,-32.715,-238.770,-27.832,-54.688,0.000,0
110710.609,-88.867,-227.051,-53.711,-41.504,0.000,0
110710.613,-91.797,-228.516,-84.961,-57.617,0.000,0
110710.616,-51.758,-215.332,-31.738,-48.340,0.000,0
110710.620,-47.852,-203.613,43.457,-42.480,0.000,0
110710.624,-52.734,-188.477,-9.277,-3.418,0.000,0
110710.628,-53.223,-174.316,-82.520,-16.113,0.000,0
110710.632,-42.969,-169.922,-37.598,-24.414,0.000,0
110710.636,-38.574,-166.016,24.902,3.418,0.000,0
110710.640,-63.965,-166.016,6.348,-13.672,0.000,0
110710.644,-77.148,-157.715,-34.180,-28.320,0.000,0
110710.648,-67.871,-155.273,-30.762,-21.973,0.000,0
110710.652,-65.918,-162.598,26.855,-31.738,0.000,0
110710.655,-54.688,-152.344,11.230,-26.855,0.000,0
110710.659,-61.523,-135.254,-52.246,-29.297,0.000,0
110710.663,-78.613,-130.371,-50.781,-41.016,0.000,0
110710.667,-62.988,-140.137,24.414,-39.062,0.000,0
110710.671,-52.734,-149.902,25.879,-33.691,0.000,0
110710.675,-56.152,-155.273,-58.105,-27.832,0.000,0
110710.679,-71.289,-167.480,-58.594,-32.715,0.000,0
110710.683,-83.008,-177.734,5.371,-41.016,0.000,0
110710.687,-69.824,-175.781,24.414,-63.477,0.000,0
110710.691,-41.016,-163.086,-20.508,-51.270,0.000,0
110710.695,-54.199,-158.691,-54.199,-51.758,0.000,0
110710.698,-83.496,-167.480,-6.836,-66.895,0.000,0
110710.702,-19.531,-164.062,20.508,-59.570,0.000,0
110710.706,21.484,-152.344,-6.836,-69.336,0.000,0
110710.710,-25.391,-159.668,-55.664,-67.383,0.000,0
110710.714,-28.320,-172.363,-72.754,-61.035,0.000,0
110710.718,29.785,-179.688,-32.715,-43.457,0.000,0
110710.722,53.711,-169.922,-23.926,-40.527,0.000,0
110710.726,1.465,-156.738,-79.590,-76.660,0.000,0
110710.730,-20.508,-153.809,-127.441,-108.887,0.000,0
110710.734,7.812,-155.273,-90.820,-107.422,0.000,0
110710.738,28.320,-158.203,-9.766,-95.215,0.000,0
110710.741,18.066,-153.809,-22.461,-85.938,0.000,0
110710.745,0.977,-154.785,-80.078,-81.543,0.000,0
110710.749,21.484,-179.688,-60.059,-91.309,0.000,0
110710.753,29.297,-196.777,-20.020,-110.352,0.000,0
110710.757,10.254,-196.289,-39.062,-106.445,0.000,0
110710.761,-3.906,-188.477,-94.238,-94.727,0.000,0
110710.765,8.789,-177.246,-95.215,-103.027,0.000,0
110710.769,41.992,-169.434,-18.066,-97.656,0.000,0
110710.773,32.227,-160.645,-13.672,-89.844,0.000,0
110710.777,7.324,-155.273,-72.754,-96.191,0.000,0
110710.780,-0.977,-155.273,-47.852,-98.145,0.000,0
110710.784,9.277,-150.391,9.277,-74.707,0.000,0
110710.788,22.461,-151.367,21.484,-64.453,0.000,0
110710.792,22.949,-149.414,-41.016,-74.707,0.000,0
110710.796,29.297,-137.695,-50.781,-64.453,0.000,0
110710.800,27.344,-145.020,-0.488,-74.219,0.000,0
110710.804,54.199,-143.066,8.789,-87.402,0.000,0
110710.808,68.848,-125.977,-29.785,-58.105,0.000,0
110710.812,33.691,-134.277,-67.383,-78.125,0.000,0
110710.816,32.227,-157.227,-13.672,-101.074,0.000,0
110710.820,75.195,-167.969,32.715,-79.102,0.000,0
110710.823,78.125,-159.668,-7.812,-72.754,0.000,0
110710.827,40.527,-163.574,-48.340,-58.105,0.000,0
110710.831,35.156,-170.410,-28.809,-53.223,0.000,0
110710.835,90.332,-165.527,29.297,-74.707,0.000,0
110710.839,131.836,-166.016,38.086,-70.801,0.000,0
110710.843,83.984,-160.156,-19.043,-58.105,0.000,0
110710.847,28.320,-160.156,-38.086,-74.219,0.000,0
110710.851,48.340,-146.973,-4.883,-75.684,0.000,0
110710.855,89.355,-129.883,4.883,-70.801,0.000,0
110710.859,52.246,-137.207,-2.930,-45.898,0.000,0
110710.863,19.043,-132.324,-13.672,-16.113,0.000,0
110710.866,54.688,-134.766,12.207,-53.223,0.000,0
110710.870,80.078,-160.156,47.852,-68.359,0.000,0
110710.874,52.246,-169.922,37.109,-53.223,0.000,0
110710.878,2.441,-172.852,-5.859,-65.918,0.000,0
110710.882,26.855,-171.387,-33.203,-80.566,0.000,0
110710.886,68.359,-177.246,-4.883,-77.637,0.000,0
110710.890,54.688,-184.570,-24.414,-70.312,0.000,0
110710.894,10.254,-184.570,-75.684,-84.961,0.000,0
110710.898,-18.066,-198.730,-42.969,-100.586,0.000,0
110710.902,2.930,-195.312,-11.719,-86.426,0.000,0
110710.905,1.953,-187.012,-29.297,-90.820,0.000,0
110710.909,-19.531,-192.871,-95.215,-108.887,0.000,0
110710.913,-20.996,-195.312,-115.723,-109.375,0.000,0
110710.917,-13.184,-200.684,-46.875,-114.746,0.000,0
110710.921,-15.625,-190.430,-40.039,-117.676,0.000,0
110710.925,-29.297,-173.828,-94.238,-107.910,0.000,0
110710.929,-44.922,-178.223,-133.789,-114.258,0.000,0
110710.933,-36.133,-197.754,-86.914,-124.512,0.000,0
110710.937,-48.828,-220.215,4.395,-121.094,0.000,0
110710.941,-69.336,-214.844,-63.965,-120.605,0.000,0
110710.945,-66.406,-204.590,-140.625,-129.395,0.000,0
110710.948,-73.730,-207.031,-108.887,-143.066,0.000,0
110710.952,-60.059,-201.660,-72.754,-135.254,0.000,0
110710.956,-42.480,-194.336,-77.637,-120.605,0.000,0
110710.960,-58.594,-182.617,-132.812,-128.906,0.000,0
110710.964,-77.148,-181.152,-141.113,-134.766,0.000,0
110710.968,-72.266,-201.172,-88.867,-147.461,0.000,0
110710.972,-52.246,-210.938,-98.145,-147.461,0.000,0
110710.976,-64.941,-219.727,-137.695,-136.230,0.000,0
110710.980,-90.332,-219.727,-161.621,-135.742,0.000,0
110710.984,-70.801,-206.055,-135.254,-127.441,0.000,0
110710.988,-19.531,-204.102,-96.680,-121.094,0.000,0
110710.991,-24.414,-201.660,-125.000,-92.773,0.000,0
110710.995,-59.082,-195.801,-127.441,-89.355,0.000,0
110710.999,-40.039,-171.875,-72.754,-98.145,0.000,0
110711.003,10.254,-148.438,-40.527,-84.473,0.000,0
110711.007,9.277,-146.484,-68.359,-72.266,0.000,0
110711.011,-23.438,-142.578,-96.191,-43.457,0.000,0
110711.015,-40.527,-149.414,-60.547,-51.758,0.000,0
110711.019,-20.508,-158.691,-20.996,-75.684,0.000,0
110711.023,-20.996,-161.621,-61.523,-89.355,0.000,0
110711.027,-75.195,-167.969,-93.262,-83.984,0.000,0
110711.030,-75.684,-153.809,-96.191,-71.289,0.000,0
110711.034,-33.691,-142.578,-51.270,-74.219,0.000,0
110711.038,-39.062,-149.414,-12.695,-71.777,0.000,0
110711.042,-52.246,-138.672,-74.219,-74.707,0.000,0
110711.046,-45.410,-131.836,-109.863,-81.543,0.000,0
110711.050,-41.504,-150.391,-80.566,-80.078,0.000,0
110711.054,-28.320,-163.574,-50.781,-81.055,0.000,0
110711.058,-47.363,-160.156,-92.285,-92.285,0.000,0
110711.062,-89.844,-162.598,-140.625,-104.492,0.000,0
110711.066,-81.543,-165.527,-130.371,-101.562,0.000,0
110711.070,-33.203,-154.785,-75.684,-85.449,0.000,0
110711.073,-48.828,-161.133,-36.133,-96.191,0.000,0
110711.077,-68.848,-172.852,-106.445,-102.539,0.000,0
110711.081,-57.129,-173.340,-148.438,-102.539,0.000,0
110711.085,-20.508,-181.641,-74.219,-113.281,0.000,0
110711.089,-25.391,-192.383,-57.617,-106.445,0.000,0
110711.093,-81.543,-202.637,-125.977,-101.562,0.000,0
110711.097,-108.887,-211.426,-140.625,-112.793,0.000,0
110711.101,-81.055,-200.195,-88.379,-125.977,0.000,0
110711.105,-55.664,-189.941,-63.965,-122.559,0.000,0
110711.109,-73.730,-177.246,-117.188,-118.652,0.000,0
110711.113,-82.031,-158.691,-136.719,-127.930,0.000,0
110711.116,-76.172,-150.879,-52.246,-123.047,0.000,0
110711.120,-55.664,-153.809,-17.578,-112.305,0.000,0
110711.124,-43.457,-153.320,-41.504,-109.375,0.000,0
110711.128,-65.918,-144.531,-110.840,-85.449,0.000,0
110711.132,-86.426,-150.879,-80.566,-103.027,0.000,0
110711.136,-81.055,-158.203,-19.531,-137.695,0.000,0
110711.140,-68.359,-153.320,-68.359,-114.746,0.000,0
110711.144,-90.820,-156.250,-118.652,-102.051,0.000,0
110711.148,-106.934,-154.297,-97.656,-114.258,0.000,0
110711.152,-70.801,-143.555,-41.504,-122.070,0.000,0
110711.155,-52.246,-138.184,-38.574,-123.047,0.000,0
110711.159,-81.055,-128.906,-102.051,-104.492,0.000,0
110711.163,-104.492,-124.023,-106.934,-96.191,0.000,0
110711.167,-59.082,-126.953,-76.172,-99.121,0.000,0
110711.171,-34.180,-124.512,-61.035,-111.328,0.000,0
110711.175,-70.312,-125.000,-71.777,-105.957,0.000,0
110711.179,-88.379,-122.070,-120.117,-97.168,0.000,0
110711.183,-60.059,-108.887,-124.512,-106.934,0.000,0
110711.187,-21.973,-103.516,-67.871,-112.305,0.000,0
110711.191,-45.410,-108.398,-51.758,-111.328,0.000,0
110711.195,-93.750,-112.793,-104.980,-127.930,0.000,0
110711.198,-90.820,-111.816,-117.676,-137.695,0.000,0
110711.202,-73.242,-113.281,-53.223,-112.793,0.000,0
110711.206,-72.266,-100.586,-64.941,-95.703,0.000,0
110711.210,-80.566,-92.773,-123.047,-104.004,0.000,0
110711.214,-82.031,-87.891,-106.445,-105.957,0.000,0
110711.218,-63.477,-72.266,-62.012,-107.910,0.000,0
110711.222,-41.016,-77.637,-51.270,-111.816,0.000,0
110711.226,-44.922,-83.984,-88.867,-106.934,0.000,0
110711.230,-73.242,-93.262,-99.609,-101.562,0.000,0
110711.234,-55.664,-95.703,-26.855,-96.680,0.000,0
110711.238,-19.043,-83.496,-16.602,-74.219,0.000,0
110711.241,-36.621,-81.543,-93.750,-77.148,0.000,0
110711.245,-64.453,-80.078,-109.375,-81.055,0.000,2
110711.249,-76.660,-89.355,-48.340,-90.820,0.000,0
110711.253,-61.523,-102.051,8.301,-97.168,0.000,0
110711.257,-32.227,-86.914,-60.547,-87.891,0.000,0
110711.261,-44.922,-74.219,-140.137,-93.750,0.000,0
110711.265,-59.570,-71.289,-114.746,-94.238,0.000,0
110711.269,-35.156,-56.152,-56.641,-91.309,0.000,0
110711.273,-20.020,-57.617,-45.898,-90.332,0.000,0
110711.277,-49.805,-60.547,-83.496,-79.590,0.000,0
110711.280,-44.434,-50.293,-70.801,-66.895,0.000,0
110711.284,-0.977,-39.551,-38.574,-68.848,0.000,0
110711.288,-1.465,-25.879,-31.250,-73.242,0.000,0
110711.292,-24.414,-30.762,-64.941,-66.406,0.000,0
110711.296,-70.312,-35.156,-111.816,-76.172,0.000,0
110711.300,-58.594,-37.598,-102.539,-85.938,0.000,0
110711.304,-22.949,-58.594,-75.195,-96.191,0.000,0
110711.308,-55.664,-68.848,-118.652,-106.934,0.000,0
110711.312,-104.004,-64.941,-82.520,-106.934,0.000,0
110711.316,-80.078,-52.246,-51.270,-97.168,0.000,0
110711.320,-28.809,-45.410,-51.758,-84.961,0.000,0
110711.323,-36.133,-36.133,-56.641,-87.402,0.000,0
110711.327,-81.055,-34.668,-112.305,-83.008,0.000,0
110711.331,-94.238,-52.246,-110.352,-97.168,0.000,0
110711.335,-69.336,-52.734,-56.152,-101.074,0.000,0
110711.339,-50.781,-47.363,-54.199,-102.051,0.000,0
110711.343,-68.848,-41.504,-84.961,-73.730,0.000,0
110711.347,-74.707,-26.855,-106.934,-65.918,0.000,0
110711.351,-38.574,-26.367,-76.172,-94.727,0.000,0
110711.355,-29.297,-15.137,-56.641,-57.617,0.000,0
110711.359,-62.500,-3.906,-51.270,-29.297,0.000,0
110711.363,-64.941,-18.555,-66.406,-53.223,0.000,0
110711.366,-40.039,-20.508,-31.738,-63.477,0.000,0
110711.370,-31.738,-24.902,29.297,-65.918,0.000,0
110711.374,-36.133,-28.809,-21.484,-77.148,0.000,0
110711.378,-45.898,-21.484,-89.355,-70.801,0.000,0
110711.382,-73.730,-28.320,-59.082,-63.965,0.000,0
110711.386,-61.523,-25.391,-23.438,-57.617,0.000,0
110711.390,-59.082,-22.949,-42.969,-66.895,0.000,0
110711.394,-76.172,-18.066,-91.797,-60.547,0.000,0
110711.398,-74.219,-12.207,-90.332,-61.523,0.000,0
110711.402,-52.734,-26.367,-13.672,-69.824,0.000,0
110711.405,-20.508,-33.691,-18.066,-62.988,0.000,0
110711.409,-13.672,-32.227,-80.078,-62.988,0.000,0
110711.413,-20.020,-29.785,-71.777,-61.035,0.000,0
110711.417,-15.137,-13.672,-13.184,-63.477,0.000,0
110711.421,9.277,-2.441,4.395,-60.059,0.000,0
110711.425,13.672,-4.395,-43.457,-41.016,0.000,0
110711.429,-18.066,-11.230,-85.449,-34.668,0.000,0
110711.433,-18.066,-1.465,-73.730,-35.645,0.000,0
110711.437,-3.418,2.441,-17.090,-60.547,0.000,0
110711.441,-10.742,-8.789,-57.129,-80.566,0.000,0
110711.445,-53.223,-19.531,-112.793,-68.848,0.000,0
110711.448,-80.566,-33.691,-53.223,-59.570,0.000,0
110711.452,-49.805,-42.480,-14.648,-76.660,0.000,0
110711.456,-36.133,-39.062,-70.801,-89.844,0.000,0
110711.460,-62.500,-29.297,-129.883,-83.984,0.000,0
110711.464,-77.148,-24.414,-104.492,-82.520,0.000,0
110711.468,-48.828,-28.320,-45.410,-79.590,0.000,0
110711.472,-44.922,-24.902,-26.367,-77.148,0.000,0
110711.476,-74.707,-16.113,-73.730,-85.449,0.000,0
110711.480,-88.867,-15.137,-101.562,-81.055,0.000,0
110711.484,-83.008,-12.207,-68.359,-69.336,0.000,0
110711.488,-55.664,-14.160,-60.547,-77.637,0.000,0
110711.491,-71.777,-15.625,-71.777,-69.336,0.000,0
110711.495,-96.191,-12.695,-101.074,-63.965,0.000,0
110711.499,-62.988,-24.414,-96.191,-69.824,0.000,0
110711.503,-31.738,-20.508,-50.781,-63.477,0.000,0
110711.507,-48.340,5.371,-37.598,-58.594,0.000,0
110711.511,-73.730,25.391,-74.707,-59.082,0.000,0
110711.515,-59.082,31.738,-102.051,-62.988,0.000,0
110711.519,-49.316,29.297,-64.453,-62.500,0.000,0
110711.523,-119.629,22.461,-57.129,-79.590,0.000,0
110711.527,-147.461,18.555,-108.398,-83.008,0.000,0
110711.530,-124.023,14.160,-98.633,-61.523,0.000,0
110711.534,-107.422,-0.488,-63.965,-59.570,0.000,0
110711.538,-82.520,-16.113,-46.387,-81.055,0.000,0
110711.542,-75.684,-10.742,-87.402,-76.660,0.000,0
110711.546,-88.867,1.953,-98.145,-59.570,0.000,0
110711.550,-81.055,4.883,-10.254,-64.453,0.000,0
110711.554,-66.895,6.348,-10.742,-71.289,0.000,0
110711.558,-53.711,8.301,-81.055,-55.176,0.000,0
110711.562,-77.148,9.277,-117.188,-59.570,0.000,0
110711.566,-88.867,0.000,-83.984,-71.289,0.000,0
110711.570,-71.777,-2.441,-5.859,-80.078,0.000,0
110711.573,-71.289,21.484,-30.762,-60.059,0.000,0
110711.577,-78.613,30.273,-94.238,-57.129,0.000,0
110711.581,-90.820,19.043,-85.938,-83.008,0.000,0
110711.585,-81.055,-2.441,-54.199,-102.051,0.000,0
110711.589,-67.871,-18.555,-38.574,-112.305,0.000,0
110711.593,-88.379,-7.812,-97.656,-96.191,0.000,0
110711.597,-92.773,8.789,-124.023,-78.613,0.000,0
110711.601,-53.711,4.883,-66.895,-79.590,0.000,0
110711.605,-22.461,-7.324,-50.781,-83.008,0.000,0
110711.609,-63.477,-18.555,-86.426,-92.285,0.000,0
110711.613,-111.328,-16.602,-133.301,-85.938,0.000,0
110711.616,-95.703,-16.113,-115.234,-83.496,0.000,0
110711.620,-56.152,-13.672,-69.336,-84.961,0.000,0
110711.624,-75.195,0.977,-98.145,-65.918,0.000,0
110711.628,-119.629,14.648,-129.883,-58.594,0.000,0
110711.632,-98.145,16.602,-121.094,-63.965,0.000,0
110711.636,-53.711,8.789,-120.605,-73.730,0.000,0
110711.640,-54.688,3.906,-108.887,-73.730,0.000,0
110711.644,-79.102,8.789,-121.094,-62.500,0.000,0
110711.648,-88.867,19.531,-97.656,-65.918,0.000,0
110711.652,-60.547,22.461,-64.941,-60.059,0.000,0
110711.655,-35.645,18.066,-69.824,-47.363,0.000,0
110711.659,-59.570,12.695,-89.355,-53.223,0.000,0
110711.663,-65.430,18.066,-116.211,-51.758,0.000,0
110711.667,-42.480,35.156,-53.711,-61.523,0.000,0
110711.671,-29.785,54.199,-4.395,-60.059,0.000,0
110711.675,-42.480,57.129,-98.145,-55.176,0.000,0
110711.679,-65.430,52.246,-160.156,-57.129,0.000,0
110711.683,-44.922,58.105,-70.312,-46.875,0.000,0
110711.687,-49.805,56.152,32.715,-53.223,0.000,0
110711.691,-61.523,43.945,0.488,-57.129,0.000,0
110711.695,-61.523,38.086,-68.359,-57.129,0.000,0
110711.698,-57.129,44.434,-69.824,-43.945,0.000,0
110711.702,-35.156,48.828,-22.949,-44.434,0.000,0
110711.706,-36.133,53.223,-13.184,-51.758,0.000,0
110711.710,-62.500,61.523,-57.617,-30.273,0.000,0
110711.714,-68.359,57.617,-111.328,-31.250,0.000,0
110711.718,-60.059,45.898,-51.758,-42.969,0.000,0
110711.722,-45.410,44.434,-10.254,-53.711,0.000,0
110711.726,-36.621,54.688,-65.430,-53.223,0.000,0
110711.730,-69.824,63.477,-64.453,-40.039,0.000,0
110711.734,-72.266,57.129,-6.348,-39.062,0.000,0
110711.738,-14.160,44.922,-8.789,-37.598,0.000,0
110711.741,-15.625,33.691,-59.082,-51.270,0.000,0
110711.745,-69.336,23.926,-81.055,-52.734,0.000,0
110711.749,-83.984,16.113,-57.129,-47.363,0.000,0
110711.753,-32.227,20.020,-34.180,-60.547,0.000,0
110711.757,3.906,28.809,-43.945,-59.570,0.000,0
110711.761,-34.668,39.062,-48.828,-43.457,0.000,0
110711.765,-48.828,42.480,-25.879,-30.762,0.000,0
110711.769,12.207,41.016,23.438,-27.832,0.000,0
110711.773,36.133,47.852,1.953,-26.367,0.000,0
110711.777,-15.137,42.480,-32.227,-19.043,0.000,0
110711.780,-34.668,32.227,-40.527,-10.742,0.000,0
110711.784,2.441,39.062,-25.391,-3.906,0.000,0
110711.788,18.066,60.059,10.254,-12.695,0.000,0
110711.792,0.488,61.035,-4.395,-30.762,0.000,0
110711.796,-20.508,41.016,-24.414,-28.809,0.000,0
110711.800,-25.879,42.969,-30.273,-33.203,0.000,0
110711.804,-0.977,47.852,-1.953,-42.480,0.000,0
110711.808,-5.859,54.688,5.371,-22.949,0.000,0
110711.812,-37.598,64.941,-57.129,0.000,0.000,0
110711.816,-27.344,49.316,-53.223,-13.672,0.000,0
110711.820,4.883,45.410,5.371,-20.996,0.000,0
110711.823,2.930,61.035,30.762,2.930,0.000,0
110711.827,9.766,84.961,-41.016,21.973,0.000,0
110711.831,16.602,97.656,-33.203,38.086,0.000,0
110711.835,12.207,82.031,44.922,12.695,0.000,0
110711.839,14.160,70.801,20.020,-9.277,0.000,0
110711.843,8.301,75.195,-34.180,0.000,0.000,0
110711.847,-5.371,70.312,-12.207,14.160,0.000,0
110711.851,0.977,69.336,36.621,13.672,0.000,0
110711.855,24.902,71.289,41.992,1.465,0.000,0
110711.859,13.184,69.824,-15.137,4.395,0.000,0
110711.863,-2.930,68.359,-56.641,11.719,0.000,0
110711.866,4.395,74.707,22.461,17.578,0.000,0
110711.870,23.926,93.750,56.152,23.438,0.000,0
110711.874,34.668,88.867,-41.992,17.578,0.000,0
110711.878,-0.488,65.430,-83.496,4.883,0.000,0
110711.882,-20.508,45.410,-17.578,-7.324,0.000,0
110711.886,15.625,37.109,41.992,-9.766,0.000,0
110711.890,29.785,33.203,7.324,2.441,0.000,0
110711.894,-6.348,17.090,-47.363,8.789,0.000,0
110711.898,-39.551,0.488,-41.992,-17.090,0.000,0
110711.902,-10.742,16.113,-11.719,-14.160,0.000,0
110711.905,13.672,36.621,11.230,-12.207,0.000,0
110711.909,-18.555,42.480,-10.742,-26.367,0.000,0
110711.913,-44.434,53.223,-30.762,-27.344,0.000,0
110711.917,13.184,78.125,-6.348,-25.391,0.000,1
110711.921,55.664,95.703,21.484,-12.695,0.000,0
110711.925,37.598,95.215,-12.207,-2.930,0.000,0
110711.929,-3.906,83.984,-62.988,1.465,0.000,0
110711.933,10.742,71.289,-59.570,-0.488,0.000,0
110711.937,55.664,69.824,2.930,6.836,0.000,0
110711.941,36.133,74.707,22.949,12.695,0.000,0
110711.945,-0.977,75.684,-18.066,11.719,0.000,0
110711.948,-4.883,82.031,-41.016,3.418,0.000,0
110711.952,-2.441,83.984,-3.418,-13.672,0.000,0
110711.956,-13.672,77.637,0.977,-27.344,0.000,0
110711.960,-24.414,75.195,-92.285,-20.996,0.000,0
110711.964,-1.465,72.754,-94.238,1.465,0.000,0
110711.968,18.066,77.148,8.301,-5.859,0.000,0
110711.972,5.859,78.125,37.598,-34.668,0.000,0
110711.976,-2.930,75.195,-20.508,-20.020,0.000,0
110711.980,-20.508,64.941,-63.965,-5.371,0.000,0
110711.984,-15.625,47.363,-6.348,-19.043,0.000,0
110711.988,0.000,31.738,36.621,-6.348,0.000,0
110711.991,6.348,29.297,-26.367,-2.441,0.000,0
110711.995,0.000,41.504,-81.543,2.441,0.000,0
110711.999,-10.254,44.922,-1.465,16.602,0.000,0
110712.003,0.977,40.527,54.199,2.930,0.000,0
110712.007,19.531,49.805,-32.715,-10.254,0.000,0
110712.011,0.000,50.781,-64.941,-5.859,0.000,0
110712.015,-8.301,46.875,-6.348,16.113,0.000,0
110712.019,43.457,65.430,57.129,41.992,0.000,0
110712.023,57.617,100.098,55.176,65.918,0.000,0
110712.027,35.156,128.906,6.348,89.844,0.000,0
110712.030,40.527,142.090,23.438,92.285,0.000,0
110712.034,77.637,148.926,49.316,82.031,0.000,0
110712.038,84.961,151.855,66.406,91.309,0.000,0
110712.042,49.805,153.320,74.219,100.586,0.000,0
110712.046,37.598,150.391,64.453,90.332,0.000,0
110712.050,56.152,139.160,101.074,94.727,0.000,0
110712.054,88.379,135.742,76.172,91.797,0.000,0
110712.058,57.617,138.672,32.227,74.707,0.000,0
110712.062,15.137,143.555,53.223,83.008,0.000,0
110712.066,63.477,138.184,48.828,73.242,0.000,0
110712.070,90.820,127.441,48.828,48.828,0.000,0
110712.073,66.895,128.906,46.387,49.316,0.000,0
110712.077,47.363,133.301,17.578,64.941,0.000,0
110712.081,63.965,121.094,30.762,48.828,0.000,0
110712.085,87.891,113.770,67.383,35.156,0.000,0
110712.089,80.566,116.211,34.668,54.199,0.000,0
110712.093,49.805,107.910,-20.996,59.082,0.000,0
110712.097,53.223,111.328,-15.625,40.527,0.000,0
110712.101,71.777,118.652,29.297,38.574,0.000,0
110712.105,49.805,127.441,32.227,41.992,0.000,0
110712.109,27.832,141.602,-8.789,46.387,0.000,0
110712.113,33.691,139.160,-23.926,43.457,0.000,0
110712.116,41.504,127.441,14.160,31.250,0.000,0
110712.120,47.363,114.258,41.992,31.250,0.000,0
110712.124,37.598,106.445,-10.742,31.738,0.000,0
110712.128,16.602,96.680,-55.664,24.902,0.000,0
110712.132,16.113,79.590,-6.836,27.832,0.000,0
110712.136,33.691,72.754,7.812,25.879,0.000,0
110712.140,11.230,81.543,-45.898,21.973,0.000,0
110712.144,-6.348,89.355,-37.598,32.715,0.000,0
110712.148,-1.953,79.102,45.410,32.227,0.000,0
110712.152,5.859,65.918,39.551,17.090,0.000,0
110712.155,18.066,67.383,-53.223,12.207,0.000,0
110712.159,-22.949,69.336,-59.570,4.883,0.000,0
110712.163,-26.855,72.754,-22.949,-9.766,0.000,0
110712.167,11.719,60.547,-17.090,-24.902,0.000,0
110712.171,16.602,60.059,-87.891,-12.695,0.000,0
110712.175,-16.113,71.777,-96.191,-3.418,0.000,0
110712.179,-29.297,64.453,-7.812,-22.949,0.000,0
110712.183,7.812,66.406,21.484,-22.461,0.000,0
110712.187,10.254,74.219,-16.113,-13.184,0.000,0
110712.191,-24.902,72.754,-80.566,-19.043,0.000,0
110712.195,-39.062,64.453,-69.336,-20.996,0.000,0
110712.198,4.883,67.871,-43.457,-9.277,0.000,0
110712.202,28.809,78.125,-34.180,-2.930,0.000,0
110712.206,0.977,83.984,-40.039,5.859,0.000,0
110712.210,-7.324,98.145,-74.219,17.578,0.000,0
110712.214,16.113,101.074,-27.344,3.418,0.000,0
110712.218,27.832,98.633,34.668,6.348,0.000,0
110712.222,-8.789,101.562,-15.137,8.789,0.000,0
110712.226,-15.137,106.445,-68.848,1.465,0.000,0
110712.230,4.883,110.352,-37.598,14.160,0.000,0
110712.234,17.090,106.445,11.230,3.418,0.000,0
110712.238,0.977,96.191,16.113,-5.371,0.000,0
110712.241,-18.066,93.750,-53.223,-0.488,0.000,0
110712.245,7.324,86.914,-54.199,-5.859,0.000,0
110712.249,11.230,70.801,-8.301,-17.578,0.000,0
110712.253,1.465,60.059,-18.555,-26.855,0.000,0
110712.257,-19.531,48.340,-69.824,-42.480,0.000,0
110712.261,-27.344,49.316,-84.473,-35.156,0.000,0
110712.265,-7.812,50.293,-41.016,-29.785,0.000,0
110712.269,-9.277,36.133,-48.828,-27.344,0.000,0
110712.273,-19.531,20.996,-101.562,-25.391,0.000,0
110712.277,-40.039,12.695,-96.191,-40.527,0.000,0
110712.280,-52.246,6.836,-54.688,-43.945,0.000,0
110712.284,-47.852,6.836,-44.922,-51.270,0.000,0
110712.288,-52.246,15.625,-102.051,-45.898,0.000,0
110712.292,-56.152,23.438,-160.156,-26.855,0.000,0
110712.296,-42.969,22.461,-77.148,-23.438,0.000,0
110712.300,-27.832,32.227,-13.672,-22.461,0.000,0
110712.304,-34.668,40.039,-65.430,-22.461,0.000,0
110712.308,-52.734,42.480,-114.746,-24.414,0.000,0
110712.312,-58.594,51.270,-106.445,-25.391,0.000,0
110712.316,-55.176,45.410,-24.902,-39.062,0.000,0
110712.320,-34.668,45.898,-53.711,-41.992,0.000,0
110712.323,-28.809,53.223,-108.887,-27.832,0.000,0
110712.327,-55.664,58.105,-85.449,-20.020,0.000,0
110712.331,-34.180,55.664,-55.664,-25.391,0.000,0
110712.335,-5.371,40.039,-32.227,-35.156,0.000,0
110712.339,-41.016,39.062,-51.270,-27.832,0.000,0
110712.343,-64.453,44.922,-77.637,-15.137,0.000,0
110712.347,-23.438,40.039,-74.219,-23.926,0.000,0
110712.351,14.160,41.504,-20.996,-15.137,0.000,0
110712.355,-16.113,41.504,-5.371,-14.648,0.000,0
110712.359,-47.363,46.387,-44.922,-15.625,0.000,0
110712.363,-42.969,48.340,-28.809,-19.531,0.000,0
110712.366,-15.137,34.180,-2.930,-23.926,0.000,0
110712.370,-7.324,30.273,-40.527,-19.043,0.000,0
110712.374,-58.594,28.809,-87.402,-9.766,0.000,0
110712.378,-65.430,30.762,-79.590,0.000,0.000,0
110712.382,-5.859,40.039,-62.988,-16.113,0.000,0
110712.386,6.836,55.176,-53.711,-7.812,0.000,0
110712.390,-41.992,65.918,-67.871,0.000,0.000,0
110712.394,-42.480,66.406,-92.773,-12.207,0.000,0
110712.398,-9.277,65.430,-49.805,-12.695,0.000,0
110712.402,-0.488,67.383,-33.691,-10.254,0.000,0
110712.405,-7.324,71.777,-83.496,-1.953,0.000,0
110712.409,-21.973,65.918,-81.055,0.000,0.000,0
110712.413,-17.578,64.453,-50.781,-5.371,0.000,0
110712.417,-18.066,65.430,-22.461,-21.973,0.000,0
110712.421,-36.621,61.035,-71.289,-14.648,0.000,0
110712.425,-41.992,65.430,-159.180,-7.812,0.000,0
110712.429,-26.367,71.777,-144.531,-28.809,0.000,0
110712.433,-25.391,63.477,-46.387,-38.574,0.000,0
110712.437,-30.762,63.477,-67.383,-37.109,0.000,0
110712.441,-42.480,72.266,-156.250,-31.738,0.000,0
110712.445,-56.152,56.641,-114.258,-33.691,0.000,0
110712.448,-45.898,37.598,-37.109,-27.832,0.000,0
110712.452,-11.719,29.297,-47.852,-19.043,0.000,0
110712.456,-41.016,29.297,-88.379,-20.996,0.000,0
110712.460,-58.105,32.715,-97.656,-19.531,0.000,0
110712.464,-19.531,23.438,-66.406,-12.207,0.000,0
110712.468,-19.043,33.203,-51.758,-19.043,0.000,0
110712.472,-17.578,43.457,-106.934,-23.926,0.000,0
110712.476,-29.297,37.109,-105.469,-17.578,0.000,0
110712.480,-45.898,35.645,-52.246,-23.926,0.000,0
110712.484,3.418,34.180,-62.988,-20.996,0.000,0
110712.488,12.695,29.297,-67.871,-15.625,0.000,0
110712.491,-37.598,17.578,-72.266,-20.508,0.000,0
110712.495,-48.340,7.324,-41.016,-28.320,0.000,0
110712.499,-12.207,14.648,-8.789,-36.621,0.000,0
110712.503,-13.184,14.648,-39.062,-30.273,0.000,0
110712.507,-52.246,21.484,-95.703,-31.738,0.000,0
110712.511,-58.105,29.785,-88.379,-41.016,0.000,0
110712.515,-24.902,36.133,-54.199,-43.945,0.000,0
110712.519,-29.785,40.527,-62.988,-38.086,0.000,0
110712.523,-65.918,36.133,-88.867,-28.809,0.000,0
110712.527,-82.520,41.504,-117.188,-45.898,0.000,0
110712.530,-32.227,48.340,-83.008,-52.246,0.000,0
110712.534,-2.441,50.781,-22.461,-36.133,0.000,0
110712.538,-38.086,45.410,-52.734,-43.945,0.000,0
110712.542,-62.988,44.922,-121.094,-50.293,0.000,0
110712.546,-63.965,51.270,-123.047,-41.016,0.000,0
110712.550,-48.828,39.062,-68.848,-59.082,0.000,0
110712.554,-59.570,23.926,-88.867,-67.383,0.000,0
110712.558,-72.266,27.832,-174.316,-54.199,0.000,0
110712.562,-73.242,30.273,-132.812,-37.109,0.000,0
110712.566,-61.523,20.508,-55.176,-44.922,0.000,0
110712.570,-69.336,17.090,-57.617,-60.547,0.000,0
110712.573,-78.613,17.578,-112.793,-72.754,0.000,0
110712.577,-77.148,21.484,-131.348,-72.266,0.000,0
110712.581,-52.734,22.949,-75.195,-54.688,0.000,0
110712.585,-19.043,10.742,-54.199,-57.129,0.000,0
110712.589,-47.363,-5.371,-119.141,-63.965,0.000,0
110712.593,-74.707,-3.418,-112.305,-58.594,0.000,0
110712.597,-51.758,11.719,-56.152,-45.898,0.000,0
110712.601,-23.926,9.277,-21.973,-49.316,0.000,0
110712.605,-37.109,2.441,-45.410,-50.293,0.000,0
110712.609,-77.637,8.301,-93.262,-41.504,0.000,0
110712.613,-82.520,-1.953,-44.922,-48.340,0.000,0
110712.616,-52.734,-11.719,-7.812,-53.223,0.000,0
110712.620,-26.367,1.465,-69.336,-56.152,0.000,0
110712.624,-50.781,25.879,-101.074,-45.410,0.000,0
110712.628,-71.289,40.527,-73.730,-37.598,0.000,0
110712.632,-35.645,37.598,-9.766,-61.523,0.000,0
110712.636,-26.855,30.762,-27.344,-53.711,0.000,0
110712.640,-52.734,33.203,-116.699,-37.598,0.000,1
110712.644,-57.617,25.879,-115.234,-26.855,0.000,0
110712.648,-22.949,20.996,-49.805,-22.949,0.000,0
110712.652,0.977,28.809,-39.551,-38.574,0.000,0
110712.655,-41.992,24.902,-82.031,-41.504,0.000,0
110712.659,-83.984,14.648,-86.914,-20.996,0.000,0
110712.663,-54.199,6.348,-67.871,-22.461,0.000,0
110712.667,-13.672,10.742,-42.480,-40.527,0.000,0
110712.671,-24.414,26.367,-49.316,-35.156,0.000,0
110712.675,-31.738,41.016,-98.145,-29.785,0.000,0
110712.679,-13.672,42.480,-90.332,-29.785,0.000,0
110712.683,7.812,46.387,-32.715,-24.902,0.000,0
110712.687,9.766,56.152,-41.504,-17.578,0.000,0
110712.691,-20.996,52.246,-77.637,-13.672,0.000,0
110712.695,-40.527,57.617,-69.824,-5.859,0.000,0
110712.698,-8.789,55.664,-64.453,-3.906,0.000,0
110712.702,-15.137,33.203,-71.777,-17.578,0.000,0
110712.706,-44.434,27.344,-116.699,-26.367,0.000,0
110712.710,-44.922,29.785,-118.652,-27.832,0.000,0
110712.714,-36.133,31.738,-54.688,-45.410,0.000,0
110712.718,-32.227,33.691,-37.598,-43.945,0.000,0
110712.722,-42.480,33.691,-102.539,-35.156,0.000,0
110712.726,-50.293,35.645,-144.043,-28.809,0.000,0
110712.730,-40.039,28.809,-98.633,-22.461,0.000,0
110712.734,-20.996,11.230,-13.672,-13.184,0.000,0
110712.738,-18.066,6.348,-41.992,-11.230,0.000,0
110712.741,-30.273,9.277,-100.098,-25.391,0.000,0
110712.745,-23.926,21.484,-85.938,-16.602,0.000,0
110712.749,-20.508,29.297,-23.438,-10.254,0.000,0
110712.753,-16.602,34.180,-14.160,-29.297,0.000,0
110712.757,-22.461,35.645,-80.078,-23.438,0.000,0
110712.761,-42.969,22.461,-98.145,-4.395,0.000,0
110712.765,-38.086,22.949,-38.086,-14.648,0.000,0
110712.769,-0.977,37.598,-34.668,-21.484,0.000,0
110712.773,-16.113,43.945,-80.078,-13.672,0.000,0
110712.777,-50.293,38.574,-106.934,-18.066,0.000,0
110712.780,-43.945,39.062,-102.051,-18.555,0.000,0
110712.784,-24.902,48.828,-82.031,-21.973,0.000,0
110712.788,-34.668,53.711,-106.934,-20.508,0.000,0
110712.792,-59.570,48.828,-119.629,0.977,0.000,0
110712.796,-65.918,40.527,-83.984,1.465,0.000,0
110712.800,-26.855,41.504,-59.082,-23.438,0.000,0
110712.804,7.324,49.805,-65.918,-24.902,0.000,0
110712.808,-37.109,48.828,-58.594,-6.836,0.000,0
110712.812,-57.129,42.480,-57.129,-3.906,0.000,0
110712.816,-8.301,28.320,-42.480,-24.414,0.000,0
110712.820,-0.977,13.672,-39.551,-39.062,0.000,0
110712.823,-28.809,13.672,-110.352,-29.297,0.000,0
110712.827,-21.484,15.625,-128.418,-27.832,0.000,0
110712.831,-3.418,23.438,-13.184,-28.809,0.000,0
110712.835,24.414,36.133,40.527,-13.184,0.000,0
110712.839,-13.184,12.695,-42.969,-35.156,0.000,0
110712.843,-108.398,-42.480,-125.000,-102.051,0.000,0
110712.847,-113.281,-81.543,-139.160,-135.742,0.000,0
110712.851,-106.445,-96.191,-124.512,-143.555,0.000,0
110712.855,-151.367,-98.145,-150.391,-137.207,0.000,0
110712.859,-150.879,-99.121,-216.309,-142.090,0.000,0
110712.863,-140.137,-100.586,-222.656,-145.508,0.000,0
110712.866,-128.906,-99.609,-171.875,-144.043,0.000,0
110712.870,-131.348,-93.262,-154.297,-141.113,0.000,0
110712.874,-154.785,-81.055,-228.027,-119.141,0.000,0
110712.878,-134.277,-78.125,-252.441,-112.305,0.000,0
110712.882,-116.211,-83.008,-175.293,-130.859,0.000,0
110712.886,-112.305,-80.078,-147.461,-135.742,0.000,0
110712.890,-121.094,-64.453,-188.477,-115.234,0.000,0
110712.894,-133.301,-50.293,-216.797,-102.539,0.000,0
110712.898,-119.629,-55.664,-149.902,-97.656,0.000,0
110712.902,-87.891,-58.594,-115.234,-96.680,0.000,0
110712.905,-74.707,-46.875,-172.852,-99.609,0.000,0
110712.909,-105.957,-41.992,-179.688,-100.586,0.000,0
110712.913,-98.145,-40.527,-153.320,-83.496,0.000,0
110712.917,-51.270,-46.387,-117.188,-74.707,0.000,0
110712.921,-55.176,-49.316,-123.535,-67.383,0.000,0
110712.925,-77.148,-38.574,-192.383,-61.035,0.000,0
110712.929,-66.895,-29.785,-145.020,-73.242,0.000,0
110712.933,-48.828,-19.531,-81.543,-76.172,0.000,0
110712.937,-49.316,-9.766,-108.398,-69.824,0.000,0
110712.941,-62.988,-3.418,-151.367,-60.059,0.000,0
110712.945,-68.359,7.324,-120.117,-48.828,0.000,0
110712.948,-29.297,0.977,-64.453,-59.570,0.000,0
110712.952,-1.465,-4.395,-88.867,-53.711,0.000,0
110712.956,-36.133,-2.930,-143.066,-32.227,0.000,0
110712.960,-62.500,3.418,-147.949,-37.109,0.000,0
110712.964,-38.574,19.531,-127.441,-38.086,0.000,0
110712.968,-11.719,13.672,-73.730,-38.086,0.000,0
110712.972,-33.203,9.766,-95.703,-40.039,0.000,0
110712.976,-60.547,8.789,-133.301,-33.203,0.000,0
110712.980,-26.367,0.000,-104.980,-31.738,0.000,0
110712.984,-11.230,-13.184,-43.945,-38.574,0.000,0
110712.988,-36.621,-23.438,-49.316,-43.457,0.000,0
110712.991,-58.105,-10.254,-133.301,-37.109,0.000,0
110712.995,-45.898,0.000,-154.297,-38.574,0.000,0
110712.999,-22.461,-7.324,-101.562,-45.410,0.000,0
110713.003,-34.668,2.930,-71.777,-36.621,0.000,0
110713.007,-53.223,13.184,-104.492,-30.762,0.000,0
110713.011,-60.547,12.695,-136.719,-48.340,0.000,0
110713.015,-50.293,9.277,-105.469,-65.918,0.000,0
110713.019,-24.902,2.930,-81.055,-60.547,0.000,0
110713.023,-36.621,-1.465,-118.164,-45.410,0.000,0
110713.027,-58.105,-12.207,-142.578,-34.180,0.000,0
110713.030,-51.270,-21.973,-106.934,-40.527,0.000,0
110713.034,-41.504,-20.508,-70.801,-33.691,0.000,0
110713.038,-54.688,-27.344,-112.793,-28.809,0.000,0
110713.042,-70.312,-32.227,-156.738,-43.945,0.000,0
110713.046,-74.219,-36.621,-106.934,-59.082,0.000,0
110713.050,-65.918,-38.086,-54.688,-53.223,0.000,0
110713.054,-59.570,-34.668,-107.422,-41.504,0.000,0
110713.058,-56.641,-33.203,-162.598,-49.805,0.000,0
110713.062,-55.664,-24.902,-150.391,-41.504,0.000,0
110713.066,-51.758,-29.297,-97.168,-47.852,0.000,0
110713.070,-31.250,-30.273,-62.500,-57.129,0.000,0
110713.073,-45.410,-20.996,-109.375,-43.945,0.000,0
110713.077,-73.242,-17.578,-112.305,-30.762,0.000,0
110713.081,-37.109,-12.207,-56.152,-30.273,0.000,0
110713.085,-4.395,-9.766,-40.039,-45.898,0.000,0
110713.089,-32.227,0.488,-83.008,-35.156,0.000,0
110713.093,-62.012,12.695,-112.793,-21.973,0.000,0
110713.097,-47.363,8.789,-87.891,-36.133,0.000,0
110713.101,-21.973,1.953,-61.035,-46.875,0.000,0
110713.105,-37.598,4.395,-93.262,-49.805,0.000,0
110713.109,-75.684,13.672,-131.836,-51.758,0.000,0
110713.113,-69.336,13.184,-100.098,-45.898,0.000,0
110713.116,-30.273,8.301,-36.621,-36.133,0.000,0
110713.120,-28.809,11.230,-54.199,-32.715,0.000,0
110713.124,-64.941,18.555,-86.426,-38.574,0.000,0
110713.128,-60.547,13.672,-55.664,-30.762,0.000,0
110713.132,-24.414,0.488,-43.457,-38.086,0.000,0
110713.136,-42.480,-2.441,-38.574,-33.691,0.000,0
110713.140,-66.895,1.465,-100.098,-21.484,0.000,0
110713.144,-45.410,-2.930,-97.168,-36.621,0.000,0
110713.148,-21.484,-1.465,8.301,-37.598,0.000,0
110713.152,-9.277,22.461,-12.695,-14.648,0.000,0
110713.155,-17.090,44.434,-94.238,-0.977,0.000,0
110713.159,-14.648,50.781,-79.590,-11.719,0.000,0
110713.163,0.977,41.504,12.207,-17.578,0.000,0
110713.167,-1.953,31.250,-3.418,-14.648,0.000,0
110713.171,-27.832,30.273,-84.961,-10.254,0.000,0
110713.175,-49.805,19.043,-119.141,-22.461,0.000,0
110713.179,-36.133,17.578,-79.590,-25.391,0.000,0
110713.183,-13.184,29.785,-8.789,-14.160,0.000,0
110713.187,-21.973,43.457,-73.730,-14.160,0.000,0
110713.191,-38.086,50.293,-160.156,-6.836,0.000,0
110713.195,-37.598,46.387,-104.004,-2.930,0.000,0
110713.198,-20.020,39.062,-26.367,-28.809,0.000,0
110713.202,-12.695,34.180,-40.527,-48.340,0.000,0
110713.206,-33.203,46.387,-77.637,-37.598,0.000,0
110713.210,-45.410,54.199,-79.102,-22.461,0.000,0
110713.214,-26.855,50.293,-54.199,-24.414,0.000,0
110713.218,-37.598,47.852,-62.500,-45.898,0.000,0
110713.222,-55.664,44.434,-100.586,-54.688,0.000,0
110713.226,-64.941,46.387,-98.145,-42.480,0.000,0
110713.230,-53.711,51.270,-54.688,-20.996,0.000,0
110713.234,-10.742,57.129,-70.312,-29.785,0.000,0
110713.238,-23.926,56.152,-136.719,-40.527,0.000,0
110713.241,-54.688,33.691,-113.770,-30.762,0.000,0
110713.245,-28.320,25.391,-40.527,-27.344,0.000,0
110713.249,-0.488,32.715,-40.527,-30.273,0.000,0
110713.253,-29.785,28.809,-85.938,-38.086,0.000,0
110713.257,-61.035,26.855,-112.305,-27.344,0.000,0
110713.261,-54.688,22.461,-74.219,-23.926,0.000,0
110713.265,-32.715,16.602,-22.461,-26.367,0.000,0
110713.269,-25.879,23.438,-37.598,-26.855,0.000,0
110713.273,-39.062,36.133,-97.168,-24.902,0.000,0
110713.277,-31.738,43.945,-120.117,-10.742,0.000,0
110713.280,-7.812,36.133,-43.945,-9.277,0.000,0
110713.284,-26.855,34.668,-6.348,-23.926,0.000,0
110713.288,-50.293,41.992,-91.309,-21.484,0.000,0
110713.292,-41.016,42.969,-126.465,-23.438,0.000,0
110713.296,-21.484,53.223,-57.617,-21.973,0.000,0
110713.300,-13.672,61.523,-9.277,-26.367,0.000,0
110713.304,-32.715,54.199,-56.152,-31.738,0.000,0
110713.308,-41.016,49.805,-114.746,-19.043,0.000,0
110713.312,-43.945,45.410,-72.266,-27.344,0.000,0
110713.316,-41.992,41.016,-24.902,-29.785,0.000,0
110713.320,-38.086,37.109,-40.527,-27.344,0.000,0
110713.323,-26.855,35.645,-95.703,-23.926,0.000,0
110713.327,-28.809,35.156,-109.863,-8.789,0.000,0
110713.331,-24.902,14.160,-34.668,-19.043,0.000,0
110713.335,-6.836,20.996,-59.570,-37.598,0.000,1
110713.339,-20.508,36.133,-125.000,-30.273,0.000,0
110713.343,-38.086,35.645,-90.332,-20.996,0.000,0
110713.347,5.859,42.969,-36.133,-7.324,0.000,0
110713.351,39.551,45.410,-16.602,14.648,0.000,0
110713.355,2.930,44.434,-67.383,17.090,0.000,0
110713.359,-27.832,34.668,-75.684,7.812,0.000,0
110713.363,-6.348,32.227,-9.766,4.883,0.000,0
110713.366,26.855,38.574,-16.602,4.883,0.000,0
110713.370,22.461,36.621,-95.215,24.902,0.000,0
110713.374,-39.062,28.809,-128.906,7.812,0.000,0
110713.378,-49.316,23.438,-82.031,-18.066,0.000,0
110713.382,-9.277,24.414,-19.043,-21.973,0.000,0
110713.386,-2.441,26.855,-56.641,-6.348,0.000,0
110713.390,-30.762,24.902,-102.051,11.230,0.000,0
110713.394,-44.922,15.625,-94.727,-4.883,0.000,0
110713.398,-9.277,21.973,-75.684,-5.371,0.000,0
110713.402,-26.367,30.762,-61.523,11.719,0.000,0
110713.405,-53.223,39.062,-95.703,6.348,0.000,0
110713.409,-50.293,45.410,-118.164,-24.414,0.000,0
110713.413,-20.020,54.688,-89.844,-20.508,0.000,0
110713.417,11.230,71.289,-78.125,-19.531,0.000,0
110713.421,-7.324,80.078,-69.336,3.906,0.000,0
110713.425,-20.996,83.496,-108.887,20.508,0.000,0
110713.429,3.906,74.707,-108.398,2.930,0.000,0
110713.433,15.137,49.316,-39.551,5.859,0.000,0
110713.437,-7.812,43.945,-80.078,-6.836,0.000,0
110713.441,-32.227,46.387,-119.629,-16.113,0.000,0
110713.445,-30.762,43.457,-82.520,-13.672,0.000,0
110713.448,-4.883,41.504,-41.504,-18.066,0.000,0
110713.452,-41.016,24.414,-40.527,-12.207,0.000,0
110713.456,-64.941,28.809,-117.676,-9.277,0.000,0
110713.460,-43.945,41.992,-114.746,-30.762,0.000,0
110713.464,-38.086,49.316,-41.992,-32.227,0.000,0
110713.468,-20.020,62.500,-46.387,-5.859,0.000,0
110713.472,-25.391,58.105,-107.422,-0.977,0.000,0
110713.476,-22.461,58.105,-105.957,-8.301,0.000,0
110713.480,0.000,65.430,-15.625,-15.137,0.000,0
110713.484,5.859,61.523,3.906,-13.672,0.000,0
110713.488,4.883,55.176,-61.523,7.324,0.000,0
110713.491,-20.020,50.781,-90.820,17.578,0.000,0
110713.495,-21.973,60.547,-58.594,12.207,0.000,0
110713.499,18.555,65.918,4.883,6.348,0.000,0
110713.503,31.250,77.148,-33.691,6.348,0.000,0
110713.507,17.090,83.984,-112.793,12.207,0.000,0
110713.511,0.977,82.520,-42.969,24.414,0.000,0
110713.515,-0.488,81.055,2.441,13.184,0.000,0
110713.519,8.301,66.895,-30.762,-6.348,0.000,0
110713.523,-25.391,58.105,-58.105,-5.859,0.000,0
110713.527,-40.039,55.176,-66.895,-5.371,0.000,0
110713.530,-23.926,48.340,-31.250,-14.160,0.000,0
110713.534,-11.230,38.086,-21.973,-23.926,0.000,0
110713.538,-42.480,29.785,-46.875,-17.090,0.000,0
110713.542,-80.566,26.855,-88.867,-20.508,0.000,0
110713.546,-49.805,23.926,-40.039,-14.160,0.000,0
110713.550,0.000,23.438,-9.277,-7.324,0.000,0
110713.554,-23.926,15.137,-52.734,-9.277,0.000,0
110713.558,-74.219,4.883,-51.270,-2.930,0.000,0
110713.562,-38.574,4.883,-43.945,-1.953,0.000,0
110713.566,4.883,1.465,-18.555,-24.902,0.000,0
110713.570,-11.230,5.859,-45.898,-8.789,0.000,0
110713.573,-24.902,19.531,-99.609,16.602,0.000,0
110713.577,-27.344,15.625,-74.219,-17.578,0.000,0
110713.581,-34.668,15.625,-37.598,-28.320,0.000,0
110713.585,-10.254,31.250,-52.246,-19.531,0.000,0
110713.589,-23.926,30.762,-98.145,-18.555,0.000,0
110713.593,-57.617,28.320,-93.750,-10.254,0.000,0
110713.597,-23.926,24.414,-37.598,-31.738,0.000,0
110713.601,-23.438,25.879,-11.719,-31.738,0.000,0
110713.605,-47.852,38.086,-75.684,-8.301,0.000,0
110713.609,-53.223,47.363,-129.395,-17.578,0.000,0
110713.613,-49.805,48.828,-92.285,-25.879,0.000,0
110713.616,-23.438,42.969,-32.715,-24.414,0.000,0
110713.620,-26.367,53.223,-54.199,-12.695,0.000,0
110713.624,-52.734,60.059,-134.766,3.418,0.000,0
110713.628,-44.434,57.129,-74.219,0.000,0.000,0
110713.632,-8.301,60.547,4.395,4.395,0.000,0
110713.636,-16.602,48.828,-43.457,-3.418,0.000,0
110713.640,-61.523,41.504,-113.281,-18.555,0.000,0
110713.644,-73.242,44.922,-84.961,-18.555,0.000,0
110713.648,-44.434,44.434,-36.621,-25.879,0.000,0
110713.652,-24.902,50.293,-92.285,-31.250,0.000,0
110713.655,-47.852,55.176,-131.348,-27.832,0.000,0
110713.659,-58.105,43.457,-72.754,-21.973,0.000,0
110713.663,-19.531,41.016,-21.973,-15.625,0.000,0
110713.667,-12.695,42.969,-49.316,-14.160,0.000,0
110713.671,-45.898,49.805,-112.793,-9.277,0.000,0
110713.675,-47.363,64.453,-90.332,0.000,0.000,0
110713.679,-2.441,77.637,-17.578,18.555,0.000,0
110713.683,3.906,86.426,-23.438,21.484,0.000,0
110713.687,-41.992,87.402,-63.965,4.883,0.000,0
110713.691,-61.035,88.379,-69.336,-4.883,0.000,0
110713.695,-20.020,80.566,-44.434,-10.254,0.000,0
110713.698,-3.418,70.312,-20.508,-8.301,0.000,0
110713.702,-16.602,82.520,-75.684,15.625,0.000,0
110713.706,-31.738,93.262,-151.855,18.066,0.000,0
110713.710,-26.855,94.727,-86.426,-5.859,0.000,0
110713.714,-3.906,101.074,0.000,-5.859,0.000,0
110713.718,-12.695,109.375,-20.508,19.531,0.000,0
110713.722,-50.293,111.816,-90.820,1.465,0.000,0
110713.726,-46.387,112.793,-66.406,-15.137,0.000,0
110713.730,-16.602,108.887,-7.324,-1.465,0.000,0
110713.734,-28.320,105.957,-9.277,15.137,0.000,0
110713.738,-44.434,101.562,-50.781,13.672,0.000,0
110713.741,-36.133,87.891,-99.609,0.977,0.000,0
110713.745,-4.395,83.496,-84.961,9.766,0.000,0
110713.749,-0.488,81.543,-40.039,7.324,0.000,0
110713.753,-17.578,84.961,-62.012,13.672,0.000,0
110713.757,-34.668,86.426,-75.195,19.531,0.000,0
110713.761,-26.855,84.961,-60.059,-4.883,0.000,0
110713.765,-5.371,74.707,-46.387,-4.395,0.000,0
110713.769,-25.879,54.199,-78.125,4.395,0.000,0
110713.773,-41.504,40.039,-108.887,1.953,0.000,0
110713.777,-26.367,24.414,-73.730,-1.953,0.000,0
110713.780,-15.625,17.090,-36.621,-15.625,0.000,0
110713.784,-39.062,22.949,-76.660,-10.254,0.000,0
110713.788,-39.551,37.109,-146.973,-3.906,0.000,0
110713.792,-41.504,31.738,-83.984,-2.441,0.000,0
110713.796,-59.082,14.160,23.438,1.953,0.000,0
110713.800,-38.086,7.324,-22.949,-10.254,0.000,0
110713.804,-45.898,2.930,-70.801,-3.418,0.000,0
110713.808,-65.918,7.324,-57.617,13.672,0.000,0
110713.812,-41.992,12.207,-15.625,7.324,0.000,0
110713.816,-24.414,24.414,-6.836,6.836,0.000,0
110713.820,-50.781,35.156,-53.223,10.254,0.000,0
110713.823,-71.289,16.602,-67.871,-4.395,0.000,0
110713.827,-50.293,9.277,-38.574,-13.672,0.000,0
110713.831,-0.488,19.043,-21.973,-1.953,0.000,0
110713.835,16.113,28.809,-39.551,14.648,0.000,0
110713.839,-41.992,22.461,-44.922,2.441,0.000,0
110713.843,-59.082,9.766,-40.527,-9.766,0.000,0
110713.847,-15.625,19.531,-53.223,-16.113,0.000,0
110713.851,-18.066,20.996,-51.758,-35.645,0.000,0
110713.855,-52.246,10.742,-49.316,-21.973,0.000,0
110713.859,-50.781,15.625,-50.781,0.977,0.000,0
110713.863,-11.230,15.137,-13.672,-17.090,0.000,0
110713.866,15.625,24.414,-6.836,3.906,0.000,0
110713.870,-12.207,39.551,-52.246,33.691,0.000,0
110713.874,-32.227,39.062,-59.082,14.648,0.000,0
110713.878,-5.371,34.180,-3.418,-9.766,0.000,0
110713.882,12.695,34.180,11.719,-12.695,0.000,0
110713.886,-31.738,36.133,-56.641,-10.254,0.000,0
110713.890,-50.781,34.180,-113.770,-29.297,0.000,0
110713.894,-26.855,28.809,-59.082,-33.691,0.000,0
110713.898,-10.254,28.809,-32.715,-16.113,0.000,0
110713.902,-19.531,32.227,-82.520,-22.461,0.000,0
110713.905,-35.645,40.527,-128.906,-12.207,0.000,0
110713.909,-20.996,49.316,-83.496,1.465,0.000,0
110713.913,-0.488,47.363,5.859,-2.441,0.000,0
110713.917,4.883,41.992,-19.531,-6.348,0.000,0
110713.921,-13.672,35.645,-70.312,16.113,0.000,0
110713.925,-13.184,33.691,-78.125,15.137,0.000,0
110713.929,0.488,32.227,0.000,-8.789,0.000,0
110713.933,3.906,30.273,51.270,-2.930,0.000,0
110713.937,-10.742,41.016,-38.086,16.113,0.000,0
110713.941,-23.926,42.480,-72.754,10.742,0.000,0
110713.945,-3.418,42.480,-9.277,13.184,0.000,0
110713.948,23.926,58.594,1.465,11.719,0.000,0
110713.952,0.000,59.082,-26.855,-10.254,0.000,0
110713.956,-38.086,48.828,-57.129,-21.973,0.000,1
110713.960,-59.082,37.109,-30.762,-31.250,0.000,0
110713.964,-36.133,34.180,-13.184,-28.320,0.000,0
110713.968,-32.227,42.969,-60.547,-25.391,0.000,0
110713.972,-72.754,45.898,-80.078,-33.691,0.000,0
110713.976,-53.223,64.941,-63.477,-12.695,0.000,0
110713.980,12.207,80.078,-36.621,-11.230,0.000,0
110713.984,15.625,67.383,-40.527,-17.578,0.000,0
110713.988,-9.766,59.082,-91.797,1.465,0.000,0
110713.991,-18.555,58.594,-78.125,-4.883,0.000,0
110713.995,3.906,67.383,-45.410,-4.395,0.000,0
110713.999,22.461,71.777,-59.570,0.977,0.000,0
110714.003,0.488,63.477,-78.125,-0.977,0.000,0
110714.007,-19.531,62.012,-102.539,-2.441,0.000,0
110714.011,1.953,62.988,-49.805,-1.953,0.000,0
110714.015,13.184,60.059,10.254,-12.207,0.000,0
110714.019,-16.602,57.617,-38.086,-13.184,0.000,0
110714.023,-24.414,53.223,-87.402,12.207,0.000,0
110714.027,7.324,48.340,-69.336,12.207,0.000,0
110714.030,23.926,44.922,-8.301,-7.324,0.000,0
110714.034,-1.953,47.363,-29.785,-11.230,0.000,0
110714.038,-20.996,50.781,-113.281,-12.207,0.000,0
110714.042,-13.672,36.621,-95.703,-21.484,0.000,0
110714.046,-9.766,24.902,-27.832,-15.137,0.000,0
110714.050,-19.531,28.320,-44.434,-29.297,0.000,0
110714.054,-44.922,37.598,-90.820,-44.922,0.000,0
110714.058,-41.504,40.039,-125.977,-26.367,0.000,0
110714.062,-31.738,27.344,-93.262,-19.043,0.000,0
110714.066,-37.109,9.277,-29.297,-23.438,0.000,0
110714.070,-35.645,-4.395,-72.754,-35.645,0.000,0
110714.073,-27.344,1.953,-92.285,-24.414,0.000,0
110714.077,1.953,20.508,-35.645,-4.395,0.000,0
110714.081,22.949,20.020,0.000,-11.230,0.000,0
110714.085,13.184,13.184,-31.738,-4.395,0.000,0
110714.089,-0.488,16.113,-67.871,5.859,0.000,0
110714.093,4.883,24.902,-36.621,1.465,0.000,0
110714.097,15.625,30.762,2.930,8.301,0.000,0
110714.101,22.949,32.227,-31.738,8.301,0.000,0
110714.105,1.465,23.926,-63.965,0.000,0.000,0
110714.109,-24.414,16.602,-19.531,4.883,0.000,0
110714.113,-9.766,18.555,22.949,7.324,0.000,0
110714.116,6.348,22.461,-46.875,3.906,0.000,0
110714.120,-25.391,35.156,-78.613,0.488,0.000,0
110714.124,-34.180,40.527,-32.715,3.418,0.000,0
110714.128,8.301,30.273,0.000,1.465,0.000,0
110714.132,19.043,32.715,-14.648,-3.906,0.000,0
110714.136,-26.855,40.039,-68.848,-3.906,0.000,0
110714.140,-40.527,39.062,-73.242,0.000,0.000,0
110714.144,-6.836,35.156,-5.371,-1.953,0.000,0
110714.148,5.371,35.645,-2.441,-2.930,0.000,0
110714.152,-18.066,41.992,-72.754,7.324,0.000,0
110714.155,-44.434,34.668,-56.641,4.395,0.000,0
110714.159,-26.855,36.133,-12.695,-6.836,0.000,0
110714.163,16.602,46.387,-9.766,-4.883,0.000,0
110714.167,1.953,50.781,3.418,11.719,0.000,0
110714.171,-40.039,55.664,-28.320,24.902,0.000,0
110714.175,-12.207,47.852,-56.641,18.555,0.000,0
110714.179,25.391,39.062,-7.324,14.648,0.000,0
110714.183,11.230,32.227,-5.859,16.113,0.000,0
110714.187,-17.090,19.531,-51.758,24.414,0.000,0
110714.191,-6.836,18.555,-42.480,31.738,0.000,0
110714.195,8.789,16.602,-1.953,18.555,0.000,0
110714.198,-5.859,14.648,-19.043,11.719,0.000,0
110714.202,-28.809,23.926,-74.707,23.438,0.000,0
110714.206,-23.926,31.250,-74.707,18.555,0.000,0
110714.210,2.441,33.691,2.930,9.277,0.000,0
110714.214,6.348,35.645,30.273,19.043,0.000,0
110714.218,-4.395,38.574,-51.270,23.926,0.000,0
110714.222,-14.648,40.039,-83.008,16.602,0.000,0
110714.226,-2.930,34.668,-5.859,6.348,0.000,0
110714.230,-1.953,37.109,-6.348,6.348,0.000,0
110714.234,-11.719,45.898,-97.656,12.695,0.000,0
110714.238,-3.906,50.781,-118.652,16.113,0.000,0
110714.241,5.859,48.828,-48.828,22.949,0.000,0
110714.245,6.836,30.762,-8.789,23.438,0.000,0
110714.249,-14.160,25.879,-121.094,15.625,0.000,0
110714.253,-49.316,27.344,-134.766,16.113,0.000,0
110714.257,-51.758,25.391,-25.879,9.766,0.000,0
110714.261,-20.508,33.203,-20.020,-9.277,0.000,0
110714.265,-26.367,38.574,-63.965,-24.414,0.000,0
110714.269,-59.082,41.992,-96.680,-8.789,0.000,0
110714.273,-54.688,38.086,-77.148,3.418,0.000,0
110714.277,-17.578,36.621,-37.109,3.906,0.000,0
110714.280,-21.484,40.039,-54.199,2.930,0.000,0
110714.284,-63.965,41.992,-59.082,-4.395,0.000,0
110714.288,-57.617,47.363,-55.664,8.789,0.000,0
110714.292,-11.230,49.316,-38.086,-1.953,0.000,0
110714.296,-16.113,45.410,4.883,-7.812,0.000,0
110714.300,-47.852,47.852,-25.879,24.414,0.000,0
110714.304,-52.734,51.758,-27.344,25.879,0.000,0
110714.308,0.977,51.758,-11.719,1.465,0.000,0
110714.312,19.531,47.363,-28.809,-3.418,0.000,0
110714.316,-5.859,39.062,-42.480,4.395,0.000,0
110714.320,-1.953,43.457,-69.824,8.789,0.000,0
110714.323,1.465,44.922,-50.293,-3.418,0.000,0
110714.327,23.926,30.273,-13.184,4.883,0.000,0
110714.331,13.672,19.531,-24.902,8.789,0.000,0
110714.335,-11.230,13.184,-55.176,0.977,0.000,0
110714.339,-6.348,7.812,-31.738,1.465,0.000,0
110714.343,2.441,14.648,34.668,2.441,0.000,0
110714.347,-9.277,18.066,27.344,10.742,0.000,0
110714.351,-11.230,21.973,-8.789,6.348,0.000,0
110714.355,1.465,41.016,24.414,9.766,0.000,0
110714.359,4.883,46.387,31.250,3.418,0.000,0
110714.363,-4.395,40.527,-35.156,0.488,0.000,0
110714.366,-15.625,37.109,-62.012,10.742,0.000,0
110714.370,-10.742,35.156,10.742,10.254,0.000,0
110714.374,6.348,39.551,27.832,21.484,0.000,0
110714.378,2.441,43.945,-43.457,25.879,0.000,0
110714.382,-24.414,33.691,-54.688,24.902,0.000,0
110714.386,-16.602,22.949,15.625,26.855,0.000,0
110714.390,-6.348,19.531,35.645,21.484,0.000,0
110714.394,-6.836,32.227,-29.785,7.324,0.000,0
110714.398,-18.066,45.898,-57.617,6.348,0.000,0
110714.402,-40.527,43.457,1.953,15.625,0.000,0
110714.405,-6.836,36.621,19.531,10.254,0.000,0
110714.409,24.414,46.387,-25.391,20.020,0.000,0
110714.413,-2.441,54.688,-63.965,22.949,0.000,0
110714.417,-18.066,44.434,-28.320,18.066,0.000,0
110714.421,-1.465,40.039,-11.230,10.254,0.000,0
110714.425,15.625,35.645,-9.766,0.977,0.000,0
110714.429,5.371,34.668,-14.648,-1.465,0.000,0
110714.433,-38.574,48.340,-37.598,15.137,0.000,0
110714.437,-33.691,51.270,-13.184,22.461,0.000,0
110714.441,9.277,41.016,-12.695,2.441,0.000,0
110714.445,-8.789,33.203,-65.430,-9.277,0.000,0
110714.448,-67.383,20.508,-78.613,-1.465,0.000,0
110714.452,-47.363,10.254,-62.988,-16.602,0.000,0
110714.456,-16.602,7.812,-31.738,-18.066,0.000,0
110714.460,-26.367,16.602,-32.715,-0.977,0.000,0
110714.464,-44.922,22.949,-91.309,2.930,0.000,0
110714.468,-44.434,17.578,-92.285,4.395,0.000,0
110714.472,-22.461,18.555,-45.898,-0.977,0.000,0
110714.476,-15.625,18.066,-45.410,-10.742,0.000,0
110714.480,-29.785,22.461,-83.496,-5.859,0.000,0
110714.484,-53.711,31.738,-85.938,-1.953,0.000,0
110714.488,-29.297,25.391,-65.430,-6.348,0.000,0
110714.491,-18.555,20.508,-42.969,-4.883,0.000,0
110714.495,-43.457,25.879,-65.918,-2.441,0.000,0
110714.499,-36.621,37.598,-100.586,8.301,0.000,0
110714.503,-8.789,39.062,-67.871,8.301,0.000,0
110714.507,2.441,30.273,-16.602,-4.883,0.000,0
110714.511,-2.930,41.016,-67.383,5.859,0.000,0
110714.515,-13.184,51.758,-116.211,10.742,0.000,0
110714.519,-21.973,38.086,-42.480,11.719,0.000,0
110714.523,-14.648,43.457,-10.254,14.648,0.000,0
110714.527,-10.254,47.852,-64.453,11.230,0.000,0
110714.530,-49.316,40.527,-108.398,3.906,0.000,0
110714.534,-67.383,39.551,-77.637,1.953,0.000,0
110714.538,-48.828,37.598,-2.441,8.789,0.000,0
110714.542,-5.371,50.781,-9.766,6.836,0.000,0
110714.546,-17.090,58.594,-65.918,-5.859,0.000,0
110714.550,-38.574,51.270,-81.543,-2.441,0.000,0
110714.554,-8.789,41.016,-23.926,-4.395,0.000,0
110714.558,1.953,44.922,12.207,-2.930,0.000,0
110714.562,0.977,52.734,-62.012,20.020,0.000,0
110714.566,-20.996,43.457,-87.891,26.855,0.000,0
110714.570,-11.230,29.785,-34.180,20.996,0.000,0
110714.573,21.484,22.461,7.812,16.602,0.000,0
110714.577,-9.277,13.672,-27.344,10.742,0.000,0
110714.581,-41.504,11.230,-62.988,18.066,0.000,0
110714.585,-5.371,12.695,-56.641,13.184,0.000,0
110714.589,18.555,10.742,-50.293,-4.395,0.000,0
110714.593,-22.949,3.906,-33.691,-18.066,0.000,0
110714.597,-43.945,6.348,-45.898,-5.859,0.000,0
110714.601,-15.137,19.043,-54.688,7.812,0.000,1
110714.605,-2.930,18.066,-11.719,-1.953,0.000,0
110714.609,-33.203,13.672,-29.785,-0.977,0.000,0
110714.613,-56.641,3.906,-96.680,-2.441,0.000,0
110714.616,-47.852,1.465,-92.285,-14.160,0.000,0
110714.620,-33.203,15.625,-30.273,-2.930,0.000,0
110714.624,-30.273,18.555,-34.180,5.371,0.000,0
110714.628,-40.527,12.695,-112.305,-12.695,0.000,0
110714.632,-44.922,12.695,-115.723,-25.879,0.000,0
110714.636,-45.410,4.883,-28.320,-23.438,0.000,0
110714.640,-40.527,6.348,-6.836,-18.066,0.000,0
110714.644,-35.645,22.461,-99.121,-10.742,0.000,0
110714.648,-26.855,28.809,-145.020,-6.836,0.000,0
110714.652,-13.672,20.020,-33.203,-8.789,0.000,0
110714.655,2.930,25.391,-0.977,13.672,0.000,0
110714.659,1.465,43.945,-97.168,20.020,0.000,0
110714.663,-26.367,45.410,-99.121,13.184,0.000,0
110714.667,-0.977,45.898,-20.020,22.461,0.000,0
110714.671,17.090,51.270,-24.902,15.625,0.000,0
110714.675,5.371,52.734,-125.000,7.812,0.000,0
110714.679,-9.277,45.410,-86.914,10.254,0.000,0
110714.683,-9.766,31.738,-2.930,14.160,0.000,0
110714.687,21.973,28.809,-44.922,-1.953,0.000,0
110714.691,-10.254,40.039,-80.566,-5.859,0.000,0
110714.695,-48.340,35.645,-82.520,0.977,0.000,0
110714.698,-18.555,18.066,-45.898,-7.324,0.000,0
110714.702,4.395,12.695,-32.227,-6.348,0.000,0
110714.706,-20.020,9.277,-91.797,-6.836,0.000,0
110714.710,-48.340,16.602,-105.957,-14.160,0.000,0
110714.714,-30.273,30.273,-56.152,-15.137,0.000,0
110714.718,-11.230,28.809,-33.691,-13.184,0.000,0
110714.722,-8.789,31.250,-86.426,-17.090,0.000,0
110714.726,-41.504,31.738,-85.938,-12.207,0.000,0
110714.730,-38.086,23.438,-15.137,-0.488,0.000,0
110714.734,7.812,26.367,12.207,-22.949,0.000,0
110714.738,-2.441,30.762,9.277,-36.133,0.000,0
110714.741,-34.180,28.809,-18.555,-22.949,0.000,0
110714.745,-25.391,25.391,-0.488,-15.625,0.000,0
110714.749,0.977,22.949,66.895,-18.555,0.000,0
110714.753,1.953,27.832,94.727,-14.648,0.000,0
110714.757,-9.277,36.133,29.785,1.465,0.000,0
110714.761,-18.066,41.504,-21.484,-9.277,0.000,0
110714.765,-16.113,33.691,56.152,-21.973,0.000,0
110714.769,-12.695,20.996,108.887,-13.672,0.000,0
110714.773,-28.320,31.738,22.949,-8.301,0.000,0
110714.777,-30.273,33.203,-45.410,-12.207,0.000,0
110714.780,-8.301,17.090,30.762,-17.578,0.000,0
110714.784,12.207,20.996,76.660,-13.184,0.000,0
110714.788,-3.418,18.555,35.645,-11.230,0.000,0
110714.792,-27.344,20.508,-10.254,-16.113,0.000,0
110714.796,-27.832,24.414,8.789,-27.832,0.000,0
110714.800,-0.488,26.855,58.594,-14.648,0.000,0
110714.804,8.789,42.969,48.340,6.836,0.000,0
110714.808,-12.207,50.781,12.695,8.301,0.000,0
110714.812,-39.062,43.945,0.488,-9.277,0.000,0
110714.816,-37.109,38.086,25.879,-16.602,0.000,0
110714.820,0.000,36.621,20.996,1.953,0.000,0
110714.823,-12.207,30.273,-53.711,-6.348,0.000,0
110714.827,-41.992,25.391,-46.387,-17.578,0.000,0
110714.831,-30.273,24.414,27.344,-5.859,0.000,0
110714.835,-3.418,20.020,27.832,-9.766,0.000,0
110714.839,-11.719,19.043,-61.035,-9.277,0.000,0
110714.843,-39.551,21.973,-72.266,-7.324,0.000,0
110714.847,-41.016,9.277,-6.348,-16.602,0.000,0
110714.851,-12.207,6.348,0.977,-23.438,0.000,0
110714.855,-13.184,23.438,-37.598,-14.648,0.000,0
110714.859,-53.223,29.297,-63.477,-7.324,0.000,0
110714.863,-59.082,23.926,-54.199,-22.949,0.000,0
110714.866,-12.695,14.160,-14.160,-34.180,0.000,0
110714.870,-14.648,12.695,-12.207,-25.879,0.000,0
110714.874,-56.641,21.484,-78.125,-15.137,0.000,0
110714.878,-42.969,22.949,-92.773,-18.555,0.000,0
110714.882,-15.137,20.020,-51.270,-25.879,0.000,0
110714.886,-22.949,16.113,-14.160,-24.414,0.000,0
110714.890,-50.781,20.020,-58.105,-23.438,0.000,0
110714.894,-67.383,29.297,-115.723,-30.273,0.000,0
110714.898,-34.668,32.715,-47.852,-23.438,0.000,0
110714.902,-16.113,33.691,-5.859,-22.461,0.000,0
110714.905,-54.199,24.414,-39.551,-16.113,0.000,0
110714.909,-72.754,10.254,-87.891,-7.812,0.000,0
110714.913,-31.738,15.625,-80.078,-9.766,0.000,0
110714.917,2.930,26.855,1.953,-1.953,0.000,0
110714.921,-14.648,32.715,18.066,6.836,0.000,0
110714.925,-47.852,22.949,-20.020,-14.160,0.000,0
110714.929,-69.336,10.254,-14.160,-14.160,0.000,0
110714.933,-53.223,14.160,17.578,-6.348,0.000,0
110714.937,-44.922,19.531,31.250,-7.812,0.000,0
110714.941,-69.824,14.648,-31.250,-7.812,0.000,0
110714.945,-78.125,1.953,-39.062,-10.254,0.000,0
110714.948,-72.754,-0.488,31.738,-3.906,0.000,0
110714.952,-69.336,-0.488,51.270,-19.531,0.000,0
110714.956,-87.891,-2.441,-7.324,-42.480,0.000,0
110714.960,-82.520,5.859,-53.711,-29.297,0.000,0
110714.964,-74.707,5.371,30.273,-23.926,0.000,0
110714.968,-75.195,14.160,70.312,-14.160,0.000,0
110714.972,-46.387,34.180,-24.902,6.348,0.000,0
110714.976,-57.129,25.391,-63.965,-3.418,0.000,0
110714.980,-59.082,13.184,-20.508,-17.090,0.000,0
110714.984,-10.254,20.508,38.574,-13.184,0.000,0
110714.988,-13.672,16.113,26.367,-14.648,0.000,0
110714.991,-45.898,7.812,-55.176,-10.254,0.000,0
110714.995,-43.457,4.395,-52.734,-18.555,0.000,0
110714.999,-24.902,14.648,21.484,-3.418,0.000,0
110715.003,-9.766,25.391,19.043,-0.488,0.000,0
110715.007,2.441,36.621,-29.297,-4.883,0.000,0
110715.011,-32.227,36.621,-16.113,5.371,0.000,0
110715.015,-42.480,16.113,-17.578,-12.695,0.000,0
110715.019,-14.160,12.695,-39.062,-19.531,0.000,0
110715.023,-25.391,24.414,-31.738,-13.184,0.000,0
110715.027,-35.645,34.180,-42.480,4.883,0.000,0
110715.030,-20.020,34.668,-27.832,15.137,0.000,0
110715.034,5.859,23.926,17.578,-6.836,0.000,0
110715.038,-9.277,20.508,1.953,-10.254,0.000,0
110715.042,-57.617,24.414,-42.969,5.371,0.000,0
110715.046,-50.781,24.902,-10.254,15.625,0.000,0
110715.050,-14.648,29.297,34.668,9.277,0.000,0
110715.054,-33.691,32.227,1.465,-2.930,0.000,0
110715.058,-57.617,24.414,-61.523,3.418,0.000,0
110715.062,-31.738,19.531,-54.688,0.488,0.000,0
110715.066,-5.859,31.738,54.199,6.836,0.000,0
110715.070,-12.207,42.480,40.039,26.855,0.000,0
110715.073,-23.926,43.457,-51.270,23.926,0.000,0
110715.077,-11.230,42.969,-38.086,17.090,0.000,0
110715.081,15.137,33.203,41.016,8.301,0.000,0
110715.085,12.695,30.762,37.109,7.324,0.000,0
110715.089,1.953,38.086,-41.016,17.578,0.000,0
110715.093,-29.297,29.297,-52.246,19.531,0.000,0
110715.097,-34.180,23.926,5.371,19.043,0.000,0
110715.101,-14.160,32.227,33.691,12.695,0.000,0
110715.105,-22.949,28.320,-25.879,6.348,0.000,0
110715.109,-33.691,15.625,-62.988,8.301,0.000,0
110715.113,-7.324,15.137,-10.742,-0.488,0.000,0
110715.116,15.137,31.738,29.785,-1.465,0.000,0
110715.120,-6.348,41.016,-15.137,3.906,0.000,0
110715.124,-47.363,29.785,-50.293,-0.977,0.000,0
110715.128,-55.176,25.391,-17.578,-12.695,0.000,0
110715.132,-15.137,35.645,24.902,-20.020,0.000,0
110715.136,1.465,43.945,-3.418,4.883,0.000,0
110715.140,-12.695,42.480,-42.480,33.691,0.000,0
110715.144,-18.066,37.109,-13.184,41.016,0.000,0
110715.148,4.883,35.156,-7.812,28.809,0.000,0
110715.152,18.555,41.016,-26.367,17.578,0.000,0
110715.155,-18.066,42.480,-60.547,11.230,0.000,0
110715.159,-39.551,44.922,-37.598,4.395,0.000,0
110715.163,-34.668,32.227,8.301,-19.531,0.000,0
110715.167,-20.020,37.598,-27.344,-11.230,0.000,0
110715.171,-30.762,51.758,-79.590,3.418,0.000,0
110715.175,-34.180,39.551,-104.980,27.344,0.000,0
110715.179,-8.789,24.902,-69.824,30.273,0.000,0
110715.183,0.488,30.273,-13.672,19.531,0.000,0
110715.187,-36.621,53.223,-55.664,24.414,0.000,0
110715.191,-70.801,67.383,-104.492,7.812,0.000,0
110715.195,-52.734,69.336,-83.008,2.930,0.000,0
110715.198,-30.273,70.801,-32.715,4.395,0.000,0
110715.202,-27.344,72.266,-6.348,12.207,0.000,0
110715.206,-65.918,78.613,-67.871,16.113,0.000,0
110715.210,-65.430,72.754,-55.176,12.695,0.000,0
110715.214,-31.250,65.430,34.180,8.789,0.000,0
110715.218,-23.438,62.012,56.641,-5.371,0.000,0
110715.222,-40.527,50.781,53.711,-4.883,0.000,0
110715.226,-52.734,48.340,24.414,11.230,0.000,0
110715.230,-27.832,45.410,32.715,-1.465,0.000,0
110715.234,-15.625,42.480,89.844,1.953,0.000,0
110715.238,-22.461,40.039,54.199,8.789,0.000,0
110715.241,-14.648,37.598,29.785,1.953,0.000,0
110715.245,15.625,45.898,88.379,9.766,0.000,0
110715.249,18.066,40.527,129.883,-0.977,0.000,0
110715.253,16.113,25.391,64.453,-2.930,0.000,0
110715.257,5.371,24.414,3.418,5.371,0.000,0
110715.261,-17.090,28.320,62.012,-5.371,0.000,0
110715.265,7.324,35.156,91.797,-6.348,0.000,0
110715.269,17.578,30.273,59.570,-16.113,0.000,0
110715.273,-25.879,22.461,20.996,-17.578,0.000,0
110715.277,-32.715,27.344,-12.207,-13.184,0.000,0
110715.280,-6.348,23.926,51.758,-12.695,0.000,1
110715.284,-18.555,28.320,45.410,6.348,0.000,0
110715.288,-32.715,34.668,-11.719,2.930,0.000,0
110715.292,-40.039,33.203,30.273,-16.113,0.000,0
110715.296,-26.855,29.785,83.496,-15.625,0.000,0
110715.300,-0.977,30.273,37.109,-25.879,0.000,0
110715.304,-17.578,42.480,-36.133,-11.230,0.000,0
110715.308,-37.598,38.574,-13.672,-2.930,0.000,0
110715.312,-15.625,28.809,22.949,-10.742,0.000,0
110715.316,-0.977,33.203,28.809,-22.461,0.000,0
110715.320,-20.996,38.086,12.207,-22.949,0.000,0
110715.323,-48.828,28.809,-33.691,-7.324,0.000,0
110715.327,-53.223,17.090,1.953,-10.742,0.000,0
110715.331,0.488,17.578,6.348,-15.137,0.000,0
110715.335,-9.766,18.555,-56.152,-18.066,0.000,0
110715.339,-73.730,20.508,-18.555,-14.648,0.000,0
110715.343,-35.156,24.902,-0.977,-16.602,0.000,0
110715.347,21.484,29.785,14.648,-16.113,0.000,0
110715.351,7.812,29.297,6.836,-9.766,0.000,0
110715.355,-34.180,19.043,-54.688,-16.113,0.000,0
110715.359,-43.945,11.719,-41.016,-25.391,0.000,0
110715.363,-29.297,9.766,-4.883,-9.766,0.000,0
110715.366,-30.273,10.254,-44.922,-18.066,0.000,0
110715.370,-33.203,7.324,-59.082,-31.738,0.000,0
110715.374,-51.270,9.277,-20.020,-17.578,0.000,0
110715.378,-27.832,15.137,19.531,-18.555,0.000,0
110715.382,-24.414,20.996,47.852,-7.812,0.000,0
110715.386,-38.574,28.320,-0.488,9.277,0.000,0
110715.390,-28.809,20.508,-66.895,-3.906,0.000,0
110715.394,-34.668,8.789,-25.391,-7.812,0.000,0
110715.398,-42.969,12.695,43.457,-13.672,0.000,0
110715.402,-40.039,29.297,-29.297,-2.930,0.000,0
110715.405,-37.109,36.621,-127.930,-6.836,0.000,0
110715.409,-50.293,20.020,-80.078,-31.250,0.000,0
110715.413,-46.875,15.625,-3.906,-17.090,0.000,0
110715.417,-47.852,23.926,-10.742,-20.020,0.000,0
110715.421,-80.566,36.133,-69.336,-21.973,0.000,0
110715.425,-81.055,58.594,-57.129,6.348,0.000,0
110715.429,-35.156,62.500,1.465,15.625,0.000,0
110715.433,-2.441,54.688,-13.184,-2.930,0.000,0
110715.437,-36.133,45.410,-55.176,-12.695,0.000,0
110715.441,-62.500,41.016,-62.988,-4.395,0.000,0
110715.445,-25.879,33.691,-20.996,-10.742,0.000,0
110715.448,-7.324,29.785,15.137,-10.254,0.000,0
110715.452,-26.855,35.645,-40.527,3.418,0.000,0
110715.456,-54.688,28.809,-65.918,-2.441,0.000,0
110715.460,-62.012,22.461,0.000,-7.812,0.000,0
110715.464,-33.203,27.344,15.625,-10.742,0.000,0
110715.468,-25.879,24.902,-32.715,-15.625,0.000,0
110715.472,-67.383,18.066,-37.109,-13.672,0.000,0
110715.476,-82.031,11.719,-11.719,-9.277,0.000,0
110715.480,-37.598,18.066,-13.672,-10.742,0.000,0
110715.484,-13.672,21.973,-22.949,-15.137,0.000,0
110715.488,-59.082,12.695,-60.059,-20.020,0.000,0
110715.491,-80.078,11.230,-75.684,-28.809,0.000,0
110715.495,-33.203,16.113,-24.902,-25.391,0.000,0
110715.499,-8.789,19.531,5.371,-4.883,0.000,0
110715.503,-28.320,17.090,-53.223,2.930,0.000,0
110715.507,-42.969,12.695,-96.191,-6.836,0.000,0
110715.511,-36.133,11.719,-44.434,-13.184,0.000,0
110715.515,-30.762,5.371,33.691,-17.090,0.000,0
110715.519,-29.297,6.348,2.441,-7.324,0.000,0
110715.523,-33.203,13.184,-84.473,-4.395,0.000,0
110715.527,-13.672,15.137,-73.242,-7.324,0.000,0
110715.530,-2.930,9.766,-11.230,-6.348,0.000,0
110715.534,-19.531,-2.930,-6.348,-5.371,0.000,0
110715.538,-29.785,1.465,-70.801,17.090,0.000,0
110715.542,-26.367,15.137,-83.984,11.719,0.000,0
110715.546,-5.371,11.719,-34.668,-8.789,0.000,0
110715.550,4.883,15.137,-45.898,-3.418,0.000,0
110715.554,-9.277,11.230,-70.801,-3.418,0.000,0
110715.558,-25.879,8.301,-81.543,1.953,0.000,0
110715.562,-29.297,26.367,-60.547,10.742,0.000,0
110715.566,0.000,26.855,-25.879,6.836,0.000,0
110715.570,6.836,21.484,-77.148,-3.418,0.000,0
110715.573,-17.578,17.578,-67.383,-6.836,0.000,0
110715.577,-4.883,20.020,15.625,16.113,0.000,0
110715.581,16.113,33.203,3.418,13.672,0.000,0
110715.585,12.207,32.227,-72.754,-12.695,0.000,0
110715.589,-24.902,35.645,-112.793,-9.277,0.000,0
110715.593,-9.277,46.387,-57.129,0.488,0.000,0
110715.597,15.137,31.250,-2.441,-29.297,0.000,0
110715.601,-7.812,24.414,-40.039,-29.297,0.000,0
110715.605,-53.223,31.250,-109.863,-17.578,0.000,0
110715.609,-77.148,36.133,-101.074,-39.062,0.000,0
110715.613,-31.738,26.855,-10.742,-49.805,0.000,0
110715.616,11.719,30.762,-7.324,-35.645,0.000,0
110715.620,-29.785,47.363,-55.176,-6.348,0.000,0
110715.624,-64.453,52.246,-43.945,10.254,0.000,0
110715.628,12.695,51.758,-12.207,22.461,0.000,0
110715.632,61.035,40.039,4.395,14.648,0.000,0
110715.636,35.156,26.855,-34.180,-1.465,0.000,0
110715.640,-14.648,22.949,-93.262,-8.301,0.000,0
110715.644,-13.672,16.113,-85.938,-17.578,0.000,0
110715.648,21.484,16.113,-62.500,-14.648,0.000,0
110715.652,-16.602,10.742,-58.594,-19.531,0.000,0
110715.655,-54.688,11.719,-87.891,-7.324,0.000,0
110715.659,-27.832,23.438,-76.172,-6.348,0.000,0
110715.663,0.488,20.508,-32.227,-30.762,0.000,0
110715.667,-24.902,20.020,-37.598,-32.227,0.000,0
110715.671,-54.199,21.484,-100.098,-21.484,0.000,0
110715.675,-63.477,18.066,-89.355,-15.625,0.000,0
110715.679,-39.062,22.461,-19.043,8.301,0.000,0
110715.683,8.789,36.621,-43.945,-0.977,0.000,0
110715.687,4.395,45.898,-89.844,-18.066,0.000,0
110715.691,-16.602,40.039,-83.496,-6.836,0.000,0
110715.695,-19.043,24.414,-27.832,-5.859,0.000,0
110715.698,-0.977,28.809,-11.230,-8.789,0.000,0
110715.702,-7.812,40.039,-53.711,-3.906,0.000,0
110715.706,-7.324,41.992,-129.395,-0.488,0.000,0
110715.710,23.438,48.340,-88.379,10.742,0.000,0
110715.714,32.227,43.945,6.348,20.996,0.000,0
110715.718,62.012,45.898,-59.082,26.855,0.000,0
110715.722,57.617,52.246,-135.742,21.973,0.000,0
110715.726,6.348,46.875,-90.332,5.371,0.000,0
110715.730,-7.812,36.621,-26.855,-14.160,0.000,0
110715.734,21.484,34.668,-43.457,0.488,0.000,0
110715.738,28.809,51.270,-102.539,40.527,0.000,0
110715.741,0.000,65.918,-93.262,33.203,0.000,0
110715.745,-1.953,72.754,-25.391,8.789,0.000,0
110715.749,21.484,77.637,-11.719,14.160,0.000,0
110715.753,26.855,67.871,-62.012,23.926,0.000,0
110715.757,8.789,60.547,-80.566,37.109,0.000,0
110715.761,-0.977,51.270,-62.012,34.180,0.000,0
110715.765,26.855,27.344,-54.199,-10.254,0.000,0
110715.769,18.066,20.508,-87.891,-14.160,0.000,0
110715.773,-6.836,22.949,-113.770,22.949,0.000,0
110715.777,4.395,26.855,-73.242,28.809,0.000,0
110715.780,16.113,30.273,-27.832,7.812,0.000,0
110715.784,5.371,31.738,-75.684,9.277,0.000,0
110715.788,-9.277,35.156,-126.465,26.855,0.000,0
110715.792,-15.625,36.621,-85.938,22.461,0.000,0
110715.796,-11.719,38.086,-31.738,1.465,0.000,0
110715.800,-18.555,33.203,-43.457,-19.531,0.000,0
110715.804,-43.945,24.902,-86.426,-14.160,0.000,0
110715.808,-37.598,17.578,-130.371,-6.836,0.000,0
110715.812,5.859,12.207,-67.383,-7.812,0.000,0
110715.816,-1.953,19.043,-24.414,5.859,0.000,0
110715.820,-28.320,10.254,-99.121,-12.695,0.000,0
110715.823,-17.578,-0.977,-129.395,-20.020,0.000,0
110715.827,-25.879,-0.488,-83.008,-19.531,0.000,0
110715.831,-10.742,1.465,-25.391,-15.625,0.000,0
110715.835,-1.953,6.348,-55.176,-19.043,0.000,0
110715.839,-43.457,4.395,-111.328,-40.527,0.000,0
110715.843,-34.668,4.883,-82.520,-22.949,0.000,0
110715.847,-28.809,4.883,-32.227,-17.578,0.000,0
110715.851,-55.664,-5.859,-50.293,-44.434,0.000,0
110715.855,-57.617,-7.324,-119.629,-70.801,0.000,0
110715.859,-52.246,3.906,-117.676,-56.641,0.000,0
110715.863,-23.438,15.625,-52.246,-21.484,0.000,0
110715.866,1.953,28.809,-56.152,-12.695,0.000,0
110715.870,-31.738,23.926,-105.469,-32.227,0.000,0
110715.874,-58.105,20.020,-111.816,-39.062,0.000,0
110715.878,-6.836,23.926,-83.984,-13.672,0.000,0
110715.882,8.301,10.254,-59.570,-24.414,0.000,0
110715.886,-20.020,-8.301,-119.141,-22.461,0.000,0
110715.890,-16.113,-6.836,-125.488,7.812,0.000,0
110715.894,-35.156,0.977,-80.078,3.906,0.000,0
110715.898,-22.949,-10.254,-91.309,-24.414,0.000,0
110715.902,-10.254,-7.812,-95.703,-45.410,0.000,0
110715.905,-76.172,3.418,-130.859,-52.734,0.000,0
110715.909,-75.684,4.395,-115.234,-24.902,0.000,0
110715.913,-37.598,8.789,-81.055,0.977,0.000,0
110715.917,-66.406,18.066,-94.238,-24.902,0.000,0
110715.921,-78.613,22.949,-126.953,-6.836,0.000,0
110715.925,-100.586,36.133,-146.484,-3.418,0.000,0
110715.929,-98.633,36.621,-97.656,-25.391,0.000,0
110715.933,-68.848,34.668,-74.707,2.441,0.000,0
110715.937,-81.543,47.363,-138.672,9.277,0.000,0
110715.941,-84.473,57.129,-159.668,12.207,0.000,0
110715.945,-43.457,68.848,-116.211,20.996,0.000,0
110715.948,-13.672,60.059,-92.285,2.441,0.000,0
110715.952,-41.504,47.852,-97.168,5.859,0.000,0
110715.956,-78.125,44.434,-136.719,6.348,0.000,0
110715.960,-41.504,39.062,-117.676,5.371,0.000,0
110715.964,-23.926,32.715,-80.078,10.742,0.000,0
110715.968,-41.992,29.785,-72.754,-1.465,0.000,0
110715.972,-32.715,31.738,-113.770,-7.812,0.000,0
110715.976,-21.484,33.203,-130.859,2.441,0.000,0
110715.980,2.930,32.715,-69.824,27.344,0.000,0
110715.984,22.949,28.320,-71.289,20.020,0.000,0
110715.988,-15.137,20.508,-113.281,-18.555,0.000,0
110715.991,-36.133,19.531,-66.406,26.855,0.000,0
110715.995,9.277,24.414,5.371,47.363,0.000,0
110715.999,19.043,24.414,-22.949,8.789,0.000,1
110716.003,-19.043,9.766,-94.238,-21.484,0.000,0
110716.007,-4.883,11.719,-69.824,-9.277,0.000,0
110716.011,15.137,14.648,-13.184,-3.418,0.000,0
110716.015,1.953,8.789,-22.949,-11.230,0.000,0
110716.019,-30.762,11.230,-77.637,-6.836,0.000,0
110716.023,-47.852,20.020,-107.422,4.883,0.000,0
110716.027,-19.043,21.973,-41.016,7.812,0.000,0
110716.030,15.625,26.367,-4.883,0.977,0.000,0
110716.034,-4.883,33.203,-67.871,9.277,0.000,0
110716.038,-22.949,27.344,-88.867,12.207,0.000,0
110716.042,-19.043,25.879,1.953,7.812,0.000,0
110716.046,19.531,27.344,38.086,20.996,0.000,0
110716.050,47.363,32.715,8.789,58.105,0.000,0
110716.054,16.602,23.438,-29.297,44.434,0.000,0
110716.058,10.742,12.695,-18.066,37.598,0.000,0
110716.062,43.457,7.812,1.953,53.711,0.000,0
110716.066,32.715,-5.859,-23.438,41.992,0.000,0
110716.070,-20.508,-11.230,-62.012,29.785,0.000,0
110716.073,-20.020,-3.418,-70.801,25.879,0.000,0
110716.077,2.441,4.395,-21.484,24.414,0.000,0
110716.081,-7.812,5.859,-24.902,15.625,0.000,0
110716.085,-29.297,3.418,-54.688,22.461,0.000,0
110716.089,-29.785,0.977,-47.852,37.109,0.000,0
110716.093,8.301,13.672,-65.430,23.926,0.000,0
110716.097,20.996,16.113,-51.270,-7.324,0.000,0
110716.101,-3.906,12.207,-71.777,8.301,0.000,0
110716.105,-10.254,16.602,-104.980,30.273,0.000,0
110716.109,13.184,29.297,-51.758,32.227,0.000,0
110716.113,27.832,33.203,-20.996,30.273,0.000,0
110716.116,8.789,35.156,-52.734,19.043,0.000,0
110716.120,-8.301,36.133,-105.957,23.926,0.000,0
110716.124,-8.789,23.926,-102.051,19.043,0.000,0
110716.128,4.883,17.578,-32.715,10.742,0.000,0
110716.132,-2.930,30.762,-47.852,33.203,0.000,0
110716.136,-34.180,26.855,-149.414,37.109,0.000,0
110716.140,-26.367,25.391,-189.453,17.090,0.000,0
110716.144,26.367,29.785,-107.910,20.020,0.000,0
110716.148,48.340,31.250,-36.133,36.133,0.000,0
110716.152,38.086,46.387,-99.609,41.016,0.000,0
110716.155,11.230,42.480,-123.047,26.855,0.000,0
110716.159,7.324,30.273,-69.824,20.020,0.000,0
110716.163,17.090,19.531,-56.152,10.254,0.000,0
110716.167,-1.953,17.090,-84.473,7.812,0.000,0
110716.171,-35.645,20.020,-125.488,16.602,0.000,0
110716.175,-12.695,17.090,-98.633,31.250,0.000,0
110716.179,28.809,14.160,-49.316,37.598,0.000,0
110716.183,38.086,16.602,-72.266,30.273,0.000,0
110716.187,1.465,20.020,-92.285,16.602,0.000,0
110716.191,-28.320,13.184,-57.617,13.672,0.000,0
110716.195,10.254,8.789,-58.594,21.484,0.000,0
110716.198,41.992,13.672,-98.145,6.348,0.000,0
110716.202,12.207,5.371,-105.957,0.488,0.000,0
110716.206,-9.277,-2.930,-60.059,13.672,0.000,0
110716.210,26.855,7.324,-28.809,23.926,0.000,0
110716.214,43.945,15.137,-24.902,8.301,0.000,0
110716.218,-8.301,10.254,-56.152,12.207,0.000,0
110716.222,-62.988,-3.418,-81.543,20.996,0.000,0
110716.226,-34.180,-13.672,-44.434,8.301,0.000,0
110716.230,14.160,-1.953,-24.414,10.742,0.000,0
110716.234,3.906,8.789,-80.566,23.438,0.000,0
110716.238,-19.043,11.230,-125.977,34.180,0.000,0
110716.241,-16.602,19.531,-104.492,26.367,0.000,0
110716.245,11.719,19.531,-21.973,16.602,0.000,0
110716.249,19.043,25.879,-34.180,24.414,0.000,0
110716.253,-19.531,21.484,-110.352,19.531,0.000,0
110716.257,-26.367,11.230,-104.004,12.695,0.000,0
110716.261,6.348,11.230,-50.781,1.465,0.000,0
110716.265,-15.137,5.371,-31.738,-7.812,0.000,0
110716.269,-29.785,7.324,-95.215,3.418,0.000,0
110716.273,-15.137,15.137,-160.156,21.484,0.000,0
110716.277,1.953,7.812,-105.957,18.555,0.000,0
110716.280,9.277,-3.906,-29.785,19.531,0.000,0
110716.284,-4.883,-5.371,-50.293,21.973,0.000,0
110716.288,-23.926,3.418,-109.375,18.555,0.000,0
110716.292,-10.254,3.418,-103.516,5.859,0.000,0
110716.296,3.418,-2.930,-43.945,3.906,0.000,0
110716.300,-2.441,4.883,-80.078,1.465,0.000,0
110716.304,-22.949,4.883,-125.000,1.465,0.000,0
110716.308,-38.086,-2.441,-94.238,10.742,0.000,0
110716.312,-24.902,1.465,-40.527,1.953,0.000,0
110716.316,-5.859,7.812,-52.246,7.324,0.000,0
110716.320,5.859,19.043,-131.348,21.484,0.000,0
110716.323,-25.391,33.691,-94.238,7.324,0.000,0
110716.327,-43.457,35.645,-11.230,0.000,0.000,0
110716.331,-8.301,25.391,-42.969,-5.859,0.000,0
110716.335,-22.461,20.020,-98.633,-10.742,0.000,0
110716.339,-41.992,29.785,-108.398,1.953,0.000,0
110716.343,-18.555,30.273,-60.547,8.301,0.000,0
110716.347,-14.160,24.414,-35.156,-0.488,0.000,0
110716.351,-24.414,30.273,-94.238,0.000,0.000,0
110716.355,-33.203,36.133,-103.516,10.254,0.000,0
110716.359,-38.086,34.668,-38.574,20.020,0.000,0
110716.363,-10.254,28.809,-22.949,10.254,0.000,0
110716.366,-5.859,20.996,-62.012,-1.953,0.000,0
110716.370,-65.918,12.207,-75.684,-1.465,0.000,0
110716.374,-91.309,1.953,-76.660,-7.324,0.000,0
110716.378,-39.062,-0.977,-48.340,-12.695,0.000,0
110716.382,-28.320,-3.418,-33.691,-29.785,0.000,0
110716.386,-71.289,-5.371,-83.496,-25.391,0.000,0
110716.390,-59.570,0.488,-113.281,0.488,0.000,0
110716.394,-27.344,-0.977,-49.316,-8.301,0.000,0
110716.398,-25.391,6.348,-49.316,-9.766,0.000,0
110716.402,-28.809,20.996,-102.051,0.977,0.000,0
110716.405,-33.691,28.320,-77.637,1.465,0.000,0
110716.409,-15.625,28.809,-42.969,0.488,0.000,0
110716.413,2.441,17.090,-37.598,-8.789,0.000,0
110716.417,-9.277,16.113,-93.262,3.906,0.000,0
110716.421,-1.465,20.020,-131.348,20.508,0.000,0
110716.425,4.395,10.742,-88.379,6.348,0.000,0
110716.429,24.414,6.348,-41.016,0.000,0.000,0
110716.433,30.762,3.418,-50.781,6.836,0.000,0
110716.437,-5.371,7.324,-113.281,0.977,0.000,0
110716.441,-14.648,17.578,-113.281,1.953,0.000,0
110716.445,3.906,20.020,-39.551,9.766,0.000,0
110716.448,7.324,11.230,-37.109,4.395,0.000,0
110716.452,-21.973,8.301,-103.516,10.742,0.000,0
110716.456,-21.973,22.461,-118.652,21.973,0.000,0
110716.460,3.906,20.508,-52.246,13.672,0.000,0
110716.464,5.371,-0.488,-37.109,6.348,0.000,0
110716.468,-11.230,-0.977,-98.633,6.348,0.000,0
110716.472,-17.090,10.742,-132.324,6.836,0.000,0
110716.476,-37.598,13.672,-79.102,6.348,0.000,0
110716.480,-15.625,13.184,-33.691,-9.277,0.000,0
110716.484,6.348,22.461,-37.598,-2.930,0.000,0
110716.488,-34.180,33.691,-74.219,12.695,0.000,0
110716.491,-21.973,32.715,-59.570,15.137,0.000,0
110716.495,20.020,20.020,-11.719,12.695,0.000,0
110716.499,11.230,18.555,-20.996,15.625,0.000,0
110716.503,-14.160,26.367,-55.664,14.160,0.000,0
110716.507,-22.461,22.461,-62.012,9.766,0.000,0
110716.511,3.418,23.926,-31.738,18.555,0.000,0
110716.515,5.371,27.832,-34.668,26.855,0.000,0
110716.519,-27.832,34.668,-62.988,23.438,0.000,0
110716.523,-32.715,40.527,-35.645,18.066,0.000,0
110716.527,-7.324,43.457,-11.230,15.137,0.000,0
110716.530,23.438,51.758,-28.320,4.883,0.000,0
110716.534,14.160,61.523,-46.387,13.184,0.000,0
110716.538,-21.484,50.781,-67.383,17.090,0.000,0
110716.542,-20.508,29.785,-33.203,1.465,0.000,0
110716.546,1.953,38.086,-17.090,-0.488,0.000,0
110716.550,-15.137,44.922,-55.176,7.812,0.000,0
110716.554,-46.387,28.320,-90.332,8.789,0.000,0
110716.558,-21.973,29.785,-77.148,0.488,0.000,0
110716.562,19.531,34.668,19.531,10.742,0.000,0
110716.566,13.672,37.109,19.531,21.973,0.000,0
110716.570,-14.160,30.273,-65.430,9.277,0.000,0
110716.573,-13.184,23.438,-64.453,3.906,0.000,0
110716.577,9.277,17.578,-4.395,3.418,0.000,0
110716.581,10.254,-1.953,25.879,-0.488,0.000,0
110716.585,-17.578,5.859,-41.504,8.789,0.000,0
110716.589,-24.902,26.367,-84.961,2.930,0.000,0
110716.593,-19.043,18.066,-31.250,0.000,0.000,0
110716.597,-11.719,9.766,3.418,-0.488,0.000,0
110716.601,-1.953,10.254,-41.504,7.324,0.000,0
110716.605,-11.719,14.160,-111.816,6.836,0.000,0
110716.609,-24.902,7.812,-74.707,-7.324,0.000,0
110716.613,-4.883,9.277,-17.578,-1.953,0.000,0
110716.616,4.883,19.531,-69.336,12.695,0.000,0
110716.620,-28.320,13.184,-82.520,11.719,0.000,0
110716.624,-37.109,9.277,-47.852,5.371,0.000,0
110716.628,-20.996,7.324,-32.227,8.301,0.000,0
110716.632,-3.906,5.371,-37.109,8.789,0.000,0
110716.636,-31.250,-0.488,-59.570,6.348,0.000,0
110716.640,-67.871,1.465,-54.688,8.789,0.000,0
110716.644,-31.250,5.371,-31.738,4.883,0.000,0
110716.648,-6.836,3.906,-43.945,-1.465,0.000,0
110716.652,-37.109,0.000,-97.656,0.977,0.000,0
110716.655,-65.430,-6.348,-101.562,18.066,0.000,0
110716.659,-30.762,-4.883,-40.527,23.926,0.000,0
110716.663,15.137,8.301,-11.719,14.648,0.000,0
110716.667,6.836,20.508,-59.570,6.348,0.000,0
110716.671,-24.902,14.160,-105.957,-1.953,0.000,0
110716.675,-36.133,-3.418,-91.309,-7.812,0.000,0
110716.679,-20.996,-12.695,-44.434,-11.230,0.000,0
110716.683,-8.301,-1.953,-53.711,-3.418,0.000,0
110716.687,-32.227,20.020,-90.332,9.277,0.000,0
110716.691,-27.344,35.156,-77.637,18.555,0.000,0
110716.695,20.020,38.574,-63.965,13.672,0.000,0
110716.698,30.762,39.551,-35.645,9.277,0.000,1
110716.702,-18.066,45.410,-36.621,23.438,0.000,0
110716.706,-28.320,43.945,-112.793,19.043,0.000,0
110716.710,1.953,29.785,-102.539,-5.859,0.000,0
110716.714,22.949,30.762,-42.480,-6.836,0.000,0
110716.718,-4.395,23.438,-53.223,-0.488,0.000,0
110716.722,-44.922,12.207,-105.957,-1.465,0.000,0
110716.726,-35.156,10.254,-121.582,-6.348,0.000,0
110716.730,-21.973,2.930,-61.035,-20.996,0.000,0
110716.734,-38.574,-10.742,-62.500,-25.879,0.000,0
110716.738,-56.641,-11.230,-116.699,-11.230,0.000,0
110716.741,-33.203,4.883,-108.398,-2.441,0.000,0
110716.745,-16.113,15.137,-39.551,-1.953,0.000,0
110716.749,-20.020,17.090,-48.828,-16.602,0.000,0
110716.753,-18.066,21.484,-115.234,-16.602,0.000,0
110716.757,-20.508,17.090,-98.633,-4.883,0.000,0
110716.761,-14.160,0.488,-36.133,-6.348,0.000,0
110716.765,4.395,-7.812,-58.105,-14.648,0.000,0
110716.769,-4.395,-2.930,-124.512,-20.020,0.000,0
110716.773,-30.762,7.324,-131.348,-18.555,0.000,0
110716.777,-19.531,-4.395,-74.707,-25.879,0.000,0
110716.780,-7.324,-15.137,-31.250,-21.973,0.000,0
110716.784,-10.254,2.930,-83.496,1.953,0.000,0
110716.788,-12.207,20.996,-114.746,11.230,0.000,0
110716.792,-21.973,18.555,-50.293,14.160,0.000,0
110716.796,19.043,9.277,-43.457,-4.395,0.000,0
110716.800,18.555,-0.977,-66.406,-15.137,0.000,0
110716.804,-20.020,-1.465,-99.609,-1.953,0.000,0
110716.808,-12.207,5.371,-124.023,7.324,0.000,0
110716.812,20.020,5.859,-82.520,7.812,0.000,0
110716.816,22.461,8.301,-61.035,3.418,0.000,0
110716.820,-9.766,12.207,-76.172,8.301,0.000,0
110716.823,-21.484,20.996,-79.102,12.207,0.000,0
110716.827,-2.930,24.414,-38.086,9.277,0.000,0
110716.831,12.695,28.320,-48.828,17.090,0.000,0
110716.835,3.906,30.273,-76.660,21.973,0.000,0
110716.839,-28.320,16.113,-73.730,5.371,0.000,0
110716.843,-11.230,13.184,-60.547,-4.395,0.000,0
110716.847,25.879,16.113,-35.645,2.441,0.000,0
110716.851,-4.395,10.742,-71.289,8.789,0.000,0
110716.855,-29.297,11.719,-110.352,-3.906,0.000,0
110716.859,-9.277,14.648,-75.684,-5.859,0.000,0
110716.863,9.277,17.090,-52.734,10.254,0.000,0
110716.866,4.883,18.066,-61.035,5.859,0.000,0
110716.870,-12.207,14.648,-99.121,8.789,0.000,0
110716.874,-18.066,9.277,-87.402,8.301,0.000,0
110716.878,1.465,-0.488,-11.230,-6.836,0.000,0
110716.882,-18.555,-9.277,-22.949,-0.977,0.000,0
110716.886,-23.438,0.000,-107.422,9.277,0.000,0
110716.890,-21.973,14.160,-116.211,3.906,0.000,0
110716.894,-13.184,15.137,-52.246,-9.277,0.000,0
110716.898,24.414,17.578,-15.137,14.160,0.000,0
110716.902,9.766,24.414,-70.312,8.301,0.000,0
110716.905,-42.480,22.949,-92.285,0.488,0.000,0
110716.909,-41.016,38.574,-59.570,16.602,0.000,0
110716.913,22.461,43.457,-27.832,12.207,0.000,0
110716.917,13.672,37.109,-25.391,24.414,0.000,0
110716.921,-38.086,37.109,-71.777,15.137,0.000,0
110716.925,-38.086,26.367,-62.988,-1.953,0.000,0
110716.929,-7.324,27.832,-18.066,6.836,0.000,0
110716.933,6.348,37.109,-26.367,5.371,0.000,0
110716.937,-16.113,32.227,-39.062,-1.953,0.000,0
110716.941,-36.133,29.297,-31.250,11.230,0.000,0
110716.945,-5.859,29.785,-18.555,20.020,0.000,0
110716.948,19.043,34.180,-40.527,4.395,0.000,0
110716.952,-7.324,29.785,-84.961,-1.465,0.000,0
110716.956,-39.551,15.137,-65.918,5.371,0.000,0
110716.960,-20.020,18.066,-20.996,21.973,0.000,0
110716.964,11.719,25.391,-1.465,13.184,0.000,0
110716.968,-14.648,32.227,-28.320,4.883,0.000,0
110716.972,-39.551,33.691,-77.148,12.695,0.000,0
110716.976,-12.695,21.973,-47.363,-3.418,0.000,0
110716.980,2.930,19.043,-16.602,-2.930,0.000,0
110716.984,-8.301,24.902,-41.016,20.996,0.000,0
110716.988,-23.926,20.996,-75.195,17.578,0.000,0
110716.991,-2.441,13.672,-84.473,5.371,0.000,0
110716.995,30.273,14.160,-22.461,39.062,0.000,0
110716.999,33.203,29.297,-9.766,62.012,0.000,0
110717.003,-18.555,24.902,-86.426,9.766,0.000,0
110717.007,-72.266,-3.418,-98.633,-20.508,0.000,0
110717.011,-46.875,-8.789,-80.566,-6.836,0.000,0
110717.015,-30.273,-0.488,-48.340,-4.395,0.000,0
110717.019,-42.969,7.324,-90.820,1.465,0.000,0
110717.023,-26.367,8.789,-151.367,3.418,0.000,0
110717.027,-6.348,8.789,-91.309,8.301,0.000,0
110717.030,0.000,15.137,-4.395,34.668,0.000,0
110717.034,-23.438,25.879,-19.043,23.926,0.000,0
110717.038,-41.992,34.668,-91.797,0.488,0.000,0
110717.042,-49.316,27.344,-73.242,-3.906,0.000,0
110717.046,-56.641,18.066,-29.297,-2.930,0.000,0
110717.050,-31.738,22.461,-65.918,-1.953,0.000,0
110717.054,-40.039,24.414,-84.961,3.418,0.000,0
110717.058,-65.918,28.320,-42.969,-1.465,0.000,0
110717.062,-41.016,23.926,-7.324,4.395,0.000,0
110717.066,-41.504,10.254,-17.090,-2.930,0.000,0
110717.070,-45.410,5.371,-84.473,-16.602,0.000,0
110717.073,-45.410,-0.977,-70.801,-12.695,0.000,0
110717.077,-57.617,-1.953,28.320,-5.371,0.000,0
110717.081,-27.832,-0.488,10.254,-16.113,0.000,0
110717.085,-23.926,11.719,-76.172,-20.508,0.000,0
110717.089,-29.297,27.344,-73.242,-10.254,0.000,0
110717.093,-2.930,25.391,-3.418,-6.348,0.000,0
110717.097,24.902,18.555,19.043,-8.789,0.000,0
110717.101,11.719,18.066,-24.902,-22.949,0.000,0
110717.105,-32.227,15.625,-54.688,-21.484,0.000,0
110717.109,-37.598,3.418,-39.551,-23.438,0.000,0
110717.113,-0.977,-7.812,-25.391,-23.438,0.000,0
110717.116,-20.508,-5.859,-48.340,-17.090,0.000,0
110717.120,-58.594,-6.348,-68.359,-12.207,0.000,0
110717.124,-23.926,-12.207,-44.434,-2.441,0.000,0
110717.128,13.184,-12.207,-21.973,1.953,0.000,0
110717.132,4.883,-6.836,-13.184,2.441,0.000,0
110717.136,-12.695,-8.301,-41.504,-8.789,0.000,0
110717.140,-10.254,-19.043,-49.805,-28.809,0.000,0
110717.144,5.859,-11.230,-5.859,-11.230,0.000,0
110717.148,-7.812,-0.488,-19.531,3.906,0.000,0
110717.152,-22.949,-3.906,-56.152,-2.441,0.000,0
110717.155,-31.250,0.977,-50.293,-2.441,0.000,0
110717.159,-11.719,12.207,-29.785,0.488,0.000,0
110717.163,0.488,15.625,-1.953,0.488,0.000,0
110717.167,-22.949,21.973,-31.250,-7.812,0.000,0
110717.171,-20.020,20.020,-53.223,8.789,0.000,0
110717.175,-12.207,2.441,-5.371,11.230,0.000,0
110717.179,4.395,-6.836,-18.555,-13.184,0.000,0
110717.183,0.977,-5.371,-80.566,-9.766,0.000,0
110717.187,-19.531,-0.977,-105.957,-8.301,0.000,0
110717.191,-26.855,-10.742,-40.039,-27.344,0.000,0
110717.195,-14.648,-18.555,3.418,-27.832,0.000,0
110717.198,-11.719,-10.254,-67.383,-17.090,0.000,0
110717.202,-38.574,-7.324,-104.004,-9.766,0.000,0
110717.206,-34.180,-12.695,-60.059,-12.207,0.000,0
110717.210,-6.348,-20.508,12.207,-19.531,0.000,0
110717.214,7.324,-17.090,-3.418,-11.230,0.000,0
110717.218,-13.184,-6.836,-83.984,-19.043,0.000,0
110717.222,-31.738,-6.836,-79.590,-17.578,0.000,0
110717.226,-11.230,-12.207,-12.695,-7.324,0.000,0
110717.230,15.625,-19.531,4.883,-8.301,0.000,0
110717.234,-10.742,-20.508,-41.016,14.648,0.000,0
110717.238,-48.340,-16.602,-80.078,8.301,0.000,0
110717.241,-25.879,-23.926,-45.410,-26.855,0.000,0
110717.245,6.348,-27.344,-6.836,-19.043,0.000,0
110717.249,-12.207,-30.762,-42.480,-10.742,0.000,0
110717.253,-43.457,-37.598,-71.777,-15.137,0.000,0
110717.257,-26.855,-25.391,-42.969,16.113,0.000,0
110717.261,30.762,-8.789,-16.113,19.043,0.000,0
110717.265,31.250,-2.441,-35.645,-7.324,0.000,0
110717.269,-7.812,-3.418,-74.707,-12.695,0.000,0
110717.273,-17.578,-10.254,-89.355,-12.207,0.000,0
110717.277,9.766,-11.230,-51.758,-23.438,0.000,0
110717.280,21.973,3.418,-11.230,-15.625,0.000,0
110717.284,0.000,12.695,-52.734,10.742,0.000,0
110717.288,-1.953,0.488,-72.754,3.906,0.000,0
110717.292,19.531,-2.441,-34.180,-0.977,0.000,0
110717.296,13.672,0.977,-26.855,26.855,0.000,0
110717.300,-11.230,0.000,-81.543,26.855,0.000,0
110717.304,-15.137,-1.465,-132.324,8.789,0.000,0
110717.308,-6.836,-9.766,-83.984,-11.719,0.000,0
110717.312,-13.184,-15.625,0.488,-35.156,0.000,0
110717.316,-42.969,-15.137,-17.578,-20.996,0.000,1
110717.320,-45.898,-10.742,-104.004,-10.254,0.000,0
110717.323,-24.414,0.488,-95.703,0.000,0.000,0
110717.327,-9.277,3.418,-12.695,-3.418,0.000,0
110717.331,-17.090,-6.348,-13.672,-17.578,0.000,0
110717.335,-28.809,-0.977,-90.820,-10.254,0.000,0
110717.339,-21.484,8.301,-86.426,-4.395,0.000,0
110717.343,-22.461,10.742,-20.996,-0.488,0.000,0
110717.347,-12.207,14.648,-34.180,-13.184,0.000,0
110717.351,-15.625,19.531,-80.078,-22.949,0.000,0
110717.355,-24.902,25.391,-75.195,-2.441,0.000,0
110717.359,-5.859,20.508,-10.742,9.277,0.000,0
110717.363,15.625,13.672,14.648,12.207,0.000,0
110717.366,10.254,9.277,-40.039,4.395,0.000,0
110717.370,-34.180,-3.906,-62.988,-5.859,0.000,0
110717.374,-21.973,-4.395,-34.180,13.184,0.000,0
110717.378,19.531,-1.953,-14.648,14.160,0.000,0
110717.382,4.883,-3.418,-43.945,7.812,0.000,0
110717.386,-35.645,-6.836,-70.801,6.348,0.000,0
110717.390,-43.457,-15.137,-30.762,2.930,0.000,0
110717.394,-21.973,-16.113,9.277,3.418,0.000,0
110717.398,-10.742,-9.766,-29.785,-15.137,0.000,0
110717.402,-39.062,-7.324,-78.613,-10.254,0.000,0
110717.405,-57.129,-10.742,-76.172,-11.230,0.000,0
110717.409,-29.785,-11.230,-29.785,-16.113,0.000,0
110717.413,-21.484,-13.672,-20.996,-14.648,0.000,0
110717.417,-47.852,-21.484,-52.734,-13.672,0.000,0
110717.421,-65.430,-24.414,-66.895,-6.348,0.000,0
110717.425,-38.086,-28.320,-54.688,-25.391,0.000,0
110717.429,-8.789,-31.250,-8.301,-16.113,0.000,0
110717.433,-12.207,-18.066,-34.668,-4.395,0.000,0
110717.437,-39.062,-4.395,-80.566,-3.418,0.000,0
110717.441,-31.250,-11.719,-72.754,-6.836,0.000,0
110717.445,9.277,-13.672,-32.227,-16.602,0.000,0
110717.448,-24.414,-8.789,6.836,-15.625,0.000,0
110717.452,-56.641,-0.488,-29.297,-12.207,0.000,0
110717.456,-14.648,4.395,-48.828,-11.719,0.000,0
110717.460,1.953,-7.324,18.555,-15.625,0.000,0
110717.464,12.695,-8.789,0.488,-10.742,0.000,0
110717.468,2.441,-3.906,-70.801,-0.488,0.000,0
110717.472,-45.410,-9.766,-49.805,-7.812,0.000,0
110717.476,-29.297,-10.742,-6.348,-7.812,0.000,0
110717.480,1.465,-11.230,-11.719,-11.719,0.000,0
110717.484,-21.484,4.883,-37.598,-14.160,0.000,0
110717.488,-26.855,16.602,-54.199,0.977,0.000,0
110717.491,-4.883,13.184,-20.996,2.930,0.000,0
110717.495,-2.441,15.137,25.391,2.441,0.000,0
110717.499,2.441,16.602,-24.414,9.766,0.000,0
110717.503,-13.184,16.113,-83.496,3.418,0.000,0
110717.507,-30.762,11.719,-28.320,-19.043,0.000,0
110717.511,-9.277,9.277,23.438,-11.230,0.000,0
110717.515,8.789,5.859,-38.574,0.488,0.000,0
110717.519,-19.043,-12.207,-75.684,-14.160,0.000,0
110717.523,-51.270,-15.625,-69.824,-23.438,0.000,0
110717.527,-31.250,-7.812,-42.969,-37.109,0.000,0
110717.530,-23.438,-4.883,-20.508,-34.180,0.000,0
110717.534,-47.363,-1.465,-75.684,-26.367,0.000,0
110717.538,-69.336,-5.371,-83.984,-25.391,0.000,0
110717.542,-41.016,-8.301,-41.016,-23.438,0.000,0
110717.546,10.254,-7.812,-17.578,-33.691,0.000,0
110717.550,-17.090,0.000,-33.691,-23.438,0.000,0
110717.554,-52.246,-1.953,-81.543,-27.832,0.000,0
110717.558,-33.691,-12.207,-45.410,-32.227,0.000,0
110717.562,0.000,-15.625,3.418,-22.949,0.000,0
110717.566,-16.113,-17.578,-5.371,-31.250,0.000,0
110717.570,-40.039,-8.301,-44.434,-26.367,0.000,0
110717.573,-34.180,-3.418,-44.434,-16.113,0.000,0
110717.577,-28.320,-5.859,2.441,-16.602,0.000,0
110717.581,-36.133,-4.883,-28.809,-32.715,0.000,0
110717.585,-62.500,-21.484,-62.012,-49.805,0.000,0
110717.589,-65.430,-27.344,-60.547,-29.785,0.000,0
110717.593,-27.832,-15.137,-43.945,-18.555,0.000,0
110717.597,-7.812,-18.555,-11.719,-32.715,0.000,0
110717.601,-35.156,-19.043,-40.039,-20.996,0.000,0
110717.605,-53.223,-20.508,-61.523,-17.578,0.000,0
110717.609,-35.645,-30.762,-26.855,-34.668,0.000,0
110717.613,-17.090,-28.320,2.441,-18.555,0.000,0
110717.616,-25.391,-19.531,-38.086,-19.043,0.000,0
110717.620,-37.598,-21.973,-93.750,-33.203,0.000,0
110717.624,-40.039,-27.832,-37.598,-21.973,0.000,0
110717.628,-32.715,-22.461,14.648,-20.020,0.000,0
110717.632,-36.133,-17.578,-35.156,-10.742,0.000,0
110717.636,-48.340,-15.137,-80.078,-9.766,0.000,0
110717.640,-37.109,-3.418,-72.266,-16.113,0.000,0
110717.644,7.812,5.371,-12.695,-22.461,0.000,0
110717.648,2.930,5.371,15.137,-17.578,0.000,0
110717.652,-34.180,11.719,-76.172,-0.488,0.000,0
110717.655,-32.227,14.160,-97.168,-5.859,0.000,0
110717.659,-0.488,9.277,-20.020,-12.695,0.000,0
110717.663,19.531,2.930,-6.348,-19.531,0.000,0
110717.667,1.953,1.465,-55.176,-13.184,0.000,0
110717.671,-37.109,-0.488,-79.102,-2.930,0.000,0
110717.675,-40.039,-10.742,-38.086,1.953,0.000,0
110717.679,-7.324,-12.207,-25.391,-8.301,0.000,0
110717.683,-4.883,-9.277,-66.406,-8.301,0.000,0
110717.687,-29.785,-3.906,-87.891,15.625,0.000,0
110717.691,-25.879,-4.883,-70.312,4.883,0.000,0
110717.695,0.488,-13.672,-27.344,-2.441,0.000,0
110717.698,-3.418,-21.973,-40.039,4.395,0.000,0
110717.702,-42.480,-30.273,-75.195,-0.488,0.000,0
110717.706,-48.828,-19.043,-40.527,-7.324,0.000,0
110717.710,-1.953,-0.977,1.465,-10.742,0.000,0
110717.714,23.438,5.371,-16.113,-10.254,0.000,0
110717.718,-11.719,4.395,-63.965,8.789,0.000,0
110717.722,-22.949,1.953,-72.754,3.906,0.000,0
110717.726,-7.812,1.953,-6.836,-10.742,0.000,0
110717.730,6.348,13.184,-8.789,-11.230,0.000,0
110717.734,-22.949,14.160,-47.363,-6.836,0.000,0
110717.738,-57.617,-1.465,-75.684,17.578,0.000,0
110717.741,-12.695,-6.836,-60.547,-4.395,0.000,0
110717.745,-5.371,-12.207,-13.184,-23.926,0.000,0
110717.749,-14.648,-7.812,-42.480,1.465,0.000,0
110717.753,-27.832,2.930,-85.938,-6.836,0.000,0
110717.757,-35.645,3.418,-59.082,-13.672,0.000,0
110717.761,-13.184,-0.977,-8.789,-4.883,0.000,0
110717.765,-27.344,-2.441,-18.555,-9.766,0.000,0
110717.769,-51.758,2.930,-69.824,6.836,0.000,0
110717.773,-59.570,-4.395,-87.402,4.395,0.000,0
110717.777,-45.410,-8.789,-24.414,-3.906,0.000,0
110717.780,-30.762,-10.742,-12.207,1.953,0.000,0
110717.784,-28.809,-20.020,-78.613,4.395,0.000,0
110717.788,-29.785,-6.348,-80.566,19.043,0.000,0
110717.792,-23.438,-0.977,-22.949,12.695,0.000,0
110717.796,5.859,-7.812,-11.230,-7.812,0.000,0
110717.800,9.766,-5.859,-70.312,-2.441,0.000,0
110717.804,-32.227,-2.441,-86.914,4.883,0.000,0
110717.808,-29.785,4.883,-45.410,13.184,0.000,0
110717.812,0.488,2.441,-26.855,2.930,0.000,0
110717.816,-0.977,2.441,-64.941,-15.137,0.000,0
110717.820,-1.953,1.465,-110.840,-10.254,0.000,0
110717.823,-16.113,-7.324,-42.480,0.488,0.000,0
110717.827,-13.672,-9.277,14.648,-8.301,0.000,0
110717.831,23.926,-7.812,-37.109,-3.906,0.000,0
110717.835,-11.230,0.000,-92.285,-5.371,0.000,0
110717.839,-37.109,7.812,-83.496,-17.090,0.000,0
110717.843,11.230,-4.883,-9.766,15.137,0.000,0
110717.847,43.945,-5.859,-6.348,26.367,0.000,0
110717.851,17.578,13.184,-56.152,11.719,0.000,0
110717.855,-32.227,13.184,-84.473,3.418,0.000,0
110717.859,-43.457,-3.418,-78.125,1.953,0.000,0
110717.863,-7.324,-10.254,-43.945,-3.418,0.000,0
110717.866,-8.301,-4.883,-51.270,-2.930,0.000,0
110717.870,-46.875,3.906,-68.359,0.000,0.000,0
110717.874,-26.855,3.906,-58.594,-20.508,0.000,0
110717.878,-9.766,-5.859,-28.809,-27.344,0.000,0
110717.882,-25.391,-14.160,-8.301,-26.367,0.000,0
110717.886,-50.293,-11.230,-45.898,-19.531,0.000,0
110717.890,-42.480,-8.301,-83.008,-11.719,0.000,0
110717.894,-1.953,-14.160,-44.434,-13.672,0.000,0
110717.898,-10.742,-21.973,-15.137,-13.184,0.000,0
110717.902,-47.363,-21.973,-41.016,-11.230,0.000,0
110717.905,-51.270,-22.949,-48.828,-22.949,0.000,0
110717.909,-14.160,-23.926,-7.812,-11.230,0.000,0
110717.913,-14.160,-21.484,29.785,4.883,0.000,0
110717.917,-17.578,-16.602,-13.672,15.625,0.000,0
110717.921,6.348,-19.043,-67.871,12.695,0.000,0
110717.925,-7.324,-18.555,-25.879,-7.324,0.000,0
110717.929,-2.930,-10.742,11.719,-0.977,0.000,1
110717.933,-3.418,-15.625,-15.137,18.066,0.000,0
110717.937,-20.996,-8.301,-92.285,-2.441,0.000,0
110717.941,-12.695,-8.789,-74.707,-28.320,0.000,0
110717.945,-3.906,-17.090,10.742,-16.113,0.000,0
110717.948,17.578,-6.836,-20.996,-19.043,0.000,0
110717.952,-13.672,-4.883,-72.266,-32.715,0.000,0
110717.956,-43.945,-9.277,-64.941,-19.531,0.000,0
110717.960,-1.953,-17.578,-8.789,-21.973,0.000,0
110717.964,13.672,-14.160,1.953,-32.715,0.000,0
110717.968,-0.488,0.977,-65.918,-3.418,0.000,0
110717.972,-43.457,-6.836,-84.961,-3.906,0.000,0
110717.976,-54.199,-20.020,-42.969,-18.555,0.000,0
110717.980,-6.836,-20.020,-28.809,-18.066,0.000,0
110717.984,-13.672,-19.531,-56.641,-27.344,0.000,0
110717.988,-29.785,-10.254,-79.590,-1.953,0.000,0
110717.991,-6.348,-3.906,-38.086,5.859,0.000,0
110717.995,25.391,-0.488,-0.488,0.000,0.000,0
110717.999,5.371,1.465,-35.645,-5.859,0.000,0
110718.003,-25.879,-4.395,-61.035,-9.766,0.000,0
110718.007,-9.277,-7.812,-53.223,-2.930,0.000,0
110718.011,21.484,-20.020,-51.758,-9.277,0.000,0
110718.015,25.391,-22.461,-37.598,10.254,0.000,0
110718.019,1.465,-25.879,-42.969,7.812,0.000,0
110718.023,-7.812,-35.156,-29.785,-15.137,0.000,0
110718.027,15.625,-35.156,-9.277,-19.043,0.000,0
110718.030,20.020,-30.762,-11.230,-9.766,0.000,0
110718.034,-14.648,-29.297,-37.109,0.000,0.000,0
110718.038,-33.691,-21.484,-68.848,-7.324,0.000,0
110718.042,-15.625,-20.508,-43.945,-20.020,0.000,0
110718.046,-0.488,-21.484,-4.395,-3.906,0.000,0
110718.050,-11.230,-15.625,-35.156,24.902,0.000,0
110718.054,-14.648,-25.391,-90.820,2.441,0.000,0
110718.058,-2.441,-36.621,-71.289,-10.254,0.000,0
110718.062,4.395,-41.992,-9.277,-20.508,0.000,0
110718.066,2.930,-33.691,-38.086,-24.414,0.000,0
110718.070,-14.648,-26.367,-117.676,-13.672,0.000,0
110718.073,-13.672,-29.297,-116.699,-0.977,0.000,0
110718.077,-5.859,-45.410,-36.133,3.906,0.000,0
110718.081,-9.766,-50.781,-11.230,-14.648,0.000,0
110718.085,-8.789,-35.156,-80.566,-9.277,0.000,0
110718.089,-23.438,-23.926,-101.562,2.441,0.000,0
110718.093,-32.715,-23.438,-32.227,-15.137,0.000,0
110718.097,-17.090,-20.020,-13.672,-23.438,0.000,0
110718.101,-20.020,-23.926,-73.242,-14.160,0.000,0
110718.105,-53.223,-30.273,-101.562,-25.879,0.000,0
110718.109,-41.992,-25.879,-56.641,-24.414,0.000,0
110718.113,5.371,-20.020,-15.625,-11.719,0.000,0
110718.116,2.930,-15.137,-46.387,-8.789,0.000,0
110718.120,-33.203,-5.859,-50.781,-9.766,0.000,0
110718.124,-28.320,-3.906,-19.531,0.000,0.000,0
110718.128,1.465,-6.348,-4.883,-7.324,0.000,0
110718.132,-6.348,-12.207,-28.809,-16.113,0.000,0
110718.136,-47.363,-24.414,-54.688,-4.395,0.000,0
110718.140,-65.430,-24.902,-10.254,-17.090,0.000,0
110718.144,-40.039,-21.484,37.109,-30.273,0.000,0
110718.148,-17.090,-20.020,26.855,-20.508,0.000,0
110718.152,-26.367,-15.137,11.719,3.418,0.000,0
110718.155,-50.293,-15.625,49.805,6.836,0.000,0
110718.159,-24.902,-32.715,83.496,-15.137,0.000,0
110718.163,0.488,-42.480,76.660,-26.855,0.000,0
110718.167,-20.020,-31.250,29.785,-7.324,0.000,0
110718.171,-35.156,-19.043,0.488,11.230,0.000,0
110718.175,-21.973,-23.926,0.488,-8.789,0.000,0
110718.179,0.000,-34.668,54.688,-18.555,0.000,0
110718.183,-15.625,-34.668,42.969,3.906,0.000,0
110718.187,-72.266,-39.551,-36.621,-3.418,0.000,0
110718.191,-51.758,-38.574,-24.414,-18.066,0.000,0
110718.195,11.719,-36.133,13.184,-1.465,0.000,0
110718.198,1.465,-41.504,52.246,2.930,0.000,0
110718.202,-28.809,-27.832,28.320,-5.859,0.000,0
110718.206,-7.324,-12.207,-23.926,4.395,0.000,0
110718.210,10.742,-13.184,22.461,11.719,0.000,0
110718.214,16.602,-4.395,42.480,-1.465,0.000,0
110718.218,-12.207,-6.836,-0.977,-7.324,0.000,0
110718.222,-37.109,-16.602,-42.969,-6.836,0.000,0
110718.226,-17.090,-19.531,-16.602,0.488,0.000,0
110718.230,-17.578,-27.832,25.391,-14.160,0.000,0
110718.234,-35.156,-27.832,-31.250,-24.902,0.000,0
110718.238,-38.574,-34.668,-61.035,-24.414,0.000,0
110718.241,-35.645,-38.574,-2.441,-21.484,0.000,0
110718.245,-27.832,-32.715,9.766,-18.555,0.000,0
110718.249,-36.621,-22.461,-53.711,-20.508,0.000,0
110718.253,-42.480,-14.160,-80.566,-7.812,0.000,0
110718.257,-23.926,-18.555,8.301,-0.488,0.000,0
110718.261,-11.230,-32.715,13.672,-10.254,0.000,0
110718.265,-20.020,-37.109,-46.875,-18.066,0.000,0
110718.269,-32.227,-32.227,-60.059,-8.789,0.000,0
110718.273,-33.203,-31.738,-14.648,-5.859,0.000,0
110718.277,-2.441,-38.086,37.109,-14.160,0.000,0
110718.280,-9.277,-45.410,-4.883,-23.926,0.000,0
110718.284,-54.688,-52.734,-64.453,-23.438,0.000,0
110718.288,-69.824,-55.176,-42.969,-13.184,0.000,0
110718.292,-19.531,-52.734,-13.184,-21.973,0.000,0
110718.296,5.371,-41.992,1.953,-30.762,0.000,0
110718.300,-24.414,-20.508,-41.504,-5.371,0.000,0
110718.304,-26.367,-15.625,-66.406,-1.465,0.000,0
110718.308,-21.484,-21.973,-11.230,-23.926,0.000,0
110718.312,-7.812,-19.531,-1.465,-18.555,0.000,0
110718.316,-18.066,-24.414,-24.414,-11.230,0.000,0
110718.320,-27.832,-24.902,-39.062,1.465,0.000,0
110718.323,-12.695,-16.602,-18.066,5.859,0.000,0
110718.327,9.766,-16.602,22.949,1.465,0.000,0
110718.331,-10.254,-21.484,-9.277,10.254,0.000,0
110718.335,-62.012,-27.832,-55.176,-20.508,0.000,0
110718.339,-41.992,-41.504,-22.949,-29.785,0.000,0
110718.343,-4.395,-35.156,5.859,2.441,0.000,0
110718.347,-8.789,-29.785,-6.836,0.000,0.000,0
110718.351,-30.762,-37.109,-64.453,1.953,0.000,0
110718.355,-43.457,-45.410,-62.988,-15.137,0.000,0
110718.359,-30.762,-45.410,2.441,-17.090,0.000,0
110718.363,-22.949,-31.738,-3.418,-12.207,0.000,0
110718.366,-37.109,-24.902,-64.453,-25.879,0.000,0
110718.370,-56.152,-27.344,-83.496,-19.043,0.000,0
110718.374,-47.852,-39.062,-21.973,-16.113,0.000,0
110718.378,-23.438,-44.922,20.020,-30.273,0.000,0
110718.382,-37.598,-45.898,-46.387,-28.809,0.000,0
110718.386,-67.383,-54.688,-91.309,-17.578,0.000,0
110718.390,-62.012,-55.176,-35.645,-20.020,0.000,0
110718.394,-47.852,-36.133,34.668,-13.672,0.000,0
110718.398,-25.879,-18.066,-4.395,-1.953,0.000,0
110718.402,-28.320,-3.906,-58.594,13.672,0.000,0
110718.405,-34.668,-3.906,-18.066,11.719,0.000,0
110718.409,-6.836,-11.719,20.508,-19.043,0.000,0
110718.413,11.230,-13.184,-4.883,-19.043,0.000,0
110718.417,-21.973,-12.695,-41.016,0.000,0.000,0
110718.421,-48.340,-17.578,-57.617,2.441,0.000,0
110718.425,-13.184,-27.344,-37.109,-9.766,0.000,0
110718.429,23.926,-24.902,-46.387,-14.648,0.000,0
110718.433,3.418,-21.484,-84.473,-2.930,0.000,0
110718.437,-29.785,-29.297,-77.637,-1.953,0.000,0
110718.441,-16.602,-40.039,-59.082,-7.812,0.000,0
110718.445,14.648,-27.344,-62.500,-14.648,0.000,0
110718.448,3.906,-6.836,-93.750,-16.602,0.000,0
110718.452,-34.180,-9.277,-90.820,-2.930,0.000,0
110718.456,-34.668,-20.508,-64.453,-17.090,0.000,0
110718.460,-9.277,-18.555,-61.035,-42.969,0.000,0
110718.464,-4.883,-10.742,-105.469,-20.996,0.000,0
110718.468,-32.715,-5.859,-146.973,-7.812,0.000,0
110718.472,-20.508,-5.859,-130.859,-22.949,0.000,0
110718.476,0.977,-14.160,-48.340,-25.879,0.000,0
110718.480,-21.973,-21.973,-56.152,-22.461,0.000,0
110718.484,-63.477,-22.949,-126.465,-15.625,0.000,0
110718.488,-53.223,-13.184,-146.973,-10.254,0.000,0
110718.491,-15.137,-11.719,-91.309,-10.254,0.000,0
110718.495,8.301,-16.113,-37.598,1.465,0.000,0
110718.499,-8.789,-10.742,-86.426,-6.836,0.000,0
110718.503,-26.855,-9.766,-128.418,-6.348,0.000,1
110718.507,-5.371,-11.719,-93.262,4.883,0.000,0
110718.511,10.254,-9.766,-51.758,3.906,0.000,0
110718.515,-2.930,-13.672,-67.383,-7.324,0.000,0
110718.519,-12.695,-16.113,-149.902,-5.859,0.000,0
110718.523,-14.160,-15.625,-138.672,-0.488,0.000,0
110718.527,-34.180,-18.555,-59.570,-1.465,0.000,0
110718.530,-34.668,-25.391,-88.867,-10.742,0.000,0
110718.534,-46.875,-34.668,-141.113,-20.020,0.000,0
110718.538,-63.965,-30.762,-138.672,-14.648,0.000,0
110718.542,-30.273,-33.203,-82.520,-8.789,0.000,0
110718.546,-13.184,-30.762,-76.660,-4.883,0.000,0
110718.550,-28.320,-24.902,-142.090,-14.160,0.000,0
110718.554,-35.645,-36.133,-129.395,-19.043,0.000,0
110718.558,-15.625,-37.109,-68.359,-1.953,0.000,0
110718.562,-1.953,-37.598,-46.875,7.324,0.000,0
110718.566,-11.719,-44.434,-133.301,1.953,0.000,0
110718.570,-40.527,-41.992,-171.387,-7.812,0.000,0
110718.573,-58.105,-41.504,-57.617,-8.789,0.000,0
110718.577,-13.184,-43.945,-56.152,-18.555,0.000,0
110718.581,1.465,-43.945,-128.418,-23.926,0.000,0
110718.585,-14.648,-34.668,-151.855,-2.930,0.000,0
110718.589,-5.859,-26.367,-118.164,2.441,0.000,0
110718.593,10.254,-29.785,-38.086,-5.371,0.000,0
110718.597,0.977,-29.297,-50.293,-16.113,0.000,0
110718.601,-16.113,-26.855,-118.164,-17.578,0.000,0
110718.605,-30.273,-31.250,-113.770,-16.113,0.000,0
110718.609,-17.090,-37.109,-67.871,-17.578,0.000,0
110718.613,-5.859,-38.574,-57.129,-19.531,0.000,0
110718.616,-37.598,-32.227,-100.098,-8.789,0.000,0
110718.620,-64.941,-42.969,-131.348,-18.066,0.000,0
110718.624,-30.273,-51.270,-94.727,-36.133,0.000,0
110718.628,-12.207,-48.340,-68.359,-15.137,0.000,0
110718.632,-31.250,-45.410,-97.656,-11.719,0.000,0
110718.636,-55.176,-43.457,-114.746,-44.922,0.000,0
110718.640,-42.969,-38.086,-119.629,-39.062,0.000,0
110718.644,-9.766,-38.086,-92.773,-26.855,0.000,0
110718.648,-12.695,-34.668,-99.609,-23.926,0.000,0
110718.652,-26.855,-23.926,-147.949,-17.578,0.000,0
110718.655,-34.180,-26.367,-115.234,-10.742,0.000,0
110718.659,-22.949,-28.809,-64.941,-19.531,0.000,0
110718.663,-19.531,-28.320,-71.777,-20.020,0.000,0
110718.667,-25.391,-25.879,-140.625,-14.648,0.000,0
110718.671,-44.434,-22.461,-134.277,-22.949,0.000,0
110718.675,-21.484,-29.297,-80.566,-26.367,0.000,0
110718.679,0.488,-24.902,-68.848,0.000,0.000,0
110718.683,-26.367,-21.973,-111.816,5.371,0.000,0
110718.687,-40.527,-32.715,-140.137,-18.555,0.000,0
110718.691,-36.133,-41.504,-74.219,-37.109,0.000,0
110718.695,-8.301,-40.527,-35.156,-33.691,0.000,0
110718.698,-2.441,-30.273,-87.891,-9.766,0.000,0
110718.702,-55.664,-32.715,-126.953,-5.859,0.000,0
110718.706,-52.246,-20.996,-89.844,-9.277,0.000,0
110718.710,-20.508,-25.879,-43.945,-23.926,0.000,0
110718.714,-25.879,-37.598,-72.754,-24.414,0.000,0
110718.718,-57.129,-26.855,-133.301,-18.555,0.000,0
110718.722,-59.082,-30.273,-109.863,-35.156,0.000,0
110718.726,-16.113,-40.039,-51.758,-25.879,0.000,0
110718.730,-4.395,-40.527,-48.340,-16.602,0.000,0
110718.734,-36.621,-36.621,-83.008,-14.160,0.000,0
110718.738,-57.617,-33.691,-85.449,-12.207,0.000,0
110718.741,-28.320,-36.621,-34.668,-25.391,0.000,0
110718.745,1.953,-52.734,-24.902,-39.062,0.000,0
110718.749,-33.691,-71.777,-59.570,-24.902,0.000,0
110718.753,-82.520,-76.172,-83.008,-12.695,0.000,0
110718.757,-60.547,-74.219,-83.008,-29.297,0.000,0
110718.761,-4.395,-69.336,-68.359,-33.203,0.000,0
110718.765,-12.695,-62.988,-77.637,-23.438,0.000,0
110718.769,-43.457,-54.199,-88.379,-19.531,0.000,0
110718.773,-40.039,-44.434,-52.734,-19.531,0.000,0
110718.777,-23.926,-44.434,-31.738,-23.438,0.000,0
110718.780,-13.184,-51.270,-72.754,-17.090,0.000,0
110718.784,-38.574,-50.781,-124.023,-7.812,0.000,0
110718.788,-50.293,-54.688,-110.840,-8.789,0.000,0
110718.792,-41.504,-62.012,-43.457,-18.066,0.000,0
110718.796,-33.203,-53.223,-46.875,-27.832,0.000,0
110718.800,-37.109,-48.340,-114.746,-26.367,0.000,0
110718.804,-53.223,-50.781,-123.047,-20.996,0.000,0
110718.808,-35.156,-49.805,-49.805,-21.973,0.000,0
110718.812,-37.598,-43.457,28.809,-26.367,0.000,0
110718.816,-48.828,-30.762,-6.836,-29.297,0.000,0
110718.820,-43.457,-32.227,-66.406,-20.020,0.000,0
110718.823,-28.809,-47.363,-20.996,-17.578,0.000,0
110718.827,-1.953,-53.223,47.852,-9.277,0.000,0
110718.831,-16.602,-56.152,34.668,-2.930,0.000,0
110718.835,-55.176,-55.176,-33.203,-16.113,0.000,0
110718.839,-36.133,-49.316,-15.625,-19.043,0.000,0
110718.843,-10.254,-40.527,36.133,0.488,0.000,0
110718.847,-13.184,-34.180,-1.465,-16.602,0.000,0
110718.851,-29.785,-31.250,-34.180,-32.227,0.000,0
110718.855,-39.062,-17.090,-20.020,4.883,0.000,0
110718.859,-44.434,-24.902,32.227,2.930,0.000,0
110718.863,-22.949,-35.645,23.438,-25.391,0.000,0
110718.866,-23.438,-28.320,-23.926,-8.301,0.000,0
110718.870,-52.246,-34.180,-20.996,4.395,0.000,0
110718.874,-19.531,-37.598,12.695,-4.395,0.000,0
110718.878,17.090,-36.133,40.527,1.953,0.000,0
110718.882,-13.672,-27.832,-0.977,7.812,0.000,0
110718.886,-51.758,-29.785,-46.875,6.836,0.000,0
110718.890,-43.457,-42.969,7.812,-3.906,0.000,0
110718.894,-20.020,-44.922,1.465,1.465,0.000,0
110718.898,-34.180,-40.527,-53.223,1.953,0.000,0
110718.902,-73.242,-43.457,-42.969,-13.672,0.000,0
110718.905,-40.039,-53.711,-5.859,-31.738,0.000,0
110718.909,1.465,-53.223,9.766,-33.691,0.000,0
110718.913,-13.184,-44.434,-28.320,-4.395,0.000,0
110718.917,-41.016,-39.062,-66.406,-4.395,0.000,0
110718.921,-28.809,-24.902,-54.688,-16.602,0.000,0
110718.925,4.395,-28.809,9.766,-11.230,0.000,0
110718.929,-15.137,-39.062,-2.930,-3.906,0.000,0
110718.933,-50.781,-29.297,-85.449,-10.254,0.000,0
110718.937,-55.664,-26.367,-81.055,-27.344,0.000,0
110718.941,-20.996,-29.297,-60.059,-16.113,0.000,0
110718.945,-9.277,-26.855,-38.086,-5.859,0.000,0
110718.948,-36.621,-12.207,-42.969,-5.371,0.000,0
110718.952,-39.062,-10.254,-74.707,-10.254,0.000,0
110718.956,-14.648,-20.996,-57.129,-3.418,0.000,0
110718.960,4.395,-26.367,-62.012,7.324,0.000,0
110718.964,-29.297,-30.273,-68.359,6.836,0.000,0
110718.968,-55.664,-30.762,-83.984,-11.230,0.000,0
110718.972,-54.688,-32.715,-71.777,-20.020,0.000,0
110718.976,-40.527,-39.551,-33.691,-18.555,0.000,0
110718.980,-37.109,-31.738,-64.453,-10.254,0.000,0
110718.984,-58.105,-17.090,-103.516,5.859,0.000,0
110718.988,-62.988,-15.137,-73.730,-12.695,0.000,0
110718.991,-41.992,-6.836,-23.926,-8.301,0.000,0
110718.995,-9.766,-6.348,-65.430,12.207,0.000,0
110718.999,-14.648,-20.020,-120.605,11.719,0.000,0
110719.003,-28.809,-16.602,-74.707,9.277,0.000,0
110719.007,-17.578,-3.418,1.953,12.695,0.000,0
110719.011,-4.883,-6.348,-23.438,19.531,0.000,0
110719.015,-9.766,-15.137,-105.957,-4.883,0.000,0
110719.019,-43.457,-30.762,-101.074,-25.391,0.000,0
110719.023,-33.203,-40.527,-47.363,-3.906,0.000,0
110719.027,-10.742,-41.992,-17.578,-2.930,0.000,0
110719.030,-31.738,-41.992,-43.945,-15.137,0.000,1
110719.034,-48.828,-40.039,-71.289,1.953,0.000,0
110719.038,-35.645,-39.062,-28.320,1.465,0.000,0
110719.042,-6.836,-29.297,-8.301,-1.465,0.000,0
110719.046,-9.766,-23.926,-20.020,2.441,0.000,0
110719.050,-39.551,-20.996,-64.453,-1.465,0.000,0
110719.054,-41.016,-23.926,-31.250,-0.488,0.000,0
110719.058,-7.812,-19.531,9.766,-9.277,0.000,0
110719.062,3.906,-1.465,-37.109,-5.859,0.000,0
110719.066,-34.668,3.906,-34.180,17.090,0.000,0
110719.070,-42.969,10.742,-30.273,8.301,0.000,0
110719.073,-5.859,6.836,-20.508,-7.812,0.000,0
110719.077,-14.648,-5.371,15.137,-5.371,0.000,0
110719.081,-51.758,-10.742,-14.160,-2.441,0.000,0
110719.085,-50.293,-18.555,-51.758,4.395,0.000,0
110719.089,-29.785,-30.273,-20.996,-7.324,0.000,0
110719.093,-28.320,-38.086,9.766,-37.598,0.000,0
110719.097,-19.531,-38.086,-21.484,-10.742,0.000,0
110719.101,-21.973,-32.227,-58.594,-0.977,0.000,0
110719.105,-17.090,-28.320,-16.602,-8.789,0.000,0
110719.109,5.371,-23.926,20.020,4.883,0.000,0
110719.113,-4.883,-30.273,-30.762,8.789,0.000,0
110719.116,-30.273,-40.527,-94.727,0.977,0.000,0
110719.120,-51.270,-46.875,-69.336,-22.949,0.000,0
110719.124,-39.551,-50.293,11.719,-27.344,0.000,0
110719.128,-28.320,-41.016,-13.184,-10.254,0.000,0
110719.132,-31.738,-33.691,-114.746,1.465,0.000,0
110719.136,-22.949,-27.344,-134.277,-4.395,0.000,0
110719.140,-17.090,-20.996,-71.777,-16.113,0.000,0
110719.144,-11.230,-26.855,-71.777,-14.648,0.000,0
110719.148,-15.625,-23.438,-100.098,3.418,0.000,0
110719.152,-24.414,-13.672,-105.957,10.742,0.000,0
110719.155,-36.133,-26.855,-58.594,-13.672,0.000,0
110719.159,-25.879,-33.691,-40.039,-33.203,0.000,0
110719.163,-8.789,-27.832,-109.375,-28.809,0.000,0
110719.167,-43.945,-31.738,-132.812,-3.906,0.000,0
110719.171,-63.965,-32.715,-119.141,0.977,0.000,0
110719.175,-27.832,-40.527,-94.238,-22.461,0.000,0
110719.179,0.000,-51.270,-91.797,-27.344,0.000,0
110719.183,-29.785,-57.129,-95.703,-15.137,0.000,0
110719.187,-38.574,-40.039,-60.547,3.418,0.000,0
110719.191,16.602,-29.297,-41.504,6.836,0.000,0
110719.195,34.668,-33.691,-32.715,11.719,0.000,0
110719.198,-5.371,-34.668,-78.613,12.207,0.000,0
110719.202,-27.344,-42.480,-93.750,2.930,0.000,0
110719.206,-7.324,-41.504,-49.805,3.906,0.000,0
110719.210,16.602,-31.250,-38.574,9.277,0.000,0
110719.214,-2.930,-25.391,-74.219,12.695,0.000,0
110719.218,-41.016,-14.648,-101.074,19.043,0.000,0
110719.222,-9.766,-12.695,-50.293,15.625,0.000,0
110719.226,32.227,-16.602,-4.395,12.695,0.000,0
110719.230,-1.465,-9.277,-14.160,26.367,0.000,0
110719.234,-32.715,-9.766,-58.105,29.297,0.000,0
110719.238,-7.324,-8.301,-75.195,17.578,0.000,0
110719.241,20.020,-5.371,6.348,7.324,0.000,0
110719.245,8.301,-7.812,7.812,4.395,0.000,0
110719.249,-8.789,-2.930,-99.121,16.113,0.000,0
110719.253,9.277,-3.906,-115.723,17.578,0.000,0
110719.257,26.367,-6.836,-20.508,7.324,0.000,0
110719.261,-0.977,-18.066,6.348,6.348,0.000,0
110719.265,-34.668,-26.855,-59.570,6.836,0.000,0
110719.269,-38.574,-19.531,-82.520,-9.277,0.000,0
110719.273,-8.789,-7.324,-42.969,6.836,0.000,0
110719.277,22.461,6.836,-12.695,26.367,0.000,0
110719.280,15.625,1.465,-50.293,3.418,0.000,0
110719.284,-9.766,-3.906,-77.148,5.859,0.000,0
110719.288,1.465,4.395,-50.781,32.227,0.000,0
110719.292,26.855,6.348,-17.090,29.785,0.000,0
110719.296,15.137,4.395,-52.246,17.090,0.000,0
110719.300,-20.996,3.906,-79.590,4.883,0.000,0
110719.304,-26.367,4.883,-44.922,12.207,0.000,0
110719.308,6.348,12.207,-6.348,25.879,0.000,0
110719.312,18.555,11.719,-11.719,28.809,0.000,0
110719.316,10.742,8.301,-76.172,23.926,0.000,0
110719.320,-1.465,13.672,-72.266,28.809,0.000,0
110719.323,0.488,9.277,-22.461,23.438,0.000,0
110719.327,36.133,-0.488,-34.180,22.949,0.000,0
110719.331,16.113,-6.836,-31.250,18.555,0.000,0
110719.335,-0.488,-11.230,25.391,13.672,0.000,0
110719.339,38.574,-9.766,71.289,20.996,0.000,0
110719.343,61.035,-15.625,74.707,17.578,0.000,0
110719.347,23.926,-20.020,40.039,26.855,0.000,0
110719.351,0.977,-17.090,35.156,29.785,0.000,0
110719.355,16.113,-12.207,98.633,9.277,0.000,0
110719.359,10.742,-14.160,123.535,8.301,0.000,0
110719.363,-20.020,-13.184,79.102,10.742,0.000,0
110719.366,-47.852,-11.719,46.387,10.742,0.000,0
110719.370,-3.906,-10.742,69.336,18.066,0.000,0
110719.374,38.574,-13.184,75.195,18.555,0.000,0
110719.378,1.953,-34.180,77.148,10.742,0.000,0
110719.382,-23.926,-56.641,42.969,9.766,0.000,0
110719.386,-3.906,-59.082,11.719,5.859,0.000,0
110719.390,10.254,-59.082,75.684,12.695,0.000,0
110719.394,-12.695,-57.617,80.078,11.230,0.000,0
110719.398,-33.203,-48.340,10.742,10.254,0.000,0
110719.402,-39.062,-41.016,-0.488,-5.859,0.000,0
110719.405,-38.086,-35.645,35.156,-15.625,0.000,0
110719.409,-28.809,-35.156,57.129,10.254,0.000,0
110719.413,-27.344,-44.922,-12.207,2.441,0.000,0
110719.417,-37.109,-57.129,-38.086,-18.555,0.000,0
110719.421,-41.504,-67.383,10.742,-12.695,0.000,0
110719.425,-17.090,-60.547,13.672,-0.488,0.000,0
110719.429,-9.277,-48.340,-23.438,-1.465,0.000,0
110719.433,-20.996,-45.898,-45.898,1.953,0.000,0
110719.437,-13.672,-42.480,12.695,5.371,0.000,0
110719.441,15.137,-43.945,61.523,14.648,0.000,0
110719.445,22.949,-45.898,11.230,21.484,0.000,0
110719.448,-0.488,-37.598,-40.527,22.461,0.000,0
110719.452,-6.348,-34.180,-15.625,25.879,0.000,0
110719.456,10.254,-49.316,42.969,21.484,0.000,0
110719.460,31.738,-54.688,39.551,5.859,0.000,0
110719.464,24.902,-45.898,-26.367,9.277,0.000,0
110719.468,-1.465,-40.039,-7.324,19.043,0.000,0
110719.472,20.996,-41.992,43.945,25.879,0.000,0
110719.476,60.547,-37.598,-4.395,17.578,0.000,0
110719.480,24.414,-43.457,-32.715,14.160,0.000,0
110719.484,-13.184,-62.988,-33.691,9.766,0.000,0
110719.488,18.066,-72.266,-9.277,3.418,0.000,0
110719.491,39.062,-65.918,13.672,-0.977,0.000,0
110719.495,12.695,-64.453,-24.414,-8.789,0.000,0
110719.499,-20.508,-61.035,-36.621,-6.348,0.000,0
110719.503,-13.672,-44.922,-20.020,0.488,0.000,0
110719.507,30.762,-38.574,-16.602,-6.836,0.000,0
110719.511,23.926,-35.645,-33.203,5.371,0.000,0
110719.515,-31.738,-32.227,-43.457,17.578,0.000,0
110719.519,-12.695,-31.250,-31.250,3.906,0.000,0
110719.523,23.926,-29.785,-5.859,7.324,0.000,0
110719.527,28.320,-31.738,-13.184,9.766,0.000,0
110719.530,15.625,-39.551,-69.336,6.348,0.000,0
110719.534,0.000,-60.059,-85.449,-3.906,0.000,0
110719.538,-3.418,-66.895,-12.207,-9.277,0.000,0
110719.542,5.371,-54.199,-5.371,-3.418,0.000,0
110719.546,-9.277,-57.129,-69.824,7.812,0.000,0
110719.550,-29.785,-61.035,-118.652,-4.395,0.000,0
110719.554,-10.742,-60.547,-59.082,-11.719,0.000,0
110719.558,-35.156,-76.172,38.086,-10.742,0.000,0
110719.562,-69.336,-87.402,-31.250,-19.043,0.000,0
110719.566,-67.383,-89.355,-130.371,-34.180,0.000,0
110719.570,-59.082,-95.703,-106.445,-28.809,0.000,0
110719.573,-27.344,-88.867,-61.035,3.906,0.000,0
110719.577,-16.113,-84.473,-64.453,-7.324,0.000,0
110719.581,-46.875,-87.402,-117.676,-18.066,0.000,0
110719.585,-49.316,-66.406,-103.516,-11.719,0.000,0
110719.589,-18.555,-20.996,-29.785,1.465,0.000,0
110719.593,-24.414,-14.648,-7.324,9.766,0.000,0
110719.597,-27.832,-32.227,-78.613,19.043,0.000,0
110719.601,-59.082,-18.066,-109.375,26.855,0.000,0
110719.605,-74.219,-17.578,-69.824,36.133,0.000,0
110719.609,-43.945,-39.062,-104.004,15.625,0.000,0
110719.613,-68.848,-31.250,-156.250,-9.766,0.000,0
110719.616,-98.145,-15.137,-148.926,14.648,0.000,0
110719.620,-95.215,-20.996,-105.469,19.531,0.000,0
110719.624,-85.938,-33.203,-84.473,15.625,0.000,0
110719.628,-63.965,-41.992,-113.770,39.062,0.000,0
110719.632,-97.656,-29.785,-90.820,20.508,0.000,0
110719.636,-126.953,-10.742,-29.785,2.441,0.000,0
110719.640,-99.609,-3.906,-5.371,6.348,0.000,0
110719.644,-78.125,-5.859,-10.742,4.883,0.000,0
110719.648,-90.332,3.418,-31.250,11.719,0.000,0
110719.652,-95.215,17.578,-36.133,11.230,0.000,0
110719.655,-47.852,19.043,8.301,10.254,0.000,0
110719.659,-18.555,33.203,35.645,29.297,0.000,0
110719.663,-29.297,52.246,-4.395,30.273,0.000,0
110719.667,-12.695,53.711,-26.367,10.254,0.000,0
110719.671,14.648,55.176,36.133,0.977,0.000,0
110719.675,20.020,51.270,97.656,8.789,0.000,0
110719.679,26.855,58.105,56.641,9.277,0.000,0
110719.683,30.273,73.242,10.742,5.371,0.000,0
110719.687,29.785,65.918,38.574,10.254,0.000,0
110719.691,39.551,62.012,81.543,2.441,0.000,0
110719.695,33.203,60.059,79.102,2.441,0.000,0
110719.698,31.738,47.852,20.020,10.254,0.000,0
110719.702,36.621,45.898,17.578,7.812,0.000,0
110719.706,52.734,42.969,57.129,3.906,0.000,1
110719.710,63.477,33.691,41.504,-1.465,0.000,0
110719.714,26.367,27.344,-11.719,-17.090,0.000,0
110719.718,10.254,18.555,17.090,-18.555,0.000,0
110719.722,41.992,18.555,91.797,-18.555,0.000,0
110719.726,59.570,32.227,85.938,-13.672,0.000,0
110719.730,48.828,33.691,0.977,-5.371,0.000,0
110719.734,11.230,11.719,-15.625,-15.137,0.000,0
110719.738,-5.859,-13.184,33.203,-30.762,0.000,0
110719.741,23.926,-27.832,35.156,-30.273,0.000,0
110719.745,44.434,-34.668,-30.762,-21.973,0.000,0
110719.749,12.695,-28.320,-47.363,-18.066,0.000,0
110719.753,-3.418,-21.484,9.277,-23.438,0.000,0
110719.757,28.809,-21.484,41.992,-27.832,0.000,0
110719.761,31.738,-12.695,7.324,-18.066,0.000,0
110719.765,3.418,-1.953,-35.156,4.395,0.000,0
110719.769,-1.953,-1.465,-22.461,0.977,0.000,0
110719.773,30.273,-9.277,29.297,-18.555,0.000,0
110719.777,38.086,-13.672,23.926,-14.648,0.000,0
110719.780,11.230,-14.160,-33.691,-4.395,0.000,0
110719.784,-1.953,-18.555,-34.180,-7.812,0.000,0
110719.788,16.113,-18.066,8.789,-13.184,0.000,0
110719.792,44.922,-23.438,7.324,-14.648,0.000,0
110719.796,20.508,-28.320,-19.531,-10.254,0.000,0
110719.800,-22.461,-27.344,-20.996,-0.488,0.000,0
110719.804,0.977,-35.645,-18.066,5.859,0.000,0
110719.808,20.020,-38.574,3.418,-5.371,0.000,0
110719.812,0.977,-37.109,18.555,-15.137,0.000,0
110719.816,-12.695,-34.180,-14.648,4.883,0.000,0
110719.820,-6.836,-36.621,-29.785,-8.789,0.000,0
110719.823,5.371,-41.992,31.738,-37.598,0.000,0
110719.827,-12.695,-34.668,16.602,-23.926,0.000,0
110719.831,-42.969,-32.227,-50.293,-20.996,0.000,0
110719.835,-35.156,-33.691,-21.973,-23.926,0.000,0
110719.839,-5.859,-24.414,42.480,-20.996,0.000,0
110719.843,4.395,-30.273,45.898,-32.227,0.000,0
110719.847,-14.648,-36.621,-0.977,-30.273,0.000,0
110719.851,-24.902,-30.273,9.766,-24.902,0.000,0
110719.855,-10.742,-31.738,89.844,-35.156,0.000,0
110719.859,11.719,-47.363,107.910,-31.738,0.000,0
110719.863,-1.465,-53.223,48.828,-18.555,0.000,0
110719.866,-22.461,-32.227,-5.859,-7.324,0.000,0
110719.870,-7.812,-20.508,70.312,-20.996,0.000,0
110719.874,0.488,-11.719,165.039,-33.203,0.000,0
110719.878,-11.719,-0.977,107.422,-16.602,0.000,0
110719.882,-13.672,-3.418,23.926,-9.766,0.000,0
110719.886,-16.602,-4.395,23.438,-19.043,0.000,0
110719.890,-27.832,-15.137,92.285,-25.391,0.000,0
110719.894,-17.090,-29.785,100.586,-41.992,0.000,0
110719.898,-30.762,-31.738,6.836,-34.668,0.000,0
110719.902,-39.551,-37.598,-26.367,-26.367,0.000,0
110719.905,-14.648,-41.504,55.176,-26.855,0.000,0
110719.909,-1.465,-34.668,62.012,-27.344,0.000,0
110719.913,-16.113,-26.855,29.297,-25.391,0.000,0
110719.917,-43.457,-10.742,9.766,-20.020,0.000,0
110719.921,-30.273,1.953,38.086,-17.578,0.000,0
110719.925,23.926,-0.977,55.664,-33.203,0.000,0
110719.929,11.719,-8.301,16.602,-36.133,0.000,0
110719.933,-43.457,-3.906,31.250,-19.043,0.000,0
110719.937,-34.668,21.973,51.270,1.953,0.000,0
110719.941,13.184,31.738,42.480,4.883,0.000,0
110719.945,-1.465,25.879,11.719,2.441,0.000,0
110719.948,-22.461,44.434,15.625,10.742,0.000,0
110719.952,15.625,74.219,85.938,28.809,0.000,0
110719.956,53.223,89.844,103.027,43.457,0.000,0
110719.960,53.711,89.844,54.688,48.828,0.000,0
110719.964,24.902,86.426,17.578,52.734,0.000,0
110719.968,1.465,82.520,25.391,48.340,0.000,0
110719.972,32.715,79.590,73.730,36.133,0.000,0
110719.976,71.777,83.008,74.219,30.273,0.000,0
110719.980,21.484,80.566,60.059,36.621,0.000,0
110719.984,-3.906,70.312,25.879,35.156,0.000,0
110719.988,32.227,66.406,21.973,21.484,0.000,0
110719.991,37.109,63.965,81.543,16.602,0.000,0
110719.995,20.996,66.406,50.781,22.949,0.000,0
110719.999,-6.836,62.988,-26.367,14.160,0.000,0
