timestamps,TP9,AF7,AF8,TP10,Right AUX,Marker0
216958.524,43.945,36.621,47.363,38.574,62.012,1
216958.527,49.316,28.320,53.711,39.062,51.270,0
216958.531,50.293,20.020,49.316,42.969,57.617,0
216958.535,41.992,21.973,62.012,30.273,29.297,0
216958.539,32.227,30.762,66.895,29.297,22.461,0
216958.543,28.320,39.062,45.410,27.344,54.688,0
216958.547,39.551,54.199,29.785,30.273,16.113,0
216958.551,32.227,49.805,28.809,33.691,-0.977,0
216958.555,24.902,34.180,44.434,26.367,15.137,0
216958.559,28.320,25.391,51.270,18.066,11.719,0
216958.563,33.203,20.020,44.434,28.809,29.785,0
216958.567,42.969,22.461,33.691,43.457,60.547,0
216958.570,40.039,32.227,20.020,53.711,47.363,0
216958.574,30.762,37.598,27.832,65.918,30.273,0
216958.578,25.879,33.691,53.711,52.734,61.523,0
216958.582,29.785,31.738,66.406,35.156,34.668,0
216958.586,25.391,30.762,57.129,20.508,20.020,0
216958.590,17.578,29.785,26.367,41.016,4.395,0
216958.594,16.602,31.738,35.156,61.035,-23.926,0
216958.598,17.578,30.762,61.035,41.504,25.391,0
216958.602,19.531,29.785,34.180,55.664,63.965,0
216958.606,25.879,30.762,10.254,56.641,43.457,0
216958.610,37.109,30.762,14.648,18.555,103.516,0
216958.613,43.945,30.762,45.898,7.812,161.133,0
216958.617,41.504,30.273,79.102,0.977,101.562,0
216958.621,29.785,27.344,70.801,-4.395,50.293,0
216958.625,18.066,16.113,57.129,5.371,49.316,0
216958.629,19.043,4.883,49.316,12.207,4.395,0
216958.633,28.320,15.625,35.156,20.996,-6.836,0
216958.637,34.180,30.762,31.738,31.738,33.691,0
216958.641,38.086,39.551,45.898,40.039,32.227,0
216958.645,30.762,38.574,56.641,42.480,49.805,0
216958.649,14.648,28.809,47.852,28.809,43.457,0
216958.652,7.812,24.414,38.086,15.625,6.836,0
216958.656,18.555,27.344,44.434,24.414,24.414,0
216958.660,27.344,30.273,47.852,39.062,13.672,0
216958.664,32.227,31.738,38.574,43.945,2.930,0
216958.668,32.227,36.133,32.715,34.668,12.207,0
216958.672,29.785,36.133,38.574,27.832,3.906,0
216958.676,39.551,37.598,58.105,47.363,20.996,0
216958.680,35.645,34.668,57.129,38.086,40.527,0
216958.684,18.066,30.273,33.691,29.785,46.387,0
216958.688,18.066,23.926,22.461,48.340,19.531,0
216958.692,17.090,22.949,36.133,52.246,24.414,0
216958.695,20.020,32.715,52.246,30.762,1.953,0
216958.699,29.785,32.227,55.664,25.391,-18.555,0
216958.703,28.809,34.668,58.105,35.156,31.738,0
216958.707,29.297,39.062,41.016,30.762,7.812,0
216958.711,27.832,34.668,42.480,25.879,23.438,0
216958.715,20.508,32.715,55.176,20.020,73.730,0
216958.719,22.949,35.156,56.152,28.809,47.852,0
216958.723,38.086,33.203,53.223,46.875,-0.977,0
216958.727,24.902,15.625,41.992,29.297,0.488,0
216958.731,20.020,13.184,31.250,30.273,-11.719,0
216958.735,53.223,44.922,32.715,70.801,-31.250,0
216958.738,53.223,53.223,40.527,55.664,-22.461,0
216958.742,22.949,35.645,56.152,11.230,-1.953,0
216958.746,9.277,29.297,62.500,1.465,9.766,0
216958.750,14.160,29.297,53.223,16.113,6.836,0
216958.754,15.625,28.320,52.734,25.879,-68.359,0
216958.758,16.113,26.855,55.176,34.180,-100.098,0
216958.762,24.414,28.809,52.734,33.203,-20.508,0
216958.766,30.762,27.832,42.969,18.066,-8.789,0
216958.770,33.203,22.461,39.551,21.973,-31.738,0
216958.774,38.086,22.461,52.734,28.809,-15.137,0
216958.777,36.621,30.273,50.781,35.156,16.113,0
216958.781,29.785,36.133,43.457,39.062,8.789,0
216958.785,30.273,34.180,51.758,35.156,-2.930,0
216958.789,30.273,37.109,62.012,33.691,1.953,0
216958.793,31.738,39.062,73.242,41.504,19.531,0
216958.797,36.133,35.156,66.406,48.340,38.574,0
216958.801,43.457,38.086,55.664,47.363,12.207,0
216958.805,48.828,48.828,58.105,51.758,2.930,0
216958.809,49.805,49.805,62.500,58.594,63.965,0
216958.813,53.711,43.945,53.711,52.734,41.504,2
216958.817,44.922,37.109,46.387,40.039,12.695,0
216958.820,36.133,34.668,38.086,37.598,44.922,0
216958.824,38.574,47.852,29.785,53.223,36.621,0
216958.828,35.645,44.434,55.176,57.129,40.039,0
216958.832,29.785,29.297,67.383,36.621,24.414,0
216958.836,31.250,29.297,63.477,32.227,36.621,0
216958.840,33.203,35.156,54.688,34.180,45.898,0
216958.844,27.832,36.133,38.574,40.039,41.016,0
216958.848,29.785,36.133,44.434,45.410,41.992,0
216958.852,31.250,38.574,53.711,39.062,44.434,0
216958.856,34.180,44.922,47.852,32.227,52.246,0
216958.860,37.109,47.363,51.270,30.762,25.879,0
216958.863,33.203,39.551,57.129,42.480,12.207,0
216958.867,37.598,30.273,45.410,44.922,51.758,0
216958.871,34.180,20.996,41.992,27.344,82.520,0
216958.875,34.180,24.414,43.945,25.879,46.875,0
216958.879,48.828,37.598,30.762,50.293,19.531,0
216958.883,50.293,37.109,37.109,51.758,32.227,0
216958.887,41.992,33.691,46.875,41.016,28.320,0
216958.891,43.945,35.645,53.223,41.016,28.809,0
216958.895,39.551,29.785,64.941,38.574,58.594,0
216958.899,30.762,21.973,60.059,34.668,58.594,0
216958.902,37.598,29.297,58.594,38.086,87.402,0
216958.906,42.480,44.922,54.688,45.410,97.168,0
216958.910,32.227,36.621,31.250,33.203,39.551,0
216958.914,29.785,20.020,28.809,23.438,28.809,0
216958.918,37.598,27.832,43.945,28.809,0.977,0
216958.922,46.875,40.527,35.645,49.316,-49.805,0
216958.926,51.270,33.691,29.785,61.523,-10.254,0
216958.930,39.551,25.391,54.199,41.016,27.832,0
216958.934,37.109,25.879,71.289,40.039,38.086,0
216958.938,46.387,19.043,63.477,49.316,24.414,0
216958.942,50.781,18.555,43.457,52.734,22.461,0
216958.945,46.875,34.180,32.715,54.688,58.594,0
216958.949,33.203,38.086,41.016,43.945,52.246,0
216958.953,30.762,30.273,41.504,39.062,64.453,0
216958.957,32.715,24.414,44.922,31.738,42.480,0
216958.961,31.250,26.367,57.617,31.250,25.391,0
216958.965,39.551,37.109,47.363,42.480,30.273,0
216958.969,47.363,34.668,41.504,54.688,16.602,0
216958.973,48.340,24.414,52.246,49.316,46.387,0
216958.977,46.875,34.668,57.129,37.109,58.105,0
216958.981,38.574,36.621,39.551,35.156,27.832,0
216958.985,44.922,35.645,32.715,43.945,2.441,0
216958.988,47.363,44.434,48.340,37.598,14.648,0
216958.992,30.762,35.156,53.711,21.484,41.992,0
216958.996,23.438,23.926,40.527,22.949,15.137,0
216959.000,26.367,21.973,25.879,28.320,14.160,0
216959.004,34.668,29.297,28.809,33.691,23.926,0
216959.008,39.062,35.156,31.250,35.645,11.719,0
216959.012,34.180,36.133,35.645,29.785,21.484,0
216959.016,39.062,36.133,44.434,36.621,8.789,0
216959.020,47.363,34.668,48.828,38.574,8.301,0
216959.024,43.945,29.297,46.875,32.715,24.902,0
216959.027,41.504,29.785,51.758,38.086,10.254,0
216959.031,41.016,39.062,42.480,30.273,32.715,0
216959.035,37.109,32.715,35.645,16.602,43.945,0
216959.039,38.086,20.508,44.434,20.020,20.996,0
216959.043,35.645,27.344,45.898,23.926,32.715,0
216959.047,38.086,39.062,50.781,28.320,26.855,0
216959.051,41.992,38.086,46.875,35.156,13.184,0
216959.055,34.668,35.645,28.809,37.598,24.414,0
216959.059,40.039,40.039,29.297,42.969,46.875,0
216959.063,54.199,41.016,53.711,47.852,33.691,0
216959.067,60.059,44.434,66.406,55.664,33.691,0
216959.070,54.688,41.504,54.688,47.363,49.805,0
216959.074,39.551,24.902,31.250,27.344,13.672,0
216959.078,27.344,11.230,32.227,18.066,24.414,0
216959.082,28.320,18.555,30.762,34.668,57.617,0
216959.086,26.367,25.879,18.066,33.203,25.391,0
216959.090,20.508,21.973,35.156,18.555,39.551,0
216959.094,22.949,24.414,50.293,24.414,69.824,0
216959.098,25.391,22.949,45.898,27.344,24.414,0
216959.102,32.227,17.090,40.039,35.156,12.207,0
216959.106,33.691,20.996,23.438,39.062,51.758,0
216959.110,30.273,29.785,9.277,38.086,45.898,0
216959.113,33.691,34.668,3.906,35.156,24.414,0
216959.117,34.180,37.598,37.598,30.273,19.043,0
216959.121,28.809,30.273,65.430,18.555,35.156,0
216959.125,29.785,26.367,51.270,20.996,67.383,0
216959.129,27.832,25.879,46.387,23.438,50.781,0
216959.133,21.973,21.973,41.016,12.695,57.617,0
216959.137,19.043,21.973,26.855,12.695,58.105,0
216959.141,21.973,20.020,26.855,28.320,47.852,0
216959.145,25.391,25.879,17.090,40.039,54.199,0
216959.149,26.367,29.297,16.113,35.645,36.621,0
216959.152,29.785,23.926,34.668,25.391,10.254,0
216959.156,27.344,19.043,40.527,23.438,26.855,0
216959.160,21.484,16.602,33.203,12.207,9.766,0
216959.164,19.043,12.207,27.344,7.812,6.836,0
216959.168,25.391,14.160,34.668,27.344,70.312,0
216959.172,29.297,22.461,41.504,31.250,73.242,0
216959.176,16.113,20.508,42.969,20.020,76.660,0
216959.180,6.348,18.555,42.480,16.602,64.453,0
216959.184,6.836,24.414,43.945,18.066,31.738,0
216959.188,11.719,31.738,49.805,21.973,16.602,0
216959.192,14.160,33.203,50.293,22.461,19.043,0
216959.195,15.625,37.598,33.691,20.508,32.715,0
216959.199,20.020,33.203,35.645,29.297,41.504,0
216959.203,11.719,25.391,39.551,20.020,38.086,0
216959.207,-4.883,36.621,32.715,-17.578,-24.414,0
216959.211,-26.367,43.457,43.457,-34.668,-27.832,0
216959.215,-51.270,44.434,41.016,-49.805,16.113,0
216959.219,-65.918,41.504,44.434,-77.148,43.945,0
216959.223,-76.660,43.457,50.293,-91.309,29.785,0
216959.227,-90.820,48.828,42.969,-104.980,13.184,0
216959.231,-96.191,48.340,39.062,-106.934,41.992,0
216959.235,-97.168,50.293,36.133,-104.980,46.875,0
216959.238,-118.652,62.988,24.414,-125.488,51.270,0
216959.242,-130.371,66.895,24.902,-135.254,91.309,0
216959.246,-131.348,73.730,26.367,-137.207,105.957,0
216959.250,-147.949,76.660,14.648,-157.227,29.785,0
216959.254,-156.250,69.824,14.648,-170.410,7.324,0
216959.258,-157.715,62.500,35.156,-172.363,24.414,0
216959.262,-164.551,58.105,48.828,-169.922,-13.672,0
216959.266,-176.758,53.711,38.574,-167.969,-5.859,0
216959.270,-171.387,55.664,25.879,-166.992,56.152,0
216959.274,-151.855,67.871,37.598,-166.016,79.590,0
216959.277,-148.438,79.102,49.316,-171.875,37.598,0
216959.281,-160.156,71.777,30.273,-177.246,27.344,0
216959.285,-148.926,58.105,34.668,-163.574,41.016,0
216959.289,-130.371,60.547,41.992,-143.555,51.270,0
216959.293,-134.277,57.129,34.668,-137.207,62.012,0
216959.297,-138.672,54.688,38.574,-141.113,3.418,0
216959.301,-136.230,62.500,39.062,-137.695,-43.945,0
216959.305,-119.629,65.918,30.273,-125.488,-0.488,0
216959.309,-95.215,64.941,40.527,-105.469,34.668,0
216959.313,-77.637,62.500,45.410,-86.914,38.574,0
216959.317,-64.941,54.199,24.414,-68.848,35.156,0
216959.320,-63.477,41.992,22.461,-66.406,17.090,0
216959.324,-65.430,36.133,38.574,-56.641,22.949,0
216959.328,-58.105,38.574,47.363,-42.969,35.156,0
216959.332,-48.340,36.621,38.086,-39.062,38.574,0
216959.336,-32.715,35.645,22.461,-18.555,39.551,0
216959.340,-17.090,40.527,33.691,-10.742,17.578,0
216959.344,-7.324,43.457,46.387,-0.488,-9.277,0
216959.348,-2.441,37.598,47.363,2.930,23.926,0
216959.352,-2.930,34.668,34.668,-3.418,24.414,0
216959.356,0.488,45.898,16.602,1.465,-4.883,0
216959.360,7.324,42.969,19.531,13.672,-14.648,0
216959.363,20.508,28.320,31.738,24.902,1.465,0
216959.367,29.297,22.949,38.086,31.738,25.879,0
216959.371,31.738,24.902,39.062,42.480,36.621,0
216959.375,52.734,27.832,43.945,65.430,26.855,0
216959.379,54.688,25.879,40.039,60.059,32.227,0
216959.383,41.504,21.484,22.949,48.340,57.617,0
216959.387,43.457,19.531,17.090,43.945,47.363,0
216959.391,42.480,15.625,28.320,38.086,15.625,0
216959.395,50.781,10.742,31.738,52.246,10.254,0
216959.399,71.289,10.254,25.391,69.336,27.832,0
216959.402,73.730,15.137,14.160,65.430,-6.836,0
216959.406,80.078,20.508,11.230,73.242,-1.953,0
216959.410,91.797,18.066,15.625,92.773,21.484,0
216959.414,83.496,11.719,24.902,84.961,16.602,0
216959.418,84.473,12.695,40.527,87.402,39.062,0
216959.422,94.238,18.555,53.223,94.238,53.711,0
216959.426,94.238,14.648,42.969,104.492,41.992,0
216959.430,87.402,9.766,28.809,112.305,47.852,0
216959.434,93.750,14.160,35.156,97.168,40.039,0
216959.438,105.957,13.672,34.668,90.820,55.664,0
216959.442,113.281,14.160,38.086,105.469,29.297,0
216959.445,115.723,9.277,44.434,108.398,-14.160,0
216959.449,115.234,8.301,40.527,104.492,20.996,0
216959.453,127.930,23.438,37.109,120.117,52.734,0
216959.457,117.676,27.344,42.480,117.188,51.270,0
216959.461,103.027,14.160,48.340,104.980,62.988,0
216959.465,104.492,-2.930,43.457,103.027,55.176,0
216959.469,99.121,-1.465,33.203,104.004,40.039,0
216959.473,92.773,5.371,30.273,109.863,54.688,0
216959.477,102.539,1.953,30.762,131.348,31.738,0
216959.481,106.934,4.883,23.926,125.000,43.945,0
216959.485,103.516,12.207,20.996,102.051,69.336,0
216959.488,108.398,15.625,39.551,101.074,71.777,0
216959.492,115.234,9.766,56.152,100.098,59.082,0
216959.496,113.281,9.277,51.758,104.492,37.109,0
216959.500,99.609,11.719,44.922,104.492,51.270,0
216959.504,97.656,16.113,50.293,92.285,57.617,0
216959.508,104.004,17.578,45.898,92.285,47.363,0
216959.512,104.980,7.812,41.992,94.238,50.293,0
216959.516,103.027,6.348,42.969,94.238,55.664,0
216959.520,95.215,13.672,30.273,92.285,74.219,0
216959.524,85.938,11.230,25.391,88.379,61.035,0
216959.527,84.961,1.953,33.203,89.844,65.430,0
216959.531,85.449,-2.930,35.645,92.773,93.262,0
216959.535,88.867,0.488,42.969,101.074,48.828,2
216959.539,94.727,6.348,42.969,102.539,35.156,0
216959.543,96.680,9.277,36.621,101.074,64.941,0
216959.547,93.750,14.160,50.781,100.586,65.430,0
216959.551,86.914,18.555,47.852,100.586,62.988,0
216959.555,87.402,22.461,35.645,101.074,44.922,0
216959.559,95.215,16.602,34.180,87.891,45.410,0
216959.563,90.332,6.836,31.738,72.266,35.156,0
216959.567,84.473,14.648,33.203,76.660,4.395,0
216959.570,85.449,17.578,28.320,80.566,47.363,0
216959.574,82.031,20.508,24.902,79.102,75.684,0
216959.578,80.566,27.832,35.156,75.195,41.016,0
216959.582,82.520,18.066,35.645,59.082,44.922,0
216959.586,83.008,9.766,39.062,66.406,59.082,0
216959.590,81.055,16.113,47.852,89.844,50.781,0
216959.594,81.055,20.508,47.363,86.914,61.523,0
216959.598,78.125,17.578,41.016,68.848,55.664,0
216959.602,75.684,14.160,36.621,66.895,49.805,0
216959.606,82.031,24.414,41.504,74.219,30.762,0
216959.610,83.008,28.320,43.457,81.543,25.879,0
216959.613,70.312,24.414,31.738,70.312,55.664,0
216959.617,67.383,16.113,23.926,67.871,22.461,0
216959.621,76.660,11.230,34.180,87.402,-24.902,0
216959.625,73.242,14.160,34.180,83.984,-79.102,0
216959.629,58.594,17.578,29.785,61.523,-89.355,0
216959.633,57.617,26.367,47.363,52.734,-20.508,0
216959.637,63.965,28.809,54.199,62.500,-7.812,0
216959.641,66.406,26.855,41.504,70.801,-29.785,0
216959.645,57.617,27.832,45.898,62.012,2.441,0
216959.649,48.828,26.367,50.781,53.711,40.039,0
216959.652,46.387,15.625,35.156,49.316,17.578,0
216959.656,47.363,7.812,25.391,56.641,-1.465,0
216959.660,51.758,19.043,27.344,67.871,9.277,0
216959.664,60.059,30.762,29.297,64.941,1.465,0
216959.668,63.965,30.273,39.062,55.176,-37.598,0
216959.672,59.570,28.320,49.805,51.270,-76.660,0
216959.676,49.316,31.738,37.598,41.992,-50.781,0
216959.680,52.734,32.715,19.531,51.758,-16.602,0
216959.684,66.406,23.438,15.625,60.547,-0.977,0
216959.688,54.688,14.648,26.367,39.551,12.207,0
216959.692,44.434,10.254,45.410,41.992,-3.418,0
216959.695,41.992,10.254,45.410,45.898,14.648,0
216959.699,42.480,3.906,37.598,40.527,0.977,0
216959.703,47.363,1.465,36.621,41.992,-6.836,0
216959.707,46.387,15.625,35.645,51.270,27.344,0
216959.711,40.527,29.785,27.344,57.129,14.160,0
216959.715,39.062,32.715,14.160,51.758,-21.484,0
216959.719,46.875,29.785,5.371,47.852,-11.230,0
216959.723,51.270,36.133,19.043,59.570,43.457,0
216959.727,47.363,31.250,43.457,59.570,68.848,0
216959.731,46.875,24.902,39.551,43.457,14.160,0
216959.735,46.387,21.973,24.902,37.109,0.977,0
216959.738,46.875,17.578,27.344,55.176,40.039,0
216959.742,51.270,23.438,23.926,60.547,14.648,0
216959.746,48.340,26.367,25.391,51.758,11.230,0
216959.750,47.363,31.738,28.320,55.664,16.602,0
216959.754,49.316,31.738,33.203,56.152,27.832,0
216959.758,43.945,21.973,21.973,47.363,57.617,0
216959.762,32.715,21.973,20.996,32.715,42.480,0
216959.766,28.320,19.531,47.852,24.414,0.977,0
216959.770,43.945,19.531,50.293,41.504,13.672,0
216959.774,52.246,26.855,40.527,60.547,22.949,0
216959.777,45.898,22.461,24.414,46.387,14.160,0
216959.781,53.711,24.902,12.695,48.340,41.016,0
216959.785,48.828,33.691,2.930,61.523,56.641,0
216959.789,41.504,25.879,16.602,50.293,44.922,0
216959.793,49.805,20.996,46.875,42.480,-1.465,0
216959.797,44.922,22.461,37.598,39.062,13.672,0
216959.801,44.922,33.691,30.273,43.945,34.180,0
216959.805,44.434,35.645,44.434,51.270,40.527,0
216959.809,36.133,20.996,45.898,41.504,53.223,0
216959.813,38.574,26.367,26.855,35.156,58.594,0
216959.817,43.945,38.086,12.695,50.781,83.008,0
216959.820,47.852,29.297,27.344,54.199,39.551,0
216959.824,47.363,19.043,38.086,40.527,27.344,0
216959.828,36.133,19.043,38.086,38.086,95.215,0
216959.832,30.273,17.578,29.297,35.645,65.430,0
216959.836,37.109,20.020,26.367,29.785,39.062,0
216959.840,42.969,20.996,39.551,32.715,51.270,0
216959.844,41.504,17.578,30.762,48.340,27.832,0
216959.848,42.969,24.902,14.160,49.805,32.227,0
216959.852,37.598,24.414,20.996,30.273,22.461,0
216959.856,34.180,20.508,36.133,38.574,13.184,0
216959.860,39.062,26.367,46.387,50.781,37.598,0
216959.863,38.086,26.855,29.785,34.668,50.293,0
216959.867,30.273,31.250,16.602,15.625,47.852,0
216959.871,23.438,23.926,34.180,16.113,64.453,0
216959.875,30.273,8.301,42.480,29.297,85.938,0
216959.879,38.574,0.977,29.297,34.180,79.102,0
216959.883,31.250,12.207,27.832,32.715,50.781,0
216959.887,30.273,30.273,34.668,31.250,-1.465,0
216959.891,31.250,31.250,32.227,42.480,28.320,0
216959.895,34.668,38.574,23.926,66.895,81.055,0
216959.899,41.992,45.410,18.066,57.617,58.594,0
216959.902,35.156,34.668,31.250,36.621,57.617,0
216959.906,29.785,21.484,42.969,29.785,59.570,0
216959.910,24.414,18.066,41.016,30.762,24.902,0
216959.914,22.949,17.090,36.621,29.297,-1.465,0
216959.918,37.109,18.555,30.273,40.039,11.230,0
216959.922,35.645,22.949,28.809,42.969,48.340,0
216959.926,21.973,15.137,35.645,24.902,45.410,0
216959.930,22.949,18.066,46.387,26.855,53.223,0
216959.934,29.297,31.738,37.109,42.480,61.523,0
216959.938,39.062,27.832,35.156,41.992,20.996,0
216959.942,42.480,13.184,38.574,35.156,10.742,0
216959.945,31.250,9.766,32.227,35.645,38.086,0
216959.949,34.668,19.043,24.902,31.250,56.641,0
216959.953,49.805,25.879,24.414,33.691,49.316,0
216959.957,44.434,27.832,30.762,48.340,36.133,0
216959.961,36.133,33.203,39.551,50.293,27.832,0
216959.965,34.180,32.227,40.527,33.691,58.594,0
216959.969,32.715,28.320,38.086,29.297,44.434,0
216959.973,37.598,28.320,32.715,35.645,24.414,0
216959.977,50.293,37.109,28.320,47.852,56.641,0
216959.981,50.293,31.738,38.574,48.340,61.523,0
216959.985,35.156,15.625,33.691,30.273,49.805,0
216959.988,26.367,20.508,17.090,26.855,37.598,0
216959.992,30.762,36.621,21.973,47.363,43.457,0
216959.996,38.574,42.969,38.574,50.781,75.684,0
216960.000,32.227,28.809,43.457,33.691,57.617,0
216960.004,31.738,10.742,31.738,35.156,30.762,0
216960.008,39.062,20.020,25.879,50.781,67.383,0
216960.012,27.832,35.156,36.621,40.039,92.285,0
216960.016,23.438,35.156,36.621,25.879,64.941,0
216960.020,32.715,35.156,31.250,26.855,67.871,0
216960.024,30.762,24.902,25.391,32.715,64.453,0
216960.027,35.645,23.438,20.996,37.109,57.129,0
216960.031,57.129,33.691,30.273,41.504,69.336,0
216960.035,57.617,37.598,46.387,38.086,53.223,0
216960.039,47.852,42.480,50.781,29.785,56.152,0
216960.043,40.039,34.180,38.086,32.715,38.574,0
216960.047,34.668,26.855,30.762,32.227,15.137,0
216960.051,41.016,28.320,31.250,32.227,16.602,0
216960.055,42.969,31.738,29.297,40.527,27.344,0
216960.059,38.086,34.180,27.344,42.969,34.668,0
216960.063,37.598,30.762,24.902,39.551,40.039,0
216960.067,40.527,35.645,37.598,42.969,48.340,0
216960.070,35.156,33.203,44.922,31.250,69.824,0
216960.074,28.320,22.461,41.016,18.555,28.809,0
216960.078,26.855,17.578,42.480,24.414,-19.043,0
216960.082,24.414,18.555,49.316,35.156,54.688,0
216960.086,30.273,32.715,33.691,41.992,114.258,0
216960.090,40.039,37.109,21.973,41.992,50.293,0
216960.094,27.344,23.926,35.156,38.574,8.301,0
216960.098,21.973,22.949,43.945,45.410,-8.789,0
216960.102,34.668,24.902,38.574,55.664,9.277,0
216960.106,26.367,19.531,36.133,47.363,12.207,0
216960.110,17.090,20.508,30.762,22.949,-13.672,0
216960.113,22.461,29.785,31.250,23.438,19.531,0
216960.117,31.738,36.621,43.457,37.109,20.020,0
216960.121,38.086,25.391,32.227,36.133,8.789,0
216960.125,43.457,23.926,25.879,41.504,26.855,0
216960.129,40.527,31.250,40.527,45.410,39.551,0
216960.133,26.855,24.902,38.574,37.598,63.965,0
216960.137,20.020,19.043,26.855,33.691,89.844,0
216960.141,23.926,17.090,30.273,21.973,75.195,0
216960.145,28.809,16.602,38.086,21.484,37.109,0
216960.149,24.902,20.508,39.551,24.902,9.277,0
216960.152,28.320,19.531,39.551,16.113,-1.953,0
216960.156,39.062,21.973,30.762,22.461,24.902,0
216960.160,38.086,22.949,18.555,40.527,54.199,0
216960.164,31.250,25.391,28.809,39.062,23.926,0
216960.168,26.855,29.785,37.598,24.414,26.855,0
216960.172,27.344,28.809,27.344,27.832,20.020,0
216960.176,36.621,37.598,33.203,41.992,-12.695,0
216960.180,34.180,36.621,38.574,34.180,15.625,0
216960.184,26.367,28.320,34.668,22.949,42.969,0
216960.188,26.855,31.250,27.344,33.203,49.805,0
216960.192,32.227,32.715,32.227,28.809,25.391,0
216960.195,36.621,27.832,33.203,21.973,-0.977,0
216960.199,39.062,29.785,18.555,23.438,16.602,0
216960.203,47.363,33.691,27.344,34.180,40.039,0
216960.207,47.852,37.598,39.551,38.574,47.852,2
216960.211,40.039,35.156,30.273,30.273,47.852,0
216960.215,39.551,22.949,23.438,30.762,43.457,0
216960.219,36.133,13.184,26.855,27.832,40.039,0
216960.223,30.273,18.555,18.555,17.578,4.395,0
216960.227,32.227,36.133,15.625,24.414,17.578,0
216960.231,28.320,40.039,17.090,34.180,76.172,0
216960.235,27.344,39.062,22.949,17.578,64.453,0
216960.238,42.969,34.180,44.434,16.113,43.945,0
216960.242,50.293,20.508,46.875,21.484,13.184,0
216960.246,38.086,23.926,32.715,21.484,45.898,0
216960.250,34.668,31.250,31.250,27.344,64.941,0
216960.254,39.551,31.250,30.273,30.273,42.969,0
216960.258,39.551,31.738,22.949,36.133,24.414,0
216960.262,33.691,27.344,23.926,41.016,30.273,0
216960.266,28.809,23.438,28.320,45.898,54.688,0
216960.270,30.273,30.273,34.180,40.527,41.992,0
216960.274,24.902,25.879,39.551,21.973,5.371,0
216960.277,32.227,22.461,48.828,19.043,-2.441,0
216960.281,42.969,29.785,48.828,27.832,37.598,0
216960.285,38.574,21.484,37.109,24.414,19.531,0
216960.289,30.273,20.996,31.738,26.855,-1.953,0
216960.293,30.762,33.203,36.621,41.016,46.387,0
216960.297,26.367,31.738,42.480,39.551,62.988,0
216960.301,23.438,31.738,34.668,37.109,22.461,0
216960.305,27.832,34.180,26.367,42.969,0.488,0
216960.309,24.902,20.508,17.090,45.898,40.527,0
216960.313,23.926,11.719,24.902,37.109,29.297,0
216960.317,25.879,19.043,38.086,24.414,4.883,0
216960.320,21.973,29.297,35.156,14.648,20.996,0
216960.324,15.137,20.020,41.016,17.578,26.367,0
216960.328,14.160,6.348,47.363,19.043,-15.137,0
216960.332,16.113,13.184,43.457,12.695,-51.758,0
216960.336,27.832,37.598,38.086,27.344,-19.043,0
216960.340,38.574,53.223,28.320,45.410,34.668,0
216960.344,34.180,50.293,16.113,51.270,17.090,0
216960.348,32.227,39.551,27.344,43.457,-14.648,0
216960.352,37.109,21.973,41.504,34.180,18.066,0
216960.356,37.109,16.113,37.109,37.598,57.617,0
216960.360,36.133,26.367,25.391,42.480,31.250,0
216960.363,36.133,25.391,32.715,46.875,40.527,0
216960.367,27.344,7.812,46.387,31.738,55.176,0
216960.371,27.832,6.836,38.574,18.555,21.484,0
216960.375,30.273,19.531,38.086,20.020,0.977,0
216960.379,29.297,21.484,44.922,27.344,-17.578,0
216960.383,46.875,20.996,31.738,50.781,1.465,0
216960.387,50.293,27.344,27.344,52.246,-29.297,0
216960.391,30.762,29.297,44.434,43.457,-50.781,0
216960.395,22.949,24.414,49.316,32.227,1.465,0
216960.399,21.973,23.926,36.133,20.020,10.254,0
216960.402,23.926,23.926,24.902,21.973,-5.859,0
216960.406,28.320,25.391,30.762,34.668,-10.254,0
216960.410,30.273,24.414,36.621,32.715,18.555,0
216960.414,40.527,22.949,31.738,33.691,40.039,0
216960.418,36.621,27.344,30.273,37.109,10.742,0
216960.422,35.156,34.668,36.133,37.109,-5.859,0
216960.426,50.781,40.039,42.480,54.199,23.438,0
216960.430,50.781,37.598,42.969,58.105,58.594,0
216960.434,38.086,28.809,30.273,36.133,54.199,0
216960.438,39.551,19.043,27.344,36.621,11.719,0
216960.442,50.293,22.949,29.297,44.434,-0.977,0
216960.445,34.668,16.113,24.902,26.855,31.738,0
216960.449,21.484,6.836,34.180,20.996,4.395,0
216960.453,30.762,22.949,50.781,25.879,-26.367,0
216960.457,35.156,36.133,42.480,33.203,20.996,0
216960.461,46.387,37.598,26.855,51.758,39.062,0
216960.465,53.711,38.086,28.809,52.734,19.043,0
216960.469,42.969,32.715,30.273,46.387,21.484,0
216960.473,35.645,29.785,32.715,41.504,47.852,0
216960.477,23.438,26.367,35.645,23.438,41.016,0
216960.481,19.531,20.508,35.156,19.531,20.020,0
216960.485,23.438,15.625,48.340,22.949,1.465,0
216960.488,28.320,11.719,35.645,32.227,-13.184,0
216960.492,42.969,16.602,26.367,43.945,11.230,0
216960.496,46.875,36.133,49.316,47.852,21.973,0
216960.500,41.992,46.875,46.387,47.363,2.930,0
216960.504,43.457,44.922,37.598,48.828,-2.441,0
216960.508,48.340,41.504,29.297,47.363,4.883,0
216960.512,38.574,30.762,29.785,32.715,-2.930,0
216960.516,32.715,15.137,37.598,31.738,-34.668,0
216960.520,30.273,13.184,34.668,31.250,-32.715,0
216960.524,27.832,24.902,25.391,34.180,-22.949,0
216960.527,27.344,25.879,18.555,34.180,-1.465,0
216960.531,23.926,23.926,14.160,28.809,28.320,0
216960.535,36.133,32.715,18.066,40.527,50.781,0
216960.539,41.992,33.691,34.180,37.598,51.270,0
216960.543,38.086,20.996,38.574,24.414,13.184,0
216960.547,44.434,19.531,42.969,31.250,39.551,0
216960.551,46.875,27.832,51.270,42.969,61.523,0
216960.555,42.969,33.203,43.945,42.480,47.852,0
216960.559,32.227,32.715,28.320,29.297,61.035,0
216960.563,24.902,30.762,23.926,24.414,83.984,0
216960.567,29.785,33.203,22.461,30.273,43.457,0
216960.570,36.133,29.297,18.066,32.227,-14.160,0
216960.574,35.156,20.996,31.250,32.715,1.953,0
216960.578,31.738,16.602,41.016,41.992,60.547,0
216960.582,27.344,16.113,36.621,47.363,48.828,0
216960.586,27.344,27.344,28.809,41.504,27.344,0
216960.590,34.668,35.156,34.180,36.621,58.594,0
216960.594,28.320,33.203,33.691,31.250,70.312,0
216960.598,30.762,26.855,20.508,41.504,46.387,0
216960.602,44.922,38.574,26.855,58.594,23.438,0
216960.606,42.480,54.688,38.574,45.898,26.855,0
216960.610,32.227,46.387,37.598,29.297,12.207,0
216960.613,27.832,30.273,40.527,24.902,-14.648,0
216960.617,31.738,21.973,45.898,24.414,-18.066,0
216960.621,30.762,23.438,41.504,27.344,-10.742,0
216960.625,25.879,25.391,42.480,37.598,33.203,0
216960.629,19.531,18.555,28.320,31.250,56.152,0
216960.633,21.973,16.113,11.230,32.227,57.617,0
216960.637,31.738,25.391,25.879,39.551,45.410,0
216960.641,34.668,27.832,33.691,37.109,24.414,0
216960.645,34.668,22.949,15.137,35.156,20.508,0
216960.649,31.250,18.555,16.113,24.414,37.598,0
216960.652,22.461,18.555,34.668,20.020,71.289,0
216960.656,18.555,26.855,38.574,36.133,30.273,0
216960.660,26.367,32.715,47.363,34.668,12.695,0
216960.664,28.320,35.156,48.340,23.926,34.180,0
216960.668,25.391,34.668,35.645,37.598,62.500,0
216960.672,27.832,31.738,41.992,34.180,38.086,0
216960.676,37.109,36.133,53.223,40.527,-7.812,0
216960.680,35.156,33.203,31.250,46.875,27.344,0
216960.684,20.996,21.973,9.277,30.273,48.340,0
216960.688,19.043,20.996,13.184,24.902,38.086,0
216960.692,30.273,22.949,29.785,30.273,22.461,0
216960.695,30.273,13.672,44.922,21.973,50.781,0
216960.699,19.043,9.766,36.621,15.137,53.223,0
216960.703,20.508,29.297,26.855,26.855,14.648,0
216960.707,22.949,38.086,27.832,25.391,13.184,0
216960.711,26.367,37.598,29.785,25.391,42.969,0
216960.715,29.297,35.645,27.344,34.668,70.801,0
216960.719,32.227,31.250,28.320,34.180,63.965,0
216960.723,40.039,33.203,30.273,35.156,47.363,0
216960.727,29.297,25.391,28.320,33.691,44.922,0
216960.731,26.855,16.602,29.785,36.133,62.500,0
216960.735,35.156,19.531,27.344,30.273,71.289,0
216960.738,20.020,16.602,25.391,10.254,78.613,0
216960.742,20.508,11.719,23.438,13.672,78.613,0
216960.746,21.973,15.137,16.113,22.461,62.500,0
216960.750,17.090,28.320,16.113,20.996,25.391,0
216960.754,37.598,41.504,17.578,45.898,12.695,0
216960.758,47.363,36.621,24.902,60.059,78.613,0
216960.762,31.250,28.809,36.133,33.691,94.238,0
216960.766,25.879,36.133,44.434,29.297,63.477,0
216960.770,29.785,39.062,43.457,35.645,54.199,0
216960.774,23.438,26.367,36.621,25.879,54.688,0
216960.777,20.508,20.020,31.738,18.066,58.594,0
216960.781,27.344,28.320,30.273,20.020,30.273,0
216960.785,38.574,31.250,31.738,30.762,36.133,0
216960.789,40.039,33.691,29.785,46.387,40.527,0
216960.793,35.156,27.832,10.254,51.270,1.465,0
216960.797,35.645,19.043,7.812,41.504,-21.484,0
216960.801,42.969,29.785,28.809,41.016,-19.043,0
216960.805,47.852,36.133,47.363,45.898,19.531,0
216960.809,39.062,20.020,41.016,33.691,14.648,0
216960.813,22.461,15.625,34.180,22.461,35.645,0
216960.817,25.391,27.832,46.387,34.668,71.289,0
216960.820,30.762,23.438,46.387,46.387,46.875,0
216960.824,33.203,20.508,43.457,48.340,35.645,0
216960.828,41.504,35.156,33.203,52.246,41.016,0
216960.832,47.852,46.387,20.508,58.105,20.996,0
216960.836,45.410,41.504,24.902,52.734,-34.668,0
216960.840,36.133,32.715,37.109,33.203,-39.062,0
216960.844,32.227,22.461,35.645,30.273,-26.367,0
216960.848,26.855,13.184,27.832,31.250,4.883,0
216960.852,28.809,16.602,25.879,26.855,50.293,0
216960.856,40.039,34.668,37.598,34.668,10.254,0
216960.860,44.922,42.480,49.805,38.086,3.906,0
216960.863,40.527,33.691,40.527,39.551,33.203,0
216960.867,35.645,31.738,24.902,40.039,2.441,0
216960.871,38.574,38.086,18.066,41.504,3.906,0
216960.875,33.691,34.668,31.250,38.574,13.672,0
216960.879,33.691,27.344,41.992,34.668,14.648,0
216960.883,29.297,18.555,37.598,25.879,41.992,0
216960.887,20.020,7.812,33.203,19.043,62.500,0
216960.891,16.113,7.812,30.273,19.531,76.172,0
216960.895,23.438,17.578,23.926,37.109,93.262,0
216960.899,40.039,27.832,26.367,51.270,54.199,0
216960.902,40.527,28.809,30.762,41.016,13.672,2
216960.906,26.855,20.996,33.203,36.621,29.297,0
216960.910,29.785,27.344,41.504,44.922,40.527,0
216960.914,34.668,28.809,35.645,39.551,51.758,0
216960.918,25.391,20.020,15.625,23.926,56.152,0
216960.922,14.648,15.137,20.996,25.391,39.551,0
216960.926,11.719,13.184,24.414,25.879,19.531,0
216960.930,18.555,20.996,17.090,20.508,3.418,0
216960.934,28.320,32.227,27.344,30.762,-5.859,0
216960.938,32.227,28.320,35.156,32.715,14.648,0
216960.942,32.227,18.066,35.156,26.855,38.086,0
216960.945,37.598,27.344,38.086,28.809,-0.977,0
216960.949,41.992,39.551,46.875,25.879,-8.301,0
216960.953,41.016,36.133,29.785,31.738,36.621,0
216960.957,42.480,27.344,6.836,31.250,55.664,0
216960.961,36.621,14.160,16.113,19.531,35.156,0
216960.965,24.902,17.578,21.973,18.555,39.062,0
216960.969,25.879,27.344,24.902,20.020,12.695,0
216960.973,33.203,32.227,36.133,20.996,-10.742,0
216960.977,38.574,34.180,35.645,29.785,-1.953,0
216960.981,35.645,34.180,31.250,33.203,6.836,0
216960.985,31.738,31.250,27.832,30.762,21.973,0
216960.988,37.598,27.344,27.832,40.527,15.625,0
216960.992,39.551,28.809,31.250,49.316,1.953,0
216960.996,36.133,25.879,30.762,34.180,1.465,0
216961.000,41.504,29.785,32.227,35.645,0.488,0
216961.004,41.504,32.715,20.508,33.691,1.465,0
216961.008,35.156,24.902,19.531,22.461,-3.418,0
216961.012,39.062,22.461,33.691,28.809,19.043,0
216961.016,41.992,23.926,41.504,36.621,46.875,0
216961.020,39.062,19.043,40.527,36.133,23.438,0
216961.024,39.062,23.926,38.574,37.598,19.531,0
216961.027,37.598,35.645,36.133,52.734,0.977,0
216961.031,36.621,32.227,24.414,45.898,16.113,0
216961.035,42.969,25.879,26.367,23.438,35.645,0
216961.039,42.969,35.645,34.668,28.809,20.508,0
216961.043,36.133,31.738,35.645,36.621,8.789,0
216961.047,28.809,21.484,27.832,26.367,-0.977,0
216961.051,23.438,19.531,28.809,17.578,18.555,0
216961.055,25.391,14.648,34.180,20.020,50.293,0
216961.059,26.367,16.113,30.762,32.715,59.082,0
216961.063,24.414,25.391,28.320,35.156,57.617,0
216961.067,20.996,19.043,30.273,24.414,8.301,0
216961.070,22.461,13.672,32.715,22.949,13.672,0
216961.074,25.879,16.602,38.086,29.785,48.828,0
216961.078,36.621,24.902,37.109,33.691,23.926,0
216961.082,48.828,40.039,23.438,43.457,2.930,0
216961.086,46.875,41.504,30.273,44.434,20.996,0
216961.090,42.969,37.109,41.016,46.875,55.664,0
216961.094,38.086,31.250,27.832,46.387,62.012,0
216961.098,32.715,19.043,24.414,32.227,56.641,0
216961.102,30.762,8.789,27.344,29.297,14.160,0
216961.106,34.180,15.625,30.762,36.621,-11.719,0
216961.110,42.480,32.227,32.227,31.738,-2.930,0
216961.113,41.016,34.668,24.414,24.414,20.996,0
216961.117,38.086,35.156,27.344,32.227,42.969,0
216961.121,46.387,41.992,26.855,52.734,18.066,0
216961.125,52.734,38.574,37.598,43.457,-12.207,0
216961.129,47.363,35.156,44.922,20.508,-39.062,0
216961.133,41.992,35.645,36.621,25.879,10.742,0
216961.137,44.922,29.785,41.016,33.691,32.227,0
216961.141,39.551,22.461,40.039,32.715,7.812,0
216961.145,44.434,30.762,34.668,45.898,41.992,0
216961.149,48.828,49.316,32.227,57.617,31.250,0
216961.152,32.227,45.410,20.508,34.668,11.230,0
216961.156,30.762,31.738,16.602,29.297,61.035,0
216961.160,27.832,29.297,30.762,38.574,78.613,0
216961.164,17.090,27.344,45.898,35.156,67.871,0
216961.168,21.973,31.250,47.363,33.691,26.367,0
216961.172,28.320,32.227,29.297,25.391,-33.691,0
216961.176,34.180,23.438,23.926,28.809,-35.156,0
216961.180,35.156,32.227,41.992,36.133,-20.996,0
216961.184,28.320,47.852,42.480,31.250,-0.977,0
216961.188,30.762,39.062,32.715,43.945,52.734,0
216961.192,34.668,25.391,36.133,50.293,56.152,0
216961.195,25.879,26.855,46.875,25.391,67.871,0
216961.199,18.066,22.461,46.387,13.184,63.965,0
216961.203,20.020,19.043,35.645,20.996,49.316,0
216961.207,20.508,22.461,38.574,28.809,61.523,0
216961.211,25.879,27.832,43.457,39.551,48.340,0
216961.215,30.762,35.645,37.598,39.551,26.367,0
216961.219,31.738,38.086,31.250,24.414,44.922,0
216961.223,37.109,35.156,33.203,27.344,45.410,0
216961.227,27.832,35.156,23.926,26.367,50.781,0
216961.231,14.160,37.109,16.113,18.066,76.660,0
216961.235,8.301,31.250,29.785,19.531,69.336,0
216961.238,6.836,29.785,35.645,20.020,46.387,0
216961.242,7.324,35.156,33.203,10.742,54.688,0
216961.246,6.836,36.621,37.109,4.395,77.148,0
216961.250,0.488,34.180,33.203,-8.301,81.543,0
216961.254,-3.418,39.062,25.879,-18.066,109.375,0
216961.258,-0.977,51.270,34.180,-13.672,111.328,0
216961.262,-10.254,48.828,34.668,-23.438,74.219,0
216961.266,-31.250,50.293,23.926,-37.598,63.965,0
216961.270,-49.316,58.105,36.621,-49.805,34.180,0
216961.274,-52.734,60.059,43.457,-66.895,9.766,0
216961.277,-57.617,65.918,40.039,-82.031,2.441,0
216961.281,-77.637,64.453,27.832,-94.238,-0.977,0
216961.285,-89.355,61.523,17.090,-101.074,34.668,0
216961.289,-95.703,59.082,32.227,-116.699,35.645,0
216961.293,-117.188,52.246,44.922,-133.789,33.203,0
216961.297,-128.418,55.664,53.711,-129.395,41.016,0
216961.301,-122.559,62.500,46.875,-123.535,48.340,0
216961.305,-111.816,76.172,29.297,-118.652,29.297,0
216961.309,-100.098,89.844,37.598,-114.746,11.230,0
216961.313,-113.281,74.219,47.363,-127.930,50.293,0
216961.317,-133.301,48.828,39.551,-133.301,48.340,0
216961.320,-127.441,39.062,35.645,-129.883,12.695,0
216961.324,-106.934,48.340,41.016,-123.047,-12.207,0
216961.328,-96.680,58.105,39.551,-108.887,-26.855,0
216961.332,-92.773,62.988,39.062,-94.238,-7.324,0
216961.336,-84.473,59.570,39.551,-80.078,23.438,0
216961.340,-70.801,56.641,32.715,-59.082,62.012,0
216961.344,-54.199,56.641,34.180,-49.805,81.055,0
216961.348,-62.012,41.504,40.527,-65.918,42.969,0
216961.352,-68.359,21.484,40.527,-66.895,27.344,0
216961.356,-43.457,31.738,42.969,-43.457,57.617,0
216961.360,-24.414,60.547,42.969,-19.043,61.523,0
216961.363,-18.066,54.688,25.391,-12.207,20.020,0
216961.367,-6.348,43.457,14.160,-10.742,-4.395,0
216961.371,-1.953,46.387,22.461,4.883,44.922,0
216961.375,9.277,48.340,9.277,21.973,67.383,0
216961.379,22.461,46.875,0.488,21.484,40.039,0
216961.383,23.438,42.480,19.043,22.949,38.574,0
216961.387,16.602,29.785,29.785,24.414,85.938,0
216961.391,17.578,22.949,28.809,25.391,84.961,0
216961.395,31.738,25.391,18.555,36.621,41.992,0
216961.399,37.109,25.391,16.602,38.574,11.230,0
216961.402,47.363,26.855,30.273,46.387,7.324,0
216961.406,59.570,24.902,32.715,66.895,43.457,0
216961.410,61.523,25.391,23.438,67.871,14.648,0
216961.414,70.801,26.855,23.438,70.801,-12.207,0
216961.418,84.473,34.180,27.832,77.148,3.418,0
216961.422,81.055,36.621,22.949,77.148,1.465,0
216961.426,82.520,20.020,23.926,80.078,-3.418,0
216961.430,84.473,11.230,28.809,75.684,3.418,0
216961.434,66.406,12.207,26.367,65.430,13.184,0
216961.438,62.500,11.719,34.668,71.289,25.391,0
216961.442,72.266,11.230,37.598,83.496,30.762,0
216961.445,80.078,8.789,26.855,89.844,61.035,0
216961.449,81.055,12.695,22.461,85.938,92.285,0
216961.453,88.867,21.973,32.227,86.914,58.105,0
216961.457,98.633,28.809,42.969,97.656,41.504,0
216961.461,88.379,25.879,38.574,91.309,61.523,0
216961.465,82.520,20.508,32.227,86.426,74.219,0
216961.469,86.914,19.043,33.691,88.867,69.336,0
216961.473,81.543,15.137,24.902,83.496,70.801,0
216961.477,78.613,9.766,21.973,83.984,79.590,0
216961.481,80.078,18.555,26.855,93.262,66.406,0
216961.485,79.102,18.066,23.438,99.609,55.664,0
216961.488,85.449,-0.488,23.438,100.098,43.457,0
216961.492,87.402,0.977,27.832,98.145,26.855,0
216961.496,90.332,18.066,25.879,108.398,0.977,0
216961.500,98.145,29.297,30.762,111.328,-56.641,0
216961.504,93.262,25.391,42.480,90.332,-51.270,0
216961.508,87.891,21.973,43.945,88.867,0.977,0
216961.512,98.633,31.738,47.852,102.539,14.648,0
216961.516,101.074,33.691,39.062,102.539,3.418,0
216961.520,90.820,22.461,22.949,90.820,-0.977,0
216961.524,76.660,8.789,37.598,78.613,35.156,0
216961.527,66.406,-0.977,50.781,72.266,35.156,0
216961.531,73.730,8.301,42.969,78.125,-4.883,0
216961.535,76.172,19.043,31.738,83.496,2.441,0
216961.539,74.707,10.254,27.832,82.031,11.230,0
216961.543,88.867,7.324,31.250,100.098,30.762,0
216961.547,93.262,21.973,23.438,103.027,61.035,0
216961.551,88.379,31.250,19.043,83.984,89.844,0
216961.555,86.426,25.879,39.551,80.566,102.051,0
216961.559,72.754,19.043,50.293,74.219,109.863,0
216961.563,66.406,10.742,44.922,64.453,88.867,0
216961.567,69.824,10.254,37.598,67.871,86.914,0
216961.570,71.777,14.648,34.180,71.289,61.523,0
216961.574,73.730,9.277,25.391,67.871,11.230,0
216961.578,72.266,13.672,17.578,68.359,36.621,0
216961.582,76.172,24.902,28.809,66.895,64.941,0
216961.586,83.008,20.996,45.410,66.406,57.129,0
216961.590,77.148,12.207,41.992,66.895,79.102,0
216961.594,74.707,19.531,33.203,73.730,77.148,0
216961.598,78.125,28.809,39.062,76.660,42.480,0
216961.602,79.102,30.762,46.387,73.730,29.785,0
216961.606,74.707,26.855,39.551,63.965,-15.137,0
216961.610,68.359,25.879,34.180,68.359,-21.973,0
216961.613,62.012,23.438,34.180,64.453,-4.883,1
216961.617,52.734,11.719,27.344,51.270,-2.441,0
216961.621,51.270,6.836,24.414,54.199,8.789,0
216961.625,54.688,13.672,24.902,57.129,7.324,0
216961.629,58.105,16.113,26.855,63.477,14.648,0
216961.633,62.012,24.414,33.691,62.988,31.738,0
216961.637,57.129,30.273,42.480,57.129,27.832,0
216961.641,49.805,22.949,44.434,53.223,26.367,0
216961.645,43.457,23.438,37.109,52.734,17.090,0
216961.649,35.645,22.461,28.809,50.293,21.484,0
216961.652,41.016,19.043,38.574,44.922,24.414,0
216961.656,48.828,21.484,55.176,49.316,10.742,0
216961.660,42.480,21.484,55.176,56.641,5.371,0
216961.664,34.180,15.625,47.852,53.223,34.180,0
216961.668,35.156,9.277,29.785,48.828,19.531,0
216961.672,38.086,6.836,13.672,42.969,-12.695,0
216961.676,46.387,11.719,26.367,59.082,-11.230,0
216961.680,56.152,19.531,36.133,73.730,-0.977,0
216961.684,52.734,24.902,33.691,52.246,17.578,0
216961.688,49.805,26.855,47.363,54.199,-8.789,0
216961.692,58.105,29.785,56.152,66.406,-12.695,0
216961.695,56.152,27.344,43.945,50.781,-9.766,0
216961.699,46.387,12.207,36.621,36.621,-7.812,0
216961.703,35.645,6.836,41.504,37.109,38.086,0
216961.707,29.297,20.020,38.086,36.133,58.594,0
216961.711,39.062,30.762,30.273,46.387,48.340,0
216961.715,49.316,31.738,34.180,46.875,50.781,0
216961.719,51.758,26.855,43.457,44.922,47.852,0
216961.723,54.688,22.949,47.363,53.711,24.414,0
216961.727,58.594,26.367,46.875,46.387,5.859,0
216961.731,57.129,33.203,38.086,41.992,12.207,0
216961.735,48.828,31.738,34.668,41.016,11.719,0
216961.738,51.270,31.250,50.293,48.340,13.672,0
216961.742,53.711,27.832,54.199,56.641,-22.949,0
216961.746,35.156,23.926,40.527,36.133,-31.738,0
216961.750,32.715,23.438,30.273,35.156,53.711,0
216961.754,41.992,19.531,30.273,45.410,71.289,0
216961.758,45.898,20.508,41.992,52.734,64.453,0
216961.762,42.969,20.508,48.340,50.293,92.285,0
216961.766,39.062,17.578,35.645,46.875,77.148,0
216961.770,40.039,23.438,27.832,53.223,27.832,0
216961.774,51.270,40.039,43.457,56.641,36.133,0
216961.777,47.363,35.645,50.293,50.293,44.922,0
216961.781,36.621,20.508,50.293,33.691,18.555,0
216961.785,39.551,29.297,54.688,25.391,2.930,0
216961.789,37.598,32.227,57.129,29.785,0.000,0
216961.793,30.762,18.066,41.504,34.668,68.359,0
216961.797,29.785,19.043,30.762,34.180,123.047,0
216961.801,35.156,33.691,41.504,36.133,87.891,0
216961.805,32.227,31.738,48.340,36.133,50.293,0
216961.809,31.738,28.809,42.480,52.246,58.594,0
216961.813,38.574,34.180,43.945,55.176,31.250,0
216961.817,42.480,41.504,38.086,41.992,-1.465,0
216961.820,42.480,41.504,28.809,36.133,16.113,0
216961.824,38.574,33.203,41.992,32.227,33.203,0
216961.828,33.203,31.250,46.387,19.043,36.621,0
216961.832,35.645,33.203,31.250,17.578,-23.926,0
216961.836,35.645,28.320,28.809,19.531,-0.977,0
216961.840,28.809,14.648,39.062,20.020,59.082,0
216961.844,33.691,16.602,32.715,28.809,13.672,0
216961.848,38.574,31.250,26.855,29.785,35.156,0
216961.852,43.457,35.156,37.109,45.410,78.125,0
216961.856,46.875,35.156,32.715,49.805,89.355,0
216961.860,43.457,41.504,28.320,28.320,73.242,0
216961.863,39.551,43.457,30.273,23.926,57.129,0
216961.867,37.598,42.480,27.832,30.273,73.242,0
216961.871,42.969,36.133,33.691,33.691,52.734,0
216961.875,41.992,24.902,31.738,29.297,31.738,0
216961.879,42.480,29.785,23.926,28.809,40.039,0
216961.883,49.805,41.992,25.391,44.434,58.105,0
216961.887,45.898,38.086,38.574,48.340,49.316,0
216961.891,37.598,28.809,53.711,42.969,41.504,0
216961.895,39.551,32.715,51.270,48.340,32.715,0
216961.899,42.969,29.785,39.062,41.992,34.180,0
216961.902,44.922,30.762,35.156,40.039,48.340,0
216961.906,42.480,39.551,38.574,41.992,82.031,0
216961.910,42.480,42.480,41.016,34.668,114.746,0
216961.914,41.016,33.203,33.691,31.738,123.535,0
216961.918,42.480,35.156,29.297,35.645,97.656,0
216961.922,42.480,44.434,30.273,41.504,89.844,0
216961.926,44.434,34.180,41.016,48.828,125.488,0
216961.930,46.387,28.809,46.387,60.059,117.676,0
216961.934,38.086,30.273,34.180,39.062,110.840,0
216961.938,30.273,20.020,33.691,15.137,74.219,0
216961.942,36.621,20.508,33.203,27.344,12.207,0
216961.945,41.992,35.645,30.762,39.062,11.719,0
216961.949,46.875,41.504,33.203,38.574,31.738,0
216961.953,57.129,42.480,31.250,39.062,-1.465,0
216961.957,55.664,38.086,28.320,42.480,-45.410,0
216961.961,49.316,37.109,29.785,38.574,-22.461,0
216961.965,56.641,37.109,39.062,45.410,-27.344,0
216961.969,56.641,30.762,45.410,49.316,-32.227,0
216961.973,50.293,22.949,40.039,35.645,13.672,0
216961.977,46.387,18.555,38.086,34.180,26.367,0
216961.981,42.480,22.949,39.551,44.434,7.324,0
216961.985,38.574,23.926,41.016,43.945,-0.488,0
216961.988,35.156,20.996,33.691,42.969,21.973,0
216961.992,38.086,25.391,34.180,43.457,29.785,0
216961.996,41.016,39.551,41.992,42.969,22.949,0
216962.000,39.551,42.480,33.691,42.969,9.766,0
216962.004,44.922,35.645,30.273,47.852,22.949,0
216962.008,51.758,36.133,36.133,54.199,2.930,0
216962.012,48.828,35.645,29.785,60.547,-34.180,0
216962.016,46.387,35.645,23.438,66.406,-41.016,0
216962.020,49.805,38.086,30.762,47.852,-21.973,0
216962.024,36.621,32.715,26.855,25.391,-22.949,0
216962.027,27.344,26.855,21.484,22.461,-58.105,0
216962.031,36.621,17.090,30.273,29.297,-29.785,0
216962.035,36.621,12.207,35.156,32.715,-17.578,0
216962.039,39.062,27.832,31.738,33.691,-17.578,0
216962.043,40.527,35.645,31.250,35.156,-24.414,0
216962.047,34.668,34.180,32.715,31.250,-17.090,0
216962.051,34.180,29.297,33.691,35.156,12.207,0
216962.055,35.156,25.391,39.551,43.457,44.434,0
216962.059,40.039,32.715,40.527,45.410,54.199,0
216962.063,45.898,41.992,36.621,46.387,20.508,0
216962.067,42.480,35.645,41.016,43.945,23.926,0
216962.070,44.922,26.855,39.062,46.387,24.902,0
216962.074,59.570,28.320,38.574,53.711,27.344,0
216962.078,43.457,24.414,36.133,54.199,35.156,0
216962.082,18.066,23.926,28.320,37.598,-11.230,0
216962.086,22.949,33.203,33.203,30.273,-1.465,0
216962.090,34.180,37.598,29.785,36.621,63.477,0
216962.094,43.457,40.527,36.133,50.781,42.480,0
216962.098,45.410,43.945,49.316,52.734,23.438,0
216962.102,41.504,38.574,51.758,35.645,45.898,0
216962.106,46.387,29.785,41.992,43.945,56.152,0
216962.110,43.457,26.855,33.691,53.223,78.125,0
216962.113,39.062,26.367,33.203,47.363,88.379,0
216962.117,40.039,24.414,20.996,45.410,66.895,0
216962.121,39.062,22.949,20.996,38.086,68.848,0
216962.125,42.480,21.973,24.902,39.551,66.406,0
216962.129,41.016,29.297,18.066,40.039,22.949,0
216962.133,31.738,35.156,18.555,28.320,-13.184,0
216962.137,35.645,28.809,23.438,33.691,-15.625,0
216962.141,45.410,20.508,34.668,46.387,-13.672,0
216962.145,41.992,20.020,41.504,41.016,18.555,0
216962.149,41.504,24.414,38.086,33.691,21.973,0
216962.152,43.945,30.762,37.598,42.480,17.090,0
216962.156,40.527,30.273,36.133,44.434,53.223,0
216962.160,39.062,29.297,23.926,45.898,30.273,0
216962.164,44.922,30.273,18.066,49.805,14.648,0
216962.168,41.016,26.367,17.578,40.039,44.922,0
216962.172,34.180,19.531,17.090,33.203,24.414,0
216962.176,35.156,18.555,22.949,32.227,15.137,0
216962.180,44.922,28.320,32.227,35.645,23.926,0
216962.184,56.152,34.180,38.574,50.293,6.836,0
216962.188,51.270,30.762,41.016,46.875,1.465,0
216962.192,48.340,25.879,32.715,48.340,12.207,0
216962.195,49.316,34.180,18.066,60.059,4.883,0
216962.199,47.852,41.992,13.672,47.852,-5.371,0
216962.203,41.016,31.738,22.949,32.715,28.809,0
216962.207,36.133,23.438,38.574,28.809,2.441,0
216962.211,34.668,22.949,39.551,31.250,15.137,0
216962.215,31.250,25.879,25.879,34.668,61.523,0
216962.219,32.715,23.438,13.672,32.715,27.832,2
216962.223,29.297,14.160,12.695,29.785,18.555,0
216962.227,32.227,16.113,26.367,29.297,33.203,0
216962.231,32.227,21.973,27.344,35.645,29.297,0
216962.235,36.133,28.320,26.367,52.246,57.617,0
216962.238,34.180,32.227,32.227,37.109,57.129,0
216962.242,19.531,29.785,29.297,18.066,62.012,0
216962.246,17.578,28.809,21.484,24.902,62.500,0
216962.250,20.508,32.715,25.879,16.602,7.812,0
216962.254,32.227,42.969,30.762,26.367,-11.230,0
216962.258,34.668,41.016,33.203,35.645,11.230,0
216962.262,23.438,26.855,32.715,19.531,51.758,0
216962.266,29.785,22.949,18.066,22.461,44.434,0
216962.270,39.062,23.438,9.277,38.086,39.062,0
216962.274,41.504,22.949,24.902,59.082,51.758,0
216962.277,41.016,20.508,38.574,51.758,46.875,0
216962.281,35.156,20.996,32.715,32.715,71.777,0
216962.285,35.156,28.809,24.414,44.434,78.613,0
216962.289,41.016,24.414,24.902,41.992,76.172,0
216962.293,36.621,16.602,26.855,28.809,51.758,0
216962.297,41.992,29.297,29.297,39.062,36.133,0
216962.301,43.945,39.551,34.180,45.410,54.688,0
216962.305,31.250,29.785,35.645,33.691,80.566,0
216962.309,21.973,20.508,15.625,18.066,72.754,0
216962.313,21.484,14.160,-1.953,18.066,41.016,0
216962.317,24.902,13.184,23.926,26.367,56.641,0
216962.320,24.414,17.578,40.527,23.926,42.480,0
216962.324,27.344,24.414,34.668,24.414,14.648,0
216962.328,30.273,28.809,24.902,17.090,16.602,0
216962.332,29.297,34.180,19.531,18.066,5.859,0
216962.336,31.250,39.551,27.344,29.297,18.066,0
216962.340,41.016,42.969,31.738,35.156,19.043,0
216962.344,36.621,33.203,27.344,34.180,11.230,0
216962.348,33.203,23.438,18.555,35.645,22.461,0
216962.352,35.156,21.973,13.184,46.875,10.742,0
216962.356,38.574,24.414,28.809,52.734,14.648,0
216962.360,41.016,28.320,38.086,52.246,36.621,0
216962.363,39.551,16.602,38.574,53.223,56.641,0
216962.367,31.738,13.184,37.598,47.852,26.367,0
216962.371,28.809,33.691,37.598,41.992,9.277,0
216962.375,36.621,44.922,47.852,49.316,56.641,0
216962.379,37.598,41.016,32.227,61.523,67.871,0
216962.383,32.227,30.762,16.113,49.805,58.594,0
216962.387,27.344,18.066,17.578,24.414,16.113,0
216962.391,30.273,22.461,21.484,21.484,-4.883,0
216962.395,35.156,33.691,31.738,30.273,50.781,0
216962.399,37.598,36.621,40.039,33.203,45.410,0
216962.402,40.527,34.668,31.738,32.227,-0.488,0
216962.406,33.691,33.691,20.508,28.809,-0.977,0
216962.410,40.527,28.320,26.855,41.992,17.578,0
216962.414,58.105,29.297,41.504,61.035,3.906,0
216962.418,52.246,32.715,46.875,50.781,-2.930,0
216962.422,37.109,30.273,37.109,44.434,7.812,0
216962.426,27.832,22.949,24.902,42.480,16.113,0
216962.430,19.043,25.879,24.902,27.344,0.000,0
216962.434,21.973,29.785,31.250,25.879,21.484,0
216962.438,32.227,31.250,31.738,31.250,16.602,0
216962.442,39.551,38.574,32.715,30.762,47.363,0
216962.445,36.621,33.203,31.738,23.926,62.988,0
216962.449,32.227,31.250,33.691,26.855,16.113,0
216962.453,38.086,28.320,33.691,34.668,41.504,0
216962.457,42.480,27.344,26.367,41.016,64.453,0
216962.461,38.086,33.203,24.414,40.527,77.148,0
216962.465,27.832,29.297,30.762,24.414,28.320,0
216962.469,27.344,23.438,35.645,30.273,19.043,0
216962.473,28.809,25.879,35.645,39.062,42.480,0
216962.477,22.949,27.832,36.621,27.344,35.156,0
216962.481,29.297,29.785,27.344,24.902,41.016,0
216962.485,36.621,35.156,16.602,32.227,33.203,0
216962.488,40.527,31.250,28.320,39.062,31.738,0
216962.492,51.270,33.203,34.180,51.758,34.180,0
216962.496,46.875,36.133,26.855,45.898,48.828,0
216962.500,32.227,31.738,37.598,35.156,55.176,0
216962.504,31.250,27.832,51.270,36.133,39.062,0
216962.508,35.645,24.414,41.016,40.527,21.484,0
216962.512,33.691,23.438,23.438,42.480,24.414,0
216962.516,39.551,32.715,22.461,48.828,25.391,0
216962.520,51.270,46.387,20.020,51.758,0.488,0
216962.524,44.922,42.480,27.344,41.504,29.297,0
216962.527,42.969,35.156,32.715,43.457,20.020,0
216962.531,41.992,36.621,30.762,48.828,-8.301,0
216962.535,38.574,30.762,30.273,40.527,-12.695,0
216962.539,48.828,29.785,28.809,39.551,-3.906,0
216962.543,50.781,29.297,38.086,41.504,27.344,0
216962.547,56.641,30.273,47.363,50.293,45.898,0
216962.551,51.758,30.762,49.805,53.223,58.594,0
216962.555,41.504,23.926,30.273,35.645,50.293,0
216962.559,37.109,25.879,14.648,24.902,44.434,0
216962.563,34.668,29.297,23.438,29.297,27.832,0
216962.567,37.109,33.691,20.508,33.203,3.418,0
216962.570,40.527,42.969,31.738,31.738,8.789,0
216962.574,39.551,42.480,46.387,38.574,34.668,0
216962.578,37.109,39.062,37.598,44.922,45.898,0
216962.582,39.062,33.203,33.691,35.645,45.410,0
216962.586,28.320,24.414,35.645,27.832,42.480,0
216962.590,27.832,31.738,41.504,32.227,60.547,0
216962.594,29.785,36.621,45.898,21.973,47.852,0
216962.598,16.602,31.738,35.645,9.277,59.570,0
216962.602,14.160,33.691,24.414,7.812,86.914,0
216962.606,10.254,37.598,23.438,9.277,68.359,0
216962.610,0.000,38.574,30.273,0.977,66.406,0
216962.613,4.883,45.410,33.691,0.488,65.918,0
216962.617,-2.930,42.969,33.203,-2.930,43.945,0
216962.621,-16.602,40.039,26.855,-18.555,42.480,0
216962.625,-11.230,48.828,22.949,-13.184,18.066,0
216962.629,-15.137,55.664,34.668,-16.602,-15.625,0
216962.633,-47.363,53.711,48.340,-42.969,-9.277,0
216962.637,-76.660,50.781,31.738,-72.754,13.184,0
216962.641,-77.148,50.293,22.461,-80.078,24.902,0
216962.645,-82.031,55.176,29.785,-74.219,31.250,0
216962.649,-105.469,54.688,35.156,-94.238,29.785,0
216962.652,-114.746,54.199,55.176,-118.652,38.574,0
216962.656,-116.699,62.988,50.781,-118.652,18.066,0
216962.660,-128.906,65.918,34.668,-119.629,-1.953,0
216962.664,-126.465,69.824,44.922,-124.023,13.672,0
216962.668,-128.906,68.848,59.570,-137.695,20.020,0
216962.672,-156.250,60.547,45.898,-163.574,21.973,0
216962.676,-163.574,60.547,26.367,-171.387,20.020,0
216962.680,-153.320,61.035,24.414,-164.062,31.250,0
216962.684,-147.461,57.129,31.738,-151.367,18.066,0
216962.688,-143.555,62.012,46.387,-141.602,-7.812,0
216962.692,-137.207,65.430,61.035,-142.090,-2.930,0
216962.695,-123.047,59.082,56.641,-125.000,23.926,0
216962.699,-116.211,61.523,51.758,-114.746,11.230,0
216962.703,-118.164,60.547,45.898,-125.488,1.953,0
216962.707,-113.281,47.852,38.086,-120.117,26.367,0
216962.711,-92.285,48.828,25.879,-111.816,33.691,0
216962.715,-88.867,41.504,11.719,-112.305,-14.160,0
216962.719,-98.145,33.203,16.113,-108.398,-3.906,0
216962.723,-81.055,43.945,29.785,-82.520,49.805,0
216962.727,-62.988,47.852,33.691,-60.547,76.172,0
216962.731,-52.734,48.828,28.320,-56.641,53.223,0
216962.735,-40.527,38.086,27.344,-51.270,28.809,0
216962.738,-41.016,27.344,33.691,-43.457,21.484,0
216962.742,-37.109,40.527,34.668,-30.273,65.918,0
216962.746,-16.602,41.992,24.902,-11.230,78.125,0
216962.750,0.000,26.855,17.578,-13.672,26.367,0
216962.754,7.324,33.691,19.043,-10.254,55.176,0
216962.758,10.254,43.457,8.789,8.789,78.613,0
216962.762,11.719,33.691,-0.488,12.207,66.406,0
216962.766,16.113,32.227,6.836,9.766,60.059,0
216962.770,27.344,36.133,19.531,32.227,53.223,0
216962.774,37.598,31.738,34.668,55.664,24.414,0
216962.777,33.691,26.855,32.227,35.156,6.836,0
216962.781,31.250,19.531,13.672,24.414,25.391,0
216962.785,44.434,16.113,8.301,37.109,48.828,0
216962.789,53.223,16.602,12.695,47.852,25.879,0
216962.793,64.941,20.996,8.301,69.824,-8.789,0
216962.797,79.102,27.344,0.000,76.660,20.508,0
216962.801,85.938,33.691,-8.789,76.660,38.086,0
216962.805,76.172,21.973,1.465,83.496,56.152,0
216962.809,56.641,6.348,24.902,71.777,50.293,0
216962.813,56.641,9.766,38.086,63.477,31.738,0
216962.817,71.777,4.395,39.062,75.684,44.922,0
216962.820,81.055,4.883,29.297,84.961,40.527,0
216962.824,82.031,19.043,29.785,91.797,-1.953,0
216962.828,83.984,23.926,26.855,94.727,26.367,2
216962.832,93.262,18.555,16.113,99.609,80.566,0
216962.836,102.539,17.578,19.531,106.445,61.523,0
216962.840,105.469,29.785,31.738,99.609,46.387,0
216962.844,97.168,19.043,28.320,95.703,52.246,0
216962.848,89.844,2.930,7.812,95.215,43.945,0
216962.852,95.215,5.371,14.160,99.609,25.879,0
216962.856,105.957,9.277,35.156,101.562,65.430,0
216962.860,105.469,10.254,35.156,101.074,72.754,0
216962.863,99.609,9.766,22.461,107.422,61.523,0
216962.867,106.934,21.484,26.367,119.141,23.438,0
216962.871,103.027,25.391,35.645,126.953,-4.883,0
216962.875,93.262,12.695,35.645,114.746,42.480,0
216962.879,91.309,0.000,36.621,97.168,21.484,0
216962.883,82.031,-2.930,36.133,88.379,24.414,0
216962.887,87.402,6.836,35.156,93.750,87.891,0
216962.891,104.492,16.602,24.414,108.887,54.688,0
216962.895,104.492,15.137,14.160,116.211,41.504,0
216962.899,101.562,7.812,19.531,108.398,68.359,0
216962.902,98.145,8.789,27.344,100.586,44.434,0
216962.906,95.215,15.625,25.879,102.539,28.320,0
216962.910,100.098,12.207,25.879,101.074,15.137,0
216962.914,102.051,14.648,37.598,101.074,8.789,0
216962.918,99.609,29.297,47.363,98.633,35.156,0
216962.922,89.355,18.555,39.062,83.008,35.156,0
216962.926,80.078,6.348,26.367,72.266,25.391,0
216962.930,89.355,19.043,19.531,85.449,46.875,0
216962.934,85.449,21.973,18.066,91.309,46.875,0
216962.938,78.125,17.090,15.137,82.031,18.555,0
216962.942,85.449,13.672,16.113,96.191,44.434,0
216962.945,83.008,11.719,33.691,100.098,65.918,0
216962.949,74.707,17.578,47.363,96.191,47.852,0
216962.953,75.684,16.602,50.781,87.891,53.711,0
216962.957,76.660,6.836,44.434,71.777,53.223,0
216962.961,69.824,6.836,41.016,71.289,42.969,0
216962.965,72.754,19.043,41.504,78.613,44.434,0
216962.969,81.055,30.273,37.109,78.613,35.156,0
216962.973,87.402,28.809,26.367,87.891,11.230,0
216962.977,88.867,18.555,16.602,93.262,29.297,0
216962.981,82.520,14.160,17.090,87.402,33.203,0
216962.985,71.777,16.602,20.508,90.820,21.973,0
216962.988,69.336,17.578,39.551,83.008,65.918,0
216962.992,83.008,30.273,57.617,83.984,86.914,0
216962.996,79.102,30.273,52.734,87.891,21.484,0
216963.000,62.012,15.137,37.598,68.359,0.488,0
216963.004,66.406,16.113,32.227,48.828,11.230,0
216963.008,76.172,28.320,37.598,63.477,32.715,0
216963.012,70.312,30.762,32.227,77.148,49.316,0
216963.016,64.453,17.090,27.344,69.824,19.531,0
216963.020,65.918,9.766,24.414,63.477,21.973,0
216963.024,67.383,19.043,28.809,63.965,24.902,0
216963.027,62.988,22.949,39.062,63.965,17.578,0
216963.031,58.105,21.973,46.387,67.383,66.895,0
216963.035,67.871,29.297,43.945,74.219,67.383,0
216963.039,77.637,29.297,38.574,73.730,81.543,0
216963.043,75.684,31.738,46.875,69.336,53.711,0
216963.047,71.777,32.715,42.480,62.988,11.719,0
216963.051,69.336,20.508,19.043,62.012,51.270,0
216963.055,69.336,18.555,22.949,63.477,38.086,0
216963.059,66.406,22.949,31.738,62.988,27.832,0
216963.063,54.199,32.227,34.180,57.617,29.785,0
216963.067,47.852,34.668,43.457,52.246,13.184,0
216963.070,55.664,29.297,42.969,54.199,11.230,0
216963.074,62.012,31.738,39.062,49.316,10.742,0
216963.078,62.500,29.785,35.645,51.270,-2.930,0
216963.082,61.523,30.273,35.156,66.406,13.184,0
216963.086,55.176,29.297,28.809,52.734,28.809,0
216963.090,46.387,25.391,18.555,36.133,-15.625,0
216963.094,43.945,23.438,21.484,38.086,25.391,0
216963.098,56.641,28.320,27.344,51.270,68.848,0
216963.102,58.594,34.180,29.785,57.617,47.363,0
216963.106,48.828,36.133,27.344,48.340,50.781,0
216963.110,57.617,38.086,23.926,53.223,27.344,0
216963.113,58.594,27.832,29.297,62.500,11.230,0
216963.117,46.875,17.090,33.691,59.570,17.090,0
216963.121,44.922,19.531,41.992,51.758,24.902,0
216963.125,38.086,20.996,42.480,41.504,50.781,0
216963.129,34.180,27.832,33.203,31.738,50.293,0
216963.133,48.828,46.387,29.297,45.898,2.930,0
216963.137,53.711,44.434,25.391,49.316,-2.441,0
216963.141,54.688,39.062,25.391,44.434,61.523,0
216963.145,54.199,41.016,35.645,51.270,74.707,0
216963.149,41.016,29.785,37.598,51.758,39.062,0
216963.152,39.062,27.344,37.109,50.293,-21.973,0
216963.156,44.922,32.227,36.621,50.293,1.465,0
216963.160,41.016,20.020,34.180,45.410,51.758,0
216963.164,42.969,17.578,37.109,48.828,56.152,0
216963.168,50.781,23.438,32.715,58.594,32.227,0
216963.172,51.758,24.902,26.855,50.781,60.547,0
216963.176,49.316,38.086,35.156,48.340,96.191,0
216963.180,46.875,41.992,44.922,51.270,55.176,0
216963.184,45.410,37.598,33.203,52.734,13.672,0
216963.188,53.223,47.852,24.902,64.941,33.203,0
216963.192,64.453,50.293,33.203,76.660,64.453,0
216963.195,61.035,38.574,24.414,62.500,44.922,0
216963.199,48.340,26.855,21.973,45.410,13.672,0
216963.203,37.598,14.648,36.621,37.109,39.551,0
216963.207,39.551,11.230,48.340,33.691,46.875,0
216963.211,55.176,24.414,49.316,44.922,25.879,0
216963.215,56.152,33.691,36.621,45.898,16.113,0
216963.219,39.062,31.250,32.227,35.645,25.391,0
216963.223,35.645,30.762,28.809,36.133,17.090,0
216963.227,42.480,34.180,23.438,48.340,30.273,0
216963.231,45.410,34.180,34.668,52.246,8.789,0
216963.235,44.434,31.250,36.621,45.410,-21.484,0
216963.238,41.992,34.668,21.484,47.852,-2.441,0
216963.242,39.551,35.156,14.160,55.176,-19.043,0
216963.246,34.668,29.785,30.762,43.457,-20.508,0
216963.250,35.156,20.020,42.969,33.203,5.371,0
216963.254,34.668,21.973,29.297,34.180,-37.598,0
216963.258,35.156,36.621,25.391,30.273,-65.430,0
216963.262,44.434,41.504,37.598,38.574,9.277,0
216963.266,36.133,30.273,36.621,37.109,42.969,0
216963.270,24.414,23.926,31.250,24.902,41.504,0
216963.274,28.320,24.414,25.879,24.902,36.133,0
216963.277,30.273,23.438,21.973,41.016,15.625,0
216963.281,37.598,27.832,18.066,50.293,38.086,0
216963.285,41.504,30.273,12.695,43.945,6.348,0
216963.289,39.551,33.691,31.738,44.434,1.953,0
216963.293,37.598,40.039,42.969,48.828,53.711,0
216963.297,35.156,36.621,40.039,39.062,46.387,0
216963.301,40.527,25.391,35.156,32.227,12.695,0
216963.305,49.805,28.809,30.273,48.340,39.062,0
216963.309,53.223,39.062,30.273,52.246,62.012,0
216963.313,39.062,32.227,29.297,35.645,70.801,0
216963.317,43.457,24.414,21.973,39.551,48.828,0
216963.320,50.781,24.414,23.926,46.875,34.668,0
216963.324,28.320,23.926,25.879,39.062,27.344,0
216963.328,19.043,18.066,21.973,29.297,16.602,0
216963.332,24.414,17.578,31.738,29.785,16.113,0
216963.336,25.879,28.809,34.180,36.621,12.695,0
216963.340,22.949,28.320,26.855,33.203,13.672,0
216963.344,13.184,19.043,23.438,26.367,7.812,0
216963.348,13.672,27.344,25.879,35.156,28.320,0
216963.352,16.113,35.645,32.227,37.598,46.875,0
216963.356,23.926,32.227,38.086,40.039,58.105,0
216963.360,33.203,24.414,38.086,51.270,57.617,0
216963.363,22.949,13.672,24.414,42.969,52.734,0
216963.367,23.926,13.184,18.555,33.203,44.922,0
216963.371,34.668,16.602,23.438,33.203,51.270,1
216963.375,31.738,19.531,14.160,39.062,20.996,0
216963.379,32.227,26.367,19.043,46.387,13.184,0
216963.383,35.645,27.832,35.645,33.203,39.551,0
216963.387,34.668,26.367,47.363,25.391,39.062,0
216963.391,35.156,30.273,41.992,33.691,29.297,0
216963.395,49.316,37.109,26.855,52.734,33.691,0
216963.399,50.293,28.809,34.668,55.664,64.941,0
216963.402,36.621,20.020,40.527,37.109,58.105,0
216963.406,34.180,28.809,32.227,36.133,44.434,0
216963.410,33.691,31.738,23.926,44.434,50.293,0
216963.414,33.691,30.273,21.484,41.016,24.902,0
216963.418,35.156,26.855,25.391,30.273,6.348,0
216963.422,28.320,16.602,20.996,11.719,2.930,0
216963.426,28.809,22.461,23.926,27.344,16.602,0
216963.430,40.039,33.691,40.527,56.152,26.367,0
216963.434,36.133,33.203,40.527,36.621,-18.555,0
216963.438,26.855,33.691,22.949,23.926,3.906,0
216963.442,23.926,27.344,19.531,28.320,55.664,0
216963.445,31.738,25.391,29.297,23.438,34.668,0
216963.449,37.598,32.715,39.551,22.461,36.133,0
216963.453,31.250,30.762,32.227,20.020,40.039,0
216963.457,27.344,18.066,29.785,23.926,32.715,0
216963.461,29.297,12.695,36.133,38.086,42.480,0
216963.465,29.785,16.602,32.227,39.062,16.113,0
216963.469,41.016,21.973,31.738,39.062,17.578,0
216963.473,47.852,21.973,30.273,43.457,45.410,0
216963.477,40.039,24.902,27.832,42.480,28.320,0
216963.481,38.574,35.156,33.203,43.457,-26.855,0
216963.485,45.898,39.062,39.551,47.852,-5.859,0
216963.488,49.805,36.621,46.875,46.875,51.270,0
216963.492,42.480,23.438,41.504,43.945,51.270,0
216963.496,39.551,24.414,35.156,46.387,55.176,0
216963.500,47.363,38.086,41.016,49.805,50.293,0
216963.504,45.898,33.203,35.156,45.898,33.203,0
216963.508,39.062,26.855,18.066,36.621,34.668,0
216963.512,36.133,27.832,10.742,43.945,44.434,0
216963.516,37.109,28.320,18.066,37.598,27.832,0
216963.520,41.016,29.785,28.320,38.574,32.715,0
216963.524,45.898,28.809,39.062,53.223,41.504,0
216963.527,42.969,20.020,43.457,30.273,-19.531,0
216963.531,34.668,11.719,39.551,15.625,-38.086,0
216963.535,35.645,17.090,36.133,26.367,35.156,0
216963.539,40.039,30.273,30.762,29.297,21.484,0
216963.543,42.480,38.574,12.695,34.180,3.418,0
216963.547,41.504,39.551,6.836,41.016,37.598,0
216963.551,36.133,34.180,12.207,45.410,41.992,0
216963.555,31.250,30.273,18.555,38.086,54.199,0
216963.559,29.785,33.203,32.715,26.367,56.152,0
216963.563,22.461,36.621,43.457,25.391,36.133,0
216963.567,27.832,35.156,50.781,25.879,81.055,0
216963.570,39.062,24.414,47.852,25.391,72.754,0
216963.574,27.832,21.484,29.785,22.461,36.133,0
216963.578,27.344,28.320,22.949,35.645,64.453,0
216963.582,42.969,34.180,30.273,45.898,50.293,0
216963.586,53.711,38.574,27.344,53.223,14.648,0
216963.590,51.758,28.320,22.949,60.059,26.367,0
216963.594,42.480,23.438,29.785,51.758,54.688,0
216963.598,31.738,26.855,32.715,35.156,67.383,0
216963.602,25.879,24.902,35.156,25.879,53.711,0
216963.606,28.809,28.320,35.645,28.809,56.152,0
216963.610,32.715,31.250,29.785,37.109,66.406,0
216963.613,33.203,29.785,22.461,40.527,58.594,0
216963.617,28.809,25.391,25.879,22.949,52.734,0
216963.621,23.926,21.973,29.785,17.578,81.543,0
216963.625,29.297,27.832,37.109,28.320,87.402,0
216963.629,34.180,30.762,38.086,40.039,35.645,0
216963.633,32.227,24.902,28.809,43.457,44.922,0
216963.637,39.062,30.273,28.320,38.086,85.449,0
216963.641,39.551,32.715,18.555,32.715,66.895,0
216963.645,30.273,18.066,15.137,23.926,43.945,0
216963.649,26.855,14.160,35.645,19.531,65.430,0
216963.652,31.738,21.973,42.969,24.902,86.914,0
216963.656,35.156,27.344,37.598,31.250,71.777,0
216963.660,36.621,28.809,30.762,30.762,27.344,0
216963.664,41.992,22.949,38.574,27.344,11.230,0
216963.668,37.598,22.461,28.320,47.852,15.625,0
216963.672,36.133,35.645,8.301,62.988,0.977,0
216963.676,43.457,44.922,34.668,47.363,4.395,0
216963.680,33.203,33.203,53.223,40.039,16.113,0
216963.684,19.531,20.020,42.480,33.203,39.551,0
216963.688,16.113,19.531,37.109,20.508,29.297,0
216963.692,21.484,22.949,37.598,28.809,5.859,0
216963.695,31.250,26.855,21.973,40.039,1.465,0
216963.699,39.062,26.367,8.301,40.527,7.324,0
216963.703,41.016,23.438,23.438,40.527,-0.488,0
216963.707,44.434,32.715,40.039,37.109,0.488,0
216963.711,52.734,47.363,40.527,51.270,10.742,0
216963.715,42.480,41.016,32.715,56.152,36.133,0
216963.719,31.738,19.531,30.762,40.039,37.109,0
216963.723,31.738,13.672,34.180,29.785,6.348,0
216963.727,27.344,18.555,31.250,27.344,7.812,0
216963.731,36.621,23.926,21.973,30.273,13.672,0
216963.735,36.621,25.391,21.484,42.480,33.691,0
216963.738,36.133,28.809,31.738,47.363,32.227,0
216963.742,51.758,35.645,37.598,44.922,20.996,0
216963.746,49.316,34.668,30.762,46.875,24.902,0
216963.750,47.363,32.227,29.297,41.016,-33.691,0
216963.754,53.223,29.785,43.945,43.457,-61.035,0
216963.758,44.922,21.484,41.504,41.016,-27.344,0
216963.762,36.133,18.066,24.902,33.203,0.488,0
216963.766,33.203,20.508,11.230,26.367,17.578,0
216963.770,35.645,24.414,10.742,33.203,-25.879,0
216963.774,39.551,25.879,28.320,46.875,-45.410,0
216963.777,38.086,28.809,35.645,40.039,-11.719,0
216963.781,33.691,29.785,22.461,34.180,-3.418,0
216963.785,27.344,22.949,21.973,34.668,8.301,0
216963.789,28.809,24.902,32.227,37.109,4.883,0
216963.793,43.457,36.133,29.785,42.969,-16.602,0
216963.797,47.363,36.133,23.926,51.758,-13.184,0
216963.801,40.039,31.738,29.297,48.828,15.625,0
216963.805,40.039,29.785,22.461,46.875,31.738,0
216963.809,39.551,23.926,20.508,43.945,1.465,0
216963.813,38.574,19.043,34.668,32.227,-32.715,0
216963.817,35.156,15.625,35.645,28.809,-29.297,0
216963.820,35.645,20.508,32.715,37.109,-11.230,0
216963.824,31.738,30.273,29.297,46.387,23.926,0
216963.828,30.762,37.598,26.367,38.086,4.883,0
216963.832,39.551,38.086,41.504,39.062,-41.016,0
216963.836,52.246,45.410,47.852,63.965,4.883,0
216963.840,56.641,55.176,28.320,69.824,0.000,0
216963.844,46.875,45.410,22.461,42.480,-34.668,0
216963.848,43.457,32.227,39.551,33.203,11.230,0
216963.852,33.691,24.902,41.992,29.785,21.973,0
216963.856,21.973,19.531,34.180,21.484,-1.953,0
216963.860,23.438,21.484,32.715,24.414,10.742,0
216963.863,32.715,28.809,34.180,26.367,13.184,0
216963.867,42.480,35.645,40.039,33.691,-11.230,0
216963.871,39.062,40.039,40.039,43.945,-21.484,0
216963.875,38.086,42.969,31.250,46.875,19.043,0
216963.879,41.992,42.969,29.785,45.410,44.434,0
216963.883,36.621,35.645,36.133,52.246,30.762,0
216963.887,25.879,24.902,29.297,40.527,21.484,0
216963.891,29.297,16.602,25.879,29.297,5.859,0
216963.895,34.180,20.996,33.203,44.922,3.906,0
216963.899,37.598,39.062,40.039,47.852,17.090,0
216963.902,31.250,34.668,39.551,27.344,5.371,0
216963.906,26.367,29.785,46.387,24.414,36.621,0
216963.910,38.574,37.598,39.551,47.363,60.059,0
216963.914,37.598,35.156,26.367,42.480,22.949,0
216963.918,29.785,29.297,33.691,25.879,41.016,0
216963.922,33.203,26.855,34.668,32.715,43.945,0
216963.926,35.645,27.344,34.668,37.109,42.480,0
216963.930,38.574,27.832,42.480,40.039,62.500,0
216963.934,48.340,26.855,44.434,42.480,26.855,0
216963.938,45.410,20.996,38.574,36.133,-14.160,0
216963.942,40.527,23.438,36.133,30.762,-14.648,0
216963.945,38.574,32.227,27.832,29.297,-34.180,0
216963.949,36.133,33.691,24.902,26.855,-9.277,0
216963.953,40.039,31.250,30.762,41.992,24.414,0
216963.957,41.504,33.691,34.180,58.594,9.277,0
216963.961,37.598,37.109,37.598,37.109,14.160,0
216963.965,37.109,33.203,36.133,24.414,20.508,0
216963.969,39.062,32.715,39.062,29.297,21.973,0
216963.973,43.457,39.551,39.551,40.039,53.711,0
216963.977,37.109,33.203,35.645,42.480,91.309,0
216963.981,24.902,24.902,34.180,29.297,62.012,0
216963.985,32.227,28.320,28.809,36.133,56.641,0
216963.988,38.086,26.855,17.090,31.738,67.383,0
216963.992,27.832,24.902,15.137,21.973,27.344,0
216963.996,24.414,30.273,33.203,28.809,20.020,0
216964.000,32.715,34.668,45.410,40.527,24.414,0
216964.004,32.227,29.785,43.945,36.621,7.324,0
216964.008,23.926,21.484,43.457,28.809,-11.719,0
216964.012,19.531,20.996,43.945,35.156,2.930,0
216964.016,24.414,25.391,36.133,34.180,18.066,0
216964.020,35.645,25.879,26.855,30.762,25.391,0
216964.024,38.574,30.273,28.809,41.992,52.246,0
216964.027,33.203,31.738,37.109,40.527,64.453,0
216964.031,32.715,28.320,38.574,29.785,75.195,0
216964.035,37.598,30.762,35.156,34.668,40.039,0
216964.039,33.691,24.414,27.832,39.551,-0.977,0
216964.043,31.250,17.090,14.160,38.086,40.527,0
216964.047,31.250,17.090,20.996,28.809,64.941,0
216964.051,27.344,16.602,40.527,21.484,33.691,0
216964.055,35.645,22.949,49.316,29.297,15.625,1
216964.059,41.504,31.250,49.316,38.086,13.184,0
216964.063,36.621,32.227,28.320,32.715,-22.461,0
216964.067,31.250,31.738,19.531,35.645,-30.273,0
216964.070,41.016,33.203,39.551,50.781,-8.789,0
216964.074,44.434,33.203,35.156,59.082,14.160,0
216964.078,37.598,29.785,19.043,56.152,11.230,0
216964.082,39.551,26.855,29.297,29.785,-10.742,0
216964.086,27.344,25.879,38.086,16.113,19.043,0
216964.090,18.555,19.531,27.832,20.996,55.176,0
216964.094,21.484,16.113,29.785,19.043,37.598,0
216964.098,28.320,20.996,41.992,35.156,41.992,0
216964.102,33.691,23.926,34.180,45.898,57.129,0
216964.106,37.598,30.273,27.832,34.668,40.527,0
216964.110,35.645,29.785,27.344,30.273,62.012,0
216964.113,38.574,27.344,29.785,41.016,76.172,0
216964.117,46.387,32.715,40.039,42.480,35.645,0
216964.121,35.156,20.996,22.949,22.949,-3.906,0
216964.125,26.855,19.043,24.414,20.020,-25.391,0
216964.129,26.367,26.855,33.691,31.738,-59.082,0
216964.133,19.043,20.508,28.320,25.879,-14.160,0
216964.137,18.066,19.043,34.668,18.066,-5.859,0
216964.141,22.461,24.414,29.785,19.531,-28.809,0
216964.145,25.879,23.926,25.391,31.250,-50.781,0
216964.149,24.414,24.902,31.738,38.574,-41.016,0
216964.152,27.344,29.297,34.180,40.039,-7.324,0
216964.156,37.109,30.762,34.668,47.852,-52.734,0
216964.160,36.621,27.832,32.227,49.316,4.395,0
216964.164,33.203,26.855,20.996,39.551,84.473,0
216964.168,29.297,22.949,14.648,32.715,64.941,0
216964.172,32.715,25.391,28.809,30.762,50.293,0
216964.176,38.086,36.133,42.969,32.227,33.691,0
216964.180,30.273,31.250,36.621,36.621,42.969,0
216964.184,27.832,22.949,20.996,35.156,35.156,0
216964.188,28.320,27.832,21.484,36.133,28.809,0
216964.192,29.785,29.785,20.020,36.621,12.695,0
216964.195,38.574,39.062,29.785,47.852,36.621,0
216964.199,36.133,40.527,48.828,46.875,47.852,0
216964.203,29.297,28.320,45.898,38.086,26.855,0
216964.207,33.691,27.832,47.363,43.457,41.504,0
216964.211,36.133,29.297,45.410,48.340,62.988,0
216964.215,38.086,26.855,30.273,41.992,57.129,0
216964.219,38.086,22.461,27.344,28.320,9.766,0
216964.223,38.574,32.715,36.133,37.598,23.438,0
216964.227,38.086,45.410,25.391,45.410,8.789,0
216964.231,34.180,36.133,19.531,38.086,16.602,0
216964.235,26.855,25.879,38.086,33.203,62.012,0
216964.238,21.973,27.344,48.340,27.344,52.734,0
216964.242,22.949,28.320,42.480,27.344,48.828,0
216964.246,22.949,22.461,37.598,23.926,62.988,0
216964.250,24.902,22.949,34.180,20.020,57.617,0
216964.254,32.227,36.621,28.320,33.691,53.711,0
216964.258,38.086,46.875,22.461,44.922,83.496,0
216964.262,41.016,48.340,18.555,35.645,66.406,0
216964.266,41.992,39.062,22.461,19.531,34.668,0
216964.270,33.203,22.949,36.133,19.531,51.270,0
216964.274,29.297,9.277,42.480,23.926,52.246,0
216964.277,26.855,6.348,43.457,20.508,2.441,0
216964.281,22.949,18.555,45.410,28.320,2.441,0
216964.285,24.414,27.344,41.504,34.668,19.531,0
216964.289,31.738,33.203,37.598,34.180,40.527,0
216964.293,33.691,28.809,35.645,41.504,76.660,0
216964.297,32.227,23.438,27.832,50.781,51.758,0
216964.301,43.945,38.574,32.715,67.871,61.523,0
216964.305,48.340,44.434,41.016,57.129,53.711,0
216964.309,33.691,32.715,27.344,27.344,42.969,0
216964.313,20.996,23.438,17.578,18.555,47.363,0
216964.317,25.391,21.973,31.738,23.926,51.758,0
216964.320,28.809,19.043,44.922,26.367,35.156,0
216964.324,23.926,23.438,44.434,21.484,8.789,0
216964.328,20.020,23.438,38.086,30.273,36.621,0
216964.332,19.531,8.301,35.645,34.668,38.574,0
216964.336,26.367,17.578,29.785,32.715,25.391,0
216964.340,33.691,37.598,18.555,36.133,45.410,0
216964.344,40.039,43.457,31.738,41.504,82.520,0
216964.348,44.434,42.969,48.828,40.527,95.703,0
216964.352,43.945,33.203,37.598,36.621,81.543,0
216964.356,42.480,18.066,21.484,39.551,65.918,0
216964.360,33.203,16.602,30.762,38.086,62.500,0
216964.363,26.367,24.414,43.945,26.855,49.316,0
216964.367,27.344,22.949,39.551,20.020,-13.672,0
216964.371,22.461,22.949,38.574,28.320,-6.836,0
216964.375,21.484,23.926,37.109,39.062,45.410,0
216964.379,21.973,20.508,41.016,35.156,30.762,0
216964.383,22.949,21.484,32.715,26.367,21.484,0
216964.387,29.785,31.738,26.367,29.785,-3.418,0
216964.391,38.086,36.133,41.016,35.645,22.461,0
216964.395,42.969,30.273,38.574,36.133,59.082,0
216964.399,39.062,26.367,19.043,41.504,43.457,0
216964.402,41.504,33.691,20.020,48.340,21.484,0
216964.406,39.062,29.297,25.879,40.527,41.016,0
216964.410,32.715,21.484,28.320,21.973,5.859,0
216964.414,29.785,28.809,38.574,16.602,-56.152,0
216964.418,29.785,30.273,43.457,29.297,-9.277,0
216964.422,39.062,27.832,38.086,44.434,3.906,0
216964.426,46.875,29.785,39.551,47.852,-16.113,0
216964.430,46.387,26.855,52.246,50.293,19.043,0
216964.434,41.992,16.113,46.875,50.781,19.531,0
216964.438,44.434,22.949,35.645,48.340,4.395,0
216964.442,38.086,28.809,30.273,36.133,26.367,0
216964.445,28.320,19.531,29.297,24.414,29.297,0
216964.449,33.203,22.461,34.668,31.250,6.836,0
216964.453,39.062,33.691,34.668,40.527,-4.883,0
216964.457,40.039,28.809,27.832,42.969,14.160,0
216964.461,37.109,13.184,28.809,36.133,44.922,0
216964.465,40.039,12.695,35.156,33.203,74.219,0
216964.469,44.922,20.508,33.203,41.504,51.758,0
216964.473,38.086,25.391,34.180,39.551,23.438,0
216964.477,26.367,28.809,39.551,27.344,23.926,0
216964.481,35.156,32.715,40.039,32.227,35.645,0
216964.485,38.086,27.344,24.902,28.320,20.508,0
216964.488,24.414,21.484,13.184,18.555,22.949,0
216964.492,28.809,29.297,18.555,31.250,80.566,0
216964.496,33.203,26.855,17.090,27.832,82.031,0
216964.500,29.785,27.832,20.996,23.926,51.758,0
216964.504,32.227,30.273,38.574,33.691,11.230,0
216964.508,31.250,18.555,41.504,31.250,51.758,0
216964.512,33.203,17.578,41.992,44.922,60.547,0
216964.516,26.855,25.879,37.109,41.992,32.227,0
216964.520,20.020,34.180,29.297,18.066,16.602,0
216964.524,24.902,35.645,36.621,20.508,24.902,0
216964.527,32.227,41.504,37.598,26.855,30.762,0
216964.531,39.062,38.574,30.762,27.832,12.207,0
216964.535,37.109,33.203,25.879,34.180,33.203,0
216964.539,27.344,38.086,20.996,35.156,58.105,0
216964.543,19.531,32.715,27.344,27.344,46.387,0
216964.547,19.531,25.879,30.273,15.137,40.039,0
216964.551,22.949,26.855,24.414,21.973,51.758,0
216964.555,29.785,31.738,35.645,40.039,62.500,0
216964.559,39.551,33.203,44.922,40.039,39.551,0
216964.563,46.387,31.738,36.133,40.527,-8.789,0
216964.567,53.223,39.062,29.785,44.922,-4.883,0
216964.570,56.641,46.387,37.109,43.457,12.695,0
216964.574,55.176,44.434,43.457,39.062,-5.371,0
216964.578,44.434,35.645,36.621,28.809,-11.230,0
216964.582,37.109,32.715,20.996,27.832,45.410,0
216964.586,34.180,29.297,15.625,38.574,41.992,0
216964.590,29.785,23.926,26.855,30.762,-22.461,0
216964.594,35.645,23.438,38.574,27.344,3.418,0
216964.598,36.133,12.207,38.086,35.645,52.246,0
216964.602,38.086,7.812,39.551,39.551,18.066,0
216964.606,35.645,22.949,41.016,39.062,6.348,0
216964.610,31.738,41.016,41.504,34.180,32.227,0
216964.613,36.621,42.480,43.945,30.762,46.387,0
216964.617,38.086,32.715,38.574,26.855,35.645,0
216964.621,32.227,27.344,35.645,23.926,26.855,0
216964.625,29.785,27.344,38.574,27.832,25.391,0
216964.629,35.156,32.227,34.668,37.109,53.711,0
216964.633,34.180,28.809,26.367,41.992,54.688,0
216964.637,26.367,11.719,22.461,36.133,21.973,0
216964.641,30.762,14.648,30.762,33.203,3.418,0
216964.645,34.668,28.320,33.691,43.457,-8.789,0
216964.649,29.785,26.855,38.574,43.457,4.395,0
216964.652,32.227,23.438,54.199,41.992,-11.719,0
216964.656,38.574,28.809,47.852,42.969,17.578,0
216964.660,31.250,32.715,33.691,39.062,52.246,0
216964.664,24.902,31.250,31.738,30.273,18.555,0
216964.668,29.785,29.785,31.738,32.715,-5.859,0
216964.672,35.156,27.832,24.902,37.109,-14.160,0
216964.676,25.391,26.367,21.484,27.344,8.301,0
216964.680,25.879,28.809,28.809,34.668,16.113,0
216964.684,39.551,35.156,37.109,41.504,-4.883,0
216964.688,38.574,31.738,41.504,29.297,-35.156,0
216964.692,26.855,22.461,36.133,25.391,-43.945,0
216964.695,21.973,20.996,40.039,19.043,-54.688,0
216964.699,32.227,28.809,45.898,25.391,-56.641,0
216964.703,47.852,41.504,39.551,49.316,-32.227,0
216964.707,37.598,40.527,22.949,40.039,13.184,0
216964.711,20.020,28.320,11.719,20.020,28.809,0
216964.715,15.137,20.996,26.367,17.578,14.648,1
216964.719,14.648,20.508,35.645,24.414,65.430,0
216964.723,24.902,27.344,34.668,41.992,61.035,0
216964.727,24.902,34.180,36.133,40.039,41.504,0
216964.731,23.438,37.109,42.480,27.344,58.594,0
216964.735,35.156,38.086,41.992,36.133,25.391,0
216964.738,37.109,34.668,21.484,36.133,14.160,0
216964.742,34.180,34.668,14.648,24.414,22.949,0
216964.746,41.016,33.203,27.344,34.668,57.129,0
216964.750,39.062,28.320,30.273,46.387,45.410,0
216964.754,33.203,25.879,33.691,34.668,29.785,0
216964.758,29.785,23.926,32.227,23.438,76.172,0
216964.762,30.273,31.738,36.133,23.438,56.641,0
216964.766,36.133,40.527,42.969,29.297,44.434,0
216964.770,38.574,35.156,37.598,28.809,45.898,0
216964.774,39.551,36.133,36.621,39.062,45.898,0
216964.777,43.457,46.875,41.016,43.945,51.270,0
216964.781,39.551,37.109,32.227,24.902,61.035,0
216964.785,41.504,31.738,37.109,23.926,60.547,0
216964.789,42.969,32.227,43.457,24.902,50.293,0
216964.793,33.203,24.902,35.645,20.996,69.824,0
216964.797,34.668,33.203,30.273,38.574,85.449,0
216964.801,36.133,42.969,32.715,44.434,55.664,0
216964.805,31.250,35.645,29.297,22.949,25.391,0
216964.809,29.785,26.367,29.785,21.973,47.363,0
216964.813,29.297,24.902,40.527,27.832,80.078,0
216964.817,27.832,30.273,33.691,20.996,54.688,0
216964.820,36.133,35.156,33.203,33.203,29.297,0
216964.824,44.434,31.250,41.504,38.574,51.270,0
216964.828,38.574,23.926,37.109,33.691,54.688,0
216964.832,37.598,20.996,30.762,35.645,47.363,0
216964.836,44.434,24.902,33.691,37.109,41.016,0
216964.840,42.480,28.809,30.273,47.363,61.035,0
216964.844,33.691,28.320,13.672,43.945,68.848,0
216964.848,29.785,26.855,10.254,27.832,34.180,0
216964.852,29.297,24.414,33.691,25.391,49.805,0
216964.856,34.668,23.438,53.223,32.715,91.797,0
216964.860,39.062,23.926,41.016,33.691,69.824,0
216964.863,41.016,28.320,30.273,38.086,8.301,0
216964.867,43.457,29.785,35.156,42.480,7.324,0
216964.871,42.480,28.809,32.227,43.457,43.457,0
216964.875,43.457,33.691,25.391,43.457,6.836,0
216964.879,47.363,35.156,18.066,43.945,38.086,0
216964.883,50.293,30.762,11.230,53.711,74.707,0
216964.887,50.293,34.668,17.090,48.828,47.363,0
216964.891,50.781,37.598,30.273,41.992,51.270,0
216964.895,46.387,26.855,39.551,34.668,36.133,0
216964.899,35.645,19.043,40.527,30.273,38.574,0
216964.902,36.621,17.090,41.016,30.762,22.949,0
216964.906,41.992,23.438,41.016,33.203,-25.391,0
216964.910,44.434,33.691,42.480,44.434,-12.207,0
216964.914,44.922,34.668,39.062,43.945,-4.395,0
216964.918,41.504,35.645,27.832,33.203,-21.973,0
216964.922,41.992,41.992,9.277,23.926,14.648,0
216964.926,42.480,39.551,15.137,35.156,89.844,0
216964.930,35.645,33.691,34.180,34.668,113.770,0
216964.934,33.691,32.715,41.992,17.578,80.566,0
216964.938,36.621,32.715,46.875,22.949,74.707,0
216964.942,39.551,26.367,38.086,30.762,76.660,0
216964.945,45.410,22.949,30.273,43.457,77.637,0
216964.949,45.410,23.926,38.086,46.387,65.430,0
216964.953,39.551,28.809,44.434,38.574,60.547,0
216964.957,39.551,36.621,45.410,49.316,83.496,0
216964.961,40.527,30.762,35.645,65.918,79.102,0
216964.965,33.203,22.461,26.367,50.781,47.363,0
216964.969,25.879,21.973,40.039,33.691,-20.020,0
216964.973,22.461,20.508,53.711,34.668,25.879,0
216964.977,16.602,15.625,45.898,27.832,47.363,0
216964.981,12.695,15.137,28.809,27.344,-12.695,0
216964.985,13.672,20.020,23.438,30.762,8.789,0
216964.988,24.902,20.020,31.738,39.062,31.250,0
216964.992,33.203,21.973,35.156,46.875,34.180,0
216964.996,31.250,20.020,30.762,38.574,29.785,0
216965.000,17.578,13.184,27.344,23.438,32.715,0
216965.004,8.789,14.160,29.785,22.949,46.875,0
216965.008,18.066,17.090,28.809,21.973,53.711,0
216965.012,30.762,25.391,37.598,27.344,15.625,0
216965.016,36.133,29.785,40.527,33.203,-6.836,0
216965.020,31.250,24.902,32.227,39.062,23.926,0
216965.024,29.785,20.020,28.320,34.180,47.852,0
216965.027,33.691,23.926,27.832,16.602,52.246,0
216965.031,31.250,36.133,32.715,27.832,87.402,0
216965.035,29.297,39.551,30.762,42.480,52.246,0
216965.039,26.367,40.527,24.414,36.621,-9.277,0
216965.043,17.090,39.062,23.438,23.438,46.387,0
216965.047,6.836,33.691,35.645,8.301,104.980,0
216965.051,6.348,38.574,51.758,9.766,84.961,0
216965.055,1.465,42.969,44.922,10.742,56.152,0
216965.059,-11.719,40.039,35.156,-6.348,28.809,0
216965.063,-9.766,44.434,37.109,-12.207,31.250,0
216965.067,0.000,53.711,35.156,-4.883,34.180,0
216965.070,-4.395,51.758,33.691,-16.113,-5.371,0
216965.074,-37.109,49.805,32.715,-50.781,8.301,0
216965.078,-62.012,57.617,35.645,-68.848,76.172,0
216965.082,-57.617,61.523,42.969,-56.641,94.727,0
216965.086,-69.824,59.570,35.645,-66.895,44.922,0
216965.090,-83.496,61.035,31.738,-86.914,42.480,0
216965.094,-91.309,68.848,42.480,-93.262,76.172,0
216965.098,-113.281,68.848,49.805,-112.793,56.641,0
216965.102,-140.137,55.176,43.945,-133.301,77.637,0
216965.106,-146.484,49.316,42.969,-147.461,78.613,0
216965.110,-146.973,52.734,43.945,-158.691,67.383,0
216965.113,-147.949,59.570,36.133,-159.668,79.590,0
216965.117,-140.625,69.824,33.691,-148.438,32.227,0
216965.121,-136.230,69.824,20.508,-140.625,18.066,0
216965.125,-142.578,63.477,14.648,-142.578,40.039,0
216965.129,-142.578,65.430,52.734,-140.137,44.922,0
216965.133,-144.043,54.199,67.871,-135.742,36.621,0
216965.137,-143.066,40.039,54.688,-128.906,62.012,0
216965.141,-135.742,43.945,54.199,-125.977,97.168,0
216965.145,-132.324,45.898,47.363,-138.672,88.867,0
216965.149,-126.465,48.340,37.598,-141.113,85.938,0
216965.152,-119.629,47.852,30.762,-129.395,76.660,0
216965.156,-104.980,45.410,23.926,-106.445,118.652,0
216965.160,-85.938,47.852,23.438,-94.238,79.590,0
216965.164,-84.473,44.922,29.297,-85.449,12.695,0
216965.168,-82.520,39.551,33.691,-72.754,65.430,0
216965.172,-62.500,45.898,41.016,-67.383,90.820,0
216965.176,-42.969,46.387,42.480,-47.363,62.500,0
216965.180,-31.250,35.645,29.785,-32.715,69.336,0
216965.184,-14.648,42.480,27.344,-19.043,75.684,0
216965.188,-7.812,56.152,26.367,-14.160,42.480,0
216965.192,-2.930,49.316,18.555,-6.836,31.738,0
216965.195,14.648,41.992,18.555,3.906,36.133,0
216965.199,16.602,35.156,23.926,0.488,37.109,0
216965.203,18.066,26.367,21.973,13.672,58.105,0
216965.207,24.902,24.414,25.879,36.133,13.184,0
216965.211,28.320,25.879,32.227,39.551,4.883,0
216965.215,38.574,22.949,32.227,45.898,28.809,0
216965.219,48.828,21.484,41.992,55.664,-3.418,0
216965.223,49.805,32.227,41.992,50.293,7.324,0
216965.227,54.199,42.480,25.391,53.223,15.625,0
216965.231,69.336,40.527,14.160,62.500,16.113,0
216965.235,77.637,36.621,24.902,75.195,-14.160,0
216965.238,73.730,37.109,33.203,85.449,-14.648,0
216965.242,73.730,33.203,14.648,71.777,20.508,0
216965.246,69.824,26.367,5.371,68.848,7.324,0
216965.250,65.430,24.902,12.695,75.195,-31.250,0
216965.254,63.477,19.531,25.391,65.430,-25.391,0
216965.258,68.848,20.508,30.273,76.660,14.160,0
216965.262,84.961,32.715,30.273,92.773,-0.977,0
216965.266,89.844,28.809,30.273,88.867,-13.672,0
216965.270,95.703,24.414,23.438,88.379,11.230,0
216965.274,105.469,27.344,19.531,100.098,35.156,0
216965.277,103.516,26.855,13.672,104.492,5.371,0
216965.281,100.586,28.809,18.066,103.027,-5.371,0
216965.285,104.004,26.855,34.180,110.840,14.648,0
216965.289,111.816,21.973,39.551,113.770,5.859,0
216965.293,113.281,16.602,38.574,105.469,10.254,0
216965.297,108.887,19.043,40.039,91.797,-8.301,0
216965.301,114.258,22.949,36.621,100.586,17.090,0
216965.305,107.422,6.348,26.855,105.957,72.266,0
216965.309,102.051,5.371,25.391,100.586,62.500,0
216965.313,116.211,17.578,33.691,113.770,4.883,0
216965.317,113.770,19.043,32.715,111.816,-26.367,0
216965.320,104.492,17.090,33.691,98.145,-16.113,0
216965.324,103.027,13.184,36.133,94.238,-24.414,0
216965.328,101.562,20.508,24.414,100.586,-23.926,0
216965.332,99.121,20.996,24.414,103.027,-2.441,0
216965.336,93.750,12.695,43.457,103.027,21.973,0
216965.340,88.379,9.277,47.363,95.703,24.414,0
216965.344,88.379,9.277,43.457,85.938,20.508,0
216965.348,94.238,10.254,45.898,91.797,39.062,0
216965.352,91.797,11.719,35.645,96.680,44.434,0
216965.356,83.984,12.695,29.785,95.703,29.297,0
216965.360,86.426,14.648,34.180,87.891,13.672,0
216965.363,82.520,19.043,27.832,82.031,5.859,0
216965.367,81.543,17.090,28.320,82.520,29.297,0
216965.371,85.938,10.742,33.203,77.637,20.996,0
216965.375,86.426,17.090,21.484,83.008,15.625,0
216965.379,85.938,24.902,28.809,88.379,44.922,0
216965.383,75.684,13.184,48.340,76.172,35.156,0
216965.387,68.848,9.277,48.828,70.312,7.324,2
216965.391,78.125,19.043,34.668,81.055,-3.906,0
216965.395,84.961,22.461,22.949,85.938,-5.859,0
216965.399,80.078,23.926,28.809,87.402,6.836,0
216965.402,80.566,20.020,30.273,81.543,-14.648,0
216965.406,77.148,17.578,28.320,67.871,-28.809,0
216965.410,71.777,26.855,28.809,69.336,47.852,0
216965.414,79.102,27.344,26.855,73.730,78.125,0
216965.418,81.055,16.113,28.320,65.430,42.480,0
216965.422,74.707,13.672,25.391,73.242,30.762,0
216965.426,73.730,19.043,30.762,85.449,50.293,0
216965.430,75.195,19.043,33.203,77.148,22.949,0
216965.434,71.777,17.090,35.645,71.289,-21.973,0
216965.438,67.871,25.391,41.016,78.125,-6.836,0
216965.442,72.754,40.527,41.016,89.355,37.109,0
216965.445,74.219,38.574,39.551,83.008,54.688,0
216965.449,65.430,27.832,35.156,67.383,31.250,0
216965.453,63.965,30.273,25.879,72.266,35.156,0
216965.457,65.918,30.273,26.367,65.430,56.152,0
216965.461,60.059,19.043,41.504,53.711,36.133,0
216965.465,53.223,17.090,41.992,59.082,26.367,0
216965.469,52.246,20.508,36.133,60.059,49.316,0
216965.473,52.734,21.973,43.457,54.199,42.480,0
216965.477,56.641,24.414,36.621,56.641,7.812,0
216965.481,65.430,28.809,34.180,64.941,6.348,0
216965.485,62.988,27.344,36.621,59.570,20.020,0
216965.488,54.688,15.625,34.180,58.594,26.367,0
216965.492,54.688,9.277,38.086,63.965,-0.488,0
216965.496,59.570,19.043,45.898,56.641,0.000,0
216965.500,59.082,27.344,47.363,53.711,50.293,0
216965.504,58.594,26.855,28.809,60.547,42.969,0
216965.508,59.082,24.414,17.578,55.664,26.367,0
216965.512,58.594,26.855,24.902,49.805,16.602,0
216965.516,58.105,26.855,30.762,44.922,-1.953,0
216965.520,63.965,27.832,25.391,45.410,4.883,0
216965.524,67.871,28.320,34.668,61.035,-13.672,0
216965.527,61.035,30.273,44.922,62.988,12.695,0
216965.531,57.129,29.297,37.598,53.711,19.043,0
216965.535,55.664,29.297,40.039,48.828,1.465,0
216965.539,53.223,36.621,48.340,43.457,5.371,0
216965.543,50.781,34.180,41.504,43.945,48.340,0
216965.547,43.457,27.344,27.832,42.480,59.570,0
216965.551,43.457,25.391,28.809,46.387,13.672,0
216965.555,50.781,29.785,35.156,42.969,10.742,0
216965.559,55.176,32.715,27.832,40.527,5.371,0
216965.563,53.711,30.762,20.996,51.758,26.367,0
216965.567,48.828,31.250,24.414,41.504,26.855,0
216965.570,43.945,25.391,30.273,35.645,12.695,0
216965.574,45.898,24.414,48.340,50.781,28.809,0
216965.578,58.594,41.016,55.176,55.664,20.020,0
216965.582,58.594,42.480,35.645,39.062,5.859,0
216965.586,43.457,26.367,28.809,29.297,6.348,0
216965.590,39.062,15.137,39.551,39.551,54.688,0
216965.594,46.387,19.043,43.457,47.363,62.988,0
216965.598,50.781,28.809,37.598,51.758,45.898,0
216965.602,52.246,32.715,30.762,70.801,44.922,0
216965.606,59.570,35.645,27.344,79.102,45.898,0
216965.610,58.594,40.039,36.621,73.730,60.547,0
216965.613,50.293,29.785,50.781,65.918,46.875,0
216965.617,36.621,17.090,40.527,44.434,53.223,0
216965.621,41.504,23.438,36.621,42.969,76.660,0
216965.625,48.340,33.203,50.781,44.434,42.969,0
216965.629,37.109,26.855,57.129,35.156,-0.488,0
216965.633,32.715,23.438,51.270,37.109,49.316,0
216965.637,31.250,29.297,31.738,36.621,68.359,0
216965.641,35.645,30.273,21.973,42.969,53.223,0
216965.645,34.180,24.902,24.902,42.969,64.941,0
216965.649,31.250,23.438,18.066,32.715,70.312,0
216965.652,41.992,32.227,4.883,44.922,67.871,0
216965.656,44.434,34.668,21.484,45.410,53.711,0
216965.660,34.668,20.996,51.758,26.367,48.340,0
216965.664,25.391,14.160,56.152,25.391,50.293,0
216965.668,31.250,25.879,47.852,39.551,24.414,0
216965.672,33.691,31.738,31.250,32.227,-8.301,0
216965.676,27.344,30.762,30.273,18.555,0.000,0
216965.680,25.879,32.227,39.062,33.203,2.441,0
216965.684,28.320,30.762,29.297,42.969,2.441,0
216965.688,29.785,25.879,23.926,40.039,29.297,0
216965.692,31.738,33.691,20.996,43.945,34.180,0
216965.695,38.086,38.574,24.414,41.992,43.457,0
216965.699,33.203,30.273,35.156,26.367,79.102,0
216965.703,29.785,31.738,46.875,24.902,47.363,0
216965.707,46.387,38.086,47.852,26.367,8.301,0
216965.711,58.105,40.527,42.969,34.668,7.324,0
216965.715,46.387,29.785,43.945,33.203,5.371,0
216965.719,37.109,17.090,35.645,21.973,8.301,0
216965.723,45.410,36.133,22.461,38.086,29.297,0
216965.727,45.898,48.828,17.578,51.270,54.199,0
216965.731,33.691,37.598,22.461,42.480,54.688,0
216965.735,25.879,25.879,30.762,40.527,15.137,0
216965.738,21.973,18.555,36.621,41.504,-7.324,0
216965.742,21.484,21.484,35.156,43.457,25.391,0
216965.746,24.414,27.344,41.992,39.551,44.922,0
216965.750,32.715,32.715,49.316,29.297,24.902,0
216965.754,42.480,34.668,49.805,39.062,30.762,0
216965.758,41.504,25.391,42.969,44.922,27.832,0
216965.762,29.785,20.020,29.785,40.039,43.945,0
216965.766,20.020,20.996,20.996,27.832,50.293,0
216965.770,17.090,20.020,28.809,22.461,40.527,0
216965.774,18.555,20.508,46.387,27.832,45.898,0
216965.777,22.461,22.949,39.551,30.273,1.465,0
216965.781,20.508,24.414,27.832,32.715,-16.602,0
216965.785,21.484,24.902,40.039,36.621,27.832,0
216965.789,30.762,27.832,55.664,37.598,16.602,0
216965.793,29.785,21.973,46.875,29.297,2.930,0
216965.797,30.762,21.973,30.273,31.738,12.207,0
216965.801,41.992,35.156,33.691,41.504,15.625,0
216965.805,39.062,33.203,37.109,35.156,33.203,0
216965.809,27.832,18.555,24.414,31.738,-5.371,0
216965.813,31.250,17.578,25.879,36.133,5.371,0
216965.817,39.062,20.020,31.738,44.922,41.016,0
216965.820,42.969,23.438,32.227,41.992,25.391,0
216965.824,42.969,28.320,32.715,30.273,15.137,0
216965.828,32.227,26.855,34.180,31.738,69.336,0
216965.832,16.602,28.320,34.180,21.484,107.422,0
216965.836,23.926,35.645,30.762,25.391,63.965,0
216965.840,36.133,36.621,34.180,36.133,37.109,0
216965.844,31.738,29.785,34.668,36.133,79.590,0
216965.848,26.855,24.902,33.691,41.504,85.449,0
216965.852,31.738,22.461,33.203,41.992,62.500,0
216965.856,39.062,26.855,20.996,37.598,79.102,0
216965.860,49.805,32.227,20.020,44.434,78.125,0
216965.863,56.152,32.227,33.691,57.129,83.008,0
216965.867,48.828,28.320,39.062,51.758,73.730,0
216965.871,45.898,21.484,37.109,40.039,72.266,0
216965.875,49.805,25.391,31.738,45.410,86.914,0
216965.879,50.781,35.645,31.738,44.922,72.266,0
216965.883,42.480,37.598,40.039,36.621,79.102,0
216965.887,32.227,27.832,41.504,32.227,83.496,0
216965.891,36.621,22.949,34.668,40.527,109.863,0
216965.895,46.387,30.762,29.785,49.316,108.887,0
216965.899,50.781,36.133,40.527,53.711,30.273,0
216965.902,52.246,39.551,47.852,53.711,17.578,0
216965.906,54.199,40.039,35.156,54.688,64.941,0
216965.910,44.922,28.809,30.273,42.480,36.621,0
216965.914,32.227,19.043,33.203,27.344,14.648,0
216965.918,34.180,21.973,34.180,32.715,33.203,0
216965.922,34.668,22.461,28.320,31.738,55.664,0
216965.926,37.598,20.996,32.227,33.691,60.059,0
216965.930,42.969,20.508,37.598,37.109,37.109,0
216965.934,40.039,27.344,29.785,35.156,55.176,0
216965.938,37.598,39.062,29.785,41.504,36.133,0
216965.942,43.457,45.410,39.551,47.852,10.742,0
216965.945,48.340,48.828,36.621,51.758,19.531,0
216965.949,46.387,41.504,31.738,49.316,22.949,0
216965.953,37.109,28.320,25.391,35.156,14.648,0
216965.957,34.180,23.926,26.855,26.855,-6.348,0
216965.961,40.039,32.715,31.250,34.668,-47.363,0
216965.965,40.527,33.691,24.414,38.574,-41.016,0
216965.969,38.086,20.508,27.832,26.855,-17.090,0
216965.973,39.551,15.137,40.527,23.926,-19.043,0
216965.977,36.621,21.484,40.527,24.414,-40.527,0
216965.981,41.016,39.551,45.410,33.203,-46.875,0
216965.985,43.457,44.922,51.758,38.574,-23.438,0
216965.988,39.062,34.180,37.598,36.621,8.789,0
216965.992,38.574,27.832,28.320,41.504,7.324,0
216965.996,41.992,30.273,29.297,45.410,41.504,0
216966.000,36.621,29.785,36.133,40.527,27.832,0
216966.004,30.273,23.438,37.598,40.527,-13.672,0
216966.008,32.227,21.973,25.879,57.129,26.855,0
216966.012,32.715,23.438,16.113,44.434,56.641,0
216966.016,30.762,27.344,21.484,36.133,48.340,0
216966.020,33.691,24.414,31.250,43.457,50.293,0
216966.024,38.574,16.113,41.504,45.410,47.363,0
216966.027,31.250,19.531,41.504,40.039,-1.465,0
216966.031,25.879,31.250,34.668,31.738,-7.324,0
216966.035,36.621,34.668,40.527,34.668,11.230,0
216966.039,36.133,24.902,39.551,35.156,11.230,0
216966.043,24.902,20.996,24.902,26.367,14.160,0
216966.047,29.785,31.738,27.344,28.320,30.762,2
216966.051,32.715,34.180,33.203,37.109,29.297,0
216966.055,33.203,31.250,23.438,37.598,62.012,0
216966.059,40.527,31.250,16.602,35.156,49.316,0
216966.063,38.574,24.414,21.484,27.832,39.551,0
216966.067,36.133,29.785,35.156,28.809,63.965,0
216966.070,36.621,26.855,40.527,29.297,30.273,0
216966.074,37.109,20.996,31.738,26.367,16.113,0
216966.078,45.898,39.551,26.367,41.992,44.434,0
216966.082,53.223,53.223,34.180,52.734,61.035,0
216966.086,44.434,41.016,36.133,43.945,36.133,0
216966.090,38.086,25.879,29.297,40.039,12.207,0
216966.094,42.969,28.320,27.832,43.945,4.883,0
216966.098,43.457,30.762,27.344,44.922,7.324,0
216966.102,40.527,27.344,19.043,42.480,39.551,0
216966.106,41.016,23.926,20.508,41.016,41.992,0
216966.110,39.062,24.902,33.203,38.574,27.832,0
216966.113,33.691,28.809,35.156,43.945,33.203,0
216966.117,35.156,32.715,36.133,51.758,45.898,0
216966.121,28.809,25.391,33.691,40.039,42.969,0
216966.125,20.996,14.160,24.414,32.227,35.645,0
216966.129,28.809,15.625,29.785,35.645,30.762,0
216966.133,35.645,20.996,33.203,40.527,55.664,0
216966.137,30.762,25.391,28.809,34.180,45.410,0
216966.141,19.043,25.879,35.645,20.508,32.715,0
216966.145,24.414,32.715,43.457,29.297,35.156,0
216966.149,39.062,41.504,30.762,44.434,13.672,0
216966.152,37.109,33.691,11.719,35.645,-14.648,0
216966.156,42.480,31.738,24.414,33.691,-22.949,0
216966.160,45.898,34.668,41.504,39.062,-23.926,0
216966.164,36.621,24.414,41.504,36.133,-3.418,0
216966.168,41.504,24.902,42.969,45.898,3.418,0
216966.172,45.410,28.809,40.527,49.316,38.086,0
216966.176,48.828,26.367,39.062,45.898,28.809,0
216966.180,51.270,29.297,41.504,51.270,-13.672,0
216966.184,43.945,34.180,32.227,56.152,14.648,0
216966.188,34.180,36.133,24.902,40.039,14.648,0
216966.192,26.855,30.762,20.996,26.367,11.719,0
216966.195,28.809,22.949,23.926,27.344,-5.371,0
216966.199,31.738,24.414,37.109,32.715,-39.551,0
216966.203,32.715,32.715,41.504,40.039,12.695,0
216966.207,31.738,39.062,30.273,39.062,34.180,0
216966.211,29.297,41.504,22.949,31.250,6.836,0
216966.215,37.109,41.504,25.391,35.156,31.738,0
216966.219,35.156,32.227,25.879,40.039,62.012,0
216966.223,25.879,26.855,25.391,35.156,44.922,0
216966.227,22.949,26.855,32.715,41.016,39.062,0
216966.231,22.461,23.926,43.457,34.180,42.480,0
216966.235,13.184,15.625,31.738,19.043,41.016,0
216966.238,11.230,11.719,19.531,21.484,57.129,0
216966.242,20.020,24.902,27.832,26.367,62.988,0
216966.246,25.391,33.203,44.922,42.969,40.527,0
216966.250,26.367,23.438,46.875,53.711,60.547,0
216966.254,27.832,18.066,22.949,37.109,65.430,0
216966.258,28.809,23.926,22.461,35.645,57.129,0
216966.262,28.809,25.879,41.504,38.086,42.969,0
216966.266,33.203,28.809,39.551,29.297,8.789,0
216966.270,37.598,34.180,37.109,44.434,31.738,0
216966.274,32.715,28.809,35.645,43.457,47.363,0
216966.277,29.785,23.926,20.508,21.973,36.133,0
216966.281,41.992,27.344,26.367,34.180,73.730,0
216966.285,39.551,22.461,38.574,37.598,66.895,0
216966.289,29.297,14.648,35.156,22.949,44.434,0
216966.293,31.738,20.020,29.785,25.879,65.918,0
216966.297,37.109,32.715,33.203,36.621,34.668,0
216966.301,37.109,34.668,33.691,37.109,14.160,0
216966.305,36.621,33.203,34.668,45.410,32.227,0
216966.309,37.109,31.250,37.109,50.293,43.457,0
216966.313,31.250,22.949,30.762,29.785,52.246,0
216966.317,23.438,18.555,28.320,18.555,52.734,0
216966.320,30.762,19.043,31.738,23.438,30.762,0
216966.324,38.086,21.484,26.855,32.715,9.766,0
216966.328,34.668,22.461,18.555,32.227,-22.949,0
216966.332,25.879,16.602,14.160,17.090,-31.250,0
216966.336,16.113,21.484,24.902,14.648,-3.418,0
216966.340,30.762,39.062,39.551,34.668,26.367,0
216966.344,36.621,39.062,50.293,45.898,47.363,0
216966.348,32.227,27.344,42.480,46.387,41.992,0
216966.352,34.180,21.484,26.855,32.227,35.645,0
216966.356,34.180,20.508,33.691,23.926,13.672,0
216966.360,39.551,24.414,36.133,28.320,13.672,0
216966.363,35.645,25.391,32.227,29.785,66.895,0
216966.367,40.039,34.180,35.645,34.180,50.293,0
216966.371,45.898,34.180,27.344,45.410,12.207,0
216966.375,34.668,25.391,17.090,38.086,18.555,0
216966.379,43.457,30.762,40.527,38.574,20.020,0
216966.383,51.758,29.297,59.570,56.641,51.270,0
216966.387,37.598,19.531,46.387,37.109,58.594,0
216966.391,33.691,26.367,40.039,24.414,49.805,0
216966.395,35.645,36.133,42.969,38.574,47.363,0
216966.399,31.738,34.180,30.762,32.227,34.180,0
216966.402,27.832,30.273,23.438,18.066,30.762,0
216966.406,32.227,24.414,37.598,22.461,48.340,0
216966.410,35.156,23.438,37.109,28.320,64.941,0
216966.414,28.809,31.250,29.297,30.762,49.805,0
216966.418,23.438,31.738,26.367,35.156,15.625,0
216966.422,31.738,29.297,33.203,42.969,-17.090,0
216966.426,40.039,29.785,54.688,35.645,1.953,0
216966.430,41.016,26.367,56.152,36.621,47.852,0
216966.434,41.016,23.926,44.434,41.504,39.551,0
216966.438,32.227,25.879,33.691,21.973,60.059,0
216966.442,28.809,32.715,31.250,20.996,94.727,0
216966.445,38.086,34.180,32.715,30.273,69.824,0
216966.449,35.645,33.691,28.320,20.996,63.965,0
216966.453,37.109,39.062,32.227,21.484,55.664,0
216966.457,47.852,43.457,35.645,37.598,50.781,0
216966.461,43.457,37.109,29.785,42.480,66.895,0
216966.465,38.574,34.180,28.320,42.480,56.641,0
216966.469,27.344,28.320,37.598,28.320,18.555,0
216966.473,28.809,27.832,49.805,36.133,29.785,0
216966.477,40.039,30.762,49.805,54.199,41.016,0
216966.481,28.809,22.949,35.156,44.922,26.855,0
216966.485,21.484,25.391,25.879,32.227,10.254,0
216966.488,27.832,26.855,28.809,33.691,30.762,0
216966.492,31.250,26.855,37.109,37.109,26.367,0
216966.496,33.691,30.273,45.898,30.273,20.508,0
216966.500,42.969,39.551,45.410,39.551,29.785,0
216966.504,40.039,41.016,37.109,52.246,4.883,0
216966.508,31.250,31.250,20.020,40.527,4.883,0
216966.512,31.250,27.344,30.762,37.109,17.578,0
216966.516,32.227,27.344,51.270,39.551,13.184,0
216966.520,34.180,25.879,43.457,36.133,21.973,0
216966.524,24.902,21.484,30.273,26.855,18.555,0
216966.527,25.391,29.297,24.414,26.855,-5.859,0
216966.531,35.645,33.203,26.367,27.832,26.367,0
216966.535,34.180,26.855,23.926,27.344,85.449,0
216966.539,32.227,27.832,20.020,30.762,83.496,0
216966.543,34.180,37.598,27.344,34.180,46.875,0
216966.547,40.527,41.992,36.133,43.457,6.348,0
216966.551,35.645,37.598,36.133,40.039,4.395,0
216966.555,25.391,33.691,30.762,31.738,38.086,0
216966.559,28.320,34.180,32.227,27.344,6.348,0
216966.563,26.855,27.832,31.250,20.020,27.832,0
216966.567,20.996,24.902,18.555,12.695,59.570,0
216966.570,23.926,31.738,18.555,14.160,39.551,0
216966.574,32.715,29.785,31.250,23.438,21.484,0
216966.578,28.809,21.484,39.551,29.297,15.137,0
216966.582,26.855,27.344,41.016,29.785,19.531,0
216966.586,36.621,36.133,36.621,28.809,13.184,0
216966.590,36.133,24.902,35.156,24.902,-11.719,0
216966.594,35.645,21.973,34.668,35.156,13.672,0
216966.598,37.598,33.203,29.785,51.758,63.477,0
216966.602,28.809,24.414,22.949,40.039,56.641,0
216966.606,26.367,12.207,25.391,30.273,43.945,0
216966.610,23.438,19.043,28.809,27.344,51.270,0
216966.613,28.809,32.715,39.551,31.250,60.547,0
216966.617,36.133,31.738,41.016,37.109,25.391,0
216966.621,33.691,33.203,40.039,32.227,11.230,0
216966.625,32.227,38.086,36.133,38.574,45.410,0
216966.629,43.945,35.156,28.320,50.293,39.551,0
216966.633,41.016,30.273,35.645,41.992,38.574,0
216966.637,17.578,18.555,37.598,17.578,15.137,0
216966.641,15.625,14.648,25.391,15.137,57.129,0
216966.645,25.391,18.066,17.090,22.949,104.980,2
216966.649,27.344,20.508,18.555,21.973,31.250,0
216966.652,34.180,34.668,15.137,40.527,51.270,0
216966.656,43.945,42.480,26.367,56.152,89.844,0
216966.660,53.223,47.363,42.480,40.039,25.879,0
216966.664,59.082,51.758,40.039,41.504,22.461,0
216966.668,43.457,35.645,28.320,40.039,49.805,0
216966.672,30.762,24.414,24.902,27.344,50.293,0
216966.676,37.109,28.809,34.668,28.809,40.527,0
216966.680,37.598,32.227,34.180,29.785,11.719,0
216966.684,28.320,25.879,24.902,23.926,17.090,0
216966.688,28.320,17.090,15.625,30.762,51.758,0
216966.692,38.086,15.625,11.719,36.621,37.598,0
216966.695,41.016,28.320,23.926,33.203,29.785,0
216966.699,38.086,40.527,30.273,38.086,34.668,0
216966.703,44.434,43.457,33.691,61.035,37.109,0
216966.707,48.340,41.992,40.527,50.293,-0.488,0
216966.711,35.645,34.668,35.645,29.297,20.508,0
216966.715,30.273,23.926,30.273,35.645,101.074,0
216966.719,33.691,26.367,39.551,34.180,93.750,0
216966.723,23.926,30.762,38.086,20.508,56.641,0
216966.727,23.926,31.250,25.391,18.066,72.266,0
216966.731,27.832,29.785,16.602,26.367,83.496,0
216966.735,26.367,23.926,19.531,23.926,19.043,0
216966.738,31.250,26.855,37.109,26.367,5.371,0
216966.742,33.691,24.414,40.527,32.715,25.879,0
216966.746,38.086,24.902,34.668,36.621,15.137,0
216966.750,39.062,37.598,30.273,39.062,-5.859,0
216966.754,35.645,39.062,20.020,37.598,-22.949,0
216966.758,29.297,28.809,20.020,26.855,-15.137,0
216966.762,26.855,25.879,27.832,22.461,14.160,0
216966.766,32.227,27.832,19.043,37.109,33.691,0
216966.770,24.414,21.973,17.578,39.062,20.996,0
216966.774,19.043,15.625,30.273,27.344,22.949,0
216966.777,26.855,21.973,35.156,23.438,19.531,0
216966.781,28.809,25.391,31.250,24.414,11.230,0
216966.785,32.715,31.738,34.668,36.133,36.133,0
216966.789,34.668,38.574,43.945,43.945,72.266,0
216966.793,23.926,19.531,38.574,35.645,23.438,0
216966.797,15.137,6.836,25.879,22.461,-58.594,0
216966.801,24.414,22.949,24.414,26.367,-31.738,0
216966.805,38.086,33.691,28.320,42.969,-6.348,0
216966.809,35.645,24.414,29.297,37.598,-6.836,0
216966.813,23.438,18.555,25.879,31.738,30.273,0
216966.817,26.855,28.809,22.461,37.598,24.414,0
216966.820,25.879,26.367,30.273,26.855,18.066,0
216966.824,26.855,20.996,41.992,27.344,32.227,0
216966.828,40.527,31.738,45.898,44.922,16.602,0
216966.832,51.758,38.574,44.922,56.152,41.016,0
216966.836,43.457,30.762,38.574,55.176,40.039,0
216966.840,31.250,23.438,26.855,37.598,-10.254,0
216966.844,35.645,25.879,12.207,25.879,-24.902,0
216966.848,40.039,27.832,13.184,31.250,39.062,0
216966.852,36.133,30.762,28.320,36.133,61.035,0
216966.856,31.738,33.691,34.180,30.762,12.695,0
216966.860,30.762,27.832,34.668,28.809,-14.160,0
216966.863,32.715,25.391,39.062,38.086,-2.441,0
216966.867,38.574,31.250,47.363,44.922,18.555,0
216966.871,35.645,28.809,40.039,49.805,7.812,0
216966.875,26.367,24.414,27.344,34.668,9.766,0
216966.879,25.879,25.879,35.156,26.367,54.688,0
216966.883,30.273,24.414,31.738,35.156,57.129,0
216966.887,24.414,17.578,20.508,34.180,21.484,0
216966.891,25.391,21.484,32.715,35.645,13.672,0
216966.895,26.855,25.879,36.621,40.039,30.762,0
216966.899,15.137,15.137,25.391,29.297,22.461,0
216966.902,14.160,11.719,20.508,23.926,-7.324,0
216966.906,25.391,27.344,35.645,26.367,13.184,0
216966.910,24.414,32.227,44.922,22.461,8.789,0
216966.914,23.438,31.738,34.668,32.715,-1.465,0
216966.918,35.645,36.133,42.969,45.898,40.039,0
216966.922,30.762,22.461,47.363,30.273,46.875,0
216966.926,22.949,15.137,41.016,24.414,37.598,0
216966.930,30.273,25.391,41.016,39.062,16.113,0
216966.934,30.273,29.785,32.227,32.227,12.207,0
216966.938,29.785,29.785,16.602,29.785,35.156,0
216966.942,33.691,31.738,14.648,41.992,32.715,0
216966.945,34.180,33.691,25.391,34.180,13.672,0
216966.949,34.180,30.762,39.062,23.926,12.207,0
216966.953,36.133,31.250,50.293,33.203,43.457,0
216966.957,30.762,31.250,43.945,36.621,46.875,0
216966.961,32.227,29.785,32.715,31.738,23.438,0
216966.965,38.574,32.227,31.250,39.551,10.742,0
216966.969,38.574,36.621,31.250,47.363,34.180,0
216966.973,42.480,37.598,30.762,40.527,33.691,0
216966.977,40.527,29.785,28.809,31.250,0.000,0
216966.981,33.691,29.785,21.484,33.203,22.949,0
216966.985,37.109,33.691,29.785,41.992,17.090,0
216966.988,44.434,39.062,40.527,45.898,-21.973,0
216966.992,38.086,39.551,35.645,29.785,-15.137,0
216966.996,35.645,41.016,39.062,27.832,-17.090,0
216967.000,39.062,34.180,47.852,40.039,-24.902,0
216967.004,41.504,15.625,42.969,45.410,-11.719,0
216967.008,46.875,20.020,41.504,54.199,24.414,0
216967.012,47.852,30.273,37.109,60.059,48.828,0
216967.016,42.480,32.227,28.809,55.176,55.176,0
216967.020,41.504,33.691,33.691,50.781,55.664,0
216967.024,39.062,29.297,41.016,48.340,49.805,0
216967.027,40.527,23.438,38.086,46.387,41.992,0
216967.031,42.969,18.555,36.621,41.504,9.277,0
216967.035,38.574,20.508,36.621,40.039,7.324,0
216967.039,45.898,30.762,40.039,42.480,17.578,0
216967.043,48.340,33.691,37.109,41.992,1.465,0
216967.047,39.062,34.668,26.855,38.086,-12.207,0
216967.051,33.691,31.738,16.113,32.227,-31.250,0
216967.055,30.273,25.391,20.996,32.227,40.527,0
216967.059,27.344,22.949,35.156,25.391,78.125,0
216967.063,28.320,23.438,41.016,23.926,10.742,0
216967.067,29.297,18.555,33.691,22.949,22.949,0
216967.070,34.180,14.648,24.902,20.508,64.453,0
216967.074,37.109,22.949,21.484,36.133,27.832,0
216967.078,39.551,28.809,20.020,38.086,0.977,0
216967.082,39.062,30.273,22.949,25.879,30.273,0
216967.086,38.086,35.156,32.715,27.344,59.082,0
216967.090,41.504,40.527,43.945,32.227,104.492,0
216967.094,41.992,44.434,40.527,35.645,94.238,0
216967.098,38.086,33.691,36.133,27.344,68.848,0
216967.102,28.809,20.020,39.551,16.602,106.934,0
216967.106,28.320,22.949,36.133,31.250,92.773,0
216967.110,34.668,34.180,23.926,33.691,71.777,0
216967.113,41.016,40.527,20.508,24.902,87.402,0
216967.117,40.527,32.715,23.926,31.738,98.633,0
216967.121,35.156,26.367,20.020,33.203,103.516,0
216967.125,31.250,23.926,23.926,31.738,95.215,0
216967.129,35.645,27.344,33.691,33.203,79.590,0
216967.133,47.852,37.109,41.016,47.852,75.684,0
216967.137,48.340,32.227,41.992,50.781,69.824,0
216967.141,41.992,28.320,33.203,46.387,50.781,0
216967.145,34.668,29.785,28.809,34.180,57.617,0
216967.149,37.109,26.855,36.621,32.715,70.312,0
216967.152,48.828,30.762,35.645,48.340,46.387,0
216967.156,45.898,32.715,32.715,57.129,51.270,0
216967.160,36.133,25.879,23.926,42.480,51.270,0
216967.164,32.715,20.508,24.414,33.691,15.625,0
216967.168,37.598,26.367,41.016,46.387,-11.719,0
216967.172,37.109,26.367,41.992,39.062,-32.715,0
216967.176,37.598,29.297,31.738,40.039,20.020,0
216967.180,43.457,33.691,31.738,58.594,67.383,0
216967.184,32.227,20.996,39.551,49.316,36.133,0
216967.188,30.762,23.926,44.434,38.574,34.180,0
216967.192,41.992,34.180,40.527,43.457,42.969,0
216967.195,35.645,29.297,35.156,41.016,49.316,0
216967.199,27.344,18.555,29.785,30.273,80.078,0
216967.203,26.855,22.461,29.785,44.922,74.219,1
216967.207,27.344,29.785,22.461,48.340,44.922,0
216967.211,30.273,28.320,22.461,20.508,59.570,0
216967.215,35.156,22.949,36.621,16.113,25.879,0
216967.219,27.344,28.320,45.898,19.531,-23.438,0
216967.223,27.344,34.180,49.805,28.320,12.207,0
216967.227,33.203,24.902,41.016,29.785,38.086,0
216967.231,31.738,22.949,25.391,23.926,25.391,0
216967.235,33.691,26.855,12.207,31.250,34.668,0
216967.238,38.086,23.438,26.367,42.480,65.918,0
216967.242,35.156,23.926,42.480,44.922,25.879,0
216967.246,30.273,27.344,40.039,38.086,-29.297,0
216967.250,31.250,25.879,33.691,33.691,-31.738,0
216967.254,38.574,25.879,30.273,35.156,-24.414,0
216967.258,47.852,35.156,34.180,43.945,4.883,0
216967.262,46.387,41.504,41.016,47.363,20.020,0
216967.266,40.039,31.250,33.203,45.410,30.762,0
216967.270,34.668,25.879,20.996,44.922,38.086,0
216967.274,30.762,33.203,28.809,33.203,43.945,0
216967.277,25.879,30.273,37.598,18.555,-0.977,0
216967.281,24.414,26.367,42.480,23.438,-14.648,0
216967.285,26.367,30.273,46.387,37.598,-1.953,0
216967.289,28.809,23.926,43.945,37.109,-2.930,0
216967.293,30.762,20.020,35.645,32.715,-2.441,0
216967.297,25.391,31.738,20.020,42.480,-1.465,0
216967.301,28.320,36.133,20.020,43.457,16.113,0
216967.305,44.434,37.109,36.621,40.527,9.277,0
216967.309,49.316,48.828,42.480,35.645,0.977,0
216967.313,35.156,50.781,46.875,35.645,34.180,0
216967.317,20.020,34.180,51.270,32.227,51.270,0
216967.320,18.066,20.020,40.527,26.367,67.383,0
216967.324,32.715,22.949,29.297,37.598,37.109,0
216967.328,30.762,27.832,40.039,36.621,49.805,0
216967.332,20.020,18.555,50.781,22.949,83.496,0
216967.336,32.227,22.949,42.480,25.879,63.477,0
216967.340,39.062,37.598,28.320,38.086,34.180,0
216967.344,34.668,39.551,22.949,30.762,15.137,0
216967.348,40.527,41.016,31.250,36.621,31.250,0
216967.352,46.387,38.574,48.340,44.434,60.059,0
216967.356,48.340,40.039,58.594,35.645,49.316,0
216967.360,48.340,42.480,51.758,33.203,39.062,0
216967.363,37.598,35.156,35.156,25.391,28.320,0
216967.367,29.297,27.344,33.203,26.855,-4.395,0
216967.371,33.203,27.344,38.086,40.039,27.344,0
216967.375,31.250,26.855,26.855,40.039,84.473,0
216967.379,40.527,32.715,25.879,44.922,87.891,0
216967.383,48.828,44.434,37.109,43.945,56.152,0
216967.387,44.922,45.410,41.016,48.828,32.715,0
216967.391,40.527,36.133,40.527,42.480,47.363,0
216967.395,36.133,32.715,34.180,26.855,59.082,0
216967.399,37.598,38.086,34.668,36.621,29.785,0
216967.402,41.504,31.250,39.062,38.086,39.062,0
216967.406,40.527,28.320,35.156,31.250,70.312,0
216967.410,41.016,37.598,33.691,36.621,82.031,0
216967.414,41.016,36.133,31.738,36.133,54.688,0
216967.418,42.969,27.344,31.738,43.945,17.578,0
216967.422,42.480,26.367,34.668,50.293,29.297,0
216967.426,39.551,35.156,37.598,37.109,35.156,0
216967.430,32.715,34.668,47.363,28.809,7.324,0
216967.434,31.250,34.668,52.246,34.180,14.648,0
216967.438,33.691,36.133,43.457,36.133,18.066,0
216967.442,31.250,33.691,41.992,34.668,0.488,0
216967.445,35.645,39.062,46.387,44.922,12.695,0
216967.449,45.410,39.062,38.574,54.688,43.945,0
216967.453,38.574,25.879,24.902,49.316,18.555,0
216967.457,27.344,15.137,19.531,47.852,-28.320,0
216967.461,31.738,18.066,29.297,50.781,-18.555,0
216967.465,34.180,20.508,32.715,41.504,-5.371,0
216967.469,32.715,24.414,39.062,34.180,-26.367,0
216967.473,39.551,28.320,44.922,43.457,-36.133,0
216967.477,42.969,32.227,38.574,53.223,-2.441,0
216967.481,34.180,32.227,35.645,44.922,-10.742,0
216967.485,30.762,30.273,37.598,33.691,-10.742,0
216967.488,38.086,31.250,33.691,41.504,31.738,0
216967.492,35.645,24.902,19.531,33.691,-12.695,0
216967.496,27.832,23.438,17.578,20.508,-22.949,0
216967.500,34.180,24.414,22.949,26.367,-4.883,0
216967.504,37.598,20.020,21.484,30.762,-22.949,0
216967.508,30.762,22.461,24.902,33.691,10.254,0
216967.512,20.020,20.996,27.832,15.137,5.859,0
216967.516,18.555,12.207,31.738,16.602,1.465,0
216967.520,28.320,17.090,35.645,31.738,17.090,0
216967.524,34.180,31.738,32.715,32.715,6.836,0
216967.527,33.691,30.762,32.227,34.180,1.953,0
216967.531,29.297,26.855,25.391,29.785,-18.555,0
216967.535,23.926,23.438,18.066,23.926,-20.508,0
216967.539,26.367,24.902,29.785,31.250,29.297,0
216967.543,29.785,23.926,33.691,35.156,17.578,0
216967.547,25.391,15.625,21.973,23.438,-62.500,0
216967.551,25.391,19.531,18.555,26.855,-33.691,0
216967.555,28.809,23.438,28.809,40.527,47.852,0
216967.559,30.273,22.949,30.762,40.039,-17.090,0
216967.563,42.969,24.414,27.344,42.480,-58.105,0
216967.567,48.828,23.926,30.762,36.133,-19.531,0
216967.570,34.668,20.020,28.809,27.832,15.137,0
216967.574,29.297,21.484,29.297,23.926,-23.438,0
216967.578,28.320,30.273,32.715,23.926,-35.156,0
216967.582,29.297,35.645,37.598,29.297,17.090,0
216967.586,36.133,35.645,33.691,43.457,8.789,0
216967.590,30.762,25.879,17.090,35.156,-6.348,0
216967.594,31.250,25.879,18.555,24.902,-12.695,0
216967.598,38.574,29.785,27.344,43.457,10.254,0
216967.602,35.645,24.902,31.738,41.016,12.695,0
216967.606,35.156,24.902,35.156,25.879,17.090,0
216967.610,31.250,27.832,27.832,28.320,23.438,0
216967.613,22.461,21.484,30.273,24.414,22.461,0
216967.617,25.391,15.625,32.227,18.066,31.738,0
216967.621,27.832,15.625,32.227,23.438,31.738,0
216967.625,22.949,13.184,34.180,26.855,30.273,0
216967.629,27.832,22.461,28.320,26.367,29.297,0
216967.633,31.738,40.039,26.855,30.273,23.438,0
216967.637,33.203,42.969,20.020,34.180,20.996,0
216967.641,32.715,34.180,5.859,27.344,35.645,0
216967.645,34.180,35.156,12.207,26.855,39.062,0
216967.649,37.109,37.109,27.344,44.434,31.250,0
216967.652,33.691,31.738,31.250,44.434,6.836,0
216967.656,28.320,16.602,35.645,19.043,-3.906,0
216967.660,29.297,7.812,41.016,26.855,43.945,0
216967.664,36.133,15.137,34.668,33.203,17.090,0
216967.668,35.156,24.902,14.160,19.531,-33.203,0
216967.672,34.180,32.227,15.137,20.020,50.293,0
216967.676,37.109,39.062,31.250,29.785,95.703,0
216967.680,41.992,39.551,34.180,33.691,74.219,0
216967.684,37.598,28.809,32.715,25.391,68.359,0
216967.688,24.902,16.113,33.203,26.855,51.758,0
216967.692,22.949,19.531,35.156,30.273,41.016,0
216967.695,23.438,29.297,34.180,22.461,27.344,0
216967.699,23.926,32.715,34.668,23.926,29.785,0
216967.703,27.832,33.203,33.203,34.180,93.750,0
216967.707,16.113,18.555,24.902,23.438,122.070,0
216967.711,16.113,13.184,21.484,18.066,60.547,0
216967.715,27.344,14.648,25.391,24.902,31.250,0
216967.719,31.250,18.066,30.273,36.133,48.340,0
216967.723,37.598,28.809,31.738,45.898,26.367,0
216967.727,40.039,29.297,37.598,38.574,16.602,0
216967.731,36.621,28.320,34.668,31.250,-4.883,0
216967.735,26.367,21.484,27.832,24.414,20.508,0
216967.738,22.461,15.625,28.809,20.508,59.570,2
216967.742,23.926,24.414,30.273,19.043,29.785,0
216967.746,23.926,24.414,29.297,21.973,51.270,0
216967.750,19.531,20.996,20.508,24.414,24.414,0
216967.754,24.414,25.879,23.926,25.391,5.859,0
216967.758,32.227,27.344,22.461,36.133,28.320,0
216967.762,34.180,20.996,17.090,47.363,49.805,0
216967.766,39.551,19.531,38.574,44.922,89.355,0
216967.770,42.969,21.973,47.363,41.992,62.500,0
216967.774,35.156,22.461,44.434,32.715,22.949,0
216967.777,22.461,25.391,39.551,17.578,-8.301,0
216967.781,19.043,32.227,35.156,19.043,-16.113,0
216967.785,16.113,31.738,27.832,10.254,-17.090,0
216967.789,17.578,26.367,22.461,13.184,-30.762,0
216967.793,20.508,25.879,35.645,27.832,33.691,0
216967.797,16.602,28.809,40.039,26.367,50.781,0
216967.801,20.996,29.297,20.508,26.367,29.297,0
216967.805,27.344,27.344,10.742,21.484,25.879,0
216967.809,30.762,31.250,21.973,30.762,5.371,0
216967.813,29.297,33.203,30.273,36.621,19.531,0
216967.817,19.531,17.578,37.598,23.926,29.297,0
216967.820,19.043,2.930,42.480,16.113,10.742,0
216967.824,25.391,11.230,38.574,27.832,17.578,0
216967.828,28.320,27.344,35.645,28.320,41.992,0
216967.832,28.809,27.832,36.621,15.625,20.020,0
216967.836,26.855,26.367,32.715,18.066,-6.836,0
216967.840,23.926,25.879,25.879,37.109,21.484,0
216967.844,20.996,19.531,16.113,46.875,18.555,0
216967.848,20.996,22.461,20.508,31.738,-17.090,0
216967.852,27.832,23.438,41.016,27.832,-0.977,0
216967.856,27.344,19.043,47.363,28.809,1.953,0
216967.860,30.273,26.855,46.387,29.297,4.883,0
216967.863,24.414,29.785,47.852,26.855,35.645,0
216967.867,18.066,27.344,39.062,20.996,45.898,0
216967.871,32.715,33.691,34.668,33.691,49.805,0
216967.875,28.320,26.367,22.461,33.691,46.387,0
216967.879,20.996,19.531,19.043,20.996,47.852,0
216967.883,25.391,21.973,33.691,23.438,50.781,0
216967.887,26.367,22.949,28.809,38.086,55.176,0
216967.891,29.785,28.320,28.809,41.992,72.266,0
216967.895,31.250,26.855,40.039,29.297,71.777,0
216967.899,30.762,26.855,39.551,27.344,52.246,0
216967.902,30.762,25.879,29.297,31.738,38.086,0
216967.906,29.785,23.926,32.715,35.645,20.020,0
216967.910,37.598,34.180,53.711,42.480,17.578,0
216967.914,39.551,36.621,46.875,38.574,59.082,0
216967.918,31.738,30.762,31.738,32.715,62.012,0
216967.922,31.738,28.809,29.785,27.832,0.977,0
216967.926,34.668,20.508,33.203,28.809,17.578,0
216967.930,32.715,19.531,37.109,37.598,49.316,0
216967.934,26.855,20.020,30.273,29.785,47.363,0
216967.938,28.809,23.438,20.996,37.598,41.992,0
216967.942,30.762,30.762,15.137,36.621,27.832,0
216967.945,34.180,27.344,28.809,26.855,41.992,0
216967.949,43.457,24.414,43.457,39.062,18.066,0
216967.953,43.457,36.621,39.551,45.410,15.625,0
216967.957,38.574,41.992,33.691,45.410,22.461,0
216967.961,35.645,31.250,29.297,46.875,14.648,0
216967.965,30.762,26.367,16.602,36.133,-26.367,0
216967.969,26.855,22.461,13.184,22.461,-94.238,0
216967.973,30.273,14.160,26.855,25.391,-84.961,0
216967.977,42.480,16.602,34.180,41.504,-63.477,0
216967.981,44.922,28.809,31.250,42.969,-46.387,0
216967.985,41.504,32.715,29.785,40.527,-24.902,0
216967.988,47.363,34.180,38.086,54.199,5.371,0
216967.992,54.688,38.086,40.039,58.105,34.180,0
216967.996,47.363,27.832,25.391,46.387,40.039,0
216968.000,38.086,21.973,20.508,34.180,48.340,0
216968.004,33.203,20.508,24.414,26.855,44.922,0
216968.008,27.344,20.020,28.809,28.809,14.160,0
216968.012,29.297,24.414,37.598,29.297,-2.930,0
216968.016,37.598,34.668,36.621,37.109,-22.949,0
216968.020,42.969,37.109,23.438,43.457,-11.230,0
216968.024,35.156,17.090,17.578,32.227,20.996,0
216968.027,29.297,3.418,24.902,28.320,13.184,0
216968.031,31.738,14.160,38.086,37.109,18.066,0
216968.035,33.691,25.391,43.945,46.387,33.691,0
216968.039,41.016,31.738,35.645,38.574,18.555,0
216968.043,47.363,32.227,27.832,31.250,3.906,0
216968.047,40.527,25.879,36.133,36.621,41.504,0
216968.051,32.227,26.855,33.203,39.062,80.078,0
216968.055,34.668,25.391,21.973,43.945,65.918,0
216968.059,41.504,20.508,24.414,41.992,66.406,0
216968.063,49.316,27.832,26.855,41.504,83.496,0
216968.067,46.875,34.180,38.086,45.410,66.895,0
216968.070,39.551,30.762,47.363,45.410,27.832,0
216968.074,42.480,21.973,42.480,49.805,23.438,0
216968.078,33.691,10.254,32.227,41.992,77.637,0
216968.082,31.738,20.508,23.926,34.668,88.379,0
216968.086,34.180,28.809,24.414,27.832,57.129,0
216968.090,28.320,23.438,24.414,26.855,86.426,0
216968.094,34.180,23.926,26.855,32.715,101.074,0
216968.098,44.922,24.902,29.785,37.109,70.312,0
216968.102,52.734,24.902,22.949,47.852,51.270,0
216968.106,53.223,29.297,18.555,43.945,54.199,0
216968.110,45.410,33.203,23.438,33.691,36.621,0
216968.113,39.551,29.297,22.949,34.668,22.949,0
216968.117,42.969,30.273,20.508,30.762,7.812,0
216968.121,42.480,33.691,28.809,24.902,45.898,0
216968.125,39.062,31.738,35.645,37.598,64.453,0
216968.129,37.598,31.250,31.250,45.898,47.363,0
216968.133,26.367,19.531,23.438,26.855,50.781,0
216968.137,23.438,13.672,29.297,22.949,52.734,0
216968.141,27.832,21.484,33.691,31.250,66.895,0
216968.145,27.344,25.391,22.949,23.438,87.402,0
216968.149,20.508,27.832,22.949,14.160,38.574,0
216968.152,23.438,29.785,26.855,21.484,30.273,0
216968.156,28.809,33.691,17.090,29.785,99.121,0
216968.160,28.320,32.715,17.090,25.391,85.449,0
216968.164,29.297,25.391,38.574,21.484,83.496,0
216968.168,24.414,30.273,54.199,30.273,144.531,0
216968.172,25.879,36.133,45.410,44.434,153.320,0
216968.176,20.996,20.508,27.832,28.320,104.980,0
216968.180,12.207,17.090,32.715,10.742,89.844,0
216968.184,11.230,34.668,49.805,4.395,99.121,0
216968.188,5.859,36.621,55.664,2.441,98.633,0
216968.192,-0.977,36.133,49.805,-0.488,84.473,0
216968.195,-4.395,36.133,41.016,-6.836,63.477,0
216968.199,-10.254,34.668,37.109,-11.719,50.781,0
216968.203,-10.742,37.598,37.598,-11.230,9.277,0
216968.207,-3.906,43.457,35.156,-14.648,-2.930,0
216968.211,-0.488,53.711,21.484,-19.531,2.930,0
216968.215,-19.043,52.734,28.809,-31.738,20.996,0
216968.219,-40.039,52.246,44.434,-46.387,10.254,0
216968.223,-37.109,64.453,43.457,-37.598,13.184,0
216968.227,-48.828,62.500,43.457,-40.039,39.551,0
216968.231,-74.707,49.316,49.805,-65.430,56.641,0
216968.235,-84.473,51.758,55.176,-81.543,67.383,0
216968.238,-83.496,59.082,62.500,-83.008,50.781,0
216968.242,-87.891,52.246,64.453,-88.379,15.625,0
216968.246,-95.215,50.781,49.805,-94.727,-10.742,0
