timestamps,TP9,AF7,AF8,TP10,Right AUX,Marker0
216567.445,41.016,37.598,21.973,33.203,76.172,2
216567.449,35.645,33.203,10.742,23.926,63.477,0
216567.453,22.949,19.531,16.113,31.738,51.270,0
216567.457,24.414,15.137,33.691,47.363,34.668,0
216567.461,26.367,24.414,41.016,40.039,28.809,0
216567.465,28.320,31.250,41.016,34.180,41.992,0
216567.469,29.785,27.832,38.086,42.969,46.875,0
216567.473,37.598,33.691,37.598,39.551,70.312,0
216567.477,40.527,34.180,31.250,36.621,78.613,0
216567.481,30.273,23.926,23.438,34.180,1.953,0
216567.485,29.297,16.602,18.555,26.855,7.324,0
216567.488,33.691,14.160,17.090,27.344,62.988,0
216567.492,40.527,25.879,25.391,35.645,57.617,0
216567.496,49.316,35.645,32.715,53.223,58.594,0
216567.500,31.738,32.715,36.621,41.504,13.672,0
216567.504,10.742,35.645,35.156,16.113,9.766,0
216567.508,14.160,41.504,38.086,16.113,42.480,0
216567.512,13.672,30.762,34.668,16.113,36.133,0
216567.516,19.531,25.879,33.203,26.855,24.414,0
216567.520,21.484,20.996,29.785,36.133,3.906,0
216567.524,13.184,17.578,17.578,14.648,-5.371,0
216567.527,17.090,23.926,23.438,13.672,-16.113,0
216567.531,20.020,25.879,29.785,17.090,17.578,0
216567.535,14.160,22.949,20.996,24.902,28.809,0
216567.539,18.555,16.602,22.461,44.922,23.438,0
216567.543,26.367,11.719,27.832,29.297,48.340,0
216567.547,21.973,24.902,30.273,19.531,43.945,0
216567.551,31.738,43.457,39.551,24.414,12.207,0
216567.555,37.109,41.016,31.250,29.785,3.418,0
216567.559,34.180,34.668,21.973,35.645,29.785,0
216567.563,37.109,25.879,25.391,37.598,9.766,0
216567.567,36.621,25.391,32.715,29.785,1.953,0
216567.570,39.551,33.203,37.109,26.367,-35.156,0
216567.574,28.320,24.414,27.344,40.039,-23.926,0
216567.578,35.156,18.555,15.625,51.270,7.324,0
216567.582,34.180,19.531,14.648,39.062,-14.648,0
216567.586,16.602,19.531,23.438,28.320,17.578,0
216567.590,27.344,29.297,40.527,38.086,32.227,0
216567.594,34.180,25.391,39.551,43.945,3.418,0
216567.598,31.250,16.113,20.996,34.180,1.953,0
216567.602,35.156,28.320,23.926,35.645,48.828,0
216567.606,34.180,35.645,28.809,44.922,75.684,0
216567.610,32.715,30.273,23.926,42.969,62.012,0
216567.613,29.785,32.715,28.320,33.691,25.391,0
216567.617,26.367,30.273,30.273,35.156,29.297,0
216567.621,34.180,26.855,20.020,49.316,67.383,0
216567.625,38.086,25.391,15.137,46.387,49.805,0
216567.629,29.785,16.113,20.996,38.086,11.719,0
216567.633,25.391,19.531,24.902,40.527,6.836,0
216567.637,35.645,29.785,25.879,43.457,41.504,0
216567.641,55.176,36.621,24.414,49.805,71.289,0
216567.645,53.223,33.203,20.020,41.992,66.895,0
216567.649,43.457,29.297,17.090,34.668,82.520,0
216567.652,41.992,36.133,31.738,41.016,83.496,0
216567.656,33.691,30.762,31.738,42.969,97.168,0
216567.660,38.574,26.367,23.926,38.086,49.805,0
216567.664,46.387,25.879,30.762,47.363,29.785,0
216567.668,47.363,22.461,29.785,59.570,79.590,0
216567.672,49.316,29.297,24.414,55.664,61.035,0
216567.676,44.434,32.715,29.785,49.805,55.664,0
216567.680,40.039,26.855,38.574,54.199,52.734,0
216567.684,44.434,24.902,37.109,57.617,35.645,0
216567.688,52.246,34.180,27.832,47.363,20.996,0
216567.692,48.340,28.320,30.762,40.527,-19.043,0
216567.695,35.645,21.484,36.133,36.621,10.254,0
216567.699,42.969,40.039,41.504,43.945,37.109,0
216567.703,43.457,47.363,41.504,41.504,18.555,0
216567.707,40.039,39.551,36.133,38.574,1.465,0
216567.711,42.969,34.668,29.297,41.504,39.062,0
216567.715,30.762,24.414,14.160,41.992,46.875,0
216567.719,20.508,17.578,19.043,32.227,20.508,0
216567.723,33.691,21.484,19.531,23.438,30.273,0
216567.727,35.156,27.832,14.648,30.273,52.734,0
216567.731,25.391,22.461,25.879,30.762,74.219,0
216567.735,26.855,18.555,39.551,22.949,59.570,0
216567.738,20.020,28.320,35.645,24.414,24.902,0
216567.742,19.531,33.203,30.273,31.738,37.598,0
216567.746,33.203,39.062,28.320,35.156,48.828,0
216567.750,44.922,49.316,29.297,46.875,33.691,0
216567.754,46.387,35.156,27.832,51.758,34.180,0
216567.758,47.852,19.531,29.297,42.480,19.043,0
216567.762,45.898,23.438,31.738,35.156,18.066,0
216567.766,36.621,32.715,27.832,33.203,34.180,0
216567.770,31.250,36.133,30.762,21.973,62.012,0
216567.774,35.645,34.668,32.227,29.785,83.496,0
216567.777,35.645,32.715,28.320,41.016,60.059,0
216567.781,32.715,28.809,25.391,31.738,57.617,0
216567.785,35.645,20.508,26.367,35.645,95.215,0
216567.789,37.598,28.809,24.902,38.086,76.660,0
216567.793,27.344,39.551,25.879,30.762,19.531,0
216567.797,17.090,36.133,32.715,21.973,-4.883,0
216567.801,13.672,33.691,35.156,17.090,21.973,0
216567.805,25.391,35.156,26.367,29.297,31.250,0
216567.809,34.180,34.668,20.508,42.969,53.223,0
216567.813,35.156,33.203,29.297,36.621,57.129,0
216567.817,35.156,33.691,39.551,38.574,42.969,0
216567.820,39.062,26.855,30.273,40.039,30.273,0
216567.824,45.898,30.273,15.137,36.621,37.109,0
216567.828,43.945,46.387,19.531,37.598,46.875,0
216567.832,41.992,43.457,26.855,38.574,39.551,0
216567.836,43.457,21.973,34.180,32.715,14.648,0
216567.840,37.109,20.020,45.898,32.715,6.836,0
216567.844,30.762,25.879,38.086,35.156,64.453,0
216567.848,38.086,21.484,28.809,39.551,90.820,0
216567.852,38.086,27.832,29.297,45.898,52.734,0
216567.856,34.668,31.250,27.344,41.992,2.930,0
216567.860,42.480,28.320,29.297,44.922,59.570,0
216567.863,46.387,36.621,20.508,51.758,88.379,0
216567.867,35.645,43.457,18.555,39.062,37.598,0
216567.871,24.414,36.133,24.414,30.762,53.711,0
216567.875,27.344,27.344,25.879,38.574,78.125,0
216567.879,42.969,36.621,27.832,42.480,57.617,0
216567.883,44.922,37.109,23.438,40.527,48.828,0
216567.887,32.227,21.973,25.391,43.945,62.012,0
216567.891,32.227,18.555,33.691,41.504,55.664,0
216567.895,23.926,10.254,38.086,30.273,23.926,0
216567.899,19.531,6.836,36.621,20.508,1.953,0
216567.902,27.344,28.809,29.297,19.531,5.859,0
216567.906,24.414,39.062,24.414,22.461,32.227,0
216567.910,25.879,27.344,20.508,24.902,24.902,0
216567.914,29.785,27.832,17.578,31.738,27.344,0
216567.918,39.551,41.016,22.949,43.945,48.340,2
216567.922,55.664,44.434,16.113,48.828,23.926,0
216567.926,46.875,36.621,20.996,39.551,0.488,0
216567.930,25.391,29.785,34.180,33.691,17.090,0
216567.934,22.949,28.320,29.297,25.391,30.273,0
216567.938,29.785,20.508,31.738,18.555,6.348,0
216567.942,32.715,8.301,28.320,30.762,7.324,0
216567.945,29.785,17.090,18.555,23.926,67.383,0
216567.949,29.785,28.809,18.555,17.578,50.293,0
216567.953,32.227,26.367,11.719,31.738,12.695,0
216567.957,46.875,41.016,15.625,44.434,10.742,0
216567.961,50.781,43.457,35.645,48.828,25.879,0
216567.965,45.410,24.414,38.574,44.922,48.828,0
216567.969,39.062,22.461,24.414,44.922,36.621,0
216567.973,36.621,30.762,13.184,43.945,37.598,0
216567.977,44.922,25.391,16.602,41.016,34.668,0
216567.981,35.645,14.160,22.461,33.203,64.941,0
216567.985,25.391,14.648,28.320,29.785,91.309,0
216567.988,29.785,17.090,31.738,31.250,55.176,0
216567.992,29.297,20.020,24.414,23.438,34.668,0
216567.996,23.438,22.461,22.461,24.414,35.156,0
216568.000,29.785,20.020,34.180,42.480,46.387,0
216568.004,27.344,27.832,34.668,42.969,2.441,0
216568.008,32.227,42.969,25.879,36.133,6.836,0
216568.012,48.828,43.945,20.508,52.734,31.250,0
216568.016,39.551,29.297,22.949,41.992,25.391,0
216568.020,22.461,15.625,33.203,12.207,48.340,0
216568.024,17.578,12.695,37.598,11.230,52.246,0
216568.027,23.926,18.555,28.320,33.691,7.812,0
216568.031,35.645,24.414,12.695,44.434,-27.832,0
216568.035,24.902,18.555,12.695,31.250,-10.254,0
216568.039,20.996,8.789,32.227,22.461,-6.348,0
216568.043,33.203,17.578,36.133,28.320,0.488,0
216568.047,35.156,27.344,27.344,40.039,13.672,0
216568.051,44.922,26.855,31.250,56.152,-19.531,0
216568.055,48.340,30.273,31.250,41.504,-7.812,0
216568.059,28.809,22.949,26.367,32.227,15.625,0
216568.063,16.113,14.648,28.320,33.203,-10.742,0
216568.067,11.719,15.625,27.344,20.020,4.883,0
216568.070,19.043,18.066,31.250,25.391,34.668,0
216568.074,24.414,16.113,31.738,37.598,34.668,0
216568.078,26.855,25.879,26.367,37.109,20.020,0
216568.082,30.762,30.273,27.832,30.273,-22.949,0
216568.086,27.832,21.484,20.020,41.016,5.859,0
216568.090,29.297,21.973,26.855,33.691,38.086,0
216568.094,26.855,17.090,42.480,20.020,38.086,0
216568.098,28.809,11.230,35.156,38.086,64.941,0
216568.102,30.762,13.184,24.902,36.621,23.926,0
216568.106,20.508,18.555,37.109,25.391,12.695,0
216568.110,19.043,19.043,37.598,31.738,32.715,0
216568.113,29.297,20.996,26.855,33.691,33.203,0
216568.117,33.691,23.926,31.250,32.227,39.551,0
216568.121,30.762,17.578,32.715,27.344,6.348,0
216568.125,40.039,26.855,32.227,35.156,0.488,0
216568.129,48.340,38.086,27.344,45.898,48.340,0
216568.133,31.250,21.973,14.648,36.133,60.059,0
216568.137,21.484,9.277,16.602,23.926,20.020,0
216568.141,26.855,18.066,23.926,20.996,11.230,0
216568.145,30.762,28.809,29.785,30.762,50.781,0
216568.149,29.297,30.762,28.809,33.203,79.102,0
216568.152,29.297,30.762,28.809,28.320,47.852,0
216568.156,33.691,30.273,20.020,29.297,22.461,0
216568.160,28.320,29.297,16.113,29.297,27.832,0
216568.164,25.879,30.273,23.438,35.156,20.996,0
216568.168,29.785,29.785,26.855,27.344,-4.883,0
216568.172,25.391,29.297,38.574,16.602,-30.273,0
216568.176,23.438,33.691,27.832,26.855,-18.555,0
216568.180,34.668,29.785,20.508,33.691,29.297,0
216568.184,39.551,26.855,22.949,30.762,12.695,0
216568.188,38.086,35.645,27.832,29.297,27.832,0
216568.192,43.945,34.668,34.180,38.574,82.031,0
216568.195,43.457,33.691,28.809,41.992,44.434,0
216568.199,43.945,32.715,25.391,42.480,29.297,0
216568.203,45.898,34.668,30.762,34.668,33.203,0
216568.207,44.922,37.109,35.645,42.480,21.973,0
216568.211,46.875,25.879,24.414,52.246,41.504,0
216568.215,41.016,20.508,12.207,34.180,31.738,0
216568.219,25.391,26.367,26.367,29.297,21.973,0
216568.223,23.438,31.738,43.945,37.598,20.508,0
216568.227,26.367,35.645,44.434,30.762,26.367,0
216568.231,33.203,43.945,40.527,32.227,41.016,0
216568.235,37.598,41.016,27.832,32.715,40.039,0
216568.238,30.762,34.180,20.508,22.461,36.133,0
216568.242,20.020,28.320,26.367,24.902,16.602,0
216568.246,17.578,18.066,29.785,20.996,10.742,0
216568.250,24.414,17.090,35.156,17.090,30.762,0
216568.254,25.391,14.160,33.691,21.973,14.160,0
216568.258,22.461,19.043,30.762,20.020,-1.465,0
216568.262,24.902,32.227,37.109,19.043,9.766,0
216568.266,24.414,36.133,35.156,23.926,22.949,0
216568.270,29.297,36.621,30.273,32.227,39.062,0
216568.274,36.133,36.621,34.180,25.391,15.137,0
216568.277,33.203,40.527,23.926,29.785,3.418,0
216568.281,39.551,45.410,20.996,63.477,42.969,0
216568.285,48.828,51.270,37.109,58.594,50.293,0
216568.289,32.715,33.203,36.621,29.297,51.270,0
216568.293,20.020,20.508,34.668,21.973,41.016,0
216568.297,30.762,32.715,28.809,32.715,8.789,0
216568.301,32.227,14.160,25.391,31.738,4.883,0
216568.305,40.527,16.113,34.180,39.062,9.766,0
216568.309,50.293,42.969,38.086,43.457,-5.371,0
216568.313,26.367,40.527,29.297,4.395,-13.184,0
216568.317,29.297,39.062,26.855,-0.488,8.789,0
216568.320,57.617,38.574,20.508,28.320,-14.160,0
216568.324,49.805,29.297,16.602,32.227,-15.625,0
216568.328,33.691,34.668,20.020,34.180,26.855,0
216568.332,21.484,41.504,23.438,23.926,1.953,0
216568.336,21.484,39.062,23.926,18.066,9.277,0
216568.340,37.598,36.133,17.578,36.133,41.504,0
216568.344,38.574,34.180,15.625,42.969,53.711,0
216568.348,34.180,35.156,12.695,32.227,28.320,0
216568.352,30.273,29.785,18.555,29.785,49.316,0
216568.356,27.344,20.508,32.227,31.250,80.078,0
216568.360,37.598,22.461,31.250,33.691,43.945,0
216568.363,46.387,33.203,29.785,44.922,88.379,0
216568.367,41.992,39.062,27.832,35.645,122.070,0
216568.371,35.645,34.668,23.438,39.551,110.840,0
216568.375,39.062,30.762,21.973,50.781,93.750,0
216568.379,35.645,25.391,25.879,38.086,59.570,0
216568.383,30.762,21.484,29.297,42.480,51.758,0
216568.387,36.621,33.203,32.227,31.738,56.152,0
216568.391,40.039,33.203,28.809,31.250,57.129,0
216568.395,39.551,29.297,18.555,41.016,51.758,0
216568.399,40.039,35.645,28.809,31.738,38.574,0
216568.402,34.668,38.086,39.062,32.227,16.113,0
216568.406,25.879,40.527,25.879,36.621,48.340,0
216568.410,33.203,37.598,26.367,35.156,38.086,0
216568.414,34.668,22.461,30.762,30.762,-5.371,0
216568.418,38.086,18.066,27.832,48.828,19.531,0
216568.422,47.852,22.949,32.715,53.223,17.090,0
216568.426,44.922,26.367,38.086,42.969,-8.301,0
216568.430,27.832,22.461,40.039,33.691,25.391,0
216568.434,22.461,18.066,36.621,21.484,47.852,0
216568.438,33.691,23.926,27.344,27.344,-3.906,0
216568.442,30.273,25.879,25.879,27.832,21.973,0
216568.445,30.273,33.203,33.691,34.180,35.156,0
216568.449,34.668,26.855,34.180,44.434,-2.441,0
216568.453,34.180,22.949,25.391,34.668,20.020,0
216568.457,42.969,33.203,20.996,31.738,10.742,0
216568.461,39.062,24.902,19.531,38.574,25.391,0
216568.465,36.621,19.531,27.344,42.969,-0.488,0
216568.469,46.875,26.855,32.715,48.340,-24.902,0
216568.473,43.457,31.250,30.273,29.785,-1.465,0
216568.477,31.738,28.809,23.926,25.391,65.918,0
216568.481,41.016,34.668,22.949,44.434,88.379,0
216568.485,41.992,46.875,19.531,43.457,4.395,0
216568.488,39.062,38.086,22.461,39.062,5.371,0
216568.492,47.363,24.414,22.949,39.551,39.062,0
216568.496,57.129,37.109,4.395,46.875,34.668,0
216568.500,43.457,38.574,17.578,37.109,-1.465,0
216568.504,28.320,31.738,41.016,32.227,-23.438,0
216568.508,31.738,21.973,37.598,33.691,32.227,0
216568.512,30.273,13.672,35.156,36.621,48.828,0
216568.516,27.832,28.320,30.762,31.250,47.363,0
216568.520,38.086,25.879,26.855,20.020,34.180,0
216568.524,51.270,32.715,26.367,43.945,47.363,0
216568.527,41.992,51.270,20.508,49.805,45.410,0
216568.531,42.480,45.410,21.973,46.387,22.949,0
216568.535,46.387,31.250,23.926,34.180,49.805,0
216568.539,34.668,20.996,15.137,24.414,59.570,0
216568.543,34.668,24.902,20.996,35.156,58.105,0
216568.547,46.875,34.180,37.598,47.852,16.113,0
216568.551,44.434,26.855,39.551,56.152,18.555,0
216568.555,41.504,12.207,24.414,43.457,42.480,0
216568.559,39.551,11.719,23.438,26.367,-19.043,0
216568.563,39.551,17.578,37.109,35.156,-73.730,0
216568.567,51.758,35.645,35.156,62.012,-44.434,0
216568.570,40.527,35.645,22.949,51.270,40.527,0
216568.574,25.879,18.555,26.855,36.133,36.621,0
216568.578,30.762,25.391,32.227,34.668,8.301,0
216568.582,36.621,37.109,36.621,29.297,12.207,2
216568.586,33.203,36.621,41.992,47.852,25.879,0
216568.590,27.832,33.691,32.227,53.711,22.461,0
216568.594,30.273,25.879,20.020,48.828,-8.789,0
216568.598,35.645,18.555,19.043,43.457,33.203,0
216568.602,47.363,16.113,20.020,46.387,41.504,0
216568.606,46.875,23.438,25.879,47.363,9.277,0
216568.610,30.273,30.762,41.992,34.668,16.602,0
216568.613,30.762,31.738,43.457,28.809,26.855,0
216568.617,32.227,29.785,31.738,31.250,40.527,0
216568.621,41.992,25.391,31.250,32.715,30.273,0
216568.625,47.852,23.926,33.203,38.574,40.039,0
216568.629,48.340,25.879,33.203,50.781,64.453,0
216568.633,49.316,29.297,31.250,51.758,60.059,0
216568.637,40.039,29.785,27.344,34.180,17.090,0
216568.641,38.086,28.320,33.691,30.273,12.207,0
216568.645,37.109,32.715,30.762,43.945,8.789,0
216568.649,33.203,30.273,30.762,33.203,17.578,0
216568.652,28.809,19.043,35.645,14.160,24.414,0
216568.656,34.668,28.320,40.039,32.715,18.555,0
216568.660,37.598,42.969,25.879,43.945,30.762,0
216568.664,34.180,41.016,19.531,37.109,15.625,0
216568.668,32.227,44.434,36.621,38.086,31.250,0
216568.672,32.227,48.340,25.391,45.898,39.551,0
216568.676,39.551,44.922,13.672,54.199,15.137,0
216568.680,41.504,44.434,20.996,46.875,46.875,0
216568.684,35.156,34.180,34.180,27.832,54.688,0
216568.688,28.809,24.414,43.945,24.902,36.133,0
216568.692,36.133,38.086,35.645,37.109,46.387,0
216568.695,37.109,36.133,30.273,24.902,10.742,0
216568.699,23.438,27.832,41.504,22.461,11.719,0
216568.703,23.438,33.691,41.504,37.109,72.754,0
216568.707,37.109,36.133,32.715,41.992,64.453,0
216568.711,44.434,46.875,25.391,40.527,8.789,0
216568.715,44.434,45.410,26.367,46.387,-4.883,0
216568.719,47.363,36.133,32.715,59.082,39.062,0
216568.723,56.152,49.316,27.344,60.059,71.777,0
216568.727,59.082,51.270,33.203,53.711,39.551,0
216568.731,51.758,26.367,38.086,42.969,17.090,0
216568.735,45.410,13.672,34.668,34.668,39.551,0
216568.738,39.551,25.879,34.668,32.227,35.645,0
216568.742,32.715,35.645,40.039,49.805,26.855,0
216568.746,33.691,29.297,43.457,46.387,54.199,0
216568.750,34.668,35.156,25.391,41.016,45.410,0
216568.754,36.133,39.551,14.160,41.504,39.551,0
216568.758,43.945,36.621,28.809,37.109,48.828,0
216568.762,37.109,41.504,40.527,42.480,62.500,0
216568.766,31.250,41.992,46.875,46.875,65.918,0
216568.770,38.574,37.598,46.875,49.805,32.227,0
216568.774,34.180,30.273,36.621,36.621,32.715,0
216568.777,19.531,17.090,31.738,21.973,60.059,0
216568.781,29.785,11.230,40.527,24.414,36.133,0
216568.785,43.945,25.879,31.738,33.691,5.859,0
216568.789,27.832,32.227,29.297,28.809,36.621,0
216568.793,15.137,29.297,39.062,29.297,29.785,0
216568.797,21.973,36.133,36.133,32.715,-3.418,0
216568.801,33.203,42.969,41.504,25.879,10.742,0
216568.805,31.250,48.828,44.434,38.086,18.555,0
216568.809,22.949,41.504,36.133,40.527,-16.602,0
216568.813,28.809,30.762,38.086,27.344,-17.090,0
216568.817,39.551,37.109,44.922,37.109,35.156,0
216568.820,41.992,41.504,37.109,41.016,44.922,0
216568.824,33.691,30.762,25.391,32.715,23.926,0
216568.828,29.785,23.926,23.926,23.926,-37.598,0
216568.832,36.621,29.785,20.508,34.180,-29.297,0
216568.836,41.504,36.621,25.391,49.316,38.574,0
216568.840,41.992,38.086,32.227,40.527,78.613,0
216568.844,35.156,32.715,27.344,30.273,72.754,0
216568.848,36.621,33.691,30.273,29.785,45.410,0
216568.852,52.246,35.645,28.320,32.227,59.082,0
216568.856,43.457,36.133,19.043,37.109,41.992,0
216568.860,27.832,37.598,25.391,25.391,10.254,0
216568.863,26.367,39.551,34.668,20.508,44.434,0
216568.867,23.438,40.527,28.320,28.320,48.828,0
216568.871,22.949,39.551,22.949,26.855,14.160,0
216568.875,28.809,44.922,27.344,29.785,-29.297,0
216568.879,32.227,43.945,31.738,39.062,-0.977,0
216568.883,32.227,31.250,37.109,33.203,49.805,0
216568.887,27.832,28.320,36.621,21.973,41.992,0
216568.891,23.438,36.133,31.738,23.438,30.273,0
216568.895,29.785,40.039,36.133,37.598,32.715,0
216568.899,25.879,40.527,40.527,26.855,9.277,0
216568.902,12.207,35.645,36.133,10.742,-6.348,0
216568.906,11.230,35.645,36.621,16.113,-1.953,0
216568.910,9.277,33.691,41.504,13.184,-6.348,0
216568.914,2.441,34.668,40.527,8.789,0.000,0
216568.918,5.859,43.945,38.574,19.531,1.953,0
216568.922,6.348,37.598,32.227,16.602,5.859,0
216568.926,-11.230,32.227,24.902,-9.277,-0.977,0
216568.930,-37.109,41.992,29.297,-42.969,3.906,0
216568.934,-44.434,49.805,29.785,-41.504,14.160,0
216568.938,-41.504,49.316,29.297,-38.574,-3.906,0
216568.942,-41.504,54.688,33.691,-40.039,29.785,0
216568.945,-49.805,55.176,36.133,-35.645,27.344,0
216568.949,-67.383,55.176,40.039,-50.781,-16.602,0
216568.953,-73.730,38.574,42.969,-66.406,0.488,0
216568.957,-73.242,33.691,41.504,-66.895,23.926,0
216568.961,-82.520,50.781,39.062,-70.312,29.785,0
216568.965,-94.727,43.457,29.297,-86.426,4.883,0
216568.969,-102.051,41.016,23.926,-92.285,-19.043,0
216568.973,-114.746,46.387,37.109,-100.098,19.043,0
216568.977,-115.723,52.734,50.293,-108.887,27.344,0
216568.981,-94.238,59.570,49.316,-110.352,3.906,0
216568.985,-80.566,65.918,36.133,-90.820,58.105,0
216568.988,-82.520,53.223,26.367,-66.895,97.168,0
216568.992,-80.566,28.320,31.250,-62.500,86.914,0
216568.996,-73.730,30.273,26.367,-74.707,86.914,0
216569.000,-55.664,46.875,23.438,-58.594,79.590,0
216569.004,-46.387,38.574,34.180,-33.691,65.430,0
216569.008,-48.340,31.738,20.020,-43.457,69.336,0
216569.012,-37.109,36.621,11.719,-34.180,52.246,0
216569.016,-16.113,41.504,27.832,1.465,70.801,0
216569.020,-3.418,47.852,25.391,4.395,68.848,0
216569.024,-0.977,43.457,21.973,-1.953,34.668,0
216569.027,13.672,37.598,31.250,22.461,46.387,0
216569.031,23.438,37.109,28.320,39.551,101.074,0
216569.035,21.973,30.762,11.719,27.344,111.328,0
216569.039,32.715,21.973,24.414,26.367,83.008,0
216569.043,39.062,11.230,36.133,29.297,71.289,0
216569.047,50.293,20.996,32.715,45.898,69.824,0
216569.051,60.547,41.504,29.297,63.965,76.660,0
216569.055,61.523,33.203,26.855,60.547,91.797,0
216569.059,68.848,19.531,32.227,65.918,76.660,0
216569.063,71.777,15.137,29.297,70.801,59.570,0
216569.067,74.707,10.254,27.832,71.289,65.918,0
216569.070,65.918,5.371,26.855,70.801,41.016,0
216569.074,58.105,5.859,21.484,72.266,37.598,0
216569.078,68.359,6.836,19.531,80.566,42.969,0
216569.082,78.613,7.324,22.949,80.078,55.664,0
216569.086,87.891,20.508,42.480,79.590,41.992,0
216569.090,92.773,18.555,45.410,78.613,21.973,0
216569.094,82.520,17.090,38.574,77.637,46.875,0
216569.098,79.590,19.043,41.992,73.730,12.695,0
216569.102,83.984,10.742,35.645,76.660,17.578,0
216569.106,88.867,5.371,24.414,95.215,62.012,0
216569.110,90.820,9.766,24.902,98.145,40.039,0
216569.113,92.285,18.066,31.738,92.773,22.949,0
216569.117,91.309,0.977,36.133,88.867,19.043,0
216569.121,88.867,0.977,35.645,97.168,41.016,0
216569.125,86.914,20.508,19.043,93.262,60.059,0
216569.129,89.355,25.879,28.809,94.238,74.707,0
216569.133,87.402,22.949,52.246,99.121,104.492,0
216569.137,78.125,18.066,49.805,87.891,104.004,0
216569.141,72.266,24.414,40.527,82.031,86.914,0
216569.145,65.918,21.484,39.551,80.566,52.246,0
216569.149,68.848,21.973,37.109,83.496,26.367,0
216569.152,79.102,32.227,32.715,87.891,31.250,0
216569.156,83.496,31.738,37.598,93.750,32.227,0
216569.160,82.031,25.879,35.156,81.543,28.320,0
216569.164,76.660,20.508,33.691,81.543,50.293,0
216569.168,68.359,14.648,35.645,86.914,78.125,0
216569.172,65.430,10.742,26.855,78.125,64.941,0
216569.176,62.500,8.789,31.250,68.848,50.293,0
216569.180,71.289,16.113,39.551,77.148,66.406,0
216569.184,85.938,26.855,33.203,78.613,85.938,0
216569.188,71.777,26.367,29.785,62.988,94.727,0
216569.192,65.430,12.207,38.574,68.848,61.523,0
216569.195,77.637,20.996,36.621,85.449,55.664,2
216569.199,70.801,34.668,26.855,69.336,60.059,0
216569.203,58.105,26.367,22.949,40.527,28.320,0
216569.207,59.570,20.020,32.715,42.480,28.320,0
216569.211,60.547,21.484,41.016,52.246,37.109,0
216569.215,56.641,29.785,31.738,55.664,12.695,0
216569.219,52.246,27.344,21.484,47.363,10.254,0
216569.223,52.246,22.949,22.461,44.434,31.738,0
216569.227,53.711,22.949,33.691,52.734,37.598,0
216569.231,55.176,23.438,40.527,62.500,21.973,0
216569.235,63.965,38.574,38.086,54.199,46.387,0
216569.238,62.988,38.086,29.297,37.598,96.191,0
216569.242,46.387,19.043,21.484,40.527,97.168,0
216569.246,39.551,20.020,26.855,47.363,75.195,0
216569.250,41.504,22.949,32.715,38.086,31.738,0
216569.254,37.109,21.973,29.785,34.180,43.945,0
216569.258,40.039,26.367,21.484,53.711,72.754,0
216569.262,48.828,33.691,9.277,54.199,90.820,0
216569.266,55.176,34.180,15.625,47.363,83.008,0
216569.270,62.012,38.574,34.180,45.410,30.762,0
216569.274,57.129,40.039,39.062,43.945,3.418,0
216569.277,40.527,25.879,39.062,35.156,2.930,0
216569.281,35.156,20.996,34.180,30.273,16.602,0
216569.285,40.039,18.066,20.996,36.621,24.902,0
216569.289,45.410,27.832,21.973,40.527,43.457,0
216569.293,38.574,44.922,34.668,41.504,47.363,0
216569.297,45.898,53.223,39.551,39.551,28.809,0
216569.301,54.688,50.293,35.645,42.480,29.785,0
216569.305,41.016,38.574,35.156,43.457,50.293,0
216569.309,43.457,39.551,31.250,47.852,56.152,0
216569.313,59.082,44.434,38.086,62.500,16.113,0
216569.317,56.641,37.109,42.969,60.547,10.254,0
216569.320,45.410,27.344,45.410,50.293,7.324,0
216569.324,31.738,21.484,44.434,31.250,-8.789,0
216569.328,29.785,28.320,29.785,35.156,-31.738,0
216569.332,33.691,28.320,28.809,45.898,-5.859,0
216569.336,34.668,35.156,40.527,34.668,31.250,0
216569.340,44.434,41.992,38.086,36.133,8.301,0
216569.344,41.992,40.527,22.949,39.062,41.992,0
216569.348,43.945,43.457,29.297,51.270,66.895,0
216569.352,49.805,41.504,48.340,55.176,23.926,0
216569.356,36.621,38.574,46.387,35.156,11.230,0
216569.360,35.156,39.062,41.016,28.320,54.199,0
216569.363,35.645,39.551,39.551,30.762,43.457,0
216569.367,33.203,35.645,30.273,43.945,42.969,0
216569.371,40.039,32.227,22.461,49.316,31.738,0
216569.375,37.598,29.297,25.879,33.691,-17.578,0
216569.379,41.992,38.086,31.250,38.574,9.277,0
216569.383,48.340,33.203,36.621,53.223,46.387,0
216569.387,41.504,19.043,46.875,46.875,42.480,0
216569.391,39.551,20.508,52.246,47.852,3.906,0
216569.395,43.945,26.855,45.410,54.199,3.906,0
216569.399,45.898,41.016,34.180,46.875,6.836,0
216569.402,37.109,43.457,32.227,33.203,-25.879,0
216569.406,31.738,39.551,30.273,41.016,0.488,0
216569.410,41.016,37.598,27.832,52.246,27.832,0
216569.414,41.504,32.227,24.902,52.734,31.738,0
216569.418,41.504,32.715,16.602,53.711,27.344,0
216569.422,45.898,28.809,21.484,41.504,50.781,0
216569.426,41.992,33.203,39.551,43.457,51.270,0
216569.430,39.551,38.574,47.363,55.664,19.043,0
216569.434,35.156,23.926,43.457,32.227,-1.465,0
216569.438,39.062,17.090,46.387,30.273,10.742,0
216569.442,47.363,33.691,35.645,45.898,25.391,0
216569.445,41.992,40.527,29.297,36.133,18.066,0
216569.449,31.250,31.738,28.320,14.160,36.133,0
216569.453,28.809,44.434,24.414,21.973,66.895,0
216569.457,28.320,45.898,21.973,28.320,54.199,0
216569.461,26.855,31.738,15.137,21.973,82.031,0
216569.465,30.273,33.203,12.695,31.250,114.258,0
216569.469,48.828,41.504,18.066,55.176,104.004,0
216569.473,48.340,43.457,29.297,41.504,101.562,0
216569.477,25.391,35.156,36.621,17.578,102.539,0
216569.481,20.020,24.414,38.086,29.297,63.965,0
216569.485,32.227,27.344,25.879,44.434,76.172,0
216569.488,38.086,31.250,20.508,50.293,66.895,0
216569.492,33.203,27.344,28.320,36.621,14.160,0
216569.496,38.086,30.273,29.297,41.016,39.551,0
216569.500,37.598,24.902,25.391,38.086,28.809,0
216569.504,39.551,28.320,30.273,30.273,20.508,0
216569.508,47.852,41.016,35.156,44.434,9.277,0
216569.512,39.551,31.738,27.832,48.340,32.715,0
216569.516,27.344,26.855,30.273,22.461,50.781,0
216569.520,27.344,30.762,32.227,19.531,23.438,0
216569.524,30.762,32.715,30.273,34.180,6.348,0
216569.527,20.996,29.297,28.320,20.508,-11.719,0
216569.531,13.672,17.090,20.996,20.020,-20.508,0
216569.535,22.461,23.438,12.695,22.461,-26.855,0
216569.539,34.668,39.062,20.508,32.227,-5.859,0
216569.543,37.598,33.691,28.320,37.109,26.367,0
216569.547,31.250,30.273,20.020,19.531,33.691,0
216569.551,25.879,32.715,22.949,20.508,34.180,0
216569.555,24.414,27.344,26.855,24.902,32.227,0
216569.559,32.227,22.949,24.902,20.508,26.367,0
216569.563,30.273,25.879,31.250,23.926,42.480,0
216569.567,23.438,27.344,27.344,32.715,79.102,0
216569.570,23.926,24.902,15.625,25.391,35.645,0
216569.574,26.367,28.320,14.160,37.109,23.926,0
216569.578,28.809,26.367,20.020,42.480,20.996,0
216569.582,30.762,28.809,17.578,19.531,-11.719,0
216569.586,38.086,38.574,29.785,36.133,37.598,0
216569.590,37.109,35.645,34.668,44.922,72.754,0
216569.594,24.902,20.508,18.555,28.320,78.125,0
216569.598,25.879,20.508,19.531,22.949,60.547,0
216569.602,31.250,34.180,22.461,33.691,41.504,0
216569.606,32.227,36.621,21.973,41.504,46.875,0
216569.610,45.410,41.016,31.738,43.945,34.180,0
216569.613,50.293,38.086,15.137,61.035,44.922,0
216569.617,40.527,29.785,0.488,57.129,33.691,0
216569.621,26.855,28.320,25.391,28.809,30.762,0
216569.625,24.414,29.297,33.691,24.902,23.438,0
216569.629,24.902,30.762,23.926,37.109,31.250,0
216569.633,25.391,26.367,22.949,33.691,68.848,0
216569.637,23.926,25.879,30.762,27.832,55.664,0
216569.641,31.738,32.715,35.645,42.969,80.566,0
216569.645,40.527,31.250,25.879,45.898,93.750,0
216569.649,33.203,26.367,16.113,21.484,62.988,0
216569.652,30.273,31.738,22.461,29.297,52.246,0
216569.656,33.203,24.902,25.391,45.898,43.945,0
216569.660,32.227,9.766,20.508,29.785,34.668,0
216569.664,25.879,16.113,20.996,31.250,41.504,0
216569.668,25.879,33.203,22.461,33.203,51.270,0
216569.672,37.598,27.344,24.414,29.785,7.812,0
216569.676,42.969,13.184,22.461,39.062,-5.859,0
216569.680,42.969,24.414,25.391,43.457,15.625,0
216569.684,41.016,35.156,32.715,29.297,7.812,0
216569.688,30.273,27.832,34.668,32.227,14.160,0
216569.692,18.066,20.508,26.367,39.551,29.297,0
216569.695,24.902,31.250,17.578,38.086,21.973,0
216569.699,37.109,33.203,20.020,36.621,-0.977,0
216569.703,41.992,30.273,24.902,37.109,10.254,0
216569.707,41.504,33.691,21.973,44.922,56.641,0
216569.711,40.527,25.879,16.113,45.410,42.480,0
216569.715,36.133,13.184,18.555,37.109,19.043,0
216569.719,33.691,6.836,22.461,25.879,59.570,0
216569.723,31.250,12.207,28.809,29.297,82.520,0
216569.727,23.926,24.414,24.414,30.273,45.898,0
216569.731,22.949,33.203,17.090,25.391,-0.488,0
216569.735,25.391,24.414,19.531,24.902,35.645,0
216569.738,30.273,17.090,28.320,25.879,64.453,0
216569.742,30.762,31.250,36.621,33.203,81.543,0
216569.746,31.738,40.039,27.832,36.621,84.473,0
216569.750,31.738,27.832,19.043,38.086,68.848,0
216569.754,36.621,27.344,31.250,44.922,83.496,0
216569.758,38.574,28.809,28.320,42.969,102.539,0
216569.762,34.668,20.996,17.090,35.156,67.383,0
216569.766,33.691,23.438,25.879,27.832,29.785,0
216569.770,33.203,15.137,33.203,33.203,61.035,1
216569.774,39.062,9.277,26.855,31.738,48.828,0
216569.777,36.621,32.227,14.160,22.461,32.715,0
216569.781,38.086,44.434,22.949,26.855,59.570,0
216569.785,49.316,38.574,35.156,36.133,48.828,0
216569.789,42.969,32.227,29.297,42.480,35.645,0
216569.793,30.273,26.367,24.902,41.992,33.691,0
216569.797,20.996,24.414,25.391,39.062,27.832,0
216569.801,30.762,25.391,29.785,33.691,16.602,0
216569.805,43.457,32.227,14.648,37.109,-13.184,0
216569.809,37.598,20.996,0.000,40.527,-34.668,0
216569.813,26.367,10.742,13.184,27.344,-19.043,0
216569.817,20.020,18.066,19.531,14.160,30.273,0
216569.820,20.020,19.531,20.996,17.090,-8.301,0
216569.824,23.438,28.320,30.273,18.555,-18.555,0
216569.828,36.133,43.457,38.086,37.109,20.020,0
216569.832,34.180,36.621,32.715,33.203,27.832,0
216569.836,23.926,19.043,24.414,18.555,28.809,0
216569.840,28.809,20.996,24.902,30.762,37.598,0
216569.844,40.527,28.320,13.184,38.086,67.383,0
216569.848,41.992,26.367,8.301,39.062,59.570,0
216569.852,38.086,26.367,20.508,36.133,27.344,0
216569.856,41.504,33.203,19.043,38.574,0.000,0
216569.860,35.156,28.809,3.418,38.574,30.273,0
216569.863,28.320,15.137,9.766,28.320,-16.113,0
216569.867,36.133,15.137,35.645,28.320,-53.711,0
216569.871,44.434,19.043,37.598,44.434,22.949,0
216569.875,42.969,19.043,25.391,45.410,35.156,0
216569.879,39.062,30.762,21.484,32.227,26.367,0
216569.883,51.758,40.039,28.320,33.203,41.016,0
216569.887,55.176,34.668,27.344,38.574,65.918,0
216569.891,41.504,36.133,24.414,34.668,42.969,0
216569.895,28.809,36.133,16.113,34.180,11.719,0
216569.899,20.996,30.273,9.766,23.926,28.809,0
216569.902,23.926,31.738,25.391,20.996,14.160,0
216569.906,29.785,26.855,37.109,34.668,0.977,0
216569.910,32.227,25.391,34.180,25.879,-3.418,0
216569.914,32.227,32.227,29.297,21.484,-30.762,0
216569.918,34.668,35.156,23.438,33.691,65.430,0
216569.922,48.340,37.598,22.461,40.527,82.520,0
216569.926,57.129,31.738,31.738,39.062,25.391,0
216569.930,46.875,26.855,29.297,35.156,58.594,0
216569.934,42.969,33.691,21.484,44.434,61.523,0
216569.938,42.969,28.320,20.996,41.992,55.664,0
216569.942,31.738,21.484,28.809,27.344,4.883,0
216569.945,27.832,22.461,33.203,28.320,8.789,0
216569.949,35.645,25.879,28.809,36.621,55.664,0
216569.953,39.551,26.855,26.855,40.527,25.879,0
216569.957,34.180,20.020,34.180,42.969,8.301,0
216569.961,35.645,24.902,32.715,37.598,41.992,0
216569.965,42.969,34.668,29.297,41.016,29.297,0
216569.969,44.922,38.574,36.621,53.223,25.879,0
216569.973,48.340,44.434,43.457,51.758,52.734,0
216569.977,47.852,41.504,37.109,53.223,56.152,0
216569.981,47.363,32.227,30.273,57.129,40.039,0
216569.985,42.480,26.367,26.367,43.457,26.367,0
216569.988,32.227,16.602,26.855,30.273,20.996,0
216569.992,28.809,24.902,36.133,34.180,31.250,0
216569.996,27.344,28.809,30.273,30.762,25.879,0
216570.000,34.668,30.762,24.902,31.250,-8.789,0
216570.004,33.691,32.715,34.180,25.391,0.000,0
216570.008,26.367,30.273,25.879,28.809,35.645,0
216570.012,31.738,37.109,23.438,38.574,11.719,0
216570.016,34.668,33.691,37.598,46.875,-3.906,0
216570.020,31.738,31.738,29.785,45.410,-0.977,0
216570.024,27.344,35.156,33.691,34.180,-7.324,0
216570.027,18.066,23.438,41.504,28.320,12.695,0
216570.031,11.230,16.113,30.273,25.391,47.363,0
216570.035,18.555,13.672,24.902,30.762,60.059,0
216570.039,31.738,8.301,29.297,51.270,23.926,0
216570.043,27.832,19.043,25.879,34.668,-6.836,0
216570.047,31.738,39.062,25.391,18.066,21.484,0
216570.051,34.668,40.039,28.809,38.086,45.410,0
216570.055,26.367,34.180,28.809,39.062,13.672,0
216570.059,24.414,33.203,30.762,33.203,8.789,0
216570.063,18.066,31.250,28.809,32.227,-0.977,0
216570.067,15.137,22.461,18.555,17.090,1.953,0
216570.070,20.508,17.090,23.926,18.066,12.695,0
216570.074,28.320,19.043,37.109,22.461,19.043,0
216570.078,42.480,16.113,30.273,33.203,45.898,0
216570.082,49.316,22.461,24.902,51.270,84.473,0
216570.086,40.527,38.086,32.227,41.504,60.547,0
216570.090,38.574,37.598,27.832,41.992,37.109,0
216570.094,39.551,28.320,29.785,56.152,48.340,0
216570.098,29.785,16.602,33.691,56.152,67.383,0
216570.102,20.996,18.555,26.367,38.086,47.363,0
216570.106,19.043,28.320,27.344,18.555,-31.738,0
216570.110,17.090,29.785,31.738,11.230,-15.137,0
216570.113,19.531,29.297,32.715,24.414,13.672,0
216570.117,20.508,25.879,30.762,24.902,10.254,0
216570.121,21.484,29.785,22.949,21.973,21.484,0
216570.125,31.738,34.180,19.043,35.156,31.738,0
216570.129,42.480,39.062,17.578,47.852,65.430,0
216570.133,44.922,32.227,15.137,44.434,62.012,0
216570.137,40.039,17.578,26.367,28.320,26.367,0
216570.141,31.250,20.508,34.180,21.973,11.230,0
216570.145,25.879,29.785,29.785,17.090,12.207,0
216570.149,26.855,34.668,34.180,24.902,15.625,0
216570.152,34.668,33.691,33.691,34.180,1.953,0
216570.156,35.645,24.414,19.531,43.457,22.461,0
216570.160,38.086,26.855,27.344,39.062,53.711,0
216570.164,43.457,34.668,33.691,42.480,45.410,0
216570.168,37.598,32.227,26.855,43.457,37.109,0
216570.172,34.180,28.320,23.438,30.273,48.340,0
216570.176,29.785,39.551,16.113,29.785,32.227,0
216570.180,30.762,44.922,25.391,33.691,49.805,0
216570.184,36.621,30.762,34.180,37.598,49.805,0
216570.188,34.180,25.879,33.203,33.203,50.293,0
216570.192,35.645,27.344,32.715,34.668,61.035,0
216570.195,34.668,25.879,23.438,31.250,19.043,0
216570.199,28.809,31.738,25.879,16.113,6.348,0
216570.203,28.320,41.016,30.762,28.320,2.441,0
216570.207,38.574,41.504,36.621,43.945,48.828,0
216570.211,40.039,33.203,39.062,36.621,36.133,0
216570.215,33.691,29.785,20.508,32.227,-19.043,0
216570.219,35.156,33.203,13.184,33.203,24.414,0
216570.223,31.738,29.297,21.973,28.320,63.965,0
216570.227,34.668,28.320,28.320,27.344,52.734,0
216570.231,33.691,27.832,22.949,25.879,21.484,0
216570.235,30.762,21.973,29.297,27.344,51.270,0
216570.238,31.738,23.438,39.551,28.809,71.289,0
216570.242,38.086,31.738,37.109,33.203,33.203,0
216570.246,38.574,34.668,32.227,42.969,26.855,0
216570.250,21.484,35.156,28.320,37.109,5.371,0
216570.254,20.020,25.391,39.551,22.461,-11.230,0
216570.258,27.344,26.367,41.992,30.273,-14.648,0
216570.262,23.438,25.391,35.156,37.109,31.250,0
216570.266,21.973,21.484,35.156,33.203,47.363,0
216570.270,17.578,26.367,30.273,30.273,20.508,0
216570.274,21.484,32.715,23.926,33.691,49.316,0
216570.277,32.715,39.062,17.578,35.645,61.523,0
216570.281,31.250,30.273,23.438,36.621,28.809,0
216570.285,30.273,24.902,32.715,37.109,-42.969,0
216570.289,38.086,33.691,35.156,36.621,-34.668,0
216570.293,38.086,28.809,28.320,41.504,31.738,0
216570.297,24.902,25.879,20.020,35.645,28.809,0
216570.301,31.738,26.367,21.484,27.344,-18.066,0
216570.305,37.598,22.461,27.832,27.344,-14.160,0
216570.309,25.391,23.926,26.367,28.809,16.602,0
216570.313,26.367,31.738,25.879,30.273,38.086,0
216570.317,33.691,34.180,31.250,33.691,36.621,0
216570.320,38.574,32.227,29.297,28.809,36.133,0
216570.324,40.039,43.457,30.762,38.086,24.902,0
216570.328,35.156,41.016,29.297,30.273,-24.902,0
216570.332,27.344,27.344,27.832,15.137,4.395,0
216570.336,36.621,30.762,35.645,39.062,41.504,0
216570.340,46.387,38.086,27.344,54.688,52.246,0
216570.344,30.273,30.273,20.020,39.062,56.152,0
216570.348,31.250,20.508,23.926,38.574,30.762,0
216570.352,46.387,17.090,33.203,51.270,40.527,0
216570.356,36.621,18.066,35.645,41.016,16.602,0
216570.360,25.879,21.973,28.320,32.227,16.602,0
216570.363,26.367,32.227,23.438,37.109,48.340,0
216570.367,26.367,34.180,23.438,33.691,59.570,0
216570.371,28.320,30.273,30.273,26.367,56.641,0
216570.375,27.832,26.367,32.715,30.273,21.484,0
216570.379,41.992,32.715,35.156,44.922,44.434,0
216570.383,56.641,43.457,38.574,59.570,58.105,0
216570.387,43.457,36.621,25.391,45.410,33.203,0
216570.391,32.227,27.832,20.996,36.133,46.387,0
216570.395,43.457,26.367,40.527,45.898,73.242,0
216570.399,56.152,37.109,57.129,65.918,64.453,0
216570.402,45.410,40.039,45.898,56.641,40.527,0
216570.406,32.715,31.250,31.738,34.668,28.320,0
216570.410,39.551,27.344,24.902,31.738,69.336,0
216570.414,37.109,26.367,20.508,28.320,109.863,0
216570.418,36.133,38.086,26.367,36.621,51.270,0
216570.422,39.551,37.109,32.715,34.668,0.977,0
216570.426,43.945,31.250,31.250,42.969,43.945,0
216570.430,44.434,37.109,22.949,62.012,70.312,1
216570.434,40.039,36.621,22.461,44.434,46.387,0
216570.438,41.016,33.691,31.738,26.855,41.992,0
216570.442,42.480,28.809,35.645,34.668,47.363,0
216570.445,41.992,23.926,27.832,43.945,44.922,0
216570.449,34.668,31.738,25.391,38.086,-3.418,0
216570.453,33.691,38.086,32.227,33.203,-17.090,0
216570.457,41.992,41.504,39.551,43.945,-3.906,0
216570.461,35.156,29.785,31.738,48.340,-12.207,0
216570.465,25.391,19.043,22.461,41.016,-40.527,0
216570.469,26.367,27.344,19.531,44.434,-50.293,0
216570.473,23.926,35.645,17.578,49.316,-4.395,0
216570.477,29.297,35.156,27.344,41.504,-9.766,0
216570.481,26.367,28.809,38.086,32.227,-55.664,0
216570.485,29.785,33.691,37.598,37.109,14.160,0
216570.488,33.203,22.461,29.785,40.039,45.410,0
216570.492,24.414,9.766,30.762,38.086,-7.812,0
216570.496,27.832,20.020,32.715,41.504,4.395,0
216570.500,37.598,26.855,24.902,35.645,22.461,0
216570.504,41.016,33.203,29.785,39.551,20.508,0
216570.508,38.574,36.133,37.109,44.922,13.672,0
216570.512,42.969,28.809,33.203,45.410,26.855,0
216570.516,47.852,34.180,20.508,52.734,40.527,0
216570.520,46.875,41.504,21.484,47.363,48.340,0
216570.524,40.039,25.879,25.391,23.438,21.973,0
216570.527,40.039,17.578,17.578,18.066,25.391,0
216570.531,28.809,17.090,18.066,25.879,41.504,0
216570.535,26.855,17.578,25.879,28.320,20.508,0
216570.539,29.297,24.414,29.297,26.855,27.832,0
216570.543,19.043,26.855,20.996,25.879,42.480,0
216570.547,24.902,33.691,25.879,27.344,49.805,0
216570.551,25.391,31.250,28.320,24.902,42.480,0
216570.555,26.855,25.391,20.020,36.133,31.738,0
216570.559,34.668,28.320,22.461,40.527,27.344,0
216570.563,30.762,26.367,28.320,32.715,3.906,0
216570.567,30.273,25.879,30.762,31.738,6.348,0
216570.570,27.832,27.832,25.879,31.738,10.254,0
216570.574,23.926,25.879,23.926,26.855,12.695,0
216570.578,30.273,23.926,32.715,33.203,51.270,0
216570.582,34.668,23.926,29.297,31.250,45.410,0
216570.586,34.668,29.297,29.785,40.527,28.320,0
216570.590,36.133,26.855,36.133,40.527,49.805,0
216570.594,39.551,26.855,29.785,29.785,49.805,0
216570.598,47.852,30.762,27.832,45.898,44.434,0
216570.602,40.039,20.996,24.902,37.109,4.395,0
216570.606,24.902,10.742,21.484,26.367,-2.441,0
216570.610,23.438,13.184,35.645,32.227,38.086,0
216570.613,26.855,13.184,44.434,25.391,-7.324,0
216570.617,32.227,23.926,37.598,35.156,-2.930,0
216570.621,37.598,43.945,34.180,46.387,62.500,0
216570.625,31.738,32.715,28.809,36.621,50.781,0
216570.629,32.715,30.762,27.344,39.062,24.902,0
216570.633,36.133,32.715,19.043,44.922,44.922,0
216570.637,36.621,27.344,17.578,34.180,50.781,0
216570.641,40.527,32.715,33.203,39.551,-9.277,0
216570.645,30.762,24.902,33.691,53.223,-31.250,0
216570.649,19.531,20.996,26.367,44.922,-5.859,0
216570.652,22.949,25.391,24.414,31.250,-5.859,0
216570.656,30.273,29.785,22.461,28.320,-3.418,0
216570.660,38.086,37.109,26.367,37.598,5.859,0
216570.664,43.457,29.785,31.738,43.457,31.250,0
216570.668,35.645,11.230,30.273,40.039,52.246,0
216570.672,27.832,19.043,28.809,32.715,11.719,0
216570.676,29.297,35.645,35.645,42.480,11.230,0
216570.680,30.762,39.062,33.691,42.480,41.504,0
216570.684,31.738,38.574,21.484,31.738,48.828,0
216570.688,26.367,25.879,28.320,34.668,37.109,0
216570.692,18.066,10.254,30.273,24.902,31.738,0
216570.695,19.531,11.230,22.949,24.414,45.898,0
216570.699,24.414,17.090,22.949,38.574,59.082,0
216570.703,22.461,26.367,27.344,24.414,38.086,0
216570.707,22.461,31.250,27.344,28.809,1.465,0
216570.711,30.273,34.180,25.879,46.387,23.926,0
216570.715,30.762,32.715,29.297,29.297,32.227,0
216570.719,25.879,27.832,28.320,20.996,27.832,0
216570.723,19.043,27.832,25.879,25.391,47.363,0
216570.727,20.508,17.578,19.531,22.949,41.504,0
216570.731,23.438,8.789,20.996,26.367,-20.996,0
216570.735,28.809,15.137,23.926,31.738,-29.297,0
216570.738,34.668,24.414,23.438,28.320,62.500,0
216570.742,33.203,32.227,22.949,16.602,61.035,0
216570.746,33.203,28.320,17.090,23.926,4.883,0
216570.750,34.668,22.461,24.414,37.109,6.836,0
216570.754,38.574,29.785,30.762,28.809,28.809,0
216570.758,30.762,18.555,24.414,24.414,32.227,0
216570.762,28.809,21.973,18.555,25.391,44.922,0
216570.766,37.109,45.898,16.113,30.762,48.340,0
216570.770,36.621,38.574,21.484,28.320,60.547,0
216570.774,24.414,23.438,17.578,14.160,81.543,0
216570.777,22.949,27.832,14.160,12.695,65.918,0
216570.781,26.855,26.367,31.250,16.113,43.457,0
216570.785,23.438,11.719,33.203,19.043,1.953,0
216570.789,23.438,16.113,27.344,25.879,0.000,0
216570.793,26.367,33.203,31.738,26.855,10.254,0
216570.797,32.715,38.086,29.297,34.668,7.324,0
216570.801,28.320,33.691,18.555,31.250,22.949,0
216570.805,17.090,31.250,10.254,23.926,11.230,0
216570.809,21.484,28.809,13.184,23.926,33.203,0
216570.813,35.645,25.391,36.133,24.902,47.852,0
216570.817,29.785,21.973,39.551,28.809,26.855,0
216570.820,19.531,14.160,25.391,23.438,29.297,0
216570.824,27.344,13.184,23.926,24.414,3.906,0
216570.828,29.785,27.344,27.344,41.016,3.906,0
216570.832,27.832,37.598,31.738,47.852,20.508,0
216570.836,36.133,38.086,18.066,36.621,3.906,0
216570.840,41.504,37.598,9.277,30.762,1.953,0
216570.844,33.203,32.227,24.902,34.180,55.664,0
216570.848,25.391,24.902,36.133,31.738,48.340,0
216570.852,28.809,22.949,31.250,28.320,15.137,0
216570.856,29.785,29.785,19.531,31.250,-9.766,0
216570.860,37.598,38.574,35.156,41.016,9.766,0
216570.863,43.945,29.297,47.363,39.551,50.293,0
216570.867,30.762,18.066,29.297,31.250,37.109,0
216570.871,21.484,20.508,13.184,27.344,32.227,0
216570.875,29.785,25.879,8.789,34.668,54.688,0
216570.879,37.109,34.668,16.602,51.270,66.895,0
216570.883,32.715,33.691,29.297,48.828,51.270,0
216570.887,25.879,28.320,38.086,29.297,56.641,0
216570.891,28.320,32.715,37.598,22.949,88.379,0
216570.895,35.645,33.203,30.273,36.133,111.328,0
216570.899,30.762,24.414,20.508,24.902,24.902,0
216570.902,27.832,22.949,24.902,14.648,-7.324,0
216570.906,39.551,36.133,36.133,33.203,38.086,0
216570.910,37.109,36.133,33.691,34.668,51.270,0
216570.914,25.879,25.879,30.273,24.902,75.684,0
216570.918,28.320,25.879,28.320,21.973,62.500,0
216570.922,34.180,32.227,24.414,23.438,72.754,0
216570.926,32.715,36.133,23.926,29.297,65.918,0
216570.930,34.668,32.227,20.020,32.715,42.969,0
216570.934,34.180,27.832,22.461,34.668,55.664,0
216570.938,33.203,32.227,34.180,31.738,-7.324,0
216570.942,38.086,30.273,36.133,35.156,-19.531,0
216570.945,34.180,24.414,25.879,35.156,-1.465,0
216570.949,28.320,19.531,24.414,31.738,-27.832,0
216570.953,27.832,12.207,29.785,34.668,18.555,0
216570.957,27.344,20.020,22.949,23.926,46.387,0
216570.961,34.668,31.738,23.926,39.062,20.996,0
216570.965,53.223,36.133,42.969,53.711,7.324,0
216570.969,46.875,30.273,36.621,41.504,33.203,0
216570.973,17.090,25.879,19.043,20.020,28.320,0
216570.977,17.578,31.250,25.391,11.230,13.184,0
216570.981,28.809,29.297,33.203,20.020,16.602,0
216570.985,33.203,22.461,36.133,25.391,24.902,0
216570.988,33.203,25.879,32.715,24.902,35.156,0
216570.992,28.809,36.133,33.203,22.461,4.395,0
216570.996,32.227,40.039,31.250,29.785,14.648,0
216571.000,32.715,27.832,26.367,24.902,41.992,0
216571.004,35.645,23.438,30.273,31.250,27.344,0
216571.008,42.480,36.133,27.344,43.945,15.625,0
216571.012,52.246,44.434,30.273,34.180,30.762,0
216571.016,57.617,50.781,33.203,36.133,27.344,0
216571.020,41.504,40.527,28.320,33.691,33.691,0
216571.024,32.227,29.785,34.180,25.879,33.691,0
216571.027,34.180,30.762,40.527,18.066,28.809,0
216571.031,28.809,30.762,33.203,24.414,41.016,0
216571.035,28.320,33.203,20.996,38.574,50.293,0
216571.039,30.762,34.180,29.785,29.297,57.129,0
216571.043,30.273,31.250,40.039,24.902,60.059,0
216571.047,38.574,32.715,36.133,21.484,40.527,0
216571.051,43.457,36.133,28.320,20.508,30.273,0
216571.055,41.504,28.809,13.672,39.551,26.855,0
216571.059,38.574,29.785,20.508,49.316,26.855,0
216571.063,30.762,41.992,33.203,33.691,39.551,0
216571.067,29.297,44.922,28.809,25.879,42.480,0
216571.070,27.344,40.039,27.344,27.832,62.012,0
216571.074,29.785,37.598,42.969,27.344,49.316,0
216571.078,37.109,31.738,44.922,32.227,1.465,0
216571.082,33.203,30.273,24.902,29.785,-12.207,0
216571.086,31.738,35.645,27.832,32.227,27.344,0
216571.090,27.832,27.344,34.180,34.180,42.969,0
216571.094,31.250,21.484,31.250,30.273,22.949,0
216571.098,39.062,28.809,36.133,42.969,1.953,0
216571.102,25.391,32.227,32.715,43.945,13.184,0
216571.106,19.531,34.180,20.508,43.945,57.129,0
216571.110,28.320,39.551,13.184,46.387,41.992,0
216571.113,32.715,41.504,14.160,41.016,11.719,0
216571.117,31.738,37.598,21.484,31.738,27.832,0
216571.121,44.434,44.434,41.016,43.945,53.711,0
216571.125,47.363,43.945,36.621,46.875,44.922,2
216571.129,30.273,28.320,13.184,26.367,51.758,0
216571.133,24.414,26.367,21.484,29.785,62.988,0
216571.137,27.344,20.996,29.297,34.180,48.340,0
216571.141,33.203,18.066,26.367,32.227,42.480,0
216571.145,34.180,28.320,26.855,43.457,69.824,0
216571.149,33.691,28.320,25.391,48.828,80.566,0
216571.152,32.715,20.508,13.184,46.875,50.293,0
216571.156,33.203,24.414,14.648,42.969,22.461,0
216571.160,39.551,30.762,31.250,44.434,32.715,0
216571.164,40.039,32.227,42.969,52.246,32.715,0
216571.168,32.227,25.391,39.551,33.691,-10.254,0
216571.172,30.762,21.973,28.320,23.926,-30.762,0
216571.176,34.668,31.250,24.414,36.621,7.324,0
216571.180,47.852,43.945,34.668,52.734,6.836,0
216571.184,48.340,41.504,34.668,41.504,-6.348,0
216571.188,29.297,24.902,21.973,25.391,9.766,0
216571.192,26.855,18.555,23.438,38.574,35.645,0
216571.195,26.855,21.484,21.484,41.992,27.832,0
216571.199,20.996,23.438,20.508,32.227,8.789,0
216571.203,31.250,25.879,32.715,36.621,41.016,0
216571.207,36.621,21.973,43.457,39.062,30.273,0
216571.211,37.598,14.648,39.062,32.715,2.441,0
216571.215,42.480,23.926,30.762,36.133,7.324,0
216571.219,41.992,39.551,30.762,44.922,4.883,0
216571.223,39.062,43.945,35.156,44.434,30.762,0
216571.227,41.016,38.574,36.133,37.598,16.602,0
216571.231,35.156,37.109,32.227,18.066,-20.996,0
216571.235,31.250,39.551,31.738,21.484,20.508,0
216571.238,38.574,40.527,34.180,33.691,76.660,0
216571.242,33.691,30.762,25.391,24.902,25.391,0
216571.246,42.480,29.297,24.902,30.273,-18.066,0
216571.250,52.246,38.574,37.598,45.898,39.062,0
216571.254,49.316,41.992,42.480,48.828,76.660,0
216571.258,44.434,41.992,36.621,42.969,84.473,0
216571.262,39.551,34.668,34.180,33.203,80.078,0
216571.266,31.250,23.438,27.344,25.391,68.359,0
216571.270,32.715,23.926,25.391,26.367,88.867,0
216571.274,36.621,26.855,33.203,29.297,103.516,0
216571.277,44.922,33.203,33.203,37.109,63.477,0
216571.281,47.852,39.551,26.855,51.270,21.484,0
216571.285,41.504,31.738,14.648,37.109,17.090,0
216571.289,43.457,34.180,26.855,36.133,44.922,0
216571.293,39.551,31.250,46.387,53.711,70.801,0
216571.297,37.598,30.762,41.504,49.316,51.270,0
216571.301,34.668,43.945,33.691,37.598,23.438,0
216571.305,32.227,34.180,35.156,30.762,20.996,0
216571.309,30.762,24.902,40.039,36.621,-6.836,0
216571.313,35.645,27.832,44.434,43.945,-21.484,0
216571.317,46.387,27.344,33.691,48.828,-3.418,0
216571.320,44.922,28.320,25.391,44.434,-6.348,0
216571.324,28.320,24.902,31.738,28.320,-21.973,0
216571.328,30.273,27.344,27.832,36.621,-13.184,0
216571.332,41.016,22.461,19.531,52.734,-35.156,0
216571.336,37.598,21.973,21.973,41.504,-27.344,0
216571.340,36.621,31.738,30.762,34.668,24.902,0
216571.344,33.691,26.855,35.156,29.785,-16.602,0
216571.348,27.344,28.320,36.133,20.996,-29.297,0
216571.352,27.832,34.668,37.598,35.645,11.230,0
216571.356,31.738,29.785,38.086,45.898,5.371,0
216571.360,32.715,23.926,27.344,41.992,16.113,0
216571.363,34.180,29.297,17.090,31.250,14.160,0
216571.367,30.273,29.785,28.809,25.391,36.621,0
216571.371,32.227,26.367,34.668,36.621,109.863,0
216571.375,39.551,28.320,21.484,40.527,114.746,0
216571.379,43.945,28.809,19.531,28.809,64.941,0
216571.383,47.363,33.691,23.438,44.922,72.754,0
216571.387,43.457,31.738,29.785,50.293,103.516,0
216571.391,34.668,23.438,44.434,23.438,55.176,0
216571.395,27.832,32.715,41.992,25.391,15.137,0
216571.399,29.297,41.504,39.062,32.715,5.859,0
216571.402,35.645,32.227,40.527,33.691,41.992,0
216571.406,39.551,31.250,34.668,35.156,62.012,0
216571.410,33.203,29.297,30.273,30.273,44.434,0
216571.414,32.715,30.273,28.809,30.762,24.902,0
216571.418,34.180,31.738,14.648,38.086,46.875,0
216571.422,25.879,25.391,13.672,27.344,64.453,0
216571.426,21.484,21.484,26.855,25.879,33.203,0
216571.430,31.250,23.438,32.227,37.109,33.691,0
216571.434,38.574,30.762,39.062,37.598,23.926,0
216571.438,28.320,30.273,30.273,32.715,-25.391,0
216571.442,19.531,28.320,18.066,27.344,-63.965,0
216571.445,27.832,32.227,26.367,28.809,-43.945,0
216571.449,36.621,32.227,32.227,36.621,0.488,0
216571.453,44.434,31.250,31.250,36.133,-3.418,0
216571.457,36.133,23.926,23.926,34.180,-23.438,0
216571.461,22.461,22.461,15.137,39.062,-24.414,0
216571.465,35.156,31.250,23.438,38.574,-2.441,0
216571.469,45.410,32.227,32.715,42.969,10.254,0
216571.473,32.715,24.902,32.227,30.273,6.348,0
216571.477,20.508,19.043,36.621,16.113,23.926,0
216571.481,28.809,21.973,31.250,30.273,34.180,0
216571.485,42.969,26.367,19.531,41.504,30.762,0
216571.488,41.504,27.832,31.738,41.016,3.906,0
216571.492,31.250,23.438,41.992,33.691,4.395,0
216571.496,24.902,24.902,35.156,25.879,13.184,0
216571.500,24.414,26.855,29.785,19.043,-25.879,0
216571.504,32.715,30.273,35.156,23.438,-32.227,0
216571.508,41.504,43.457,38.574,37.598,-1.953,0
216571.512,39.551,39.551,35.156,39.551,-12.207,0
216571.516,33.203,33.691,32.715,40.527,-37.109,0
216571.520,33.203,40.527,28.809,33.203,-20.996,0
216571.524,37.598,40.527,17.090,28.809,2.441,0
216571.527,34.668,38.574,20.996,28.809,29.785,0
216571.531,34.180,42.969,28.320,33.691,35.156,0
216571.535,45.410,43.457,23.926,41.504,26.367,0
216571.539,52.246,32.715,28.809,53.223,61.035,0
216571.543,44.922,33.203,38.086,50.781,69.824,0
216571.547,33.691,33.203,34.668,25.879,54.199,0
216571.551,36.621,34.668,24.902,30.762,72.754,0
216571.555,41.016,32.227,24.902,32.715,34.180,0
216571.559,41.504,26.367,22.461,28.320,-7.324,0
216571.563,38.574,29.297,17.578,40.039,-16.113,0
216571.567,36.133,29.785,32.715,43.457,-4.395,0
216571.570,35.156,22.461,43.945,46.387,24.902,0
216571.574,34.668,16.602,34.668,40.527,9.277,0
216571.578,30.273,26.855,28.809,30.762,8.789,0
216571.582,32.227,38.574,24.902,35.156,40.039,0
216571.586,36.621,40.039,22.949,41.504,40.527,0
216571.590,35.156,41.504,28.809,37.598,34.668,0
216571.594,35.156,31.250,37.598,39.062,12.207,0
216571.598,30.273,21.973,36.133,42.969,28.809,0
216571.602,27.344,22.461,34.668,31.738,40.527,0
216571.606,25.391,19.043,37.598,19.043,4.395,0
216571.610,29.297,26.855,40.527,41.504,-0.488,0
216571.613,26.855,29.297,38.574,41.016,40.039,0
216571.617,23.926,22.461,35.645,28.320,11.230,0
216571.621,28.809,20.508,31.738,31.250,24.902,0
216571.625,37.598,30.762,28.320,37.598,94.727,0
216571.629,38.086,32.715,23.926,40.039,87.402,0
216571.633,30.273,24.414,23.438,29.785,96.191,0
216571.637,30.762,28.320,34.180,29.297,100.586,0
216571.641,30.762,34.180,38.574,30.273,73.730,0
216571.645,26.367,32.715,34.180,26.855,105.469,0
216571.649,30.273,20.508,24.902,30.273,96.680,0
216571.652,34.180,13.184,21.484,28.809,56.152,0
216571.656,38.574,16.113,27.832,33.691,40.039,0
216571.660,32.715,14.160,25.879,31.250,22.461,0
216571.664,23.926,17.090,18.555,31.250,43.457,0
216571.668,35.645,27.344,25.879,44.922,47.363,0
216571.672,45.898,27.832,28.809,43.945,25.879,0
216571.676,44.922,29.297,25.879,44.922,-2.441,0
216571.680,37.109,29.297,14.648,35.645,-6.836,0
216571.684,30.762,29.785,17.090,26.855,-2.930,0
216571.688,32.227,37.598,33.691,30.273,13.184,0
216571.692,34.180,40.039,37.598,25.391,4.883,0
216571.695,26.367,32.227,28.809,8.789,-9.766,0
216571.699,27.344,25.391,21.973,25.391,25.879,0
216571.703,37.109,29.785,20.020,37.109,57.129,0
216571.707,31.250,28.809,19.043,21.484,55.664,0
216571.711,29.297,24.414,20.508,27.832,69.336,0
216571.715,40.039,29.785,31.250,41.016,54.688,0
216571.719,34.180,24.902,31.738,36.621,41.992,0
216571.723,27.344,21.973,22.461,26.855,43.945,0
216571.727,37.109,27.832,28.809,34.668,24.902,0
216571.731,39.062,18.066,34.668,41.992,24.902,0
216571.735,33.691,14.648,25.391,34.180,36.621,0
216571.738,33.203,26.367,16.602,27.344,36.621,0
216571.742,34.180,33.203,24.902,24.414,28.320,0
216571.746,30.273,30.762,28.809,33.203,62.012,0
216571.750,20.996,19.043,24.902,28.320,81.543,0
216571.754,24.414,23.926,28.320,41.504,59.570,0
216571.758,29.785,35.156,32.715,55.664,65.430,0
216571.762,34.180,38.086,32.227,46.387,74.707,0
216571.766,32.715,31.250,30.273,43.457,58.594,0
216571.770,22.949,17.578,20.996,28.809,36.621,0
216571.774,18.066,17.090,21.973,20.508,38.574,0
216571.777,16.113,23.438,24.902,19.043,96.191,0
216571.781,26.367,29.297,21.973,27.344,89.844,0
216571.785,33.691,30.273,22.949,26.855,-4.395,0
216571.789,24.902,25.391,24.902,18.555,-11.230,0
216571.793,27.344,20.508,13.672,23.926,28.320,0
216571.797,40.527,24.414,10.254,30.762,26.855,0
216571.801,52.246,33.203,28.809,36.133,67.871,0
216571.805,55.664,33.203,43.945,37.109,41.992,0
216571.809,53.223,31.738,37.109,42.969,11.719,0
216571.813,52.734,27.344,30.273,39.551,16.113,0
216571.817,42.969,26.367,34.180,29.785,15.625,0
216571.820,35.645,34.668,36.621,34.668,11.719,0
216571.824,48.828,36.133,38.086,45.410,13.672,0
216571.828,38.086,28.809,26.367,37.109,2.441,0
216571.832,29.785,34.180,23.926,35.645,-20.020,0
216571.836,40.039,42.969,25.879,46.387,14.648,0
216571.840,49.805,41.992,22.949,43.457,26.855,0
216571.844,50.781,41.992,35.156,42.969,11.230,2
216571.848,37.109,41.016,35.645,41.992,57.617,0
216571.852,38.086,30.762,32.715,37.598,127.441,0
216571.856,40.039,26.367,38.086,32.715,101.074,0
216571.860,35.645,26.855,35.645,25.879,42.480,0
216571.863,34.180,27.832,28.320,41.016,70.801,0
216571.867,33.203,27.344,26.855,51.270,95.215,0
216571.871,30.273,22.949,20.508,32.227,83.496,0
216571.875,26.367,22.949,21.973,25.391,83.496,0
216571.879,25.391,20.020,37.598,34.668,74.707,0
216571.883,20.508,16.113,44.922,38.086,47.852,0
216571.887,20.996,26.855,34.180,36.133,4.883,0
216571.891,30.762,35.156,19.531,40.039,-9.277,0
216571.895,40.527,32.227,31.738,51.758,10.254,0
216571.899,42.480,34.180,43.945,46.875,-20.996,0
216571.902,39.062,33.691,37.598,50.293,-20.508,0
216571.906,37.598,22.949,29.297,34.668,3.906,0
216571.910,44.434,20.996,25.879,26.367,28.809,0
216571.914,54.199,30.762,30.762,40.527,32.227,0
216571.918,46.875,34.668,32.227,32.227,-9.766,0
216571.922,36.621,24.414,32.715,26.855,-36.133,0
216571.926,46.875,25.879,33.203,38.086,-8.789,0
216571.930,45.898,31.738,26.855,49.316,16.113,0
216571.934,42.969,32.227,30.762,55.176,12.695,0
216571.938,56.152,31.250,32.715,62.012,-11.230,0
216571.942,48.828,29.297,24.902,61.523,-1.953,0
216571.945,42.969,40.527,25.391,58.105,38.086,0
216571.949,36.621,38.574,20.996,52.734,44.434,0
216571.953,28.320,29.297,19.043,27.832,32.715,0
216571.957,33.691,32.227,29.297,19.531,13.184,0
216571.961,30.762,30.762,30.762,31.738,31.738,0
216571.965,27.344,24.902,22.949,29.297,41.992,0
216571.969,32.227,23.926,27.832,29.297,22.461,0
216571.973,24.414,29.785,30.762,18.066,15.137,0
216571.977,23.926,36.621,21.484,10.742,26.367,0
216571.981,31.738,36.621,18.555,17.578,35.156,0
216571.985,22.461,31.250,28.320,22.461,30.762,0
216571.988,27.344,34.180,34.668,31.250,52.246,0
216571.992,37.109,38.574,33.691,23.926,53.711,0
216571.996,27.344,27.344,17.090,21.484,36.133,0
216572.000,27.344,24.902,14.648,40.527,34.668,0
216572.004,37.598,26.367,38.086,35.156,30.762,0
216572.008,35.156,20.996,45.410,23.438,25.391,0
216572.012,24.902,20.020,33.203,24.902,10.254,0
216572.016,25.391,15.625,18.555,38.086,26.367,0
216572.020,32.227,19.043,13.672,40.527,17.578,0
216572.024,40.039,36.621,20.020,35.156,-26.855,0
216572.027,40.527,31.250,33.691,27.832,-42.480,0
216572.031,43.945,25.879,34.180,27.832,-26.367,0
216572.035,44.922,25.879,23.926,38.086,16.602,0
216572.039,36.621,19.531,23.438,33.691,37.109,0
216572.043,36.621,30.762,29.297,29.297,51.758,0
216572.047,36.133,33.203,31.250,36.133,64.941,0
216572.051,29.297,20.996,34.180,27.344,39.551,0
216572.055,28.809,17.578,29.297,23.926,7.324,0
216572.059,37.598,20.020,23.926,40.039,-12.207,0
216572.063,37.109,19.531,24.414,34.180,19.531,0
216572.067,25.391,24.902,30.762,25.879,44.922,0
216572.070,19.043,29.785,28.809,21.973,18.555,0
216572.074,21.484,27.832,14.648,24.902,27.832,0
216572.078,23.438,33.203,11.230,26.367,49.316,0
216572.082,19.531,34.180,19.043,13.672,42.480,0
216572.086,20.996,26.367,23.926,20.020,39.551,0
216572.090,22.461,22.461,24.902,22.461,59.082,0
216572.094,20.508,23.438,22.461,23.438,54.199,0
216572.098,28.809,36.621,28.809,32.715,57.129,0
216572.102,31.250,36.621,28.320,14.648,60.547,0
216572.106,24.414,27.344,14.160,14.160,43.945,0
216572.110,26.855,33.691,23.438,36.621,62.500,0
216572.113,30.273,33.203,29.785,27.344,51.270,0
216572.117,29.297,23.438,19.531,15.137,33.203,0
216572.121,20.996,19.043,17.578,20.996,57.129,0
216572.125,20.996,23.926,19.531,21.484,75.684,0
216572.129,30.762,30.273,19.531,27.344,37.109,0
216572.133,29.785,30.762,26.855,33.691,12.695,0
216572.137,34.668,34.668,36.133,34.668,17.578,0
216572.141,38.574,37.109,30.762,26.855,35.156,0
216572.145,33.691,27.344,31.738,20.020,56.152,0
216572.149,31.250,20.508,33.203,25.879,85.449,0
216572.152,30.762,22.949,31.250,36.621,95.703,0
216572.156,29.297,25.879,28.320,38.086,45.898,0
216572.160,29.297,26.855,26.855,32.715,22.461,0
216572.164,32.715,27.344,32.227,37.598,29.785,0
216572.168,28.809,30.762,28.320,42.480,37.598,0
216572.172,27.344,24.414,29.297,33.691,26.367,0
216572.176,33.691,24.902,30.762,36.621,20.020,0
216572.180,35.156,39.062,30.273,37.109,23.438,0
216572.184,28.809,41.016,32.715,24.414,27.832,0
216572.188,29.785,31.738,28.809,29.297,43.945,0
216572.192,31.250,32.227,29.785,39.062,35.156,0
216572.195,25.391,30.762,37.598,36.133,20.508,0
216572.199,21.484,22.949,29.785,23.926,42.480,0
216572.203,23.438,27.344,21.973,21.484,32.715,0
216572.207,33.691,35.645,25.879,31.738,-8.301,0
216572.211,35.156,31.738,24.414,37.109,9.277,0
216572.215,28.809,26.367,23.438,34.668,46.875,0
216572.219,32.715,33.691,33.691,40.039,50.781,0
216572.223,31.250,36.621,34.180,37.598,49.316,0
216572.227,22.949,29.785,30.762,28.809,45.898,0
216572.231,30.273,34.180,41.016,38.086,45.898,0
216572.235,34.180,31.250,37.109,37.598,86.426,0
216572.238,27.344,22.949,22.461,27.832,111.816,0
216572.242,28.809,29.785,18.066,32.227,103.027,0
216572.246,33.691,34.668,27.832,37.109,73.242,0
216572.250,34.668,31.738,24.414,29.785,65.430,0
216572.254,36.621,36.621,25.391,40.039,66.406,0
216572.258,34.668,37.598,34.180,54.199,74.219,0
216572.262,28.809,32.715,35.645,41.504,53.711,0
216572.266,23.926,33.691,41.504,27.832,26.855,0
216572.270,31.738,36.621,38.574,41.504,50.781,0
216572.274,37.598,36.621,30.273,38.574,57.617,0
216572.277,27.832,29.785,25.391,30.762,15.625,0
216572.281,25.879,27.344,23.926,42.480,-0.488,0
216572.285,29.297,21.973,24.902,35.156,7.324,0
216572.289,25.879,17.090,31.738,28.320,0.000,0
216572.293,26.367,28.320,31.250,32.715,-25.391,0
216572.297,37.109,39.551,31.738,42.969,-42.969,0
216572.301,45.898,39.551,30.273,52.734,-10.254,0
216572.305,41.992,32.715,30.273,48.828,35.156,0
216572.309,37.109,35.645,41.992,52.734,35.156,0
216572.313,42.480,43.945,38.574,56.641,43.945,0
216572.317,42.969,40.039,22.461,40.039,43.945,0
216572.320,25.391,28.809,18.066,23.926,-0.488,0
216572.324,21.484,23.926,33.203,33.691,-17.090,0
216572.328,31.738,25.391,45.898,43.945,-1.465,0
216572.332,34.180,21.973,34.668,33.203,14.648,0
216572.336,30.762,25.391,31.250,35.645,42.480,0
216572.340,28.809,26.855,38.086,31.738,29.297,0
216572.344,36.133,23.438,36.621,34.668,23.438,0
216572.348,39.062,29.297,26.367,49.805,38.086,0
216572.352,40.039,39.551,24.414,48.340,12.695,0
216572.356,41.016,46.875,30.273,32.227,-16.113,0
216572.360,36.133,44.434,31.738,30.273,-10.742,0
216572.363,32.227,36.133,34.668,35.645,-8.789,0
216572.367,24.902,29.785,28.809,23.926,5.859,0
216572.371,24.902,28.809,21.484,24.902,32.715,0
216572.375,24.902,28.809,15.625,30.273,38.574,0
216572.379,26.855,26.855,19.043,28.809,46.875,0
216572.383,32.715,28.320,24.902,22.949,30.273,0
216572.387,35.156,29.297,25.391,26.855,-6.836,0
216572.391,33.691,27.344,21.973,29.785,29.297,0
216572.395,32.227,26.855,19.043,26.367,52.734,0
216572.399,36.133,33.691,24.902,27.344,38.086,0
216572.402,37.598,38.574,25.879,24.414,-8.301,0
216572.406,44.922,33.691,28.320,33.203,-9.766,0
216572.410,54.688,37.598,24.902,42.969,36.133,1
216572.414,44.922,39.551,12.695,27.832,37.598,0
216572.418,39.062,39.062,24.414,31.250,37.598,0
216572.422,41.016,40.039,23.438,47.363,79.590,0
216572.426,35.156,27.832,17.578,33.691,82.520,0
216572.430,26.855,19.531,21.973,28.809,59.570,0
216572.434,21.484,20.996,19.531,19.043,71.777,0
216572.438,24.902,30.762,30.273,23.438,98.633,0
216572.442,27.344,34.668,28.809,36.133,90.820,0
216572.445,24.414,35.645,24.414,20.508,48.828,0
216572.449,28.320,36.133,28.809,10.742,64.941,0
216572.453,38.086,35.156,26.855,20.020,93.262,0
216572.457,41.504,40.527,26.855,28.320,63.477,0
216572.461,35.156,36.133,19.043,27.832,44.922,0
216572.465,37.109,28.809,20.996,30.762,64.453,0
216572.469,46.387,24.902,25.879,37.598,102.539,0
216572.473,49.805,28.320,24.414,36.621,78.613,0
216572.477,48.340,36.133,23.438,43.945,23.926,0
216572.481,54.688,32.715,27.832,50.781,17.090,0
216572.485,43.457,22.949,24.414,30.273,23.926,0
216572.488,22.461,23.438,15.625,12.207,-10.742,0
216572.492,32.715,34.668,18.066,34.180,-39.551,0
216572.496,37.109,36.133,25.879,41.016,-12.207,0
216572.500,19.531,27.832,27.832,8.301,22.461,0
216572.504,14.648,22.949,28.320,3.418,30.762,0
216572.508,23.438,27.344,28.809,15.137,34.180,0
216572.512,19.531,33.203,19.043,20.508,53.711,0
216572.516,13.672,30.273,6.348,18.555,54.199,0
216572.520,12.207,27.832,18.066,32.715,31.250,0
216572.524,11.719,20.020,28.809,33.691,27.832,0
216572.527,13.184,14.160,29.297,16.602,26.855,0
216572.531,15.137,17.578,28.809,17.578,9.766,0
216572.535,20.996,24.414,28.809,25.391,8.789,0
216572.539,30.273,28.809,34.180,31.250,46.387,0
216572.543,33.203,15.625,35.645,37.598,89.355,0
216572.547,28.320,8.789,27.832,36.621,73.242,0
216572.551,31.738,18.555,17.090,39.062,30.273,0
216572.555,32.715,26.367,12.207,34.180,71.289,0
216572.559,29.297,29.297,24.414,23.926,125.000,0
216572.563,30.273,25.879,32.715,26.367,80.566,0
216572.567,32.715,27.344,20.996,33.203,43.945,0
216572.570,35.156,26.855,20.020,27.832,61.035,0
216572.574,44.922,26.855,32.715,32.715,65.918,0
216572.578,46.387,28.809,36.621,43.945,5.371,0
216572.582,46.387,32.227,34.180,43.945,-20.508,0
216572.586,50.293,33.691,33.691,44.922,17.090,0
216572.590,41.016,31.250,28.320,40.039,8.301,0
216572.594,37.598,40.527,27.344,35.156,-13.184,0
216572.598,41.016,43.457,30.273,31.250,5.859,0
216572.602,30.762,24.902,22.461,28.809,40.527,0
216572.606,29.297,19.531,17.578,21.484,7.324,0
216572.610,34.180,20.996,17.578,28.320,16.113,0
216572.613,29.297,16.602,15.625,39.551,68.848,0
216572.617,24.902,21.973,16.602,38.086,81.055,0
216572.621,19.531,24.414,25.879,37.109,82.520,0
216572.625,21.973,22.461,32.715,25.879,36.133,0
216572.629,22.949,21.484,29.785,20.996,50.293,0
216572.633,17.578,21.973,24.414,35.645,101.074,0
216572.637,23.438,25.391,21.973,36.133,102.539,0
216572.641,33.203,28.320,19.531,25.391,76.660,0
216572.645,34.668,28.320,22.949,29.785,42.969,0
216572.649,28.320,30.273,26.855,34.668,66.406,0
216572.652,33.691,29.297,30.762,36.133,71.289,0
216572.656,37.109,21.973,25.879,33.691,42.480,0
216572.660,28.809,16.602,16.113,28.809,52.734,0
216572.664,30.762,13.184,15.625,32.715,33.203,0
216572.668,33.691,25.391,17.090,28.320,-18.066,0
216572.672,38.574,36.621,23.438,24.414,12.207,0
216572.676,38.574,30.762,32.715,33.691,56.152,0
216572.680,32.715,26.855,25.879,47.852,36.133,0
216572.684,33.691,29.297,17.578,23.926,6.836,0
216572.688,37.109,37.109,22.461,26.367,12.207,0
216572.692,35.156,37.109,21.973,51.270,23.438,0
216572.695,27.832,27.344,22.461,44.922,38.574,0
216572.699,24.414,14.160,21.973,40.527,66.406,0
216572.703,20.508,5.371,22.949,30.762,97.168,0
216572.707,15.137,12.695,29.297,27.832,111.328,0
216572.711,24.414,20.996,26.855,38.086,59.570,0
216572.715,42.969,35.156,29.297,52.734,35.156,0
216572.719,37.598,36.133,25.391,45.410,34.180,0
216572.723,25.391,29.785,19.043,36.621,27.344,0
216572.727,32.227,36.621,32.715,50.293,33.203,0
216572.731,31.250,27.344,32.227,36.621,3.418,0
216572.735,21.484,14.160,27.832,30.762,17.090,0
216572.738,25.879,21.973,36.621,41.016,67.383,0
216572.742,24.902,24.414,37.109,27.344,45.898,0
216572.746,23.438,18.066,30.273,18.066,19.043,0
216572.750,41.016,18.066,30.273,33.203,3.906,0
216572.754,51.270,29.785,36.133,56.152,-12.207,0
216572.758,40.039,26.367,28.809,46.387,18.066,0
216572.762,28.320,16.113,17.090,30.762,1.465,0
216572.766,27.344,24.902,13.184,29.785,-33.203,0
216572.770,38.574,33.691,22.461,38.086,-3.418,0
216572.774,36.133,31.250,32.715,35.645,-34.668,0
216572.777,20.996,28.320,30.273,22.949,-40.527,0
216572.781,21.973,29.297,29.785,29.785,0.488,0
216572.785,38.574,34.180,28.320,37.598,-55.664,0
216572.789,47.852,39.551,29.785,37.598,-90.820,0
216572.793,50.781,41.504,27.344,47.363,-26.367,0
216572.797,51.270,39.062,18.066,57.617,-27.344,0
216572.801,34.180,25.391,19.531,41.016,-20.508,0
216572.805,30.273,22.949,27.344,27.832,-15.137,0
216572.809,41.016,33.203,31.250,29.297,-37.109,0
216572.813,40.527,25.879,32.715,35.156,-37.598,0
216572.817,36.133,15.137,40.527,40.039,-59.082,0
216572.820,33.203,14.160,39.551,28.809,-57.617,0
216572.824,34.180,22.461,38.086,33.691,-9.766,0
216572.828,41.016,36.133,33.203,41.504,38.086,0
216572.832,36.133,39.062,23.438,33.203,25.879,0
216572.836,35.156,39.062,27.344,35.645,11.230,0
216572.840,37.109,31.250,28.320,44.922,0.000,0
216572.844,34.668,20.996,21.484,44.434,2.930,0
216572.848,41.016,32.227,22.461,35.156,40.527,0
216572.852,38.086,40.039,20.508,27.832,28.809,0
216572.856,35.645,39.062,30.762,36.621,8.789,0
216572.860,42.969,45.898,36.621,46.875,6.348,0
216572.863,38.086,40.527,23.438,31.738,35.645,0
216572.867,31.738,24.902,25.391,28.320,55.176,0
216572.871,27.832,25.391,26.367,33.691,81.543,0
216572.875,29.785,35.645,19.531,32.227,69.336,0
216572.879,25.391,31.250,19.043,27.344,69.336,0
216572.883,19.531,24.902,20.996,20.508,81.055,0
216572.887,22.461,26.367,25.391,25.391,53.711,0
216572.891,29.785,24.414,25.391,24.414,46.387,0
216572.895,32.715,22.949,25.391,26.367,38.574,0
216572.899,21.484,19.531,18.066,32.227,67.871,0
216572.902,29.297,23.438,21.973,39.062,66.406,0
216572.906,53.711,26.855,39.062,42.480,49.805,0
216572.910,48.828,17.090,34.180,37.109,12.695,0
216572.914,21.973,14.160,29.785,21.973,16.602,0
216572.918,10.742,17.578,25.879,8.301,79.102,0
216572.922,17.578,15.625,27.832,18.066,53.711,0
216572.926,21.484,18.066,29.785,29.297,30.273,0
216572.930,22.461,22.949,25.391,31.738,66.895,0
216572.934,20.508,25.391,22.949,26.367,65.918,0
216572.938,21.973,19.043,21.973,23.438,28.320,0
216572.942,24.414,13.184,29.785,20.508,29.297,0
216572.945,31.250,20.508,32.715,28.320,47.852,0
216572.949,45.898,33.203,20.996,47.363,24.902,0
216572.953,42.969,41.992,26.367,36.621,17.578,0
216572.957,29.785,35.645,39.551,16.113,36.621,0
216572.961,20.996,21.973,25.391,14.160,40.039,0
216572.965,20.996,5.859,19.531,25.391,36.621,0
216572.969,27.344,12.695,32.227,28.320,72.754,0
216572.973,27.832,29.297,32.227,30.273,55.664,0
216572.977,20.508,27.832,24.414,29.297,-3.906,0
216572.981,24.414,19.531,25.391,33.691,-3.418,0
216572.985,38.574,23.926,29.785,45.898,22.949,0
216572.988,45.410,36.621,25.879,50.293,20.996,0
216572.992,43.945,41.992,35.156,48.340,16.113,0
216572.996,36.133,36.621,38.574,40.527,32.715,0
216573.000,26.367,20.996,28.320,19.531,4.883,0
216573.004,24.902,21.484,30.762,27.832,-4.883,0
216573.008,31.250,30.273,38.574,52.734,50.293,0
216573.012,34.668,32.227,33.203,39.062,75.684,0
216573.016,30.762,29.785,23.438,27.344,70.312,0
216573.020,32.227,25.391,23.438,41.504,63.965,0
216573.024,36.133,25.391,27.832,35.645,63.965,0
216573.027,36.621,28.809,35.645,29.785,95.703,0
216573.031,43.945,25.879,37.598,35.645,96.191,0
216573.035,42.480,21.973,32.715,32.715,78.613,0
216573.039,32.227,23.438,31.250,34.668,53.711,0
216573.043,39.551,32.715,36.621,45.898,48.828,0
216573.047,38.086,30.273,23.438,40.527,25.391,0
216573.051,23.438,19.043,19.043,39.551,7.324,0
216573.055,25.879,22.461,35.645,44.922,-19.531,0
216573.059,32.715,23.438,31.738,31.250,-21.484,1
216573.063,40.039,27.832,26.855,33.691,-6.348,0
216573.067,36.133,40.039,35.645,31.738,2.441,0
216573.070,23.926,36.621,33.691,18.066,8.789,0
216573.074,22.949,32.227,32.227,22.461,26.367,0
216573.078,28.320,36.133,33.691,27.832,49.316,0
216573.082,31.250,33.691,33.203,23.438,37.109,0
216573.086,28.320,30.273,26.855,24.414,50.781,0
216573.090,35.645,37.109,20.508,39.551,49.316,0
216573.094,52.734,39.062,31.738,51.270,22.461,0
216573.098,46.875,32.715,31.250,47.363,43.457,0
216573.102,26.367,26.855,34.668,34.180,25.879,0
216573.106,21.973,20.996,32.715,20.996,-17.578,0
216573.110,21.484,11.230,19.043,17.578,-8.789,0
216573.113,18.066,5.859,26.855,11.230,13.184,0
216573.117,16.113,7.324,25.879,9.277,-10.742,0
216573.121,17.090,12.207,20.508,21.973,-15.625,0
216573.125,23.926,28.320,24.414,27.344,7.324,0
216573.129,32.227,38.574,28.809,26.855,24.902,0
216573.133,30.273,37.598,22.461,22.949,11.230,0
216573.137,26.367,34.668,25.391,25.391,26.367,0
216573.141,35.645,34.668,37.109,35.645,52.246,0
216573.145,40.039,30.762,31.738,36.621,35.156,0
216573.149,20.996,13.184,17.578,15.625,18.066,0
216573.152,26.855,19.043,20.996,19.531,24.414,0
216573.156,40.527,28.809,26.855,45.898,52.734,0
216573.160,25.391,13.184,13.672,42.969,67.871,0
216573.164,24.414,14.160,20.020,38.086,44.434,0
216573.168,29.297,29.785,36.621,39.551,40.527,0
216573.172,31.738,40.039,36.133,38.574,71.777,0
216573.176,41.016,38.086,28.809,38.574,57.129,0
216573.180,41.504,24.414,20.508,43.457,62.012,0
216573.184,46.875,19.043,33.691,43.945,50.781,0
216573.188,61.523,29.297,49.316,51.758,16.113,0
216573.192,55.664,25.879,32.715,54.688,-26.367,0
216573.195,35.156,22.461,21.973,31.250,-49.805,0
216573.199,34.180,31.250,28.809,28.320,-3.906,0
216573.203,37.109,32.715,33.203,33.203,33.691,0
216573.207,32.715,28.809,32.227,33.203,42.969,0
216573.211,34.180,28.320,27.344,33.691,32.227,0
216573.215,36.133,28.809,24.902,39.551,6.348,0
216573.219,41.016,35.156,30.762,44.434,23.926,0
216573.223,43.945,40.527,41.504,41.016,31.250,0
216573.227,40.527,39.551,43.457,38.574,30.762,0
216573.231,34.180,33.203,33.203,30.273,52.734,0
216573.235,34.180,27.344,25.879,23.926,57.129,0
216573.238,44.922,32.715,30.273,26.367,-8.301,0
216573.242,40.527,32.227,30.273,30.762,-27.832,0
216573.246,27.344,22.949,18.066,30.273,29.785,0
216573.250,24.414,23.438,15.625,34.668,23.438,0
216573.254,22.461,22.949,28.809,30.273,8.301,0
216573.258,27.832,18.066,33.203,28.809,-6.836,0
216573.262,41.504,20.996,35.645,35.156,-13.184,0
216573.266,44.434,22.461,35.645,44.922,-4.883,0
216573.270,32.715,23.926,32.227,55.664,8.789,0
216573.274,36.133,30.762,30.273,47.852,37.109,0
216573.277,40.527,34.668,26.855,45.410,37.598,0
216573.281,33.691,36.621,32.227,37.598,23.438,0
216573.285,23.438,26.367,35.645,24.414,-7.324,0
216573.289,28.809,14.160,31.250,23.926,19.531,0
216573.293,37.109,21.484,32.227,40.527,85.449,0
216573.297,30.273,32.715,40.527,33.691,51.758,0
216573.301,29.785,37.598,33.691,26.367,4.883,0
216573.305,31.250,33.691,23.438,32.227,24.902,0
216573.309,41.504,31.738,27.344,33.691,47.363,0
216573.313,45.898,36.133,25.391,38.574,18.555,0
216573.317,32.227,36.133,19.531,39.062,0.000,0
216573.320,24.902,37.109,27.832,41.504,-9.277,0
216573.324,27.832,34.180,35.645,42.480,-10.742,0
216573.328,27.344,26.855,37.109,28.320,-5.371,0
216573.332,22.949,28.809,34.180,18.066,8.301,0
216573.336,24.902,28.809,30.273,20.020,21.973,0
216573.340,34.668,27.832,28.320,27.832,48.340,0
216573.344,37.109,29.785,23.438,28.320,28.809,0
216573.348,27.832,30.762,26.855,31.738,11.230,0
216573.352,20.508,21.973,24.414,23.438,44.922,0
216573.356,16.602,15.625,28.320,14.648,60.059,0
216573.360,20.020,25.391,32.715,28.320,50.781,0
216573.363,30.762,28.320,26.367,41.992,31.250,0
216573.367,32.715,26.367,31.250,42.969,21.973,0
216573.371,20.508,30.762,33.203,35.156,7.812,0
216573.375,20.996,34.180,30.762,21.973,0.000,0
216573.379,24.902,23.438,28.320,22.461,44.922,0
216573.383,20.996,15.625,32.227,28.809,101.074,0
216573.387,20.508,22.949,28.809,20.508,48.340,0
216573.391,15.625,27.344,7.324,19.043,27.832,0
216573.395,24.414,26.367,8.789,29.785,54.199,0
216573.399,34.180,26.367,19.531,29.297,64.941,0
216573.402,21.484,15.137,32.715,22.461,78.613,0
216573.406,23.926,10.254,43.945,30.273,63.965,0
216573.410,33.691,29.785,31.250,42.480,55.176,0
216573.414,30.762,35.645,21.484,28.809,39.551,0
216573.418,27.832,26.367,27.832,24.902,15.625,0
216573.422,30.762,28.809,36.621,43.457,-14.648,0
216573.426,34.180,29.785,35.156,41.504,28.809,0
216573.430,27.832,27.344,23.438,31.738,81.543,0
216573.434,22.461,30.762,20.996,29.297,62.988,0
216573.438,31.738,29.785,15.137,31.738,79.590,0
216573.442,35.156,27.344,5.859,32.227,106.445,0
216573.445,24.414,29.297,13.672,19.531,55.664,0
216573.449,25.391,31.250,20.508,17.090,24.414,0
216573.453,35.156,30.273,19.531,26.367,19.043,0
216573.457,33.203,27.832,30.273,37.598,46.875,0
216573.461,26.855,22.949,31.250,35.645,69.824,0
216573.465,26.367,24.414,24.414,27.344,12.207,0
216573.469,27.344,29.297,32.227,28.320,-41.992,0
216573.473,31.250,27.832,33.691,27.344,-4.395,0
216573.477,36.621,22.461,20.020,22.949,30.762,0
216573.481,36.621,25.391,21.484,22.461,0.000,0
216573.485,32.715,33.203,28.809,29.785,5.371,0
216573.488,35.645,36.133,26.367,34.180,41.504,0
216573.492,39.551,35.156,25.391,42.480,12.695,0
216573.496,37.598,36.621,26.855,44.434,-15.137,0
216573.500,30.762,37.109,24.414,34.668,25.879,0
216573.504,28.320,28.320,20.996,28.320,64.453,0
216573.508,36.133,25.879,30.762,24.414,19.531,0
216573.512,42.480,30.273,29.785,46.387,-3.906,0
216573.516,44.922,27.832,24.414,66.406,48.340,0
216573.520,45.898,26.855,32.227,38.086,82.520,0
216573.524,30.762,23.926,29.785,20.020,78.125,0
216573.527,15.137,27.344,16.602,20.020,30.762,0
216573.531,15.625,30.762,12.207,23.926,7.812,0
216573.535,29.297,23.926,25.879,27.832,31.738,0
216573.539,30.273,27.344,33.203,24.902,4.883,0
216573.543,20.996,38.574,24.414,24.414,-19.531,0
216573.547,18.555,31.738,15.625,27.344,-2.441,0
216573.551,27.832,24.414,22.461,35.156,19.531,0
216573.555,28.320,25.391,36.621,35.645,3.418,0
216573.559,21.484,23.926,39.062,34.668,-26.367,0
216573.563,29.785,26.855,35.645,34.180,18.555,0
216573.567,34.668,29.785,34.180,36.621,50.293,0
216573.570,32.227,35.645,21.973,39.062,5.859,0
216573.574,32.715,36.133,21.484,41.992,-0.977,0
216573.578,35.156,34.180,33.691,56.152,66.406,0
216573.582,25.391,32.227,26.855,46.387,55.664,0
216573.586,27.832,22.949,19.531,24.902,27.832,0
216573.590,31.250,21.973,21.484,37.109,73.242,0
216573.594,23.926,24.902,24.414,38.574,55.176,0
216573.598,20.996,21.973,25.391,29.785,15.137,0
216573.602,23.926,23.438,30.273,28.320,49.316,0
216573.606,37.109,21.973,30.762,32.715,48.828,0
216573.610,41.992,18.066,15.137,42.969,25.391,0
216573.613,39.062,33.203,16.113,50.781,21.484,0
216573.617,35.645,41.992,35.156,42.480,11.230,0
216573.621,30.273,31.738,34.180,23.438,44.922,0
216573.625,28.320,25.879,23.926,34.180,36.133,0
216573.629,24.902,24.414,21.973,41.992,16.602,0
216573.633,20.508,28.809,24.414,28.320,16.602,0
216573.637,24.902,28.809,23.926,27.344,24.902,0
216573.641,24.902,21.973,30.273,37.109,20.508,0
216573.645,23.438,27.344,41.016,38.086,-33.203,0
216573.649,23.926,30.762,31.738,31.250,19.043,0
216573.652,21.973,25.879,16.113,33.691,49.316,0
216573.656,23.926,21.973,18.555,32.227,19.531,0
216573.660,30.273,29.297,26.367,29.297,4.395,0
216573.664,32.715,31.250,25.879,44.922,19.043,0
216573.668,26.855,18.066,23.438,50.781,60.059,0
216573.672,27.832,19.043,27.832,44.922,77.637,0
216573.676,27.344,24.902,30.273,39.551,99.121,0
216573.680,22.949,20.020,30.273,32.715,87.402,0
216573.684,27.344,28.809,29.785,34.668,69.824,0
216573.688,34.180,40.039,26.367,39.062,74.707,0
216573.692,43.457,41.992,24.902,42.480,23.926,0
216573.695,39.062,38.574,17.090,45.898,28.809,0
216573.699,35.156,30.273,20.508,37.109,79.590,0
216573.703,38.086,32.715,36.133,22.949,70.801,0
216573.707,36.621,38.574,34.180,24.902,58.594,0
216573.711,37.598,30.273,20.020,32.227,81.543,2
216573.715,34.668,28.320,19.531,28.320,97.656,0
216573.719,38.574,34.180,33.203,31.738,90.820,0
216573.723,38.574,24.414,39.551,38.086,68.359,0
216573.727,40.527,25.879,30.273,39.062,41.504,0
216573.731,40.039,40.527,29.297,37.598,43.945,0
216573.735,45.410,44.434,35.156,37.598,31.738,0
216573.738,48.828,36.621,21.484,32.715,25.391,0
216573.742,55.176,26.367,23.926,34.180,52.734,0
216573.746,63.965,21.484,33.203,43.945,37.598,0
216573.750,57.617,31.738,34.180,39.062,-8.301,0
216573.754,41.504,39.551,29.785,28.320,-24.414,0
216573.758,43.457,39.062,18.555,35.156,7.324,0
216573.762,49.316,41.016,25.879,55.176,4.883,0
216573.766,30.273,28.809,34.180,45.898,2.930,0
216573.770,27.344,23.926,34.668,40.039,78.613,0
216573.774,39.551,28.320,36.621,46.387,53.223,0
216573.777,41.992,26.855,29.297,52.246,28.320,0
216573.781,41.504,30.762,24.414,50.293,61.035,0
216573.785,38.086,26.367,28.809,35.645,21.484,0
216573.789,35.645,20.508,31.738,30.762,41.016,0
216573.793,31.250,19.531,21.484,20.996,44.922,0
216573.797,25.391,16.113,18.555,14.648,46.875,0
216573.801,23.926,14.648,26.367,22.949,68.359,0
216573.805,30.273,18.555,28.809,27.344,71.289,0
216573.809,37.598,20.508,31.738,29.785,78.125,0
216573.813,36.621,25.391,33.691,41.504,72.754,0
216573.817,35.645,31.250,28.809,28.320,60.059,0
216573.820,44.434,35.156,24.902,32.227,22.461,0
216573.824,40.039,31.738,24.414,52.246,24.414,0
216573.828,36.133,24.414,31.738,47.363,-9.766,0
216573.832,39.551,26.855,34.180,41.992,-17.090,0
216573.836,30.273,24.414,31.738,35.156,29.297,0
216573.840,25.879,21.484,27.832,34.180,27.344,0
216573.844,32.227,23.926,20.996,40.527,3.418,0
216573.848,36.621,20.020,30.762,53.223,18.066,0
216573.852,40.039,35.156,43.457,50.293,35.645,0
216573.856,32.715,37.598,39.062,27.832,2.930,0
216573.860,22.949,22.949,28.320,22.949,7.324,0
216573.863,26.855,29.785,24.902,36.621,32.227,0
216573.867,43.457,43.457,31.738,41.992,36.133,0
216573.871,37.598,33.691,23.926,37.598,22.949,0
216573.875,30.273,26.855,17.090,36.621,23.438,0
216573.879,34.668,29.785,28.809,30.273,35.156,0
216573.883,37.598,26.855,26.367,35.645,28.320,0
216573.887,43.945,26.855,29.785,40.527,31.738,0
216573.891,40.039,17.090,34.668,28.320,19.531,0
216573.895,33.691,16.113,20.996,26.367,17.090,0
216573.899,33.203,34.180,21.484,30.762,4.883,0
216573.902,33.203,39.551,38.574,25.879,13.672,0
216573.906,28.809,34.180,40.527,24.902,28.320,0
216573.910,35.645,34.180,29.785,26.855,15.625,0
216573.914,39.062,31.250,21.484,30.273,24.414,0
216573.918,41.504,30.762,20.508,34.668,22.461,0
216573.922,43.457,39.062,27.344,37.598,48.340,0
216573.926,32.715,28.809,25.879,29.297,92.285,0
216573.930,25.879,14.160,25.391,19.043,90.820,0
216573.934,30.273,17.578,24.414,26.367,35.156,0
216573.938,33.203,31.250,19.531,34.180,23.926,0
216573.942,31.250,40.039,28.320,27.344,46.875,0
216573.945,33.691,42.480,41.504,29.297,58.594,0
216573.949,37.109,35.645,41.992,34.668,51.758,0
216573.953,41.016,31.738,38.574,25.879,56.641,0
216573.957,48.340,40.527,37.598,37.598,39.062,0
216573.961,45.410,46.387,32.715,53.223,-9.277,0
216573.965,41.992,45.898,33.203,42.480,29.785,0
216573.969,41.504,40.039,32.227,33.203,8.789,0
216573.973,28.809,20.996,24.414,28.809,-1.465,0
216573.977,25.391,17.090,25.391,34.668,41.992,0
216573.981,34.668,32.715,34.180,32.715,52.246,0
216573.985,35.645,26.367,37.109,27.832,1.953,0
216573.988,36.621,20.996,32.715,30.273,-51.270,0
216573.992,44.434,41.504,39.062,33.691,-8.301,0
216573.996,37.109,49.316,34.668,29.785,34.668,0
216574.000,32.227,39.551,20.020,32.227,45.410,0
216574.004,47.852,41.992,25.391,44.922,45.898,0
216574.008,45.410,41.504,34.180,37.109,34.668,0
216574.012,37.109,34.668,41.016,38.086,15.625,0
216574.016,44.922,30.273,40.039,37.598,3.418,0
216574.020,46.875,34.180,31.250,33.691,-13.672,0
216574.024,41.504,42.969,33.691,33.691,-19.531,0
216574.027,39.551,35.645,30.762,42.969,-5.371,0
216574.031,40.039,28.320,31.738,49.316,-8.789,0
216574.035,35.156,24.902,44.434,31.738,-67.383,0
216574.039,34.180,28.809,44.434,35.156,-89.844,0
216574.043,34.668,37.598,36.133,37.109,-40.527,0
216574.047,35.156,39.062,28.320,27.832,-40.527,0
216574.051,30.273,36.133,32.227,34.180,-47.363,0
216574.055,29.297,32.227,46.387,39.062,7.812,0
216574.059,36.133,37.598,48.340,40.039,23.438,0
216574.063,40.527,42.969,38.574,40.039,-14.648,0
216574.067,42.969,41.504,28.809,48.340,0.000,0
216574.070,43.457,33.691,32.715,49.805,36.133,0
216574.074,45.898,40.527,41.016,44.434,14.648,0
216574.078,41.504,52.734,42.969,55.664,-8.789,0
216574.082,32.227,41.504,43.945,48.828,13.184,0
216574.086,25.391,31.738,43.457,37.598,37.109,0
216574.090,20.508,30.273,41.504,37.598,78.613,0
216574.094,17.578,30.273,41.504,30.762,67.383,0
216574.098,22.949,33.691,32.227,32.715,39.062,0
216574.102,31.250,31.250,18.555,46.387,89.355,0
216574.106,29.785,25.391,28.809,43.945,73.730,0
216574.110,28.320,25.391,44.922,41.016,30.762,0
216574.113,30.273,19.043,50.293,40.039,35.645,0
216574.117,42.480,12.695,48.340,34.668,52.246,0
216574.121,39.062,27.344,43.457,37.109,59.082,0
216574.125,24.414,36.621,38.086,26.367,52.734,0
216574.129,26.367,39.551,33.203,35.645,81.543,0
216574.133,32.227,41.992,33.691,44.922,97.656,0
216574.137,32.227,30.273,41.504,30.762,51.270,0
216574.141,31.738,21.484,45.410,31.250,38.086,0
216574.145,34.180,15.625,38.574,38.574,63.965,0
216574.149,36.133,18.555,31.250,38.086,62.012,0
216574.152,36.621,36.133,21.484,32.715,49.805,0
216574.156,40.527,42.969,23.926,32.227,34.668,0
216574.160,41.992,43.457,39.062,37.109,50.293,0
216574.164,41.504,43.457,41.016,42.480,63.477,0
216574.168,34.180,38.086,31.250,33.691,18.066,0
216574.172,22.461,27.832,28.320,21.973,37.598,0
216574.176,26.855,27.344,34.180,33.203,95.703,0
216574.180,39.551,39.551,33.691,38.086,62.988,0
216574.184,27.344,41.504,27.344,21.973,38.086,0
216574.188,20.020,34.668,25.391,27.344,60.547,0
216574.192,34.180,32.715,36.621,45.898,61.035,0
216574.195,39.062,36.133,38.086,45.410,67.871,0
216574.199,40.039,37.109,20.508,46.387,85.449,0
216574.203,42.969,26.367,18.555,54.199,78.613,0
216574.207,39.551,21.484,39.062,46.875,47.852,0
216574.211,32.715,27.344,42.969,29.297,28.809,0
216574.215,40.527,37.109,36.133,35.645,63.477,0
216574.219,47.852,43.457,42.969,48.828,52.734,0
216574.223,40.527,32.715,35.645,42.480,23.926,0
216574.227,39.551,31.738,29.785,42.969,37.598,0
216574.231,33.691,31.738,38.574,21.973,31.250,0
216574.235,29.785,27.832,40.527,25.879,46.875,0
216574.238,32.227,23.438,33.203,42.480,83.496,0
216574.242,33.203,25.879,28.320,30.273,46.387,0
216574.246,33.203,43.457,32.227,38.574,13.184,0
216574.250,37.598,47.363,40.039,47.363,38.574,0
216574.254,35.156,30.762,39.551,45.410,32.227,1
216574.258,33.691,21.484,34.668,42.969,13.184,0
216574.262,33.203,27.832,33.203,38.574,22.461,0
216574.266,28.320,27.832,29.297,34.180,-3.906,0
216574.270,33.203,25.879,34.180,37.598,3.906,0
216574.274,31.250,28.809,41.504,33.691,19.531,0
216574.277,26.855,31.250,38.086,21.484,11.719,0
216574.281,41.016,25.391,39.551,27.344,43.945,0
216574.285,42.969,20.020,39.551,40.039,73.730,0
216574.289,26.855,27.832,32.227,38.086,80.078,0
216574.293,20.020,27.832,26.855,29.785,63.965,0
216574.297,20.020,23.438,22.461,22.461,44.434,0
216574.301,29.785,28.320,29.297,32.227,25.391,0
216574.305,40.039,41.504,38.086,38.086,8.301,0
216574.309,34.668,30.762,37.109,33.203,20.508,0
216574.313,24.902,11.230,35.645,24.902,32.227,0
216574.317,23.926,17.090,33.691,25.391,33.691,0
216574.320,28.809,29.785,27.344,29.297,10.742,0
216574.324,25.879,30.273,29.785,15.137,13.184,0
216574.328,22.461,25.391,30.762,17.578,46.387,0
216574.332,24.902,26.367,28.809,30.273,17.578,0
216574.336,33.691,28.809,35.156,27.832,8.789,0
216574.340,25.391,26.367,31.738,23.926,35.645,0
216574.344,21.484,26.855,31.738,26.855,22.949,0
216574.348,31.250,26.855,28.320,38.086,13.184,0
216574.352,37.109,37.598,22.949,39.551,-8.301,0
216574.356,35.156,41.504,34.180,33.203,-13.184,0
216574.360,33.203,32.715,35.156,36.133,-10.254,0
216574.363,34.180,26.367,27.344,34.668,-18.555,0
216574.367,28.809,20.020,29.785,26.367,-26.367,0
216574.371,27.344,16.602,34.180,30.762,-7.324,0
216574.375,32.227,27.344,32.227,30.273,25.879,0
216574.379,33.203,41.992,32.715,27.832,42.969,0
216574.383,40.039,40.039,23.926,34.668,56.641,0
216574.387,45.410,27.832,22.949,40.527,69.336,0
216574.391,33.203,21.973,39.551,37.109,55.176,0
216574.395,26.855,22.461,41.992,25.879,2.441,0
216574.399,30.273,24.902,29.785,27.344,-10.742,0
216574.402,29.785,30.273,22.461,25.391,7.812,0
216574.406,24.414,32.227,24.414,24.902,6.836,0
216574.410,22.461,32.715,23.438,19.531,-40.039,0
216574.414,23.438,29.785,27.344,22.949,-64.453,0
216574.418,33.691,29.297,34.180,34.180,-5.371,0
216574.422,38.086,34.180,31.250,35.156,65.918,0
216574.426,39.062,37.109,30.762,39.551,96.680,0
216574.430,41.504,31.250,35.645,37.109,71.289,0
216574.434,41.992,30.762,40.039,38.086,73.242,0
216574.438,33.691,25.391,34.180,45.410,86.914,0
216574.442,26.855,16.113,24.902,42.480,97.656,0
216574.445,29.785,21.973,26.855,31.250,103.027,0
216574.449,29.297,20.508,20.996,25.391,76.172,0
216574.453,36.621,14.648,16.113,30.273,37.109,0
216574.457,42.480,20.508,28.809,41.016,27.344,0
216574.461,39.062,23.926,34.668,38.086,36.133,0
216574.465,36.133,26.855,32.715,41.992,38.574,0
216574.469,41.504,33.203,32.227,56.641,62.500,0
216574.473,42.480,35.156,29.785,51.758,63.477,0
216574.477,33.691,25.879,33.691,41.504,43.945,0
216574.481,23.438,11.230,30.273,27.832,65.918,0
216574.485,21.484,13.184,29.785,23.438,92.773,0
216574.488,30.273,26.367,34.668,29.785,77.148,0
216574.492,38.574,24.414,28.320,47.852,82.520,0
216574.496,32.715,18.066,19.531,39.062,87.402,0
216574.500,21.973,20.996,21.973,26.855,67.871,0
216574.504,23.926,26.367,22.461,31.738,26.855,0
216574.508,38.086,39.551,27.832,34.668,31.250,0
216574.512,44.434,43.945,30.273,32.227,32.227,0
216574.516,35.645,36.133,28.809,21.973,-6.836,0
216574.520,29.785,23.438,40.527,23.438,12.207,0
216574.524,38.574,19.531,41.504,27.832,31.250,0
216574.527,36.133,20.508,32.227,32.715,41.504,0
216574.531,25.879,19.531,23.926,30.273,55.664,0
216574.535,34.180,31.250,32.227,28.320,47.852,0
216574.539,40.527,41.992,37.109,35.645,21.484,0
216574.543,40.527,35.645,20.020,34.180,2.930,0
216574.547,35.156,24.902,14.160,20.020,18.555,0
216574.551,29.297,26.855,26.367,25.391,52.734,0
216574.555,28.320,35.156,29.297,43.457,22.949,0
216574.559,29.297,29.297,20.996,42.480,-35.645,0
216574.563,39.551,20.508,18.066,46.875,-47.363,0
216574.567,46.875,23.926,33.691,50.781,-8.789,0
216574.570,35.645,24.414,42.480,29.785,2.930,0
216574.574,29.785,27.832,36.133,21.973,4.395,0
216574.578,39.551,26.367,33.203,33.691,42.480,0
216574.582,34.668,24.902,29.785,28.320,39.062,0
216574.586,33.691,35.156,31.250,27.344,62.012,0
216574.590,32.227,34.668,18.555,27.832,68.848,0
216574.594,24.414,32.227,8.301,20.996,25.391,0
216574.598,33.691,34.180,20.020,41.016,46.875,0
216574.602,41.016,38.574,22.461,56.641,33.203,0
216574.606,28.809,34.668,23.926,38.574,-15.625,0
216574.610,21.484,22.461,29.785,34.668,14.160,0
216574.613,23.926,16.113,29.785,43.457,35.645,0
216574.617,22.461,20.508,30.273,35.156,14.648,0
216574.621,23.438,22.461,28.809,28.809,-11.230,0
216574.625,31.738,26.855,30.273,43.457,24.414,0
216574.629,32.227,31.738,27.344,54.688,42.969,0
216574.633,28.809,31.250,28.809,33.691,45.410,0
216574.637,35.645,35.645,32.227,26.855,53.223,0
216574.641,38.574,33.691,30.273,44.434,6.348,0
216574.645,32.227,28.320,38.086,38.086,-0.977,0
216574.649,36.621,24.414,35.156,35.156,29.297,0
216574.652,32.715,22.949,19.531,31.250,-2.441,0
216574.656,29.297,25.879,17.578,22.949,39.062,0
216574.660,39.551,24.414,29.785,29.297,80.566,0
216574.664,38.574,25.879,31.738,31.738,39.551,0
216574.668,33.203,34.668,26.855,38.574,77.148,0
216574.672,42.969,45.410,32.227,40.039,137.695,0
216574.676,48.828,39.551,32.227,49.316,87.402,0
216574.680,32.227,15.137,20.020,55.176,42.480,0
216574.684,19.531,8.301,9.277,18.066,33.691,0
216574.688,15.625,18.555,18.066,7.324,29.297,0
216574.692,14.648,29.785,30.762,20.996,69.824,0
216574.695,20.020,35.156,32.715,20.996,44.434,0
216574.699,24.414,31.738,31.738,18.066,21.484,0
216574.703,29.785,34.180,25.391,22.461,16.602,0
216574.707,30.273,35.645,21.484,30.762,1.953,0
216574.711,23.926,27.344,26.855,29.785,10.742,0
216574.715,28.320,31.250,31.738,29.785,-3.418,0
216574.719,40.527,38.086,36.133,41.016,13.184,0
216574.723,37.598,33.203,37.598,36.621,4.395,0
216574.727,29.297,25.391,30.762,25.879,-8.789,0
216574.731,26.367,23.438,23.926,23.438,18.066,0
216574.735,27.832,28.320,18.555,22.949,21.973,0
216574.738,31.250,34.180,18.555,22.949,-15.625,0
216574.742,33.691,42.480,29.297,27.344,-19.043,0
216574.746,35.156,38.574,37.598,26.855,20.996,0
216574.750,37.109,30.273,37.109,28.320,67.383,0
216574.754,41.016,27.832,34.668,31.250,62.988,0
216574.758,36.621,30.273,37.109,35.156,18.555,0
216574.762,33.691,32.715,36.621,35.645,35.156,0
216574.766,48.828,41.016,36.133,41.992,43.945,0
216574.770,40.039,35.645,29.785,42.969,30.273,0
216574.774,25.879,19.043,25.879,40.039,-15.137,0
216574.777,28.320,25.391,26.855,28.320,-12.207,0
216574.781,21.484,37.109,26.855,16.602,35.645,0
216574.785,18.555,34.668,27.832,11.719,22.461,0
216574.789,24.902,30.273,30.273,16.602,11.719,0
216574.793,30.273,29.297,31.738,20.020,20.508,0
216574.797,23.438,34.668,28.809,9.766,0.488,0
216574.801,17.578,34.180,33.203,21.973,-8.789,0
216574.805,19.043,25.391,31.250,27.832,20.020,0
216574.809,26.367,22.461,22.461,31.250,43.457,0
216574.813,47.852,36.133,17.578,44.434,1.465,0
216574.817,46.387,42.969,15.137,36.621,10.254,0
216574.820,23.438,34.180,22.461,20.508,43.457,0
216574.824,17.578,30.762,21.973,20.020,39.062,0
216574.828,20.020,26.367,22.949,13.672,27.832,0
216574.832,22.949,20.996,30.762,9.277,3.418,0
216574.836,26.367,25.391,32.227,14.160,41.504,0
216574.840,35.156,30.762,38.086,28.809,68.359,0
216574.844,41.016,27.344,38.086,41.992,38.574,0
216574.848,37.598,22.461,23.926,34.668,-0.488,0
216574.852,36.133,24.414,21.484,39.551,12.207,0
216574.856,33.691,31.250,23.926,41.016,22.949,0
216574.860,31.250,23.438,23.438,38.086,11.719,0
216574.863,30.762,20.020,23.926,43.945,-11.719,0
216574.867,31.738,27.832,22.461,43.457,-5.371,0
216574.871,32.227,25.391,20.020,29.297,-9.277,0
216574.875,27.344,22.949,25.879,26.855,-30.762,0
216574.879,30.273,30.762,46.387,42.480,32.227,0
216574.883,35.156,29.785,40.527,44.434,61.523,0
216574.887,36.621,26.367,28.809,37.109,19.531,1
216574.891,34.668,33.203,32.715,30.273,37.598,0
216574.895,21.973,29.785,31.738,26.855,103.027,0
216574.899,20.508,25.391,31.738,22.949,110.352,0
216574.902,22.949,32.227,26.367,20.996,85.938,0
216574.906,27.344,32.227,23.438,29.297,86.914,0
216574.910,35.156,32.715,20.020,36.133,71.777,0
216574.914,37.109,34.668,20.996,44.434,62.988,0
216574.918,34.180,31.738,28.320,30.273,57.617,0
216574.922,39.062,30.762,33.203,34.180,11.230,0
216574.926,47.363,32.227,36.621,55.664,19.043,0
216574.930,37.598,16.113,37.109,35.645,15.625,0
216574.934,27.344,5.859,35.645,22.949,13.672,0
216574.938,20.996,23.926,26.367,24.902,26.855,0
216574.942,25.879,33.691,27.344,28.320,57.129,0
216574.945,33.691,36.133,31.250,29.297,77.637,0
216574.949,27.344,39.062,27.832,26.367,63.477,0
216574.953,29.785,43.945,31.738,38.086,54.199,0
216574.957,34.180,38.574,27.344,43.457,22.461,0
216574.961,32.227,29.297,16.113,32.715,40.039,0
216574.965,28.320,30.273,9.766,27.344,60.059,0
216574.969,32.715,31.738,15.137,24.902,35.645,0
216574.973,39.551,37.109,25.879,37.109,7.324,0
216574.977,45.410,33.203,26.855,50.293,9.766,0
216574.981,38.574,25.391,23.926,38.086,-8.301,0
216574.985,35.645,31.250,38.574,32.227,-18.066,0
216574.988,39.551,25.879,44.922,33.691,28.809,0
216574.992,38.574,25.391,40.039,31.738,38.574,0
216574.996,46.387,38.086,39.551,36.133,36.621,0
216575.000,44.434,32.715,40.527,38.574,52.734,0
216575.004,37.109,22.949,31.738,32.715,25.391,0
216575.008,36.621,26.367,21.484,40.039,47.363,0
216575.012,33.691,29.785,24.902,40.039,80.078,0
216575.016,28.809,30.762,33.203,33.203,38.086,0
216575.020,36.133,31.250,40.039,38.574,31.250,0
216575.024,40.039,29.297,38.086,31.250,20.508,0
216575.027,26.855,24.902,35.645,19.531,7.812,0
216575.031,22.461,22.461,39.551,20.020,33.203,0
216575.035,28.320,30.273,41.504,29.297,60.547,0
216575.039,35.156,34.668,34.180,34.668,41.016,0
216575.043,43.457,31.738,29.297,39.551,17.578,0
216575.047,39.062,30.762,30.273,32.227,-0.488,0
216575.051,37.598,34.668,29.785,30.273,19.531,0
216575.055,37.109,29.297,31.250,44.922,46.875,0
216575.059,36.621,19.531,26.855,40.039,37.109,0
216575.063,40.527,26.367,27.344,37.109,49.805,0
216575.067,36.621,35.645,39.062,40.039,55.176,0
216575.070,35.156,27.344,32.227,28.320,19.531,0
216575.074,36.621,22.461,27.832,26.855,46.387,0
216575.078,31.250,26.855,33.691,34.668,69.824,0
216575.082,30.273,21.484,29.785,37.109,31.738,0
216575.086,38.086,19.531,29.785,46.387,24.414,0
216575.090,41.992,22.461,34.668,36.621,35.156,0
216575.094,37.109,29.297,32.227,31.738,29.785,0
216575.098,34.180,37.109,26.855,46.875,36.621,0
216575.102,35.645,37.109,36.133,41.016,30.762,0
216575.106,39.551,37.109,38.086,36.133,17.090,0
216575.110,42.480,35.156,31.250,41.016,35.156,0
216575.113,37.598,24.414,28.809,32.227,13.184,0
216575.117,36.133,25.879,31.250,23.438,-13.672,0
216575.121,41.992,37.109,37.109,36.621,53.223,0
216575.125,38.574,34.180,23.926,38.086,54.199,0
216575.129,33.203,27.832,12.695,26.855,32.227,0
216575.133,34.668,21.973,19.531,31.250,49.316,0
216575.137,30.762,18.066,26.367,38.086,51.758,0
216575.141,26.367,25.391,24.902,27.832,48.340,0
216575.145,34.180,31.738,30.762,32.227,82.520,0
216575.149,38.574,34.668,37.598,41.992,91.797,0
216575.152,39.062,35.156,26.855,43.945,95.215,0
216575.156,31.738,26.367,20.020,34.668,97.656,0
216575.160,23.438,23.438,25.879,19.043,70.312,0
216575.164,26.855,24.414,37.598,25.879,55.664,0
216575.168,30.273,22.461,40.527,38.574,73.242,0
216575.172,30.762,21.973,30.762,40.039,69.824,0
216575.176,38.574,28.320,27.832,37.109,79.102,0
216575.180,42.480,30.762,27.832,29.785,90.820,0
216575.184,39.062,30.762,27.344,34.180,50.293,0
216575.188,40.527,38.086,24.902,43.457,31.250,0
216575.192,39.062,32.227,27.344,33.691,35.156,0
216575.195,37.598,23.926,26.367,27.344,47.363,0
216575.199,40.039,29.297,28.809,27.344,45.898,0
216575.203,31.738,28.320,30.273,29.297,15.137,0
216575.207,26.855,31.738,24.414,29.785,0.977,0
216575.211,37.109,36.621,24.902,28.809,20.508,0
216575.215,38.574,31.250,32.715,36.133,3.418,0
216575.219,29.297,27.832,37.109,37.598,-25.391,0
216575.223,26.367,19.531,36.133,19.043,-1.953,0
216575.227,35.156,15.625,36.133,25.879,25.391,0
216575.231,45.898,30.273,32.227,47.363,38.574,0
216575.235,45.898,42.480,29.785,43.945,48.828,0
216575.238,37.598,28.320,28.320,32.715,3.418,0
216575.242,37.109,22.461,29.785,31.738,-15.625,0
216575.246,43.945,38.086,33.691,39.551,-9.277,0
216575.250,38.574,39.551,34.668,26.855,-7.812,0
216575.254,35.645,31.738,28.320,13.672,-22.949,0
216575.258,48.340,35.645,31.738,28.809,-9.277,0
216575.262,45.898,32.227,36.133,29.297,6.836,0
216575.266,34.668,18.555,29.785,22.461,-10.254,0
216575.270,31.738,26.855,30.762,30.762,-9.277,0
216575.274,36.621,40.527,38.574,32.715,12.695,0
216575.277,31.250,32.715,26.367,24.902,32.227,0
216575.281,28.320,30.273,16.602,30.762,14.648,0
216575.285,39.062,38.574,25.391,43.945,15.625,0
216575.289,37.598,39.551,29.785,41.016,30.762,0
216575.293,29.785,22.461,34.180,22.949,21.973,0
216575.297,25.879,10.742,30.762,17.090,6.348,0
216575.301,28.809,22.949,24.902,21.973,41.992,0
216575.305,30.762,36.621,20.508,36.621,75.195,0
216575.309,32.227,39.062,26.367,41.016,51.270,0
216575.313,33.691,31.738,28.809,36.621,18.066,0
216575.317,30.273,25.879,20.508,42.969,12.695,0
216575.320,23.438,24.414,16.113,29.785,27.344,0
216575.324,22.461,19.531,27.832,30.273,21.484,0
216575.328,26.855,20.508,43.457,35.156,31.738,0
216575.332,30.273,22.461,37.598,33.691,47.852,0
216575.336,25.391,14.648,23.438,24.414,52.246,0
216575.340,20.508,15.625,19.043,21.484,54.688,0
216575.344,28.320,23.926,27.832,24.414,23.926,0
216575.348,31.250,14.160,25.391,20.996,32.227,0
216575.352,30.762,14.160,20.020,23.926,22.949,0
216575.356,36.621,39.062,28.809,25.391,-26.367,0
216575.360,33.691,46.875,25.391,33.203,26.367,0
216575.363,26.855,35.156,19.043,47.363,91.309,0
216575.367,31.250,29.297,24.902,48.828,79.590,0
216575.371,32.227,25.391,34.668,39.551,49.805,0
216575.375,28.809,26.855,34.668,37.109,29.785,0
216575.379,33.203,39.062,30.762,48.340,8.789,0
216575.383,29.785,27.344,23.926,39.551,-11.230,0
216575.387,23.926,15.625,23.926,29.297,-21.973,0
216575.391,28.320,25.879,34.668,27.832,-12.695,0
216575.395,39.551,40.039,35.156,30.273,-14.648,0
216575.399,37.598,45.898,36.133,41.016,-15.137,0
216575.402,28.809,40.527,33.203,33.691,-4.395,0
216575.406,30.762,37.109,25.391,30.762,38.086,0
216575.410,31.738,26.855,23.926,32.227,24.414,0
216575.414,33.691,21.484,33.203,31.738,9.277,0
216575.418,36.133,28.809,28.809,45.410,49.805,0
216575.422,34.180,34.180,16.602,50.781,20.508,0
216575.426,31.250,40.527,22.461,38.574,-7.324,0
216575.430,25.391,37.109,30.273,34.180,-2.930,0
216575.434,23.926,23.926,36.621,37.109,-12.695,0
216575.438,29.297,21.484,38.086,26.367,-8.301,0
216575.442,32.227,19.531,31.738,23.438,9.277,0
216575.445,36.621,22.949,31.250,36.133,1.953,0
216575.449,29.785,24.902,34.180,24.414,16.113,0
216575.453,16.113,17.090,34.180,17.578,61.523,0
216575.457,11.719,22.461,18.555,20.020,73.730,0
216575.461,18.555,37.598,12.695,25.879,50.781,0
216575.465,19.043,38.574,22.949,25.879,37.109,0
216575.469,12.207,22.949,24.414,17.578,64.941,0
216575.473,22.461,22.461,30.273,33.203,62.988,0
216575.477,31.250,29.785,33.691,37.598,38.086,0
216575.481,33.203,28.809,28.809,34.180,55.176,1
216575.485,46.875,28.809,28.320,39.062,67.383,0
216575.488,52.734,28.809,27.344,25.879,77.148,0
216575.492,30.273,14.648,21.484,7.812,41.504,0
216575.496,29.785,12.207,22.949,10.254,56.152,0
216575.500,39.551,26.367,23.926,22.949,53.223,0
216575.504,30.273,35.645,21.973,24.902,-8.789,0
216575.508,28.320,31.250,25.879,17.090,21.973,0
216575.512,29.297,24.902,26.855,20.996,14.160,0
216575.516,37.109,28.320,21.973,30.762,-0.488,0
216575.520,41.016,27.832,22.949,27.832,16.602,0
216575.524,32.715,23.926,24.414,25.879,23.438,0
216575.527,28.320,25.391,24.902,24.414,65.430,0
216575.531,35.156,25.391,25.391,39.062,62.500,0
216575.535,41.504,26.367,31.250,50.781,16.602,0
216575.539,29.785,28.809,30.762,20.020,19.043,0
216575.543,22.461,17.578,21.973,18.066,49.316,0
216575.547,27.344,16.113,18.555,40.039,20.508,0
216575.551,26.367,27.344,24.414,34.668,34.180,0
216575.555,34.668,39.062,44.434,33.691,41.992,0
216575.559,44.434,42.480,45.898,41.992,16.602,0
216575.563,38.574,33.691,20.996,42.480,43.457,0
216575.567,43.945,34.180,19.043,45.898,55.664,0
216575.570,60.547,27.832,36.133,59.570,90.820,0
216575.574,61.035,13.184,30.273,56.641,77.148,0
216575.578,58.105,21.973,30.273,44.434,54.688,0
216575.582,53.711,31.250,37.598,31.250,47.852,0
216575.586,45.898,31.738,41.016,15.625,-4.395,0
216575.590,37.598,37.109,41.016,22.461,26.367,0
216575.594,33.691,46.387,42.969,38.086,74.219,0
216575.598,36.621,47.363,34.180,41.504,50.781,0
216575.602,32.715,32.227,16.113,43.457,58.594,0
216575.606,25.879,13.184,24.414,34.180,41.016,0
216575.610,31.738,15.625,34.180,35.645,38.574,0
216575.613,41.504,35.156,29.785,48.828,87.891,0
216575.617,47.852,35.645,29.297,47.363,61.035,0
216575.621,41.992,19.043,20.508,42.969,22.949,0
216575.625,39.062,18.066,20.508,39.062,-27.344,0
216575.629,41.992,28.320,38.574,46.387,-31.250,0
216575.633,27.832,20.508,35.156,43.457,35.156,0
216575.637,24.414,5.859,23.438,18.555,4.395,0
216575.641,33.203,13.184,23.926,27.832,7.812,0
216575.645,29.297,21.973,27.832,31.738,67.871,0
216575.649,26.367,21.484,29.785,23.926,71.777,0
216575.652,34.180,24.414,32.715,31.250,44.434,0
216575.656,41.016,23.926,27.832,33.203,28.320,0
216575.660,37.598,21.484,23.926,39.551,31.738,0
216575.664,40.527,29.297,30.762,47.363,63.965,0
216575.668,32.227,32.227,29.785,37.109,57.129,0
216575.672,18.555,28.809,24.902,25.391,41.016,0
216575.676,23.926,34.668,24.414,32.227,43.945,0
216575.680,28.320,29.785,21.973,34.668,35.156,0
216575.684,25.879,20.996,23.926,34.668,35.156,0
216575.688,19.531,12.207,31.250,29.785,18.555,0
216575.692,20.020,2.441,32.715,15.625,21.973,0
216575.695,27.832,12.207,27.344,12.695,20.996,0
216575.699,36.133,31.250,25.391,24.414,-15.625,0
216575.703,44.922,38.086,30.273,42.480,-24.902,0
216575.707,35.645,35.645,25.879,37.598,-14.648,0
216575.711,25.879,31.250,16.113,31.738,3.418,0
216575.715,36.621,34.668,2.930,42.969,-19.531,0
216575.719,44.434,30.273,18.066,52.734,-37.598,0
216575.723,37.109,20.508,42.969,44.922,-1.465,0
216575.727,25.879,22.461,39.551,24.902,20.020,0
216575.731,25.879,22.949,31.738,7.324,0.977,0
216575.735,30.273,17.578,31.250,14.160,-2.930,0
216575.738,22.949,14.648,31.738,16.113,20.508,0
216575.742,26.367,18.555,30.273,20.020,26.367,0
216575.746,34.180,26.855,23.438,40.527,16.602,0
216575.750,34.180,30.273,19.531,43.457,12.207,0
216575.754,28.320,20.020,26.367,39.062,14.648,0
216575.758,33.203,20.508,32.227,38.086,-20.020,0
216575.762,44.922,22.949,24.414,41.992,-12.207,0
216575.766,35.645,18.066,16.113,41.504,2.930,0
216575.770,29.785,28.809,25.391,49.805,21.973,0
216575.774,37.598,36.133,37.598,41.992,52.246,0
216575.777,39.062,34.668,37.109,20.996,33.691,0
216575.781,30.762,26.367,34.180,23.926,43.457,0
216575.785,25.879,16.113,29.297,33.691,54.199,0
216575.789,27.344,14.648,23.438,27.344,56.152,0
216575.793,32.715,16.113,20.996,21.973,53.223,0
216575.797,36.621,23.438,26.367,35.645,72.754,0
216575.801,30.762,23.438,29.297,34.668,64.453,0
216575.805,37.598,29.297,26.367,40.039,40.039,0
216575.809,46.875,39.062,19.531,51.758,62.012,0
216575.813,41.992,28.320,9.766,41.992,29.297,0
216575.817,31.738,13.672,23.438,26.855,43.457,0
216575.820,22.461,14.648,34.180,16.602,66.406,0
216575.824,29.785,24.414,35.156,25.879,43.457,0
216575.828,41.016,31.738,43.457,44.434,29.297,0
216575.832,35.156,27.344,40.039,30.273,14.648,0
216575.836,31.738,23.438,26.855,19.043,33.203,0
216575.840,39.062,29.297,23.438,39.062,40.527,0
216575.844,49.805,36.621,31.250,53.711,30.762,0
216575.848,57.617,37.109,38.086,58.594,35.645,0
216575.852,49.316,31.250,35.645,50.781,26.367,0
216575.856,32.715,21.973,28.809,33.691,23.926,0
216575.860,29.297,15.137,34.668,33.203,29.297,0
216575.863,30.762,14.648,37.598,30.762,14.648,0
216575.867,21.484,20.996,29.785,20.508,-4.395,0
216575.871,23.926,32.715,30.762,30.273,38.086,0
216575.875,28.809,37.109,31.250,30.273,89.355,0
216575.879,25.879,22.949,26.855,28.809,86.426,0
216575.883,25.879,17.090,25.391,35.645,62.988,0
216575.887,27.344,25.391,18.066,41.992,64.941,0
216575.891,31.738,23.926,19.043,50.293,50.293,0
216575.895,35.645,21.484,25.391,41.504,37.109,0
216575.899,30.762,20.996,29.297,30.762,67.383,0
216575.902,34.180,19.043,31.738,29.297,75.195,0
216575.906,43.457,22.461,23.926,30.762,46.875,0
216575.910,36.621,26.367,22.461,21.973,3.906,0
216575.914,28.809,19.531,26.855,21.484,35.156,0
216575.918,23.438,10.742,29.785,25.879,67.871,0
216575.922,24.902,23.438,32.715,24.414,40.039,0
216575.926,34.668,27.832,34.180,24.414,30.762,0
216575.930,36.133,19.531,30.273,31.250,62.500,0
216575.934,32.715,15.137,25.391,30.762,74.219,0
216575.938,34.668,15.137,26.855,29.785,85.938,0
216575.942,28.320,27.344,22.949,26.855,72.754,0
216575.945,18.555,30.762,23.926,22.461,51.270,0
216575.949,24.414,29.297,20.996,23.438,53.711,0
216575.953,29.785,31.738,15.625,23.438,34.180,0
216575.957,35.156,28.809,24.414,26.855,34.180,0
216575.961,41.504,26.367,26.855,35.645,20.020,0
216575.965,35.645,23.438,25.391,29.785,7.812,0
216575.969,32.715,21.484,25.391,29.297,-6.348,0
216575.973,35.156,21.484,25.879,31.738,-37.109,0
216575.977,34.668,23.926,33.203,30.762,-22.461,0
216575.981,26.855,20.996,28.809,29.785,-8.301,0
216575.985,28.320,13.672,21.484,22.949,21.973,0
216575.988,27.344,18.066,26.367,27.832,30.762,0
216575.992,26.367,23.926,25.879,41.504,14.648,0
216575.996,31.738,27.832,16.602,42.969,10.254,0
216576.000,28.809,36.133,15.625,35.645,-27.832,0
216576.004,32.227,40.039,34.668,40.527,15.137,0
216576.008,37.109,31.738,38.574,37.598,105.957,0
216576.012,40.039,33.203,35.645,33.203,90.820,0
216576.016,41.016,35.156,38.086,40.039,68.359,0
216576.020,40.527,28.320,37.598,35.156,91.309,0
216576.024,43.945,31.250,36.621,35.156,115.234,0
216576.027,32.715,31.250,28.809,43.457,93.750,0
216576.031,19.043,22.949,18.555,23.926,37.598,0
216576.035,19.043,17.578,13.184,21.973,63.965,0
216576.039,24.902,20.508,22.949,39.062,83.984,0
216576.043,29.297,23.926,24.902,41.016,16.113,0
216576.047,30.273,30.762,17.090,31.738,12.207,0
216576.051,37.109,36.621,28.809,31.738,43.945,0
216576.055,35.156,27.344,41.016,33.691,48.828,0
216576.059,31.250,16.113,36.133,33.203,44.434,0
216576.063,25.879,17.578,27.344,31.738,18.066,0
216576.067,27.832,30.762,26.855,38.086,4.395,0
216576.070,37.598,37.109,29.785,32.715,41.016,0
216576.074,32.715,33.203,27.344,21.484,40.527,0
216576.078,32.227,28.320,30.762,36.133,15.137,0
216576.082,37.598,25.879,25.879,41.992,58.594,0
216576.086,36.133,26.855,16.602,33.691,93.750,0
216576.090,29.785,26.367,20.508,29.785,49.805,0
216576.094,29.297,30.762,20.508,32.715,5.371,0
216576.098,26.367,26.855,26.855,25.879,5.859,0
216576.102,23.438,24.414,24.414,16.602,20.996,2
216576.106,32.715,35.645,19.043,21.484,23.438,0
216576.110,42.480,34.668,28.320,30.273,41.992,0
216576.113,39.551,24.902,25.879,27.344,77.148,0
216576.117,29.785,30.273,21.484,26.855,51.758,0
216576.121,21.484,25.391,17.578,29.297,29.785,0
216576.125,24.414,19.043,24.414,33.691,38.574,0
216576.129,34.668,22.949,38.574,42.969,41.016,0
216576.133,29.297,20.020,35.156,36.133,39.062,0
216576.137,20.996,20.996,27.344,29.297,30.762,0
216576.141,30.762,26.855,20.996,27.832,49.805,0
216576.145,36.621,23.438,19.531,30.273,76.172,0
216576.149,42.969,31.738,28.320,41.992,34.180,0
216576.152,51.758,37.109,32.715,27.832,11.719,0
216576.156,30.273,21.973,26.855,17.578,79.590,0
216576.160,13.184,17.578,25.391,29.785,65.918,0
216576.164,21.973,30.762,34.668,24.414,33.691,0
216576.168,21.484,38.574,36.621,16.602,33.691,0
216576.172,16.113,27.344,31.250,24.414,50.781,0
216576.176,17.090,20.996,23.926,22.461,29.297,0
216576.180,24.414,20.020,20.020,23.438,33.203,0
216576.184,25.879,15.137,24.902,20.508,58.594,0
216576.188,21.973,14.648,29.297,22.949,29.297,0
216576.192,25.391,21.484,32.715,33.691,38.086,0
216576.195,29.785,34.668,35.156,33.203,22.949,0
216576.199,35.156,34.180,31.738,31.738,-21.484,0
216576.203,31.738,23.438,37.598,32.715,6.348,0
216576.207,21.973,17.578,37.598,29.785,31.738,0
216576.211,26.367,23.438,27.344,38.086,15.625,0
216576.215,27.832,25.879,15.137,41.504,43.945,0
216576.219,28.320,21.973,15.137,24.414,31.250,0
216576.223,34.668,25.391,24.414,28.320,6.836,0
216576.227,29.785,18.555,25.391,25.391,42.480,0
216576.231,28.809,18.066,19.043,21.973,52.246,0
216576.235,40.039,35.645,33.203,42.480,33.691,0
216576.238,41.016,41.016,34.668,43.457,20.996,0
216576.242,37.598,32.715,29.785,34.668,5.371,0
216576.246,32.227,20.996,33.691,28.320,16.602,0
216576.250,37.598,22.949,36.621,39.062,49.316,0
216576.254,47.852,32.227,35.645,50.293,14.648,0
216576.258,44.434,31.250,27.344,35.156,1.465,0
216576.262,36.133,26.855,40.039,30.273,44.434,0
216576.266,31.250,25.879,42.480,28.809,2.441,0
216576.270,31.738,25.879,31.250,22.949,-1.465,0
216576.274,36.621,28.320,23.926,34.668,47.852,0
216576.277,41.992,37.109,28.809,47.852,24.902,0
216576.281,44.922,45.410,29.785,59.082,31.250,0
216576.285,48.340,45.898,23.926,41.016,8.789,0
216576.289,47.852,35.645,38.574,31.250,-41.992,0
216576.293,40.039,29.785,47.852,36.133,-3.418,0
216576.297,37.109,29.785,41.016,37.109,20.996,0
216576.301,48.828,24.902,30.273,44.434,41.016,0
216576.305,53.223,18.555,26.367,43.945,20.996,0
216576.309,40.527,25.879,24.902,41.504,10.742,0
216576.313,39.062,38.086,22.461,35.645,52.734,0
216576.317,44.434,40.527,23.438,43.457,81.055,0
216576.320,51.758,41.504,17.090,43.457,63.965,0
216576.324,43.945,38.086,24.414,35.156,20.996,0
216576.328,33.691,31.250,39.551,35.156,4.883,0
216576.332,37.598,33.691,39.551,37.109,38.574,0
216576.336,39.062,40.039,35.645,49.805,79.102,0
216576.340,43.457,29.297,36.621,43.945,44.922,0
216576.344,45.898,22.949,36.621,41.016,20.996,0
216576.348,42.969,28.809,33.203,49.316,18.066,0
216576.352,41.992,26.855,28.320,51.270,9.277,0
216576.356,37.109,27.344,18.066,38.086,20.996,0
216576.360,36.621,35.645,26.367,33.691,58.105,0
216576.363,35.645,32.715,34.180,38.574,70.801,0
216576.367,34.668,19.531,36.133,31.250,62.500,0
216576.371,34.180,24.414,41.504,32.715,82.520,0
216576.375,38.086,30.762,33.691,44.922,37.109,0
216576.379,42.480,34.180,22.461,39.551,19.531,0
216576.383,41.504,39.551,23.926,41.504,39.551,0
216576.387,40.039,34.668,32.227,43.945,0.977,0
216576.391,31.250,20.020,30.762,34.668,-7.324,0
216576.395,39.551,20.020,30.762,36.621,18.066,0
216576.399,38.574,27.344,26.367,41.016,56.641,0
216576.402,28.809,34.668,30.762,49.316,43.457,0
216576.406,35.156,43.457,44.434,49.805,10.254,0
216576.410,25.879,35.156,38.086,26.367,49.316,0
216576.414,17.090,26.855,28.320,23.438,34.180,0
216576.418,22.949,22.461,27.344,25.391,-19.043,0
216576.422,20.020,18.066,21.484,20.996,-56.152,0
216576.426,23.438,22.461,22.949,31.250,-22.949,0
216576.430,33.691,20.996,30.273,27.832,3.418,0
216576.434,43.457,22.949,34.180,33.203,-22.461,0
216576.438,39.062,24.414,29.297,44.434,11.230,0
216576.442,27.832,20.996,28.809,38.086,46.875,0
216576.445,30.762,22.461,38.086,34.180,28.320,0
216576.449,37.109,30.762,38.086,46.387,49.805,0
216576.453,43.945,38.086,37.109,53.223,86.426,0
216576.457,41.016,28.809,37.109,34.180,93.750,0
216576.461,30.762,19.043,29.297,28.320,53.711,0
216576.465,34.668,27.344,35.645,40.039,50.293,0
216576.469,35.156,23.926,39.551,32.715,63.965,0
216576.473,25.391,9.766,31.738,30.762,43.457,0
216576.477,22.949,20.996,27.344,27.832,63.477,0
216576.481,28.809,30.762,23.926,20.508,27.344,0
216576.485,41.016,33.203,29.785,33.691,13.672,0
216576.488,41.504,29.297,30.762,36.133,41.016,0
216576.492,31.250,18.066,29.785,34.180,36.133,0
216576.496,28.320,25.391,35.645,28.320,16.602,0
216576.500,28.320,39.062,37.598,22.949,10.742,0
216576.504,29.785,40.527,30.273,38.574,35.156,0
216576.508,33.691,35.156,31.250,44.434,29.785,0
216576.512,34.180,37.109,31.738,35.645,14.648,0
216576.516,32.227,40.527,35.156,27.832,18.555,0
216576.520,27.832,34.668,40.039,27.832,-3.906,0
216576.524,28.809,30.273,29.785,30.762,-11.230,0
216576.527,33.691,32.227,17.578,36.133,-14.648,0
216576.531,33.691,31.738,20.508,29.297,30.273,0
216576.535,27.344,28.809,32.227,17.578,90.332,0
216576.539,30.762,29.785,39.062,23.926,22.949,0
216576.543,39.062,21.973,36.133,31.738,-5.859,0
216576.547,32.715,14.648,26.367,23.438,52.246,0
216576.551,30.273,21.484,26.855,21.973,52.734,0
216576.555,40.527,28.809,27.344,38.574,15.137,0
216576.559,43.457,30.273,35.645,49.316,-6.348,0
216576.563,42.969,30.762,44.434,50.781,-19.043,0
216576.567,50.781,45.410,42.480,51.270,14.648,0
216576.570,41.016,45.410,31.250,42.480,-4.395,0
216576.574,33.691,32.715,21.484,34.668,-45.410,0
216576.578,31.738,27.832,22.949,32.227,-6.836,0
216576.582,34.668,24.902,24.902,29.785,1.953,0
216576.586,35.156,25.391,27.344,32.227,-23.438,0
216576.590,22.949,24.902,36.621,34.668,-1.465,0
216576.594,19.531,26.367,35.156,31.250,44.434,0
216576.598,31.250,30.273,29.297,29.297,35.156,0
216576.602,42.480,43.457,32.227,36.621,32.715,0
216576.606,34.180,46.387,35.156,39.551,20.996,0
216576.610,28.320,38.574,30.762,50.781,21.973,0
216576.613,29.785,27.344,20.996,49.805,17.578,0
216576.617,32.227,22.461,23.438,41.992,23.438,0
216576.621,39.062,37.109,28.320,38.574,67.383,0
216576.625,39.062,39.551,20.996,34.668,80.566,0
216576.629,31.250,27.832,22.949,29.785,37.109,0
216576.633,26.367,22.949,36.133,26.855,22.461,0
216576.637,27.344,24.414,32.715,23.438,43.945,0
216576.641,30.762,23.926,28.809,22.461,58.105,0
216576.645,31.738,22.949,31.250,35.645,64.941,0
216576.649,41.016,26.367,22.461,44.922,68.359,0
216576.652,41.504,28.320,19.531,41.016,58.594,0
216576.656,33.203,34.180,21.973,39.551,63.965,0
216576.660,36.133,33.691,21.973,39.062,58.594,0
216576.664,32.715,14.160,26.855,34.180,21.484,0
216576.668,36.133,15.137,29.785,25.391,50.293,0
216576.672,40.527,29.785,27.832,30.273,63.477,0
216576.676,27.344,33.203,19.043,27.344,55.176,0
216576.680,18.555,31.250,20.996,22.949,75.195,0
216576.684,25.391,29.785,27.832,33.691,49.316,0
216576.688,24.414,24.902,20.996,34.180,23.926,0
216576.692,31.738,22.949,20.508,32.227,29.297,0
216576.695,46.387,26.855,29.297,38.086,13.672,0
216576.699,43.945,34.668,30.762,50.781,9.766,0
216576.703,33.203,40.527,24.902,46.875,16.602,0
216576.707,32.227,41.992,30.762,43.457,-15.625,0
216576.711,32.227,29.785,35.156,38.574,16.602,0
216576.715,30.273,16.113,27.344,27.344,44.922,0
216576.719,22.949,19.531,19.043,21.484,18.066,0
216576.723,23.926,26.367,21.484,24.414,51.758,0
216576.727,27.832,28.320,25.391,25.391,60.547,0
216576.731,25.391,31.738,14.160,29.297,4.883,0
216576.735,37.109,41.504,26.855,43.945,-24.414,0
216576.738,44.922,45.410,49.316,46.875,-11.719,0
216576.742,32.715,33.691,33.203,29.785,-17.578,0
216576.746,34.180,24.414,25.391,31.250,-25.879,0
216576.750,32.227,24.414,23.926,28.809,-40.039,0
216576.754,26.367,35.156,24.414,23.438,-49.316,0
216576.758,23.438,31.250,21.484,27.344,-25.879,0
216576.762,17.578,15.625,18.066,16.602,-13.184,0
216576.766,25.391,15.625,25.879,15.137,-26.367,0
216576.770,39.062,27.832,23.926,23.438,-40.039,0
216576.774,41.016,39.062,27.832,25.391,-17.578,0
216576.777,36.133,42.480,32.715,29.297,13.672,0
216576.781,40.039,39.551,27.344,26.855,4.395,0
216576.785,33.203,32.227,33.203,24.414,43.457,2
216576.789,25.391,33.691,40.527,29.785,68.848,0
216576.793,34.180,37.109,36.621,23.926,41.504,0
216576.797,34.668,28.320,30.762,20.508,18.066,0
216576.801,35.156,22.461,24.902,20.996,58.594,0
216576.805,31.250,23.438,23.926,20.996,98.145,0
216576.809,24.902,25.391,33.691,28.320,29.785,0
216576.813,28.809,23.926,33.691,26.855,9.277,0
216576.817,33.691,20.996,28.809,32.715,-8.789,0
216576.820,36.621,30.273,33.203,35.156,-57.129,0
216576.824,41.504,45.410,43.945,33.691,-56.152,0
216576.828,39.062,42.969,40.527,42.480,-6.348,0
216576.832,35.645,36.133,22.461,32.227,29.297,0
216576.836,39.062,31.738,20.020,32.715,51.758,0
216576.840,33.691,17.090,26.855,38.086,49.805,0
216576.844,28.809,17.578,30.762,27.832,21.973,0
216576.848,31.738,22.949,29.297,30.273,58.594,0
216576.852,36.621,19.531,28.809,45.410,50.781,0
216576.856,36.621,22.461,19.531,40.039,3.418,0
216576.860,35.156,27.344,18.555,29.785,11.230,0
216576.863,37.598,31.250,25.391,43.945,27.832,0
216576.867,41.504,32.227,20.508,41.504,15.137,0
216576.871,41.992,22.949,21.973,41.504,19.043,0
216576.875,38.086,17.090,27.344,41.016,49.316,0
216576.879,36.133,17.090,37.598,33.203,69.824,0
216576.883,34.180,28.809,21.973,44.434,49.316,0
216576.887,33.203,34.180,16.602,36.133,77.637,0
216576.891,29.785,22.461,31.738,16.602,119.141,0
216576.895,27.832,19.043,28.320,18.066,61.523,0
216576.899,24.902,23.438,27.344,13.184,18.066,0
216576.902,30.273,31.738,35.156,17.090,51.270,0
216576.906,40.039,28.320,27.832,26.367,84.961,0
216576.910,33.691,22.949,14.160,23.438,95.215,0
216576.914,25.879,22.949,18.555,21.484,88.867,0
216576.918,28.320,28.320,33.203,19.531,100.586,0
216576.922,38.086,37.598,40.527,32.715,71.777,0
216576.926,33.691,28.320,38.086,37.598,1.953,0
216576.930,21.484,19.531,37.598,30.762,27.832,0
216576.934,27.832,26.367,36.621,40.527,70.312,0
216576.938,35.645,23.926,42.480,41.016,89.355,0
216576.942,33.691,22.949,41.016,31.250,75.684,0
216576.945,36.621,28.809,30.273,28.320,9.766,0
216576.949,37.109,25.391,34.180,30.273,40.527,0
216576.953,35.156,30.273,38.086,38.574,105.957,0
216576.957,33.203,34.668,31.738,44.434,90.332,0
216576.961,31.738,28.809,36.133,36.621,43.945,0
216576.965,36.621,28.809,47.852,28.809,34.668,0
216576.969,36.621,37.109,47.363,30.762,54.199,0
216576.973,35.156,40.527,38.574,37.109,58.594,0
216576.977,40.527,38.574,36.621,45.410,49.805,0
216576.981,42.480,35.156,48.340,45.410,44.922,0
216576.985,34.180,26.855,51.270,36.133,57.617,0
216576.988,31.738,23.438,45.410,27.832,31.250,0
216576.992,35.156,24.414,49.805,21.484,14.648,0
216576.996,36.621,27.832,44.434,35.156,31.250,0
216577.000,41.016,33.691,34.180,48.340,21.973,0
216577.004,43.945,27.832,34.668,38.574,19.531,0
216577.008,39.062,18.555,39.062,25.391,8.789,0
216577.012,41.992,31.738,50.781,37.598,3.418,0
216577.016,47.852,37.109,52.734,59.082,3.418,0
216577.020,41.504,22.461,45.410,54.199,0.977,0
216577.024,37.598,15.625,49.316,30.762,-14.648,0
216577.027,40.039,20.508,54.688,30.762,-40.527,0
216577.031,40.039,27.344,52.734,48.340,-20.020,0
216577.035,51.270,32.227,49.316,49.805,-16.113,0
216577.039,53.711,42.480,51.758,44.434,-45.410,0
216577.043,38.086,44.434,37.598,50.781,20.020,0
216577.047,41.504,41.016,15.137,61.035,53.223,0
216577.051,47.363,35.156,26.855,48.340,29.297,0
216577.055,34.180,18.066,44.434,42.480,36.133,0
216577.059,30.273,14.648,49.316,49.316,11.719,0
216577.063,33.203,24.902,51.270,44.922,23.926,0
216577.067,29.785,31.738,44.434,40.527,18.555,0
216577.070,28.809,29.785,38.086,37.598,18.066,0
216577.074,30.762,22.461,38.574,42.969,45.898,0
216577.078,41.504,27.832,38.086,44.922,22.461,0
216577.082,45.410,30.762,37.109,41.992,-6.836,0
216577.086,33.203,27.832,25.879,25.879,16.113,0
216577.090,28.809,26.855,23.438,25.879,-5.859,0
216577.094,29.297,18.066,39.062,37.109,-41.016,0
216577.098,29.785,17.578,41.504,36.133,-0.977,0
216577.102,29.297,25.391,34.180,35.645,35.645,0
216577.106,26.367,26.367,33.203,32.227,63.477,0
216577.110,27.344,29.785,39.551,34.668,90.820,0
216577.113,30.273,31.738,42.480,33.203,61.523,0
216577.117,26.367,27.832,38.574,35.156,81.055,0
216577.121,27.344,28.320,32.715,36.133,96.191,0
216577.125,28.320,23.438,26.367,32.227,18.555,0
216577.129,28.809,20.508,32.227,35.645,26.855,0
216577.133,43.457,35.645,38.086,37.109,61.523,0
216577.137,38.574,35.645,35.645,43.457,49.316,0
216577.141,31.250,20.508,33.203,55.664,15.137,0
216577.145,39.551,23.926,28.320,56.152,3.906,0
216577.149,23.438,34.180,30.273,27.344,-19.043,0
216577.152,9.277,30.762,30.762,8.301,-28.320,0
216577.156,26.367,26.367,34.668,20.996,21.973,0
216577.160,35.156,39.062,41.992,30.273,17.090,0
216577.164,25.391,30.762,34.668,28.809,53.223,0
216577.168,22.949,13.672,23.926,22.461,64.453,0
216577.172,29.297,24.902,29.297,26.855,7.812,0
216577.176,33.203,35.645,27.832,39.551,-26.855,0
216577.180,48.340,46.875,21.973,52.246,-3.418,0
216577.184,48.340,44.434,27.344,42.969,34.668,0
216577.188,31.250,32.227,22.949,21.484,19.531,0
216577.192,28.320,36.133,19.043,32.227,26.367,0
216577.195,25.391,28.809,18.066,25.879,22.461,0
216577.199,25.391,21.484,13.672,13.672,7.324,0
