timestamps,TP9,AF7,AF8,TP10,Right AUX,Marker0
216698.180,27.344,26.855,29.297,35.156,39.062,1
216698.184,37.109,31.738,24.902,45.898,32.227,0
216698.188,35.156,32.715,22.949,41.016,19.531,0
216698.192,31.738,30.762,36.133,41.016,1.953,0
216698.195,35.645,26.855,38.574,36.133,-2.930,0
216698.199,33.203,18.066,30.762,23.438,-33.203,0
216698.203,31.738,21.973,29.785,26.367,-21.973,0
216698.207,25.879,29.785,30.762,19.043,11.719,0
216698.211,25.879,26.855,30.273,19.531,31.738,0
216698.215,31.250,12.207,35.156,29.297,48.340,0
216698.219,34.180,15.625,32.227,30.273,72.754,0
216698.223,36.133,33.203,25.391,40.527,48.340,0
216698.227,32.715,37.598,32.227,46.387,10.742,0
216698.231,27.832,31.738,38.574,40.039,12.207,0
216698.235,26.855,27.832,29.785,39.062,26.855,0
216698.238,20.996,21.484,25.879,26.367,16.602,0
216698.242,19.043,25.879,29.785,11.230,-15.137,0
216698.246,23.438,35.156,34.180,12.695,10.742,0
216698.250,19.531,35.645,29.785,19.043,31.738,0
216698.254,20.020,33.203,15.625,24.414,45.898,0
216698.258,29.785,23.926,11.719,27.344,64.941,0
216698.262,31.738,20.996,27.344,27.344,12.695,0
216698.266,34.668,26.855,41.016,40.527,21.484,0
216698.270,33.203,29.297,38.574,39.551,72.266,0
216698.274,26.855,26.367,28.320,28.320,54.199,0
216698.277,35.645,25.879,26.367,31.250,39.551,0
216698.281,35.645,27.344,28.320,31.738,68.359,0
216698.285,32.227,32.227,27.832,38.086,47.363,0
216698.289,34.668,34.668,28.320,34.180,46.875,0
216698.293,33.691,32.227,29.297,28.809,59.570,0
216698.297,34.668,28.809,24.414,38.086,43.457,0
216698.301,36.133,20.020,27.832,32.715,41.016,0
216698.305,26.855,15.137,33.203,19.531,7.324,0
216698.309,23.438,20.020,32.227,21.484,20.508,0
216698.313,29.785,24.902,34.668,26.367,76.172,0
216698.317,24.902,24.902,35.156,27.832,56.641,0
216698.320,20.508,23.438,29.297,27.832,11.719,0
216698.324,22.949,26.855,21.484,27.832,44.922,0
216698.328,26.367,30.273,17.578,29.785,46.875,0
216698.332,32.715,36.133,28.809,35.156,2.441,0
216698.336,34.180,31.738,40.039,35.156,-5.859,0
216698.340,25.391,22.461,37.598,26.367,-15.625,0
216698.344,21.484,27.832,38.086,21.973,-15.137,0
216698.348,21.484,31.738,33.691,21.484,-12.695,0
216698.352,20.508,31.738,32.715,12.207,-68.359,0
216698.356,20.996,31.250,38.086,9.277,-48.828,0
216698.360,20.996,27.832,37.109,14.160,-37.109,0
216698.363,20.508,28.320,34.180,12.695,-36.621,0
216698.367,18.066,30.273,34.180,14.160,34.668,0
216698.371,19.531,29.297,26.367,27.832,32.227,0
216698.375,17.578,22.949,24.902,35.645,14.648,0
216698.379,17.578,20.020,34.180,20.996,27.344,0
216698.383,18.555,23.438,37.598,10.254,53.223,0
216698.387,13.672,28.320,33.691,10.254,68.848,0
216698.391,12.695,25.879,24.902,13.184,41.504,0
216698.395,7.812,23.438,23.438,13.184,18.555,0
216698.399,7.812,34.668,23.438,9.277,31.250,0
216698.402,12.695,37.598,21.484,12.695,96.680,0
216698.406,6.348,28.320,28.320,8.789,90.820,0
216698.410,-4.395,24.414,39.551,-1.465,35.156,0
216698.414,-10.254,22.949,44.434,-7.324,54.199,0
216698.418,-11.230,23.438,38.574,-6.348,77.637,0
216698.422,-12.695,31.738,32.227,-10.742,82.520,0
216698.426,-14.160,39.062,26.855,-12.695,104.004,0
216698.430,-34.668,43.457,26.367,-27.344,32.715,0
216698.434,-46.875,44.434,33.203,-41.016,-38.574,0
216698.438,-49.316,44.434,30.273,-48.340,-31.738,0
216698.442,-53.711,46.875,27.344,-57.129,-41.016,0
216698.445,-52.734,43.945,32.715,-54.688,-16.602,0
216698.449,-65.430,41.992,38.574,-59.082,12.695,0
216698.453,-68.359,53.223,50.293,-62.500,-5.371,0
216698.457,-75.684,56.641,49.805,-76.660,6.836,0
216698.461,-100.586,46.875,28.809,-102.539,-16.113,0
216698.465,-103.027,46.387,20.020,-99.121,-37.598,0
216698.469,-97.168,49.316,36.133,-93.262,-35.156,0
216698.473,-106.934,48.828,44.922,-105.957,-13.184,0
216698.477,-111.816,52.734,43.457,-117.188,39.551,0
216698.481,-106.445,54.199,35.645,-119.141,57.129,0
216698.485,-107.422,53.711,28.320,-114.258,28.809,0
216698.488,-106.445,59.082,28.320,-108.398,-14.160,0
216698.492,-103.516,54.688,27.344,-105.469,0.488,0
216698.496,-103.516,43.457,38.086,-103.516,7.812,0
216698.500,-101.074,43.457,43.457,-96.680,-19.043,0
216698.504,-87.402,51.270,39.551,-81.055,-33.691,0
216698.508,-74.219,60.059,38.574,-71.289,-25.391,0
216698.512,-72.754,60.547,34.180,-77.148,-17.578,0
216698.516,-71.777,49.316,33.691,-67.383,31.250,0
216698.520,-67.383,41.992,24.414,-61.035,42.969,0
216698.524,-54.199,40.039,17.578,-64.453,0.488,0
216698.527,-37.598,39.062,14.648,-48.828,-17.578,0
216698.531,-31.250,39.551,13.672,-37.109,-66.406,0
216698.535,-29.297,31.738,21.484,-31.738,-68.848,0
216698.539,-20.996,33.203,22.949,-15.625,-7.812,0
216698.543,-3.906,41.992,27.832,-3.418,19.043,0
216698.547,7.324,38.086,31.250,7.324,-3.906,0
216698.551,7.324,28.320,22.949,14.160,-20.996,0
216698.555,6.348,23.926,20.020,12.207,12.207,0
216698.559,11.719,28.320,19.531,18.555,26.855,0
216698.563,17.578,23.926,14.648,29.297,49.805,0
216698.567,22.461,23.438,17.090,35.645,82.520,0
216698.570,33.203,23.926,24.414,42.969,94.238,0
216698.574,41.992,17.090,21.484,51.758,64.941,0
216698.578,52.246,23.926,20.508,64.453,41.504,0
216698.582,57.129,24.414,27.344,70.312,78.613,1
216698.586,56.152,20.996,29.297,59.082,64.941,0
216698.590,60.547,22.949,24.414,52.734,38.574,0
216698.594,72.754,27.832,24.902,68.359,61.035,0
216698.598,77.637,30.762,28.809,78.613,71.777,0
216698.602,73.730,25.391,28.320,75.684,64.941,0
216698.606,73.730,17.578,20.996,79.102,66.406,0
216698.610,86.914,6.836,24.414,86.426,72.754,0
216698.613,92.285,1.953,26.855,80.566,62.500,0
216698.617,78.125,7.812,18.066,68.359,4.883,0
216698.621,76.172,12.695,20.020,72.754,-7.324,0
216698.625,79.590,16.113,18.066,78.613,0.977,0
216698.629,83.984,20.996,20.508,85.938,12.207,0
216698.633,90.332,19.043,26.367,83.008,-18.066,0
216698.637,85.449,12.695,21.484,76.172,-5.859,0
216698.641,86.426,10.742,22.461,83.008,62.988,0
216698.645,88.867,14.160,24.414,85.449,63.965,0
216698.649,85.449,16.602,29.785,82.031,57.617,0
216698.652,84.473,9.277,38.086,83.496,29.785,0
216698.656,86.426,2.930,26.367,89.844,33.691,0
216698.660,83.984,5.371,18.066,86.914,70.801,0
216698.664,81.543,8.789,21.973,88.867,47.363,0
216698.668,83.008,6.348,27.344,89.355,20.020,0
216698.672,84.961,7.812,34.180,88.379,32.715,0
216698.676,90.820,12.695,44.434,97.656,22.949,0
216698.680,101.562,13.672,44.922,93.262,-41.992,0
216698.684,103.027,9.766,32.227,85.449,-35.645,0
216698.688,86.914,13.672,28.809,86.914,2.441,0
216698.692,81.055,22.949,32.715,83.496,-39.551,0
216698.695,82.031,20.020,30.762,83.496,-1.953,0
216698.699,76.660,19.531,27.344,70.312,40.039,0
216698.703,76.172,20.508,21.973,70.312,0.000,0
216698.707,81.543,21.484,31.250,87.402,-35.156,0
216698.711,80.566,24.902,39.551,81.543,2.930,0
216698.715,76.660,19.531,29.297,79.102,26.367,0
216698.719,78.613,15.625,34.668,75.684,3.418,0
216698.723,83.496,20.508,37.598,69.336,9.766,0
216698.727,86.914,22.461,38.574,69.336,15.625,0
216698.731,83.496,27.832,41.992,73.730,20.996,0
216698.735,84.961,35.156,30.273,74.707,20.508,0
216698.738,81.543,23.926,32.715,70.801,4.883,0
216698.742,73.730,15.137,34.668,74.707,21.973,0
216698.746,69.824,20.020,30.273,78.125,65.918,0
216698.750,75.195,19.531,41.016,84.473,58.105,0
216698.754,79.590,20.508,42.480,84.473,32.227,0
216698.758,73.242,23.926,35.645,67.871,50.781,0
216698.762,64.941,18.066,36.133,57.617,71.777,0
216698.766,59.082,5.371,33.203,59.570,65.918,0
216698.770,50.781,3.906,33.203,54.688,17.578,0
216698.774,51.758,8.789,43.457,48.340,24.414,0
216698.777,57.617,19.531,38.086,56.641,44.434,0
216698.781,54.199,29.297,34.180,60.547,47.363,0
216698.785,60.547,28.809,45.898,65.918,28.809,0
216698.789,61.523,27.344,44.434,72.266,41.992,0
216698.793,58.594,24.902,21.973,65.430,83.984,0
216698.797,67.871,28.809,23.438,65.918,59.570,0
216698.801,64.941,27.344,41.016,59.082,47.363,0
216698.805,54.199,20.508,44.434,43.945,62.500,0
216698.809,53.223,19.043,49.316,45.898,92.773,0
216698.813,57.617,20.996,38.086,46.875,74.219,0
216698.817,62.012,20.996,26.855,44.434,18.066,0
216698.820,53.223,11.230,32.715,41.016,35.645,0
216698.824,45.898,11.719,34.180,46.875,75.684,0
216698.828,52.734,26.855,30.273,62.500,67.383,0
216698.832,52.246,24.902,35.156,53.711,42.969,0
216698.836,46.387,15.625,42.480,30.273,22.461,0
216698.840,45.898,21.484,42.480,28.320,9.277,0
216698.844,47.852,25.879,36.621,32.715,28.809,0
216698.848,46.875,27.832,24.902,38.086,57.617,0
216698.852,40.039,31.250,17.578,48.828,29.785,0
216698.856,42.480,36.133,21.973,51.270,19.043,0
216698.860,40.527,36.133,21.973,51.270,46.387,0
216698.863,30.762,27.832,36.621,46.875,29.785,0
216698.867,34.180,19.043,57.129,48.340,18.555,0
216698.871,39.551,23.926,49.805,57.129,39.551,0
216698.875,30.762,26.367,39.062,42.969,64.941,0
216698.879,22.461,14.160,40.039,25.391,75.684,0
216698.883,26.367,10.742,45.410,32.715,97.656,0
216698.887,31.738,14.648,49.805,38.086,98.633,0
216698.891,35.156,15.625,34.180,45.898,85.938,0
216698.895,38.574,19.043,24.414,55.664,49.805,0
216698.899,30.273,20.996,31.738,45.898,65.430,0
216698.902,29.785,21.484,48.340,30.762,58.594,0
216698.906,31.738,25.391,51.758,27.832,-3.418,0
216698.910,22.949,27.344,46.387,35.645,43.457,0
216698.914,23.926,28.320,47.852,39.062,107.422,0
216698.918,29.785,29.785,48.828,31.250,52.246,0
216698.922,28.320,26.855,45.898,27.344,41.504,0
216698.926,33.203,22.461,47.363,35.645,73.730,0
216698.930,37.109,23.926,46.875,42.480,42.969,0
216698.934,33.203,27.832,39.551,43.945,9.766,0
216698.938,43.457,28.809,32.227,51.758,17.578,0
216698.942,50.293,26.367,30.762,60.547,58.594,0
216698.945,44.434,21.484,30.762,58.105,33.691,0
216698.949,42.969,16.113,35.156,47.852,-15.137,0
216698.953,56.152,16.113,42.969,48.340,-3.418,0
216698.957,53.711,25.879,46.875,55.664,21.484,0
216698.961,36.133,26.367,50.293,47.363,63.477,0
216698.965,33.691,17.578,46.387,35.156,66.895,0
216698.969,33.203,14.648,41.016,32.227,67.383,0
216698.973,32.227,21.973,32.227,33.203,110.840,0
216698.977,39.062,24.902,34.180,33.203,110.352,0
216698.981,41.504,19.043,44.922,38.574,46.875,0
216698.985,32.715,21.973,34.180,45.898,43.945,0
216698.988,35.645,26.855,21.484,39.062,51.758,0
216698.992,46.875,28.320,40.527,33.691,22.949,0
216698.996,41.016,31.738,45.898,40.039,0.977,0
216699.000,20.508,16.602,33.203,28.320,6.836,0
216699.004,13.672,2.441,27.832,22.461,35.645,0
216699.008,26.855,18.066,14.160,32.715,24.902,0
216699.012,32.715,34.180,15.137,31.250,-0.977,0
216699.016,36.621,39.551,32.715,45.898,16.113,0
216699.020,43.457,40.039,46.387,56.641,26.855,0
216699.024,46.875,28.320,57.617,47.363,20.020,0
216699.027,40.527,17.578,53.223,33.203,15.625,0
216699.031,31.250,26.855,37.109,24.414,4.883,0
216699.035,37.598,17.578,29.785,32.715,-1.953,0
216699.039,40.039,2.930,36.133,40.039,-12.695,0
216699.043,35.645,26.367,29.297,43.945,-1.465,0
216699.047,38.574,44.922,27.344,38.574,17.090,0
216699.051,33.203,37.598,40.527,25.391,24.414,0
216699.055,22.461,29.297,37.598,17.578,-6.348,0
216699.059,28.320,26.367,34.180,25.879,-10.254,0
216699.063,37.598,26.367,43.457,41.504,24.902,0
216699.067,38.086,27.344,43.945,41.016,14.160,0
216699.070,40.039,20.508,37.598,40.039,39.062,0
216699.074,44.922,21.484,43.945,45.898,71.289,0
216699.078,49.805,37.109,37.598,50.781,82.031,0
216699.082,47.363,29.785,25.391,49.316,80.566,0
216699.086,37.598,16.113,29.297,43.945,68.848,0
216699.090,30.273,31.250,37.109,34.668,51.270,0
216699.094,32.227,52.734,50.293,34.668,41.992,0
216699.098,24.902,45.410,55.176,26.855,45.898,0
216699.102,12.207,25.391,44.922,10.742,5.371,0
216699.106,24.414,23.438,35.156,27.344,48.340,0
216699.110,37.598,29.297,21.484,45.410,23.438,0
216699.113,29.785,30.273,29.785,33.203,-44.434,0
216699.117,28.320,26.367,48.340,31.250,-19.043,0
216699.121,27.344,12.695,43.945,48.340,-16.113,0
216699.125,36.133,26.855,46.875,53.223,-36.133,0
216699.129,41.992,44.922,45.898,44.922,-30.273,0
216699.133,24.414,34.668,31.250,36.133,8.301,0
216699.137,18.066,26.855,34.180,27.344,12.207,0
216699.141,17.090,20.508,36.133,23.438,26.367,0
216699.145,18.066,23.438,31.250,24.414,-5.371,0
216699.149,18.555,19.043,31.738,24.414,-38.574,0
216699.152,28.809,27.832,36.621,51.270,17.090,0
216699.156,40.527,47.852,39.551,56.641,40.039,0
216699.160,28.320,38.086,36.133,23.926,12.695,0
216699.164,26.855,26.367,46.875,22.461,30.273,0
216699.168,25.879,26.367,51.270,22.461,47.852,0
216699.172,25.391,27.832,42.969,25.879,64.941,0
216699.176,41.504,40.039,35.645,47.363,26.855,0
216699.180,45.898,46.875,33.203,50.293,5.859,0
216699.184,41.992,25.879,20.996,42.480,27.832,0
216699.188,40.527,23.438,20.996,37.109,18.555,0
216699.192,35.645,30.273,44.434,37.109,-1.465,0
216699.195,34.180,23.926,49.805,43.457,34.180,0
216699.199,32.715,26.367,30.273,42.969,66.406,1
216699.203,25.391,21.973,16.113,36.133,13.672,0
216699.207,21.484,16.113,28.809,27.344,-18.555,0
216699.211,29.297,29.297,41.992,26.855,10.742,0
216699.215,38.086,38.086,38.574,27.832,45.410,0
216699.219,34.668,31.250,30.273,32.715,36.133,0
216699.223,29.785,26.367,22.949,38.086,-9.766,0
216699.227,38.086,30.762,29.785,43.457,-6.348,0
216699.231,38.574,35.156,31.738,42.969,33.203,0
216699.235,34.180,32.227,24.414,25.879,-2.441,0
216699.238,34.668,33.203,29.785,25.879,-22.461,0
216699.242,35.645,32.715,32.227,42.480,16.602,0
216699.246,30.762,26.367,30.273,37.109,10.254,0
216699.250,25.391,20.020,40.527,25.879,-28.320,0
216699.254,25.391,23.438,41.504,31.250,-36.621,0
216699.258,34.180,29.785,25.879,33.691,-24.414,0
216699.262,48.340,31.738,34.180,36.621,-8.789,0
216699.266,48.340,44.434,46.387,52.734,15.625,0
216699.270,31.250,37.598,28.320,48.340,23.438,0
216699.274,24.414,23.926,15.625,21.484,15.137,0
216699.277,31.738,26.367,24.902,12.695,2.441,0
216699.281,31.738,31.738,32.227,15.625,-18.066,0
216699.285,30.273,32.227,30.762,20.996,-14.160,0
216699.289,24.414,23.926,32.715,25.391,27.832,0
216699.293,18.555,12.695,32.715,26.855,27.344,0
216699.297,29.297,10.254,23.926,29.297,-20.020,0
216699.301,57.129,23.926,38.086,54.199,2.930,0
216699.305,53.223,40.039,47.852,70.312,33.203,0
216699.309,30.273,37.109,32.715,44.434,28.809,0
216699.313,34.668,33.691,31.250,38.086,23.438,0
216699.317,41.504,29.297,46.875,41.504,54.688,0
216699.320,38.574,17.090,44.434,41.992,50.781,0
216699.324,39.551,17.578,26.367,42.969,-11.230,0
216699.328,41.992,20.020,32.227,39.062,3.418,0
216699.332,40.039,17.090,47.852,38.086,28.809,0
216699.336,38.574,26.855,41.504,37.598,35.645,0
216699.340,40.039,28.320,37.598,39.062,35.156,0
216699.344,37.109,13.184,41.992,40.527,22.949,0
216699.348,35.156,14.160,40.039,41.992,47.852,0
216699.352,43.457,17.090,31.250,49.805,30.762,0
216699.356,52.734,21.484,25.391,57.617,38.574,0
216699.360,48.340,28.809,30.762,38.086,49.805,0
216699.363,28.809,32.227,33.691,23.926,48.828,0
216699.367,25.879,40.527,39.062,28.320,54.688,0
216699.371,33.691,40.039,45.898,29.297,40.039,0
216699.375,38.574,38.086,45.898,34.668,61.035,0
216699.379,44.922,31.738,39.551,37.109,47.363,0
216699.383,45.410,22.461,30.273,38.574,37.109,0
216699.387,32.227,19.043,28.320,35.645,63.965,0
216699.391,27.832,17.578,23.926,30.273,61.523,0
216699.395,41.016,33.203,24.902,45.410,41.016,0
216699.399,42.480,42.969,23.438,40.039,19.043,0
216699.402,26.855,14.648,17.090,18.555,15.137,0
216699.406,20.996,7.812,37.109,22.949,41.504,0
216699.410,35.156,32.715,53.223,27.832,49.316,0
216699.414,54.688,43.945,33.691,38.086,27.344,0
216699.418,50.781,40.039,17.578,43.945,28.320,0
216699.422,33.203,21.484,31.738,24.902,9.277,0
216699.426,19.043,16.602,45.410,18.555,-11.230,0
216699.430,21.973,30.762,52.734,24.414,-3.906,0
216699.434,30.273,34.668,46.387,23.926,20.508,0
216699.438,25.879,19.043,39.062,36.133,47.852,0
216699.442,26.367,18.066,40.527,35.156,39.551,0
216699.445,30.273,30.273,42.969,30.273,51.758,0
216699.449,32.715,24.414,40.039,49.805,45.898,0
216699.453,40.039,21.973,31.250,54.688,56.152,0
216699.457,26.367,26.367,29.297,31.250,63.965,0
216699.461,19.531,26.367,39.551,15.625,53.223,0
216699.465,29.785,22.949,43.457,13.672,46.387,0
216699.469,27.832,13.672,33.203,16.602,35.156,0
216699.473,25.879,24.902,19.043,24.902,13.184,0
216699.477,26.855,36.621,28.809,25.879,11.230,0
216699.481,27.344,28.809,43.945,32.227,45.898,0
216699.485,35.645,31.738,45.410,41.992,26.855,0
216699.488,29.297,19.043,46.387,33.691,9.277,0
216699.492,19.531,1.953,53.711,33.691,31.250,0
216699.496,23.438,25.879,48.340,42.480,55.176,0
216699.500,25.879,42.969,36.621,31.738,33.691,0
216699.504,21.973,30.273,31.738,26.855,-10.742,0
216699.508,20.508,18.555,26.367,25.391,22.461,0
216699.512,23.438,16.113,26.367,29.297,51.758,0
216699.516,34.668,35.645,39.551,43.945,37.109,0
216699.520,44.434,41.016,44.922,52.246,15.625,0
216699.524,32.227,20.996,41.504,39.551,-13.184,0
216699.527,12.207,17.090,43.945,11.230,47.363,0
216699.531,12.695,23.926,50.293,12.695,52.246,0
216699.535,18.555,28.320,42.969,23.926,19.043,0
216699.539,13.672,13.184,29.785,22.949,6.348,0
216699.543,0.488,-3.418,32.227,17.578,22.461,0
216699.547,-6.348,7.324,36.621,11.230,32.715,0
216699.551,1.953,18.555,19.531,15.137,6.348,0
216699.555,24.902,34.180,20.996,35.645,93.262,0
216699.559,30.762,41.992,50.293,38.574,123.047,0
216699.563,19.043,35.645,59.082,24.902,49.316,0
216699.567,29.297,27.344,57.617,27.832,93.750,0
216699.570,20.508,11.230,45.410,27.832,148.438,0
216699.574,7.324,10.254,22.461,27.832,100.098,0
216699.578,11.719,23.438,8.789,23.438,103.516,0
216699.582,15.625,21.973,14.160,20.020,93.262,0
216699.586,22.949,4.395,25.391,28.809,44.434,0
216699.590,29.297,9.766,34.180,36.621,80.566,0
216699.594,30.762,44.434,40.039,48.340,45.410,0
216699.598,28.809,50.781,48.340,44.922,-9.766,0
216699.602,14.648,25.879,48.340,22.461,19.043,0
216699.606,11.719,20.020,35.645,15.137,53.711,0
216699.610,23.438,32.715,27.832,13.672,-0.977,0
216699.613,20.996,24.902,27.344,11.230,-24.414,0
216699.617,14.648,17.578,26.367,19.531,44.922,0
216699.621,24.902,23.926,32.715,22.949,26.855,0
216699.625,32.715,20.996,36.621,31.738,3.418,0
216699.629,32.715,21.973,38.086,42.480,31.250,0
216699.633,36.621,31.250,47.363,37.109,34.180,0
216699.637,36.621,38.574,53.223,41.992,32.715,0
216699.641,29.297,27.344,37.109,34.180,46.875,0
216699.645,16.602,16.113,16.602,12.207,41.992,0
216699.649,9.766,26.855,27.344,26.855,36.133,0
216699.652,15.137,31.738,41.016,27.832,38.574,0
216699.656,18.066,31.250,43.457,10.254,1.953,0
216699.660,27.344,31.250,42.969,24.902,26.367,0
216699.664,28.809,21.973,29.297,32.715,64.941,0
216699.668,27.344,15.625,25.879,28.320,52.734,0
216699.672,34.180,21.484,43.945,36.133,40.527,0
216699.676,37.598,32.715,42.969,39.551,30.273,0
216699.680,31.250,22.461,28.809,24.902,24.414,0
216699.684,20.508,8.789,36.621,15.625,34.668,0
216699.688,16.113,16.113,36.621,17.578,35.156,0
216699.692,19.531,29.785,33.691,12.695,45.410,0
216699.695,37.109,36.621,35.156,28.809,35.156,0
216699.699,41.504,32.227,19.531,41.504,13.672,0
216699.703,27.344,25.879,13.672,23.438,4.395,0
216699.707,33.203,11.719,40.527,24.902,-13.672,0
216699.711,41.504,18.555,54.199,39.062,16.113,0
216699.715,31.738,28.809,38.574,18.555,-15.625,0
216699.719,21.973,16.602,23.926,1.953,-50.293,0
216699.723,29.785,23.438,27.344,20.020,15.625,0
216699.727,39.551,32.715,25.391,36.133,31.250,0
216699.731,36.621,24.414,26.855,34.180,19.531,0
216699.735,37.109,21.973,45.898,29.785,37.598,0
216699.738,35.645,22.949,45.898,30.273,75.195,0
216699.742,31.738,23.438,41.504,39.551,57.129,0
216699.746,40.039,33.203,41.504,44.922,16.602,0
216699.750,50.293,28.809,44.922,36.133,39.551,0
216699.754,52.246,25.391,42.969,39.062,61.035,0
216699.758,39.551,26.855,35.645,39.062,26.367,0
216699.762,24.902,20.508,36.621,24.902,-23.926,0
216699.766,21.973,20.996,30.762,20.508,-5.371,0
216699.770,29.785,40.039,31.250,34.180,62.012,0
216699.774,35.156,37.598,38.574,47.852,80.566,0
216699.777,44.434,22.461,42.480,57.129,45.410,0
216699.781,46.387,34.180,57.617,51.758,59.570,0
216699.785,25.879,43.457,52.246,18.066,94.238,0
216699.789,28.320,37.109,42.480,16.602,83.496,0
216699.793,43.457,24.414,40.039,29.785,52.246,0
216699.797,36.621,25.391,39.551,19.531,52.734,0
216699.801,26.855,32.227,31.738,14.648,43.945,0
216699.805,34.668,28.320,13.672,16.602,39.551,0
216699.809,40.039,11.230,22.461,26.367,40.039,0
216699.813,47.852,13.672,39.062,43.457,47.852,0
216699.817,71.777,29.297,32.227,46.875,30.273,0
216699.820,60.547,31.250,26.855,44.434,44.434,2
216699.824,37.598,36.133,41.504,36.133,68.359,0
216699.828,41.016,33.203,57.129,40.527,56.152,0
216699.832,37.598,19.531,44.922,36.621,38.086,0
216699.836,35.645,21.484,31.250,32.227,20.508,0
216699.840,47.852,22.461,29.785,47.852,13.672,0
216699.844,38.086,16.602,29.785,36.133,35.156,0
216699.848,29.297,23.926,29.785,27.832,22.461,0
216699.852,43.945,30.273,36.621,33.691,-4.883,0
216699.856,46.875,31.250,37.109,41.016,35.645,0
216699.860,34.668,27.344,43.945,43.945,59.570,0
216699.863,41.016,23.926,60.547,40.039,52.246,0
216699.867,38.086,28.320,36.621,33.203,39.551,0
216699.871,32.715,31.250,5.371,34.668,50.293,0
216699.875,38.086,24.414,18.066,46.875,66.895,0
216699.879,32.715,11.719,34.180,45.898,44.922,0
216699.883,28.320,9.766,37.598,35.156,29.785,0
216699.887,22.461,18.066,44.434,27.344,-5.859,0
216699.891,17.578,18.555,41.992,34.180,6.836,0
216699.895,29.297,28.809,30.762,40.527,42.480,0
216699.899,44.922,46.875,20.508,47.852,16.113,0
216699.902,44.434,38.086,9.277,45.410,25.391,0
216699.906,41.016,19.531,11.230,36.621,43.945,0
216699.910,39.062,14.648,34.180,35.645,30.273,0
216699.914,24.902,20.020,54.199,24.902,34.180,0
216699.918,23.926,34.180,54.688,28.320,63.477,0
216699.922,27.344,34.180,43.457,36.621,75.195,0
216699.926,29.785,26.855,38.086,37.598,62.988,0
216699.930,35.645,18.555,35.156,35.156,54.688,0
216699.934,41.992,16.602,33.691,43.457,48.340,0
216699.938,36.621,17.578,27.344,50.781,53.711,0
216699.942,30.273,21.484,11.230,42.969,39.062,0
216699.945,38.574,46.387,13.672,42.969,33.691,0
216699.949,32.227,48.828,38.574,44.434,53.223,0
216699.953,20.508,25.879,47.852,25.391,23.438,0
216699.957,22.949,21.484,49.316,14.648,14.648,0
216699.961,27.344,22.949,49.316,21.973,51.270,0
216699.965,27.344,20.508,39.551,24.902,48.340,0
216699.969,38.086,25.879,34.180,28.320,45.898,0
216699.973,49.316,28.809,23.926,35.645,69.336,0
216699.977,43.457,29.297,12.695,50.293,65.430,0
216699.981,55.664,33.691,21.973,63.477,54.688,0
216699.985,52.246,37.109,28.809,38.086,26.367,0
216699.988,24.414,30.762,38.086,13.184,29.785,0
216699.992,22.949,28.320,42.480,21.973,54.688,0
216699.996,33.691,26.855,41.016,41.016,22.461,0
216700.000,41.504,18.066,41.504,40.039,9.766,0
216700.004,37.598,11.230,32.715,29.297,53.711,0
216700.008,29.785,11.719,24.902,28.809,20.508,0
216700.012,39.062,28.320,16.113,37.598,-11.230,0
216700.016,42.969,39.551,18.555,49.805,34.180,0
216700.020,32.227,35.645,42.969,45.898,50.781,0
216700.024,26.855,29.785,57.617,41.992,34.180,0
216700.027,27.344,25.879,41.016,39.551,-3.418,0
216700.031,23.438,19.531,28.320,27.832,-27.832,0
216700.035,31.250,13.184,34.180,35.156,17.578,0
216700.039,38.086,18.555,37.109,42.969,29.785,0
216700.043,31.250,19.043,33.203,32.227,-17.090,0
216700.047,37.598,25.879,18.555,33.203,-22.949,0
216700.051,49.805,36.621,23.438,41.504,-14.160,0
216700.055,41.016,35.645,41.992,41.504,-10.742,0
216700.059,35.156,34.668,41.504,32.715,-15.137,0
216700.063,37.598,34.180,36.133,19.043,-3.418,0
216700.067,35.156,37.598,24.902,25.391,42.480,0
216700.070,40.039,35.645,21.484,47.852,40.039,0
216700.074,54.199,25.879,16.602,50.293,-20.020,0
216700.078,62.500,26.367,20.020,42.480,-40.527,0
216700.082,43.945,25.391,40.527,32.227,10.742,0
216700.086,31.250,27.344,48.828,25.879,49.316,0
216700.090,38.086,40.039,43.945,29.297,18.066,0
216700.094,43.457,41.992,42.969,35.645,20.020,0
216700.098,40.039,42.480,41.016,48.340,41.992,0
216700.102,34.668,44.434,33.203,43.945,27.832,0
216700.106,33.691,28.320,22.461,39.551,30.762,0
216700.110,38.574,26.367,17.578,49.316,38.574,0
216700.113,45.410,32.715,35.156,54.199,57.129,0
216700.117,46.875,17.090,56.152,44.922,52.734,0
216700.121,45.410,20.508,52.734,39.551,28.320,0
216700.125,42.969,37.109,37.109,41.504,25.391,0
216700.129,43.457,37.109,31.250,49.316,37.109,0
216700.133,39.551,35.645,32.227,49.805,12.207,0
216700.137,41.504,38.574,38.574,44.922,-8.789,0
216700.141,50.781,38.086,32.227,52.246,42.969,0
216700.145,36.133,34.180,32.227,39.551,78.613,0
216700.149,25.391,32.715,46.387,28.809,49.316,0
216700.152,22.949,33.691,44.922,22.949,78.125,0
216700.156,20.508,22.461,37.109,17.578,111.816,0
216700.160,29.785,14.648,39.551,29.297,102.539,0
216700.164,40.527,30.762,33.691,38.574,96.191,0
216700.168,45.410,39.062,23.438,44.922,56.152,0
216700.172,51.758,41.992,28.809,59.570,24.414,0
216700.176,49.805,39.551,41.016,66.895,78.613,0
216700.180,29.785,30.273,42.480,43.945,62.500,0
216700.184,23.438,23.926,42.969,27.832,19.043,0
216700.188,28.809,23.438,41.992,36.133,10.254,0
216700.192,29.297,28.809,46.875,40.527,1.465,0
216700.195,34.668,34.180,46.387,43.457,18.555,0
216700.199,39.062,31.738,41.016,41.504,50.293,0
216700.203,39.551,24.902,31.738,35.156,30.273,0
216700.207,46.875,35.156,20.508,42.969,-23.926,0
216700.211,41.504,42.480,31.250,42.969,11.719,0
216700.215,35.156,38.086,49.805,37.598,40.039,0
216700.219,43.457,38.574,54.688,45.410,24.902,0
216700.223,39.551,37.598,30.762,45.410,-2.441,0
216700.227,36.621,31.250,27.832,30.273,-43.457,0
216700.231,35.645,28.320,47.363,24.414,-26.855,0
216700.235,32.227,30.762,49.316,33.203,5.859,0
216700.238,32.227,33.203,46.387,37.598,28.320,0
216700.242,31.738,38.086,28.320,31.738,13.672,0
216700.246,38.086,37.598,22.949,38.574,-8.301,0
216700.250,44.922,33.691,41.992,42.480,15.625,0
216700.254,41.016,31.250,41.504,34.668,-1.465,0
216700.258,29.785,28.320,38.574,24.414,-3.418,0
216700.262,23.438,27.832,41.504,29.297,-6.348,0
216700.266,29.785,17.090,41.992,41.992,-18.066,0
216700.270,26.367,10.742,38.574,24.414,-40.039,0
216700.274,24.902,25.391,31.250,20.020,-63.965,0
216700.277,32.227,35.645,28.320,30.762,-7.324,0
216700.281,32.715,39.551,26.855,37.109,3.906,0
216700.285,42.969,46.875,28.809,45.410,-24.902,0
216700.289,55.176,51.270,32.227,42.480,19.531,0
216700.293,44.434,37.598,31.250,36.133,50.781,0
216700.297,37.109,25.391,37.109,38.086,33.691,0
216700.301,30.762,23.926,42.480,35.156,51.270,0
216700.305,32.715,25.391,41.504,43.457,67.871,0
216700.309,40.039,21.973,30.762,48.828,41.504,0
216700.313,37.109,18.555,20.020,38.086,22.949,0
216700.317,36.621,31.250,30.762,34.180,-21.973,0
216700.320,22.461,43.457,48.340,33.691,24.902,0
216700.324,12.695,34.180,49.805,23.926,68.359,0
216700.328,11.230,26.855,38.574,23.926,21.973,0
216700.332,18.555,29.297,36.133,35.645,49.316,0
216700.336,30.273,19.043,30.273,33.203,103.516,0
216700.340,23.926,22.461,14.648,24.902,82.031,0
216700.344,23.438,35.156,27.344,27.344,55.664,0
216700.348,28.320,37.109,42.969,37.598,63.477,0
216700.352,28.809,41.992,37.109,40.527,56.641,0
216700.356,28.320,42.969,32.715,31.250,20.020,0
216700.360,30.273,33.203,37.109,31.738,8.789,0
216700.363,42.969,30.273,39.062,45.410,35.156,0
216700.367,41.016,32.227,35.156,44.434,69.824,0
216700.371,25.879,22.461,28.320,29.297,56.641,0
216700.375,31.250,17.578,21.973,36.133,56.641,0
216700.379,33.691,23.926,32.715,45.410,55.176,0
216700.383,23.438,24.902,37.598,25.391,54.199,0
216700.387,27.832,20.020,40.527,21.973,83.496,0
216700.391,34.180,20.508,35.156,28.809,74.219,0
216700.395,35.156,24.902,38.574,32.227,50.293,0
216700.399,28.320,32.227,48.340,38.086,42.480,0
216700.402,24.902,31.738,45.898,31.250,40.039,0
216700.406,31.738,31.738,41.016,28.809,46.387,0
216700.410,28.320,28.320,29.297,44.434,50.781,0
216700.414,21.484,15.137,24.414,40.039,57.617,0
216700.418,35.156,16.602,35.156,36.621,79.590,0
216700.422,44.922,33.203,37.598,37.598,52.734,0
216700.426,47.363,46.875,37.598,32.227,23.926,0
216700.430,40.039,32.715,36.621,32.227,27.832,2
216700.434,34.180,22.949,39.062,24.414,21.484,0
216700.438,39.062,25.879,52.246,37.598,27.832,0
216700.442,38.574,25.879,50.781,45.898,58.594,0
216700.445,36.133,26.367,37.109,33.203,54.688,0
216700.449,40.527,19.531,27.832,27.344,41.016,0
216700.453,43.457,20.508,23.438,36.621,46.387,0
216700.457,41.992,32.227,27.344,48.340,48.828,0
216700.461,38.574,33.691,33.691,45.898,78.613,0
216700.465,33.203,28.320,28.809,33.691,44.434,0
216700.469,36.133,29.785,34.668,29.785,27.344,0
216700.473,38.086,23.926,44.922,32.227,48.340,0
216700.477,42.480,25.391,40.527,37.109,26.855,0
216700.481,52.734,31.738,41.016,46.875,4.883,0
216700.485,54.688,41.992,40.527,49.316,-5.859,0
216700.488,52.246,49.805,41.992,47.363,14.648,0
216700.492,40.039,33.203,45.410,31.738,-4.883,0
216700.496,30.273,9.766,34.668,29.297,-20.508,0
216700.500,33.691,14.160,36.133,29.785,2.441,0
216700.504,41.504,34.668,44.922,38.086,-7.812,0
216700.508,49.316,41.504,42.969,47.852,9.277,0
216700.512,45.898,39.062,35.156,30.273,4.395,0
216700.516,49.805,41.992,36.621,38.574,26.367,0
216700.520,54.199,40.039,49.316,48.340,50.781,0
216700.524,42.969,27.832,42.480,36.133,-21.973,0
216700.527,32.227,18.555,26.855,25.879,-36.621,0
216700.531,28.320,22.461,22.949,28.809,15.137,0
216700.535,31.250,25.391,27.344,38.574,9.766,0
216700.539,31.738,18.555,39.062,36.133,-16.113,0
216700.543,29.785,19.531,38.574,31.250,-3.418,0
216700.547,37.109,28.320,27.344,40.039,17.090,0
216700.551,35.645,29.297,25.391,38.574,22.949,0
216700.555,28.320,30.273,33.203,27.344,12.695,0
216700.559,39.551,34.180,32.715,30.273,22.949,0
216700.563,49.316,37.598,29.297,42.969,55.664,0
216700.567,42.969,28.320,26.855,41.016,70.312,0
216700.570,43.945,25.879,30.273,35.645,59.570,0
216700.574,52.246,34.668,38.086,43.945,42.969,0
216700.578,41.016,19.043,35.645,29.297,54.199,0
216700.582,20.020,8.789,30.762,3.906,62.012,0
216700.586,22.461,19.531,31.250,11.230,33.203,0
216700.590,37.598,29.785,32.715,29.785,37.109,0
216700.594,43.945,29.785,28.809,39.062,38.086,0
216700.598,37.109,24.902,20.508,37.598,33.203,0
216700.602,41.504,29.297,18.066,35.645,-3.906,0
216700.606,49.805,32.227,20.020,46.875,19.531,0
216700.610,44.434,28.809,18.066,50.293,55.176,0
216700.613,37.109,27.832,23.926,39.551,34.180,0
216700.617,41.992,36.133,38.574,36.621,-1.465,0
216700.621,42.969,31.250,41.504,33.203,-11.719,0
216700.625,28.809,14.160,32.227,36.133,9.766,0
216700.629,20.020,20.020,33.691,24.414,7.812,0
216700.633,23.438,37.598,31.250,13.672,15.625,0
216700.637,31.250,39.062,27.832,25.391,19.043,0
216700.641,30.762,31.738,28.809,19.043,27.832,0
216700.645,31.738,35.645,25.391,18.066,20.996,0
216700.649,39.062,35.156,32.227,29.297,32.715,0
216700.652,44.434,32.227,27.832,32.227,33.203,0
216700.656,38.574,30.273,22.461,33.203,6.348,0
216700.660,32.227,30.762,30.762,37.109,29.297,0
216700.664,33.203,35.156,22.949,41.992,40.527,0
216700.668,33.203,28.809,15.625,24.414,47.363,0
216700.672,34.668,22.949,23.438,16.113,26.367,0
216700.676,34.180,27.344,37.109,28.809,26.855,0
216700.680,31.738,29.785,30.273,35.645,53.223,0
216700.684,33.203,21.973,12.695,30.762,45.410,0
216700.688,23.438,23.438,15.137,22.461,39.551,0
216700.692,26.367,35.156,27.832,27.344,25.879,0
216700.695,46.875,44.434,28.320,38.574,36.621,0
216700.699,42.480,45.410,25.879,32.227,62.988,0
216700.703,29.297,40.039,21.484,26.367,38.574,0
216700.707,24.414,25.879,21.973,26.855,38.086,0
216700.711,23.438,18.555,26.855,23.926,56.641,0
216700.715,33.203,23.926,34.668,31.738,58.105,0
216700.719,32.715,18.555,29.297,32.227,63.965,0
216700.723,23.438,20.508,20.020,29.297,57.129,0
216700.727,26.855,22.949,22.461,42.480,83.496,0
216700.731,25.879,26.855,29.297,39.062,100.098,0
216700.735,24.414,37.109,38.086,20.020,49.805,0
216700.738,29.785,30.762,47.852,20.508,20.508,0
216700.742,25.879,20.020,43.945,31.250,79.590,0
216700.746,21.484,18.066,33.203,26.855,83.984,0
216700.750,27.344,26.367,33.691,26.367,68.848,0
216700.754,35.645,33.203,30.273,41.992,73.242,0
216700.758,37.598,24.414,22.949,49.316,63.965,0
216700.762,36.621,15.625,25.391,42.969,30.273,0
216700.766,37.598,28.320,37.109,42.969,28.809,0
216700.770,38.574,39.551,44.434,48.828,76.660,0
216700.774,39.062,30.762,51.758,45.410,49.805,0
216700.777,30.762,26.367,44.922,28.320,3.418,0
216700.781,20.508,26.367,32.227,24.902,20.996,0
216700.785,27.832,30.273,35.156,44.434,85.938,0
216700.789,35.156,37.109,33.203,46.387,62.500,0
216700.793,26.855,38.086,14.648,36.133,36.133,0
216700.797,27.832,31.250,14.648,35.156,84.473,0
216700.801,28.320,18.066,30.273,31.250,68.359,0
216700.805,22.461,14.160,31.738,27.832,54.199,0
216700.809,24.414,22.949,45.410,38.086,53.711,0
216700.813,31.738,34.180,51.758,46.875,19.531,0
216700.817,29.785,35.156,32.227,39.062,27.832,0
216700.820,37.109,30.762,32.227,33.691,45.410,0
216700.824,49.805,38.086,43.457,32.227,28.320,0
216700.828,38.086,28.809,31.738,30.762,47.852,0
216700.832,30.762,19.043,17.090,30.273,70.801,0
216700.836,34.668,34.668,19.043,22.461,39.551,0
216700.840,34.668,40.039,21.484,16.602,-30.273,0
216700.844,32.715,21.973,29.785,20.508,-26.855,0
216700.848,37.598,16.602,48.340,27.344,14.648,0
216700.852,42.480,20.020,45.410,25.879,0.977,0
216700.856,39.551,30.273,24.902,23.926,11.230,0
216700.860,41.504,41.504,26.367,33.203,23.438,0
216700.863,42.480,38.574,29.297,45.898,46.875,0
216700.867,46.387,34.180,23.438,47.363,54.199,0
216700.871,43.457,31.250,20.508,41.504,3.418,0
216700.875,32.227,24.902,17.578,36.621,-2.441,0
216700.879,32.715,27.344,31.738,43.457,64.453,0
216700.883,31.738,32.715,45.410,30.762,28.320,0
216700.887,20.508,20.996,36.621,13.184,-63.477,0
216700.891,15.625,9.766,31.738,29.297,-38.086,0
216700.895,27.832,24.902,38.086,43.945,16.602,0
216700.899,34.668,41.504,33.691,42.480,45.410,0
216700.902,40.039,39.062,32.227,39.551,52.246,0
216700.906,39.551,37.598,33.203,36.133,66.406,0
216700.910,38.086,41.016,29.785,48.340,50.293,0
216700.914,44.434,36.133,21.484,53.711,39.551,0
216700.918,40.527,26.367,9.766,42.480,53.223,0
216700.922,29.297,23.926,23.926,41.016,71.289,0
216700.926,23.926,26.855,41.504,36.621,44.434,0
216700.930,35.156,26.855,48.340,32.715,-19.043,0
216700.934,46.875,28.320,50.293,33.691,-6.836,0
216700.938,39.551,35.156,38.574,37.109,42.969,0
216700.942,28.320,39.062,31.738,36.621,33.691,0
216700.945,28.320,21.973,28.320,34.180,41.016,0
216700.949,36.133,18.066,30.762,46.387,49.316,0
216700.953,48.828,33.691,24.414,59.570,21.484,0
216700.957,52.246,35.645,20.508,50.781,52.246,0
216700.961,45.898,30.273,43.945,39.062,45.898,0
216700.965,31.738,20.996,49.316,34.180,20.508,0
216700.969,33.691,19.531,45.410,34.180,22.461,0
216700.973,33.691,18.066,44.434,30.273,41.016,0
216700.977,16.602,13.672,37.598,18.066,46.387,0
216700.981,17.090,24.414,34.668,16.113,29.785,0
216700.985,20.996,40.039,36.133,23.926,53.223,0
216700.988,19.531,41.992,30.762,22.461,62.988,0
216700.992,25.879,41.016,22.461,29.297,25.879,0
216700.996,27.344,38.086,23.926,38.086,47.852,0
216701.000,22.949,28.809,32.715,26.367,46.387,0
216701.004,20.020,27.344,43.945,20.508,28.320,0
216701.008,18.066,27.832,46.387,20.508,51.270,0
216701.012,20.020,32.227,41.504,25.391,23.438,2
216701.016,23.438,29.297,37.109,30.762,14.648,0
216701.020,22.949,11.230,22.949,18.066,22.461,0
216701.024,20.020,6.836,12.695,14.160,51.270,0
216701.027,26.367,17.090,11.230,26.367,47.363,0
216701.031,35.645,30.273,22.461,45.410,6.836,0
216701.035,32.227,30.762,25.391,45.410,12.207,0
216701.039,23.926,29.297,30.273,19.531,-12.207,0
216701.043,23.926,35.156,47.852,27.832,24.414,0
216701.047,23.438,33.691,46.875,32.715,33.691,0
216701.051,25.391,29.785,36.133,26.855,-0.977,0
216701.055,33.203,23.438,25.879,34.180,11.719,0
216701.059,33.691,21.973,7.324,31.738,6.348,0
216701.063,34.668,24.414,8.789,30.273,-16.113,0
216701.067,31.738,23.926,33.691,28.320,-1.953,0
216701.070,24.414,21.973,43.457,27.344,42.969,0
216701.074,20.020,22.461,36.133,26.367,64.941,0
216701.078,22.461,27.832,28.809,29.785,60.059,0
216701.082,30.273,34.180,27.344,36.621,48.828,0
216701.086,38.574,27.832,23.926,42.480,41.504,0
216701.090,32.227,24.902,25.391,45.898,46.875,0
216701.094,20.508,30.273,32.227,32.715,34.180,0
216701.098,14.160,19.043,33.203,15.625,42.480,0
216701.102,13.672,15.137,41.016,16.113,61.523,0
216701.106,21.484,23.926,47.363,16.113,24.902,0
216701.110,28.320,23.926,42.969,14.160,-2.441,0
216701.113,40.039,28.320,29.785,19.043,62.988,0
216701.117,42.969,30.273,12.695,34.668,97.656,0
216701.121,44.434,27.344,15.625,44.434,84.961,0
216701.125,42.969,25.879,38.086,37.598,73.730,0
216701.129,32.715,26.367,39.551,27.344,53.223,0
216701.133,24.902,25.391,23.438,31.250,42.969,0
216701.137,19.531,22.949,27.344,41.016,25.879,0
216701.141,22.461,23.438,39.551,30.762,10.742,0
216701.145,34.180,31.738,39.551,28.809,27.344,0
216701.149,38.574,40.039,42.480,39.551,8.301,0
216701.152,28.809,35.156,39.551,32.715,6.348,0
216701.156,34.668,23.438,27.832,32.715,-5.371,0
216701.160,49.316,30.273,24.414,49.316,-15.625,0
216701.164,42.480,34.180,24.414,54.199,22.949,0
216701.168,32.227,22.949,28.320,39.062,4.395,0
216701.172,28.320,28.320,28.809,25.879,23.926,0
216701.176,26.855,31.738,29.297,26.855,88.379,0
216701.180,34.180,26.855,39.551,38.574,85.938,0
216701.184,39.551,22.461,37.109,40.039,48.828,0
216701.188,38.574,23.926,30.273,40.527,6.836,0
216701.192,42.480,26.367,34.668,41.016,23.926,0
216701.195,39.551,24.902,35.156,30.762,50.293,0
216701.199,35.156,29.297,26.367,29.297,10.742,0
216701.203,40.039,27.344,27.344,35.645,-1.953,0
216701.207,42.969,26.367,34.180,41.504,26.855,0
216701.211,45.898,27.832,27.344,48.828,22.949,0
216701.215,39.551,23.926,24.414,39.062,9.766,0
216701.219,35.645,31.738,38.574,34.180,7.324,0
216701.223,43.457,40.527,52.734,47.363,24.902,0
216701.227,38.574,35.156,46.875,37.109,32.227,0
216701.231,35.156,33.691,32.715,28.809,34.668,0
216701.235,40.039,37.109,30.762,31.250,71.289,0
216701.238,37.598,32.715,20.508,36.621,65.918,0
216701.242,34.668,32.227,17.090,39.551,60.059,0
216701.246,37.598,31.738,22.949,21.484,75.684,0
216701.250,27.832,15.625,21.484,18.066,73.730,0
216701.254,19.531,0.488,28.809,20.020,73.730,0
216701.258,31.250,9.277,33.203,22.949,66.406,0
216701.262,32.227,25.879,33.203,21.973,38.086,0
216701.266,32.715,34.668,34.668,23.926,56.152,0
216701.270,34.668,39.062,25.391,32.227,55.176,0
216701.274,34.668,30.762,20.508,31.250,42.480,0
216701.277,35.156,24.902,20.508,30.762,27.344,0
216701.281,42.480,42.480,27.344,40.527,37.109,0
216701.285,53.711,43.457,36.621,49.805,65.430,0
216701.289,43.945,18.555,28.809,33.691,3.418,0
216701.293,41.016,12.695,17.090,38.574,-28.809,0
216701.297,41.504,19.531,23.926,48.828,14.648,0
216701.301,29.297,18.066,31.250,25.391,33.203,0
216701.305,32.227,22.461,37.598,20.996,46.875,0
216701.309,35.156,39.062,38.574,31.738,70.312,0
216701.313,28.320,41.992,31.738,33.691,90.332,0
216701.317,30.762,34.180,37.109,37.598,93.750,0
216701.320,37.109,33.691,39.062,49.316,68.848,0
216701.324,41.504,34.180,36.621,52.734,51.270,0
216701.328,45.898,31.738,33.691,50.293,50.293,0
216701.332,33.691,24.902,25.879,41.504,54.199,0
216701.336,27.832,20.508,25.391,40.039,59.570,0
216701.340,37.109,24.902,38.574,42.480,55.664,0
216701.344,33.691,27.344,43.945,35.645,-3.906,0
216701.348,24.414,24.414,27.832,31.250,-30.762,0
216701.352,24.902,16.113,18.555,25.879,-24.414,0
216701.356,32.227,23.438,30.762,30.762,-23.926,0
216701.360,39.551,39.062,33.203,40.527,7.812,0
216701.363,44.434,45.898,36.621,44.922,32.715,0
216701.367,40.527,33.691,39.062,42.969,26.855,0
216701.371,37.109,24.902,32.227,38.574,13.672,0
216701.375,36.133,24.414,31.250,37.598,42.969,0
216701.379,34.668,19.531,26.855,37.109,52.246,0
216701.383,38.574,26.855,38.574,33.691,19.531,0
216701.387,33.203,29.297,35.645,31.250,21.484,0
216701.391,25.391,24.414,35.156,25.879,-5.371,0
216701.395,32.227,25.879,45.410,28.809,-23.438,0
216701.399,44.434,39.551,34.180,44.922,1.465,0
216701.402,40.039,34.180,32.227,46.875,-5.371,0
216701.406,33.691,18.555,32.715,37.598,-31.250,0
216701.410,41.016,20.508,31.250,35.156,5.859,0
216701.414,41.504,26.855,39.551,39.062,0.000,0
216701.418,35.156,28.320,43.945,40.039,1.465,0
216701.422,33.203,25.879,43.945,34.668,17.578,0
216701.426,32.227,29.785,44.922,39.551,-25.391,0
216701.430,33.691,24.902,42.969,44.434,-23.926,0
216701.434,40.039,20.508,42.480,55.176,-22.949,0
216701.438,41.992,28.809,37.109,59.570,-28.320,0
216701.442,31.250,27.832,25.391,44.922,-32.715,0
216701.445,21.484,21.484,37.109,37.109,-34.180,0
216701.449,15.137,18.555,50.781,28.809,21.973,0
216701.453,16.602,27.832,45.898,31.250,44.922,0
216701.457,39.062,35.645,41.016,42.969,47.852,0
216701.461,45.410,30.273,36.621,32.715,45.898,0
216701.465,35.645,33.691,39.062,32.227,42.969,0
216701.469,31.738,27.832,30.273,33.203,49.316,0
216701.473,27.832,16.602,22.461,31.250,9.277,0
216701.477,30.273,22.949,37.598,35.156,26.855,0
216701.481,26.855,33.203,39.551,35.156,8.301,0
216701.485,20.020,39.062,26.855,34.180,-40.527,0
216701.488,23.438,44.434,25.391,37.598,-4.395,0
216701.492,25.879,37.109,34.668,39.062,28.320,0
216701.496,29.297,21.973,37.598,25.391,-0.977,0
216701.500,31.250,19.531,42.969,22.461,-14.648,0
216701.504,35.156,24.414,34.668,26.855,9.766,0
216701.508,34.668,18.555,25.879,31.738,61.523,0
216701.512,31.250,23.438,32.715,40.527,83.984,0
216701.516,30.273,29.785,27.832,31.738,47.363,0
216701.520,33.203,23.926,28.320,29.297,58.105,0
216701.524,38.086,27.832,40.527,39.551,89.844,0
216701.527,31.738,33.203,39.551,37.598,27.832,0
216701.531,37.109,36.621,32.715,36.621,-38.574,0
216701.535,53.711,41.504,24.414,62.012,3.906,0
216701.539,53.711,38.574,26.855,66.895,18.066,0
216701.543,40.039,30.273,34.668,35.156,14.648,0
216701.547,16.602,21.973,35.645,4.395,30.762,0
216701.551,17.090,18.555,37.109,4.883,34.180,0
216701.555,28.809,22.949,35.645,21.484,46.875,1
216701.559,28.320,30.273,26.855,28.809,65.430,0
216701.563,28.320,20.508,20.996,24.902,101.074,0
216701.567,28.809,15.625,25.879,23.926,125.000,0
216701.570,28.809,24.902,28.320,24.902,125.000,0
216701.574,34.668,28.809,35.156,28.809,105.957,0
216701.578,41.016,36.133,34.668,35.645,81.055,0
216701.582,35.156,39.551,22.461,36.133,90.332,0
216701.586,34.180,39.551,24.414,31.738,114.258,0
216701.590,41.504,39.062,38.086,31.250,68.848,0
216701.594,35.645,23.926,36.133,25.879,38.574,0
216701.598,39.551,18.066,23.926,19.043,62.012,0
216701.602,41.504,23.926,21.973,22.461,65.430,0
216701.606,37.598,22.461,27.344,39.062,38.086,0
216701.610,41.992,20.020,29.785,43.457,38.574,0
216701.613,36.621,19.531,31.250,34.180,62.988,0
216701.617,29.297,27.832,36.133,30.273,61.523,0
216701.621,23.438,37.598,29.785,23.438,45.898,0
216701.625,15.625,28.320,27.832,19.531,21.484,0
216701.629,20.508,18.555,36.621,31.250,39.551,0
216701.633,21.973,26.855,25.391,36.621,62.012,0
216701.637,21.973,28.809,17.090,25.879,5.371,0
216701.641,39.062,21.484,32.715,29.297,13.184,0
216701.645,37.598,27.832,39.062,29.297,37.598,0
216701.649,25.391,27.344,26.367,24.902,6.836,0
216701.652,31.250,18.066,24.902,31.250,30.762,0
216701.656,32.715,19.531,36.133,31.250,52.734,0
216701.660,31.250,23.926,43.457,35.156,46.387,0
216701.664,33.691,27.832,42.969,40.039,40.527,0
216701.668,29.297,21.484,25.391,28.809,5.859,0
216701.672,27.832,21.484,13.672,13.184,-8.789,0
216701.676,36.621,23.438,30.273,16.602,37.598,0
216701.680,37.598,20.996,43.457,22.461,11.719,0
216701.684,34.668,19.043,40.527,25.879,-44.434,0
216701.688,41.504,22.461,37.109,30.762,-25.879,0
216701.692,42.969,34.668,34.180,32.227,-16.602,0
216701.695,38.574,38.086,30.762,32.227,-9.766,0
216701.699,45.898,33.691,23.438,32.715,15.625,0
216701.703,48.340,26.855,26.855,42.480,57.617,0
216701.707,38.574,30.273,27.832,45.410,54.688,0
216701.711,43.945,40.039,25.879,38.086,4.883,0
216701.715,50.293,40.527,33.691,43.457,-18.555,0
216701.719,38.574,32.227,36.133,37.109,12.695,0
216701.723,21.973,20.508,37.109,30.273,14.648,0
216701.727,20.996,14.648,37.109,21.484,-40.527,0
216701.731,19.531,11.719,32.227,11.230,8.789,0
216701.735,12.695,16.113,25.391,16.113,29.785,0
216701.738,14.160,24.902,15.625,22.949,10.742,0
216701.742,18.555,31.738,20.508,32.227,38.086,0
216701.746,25.391,39.062,35.156,36.621,55.664,0
216701.750,28.809,34.180,36.133,34.668,85.449,0
216701.754,30.273,20.508,44.922,34.180,78.125,0
216701.758,32.227,16.602,45.898,43.457,42.969,0
216701.762,31.738,23.926,34.180,38.574,42.480,0
216701.766,28.809,30.273,29.785,23.926,53.711,0
216701.770,31.250,27.344,26.855,27.344,35.156,0
216701.774,28.809,25.879,26.367,21.484,2.441,0
216701.777,22.461,26.855,33.691,26.367,34.180,0
216701.781,28.320,28.320,32.227,35.645,49.805,0
216701.785,41.016,31.738,34.668,40.039,39.551,0
216701.789,44.922,27.344,46.875,42.480,68.359,0
216701.793,44.922,33.691,43.457,40.527,66.406,0
216701.797,37.598,32.715,30.273,38.086,4.883,0
216701.801,29.785,16.113,22.949,34.180,-29.785,0
216701.805,27.344,17.578,33.203,31.250,6.348,0
216701.809,28.809,28.320,41.504,30.273,71.777,0
216701.813,34.180,36.621,40.039,34.180,66.895,0
216701.817,33.691,40.527,33.203,30.273,45.410,0
216701.820,44.434,41.504,35.156,33.691,34.180,0
216701.824,46.875,33.203,33.203,52.246,0.977,0
216701.828,38.574,24.902,32.227,55.176,0.977,0
216701.832,38.574,26.367,39.551,38.574,47.852,0
216701.836,25.391,26.855,36.621,22.949,44.922,0
216701.840,17.578,27.344,34.668,19.043,14.160,0
216701.844,22.949,26.855,42.969,26.855,2.441,0
216701.848,29.297,19.043,36.621,40.527,10.742,0
216701.852,33.203,20.508,28.320,52.734,15.137,0
216701.856,32.715,28.809,40.527,49.805,-18.066,0
216701.860,39.551,32.715,43.457,46.875,-54.199,0
216701.863,42.480,31.738,40.039,45.410,-51.270,0
216701.867,30.762,26.855,37.109,37.109,6.348,0
216701.871,31.250,26.367,38.574,34.668,19.043,0
216701.875,35.645,25.391,42.969,36.621,1.953,0
216701.879,30.273,20.508,37.598,42.480,43.457,0
216701.883,33.691,22.461,27.344,41.504,47.363,0
216701.887,39.062,30.273,29.297,36.621,17.578,0
216701.891,26.855,25.879,37.598,33.691,36.621,0
216701.895,28.320,21.484,41.016,29.785,55.176,0
216701.899,39.062,22.949,33.203,26.855,9.766,0
216701.902,33.203,20.508,33.691,31.250,-44.922,0
216701.906,30.273,23.926,41.016,31.250,-14.648,0
216701.910,33.691,27.832,28.809,26.855,35.645,0
216701.914,30.273,26.855,20.508,33.691,28.320,0
216701.918,27.344,22.461,27.832,36.621,33.691,0
216701.922,35.645,27.344,36.133,34.668,29.785,0
216701.926,40.527,34.668,38.086,33.203,48.340,0
216701.930,36.621,31.250,37.598,29.785,80.566,0
216701.934,38.574,27.832,42.969,25.879,37.598,0
216701.938,35.156,33.691,43.945,21.973,41.504,0
216701.942,31.250,39.062,42.969,20.996,74.707,0
216701.945,30.273,39.062,40.527,24.414,44.922,0
216701.949,30.762,45.410,35.156,33.691,30.762,0
216701.953,27.832,48.828,38.574,30.762,37.598,0
216701.957,14.648,41.016,29.297,5.371,40.527,0
216701.961,6.348,40.527,12.695,-3.418,45.410,0
216701.965,7.324,39.062,14.160,-7.324,20.996,0
216701.969,12.695,43.945,24.902,0.977,4.883,0
216701.973,0.977,46.875,33.203,14.160,59.082,0
216701.977,-41.992,34.180,29.297,-32.227,78.613,0
216701.981,-63.477,30.273,25.391,-65.918,62.500,0
216701.985,-53.711,37.109,25.879,-50.781,66.895,0
216701.988,-49.805,57.129,24.902,-51.270,80.078,0
216701.992,-50.781,75.684,25.391,-58.105,52.246,0
216701.996,-63.477,71.289,27.832,-63.965,25.879,0
216702.000,-79.590,52.246,20.508,-76.660,25.879,0
216702.004,-79.102,45.898,9.766,-86.426,41.992,0
216702.008,-70.801,62.988,25.391,-83.008,55.176,0
216702.012,-81.055,62.012,32.715,-92.773,42.480,0
216702.016,-85.938,52.246,34.180,-93.750,45.410,0
216702.020,-91.309,57.129,31.250,-91.309,59.570,0
216702.024,-91.797,65.430,25.391,-97.168,42.480,0
216702.027,-83.008,67.383,25.391,-101.074,12.695,0
216702.031,-87.891,59.082,26.855,-92.285,49.805,0
216702.035,-77.637,54.199,23.438,-71.289,74.219,0
216702.039,-55.176,57.129,20.508,-51.758,42.969,0
216702.043,-46.387,43.945,30.762,-32.227,36.133,0
216702.047,-32.227,42.480,30.762,-23.926,35.645,0
216702.051,-13.672,66.895,26.367,-16.113,50.293,0
216702.055,-10.254,72.266,25.879,-16.602,25.879,0
216702.059,-10.254,62.500,22.461,-16.113,21.484,0
216702.063,-1.953,53.711,27.344,-5.371,76.172,0
216702.067,9.277,46.387,37.109,10.742,50.293,0
216702.070,13.184,43.457,31.250,25.879,5.371,0
216702.074,15.625,41.504,23.438,25.879,31.250,0
216702.078,17.090,31.250,35.645,27.832,37.109,0
216702.082,31.738,27.344,41.504,50.293,-25.391,0
216702.086,46.387,27.832,32.227,59.082,-35.156,0
216702.090,50.781,29.297,32.715,49.316,-5.859,0
216702.094,51.758,38.574,36.133,46.875,12.695,0
216702.098,48.340,30.762,33.203,45.898,-2.930,0
216702.102,43.945,8.789,30.762,39.551,-15.137,0
216702.106,41.992,7.812,29.785,47.852,-19.531,0
216702.110,48.828,23.926,31.738,59.082,-8.301,0
216702.113,58.105,26.367,30.762,60.547,18.066,0
216702.117,78.125,33.203,28.320,75.684,19.531,0
216702.121,79.590,35.645,38.574,75.684,18.555,0
216702.125,67.383,20.996,48.828,62.500,-2.930,0
216702.129,67.871,16.602,43.945,72.266,-2.441,0
216702.133,69.336,23.438,41.504,73.730,15.137,0
216702.137,62.012,19.043,32.715,59.570,35.645,0
216702.141,55.176,2.930,23.438,57.617,45.898,0
216702.145,57.617,-2.441,25.391,65.430,34.668,0
216702.149,61.035,8.301,25.879,66.895,1.953,0
216702.152,63.965,16.602,36.133,71.289,21.973,0
216702.156,69.824,19.531,49.316,79.590,27.344,0
216702.160,65.430,16.602,44.922,75.195,36.133,0
216702.164,65.430,15.625,36.621,70.801,43.945,0
216702.168,79.102,24.902,39.062,85.938,10.254,0
216702.172,80.078,28.320,40.527,100.098,-6.836,0
216702.176,65.430,20.508,30.273,79.102,-0.488,0
216702.180,69.824,13.672,34.180,74.219,5.371,0
216702.184,69.336,6.348,39.551,88.379,20.996,0
216702.188,54.199,5.859,26.855,65.918,50.781,0
216702.192,55.176,11.230,24.902,51.270,51.270,0
216702.195,63.965,21.484,43.945,71.777,45.898,0
216702.199,64.453,27.832,52.734,78.125,34.180,0
216702.203,58.594,26.367,37.598,69.824,52.246,0
216702.207,60.059,25.391,27.832,74.219,77.148,0
216702.211,69.336,29.297,28.320,83.984,70.312,0
216702.215,62.012,24.414,24.902,74.219,60.547,0
216702.219,52.246,11.230,25.879,60.547,68.359,0
216702.223,58.105,14.648,26.367,62.988,89.844,0
216702.227,58.594,19.531,22.949,61.523,82.031,0
216702.231,67.383,20.996,30.273,49.316,37.598,0
216702.235,66.895,23.926,34.180,33.691,9.277,0
216702.238,50.293,19.043,27.344,32.715,9.277,0
216702.242,49.316,18.555,21.484,48.340,21.973,0
216702.246,50.293,22.949,26.367,52.734,9.766,0
216702.250,62.012,29.785,28.320,59.570,-9.277,0
216702.254,66.895,35.156,23.438,63.965,8.301,0
216702.258,52.246,21.484,25.879,59.082,37.598,0
216702.262,51.270,15.137,28.320,53.711,14.648,0
216702.266,51.270,15.625,31.738,43.945,-14.648,0
216702.270,52.246,19.531,37.598,51.758,9.766,0
216702.274,49.316,22.949,39.551,52.246,35.156,0
216702.277,41.016,13.184,29.785,45.898,17.578,2
216702.281,47.852,8.789,24.902,46.875,-23.926,0
216702.285,61.035,18.066,18.555,42.969,-5.859,0
216702.289,57.129,21.973,21.484,46.875,46.387,0
216702.293,57.617,20.508,46.875,56.641,27.832,0
216702.297,62.012,21.484,51.270,50.293,23.926,0
216702.301,54.688,21.484,32.227,46.875,63.965,0
216702.305,46.387,19.043,24.414,48.340,66.895,0
216702.309,43.945,17.578,33.203,56.641,45.410,0
216702.313,53.711,28.809,39.551,62.500,57.617,0
216702.317,53.711,31.250,31.250,47.852,56.152,0
216702.320,44.922,17.090,22.949,41.504,28.809,0
216702.324,47.852,16.113,34.668,49.805,28.809,0
216702.328,45.898,16.113,39.062,39.062,8.789,0
216702.332,43.457,13.672,37.109,26.367,24.414,0
216702.336,60.547,21.973,34.668,51.758,34.668,0
216702.340,66.895,17.090,35.645,63.477,-1.465,0
216702.344,56.152,7.324,35.156,41.504,-32.227,0
216702.348,51.758,12.695,35.156,36.621,9.766,0
216702.352,45.898,29.785,34.180,49.316,24.902,0
216702.356,49.316,42.969,37.598,58.594,29.785,0
216702.360,58.105,40.039,44.434,62.500,42.480,0
216702.363,47.852,24.414,29.785,50.293,46.387,0
216702.367,35.645,12.695,20.020,34.180,72.266,0
216702.371,36.621,15.625,25.391,29.785,40.039,0
216702.375,47.852,24.414,28.320,46.387,41.504,0
216702.379,53.223,23.926,27.832,60.059,81.543,0
216702.383,59.082,20.996,32.227,45.898,77.637,0
216702.387,58.105,20.996,32.227,40.527,79.102,0
216702.391,44.434,19.531,31.250,51.758,81.543,0
216702.395,50.293,22.949,36.621,55.664,70.312,0
216702.399,61.035,29.785,35.645,51.758,54.199,0
216702.402,54.199,38.086,31.738,46.875,45.898,0
216702.406,51.270,38.086,27.344,50.293,72.754,0
216702.410,52.246,30.762,22.949,54.688,89.844,0
216702.414,48.828,25.879,29.785,51.270,65.918,0
216702.418,52.734,28.320,32.715,51.758,48.340,0
216702.422,52.246,28.809,33.203,53.711,65.430,0
216702.426,48.828,30.273,35.156,54.199,89.844,0
216702.430,49.316,31.738,35.156,48.828,67.871,0
216702.434,47.363,21.973,39.062,42.480,76.172,0
216702.438,41.992,20.020,40.527,42.480,66.406,0
216702.442,37.598,22.949,29.785,48.340,0.000,0
216702.445,36.621,18.555,30.273,50.781,2.441,0
216702.449,39.551,23.926,37.598,52.246,4.883,0
216702.453,42.969,40.039,30.762,49.805,-17.578,0
216702.457,38.086,37.598,20.508,39.062,-22.949,0
216702.461,30.762,22.949,27.344,30.273,-19.043,0
216702.465,35.156,22.949,32.227,28.809,-22.949,0
216702.469,34.668,28.809,31.250,36.621,-5.371,0
216702.473,22.949,22.949,37.598,35.156,37.598,0
216702.477,19.043,18.066,41.992,19.043,-4.395,0
216702.481,20.508,24.902,43.945,23.926,20.508,0
216702.485,26.855,31.738,40.527,37.109,57.129,0
216702.488,33.691,23.926,31.738,30.273,31.250,0
216702.492,31.250,15.625,30.762,36.621,15.625,0
216702.496,31.250,20.020,37.598,48.828,39.062,0
216702.500,28.809,24.414,38.574,37.109,26.367,0
216702.504,21.973,20.996,36.133,28.809,-11.719,0
216702.508,24.414,27.344,36.621,29.785,16.113,0
216702.512,34.180,40.527,31.250,32.227,33.691,0
216702.516,33.691,39.062,36.621,35.156,31.738,0
216702.520,28.320,29.785,38.086,29.297,-20.508,0
216702.524,41.992,28.320,32.715,33.203,-58.105,0
216702.527,53.711,34.180,28.809,45.410,7.324,0
216702.531,46.387,27.832,17.578,38.574,24.902,0
216702.535,39.062,19.043,23.926,26.855,20.020,0
216702.539,29.785,15.137,37.109,33.691,45.410,0
216702.543,33.203,15.625,35.156,56.152,72.754,0
216702.547,34.180,19.531,26.855,53.711,90.332,0
216702.551,26.367,21.484,30.762,25.879,83.984,0
216702.555,21.973,23.438,39.062,16.602,76.660,0
216702.559,22.949,23.926,37.598,25.391,66.406,0
216702.563,36.621,34.180,32.227,32.715,39.551,0
216702.567,45.898,38.086,29.297,35.645,8.301,0
216702.570,37.109,28.320,22.949,31.250,30.273,0
216702.574,28.320,27.344,21.484,27.344,53.711,0
216702.578,40.039,29.785,27.832,34.668,47.363,0
216702.582,47.852,23.438,23.926,37.109,39.551,0
216702.586,38.086,28.320,22.461,39.551,59.082,0
216702.590,30.762,34.180,35.156,39.062,77.637,0
216702.594,37.109,25.391,42.480,41.504,44.922,0
216702.598,47.852,20.508,44.922,55.664,32.715,0
216702.602,38.086,22.461,47.363,48.340,57.129,0
216702.606,23.438,22.949,41.016,28.809,42.480,0
216702.610,27.832,21.973,33.691,19.043,-16.602,0
216702.613,31.250,26.367,39.551,23.438,-15.625,0
216702.617,25.879,20.996,39.062,35.645,41.992,0
216702.621,26.367,17.578,26.855,43.945,59.570,0
216702.625,28.809,21.484,31.738,40.039,55.176,0
216702.629,25.879,19.043,44.434,27.832,33.691,0
216702.633,25.391,21.973,42.969,27.832,28.320,0
216702.637,28.320,25.879,36.621,34.180,31.250,0
216702.641,35.645,31.250,38.086,42.969,22.461,0
216702.645,42.969,34.180,38.086,46.875,-1.953,0
216702.649,37.598,21.973,31.250,41.504,9.277,0
216702.652,40.039,23.438,31.250,45.410,9.277,0
216702.656,48.340,31.250,37.109,49.316,15.137,0
216702.660,39.551,21.484,34.668,37.598,40.039,0
216702.664,30.762,21.973,32.715,36.133,55.664,0
216702.668,31.738,24.414,33.203,37.109,41.504,0
216702.672,28.320,15.625,31.250,33.203,47.363,0
216702.676,28.320,17.090,35.645,34.668,82.031,0
216702.680,33.691,30.762,36.621,35.645,48.828,0
216702.684,41.016,38.086,27.344,38.574,43.945,0
216702.688,55.176,43.945,36.133,46.387,89.844,0
216702.692,59.570,39.551,40.039,56.641,29.785,0
216702.695,49.805,23.926,32.715,62.012,41.504,0
216702.699,36.133,11.230,35.645,57.129,68.848,0
216702.703,29.297,18.555,48.340,43.945,26.367,0
216702.707,28.320,22.949,46.875,35.645,18.066,0
216702.711,27.344,15.137,33.203,37.109,20.996,0
216702.715,25.391,11.719,21.973,34.668,-12.695,0
216702.719,27.832,19.531,22.461,27.832,-28.320,0
216702.723,30.273,28.809,35.645,30.762,33.203,0
216702.727,30.273,29.297,35.645,26.855,63.965,0
216702.731,33.203,29.297,37.598,25.879,38.086,0
216702.735,22.949,23.438,35.156,20.020,20.020,0
216702.738,16.602,15.137,28.809,15.625,23.438,0
216702.742,27.832,24.902,25.879,35.645,28.809,0
216702.746,41.016,39.062,27.344,44.434,29.785,0
216702.750,35.645,38.574,28.320,37.598,1.953,0
216702.754,27.344,15.625,24.414,33.691,-25.391,0
216702.758,22.461,-4.883,38.574,24.902,-13.184,0
216702.762,18.555,9.766,41.992,13.184,-41.504,0
216702.766,12.207,29.297,29.297,9.277,-35.645,0
216702.770,5.859,25.391,27.344,8.301,29.297,0
216702.774,18.555,15.625,34.180,14.648,25.391,0
216702.777,26.367,20.020,29.297,26.855,29.785,0
216702.781,27.832,30.762,21.484,32.227,54.688,0
216702.785,31.250,37.598,18.066,37.598,34.180,0
216702.789,33.203,38.574,26.367,43.457,31.738,0
216702.793,49.316,43.945,43.945,42.969,30.762,0
216702.797,53.711,36.133,36.621,37.598,34.668,0
216702.801,32.227,14.160,25.879,25.391,20.508,0
216702.805,29.785,16.113,33.203,22.949,1.953,0
216702.809,41.992,20.020,36.621,34.180,9.766,0
216702.813,41.992,17.578,33.203,40.527,27.344,0
216702.817,41.504,23.926,37.109,41.504,-2.930,0
216702.820,47.363,26.367,33.203,41.992,-13.672,0
216702.824,50.293,27.344,23.926,41.992,13.184,0
216702.828,42.969,38.574,24.902,47.363,7.812,0
216702.832,44.922,49.316,32.715,52.246,16.602,0
216702.836,41.992,47.363,39.062,47.852,26.855,0
216702.840,34.180,33.203,44.922,35.156,0.488,0
216702.844,25.879,6.836,41.016,14.648,16.602,0
216702.848,14.648,6.836,27.344,6.348,1.953,0
216702.852,15.137,17.578,30.762,15.625,-9.766,0
216702.856,22.461,16.602,36.133,28.320,26.855,0
216702.860,28.320,22.949,30.273,31.250,21.484,0
216702.863,38.574,41.016,32.227,49.805,2.441,0
216702.867,43.945,42.969,34.180,48.828,-2.930,0
216702.871,30.273,26.367,27.832,23.926,-3.906,0
216702.875,23.926,24.902,23.438,21.973,2.930,0
216702.879,30.762,32.715,32.227,26.367,27.832,0
216702.883,26.367,26.855,45.410,25.879,48.828,0
216702.887,24.902,20.996,42.969,22.949,40.527,0
216702.891,31.738,19.531,39.551,28.809,50.293,0
216702.895,31.250,17.090,25.391,32.227,50.781,0
216702.899,37.109,26.367,24.414,34.180,23.438,0
216702.902,44.434,34.668,31.250,40.039,35.156,0
216702.906,43.457,33.691,29.785,34.668,14.160,0
216702.910,49.316,34.668,31.738,32.227,3.906,0
216702.914,49.316,38.086,28.320,42.969,27.832,0
216702.918,43.945,30.273,20.020,43.457,3.906,0
216702.922,58.594,31.250,36.133,48.340,18.066,0
216702.926,57.617,40.527,44.434,50.293,54.688,0
216702.930,37.109,37.109,29.785,37.598,52.734,0
216702.934,34.180,24.414,28.809,38.086,58.594,0
216702.938,34.180,23.438,37.109,37.598,28.320,0
216702.942,35.645,32.715,47.852,46.875,-22.949,0
216702.945,30.273,24.902,33.691,46.875,-4.883,0
216702.949,26.367,22.949,20.508,35.156,41.504,1
216702.953,34.180,35.156,24.902,33.203,32.715,0
216702.957,38.086,40.527,25.391,37.598,23.438,0
216702.961,42.480,37.598,31.250,56.152,36.621,0
216702.965,46.387,34.180,40.039,57.617,40.039,0
216702.969,44.434,34.668,37.598,41.504,26.367,0
216702.973,39.551,25.879,21.973,25.879,8.301,0
216702.977,30.273,20.020,20.020,20.508,-4.883,0
216702.981,26.855,32.715,30.762,36.621,11.719,0
216702.985,37.109,45.410,37.109,46.875,16.113,0
216702.988,35.645,39.551,40.039,38.086,3.906,0
216702.992,23.926,21.973,39.062,29.785,6.348,0
216702.996,30.273,20.020,42.969,30.762,28.809,0
216703.000,44.434,35.645,37.598,41.016,15.137,0
216703.004,37.598,39.062,26.855,39.062,26.367,0
216703.008,31.738,28.320,29.785,36.133,87.402,0
216703.012,43.457,25.391,37.109,38.086,72.754,0
216703.016,47.852,30.762,41.992,35.645,45.410,0
216703.020,41.016,40.527,35.645,36.621,40.039,0
216703.024,31.738,38.086,16.113,40.039,11.230,0
216703.027,27.832,29.297,13.184,29.785,-8.789,0
216703.031,27.832,23.438,28.320,20.996,-11.230,0
216703.035,36.133,24.414,38.086,22.461,5.859,0
216703.039,39.551,32.227,28.320,30.273,71.777,0
216703.043,32.715,32.715,28.320,30.762,63.477,0
216703.047,28.809,29.297,38.574,28.320,41.016,0
216703.051,32.227,41.016,46.387,40.039,63.477,0
216703.055,38.086,46.387,47.363,43.457,30.273,0
216703.059,36.621,37.109,30.273,37.598,2.930,0
216703.063,43.457,31.250,18.066,31.738,20.996,0
216703.067,33.691,21.973,16.602,24.902,47.852,0
216703.070,25.879,23.438,30.273,30.273,42.969,0
216703.074,43.457,37.109,44.434,48.340,18.555,0
216703.078,45.410,30.762,35.156,43.457,32.227,0
216703.082,32.227,15.625,32.227,24.414,65.918,0
216703.086,26.855,20.996,41.992,22.949,42.969,0
216703.090,27.344,29.785,43.457,21.973,-20.508,0
216703.094,35.645,32.227,36.133,34.668,-1.953,0
216703.098,38.574,32.715,28.320,48.828,36.133,0
216703.102,31.250,24.414,27.344,43.945,42.969,0
216703.106,27.344,18.066,26.367,38.086,43.945,0
216703.110,31.250,20.508,26.855,35.645,23.438,0
216703.113,38.574,26.855,33.203,39.062,30.273,0
216703.117,44.434,29.785,43.945,45.410,34.668,0
216703.121,43.945,30.762,47.852,45.898,-25.391,0
216703.125,32.715,28.320,38.086,40.039,-38.574,0
216703.129,18.066,18.555,26.855,37.109,14.648,0
216703.133,20.508,22.949,32.715,31.250,-8.301,0
216703.137,27.344,31.250,42.480,23.438,-33.691,0
216703.141,21.973,19.531,38.574,22.949,2.441,0
216703.145,23.926,15.625,24.414,28.809,51.270,0
216703.149,33.691,26.367,18.555,37.598,47.852,0
216703.152,36.133,29.785,29.297,39.551,38.086,0
216703.156,26.367,26.855,38.574,29.785,60.059,0
216703.160,23.926,31.250,36.621,26.855,79.590,0
216703.164,30.762,32.715,44.922,27.832,63.965,0
216703.168,26.367,20.996,37.598,17.578,42.480,0
216703.172,24.902,26.855,25.391,23.926,77.637,0
216703.176,26.367,30.762,26.855,39.062,74.707,0
216703.180,18.555,22.949,29.785,26.855,26.855,0
216703.184,26.367,26.367,36.133,29.785,9.277,0
216703.188,36.621,20.020,26.855,41.992,49.805,0
216703.192,44.434,12.207,30.273,37.109,71.777,0
216703.195,45.898,21.484,35.645,31.738,68.848,0
216703.199,30.273,32.227,31.738,25.879,83.984,0
216703.203,26.367,32.227,36.621,35.645,79.590,0
216703.207,32.227,32.715,44.434,30.762,34.180,0
216703.211,36.621,37.598,41.992,30.762,35.645,0
216703.215,38.086,38.086,26.367,42.969,57.129,0
216703.219,41.504,31.250,23.926,41.504,54.199,0
216703.223,42.969,27.832,33.691,38.574,41.992,0
216703.227,42.480,35.156,30.762,46.387,14.160,0
216703.231,41.016,42.480,22.949,58.105,21.973,0
216703.235,42.969,41.504,31.738,56.152,45.898,0
216703.238,39.062,27.344,35.156,36.133,85.938,0
216703.242,30.273,13.184,30.762,26.855,121.094,0
216703.246,28.809,18.066,34.180,26.367,92.285,0
216703.250,31.250,28.320,37.109,21.484,82.031,0
216703.254,41.016,32.715,38.574,32.715,65.918,0
216703.258,43.945,32.227,32.227,46.875,47.363,0
216703.262,43.945,31.250,20.996,51.270,42.480,0
216703.266,50.781,36.621,28.320,48.828,7.324,0
216703.270,49.316,33.691,35.156,47.852,17.578,0
216703.274,44.434,26.367,36.133,47.363,40.527,0
216703.277,39.551,26.367,30.762,41.504,-6.836,0
216703.281,35.645,33.203,24.414,50.293,-9.766,0
216703.285,32.227,33.691,27.344,46.875,2.930,0
216703.289,24.414,14.160,30.273,29.297,-26.367,0
216703.293,23.438,3.906,31.250,26.855,-21.973,0
216703.297,31.250,21.973,30.762,28.809,-8.789,0
216703.301,36.621,47.852,40.527,38.574,4.883,0
216703.305,37.598,49.316,45.898,40.039,41.504,0
216703.309,35.645,30.273,35.156,31.250,20.020,0
216703.313,32.715,21.973,31.250,25.879,2.441,0
216703.317,28.320,25.879,34.668,22.461,11.719,0
216703.320,28.320,27.832,32.715,32.715,8.789,0
216703.324,32.715,26.367,19.043,50.781,29.297,0
216703.328,32.715,28.809,22.949,45.898,47.363,0
216703.332,27.832,27.832,28.320,34.668,27.832,0
216703.336,28.320,20.996,25.391,37.598,-0.977,0
216703.340,35.156,24.902,36.133,36.621,7.324,0
216703.344,40.039,29.785,39.062,51.270,27.344,0
216703.348,41.992,36.133,41.504,64.941,32.715,0
216703.352,41.992,37.598,51.270,57.617,36.621,0
216703.356,39.062,26.367,42.480,46.875,59.570,0
216703.360,35.645,25.879,31.250,39.551,36.621,0
216703.363,35.645,33.203,34.180,39.062,2.441,0
216703.367,40.527,36.621,37.598,42.480,0.977,0
216703.371,44.434,29.785,32.715,48.828,10.254,0
216703.375,48.340,24.414,32.715,43.945,10.254,0
216703.379,43.457,27.832,36.621,33.203,15.625,0
216703.383,38.574,32.227,41.992,35.645,51.270,0
216703.387,36.621,33.203,42.480,38.574,36.621,0
216703.391,34.180,27.344,41.504,39.062,-0.977,0
216703.395,35.645,24.902,40.527,41.504,-6.348,0
216703.399,33.203,24.414,37.598,37.109,-27.344,0
216703.402,29.297,29.297,33.691,30.273,-19.531,0
216703.406,30.273,30.762,17.578,29.785,-9.766,0
216703.410,30.273,26.367,17.578,37.109,37.109,0
216703.414,41.992,31.738,31.250,33.691,87.402,0
216703.418,48.828,27.832,39.551,20.508,75.684,0
216703.422,39.062,16.113,40.527,19.531,58.594,0
216703.426,37.109,24.414,33.203,35.156,36.133,0
216703.430,40.527,46.387,36.621,37.109,14.160,0
216703.434,35.645,42.969,42.480,31.250,27.832,0
216703.438,28.809,26.367,42.480,35.156,37.109,0
216703.442,24.414,20.020,35.645,29.297,27.832,0
216703.445,28.320,17.578,25.391,30.273,19.043,0
216703.449,37.598,26.367,38.086,44.434,10.742,0
216703.453,33.691,34.668,56.152,33.691,49.316,0
216703.457,16.113,29.785,43.945,13.184,101.074,0
216703.461,14.648,27.832,30.273,12.695,58.594,0
216703.465,28.809,25.391,29.297,23.438,12.207,0
216703.469,35.156,25.391,31.738,26.855,23.926,0
216703.473,38.086,34.180,32.715,35.645,58.105,0
216703.477,56.641,47.852,37.598,51.270,72.266,0
216703.481,63.965,42.969,44.922,49.805,110.352,0
216703.485,49.805,16.113,29.785,30.762,109.375,0
216703.488,45.410,18.066,20.020,31.738,94.727,0
216703.492,44.922,39.551,22.461,35.645,61.523,0
216703.496,29.785,39.551,25.391,24.902,35.645,0
216703.500,22.461,27.832,30.273,24.902,43.945,1
216703.504,23.926,19.531,35.645,30.762,29.785,0
216703.508,26.367,19.043,36.621,23.926,-22.949,0
216703.512,31.250,26.855,41.504,20.996,-6.836,0
216703.516,40.039,36.621,45.410,34.180,35.156,0
216703.520,41.504,34.180,32.715,41.016,12.695,0
216703.524,27.832,21.484,24.902,30.273,47.852,0
216703.527,14.160,19.043,29.785,15.137,53.223,0
216703.531,10.742,24.902,37.598,16.602,31.250,0
216703.535,14.648,21.973,37.598,20.996,58.594,0
216703.539,22.949,26.855,34.668,33.691,29.297,0
216703.543,21.973,28.320,30.762,27.344,26.855,0
216703.547,12.695,21.484,29.785,12.695,32.227,0
216703.551,23.926,27.344,29.297,17.090,-3.906,0
216703.555,33.691,34.180,24.902,18.555,-11.719,0
216703.559,34.668,35.156,25.879,26.367,20.020,0
216703.563,23.438,23.926,36.133,24.902,42.480,0
216703.567,20.996,22.461,41.504,29.297,19.531,0
216703.570,20.996,20.996,31.738,35.156,15.625,0
216703.574,12.207,2.930,12.207,30.273,43.945,0
216703.578,20.508,14.160,16.113,34.180,35.645,0
216703.582,31.250,32.227,32.227,34.180,42.480,0
216703.586,29.785,26.367,42.480,30.273,43.457,0
216703.590,28.809,26.367,43.457,35.156,61.523,0
216703.594,32.227,29.297,39.551,31.250,80.566,0
216703.598,43.945,36.133,39.062,29.785,27.344,0
216703.602,39.062,38.086,27.832,33.203,4.395,0
216703.606,26.855,30.762,22.949,35.156,23.926,0
216703.610,36.621,30.762,35.156,38.574,49.805,0
216703.613,38.086,20.508,28.809,30.762,48.828,0
216703.617,28.809,24.414,30.273,24.902,44.922,0
216703.621,25.391,29.785,32.227,26.855,57.129,0
216703.625,24.414,27.832,25.391,41.992,25.879,0
216703.629,26.367,31.738,39.062,47.852,35.645,0
216703.633,23.926,27.344,38.574,27.344,50.293,0
216703.637,31.250,29.785,32.227,31.738,55.176,0
216703.641,39.062,31.250,35.156,42.969,54.199,0
216703.645,35.156,21.484,26.367,39.551,10.742,0
216703.649,29.785,25.879,22.949,31.738,7.812,0
216703.652,22.461,37.598,28.809,31.250,39.062,0
216703.656,30.273,37.598,34.668,39.551,42.480,0
216703.660,37.109,24.902,41.016,36.621,31.738,0
216703.664,28.809,21.484,38.574,32.227,1.465,0
216703.668,31.738,28.809,30.273,51.270,9.766,0
216703.672,41.504,32.715,32.227,51.758,42.480,0
216703.676,42.969,33.691,37.109,35.156,46.387,0
216703.680,39.551,31.738,32.227,37.598,20.996,0
216703.684,30.273,23.926,19.043,34.668,-12.695,0
216703.688,29.297,27.832,22.461,27.832,-0.488,0
216703.692,32.715,30.273,36.621,31.250,6.836,0
216703.695,33.691,18.555,43.945,35.645,24.902,0
216703.699,42.480,15.625,45.898,38.574,49.805,0
216703.703,37.109,24.902,38.086,37.109,42.969,0
216703.707,31.738,33.691,27.344,38.086,31.250,0
216703.711,36.621,34.180,26.367,45.410,28.320,0
216703.715,44.434,38.574,28.809,56.641,13.184,0
216703.719,49.316,42.969,29.785,56.152,-2.441,0
216703.723,39.062,30.273,30.762,49.316,18.555,0
216703.727,41.016,25.391,29.297,61.035,41.992,0
216703.731,45.898,35.156,37.109,51.270,56.152,0
216703.735,42.480,36.621,41.016,33.203,26.367,0
216703.738,34.180,34.180,29.297,25.879,-10.742,0
216703.742,28.809,30.762,24.902,27.832,-11.230,0
216703.746,31.250,26.855,38.086,35.156,-31.250,0
216703.750,37.598,28.809,52.246,39.551,10.254,0
216703.754,37.598,34.668,47.852,37.109,84.961,0
216703.758,32.715,37.109,40.527,33.691,73.242,0
216703.762,36.133,39.551,29.785,33.691,50.293,0
216703.766,36.621,38.574,19.043,37.598,58.105,0
216703.770,30.762,38.574,23.926,41.016,65.918,0
216703.774,43.945,35.645,27.344,42.969,50.293,0
216703.777,47.363,29.785,29.785,41.992,59.082,0
216703.781,27.344,31.738,31.738,29.297,12.695,0
216703.785,17.090,32.715,35.645,35.156,11.719,0
216703.789,21.484,24.414,42.969,38.574,49.316,0
216703.793,26.367,20.020,43.945,31.738,53.711,0
216703.797,29.785,18.066,33.203,32.715,69.336,0
216703.801,36.621,17.090,22.949,40.039,50.781,0
216703.805,39.062,30.762,22.949,40.039,34.180,0
216703.809,37.109,44.434,33.691,36.133,22.461,0
216703.813,33.691,44.922,26.855,39.062,8.301,0
216703.817,25.391,31.250,19.043,31.250,33.203,0
216703.820,18.555,17.090,23.438,27.344,50.293,0
216703.824,20.020,22.461,30.273,25.879,9.277,0
216703.828,24.414,30.762,37.598,24.414,-10.254,0
216703.832,26.855,23.438,30.273,21.484,26.367,0
216703.836,28.809,19.531,20.508,22.949,51.758,0
216703.840,25.879,28.809,23.438,25.391,18.555,0
216703.844,29.785,33.203,37.109,22.949,-16.113,0
216703.848,39.062,34.180,40.527,37.109,16.113,0
216703.852,39.062,34.668,31.250,40.039,33.203,0
216703.856,19.531,20.508,24.902,19.531,15.137,0
216703.860,10.254,11.719,31.738,8.301,4.883,0
216703.863,11.719,17.578,28.809,9.766,20.508,0
216703.867,25.391,32.715,27.832,19.531,17.578,0
216703.871,34.180,34.668,21.973,22.461,20.508,0
216703.875,20.020,24.414,12.695,16.113,21.973,0
216703.879,23.438,23.926,31.738,23.926,27.344,0
216703.883,19.531,27.344,47.852,23.926,36.133,0
216703.887,18.066,27.832,42.480,13.672,-1.953,0
216703.891,24.902,23.926,31.250,20.508,-29.297,0
216703.895,22.461,29.785,24.414,39.062,25.879,0
216703.899,25.391,32.715,17.578,29.297,40.527,0
216703.902,18.066,27.832,17.578,11.719,4.395,0
216703.906,24.902,36.133,30.273,20.020,14.648,0
216703.910,36.133,43.945,29.785,23.438,15.625,0
216703.914,23.438,35.156,35.645,20.508,-3.906,0
216703.918,20.508,30.762,43.457,22.949,12.207,0
216703.922,30.762,43.457,38.086,33.691,20.996,0
216703.926,30.762,39.062,31.738,34.180,16.602,0
216703.930,26.855,26.367,30.762,26.367,8.789,0
216703.934,22.461,21.973,30.273,27.344,3.906,0
216703.938,10.742,16.113,18.066,28.809,50.293,0
216703.942,10.254,18.066,13.672,19.531,58.105,0
216703.945,18.555,34.180,29.297,20.996,68.848,0
216703.949,26.367,41.992,31.738,27.832,82.520,0
216703.953,36.133,42.969,32.227,36.621,27.344,0
216703.957,41.992,38.086,40.039,40.527,7.324,0
216703.961,39.551,24.902,40.527,35.156,20.020,0
216703.965,49.316,25.879,35.645,46.875,31.738,0
216703.969,48.340,34.180,37.598,53.223,47.363,0
216703.973,18.066,30.762,36.621,30.762,16.113,0
216703.977,6.348,25.391,32.715,10.254,-7.324,0
216703.981,16.602,22.461,40.039,10.742,20.508,0
216703.985,28.809,21.484,38.086,25.879,41.992,0
216703.988,36.133,28.809,34.668,41.992,34.668,0
216703.992,32.227,29.297,39.062,40.527,12.207,0
216703.996,32.227,34.668,43.945,50.781,26.367,0
216704.000,35.156,32.227,39.551,43.457,33.203,0
216704.004,32.227,15.625,24.414,16.113,18.555,0
216704.008,31.250,25.879,23.926,20.996,10.254,0
216704.012,26.855,30.762,35.645,29.785,11.719,0
216704.016,22.461,23.926,37.109,24.414,23.926,0
216704.020,18.555,25.391,31.738,20.020,16.602,0
216704.024,25.391,24.414,31.738,31.250,3.906,0
216704.027,36.621,22.949,38.086,43.457,31.738,0
216704.031,46.387,25.391,43.457,41.504,49.316,0
216704.035,43.457,20.508,33.203,39.062,73.242,0
216704.039,30.762,20.508,25.879,37.109,47.363,0
216704.043,22.949,24.414,34.180,34.668,23.926,0
216704.047,27.832,22.949,32.715,31.738,62.012,0
216704.051,30.273,26.855,33.203,22.949,70.312,0
216704.055,26.367,26.855,38.086,21.973,49.316,0
216704.059,27.344,26.855,31.738,22.949,28.320,0
216704.063,37.109,34.180,28.809,27.832,44.434,0
216704.067,50.781,39.551,38.086,50.293,18.066,0
216704.070,53.711,40.039,35.645,52.734,-7.324,0
216704.074,39.062,26.855,34.180,39.551,16.113,0
216704.078,32.715,14.648,38.574,34.668,26.367,0
216704.082,34.180,16.602,35.645,35.645,35.645,0
216704.086,30.762,20.996,33.203,39.062,36.133,0
216704.090,39.062,28.320,39.551,51.270,42.969,0
216704.094,43.945,29.785,36.621,49.316,62.012,0
216704.098,30.762,27.344,24.902,31.250,52.734,0
216704.102,25.391,28.809,23.438,31.250,41.504,0
216704.106,44.434,37.598,33.203,47.363,15.137,0
216704.110,51.758,42.480,37.598,55.176,2.930,0
216704.113,43.457,31.250,33.203,44.922,21.973,0
216704.117,39.062,21.973,30.762,38.086,50.293,0
216704.121,36.621,17.090,26.855,33.203,72.754,0
216704.125,39.062,14.648,28.809,36.621,66.895,0
216704.129,43.945,17.090,35.156,49.805,66.895,0
216704.133,34.180,16.113,32.715,40.039,79.102,0
216704.137,28.809,24.414,34.180,27.832,61.523,0
216704.141,44.434,41.016,44.922,45.410,15.137,0
216704.145,41.016,41.992,40.527,47.852,8.301,0
216704.149,22.461,30.273,28.320,27.832,62.012,0
216704.152,19.043,24.414,19.043,19.043,89.355,0
216704.156,30.273,29.785,15.625,24.902,40.039,0
216704.160,38.574,37.109,27.344,40.039,16.602,2
216704.164,30.273,30.762,23.438,41.504,39.062,0
216704.168,24.414,16.113,26.855,37.109,56.641,0
216704.172,33.691,21.484,38.574,44.922,61.523,0
216704.176,47.363,37.598,42.969,56.641,47.363,0
216704.180,37.598,30.762,39.551,43.945,37.598,0
216704.184,22.461,18.555,26.855,8.301,-8.789,0
216704.188,24.902,18.555,24.414,9.766,-5.859,0
216704.192,33.691,17.090,25.391,29.785,27.344,0
216704.195,33.203,22.949,28.320,30.762,16.602,0
216704.199,28.320,31.250,15.137,24.902,14.160,0
216704.203,37.598,27.832,9.766,30.762,38.574,0
216704.207,41.504,26.855,30.273,40.527,74.219,0
216704.211,42.969,34.180,34.180,42.480,43.945,0
216704.215,53.711,40.527,34.180,46.875,14.160,0
216704.219,56.152,42.480,47.363,48.828,62.988,0
216704.223,44.922,35.156,43.457,36.133,42.480,0
216704.227,35.156,22.949,25.391,21.484,25.391,0
216704.231,35.645,19.531,20.996,28.809,71.289,0
216704.235,36.621,22.949,20.020,40.527,81.543,0
216704.238,42.969,22.461,19.531,36.621,82.520,0
216704.242,45.410,22.461,21.973,31.250,68.359,0
216704.246,41.016,31.250,31.738,26.855,61.035,0
216704.250,38.574,38.574,34.180,26.855,51.758,0
216704.254,38.574,34.668,35.645,32.715,79.590,0
216704.258,36.133,37.598,44.434,32.715,88.379,0
216704.262,35.645,38.574,42.480,33.203,61.035,0
216704.266,30.762,23.438,31.250,35.645,56.152,0
216704.270,17.578,8.789,17.578,27.832,50.293,0
216704.274,25.879,9.766,18.066,36.133,49.316,0
216704.277,35.645,16.602,26.855,40.039,76.660,0
216704.281,27.832,20.996,32.715,35.645,92.773,0
216704.285,27.344,20.508,29.785,39.551,59.082,0
216704.289,33.203,22.949,23.438,48.340,38.574,0
216704.293,41.992,25.391,26.367,50.293,1.465,0
216704.297,50.293,21.973,40.527,39.062,12.207,0
216704.301,40.039,28.320,35.156,25.879,40.039,0
216704.305,30.273,34.668,27.344,17.090,9.766,0
216704.309,33.203,32.715,28.320,15.137,9.766,0
216704.313,28.320,27.344,20.508,16.602,31.250,0
216704.317,21.973,25.879,22.461,15.137,12.207,0
216704.320,24.902,32.227,33.203,28.320,-1.465,0
216704.324,30.273,29.785,31.738,39.062,26.367,0
216704.328,40.527,29.785,34.180,37.598,44.434,0
216704.332,40.527,37.109,36.133,43.457,51.270,0
216704.336,35.645,32.715,31.250,47.363,24.414,0
216704.340,34.180,21.973,23.926,37.598,21.973,0
216704.344,38.574,31.738,28.809,36.133,18.066,0
216704.348,34.668,35.645,29.297,33.203,-3.906,0
216704.352,24.902,30.273,24.902,17.090,-6.348,0
216704.356,25.879,31.738,35.645,18.066,4.883,0
216704.360,25.879,29.785,38.574,25.879,18.555,0
216704.363,24.902,33.203,38.086,28.809,43.457,0
216704.367,32.227,37.109,38.574,39.551,64.941,0
216704.371,38.574,46.387,27.344,38.086,69.336,0
216704.375,36.621,46.387,17.090,25.391,28.320,0
216704.379,37.109,35.645,30.273,29.785,9.277,0
216704.383,40.527,36.621,38.574,36.133,40.039,0
216704.387,39.551,34.180,31.250,27.832,55.664,0
216704.391,38.086,28.320,31.250,29.785,14.648,0
216704.395,37.598,26.367,36.621,38.574,-33.203,0
216704.399,33.691,26.367,34.180,26.855,-41.504,0
216704.402,38.574,32.227,25.391,29.297,-8.789,0
216704.406,37.598,29.785,29.297,37.109,15.625,0
216704.410,27.344,19.531,30.273,23.926,31.738,0
216704.414,23.926,20.020,30.762,25.391,21.973,0
216704.418,28.809,26.855,36.621,32.227,24.414,0
216704.422,31.738,32.227,34.668,27.344,39.062,0
216704.426,28.809,30.273,36.133,18.555,21.484,0
216704.430,31.738,27.832,35.645,24.414,44.434,0
216704.434,41.992,32.227,28.809,36.133,38.086,0
216704.438,40.039,34.668,31.250,32.715,23.926,0
216704.442,33.203,34.180,33.203,26.855,7.324,0
216704.445,34.668,32.715,31.738,45.898,15.137,0
216704.449,41.504,30.762,33.203,57.617,56.152,0
216704.453,38.574,24.414,28.320,33.203,20.508,0
216704.457,29.297,30.273,26.367,30.273,-9.766,0
216704.461,28.320,34.180,27.832,33.691,2.441,0
216704.465,33.691,26.855,29.785,32.715,22.949,0
216704.469,33.691,29.785,29.297,36.621,43.457,0
216704.473,36.133,37.598,34.668,37.598,25.391,0
216704.477,37.109,34.668,36.133,32.227,21.484,0
216704.481,32.227,32.227,30.273,30.762,57.129,0
216704.485,34.180,33.691,40.039,32.715,62.012,0
216704.488,34.668,35.156,39.062,26.855,48.340,0
216704.492,33.203,36.133,30.273,27.832,38.086,0
216704.496,41.016,30.762,30.273,37.109,0.000,0
216704.500,48.340,29.297,34.668,41.504,-1.465,0
216704.504,41.504,31.738,41.016,40.527,-10.254,0
216704.508,34.180,22.461,47.852,50.781,40.039,0
216704.512,42.969,34.180,40.527,45.898,29.297,0
216704.516,51.270,47.363,28.809,30.273,-1.953,0
216704.520,57.129,47.363,30.273,38.086,25.391,0
216704.524,63.965,44.922,36.133,47.363,-0.488,0
216704.527,68.359,30.273,39.551,47.852,-12.695,0
216704.531,70.801,29.297,34.668,46.387,-29.785,0
216704.535,60.059,44.922,29.297,33.691,-35.645,0
216704.539,50.293,51.758,34.180,25.391,-11.719,0
216704.543,45.410,45.898,31.738,28.809,-18.066,0
216704.547,38.086,41.504,29.297,35.645,1.465,0
216704.551,37.109,30.273,34.180,39.551,42.969,0
216704.555,41.992,20.996,37.598,39.062,89.355,0
216704.559,42.480,34.668,41.016,37.109,92.773,0
216704.563,38.574,36.133,35.156,32.715,55.664,0
216704.567,40.527,32.227,35.156,26.367,75.684,0
216704.570,41.992,40.039,35.156,29.785,75.195,0
216704.574,45.410,37.598,20.020,42.480,51.270,0
216704.578,48.340,33.691,20.020,41.016,39.062,0
216704.582,41.504,28.809,19.531,32.715,45.410,0
216704.586,29.785,28.809,20.020,29.297,8.301,0
216704.590,26.855,30.762,43.457,34.668,-45.410,0
216704.594,23.926,22.461,48.828,35.645,-40.039,0
216704.598,17.090,16.113,28.809,24.414,20.996,0
216704.602,19.531,30.762,25.391,30.762,23.438,0
216704.606,23.926,41.992,31.250,41.992,-10.742,0
216704.610,28.320,35.156,29.297,29.785,11.230,0
216704.613,27.344,32.227,24.414,27.344,0.488,0
216704.617,30.762,30.762,17.090,37.109,5.371,0
216704.621,42.480,28.809,23.438,46.387,47.363,0
216704.625,47.363,32.715,32.715,55.176,20.020,0
216704.629,43.457,28.809,31.738,57.129,-3.418,0
216704.633,40.527,24.414,38.086,55.176,25.879,0
216704.637,42.480,27.344,43.945,48.828,26.367,0
216704.641,38.086,26.367,31.738,37.109,24.414,0
216704.645,39.551,30.273,20.996,31.250,9.277,0
216704.649,29.297,29.297,25.391,20.508,-20.996,0
216704.652,18.066,25.391,21.973,18.555,-27.832,0
216704.656,27.344,37.109,19.531,35.645,-10.742,0
216704.660,33.203,37.598,29.297,38.086,-6.348,0
216704.664,22.461,20.020,27.344,24.902,-4.883,0
216704.668,25.391,24.902,29.297,24.902,3.418,0
216704.672,26.855,32.227,40.039,29.785,-5.371,0
216704.676,19.531,21.973,33.691,33.203,9.766,0
216704.680,26.367,23.926,25.879,34.180,-26.855,0
216704.684,37.598,26.855,30.273,31.738,-19.531,0
216704.688,41.992,22.949,36.133,32.715,31.250,0
216704.692,35.156,29.297,29.297,36.133,13.184,0
216704.695,23.926,38.574,25.391,32.715,9.277,0
216704.699,8.789,28.320,21.973,17.090,25.391,0
216704.703,9.766,15.625,15.137,18.066,20.996,0
216704.707,23.926,14.160,32.227,32.227,25.879,0
216704.711,29.785,18.555,44.434,25.879,43.945,0
216704.715,28.809,28.809,32.715,20.508,47.363,0
216704.719,35.156,33.203,29.297,28.809,39.551,0
216704.723,50.293,33.691,33.203,37.598,7.324,0
216704.727,52.734,37.598,36.133,37.598,7.812,0
216704.731,43.457,35.645,31.250,36.621,-6.836,0
216704.735,32.227,27.344,11.719,35.645,-4.395,0
216704.738,27.832,30.762,16.113,28.809,-11.719,0
216704.742,28.809,28.809,35.156,28.320,-21.973,0
216704.746,22.949,25.391,35.156,30.762,24.902,0
216704.750,23.438,28.809,29.297,36.621,25.879,0
216704.754,33.203,27.344,39.551,48.828,-14.648,0
216704.758,39.062,31.738,44.922,47.852,-19.043,0
216704.762,42.969,44.922,40.039,45.898,-8.301,0
216704.766,41.016,43.945,30.762,53.223,17.578,0
216704.770,29.297,24.902,18.066,43.457,22.949,0
216704.774,22.949,15.137,19.531,24.414,8.789,0
216704.777,25.879,25.879,28.320,24.414,56.641,0
216704.781,31.738,29.297,40.039,36.621,24.902,0
216704.785,28.320,23.926,45.410,37.109,-15.625,0
216704.789,26.855,24.414,40.527,38.574,-5.371,0
216704.793,34.668,33.691,34.668,44.434,17.090,0
216704.797,27.344,40.527,33.691,39.551,39.062,0
216704.801,25.879,35.645,31.250,39.551,27.832,0
216704.805,34.668,25.879,25.391,42.480,24.902,0
216704.809,33.203,23.926,25.879,35.645,17.578,0
216704.813,34.668,34.668,33.203,27.832,11.719,0
216704.817,35.645,33.691,37.109,27.344,2.441,0
216704.820,19.531,19.043,31.738,23.926,12.695,0
216704.824,15.625,13.672,33.691,28.809,23.926,0
216704.828,26.367,22.949,43.945,42.969,-2.930,0
216704.832,27.832,31.738,40.527,44.434,-30.273,0
216704.836,24.902,28.320,22.949,45.410,-29.297,0
216704.840,20.996,23.438,20.508,40.527,6.836,0
216704.844,19.531,23.926,32.715,28.809,-2.441,0
216704.848,23.438,20.020,36.133,29.785,-17.090,0
216704.852,24.414,15.625,32.715,30.273,29.297,0
216704.856,26.855,21.973,36.621,30.762,51.758,0
216704.860,39.551,33.203,42.480,36.133,42.480,0
216704.863,41.504,37.598,38.574,39.062,32.715,0
216704.867,33.691,34.668,39.062,38.086,61.035,0
216704.871,39.551,36.621,31.738,43.945,80.566,0
216704.875,52.246,35.156,14.648,48.828,68.359,0
216704.879,48.828,26.855,10.742,39.062,68.848,1
216704.883,34.668,33.691,27.832,38.086,92.773,0
216704.887,32.715,41.992,39.062,32.715,91.797,0
216704.891,39.551,34.180,34.180,26.855,86.426,0
216704.895,49.316,28.809,36.133,38.086,92.285,0
216704.899,61.523,30.762,40.527,49.805,105.469,0
216704.902,72.266,42.480,38.086,51.270,93.262,0
216704.906,64.453,46.387,30.273,45.410,71.777,0
216704.910,41.992,35.156,18.066,41.504,72.266,0
216704.914,34.668,37.598,17.090,38.574,41.504,0
216704.918,37.598,37.598,25.391,39.551,20.996,0
216704.922,34.668,31.738,31.738,46.875,57.129,0
216704.926,32.227,24.902,38.574,35.645,56.641,0
216704.930,31.738,18.555,43.945,25.391,22.949,0
216704.934,29.785,21.973,46.387,33.691,1.953,0
216704.938,26.367,22.949,39.062,34.180,15.625,0
216704.942,29.297,29.785,39.062,34.668,55.176,0
216704.945,31.250,35.645,40.039,37.598,25.879,0
216704.949,28.809,32.227,29.297,38.574,-19.531,0
216704.953,34.180,33.691,21.973,43.945,-32.227,0
216704.957,34.668,32.227,21.484,43.457,20.996,0
216704.961,21.973,21.484,32.227,28.320,26.855,0
216704.965,16.113,15.137,33.691,19.531,-14.160,0
216704.969,18.555,16.602,32.715,36.621,-25.879,0
216704.973,16.602,12.695,39.062,29.297,-10.742,0
216704.977,18.555,11.719,39.551,18.066,13.184,0
216704.981,28.320,28.809,42.969,27.344,9.766,0
216704.985,31.738,40.039,33.691,26.367,20.020,0
216704.988,27.344,29.297,18.066,23.438,30.762,0
216704.992,22.949,21.484,22.949,24.902,36.621,0
216704.996,25.391,23.926,29.297,30.762,41.016,0
216705.000,31.738,26.367,22.949,40.039,47.852,0
216705.004,34.180,22.461,30.762,34.180,70.312,0
216705.008,29.785,23.926,39.551,31.738,53.223,0
216705.012,28.320,29.785,25.391,33.203,-2.930,0
216705.016,23.438,25.391,22.949,25.879,2.441,0
216705.020,23.438,27.832,33.691,20.508,38.574,0
216705.024,24.414,26.855,30.762,20.996,36.621,0
216705.027,20.508,26.367,28.320,23.926,10.254,0
216705.031,24.414,24.902,35.156,27.344,57.617,0
216705.035,29.785,14.160,41.016,29.297,104.980,0
216705.039,36.621,23.438,40.527,38.086,46.875,0
216705.043,32.227,37.598,25.879,41.504,16.113,0
216705.047,29.297,39.062,23.438,37.109,33.203,0
216705.051,25.879,32.715,34.668,38.574,83.008,0
216705.055,19.531,30.762,31.250,31.250,94.238,0
216705.059,20.508,30.273,34.180,23.926,55.176,0
216705.063,23.438,22.461,38.086,33.203,96.680,0
216705.067,29.785,22.949,37.109,35.645,105.469,0
216705.070,30.273,28.320,41.992,29.785,71.777,0
216705.074,26.855,24.902,32.715,27.832,51.270,0
216705.078,31.250,20.996,32.715,34.668,68.359,0
216705.082,26.367,19.043,35.645,32.715,85.449,0
216705.086,13.672,16.113,32.227,13.672,65.918,0
216705.090,13.184,16.113,35.156,10.742,39.551,0
216705.094,18.555,17.578,33.691,30.273,31.738,0
216705.098,20.508,20.996,26.367,31.738,41.992,0
216705.102,12.695,20.996,22.461,14.648,8.789,0
216705.106,16.602,16.602,19.531,14.160,5.371,0
216705.110,23.926,11.230,20.508,20.508,59.082,0
216705.113,15.137,15.625,27.832,12.695,65.430,0
216705.117,15.137,23.926,31.738,14.648,62.500,0
216705.121,16.602,16.602,32.715,17.578,77.148,0
216705.125,21.484,17.578,33.203,17.090,14.648,0
216705.129,26.367,26.855,33.203,22.461,-8.301,0
216705.133,25.879,23.438,34.180,24.902,17.578,0
216705.137,23.438,19.531,26.367,25.879,-12.207,0
216705.141,31.738,26.855,27.344,25.879,6.836,0
216705.145,40.527,30.762,31.250,28.809,18.555,0
216705.149,32.715,26.855,16.602,24.414,9.277,0
216705.152,33.203,23.438,14.160,19.531,27.832,0
216705.156,34.180,19.531,33.203,20.996,18.555,0
216705.160,24.414,19.043,48.828,17.090,0.000,0
216705.164,29.785,20.508,47.852,21.484,34.668,0
216705.168,42.969,24.414,44.922,35.645,43.457,0
216705.172,41.016,29.297,42.969,43.457,19.531,0
216705.176,38.086,41.992,38.574,38.574,43.457,0
216705.180,37.109,47.852,35.645,38.574,33.691,0
216705.184,29.785,31.738,30.273,34.668,28.320,0
216705.188,24.902,15.137,26.855,24.414,41.992,0
216705.192,19.531,16.113,21.973,26.367,17.578,0
216705.195,23.438,20.508,23.926,26.367,4.883,0
216705.199,36.133,17.578,35.156,34.668,34.668,0
216705.203,30.273,21.484,40.039,31.738,12.695,0
216705.207,20.020,29.785,32.227,21.484,-16.602,0
216705.211,13.672,30.762,21.484,19.531,-2.930,0
216705.215,19.531,35.156,34.180,35.156,35.645,0
216705.219,33.691,40.039,52.246,51.270,38.086,0
216705.223,25.391,29.297,42.969,28.320,20.996,0
216705.227,14.160,11.230,17.578,12.695,17.090,0
216705.231,20.996,13.184,9.277,25.391,-21.973,0
216705.235,28.320,21.973,20.508,25.879,-36.133,0
216705.238,28.320,31.250,26.367,21.484,-13.672,0
216705.242,28.320,41.504,28.809,29.297,4.883,0
216705.246,41.016,42.480,38.086,37.598,-29.785,0
216705.250,41.504,36.621,48.340,39.551,-31.250,0
216705.254,30.762,24.902,42.969,27.344,25.391,0
216705.258,29.785,22.949,32.227,22.949,44.434,0
216705.262,30.273,23.926,29.785,28.809,43.457,0
216705.266,30.273,22.461,21.484,34.668,54.199,0
216705.270,25.391,25.391,16.113,40.039,87.402,0
216705.274,18.555,21.484,33.691,38.086,73.242,0
216705.277,28.320,15.137,32.227,35.645,46.387,0
216705.281,43.457,20.996,27.344,37.109,-6.836,0
216705.285,40.039,33.691,40.039,31.738,-9.277,0
216705.289,22.949,30.762,38.574,25.879,37.109,0
216705.293,20.508,23.926,34.668,27.832,31.738,0
216705.297,25.391,23.926,25.879,24.902,28.809,0
216705.301,29.297,33.691,15.625,27.832,39.551,0
216705.305,33.691,35.645,27.832,30.273,43.457,0
216705.309,42.480,31.738,39.551,34.180,44.922,0
216705.313,45.898,29.785,29.297,39.551,48.828,0
216705.317,38.574,25.879,23.926,40.039,39.062,0
216705.320,37.598,26.367,29.297,48.828,41.504,0
216705.324,34.180,20.996,30.762,42.969,25.879,0
216705.328,34.180,20.996,38.086,22.461,19.531,0
216705.332,33.203,27.832,45.410,20.996,38.574,0
216705.336,31.738,32.715,27.832,27.832,39.551,0
216705.340,36.133,40.527,22.949,31.738,73.730,0
216705.344,25.879,40.527,30.762,27.344,78.613,0
216705.348,26.855,32.715,33.203,23.926,58.105,0
216705.352,38.086,35.156,36.133,35.645,65.430,0
216705.356,35.156,34.668,32.715,45.410,74.707,0
216705.360,44.434,32.227,34.180,47.852,49.316,0
216705.363,46.387,30.762,25.879,47.363,74.219,0
216705.367,38.574,29.297,24.902,47.363,89.355,0
216705.371,41.016,25.879,31.738,40.527,41.016,0
216705.375,51.758,27.832,38.086,38.574,47.852,0
216705.379,46.387,32.227,38.574,40.527,113.281,0
216705.383,34.668,36.133,34.180,31.250,113.770,0
216705.387,36.621,38.086,41.504,24.414,77.637,0
216705.391,30.273,32.715,37.598,25.391,102.539,0
216705.395,33.203,34.668,24.414,31.738,106.445,0
216705.399,44.922,42.969,28.320,38.086,56.641,0
216705.402,42.480,40.039,34.668,45.410,59.570,0
216705.406,41.016,30.273,19.043,38.574,79.590,0
216705.410,38.574,21.973,17.578,29.785,68.359,0
216705.414,37.109,20.508,38.574,45.410,36.621,0
216705.418,34.668,27.344,50.293,41.992,26.367,0
216705.422,28.320,33.203,46.387,31.738,23.438,0
216705.426,29.297,44.434,38.086,38.574,49.805,0
216705.430,32.715,44.922,28.809,43.945,21.484,0
216705.434,29.785,24.902,23.438,38.574,29.297,0
216705.438,24.902,14.160,27.832,32.227,83.496,0
216705.442,29.785,29.785,25.879,26.367,52.246,0
216705.445,37.109,42.480,29.785,27.832,33.203,0
216705.449,29.785,27.832,37.109,23.438,60.547,0
216705.453,31.250,20.996,44.434,22.461,43.457,0
216705.457,52.246,34.180,52.246,42.969,-2.930,0
216705.461,49.316,33.691,41.992,57.617,70.312,0
216705.465,37.598,22.461,22.949,51.270,89.844,0
216705.469,48.340,25.879,20.508,43.457,58.594,0
216705.473,54.199,33.691,32.227,45.898,51.270,0
216705.477,49.805,32.227,19.531,31.738,-22.949,0
216705.481,43.457,30.273,15.625,27.832,14.160,0
216705.485,42.480,39.062,38.086,44.922,63.477,0
216705.488,46.875,44.434,44.922,54.688,34.668,0
216705.492,41.504,43.945,51.270,50.293,73.242,0
216705.496,26.855,34.668,46.387,29.785,86.426,0
216705.500,22.461,19.043,25.879,20.020,61.523,0
216705.504,23.926,20.508,22.461,30.762,62.012,0
216705.508,22.949,24.902,26.855,28.809,33.203,1
216705.512,33.203,22.461,22.461,30.273,20.508,0
216705.516,36.133,7.812,20.996,38.574,28.809,0
216705.520,38.574,5.859,31.738,34.668,7.812,0
216705.524,39.062,29.785,37.109,29.297,1.953,0
216705.527,33.203,34.180,37.109,32.227,22.461,0
216705.531,35.645,27.832,42.969,42.969,23.438,0
216705.535,38.574,34.668,43.945,52.246,12.207,0
216705.539,36.133,40.039,41.016,51.758,30.273,0
216705.543,20.508,26.367,26.855,30.762,18.066,0
216705.547,14.160,16.602,17.578,20.020,11.719,0
216705.551,29.785,20.996,17.578,29.297,65.430,0
216705.555,39.551,20.020,15.137,27.832,66.406,0
216705.559,38.574,16.113,25.391,28.809,78.125,0
216705.563,40.527,19.043,36.133,29.297,52.734,0
216705.567,40.039,22.949,32.227,27.344,-25.879,0
216705.570,40.527,29.785,26.367,36.133,12.695,0
216705.574,41.016,36.133,30.762,41.504,35.645,0
216705.578,41.992,35.156,40.039,45.898,8.301,0
216705.582,40.527,35.645,41.992,43.457,10.254,0
216705.586,31.738,32.227,30.762,27.832,8.789,0
216705.590,36.133,24.902,20.508,25.879,-10.742,0
216705.594,42.480,27.832,13.672,36.133,-13.184,0
216705.598,33.691,23.926,15.625,29.297,8.789,0
216705.602,29.297,20.020,30.273,26.367,3.906,0
216705.606,32.715,26.855,45.898,35.156,34.180,0
216705.610,35.645,29.297,40.039,31.250,31.250,0
216705.613,33.203,22.461,20.020,32.227,-32.227,0
216705.617,31.738,30.762,27.832,39.062,-15.625,0
216705.621,36.621,35.645,37.598,36.133,1.953,0
216705.625,35.645,30.273,28.320,34.668,-11.719,0
216705.629,31.738,33.203,22.461,26.367,-1.465,0
216705.633,29.297,30.273,18.555,16.602,12.695,0
216705.637,41.992,25.391,19.531,12.695,10.742,0
216705.641,38.574,22.461,32.715,14.160,0.000,0
216705.645,32.715,23.438,52.734,25.879,-12.207,0
216705.649,32.227,23.438,48.340,30.762,-10.254,0
216705.652,25.879,17.578,34.180,27.344,1.465,0
216705.656,32.227,18.555,28.320,21.973,-3.906,0
216705.660,39.062,18.066,27.832,28.320,-7.324,0
216705.664,40.527,21.973,31.250,46.387,18.555,0
216705.668,30.273,31.250,27.344,35.156,30.273,0
216705.672,29.785,34.668,28.809,21.973,22.461,0
216705.676,39.062,34.668,33.691,28.809,58.105,0
216705.680,36.621,31.250,24.414,28.809,44.922,0
216705.684,36.621,28.320,19.043,24.414,17.090,0
216705.688,33.203,19.043,28.320,22.461,31.250,0
216705.692,31.738,15.625,40.527,24.414,40.527,0
216705.695,33.203,27.344,39.551,26.855,51.270,0
216705.699,26.855,27.832,22.461,24.414,27.832,0
216705.703,23.926,25.879,23.438,18.555,-12.695,0
216705.707,21.484,30.273,29.297,26.855,15.625,0
216705.711,22.461,31.250,21.973,28.809,53.223,0
216705.715,19.531,19.043,24.902,13.184,39.062,0
216705.719,18.555,15.625,30.273,20.996,34.668,0
216705.723,23.926,28.809,26.855,38.086,50.293,0
216705.727,31.250,39.551,28.809,27.832,36.621,0
216705.731,40.039,41.992,44.434,31.250,49.316,0
216705.735,32.715,31.250,41.504,29.785,63.965,0
216705.738,20.996,19.531,27.344,15.625,24.414,0
216705.742,25.879,22.461,26.855,20.020,-10.254,0
216705.746,37.598,29.297,25.879,26.855,4.395,0
216705.750,41.504,31.250,17.578,32.715,25.879,0
216705.754,39.551,32.715,23.438,41.992,54.199,0
216705.758,37.598,35.156,30.762,31.738,56.152,0
216705.762,33.203,28.809,20.020,16.602,14.648,0
216705.766,31.738,22.461,25.391,26.855,40.039,0
216705.770,29.297,18.555,36.133,29.785,50.781,0
216705.774,36.133,20.020,34.668,24.414,48.340,0
216705.777,43.457,30.273,36.621,37.109,41.992,0
216705.781,31.738,31.250,38.574,46.875,42.480,0
216705.785,28.809,31.250,31.738,39.062,56.641,0
216705.789,40.039,37.109,24.902,43.457,61.523,0
216705.793,35.645,32.715,28.320,45.898,54.688,0
216705.797,18.066,27.832,29.297,32.715,67.383,0
216705.801,16.602,22.461,31.738,24.414,98.633,0
216705.805,19.043,20.508,30.273,18.066,57.617,0
216705.809,18.066,18.555,26.367,13.672,55.664,0
216705.813,33.203,24.414,30.762,29.785,70.312,0
216705.817,36.621,32.227,27.832,33.203,75.684,0
216705.820,28.809,25.879,22.461,24.902,63.965,0
216705.824,32.227,20.508,29.785,35.156,22.461,0
216705.828,31.738,21.484,36.133,41.016,7.324,0
216705.832,38.574,33.203,34.180,44.922,-12.695,0
216705.836,42.969,44.922,40.039,45.410,-15.137,0
216705.840,32.227,41.992,33.203,26.367,-26.855,0
216705.844,20.996,26.855,18.066,12.695,-10.742,0
216705.848,26.855,19.531,25.879,25.391,35.156,0
216705.852,36.133,22.949,39.551,26.855,32.227,0
216705.856,34.668,26.855,33.203,22.949,68.359,0
216705.860,39.062,29.297,26.367,30.762,143.066,0
216705.863,36.133,27.344,32.715,32.715,115.234,0
216705.867,25.391,24.414,33.203,31.250,69.824,0
216705.871,32.227,28.809,35.156,33.203,82.520,0
216705.875,25.879,36.621,40.527,29.297,47.363,0
216705.879,13.184,32.227,34.668,20.996,27.832,0
216705.883,18.555,25.879,11.719,29.297,76.660,0
216705.887,29.297,34.180,16.113,41.504,104.980,0
216705.891,28.809,28.809,41.504,34.180,102.539,0
216705.895,24.902,15.625,42.480,21.973,73.242,0
216705.899,33.691,18.555,40.039,33.691,12.695,0
216705.902,38.574,20.020,37.598,46.387,8.789,0
216705.906,35.645,27.344,34.180,42.969,34.668,0
216705.910,28.809,31.250,35.645,36.133,56.152,0
216705.914,28.320,24.414,37.598,38.086,76.660,0
216705.918,37.598,32.227,37.109,48.828,51.758,0
216705.922,34.668,34.180,30.273,39.551,41.016,0
216705.926,31.738,25.391,32.715,35.645,67.871,0
216705.930,40.527,35.645,40.039,40.527,63.477,0
216705.934,44.434,43.457,39.062,35.645,65.430,0
216705.938,40.039,33.203,31.738,30.762,80.566,0
216705.942,37.598,26.855,25.391,40.039,25.879,0
216705.945,36.621,27.344,35.156,41.992,55.664,0
216705.949,25.879,24.414,44.434,29.297,109.375,0
216705.953,20.508,25.391,42.969,25.391,59.082,0
216705.957,27.832,25.879,34.668,26.367,64.941,0
216705.961,34.668,18.066,23.438,35.156,87.891,0
216705.965,35.156,15.625,19.043,41.504,56.152,0
216705.969,34.180,17.090,30.273,42.969,42.480,0
216705.973,32.227,30.273,42.480,40.039,23.438,0
216705.977,25.391,41.016,29.785,28.809,41.992,0
216705.981,35.156,42.969,21.973,31.738,69.824,0
216705.985,36.133,35.645,25.391,31.738,48.828,0
216705.988,24.414,26.855,27.344,22.461,24.902,0
216705.992,28.320,23.438,38.574,27.832,66.895,0
216705.996,36.621,16.602,36.133,36.621,86.426,0
216706.000,41.504,20.508,30.762,34.668,27.832,0
216706.004,38.086,26.855,38.574,29.785,51.758,0
216706.008,34.668,23.926,43.945,30.273,83.496,0
216706.012,39.062,27.344,26.855,38.574,71.289,0
216706.016,50.781,28.809,11.230,45.410,42.480,0
216706.020,55.176,34.668,31.250,38.574,34.180,0
216706.024,25.391,33.691,39.551,7.324,72.266,0
216706.027,13.184,20.020,34.668,2.930,67.871,0
216706.031,23.438,18.555,33.691,25.879,51.270,0
216706.035,25.879,17.578,27.832,29.297,80.078,0
216706.039,30.762,20.020,26.367,36.133,102.051,0
216706.043,25.879,23.926,23.438,42.480,59.082,0
216706.047,17.578,27.832,22.461,29.297,-3.418,0
216706.051,11.719,31.250,17.578,17.578,0.488,0
216706.055,11.719,28.809,14.648,24.414,25.391,0
216706.059,25.879,33.203,24.902,41.016,18.555,0
216706.063,20.508,28.320,22.461,37.598,7.324,0
216706.067,6.348,13.184,30.762,18.555,16.113,0
216706.070,8.301,12.207,38.086,21.973,48.340,0
216706.074,13.184,19.531,26.367,21.484,20.508,2
216706.078,21.484,23.438,20.996,17.090,-26.367,0
216706.082,30.273,21.484,34.180,31.738,-13.672,0
216706.086,34.180,20.996,42.969,35.156,24.414,0
216706.090,32.715,23.438,27.344,38.086,5.859,0
216706.094,30.273,19.531,15.137,42.969,-23.438,0
216706.098,26.855,24.902,31.250,43.457,42.480,0
216706.102,18.555,31.738,31.738,33.203,37.109,0
216706.106,20.508,30.273,22.949,22.949,-1.465,0
216706.110,26.855,25.391,32.227,21.484,-4.883,0
216706.113,32.715,25.391,33.203,32.715,-20.020,0
216706.117,39.062,30.762,36.133,41.504,5.371,0
216706.121,34.180,24.902,38.086,37.109,-17.090,0
216706.125,34.668,24.902,25.391,43.945,-10.254,0
216706.129,33.203,22.461,22.461,41.504,26.367,0
216706.133,23.438,13.184,31.250,29.785,-0.977,0
216706.137,25.391,11.719,36.133,28.809,-28.320,0
216706.141,22.949,18.555,37.109,28.320,-2.441,0
216706.145,29.785,32.227,30.762,35.156,7.812,0
216706.149,41.992,36.133,21.484,43.457,0.488,0
216706.152,37.109,30.762,24.414,36.621,43.945,0
216706.156,31.250,31.250,32.227,26.367,82.031,0
216706.160,33.203,37.109,38.086,28.809,76.660,0
216706.164,35.645,41.016,30.762,36.133,56.152,0
216706.168,28.809,36.133,21.973,30.762,42.969,0
216706.172,17.090,20.508,22.461,17.090,41.504,0
216706.176,31.250,18.555,38.086,22.461,49.316,0
216706.180,44.922,18.555,44.922,40.039,8.789,0
216706.184,38.574,17.090,35.156,45.410,6.348,0
216706.188,30.762,25.879,33.203,26.855,24.414,0
216706.192,25.391,35.645,30.762,18.066,-4.883,0
216706.195,29.785,44.434,33.203,30.762,-14.648,0
216706.199,32.227,39.551,34.668,29.785,-28.320,0
216706.203,31.738,29.785,25.879,21.484,-12.207,0
216706.207,33.203,20.996,27.344,30.273,28.320,0
216706.211,32.715,7.324,25.391,39.062,53.711,0
216706.215,41.504,12.207,26.367,30.273,37.109,0
216706.219,50.293,24.902,39.551,40.527,43.457,0
216706.223,38.574,24.414,39.062,43.457,66.895,0
216706.227,26.855,22.949,41.504,16.602,43.457,0
216706.231,32.715,34.180,48.828,27.344,16.113,0
216706.235,28.809,29.297,28.809,32.227,-2.441,0
216706.238,26.855,25.879,19.043,29.785,8.301,0
216706.242,40.039,36.621,22.461,37.109,-4.883,0
216706.246,45.898,35.645,22.949,31.250,-10.254,0
216706.250,44.434,33.691,32.715,30.762,24.902,0
216706.254,39.551,37.598,36.133,35.645,-8.301,0
216706.258,36.621,34.180,30.762,33.203,-16.602,0
216706.262,40.527,29.785,33.691,35.156,32.227,0
216706.266,42.969,31.738,39.551,39.062,17.578,0
216706.270,41.016,33.203,32.227,35.156,-18.555,0
216706.274,47.363,34.180,20.996,42.480,-11.719,0
216706.277,41.504,29.785,20.508,35.156,34.180,0
216706.281,33.691,28.809,27.832,30.273,27.832,0
216706.285,41.016,39.062,33.691,35.156,-0.488,0
216706.289,36.621,41.016,32.227,25.879,5.859,0
216706.293,34.180,32.227,37.109,37.109,9.766,0
216706.297,39.551,31.250,42.969,41.504,-20.996,0
216706.301,31.738,33.203,40.039,30.273,-15.625,0
216706.305,24.414,32.227,32.227,25.391,14.648,0
216706.309,29.297,30.762,32.715,35.645,25.391,0
216706.313,20.020,19.043,26.367,29.297,34.180,0
216706.317,7.812,18.066,20.020,10.742,24.414,0
216706.320,17.578,30.273,36.133,24.902,55.176,0
216706.324,32.715,32.715,36.133,51.758,79.590,0
216706.328,40.039,20.996,23.926,44.434,23.926,0
216706.332,38.086,18.555,31.250,30.762,-2.930,0
216706.336,31.250,29.297,38.574,36.133,0.977,0
216706.340,24.414,31.738,26.855,29.785,11.230,0
216706.344,21.484,30.762,34.180,29.297,39.062,0
216706.348,24.414,29.785,47.852,32.227,21.973,0
216706.352,23.438,19.043,37.109,26.855,-11.719,0
216706.356,23.438,14.648,33.203,36.621,-11.719,0
216706.360,29.297,19.043,32.715,36.621,-3.906,0
216706.363,29.785,28.320,35.156,27.344,-17.090,0
216706.367,24.414,30.762,31.738,25.879,-7.812,0
216706.371,27.832,33.203,29.785,41.992,17.090,0
216706.375,26.367,33.691,32.227,47.852,3.418,0
216706.379,19.043,23.926,29.297,27.344,16.113,0
216706.383,12.207,17.578,26.855,23.926,13.184,0
216706.387,20.996,20.020,32.227,31.738,-16.602,0
216706.391,30.762,25.391,38.574,35.156,0.488,0
216706.395,29.785,21.973,31.250,29.297,22.949,0
216706.399,32.715,27.344,26.367,31.738,-0.977,0
216706.402,35.156,34.180,33.203,32.715,-12.207,0
216706.406,34.180,36.133,35.645,31.738,-24.414,0
216706.410,35.645,37.598,30.762,38.574,-21.973,0
216706.414,38.574,32.715,30.273,44.434,0.000,0
216706.418,35.156,30.273,36.133,36.621,16.113,0
216706.422,31.738,34.668,38.574,30.273,10.742,0
216706.426,38.086,33.691,30.273,47.852,10.254,0
216706.430,42.969,38.086,26.367,56.152,3.418,0
216706.434,41.504,40.039,33.691,42.480,21.484,0
216706.438,33.691,23.926,30.762,25.391,54.688,0
216706.442,34.668,21.484,33.203,26.855,76.172,0
216706.445,39.062,30.273,45.898,28.809,106.934,0
216706.449,31.250,25.391,41.992,28.320,74.707,0
216706.453,21.484,24.902,31.250,26.855,35.645,0
216706.457,8.789,16.113,31.250,19.531,70.801,0
216706.461,19.531,19.043,34.668,31.738,64.941,0
216706.465,31.250,33.203,31.738,36.133,31.250,0
216706.469,20.996,25.879,25.391,23.438,9.766,0
216706.473,20.020,27.832,24.902,30.762,9.277,0
216706.477,13.184,25.879,35.156,27.344,36.621,0
216706.481,13.184,13.184,49.805,23.438,47.363,0
216706.485,31.250,17.090,49.316,23.438,33.203,0
216706.488,26.855,27.344,39.551,21.484,54.688,0
216706.492,18.066,24.414,32.715,22.949,45.898,0
216706.496,25.391,19.043,28.320,33.203,15.137,0
216706.500,35.645,30.762,31.250,39.062,18.066,0
216706.504,39.062,35.156,33.691,35.645,29.785,0
216706.508,31.738,23.926,28.809,29.297,9.277,0
216706.512,21.973,11.230,21.973,20.996,-27.344,0
216706.516,26.855,22.949,35.156,22.949,14.648,0
216706.520,33.203,39.062,42.480,24.414,42.969,0
216706.524,32.227,34.180,34.180,24.902,16.113,0
216706.527,29.785,28.809,32.227,23.926,20.508,0
216706.531,23.926,27.832,33.203,35.645,62.988,0
216706.535,24.414,29.785,19.531,36.133,52.246,0
216706.539,29.297,28.320,2.930,24.902,33.691,0
216706.543,23.438,25.879,20.508,23.438,27.832,0
216706.547,14.160,21.484,33.203,24.902,31.250,0
216706.551,16.602,12.695,37.598,21.484,61.035,0
216706.555,16.602,23.926,40.527,13.672,-19.043,0
216706.559,15.625,36.621,38.086,17.090,-37.109,0
216706.563,13.672,29.785,32.227,22.949,0.977,0
216706.567,19.531,24.902,31.250,21.973,0.977,0
216706.570,23.438,20.996,24.902,26.855,41.504,0
216706.574,21.973,21.973,14.648,35.645,62.500,0
216706.578,21.484,27.832,22.949,34.180,59.082,0
216706.582,23.926,27.832,28.320,33.203,39.551,0
216706.586,28.320,27.344,35.156,38.086,3.418,0
216706.590,28.809,30.273,40.527,33.203,-30.273,0
216706.594,24.902,27.344,35.156,30.273,-7.324,0
216706.598,30.273,20.996,27.344,31.250,42.480,0
216706.602,37.598,20.020,24.414,27.344,36.621,0
216706.606,37.109,26.367,34.180,28.320,64.941,0
216706.610,30.273,28.320,33.203,32.227,74.707,0
216706.613,20.996,23.926,23.926,26.367,44.922,0
216706.617,21.484,24.902,24.902,15.137,6.348,0
216706.621,30.762,29.297,31.250,23.438,12.695,0
216706.625,29.785,21.484,30.273,31.250,45.898,0
216706.629,26.367,16.113,31.738,27.832,19.043,0
216706.633,27.344,24.902,29.785,44.434,27.344,0
216706.637,20.508,33.691,21.973,43.457,24.414,0
216706.641,18.066,32.715,27.344,24.902,11.230,0
216706.645,28.809,30.762,34.180,20.020,30.273,0
216706.649,21.484,20.020,31.250,14.160,18.066,0
216706.652,9.766,14.648,21.973,15.137,-1.465,2
216706.656,17.090,24.902,25.391,19.531,-3.418,0
216706.660,22.461,31.250,33.691,33.203,27.344,0
216706.664,25.879,34.180,31.738,37.109,8.301,0
216706.668,22.949,32.227,26.855,24.902,1.953,0
216706.672,21.484,28.809,15.137,19.531,47.852,0
216706.676,27.344,25.879,16.602,27.832,61.035,0
216706.680,25.391,21.973,29.785,31.250,60.059,0
216706.684,23.438,27.832,36.133,25.879,81.055,0
216706.688,21.973,31.738,32.715,30.273,59.570,0
216706.692,19.531,18.066,29.297,27.832,39.551,0
216706.695,20.020,6.836,37.109,20.508,64.453,0
216706.699,25.391,16.602,41.504,25.879,58.594,0
216706.703,35.645,34.668,40.527,39.551,55.664,0
216706.707,30.762,37.109,27.344,42.969,55.664,0
216706.711,19.043,27.832,13.672,26.855,35.645,0
216706.715,22.949,28.809,16.113,28.320,46.387,0
216706.719,30.762,33.691,20.020,41.016,9.766,0
216706.723,35.645,37.109,29.297,32.715,2.930,0
216706.727,24.902,29.297,28.809,25.879,46.875,0
216706.731,15.137,18.555,27.344,32.715,70.312,0
216706.735,12.695,11.719,33.203,22.461,35.156,0
216706.738,11.719,16.602,32.715,12.207,-38.086,0
216706.742,14.160,26.855,27.344,28.809,-12.207,0
216706.746,14.648,21.973,17.090,24.902,25.391,0
216706.750,18.555,23.926,25.391,19.531,21.973,0
216706.754,23.438,26.367,34.668,22.461,33.203,0
216706.758,25.879,23.438,32.227,24.902,67.871,0
216706.762,32.227,25.879,21.973,39.551,57.129,0
216706.766,43.945,32.227,8.301,53.223,13.672,0
216706.770,41.504,39.551,18.066,42.480,15.137,0
216706.774,23.438,29.297,33.203,24.414,39.551,0
216706.777,20.996,26.855,38.574,24.902,68.848,0
216706.781,33.691,34.180,40.039,33.691,67.871,0
216706.785,36.133,27.344,39.551,44.922,49.316,0
216706.789,28.809,17.090,32.715,47.852,18.555,0
216706.793,21.484,19.531,27.832,35.156,8.301,0
216706.797,19.043,21.973,29.297,27.832,4.395,0
216706.801,26.855,22.949,25.879,36.621,28.809,0
216706.805,37.109,20.508,19.531,49.316,11.230,0
216706.809,22.949,8.301,20.508,39.551,-35.645,0
216706.813,11.230,12.695,32.715,29.785,-40.527,0
216706.817,20.020,35.156,42.480,31.738,-19.043,0
216706.820,28.320,48.340,45.410,44.922,22.949,0
216706.824,22.461,42.969,42.969,34.180,20.508,0
216706.828,11.719,31.738,35.645,13.672,-6.348,0
216706.832,10.742,22.461,19.531,15.625,8.301,0
216706.836,13.672,18.555,16.602,17.090,18.555,0
216706.840,29.297,25.391,17.090,17.578,-9.277,0
216706.844,37.109,28.809,17.578,23.926,-38.086,0
216706.848,29.297,20.508,27.832,31.738,-27.344,0
216706.852,30.762,14.160,42.480,34.668,12.207,0
216706.856,39.062,25.879,55.176,37.109,2.441,0
216706.860,44.434,35.645,55.176,42.480,-40.527,0
216706.863,41.992,30.762,50.781,38.574,-20.996,0
216706.867,36.133,19.043,31.250,31.250,5.371,0
216706.871,32.227,16.602,16.602,27.344,-14.648,0
216706.875,30.273,30.762,5.371,30.273,-17.578,0
216706.879,32.715,41.016,6.836,34.180,-9.766,0
216706.883,25.879,38.574,27.832,19.531,-6.836,0
216706.887,21.484,30.762,35.156,15.625,12.695,0
216706.891,31.738,25.391,39.062,27.344,13.184,0
216706.895,38.574,22.461,50.293,43.457,69.824,0
216706.899,36.621,23.926,46.875,46.387,92.773,0
216706.902,31.738,20.508,29.297,36.133,81.543,0
216706.906,37.598,24.902,28.809,28.320,90.820,0
216706.910,40.039,37.109,27.344,27.344,63.965,0
216706.914,18.555,27.832,16.602,12.695,68.359,0
216706.918,5.371,18.066,24.414,-4.883,74.707,0
216706.922,4.883,19.043,31.250,-1.465,38.086,0
216706.926,6.348,25.879,31.738,9.277,12.207,0
216706.930,25.879,33.203,33.203,20.508,-10.742,0
216706.934,36.133,28.320,14.648,20.508,-0.977,0
216706.938,27.832,18.555,9.277,22.461,69.824,0
216706.942,28.809,18.555,27.832,29.785,83.984,0
216706.945,36.621,16.602,29.785,28.809,39.062,0
216706.949,45.410,22.461,34.668,40.039,49.316,0
216706.953,36.133,20.508,43.945,41.016,90.820,0
216706.957,12.207,18.066,31.250,20.508,96.191,0
216706.961,5.859,25.391,21.973,6.348,46.387,0
216706.965,15.137,32.227,33.203,12.207,28.320,0
216706.969,19.043,40.039,37.598,24.414,19.043,0
216706.973,30.762,37.109,29.297,32.227,18.555,0
216706.977,40.527,31.250,22.949,28.809,0.977,0
216706.981,42.480,33.691,14.648,26.855,24.902,0
216706.985,49.316,34.668,9.277,38.574,82.520,0
216706.988,57.617,35.645,25.391,56.152,81.543,0
216706.992,57.129,31.250,34.668,51.758,87.402,0
216706.996,52.734,21.484,27.832,41.016,82.031,0
216707.000,46.875,25.879,35.156,47.363,72.754,0
216707.004,24.414,24.902,38.574,24.902,66.895,0
216707.008,22.461,19.043,34.180,14.160,46.387,0
216707.012,32.715,25.391,31.738,31.250,60.059,0
216707.016,32.715,31.738,25.879,40.039,64.941,0
216707.020,41.504,41.504,20.508,37.109,26.855,0
216707.024,34.668,37.598,28.809,27.344,-16.113,0
216707.027,17.090,22.949,32.227,23.926,-15.625,0
216707.031,22.949,23.438,31.250,33.203,16.602,0
216707.035,40.039,22.949,38.574,42.969,31.738,0
216707.039,37.109,20.020,41.016,36.621,28.809,0
216707.043,20.020,22.461,34.180,25.391,43.945,0
216707.047,19.531,24.414,28.320,20.996,37.109,0
216707.051,27.832,36.621,26.855,27.344,40.039,0
216707.055,33.691,44.434,26.855,41.016,59.082,0
216707.059,35.156,37.109,32.715,35.645,-2.930,0
216707.063,28.809,29.297,35.645,17.090,-29.785,0
216707.067,17.578,22.461,18.066,11.230,7.812,0
216707.070,14.648,17.090,7.324,13.184,27.344,0
216707.074,26.367,27.832,19.531,20.020,29.297,0
216707.078,41.504,41.016,28.320,37.109,43.945,0
216707.082,36.133,31.738,27.344,37.598,31.738,0
216707.086,32.227,22.461,30.273,24.902,39.551,0
216707.090,39.551,19.531,31.250,18.555,79.590,0
216707.094,32.715,26.855,29.785,15.625,72.754,0
216707.098,24.414,33.203,29.785,16.113,96.680,0
216707.102,27.344,28.809,34.668,27.344,127.930,0
216707.106,33.691,32.715,34.668,42.969,86.426,0
216707.110,38.574,34.180,25.879,37.598,19.043,0
216707.113,31.250,26.855,23.438,24.902,6.348,0
216707.117,30.273,25.391,24.414,28.809,39.062,0
216707.121,34.668,23.926,31.250,32.715,45.410,0
216707.125,35.156,24.414,46.387,33.691,50.781,0
216707.129,30.762,30.273,43.457,30.762,70.801,0
216707.133,33.203,33.203,32.715,22.949,84.961,0
216707.137,30.273,30.273,23.438,20.996,75.195,0
216707.141,22.949,23.438,19.531,24.414,41.504,0
216707.145,21.973,21.973,24.902,22.461,36.133,0
216707.149,32.227,30.762,26.855,27.832,42.480,0
216707.152,32.227,31.738,22.949,28.809,17.090,0
216707.156,33.691,34.180,29.785,32.715,21.484,0
216707.160,41.504,29.785,33.203,35.156,52.246,0
216707.164,40.527,10.254,20.996,36.133,70.801,0
216707.168,41.016,19.531,20.020,40.039,41.992,0
216707.172,38.574,41.504,33.203,36.621,24.902,0
216707.176,37.598,41.992,41.992,33.691,28.320,0
216707.180,37.109,28.809,29.785,29.785,11.719,0
216707.184,27.344,21.484,32.227,23.438,20.508,0
216707.188,25.391,18.066,31.738,22.949,52.734,0
216707.192,25.879,15.137,20.508,29.297,92.773,0
216707.195,25.391,18.555,25.391,30.273,104.004,0
216707.199,30.273,20.996,22.461,27.832,70.801,0
216707.203,35.156,22.949,24.414,30.762,22.461,0
216707.207,35.156,17.578,28.320,32.715,32.715,0
216707.211,41.016,20.996,25.391,49.316,47.363,0
216707.215,39.551,23.926,23.438,48.340,39.551,0
216707.219,22.461,21.484,30.762,30.273,30.273,0
216707.223,22.949,22.949,43.945,20.996,38.574,0
216707.227,30.273,23.926,39.062,14.648,45.410,0
216707.231,25.879,28.809,38.086,28.809,32.227,0
216707.235,26.855,25.879,36.133,41.504,37.109,0
216707.238,27.344,12.695,26.367,35.645,83.008,0
216707.242,27.832,22.461,22.949,28.320,84.473,0
216707.246,38.086,39.551,18.555,41.016,44.922,2
216707.250,41.016,38.574,17.578,40.039,29.785,0
216707.254,39.062,33.203,33.691,43.457,59.570,0
216707.258,41.504,28.320,43.457,34.180,39.062,0
216707.262,38.086,20.996,31.250,19.531,-11.719,0
216707.266,40.039,11.230,30.273,26.855,-12.695,0
216707.270,41.016,13.672,42.480,37.109,10.742,0
216707.274,30.762,30.273,35.645,40.527,10.254,0
216707.277,27.344,37.598,16.113,26.367,-16.602,0
216707.281,29.785,35.645,9.766,31.250,12.207,0
216707.285,35.645,32.715,20.508,40.527,23.438,0
216707.289,48.340,34.668,29.785,44.434,19.531,0
216707.293,42.480,38.574,35.156,44.434,2.930,0
216707.297,22.949,28.809,31.738,36.621,-7.324,0
216707.301,17.090,23.438,20.508,26.367,-1.465,0
216707.305,17.578,23.926,19.531,18.555,-0.488,0
216707.309,15.137,19.043,14.648,17.090,41.016,0
216707.313,20.020,21.973,24.902,28.320,38.086,0
216707.317,28.320,33.691,40.527,35.645,-17.090,0
216707.320,28.809,34.668,45.898,41.992,-2.441,0
216707.324,28.320,27.832,37.598,41.992,15.625,0
216707.328,34.180,30.273,24.902,44.922,-18.555,0
216707.332,45.410,38.574,33.203,50.781,-59.082,0
216707.336,43.457,26.367,26.855,49.316,-30.762,0
216707.340,29.785,2.441,13.184,32.715,-17.090,0
216707.344,26.367,12.207,21.484,27.832,-11.719,0
216707.348,37.598,40.039,20.508,37.109,-15.137,0
216707.352,41.016,37.598,17.578,32.227,-58.105,0
216707.356,31.250,25.879,29.785,39.062,-24.902,0
216707.360,29.297,32.715,34.668,44.434,13.184,0
216707.363,27.832,31.250,29.297,35.645,34.668,0
216707.367,26.855,21.484,24.414,30.762,60.547,0
216707.371,29.785,17.578,18.066,38.574,83.008,0
216707.375,30.273,22.949,13.672,40.527,92.773,0
216707.379,33.691,26.367,13.672,46.875,72.754,0
216707.383,38.574,23.926,12.207,53.711,81.543,0
216707.387,29.297,24.902,14.160,40.039,67.383,0
216707.391,11.719,22.949,11.719,26.367,27.832,0
216707.395,26.367,32.715,16.113,43.457,10.742,0
216707.399,39.062,40.039,33.691,46.875,34.180,0
216707.402,23.926,24.902,30.762,22.949,103.027,0
216707.406,23.438,12.207,15.137,23.926,91.797,0
216707.410,26.367,14.160,16.602,38.574,70.312,0
216707.414,25.879,24.414,14.648,35.645,71.289,0
216707.418,35.645,29.297,5.859,32.715,60.059,0
216707.422,40.527,32.227,22.949,39.062,65.918,0
216707.426,45.898,35.156,37.109,38.574,40.527,0
216707.430,41.992,21.973,29.785,37.109,30.273,0
216707.434,28.320,16.113,26.855,33.691,37.109,0
216707.438,25.391,23.926,24.902,30.273,42.480,0
216707.442,18.555,16.602,20.508,25.879,30.273,0
216707.445,18.555,13.184,21.484,33.203,29.785,0
216707.449,22.949,22.461,25.391,41.504,82.031,0
216707.453,27.832,30.762,17.578,30.273,73.242,0
216707.457,38.086,34.180,10.254,24.902,57.617,0
216707.461,43.945,29.297,25.391,37.109,53.223,0
216707.465,34.668,17.090,29.297,44.922,41.504,0
216707.469,33.203,26.367,35.645,37.109,28.809,0
216707.473,34.180,35.156,42.969,27.344,39.062,0
216707.477,34.180,25.391,43.945,20.508,75.195,0
216707.481,29.297,19.043,41.016,19.043,69.336,0
216707.485,25.879,20.508,31.738,19.531,48.828,0
216707.488,38.574,24.902,23.926,30.762,58.594,0
216707.492,29.785,20.508,10.254,28.320,77.637,0
216707.496,28.320,30.273,19.043,35.645,33.691,0
216707.500,37.598,43.457,39.551,44.922,16.602,0
216707.504,19.531,25.391,40.039,21.484,36.133,0
216707.508,9.277,11.230,40.039,14.648,75.684,0
216707.512,10.742,13.672,37.598,12.207,85.938,0
216707.516,16.602,16.602,29.785,12.695,48.828,0
216707.520,27.832,27.832,27.344,32.715,40.039,0
216707.524,33.691,38.574,30.273,36.133,51.270,0
216707.527,30.762,31.250,29.297,18.066,39.551,0
216707.531,31.738,23.926,28.809,16.113,22.949,0
216707.535,31.738,22.461,19.043,17.578,61.523,0
216707.539,34.668,29.785,17.578,20.996,69.336,0
216707.543,38.574,28.320,25.391,27.344,55.664,0
216707.547,30.762,18.555,19.531,26.855,58.594,0
216707.551,26.367,25.391,21.973,26.367,89.844,0
216707.555,23.438,25.391,33.203,28.320,83.008,0
216707.559,24.414,20.996,37.598,39.551,63.965,0
216707.563,32.715,31.738,35.156,41.504,61.523,0
216707.567,26.367,32.715,38.086,32.227,75.195,0
216707.570,22.461,29.785,47.852,32.715,90.820,0
216707.574,24.414,30.762,42.969,27.832,49.805,0
216707.578,36.133,34.668,31.738,41.504,-2.930,0
216707.582,46.875,44.922,25.879,57.129,6.836,0
216707.586,40.527,35.156,18.066,36.621,28.320,0
216707.590,33.691,23.438,30.762,18.555,44.434,0
216707.594,22.461,23.926,38.574,12.207,35.645,0
216707.598,19.531,23.438,23.438,20.996,25.391,0
216707.602,27.832,28.809,32.227,30.762,43.945,0
216707.606,35.156,30.762,46.875,31.250,29.297,0
216707.610,39.062,28.320,43.945,33.691,40.527,0
216707.613,45.410,34.668,39.062,42.480,46.875,0
216707.617,50.293,40.039,26.855,47.363,26.855,0
216707.621,50.781,41.992,25.879,55.176,62.500,0
216707.625,52.734,36.621,31.738,62.500,62.012,0
216707.629,44.434,23.438,23.926,45.410,59.570,0
216707.633,26.367,17.090,21.484,18.555,57.129,0
216707.637,20.020,24.902,21.484,12.207,8.301,0
216707.641,32.227,29.785,31.250,22.949,21.484,0
216707.645,41.504,28.320,40.039,24.902,63.965,0
216707.649,35.645,32.227,40.527,32.715,73.242,0
216707.652,30.273,34.668,31.738,36.621,55.664,0
216707.656,38.086,33.203,30.762,40.039,64.453,0
216707.660,44.922,33.691,37.109,49.316,71.777,0
216707.664,32.715,18.555,28.320,36.621,41.016,0
216707.668,29.785,20.996,25.879,21.973,30.273,0
216707.672,27.832,34.180,22.949,22.461,25.879,0
216707.676,20.996,24.414,21.973,26.367,11.719,0
216707.680,22.461,20.020,30.273,21.484,0.977,0
216707.684,27.832,28.320,35.645,23.926,-5.371,0
216707.688,36.133,34.180,32.715,41.992,14.160,0
216707.692,40.039,35.156,30.273,46.875,42.480,0
216707.695,39.551,34.668,36.621,40.527,41.992,0
216707.699,40.527,36.133,38.574,47.852,34.180,0
216707.703,31.250,34.180,27.832,50.293,59.082,0
216707.707,28.809,30.762,30.762,40.527,59.570,0
216707.711,44.434,30.762,47.363,40.527,23.438,0
216707.715,32.227,29.785,45.898,31.250,-13.672,0
216707.719,5.371,25.879,35.156,12.207,-2.930,0
216707.723,1.953,24.902,26.855,10.742,24.902,0
216707.727,13.672,32.227,14.648,11.719,2.930,0
216707.731,17.578,40.527,17.578,21.973,23.926,0
216707.735,10.742,41.016,28.320,19.043,12.207,0
216707.738,7.324,37.109,38.086,10.742,-6.836,0
216707.742,6.348,43.457,49.805,17.578,-2.930,0
216707.746,-3.418,49.805,39.062,8.301,-8.301,0
216707.750,-16.602,41.504,31.250,-1.465,-16.113,0
216707.754,-25.879,39.551,36.621,-10.254,-28.809,0
216707.758,-22.949,40.527,30.762,-21.973,-4.883,0
216707.762,-20.996,35.645,24.902,-24.414,21.484,0
216707.766,-21.973,39.062,19.531,-16.113,33.203,0
216707.770,-20.508,45.410,20.996,-20.996,9.277,0
216707.774,-21.973,42.969,37.598,-34.180,8.301,0
216707.777,-22.461,31.250,38.086,-25.391,51.758,0
216707.781,-20.020,31.250,33.691,-12.695,41.016,0
216707.785,-20.996,34.668,33.203,-17.090,48.340,0
216707.789,-6.836,41.504,39.062,-6.348,41.992,0
216707.793,11.719,48.828,44.434,14.648,20.996,0
216707.797,19.043,46.387,37.109,8.301,11.719,0
216707.801,20.508,39.551,20.508,9.277,-10.254,0
216707.805,31.738,42.969,27.832,28.320,23.926,0
216707.809,40.527,55.664,38.086,41.992,38.574,0
216707.813,32.715,42.969,13.184,26.367,47.363,0
216707.817,32.715,17.578,14.648,14.648,30.273,0
216707.820,30.762,18.066,37.109,27.344,19.043,0
216707.824,18.066,18.066,32.715,30.762,38.574,0
216707.828,20.020,15.625,35.156,38.574,28.809,0
216707.832,39.062,36.621,50.781,48.828,31.250,0
216707.836,44.922,46.875,41.016,41.016,40.039,0
216707.840,45.898,35.156,22.949,47.363,54.688,0
216707.844,44.434,22.461,23.438,44.434,43.945,0
216707.848,35.156,14.160,23.926,28.809,34.668,0
216707.852,32.227,14.160,15.137,31.738,22.949,0
216707.856,42.969,21.484,20.020,38.086,-4.883,0
216707.860,43.457,20.020,35.156,29.785,0.488,0
216707.863,39.551,20.020,33.691,39.551,13.184,1
216707.867,52.734,27.832,40.039,59.570,13.672,0
216707.871,60.059,35.645,46.387,56.152,35.156,0
216707.875,48.828,40.527,48.340,52.734,23.438,0
216707.879,41.504,21.484,41.504,53.223,9.277,0
216707.883,46.387,6.836,20.020,55.176,41.504,0
216707.887,39.551,11.230,13.184,46.875,17.090,0
216707.891,36.621,16.602,27.832,47.363,32.715,0
216707.895,48.828,20.996,35.645,51.270,38.574,0
216707.899,46.875,26.367,32.227,41.992,-16.602,0
216707.902,38.574,19.531,35.645,40.039,-18.555,0
216707.906,45.410,20.996,36.621,50.293,-9.277,0
216707.910,49.805,32.227,41.504,56.152,9.766,0
216707.914,55.176,29.785,48.340,61.523,33.691,0
216707.918,56.641,31.250,45.410,62.988,30.273,0
216707.922,42.480,23.438,33.691,50.293,-19.043,0
216707.926,37.598,9.277,29.297,51.758,-54.688,0
