timestamps,TP9,AF7,AF8,TP10,Right AUX,Marker0
109846.531,-79.590,-139.160,-28.809,144.043,0.000,0
109846.535,-88.867,-143.066,-54.199,106.445,0.000,0
109846.539,-111.816,-150.391,-29.297,60.059,0.000,0
109846.543,-92.773,-147.949,-11.719,55.664,0.000,0
109846.547,-83.008,-137.207,-47.363,67.871,0.000,0
109846.551,-93.750,-143.555,-58.594,62.012,0.000,0
109846.555,-106.934,-150.391,-84.473,31.738,0.000,0
109846.559,-97.168,-146.484,-76.660,2.441,0.000,0
109846.563,-95.215,-142.578,-56.641,-11.719,0.000,0
109846.566,-111.328,-151.367,-115.234,-10.742,0.000,0
109846.570,-118.652,-163.574,-155.273,-36.621,0.000,0
109846.574,-125.488,-167.480,-148.926,-62.012,0.000,0
109846.578,-114.746,-157.227,-127.930,-51.270,0.000,0
109846.582,-111.816,-145.508,-121.582,-49.316,0.000,0
109846.586,-110.840,-156.738,-177.246,-61.523,0.000,0
109846.590,-113.281,-161.621,-226.074,-56.641,0.000,0
109846.594,-112.305,-157.227,-226.562,-39.062,0.000,0
109846.598,-127.441,-152.344,-198.730,-48.340,0.000,0
109846.602,-124.023,-140.625,-223.633,-59.570,0.000,0
109846.605,-116.699,-156.250,-299.316,-77.637,0.000,0
109846.609,-114.746,-150.391,-256.348,-68.848,0.000,0
109846.613,-121.582,-142.090,-256.836,-61.523,0.000,0
109846.617,-125.488,-144.043,-315.918,-83.984,0.000,0
109846.621,-115.234,-145.020,-310.547,-105.469,0.000,0
109846.625,-142.090,-145.996,-284.180,-132.812,0.000,0
109846.629,-166.504,-142.090,-295.410,-149.902,0.000,0
109846.633,-164.062,-152.344,-342.773,-139.160,0.000,0
109846.637,-153.809,-136.719,-314.453,-127.441,0.000,0
109846.641,-135.254,-127.930,-294.922,-112.305,0.000,0
109846.645,-131.348,-131.836,-294.434,-107.422,0.000,0
109846.648,-126.465,-132.324,-287.598,-107.422,0.000,0
109846.652,-141.113,-144.531,-266.602,-117.676,0.000,0
109846.656,-142.578,-144.043,-196.289,-128.418,0.000,0
109846.660,-125.000,-142.090,-175.781,-124.023,0.000,0
109846.664,-123.535,-160.156,-187.012,-132.324,0.000,0
109846.668,-122.559,-153.320,-140.137,-119.629,0.000,0
109846.672,-88.379,-132.324,-92.285,-83.984,0.000,0
109846.676,-66.895,-146.973,-48.828,-88.379,0.000,0
109846.680,-73.730,-160.645,-8.789,-104.980,0.000,0
109846.684,-83.008,-150.391,21.484,-100.586,0.000,0
109846.688,-64.453,-153.320,31.250,-98.633,0.000,0
109846.691,-59.082,-161.133,62.500,-97.656,0.000,0
109846.695,-38.574,-152.832,62.988,-86.914,0.000,0
109846.699,-29.297,-154.785,64.941,-92.285,0.000,0
109846.703,-41.016,-164.551,60.059,-104.980,0.000,0
109846.707,-51.758,-165.039,54.199,-115.723,0.000,0
109846.711,-57.129,-159.668,58.594,-102.051,0.000,0
109846.715,-28.320,-160.645,37.109,-107.422,0.000,0
109846.719,-27.344,-166.016,34.668,-127.441,0.000,0
109846.723,-35.645,-164.551,32.715,-100.586,0.000,0
109846.727,-42.969,-165.039,41.504,-100.586,0.000,0
109846.730,-35.156,-168.945,46.875,-107.422,0.000,0
109846.734,-13.184,-154.785,64.941,-95.703,0.000,0
109846.738,-16.602,-147.949,73.242,-94.238,0.000,0
109846.742,-12.695,-152.832,56.641,-92.773,0.000,0
109846.746,0.977,-153.809,37.598,-89.844,0.000,0
109846.750,-15.625,-158.203,20.996,-120.117,0.000,0
109846.754,-14.160,-157.715,36.133,-130.859,0.000,0
109846.758,1.465,-163.086,45.898,-125.000,0.000,0
109846.762,-6.836,-158.203,5.371,-109.863,0.000,0
109846.766,-15.137,-145.508,-10.254,-96.680,0.000,0
109846.770,-44.434,-149.902,-9.277,-110.352,0.000,0
109846.773,-59.082,-158.691,-26.367,-122.070,0.000,0
109846.777,-23.438,-145.996,-26.855,-113.281,0.000,0
109846.781,-22.461,-132.324,-64.453,-97.656,0.000,0
109846.785,-38.574,-139.648,-72.754,-122.070,0.000,0
109846.789,-51.758,-142.090,-62.988,-132.324,0.000,0
109846.793,-40.039,-135.254,-91.797,-104.492,0.000,0
109846.797,-31.738,-145.996,-136.230,-118.652,0.000,0
109846.801,-50.781,-150.391,-116.699,-119.141,0.000,0
109846.805,-60.059,-148.438,-87.891,-127.441,0.000,0
109846.809,-47.363,-148.438,-116.211,-139.160,0.000,0
109846.813,-41.016,-145.020,-120.605,-121.094,0.000,0
109846.816,-37.598,-147.949,-116.211,-134.277,0.000,0
109846.820,-37.109,-137.207,-130.859,-131.836,0.000,0
109846.824,-37.598,-133.789,-132.812,-124.512,0.000,0
109846.828,-15.137,-128.906,-128.418,-116.211,0.000,0
109846.832,-10.254,-123.047,-130.859,-106.445,0.000,0
109846.836,-33.203,-127.930,-127.930,-124.023,0.000,0
109846.840,-32.227,-126.465,-124.512,-137.207,0.000,0
109846.844,-14.648,-112.793,-102.051,-124.023,0.000,0
109846.848,-16.602,-119.141,-112.793,-112.793,0.000,0
109846.852,-20.020,-130.371,-91.309,-124.512,0.000,0
109846.855,-29.297,-132.324,-46.387,-134.766,0.000,0
109846.859,-0.977,-115.723,-34.668,-108.887,0.000,0
109846.863,9.277,-122.070,-71.289,-85.449,0.000,0
109846.867,-27.344,-139.160,-79.102,-96.191,0.000,0
109846.871,-12.207,-139.160,-44.434,-85.938,0.000,0
109846.875,-17.578,-136.719,-38.574,-76.172,0.000,0
109846.879,-39.062,-138.184,-82.520,-91.797,0.000,0
109846.883,-47.852,-147.949,-79.590,-108.398,0.000,0
109846.887,-24.902,-136.230,-58.594,-79.102,0.000,0
109846.891,-19.043,-130.859,-61.035,-66.406,0.000,0
109846.895,-40.039,-133.301,-76.660,-79.590,0.000,0
109846.898,-30.762,-134.277,-119.141,-87.891,0.000,0
109846.902,-26.367,-135.254,-108.887,-82.031,0.000,0
109846.906,-34.668,-136.230,-107.422,-80.566,0.000,0
109846.910,-46.387,-135.742,-120.605,-86.914,0.000,0
109846.914,-46.387,-135.742,-145.020,-89.355,0.000,0
109846.918,-42.480,-131.836,-144.043,-83.496,0.000,0
109846.922,-56.152,-130.371,-115.723,-84.961,0.000,0
109846.926,-60.547,-134.766,-144.043,-85.449,0.000,0
109846.930,-60.547,-145.508,-213.867,-94.727,0.000,0
109846.934,-66.895,-145.020,-230.469,-113.770,0.000,0
109846.938,-74.219,-133.789,-174.805,-115.723,0.000,0
109846.941,-66.895,-125.000,-186.523,-94.238,0.000,0
109846.945,-61.035,-122.070,-247.559,-93.750,0.000,0
109846.949,-85.449,-125.977,-231.934,-113.281,0.000,0
109846.953,-65.918,-118.652,-224.121,-89.844,0.000,0
109846.957,-62.012,-113.281,-250.488,-78.613,0.000,0
109846.961,-82.520,-117.188,-290.039,-99.121,0.000,0
109846.965,-83.008,-117.676,-290.039,-101.562,0.000,0
109846.969,-107.910,-118.652,-297.852,-117.676,0.000,0
109846.973,-130.859,-128.906,-362.793,-150.391,0.000,0
109846.977,-113.281,-122.559,-364.258,-133.301,0.000,0
109846.980,-90.820,-123.047,-319.336,-110.840,0.000,0
109846.984,-102.539,-129.883,-267.578,-115.234,0.000,0
109846.988,-88.379,-111.328,-215.332,-111.328,0.000,0
109846.992,-65.918,-100.586,-205.078,-100.098,0.000,0
109846.996,-69.824,-121.094,-250.977,-117.676,0.000,0
109847.000,-71.777,-127.930,-229.980,-128.418,0.000,0
109847.004,-67.871,-117.188,-179.199,-87.891,0.000,0
109847.008,-56.641,-110.352,-148.438,-80.566,0.000,0
109847.012,-50.781,-118.164,-134.277,-101.074,0.000,0
109847.016,-34.180,-128.418,-158.691,-80.078,0.000,0
109847.020,-37.598,-127.930,-127.930,-67.383,0.000,0
109847.023,-42.480,-132.812,-87.402,-82.031,0.000,0
109847.027,-46.387,-134.277,-102.539,-80.078,0.000,0
109847.031,-47.363,-145.996,-130.371,-83.984,0.000,0
109847.035,-30.762,-142.578,-109.863,-79.590,0.000,0
109847.039,-45.410,-134.766,-52.734,-83.008,0.000,0
109847.043,-53.223,-120.605,-53.711,-63.477,0.000,0
109847.047,-34.668,-118.164,-125.488,-42.969,0.000,0
109847.051,-51.270,-140.137,-112.305,-71.289,0.000,0
109847.055,-59.570,-150.879,-90.820,-81.055,0.000,0
109847.059,-64.453,-149.902,-123.535,-83.496,0.000,0
109847.063,-37.598,-136.230,-126.465,-65.430,0.000,0
109847.066,-28.809,-127.930,-113.281,-54.688,0.000,0
109847.070,-53.223,-137.207,-83.496,-72.266,0.000,0
109847.074,-44.922,-133.789,-79.590,-78.613,0.000,0
109847.078,-51.758,-123.047,-108.398,-70.312,0.000,0
109847.082,-75.195,-129.395,-121.094,-87.891,0.000,0
109847.086,-73.730,-137.695,-100.098,-91.309,0.000,0
109847.090,-67.383,-143.066,-70.801,-95.215,0.000,0
109847.094,-35.156,-133.789,-108.398,-90.332,0.000,0
109847.098,-34.668,-127.930,-118.164,-76.660,0.000,0
109847.102,-45.410,-125.488,-70.312,-72.754,0.000,0
109847.105,-21.973,-115.234,-58.594,-59.082,0.000,0
109847.109,-27.832,-127.441,-91.797,-62.500,0.000,0
109847.113,-48.340,-137.207,-86.426,-91.797,0.000,0
109847.117,-48.828,-130.371,-76.172,-94.727,0.000,0
109847.121,-29.785,-122.070,-70.801,-66.895,0.000,0
109847.125,-24.414,-124.023,-87.402,-74.219,0.000,0
109847.129,-33.691,-123.535,-101.074,-84.961,0.000,0
109847.133,-38.086,-126.465,-81.543,-86.426,0.000,0
109847.137,-49.316,-132.324,-96.680,-93.750,0.000,0
109847.141,-34.668,-125.488,-111.328,-90.332,0.000,0
109847.145,-32.227,-120.117,-110.840,-75.684,0.000,0
109847.148,-35.645,-125.488,-134.277,-84.961,0.000,0
109847.152,-41.016,-132.324,-125.000,-98.633,0.000,0
109847.156,-61.523,-125.488,-138.672,-91.797,0.000,0
109847.160,-69.336,-128.418,-171.875,-102.539,0.000,0
109847.164,-67.383,-130.859,-181.152,-108.887,0.000,0
109847.168,-62.988,-128.906,-169.434,-108.887,0.000,0
109847.172,-70.312,-143.066,-168.945,-133.789,0.000,0
109847.176,-71.289,-138.184,-196.777,-141.602,0.000,0
109847.180,-59.570,-116.211,-194.824,-113.770,0.000,0
109847.184,-61.035,-122.070,-209.961,-100.098,0.000,0
109847.188,-59.570,-122.070,-195.801,-101.074,0.000,0
109847.191,-57.129,-113.281,-152.344,-101.074,0.000,0
109847.195,-61.523,-112.793,-192.383,-97.168,0.000,0
109847.199,-67.871,-118.652,-218.262,-109.375,0.000,0
109847.203,-84.961,-128.418,-208.008,-106.445,0.000,0
109847.207,-80.566,-136.230,-211.426,-106.445,0.000,0
109847.211,-90.332,-143.555,-226.074,-124.023,0.000,0
109847.215,-96.191,-132.812,-225.586,-116.211,0.000,0
109847.219,-87.891,-126.465,-197.266,-113.281,0.000,0
109847.223,-96.680,-131.836,-166.504,-120.605,0.000,0
109847.227,-88.379,-131.836,-190.430,-113.281,0.000,0
109847.230,-73.730,-143.066,-228.516,-108.887,0.000,0
109847.234,-93.262,-140.137,-207.031,-111.816,0.000,0
109847.238,-90.820,-130.859,-159.668,-113.281,0.000,0
109847.242,-86.426,-132.812,-167.480,-123.535,0.000,0
109847.246,-85.938,-135.254,-224.121,-120.605,0.000,0
109847.250,-84.961,-148.926,-229.980,-117.188,0.000,0
109847.254,-93.262,-149.414,-173.340,-131.836,0.000,0
109847.258,-94.238,-139.160,-187.012,-118.164,0.000,0
109847.262,-68.359,-132.812,-224.121,-96.680,0.000,0
109847.266,-72.754,-137.207,-189.453,-94.238,0.000,0
109847.270,-92.285,-145.996,-150.879,-118.652,0.000,0
109847.273,-97.168,-141.113,-172.852,-131.348,0.000,0
109847.277,-82.520,-141.602,-201.660,-119.141,0.000,0
109847.281,-80.078,-141.602,-190.918,-117.188,0.000,0
109847.285,-104.980,-151.855,-199.707,-126.465,0.000,0
109847.289,-92.773,-149.902,-191.895,-125.488,0.000,0
109847.293,-68.359,-122.559,-161.621,-90.332,0.000,0
109847.297,-81.055,-122.070,-184.082,-82.520,0.000,0
109847.301,-87.402,-128.418,-187.012,-84.961,0.000,0
109847.305,-88.379,-137.207,-189.453,-96.191,0.000,0
109847.309,-80.078,-142.578,-184.082,-104.492,0.000,0
109847.313,-69.824,-134.277,-179.199,-88.379,0.000,0
109847.316,-83.496,-136.230,-187.500,-99.609,0.000,0
109847.320,-74.707,-140.137,-170.410,-107.910,0.000,0
109847.324,-63.477,-141.602,-163.086,-100.098,0.000,0
109847.328,-74.219,-145.996,-174.316,-112.793,0.000,0
109847.332,-84.961,-152.832,-208.008,-112.305,0.000,0
109847.336,-83.496,-149.902,-179.688,-102.051,0.000,0
109847.340,-79.102,-148.926,-152.344,-105.957,0.000,0
109847.344,-84.961,-152.832,-166.016,-106.934,0.000,0
109847.348,-83.008,-152.344,-175.293,-101.562,0.000,0
109847.352,-76.172,-150.879,-145.996,-102.051,0.000,0
109847.355,-74.219,-153.809,-107.422,-95.215,0.000,0
109847.359,-69.336,-148.438,-172.852,-79.590,0.000,0
109847.363,-83.496,-160.156,-186.035,-90.820,0.000,0
109847.367,-70.312,-167.480,-134.277,-88.379,0.000,0
109847.371,-46.387,-144.043,-101.074,-72.266,0.000,0
109847.375,-51.270,-142.090,-125.977,-73.242,0.000,0
109847.379,-41.016,-154.785,-155.762,-84.961,0.000,0
109847.383,-44.922,-150.879,-121.582,-82.520,0.000,0
109847.387,-51.758,-152.344,-91.309,-85.449,0.000,0
109847.391,-34.668,-155.762,-109.863,-88.867,0.000,0
109847.395,-20.020,-147.949,-114.746,-77.148,0.000,0
109847.398,-35.645,-156.250,-99.121,-91.309,0.000,0
109847.402,-45.410,-162.598,-82.031,-110.352,0.000,0
109847.406,-29.785,-149.414,-85.449,-80.078,0.000,0
109847.410,-30.273,-143.555,-99.121,-57.129,0.000,0
109847.414,-44.434,-150.391,-107.910,-84.473,0.000,0
109847.418,-39.062,-155.273,-117.188,-84.473,0.000,0
109847.422,-28.809,-158.203,-111.328,-71.777,0.000,0
109847.426,-40.039,-164.551,-106.445,-90.820,0.000,0
109847.430,-32.715,-150.879,-110.352,-83.984,0.000,0
109847.434,-32.715,-146.973,-107.422,-69.824,0.000,0
109847.438,-53.223,-158.203,-98.633,-93.750,0.000,0
109847.441,-41.016,-140.137,-104.980,-88.867,0.000,0
109847.445,-38.086,-132.324,-113.770,-74.219,0.000,0
109847.449,-45.410,-140.625,-132.324,-69.336,0.000,0
109847.453,-39.551,-150.879,-127.441,-91.797,0.000,0
109847.457,-49.316,-163.574,-112.793,-112.305,0.000,0
109847.461,-39.551,-155.762,-160.156,-84.473,0.000,0
109847.465,-48.828,-151.367,-157.715,-84.961,0.000,0
109847.469,-42.969,-149.414,-107.910,-83.008,0.000,0
109847.473,-37.109,-155.762,-118.164,-93.750,0.000,0
109847.477,-64.453,-156.250,-163.086,-91.309,0.000,0
109847.480,-39.551,-146.973,-169.922,-63.477,0.000,0
109847.484,-31.738,-150.391,-136.719,-72.266,0.000,0
109847.488,-35.645,-152.832,-136.719,-90.820,0.000,0
109847.492,-34.180,-145.996,-161.621,-81.543,0.000,0
109847.496,-40.039,-140.625,-158.203,-83.008,0.000,0
109847.500,-52.734,-143.066,-146.484,-89.355,0.000,0
109847.504,-34.668,-143.066,-140.137,-79.590,0.000,0
109847.508,-31.738,-128.418,-143.066,-63.477,0.000,0
109847.512,-40.527,-120.117,-171.387,-58.105,0.000,0
109847.516,-26.855,-132.324,-190.918,-55.664,0.000,0
109847.520,-36.621,-133.301,-177.734,-57.617,0.000,0
109847.523,-49.805,-140.137,-185.059,-72.266,0.000,0
109847.527,-54.688,-144.043,-211.426,-84.961,0.000,0
109847.531,-49.316,-137.207,-221.680,-93.262,0.000,0
109847.535,-60.059,-136.230,-214.355,-84.961,0.000,0
109847.539,-74.707,-145.508,-243.652,-81.055,0.000,0
109847.543,-78.125,-148.926,-277.344,-92.773,0.000,0
109847.547,-77.148,-135.742,-243.652,-77.148,0.000,0
109847.551,-57.129,-130.371,-237.793,-55.176,0.000,0
109847.555,-56.641,-138.184,-240.234,-73.730,0.000,0
109847.559,-60.059,-140.625,-216.797,-83.008,0.000,0
109847.563,-55.176,-134.277,-225.098,-70.801,0.000,0
109847.566,-58.594,-129.883,-203.125,-74.707,0.000,0
109847.570,-51.758,-128.418,-156.738,-78.613,0.000,0
109847.574,-50.781,-137.695,-185.547,-84.961,0.000,0
109847.578,-46.387,-133.301,-189.941,-80.566,0.000,0
109847.582,-41.504,-128.906,-157.715,-77.148,0.000,0
109847.586,-62.988,-136.230,-159.668,-83.008,0.000,0
109847.590,-60.059,-131.348,-133.301,-86.914,0.000,0
109847.594,-44.434,-125.977,-95.215,-65.430,0.000,0
109847.598,-20.508,-123.047,-68.359,-41.992,0.000,0
109847.602,-28.809,-133.301,-35.156,-65.430,0.000,0
109847.605,-41.016,-135.254,-15.137,-66.895,0.000,0
109847.609,-27.832,-125.977,-15.625,-49.316,0.000,0
109847.613,-29.297,-130.859,-16.113,-52.734,0.000,0
109847.617,-29.297,-126.465,37.109,-52.734,0.000,0
109847.621,-20.020,-122.559,69.824,-35.156,0.000,0
109847.625,-30.273,-125.977,60.547,-29.785,0.000,0
109847.629,-32.227,-128.418,90.820,-49.805,0.000,0
109847.633,-25.879,-122.559,136.719,-48.828,0.000,0
109847.637,-26.855,-116.699,156.250,-32.715,0.000,0
109847.641,-18.555,-125.488,165.527,-40.039,0.000,0
109847.645,-22.461,-122.070,147.461,-40.527,0.000,0
109847.648,-38.574,-118.652,152.832,-39.062,0.000,0
109847.652,-37.109,-122.070,193.848,-49.316,0.000,0
109847.656,-15.137,-114.258,217.285,-35.645,0.000,0
109847.660,-29.785,-120.117,225.586,-37.109,0.000,0
109847.664,-41.504,-120.605,216.309,-51.270,0.000,0
109847.668,-20.996,-101.074,262.207,-37.109,0.000,0
109847.672,-20.996,-97.168,292.480,-19.531,0.000,0
109847.676,-24.902,-103.027,261.230,-13.672,0.000,0
109847.680,-4.395,-108.887,298.340,-31.250,0.000,0
109847.684,1.465,-107.422,332.520,-38.574,0.000,0
109847.688,-1.953,-104.492,302.246,-32.227,0.000,0
109847.691,5.371,-106.934,292.480,-36.133,0.000,0
109847.695,-1.953,-100.586,302.246,-27.344,0.000,0
109847.699,-8.789,-99.609,315.918,-39.062,0.000,0
109847.703,-1.465,-95.215,318.359,-41.016,0.000,0
109847.707,23.438,-86.914,287.598,-17.578,0.000,0
109847.711,20.020,-94.727,276.855,-17.578,0.000,0
109847.715,-16.602,-109.863,286.133,-29.297,0.000,0
109847.719,3.418,-110.840,310.547,-32.715,0.000,0
109847.723,8.789,-98.145,300.781,-23.438,0.000,0
109847.727,-3.906,-101.074,241.699,-10.254,0.000,0
109847.730,2.930,-110.840,246.582,-19.043,0.000,0
109847.734,12.695,-102.539,264.648,-13.184,0.000,0
109847.738,6.348,-107.422,246.582,-2.930,0.000,0
109847.742,1.953,-107.422,233.398,-13.672,0.000,0
109847.746,19.043,-100.098,228.027,1.953,0.000,0
109847.750,18.066,-106.934,219.727,4.883,0.000,0
109847.754,19.043,-98.633,218.750,-2.441,0.000,0
109847.758,20.996,-103.027,197.266,-16.602,0.000,0
109847.762,-3.418,-120.605,170.410,-30.273,0.000,0
109847.766,6.836,-112.305,184.082,-16.602,0.000,0
109847.770,22.949,-103.027,207.031,-5.371,0.000,0
109847.773,21.973,-101.074,174.805,-5.859,0.000,0
109847.777,12.695,-117.676,141.113,-29.785,0.000,0
109847.781,1.465,-119.141,147.949,-41.016,0.000,0
109847.785,1.953,-110.352,149.902,-20.020,0.000,0
109847.789,10.742,-112.793,128.906,-16.113,0.000,0
109847.793,5.859,-113.281,79.590,-29.297,0.000,0
109847.797,9.766,-114.746,97.168,-25.879,0.000,0
109847.801,-1.953,-126.953,106.445,-41.504,0.000,0
109847.805,-26.367,-129.395,70.312,-47.852,0.000,0
109847.809,13.184,-107.422,71.777,-23.926,0.000,0
109847.813,19.043,-107.910,65.430,-18.555,0.000,0
109847.816,-13.184,-121.094,109.863,-33.203,0.000,0
109847.820,-1.953,-119.629,101.562,-35.156,0.000,0
109847.824,8.301,-110.352,11.719,-9.766,0.000,0
109847.828,18.066,-116.699,-8.789,-24.414,0.000,0
109847.832,0.488,-128.418,41.016,-40.039,0.000,0
109847.836,-18.555,-118.652,75.684,-24.414,0.000,0
109847.840,1.465,-119.141,12.695,-35.156,0.000,0
109847.844,14.648,-121.094,-19.531,-38.086,0.000,0
109847.848,0.000,-123.535,4.883,-38.574,0.000,0
109847.852,2.441,-123.535,15.625,-43.457,0.000,0
109847.855,16.602,-119.141,-2.930,-49.316,0.000,0
109847.859,2.441,-120.117,-29.785,-57.129,0.000,0
109847.863,2.930,-120.605,-53.223,-33.203,0.000,0
109847.867,3.418,-123.535,-31.738,-22.949,0.000,0
109847.871,-3.906,-119.629,-32.715,-33.203,0.000,0
109847.875,10.254,-115.234,-63.477,-32.227,0.000,0
109847.879,-16.602,-135.742,-59.082,-52.734,0.000,0
109847.883,-26.855,-149.902,-66.406,-69.336,0.000,0
109847.887,12.207,-126.953,-69.336,-32.227,0.000,0
109847.891,14.648,-109.863,-52.246,-16.113,0.000,0
109847.895,-4.395,-115.723,-33.691,-26.367,0.000,0
109847.898,7.324,-120.605,-47.363,-36.133,0.000,0
109847.902,17.090,-110.840,-81.055,-24.902,0.000,0
109847.906,-4.883,-113.281,-102.539,-16.113,0.000,0
109847.910,-4.395,-114.746,-89.355,-32.715,0.000,0
109847.914,-21.973,-116.211,-89.355,-44.922,0.000,0
109847.918,-30.762,-124.023,-101.562,-40.527,0.000,0
109847.922,-20.508,-125.488,-91.309,-45.410,0.000,0
109847.926,-11.230,-120.605,-120.605,-27.832,0.000,0
109847.930,-3.906,-121.094,-136.230,-11.719,0.000,0
109847.934,-17.090,-122.070,-81.055,-28.809,0.000,0
109847.938,-17.090,-118.652,-57.129,-35.645,0.000,0
109847.941,-24.414,-114.746,-95.215,-36.621,0.000,0
109847.945,-49.805,-129.883,-145.020,-62.500,0.000,0
109847.949,-16.602,-117.676,-110.352,-30.762,0.000,0
109847.953,2.441,-102.051,-53.223,-1.465,0.000,0
109847.957,-26.367,-125.000,-99.121,-40.527,0.000,0
109847.961,-41.992,-125.000,-118.652,-44.434,0.000,0
109847.965,-28.809,-123.047,-64.453,-31.250,0.000,0
109847.969,-11.230,-118.164,-50.781,-26.855,0.000,0
109847.973,-20.020,-115.723,-118.164,-34.668,0.000,0
109847.977,-23.926,-123.047,-125.488,-33.691,0.000,0
109847.980,-23.438,-117.676,-62.500,-26.855,0.000,0
109847.984,-21.484,-118.652,-66.406,-28.809,0.000,0
109847.988,-17.090,-122.559,-120.117,-24.902,0.000,0
109847.992,-23.926,-116.699,-100.098,-21.484,0.000,0
109847.996,-29.297,-118.164,-72.266,-29.785,0.000,0
109848.000,-18.066,-118.164,-61.035,-21.484,0.000,0
109848.004,-15.137,-112.793,-87.402,-19.531,0.000,0
109848.008,-28.809,-116.211,-105.469,-41.992,0.000,0
109848.012,-20.020,-109.375,-66.406,-27.344,0.000,0
109848.016,-15.137,-117.676,-76.660,-24.902,0.000,0
109848.020,-20.508,-123.047,-101.562,-30.273,0.000,0
109848.023,-16.113,-112.793,-96.680,-21.973,0.000,0
109848.027,-23.438,-120.117,-125.977,-31.250,0.000,0
109848.031,-32.227,-130.859,-111.816,-49.805,0.000,0
109848.035,-46.875,-134.766,-75.684,-57.617,0.000,0
109848.039,-44.922,-130.859,-103.516,-48.340,0.000,0
109848.043,-23.438,-122.070,-124.512,-33.203,0.000,0
109848.047,-12.695,-126.953,-116.211,-35.645,0.000,0
109848.051,-32.715,-137.207,-99.121,-37.598,0.000,0
109848.055,-13.672,-129.395,-76.172,-35.645,0.000,0
109848.059,-24.902,-136.719,-96.680,-63.965,0.000,0
109848.063,-53.711,-163.574,-127.930,-92.285,0.000,0
109848.066,-64.941,-178.223,-132.324,-101.562,0.000,0
109848.070,-79.590,-181.641,-123.047,-102.539,0.000,0
109848.074,-93.750,-178.711,-153.320,-105.957,0.000,0
109848.078,-105.469,-184.570,-188.965,-114.746,0.000,0
109848.082,-104.980,-198.242,-190.918,-122.070,0.000,0
109848.086,-88.379,-188.965,-172.852,-111.816,0.000,0
109848.090,-69.336,-182.617,-192.383,-107.422,0.000,0
109848.094,-80.566,-190.918,-191.406,-118.652,0.000,0
109848.098,-98.145,-188.477,-166.992,-120.605,0.000,0
109848.102,-108.887,-187.988,-169.922,-119.629,0.000,0
109848.105,-112.793,-189.453,-233.887,-127.930,0.000,0
109848.109,-107.422,-185.059,-245.117,-116.699,0.000,0
109848.113,-113.281,-186.523,-191.895,-115.234,0.000,0
109848.117,-106.445,-187.012,-201.172,-116.699,0.000,0
109848.121,-101.562,-177.246,-229.492,-110.352,0.000,0
109848.125,-76.660,-165.527,-225.586,-104.004,0.000,0
109848.129,-61.035,-168.457,-225.098,-96.191,0.000,0
109848.133,-99.609,-178.711,-204.102,-107.422,0.000,0
109848.137,-104.492,-168.457,-208.496,-114.746,0.000,0
109848.141,-88.867,-149.414,-239.258,-102.539,0.000,0
109848.145,-102.539,-152.832,-249.512,-98.145,0.000,0
109848.148,-105.957,-166.016,-261.230,-107.422,0.000,0
109848.152,-109.863,-173.828,-283.691,-113.770,0.000,0
109848.156,-104.004,-165.039,-291.992,-109.375,0.000,0
109848.160,-80.078,-162.109,-292.480,-120.117,0.000,0
109848.164,-79.590,-169.434,-297.852,-115.723,0.000,0
109848.168,-92.285,-163.086,-281.738,-95.703,0.000,0
109848.172,-88.867,-157.715,-262.207,-98.633,0.000,0
109848.176,-84.473,-157.227,-302.246,-87.891,0.000,0
109848.180,-106.934,-164.062,-300.293,-89.844,0.000,0
109848.184,-93.262,-159.180,-277.344,-92.773,0.000,0
109848.188,-72.266,-147.461,-254.395,-85.938,0.000,0
109848.191,-89.355,-152.344,-229.004,-95.215,0.000,0
109848.195,-94.238,-161.133,-235.352,-102.539,0.000,0
109848.199,-70.801,-156.250,-236.328,-82.520,0.000,0
109848.203,-74.219,-153.320,-207.031,-71.777,0.000,0
109848.207,-90.820,-155.762,-191.895,-78.613,0.000,0
109848.211,-73.730,-153.320,-178.223,-80.078,0.000,0
109848.215,-57.617,-142.578,-151.367,-74.707,0.000,0
109848.219,-45.410,-134.766,-142.090,-69.824,0.000,0
109848.223,-44.434,-138.672,-154.785,-65.430,0.000,0
109848.227,-53.223,-139.648,-131.348,-63.477,0.000,0
109848.230,-52.734,-148.438,-100.586,-83.008,0.000,0
109848.234,-41.016,-139.160,-108.887,-76.660,0.000,0
109848.238,-25.879,-126.953,-117.188,-48.340,0.000,0
109848.242,-23.926,-128.906,-120.117,-54.199,0.000,0
109848.246,-13.184,-123.047,-74.707,-53.223,0.000,0
109848.250,-8.301,-126.465,-51.758,-54.199,0.000,0
109848.254,-11.719,-127.930,-83.984,-60.547,0.000,0
109848.258,-19.043,-122.070,-95.703,-54.688,0.000,0
109848.262,-17.578,-122.070,-63.477,-50.293,0.000,0
109848.266,-10.742,-119.141,-34.180,-51.270,0.000,0
109848.270,-0.977,-118.164,-62.500,-62.012,0.000,0
109848.273,-0.488,-123.047,-99.609,-66.406,0.000,0
109848.277,-0.488,-112.793,-87.402,-38.574,0.000,0
109848.281,12.695,-107.910,-53.223,-33.203,0.000,0
109848.285,-4.395,-118.652,-81.543,-48.340,0.000,0
109848.289,-1.465,-116.211,-103.516,-49.316,0.000,0
109848.293,2.441,-106.445,-77.637,-54.199,0.000,0
109848.297,-12.695,-108.887,-65.918,-54.688,0.000,0
109848.301,0.488,-108.887,-91.797,-44.922,0.000,0
109848.305,8.789,-107.422,-101.074,-36.621,0.000,0
109848.309,-4.883,-112.305,-75.195,-58.594,0.000,0
109848.313,-4.883,-115.234,-73.730,-64.941,0.000,0
109848.316,10.742,-114.258,-104.980,-65.918,0.000,0
109848.320,6.348,-105.957,-100.098,-63.477,0.000,0
109848.324,2.441,-96.191,-85.449,-33.691,0.000,0
109848.328,18.066,-95.703,-67.871,-41.016,0.000,1
109848.332,2.441,-100.586,-58.594,-64.453,0.000,0
109848.336,-10.254,-104.492,-84.961,-54.688,0.000,0
109848.340,19.531,-91.309,-108.887,-32.227,0.000,0
109848.344,27.344,-87.891,-102.051,-37.109,0.000,0
109848.348,21.973,-92.285,-74.707,-47.363,0.000,0
109848.352,22.461,-86.426,-63.477,-40.039,0.000,0
109848.355,14.648,-83.496,-87.891,-40.039,0.000,0
109848.359,9.766,-88.867,-93.750,-48.828,0.000,0
109848.363,14.648,-91.797,-71.289,-55.664,0.000,0
109848.367,5.859,-97.168,-58.594,-56.641,0.000,0
109848.371,5.859,-98.145,-74.219,-57.129,0.000,0
109848.375,4.883,-96.680,-94.238,-61.523,0.000,0
109848.379,-1.953,-100.098,-86.914,-56.152,0.000,0
109848.383,21.973,-100.098,-64.453,-40.527,0.000,0
109848.387,14.648,-107.910,-58.105,-48.828,0.000,0
109848.391,-10.254,-108.887,-82.520,-71.289,0.000,0
109848.395,28.809,-102.539,-74.707,-55.176,0.000,0
109848.398,34.180,-99.609,-42.969,-44.434,0.000,0
109848.402,13.672,-96.680,-68.848,-40.039,0.000,0
109848.406,30.273,-108.887,-77.148,-55.176,0.000,0
109848.410,12.207,-122.559,-62.012,-75.195,0.000,0
109848.414,-5.859,-116.699,-66.895,-67.383,0.000,0
109848.418,-7.812,-112.793,-95.703,-68.848,0.000,0
109848.422,-10.742,-114.746,-121.094,-70.801,0.000,0
109848.426,-8.301,-116.211,-90.820,-67.871,0.000,0
109848.430,-6.836,-121.582,-81.055,-75.684,0.000,0
109848.434,-0.977,-118.652,-112.305,-71.289,0.000,0
109848.438,8.301,-113.770,-122.559,-60.547,0.000,0
109848.441,-2.930,-113.770,-118.164,-73.242,0.000,0
109848.445,-17.090,-123.047,-96.680,-96.191,0.000,0
109848.449,-11.719,-115.234,-87.891,-84.961,0.000,0
109848.453,-14.160,-110.840,-132.324,-76.172,0.000,0
109848.457,-27.344,-121.094,-138.184,-80.566,0.000,0
109848.461,2.930,-114.746,-116.211,-70.801,0.000,0
109848.465,0.977,-116.211,-124.512,-69.336,0.000,0
109848.469,-22.461,-117.676,-138.184,-68.848,0.000,0
109848.473,-9.277,-111.816,-156.250,-63.477,0.000,0
109848.477,-23.438,-126.953,-156.738,-70.801,0.000,0
109848.480,-33.203,-125.000,-144.531,-71.289,0.000,0
109848.484,-34.668,-113.770,-167.480,-76.172,0.000,0
109848.488,-42.480,-126.953,-199.219,-71.777,0.000,0
109848.492,-35.156,-125.000,-196.777,-57.617,0.000,0
109848.496,-30.762,-120.117,-187.988,-55.664,0.000,0
109848.500,-43.457,-120.117,-200.684,-49.805,0.000,0
109848.504,-42.480,-118.652,-195.801,-50.781,0.000,0
109848.508,-41.504,-120.117,-198.730,-58.594,0.000,0
109848.512,-37.109,-121.094,-203.125,-60.547,0.000,0
109848.516,-40.039,-122.559,-182.617,-57.617,0.000,0
109848.520,-58.594,-125.488,-200.195,-51.758,0.000,0
109848.523,-68.359,-133.301,-222.656,-62.500,0.000,0
109848.527,-66.895,-142.578,-209.961,-77.637,0.000,0
109848.531,-61.523,-130.859,-183.594,-65.430,0.000,0
109848.535,-61.523,-120.605,-189.941,-53.223,0.000,0
109848.539,-54.199,-125.488,-211.426,-54.688,0.000,0
109848.543,-51.270,-117.676,-198.730,-54.688,0.000,0
109848.547,-42.480,-112.793,-166.992,-42.969,0.000,0
109848.551,-28.809,-109.863,-166.016,-44.434,0.000,0
109848.555,-31.738,-114.258,-213.379,-55.664,0.000,0
109848.559,-39.551,-118.164,-223.145,-53.711,0.000,0
109848.563,-31.738,-115.234,-180.664,-51.270,0.000,0
109848.566,-41.016,-125.000,-179.688,-76.660,0.000,0
109848.570,-44.434,-118.652,-207.520,-74.219,0.000,0
109848.574,-58.594,-104.492,-212.891,-45.410,0.000,0
109848.578,-61.523,-117.676,-175.781,-43.457,0.000,0
109848.582,-54.199,-127.930,-182.617,-48.340,0.000,0
109848.586,-54.688,-117.676,-208.008,-52.734,0.000,0
109848.590,-35.156,-111.816,-205.078,-39.551,0.000,0
109848.594,-33.691,-116.211,-201.660,-34.180,0.000,0
109848.598,-38.574,-124.512,-200.195,-54.199,0.000,0
109848.602,-38.086,-125.000,-220.703,-52.734,0.000,0
109848.605,-42.480,-106.934,-212.891,-44.922,0.000,0
109848.609,-34.668,-102.051,-194.336,-45.898,0.000,0
109848.613,-51.270,-111.328,-182.617,-50.293,0.000,0
109848.617,-72.754,-115.723,-212.402,-71.289,0.000,0
109848.621,-38.574,-106.934,-208.496,-52.734,0.000,0
109848.625,-38.086,-109.375,-159.668,-42.969,0.000,0
109848.629,-64.453,-119.629,-163.086,-55.176,0.000,0
109848.633,-58.105,-119.629,-177.246,-54.199,0.000,0
109848.637,-41.992,-119.629,-188.965,-46.875,0.000,0
109848.641,-42.480,-122.070,-187.500,-45.898,0.000,0
109848.645,-55.176,-119.629,-155.273,-68.848,0.000,0
109848.648,-41.992,-102.051,-121.582,-65.430,0.000,0
109848.652,-34.668,-97.656,-151.855,-52.246,0.000,0
109848.656,-45.898,-100.586,-167.969,-48.340,0.000,0
109848.660,-42.969,-103.027,-158.203,-48.340,0.000,0
109848.664,-51.270,-116.699,-163.574,-67.383,0.000,0
109848.668,-47.852,-116.211,-154.785,-62.988,0.000,0
109848.672,-38.086,-108.887,-160.645,-46.875,0.000,0
109848.676,-48.828,-112.793,-173.340,-50.781,0.000,0
109848.680,-54.688,-121.094,-148.438,-68.848,0.000,0
109848.684,-46.875,-120.117,-135.742,-64.941,0.000,0
109848.688,-43.457,-111.328,-169.434,-59.082,0.000,0
109848.691,-43.945,-106.934,-171.875,-64.453,0.000,0
109848.695,-48.340,-111.328,-143.555,-65.918,0.000,0
109848.699,-58.105,-117.676,-143.066,-62.012,0.000,0
109848.703,-66.895,-122.070,-157.227,-62.500,0.000,0
109848.707,-81.055,-114.258,-170.898,-57.129,0.000,0
109848.711,-83.008,-110.352,-177.246,-52.734,0.000,0
109848.715,-65.918,-118.164,-159.180,-63.477,0.000,0
109848.719,-69.824,-116.699,-179.199,-62.500,0.000,0
109848.723,-72.754,-104.980,-173.828,-55.664,0.000,0
109848.727,-44.434,-99.609,-137.207,-52.246,0.000,0
109848.730,-30.273,-102.539,-128.418,-41.016,0.000,0
109848.734,-43.457,-109.375,-162.598,-39.062,0.000,0
109848.738,-47.363,-108.398,-194.336,-42.969,0.000,0
109848.742,-33.203,-111.328,-164.551,-60.547,0.000,0
109848.746,-28.320,-120.605,-141.113,-64.453,0.000,0
109848.750,-38.574,-117.676,-171.387,-61.523,0.000,0
109848.754,-41.016,-112.305,-175.293,-64.453,0.000,0
109848.758,-40.039,-103.027,-161.621,-45.898,0.000,0
109848.762,-26.367,-98.633,-130.371,-34.180,0.000,0
109848.766,-41.992,-106.445,-110.352,-51.758,0.000,0
109848.770,-62.500,-109.375,-165.039,-60.059,0.000,0
109848.773,-50.293,-109.863,-175.293,-54.199,0.000,0
109848.777,-54.688,-108.398,-138.672,-59.082,0.000,0
109848.781,-41.992,-108.398,-137.207,-63.477,0.000,0
109848.785,-26.367,-117.188,-143.066,-59.082,0.000,0
109848.789,-28.320,-112.305,-164.062,-47.852,0.000,0
109848.793,-34.668,-109.863,-145.508,-54.199,0.000,0
109848.797,-34.180,-109.863,-130.371,-49.316,0.000,0
109848.801,-22.949,-98.633,-134.766,-23.438,0.000,0
109848.805,-25.879,-99.609,-142.090,-35.645,0.000,0
109848.809,-36.133,-107.422,-154.785,-54.688,0.000,0
109848.813,-35.156,-105.469,-144.531,-49.316,0.000,0
109848.816,-31.250,-106.934,-138.672,-52.246,0.000,0
109848.820,-37.598,-114.258,-145.508,-66.406,0.000,0
109848.824,-50.781,-114.746,-149.414,-77.637,0.000,0
109848.828,-43.945,-113.770,-147.949,-72.754,0.000,0
109848.832,-29.297,-106.934,-116.699,-53.711,0.000,0
109848.836,-37.598,-101.074,-123.047,-50.293,0.000,0
109848.840,-25.391,-111.328,-161.621,-56.152,0.000,0
109848.844,-31.738,-117.188,-127.441,-55.176,0.000,0
109848.848,-33.203,-112.305,-103.027,-46.387,0.000,0
109848.852,-13.184,-103.027,-121.582,-46.875,0.000,0
109848.855,-3.906,-105.957,-147.949,-42.480,0.000,0
109848.859,-7.324,-109.863,-129.883,-47.363,0.000,0
109848.863,-19.043,-104.004,-96.191,-75.195,0.000,0
109848.867,-27.344,-107.422,-123.047,-63.965,0.000,0
109848.871,-21.484,-108.887,-142.090,-48.340,0.000,0
109848.875,-17.578,-109.863,-143.555,-47.852,0.000,0
109848.879,-5.859,-111.328,-133.789,-41.992,0.000,0
109848.883,-10.254,-106.445,-108.398,-54.688,0.000,0
109848.887,-15.625,-101.074,-133.789,-57.129,0.000,0
109848.891,-10.254,-102.539,-150.879,-51.270,0.000,0
109848.895,-23.926,-104.492,-119.141,-51.270,0.000,0
109848.898,-37.598,-104.980,-111.328,-50.781,0.000,0
109848.902,-14.160,-103.027,-132.324,-45.410,0.000,0
109848.906,-5.371,-102.051,-135.254,-49.316,0.000,0
109848.910,-15.137,-109.375,-122.070,-49.316,0.000,0
109848.914,-26.855,-107.910,-117.188,-51.270,0.000,0
109848.918,-25.879,-105.957,-132.812,-63.477,0.000,0
109848.922,-15.137,-97.656,-129.395,-56.641,0.000,0
109848.926,-5.859,-86.426,-113.281,-44.922,0.000,0
109848.930,-2.930,-98.145,-97.168,-57.129,0.000,0
109848.934,-10.254,-109.375,-90.820,-50.293,0.000,0
109848.938,12.207,-96.680,-144.531,-32.227,0.000,0
109848.941,3.906,-99.121,-133.301,-47.363,0.000,0
109848.945,-5.859,-100.098,-104.492,-37.598,0.000,0
109848.949,1.465,-99.609,-119.629,-41.504,0.000,0
109848.953,8.301,-101.074,-117.676,-46.387,0.000,0
109848.957,21.973,-95.703,-110.840,-38.574,0.000,0
109848.961,17.090,-96.680,-97.656,-48.828,0.000,0
109848.965,31.250,-99.609,-102.539,-57.617,0.000,0
109848.969,34.180,-96.191,-116.699,-46.387,0.000,0
109848.973,12.695,-93.262,-123.535,-34.180,0.000,0
109848.977,11.719,-104.492,-109.863,-48.828,0.000,1
109848.980,18.066,-111.816,-97.656,-60.059,0.000,0
109848.984,29.785,-104.980,-126.465,-48.340,0.000,0
109848.988,44.922,-106.445,-145.020,-48.828,0.000,0
109848.992,25.879,-111.328,-109.375,-62.500,0.000,0
109848.996,34.180,-103.516,-69.336,-65.430,0.000,0
109849.000,60.059,-100.098,-108.887,-56.152,0.000,0
109849.004,67.871,-91.797,-152.344,-47.852,0.000,0
109849.008,62.988,-92.773,-137.207,-52.734,0.000,0
109849.012,57.129,-97.168,-107.910,-46.875,0.000,0
109849.016,66.895,-101.074,-110.352,-51.270,0.000,0
109849.020,58.105,-104.980,-129.883,-60.059,0.000,0
109849.023,41.992,-103.027,-131.836,-54.199,0.000,0
109849.027,33.691,-107.422,-114.258,-70.312,0.000,0
109849.031,48.340,-110.840,-131.836,-71.289,0.000,0
109849.035,48.340,-112.305,-148.926,-64.941,0.000,0
109849.039,28.809,-118.164,-144.043,-68.848,0.000,0
109849.043,36.621,-114.746,-126.465,-68.359,0.000,0
109849.047,57.617,-105.957,-119.629,-67.871,0.000,0
109849.051,51.270,-105.957,-157.227,-60.547,0.000,0
109849.055,49.316,-107.422,-157.715,-62.500,0.000,0
109849.059,67.383,-107.422,-115.234,-53.711,0.000,0
109849.063,60.059,-109.863,-129.395,-45.410,0.000,0
109849.066,53.223,-115.234,-160.156,-66.895,0.000,0
109849.070,48.340,-106.445,-147.461,-64.453,0.000,0
109849.074,47.852,-97.656,-112.793,-48.828,0.000,0
109849.078,48.340,-102.539,-80.566,-58.105,0.000,0
109849.082,40.527,-96.191,-85.938,-44.434,0.000,0
109849.086,38.574,-79.590,-95.703,-23.438,0.000,0
109849.090,20.996,-86.426,-113.281,-24.414,0.000,0
109849.094,2.441,-102.539,-117.188,-38.574,0.000,0
109849.098,-1.465,-97.168,-89.844,-40.039,0.000,0
109849.102,-22.461,-95.703,-112.305,-47.363,0.000,0
109849.105,-37.109,-102.539,-149.414,-68.848,0.000,0
109849.109,-20.020,-96.191,-129.395,-54.199,0.000,0
109849.113,-13.672,-94.238,-99.121,-43.457,0.000,0
109849.117,-14.160,-97.656,-90.820,-58.105,0.000,0
109849.121,-30.273,-98.633,-123.047,-58.105,0.000,0
109849.125,-42.969,-95.215,-132.324,-44.922,0.000,0
109849.129,-33.691,-95.703,-107.910,-47.852,0.000,0
109849.133,-48.340,-101.074,-116.211,-49.805,0.000,0
109849.137,-54.199,-106.445,-139.160,-60.059,0.000,0
109849.141,-42.480,-106.445,-136.230,-67.383,0.000,0
109849.145,-46.387,-90.332,-86.426,-57.129,0.000,0
109849.148,-47.852,-79.590,-85.938,-34.668,0.000,0
109849.152,-47.852,-83.496,-129.883,-25.391,0.000,0
109849.156,-62.012,-92.285,-116.211,-43.457,0.000,0
109849.160,-68.359,-100.098,-95.215,-44.922,0.000,0
109849.164,-74.707,-103.516,-108.398,-40.527,0.000,0
109849.168,-68.848,-105.957,-131.836,-37.598,0.000,0
109849.172,-66.406,-92.773,-133.301,-35.645,0.000,0
109849.176,-112.793,-90.332,-105.957,-59.570,0.000,0
109849.180,-112.793,-88.379,-124.512,-56.641,0.000,0
109849.184,-88.867,-88.379,-161.133,-39.062,0.000,0
109849.188,-106.934,-93.750,-129.883,-39.551,0.000,0
109849.191,-112.305,-101.074,-98.633,-51.758,0.000,0
109849.195,-108.887,-110.352,-89.355,-51.270,0.000,0
109849.199,-105.957,-99.121,-137.695,-31.250,0.000,0
109849.203,-100.098,-93.750,-157.715,-31.250,0.000,0
109849.207,-90.820,-99.609,-111.328,-42.969,0.000,0
109849.211,-104.492,-102.539,-98.145,-52.734,0.000,0
109849.215,-112.305,-98.145,-97.656,-46.387,0.000,0
109849.219,-96.680,-103.027,-109.863,-40.527,0.000,0
109849.223,-110.352,-107.910,-106.445,-48.340,0.000,0
109849.227,-114.258,-104.004,-102.051,-50.293,0.000,0
109849.230,-91.309,-101.562,-104.980,-37.598,0.000,0
109849.234,-101.074,-102.539,-83.984,-38.086,0.000,0
109849.238,-123.535,-112.793,-83.984,-58.594,0.000,0
109849.242,-133.301,-117.676,-101.074,-62.012,0.000,0
109849.246,-136.230,-105.957,-89.844,-48.340,0.000,0
109849.250,-135.742,-96.680,-100.586,-41.504,0.000,0
109849.254,-135.254,-98.633,-107.422,-44.434,0.000,0
109849.258,-117.188,-100.586,-97.656,-48.828,0.000,0
109849.262,-112.305,-105.957,-99.121,-48.340,0.000,0
109849.266,-118.164,-109.375,-107.910,-44.922,0.000,0
109849.270,-119.141,-110.840,-120.117,-51.270,0.000,0
109849.273,-124.023,-111.816,-94.238,-63.965,0.000,0
109849.277,-89.844,-103.516,-66.406,-56.152,0.000,0
109849.281,-52.246,-106.934,-84.473,-45.410,0.000,0
109849.285,-43.457,-112.793,-112.305,-53.711,0.000,0
109849.289,-53.711,-105.469,-108.887,-52.246,0.000,0
109849.293,-74.219,-110.840,-81.055,-57.129,0.000,0
109849.297,-75.195,-112.305,-69.336,-62.012,0.000,0
109849.301,-76.660,-102.051,-99.121,-56.152,0.000,0
109849.305,-63.477,-98.633,-115.234,-56.152,0.000,0
109849.309,-41.016,-102.051,-69.824,-57.617,0.000,0
109849.313,-36.133,-107.422,-36.621,-65.918,0.000,0
109849.316,-22.949,-107.422,-67.871,-59.082,0.000,0
109849.320,3.418,-100.098,-103.027,-49.805,0.000,0
109849.324,-1.953,-97.656,-64.453,-51.270,0.000,0
109849.328,-17.090,-102.539,-43.945,-47.363,0.000,0
109849.332,-18.066,-107.910,-72.266,-53.711,0.000,0
109849.336,-14.160,-105.469,-77.637,-48.828,0.000,0
109849.340,-14.160,-101.074,-57.129,-44.434,0.000,0
109849.344,-13.184,-112.793,-66.895,-42.480,0.000,0
109849.348,-23.926,-113.770,-91.309,-44.922,0.000,0
109849.352,-37.598,-101.074,-74.219,-49.316,0.000,0
109849.355,-60.059,-104.980,-77.148,-51.270,0.000,0
109849.359,-70.312,-102.539,-66.406,-55.176,0.000,0
109849.363,-38.574,-98.145,-65.430,-49.316,0.000,0
109849.367,-23.926,-101.562,-108.887,-49.805,0.000,0
109849.371,-23.926,-100.586,-80.078,-57.129,0.000,0
109849.375,-7.812,-102.051,-62.988,-52.246,0.000,0
109849.379,-8.789,-92.773,-66.406,-41.016,0.000,0
109849.383,-11.230,-81.543,-52.734,-38.086,0.000,0
109849.387,-6.836,-81.543,-73.242,-41.504,0.000,0
109849.391,0.488,-91.309,-68.848,-50.293,0.000,0
109849.395,14.648,-90.820,-63.477,-44.434,0.000,0
109849.398,26.367,-84.961,-58.105,-33.691,0.000,0
109849.402,20.020,-84.961,-73.730,-29.297,0.000,0
109849.406,31.738,-79.102,-82.031,-26.367,0.000,0
109849.410,20.020,-88.379,-47.852,-37.598,0.000,0
109849.414,15.137,-88.867,-49.805,-42.969,0.000,0
109849.418,10.742,-82.520,-86.914,-29.297,0.000,0
109849.422,-17.578,-89.844,-95.215,-39.551,0.000,0
109849.426,-27.832,-93.750,-67.383,-49.805,0.000,0
109849.430,-10.742,-90.332,-48.828,-51.758,0.000,0
109849.434,0.977,-83.008,-69.824,-49.805,0.000,0
109849.438,-6.836,-84.473,-93.262,-35.645,0.000,0
109849.441,-10.254,-85.938,-54.199,-36.621,0.000,0
109849.445,-26.855,-86.426,-46.387,-40.527,0.000,0
109849.449,-29.785,-90.332,-72.266,-33.203,0.000,0
109849.453,-30.762,-89.355,-73.242,-31.738,0.000,0
109849.457,-46.387,-93.750,-66.895,-39.551,0.000,0
109849.461,-59.082,-92.285,-42.969,-37.109,0.000,0
109849.465,-69.824,-90.332,-75.195,-25.391,0.000,0
109849.469,-75.684,-95.703,-93.750,-29.785,0.000,0
109849.473,-102.051,-104.004,-58.105,-45.898,0.000,0
109849.477,-113.770,-102.539,-55.176,-46.387,0.000,0
109849.480,-98.145,-92.285,-60.059,-29.297,0.000,0
109849.484,-104.004,-87.402,-69.824,-24.902,0.000,0
109849.488,-119.629,-89.355,-54.688,-27.344,0.000,0
109849.492,-116.699,-90.332,-34.180,-37.598,0.000,0
109849.496,-116.699,-91.797,-64.453,-45.410,0.000,0
109849.500,-134.277,-91.797,-83.984,-31.738,0.000,0
109849.504,-135.254,-94.727,-75.684,-34.180,0.000,2
109849.508,-122.070,-103.516,-74.707,-50.781,0.000,0
109849.512,-116.211,-99.121,-84.961,-46.387,0.000,0
109849.516,-119.141,-91.797,-98.145,-41.992,0.000,0
109849.520,-112.793,-94.727,-97.168,-48.340,0.000,0
109849.523,-116.211,-94.238,-84.473,-48.828,0.000,0
109849.527,-122.559,-94.238,-78.125,-48.340,0.000,0
109849.531,-122.070,-92.285,-67.383,-46.875,0.000,0
109849.535,-121.094,-90.820,-82.520,-40.527,0.000,0
109849.539,-118.164,-89.355,-97.656,-28.320,0.000,0
109849.543,-118.164,-84.473,-79.590,-32.715,0.000,0
109849.547,-123.047,-85.938,-68.848,-40.039,0.000,0
109849.551,-114.746,-86.426,-81.543,-36.133,0.000,0
109849.555,-118.652,-88.867,-103.516,-46.875,0.000,0
109849.559,-122.070,-92.773,-112.305,-56.152,0.000,0
109849.563,-122.070,-93.750,-87.402,-48.340,0.000,0
109849.566,-113.770,-90.820,-71.777,-38.574,0.000,0
109849.570,-98.633,-87.402,-90.332,-41.504,0.000,0
109849.574,-102.539,-88.379,-84.961,-43.945,0.000,0
109849.578,-109.863,-92.285,-62.012,-43.457,0.000,0
109849.582,-127.930,-95.215,-84.473,-55.664,0.000,0
109849.586,-123.535,-97.656,-108.887,-56.641,0.000,0
109849.590,-117.188,-101.074,-90.332,-53.223,0.000,0
109849.594,-116.211,-104.980,-83.008,-61.035,0.000,0
109849.598,-114.746,-100.586,-101.562,-69.336,0.000,0
109849.602,-112.793,-99.121,-128.906,-66.895,0.000,0
109849.605,-106.445,-99.121,-116.211,-43.945,0.000,0
109849.609,-111.328,-102.051,-69.336,-42.969,0.000,0
109849.613,-108.398,-104.980,-78.613,-46.387,0.000,0
109849.617,-104.980,-101.562,-139.648,-42.969,0.000,0
109849.621,-104.492,-100.586,-147.461,-43.945,0.000,0
109849.625,-115.234,-102.051,-123.535,-47.363,0.000,0
109849.629,-106.934,-100.586,-108.887,-54.199,0.000,0
109849.633,-116.211,-105.469,-137.695,-64.453,0.000,0
109849.637,-121.094,-96.680,-145.996,-52.734,0.000,0
109849.641,-117.188,-86.914,-115.723,-52.246,0.000,0
109849.645,-125.488,-92.773,-118.164,-53.711,0.000,0
109849.648,-125.000,-108.398,-143.066,-61.035,0.000,0
109849.652,-127.930,-109.863,-146.973,-63.965,0.000,0
109849.656,-127.930,-96.191,-135.254,-50.781,0.000,0
109849.660,-122.070,-95.215,-131.836,-46.875,0.000,0
109849.664,-110.352,-88.867,-139.648,-42.969,0.000,0
109849.668,-109.375,-76.172,-111.328,-39.551,0.000,0
109849.672,-130.371,-81.055,-104.492,-47.852,0.000,0
109849.676,-159.180,-96.191,-135.742,-64.453,0.000,0
109849.680,-156.738,-100.098,-141.602,-57.617,0.000,0
109849.684,-150.879,-87.402,-137.695,-36.133,0.000,0
109849.688,-172.852,-91.797,-119.141,-47.363,0.000,0
109849.691,-169.922,-94.238,-106.934,-51.270,0.000,0
109849.695,-157.715,-87.891,-98.145,-36.133,0.000,0
109849.699,-162.109,-90.332,-109.863,-42.480,0.000,0
109849.703,-167.969,-93.262,-144.043,-41.992,0.000,0
109849.707,-162.598,-99.121,-110.840,-59.570,0.000,0
109849.711,-156.738,-100.098,-81.543,-60.059,0.000,0
109849.715,-166.016,-95.215,-87.402,-47.852,0.000,0
109849.719,-169.922,-94.727,-121.094,-56.641,0.000,0
109849.723,-147.949,-93.750,-137.695,-38.574,0.000,0
109849.727,-136.230,-97.656,-82.520,-40.527,0.000,0
109849.730,-159.180,-101.562,-89.355,-58.105,0.000,0
109849.734,-164.551,-87.402,-106.445,-54.688,0.000,0
109849.738,-120.605,-80.566,-82.520,-48.828,0.000,0
109849.742,-115.234,-89.844,-94.727,-51.270,0.000,0
109849.746,-122.559,-92.285,-64.941,-46.875,0.000,0
109849.750,-102.539,-92.285,-77.148,-56.641,0.000,0
109849.754,-91.309,-91.309,-108.887,-71.777,0.000,0
109849.758,-83.984,-79.590,-58.594,-52.246,0.000,0
109849.762,-71.777,-72.754,-42.969,-46.387,0.000,0
109849.766,-70.801,-83.496,-82.031,-58.594,0.000,0
109849.770,-81.055,-89.355,-96.191,-62.012,0.000,0
109849.773,-82.031,-86.426,-85.449,-67.871,0.000,0
109849.777,-60.547,-81.543,-67.383,-64.941,0.000,0
109849.781,-62.500,-82.520,-80.078,-54.688,0.000,0
109849.785,-82.031,-90.332,-91.797,-66.406,0.000,0
109849.789,-81.543,-88.379,-76.172,-62.012,0.000,0
109849.793,-64.941,-84.473,-78.125,-48.340,0.000,0
109849.797,-62.988,-85.449,-81.543,-59.082,0.000,0
109849.801,-66.895,-86.914,-97.168,-57.129,0.000,0
109849.805,-76.172,-94.238,-85.938,-54.199,0.000,0
109849.809,-88.867,-96.680,-45.410,-60.059,0.000,0
109849.813,-83.984,-95.703,-66.406,-69.824,0.000,0
109849.816,-87.891,-104.004,-102.539,-76.660,0.000,0
109849.820,-105.957,-104.492,-121.094,-62.500,0.000,0
109849.824,-92.773,-98.633,-88.867,-57.617,0.000,0
109849.828,-75.684,-93.750,-49.805,-61.523,0.000,0
109849.832,-83.008,-97.656,-97.656,-45.898,0.000,0
109849.836,-97.168,-106.445,-132.812,-50.293,0.000,0
109849.840,-104.004,-104.492,-118.164,-53.711,0.000,0
109849.844,-109.375,-101.562,-104.004,-54.688,0.000,0
109849.848,-107.422,-99.609,-104.004,-65.430,0.000,0
109849.852,-106.934,-104.492,-121.582,-65.430,0.000,0
109849.855,-123.047,-108.398,-121.582,-63.965,0.000,0
109849.859,-132.812,-105.469,-108.887,-61.523,0.000,0
109849.863,-130.859,-107.422,-91.309,-64.941,0.000,0
109849.867,-142.090,-104.492,-100.586,-67.871,0.000,0
109849.871,-120.605,-100.586,-138.672,-56.641,0.000,0
109849.875,-117.676,-106.445,-122.559,-52.246,0.000,0
109849.879,-150.879,-108.887,-103.027,-59.570,0.000,0
109849.883,-135.742,-106.445,-114.746,-62.500,0.000,0
109849.887,-149.414,-111.328,-135.254,-58.594,0.000,0
109849.891,-178.223,-111.328,-125.000,-63.965,0.000,0
109849.895,-165.527,-102.539,-116.211,-62.500,0.000,0
109849.898,-137.695,-97.168,-135.742,-42.969,0.000,0
109849.902,-152.832,-102.051,-140.137,-41.992,0.000,0
109849.906,-186.523,-105.957,-103.516,-61.035,0.000,0
109849.910,-175.293,-106.934,-108.887,-60.059,0.000,0
109849.914,-200.684,-114.746,-144.043,-57.617,0.000,0
109849.918,-229.980,-110.840,-141.113,-53.711,0.000,0
109849.922,-237.793,-94.238,-119.629,-38.574,0.000,0
109849.926,-281.250,-93.262,-80.566,-45.898,0.000,0
109849.930,-317.383,-98.633,-108.887,-49.805,0.000,0
109849.934,-328.125,-97.168,-138.184,-42.480,0.000,0
109849.938,-325.195,-98.633,-110.352,-49.805,0.000,0
109849.941,-332.031,-105.469,-88.867,-50.781,0.000,0
109849.945,-345.215,-98.145,-96.191,-59.570,0.000,0
109849.949,-332.520,-89.844,-148.438,-54.688,0.000,0
109849.953,-313.965,-84.473,-127.441,-34.668,0.000,0
109849.957,-311.523,-78.125,-102.051,-52.734,0.000,0
109849.961,-296.875,-83.496,-132.324,-53.711,0.000,0
109849.965,-282.227,-82.031,-124.512,-36.621,0.000,0
109849.969,-271.973,-74.707,-123.535,-24.902,0.000,0
109849.973,-288.574,-86.426,-104.980,-39.551,0.000,0
109849.977,-297.852,-88.867,-110.840,-54.199,0.000,0
109849.980,-279.785,-88.867,-131.836,-41.992,0.000,0
109849.984,-264.648,-95.703,-96.191,-34.668,0.000,0
109849.988,-267.578,-95.703,-104.004,-40.527,0.000,0
109849.992,-265.625,-103.027,-118.164,-47.852,0.000,0
109849.996,-271.973,-110.840,-126.465,-57.617,0.000,0
109850.000,-257.324,-102.051,-135.742,-58.594,0.000,0
109850.004,-237.793,-95.215,-103.516,-44.922,0.000,0
109850.008,-237.305,-92.773,-89.844,-34.180,0.000,0
109850.012,-229.492,-95.215,-104.004,-37.109,0.000,0
109850.016,-223.145,-111.328,-122.559,-42.969,0.000,0
109850.020,-230.469,-108.887,-117.676,-38.086,0.000,0
109850.023,-237.305,-115.723,-104.980,-47.363,0.000,0
109850.027,-218.750,-108.398,-90.332,-41.016,0.000,0
109850.031,-196.777,-95.703,-104.004,-30.762,0.000,0
109850.035,-194.824,-100.586,-119.141,-42.480,0.000,0
109850.039,-189.453,-97.168,-88.867,-35.645,0.000,0
109850.043,-187.988,-107.422,-79.102,-30.762,0.000,0
109850.047,-186.523,-102.539,-114.746,-24.414,0.000,0
109850.051,-191.406,-98.633,-126.953,-25.391,0.000,0
109850.055,-187.988,-104.492,-105.957,-28.320,0.000,1
109850.059,-171.387,-102.051,-84.961,-36.133,0.000,0
109850.063,-174.805,-96.680,-91.797,-46.387,0.000,0
109850.066,-172.852,-88.379,-122.559,-27.832,0.000,0
109850.070,-163.086,-89.355,-117.676,-16.113,0.000,0
109850.074,-157.227,-96.680,-106.445,-35.156,0.000,0
109850.078,-167.480,-96.191,-124.512,-50.293,0.000,0
109850.082,-169.434,-90.820,-112.793,-55.664,0.000,0
109850.086,-161.621,-89.355,-117.188,-54.688,0.000,0
109850.090,-163.086,-88.867,-119.629,-49.316,0.000,0
109850.094,-151.367,-88.379,-130.371,-41.504,0.000,0
109850.098,-136.230,-96.191,-161.621,-31.250,0.000,0
109850.102,-139.648,-102.539,-143.066,-42.969,0.000,0
109850.105,-140.137,-89.844,-119.629,-33.203,0.000,0
109850.109,-131.836,-89.844,-128.418,-33.203,0.000,0
109850.113,-132.812,-89.844,-126.953,-51.270,0.000,0
109850.117,-131.348,-80.566,-137.207,-48.828,0.000,0
109850.121,-128.906,-91.797,-148.926,-44.922,0.000,0
109850.125,-116.699,-96.680,-144.043,-46.875,0.000,0
109850.129,-124.512,-96.191,-141.113,-53.223,0.000,0
109850.133,-121.094,-93.262,-165.527,-38.086,0.000,0
109850.137,-105.957,-96.680,-179.688,-41.504,0.000,0
109850.141,-122.070,-104.980,-150.879,-64.941,0.000,0
109850.145,-123.535,-94.727,-140.137,-50.293,0.000,0
109850.148,-112.305,-85.449,-152.832,-22.461,0.000,0
109850.152,-107.910,-89.844,-152.832,-37.109,0.000,0
109850.156,-105.957,-87.402,-145.020,-43.457,0.000,0
109850.160,-96.191,-85.449,-125.488,-44.922,0.000,0
109850.164,-89.844,-80.566,-131.348,-45.898,0.000,0
109850.168,-86.426,-85.449,-149.902,-32.227,0.000,0
109850.172,-80.566,-85.938,-132.324,-28.320,0.000,0
109850.176,-76.660,-79.102,-113.770,-20.508,0.000,0
109850.180,-91.797,-86.914,-113.281,-29.785,0.000,0
109850.184,-101.074,-87.891,-135.742,-36.621,0.000,0
109850.188,-85.449,-81.055,-130.859,-32.715,0.000,0
109850.191,-78.125,-75.684,-101.562,-30.762,0.000,0
109850.195,-71.289,-77.637,-102.051,-28.809,0.000,0
109850.199,-71.777,-84.961,-115.234,-39.551,0.000,0
109850.203,-69.336,-78.125,-95.703,-42.480,0.000,0
109850.207,-70.801,-78.125,-85.449,-34.180,0.000,0
109850.211,-64.941,-84.961,-110.352,-39.062,0.000,0
109850.215,-58.105,-82.031,-127.930,-47.363,0.000,0
109850.219,-62.012,-73.242,-88.867,-20.508,0.000,0
109850.223,-53.711,-73.730,-72.266,-5.859,0.000,0
109850.227,-50.293,-85.938,-85.938,-29.785,0.000,0
109850.230,-63.477,-81.543,-99.609,-40.527,0.000,0
109850.234,-72.754,-79.590,-112.793,-40.527,0.000,0
109850.238,-65.430,-83.008,-75.195,-38.086,0.000,0
109850.242,-52.734,-78.125,-77.637,-36.133,0.000,0
109850.246,-69.336,-88.867,-109.863,-51.270,0.000,0
109850.250,-60.059,-76.660,-96.191,-39.062,0.000,0
109850.254,-57.617,-77.637,-96.680,-42.969,0.000,0
109850.258,-53.223,-91.309,-100.586,-54.688,0.000,0
109850.262,-38.574,-78.613,-114.746,-31.250,0.000,0
109850.266,-49.316,-77.148,-103.027,-28.320,0.000,0
109850.270,-59.082,-82.520,-79.102,-41.016,0.000,0
109850.273,-65.430,-80.566,-83.008,-37.598,0.000,0
109850.277,-44.922,-70.312,-87.891,-24.414,0.000,0
109850.281,-48.828,-74.219,-137.695,-34.180,0.000,0
109850.285,-62.500,-84.961,-144.531,-39.062,0.000,0
109850.289,-58.594,-81.055,-124.512,-43.457,0.000,0
109850.293,-53.711,-76.660,-125.977,-39.551,0.000,0
109850.297,-73.242,-85.449,-125.000,-43.945,0.000,0
109850.301,-84.473,-85.449,-125.977,-49.316,0.000,0
109850.305,-79.590,-80.078,-132.812,-47.363,0.000,0
109850.309,-76.660,-83.008,-139.648,-45.898,0.000,0
109850.313,-82.520,-84.961,-153.320,-36.133,0.000,0
109850.316,-81.543,-88.379,-166.504,-46.875,0.000,0
109850.320,-76.172,-97.656,-165.527,-52.246,0.000,0
109850.324,-78.125,-85.938,-155.762,-37.109,0.000,0
109850.328,-66.406,-73.730,-153.320,-31.738,0.000,0
109850.332,-80.078,-90.332,-196.289,-45.898,0.000,0
109850.336,-99.121,-86.914,-204.590,-61.523,0.000,0
109850.340,-76.660,-69.824,-158.691,-55.176,0.000,0
109850.344,-45.410,-62.988,-158.203,-30.762,0.000,0
109850.348,-50.293,-60.547,-182.129,-21.973,0.000,0
109850.352,-102.539,-71.777,-208.496,-56.641,0.000,0
109850.355,-99.121,-78.125,-192.871,-69.336,0.000,0
109850.359,-82.031,-73.730,-183.105,-45.410,0.000,0
109850.363,-90.820,-65.918,-228.516,-48.828,0.000,0
109850.367,-82.520,-64.453,-236.328,-56.641,0.000,0
109850.371,-82.031,-64.453,-220.703,-55.176,0.000,0
109850.375,-99.121,-75.195,-221.191,-77.637,0.000,0
109850.379,-97.168,-72.266,-250.488,-78.125,0.000,0
109850.383,-101.562,-71.777,-298.340,-72.266,0.000,0
109850.387,-108.887,-89.355,-295.898,-79.102,0.000,0
109850.391,-100.098,-88.867,-269.043,-69.824,0.000,0
109850.395,-99.609,-89.844,-247.070,-76.172,0.000,0
109850.398,-105.957,-89.844,-238.770,-76.660,0.000,0
109850.402,-99.609,-89.355,-224.609,-63.965,0.000,0
109850.406,-101.562,-87.402,-212.402,-74.219,0.000,0
109850.410,-109.375,-82.031,-229.492,-68.848,0.000,0
109850.414,-93.262,-89.844,-220.215,-71.777,0.000,0
109850.418,-78.125,-85.449,-182.617,-75.195,0.000,0
109850.422,-81.543,-78.125,-171.387,-57.617,0.000,0
109850.426,-74.219,-76.172,-177.734,-47.363,0.000,0
109850.430,-75.195,-81.543,-160.645,-45.898,0.000,0
109850.434,-93.262,-94.727,-141.602,-53.223,0.000,0
109850.438,-88.867,-91.309,-143.066,-45.410,0.000,0
109850.441,-66.895,-87.891,-123.535,-44.922,0.000,0
109850.445,-68.359,-86.914,-118.652,-38.086,0.000,0
109850.449,-67.383,-79.102,-122.559,-15.137,0.000,0
109850.453,-55.664,-84.473,-111.328,-34.180,0.000,0
109850.457,-52.246,-91.797,-94.727,-46.875,0.000,0
109850.461,-57.617,-93.750,-104.980,-32.715,0.000,0
109850.465,-68.359,-95.215,-124.512,-33.691,0.000,0
109850.469,-60.059,-93.262,-125.977,-37.109,0.000,0
109850.473,-52.734,-90.820,-93.750,-26.855,0.000,0
109850.477,-47.363,-89.355,-78.125,-20.996,0.000,0
109850.480,-60.059,-88.867,-104.980,-33.203,0.000,0
109850.484,-61.035,-86.426,-106.934,-44.922,0.000,0
109850.488,-51.270,-85.938,-98.633,-38.086,0.000,0
109850.492,-58.105,-90.820,-107.910,-29.785,0.000,0
109850.496,-56.641,-89.355,-122.070,-36.133,0.000,0
109850.500,-50.781,-82.031,-130.859,-33.203,0.000,0
109850.504,-51.270,-74.219,-104.492,-23.438,0.000,0
109850.508,-47.852,-81.055,-101.074,-29.297,0.000,0
109850.512,-41.992,-88.379,-114.746,-42.969,0.000,0
109850.516,-62.500,-89.844,-126.953,-39.062,0.000,0
109850.520,-66.406,-92.773,-127.930,-33.203,0.000,0
109850.523,-55.664,-91.309,-122.559,-50.293,0.000,0
109850.527,-50.781,-87.891,-137.207,-34.180,0.000,0
109850.531,-51.270,-81.055,-131.836,-26.367,0.000,0
109850.535,-60.547,-87.402,-111.816,-32.715,0.000,0
109850.539,-66.406,-90.820,-120.117,-38.086,0.000,0
109850.543,-53.223,-79.590,-130.371,-34.180,0.000,0
109850.547,-41.992,-73.730,-140.137,-12.695,0.000,0
109850.551,-50.293,-73.242,-119.141,-15.625,0.000,0
109850.555,-57.129,-76.660,-84.961,-37.598,0.000,0
109850.559,-57.129,-81.055,-96.191,-43.945,0.000,0
109850.563,-59.570,-86.426,-125.488,-40.527,0.000,0
109850.566,-58.105,-85.449,-142.090,-34.668,0.000,0
109850.570,-60.059,-84.961,-130.371,-24.414,0.000,0
109850.574,-68.848,-90.820,-119.629,-34.668,0.000,0
109850.578,-67.871,-83.008,-121.582,-32.227,0.000,0
109850.582,-70.801,-81.543,-139.648,-31.738,0.000,0
109850.586,-71.289,-85.938,-149.414,-38.574,0.000,0
109850.590,-62.012,-77.637,-139.160,-32.715,0.000,0
109850.594,-74.707,-73.730,-127.441,-40.039,0.000,0
109850.598,-70.312,-78.125,-146.484,-39.551,0.000,0
109850.602,-59.082,-76.660,-152.832,-29.297,0.000,0
109850.605,-54.199,-72.266,-133.789,-30.762,0.000,0
109850.609,-58.105,-80.566,-124.512,-40.039,0.000,0
109850.613,-64.941,-85.449,-124.023,-47.363,0.000,0
109850.617,-44.434,-73.242,-161.133,-41.016,0.000,0
109850.621,-37.109,-64.453,-150.391,-34.180,0.000,0
109850.625,-61.035,-67.383,-140.137,-41.016,0.000,0
109850.629,-68.848,-71.777,-170.410,-41.016,0.000,0
109850.633,-58.594,-77.637,-175.781,-44.922,0.000,0
109850.637,-65.430,-84.473,-170.898,-47.363,0.000,0
109850.641,-63.965,-79.590,-145.996,-35.156,0.000,0
109850.645,-61.035,-77.637,-132.812,-24.902,0.000,0
109850.648,-61.523,-72.754,-176.270,-29.785,0.000,0
109850.652,-49.316,-73.242,-157.227,-47.852,0.000,0
109850.656,-58.594,-77.637,-120.117,-48.828,0.000,0
109850.660,-60.547,-74.707,-130.859,-44.434,0.000,1
109850.664,-55.664,-74.219,-148.926,-49.805,0.000,0
109850.668,-65.918,-76.660,-157.227,-54.688,0.000,0
109850.672,-74.219,-77.637,-114.746,-53.711,0.000,0
109850.676,-76.660,-73.242,-101.074,-56.641,0.000,0
109850.680,-73.730,-67.871,-138.672,-50.293,0.000,0
109850.684,-62.012,-64.453,-140.137,-37.598,0.000,0
109850.688,-49.805,-68.848,-101.562,-33.691,0.000,0
109850.691,-58.594,-81.055,-101.562,-46.387,0.000,0
109850.695,-61.523,-78.125,-123.535,-45.410,0.000,0
109850.699,-53.223,-64.941,-113.281,-21.484,0.000,0
109850.703,-62.500,-74.219,-93.262,-25.879,0.000,0
109850.707,-57.617,-87.402,-109.375,-40.039,0.000,0
109850.711,-38.574,-80.566,-98.633,-27.344,0.000,0
109850.715,-44.434,-70.312,-90.820,-15.625,0.000,0
109850.719,-51.270,-70.312,-111.816,-22.949,0.000,0
109850.723,-50.781,-80.566,-90.820,-25.391,0.000,0
109850.727,-53.223,-77.148,-102.051,-24.902,0.000,0
109850.730,-55.664,-81.055,-103.516,-34.180,0.000,0
109850.734,-52.246,-80.078,-80.078,-41.504,0.000,0
109850.738,-48.340,-69.336,-83.496,-28.320,0.000,0
109850.742,-53.223,-71.777,-87.891,-15.625,0.000,0
109850.746,-40.527,-74.219,-102.539,-11.230,0.000,0
109850.750,-40.039,-80.566,-92.285,-15.625,0.000,0
109850.754,-58.594,-86.426,-82.520,-39.062,0.000,0
109850.758,-56.152,-82.031,-94.727,-46.387,0.000,0
109850.762,-48.340,-77.148,-94.727,-29.785,0.000,0
109850.766,-41.016,-77.148,-96.191,-13.672,0.000,0
109850.770,-52.246,-79.590,-79.102,-13.672,0.000,0
109850.773,-61.523,-81.055,-65.430,-31.250,0.000,0
109850.777,-58.594,-80.566,-79.102,-27.832,0.000,0
109850.781,-38.086,-80.078,-85.938,-15.137,0.000,0
109850.785,-30.762,-82.031,-86.914,-18.555,0.000,0
109850.789,-42.969,-73.730,-59.082,-20.996,0.000,0
109850.793,-43.945,-67.383,-32.715,-31.738,0.000,0
109850.797,-41.504,-61.523,-59.082,-41.992,0.000,0
109850.801,-38.086,-64.453,-75.195,-52.734,0.000,0
109850.805,-23.926,-69.336,-53.223,-37.109,0.000,0
109850.809,-17.090,-64.453,-46.387,-28.320,0.000,0
109850.813,-33.691,-67.871,-58.105,-37.109,0.000,0
109850.816,-41.504,-67.383,-72.754,-34.180,0.000,0
109850.820,-47.363,-71.777,-58.105,-45.410,0.000,0
109850.824,-46.875,-67.871,-25.879,-52.246,0.000,0
109850.828,-43.457,-72.266,-59.570,-41.992,0.000,0
109850.832,-43.945,-85.938,-88.379,-44.922,0.000,0
109850.836,-47.363,-85.938,-65.430,-44.434,0.000,0
109850.840,-46.875,-78.613,-39.551,-31.250,0.000,0
109850.844,-35.645,-69.824,-66.895,-16.113,0.000,0
109850.848,-24.414,-70.801,-73.730,-17.578,0.000,0
109850.852,-25.879,-74.219,-49.316,-27.832,0.000,0
109850.855,-29.785,-68.848,-64.453,-22.949,0.000,0
109850.859,-19.043,-62.988,-65.430,-4.395,0.000,0
109850.863,-33.691,-68.848,-88.379,-16.113,0.000,0
109850.867,-23.438,-58.105,-78.613,-9.766,0.000,0
109850.871,-0.977,-36.133,-30.762,13.672,0.000,0
109850.875,-29.297,-47.363,-69.336,-6.836,0.000,0
109850.879,-43.457,-59.082,-112.305,-12.695,0.000,0
109850.883,-32.715,-66.895,-127.441,-15.137,0.000,0
109850.887,-17.090,-54.199,-112.793,-20.020,0.000,0
109850.891,-17.578,-34.180,-84.473,-3.906,0.000,0
109850.895,-7.324,-31.250,-96.680,-7.324,0.000,0
109850.898,-21.484,-36.133,-127.930,-34.668,0.000,0
109850.902,-45.898,-39.062,-139.648,-47.852,0.000,0
109850.906,-17.578,-31.250,-120.117,-36.133,0.000,0
109850.910,-24.414,-34.668,-112.305,-38.086,0.000,0
109850.914,-31.250,-30.273,-147.461,-41.992,0.000,0
109850.918,-31.738,-33.203,-153.320,-40.039,0.000,0
109850.922,-51.758,-42.969,-143.555,-47.852,0.000,0
109850.926,-40.039,-42.480,-138.184,-49.805,0.000,0
109850.930,-50.293,-43.457,-134.277,-47.852,0.000,0
109850.934,-56.152,-42.480,-143.066,-42.969,0.000,0
109850.938,-50.293,-47.363,-130.371,-47.852,0.000,0
109850.941,-51.758,-44.434,-114.258,-39.551,0.000,0
109850.945,-52.246,-42.969,-143.066,-30.273,0.000,0
109850.949,-57.617,-57.617,-147.461,-54.199,0.000,0
109850.953,-61.035,-53.711,-134.766,-58.105,0.000,0
109850.957,-62.012,-51.758,-147.461,-51.758,0.000,0
109850.961,-44.434,-48.828,-149.414,-36.133,0.000,0
109850.965,-40.527,-44.434,-153.809,-37.598,0.000,0
109850.969,-31.738,-53.711,-138.184,-51.270,0.000,0
109850.973,-36.133,-57.129,-124.512,-50.293,0.000,0
109850.977,-64.941,-61.035,-154.785,-70.312,0.000,0
109850.980,-50.781,-55.176,-169.434,-61.035,0.000,0
109850.984,-34.180,-50.293,-155.273,-48.828,0.000,0
109850.988,-46.387,-58.105,-144.043,-59.570,0.000,0
109850.992,-40.039,-63.477,-156.250,-57.129,0.000,0
109850.996,-42.480,-68.848,-172.363,-59.082,0.000,0
109851.000,-49.316,-69.336,-186.523,-65.430,0.000,0
109851.004,-47.852,-63.477,-167.969,-56.641,0.000,0
109851.008,-45.898,-62.988,-139.648,-65.918,0.000,0
109851.012,-52.734,-73.730,-174.805,-78.613,0.000,0
109851.016,-74.219,-77.637,-195.312,-71.777,0.000,0
109851.020,-54.199,-67.383,-161.621,-61.035,0.000,0
109851.023,-45.410,-63.477,-159.668,-62.500,0.000,0
109851.027,-75.684,-68.848,-166.992,-78.613,0.000,0
109851.031,-71.777,-69.824,-172.852,-75.684,0.000,0
109851.035,-59.570,-67.383,-165.527,-64.453,0.000,0
109851.039,-73.242,-70.801,-146.484,-69.824,0.000,0
109851.043,-75.195,-74.219,-154.785,-80.566,0.000,0
109851.047,-53.223,-70.801,-154.785,-70.312,0.000,0
109851.051,-38.574,-73.242,-143.555,-62.500,0.000,0
109851.055,-65.918,-83.008,-129.395,-75.195,0.000,0
109851.059,-69.824,-74.707,-138.184,-61.523,0.000,0
109851.063,-43.457,-68.359,-150.879,-46.875,0.000,0
109851.066,-48.340,-66.406,-122.070,-64.453,0.000,0
109851.070,-66.895,-64.453,-106.445,-73.242,0.000,0
109851.074,-55.176,-70.801,-115.723,-78.613,0.000,0
109851.078,-49.316,-79.590,-141.113,-70.312,0.000,0
109851.082,-55.176,-90.820,-151.367,-60.547,0.000,0
109851.086,-50.781,-98.633,-108.398,-67.871,0.000,0
109851.090,-48.340,-88.379,-91.309,-58.594,0.000,0
109851.094,-49.805,-80.566,-120.605,-37.109,0.000,0
109851.098,-47.363,-81.543,-112.793,-39.551,0.000,0
109851.102,-47.852,-84.961,-100.586,-53.711,0.000,0
109851.105,-46.387,-84.961,-65.918,-44.434,0.000,0
109851.109,-49.805,-81.055,-73.242,-34.668,0.000,0
109851.113,-46.875,-82.031,-108.398,-28.809,0.000,0
109851.117,-34.180,-80.566,-75.195,-16.602,0.000,0
109851.121,-30.762,-89.355,-62.988,-28.809,0.000,0
109851.125,-42.969,-92.773,-86.426,-37.598,0.000,0
109851.129,-45.898,-86.914,-91.797,-31.250,0.000,0
109851.133,-47.852,-99.121,-91.797,-38.086,0.000,0
109851.137,-53.223,-107.422,-76.660,-56.152,0.000,0
109851.141,-50.781,-95.703,-58.105,-47.852,0.000,0
109851.145,-40.527,-90.820,-86.426,-30.762,0.000,0
109851.148,-41.504,-93.750,-94.238,-38.086,0.000,0
109851.152,-42.480,-97.168,-75.684,-51.270,0.000,0
109851.156,-43.457,-101.074,-77.148,-50.781,0.000,0
109851.160,-46.875,-95.215,-98.145,-38.086,0.000,0
109851.164,-41.992,-95.703,-85.938,-42.969,0.000,0
109851.168,-38.086,-98.633,-72.266,-43.457,0.000,0
109851.172,-46.387,-94.238,-86.914,-44.434,0.000,0
109851.176,-38.574,-83.984,-97.168,-37.109,0.000,0
109851.180,-28.809,-79.590,-102.539,-28.320,0.000,0
109851.184,-32.715,-91.309,-84.961,-41.016,0.000,0
109851.188,-48.828,-96.191,-79.102,-49.316,0.000,0
109851.191,-51.270,-90.332,-89.844,-51.270,0.000,0
109851.195,-44.434,-86.914,-102.051,-33.691,0.000,0
109851.199,-53.711,-93.262,-125.000,-38.574,0.000,0
109851.203,-51.758,-86.426,-97.168,-38.574,0.000,0
109851.207,-41.992,-78.125,-89.355,-31.738,0.000,0
109851.211,-49.805,-80.078,-121.094,-51.270,0.000,0
109851.215,-44.922,-75.684,-114.746,-51.270,0.000,0
109851.219,-32.715,-68.359,-86.426,-39.551,0.000,0
109851.223,-40.527,-75.195,-81.543,-45.410,0.000,0
109851.227,-47.852,-88.379,-109.863,-59.570,0.000,0
109851.230,-32.715,-77.637,-116.211,-40.039,0.000,0
109851.234,-30.273,-70.801,-95.215,-25.879,0.000,0
109851.238,-48.340,-76.172,-73.242,-38.574,0.000,0
109851.242,-28.809,-74.219,-69.824,-43.457,0.000,0
109851.246,-32.715,-72.266,-103.516,-39.062,0.000,0
109851.250,-45.898,-74.707,-116.699,-41.016,0.000,0
109851.254,-34.668,-77.148,-96.191,-40.527,0.000,0
109851.258,-39.062,-80.078,-88.867,-33.203,0.000,0
109851.262,-41.016,-80.078,-116.211,-39.062,0.000,1
109851.266,-30.762,-75.684,-115.723,-37.598,0.000,0
109851.270,-35.156,-66.895,-65.918,-21.484,0.000,0
109851.273,-34.668,-68.359,-69.824,-28.320,0.000,0
109851.277,-10.254,-76.172,-110.352,-43.457,0.000,0
109851.281,-40.527,-80.566,-105.469,-48.340,0.000,0
109851.285,-61.035,-83.984,-80.078,-51.758,0.000,0
109851.289,-36.133,-77.148,-77.148,-44.922,0.000,0
109851.293,-29.297,-69.824,-115.723,-34.180,0.000,0
109851.297,-39.551,-72.754,-118.164,-34.668,0.000,0
109851.301,-35.645,-80.078,-81.055,-40.527,0.000,0
109851.305,-33.203,-85.449,-79.102,-44.434,0.000,0
109851.309,-27.344,-74.707,-111.816,-24.902,0.000,0
109851.313,-28.809,-73.242,-132.812,-34.668,0.000,0
109851.316,-42.969,-84.473,-113.770,-44.434,0.000,0
109851.320,-21.484,-74.219,-85.938,-28.320,0.000,0
109851.324,-6.836,-69.336,-90.332,-28.320,0.000,0
109851.328,-33.203,-68.359,-110.352,-26.367,0.000,0
109851.332,-33.691,-65.918,-105.469,-22.949,0.000,0
109851.336,-34.668,-65.918,-100.098,-19.531,0.000,0
109851.340,-31.250,-63.477,-90.332,-30.762,0.000,0
109851.344,-31.738,-72.266,-95.215,-42.969,0.000,0
109851.348,-34.668,-67.871,-125.000,-40.039,0.000,0
109851.352,-20.508,-55.664,-117.188,-35.645,0.000,0
109851.355,-12.695,-52.734,-92.773,-26.367,0.000,0
109851.359,-14.648,-54.199,-83.496,-19.043,0.000,0
109851.363,-26.367,-61.523,-97.168,-33.203,0.000,0
109851.367,-28.320,-55.664,-97.168,-42.480,0.000,0
109851.371,-22.949,-53.223,-93.262,-25.391,0.000,0
109851.375,-20.996,-56.152,-103.027,-22.949,0.000,0
109851.379,-22.949,-50.781,-103.027,-32.715,0.000,0
109851.383,-23.438,-55.664,-106.934,-35.156,0.000,0
109851.387,-22.461,-54.688,-93.750,-26.367,0.000,0
109851.391,-7.324,-52.246,-88.379,-18.555,0.000,0
109851.395,-17.090,-49.316,-112.305,-19.043,0.000,0
109851.398,-25.391,-47.363,-110.352,-27.832,0.000,0
109851.402,-17.090,-57.617,-79.590,-34.668,0.000,0
109851.406,-21.484,-50.781,-76.172,-31.738,0.000,0
109851.410,-22.949,-45.410,-98.633,-20.020,0.000,0
109851.414,-18.066,-54.688,-99.121,-26.367,0.000,0
109851.418,-23.438,-60.547,-81.055,-44.922,0.000,0
109851.422,-26.367,-58.105,-79.590,-43.945,0.000,0
109851.426,-23.438,-50.781,-94.727,-27.832,0.000,0
109851.430,-34.180,-56.641,-117.676,-34.180,0.000,0
109851.434,-35.156,-54.199,-104.492,-34.668,0.000,0
109851.438,-28.320,-56.641,-90.332,-38.574,0.000,0
109851.441,-20.996,-62.012,-94.727,-41.016,0.000,0
109851.445,-15.625,-48.828,-104.980,-20.508,0.000,0
109851.449,-30.273,-48.828,-101.074,-14.648,0.000,0
109851.453,-35.645,-61.035,-100.098,-32.715,0.000,0
109851.457,-24.414,-61.035,-108.887,-40.527,0.000,0
109851.461,-19.531,-56.152,-91.797,-25.879,0.000,0
109851.465,-28.809,-56.152,-98.145,-32.715,0.000,0
109851.469,-34.180,-56.152,-113.281,-44.434,0.000,0
109851.473,-25.391,-49.316,-87.402,-20.508,0.000,0
109851.477,-9.766,-46.875,-111.816,-19.531,0.000,0
109851.480,-15.625,-55.176,-103.027,-33.203,0.000,0
109851.484,-39.551,-57.617,-90.820,-34.668,0.000,0
109851.488,-45.410,-58.594,-122.559,-32.227,0.000,0
109851.492,-41.504,-66.406,-125.000,-35.645,0.000,0
109851.496,-18.555,-56.641,-108.398,-28.809,0.000,0
109851.500,-13.184,-48.340,-86.426,-24.414,0.000,0
109851.504,-19.531,-51.270,-89.844,-15.137,0.000,0
109851.508,-19.531,-47.852,-99.121,-15.137,0.000,0
109851.512,-23.438,-51.270,-111.816,-21.484,0.000,0
109851.516,-24.902,-57.129,-108.887,-17.090,0.000,0
109851.520,-25.879,-55.664,-79.590,-17.578,0.000,0
109851.523,-11.719,-49.805,-73.730,-17.090,0.000,0
109851.527,-12.695,-52.246,-90.332,-18.066,0.000,0
109851.531,-20.020,-62.988,-120.605,-28.809,0.000,0
109851.535,-14.648,-62.988,-108.398,-27.344,0.000,0
109851.539,-13.184,-59.570,-78.125,-20.508,0.000,0
109851.543,-12.207,-50.781,-83.008,-19.043,0.000,0
109851.547,-20.508,-54.688,-111.816,-31.738,0.000,0
109851.551,-22.949,-63.965,-121.582,-30.273,0.000,0
109851.555,-8.301,-53.223,-84.473,-14.160,0.000,0
109851.559,-3.418,-55.176,-75.684,-17.090,0.000,0
109851.563,-14.648,-65.430,-104.004,-26.367,0.000,0
109851.566,-12.695,-64.453,-102.539,-21.484,0.000,0
109851.570,-7.812,-57.129,-67.383,-17.578,0.000,0
109851.574,-5.371,-58.105,-81.055,-16.113,0.000,0
109851.578,-6.348,-62.012,-114.746,-12.695,0.000,0
109851.582,-22.461,-63.477,-100.098,-22.461,0.000,0
109851.586,-27.832,-62.988,-90.820,-32.227,0.000,0
109851.590,-17.090,-55.664,-97.656,-16.602,0.000,0
109851.594,-14.160,-52.734,-106.934,-11.719,0.000,0
109851.598,-22.949,-60.547,-111.328,-33.691,0.000,0
109851.602,-28.320,-68.848,-94.238,-39.551,0.000,0
109851.605,-16.113,-64.941,-80.078,-35.645,0.000,0
109851.609,5.371,-49.805,-86.914,-36.133,0.000,0
109851.613,1.465,-52.734,-105.957,-17.578,0.000,0
109851.617,-14.160,-66.895,-93.262,-22.461,0.000,0
109851.621,-20.508,-74.707,-86.426,-37.598,0.000,0
109851.625,-21.973,-69.336,-105.469,-35.645,0.000,0
109851.629,-27.832,-62.012,-110.840,-30.273,0.000,0
109851.633,-21.973,-54.688,-102.539,-26.367,0.000,0
109851.637,-15.137,-60.059,-93.750,-36.621,0.000,0
109851.641,-18.555,-65.430,-80.566,-37.598,0.000,0
109851.645,-18.555,-51.270,-86.426,-22.461,0.000,0
109851.648,-19.043,-51.758,-101.562,-10.254,0.000,0
109851.652,-19.531,-60.059,-91.309,-11.719,0.000,0
109851.656,-19.043,-67.383,-80.078,-24.414,0.000,0
109851.660,-11.230,-62.500,-79.102,-17.090,0.000,0
109851.664,-17.578,-53.711,-101.074,-2.930,0.000,0
109851.668,-15.137,-62.988,-105.469,-13.184,0.000,0
109851.672,-2.441,-67.871,-72.266,-15.625,0.000,0
109851.676,-15.137,-62.500,-79.102,-11.719,0.000,0
109851.680,-26.367,-63.477,-104.492,-25.391,0.000,0
109851.684,-28.320,-59.570,-98.633,-31.250,0.000,0
109851.688,-29.297,-51.270,-78.613,-26.367,0.000,0
109851.691,-22.461,-51.270,-96.680,-14.160,0.000,0
109851.695,-24.414,-50.781,-108.398,-7.812,0.000,0
109851.699,-16.602,-53.711,-94.238,-15.137,0.000,0
109851.703,-14.160,-58.105,-96.191,-7.324,0.000,0
109851.707,-24.414,-52.246,-85.938,-0.977,0.000,0
109851.711,-21.973,-48.340,-105.469,-3.418,0.000,0
109851.715,-24.902,-51.270,-120.605,-8.301,0.000,0
109851.719,-24.414,-51.270,-71.777,-9.766,0.000,0
109851.723,-27.344,-48.828,-57.617,-1.465,0.000,0
109851.727,-20.996,-39.551,-77.148,0.977,0.000,0
109851.730,-12.695,-30.273,-88.379,17.578,0.000,0
109851.734,-12.207,-35.645,-78.613,25.391,0.000,0
109851.738,-15.625,-46.387,-60.547,10.254,0.000,0
109851.742,-9.277,-39.551,-81.543,-2.441,0.000,0
109851.746,0.488,-24.414,-88.379,5.371,0.000,0
109851.750,-12.207,-30.762,-72.754,8.789,0.000,0
109851.754,-30.762,-37.109,-73.730,-2.441,0.000,0
109851.758,-26.367,-38.574,-69.336,-19.531,0.000,0
109851.762,-4.395,-34.180,-80.078,-9.277,0.000,0
109851.766,-10.254,-38.574,-83.008,5.371,0.000,0
109851.770,-29.297,-51.758,-86.914,-8.789,0.000,0
109851.773,-28.809,-50.293,-69.336,-4.883,0.000,0
109851.777,-17.578,-43.457,-60.059,1.953,0.000,0
109851.781,-10.742,-36.133,-81.543,-4.395,0.000,0
109851.785,-10.742,-36.133,-79.590,-7.812,0.000,0
109851.789,-11.230,-40.527,-72.754,-5.371,0.000,0
109851.793,-16.602,-38.574,-80.566,0.977,0.000,0
109851.797,-27.832,-39.062,-70.801,-2.930,0.000,0
109851.801,-38.086,-41.016,-61.523,-18.066,0.000,0
109851.805,-20.996,-37.109,-69.336,-17.578,0.000,0
109851.809,-11.719,-32.227,-73.242,-6.348,0.000,0
109851.813,-16.602,-31.250,-75.684,-6.836,0.000,0
109851.816,-7.324,-33.691,-77.148,-15.137,0.000,0
109851.820,-16.113,-41.504,-71.289,-8.301,0.000,0
109851.824,-23.438,-45.410,-71.777,-18.066,0.000,0
109851.828,-21.484,-47.852,-95.703,-10.742,0.000,0
109851.832,-12.207,-50.293,-101.562,-7.324,0.000,0
109851.836,-28.809,-59.570,-73.730,-25.879,0.000,0
109851.840,-33.203,-54.199,-57.617,-15.137,0.000,0
109851.844,-14.160,-45.410,-73.730,-9.277,0.000,0
109851.848,-33.691,-50.781,-77.637,-28.320,0.000,0
109851.852,-27.344,-44.922,-56.152,-30.762,0.000,0
109851.855,-4.883,-42.480,-37.598,-20.020,0.000,0
109851.859,-9.766,-55.664,-69.336,-24.902,0.000,0
109851.863,3.418,-55.176,-80.566,-24.414,0.000,0
109851.867,-9.766,-56.641,-56.641,-12.207,0.000,0
109851.871,-19.531,-63.965,-41.504,-18.066,0.000,0
109851.875,-18.066,-55.176,-26.367,-15.137,0.000,0
109851.879,-32.227,-42.480,-36.621,-10.254,0.000,0
109851.883,-20.996,-39.062,-17.090,-20.508,0.000,0
109851.887,-5.859,-46.875,-0.977,-12.695,0.000,0
109851.891,-14.648,-50.293,-14.160,-4.395,0.000,0
109851.895,-4.883,-50.293,7.812,-7.324,0.000,0
109851.898,-15.625,-58.105,11.230,-8.789,0.000,0
109851.902,-24.902,-61.523,5.371,-7.324,0.000,0
109851.906,-4.883,-57.129,-4.395,-4.395,0.000,0
109851.910,-6.348,-55.664,-12.207,6.836,0.000,0
109851.914,-14.160,-55.176,-0.977,1.465,0.000,0
109851.918,-5.371,-54.688,2.930,-0.977,0.000,1
109851.922,-2.441,-50.781,6.348,-8.301,0.000,0
109851.926,-13.184,-43.457,-2.441,-17.578,0.000,0
109851.930,-12.207,-42.969,-27.344,-7.324,0.000,0
109851.934,-13.184,-50.293,-20.020,-16.602,0.000,0
109851.938,-19.531,-47.852,-13.672,-16.602,0.000,0
109851.941,-18.066,-43.945,-34.668,-11.719,0.000,0
109851.945,-15.625,-40.527,-42.480,-15.137,0.000,0
109851.949,-16.602,-46.875,-49.316,-15.625,0.000,0
109851.953,-24.414,-58.594,-52.246,-23.438,0.000,0
109851.957,-13.672,-46.875,-57.617,-18.066,0.000,0
109851.961,-16.113,-42.480,-83.008,-17.578,0.000,0
109851.965,-20.508,-48.828,-92.285,-24.414,0.000,0
109851.969,-3.906,-42.480,-81.543,-21.973,0.000,0
109851.973,-15.625,-49.316,-70.801,-29.297,0.000,0
109851.977,-36.133,-51.758,-85.449,-29.297,0.000,0
109851.980,-40.039,-48.340,-129.883,-26.367,0.000,0
109851.984,-33.691,-49.316,-118.652,-25.391,0.000,0
109851.988,-27.344,-50.293,-92.773,-20.508,0.000,0
109851.992,-24.902,-47.852,-115.723,-25.391,0.000,0
109851.996,-31.250,-40.039,-129.883,-26.855,0.000,0
109852.000,-22.461,-38.086,-125.488,-25.879,0.000,0
109852.004,-20.508,-47.852,-123.535,-29.785,0.000,0
109852.008,-53.711,-58.594,-160.645,-39.062,0.000,0
109852.012,-48.340,-56.152,-160.156,-54.688,0.000,0
109852.016,-32.715,-54.688,-131.348,-46.875,0.000,0
109852.020,-42.480,-50.293,-136.230,-39.551,0.000,0
109852.023,-38.086,-44.434,-141.602,-49.805,0.000,0
109852.027,-23.438,-45.410,-153.320,-40.039,0.000,0
109852.031,-32.715,-54.688,-142.578,-42.480,0.000,0
109852.035,-38.086,-64.941,-129.883,-44.434,0.000,0
109852.039,-40.039,-64.941,-143.555,-45.410,0.000,0
109852.043,-37.109,-61.035,-153.809,-42.969,0.000,0
109852.047,-31.250,-62.012,-123.047,-31.738,0.000,0
109852.051,-43.945,-69.824,-78.125,-43.457,0.000,0
109852.055,-37.598,-63.965,-87.402,-50.293,0.000,0
109852.059,-24.902,-53.223,-104.004,-32.227,0.000,0
109852.063,-15.137,-52.734,-81.055,-19.043,0.000,0
109852.066,-20.508,-63.477,-73.730,-35.645,0.000,0
109852.070,-35.156,-81.543,-70.801,-46.387,0.000,0
109852.074,-25.391,-80.566,-66.406,-34.668,0.000,0
109852.078,-38.574,-77.148,-77.148,-21.973,0.000,0
109852.082,-37.598,-77.148,-64.941,-16.113,0.000,0
109852.086,-17.090,-67.383,-33.691,-20.508,0.000,0
109852.090,-12.695,-64.941,-27.344,-19.043,0.000,0
109852.094,-9.277,-69.336,-42.480,-13.672,0.000,0
109852.098,-4.883,-70.312,-49.316,-14.648,0.000,0
109852.102,-17.090,-71.777,-16.113,-26.367,0.000,0
109852.105,-20.508,-61.035,-5.859,-13.184,0.000,0
109852.109,-9.766,-59.082,-30.273,-5.859,0.000,0
109852.113,-9.277,-64.453,-37.109,-16.113,0.000,0
109852.117,-16.113,-58.105,-40.039,-7.324,0.000,0
109852.121,-17.578,-57.617,-33.691,-13.184,0.000,0
109852.125,-17.090,-61.035,-61.035,-30.762,0.000,0
109852.129,-28.320,-59.082,-83.496,-39.551,0.000,0
109852.133,-29.785,-54.688,-62.500,-27.344,0.000,0
109852.137,-33.203,-50.781,-43.457,-17.578,0.000,0
109852.141,-37.598,-50.781,-67.383,-15.137,0.000,0
109852.145,-33.691,-61.035,-124.023,-23.926,0.000,0
109852.148,-31.738,-64.941,-116.211,-32.715,0.000,0
109852.152,-30.273,-62.500,-81.055,-33.203,0.000,0
109852.156,-42.969,-63.965,-108.887,-45.410,0.000,0
109852.160,-35.645,-63.477,-139.648,-47.363,0.000,0
109852.164,-22.949,-56.641,-117.676,-34.668,0.000,0
109852.168,-59.082,-58.105,-116.699,-44.434,0.000,0
109852.172,-54.688,-58.594,-134.766,-41.016,0.000,0
109852.176,-47.363,-56.152,-151.855,-32.715,0.000,0
109852.180,-58.105,-62.500,-157.715,-41.016,0.000,0
109852.184,-49.805,-61.523,-140.625,-32.227,0.000,0
109852.188,-47.363,-55.664,-157.227,-36.133,0.000,0
109852.191,-48.828,-49.316,-153.809,-44.434,0.000,0
109852.195,-44.922,-48.828,-169.434,-30.273,0.000,0
109852.199,-47.852,-58.105,-178.223,-40.039,0.000,0
109852.203,-43.457,-52.734,-159.668,-45.898,0.000,0
109852.207,-49.316,-44.434,-169.922,-34.180,0.000,0
109852.211,-51.270,-45.410,-164.551,-45.410,0.000,0
109852.215,-45.898,-45.410,-152.344,-48.828,0.000,0
109852.219,-42.969,-48.828,-161.133,-47.852,0.000,0
109852.223,-41.992,-53.711,-168.945,-53.223,0.000,0
109852.227,-44.434,-48.828,-166.992,-37.598,0.000,0
109852.230,-44.434,-48.340,-157.227,-29.297,0.000,0
109852.234,-45.898,-48.828,-142.090,-44.922,0.000,0
109852.238,-34.668,-46.387,-134.766,-39.551,0.000,0
109852.242,-31.738,-47.852,-140.625,-36.621,0.000,0
109852.246,-29.297,-47.852,-143.555,-41.504,0.000,0
109852.250,-41.016,-48.828,-120.605,-47.852,0.000,0
109852.254,-39.062,-47.852,-101.562,-47.363,0.000,0
109852.258,-23.926,-50.781,-128.906,-38.086,0.000,0
109852.262,-38.574,-57.129,-140.625,-41.504,0.000,0
109852.266,-30.273,-48.340,-113.281,-30.273,0.000,0
109852.270,-25.391,-49.805,-84.473,-30.273,0.000,0
109852.273,-45.410,-52.246,-73.242,-36.621,0.000,0
109852.277,-40.039,-56.152,-112.793,-43.945,0.000,0
109852.281,-36.133,-69.336,-109.863,-49.316,0.000,0
109852.285,-32.715,-62.012,-71.289,-36.621,0.000,0
109852.289,-19.043,-56.152,-73.730,-38.086,0.000,0
109852.293,-31.250,-61.523,-104.492,-39.062,0.000,0
109852.297,-37.109,-62.988,-104.492,-18.555,0.000,0
109852.301,-31.738,-62.500,-71.289,-22.461,0.000,0
109852.305,-40.039,-62.500,-63.965,-26.855,0.000,0
109852.309,-34.180,-65.918,-75.684,-25.391,0.000,0
109852.313,-41.016,-66.895,-91.797,-33.691,0.000,0
109852.316,-56.641,-62.500,-82.031,-26.367,0.000,0
109852.320,-36.133,-57.129,-77.148,-15.625,0.000,0
109852.324,-23.438,-56.152,-110.352,-14.648,0.000,0
109852.328,-38.574,-62.988,-104.004,-37.109,0.000,0
109852.332,-38.574,-66.406,-96.191,-25.879,0.000,0
109852.336,-27.832,-62.500,-104.004,-11.719,0.000,0
109852.340,-21.973,-58.105,-109.863,-18.555,0.000,0
109852.344,-22.949,-58.105,-132.324,-16.113,0.000,0
109852.348,-37.598,-63.965,-130.371,-24.414,0.000,0
109852.352,-31.250,-63.477,-127.441,-39.551,0.000,0
109852.355,-28.320,-51.758,-127.930,-33.203,0.000,0
109852.359,-42.480,-54.688,-143.066,-24.902,0.000,0
109852.363,-38.086,-65.430,-164.551,-36.621,0.000,0
109852.367,-20.020,-63.965,-137.207,-42.480,0.000,0
109852.371,-19.043,-60.547,-130.371,-37.598,0.000,0
109852.375,-41.504,-60.547,-157.227,-42.480,0.000,0
109852.379,-50.293,-60.547,-148.926,-35.645,0.000,0
109852.383,-39.551,-62.012,-122.070,-39.551,0.000,0
109852.387,-30.762,-69.824,-104.492,-51.270,0.000,0
109852.391,-30.273,-70.312,-119.629,-36.133,0.000,0
109852.395,-45.410,-76.660,-125.000,-47.363,0.000,0
109852.398,-45.898,-69.824,-102.051,-34.180,0.000,0
109852.402,-28.320,-58.105,-75.684,-11.719,0.000,0
109852.406,-31.738,-62.500,-64.453,-18.555,0.000,0
109852.410,-39.551,-62.012,-72.754,-11.719,0.000,0
109852.414,-40.039,-68.359,-72.266,-24.414,0.000,0
109852.418,-21.973,-64.941,-41.016,-21.484,0.000,0
109852.422,-19.043,-62.500,-23.438,-10.254,0.000,0
109852.426,-45.410,-79.590,-38.574,-33.691,0.000,0
109852.430,-36.133,-76.660,-22.461,-23.926,0.000,0
109852.434,-16.602,-58.594,5.859,9.766,0.000,0
109852.438,-8.789,-49.316,14.160,10.254,0.000,0
109852.441,-8.789,-53.711,-6.348,8.789,0.000,0
109852.445,-23.926,-66.895,-3.418,-8.789,0.000,0
109852.449,-10.254,-49.805,25.391,-1.465,0.000,0
109852.453,-20.508,-51.270,7.324,0.000,0.000,0
109852.457,-38.574,-63.965,-16.113,-15.137,0.000,0
109852.461,-10.742,-45.898,-18.555,13.672,0.000,0
109852.465,4.395,-46.387,16.113,21.484,0.000,0
109852.469,-15.137,-55.664,9.277,-4.883,0.000,0
109852.473,-15.625,-52.734,-30.762,-0.977,0.000,0
109852.477,-6.836,-50.781,-35.156,2.441,0.000,0
109852.480,-11.230,-54.199,-35.156,-6.836,0.000,0
109852.484,-8.301,-51.758,-8.789,-6.836,0.000,0
109852.488,-4.395,-51.758,-24.902,-1.465,0.000,0
109852.492,-13.184,-46.387,-60.547,2.930,0.000,0
109852.496,-24.414,-46.387,-62.500,-3.906,0.000,0
109852.500,-38.086,-56.152,-67.383,-25.879,0.000,0
109852.504,-29.297,-57.617,-74.219,-23.438,0.000,0
109852.508,-17.578,-48.340,-84.961,-18.066,0.000,0
109852.512,-19.531,-41.016,-81.055,-22.461,0.000,0
109852.516,-24.414,-50.293,-83.984,-19.043,0.000,0
109852.520,-25.879,-58.594,-104.004,-26.855,0.000,0
109852.523,-29.297,-59.570,-122.559,-38.086,0.000,0
109852.527,-41.016,-56.152,-121.094,-30.273,0.000,0
109852.531,-42.480,-57.129,-125.488,-29.785,0.000,0
109852.535,-37.109,-57.129,-133.789,-32.715,0.000,0
109852.539,-27.832,-54.688,-148.926,-31.738,0.000,0
109852.543,-35.645,-58.105,-163.086,-36.133,0.000,0
109852.547,-59.082,-54.688,-149.902,-35.645,0.000,0
109852.551,-42.480,-48.828,-147.461,-38.574,0.000,0
109852.555,-31.738,-57.129,-155.273,-35.645,0.000,0
109852.559,-60.547,-57.617,-169.922,-40.039,0.000,0
109852.563,-61.523,-57.617,-193.359,-42.480,0.000,0
109852.566,-44.922,-64.941,-194.824,-56.152,0.000,0
109852.570,-55.664,-62.500,-196.289,-58.105,0.000,0
109852.574,-52.246,-60.059,-226.074,-46.875,0.000,0
109852.578,-61.523,-67.383,-242.676,-52.734,0.000,0
109852.582,-77.637,-71.289,-219.238,-69.336,0.000,0
109852.586,-67.383,-72.754,-211.426,-79.102,0.000,0
109852.590,-60.547,-61.035,-260.254,-68.359,0.000,0
109852.594,-74.707,-54.199,-276.367,-63.965,0.000,0
109852.598,-77.148,-59.570,-263.184,-51.758,0.000,0
109852.602,-76.172,-68.848,-260.254,-62.500,0.000,0
109852.605,-64.941,-63.965,-260.254,-73.730,0.000,0
109852.609,-62.988,-57.617,-276.855,-58.105,0.000,0
109852.613,-72.754,-65.430,-258.789,-63.477,0.000,0
109852.617,-68.848,-69.336,-208.496,-69.336,0.000,0
109852.621,-52.246,-64.941,-176.758,-55.664,0.000,0
109852.625,-47.363,-65.918,-165.527,-52.734,0.000,0
109852.629,-57.617,-64.453,-140.137,-53.223,0.000,0
109852.633,-41.992,-56.641,-85.449,-35.645,0.000,0
109852.637,-38.086,-61.523,-87.402,-35.645,0.000,0
109852.641,-37.109,-57.617,-99.609,-26.855,0.000,0
109852.645,-32.227,-50.781,-52.734,-14.160,0.000,0
109852.648,-34.668,-56.641,-30.273,-11.719,0.000,2
109852.652,-21.484,-55.176,-24.414,-9.277,0.000,0
109852.656,-18.066,-55.664,-26.855,-12.695,0.000,0
109852.660,-25.879,-55.176,-14.648,-7.812,0.000,0
109852.664,-8.789,-51.758,11.719,-3.418,0.000,0
109852.668,-11.719,-51.270,-1.465,-5.371,0.000,0
109852.672,-15.625,-51.758,-11.719,-4.883,0.000,0
109852.676,-16.602,-53.711,-11.230,-2.441,0.000,0
109852.680,-37.598,-62.988,1.953,-5.371,0.000,0
109852.684,-33.691,-66.406,26.855,-1.953,0.000,0
109852.688,-20.020,-65.430,16.602,3.418,0.000,0
109852.691,-16.113,-64.941,-5.371,3.906,0.000,0
109852.695,-20.508,-66.895,-17.090,-10.742,0.000,0
109852.699,-32.227,-70.801,-10.254,-24.902,0.000,0
109852.703,-25.391,-68.848,7.324,-15.625,0.000,0
109852.707,-20.020,-64.453,0.488,-2.930,0.000,0
109852.711,-39.551,-69.336,-39.062,-12.695,0.000,0
109852.715,-24.902,-60.059,-20.508,0.977,0.000,0
109852.719,-27.832,-48.828,10.254,2.441,0.000,0
109852.723,-35.645,-55.176,-15.625,-8.789,0.000,0
109852.727,-7.812,-49.805,-41.992,4.883,0.000,0
109852.730,-15.625,-60.059,-64.941,-16.602,0.000,0
109852.734,-47.852,-69.336,-64.453,-33.691,0.000,0
109852.738,-29.297,-57.617,-56.641,-21.484,0.000,0
109852.742,-39.062,-67.871,-80.566,-27.344,0.000,0
109852.746,-56.641,-67.871,-80.566,-34.668,0.000,0
109852.750,-40.527,-60.059,-56.641,-17.090,0.000,0
109852.754,-38.574,-66.406,-75.684,-15.137,0.000,0
109852.758,-31.250,-70.312,-117.676,-23.438,0.000,0
109852.762,-28.320,-70.801,-102.539,-31.250,0.000,0
109852.766,-37.598,-65.430,-83.984,-29.297,0.000,0
109852.770,-36.621,-62.012,-87.402,-24.902,0.000,0
109852.773,-37.598,-64.453,-98.145,-27.832,0.000,0
109852.777,-38.574,-65.918,-117.188,-16.602,0.000,0
109852.781,-58.105,-81.543,-97.656,-36.621,0.000,0
109852.785,-45.898,-75.195,-92.773,-43.945,0.000,0
109852.789,-30.762,-66.895,-111.816,-34.668,0.000,0
109852.793,-41.016,-65.918,-104.980,-28.320,0.000,0
109852.797,-32.227,-59.570,-78.613,-12.695,0.000,0
109852.801,-36.133,-70.312,-83.984,-29.785,0.000,0
109852.805,-48.828,-70.312,-98.633,-34.180,0.000,0
109852.809,-46.875,-65.430,-105.957,-21.973,0.000,0
109852.813,-46.875,-66.895,-90.332,-25.879,0.000,0
109852.816,-45.410,-71.289,-91.797,-23.438,0.000,0
109852.820,-30.762,-62.988,-70.312,-28.809,0.000,0
109852.824,-24.414,-53.223,-75.684,-22.461,0.000,0
109852.828,-34.668,-68.359,-119.629,-21.973,0.000,0
109852.832,-37.598,-66.895,-86.426,-28.809,0.000,0
109852.836,-28.809,-56.641,-70.312,-25.879,0.000,0
109852.840,-17.090,-54.688,-78.613,-14.648,0.000,0
109852.844,-29.297,-56.641,-64.453,-18.555,0.000,0
109852.848,-37.598,-69.336,-90.820,-31.250,0.000,0
109852.852,-23.438,-72.754,-93.750,-23.926,0.000,0
109852.855,-21.484,-71.289,-85.938,-19.043,0.000,0
109852.859,-32.227,-73.242,-103.027,-34.668,0.000,0
109852.863,-15.137,-65.430,-92.285,-30.762,0.000,0
109852.867,-0.977,-59.082,-80.566,-20.020,0.000,0
109852.871,-22.461,-54.688,-82.031,-7.324,0.000,0
109852.875,-27.344,-55.176,-107.910,-8.789,0.000,0
109852.879,-21.484,-58.105,-108.887,-25.391,0.000,0
109852.883,-29.785,-61.523,-91.309,-39.062,0.000,0
109852.887,-20.508,-65.430,-93.750,-37.109,0.000,0
109852.891,-17.578,-60.547,-118.652,-26.367,0.000,0
109852.895,-26.855,-60.059,-124.512,-37.109,0.000,0
109852.898,-22.949,-52.734,-93.750,-24.902,0.000,0
109852.902,-26.367,-44.922,-80.566,-13.672,0.000,0
109852.906,-34.668,-51.270,-117.188,-28.809,0.000,0
109852.910,-30.273,-60.547,-129.395,-41.016,0.000,0
109852.914,-38.574,-62.500,-109.375,-34.668,0.000,0
109852.918,-40.527,-66.406,-91.797,-30.762,0.000,0
109852.922,-35.645,-69.824,-98.145,-45.898,0.000,0
109852.926,-33.203,-63.965,-130.859,-41.016,0.000,0
109852.930,-25.391,-62.988,-127.441,-32.227,0.000,0
109852.934,-31.738,-65.918,-92.773,-31.250,0.000,0
109852.938,-33.203,-60.547,-96.191,-31.250,0.000,0
109852.941,-23.438,-56.152,-98.145,-32.227,0.000,0
109852.945,-29.785,-54.199,-87.402,-38.574,0.000,0
109852.949,-16.602,-53.711,-103.027,-37.598,0.000,0
109852.953,-13.672,-55.664,-113.281,-30.273,0.000,0
109852.957,-22.461,-55.176,-103.516,-29.297,0.000,0
109852.961,-10.742,-50.293,-80.566,-27.832,0.000,0
109852.965,-15.625,-54.199,-94.238,-27.832,0.000,0
109852.969,-20.020,-62.500,-99.609,-29.785,0.000,0
109852.973,-21.973,-66.895,-84.473,-35.645,0.000,0
109852.977,-26.855,-64.941,-84.473,-37.109,0.000,0
109852.980,-19.531,-71.289,-94.238,-40.527,0.000,0
109852.984,-13.184,-75.195,-94.727,-52.246,0.000,0
109852.988,-23.926,-66.406,-76.660,-46.875,0.000,0
109852.992,-26.855,-62.988,-84.961,-28.809,0.000,0
109852.996,-17.090,-63.965,-98.633,-37.598,0.000,0
109853.000,-20.020,-64.453,-72.266,-44.434,0.000,0
109853.004,-17.578,-58.105,-96.191,-35.645,0.000,0
109853.008,-13.184,-63.477,-117.676,-42.969,0.000,0
109853.012,-39.062,-69.824,-102.539,-55.176,0.000,0
109853.016,-41.016,-64.941,-78.613,-40.039,0.000,0
109853.020,-16.113,-58.594,-55.176,-28.809,0.000,0
109853.023,-1.465,-41.992,-64.453,-20.996,0.000,0
109853.027,-6.836,-49.316,-101.074,-14.648,0.000,0
109853.031,-12.695,-55.664,-104.980,-19.531,0.000,0
109853.035,-20.508,-55.176,-79.590,-20.996,0.000,0
109853.039,-33.203,-71.289,-78.613,-31.738,0.000,0
109853.043,-31.250,-68.359,-95.703,-27.832,0.000,0
109853.047,-32.715,-62.500,-80.078,-22.461,0.000,0
109853.051,-36.133,-62.500,-62.988,-21.484,0.000,0
109853.055,-18.555,-58.594,-86.426,-17.090,0.000,0
109853.059,-20.996,-70.312,-90.332,-22.949,0.000,0
109853.063,-25.879,-63.965,-74.219,-28.809,0.000,0
109853.066,-7.812,-49.805,-64.453,-8.789,0.000,0
109853.070,-22.949,-62.988,-93.262,-14.160,0.000,0
109853.074,-29.785,-63.965,-99.609,-29.297,0.000,0
109853.078,-21.973,-64.941,-79.102,-34.180,0.000,0
109853.082,-36.133,-71.777,-81.055,-27.344,0.000,0
109853.086,-50.781,-68.848,-81.543,-24.902,0.000,0
109853.090,-43.457,-62.500,-81.055,-35.156,0.000,0
109853.094,-38.086,-63.965,-97.656,-36.621,0.000,0
109853.098,-38.086,-68.848,-66.406,-25.391,0.000,0
109853.102,-34.668,-61.035,-52.734,-14.648,0.000,0
109853.105,-30.273,-53.223,-99.121,-18.066,0.000,0
109853.109,-25.391,-56.641,-98.633,-11.719,0.000,0
109853.113,-32.227,-61.035,-94.238,-14.648,0.000,0
109853.117,-41.016,-73.242,-84.473,-44.922,0.000,0
109853.121,-37.109,-67.383,-87.891,-44.434,0.000,0
109853.125,-23.438,-53.223,-86.426,-22.461,0.000,0
109853.129,-29.297,-67.383,-83.984,-25.391,0.000,0
109853.133,-23.438,-60.547,-82.031,-19.531,0.000,0
109853.137,-13.672,-61.523,-67.383,-26.855,0.000,0
109853.141,-29.297,-74.219,-93.750,-41.504,0.000,0
109853.145,-37.109,-65.430,-112.305,-35.645,0.000,0
109853.148,-22.461,-62.988,-66.406,-30.273,0.000,0
109853.152,-22.949,-65.430,-51.270,-26.367,0.000,0
109853.156,-23.926,-73.242,-81.055,-32.227,0.000,0
109853.160,-30.762,-74.707,-99.609,-39.062,0.000,0
109853.164,-36.133,-67.383,-87.402,-31.250,0.000,0
109853.168,-20.508,-65.918,-75.195,-24.902,0.000,0
109853.172,-14.648,-62.012,-65.430,-19.531,0.000,0
109853.176,-36.133,-70.801,-88.867,-32.227,0.000,0
109853.180,-34.668,-70.801,-87.891,-38.086,0.000,0
109853.184,-24.414,-57.617,-68.848,-28.320,0.000,0
109853.188,-20.996,-62.012,-69.824,-28.809,0.000,0
109853.191,-3.906,-54.688,-77.148,-24.902,0.000,0
109853.195,-4.395,-56.641,-71.289,-32.227,0.000,0
109853.199,-28.809,-71.777,-47.852,-44.434,0.000,0
109853.203,-22.949,-66.406,-52.734,-42.480,0.000,0
109853.207,-21.973,-59.082,-98.633,-24.414,0.000,0
109853.211,-19.531,-64.941,-106.445,-17.578,0.000,0
109853.215,-27.832,-70.801,-73.730,-27.832,0.000,0
109853.219,-33.691,-69.336,-49.316,-29.785,0.000,0
109853.223,-9.766,-57.617,-81.055,-38.086,0.000,0
109853.227,-15.137,-58.594,-109.863,-36.621,0.000,0
109853.230,-33.203,-61.035,-77.148,-28.809,0.000,0
109853.234,-20.508,-48.340,-46.387,-20.508,0.000,0
109853.238,-7.812,-47.363,-73.730,-27.344,0.000,0
109853.242,-22.461,-53.711,-85.449,-28.320,0.000,0
109853.246,-30.273,-56.641,-62.988,-23.438,0.000,0
109853.250,-22.949,-60.059,-70.801,-37.598,0.000,0
109853.254,-16.602,-52.246,-65.918,-30.762,0.000,0
109853.258,-6.836,-49.805,-70.801,-25.879,0.000,0
109853.262,-22.949,-53.223,-68.848,-38.574,0.000,0
109853.266,-25.391,-58.594,-64.453,-45.410,0.000,0
109853.270,-22.461,-62.988,-78.125,-42.969,0.000,0
109853.273,-27.832,-56.152,-75.195,-31.250,0.000,0
109853.277,-15.625,-48.828,-57.129,-15.625,0.000,0
109853.281,-12.207,-53.711,-67.383,-14.648,0.000,0
109853.285,-0.977,-60.547,-82.031,-20.020,0.000,0
109853.289,5.371,-52.246,-79.102,-3.418,0.000,0
109853.293,-18.555,-60.547,-86.426,-9.766,0.000,0
109853.297,-24.414,-62.988,-67.871,-27.344,0.000,0
109853.301,-12.695,-51.270,-51.270,-20.996,0.000,0
109853.305,-30.762,-58.105,-47.363,-36.133,0.000,0
109853.309,-20.020,-50.293,-73.730,-21.484,0.000,0
109853.313,-7.812,-42.480,-97.168,-10.742,0.000,0
109853.316,-12.207,-47.852,-58.105,-23.926,0.000,0
109853.320,-19.531,-46.875,-81.055,-17.090,0.000,0
109853.324,-39.551,-57.129,-113.770,-25.879,0.000,0
109853.328,-35.156,-57.617,-96.191,-25.879,0.000,0
109853.332,-26.855,-43.457,-70.312,-6.836,0.000,0
109853.336,-27.832,-43.945,-41.504,-18.066,0.000,0
109853.340,-34.668,-44.922,-67.871,-26.367,0.000,0
109853.344,-27.344,-46.875,-101.562,-11.230,0.000,0
109853.348,-15.137,-40.039,-79.102,-5.371,0.000,0
109853.352,-24.414,-36.133,-60.059,-8.301,0.000,0
109853.355,-32.715,-46.387,-79.590,-23.438,0.000,0
109853.359,-37.598,-50.293,-105.957,-26.367,0.000,0
109853.363,-33.691,-45.898,-67.383,-19.531,0.000,1
109853.367,-43.457,-52.734,-64.941,-35.156,0.000,0
109853.371,-32.227,-52.246,-98.633,-31.738,0.000,0
109853.375,-17.578,-44.434,-83.496,-18.066,0.000,0
109853.379,-32.715,-53.711,-84.961,-33.691,0.000,0
109853.383,-29.785,-53.223,-83.984,-29.785,0.000,0
109853.387,-14.160,-46.387,-79.590,-2.441,0.000,0
109853.391,-16.602,-49.805,-87.402,-9.766,0.000,0
109853.395,-41.992,-60.059,-85.938,-33.203,0.000,0
109853.398,-32.227,-60.547,-83.496,-32.715,0.000,0
109853.402,-23.438,-50.781,-81.543,-30.762,0.000,0
109853.406,-31.250,-54.688,-77.148,-31.250,0.000,0
109853.410,-20.996,-49.805,-86.914,-9.766,0.000,0
109853.414,-21.484,-52.734,-72.266,-14.160,0.000,0
109853.418,-29.785,-44.434,-61.035,-18.066,0.000,0
109853.422,-24.902,-40.527,-77.148,-15.137,0.000,0
109853.426,-22.949,-51.758,-98.633,-16.113,0.000,0
109853.430,-29.297,-44.434,-92.285,-9.766,0.000,0
109853.434,-27.344,-48.340,-61.523,-31.738,0.000,0
109853.438,-22.949,-45.898,-62.012,-33.203,0.000,0
109853.441,-13.672,-40.039,-85.449,-17.578,0.000,0
109853.445,-19.043,-56.641,-100.098,-23.926,0.000,0
109853.449,-11.230,-57.617,-89.844,-22.949,0.000,0
109853.453,-20.508,-61.035,-72.266,-33.691,0.000,0
109853.457,-26.367,-60.547,-64.453,-29.297,0.000,0
109853.461,-25.391,-59.082,-98.633,-25.879,0.000,0
109853.465,-37.598,-60.547,-80.566,-30.762,0.000,0
109853.469,-32.715,-52.734,-59.570,-26.855,0.000,0
109853.473,-21.973,-55.176,-72.266,-21.973,0.000,0
109853.477,-14.160,-63.477,-92.285,-21.484,0.000,0
109853.480,-15.625,-64.453,-89.844,-11.719,0.000,0
109853.484,-21.484,-57.617,-63.965,-20.996,0.000,0
109853.488,-28.320,-53.711,-76.172,-23.438,0.000,0
109853.492,-18.555,-54.199,-92.773,-25.879,0.000,0
109853.496,-25.879,-55.176,-85.938,-37.598,0.000,0
109853.500,-40.039,-56.641,-68.359,-32.227,0.000,0
109853.504,-22.949,-55.176,-72.266,-18.555,0.000,0
109853.508,-17.578,-49.805,-82.031,-19.531,0.000,0
109853.512,-32.715,-52.246,-85.449,-27.344,0.000,0
109853.516,-25.391,-49.316,-66.406,-27.832,0.000,0
109853.520,-38.574,-46.875,-60.547,-33.691,0.000,0
109853.523,-31.738,-49.316,-95.215,-25.879,0.000,0
109853.527,-16.113,-46.875,-97.168,-9.766,0.000,0
109853.531,-29.785,-41.504,-62.500,-15.625,0.000,0
109853.535,-28.320,-43.457,-74.219,-8.301,0.000,0
109853.539,-21.973,-43.945,-99.609,1.465,0.000,0
109853.543,-28.809,-44.434,-109.375,-15.625,0.000,0
109853.547,-28.809,-41.504,-72.754,-7.812,0.000,0
109853.551,-20.996,-40.527,-58.594,-11.230,0.000,0
109853.555,-29.297,-45.898,-70.801,-28.809,0.000,0
109853.559,-30.762,-48.340,-90.332,-25.391,0.000,0
109853.563,-20.020,-49.316,-91.797,-7.324,0.000,0
109853.566,-17.090,-52.734,-80.566,-5.859,0.000,0
109853.570,-15.625,-47.852,-66.895,1.465,0.000,0
109853.574,-11.230,-45.410,-64.941,3.906,0.000,0
109853.578,-32.715,-61.035,-95.215,-32.227,0.000,0
109853.582,-31.250,-57.129,-77.148,-35.156,0.000,0
109853.586,-14.648,-52.246,-71.289,-13.672,0.000,0
109853.590,-26.367,-62.012,-96.191,-12.207,0.000,0
109853.594,-20.996,-58.594,-84.473,-4.395,0.000,0
109853.598,-25.391,-57.617,-76.172,-14.648,0.000,0
109853.602,-30.273,-55.176,-72.266,-1.953,0.000,0
109853.605,-22.949,-54.199,-76.172,6.348,0.000,0
109853.609,-19.043,-56.641,-76.172,-17.090,0.000,0
109853.613,-23.926,-54.199,-70.312,-9.277,0.000,0
109853.617,-24.902,-57.129,-68.359,-12.695,0.000,0
109853.621,-30.273,-58.594,-67.871,-11.719,0.000,0
109853.625,-20.996,-51.758,-89.355,10.742,0.000,0
109853.629,-17.090,-55.176,-87.402,-3.418,0.000,0
109853.633,-29.785,-60.059,-59.082,-16.602,0.000,0
109853.637,-22.949,-56.641,-62.012,-2.441,0.000,0
109853.641,-20.508,-60.059,-92.285,-16.602,0.000,0
109853.645,-11.230,-54.199,-88.867,-25.879,0.000,0
109853.648,-9.766,-53.223,-61.035,-19.043,0.000,0
109853.652,-23.438,-68.359,-66.406,-35.156,0.000,0
109853.656,-24.902,-65.430,-84.473,-36.133,0.000,0
109853.660,-30.762,-60.059,-85.938,-28.320,0.000,0
109853.664,-44.434,-74.707,-95.215,-44.434,0.000,0
109853.668,-47.852,-67.871,-73.730,-41.504,0.000,0
109853.672,-27.832,-53.223,-63.965,-23.926,0.000,0
109853.676,-20.508,-53.711,-86.914,-9.277,0.000,0
109853.680,-22.949,-51.758,-80.566,-3.906,0.000,0
109853.684,-24.902,-52.246,-65.918,-8.301,0.000,0
109853.688,-23.438,-53.223,-71.289,-9.766,0.000,0
109853.691,-18.066,-56.152,-94.238,-18.066,0.000,0
109853.695,-25.879,-58.594,-96.191,-17.578,0.000,0
109853.699,-6.836,-54.688,-67.871,1.465,0.000,0
109853.703,-15.625,-61.035,-71.777,-1.465,0.000,0
109853.707,-30.762,-62.988,-97.656,-16.113,0.000,0
109853.711,-22.949,-72.266,-87.891,-20.508,0.000,0
109853.715,-34.180,-67.383,-95.703,-15.625,0.000,0
109853.719,-42.969,-53.223,-106.445,-16.113,0.000,0
109853.723,-37.598,-47.852,-84.473,-12.695,0.000,0
109853.727,-33.691,-52.246,-84.473,-9.277,0.000,0
109853.730,-29.785,-53.223,-65.430,-15.625,0.000,0
109853.734,-29.785,-42.480,-58.594,-18.555,0.000,0
109853.738,-18.555,-42.969,-100.098,-16.113,0.000,0
109853.742,-13.672,-40.527,-104.980,-13.672,0.000,0
109853.746,-30.762,-40.039,-73.242,-29.785,0.000,0
109853.750,-20.996,-41.992,-55.664,-28.809,0.000,0
109853.754,-21.484,-39.062,-79.590,-6.348,0.000,0
109853.758,-24.902,-35.156,-91.309,-7.324,0.000,0
109853.762,-11.719,-27.832,-96.680,-6.836,0.000,0
109853.766,2.441,-28.320,-92.285,8.301,0.000,0
109853.770,-11.719,-25.391,-72.266,3.418,0.000,0
109853.773,-2.441,-15.137,-78.125,12.695,0.000,0
109853.777,15.625,-21.973,-98.633,19.531,0.000,0
109853.781,-2.441,-26.855,-101.074,7.812,0.000,0
109853.785,-4.883,-16.602,-80.078,17.578,0.000,0
109853.789,1.465,-9.766,-85.449,13.184,0.000,0
109853.793,2.441,-5.371,-103.027,4.883,0.000,0
109853.797,10.742,-3.418,-85.449,10.254,0.000,0
109853.801,-2.930,-9.766,-78.125,26.367,0.000,0
109853.805,-21.484,-19.043,-87.891,18.555,0.000,0
109853.809,-13.184,-14.648,-68.359,4.883,0.000,0
109853.813,-2.930,-11.230,-60.059,7.812,0.000,0
109853.816,-31.250,-26.367,-86.914,-4.395,0.000,0
109853.820,-50.293,-39.062,-116.211,-13.672,0.000,0
109853.824,-37.598,-40.527,-121.094,-13.184,0.000,0
109853.828,-42.969,-45.898,-83.984,-18.555,0.000,0
109853.832,-51.758,-48.828,-55.176,-24.414,0.000,0
109853.836,-23.438,-39.551,-60.059,-9.766,0.000,0
109853.840,-20.508,-34.668,-63.965,-2.930,0.000,0
109853.844,-37.598,-41.016,-82.520,-18.066,0.000,0
109853.848,-46.387,-54.199,-77.148,-30.273,0.000,0
109853.852,-52.246,-56.641,-83.008,-27.832,0.000,0
109853.855,-38.086,-53.711,-110.840,-32.227,0.000,0
109853.859,-19.531,-49.805,-85.938,-24.902,0.000,0
109853.863,-20.020,-46.875,-52.734,-15.137,0.000,0
109853.867,-15.625,-39.062,-47.363,-17.090,0.000,0
109853.871,-9.277,-34.668,-65.430,-16.113,0.000,0
109853.875,-10.742,-41.504,-43.945,-8.789,0.000,0
109853.879,-10.254,-52.734,-42.969,-18.066,0.000,0
109853.883,-17.090,-62.012,-75.684,-16.602,0.000,0
109853.887,-24.414,-63.477,-71.289,-7.812,0.000,0
109853.891,-24.414,-60.059,-83.008,-11.230,0.000,0
109853.895,-24.414,-67.383,-84.961,-21.973,0.000,0
109853.898,-18.066,-65.430,-70.801,-28.320,0.000,0
109853.902,-29.297,-69.824,-71.777,-20.996,0.000,0
109853.906,-38.086,-72.754,-78.125,-22.461,0.000,0
109853.910,-30.273,-55.176,-76.172,-18.066,0.000,0
109853.914,-20.020,-50.781,-60.059,-8.789,0.000,0
109853.918,-20.996,-60.059,-49.805,-19.043,0.000,0
109853.922,-34.668,-59.570,-78.613,-20.020,0.000,0
109853.926,-34.668,-46.387,-90.820,-8.789,0.000,0
109853.930,-31.250,-53.223,-77.637,-8.789,0.000,0
109853.934,-28.809,-60.059,-79.102,-11.719,0.000,0
109853.938,-21.973,-47.852,-84.473,3.418,0.000,0
109853.941,-12.695,-52.734,-69.824,2.930,0.000,0
109853.945,-6.836,-52.734,-40.527,-5.859,0.000,0
109853.949,-20.020,-52.246,-59.082,-16.113,0.000,0
109853.953,-20.996,-57.617,-89.844,-12.695,0.000,1
109853.957,-8.301,-57.617,-92.285,-9.766,0.000,0
109853.961,-20.996,-64.453,-57.129,-18.555,0.000,0
109853.965,-26.367,-64.453,-45.898,-30.273,0.000,0
109853.969,-7.324,-57.617,-96.191,-27.344,0.000,0
109853.973,-9.766,-52.246,-97.168,-20.996,0.000,0
109853.977,-19.531,-57.617,-68.359,-22.461,0.000,0
109853.980,-20.508,-62.988,-53.223,-30.273,0.000,0
109853.984,-20.020,-60.547,-61.523,-31.738,0.000,0
109853.988,-2.930,-64.453,-82.031,-20.508,0.000,0
109853.992,-17.578,-68.848,-74.707,-20.020,0.000,0
109853.996,-27.832,-59.570,-61.035,-26.367,0.000,0
109854.000,-23.926,-58.105,-75.684,-28.809,0.000,0
109854.004,-31.738,-67.871,-92.773,-31.738,0.000,0
109854.008,-30.762,-62.012,-83.008,-27.344,0.000,0
109854.012,-31.250,-60.547,-64.453,-29.785,0.000,0
109854.016,-27.832,-53.711,-60.059,-20.508,0.000,0
109854.020,-34.180,-57.617,-74.707,-22.461,0.000,0
109854.023,-36.621,-61.035,-70.312,-31.250,0.000,0
109854.027,-46.387,-59.570,-82.520,-30.762,0.000,0
109854.031,-38.086,-58.105,-77.148,-20.020,0.000,0
109854.035,-34.180,-54.199,-72.754,-19.531,0.000,0
109854.039,-40.527,-63.477,-79.590,-24.414,0.000,0
109854.043,-43.945,-77.148,-75.684,-33.203,0.000,0
109854.047,-38.086,-68.848,-62.988,-39.551,0.000,0
109854.051,-52.246,-65.918,-56.152,-33.691,0.000,0
109854.055,-49.805,-70.801,-85.449,-33.203,0.000,0
109854.059,-28.320,-66.895,-80.566,-29.785,0.000,0
109854.063,-30.762,-68.848,-56.641,-41.504,0.000,0
109854.066,-14.160,-64.453,-77.637,-31.250,0.000,0
109854.070,-23.926,-59.082,-85.938,-22.461,0.000,0
109854.074,-37.598,-61.523,-78.613,-31.738,0.000,0
109854.078,-35.156,-63.477,-79.590,-27.832,0.000,0
109854.082,-34.668,-63.965,-49.805,-23.438,0.000,0
109854.086,-41.504,-66.406,-83.008,-23.438,0.000,0
109854.090,-37.598,-67.871,-128.906,-23.926,0.000,0
109854.094,-14.648,-56.641,-96.191,-6.348,0.000,0
109854.098,-16.113,-53.223,-57.617,5.859,0.000,0
109854.102,-20.020,-62.988,-68.359,-22.461,0.000,0
109854.105,-15.625,-63.965,-103.516,-25.879,0.000,0
109854.109,-24.414,-54.688,-81.543,-11.230,0.000,0
109854.113,-36.133,-60.059,-53.711,-12.695,0.000,0
109854.117,-44.434,-78.125,-79.590,-28.320,0.000,0
109854.121,-47.363,-81.055,-87.891,-35.156,0.000,0
109854.125,-40.039,-63.965,-91.309,-19.531,0.000,0
109854.129,-27.344,-53.711,-69.336,-8.301,0.000,0
109854.133,-29.297,-58.105,-54.199,-19.043,0.000,0
109854.137,-27.344,-55.664,-84.473,-32.227,0.000,0
109854.141,-28.809,-64.453,-99.609,-32.715,0.000,0
109854.145,-49.805,-71.777,-75.195,-37.598,0.000,0
109854.148,-37.598,-64.453,-70.801,-31.738,0.000,0
109854.152,-22.461,-57.129,-86.426,-20.508,0.000,0
109854.156,-16.602,-47.852,-76.660,-18.066,0.000,0
109854.160,-18.555,-55.176,-55.664,-28.809,0.000,0
109854.164,-27.344,-55.176,-62.012,-33.203,0.000,0
109854.168,-18.555,-52.246,-77.148,-28.320,0.000,0
109854.172,-16.113,-55.176,-72.754,-30.762,0.000,0
109854.176,-28.809,-50.293,-60.059,-24.414,0.000,0
109854.180,-24.902,-54.688,-52.246,-22.461,0.000,0
109854.184,-20.508,-54.688,-58.594,-22.949,0.000,0
109854.188,-26.367,-50.293,-74.707,-28.809,0.000,0
109854.191,-38.086,-56.152,-86.914,-28.320,0.000,0
109854.195,-34.180,-57.129,-75.684,-25.879,0.000,0
109854.199,-25.391,-50.781,-52.246,-25.879,0.000,0
109854.203,-34.668,-53.711,-75.684,-23.438,0.000,0
109854.207,-30.762,-47.852,-101.562,-20.020,0.000,0
109854.211,-13.184,-43.945,-80.566,-23.438,0.000,0
109854.215,-29.297,-48.828,-62.988,-24.414,0.000,0
109854.219,-37.109,-59.082,-64.941,-23.926,0.000,0
109854.223,-22.949,-60.547,-64.453,-29.785,0.000,0
109854.227,-20.020,-45.410,-70.801,-28.809,0.000,0
109854.230,-32.227,-52.734,-70.312,-30.762,0.000,0
109854.234,-34.668,-54.199,-65.918,-31.738,0.000,0
109854.238,-21.484,-47.852,-69.824,-22.461,0.000,0
109854.242,-9.766,-46.875,-68.359,-19.043,0.000,0
109854.246,-8.301,-40.527,-64.941,-14.648,0.000,0
109854.250,-4.883,-41.016,-55.664,-11.719,0.000,0
109854.254,-12.695,-45.410,-80.566,-16.113,0.000,0
109854.258,-26.367,-58.105,-87.891,-32.227,0.000,0
109854.262,-24.902,-56.641,-55.664,-28.320,0.000,0
109854.266,-21.973,-40.039,-42.480,-15.625,0.000,0
109854.270,-18.555,-38.086,-84.961,-19.531,0.000,0
109854.273,-19.043,-48.828,-108.887,-18.066,0.000,0
109854.277,-21.484,-50.781,-64.941,-18.555,0.000,0
109854.281,-19.531,-47.852,-40.527,-22.461,0.000,0
109854.285,-19.531,-53.223,-73.242,-27.832,0.000,0
109854.289,-23.926,-55.664,-93.262,-31.250,0.000,0
109854.293,-22.461,-46.387,-54.199,-9.277,0.000,0
109854.297,-21.973,-49.805,-47.852,-19.531,0.000,0
109854.301,-20.996,-52.246,-60.059,-31.738,0.000,0
109854.305,-40.039,-51.270,-84.473,-12.207,0.000,0
109854.309,-88.379,-62.500,-97.168,-25.879,0.000,0
109854.313,-110.840,-61.523,-83.496,-39.062,0.000,0
109854.316,-108.887,-50.293,-67.383,-22.949,0.000,0
109854.320,-123.047,-57.617,-67.383,-27.832,0.000,0
109854.324,-122.070,-63.965,-84.961,-31.250,0.000,0
109854.328,-97.168,-50.293,-69.336,-13.672,0.000,0
109854.332,-82.031,-47.363,-82.520,-5.859,0.000,0
109854.336,-67.383,-50.781,-74.219,-2.441,0.000,0
109854.340,-77.148,-56.641,-62.500,-13.672,0.000,0
109854.344,-72.754,-55.664,-87.402,-21.484,0.000,0
109854.348,-72.754,-56.152,-72.266,-15.137,0.000,0
109854.352,-80.566,-62.988,-73.242,-20.508,0.000,0
109854.355,-60.547,-58.594,-82.520,-22.949,0.000,0
109854.359,-61.523,-57.617,-56.641,-22.461,0.000,0
109854.363,-64.453,-55.176,-61.035,-14.648,0.000,0
109854.367,-69.336,-58.105,-76.660,-9.766,0.000,0
109854.371,-68.848,-59.082,-85.938,-8.301,0.000,0
109854.375,-63.477,-63.965,-92.773,-24.414,0.000,0
109854.379,-59.082,-62.012,-58.594,-27.344,0.000,0
109854.383,-52.734,-52.246,-57.129,-15.625,0.000,0
109854.387,-40.527,-52.734,-82.031,-12.695,0.000,0
109854.391,-45.410,-55.664,-73.730,-15.137,0.000,0
109854.395,-50.293,-67.871,-61.035,-21.973,0.000,0
109854.398,-42.480,-69.824,-68.359,-31.738,0.000,0
109854.402,-37.109,-58.594,-84.473,-25.879,0.000,0
109854.406,-30.762,-58.105,-79.590,-16.113,0.000,0
109854.410,-23.438,-56.641,-63.477,-15.625,0.000,0
109854.414,-5.859,-58.594,-62.012,-17.090,0.000,0
109854.418,-15.625,-65.430,-78.125,-15.625,0.000,0
109854.422,-33.691,-66.406,-89.844,-20.508,0.000,0
109854.426,-28.809,-66.406,-72.754,-28.320,0.000,0
109854.430,-24.414,-70.801,-63.965,-22.461,0.000,0
109854.434,-13.672,-71.289,-84.473,-28.320,0.000,0
109854.438,-3.418,-61.523,-80.078,-31.250,0.000,0
109854.441,-2.441,-54.199,-63.965,-7.812,0.000,0
109854.445,-1.465,-60.059,-63.477,-8.789,0.000,0
109854.449,-7.324,-67.383,-76.660,-22.461,0.000,0
109854.453,-18.066,-75.195,-82.520,-29.785,0.000,0
109854.457,-20.020,-75.684,-63.477,-43.945,0.000,0
109854.461,-16.602,-71.777,-56.152,-46.875,0.000,0
109854.465,-15.625,-70.312,-67.383,-35.156,0.000,0
109854.469,-0.488,-62.988,-77.148,-30.762,0.000,0
109854.473,7.324,-51.270,-53.223,-19.531,0.000,0
109854.477,8.789,-53.223,-56.152,-19.043,0.000,0
109854.480,2.441,-55.176,-85.449,-29.785,0.000,0
109854.484,-14.160,-54.199,-82.520,-29.785,0.000,0
109854.488,5.371,-60.547,-71.777,-20.508,0.000,0
109854.492,-5.859,-65.918,-67.383,-17.578,0.000,0
109854.496,-17.090,-62.500,-53.711,-26.855,0.000,0
109854.500,8.301,-49.316,-66.895,-22.949,0.000,0
109854.504,8.789,-48.828,-77.637,-21.484,0.000,0
109854.508,-8.789,-60.059,-75.684,-30.273,0.000,0
109854.512,-15.137,-60.547,-69.824,-28.809,0.000,0
109854.516,-2.930,-50.781,-54.199,-18.555,0.000,0
109854.520,-2.441,-50.293,-84.473,-6.836,0.000,0
109854.523,-10.742,-59.570,-103.516,-21.484,0.000,0
109854.527,-0.488,-59.082,-73.730,-32.227,0.000,0
109854.531,-19.043,-57.617,-56.152,-18.555,0.000,0
109854.535,-23.926,-54.199,-77.637,-16.602,0.000,0
109854.539,-19.043,-54.688,-94.238,-25.391,0.000,0
109854.543,-37.109,-64.941,-72.754,-25.879,0.000,0
109854.547,-35.156,-68.359,-77.637,-20.508,0.000,0
109854.551,-20.996,-62.012,-101.562,-17.090,0.000,0
109854.555,-21.484,-62.988,-87.402,-22.949,0.000,0
109854.559,-25.879,-57.617,-53.223,-22.461,0.000,0
109854.563,3.418,-49.316,-64.453,-12.695,0.000,0
109854.566,13.672,-53.711,-81.055,-6.348,0.000,0
109854.570,-16.602,-58.594,-87.402,-11.230,0.000,0
109854.574,-15.137,-57.129,-69.336,-7.812,0.000,0
109854.578,-14.648,-49.316,-41.992,-3.906,0.000,0
109854.582,-18.555,-55.176,-75.195,-16.602,0.000,0
109854.586,-14.648,-46.875,-85.449,-14.160,0.000,0
109854.590,-11.230,-38.086,-83.984,-10.254,0.000,0
109854.594,-12.695,-49.316,-57.617,-12.207,0.000,0
109854.598,-12.207,-46.875,-56.152,-15.625,0.000,0
109854.602,-1.953,-50.781,-90.820,-25.879,0.000,0
109854.605,-14.648,-51.270,-74.219,-38.086,0.000,0
109854.609,-12.695,-47.852,-51.758,-27.832,0.000,0
109854.613,-0.977,-51.758,-69.336,-19.043,0.000,0
109854.617,-19.043,-44.922,-76.172,-15.137,0.000,0
109854.621,-15.625,-46.875,-67.383,-18.555,0.000,0
109854.625,5.371,-46.387,-58.594,-28.809,0.000,0
109854.629,-12.207,-49.316,-56.152,-24.902,0.000,0
109854.633,-14.160,-45.410,-83.496,-5.371,0.000,0
109854.637,4.395,-41.016,-80.078,-0.488,0.000,0
109854.641,5.371,-48.828,-61.035,-3.418,0.000,0
109854.645,-3.906,-47.852,-56.641,0.000,0.000,0
109854.648,-14.160,-54.199,-60.059,-2.930,0.000,0
109854.652,-17.090,-69.824,-86.426,-15.137,0.000,0
109854.656,-28.809,-58.105,-81.055,-15.625,0.000,0
109854.660,-8.301,-39.062,-41.016,0.000,0.000,0
109854.664,8.789,-39.062,-56.641,6.348,0.000,0
109854.668,-5.371,-48.828,-85.449,-19.043,0.000,0
109854.672,-14.648,-51.270,-53.711,-37.109,0.000,0
109854.676,-12.695,-45.898,-50.293,-20.508,0.000,0
109854.680,-15.625,-49.805,-72.266,-10.742,0.000,0
109854.684,-29.785,-53.711,-95.703,-13.672,0.000,2
109854.688,-32.227,-58.594,-83.008,-30.273,0.000,0
109854.691,-20.508,-53.223,-57.129,-28.809,0.000,0
109854.695,-25.879,-54.199,-85.449,-24.414,0.000,0
109854.699,-40.039,-61.035,-93.262,-38.574,0.000,0
109854.703,-28.809,-53.223,-64.453,-26.367,0.000,0
109854.707,-11.719,-43.945,-41.992,-12.207,0.000,0
109854.711,-14.648,-40.039,-59.570,-16.113,0.000,0
109854.715,1.953,-39.551,-86.914,-10.742,0.000,0
109854.719,8.301,-41.016,-77.148,0.000,0.000,0
109854.723,-13.184,-51.758,-53.711,-9.277,0.000,0
109854.727,-20.996,-65.918,-56.152,-29.785,0.000,0
109854.730,-13.672,-62.500,-71.289,-27.832,0.000,0
109854.734,-7.324,-50.781,-54.199,-20.508,0.000,0
109854.738,-6.348,-44.922,-35.645,-14.160,0.000,0
109854.742,-1.465,-50.293,-80.566,-13.184,0.000,0
109854.746,-1.953,-56.152,-90.820,-16.602,0.000,0
109854.750,-9.277,-48.340,-49.316,-19.043,0.000,0
109854.754,-4.883,-55.176,-67.383,-24.414,0.000,0
109854.758,-19.531,-72.266,-92.773,-38.086,0.000,0
109854.762,-32.715,-61.523,-74.707,-40.039,0.000,0
109854.766,-10.254,-47.363,-48.828,-28.320,0.000,0
109854.770,-8.301,-62.500,-63.965,-33.691,0.000,0
109854.773,-21.484,-63.477,-81.543,-31.250,0.000,0
109854.777,-19.043,-50.781,-65.430,-27.344,0.000,0
109854.781,-24.414,-55.176,-75.684,-16.113,0.000,0
109854.785,-22.461,-62.012,-79.590,-24.902,0.000,0
109854.789,-18.066,-48.340,-41.016,-36.621,0.000,0
109854.793,-34.668,-48.340,-59.570,-29.297,0.000,0
109854.797,-37.598,-63.477,-100.098,-35.156,0.000,0
109854.801,-23.926,-53.711,-75.195,-26.855,0.000,0
109854.805,-21.973,-49.805,-70.312,-22.461,0.000,0
109854.809,-17.578,-52.734,-59.570,-40.527,0.000,0
109854.813,-25.391,-46.387,-36.133,-39.062,0.000,0
109854.816,-28.320,-43.457,-84.961,-18.555,0.000,0
109854.820,-15.625,-46.875,-90.332,-10.742,0.000,0
109854.824,-39.062,-56.641,-64.453,-22.949,0.000,0
109854.828,-33.691,-51.758,-63.965,-27.832,0.000,0
109854.832,-19.531,-42.480,-64.941,-18.555,0.000,0
109854.836,-29.785,-43.945,-51.270,-25.879,0.000,0
109854.840,-20.020,-42.969,-56.641,-30.762,0.000,0
109854.844,-24.902,-48.828,-79.590,-30.762,0.000,0
109854.848,-46.387,-50.781,-82.520,-29.785,0.000,0
109854.852,-37.109,-48.340,-86.914,-25.879,0.000,0
109854.855,-14.160,-41.992,-59.082,-16.113,0.000,0
109854.859,-21.484,-40.039,-46.875,-12.695,0.000,0
109854.863,-29.785,-44.922,-75.195,-28.809,0.000,0
109854.867,-26.855,-44.922,-86.426,-31.250,0.000,0
109854.871,-33.203,-48.340,-75.195,-20.508,0.000,0
109854.875,-51.270,-54.688,-75.684,-32.715,0.000,0
109854.879,-27.344,-41.016,-83.984,-19.531,0.000,0
109854.883,-11.719,-35.156,-70.801,-10.254,0.000,0
109854.887,-30.762,-43.457,-49.805,-20.020,0.000,0
109854.891,-32.715,-48.340,-65.430,-18.555,0.000,0
109854.895,-50.781,-60.059,-89.844,-31.250,0.000,0
109854.898,-44.434,-56.152,-84.473,-31.738,0.000,0
109854.902,-28.809,-51.758,-75.684,-27.832,0.000,0
109854.906,-30.762,-53.223,-56.152,-25.879,0.000,0
109854.910,-34.180,-55.664,-72.754,-24.414,0.000,0
109854.914,-43.457,-62.988,-92.773,-38.574,0.000,0
109854.918,-38.574,-57.617,-62.988,-42.480,0.000,0
109854.922,-43.457,-65.918,-79.590,-43.945,0.000,0
109854.926,-45.410,-71.777,-82.520,-41.504,0.000,0
109854.930,-39.551,-68.359,-79.102,-34.668,0.000,0
109854.934,-16.602,-60.547,-85.449,-21.484,0.000,0
109854.938,-11.230,-59.082,-59.082,-26.855,0.000,0
109854.941,-37.109,-64.941,-53.711,-34.180,0.000,0
109854.945,-33.203,-59.082,-47.852,-29.297,0.000,0
109854.949,-39.551,-60.547,-77.637,-36.621,0.000,0
109854.953,-34.180,-49.805,-88.379,-31.250,0.000,0
109854.957,-22.461,-44.434,-38.574,-26.367,0.000,0
109854.961,-25.879,-52.246,-47.852,-29.785,0.000,0
109854.965,-22.461,-57.617,-72.754,-26.367,0.000,0
109854.969,-27.344,-60.059,-76.660,-27.344,0.000,0
109854.973,-15.137,-55.176,-63.965,-18.066,0.000,0
109854.977,-24.902,-58.105,-53.711,-17.090,0.000,0
109854.980,-39.551,-65.430,-68.359,-25.879,0.000,0
109854.984,-41.992,-73.730,-78.125,-32.227,0.000,0
109854.988,-33.203,-64.453,-51.270,-22.949,0.000,0
109854.992,-22.949,-64.941,-62.012,-16.602,0.000,0
109854.996,-7.324,-63.965,-94.727,-13.184,0.000,0
109855.000,-13.184,-62.988,-78.125,-19.043,0.000,0
109855.004,-28.320,-66.895,-47.363,-33.691,0.000,0
109855.008,-8.301,-54.199,-51.758,-7.812,0.000,0
109855.012,-19.531,-56.152,-58.594,-8.789,0.000,0
109855.016,-20.508,-55.664,-51.758,-19.531,0.000,0
109855.020,-13.184,-56.641,-59.082,-17.090,0.000,0
109855.023,-13.184,-61.523,-52.734,-16.113,0.000,0
109855.027,-7.324,-58.594,-68.359,-8.301,0.000,0
109855.031,-25.879,-60.547,-83.496,-20.508,0.000,0
109855.035,-42.480,-56.641,-47.852,-17.090,0.000,0
109855.039,-32.715,-62.012,-64.453,-22.949,0.000,0
109855.043,-29.297,-66.406,-87.402,-31.250,0.000,0
109855.047,-26.367,-56.641,-89.844,-13.672,0.000,0
109855.051,-20.996,-50.293,-59.082,-1.465,0.000,0
109855.055,-29.785,-62.012,-66.895,-27.832,0.000,0
109855.059,-32.227,-60.547,-75.195,-38.086,0.000,0
109855.063,-19.531,-55.176,-42.480,-31.250,0.000,0
109855.066,-29.785,-58.105,-72.754,-37.109,0.000,0
109855.070,-31.250,-60.547,-82.520,-32.227,0.000,0
109855.074,-7.324,-53.223,-59.570,-22.461,0.000,0
109855.078,-18.066,-46.387,-69.336,-23.438,0.000,0
109855.082,-47.852,-50.781,-52.246,-32.715,0.000,0
109855.086,-41.504,-51.758,-45.410,-36.621,0.000,0
109855.090,-22.461,-45.898,-70.801,-24.902,0.000,0
109855.094,-18.555,-42.480,-74.707,-15.625,0.000,0
109855.098,-22.949,-51.270,-82.520,-19.531,0.000,0
109855.102,-26.367,-55.664,-70.312,-32.715,0.000,0
109855.105,-25.879,-39.062,-38.086,-30.762,0.000,0
109855.109,-33.203,-38.086,-45.410,-15.625,0.000,0
109855.113,-30.273,-52.734,-88.379,-21.973,0.000,0
109855.117,-43.945,-60.547,-97.168,-40.527,0.000,0
109855.121,-46.875,-57.129,-40.527,-43.457,0.000,0
109855.125,-31.250,-53.711,-44.922,-31.250,0.000,0
109855.129,-31.738,-55.176,-86.914,-23.438,0.000,0
109855.133,-14.648,-50.293,-86.914,-7.324,0.000,0
109855.137,-20.996,-57.129,-77.148,-15.625,0.000,0
109855.141,-33.203,-67.383,-47.363,-32.227,0.000,0
109855.145,-27.832,-66.895,-67.383,-24.902,0.000,0
109855.148,-12.207,-62.012,-88.379,-12.207,0.000,0
109855.152,-1.953,-60.547,-79.102,-15.625,0.000,0
109855.156,-24.902,-69.824,-63.477,-35.156,0.000,0
109855.160,-32.227,-67.383,-59.082,-28.320,0.000,0
109855.164,-18.066,-62.988,-66.406,-24.902,0.000,0
109855.168,1.465,-59.570,-72.754,-17.578,0.000,0
109855.172,-25.879,-67.871,-78.125,-17.578,0.000,0
109855.176,-43.945,-75.195,-84.961,-23.438,0.000,0
109855.180,-24.902,-69.824,-93.750,-20.020,0.000,0
109855.184,-31.250,-64.453,-75.684,-15.625,0.000,0
109855.188,-39.551,-63.965,-59.082,-10.254,0.000,0
109855.191,-22.461,-66.895,-68.848,-5.859,0.000,0
109855.195,-27.344,-65.430,-95.215,-13.184,0.000,0
109855.199,-26.855,-69.336,-89.355,-21.973,0.000,0
109855.203,-33.691,-70.801,-62.500,-25.879,0.000,0
109855.207,-31.250,-66.895,-66.406,-25.879,0.000,0
109855.211,-28.809,-61.523,-70.312,-22.949,0.000,0
109855.215,-34.668,-63.477,-88.379,-28.320,0.000,0
109855.219,-22.949,-63.477,-88.379,-32.715,0.000,0
109855.223,-13.672,-60.547,-56.152,-34.180,0.000,0
109855.227,-27.344,-66.406,-70.312,-36.621,0.000,0
109855.230,-30.273,-64.453,-67.871,-39.062,0.000,0
109855.234,-20.020,-59.082,-70.312,-21.484,0.000,0
109855.238,-25.879,-60.547,-68.848,-27.344,0.000,0
109855.242,-41.992,-59.570,-28.320,-49.805,0.000,0
109855.246,-39.551,-50.293,-79.102,-28.320,0.000,0
109855.250,-23.438,-49.805,-111.816,-13.672,0.000,0
109855.254,-37.598,-52.246,-81.543,-23.438,0.000,0
109855.258,-34.668,-48.828,-62.012,-20.996,0.000,0
109855.262,-21.973,-56.641,-63.477,-13.672,0.000,0
109855.266,-35.645,-60.059,-81.055,-24.414,0.000,0
109855.270,-41.992,-56.152,-70.801,-29.297,0.000,0
109855.273,-37.109,-54.688,-77.148,-16.602,0.000,0
109855.277,-19.531,-49.316,-74.219,-19.531,0.000,0
109855.281,-21.484,-46.875,-69.824,-28.809,0.000,0
109855.285,-40.527,-49.316,-78.125,-21.973,0.000,0
109855.289,-45.410,-61.035,-67.383,-32.227,0.000,0
109855.293,-54.199,-70.801,-83.984,-48.828,0.000,0
109855.297,-39.551,-60.547,-76.660,-39.551,0.000,0
109855.301,-29.785,-55.664,-56.641,-35.645,0.000,0
109855.305,-34.180,-54.688,-53.223,-33.691,0.000,0
109855.309,-22.949,-51.758,-66.406,-25.879,0.000,0
109855.313,-21.484,-52.734,-95.215,-30.273,0.000,0
109855.316,-35.156,-51.758,-77.637,-36.133,0.000,0
109855.320,-31.250,-52.734,-47.852,-35.156,0.000,0
109855.324,-38.086,-60.059,-82.031,-37.598,0.000,0
109855.328,-42.969,-60.059,-112.305,-38.574,0.000,0
109855.332,-39.551,-56.152,-104.492,-36.133,0.000,0
109855.336,-22.461,-50.293,-53.223,-23.438,0.000,0
109855.340,-19.043,-49.805,-33.691,-26.367,0.000,0
109855.344,-23.438,-48.340,-61.035,-27.832,0.000,0
109855.348,-27.832,-56.641,-85.938,-19.531,0.000,0
109855.352,-48.828,-63.965,-97.656,-18.555,0.000,0
109855.355,-27.832,-46.875,-62.988,5.859,0.000,0
109855.359,-25.391,-52.246,-52.246,-9.277,0.000,0
109855.363,-35.156,-51.270,-74.707,-10.254,0.000,0
109855.367,-23.926,-41.992,-71.289,0.000,0.000,0
109855.371,-31.250,-45.410,-46.875,-16.602,0.000,0
109855.375,-30.273,-42.480,-45.898,-20.508,0.000,0
109855.379,-44.434,-51.270,-62.012,-38.086,0.000,0
109855.383,-28.320,-43.945,-75.684,-24.414,0.000,0
109855.387,-16.602,-41.992,-71.289,-10.254,0.000,0
109855.391,-35.645,-51.270,-62.500,-17.090,0.000,0
109855.395,-39.062,-46.387,-62.988,-24.414,0.000,0
109855.398,-42.969,-52.734,-57.617,-45.410,0.000,0
109855.402,-39.551,-57.617,-65.430,-45.410,0.000,1
109855.406,-37.598,-53.223,-65.430,-38.574,0.000,0
109855.410,-37.598,-56.152,-62.012,-35.156,0.000,0
109855.414,-42.969,-56.641,-92.285,-33.203,0.000,0
109855.418,-26.855,-49.805,-82.031,-29.785,0.000,0
109855.422,-12.695,-45.898,-52.734,-23.438,0.000,0
109855.426,-28.320,-48.340,-45.410,-19.043,0.000,0
109855.430,-37.598,-52.734,-72.754,-16.113,0.000,0
109855.434,-30.273,-50.293,-79.590,-14.648,0.000,0
109855.438,-27.832,-47.852,-29.297,-21.973,0.000,0
109855.441,-20.996,-44.434,-32.715,-16.602,0.000,0
109855.445,-28.320,-46.875,-83.008,-29.785,0.000,0
109855.449,-47.852,-50.781,-91.797,-20.508,0.000,0
109855.453,-36.621,-50.781,-71.777,-14.648,0.000,0
109855.457,-25.879,-56.152,-58.105,-35.645,0.000,0
109855.461,-25.391,-46.875,-65.918,-18.066,0.000,0
109855.465,-24.902,-38.574,-84.473,-15.137,0.000,0
109855.469,-21.973,-50.293,-64.941,-25.879,0.000,0
109855.473,-24.414,-59.082,-49.805,-24.414,0.000,0
109855.477,-25.879,-49.316,-63.965,-27.832,0.000,0
109855.480,-33.691,-47.363,-71.289,-26.367,0.000,0
109855.484,-41.992,-50.781,-63.965,-19.043,0.000,0
109855.488,-32.227,-50.293,-49.805,-11.230,0.000,0
109855.492,-24.414,-57.129,-66.406,-14.160,0.000,0
109855.496,-21.484,-60.547,-68.848,-23.926,0.000,0
109855.500,-37.598,-54.688,-55.176,-21.484,0.000,0
109855.504,-50.293,-52.246,-61.523,-23.438,0.000,0
109855.508,-37.598,-50.781,-78.125,-34.180,0.000,0
109855.512,-17.090,-44.922,-90.332,-26.855,0.000,0
109855.516,-28.809,-40.527,-52.734,-19.531,0.000,0
109855.520,-43.945,-48.828,-52.734,-23.926,0.000,0
109855.523,-24.414,-51.758,-68.359,-16.113,0.000,0
109855.527,-34.180,-55.664,-75.684,-23.926,0.000,0
109855.531,-32.227,-51.270,-81.055,-34.668,0.000,0
109855.535,-7.324,-43.945,-55.176,-25.879,0.000,0
109855.539,-22.461,-56.152,-55.176,-33.691,0.000,0
109855.543,-25.879,-51.758,-66.406,-30.273,0.000,0
109855.547,-25.391,-50.781,-69.336,-26.367,0.000,0
109855.551,-39.062,-51.270,-72.266,-28.320,0.000,0
109855.555,-21.973,-40.527,-57.617,-15.137,0.000,0
109855.559,-20.508,-43.945,-58.105,-17.578,0.000,0
109855.563,-53.223,-46.875,-74.219,-33.203,0.000,0
109855.566,-43.457,-45.410,-72.266,-35.645,0.000,0
109855.570,-23.926,-40.527,-48.828,-22.461,0.000,0
109855.574,-33.691,-45.898,-53.711,-26.855,0.000,0
109855.578,-35.156,-48.340,-65.430,-40.039,0.000,0
109855.582,-20.508,-46.387,-70.312,-31.738,0.000,0
109855.586,-31.250,-53.223,-55.664,-32.715,0.000,0
109855.590,-28.809,-41.992,-38.086,-16.113,0.000,0
109855.594,-7.812,-30.273,-46.387,1.953,0.000,0
109855.598,-10.742,-35.645,-37.109,-11.230,0.000,0
109855.602,-16.113,-38.086,-37.109,-9.766,0.000,0
109855.605,-27.344,-49.316,-40.527,-8.789,0.000,0
109855.609,-22.949,-55.664,-48.828,-17.578,0.000,0
