timestamps,TP9,AF7,AF8,TP10,Right AUX,Marker0
109979.563,-47.363,-45.898,-103.027,-45.898,0.000,0
109979.566,-55.664,-52.246,-109.863,-60.547,0.000,0
109979.570,-33.203,-38.574,-88.379,-38.086,0.000,0
109979.574,-17.578,-31.738,-66.406,-19.043,0.000,0
109979.578,-41.016,-43.457,-90.332,-31.738,0.000,0
109979.582,-51.758,-42.480,-94.727,-32.715,0.000,0
109979.586,-43.945,-35.156,-69.824,-28.320,0.000,0
109979.590,-47.363,-53.711,-105.469,-48.828,0.000,0
109979.594,-41.992,-36.621,-102.539,-29.297,0.000,0
109979.598,-41.016,-26.367,-95.703,-10.254,0.000,0
109979.602,-45.410,-37.598,-73.242,-20.996,0.000,0
109979.605,-43.945,-30.273,-58.594,-26.367,0.000,0
109979.609,-52.734,-37.109,-95.215,-25.391,0.000,0
109979.613,-71.777,-45.410,-110.352,-24.414,0.000,0
109979.617,-49.805,-28.320,-88.867,-16.113,0.000,0
109979.621,-29.785,-13.184,-56.152,-12.695,0.000,0
109979.625,-56.152,-29.297,-80.566,-23.926,0.000,0
109979.629,-59.570,-39.551,-122.559,-35.156,0.000,0
109979.633,-58.105,-36.621,-111.816,-37.598,0.000,0
109979.637,-60.059,-33.203,-95.703,-41.016,0.000,0
109979.641,-30.762,-21.484,-89.844,-23.438,0.000,0
109979.645,-33.203,-30.273,-98.145,-20.996,0.000,0
109979.648,-43.457,-28.809,-97.168,-22.949,0.000,0
109979.652,-38.086,-20.508,-72.754,-16.602,0.000,0
109979.656,-54.688,-34.180,-88.867,-31.738,0.000,0
109979.660,-62.500,-43.457,-109.375,-44.434,0.000,0
109979.664,-59.082,-26.367,-93.262,-34.668,0.000,0
109979.668,-54.199,-19.043,-100.586,-25.391,0.000,0
109979.672,-48.828,-32.227,-108.398,-28.809,0.000,0
109979.676,-43.945,-23.926,-92.285,-24.414,0.000,0
109979.680,-59.570,-28.320,-93.262,-38.574,0.000,0
109979.684,-47.852,-36.621,-72.754,-24.414,0.000,0
109979.688,-23.438,-32.715,-41.504,3.418,0.000,0
109979.691,-41.992,-46.875,-58.594,-10.742,0.000,0
109979.695,-33.203,-29.297,-56.152,2.441,0.000,0
109979.699,-36.621,-20.508,-19.531,9.277,0.000,0
109979.703,-50.293,-37.598,-15.137,-3.906,0.000,0
109979.707,-24.414,-27.832,-12.207,20.508,0.000,0
109979.711,-5.859,-10.742,30.762,34.668,0.000,0
109979.715,-14.160,-16.602,32.227,27.832,0.000,0
109979.719,-21.973,-38.574,20.996,11.719,0.000,0
109979.723,-14.160,-28.809,51.270,19.531,0.000,0
109979.727,1.465,-15.137,46.875,33.691,0.000,0
109979.730,-5.371,-20.020,42.969,25.391,0.000,0
109979.734,-12.207,-22.461,50.293,31.738,0.000,0
109979.738,-2.930,-20.996,50.293,23.926,0.000,0
109979.742,6.348,-10.742,55.664,30.762,0.000,0
109979.746,-2.441,-11.719,36.133,44.434,0.000,0
109979.750,-4.883,-22.949,30.273,38.574,0.000,0
109979.754,11.230,-16.113,39.062,45.410,0.000,0
109979.758,18.555,-5.371,62.500,52.734,0.000,0
109979.762,-2.441,-7.324,60.059,27.832,0.000,0
109979.766,-17.578,-9.766,24.902,9.277,0.000,0
109979.770,-11.230,-5.859,34.180,17.578,0.000,0
109979.773,-21.484,-22.949,-9.277,0.488,0.000,0
109979.777,-4.395,-18.066,-14.160,24.414,0.000,0
109979.781,14.160,2.930,39.551,38.086,0.000,0
109979.785,6.836,-8.301,9.766,29.785,0.000,0
109979.789,7.812,-15.625,-11.230,33.203,0.000,0
109979.793,-14.160,-16.602,-9.277,13.672,0.000,0
109979.797,-12.695,-12.207,19.043,10.742,0.000,0
109979.801,2.441,-4.883,52.734,23.438,0.000,0
109979.805,-2.441,-4.883,39.062,30.273,0.000,0
109979.809,-14.648,-18.066,9.277,18.555,0.000,0
109979.813,-12.207,-24.902,-1.953,13.184,0.000,0
109979.816,-1.953,-17.090,26.367,13.672,0.000,0
109979.820,-10.254,-19.043,34.668,6.836,0.000,0
109979.824,-4.883,-11.230,24.414,26.855,0.000,0
109979.828,-5.371,-11.230,30.273,35.645,0.000,0
109979.832,-14.648,-19.043,10.742,25.391,0.000,0
109979.836,-17.578,-32.715,-11.230,12.207,0.000,0
109979.840,-4.883,-24.902,16.113,10.742,0.000,0
109979.844,20.020,-0.977,29.785,39.062,0.000,0
109979.848,-3.418,-15.625,25.391,21.973,0.000,0
109979.852,-7.812,-17.578,24.414,32.227,0.000,0
109979.855,24.902,-3.906,18.555,61.523,0.000,0
109979.859,-14.648,-18.555,8.789,24.414,0.000,0
109979.863,-15.625,-16.113,9.766,10.254,0.000,0
109979.867,8.301,-7.812,30.762,17.578,0.000,0
109979.871,13.184,-12.695,28.320,27.344,0.000,0
109979.875,7.324,-22.949,8.789,23.438,0.000,0
109979.879,-18.066,-36.621,-13.672,7.324,0.000,0
109979.883,4.883,-20.996,20.020,16.602,0.000,0
109979.887,31.738,-4.395,46.875,21.973,0.000,0
109979.891,12.695,-12.695,3.418,25.391,0.000,0
109979.895,-3.418,-18.555,-6.836,16.602,0.000,0
109979.898,-6.836,-18.555,14.160,-1.953,0.000,0
109979.902,7.324,-12.695,11.230,-4.883,0.000,0
109979.906,29.785,-6.348,6.348,6.348,0.000,0
109979.910,23.438,-3.906,5.859,23.926,0.000,0
109979.914,14.648,-11.719,1.953,24.902,0.000,0
109979.918,5.371,-21.973,-0.977,7.812,0.000,0
109979.922,-0.488,-16.602,-8.301,0.488,0.000,0
109979.926,5.371,-2.930,-6.836,7.812,0.000,0
109979.930,9.766,1.465,-3.906,14.160,0.000,0
109979.934,3.906,-10.254,-1.465,11.719,0.000,0
109979.938,6.348,-19.043,7.324,-7.324,0.000,0
109979.941,1.465,-24.414,-35.156,-19.531,0.000,0
109979.945,2.441,-16.113,-49.316,0.000,0.000,0
109979.949,-17.578,-30.273,-44.922,-15.625,0.000,0
109979.953,-41.992,-51.758,-66.406,-50.293,0.000,0
109979.957,-56.152,-66.406,-77.637,-61.523,0.000,0
109979.961,-62.988,-70.801,-80.566,-62.012,0.000,0
109979.965,-52.246,-53.223,-63.965,-58.105,0.000,0
109979.969,-45.898,-52.246,-62.012,-53.711,0.000,0
109979.973,-25.391,-41.992,-61.035,-21.973,0.000,0
109979.977,-17.090,-39.062,-58.594,-24.414,0.000,0
109979.980,-30.762,-46.875,-69.824,-38.574,0.000,0
109979.984,-35.645,-38.574,-47.363,-19.043,0.000,0
109979.988,-35.156,-40.039,-37.109,-26.855,0.000,0
109979.992,-46.387,-44.922,-51.270,-48.340,0.000,0
109979.996,-36.133,-36.133,-55.176,-32.715,0.000,0
109980.000,-13.184,-31.250,-38.086,-18.066,0.000,0
109980.004,-19.531,-32.715,-25.879,-16.113,0.000,0
109980.008,-15.625,-30.762,-41.504,-2.930,0.000,0
109980.012,-11.230,-25.879,-43.945,-17.090,0.000,0
109980.016,-41.016,-43.457,-42.480,-44.434,0.000,0
109980.020,-51.270,-39.551,-19.043,-44.434,0.000,0
109980.023,-24.414,-14.160,-27.832,-15.625,0.000,0
109980.027,-16.602,-10.254,-44.922,-1.953,0.000,0
109980.031,-39.062,-17.090,-35.156,-4.883,0.000,0
109980.035,-31.738,-21.484,-13.184,-4.883,0.000,0
109980.039,-27.832,-23.438,-20.020,-17.578,0.000,0
109980.043,-15.137,-8.789,-35.156,0.000,0.000,0
109980.047,20.996,13.672,-19.043,29.785,0.000,0
109980.051,-0.488,3.418,-3.418,-2.441,0.000,0
109980.055,-8.789,-5.371,-2.441,-14.160,0.000,0
109980.059,4.395,-0.488,-17.578,2.441,0.000,0
109980.063,7.812,3.906,-12.207,17.578,0.000,0
109980.066,0.488,3.418,5.859,17.090,0.000,0
109980.070,-1.465,-1.465,-8.301,18.066,0.000,0
109980.074,19.043,6.836,4.395,30.273,0.000,0
109980.078,11.719,4.395,-2.930,22.461,0.000,0
109980.082,-0.977,-5.371,-28.320,20.508,0.000,0
109980.086,-5.371,-16.602,-8.301,14.160,0.000,0
109980.090,-5.859,-11.230,-0.488,14.160,0.000,0
109980.094,0.488,-12.695,-29.785,11.719,0.000,0
109980.098,-5.371,-25.391,-25.879,-4.883,0.000,0
109980.102,-2.441,-10.254,4.883,18.555,0.000,0
109980.105,-0.977,-11.230,-7.324,35.645,0.000,0
109980.109,-14.160,-26.855,-30.273,20.996,0.000,0
109980.113,-8.789,-31.250,-25.391,6.348,0.000,0
109980.117,-20.508,-33.691,-35.645,7.812,0.000,0
109980.121,-26.367,-33.203,-36.621,4.395,0.000,0
109980.125,-3.906,-24.414,-31.250,10.742,0.000,0
109980.129,-8.301,-23.438,-38.574,15.137,0.000,0
109980.133,-15.625,-25.391,-22.461,3.418,0.000,0
109980.137,-0.977,-21.484,-13.184,5.371,0.000,0
109980.141,-4.395,-14.648,-18.555,1.953,0.000,0
109980.145,-10.742,-14.160,-30.273,1.953,0.000,0
109980.148,-19.531,-22.949,-54.199,-1.465,0.000,0
109980.152,-16.113,-16.602,-42.969,4.395,0.000,0
109980.156,-1.953,-10.254,-23.438,13.184,0.000,0
109980.160,6.348,-11.719,-42.969,7.324,0.000,0
109980.164,11.719,-8.789,-41.016,8.789,0.000,0
109980.168,2.441,-1.465,-2.930,15.625,0.000,0
109980.172,-26.367,-26.367,-20.020,-22.949,0.000,0
109980.176,-32.715,-35.156,-44.434,-36.133,0.000,0
109980.180,-7.812,-11.230,-30.762,6.348,0.000,0
109980.184,-5.371,-15.625,-35.156,7.812,0.000,0
109980.188,-5.859,-21.484,-47.363,-1.953,0.000,0
109980.191,-7.812,-18.066,-43.945,0.977,0.000,0
109980.195,-20.996,-12.207,-39.062,-9.277,0.000,0
109980.199,-36.621,-21.484,-40.527,-17.090,0.000,0
109980.203,-27.832,-16.602,-35.645,-14.160,0.000,0
109980.207,-11.719,-12.207,-53.711,-0.977,0.000,0
109980.211,-15.137,-13.184,-48.828,4.883,0.000,0
109980.215,-26.367,-12.207,-27.832,-2.930,0.000,0
109980.219,-23.926,-20.508,-63.965,-19.043,0.000,0
109980.223,-34.180,-28.320,-91.309,-26.855,0.000,0
109980.227,-20.996,-12.207,-68.359,-6.836,0.000,0
109980.230,9.766,-0.977,-47.363,-1.953,0.000,0
109980.234,8.301,1.953,-25.879,2.930,0.000,0
109980.238,-16.602,-5.371,-30.762,-9.766,0.000,0
109980.242,-14.648,-10.742,-30.273,-11.719,0.000,0
109980.246,-10.742,-16.602,-47.363,-15.625,0.000,0
109980.250,-31.250,-27.832,-49.316,-28.809,0.000,0
109980.254,-15.137,-20.508,-27.344,-24.414,0.000,0
109980.258,10.742,-7.812,-31.738,-5.371,0.000,0
109980.262,-8.789,-10.742,-24.414,-8.789,0.000,0
109980.266,-49.316,-33.691,-39.551,-47.363,0.000,0
109980.270,-50.781,-38.086,-42.480,-37.598,0.000,0
109980.273,0.488,-10.742,-33.203,16.113,0.000,0
109980.277,25.391,1.465,-38.086,20.020,0.000,0
109980.281,-4.883,-16.602,-39.062,-11.230,0.000,0
109980.285,-26.367,-33.203,-36.133,-35.156,0.000,0
109980.289,-47.363,-47.363,-47.852,-45.410,0.000,0
109980.293,-46.387,-42.969,-67.383,-26.855,0.000,0
109980.297,-33.691,-25.879,-50.781,-26.367,0.000,0
109980.301,-49.805,-35.156,-62.012,-28.320,0.000,0
109980.305,-48.828,-46.387,-85.938,-15.137,0.000,0
109980.309,-41.016,-47.363,-91.309,-11.719,0.000,0
109980.313,-42.480,-45.898,-77.148,-8.789,0.000,0
109980.316,-41.992,-42.480,-60.059,-13.672,0.000,0
109980.320,-43.457,-42.969,-65.430,-16.602,0.000,0
109980.324,-25.879,-27.832,-65.918,8.789,0.000,0
109980.328,-35.156,-24.902,-50.293,2.441,0.000,0
109980.332,-44.434,-30.273,-44.922,-19.531,0.000,0
109980.336,-34.180,-23.438,-61.523,-8.789,0.000,0
109980.340,-49.316,-34.668,-86.914,-32.227,0.000,0
109980.344,-46.875,-29.297,-89.844,-29.297,0.000,0
109980.348,-23.438,-10.742,-46.875,-0.488,0.000,0
109980.352,-23.926,-17.578,-39.062,-17.578,0.000,0
109980.355,-38.574,-26.855,-79.102,-36.621,0.000,0
109980.359,-39.062,-26.855,-93.750,-29.297,0.000,0
109980.363,-55.664,-33.203,-91.797,-27.344,0.000,0
109980.367,-41.504,-22.949,-70.312,0.000,0.000,0
109980.371,-21.484,-11.719,-48.340,3.418,0.000,0
109980.375,-41.016,-19.531,-82.031,-22.949,0.000,0
109980.379,-30.762,-16.602,-88.867,-13.184,0.000,0
109980.383,-23.926,-20.020,-73.730,-12.695,0.000,0
109980.387,-24.902,-32.227,-89.355,-14.648,0.000,0
109980.391,-18.066,-25.879,-74.219,-14.160,0.000,0
109980.395,-40.039,-22.949,-70.801,-18.555,0.000,0
109980.398,-54.688,-27.832,-70.312,-26.367,0.000,0
109980.402,-37.598,-24.414,-73.730,-23.926,0.000,0
109980.406,-25.391,-21.484,-80.078,-5.371,0.000,0
109980.410,-23.438,-23.438,-76.172,-11.719,0.000,0
109980.414,-44.922,-28.809,-83.008,-17.578,0.000,0
109980.418,-33.203,-27.832,-74.707,-7.324,0.000,0
109980.422,-18.066,-4.395,-39.062,6.348,0.000,0
109980.426,-29.297,-2.441,-52.734,-2.930,0.000,0
109980.430,-24.902,-21.973,-88.867,-23.438,0.000,0
109980.434,-17.090,-16.602,-81.543,-20.508,0.000,0
109980.438,-23.926,-6.348,-57.129,-12.695,0.000,0
109980.441,-35.645,-13.184,-81.055,-27.344,0.000,0
109980.445,-29.297,-15.137,-95.215,-30.762,0.000,0
109980.449,-49.805,-19.531,-61.035,-46.875,0.000,0
109980.453,-43.945,-8.789,-70.801,-37.598,0.000,0
109980.457,-5.859,0.000,-87.891,-10.254,0.000,0
109980.461,-37.598,-7.812,-88.379,-8.301,0.000,0
109980.465,-44.922,-12.207,-89.844,-15.137,0.000,0
109980.469,-19.531,-8.301,-58.105,-9.766,0.000,0
109980.473,-29.297,-11.230,-61.523,-10.742,0.000,0
109980.477,-41.016,-23.926,-104.004,-19.531,0.000,0
109980.480,-37.109,-24.414,-94.727,-11.230,0.000,0
109980.484,-45.410,-34.180,-83.984,-13.672,0.000,0
109980.488,-48.828,-36.621,-91.309,-22.949,0.000,0
109980.492,-32.715,-23.926,-79.102,-21.484,0.000,0
109980.496,-36.133,-20.508,-66.406,-22.461,0.000,0
109980.500,-32.715,-30.273,-87.891,-26.367,0.000,0
109980.504,-39.062,-38.086,-103.516,-42.480,0.000,0
109980.508,-37.109,-36.621,-101.562,-39.062,0.000,0
109980.512,-30.762,-32.227,-90.820,-35.156,0.000,0
109980.516,-42.480,-30.273,-85.938,-43.457,0.000,0
109980.520,-55.664,-40.039,-86.426,-51.270,0.000,0
109980.523,-48.828,-33.691,-91.309,-43.945,0.000,0
109980.527,-27.344,-11.719,-66.406,-19.531,0.000,0
109980.531,-31.738,-19.531,-59.570,-29.785,0.000,0
109980.535,-43.457,-36.621,-87.402,-48.340,0.000,0
109980.539,-42.480,-32.227,-82.520,-41.992,0.000,0
109980.543,-39.062,-25.879,-68.848,-46.875,0.000,0
109980.547,-28.320,-26.855,-55.664,-53.711,0.000,0
109980.551,-40.527,-37.109,-58.105,-60.059,0.000,0
109980.555,-55.176,-38.574,-76.172,-57.129,0.000,0
109980.559,-40.039,-30.762,-66.406,-46.875,0.000,0
109980.563,-47.363,-38.086,-64.453,-46.387,0.000,0
109980.566,-48.828,-50.293,-71.777,-50.293,0.000,0
109980.570,-53.711,-49.805,-60.059,-57.129,0.000,0
109980.574,-50.781,-36.621,-57.617,-50.293,0.000,0
109980.578,-33.691,-31.738,-66.406,-34.668,0.000,0
109980.582,-36.621,-36.133,-54.199,-27.344,0.000,0
109980.586,-33.691,-30.273,-24.902,-17.090,0.000,0
109980.590,-38.086,-28.320,-27.832,-24.414,0.000,0
109980.594,-28.809,-27.832,-42.969,-24.902,0.000,0
109980.598,-28.320,-34.180,-41.992,-15.137,0.000,0
109980.602,-55.176,-46.387,-71.777,-28.809,0.000,0
109980.605,-52.734,-44.922,-66.895,-27.344,0.000,0
109980.609,-60.059,-40.527,-59.082,-22.949,0.000,0
109980.613,-67.383,-41.016,-51.270,-25.879,0.000,0
109980.617,-44.922,-36.133,-25.879,-22.461,0.000,0
109980.621,-47.363,-34.668,-24.414,-22.461,0.000,0
109980.625,-49.316,-41.504,-27.344,-22.461,0.000,0
109980.629,-52.734,-48.828,-48.828,-29.297,0.000,0
109980.633,-60.547,-53.223,-60.547,-28.320,0.000,0
109980.637,-55.664,-55.176,-55.176,-33.203,0.000,0
109980.641,-60.059,-51.758,-58.594,-42.969,0.000,0
109980.645,-54.688,-46.875,-47.852,-40.039,0.000,0
109980.648,-41.504,-50.781,-39.551,-20.996,0.000,0
109980.652,-53.223,-50.781,-28.320,-29.297,0.000,0
109980.656,-60.059,-40.527,-30.762,-41.504,0.000,0
109980.660,-46.875,-41.504,-62.500,-22.949,0.000,0
109980.664,-54.199,-53.711,-60.547,-24.902,0.000,0
109980.668,-55.664,-47.852,-45.898,-22.949,0.000,0
109980.672,-46.875,-36.621,-46.875,-5.371,0.000,0
109980.676,-68.848,-41.992,-48.340,-8.301,0.000,0
109980.680,-73.730,-38.086,-46.875,-15.137,0.000,0
109980.684,-39.551,-29.785,-40.039,-7.324,0.000,0
109980.688,-30.273,-23.926,-27.344,-13.184,0.000,0
109980.691,-34.180,-7.812,-26.367,-0.977,0.000,0
109980.695,-48.340,-6.836,-33.203,1.953,0.000,0
109980.699,-51.270,-7.812,-36.133,6.836,0.000,0
109980.703,-30.273,-5.859,-30.273,13.184,0.000,0
109980.707,-17.578,3.418,-19.531,15.625,0.000,0
109980.711,-13.184,11.719,-36.621,13.184,0.000,0
109980.715,-20.996,2.441,-48.340,13.184,0.000,0
109980.719,-1.953,11.230,-19.531,33.691,0.000,0
109980.723,8.789,25.391,-4.883,40.527,0.000,0
109980.727,-6.836,28.809,-21.973,30.273,0.000,0
109980.730,4.883,32.715,-20.508,30.762,0.000,0
109980.734,10.742,38.086,4.395,30.762,0.000,0
109980.738,8.789,49.316,10.742,35.156,0.000,0
109980.742,13.184,42.480,-16.602,50.293,0.000,0
109980.746,-3.906,22.949,-19.531,43.457,0.000,0
109980.750,1.465,34.180,10.254,44.434,0.000,0
109980.754,27.832,41.992,14.160,59.082,0.000,0
109980.758,22.949,30.273,0.000,49.805,0.000,0
109980.762,-12.695,16.113,-5.859,34.668,0.000,0
109980.766,-15.137,8.301,15.137,31.250,0.000,0
109980.770,-1.465,9.277,20.996,31.738,0.000,0
109980.773,2.930,15.625,0.977,40.039,0.000,0
109980.777,0.488,5.371,-26.855,41.504,0.000,0
109980.781,7.812,-8.301,-24.414,32.715,0.000,0
109980.785,11.230,-9.277,-4.395,22.461,0.000,0
109980.789,-12.207,-10.254,-21.973,12.207,0.000,0
109980.793,-22.949,-8.301,-21.973,14.648,0.000,0
109980.797,-19.043,-11.230,-16.602,9.277,0.000,0
109980.801,-12.207,-20.508,-25.391,4.883,0.000,0
109980.805,-14.160,-32.227,-43.945,8.301,0.000,0
109980.809,-9.766,-27.344,-43.457,15.137,0.000,0
109980.813,4.883,-13.184,-11.719,23.926,0.000,0
109980.816,10.254,-22.461,-31.250,13.672,0.000,0
109980.820,5.371,-24.902,-41.504,9.277,0.000,0
109980.824,-1.953,-22.461,-33.691,7.324,0.000,0
109980.828,4.395,-22.949,-39.551,11.230,0.000,0
109980.832,11.719,-20.020,-34.180,12.695,0.000,0
109980.836,-6.348,-28.320,-41.016,-7.812,0.000,0
109980.840,-18.066,-31.250,-59.082,-18.555,0.000,0
109980.844,-10.254,-30.273,-53.711,-6.348,0.000,0
109980.848,10.742,-21.484,-41.016,8.301,0.000,0
109980.852,33.203,-0.977,-25.879,32.715,0.000,0
109980.855,22.461,-7.324,-33.203,32.715,0.000,0
109980.859,10.742,-19.531,-49.316,9.766,0.000,0
109980.863,20.508,-21.973,-41.992,1.953,0.000,0
109980.867,24.902,-19.043,-34.180,7.812,0.000,0
109980.871,9.277,-31.250,-53.223,-2.441,0.000,0
109980.875,1.953,-37.598,-69.824,-16.113,0.000,0
109980.879,10.254,-26.855,-61.523,2.930,0.000,0
109980.883,28.809,-12.695,-30.762,12.695,0.000,0
109980.887,30.762,-10.742,-32.227,16.602,0.000,0
109980.891,15.137,-27.344,-63.965,3.906,0.000,0
109980.895,24.414,-33.691,-62.988,-9.766,0.000,0
109980.898,22.461,-33.691,-51.758,8.789,0.000,0
109980.902,20.508,-41.992,-54.199,1.465,0.000,0
109980.906,25.391,-42.969,-75.684,-7.812,0.000,0
109980.910,12.207,-46.875,-92.773,-16.113,0.000,0
109980.914,26.855,-44.434,-71.289,-13.672,0.000,0
109980.918,48.828,-27.344,-48.340,10.254,0.000,0
109980.922,50.293,-24.414,-47.363,10.742,0.000,0
109980.926,43.945,-34.180,-64.453,-1.953,0.000,0
109980.930,53.711,-36.133,-62.012,-8.789,0.000,0
109980.934,69.824,-35.645,-54.199,-13.184,0.000,0
109980.938,82.031,-28.809,-54.688,-5.371,0.000,0
109980.941,94.238,-20.508,-43.945,11.719,0.000,0
109980.945,89.355,-19.531,-29.785,8.789,0.000,0
109980.949,95.215,-12.207,-20.996,13.184,0.000,0
109980.953,110.352,-11.719,-39.551,10.254,0.000,0
109980.957,98.145,-17.578,-51.758,4.395,0.000,0
109980.961,90.820,-14.160,-29.297,2.930,0.000,0
109980.965,90.332,-13.672,-20.508,3.906,0.000,0
109980.969,80.078,-21.973,-42.969,0.000,0.000,0
109980.973,88.379,-8.301,-38.086,10.254,0.000,0
109980.977,89.355,-4.883,-28.320,15.137,0.000,0
109980.980,79.102,-14.160,-20.996,1.953,0.000,0
109980.984,80.566,-14.160,-16.113,7.812,0.000,0
109980.988,81.543,-13.672,-27.344,14.648,0.000,0
109980.992,75.684,-10.742,-24.902,12.695,0.000,0
109980.996,54.199,-15.625,-27.344,1.465,0.000,0
109981.000,48.828,-20.996,-17.578,0.488,0.000,0
109981.004,64.453,-20.020,-8.789,4.395,0.000,0
109981.008,50.293,-20.996,-17.090,7.324,0.000,0
109981.012,41.016,-16.602,-15.625,6.348,0.000,0
109981.016,55.176,-19.043,-22.461,6.836,0.000,0
109981.020,63.965,-18.555,-10.254,4.883,0.000,0
109981.023,51.758,-15.625,-1.465,10.254,0.000,0
109981.027,39.062,-19.531,-16.113,6.836,0.000,0
109981.031,27.832,-24.414,-6.836,0.977,0.000,0
109981.035,25.879,-22.461,-4.395,7.812,0.000,0
109981.039,37.598,-22.461,-15.625,5.859,0.000,0
109981.043,22.949,-29.785,-22.949,-5.859,0.000,0
109981.047,23.438,-22.461,-16.113,10.254,0.000,0
109981.051,53.711,-9.766,13.184,28.809,0.000,0
109981.055,44.434,-8.301,10.742,28.809,0.000,0
109981.059,14.160,-27.832,-31.250,5.859,0.000,0
109981.063,18.555,-28.809,-12.207,4.883,0.000,0
109981.066,26.855,-19.531,14.160,16.602,0.000,0
109981.070,32.715,-21.484,-10.254,14.648,0.000,0
109981.074,21.973,-21.484,-26.367,21.973,0.000,0
109981.078,36.621,-12.207,2.930,28.320,0.000,0
109981.082,32.715,-13.184,20.996,14.648,0.000,0
109981.086,17.578,-16.113,6.836,5.371,0.000,0
109981.090,17.090,-17.090,-22.461,6.836,0.000,0
109981.094,14.648,-20.508,-16.602,21.484,0.000,0
109981.098,29.297,-20.508,12.207,20.508,0.000,0
109981.102,32.227,-17.090,4.395,15.137,0.000,0
109981.105,12.695,-11.719,-3.906,17.578,0.000,0
109981.109,18.555,-12.207,3.418,7.324,0.000,0
109981.113,28.809,-12.207,0.977,20.020,0.000,0
109981.117,28.320,-9.277,20.020,34.180,0.000,0
109981.121,29.297,-13.184,20.996,18.555,0.000,0
109981.125,26.367,-11.719,-4.395,18.066,0.000,0
109981.129,40.039,-5.371,-4.395,37.109,0.000,0
109981.133,28.320,-18.066,-18.066,29.785,0.000,0
109981.137,23.926,-4.883,-0.977,24.902,0.000,0
109981.141,36.133,3.906,17.578,24.414,0.000,0
109981.145,6.836,-11.719,2.441,5.371,0.000,0
109981.148,7.324,-3.418,-0.488,10.254,0.000,0
109981.152,43.457,13.184,12.207,35.645,0.000,0
109981.156,34.180,13.672,16.602,31.738,0.000,0
109981.160,31.250,21.484,20.508,35.156,0.000,0
109981.164,25.391,16.113,26.855,19.531,0.000,0
109981.168,-4.395,-5.859,-0.488,-4.395,0.000,0
109981.172,-3.418,-4.395,-23.926,10.742,0.000,0
109981.176,20.996,13.184,-11.230,30.273,0.000,0
109981.180,31.738,18.555,0.488,36.133,0.000,0
109981.184,50.293,29.297,23.926,40.527,0.000,0
109981.188,41.016,35.645,15.137,38.574,0.000,0
109981.191,18.555,15.137,-26.367,24.902,0.000,0
109981.195,16.113,13.184,-12.695,27.344,0.000,0
109981.199,17.578,22.949,10.742,17.578,0.000,0
109981.203,27.832,28.320,11.230,19.531,0.000,0
109981.207,51.758,40.039,3.418,48.828,0.000,0
109981.211,48.828,37.598,6.348,47.363,0.000,0
109981.215,40.527,33.203,19.531,47.852,0.000,0
109981.219,34.668,30.762,16.113,38.574,0.000,0
109981.223,39.551,27.344,-11.719,26.855,0.000,0
109981.227,42.969,31.738,-13.672,34.668,0.000,0
109981.230,26.855,33.691,12.695,41.504,0.000,0
109981.234,36.133,28.320,10.742,40.039,0.000,0
109981.238,44.434,22.949,1.953,33.691,0.000,0
109981.242,46.387,28.320,5.859,37.109,0.000,0
109981.246,59.082,30.762,16.602,41.992,0.000,0
109981.250,54.688,27.344,24.902,38.574,0.000,0
109981.254,58.105,31.250,17.578,49.316,0.000,0
109981.258,67.383,40.039,16.113,58.594,0.000,0
109981.262,66.406,40.527,12.207,63.965,0.000,0
109981.266,75.684,31.738,10.742,61.523,0.000,0
109981.270,74.707,38.574,31.250,56.641,0.000,0
109981.273,58.594,41.016,16.602,64.453,0.000,0
109981.277,49.316,36.621,24.414,51.758,0.000,0
109981.281,49.805,33.203,36.621,40.527,0.000,0
109981.285,49.316,31.250,10.254,52.246,0.000,0
109981.289,48.340,39.062,8.301,56.152,0.000,0
109981.293,53.223,33.203,-1.953,53.711,0.000,0
109981.297,38.574,15.137,-7.324,34.668,0.000,0
109981.301,19.043,-4.395,-14.648,17.578,0.000,0
109981.305,25.879,-4.883,-17.090,33.203,0.000,0
109981.309,26.855,-3.418,-12.207,21.973,0.000,0
109981.313,29.785,0.488,-2.930,25.391,0.000,0
109981.316,34.180,8.789,3.906,35.645,0.000,0
109981.320,17.578,4.883,-15.625,12.207,0.000,0
109981.324,9.277,-0.977,-37.598,12.695,0.000,0
109981.328,20.996,-5.859,-42.969,22.949,0.000,0
109981.332,1.465,-28.809,-38.574,-0.488,0.000,0
109981.336,-32.715,-50.293,-39.551,-42.969,0.000,0
109981.340,-18.066,-46.387,-66.895,-27.832,0.000,0
109981.344,-17.090,-41.504,-75.684,-10.254,0.000,0
109981.348,-31.738,-49.316,-60.547,-36.133,0.000,0
109981.352,-47.852,-74.707,-85.449,-58.594,0.000,0
109981.355,-70.312,-93.750,-109.863,-83.496,0.000,0
109981.359,-85.449,-103.027,-102.539,-105.469,0.000,0
109981.363,-89.844,-104.980,-103.516,-96.191,0.000,0
109981.367,-77.637,-108.398,-100.098,-85.938,0.000,0
109981.371,-74.219,-113.770,-116.699,-91.309,0.000,0
109981.375,-86.914,-116.699,-133.301,-98.633,0.000,0
109981.379,-94.727,-118.164,-116.211,-105.469,0.000,0
109981.383,-97.168,-126.953,-124.023,-108.887,0.000,0
109981.387,-117.676,-141.602,-158.203,-119.141,0.000,0
109981.391,-124.023,-142.090,-169.434,-127.930,0.000,0
109981.395,-129.395,-149.902,-166.016,-143.555,0.000,0
109981.398,-142.090,-156.250,-150.879,-158.203,0.000,0
109981.402,-138.672,-152.832,-172.852,-148.438,0.000,0
109981.406,-136.719,-156.250,-215.332,-137.695,0.000,0
109981.410,-143.066,-163.574,-215.820,-140.625,0.000,0
109981.414,-173.340,-178.711,-199.707,-161.133,0.000,0
109981.418,-188.477,-191.406,-213.379,-183.594,0.000,0
109981.422,-167.969,-183.594,-239.746,-176.758,0.000,0
109981.426,-171.875,-176.270,-230.957,-173.828,0.000,0
109981.430,-176.270,-184.082,-223.145,-180.176,0.000,0
109981.434,-193.848,-208.496,-228.516,-199.219,0.000,0
109981.438,-212.891,-223.633,-232.422,-221.680,0.000,0
109981.441,-194.824,-216.309,-240.234,-212.891,0.000,0
109981.445,-181.641,-217.285,-215.332,-209.961,0.000,0
109981.449,-198.242,-229.004,-208.496,-219.727,0.000,0
109981.453,-217.773,-234.863,-213.379,-239.746,0.000,0
109981.457,-207.031,-221.191,-199.707,-229.980,0.000,0
109981.461,-199.707,-216.797,-189.941,-215.332,0.000,0
109981.465,-182.617,-209.961,-163.574,-213.379,0.000,0
109981.469,-180.176,-200.684,-162.109,-208.496,0.000,0
109981.473,-182.129,-201.660,-169.922,-223.633,0.000,0
109981.477,-160.645,-186.523,-153.320,-229.004,0.000,0
109981.480,-152.832,-167.969,-131.836,-202.637,0.000,0
109981.484,-128.906,-159.180,-118.164,-163.574,0.000,0
109981.488,-120.605,-153.809,-133.789,-145.508,0.000,0
109981.492,-115.234,-145.996,-139.648,-133.301,0.000,0
109981.496,-87.891,-132.812,-111.816,-118.164,0.000,0
109981.500,-92.285,-124.512,-88.379,-113.770,0.000,0
109981.504,-103.516,-111.816,-72.754,-130.859,0.000,0
109981.508,-90.332,-101.562,-99.121,-106.934,0.000,0
109981.512,-77.148,-94.727,-102.539,-83.984,0.000,0
109981.516,-64.941,-85.938,-59.082,-96.680,0.000,0
109981.520,-48.340,-72.266,-62.012,-63.965,0.000,0
109981.523,-42.969,-63.965,-82.520,-53.711,0.000,0
109981.527,-29.785,-55.664,-63.965,-49.805,0.000,0
109981.531,-30.273,-52.246,-37.598,-42.480,0.000,0
109981.535,-21.973,-48.828,-24.414,-48.340,0.000,0
109981.539,-12.207,-30.273,-16.113,-20.508,0.000,0
109981.543,-9.277,-25.391,-18.066,-24.902,0.000,0
109981.547,-22.949,-42.480,-26.855,-50.781,0.000,0
109981.551,-35.156,-48.340,-42.969,-32.715,0.000,0
109981.555,-30.273,-48.340,-58.594,-53.711,0.000,0
109981.559,-33.203,-52.734,-53.223,-69.824,0.000,0
109981.563,-31.738,-46.875,-41.016,-46.875,0.000,0
109981.566,-26.855,-36.621,-21.973,-37.109,0.000,0
109981.570,-19.531,-28.809,-20.508,-32.715,0.000,0
109981.574,-12.695,-20.508,-11.230,-23.926,0.000,0
109981.578,-14.648,-9.277,15.137,-20.020,0.000,0
109981.582,-1.953,-11.230,0.488,-24.414,0.000,0
109981.586,2.930,-19.531,-16.113,-27.344,0.000,0
109981.590,0.488,-7.812,-10.742,-5.859,0.000,0
109981.594,9.766,3.418,2.930,0.000,0.000,0
109981.598,0.977,-5.859,-2.441,-12.695,0.000,0
109981.602,-0.977,-12.695,-16.113,-9.766,0.000,0
109981.605,9.766,-2.930,-4.883,-1.953,0.000,0
109981.609,24.414,14.160,12.207,8.789,0.000,0
109981.613,30.273,19.043,26.855,0.000,0.000,0
109981.617,28.809,20.996,38.574,0.488,0.000,0
109981.621,38.574,28.320,23.926,30.762,0.000,1
109981.625,35.645,21.973,4.395,26.367,0.000,0
109981.629,31.738,19.531,17.090,25.391,0.000,0
109981.633,42.969,30.762,51.270,44.434,0.000,0
109981.637,42.480,40.039,56.641,41.504,0.000,0
109981.641,52.734,54.199,44.434,51.758,0.000,0
109981.645,65.430,58.105,41.504,69.336,0.000,0
109981.648,70.312,60.547,56.641,77.148,0.000,0
109981.652,84.961,59.570,65.430,73.242,0.000,0
109981.656,80.566,57.129,47.852,73.242,0.000,0
109981.660,66.895,63.477,41.504,80.566,0.000,0
109981.664,76.660,60.059,52.246,76.660,0.000,0
109981.668,87.891,53.711,47.852,79.590,0.000,0
109981.672,79.102,45.410,33.203,72.754,0.000,0
109981.676,81.543,48.340,34.668,69.824,0.000,0
109981.680,67.383,40.039,34.668,57.129,0.000,0
109981.684,54.688,30.762,26.367,47.363,0.000,0
109981.688,60.547,31.250,7.812,63.965,0.000,0
109981.691,56.152,26.855,-0.488,53.223,0.000,0
109981.695,51.758,28.809,13.672,48.828,0.000,0
109981.699,60.547,35.645,25.879,66.406,0.000,0
109981.703,64.941,32.715,15.137,60.547,0.000,0
109981.707,54.688,31.250,6.836,39.062,0.000,0
109981.711,59.082,36.621,23.926,41.504,0.000,0
109981.715,50.781,29.297,19.531,53.711,0.000,0
109981.719,46.875,16.602,7.812,37.109,0.000,0
109981.723,45.410,18.555,8.301,33.691,0.000,0
109981.727,57.617,26.367,-1.953,43.457,0.000,0
109981.730,55.664,27.832,18.555,42.969,0.000,0
109981.734,22.949,26.367,31.738,43.945,0.000,0
109981.738,24.414,28.320,7.324,46.875,0.000,0
109981.742,52.734,31.250,6.836,56.641,0.000,0
109981.746,60.059,29.297,9.277,62.988,0.000,0
109981.750,46.875,21.484,16.113,49.316,0.000,0
109981.754,42.480,17.090,14.160,35.645,0.000,0
109981.758,32.715,17.578,-9.766,47.852,0.000,0
109981.762,19.531,6.836,-19.043,44.922,0.000,0
109981.766,6.348,0.000,-11.719,26.855,0.000,0
109981.770,2.930,9.277,0.000,31.738,0.000,0
109981.773,15.625,16.113,-0.488,40.527,0.000,0
109981.777,21.484,18.555,-10.254,41.016,0.000,0
109981.781,6.348,19.043,8.789,38.086,0.000,0
109981.785,17.090,29.297,33.691,55.176,0.000,0
109981.789,22.461,25.879,4.395,62.012,0.000,0
109981.793,17.578,12.207,-15.137,33.691,0.000,0
109981.797,23.926,15.137,10.254,27.832,0.000,0
109981.801,27.832,16.602,26.855,51.758,0.000,0
109981.805,30.762,20.508,23.926,54.199,0.000,0
109981.809,36.133,26.855,16.113,52.246,0.000,0
109981.813,39.551,33.691,35.156,75.684,0.000,0
109981.816,24.414,23.438,28.320,60.059,0.000,0
109981.820,18.555,19.531,25.879,32.715,0.000,0
109981.824,37.109,36.621,32.715,49.316,0.000,0
109981.828,38.574,39.551,22.949,65.430,0.000,0
109981.832,24.414,29.785,34.180,58.105,0.000,0
109981.836,30.762,26.855,25.391,50.293,0.000,0
109981.840,34.180,21.484,2.930,48.340,0.000,0
109981.844,33.691,25.391,19.043,44.434,0.000,0
109981.848,34.668,30.762,46.387,50.781,0.000,0
109981.852,23.438,14.648,32.715,37.598,0.000,0
109981.855,8.301,7.324,9.277,27.832,0.000,0
109981.859,14.160,10.742,4.883,28.809,0.000,0
109981.863,9.766,-3.906,0.000,22.461,0.000,0
109981.867,21.973,6.836,17.090,25.879,0.000,0
109981.871,51.270,31.250,48.340,27.344,0.000,0
109981.875,44.434,34.668,37.598,41.992,0.000,0
109981.879,19.531,23.438,19.043,40.527,0.000,0
109981.883,20.996,9.766,15.625,20.508,0.000,0
109981.887,9.766,-2.930,0.977,10.254,0.000,0
109981.891,-8.789,-17.090,-0.977,-13.672,0.000,0
109981.895,5.371,-19.043,-7.324,-26.855,0.000,0
109981.898,-1.465,-21.973,-24.414,-6.348,0.000,0
109981.902,-13.184,-17.090,-5.371,9.766,0.000,0
109981.906,10.742,3.418,11.719,5.859,0.000,0
109981.910,41.992,13.184,12.695,12.695,0.000,0
109981.914,35.645,10.254,22.461,21.973,0.000,0
109981.918,22.461,11.719,28.320,20.996,0.000,0
109981.922,31.250,17.090,33.203,17.578,0.000,0
109981.926,41.504,20.996,29.785,30.762,0.000,0
109981.930,13.184,5.859,15.625,20.996,0.000,0
109981.934,-10.254,0.000,20.508,5.371,0.000,0
109981.938,-2.930,4.883,15.625,20.996,0.000,0
109981.941,-9.766,-5.859,-6.348,11.230,0.000,0
109981.945,4.395,-2.930,6.836,0.977,0.000,0
109981.949,11.719,0.977,34.180,0.977,0.000,0
109981.953,10.254,-0.488,24.902,14.648,0.000,0
109981.957,17.578,-5.859,3.906,15.625,0.000,0
109981.961,4.883,-6.348,-1.465,19.043,0.000,0
109981.965,-4.395,0.488,15.625,22.949,0.000,0
109981.969,2.930,3.906,34.668,11.230,0.000,0
109981.973,15.625,12.207,34.668,19.531,0.000,0
109981.977,32.715,15.625,18.066,33.691,0.000,0
109981.980,23.926,13.672,31.250,32.227,0.000,0
109981.984,24.902,8.301,31.250,30.762,0.000,0
109981.988,32.227,4.395,16.113,27.832,0.000,0
109981.992,19.531,12.207,24.902,38.086,0.000,0
109981.996,6.836,4.395,15.625,30.273,0.000,0
109982.000,16.602,-0.977,15.137,24.414,0.000,0
109982.004,19.531,0.000,0.000,27.832,0.000,0
109982.008,12.207,0.977,0.488,34.668,0.000,0
109982.012,11.230,-0.977,12.695,22.949,0.000,0
109982.016,24.414,-2.930,15.137,17.578,0.000,0
109982.020,31.250,7.812,18.066,37.109,0.000,0
109982.023,26.367,14.160,20.996,39.062,0.000,0
109982.027,19.043,2.441,27.832,29.297,0.000,0
109982.031,13.672,-7.812,-1.465,27.344,0.000,0
109982.035,15.137,-10.254,-12.695,22.949,0.000,0
109982.039,8.301,-5.371,-3.906,21.484,0.000,0
109982.043,6.348,-0.977,-6.348,24.414,0.000,0
109982.047,22.949,4.883,9.277,21.973,0.000,0
109982.051,29.297,14.648,27.832,28.809,0.000,0
109982.055,23.926,14.160,7.812,41.504,0.000,0
109982.059,17.090,7.324,-12.695,31.250,0.000,0
109982.063,16.113,10.254,1.953,21.484,0.000,0
109982.066,19.043,15.137,23.926,20.508,0.000,0
109982.070,22.949,19.531,21.973,24.902,0.000,0
109982.074,27.832,18.555,-2.930,25.391,0.000,0
109982.078,23.926,11.719,-1.953,16.602,0.000,0
109982.082,21.973,5.371,2.441,19.531,0.000,0
109982.086,37.598,10.742,6.348,23.438,0.000,0
109982.090,32.227,17.578,4.395,34.180,0.000,0
109982.094,10.254,1.953,-26.367,20.996,0.000,0
109982.098,7.324,-4.883,-18.066,7.812,0.000,0
109982.102,11.719,-6.836,-4.883,6.348,0.000,0
109982.105,36.133,-0.488,-3.418,23.926,0.000,0
109982.109,47.852,24.414,11.719,48.828,0.000,0
109982.113,46.387,33.203,18.066,62.012,0.000,0
109982.117,52.734,26.855,13.672,63.477,0.000,0
109982.121,59.082,29.297,-1.465,64.453,0.000,0
109982.125,47.852,31.250,-3.418,64.453,0.000,0
109982.129,40.527,38.086,36.621,62.988,0.000,0
109982.133,49.805,47.852,50.781,76.172,0.000,0
109982.137,49.805,42.480,20.020,72.266,0.000,0
109982.141,53.711,37.598,5.859,62.012,0.000,0
109982.145,62.012,42.480,7.812,68.359,0.000,0
109982.148,65.430,47.363,20.020,72.754,0.000,0
109982.152,48.828,42.969,10.742,65.918,0.000,0
109982.156,41.016,33.691,-11.230,63.965,0.000,0
109982.160,29.785,29.785,-12.695,55.664,0.000,0
109982.164,24.414,23.926,-5.371,45.410,0.000,0
109982.168,16.602,8.301,-12.695,29.785,0.000,0
109982.172,-2.930,-1.953,-28.320,16.113,0.000,0
109982.176,-2.930,-3.906,-45.410,11.719,0.000,0
109982.180,-10.742,-11.719,-58.594,6.348,0.000,0
109982.184,-20.996,-20.508,-62.988,-7.812,0.000,0
109982.188,-16.602,-20.996,-62.500,-21.484,0.000,0
109982.191,-24.902,-15.137,-68.848,-11.719,0.000,0
109982.195,-23.438,-13.184,-67.871,-1.465,0.000,0
109982.199,-25.391,-22.461,-62.500,-21.484,0.000,0
109982.203,-33.691,-25.879,-75.684,-29.297,0.000,0
109982.207,-27.832,-26.367,-77.148,-19.043,0.000,0
109982.211,-29.785,-29.297,-86.426,-17.578,0.000,1
109982.215,-36.621,-44.434,-100.586,-36.133,0.000,0
109982.219,-30.762,-48.828,-91.309,-29.297,0.000,0
109982.223,-41.016,-43.457,-96.191,-25.879,0.000,0
109982.227,-59.082,-44.922,-106.934,-46.387,0.000,0
109982.230,-52.246,-34.180,-88.379,-41.504,0.000,0
109982.234,-58.105,-29.297,-87.891,-39.062,0.000,0
109982.238,-48.828,-22.949,-97.168,-17.578,0.000,0
109982.242,-33.203,-16.113,-85.938,-13.184,0.000,0
109982.246,-50.293,-25.879,-77.637,-27.344,0.000,0
109982.250,-56.152,-36.133,-70.801,-28.320,0.000,0
109982.254,-57.617,-41.992,-75.684,-38.574,0.000,0
109982.258,-62.012,-49.316,-86.914,-37.109,0.000,0
109982.262,-52.246,-57.129,-82.520,-34.180,0.000,0
109982.266,-50.293,-55.664,-53.711,-28.809,0.000,0
109982.270,-42.969,-49.805,-48.828,-20.020,0.000,0
109982.273,-41.992,-49.316,-72.754,-20.996,0.000,0
109982.277,-48.340,-48.828,-65.430,-18.066,0.000,0
109982.281,-36.133,-49.805,-42.480,-12.207,0.000,0
109982.285,-22.461,-48.340,-26.855,-10.254,0.000,0
109982.289,-25.879,-44.434,-36.621,-6.348,0.000,0
109982.293,-38.574,-44.922,-43.457,-2.441,0.000,0
109982.297,-31.250,-41.992,-23.926,-6.836,0.000,0
109982.301,-23.926,-37.109,-12.695,-1.465,0.000,0
109982.305,-35.156,-45.410,-23.438,-9.277,0.000,0
109982.309,-31.250,-49.316,-32.715,-15.137,0.000,0
109982.313,-20.996,-44.434,-11.230,-12.207,0.000,0
109982.316,-25.391,-52.246,-7.812,-20.996,0.000,0
109982.320,-10.254,-48.828,-17.578,-17.578,0.000,0
109982.324,-5.859,-47.852,-16.602,-15.137,0.000,0
109982.328,-26.855,-57.617,-17.578,-24.414,0.000,0
109982.332,-10.742,-54.688,-8.789,-25.391,0.000,0
109982.336,3.906,-49.316,-3.418,-13.184,0.000,0
109982.340,1.465,-36.133,-15.137,-7.812,0.000,0
109982.344,11.230,-35.645,-3.906,-17.090,0.000,0
109982.348,8.789,-44.434,8.301,-21.973,0.000,0
109982.352,2.930,-42.480,6.348,-25.879,0.000,0
109982.355,10.742,-31.738,11.719,-12.207,0.000,0
109982.359,12.207,-26.855,6.348,-2.930,0.000,0
109982.363,21.973,-34.180,15.625,-16.113,0.000,0
109982.367,32.715,-27.832,31.250,-15.625,0.000,0
109982.371,14.648,-25.391,13.672,-4.883,0.000,0
109982.375,19.531,-26.367,10.254,1.465,0.000,0
109982.379,25.879,-18.555,17.578,-6.836,0.000,0
109982.383,28.320,-15.137,32.227,-6.348,0.000,0
109982.387,43.945,-8.301,32.715,3.418,0.000,0
109982.391,42.969,5.371,24.902,11.719,0.000,0
109982.395,37.598,12.207,29.297,15.625,0.000,0
109982.398,46.875,14.648,36.133,19.043,0.000,0
109982.402,53.223,21.973,54.199,24.902,0.000,0
109982.406,50.781,24.902,42.969,20.996,0.000,0
109982.410,46.875,18.555,19.531,20.020,0.000,0
109982.414,48.828,10.742,28.809,25.879,0.000,0
109982.418,45.410,11.230,36.621,19.531,0.000,0
109982.422,40.527,12.207,31.738,18.066,0.000,0
109982.426,37.109,4.395,24.414,1.953,0.000,0
109982.430,18.555,3.906,17.578,-8.301,0.000,0
109982.434,32.227,13.184,36.133,16.113,0.000,0
109982.438,42.969,14.160,26.855,22.461,0.000,0
109982.441,34.668,14.160,0.977,16.113,0.000,0
109982.445,42.480,21.484,24.414,25.391,0.000,0
109982.449,34.668,17.090,30.273,23.438,0.000,0
109982.453,41.016,14.160,21.484,12.207,0.000,0
109982.457,47.363,22.461,24.414,18.066,0.000,0
109982.461,36.621,15.137,13.672,11.719,0.000,0
109982.465,40.527,14.160,26.367,13.184,0.000,0
109982.469,44.434,17.090,24.902,21.973,0.000,0
109982.473,41.504,5.859,-3.418,21.973,0.000,0
109982.477,46.875,8.301,-6.836,25.391,0.000,0
109982.480,36.133,10.254,4.883,16.602,0.000,0
109982.484,33.691,14.160,19.531,22.949,0.000,0
109982.488,43.457,22.461,11.719,35.156,0.000,0
109982.492,38.574,17.578,-1.465,32.227,0.000,0
109982.496,36.621,10.254,1.465,24.414,0.000,0
109982.500,21.484,-0.977,4.395,4.395,0.000,0
109982.504,20.508,5.371,10.742,16.602,0.000,0
109982.508,36.133,20.020,7.324,39.551,0.000,0
109982.512,27.832,14.648,-5.859,24.902,0.000,0
109982.516,30.273,14.648,10.742,18.066,0.000,0
109982.520,37.598,14.648,15.137,24.902,0.000,0
109982.523,23.926,7.812,-16.113,16.113,0.000,0
109982.527,15.137,12.695,-18.555,12.695,0.000,0
109982.531,42.480,19.531,12.207,24.414,0.000,0
109982.535,58.105,22.461,37.109,26.855,0.000,0
109982.539,32.715,19.531,9.766,25.879,0.000,0
109982.543,19.531,6.836,-26.855,15.625,0.000,0
109982.547,29.785,-3.418,-26.855,6.836,0.000,0
109982.551,44.434,2.441,-7.324,20.508,0.000,0
109982.555,54.688,13.672,0.977,25.391,0.000,0
109982.559,40.039,1.465,-13.672,9.766,0.000,0
109982.563,31.250,-16.113,-16.602,-5.859,0.000,0
109982.566,47.363,-12.695,-12.207,-3.418,0.000,0
109982.570,28.809,-20.508,-28.809,-18.555,0.000,0
109982.574,13.184,-24.414,-32.715,-30.762,0.000,0
109982.578,31.250,-14.648,-15.137,-4.883,0.000,0
109982.582,29.297,-18.066,-5.371,-5.371,0.000,0
109982.586,13.672,-20.508,-12.207,-17.090,0.000,0
109982.590,14.648,-18.555,-33.691,-10.742,0.000,0
109982.594,39.551,-7.812,-29.785,-1.465,0.000,0
109982.598,33.691,-12.207,-10.254,-8.301,0.000,0
109982.602,28.320,-24.414,-0.977,-17.090,0.000,0
109982.605,29.785,-21.973,-23.438,-14.648,0.000,0
109982.609,29.785,-19.043,-37.109,-2.930,0.000,0
109982.613,20.020,-25.391,-25.391,-9.766,0.000,0
109982.617,15.137,-26.367,-26.855,-23.926,0.000,0
109982.621,41.016,-18.066,-13.184,-12.695,0.000,0
109982.625,40.039,-15.137,-13.672,-3.418,0.000,0
109982.629,20.020,-21.484,-17.578,1.953,0.000,0
109982.633,21.484,-32.227,-24.414,-3.418,0.000,0
109982.637,11.230,-35.156,-27.344,-12.207,0.000,0
109982.641,19.043,-25.879,-4.883,-4.395,0.000,0
109982.645,23.438,-23.926,-20.508,-8.301,0.000,0
109982.648,9.277,-34.180,-40.527,-22.461,0.000,0
109982.652,15.137,-39.551,-35.156,-25.879,0.000,0
109982.656,18.555,-30.762,-28.809,-18.066,0.000,0
109982.660,13.184,-29.785,-14.648,-12.207,0.000,0
109982.664,17.090,-24.414,9.277,-10.254,0.000,0
109982.668,24.414,-16.113,15.625,-2.441,0.000,0
109982.672,14.648,-27.344,-6.836,-11.719,0.000,0
109982.676,7.324,-26.367,-25.879,-9.277,0.000,0
109982.680,-2.930,-30.762,-15.137,-12.695,0.000,0
109982.684,3.906,-37.598,-12.695,-31.250,0.000,0
109982.688,7.812,-31.250,-21.484,-20.996,0.000,0
109982.691,-8.789,-34.668,-27.832,-21.973,0.000,0
109982.695,-3.906,-33.203,-25.879,-30.762,0.000,0
109982.699,10.742,-28.320,12.695,-32.715,0.000,0
109982.703,7.324,-21.484,21.973,-28.320,0.000,0
109982.707,5.859,-20.020,-34.180,-20.508,0.000,0
109982.711,13.184,-29.297,-46.875,-25.879,0.000,0
109982.715,-6.348,-30.762,-24.414,-27.832,0.000,0
109982.719,-1.465,-29.297,-10.254,-20.508,0.000,0
109982.723,14.160,-20.508,8.301,-16.113,0.000,0
109982.727,-9.766,-20.996,-16.113,-19.043,0.000,0
109982.730,-13.672,-31.250,-37.109,-19.531,0.000,0
109982.734,3.906,-29.785,-13.672,-8.301,0.000,0
109982.738,1.465,-26.367,-14.160,-24.414,0.000,0
109982.742,-6.348,-31.250,-19.043,-33.691,0.000,0
109982.746,0.000,-29.785,-19.531,-9.766,0.000,0
109982.750,-6.836,-27.832,-9.277,-12.207,0.000,0
109982.754,-22.461,-37.109,-25.391,-19.043,0.000,0
109982.758,-12.695,-37.598,-40.039,-18.066,0.000,0
109982.762,-1.953,-32.715,-28.809,-16.602,0.000,0
109982.766,-2.441,-32.715,-29.297,-11.719,0.000,0
109982.770,1.953,-30.273,-22.949,-19.043,0.000,0
109982.773,-3.906,-30.273,-28.320,-6.836,0.000,0
109982.777,-4.883,-34.180,-25.879,-9.277,0.000,0
109982.781,-14.160,-34.180,-15.625,-22.461,0.000,0
109982.785,-12.695,-36.621,-34.180,-22.949,0.000,0
109982.789,-15.625,-40.039,-45.410,-21.973,0.000,0
109982.793,-32.715,-41.504,-51.758,-32.227,0.000,0
109982.797,-25.391,-47.363,-52.734,-51.758,0.000,0
109982.801,-15.137,-43.945,-38.086,-44.922,0.000,0
109982.805,-24.414,-42.480,-47.852,-39.062,0.000,0
109982.809,-22.461,-47.852,-69.336,-47.363,0.000,0
109982.813,-19.043,-55.664,-73.730,-53.223,0.000,0
109982.816,-29.297,-56.152,-51.758,-54.199,0.000,0
109982.820,-30.273,-47.852,-43.457,-46.875,0.000,0
109982.824,-23.438,-46.875,-68.848,-47.852,0.000,0
109982.828,-15.625,-51.758,-81.055,-51.270,0.000,0
109982.832,-18.066,-49.316,-56.641,-48.340,0.000,0
109982.836,-19.531,-46.387,-41.016,-55.176,0.000,0
109982.840,-19.531,-54.688,-56.641,-66.895,0.000,0
109982.844,-34.668,-62.988,-66.406,-75.195,0.000,0
109982.848,-30.273,-58.594,-54.688,-60.547,0.000,0
109982.852,-24.902,-56.641,-39.551,-49.805,0.000,0
109982.855,-30.762,-62.012,-54.199,-59.570,0.000,0
109982.859,-23.438,-55.664,-63.477,-61.035,0.000,0
109982.863,-28.809,-58.594,-38.574,-65.430,0.000,1
109982.867,-34.668,-58.105,-27.832,-56.152,0.000,0
109982.871,-27.832,-51.758,-39.551,-46.875,0.000,0
109982.875,-22.461,-53.711,-41.504,-46.387,0.000,0
109982.879,-13.184,-51.270,-31.738,-32.227,0.000,0
109982.883,-26.367,-55.176,-38.574,-36.133,0.000,0
109982.887,-35.645,-60.547,-37.598,-57.129,0.000,0
109982.891,-30.273,-64.941,-49.805,-58.594,0.000,0
109982.895,-31.738,-70.801,-52.734,-49.805,0.000,0
109982.898,-42.969,-75.195,-37.109,-65.918,0.000,0
109982.902,-32.715,-66.895,-44.434,-60.547,0.000,0
109982.906,-11.230,-55.664,-41.992,-42.969,0.000,0
109982.910,-10.742,-54.688,-34.668,-42.969,0.000,0
109982.914,-15.625,-62.988,-39.551,-43.457,0.000,0
109982.918,-26.855,-70.312,-48.340,-50.781,0.000,0
109982.922,-27.832,-66.895,-51.270,-52.246,0.000,0
109982.926,-20.508,-63.965,-63.477,-45.898,0.000,0
109982.930,-22.949,-72.754,-71.777,-50.293,0.000,0
109982.934,-38.574,-78.613,-51.270,-60.547,0.000,0
109982.938,-38.086,-74.219,-50.781,-62.012,0.000,0
109982.941,-24.902,-71.289,-85.938,-57.617,0.000,0
109982.945,-23.926,-69.824,-82.520,-49.316,0.000,0
109982.949,-10.254,-61.035,-63.477,-36.133,0.000,0
109982.953,-13.184,-50.781,-57.129,-30.762,0.000,0
109982.957,-30.273,-44.922,-39.551,-41.504,0.000,0
109982.961,-18.066,-41.992,-45.410,-40.527,0.000,0
109982.965,-20.508,-46.387,-65.430,-37.109,0.000,0
109982.969,-8.301,-37.598,-59.082,-27.344,0.000,0
109982.973,2.441,-29.297,-50.293,-16.602,0.000,0
109982.977,-12.695,-41.992,-58.105,-27.832,0.000,0
109982.980,-10.742,-44.922,-52.734,-32.715,0.000,0
109982.984,-5.371,-31.250,-25.391,-23.438,0.000,0
109982.988,-9.277,-37.109,-41.504,-26.367,0.000,0
109982.992,-11.230,-36.133,-59.082,-31.250,0.000,0
109982.996,16.113,-7.812,-21.973,-18.555,0.000,0
109983.000,16.113,-12.207,-20.020,-22.461,0.000,0
109983.004,-4.395,-20.020,-36.621,-14.160,0.000,0
109983.008,-8.789,-24.414,-56.641,-12.695,0.000,0
109983.012,-1.465,-30.273,-70.312,-20.508,0.000,0
109983.016,-1.465,-32.227,-37.598,-31.738,0.000,0
109983.020,-13.672,-34.180,-35.645,-36.621,0.000,0
109983.023,-3.418,-20.996,-54.199,-6.836,0.000,0
109983.027,6.836,-10.254,-43.457,-6.836,0.000,0
109983.031,-2.441,-17.090,-49.316,-13.672,0.000,0
109983.035,8.301,-15.625,-30.273,-8.789,0.000,0
109983.039,17.090,-8.789,-26.855,-22.949,0.000,0
109983.043,-0.488,-14.160,-59.570,-19.531,0.000,0
109983.047,-4.395,-24.414,-58.594,-30.762,0.000,0
109983.051,0.977,-21.484,-47.363,-31.250,0.000,0
109983.055,-10.742,-16.602,-57.129,-20.508,0.000,0
109983.059,-27.344,-26.855,-62.500,-41.016,0.000,0
109983.063,-23.438,-27.832,-62.988,-35.156,0.000,0
109983.066,-9.277,-22.461,-65.430,-27.344,0.000,0
109983.070,-11.230,-29.785,-83.008,-40.527,0.000,0
109983.074,-19.531,-29.297,-74.219,-41.992,0.000,0
109983.078,-17.090,-30.273,-59.570,-34.668,0.000,0
109983.082,-17.090,-35.156,-67.383,-35.156,0.000,0
109983.086,-22.461,-32.715,-58.594,-36.621,0.000,0
109983.090,-26.855,-25.879,-56.152,-26.855,0.000,0
109983.094,-14.160,-26.855,-63.965,-27.832,0.000,0
109983.098,-8.301,-32.227,-48.340,-32.227,0.000,0
109983.102,-16.113,-31.250,-33.691,-33.691,0.000,0
109983.105,-11.230,-29.297,-31.738,-22.461,0.000,0
109983.109,2.930,-26.367,-42.480,-6.348,0.000,0
109983.113,6.836,-29.297,-35.645,-26.855,0.000,0
109983.117,6.348,-20.020,-1.953,-22.949,0.000,0
109983.121,18.555,-4.883,-2.930,11.719,0.000,0
109983.125,-1.953,-16.602,-22.949,-1.465,0.000,0
109983.129,-24.902,-29.297,-21.973,-23.926,0.000,0
109983.133,-18.066,-28.320,-2.441,-17.090,0.000,0
109983.137,6.836,-27.832,0.488,-5.859,0.000,0
109983.141,7.324,-22.949,5.859,-4.883,0.000,0
109983.145,-13.672,-25.391,-1.953,-1.465,0.000,0
109983.148,-19.531,-46.387,-22.461,-17.090,0.000,0
109983.152,-29.785,-47.852,-10.742,-20.996,0.000,0
109983.156,-13.184,-27.344,-4.883,-1.953,0.000,0
109983.160,-22.461,-27.344,-12.207,-19.043,0.000,0
109983.164,-38.086,-40.039,-14.648,-25.391,0.000,0
109983.168,-9.277,-36.621,1.465,-14.160,0.000,0
109983.172,-14.648,-39.551,-10.742,-25.391,0.000,0
109983.176,-27.344,-43.945,-12.695,-22.461,0.000,0
109983.180,-14.160,-35.156,-0.488,-9.277,0.000,0
109983.184,-11.719,-33.203,-10.742,2.930,0.000,0
109983.188,-5.371,-34.180,-12.695,4.883,0.000,0
109983.191,-8.301,-30.762,-10.254,3.418,0.000,0
109983.195,-17.578,-35.156,-3.418,5.859,0.000,0
109983.199,-17.090,-36.621,2.441,-14.648,0.000,0
109983.203,3.906,-26.367,2.441,-11.230,0.000,0
109983.207,13.672,-18.555,-10.742,9.766,0.000,0
109983.211,7.812,-11.719,-17.090,18.066,0.000,0
109983.215,15.137,-6.836,8.301,11.719,0.000,0
109983.219,4.883,-16.602,1.465,0.488,0.000,0
109983.223,5.859,-15.137,-12.695,13.672,0.000,0
109983.227,7.812,-7.812,-12.695,15.137,0.000,0
109983.230,-7.812,-24.414,-4.395,-4.395,0.000,0
109983.234,-7.324,-33.691,7.324,-12.695,0.000,0
109983.238,-19.531,-34.668,-25.879,-20.020,0.000,0
109983.242,-25.879,-41.504,-49.316,-33.203,0.000,0
109983.246,-29.785,-56.641,-55.176,-40.527,0.000,0
109983.250,-40.527,-55.664,-39.551,-32.715,0.000,0
109983.254,-20.020,-29.297,0.000,-18.555,0.000,0
109983.258,-14.160,-30.273,-14.160,-8.789,0.000,0
109983.262,-24.902,-38.086,-26.855,-14.648,0.000,0
109983.266,-41.016,-34.668,-15.625,-27.832,0.000,0
109983.270,-42.480,-43.945,-30.762,-24.902,0.000,0
109983.273,-30.762,-39.062,-31.738,-14.160,0.000,0
109983.277,-24.414,-31.738,-27.832,-12.207,0.000,0
109983.281,-27.344,-38.086,-22.949,-22.949,0.000,0
109983.285,-33.691,-39.551,-17.578,-17.578,0.000,0
109983.289,-27.344,-34.668,-24.902,-2.930,0.000,0
109983.293,-27.344,-38.574,-30.273,-13.672,0.000,0
109983.297,-24.414,-32.227,-19.531,-4.395,0.000,0
109983.301,-24.902,-32.227,-25.391,5.371,0.000,0
109983.305,-22.949,-30.762,-31.250,-4.395,0.000,0
109983.309,-1.465,-14.648,-26.855,7.812,0.000,0
109983.313,-0.488,-20.996,-15.137,-0.977,0.000,0
109983.316,-22.949,-35.645,-20.508,-19.531,0.000,0
109983.320,-24.414,-32.227,-34.180,-10.742,0.000,0
109983.324,6.348,-17.578,-42.480,7.812,0.000,0
109983.328,-7.812,-16.602,-49.316,3.418,0.000,0
109983.332,-32.227,-25.879,-29.297,-27.832,0.000,0
109983.336,-22.949,-25.391,-27.832,-40.527,0.000,0
109983.340,-23.438,-25.879,-56.641,-37.109,0.000,0
109983.344,-20.020,-30.273,-46.387,-28.809,0.000,0
109983.348,-14.648,-30.762,-27.344,-11.230,0.000,0
109983.352,-23.438,-38.086,-29.297,-25.879,0.000,0
109983.355,-24.902,-36.133,-38.574,-29.785,0.000,0
109983.359,-24.414,-29.785,-60.547,-13.672,0.000,0
109983.363,-31.738,-36.133,-53.223,-20.996,0.000,0
109983.367,-28.809,-36.133,-41.016,-21.973,0.000,0
109983.371,-19.531,-31.250,-36.133,-16.602,0.000,0
109983.375,-16.602,-27.344,-33.691,-5.371,0.000,0
109983.379,-17.578,-26.855,-36.621,-11.719,0.000,0
109983.383,-26.367,-37.598,-47.363,-29.297,0.000,0
109983.387,-36.133,-41.016,-69.824,-31.250,0.000,0
109983.391,-26.855,-33.691,-58.594,-28.809,0.000,0
109983.395,-13.184,-31.250,-52.246,-22.949,0.000,0
109983.398,-13.672,-30.273,-59.082,-23.926,0.000,0
109983.402,-9.766,-26.367,-41.504,-24.414,0.000,0
109983.406,-16.602,-29.297,-47.852,-23.926,0.000,1
109983.410,-26.855,-31.738,-52.734,-32.715,0.000,0
109983.414,-17.090,-31.250,-40.039,-29.785,0.000,0
109983.418,-10.254,-28.320,-32.227,-15.137,0.000,0
109983.422,-9.277,-23.438,-38.086,-10.254,0.000,0
109983.426,-17.090,-25.879,-50.293,-12.695,0.000,0
109983.430,-19.043,-30.273,-55.664,-23.926,0.000,0
109983.434,-4.395,-23.926,-33.691,-21.484,0.000,0
109983.438,4.395,-14.648,-23.438,-0.977,0.000,0
109983.441,-6.836,-22.949,-49.316,-10.254,0.000,0
109983.445,-10.742,-26.367,-46.875,-23.926,0.000,0
109983.449,-12.695,-27.832,-28.320,-22.949,0.000,0
109983.453,-23.438,-34.668,-27.344,-29.785,0.000,0
109983.457,-27.832,-27.832,-38.574,-22.949,0.000,0
109983.461,-33.203,-34.180,-65.918,-19.531,0.000,0
109983.465,-20.508,-29.785,-40.527,-6.348,0.000,0
109983.469,-6.348,-20.020,-15.625,0.000,0.000,0
109983.473,-21.973,-39.551,-52.734,-13.672,0.000,0
109983.477,-30.762,-45.410,-44.922,-11.230,0.000,0
109983.480,-25.391,-40.039,-22.949,-12.207,0.000,0
109983.484,-29.297,-50.293,-36.133,-16.602,0.000,0
109983.488,-30.762,-52.246,-41.016,-7.812,0.000,0
109983.492,-24.902,-37.598,-23.926,-9.766,0.000,0
109983.496,-34.668,-41.504,-20.020,-18.555,0.000,0
109983.500,-40.527,-54.199,-43.457,-17.090,0.000,0
109983.504,-35.645,-51.758,-45.410,-19.043,0.000,0
109983.508,-34.668,-45.410,-26.855,-13.672,0.000,0
109983.512,-33.203,-51.270,-20.508,-15.137,0.000,0
109983.516,-42.480,-63.965,-32.715,-29.785,0.000,0
109983.520,-36.133,-64.941,-36.133,-34.180,0.000,0
109983.523,-22.949,-46.875,-18.066,-2.441,0.000,0
109983.527,-23.438,-39.551,-13.184,15.137,0.000,0
109983.531,-20.508,-40.527,-12.207,6.836,0.000,0
109983.535,-11.719,-36.133,-11.719,11.719,0.000,0
109983.539,-10.742,-33.691,-12.695,9.766,0.000,0
109983.543,-11.230,-34.668,-2.930,2.930,0.000,0
109983.547,-3.906,-34.668,10.742,4.395,0.000,0
109983.551,-4.883,-32.227,0.977,6.348,0.000,0
109983.555,-28.320,-33.691,-6.836,-0.977,0.000,0
109983.559,-33.203,-34.668,-10.254,0.977,0.000,0
109983.563,-27.344,-33.691,1.465,6.348,0.000,0
109983.566,-28.809,-28.320,17.578,9.766,0.000,0
109983.570,-22.461,-28.320,-7.324,2.930,0.000,0
109983.574,-27.832,-34.180,-22.949,-6.836,0.000,0
109983.578,-29.297,-34.668,2.930,-13.672,0.000,0
109983.582,-30.273,-34.180,19.043,-7.812,0.000,0
109983.586,-34.668,-35.156,2.441,-7.812,0.000,0
109983.590,-25.879,-29.785,4.395,-10.254,0.000,0
109983.594,-37.598,-33.203,0.977,-15.625,0.000,0
109983.598,-45.410,-41.992,-7.812,-18.555,0.000,0
109983.602,-32.227,-41.016,-7.812,-13.672,0.000,0
109983.605,-37.109,-42.480,-12.695,-17.090,0.000,0
109983.609,-29.297,-38.574,-6.836,-18.555,0.000,0
109983.613,-40.527,-43.457,-15.625,-27.344,0.000,0
109983.617,-43.945,-42.480,-20.508,-27.832,0.000,0
109983.621,-24.414,-32.715,-18.555,-20.996,0.000,0
109983.625,-24.414,-38.574,-9.766,-25.879,0.000,0
109983.629,-38.574,-45.898,-8.789,-28.320,0.000,0
109983.633,-41.504,-47.363,-28.320,-21.973,0.000,0
109983.637,-29.785,-49.316,-45.898,-17.578,0.000,0
109983.641,-33.203,-50.293,-36.621,-26.367,0.000,0
109983.645,-38.086,-51.270,-17.090,-31.738,0.000,0
109983.648,-27.832,-49.316,-25.391,-24.902,0.000,0
109983.652,-19.043,-44.922,-36.621,-18.555,0.000,0
109983.656,-19.043,-40.039,-35.156,-23.438,0.000,0
109983.660,-27.832,-39.551,-21.484,-34.180,0.000,0
109983.664,-33.203,-46.875,-19.043,-35.156,0.000,0
109983.668,-28.809,-49.316,-37.598,-41.016,0.000,0
109983.672,-28.320,-48.340,-45.898,-34.668,0.000,0
109983.676,-30.762,-58.594,-41.992,-37.109,0.000,0
109983.680,-26.367,-59.570,-41.504,-44.434,0.000,0
109983.684,-47.363,-62.500,-40.039,-48.340,0.000,0
109983.688,-52.246,-63.477,-43.945,-53.711,0.000,0
109983.691,-36.133,-54.688,-40.527,-42.969,0.000,0
109983.695,-36.621,-59.570,-39.551,-35.156,0.000,0
109983.699,-37.109,-60.059,-54.199,-29.785,0.000,0
109983.703,-29.785,-58.105,-57.129,-33.691,0.000,0
109983.707,-35.156,-58.594,-58.594,-41.504,0.000,0
109983.711,-39.062,-56.641,-50.781,-41.016,0.000,0
109983.715,-26.855,-58.594,-45.898,-33.691,0.000,0
109983.719,-29.297,-58.105,-46.875,-31.738,0.000,0
109983.723,-36.621,-58.105,-50.293,-44.922,0.000,0
109983.727,-26.855,-64.453,-54.688,-43.945,0.000,0
109983.730,-22.461,-62.012,-36.621,-28.809,0.000,0
109983.734,-18.555,-59.570,-44.922,-21.484,0.000,0
109983.738,-27.344,-67.871,-67.871,-27.344,0.000,0
109983.742,-28.809,-70.312,-53.711,-41.016,0.000,0
109983.746,-25.391,-65.430,-35.645,-37.109,0.000,0
109983.750,-38.086,-67.383,-46.875,-34.668,0.000,0
109983.754,-31.738,-59.570,-49.316,-30.762,0.000,0
109983.758,-27.344,-46.875,-45.410,-24.414,0.000,0
109983.762,-32.227,-52.246,-38.086,-30.273,0.000,0
109983.766,-38.574,-57.617,-31.738,-43.457,0.000,0
109983.770,-34.180,-57.129,-58.594,-47.363,0.000,0
109983.773,-30.273,-53.711,-61.035,-39.551,0.000,0
109983.777,-38.086,-57.129,-34.180,-38.086,0.000,0
109983.781,-41.016,-61.523,-35.156,-46.875,0.000,0
109983.785,-46.387,-66.406,-60.059,-56.152,0.000,0
109983.789,-55.176,-69.336,-69.336,-51.270,0.000,0
109983.793,-35.156,-62.500,-47.852,-40.039,0.000,0
109983.797,-34.180,-57.129,-42.480,-39.062,0.000,0
109983.801,-54.199,-53.711,-44.434,-38.086,0.000,0
109983.805,-46.387,-55.664,-47.363,-46.387,0.000,0
109983.809,-41.992,-59.082,-46.387,-51.758,0.000,0
109983.813,-33.691,-54.688,-43.945,-41.992,0.000,0
109983.816,-21.484,-48.340,-41.992,-36.621,0.000,0
109983.820,-28.809,-42.969,-36.621,-33.203,0.000,0
109983.824,-28.320,-40.039,-28.320,-31.738,0.000,0
109983.828,-32.715,-48.340,-34.668,-41.016,0.000,0
109983.832,-32.227,-48.828,-45.410,-46.387,0.000,0
109983.836,-18.066,-36.621,-37.109,-28.809,0.000,0
109983.840,-26.367,-36.133,-34.668,-22.949,0.000,0
109983.844,-32.227,-44.434,-30.273,-41.016,0.000,0
109983.848,-28.320,-48.340,-29.785,-40.039,0.000,0
109983.852,-20.996,-39.062,-35.156,-20.996,0.000,0
109983.855,-23.438,-32.715,-42.969,-18.066,0.000,0
109983.859,-29.785,-45.410,-46.387,-32.227,0.000,0
109983.863,-23.438,-46.387,-30.273,-29.297,0.000,0
109983.867,-18.066,-33.691,-32.715,-26.855,0.000,0
109983.871,-32.227,-31.250,-39.551,-28.320,0.000,0
109983.875,-41.016,-38.086,-41.992,-29.785,0.000,0
109983.879,-26.367,-40.039,-30.762,-28.320,0.000,0
109983.883,-28.320,-30.762,-16.113,-24.902,0.000,0
109983.887,-31.250,-30.762,-44.922,-24.902,0.000,0
109983.891,-21.973,-36.133,-64.941,-22.461,0.000,0
109983.895,-19.531,-38.086,-33.691,-29.785,0.000,0
109983.898,-9.277,-33.203,-21.973,-18.555,0.000,0
109983.902,-17.090,-34.180,-45.410,-12.695,0.000,0
109983.906,-19.531,-32.227,-53.223,-21.973,0.000,0
109983.910,-15.625,-23.438,-36.133,-12.695,0.000,0
109983.914,-20.996,-24.902,-25.391,-12.695,0.000,0
109983.918,-21.973,-24.414,-27.832,-16.113,0.000,0
109983.922,-16.113,-20.508,-29.785,-11.230,0.000,0
109983.926,-8.301,-24.414,-29.785,-9.277,0.000,0
109983.930,-7.812,-30.273,-24.902,-15.625,0.000,0
109983.934,-16.113,-34.668,-38.086,-18.066,0.000,0
109983.938,-19.531,-30.762,-45.410,-21.484,0.000,0
109983.941,-14.160,-29.785,-28.809,-27.344,0.000,0
109983.945,-15.625,-28.320,-20.996,-16.602,0.000,0
109983.949,-3.906,-14.648,-27.832,5.859,0.000,0
109983.953,-0.977,-10.742,-25.879,11.719,0.000,0
109983.957,-8.301,-18.555,-3.418,-4.395,0.000,0
109983.961,-0.977,-17.578,-11.230,2.441,0.000,0
109983.965,2.441,-16.113,-33.691,6.348,0.000,0
109983.969,5.859,-21.484,-25.879,-2.930,0.000,0
109983.973,0.000,-31.738,-29.785,-6.836,0.000,0
109983.977,12.695,-27.832,-13.184,-2.441,0.000,0
109983.980,38.086,-13.672,9.766,12.207,0.000,0
109983.984,36.621,-19.043,-14.160,14.648,0.000,0
109983.988,19.531,-24.902,-25.879,15.625,0.000,0
109983.992,16.113,-25.879,-17.090,13.184,0.000,0
109983.996,27.344,-28.320,-16.602,8.301,0.000,1
109984.000,28.809,-26.855,-17.578,12.695,0.000,0
109984.004,25.391,-29.785,-27.832,8.789,0.000,0
109984.008,20.508,-33.203,-24.414,9.277,0.000,0
109984.012,19.531,-22.461,-4.883,20.020,0.000,0
109984.016,33.203,-13.672,3.418,15.625,0.000,0
109984.020,27.344,-21.973,-26.367,5.859,0.000,0
109984.023,17.578,-20.020,-21.484,5.859,0.000,0
109984.027,12.207,-20.020,-2.441,2.441,0.000,0
109984.031,5.371,-26.367,-19.043,-0.977,0.000,0
109984.035,5.859,-20.020,-21.484,-7.812,0.000,0
109984.039,7.324,-13.184,-7.812,-6.836,0.000,0
109984.043,12.207,-14.648,-6.836,8.789,0.000,0
109984.047,8.301,-12.695,-3.418,8.789,0.000,0
109984.051,10.742,-3.418,-8.301,9.766,0.000,0
109984.055,14.648,-2.930,-12.207,6.836,0.000,0
109984.059,10.742,-8.301,-5.859,1.465,0.000,0
109984.063,8.301,-2.441,-10.254,14.160,0.000,0
109984.066,-0.488,-1.953,-26.367,8.789,0.000,0
109984.070,0.488,-5.859,-27.344,-1.953,0.000,0
109984.074,10.254,-2.930,-0.488,3.418,0.000,0
109984.078,4.395,-11.230,-1.953,-10.254,0.000,0
109984.082,0.977,-8.301,-18.555,-13.184,0.000,0
109984.086,1.465,-1.465,-18.555,-1.465,0.000,0
109984.090,0.000,-8.789,-13.672,-3.906,0.000,0
109984.094,11.719,-0.488,-3.418,-1.953,0.000,0
109984.098,16.602,1.953,-6.348,8.301,0.000,0
109984.102,8.789,-0.488,-18.555,9.277,0.000,0
109984.105,13.184,7.812,-2.930,10.742,0.000,0
109984.109,18.066,8.789,4.883,12.695,0.000,0
109984.113,25.879,4.883,-8.301,13.672,0.000,0
109984.117,20.020,1.953,-10.742,12.695,0.000,0
109984.121,2.441,2.930,-10.742,13.672,0.000,0
109984.125,2.930,-3.418,-3.418,8.789,0.000,0
109984.129,-2.441,-5.859,-4.395,6.348,0.000,0
109984.133,-5.859,6.348,-12.207,18.555,0.000,0
109984.137,11.719,5.371,-18.066,20.508,0.000,0
109984.141,29.297,0.000,-14.648,22.461,0.000,0
109984.145,15.625,1.465,-7.324,15.625,0.000,0
109984.148,-1.465,0.488,-12.695,10.742,0.000,0
109984.152,9.766,5.859,-19.043,15.137,0.000,0
109984.156,19.531,8.789,-10.742,5.371,0.000,0
109984.160,21.484,7.324,3.418,4.395,0.000,0
109984.164,18.066,11.230,12.207,18.555,0.000,0
109984.168,5.859,9.766,-16.602,8.301,0.000,0
109984.172,7.812,0.977,-31.250,-1.953,0.000,0
109984.176,15.625,1.465,-1.465,11.230,0.000,0
109984.180,10.254,1.953,-2.441,0.488,0.000,0
109984.184,7.324,-1.953,-16.113,-5.371,0.000,0
109984.188,2.441,-5.371,-22.461,-0.488,0.000,0
109984.191,-3.906,-8.301,-3.906,-3.906,0.000,0
109984.195,-13.184,-6.836,10.742,-10.254,0.000,0
109984.199,-10.254,-6.836,-18.066,-16.602,0.000,0
109984.203,-23.438,-11.719,-31.250,-22.949,0.000,0
109984.207,-21.973,-1.953,-11.719,-12.695,0.000,0
109984.211,-1.953,9.766,-1.465,3.418,0.000,0
109984.215,-17.090,5.371,-16.113,-4.883,0.000,0
109984.219,-24.902,-0.488,-20.508,-14.648,0.000,0
109984.223,-16.113,3.418,-7.812,-9.766,0.000,0
109984.227,-18.555,-0.977,-7.324,-1.953,0.000,0
109984.230,-19.043,-12.695,-29.785,-15.137,0.000,0
109984.234,-21.484,-10.254,-29.785,-24.902,0.000,0
109984.238,-25.879,-11.719,-18.555,-15.625,0.000,0
109984.242,-10.254,-14.648,-19.531,-9.766,0.000,0
109984.246,7.324,-8.301,-26.855,-15.625,0.000,0
109984.250,4.395,-5.859,-24.902,-9.277,0.000,0
109984.254,0.977,-7.324,-9.766,-5.371,0.000,0
109984.258,-2.930,-12.695,-11.230,-19.043,0.000,0
109984.262,-6.348,-19.531,-16.602,-13.672,0.000,0
109984.266,-11.230,-21.973,-22.949,-8.789,0.000,0
109984.270,-15.137,-16.602,-18.555,-8.301,0.000,0
109984.273,-11.230,-14.648,-3.418,-7.324,0.000,0
109984.277,-21.973,-28.320,-33.203,-24.414,0.000,0
109984.281,-23.438,-22.949,-25.391,-19.531,0.000,0
109984.285,-17.090,-15.137,-9.766,-9.277,0.000,0
109984.289,-20.996,-22.949,-17.578,-20.996,0.000,0
109984.293,-19.531,-19.043,-8.301,-13.672,0.000,0
109984.297,-8.789,-7.324,-12.207,1.953,0.000,0
109984.301,-12.695,-14.648,-29.785,-10.254,0.000,0
109984.305,-13.672,-20.508,-21.973,-22.461,0.000,0
109984.309,0.977,-9.277,-5.371,-2.441,0.000,0
109984.313,0.000,-11.230,-7.324,0.000,0.000,0
109984.316,-14.648,-19.043,-31.738,-25.391,0.000,0
109984.320,-20.020,-25.879,-40.527,-28.320,0.000,0
109984.324,-17.090,-25.391,-28.809,-16.602,0.000,0
109984.328,-10.742,-19.043,-12.207,-9.766,0.000,0
109984.332,-10.742,-23.926,-23.438,-28.320,0.000,0
109984.336,-17.090,-25.391,-39.062,-25.879,0.000,0
109984.340,-8.301,-21.973,-21.484,-8.301,0.000,0
109984.344,5.859,-16.113,-16.602,-9.277,0.000,0
109984.348,-1.465,-19.043,-36.621,-15.625,0.000,0
109984.352,-16.113,-29.297,-31.738,-26.367,0.000,0
109984.355,-11.719,-27.344,-27.344,-18.066,0.000,0
109984.359,-5.371,-29.785,-25.391,-8.789,0.000,0
109984.363,-11.719,-31.738,-27.344,-9.766,0.000,0
109984.367,-9.766,-37.598,-51.758,-17.578,0.000,0
109984.371,1.953,-37.598,-34.668,-11.230,0.000,0
109984.375,0.488,-28.320,-23.438,-3.418,0.000,0
109984.379,1.953,-28.809,-41.992,-2.441,0.000,0
109984.383,-3.418,-25.391,-42.480,-3.906,0.000,0
109984.387,-0.977,-26.855,-28.809,-10.254,0.000,0
109984.391,-0.977,-37.109,-20.020,-23.438,0.000,0
109984.395,-2.930,-32.227,-28.320,-16.113,0.000,0
109984.398,2.930,-21.973,-34.668,-11.719,0.000,0
109984.402,-8.789,-30.762,-34.180,-15.625,0.000,0
109984.406,-5.371,-32.227,-16.113,-9.766,0.000,0
109984.410,4.883,-25.879,-21.973,-9.277,0.000,0
109984.414,4.883,-19.531,-36.621,-5.859,0.000,0
109984.418,-2.930,-18.555,-33.203,-7.812,0.000,0
109984.422,11.230,-20.508,-28.320,-9.277,0.000,0
109984.426,19.531,-16.602,-16.602,-12.695,0.000,0
109984.430,2.930,-20.508,-15.625,-21.484,0.000,0
109984.434,-4.395,-27.832,-23.438,-21.484,0.000,0
109984.438,0.000,-28.809,-28.320,-8.301,0.000,0
109984.441,-3.906,-28.809,-26.855,-3.418,0.000,0
109984.445,-3.906,-23.926,-20.508,-6.836,0.000,0
109984.449,-1.465,-24.414,-25.879,-10.254,0.000,0
109984.453,-3.906,-30.273,-24.902,-11.719,0.000,0
109984.457,-12.207,-23.438,-16.602,-11.719,0.000,0
109984.461,-16.602,-17.090,-20.020,-11.719,0.000,0
109984.465,-6.836,-22.461,-23.438,-17.090,0.000,0
109984.469,0.488,-29.297,-25.391,-13.672,0.000,0
109984.473,6.836,-21.973,-19.043,0.000,0.000,0
109984.477,12.207,-15.625,-16.602,5.371,0.000,0
109984.480,8.789,-23.438,-31.250,10.254,0.000,0
109984.484,-5.371,-27.832,-28.809,3.906,0.000,0
109984.488,-15.625,-31.738,-15.625,-11.719,0.000,0
109984.492,-1.953,-16.602,-11.230,0.000,0.000,0
109984.496,-3.418,-13.672,-17.578,-4.395,0.000,0
109984.500,-10.742,-22.461,-27.832,-6.836,0.000,0
109984.504,-13.184,-24.414,-21.973,10.254,0.000,0
109984.508,-20.020,-34.668,-23.926,-5.859,0.000,0
109984.512,-4.883,-29.297,-28.809,-9.277,0.000,0
109984.516,2.930,-20.996,-20.508,0.977,0.000,0
109984.520,-12.695,-27.344,-25.879,-7.812,0.000,0
109984.523,-12.695,-33.203,-34.668,-16.113,0.000,0
109984.527,5.859,-26.855,-29.785,-13.672,0.000,0
109984.531,15.625,-15.137,-17.090,-10.254,0.000,0
109984.535,0.000,-20.508,-23.438,-17.578,0.000,0
109984.539,-14.648,-29.297,-23.438,-15.137,0.000,0
109984.543,-8.301,-20.996,-5.859,-4.883,0.000,0
109984.547,-1.465,-11.719,-15.137,0.000,0.000,0
109984.551,-3.418,-16.602,-32.227,1.465,0.000,0
109984.555,-13.672,-23.926,-27.344,-0.977,0.000,0
109984.559,-14.648,-19.531,-27.832,-10.254,0.000,0
109984.563,-11.230,-11.719,-19.531,-14.160,0.000,0
109984.566,-15.625,-10.254,3.906,-17.090,0.000,0
109984.570,-15.625,-17.578,-13.672,-18.555,0.000,0
109984.574,-5.859,-17.578,-36.133,-11.230,0.000,0
109984.578,-10.742,-20.996,-36.133,-2.930,0.000,0
109984.582,-1.465,-23.926,-38.574,-4.883,0.000,0
109984.586,-4.883,-25.879,-29.785,-20.020,0.000,0
109984.590,-19.043,-24.902,-18.555,-11.719,0.000,0
109984.594,-2.930,-16.602,-13.184,-11.719,0.000,0
109984.598,-17.090,-19.043,-19.043,-27.344,0.000,0
109984.602,-29.297,-24.414,-30.762,-23.438,0.000,0
109984.605,-20.508,-28.320,-27.344,-26.367,0.000,0
109984.609,-21.484,-22.461,-20.020,-28.809,0.000,0
109984.613,-14.160,-18.066,-35.645,-15.625,0.000,0
109984.617,-3.418,-19.043,-33.203,-8.301,0.000,0
109984.621,5.371,-19.531,-20.996,-4.883,0.000,0
109984.625,0.488,-21.973,-13.672,-2.930,0.000,0
109984.629,-6.348,-20.508,-24.902,-3.418,0.000,0
109984.633,-10.742,-26.855,-31.250,-13.672,0.000,0
109984.637,-11.230,-25.391,-14.160,-20.996,0.000,0
109984.641,-8.301,-20.020,-23.438,-17.578,0.000,0
109984.645,-10.742,-22.461,-29.297,-17.090,0.000,0
109984.648,-9.766,-21.973,-24.902,-17.578,0.000,0
109984.652,-10.742,-24.414,-33.203,-11.230,0.000,0
109984.656,0.488,-16.602,-12.695,-0.977,0.000,0
109984.660,9.277,-7.324,-3.418,4.395,0.000,0
109984.664,6.836,-13.184,-27.344,3.906,0.000,0
109984.668,8.789,-18.066,-17.090,-2.441,0.000,0
109984.672,19.043,-18.555,-14.160,-13.672,0.000,0
109984.676,10.742,-14.160,-32.227,-2.930,0.000,0
109984.680,0.000,-14.160,-33.691,14.648,0.000,0
109984.684,3.418,-17.578,-16.602,0.977,0.000,0
109984.688,2.441,-13.672,5.371,-2.441,0.000,0
109984.691,-5.859,-20.020,-17.090,-4.395,0.000,2
109984.695,-21.973,-29.785,-51.270,-16.113,0.000,0
109984.699,-18.555,-21.484,-40.039,-10.254,0.000,0
109984.703,-1.953,-15.137,-15.137,-7.324,0.000,0
109984.707,-9.277,-26.855,-20.508,-18.555,0.000,0
109984.711,-20.996,-29.297,-38.086,-26.367,0.000,0
109984.715,-21.973,-28.320,-39.551,-19.531,0.000,0
109984.719,-25.879,-36.133,-33.203,-18.066,0.000,0
109984.723,-31.738,-41.992,-21.973,-34.180,0.000,0
109984.727,-20.020,-35.645,-24.414,-28.809,0.000,0
109984.730,-8.789,-28.809,-43.457,-4.883,0.000,0
109984.734,-12.695,-36.133,-41.504,-10.254,0.000,0
109984.738,-21.484,-44.434,-34.180,-20.020,0.000,0
109984.742,-9.277,-39.551,-23.438,-20.020,0.000,0
109984.746,-12.207,-31.738,-14.160,-18.066,0.000,0
109984.750,-25.879,-36.133,-33.691,-19.531,0.000,0
109984.754,-15.625,-41.016,-40.039,-17.578,0.000,0
109984.758,-28.809,-45.898,-41.016,-25.879,0.000,0
109984.762,-25.879,-38.086,-36.621,-20.020,0.000,0
109984.766,-14.160,-31.250,-27.832,-16.602,0.000,0
109984.770,-17.578,-33.691,-35.156,-24.902,0.000,0
109984.773,-14.648,-38.574,-32.715,-17.578,0.000,0
109984.777,-14.160,-38.086,-36.133,-17.090,0.000,0
109984.781,0.000,-32.715,-38.086,-20.508,0.000,0
109984.785,-3.418,-35.156,-31.738,-18.066,0.000,0
109984.789,-20.996,-31.250,-13.184,-16.113,0.000,0
109984.793,-19.043,-27.832,-17.090,-9.277,0.000,0
109984.797,-22.949,-31.738,-50.293,-11.719,0.000,0
109984.801,-15.625,-24.902,-32.715,-7.324,0.000,0
109984.805,-3.906,-20.996,-9.277,0.977,0.000,0
109984.809,-4.883,-24.902,-29.785,-3.418,0.000,0
109984.813,-4.883,-21.973,-39.551,-3.418,0.000,0
109984.816,-0.488,-10.742,-20.996,10.254,0.000,0
109984.820,-13.184,-17.090,-20.996,17.578,0.000,0
109984.824,-18.066,-22.949,-25.879,2.441,0.000,0
109984.828,-13.672,-11.719,-16.602,-2.441,0.000,0
109984.832,-13.672,-11.719,-29.785,10.742,0.000,0
109984.836,-18.066,-19.531,-27.344,6.836,0.000,0
109984.840,-15.625,-20.020,-21.484,4.395,0.000,0
109984.844,0.000,-15.137,-17.578,4.883,0.000,0
109984.848,0.977,-14.160,-17.090,10.254,0.000,0
109984.852,-7.812,-17.090,-22.461,13.184,0.000,0
109984.855,-6.836,-18.066,-13.184,9.766,0.000,0
109984.859,-8.789,-22.461,-27.832,3.906,0.000,0
109984.863,-16.113,-26.367,-41.016,-8.789,0.000,0
109984.867,-14.160,-19.043,-26.855,-1.953,0.000,0
109984.871,0.977,-13.184,-16.602,8.789,0.000,0
109984.875,8.789,-14.648,-12.207,13.672,0.000,0
109984.879,23.438,-6.348,-10.742,21.484,0.000,0
109984.883,20.508,-9.277,-18.555,17.578,0.000,0
109984.887,-7.324,-21.484,-27.344,5.371,0.000,0
109984.891,-10.742,-17.578,-19.043,-7.324,0.000,0
109984.895,-7.324,-16.113,-23.926,-3.418,0.000,0
109984.898,-4.395,-21.973,-42.480,-5.859,0.000,0
109984.902,3.418,-20.508,-30.762,-11.230,0.000,0
109984.906,5.859,-13.672,-14.648,2.930,0.000,0
109984.910,-5.371,-18.066,-27.832,-1.465,0.000,0
109984.914,-7.812,-22.949,-44.922,-8.301,0.000,0
109984.918,0.977,-14.648,-30.762,8.301,0.000,0
109984.922,-0.488,-16.602,-7.812,-7.324,0.000,0
109984.926,1.953,-17.090,-21.484,-18.555,0.000,0
109984.930,0.000,-15.625,-38.086,-12.207,0.000,0
109984.934,-8.301,-19.531,-36.133,-15.137,0.000,0
109984.938,-9.277,-21.973,-27.344,-11.719,0.000,0
109984.941,-15.625,-28.809,-22.949,-11.230,0.000,0
109984.945,-11.719,-35.156,-40.039,-11.719,0.000,0
109984.949,-12.695,-30.273,-39.551,-12.207,0.000,0
109984.953,-24.414,-31.250,-38.574,-19.043,0.000,0
109984.957,-24.414,-39.551,-39.551,-15.137,0.000,0
109984.961,-21.484,-37.598,-31.250,-15.137,0.000,0
109984.965,-8.789,-28.809,-36.133,-13.184,0.000,0
109984.969,-4.883,-24.902,-33.691,-11.719,0.000,0
109984.973,-20.508,-30.762,-23.438,-24.902,0.000,0
109984.977,-11.719,-25.879,-18.066,-23.438,0.000,0
109984.980,-7.324,-24.902,-28.809,-18.066,0.000,0
109984.984,-8.301,-31.738,-26.367,-25.391,0.000,0
109984.988,0.488,-25.391,-12.207,-21.973,0.000,0
109984.992,-17.090,-32.227,-32.227,-17.578,0.000,0
109984.996,-21.973,-36.621,-42.480,-18.066,0.000,0
109985.000,-11.719,-33.203,-27.832,-22.461,0.000,0
109985.004,-16.113,-30.762,-15.137,-15.137,0.000,0
109985.008,-19.531,-36.621,-31.738,-17.578,0.000,0
109985.012,-20.996,-39.551,-41.992,-19.043,0.000,0
109985.016,-0.977,-26.367,-20.508,-8.301,0.000,0
109985.020,-12.695,-30.762,-31.738,-16.602,0.000,0
109985.023,-29.785,-34.668,-35.156,-21.973,0.000,0
109985.027,-4.883,-19.043,-21.484,-8.789,0.000,0
109985.031,-7.324,-18.555,-22.461,-7.812,0.000,0
109985.035,-18.555,-28.809,-27.344,-7.324,0.000,0
109985.039,1.465,-27.344,-17.090,-10.254,0.000,0
109985.043,1.953,-24.902,-10.254,-6.836,0.000,0
109985.047,-6.348,-24.902,-22.461,0.977,0.000,0
109985.051,-4.883,-21.973,-22.949,-8.301,0.000,0
109985.055,-0.488,-14.648,-13.672,-0.488,0.000,0
109985.059,-3.906,-19.043,-13.672,-6.836,0.000,0
109985.063,-15.625,-22.461,-25.391,-19.531,0.000,0
109985.066,-22.461,-20.996,-34.668,-19.531,0.000,0
109985.070,-12.695,-20.996,-21.484,-8.301,0.000,0
109985.074,-9.277,-19.043,-5.859,4.395,0.000,0
109985.078,-7.324,-20.996,-18.066,-0.488,0.000,0
109985.082,-3.418,-17.090,-30.762,5.859,0.000,0
109985.086,-17.578,-16.602,-30.273,3.418,0.000,0
109985.090,-13.672,-27.344,-16.113,-13.184,0.000,0
109985.094,-20.996,-39.551,-25.879,-24.414,0.000,0
109985.098,-26.855,-34.180,-23.438,-20.020,0.000,0
109985.102,-18.555,-33.203,-4.883,-22.949,0.000,0
109985.105,-11.230,-35.156,-15.625,-22.949,0.000,0
109985.109,-7.324,-29.297,-29.297,-7.812,0.000,0
109985.113,-3.418,-26.367,-34.668,4.883,0.000,0
109985.117,-0.977,-23.438,-24.902,-1.953,0.000,0
109985.121,-16.113,-29.297,-12.695,-12.207,0.000,0
109985.125,-16.602,-35.156,-33.203,-15.625,0.000,0
109985.129,-17.578,-29.297,-41.992,-4.395,0.000,0
109985.133,-18.555,-20.508,-25.879,-5.371,0.000,0
109985.137,-3.906,-16.113,-12.695,-10.742,0.000,0
109985.141,-3.906,-22.461,-16.113,-2.930,0.000,0
109985.145,-21.484,-27.344,-29.785,-11.230,0.000,0
109985.148,-25.391,-25.391,-29.785,-17.090,0.000,0
109985.152,-25.879,-24.414,-22.949,-13.184,0.000,0
109985.156,-26.855,-28.320,-34.180,-11.719,0.000,0
109985.160,-32.715,-33.203,-42.480,-22.461,0.000,0
109985.164,-28.320,-29.297,-27.344,-25.391,0.000,0
109985.168,-22.461,-37.109,-25.391,-15.625,0.000,0
109985.172,-28.809,-50.293,-32.227,-13.184,0.000,0
109985.176,-19.043,-54.199,-39.551,-23.926,0.000,0
109985.180,-24.414,-53.711,-50.293,-18.555,0.000,0
109985.184,-52.734,-55.176,-58.594,-22.949,0.000,0
109985.188,-48.340,-59.082,-59.082,-32.715,0.000,0
109985.191,-30.273,-51.270,-50.293,-23.926,0.000,0
109985.195,-40.527,-47.852,-39.062,-22.949,0.000,0
109985.199,-42.969,-46.875,-43.945,-21.973,0.000,0
109985.203,-25.391,-46.387,-48.340,-23.926,0.000,0
109985.207,-31.250,-47.852,-50.781,-24.902,0.000,0
109985.211,-44.434,-43.945,-56.641,-18.555,0.000,0
109985.215,-34.180,-41.504,-52.246,-20.996,0.000,0
109985.219,-24.902,-37.109,-25.879,-21.973,0.000,0
109985.223,-23.926,-29.297,-18.066,-7.812,0.000,0
109985.227,-17.578,-28.809,-31.250,-11.230,0.000,0
109985.230,-14.160,-26.367,-37.109,-16.602,0.000,0
109985.234,-19.531,-30.273,-41.504,-14.648,0.000,0
109985.238,-26.855,-41.016,-33.691,-21.484,0.000,0
109985.242,-27.344,-37.598,-53.223,-22.949,0.000,0
109985.246,-18.555,-30.762,-61.035,-14.160,0.000,0
109985.250,-27.832,-27.832,-33.691,-5.859,0.000,0
109985.254,-44.922,-35.156,-26.367,-18.066,0.000,0
109985.258,-48.828,-45.898,-53.223,-36.133,0.000,2
109985.262,-33.691,-40.527,-74.219,-29.297,0.000,0
109985.266,-27.832,-38.086,-48.828,-31.738,0.000,0
109985.270,-24.902,-40.527,-26.367,-24.414,0.000,0
109985.273,-20.508,-42.969,-30.762,-17.090,0.000,0
109985.277,-21.973,-42.480,-36.133,-26.367,0.000,0
109985.281,-16.602,-33.203,-38.574,-19.531,0.000,0
109985.285,-29.785,-33.691,-47.363,-21.484,0.000,0
109985.289,-24.902,-33.691,-41.504,-24.414,0.000,0
109985.293,-15.137,-32.715,-34.668,-24.414,0.000,0
109985.297,-14.160,-36.133,-38.574,-29.297,0.000,0
109985.301,-22.949,-41.504,-44.434,-33.203,0.000,0
109985.305,-20.508,-40.039,-34.180,-31.250,0.000,0
109985.309,-3.906,-37.109,-39.551,-24.902,0.000,0
109985.313,-11.719,-35.645,-45.410,-32.227,0.000,0
109985.316,-20.996,-35.645,-28.809,-34.180,0.000,0
109985.320,-25.879,-45.898,-41.016,-39.062,0.000,0
109985.324,-36.621,-45.410,-55.176,-39.551,0.000,0
109985.328,-38.086,-39.062,-54.199,-25.391,0.000,0
109985.332,-31.250,-38.086,-47.363,-27.344,0.000,0
109985.336,-34.668,-45.898,-41.016,-49.805,0.000,0
109985.340,-45.410,-54.199,-53.711,-55.664,0.000,0
109985.344,-33.691,-43.457,-45.410,-42.480,0.000,0
109985.348,-24.414,-36.621,-37.598,-28.809,0.000,0
109985.352,-30.273,-47.363,-44.434,-34.180,0.000,0
109985.355,-32.227,-53.711,-42.480,-47.852,0.000,0
109985.359,-13.672,-35.645,-26.855,-30.762,0.000,0
109985.363,-10.742,-28.320,-31.250,-19.531,0.000,0
109985.367,-30.273,-45.898,-52.246,-44.922,0.000,0
109985.371,-33.203,-50.781,-53.711,-53.223,0.000,0
109985.375,-16.602,-36.621,-32.715,-40.039,0.000,0
109985.379,-14.160,-36.621,-47.363,-42.480,0.000,0
109985.383,-13.672,-49.316,-45.898,-41.016,0.000,0
109985.387,-7.812,-48.340,-30.762,-32.715,0.000,0
109985.391,-13.184,-43.457,-43.945,-39.062,0.000,0
109985.395,-18.066,-47.852,-54.199,-40.527,0.000,0
109985.398,-28.809,-52.246,-50.293,-40.039,0.000,0
109985.402,-20.508,-43.945,-37.598,-32.715,0.000,0
109985.406,-4.883,-38.574,-33.203,-24.902,0.000,0
109985.410,-13.184,-42.969,-51.270,-23.926,0.000,0
109985.414,-15.625,-36.621,-31.250,-24.902,0.000,0
109985.418,-2.441,-27.832,-19.531,-13.184,0.000,0
109985.422,3.906,-36.133,-39.062,-16.602,0.000,0
109985.426,0.488,-29.785,-42.969,-14.160,0.000,0
109985.430,-1.465,-20.508,-36.133,-3.906,0.000,0
109985.434,10.742,-19.531,-1.953,-10.254,0.000,0
109985.438,13.184,-12.207,1.953,-7.812,0.000,0
109985.441,9.277,-13.184,-30.273,3.906,0.000,0
109985.445,17.090,-8.789,-32.227,3.418,0.000,0
109985.449,20.020,6.348,0.000,10.254,0.000,0
109985.453,21.973,-4.395,3.906,-9.277,0.000,0
109985.457,21.973,-14.160,-7.812,-23.438,0.000,0
109985.461,1.953,-3.418,-11.230,-9.277,0.000,0
109985.465,-0.977,-4.395,-23.438,-0.977,0.000,0
109985.469,12.695,-10.742,-19.043,-3.906,0.000,0
109985.473,2.930,-17.578,-9.766,-18.066,0.000,0
109985.477,1.465,-14.160,-15.137,-8.789,0.000,0
109985.480,-4.395,-12.207,-20.508,0.488,0.000,0
109985.484,-9.766,-18.555,-13.672,-20.020,0.000,0
109985.488,5.371,-15.137,-16.602,-7.324,0.000,0
109985.492,4.883,-17.090,-14.648,0.000,0.000,0
109985.496,-12.695,-22.949,-26.855,-15.625,0.000,0
109985.500,-15.625,-32.715,-45.898,-17.090,0.000,0
109985.504,-15.137,-39.551,-38.086,-23.438,0.000,0
109985.508,-12.695,-26.855,-21.484,-24.902,0.000,0
109985.512,-6.836,-17.578,-20.508,-12.695,0.000,0
109985.516,-3.418,-22.461,-37.109,-10.742,0.000,0
109985.520,-0.488,-32.715,-41.016,-12.695,0.000,0
109985.523,-13.184,-35.156,-28.809,-19.043,0.000,0
109985.527,-27.344,-37.109,-49.805,-33.203,0.000,0
109985.531,-21.484,-40.039,-60.547,-27.832,0.000,0
109985.535,-18.555,-37.598,-28.809,-20.508,0.000,0
109985.539,-27.344,-40.039,-23.926,-28.809,0.000,0
109985.543,-22.461,-34.180,-42.480,-28.320,0.000,0
109985.547,-20.020,-32.715,-44.434,-30.273,0.000,0
109985.551,-19.531,-42.969,-32.715,-40.039,0.000,0
109985.555,-21.973,-40.039,-35.156,-41.016,0.000,0
109985.559,-26.855,-32.227,-40.527,-38.086,0.000,0
109985.563,-22.461,-28.809,-36.133,-40.527,0.000,0
109985.566,-17.090,-21.973,-32.227,-34.180,0.000,0
109985.570,-10.254,-22.461,-25.879,-25.879,0.000,0
109985.574,-10.254,-30.273,-29.297,-30.273,0.000,0
109985.578,-25.879,-28.809,-46.875,-19.531,0.000,0
109985.582,-26.855,-27.344,-45.410,-12.207,0.000,0
109985.586,-17.090,-29.297,-12.207,-29.785,0.000,0
109985.590,-14.648,-26.855,-17.090,-30.762,0.000,0
109985.594,-11.719,-25.879,-35.156,-32.227,0.000,0
109985.598,-15.137,-25.391,-38.086,-34.180,0.000,0
109985.602,-7.324,-31.250,-40.039,-31.738,0.000,0
109985.605,-12.695,-32.227,-40.039,-25.391,0.000,0
109985.609,-19.531,-28.809,-29.785,-24.902,0.000,0
109985.613,-8.789,-24.414,-15.137,-16.113,0.000,0
109985.617,-1.465,-26.367,-27.832,-17.578,0.000,0
109985.621,0.000,-31.738,-34.180,-20.996,0.000,0
109985.625,0.488,-21.973,-23.926,-6.348,0.000,0
109985.629,-2.930,-21.973,-29.785,-13.672,0.000,0
109985.633,-3.906,-32.227,-41.016,-34.180,0.000,0
109985.637,-4.395,-32.227,-35.645,-30.273,0.000,0
109985.641,0.000,-25.391,-22.461,-19.531,0.000,0
109985.645,1.465,-20.996,-16.602,-12.695,0.000,0
109985.648,1.953,-25.879,-21.484,-25.391,0.000,0
109985.652,0.000,-33.691,-15.137,-28.809,0.000,0
109985.656,-10.742,-36.621,-24.414,-23.438,0.000,0
109985.660,-23.926,-41.504,-45.410,-37.109,0.000,0
109985.664,-20.020,-47.852,-52.734,-32.715,0.000,0
109985.668,-6.836,-45.898,-32.227,-23.438,0.000,0
109985.672,-14.648,-44.922,-16.113,-31.250,0.000,0
109985.676,-14.160,-41.504,-40.527,-24.902,0.000,0
109985.680,-8.301,-41.016,-61.523,-18.555,0.000,0
109985.684,-22.949,-53.711,-67.383,-31.738,0.000,0
109985.688,-23.438,-50.293,-34.668,-22.949,0.000,0
109985.691,-16.113,-37.598,-12.207,-11.230,0.000,0
109985.695,-16.602,-39.551,-44.434,-19.531,0.000,0
109985.699,-20.020,-43.945,-39.551,-20.996,0.000,0
109985.703,-27.832,-40.527,-27.832,-12.207,0.000,0
109985.707,-21.484,-41.504,-41.992,-17.578,0.000,0
109985.711,-22.949,-48.340,-43.457,-27.832,0.000,0
109985.715,-26.367,-42.969,-36.621,-11.230,0.000,0
109985.719,-21.484,-44.434,-40.527,-13.184,0.000,0
109985.723,-27.832,-52.734,-49.316,-28.320,0.000,0
109985.727,-22.461,-39.551,-50.781,-14.160,0.000,0
109985.730,-21.973,-34.668,-43.945,-14.160,0.000,0
109985.734,-26.367,-35.156,-19.531,-9.277,0.000,0
109985.738,-13.672,-34.668,-20.020,-5.371,0.000,0
109985.742,-8.789,-33.203,-33.203,-5.859,0.000,0
109985.746,-4.395,-29.785,-28.320,-7.324,0.000,0
109985.750,7.812,-26.855,-11.230,-11.719,0.000,0
109985.754,-0.488,-33.203,-17.090,-11.230,0.000,0
109985.758,-7.812,-33.691,-34.668,-11.719,0.000,0
109985.762,7.324,-16.113,-20.020,3.418,0.000,0
109985.766,21.973,-5.859,-2.441,14.160,0.000,0
109985.770,1.465,-11.230,0.488,-7.812,0.000,0
109985.773,-1.465,-8.301,-8.789,-2.930,0.000,0
109985.777,14.160,-5.859,-20.996,10.742,0.000,0
109985.781,2.930,-11.230,-14.160,0.488,0.000,0
109985.785,-20.996,-17.578,-8.789,-9.766,0.000,0
109985.789,-22.949,-23.438,-12.695,-19.043,0.000,0
109985.793,-19.531,-21.484,-34.668,-13.184,0.000,0
109985.797,-7.324,-14.648,-41.016,-8.301,0.000,0
109985.801,-1.953,-16.602,-17.578,-4.883,0.000,0
109985.805,-6.348,-17.578,-3.906,0.488,0.000,1
109985.809,-7.812,-12.695,-7.324,-6.836,0.000,0
109985.813,-6.348,-14.648,-30.273,-15.625,0.000,0
109985.816,-5.859,-23.438,-32.715,-19.531,0.000,0
109985.820,-17.578,-29.785,-24.902,-16.113,0.000,0
109985.824,-18.066,-23.926,-26.855,-11.719,0.000,0
109985.828,-8.789,-17.090,-27.344,-8.301,0.000,0
109985.832,-2.441,-21.484,-15.137,-25.879,0.000,0
109985.836,-8.301,-28.809,-18.555,-36.621,0.000,0
109985.840,-8.789,-25.879,-27.344,-24.902,0.000,0
109985.844,-7.812,-32.227,-40.527,-22.949,0.000,0
109985.848,-8.789,-31.250,-38.574,-15.137,0.000,0
109985.852,-10.254,-19.043,-20.020,-4.883,0.000,0
109985.855,-15.625,-20.508,-26.367,-3.418,0.000,0
109985.859,-0.488,-24.902,-26.367,-10.742,0.000,0
109985.863,0.977,-27.344,-17.090,-15.137,0.000,0
109985.867,-21.484,-35.156,-19.531,-29.785,0.000,0
109985.871,-7.324,-29.297,-21.973,-22.461,0.000,0
109985.875,8.789,-19.531,-22.461,-12.695,0.000,0
109985.879,11.230,-16.113,-20.020,-11.230,0.000,0
109985.883,14.160,-17.578,-14.160,-15.625,0.000,0
109985.887,3.906,-21.973,-11.719,-25.879,0.000,0
109985.891,-2.441,-26.367,-37.109,-22.461,0.000,0
109985.895,-11.230,-33.691,-51.270,-29.785,0.000,0
109985.898,-7.812,-26.855,-35.645,-24.414,0.000,0
109985.902,-5.371,-30.273,-37.598,-21.484,0.000,0
109985.906,-11.719,-42.969,-42.480,-35.156,0.000,0
109985.910,4.395,-30.273,-41.992,-18.555,0.000,0
109985.914,-2.441,-24.902,-29.297,-17.578,0.000,0
109985.918,-18.066,-36.621,-31.738,-27.344,0.000,0
109985.922,-6.348,-38.574,-51.270,-19.531,0.000,0
109985.926,-5.859,-27.832,-33.203,-20.996,0.000,0
109985.930,1.465,-27.344,-21.484,-25.879,0.000,0
109985.934,-4.395,-43.945,-36.621,-39.062,0.000,0
109985.938,-19.531,-45.898,-38.574,-40.039,0.000,0
109985.941,-10.254,-30.762,-26.855,-30.762,0.000,0
109985.945,-3.906,-32.227,-35.645,-29.297,0.000,0
109985.949,-4.883,-40.527,-37.598,-34.180,0.000,0
109985.953,-15.625,-41.016,-38.086,-35.645,0.000,0
109985.957,-28.320,-46.387,-48.340,-34.668,0.000,0
109985.961,-20.996,-41.504,-49.805,-34.180,0.000,0
109985.965,-14.648,-37.109,-42.969,-35.156,0.000,0
109985.969,-27.832,-36.133,-32.227,-35.645,0.000,0
109985.973,-20.508,-28.320,-32.227,-33.691,0.000,0
109985.977,-10.254,-25.391,-38.574,-33.691,0.000,0
109985.980,-4.395,-17.090,-33.203,-24.902,0.000,0
109985.984,-19.043,-30.273,-27.832,-31.738,0.000,0
109985.988,-39.062,-51.758,-50.293,-52.246,0.000,0
109985.992,-36.621,-47.363,-70.312,-51.758,0.000,0
109985.996,-22.949,-38.574,-47.363,-26.855,0.000,0
109986.000,-7.812,-31.738,-20.508,-12.695,0.000,0
109986.004,-12.695,-35.156,-32.715,-24.902,0.000,0
109986.008,-22.949,-38.574,-44.434,-28.320,0.000,0
109986.012,-17.578,-35.156,-47.363,-22.949,0.000,0
109986.016,-29.785,-41.992,-50.293,-28.320,0.000,0
109986.020,-29.785,-39.062,-38.574,-24.902,0.000,0
109986.023,-16.113,-33.203,-30.762,-30.762,0.000,0
109986.027,-13.672,-32.715,-31.738,-20.508,0.000,0
109986.031,-14.160,-28.320,-26.367,-13.672,0.000,0
109986.035,-29.297,-39.551,-25.879,-34.668,0.000,0
109986.039,-34.668,-45.898,-53.223,-37.109,0.000,0
109986.043,-32.227,-42.480,-61.523,-37.598,0.000,0
109986.047,-26.855,-37.109,-34.668,-30.762,0.000,0
109986.051,-13.184,-20.020,-9.766,-17.578,0.000,0
109986.055,-9.277,-25.391,-29.785,-23.438,0.000,0
109986.059,-14.648,-37.109,-50.293,-24.414,0.000,0
109986.063,-10.254,-38.086,-36.133,-34.668,0.000,0
109986.066,-22.461,-47.852,-48.828,-53.223,0.000,0
109986.070,-30.273,-45.410,-55.664,-44.434,0.000,0
109986.074,-17.578,-37.598,-46.387,-35.645,0.000,0
109986.078,-8.789,-34.668,-41.504,-33.203,0.000,0
109986.082,-13.184,-41.992,-45.410,-32.227,0.000,0
109986.086,-18.066,-46.387,-29.785,-38.574,0.000,0
109986.090,-17.090,-43.457,-42.480,-45.898,0.000,0
109986.094,-20.508,-44.434,-69.824,-30.762,0.000,0
109986.098,-17.578,-35.645,-45.410,-18.555,0.000,0
109986.102,-12.207,-30.273,-25.879,-23.926,0.000,0
109986.105,5.371,-31.250,-28.809,-13.184,0.000,0
109986.109,-7.812,-43.457,-56.641,-26.367,0.000,0
109986.113,-30.273,-60.547,-77.637,-51.270,0.000,0
109986.117,-36.621,-67.383,-51.758,-57.129,0.000,0
109986.121,-31.250,-71.289,-55.664,-57.617,0.000,0
109986.125,-17.578,-62.988,-60.059,-43.945,0.000,0
109986.129,-30.762,-71.289,-72.266,-60.547,0.000,0
109986.133,-36.133,-83.984,-84.961,-66.406,0.000,0
109986.137,-27.832,-77.148,-58.105,-43.945,0.000,0
109986.141,-41.016,-79.590,-76.660,-52.734,0.000,0
109986.145,-61.523,-87.891,-87.891,-72.266,0.000,0
109986.148,-32.715,-70.801,-59.570,-58.594,0.000,0
109986.152,-13.672,-60.059,-49.316,-48.828,0.000,0
109986.156,-26.367,-69.824,-53.223,-46.387,0.000,0
109986.160,-32.715,-69.336,-80.078,-45.898,0.000,0
109986.164,-35.645,-66.406,-86.914,-54.199,0.000,0
109986.168,-36.133,-63.477,-62.012,-54.688,0.000,0
109986.172,-28.809,-59.570,-56.152,-42.969,0.000,0
109986.176,-21.973,-52.734,-51.270,-36.621,0.000,0
109986.180,-12.207,-50.781,-55.176,-35.645,0.000,0
109986.184,-15.625,-61.523,-46.387,-33.203,0.000,0
109986.188,-34.668,-59.082,-40.527,-39.551,0.000,0
109986.191,-31.738,-55.176,-62.012,-44.922,0.000,0
109986.195,-33.203,-58.105,-74.219,-41.504,0.000,0
109986.199,-39.062,-51.270,-49.805,-34.180,0.000,0
109986.203,-28.809,-45.898,-26.855,-41.016,0.000,0
109986.207,-20.996,-40.527,-42.480,-35.156,0.000,0
109986.211,-31.738,-47.852,-67.871,-35.645,0.000,0
109986.215,-35.645,-55.176,-61.523,-38.574,0.000,0
109986.219,-30.762,-47.363,-41.504,-23.926,0.000,0
109986.223,-37.598,-46.387,-26.855,-33.203,0.000,0
109986.227,-32.227,-41.016,-39.551,-29.297,0.000,0
109986.230,-24.902,-39.551,-53.223,-21.973,0.000,0
109986.234,-32.227,-47.852,-39.551,-29.785,0.000,0
109986.238,-25.391,-44.922,-29.785,-23.926,0.000,0
109986.242,-26.855,-43.457,-32.227,-35.645,0.000,0
109986.246,-20.020,-35.156,-27.832,-30.762,0.000,0
109986.250,-1.465,-24.414,-27.344,-18.066,0.000,0
109986.254,-12.695,-30.273,-28.320,-25.879,0.000,0
109986.258,-15.137,-33.203,-30.273,-23.438,0.000,0
109986.262,0.977,-37.109,-41.504,-22.461,0.000,0
109986.266,-11.719,-38.574,-35.156,-33.203,0.000,0
109986.270,-24.902,-41.504,-33.203,-39.062,0.000,0
109986.273,-12.695,-44.922,-39.062,-30.762,0.000,0
109986.277,-28.320,-59.082,-59.570,-50.781,0.000,0
109986.281,-42.480,-70.801,-60.059,-65.430,0.000,0
109986.285,-40.039,-66.895,-47.363,-47.363,0.000,0
109986.289,-42.969,-71.289,-60.547,-53.711,0.000,0
109986.293,-48.340,-77.148,-68.848,-57.129,0.000,0
109986.297,-59.082,-81.543,-75.684,-58.594,0.000,0
109986.301,-56.641,-86.426,-66.895,-69.824,0.000,0
109986.305,-57.617,-78.613,-45.898,-62.012,0.000,0
109986.309,-72.266,-82.031,-78.125,-62.988,0.000,0
109986.313,-74.707,-82.520,-103.027,-58.105,0.000,0
109986.316,-65.430,-69.824,-75.684,-41.504,0.000,0
109986.320,-64.941,-72.754,-56.152,-38.574,0.000,0
109986.324,-71.289,-82.520,-69.824,-53.711,0.000,0
109986.328,-68.359,-75.684,-83.008,-48.340,0.000,0
109986.332,-68.359,-72.266,-70.312,-48.340,0.000,0
109986.336,-84.961,-83.496,-72.754,-62.500,0.000,0
109986.340,-70.801,-80.078,-70.312,-54.688,0.000,0
109986.344,-52.246,-66.406,-58.105,-41.992,0.000,0
109986.348,-59.570,-63.477,-54.688,-32.715,0.000,0
109986.352,-53.711,-69.824,-52.734,-35.645,0.000,0
109986.355,-49.316,-64.941,-52.734,-31.250,0.000,0
109986.359,-54.688,-56.152,-43.945,-31.738,0.000,0
109986.363,-58.105,-64.453,-54.688,-50.781,0.000,0
109986.367,-47.363,-67.383,-55.176,-54.688,0.000,0
109986.371,-31.250,-56.641,-43.457,-28.809,0.000,0
109986.375,-45.898,-47.852,-53.711,-8.789,0.000,0
109986.379,-47.852,-46.875,-44.922,-21.484,0.000,0
109986.383,-43.945,-49.805,-24.902,-39.551,0.000,0
109986.387,-31.738,-39.551,-29.785,-31.738,0.000,0
109986.391,-9.277,-28.320,-33.203,-10.254,0.000,0
109986.395,0.488,-15.137,-22.949,-5.371,0.000,0
109986.398,11.719,-10.254,-21.484,-6.348,0.000,0
109986.402,15.137,-18.066,-13.184,-8.301,0.000,1
109986.406,0.977,-18.066,-20.508,-11.230,0.000,0
109986.410,-3.418,-13.672,-8.789,0.977,0.000,0
109986.414,3.906,-18.066,-13.184,14.648,0.000,0
109986.418,-3.906,-24.902,-31.250,5.371,0.000,0
109986.422,-18.555,-31.738,-26.367,-2.441,0.000,0
109986.426,-39.062,-43.945,-51.270,-21.484,0.000,0
109986.430,-41.992,-50.781,-60.547,-30.762,0.000,0
109986.434,-28.809,-45.898,-42.969,-13.672,0.000,0
109986.438,-26.367,-37.109,-26.855,-11.719,0.000,0
109986.441,-20.508,-37.598,-35.645,-24.902,0.000,0
109986.445,-15.137,-38.086,-49.316,-22.461,0.000,0
109986.449,-25.879,-41.016,-41.504,-19.043,0.000,0
109986.453,-29.297,-50.293,-48.828,-28.809,0.000,0
109986.457,-23.438,-52.734,-62.012,-35.156,0.000,0
109986.461,-11.230,-36.621,-44.434,-19.531,0.000,0
109986.465,-6.836,-28.320,-28.809,-6.348,0.000,0
109986.469,-11.230,-30.273,-29.785,-16.113,0.000,0
109986.473,-1.465,-23.438,-27.832,-13.672,0.000,0
109986.477,-3.418,-28.809,-38.574,-17.090,0.000,0
109986.480,-17.090,-41.504,-35.645,-28.320,0.000,0
109986.484,-32.715,-52.734,-40.527,-36.621,0.000,0
109986.488,-45.410,-63.477,-54.688,-46.387,0.000,0
109986.492,-46.875,-74.219,-74.707,-60.547,0.000,0
109986.496,-55.176,-87.891,-89.844,-78.613,0.000,0
109986.500,-70.312,-93.750,-83.008,-95.703,0.000,0
109986.504,-65.430,-83.984,-73.242,-84.961,0.000,0
109986.508,-52.246,-72.266,-64.941,-64.941,0.000,0
109986.512,-37.598,-58.105,-45.898,-52.734,0.000,0
109986.516,-13.184,-43.945,-41.992,-25.879,0.000,0
109986.520,-5.371,-38.086,-41.016,-12.695,0.000,0
109986.523,-3.418,-19.531,-28.809,-13.672,0.000,0
109986.527,7.324,-7.812,-28.320,-4.883,0.000,0
109986.531,15.137,-8.789,-21.484,-6.836,0.000,0
109986.535,8.301,-10.742,-15.625,-7.812,0.000,0
109986.539,7.324,-13.184,-7.812,-1.465,0.000,0
109986.543,3.418,-13.184,-2.930,-8.301,0.000,0
109986.547,-4.883,-22.949,-20.996,-13.672,0.000,0
109986.551,10.742,-26.367,-30.762,-4.395,0.000,0
109986.555,1.465,-29.785,-31.738,-7.812,0.000,0
109986.559,-16.602,-38.086,-34.668,-20.020,0.000,0
109986.563,-12.207,-32.715,-30.762,-20.508,0.000,0
109986.566,-7.812,-19.043,-5.371,-5.859,0.000,0
109986.570,-9.277,-22.949,-3.418,-3.418,0.000,0
109986.574,-15.625,-35.156,-33.691,-11.719,0.000,0
109986.578,-17.578,-41.016,-49.805,-19.531,0.000,0
109986.582,-19.043,-41.504,-40.527,-28.320,0.000,0
109986.586,-20.508,-33.691,-22.949,-24.414,0.000,0
109986.590,-16.113,-33.203,-17.578,-16.602,0.000,0
109986.594,-18.066,-43.457,-42.480,-18.066,0.000,0
109986.598,-16.113,-41.992,-40.039,-19.043,0.000,0
109986.602,-23.926,-45.410,-28.320,-21.973,0.000,0
109986.605,-36.133,-52.734,-47.363,-31.738,0.000,0
109986.609,-33.203,-48.340,-54.688,-32.227,0.000,0
109986.613,-22.949,-36.133,-40.039,-27.344,0.000,0
109986.617,-6.348,-37.598,-6.836,-29.785,0.000,0
109986.621,-20.508,-48.340,-17.090,-31.738,0.000,0
109986.625,-35.645,-50.293,-51.758,-28.320,0.000,0
109986.629,-35.156,-58.105,-62.988,-34.180,0.000,0
109986.633,-56.152,-62.500,-55.664,-47.852,0.000,0
109986.637,-42.969,-47.852,-30.273,-45.898,0.000,0
109986.641,-27.832,-51.270,-41.992,-48.340,0.000,0
109986.645,-40.527,-62.012,-64.453,-51.758,0.000,0
109986.648,-40.527,-62.012,-50.781,-40.039,0.000,0
109986.652,-39.551,-68.359,-50.781,-43.945,0.000,0
109986.656,-37.598,-66.895,-56.152,-47.363,0.000,0
109986.660,-28.320,-53.223,-38.086,-45.410,0.000,0
109986.664,-23.438,-55.176,-45.898,-41.016,0.000,0
109986.668,-34.180,-50.781,-36.133,-36.133,0.000,0
109986.672,-33.203,-38.086,-37.598,-31.738,0.000,0
109986.676,-20.508,-49.805,-53.711,-35.645,0.000,0
109986.680,-25.879,-53.223,-44.434,-40.039,0.000,0
109986.684,-19.043,-49.316,-44.434,-39.062,0.000,0
109986.688,-19.531,-48.828,-45.898,-37.109,0.000,0
109986.691,-17.578,-39.551,-48.828,-33.203,0.000,0
109986.695,-16.113,-44.922,-42.969,-37.598,0.000,0
109986.699,-33.203,-51.270,-34.668,-56.152,0.000,0
109986.703,-30.273,-43.945,-36.133,-52.246,0.000,0
109986.707,-22.949,-32.715,-23.438,-37.109,0.000,0
109986.711,-17.578,-21.973,-30.273,-30.273,0.000,0
109986.715,-10.254,-30.273,-39.062,-30.762,0.000,0
109986.719,-20.020,-33.203,-14.648,-25.879,0.000,0
109986.723,-22.949,-23.438,-15.137,-19.531,0.000,0
109986.727,-20.508,-24.902,-32.227,-24.902,0.000,0
109986.730,-19.043,-30.273,-36.621,-24.902,0.000,0
109986.734,3.906,-17.090,-5.859,-12.207,0.000,0
109986.738,1.465,-18.066,-1.465,-21.484,0.000,0
109986.742,-24.902,-34.180,-37.109,-31.250,0.000,0
109986.746,-25.879,-37.109,-47.852,-25.391,0.000,0
109986.750,-28.320,-28.809,-26.367,-20.996,0.000,0
109986.754,-17.090,-25.879,-12.207,-14.160,0.000,0
109986.758,-17.090,-41.504,-43.945,-33.691,0.000,0
109986.762,-22.461,-41.016,-51.270,-36.621,0.000,0
109986.766,0.000,-20.508,-4.395,-8.301,0.000,0
109986.770,-0.488,-25.879,-5.371,-14.160,0.000,0
109986.773,-10.254,-31.738,-25.879,-23.926,0.000,0
109986.777,-8.301,-26.367,-32.227,-15.625,0.000,0
109986.781,-2.441,-20.996,-27.832,-1.465,0.000,0
109986.785,4.395,-20.996,-11.230,-11.719,0.000,0
109986.789,-6.348,-30.273,-21.484,-24.414,0.000,0
109986.793,-18.066,-26.855,-33.203,-19.043,0.000,0
109986.797,-13.672,-19.531,-23.438,-15.137,0.000,0
109986.801,-9.766,-21.973,-15.137,-8.789,0.000,0
109986.805,-8.789,-29.785,-31.738,-8.789,0.000,0
109986.809,-15.625,-35.156,-44.434,-5.859,0.000,0
109986.813,-11.719,-33.691,-37.598,-1.465,0.000,0
109986.816,-13.184,-33.691,-21.484,-7.812,0.000,0
109986.820,-16.602,-29.785,-23.926,-3.418,0.000,0
109986.824,-13.672,-25.391,-23.926,-7.324,0.000,0
109986.828,-3.418,-5.859,-3.906,2.441,0.000,0
109986.832,-0.488,-9.277,-20.996,8.301,0.000,0
109986.836,6.348,-24.414,-17.090,-0.488,0.000,0
109986.840,-0.488,-17.578,-16.113,5.859,0.000,0
109986.844,-8.789,-15.137,-11.719,10.742,0.000,0
109986.848,-1.465,-14.648,-13.672,1.953,0.000,0
109986.852,-12.695,-15.625,-27.832,-7.812,0.000,0
109986.855,-19.043,-17.090,-12.207,0.977,0.000,0
109986.859,-21.484,-18.066,-21.484,-2.441,0.000,0
109986.863,-22.949,-25.391,-43.945,-19.531,0.000,0
109986.867,-32.715,-36.133,-28.320,-31.738,0.000,0
109986.871,-41.992,-35.645,-22.461,-32.715,0.000,0
109986.875,-20.996,-28.320,-43.457,-17.578,0.000,0
109986.879,-10.254,-37.598,-60.547,-10.742,0.000,0
109986.883,-33.203,-43.945,-57.129,-23.926,0.000,0
109986.887,-39.551,-47.363,-32.227,-35.645,0.000,0
109986.891,-22.949,-34.668,-16.602,-20.996,0.000,0
109986.895,-7.324,-24.902,-27.832,-19.531,0.000,0
109986.898,-7.324,-32.227,-35.645,-18.555,0.000,0
109986.902,-5.859,-27.832,-26.367,-2.930,0.000,0
109986.906,-19.531,-31.738,-39.062,-0.977,0.000,0
109986.910,-41.016,-41.992,-63.965,-18.555,0.000,0
109986.914,-24.414,-37.598,-37.598,-14.648,0.000,0
109986.918,-24.902,-38.574,-24.902,-8.301,0.000,0
109986.922,-35.156,-42.969,-41.992,-14.160,0.000,0
109986.926,-35.645,-38.574,-48.828,-21.484,0.000,0
109986.930,-25.391,-35.645,-41.016,-16.602,0.000,0
109986.934,-12.695,-27.832,-12.695,-10.742,0.000,0
109986.938,-31.738,-28.809,-6.836,-17.090,0.000,0
109986.941,-46.387,-35.156,-29.785,-12.207,0.000,0
109986.945,-28.809,-26.855,-37.598,0.000,0.000,0
109986.949,-18.555,-27.344,-21.484,-4.395,0.000,0
109986.953,-16.602,-26.855,-11.719,-8.789,0.000,0
109986.957,-12.207,-23.438,-16.113,-7.812,0.000,0
109986.961,-12.207,-20.020,-24.902,-10.254,0.000,0
109986.965,3.906,-14.160,-24.902,3.906,0.000,0
109986.969,3.906,-18.555,-22.461,-3.906,0.000,0
109986.973,-6.348,-23.438,-8.789,-15.137,0.000,0
109986.977,-2.930,-11.719,-0.488,-5.371,0.000,0
109986.980,9.277,-3.906,-7.812,6.348,0.000,0
109986.984,20.020,-2.441,4.395,16.113,0.000,0
109986.988,15.137,0.488,8.789,21.484,0.000,0
109986.992,20.508,-3.418,5.859,14.160,0.000,0
109986.996,19.043,-6.836,-6.348,3.906,0.000,0
109987.000,1.465,-15.137,10.254,-9.277,0.000,0
109987.004,-5.371,-24.414,14.648,-14.648,0.000,0
109987.008,1.953,-22.949,-21.973,4.395,0.000,0
109987.012,-1.953,-30.273,-29.785,-3.906,0.000,0
109987.016,0.488,-26.855,-1.953,-5.859,0.000,0
109987.020,8.301,-19.531,10.742,2.930,0.000,0
109987.023,-6.836,-28.809,-16.602,-2.930,0.000,0
109987.027,-13.672,-29.785,-37.598,-3.906,0.000,0
109987.031,0.000,-24.902,-12.695,-6.348,0.000,0
109987.035,-20.020,-26.855,8.789,-6.348,0.000,0
109987.039,-26.367,-32.227,-4.395,-11.230,0.000,0
109987.043,-18.555,-34.668,-25.391,-20.996,0.000,0
109987.047,-23.438,-42.969,-38.574,-23.926,0.000,0
109987.051,-34.180,-47.852,-7.812,-34.668,0.000,0
109987.055,-32.227,-41.016,2.930,-41.992,0.000,0
109987.059,-8.301,-21.973,-24.414,-17.578,0.000,0
109987.063,-12.207,-24.414,-35.645,-21.484,0.000,0
109987.066,-20.508,-40.527,-30.273,-31.250,0.000,0
109987.070,-14.648,-37.598,-10.742,-19.043,0.000,0
109987.074,-27.832,-36.133,-5.859,-29.785,0.000,0
109987.078,-29.297,-36.133,-33.691,-39.062,0.000,0
109987.082,-27.832,-41.992,-52.734,-43.945,0.000,0
109987.086,-26.855,-41.992,-37.598,-28.809,0.000,0
109987.090,-31.738,-40.527,-34.180,-27.344,0.000,0
109987.094,-37.598,-46.875,-41.016,-45.898,0.000,0
109987.098,-35.156,-45.898,-45.410,-35.645,0.000,1
109987.102,-43.945,-55.176,-46.387,-48.340,0.000,0
109987.105,-41.992,-52.734,-24.902,-54.199,0.000,0
109987.109,-41.504,-37.598,-14.160,-46.875,0.000,0
109987.113,-44.922,-47.363,-49.316,-50.293,0.000,0
109987.117,-45.410,-54.688,-57.129,-47.852,0.000,0
109987.121,-40.527,-42.480,-24.902,-44.434,0.000,0
109987.125,-31.250,-34.668,-30.762,-29.297,0.000,0
109987.129,-41.016,-41.504,-56.152,-37.598,0.000,0
109987.133,-39.551,-51.270,-47.852,-58.105,0.000,0
109987.137,-30.273,-52.246,-44.434,-45.898,0.000,0
109987.141,-34.180,-48.340,-41.016,-37.109,0.000,0
109987.145,-26.367,-43.945,-40.527,-32.715,0.000,0
109987.148,-20.020,-47.363,-42.969,-23.926,0.000,0
109987.152,-25.391,-47.363,-28.320,-28.809,0.000,0
109987.156,-36.133,-41.504,-21.484,-42.969,0.000,0
109987.160,-34.180,-42.480,-41.016,-44.922,0.000,0
109987.164,-22.461,-41.504,-55.664,-36.621,0.000,0
109987.168,-27.832,-44.434,-37.598,-36.133,0.000,0
109987.172,-28.320,-40.039,-13.672,-29.297,0.000,0
109987.176,-18.555,-33.203,-19.043,-26.367,0.000,0
109987.180,-29.297,-43.945,-55.176,-37.109,0.000,0
109987.184,-38.574,-51.758,-60.059,-31.250,0.000,0
109987.188,-25.391,-43.457,-33.203,-19.531,0.000,0
109987.191,-18.066,-38.086,-32.227,-32.227,0.000,0
109987.195,-18.066,-35.645,-39.551,-35.156,0.000,0
109987.199,-20.996,-30.273,-34.180,-25.391,0.000,0
109987.203,-24.414,-33.203,-21.484,-32.715,0.000,0
109987.207,-27.832,-41.504,-34.180,-35.156,0.000,0
109987.211,-27.344,-42.480,-53.711,-29.297,0.000,0
109987.215,-26.367,-31.250,-33.203,-23.438,0.000,0
109987.219,-24.414,-31.250,-22.461,-18.555,0.000,0
109987.223,-39.551,-44.922,-50.293,-30.762,0.000,0
109987.227,-36.621,-42.480,-70.801,-43.945,0.000,0
109987.230,-34.668,-38.086,-46.387,-37.109,0.000,0
109987.234,-45.898,-44.922,-43.457,-43.457,0.000,0
109987.238,-38.574,-41.992,-54.199,-40.039,0.000,0
109987.242,-32.227,-47.852,-57.617,-36.621,0.000,0
109987.246,-34.180,-51.758,-56.152,-43.945,0.000,0
109987.250,-54.688,-59.082,-62.012,-46.387,0.000,0
109987.254,-48.340,-60.547,-59.082,-45.898,0.000,0
109987.258,-48.340,-54.688,-61.523,-47.852,0.000,0
109987.262,-49.316,-53.711,-76.172,-43.457,0.000,0
109987.266,-28.809,-45.410,-60.547,-31.250,0.000,0
109987.270,-28.809,-46.387,-34.668,-30.273,0.000,0
109987.273,-33.203,-48.828,-41.504,-30.762,0.000,0
109987.277,-34.668,-45.898,-50.781,-27.344,0.000,0
109987.281,-55.176,-55.176,-52.734,-30.273,0.000,0
109987.285,-62.012,-67.383,-67.871,-45.410,0.000,0
109987.289,-62.012,-63.965,-44.922,-62.012,0.000,0
109987.293,-50.293,-47.363,-25.391,-50.781,0.000,0
109987.297,-46.875,-49.805,-60.059,-42.969,0.000,0
109987.301,-35.645,-44.922,-55.664,-33.203,0.000,0
109987.305,-38.086,-44.922,-40.039,-38.086,0.000,0
109987.309,-30.762,-43.457,-50.293,-28.809,0.000,0
109987.313,-11.230,-28.320,-52.246,-12.207,0.000,0
109987.316,-6.348,-18.555,-45.410,-12.207,0.000,0
109987.320,-11.230,-23.926,-28.809,-19.531,0.000,0
109987.324,-25.879,-27.344,-40.527,-26.855,0.000,0
109987.328,-35.645,-28.809,-51.270,-42.480,0.000,0
109987.332,-17.578,-6.836,-13.672,-33.691,0.000,0
109987.336,4.395,0.000,-38.574,-15.625,0.000,0
109987.340,1.465,4.883,-58.105,0.488,0.000,0
109987.344,-8.301,20.508,-44.434,5.859,0.000,0
109987.348,0.977,34.180,-10.254,5.859,0.000,0
109987.352,14.160,53.223,5.859,7.812,0.000,0
109987.355,34.668,61.035,-25.879,24.902,0.000,0
109987.359,35.645,66.406,-19.043,36.133,0.000,0
109987.363,32.227,79.590,-1.953,37.598,0.000,0
109987.367,32.227,80.566,9.766,24.902,0.000,0
109987.371,31.250,80.566,0.488,21.484,0.000,0
109987.375,32.227,84.473,-22.949,22.949,0.000,0
109987.379,29.297,84.473,-8.301,21.484,0.000,0
109987.383,41.016,94.238,16.602,33.203,0.000,0
109987.387,51.758,97.656,20.020,44.434,0.000,0
109987.391,43.457,77.637,5.371,29.785,0.000,0
109987.395,46.387,69.336,2.930,32.227,0.000,0
109987.398,42.480,71.289,20.020,34.180,0.000,0
109987.402,29.297,58.594,32.715,22.461,0.000,0
109987.406,22.949,43.457,-6.348,22.949,0.000,0
109987.410,17.578,41.016,-13.184,29.297,0.000,0
109987.414,17.090,34.668,5.859,21.484,0.000,0
109987.418,22.461,23.926,-0.488,11.719,0.000,0
109987.422,28.320,28.809,7.812,20.020,0.000,0
109987.426,16.113,17.578,10.254,17.090,0.000,0
109987.430,9.766,0.488,-6.348,-3.418,0.000,0
109987.434,0.977,-7.812,-4.395,-17.578,0.000,0
109987.438,-11.230,-17.090,-11.230,-0.977,0.000,0
109987.441,-2.930,-24.902,-31.250,-1.953,0.000,0
109987.445,-6.348,-35.645,-28.320,-22.949,0.000,0
109987.449,-12.695,-45.898,-32.715,-25.879,0.000,0
109987.453,-30.762,-50.293,-23.926,-32.715,0.000,0
109987.457,-37.109,-50.293,-34.180,-37.598,0.000,0
109987.461,-22.949,-48.340,-63.965,-30.762,0.000,0
109987.465,-30.762,-57.617,-56.152,-35.156,0.000,0
109987.469,-32.715,-68.359,-46.387,-48.828,0.000,0
109987.473,-34.668,-68.359,-45.898,-37.109,0.000,0
109987.477,-44.922,-71.289,-51.270,-28.320,0.000,0
109987.480,-41.992,-80.078,-50.293,-50.293,0.000,0
109987.484,-36.133,-83.496,-30.273,-53.711,0.000,0
109987.488,-43.457,-84.473,-38.574,-48.828,0.000,0
109987.492,-53.223,-86.426,-70.312,-58.105,0.000,0
109987.496,-62.500,-94.727,-74.707,-63.965,0.000,0
109987.500,-47.363,-91.797,-50.781,-41.504,0.000,0
109987.504,-52.246,-94.238,-56.152,-43.457,0.000,0
109987.508,-59.082,-96.191,-74.219,-59.570,0.000,0
109987.512,-50.293,-87.402,-58.105,-55.664,0.000,0
109987.516,-54.688,-86.914,-34.180,-51.270,0.000,0
109987.520,-37.598,-89.355,-46.387,-44.922,0.000,0
109987.523,-27.832,-88.379,-60.547,-47.852,0.000,0
109987.527,-53.711,-85.938,-57.129,-49.805,0.000,0
109987.531,-51.270,-86.426,-59.082,-58.105,0.000,0
109987.535,-39.551,-83.008,-44.922,-55.176,0.000,0
109987.539,-44.922,-76.172,-49.316,-40.527,0.000,0
109987.543,-40.527,-78.125,-56.641,-53.223,0.000,0
109987.547,-40.039,-81.055,-34.180,-61.035,0.000,0
109987.551,-41.504,-77.637,-40.039,-42.480,0.000,0
109987.555,-38.574,-78.613,-55.176,-47.363,0.000,0
109987.559,-34.668,-75.195,-47.363,-40.039,0.000,0
109987.563,-38.086,-70.312,-41.016,-33.691,0.000,0
109987.566,-37.109,-73.242,-41.992,-44.434,0.000,0
109987.570,-38.574,-69.336,-36.621,-40.039,0.000,0
109987.574,-37.109,-60.059,-40.039,-36.133,0.000,0
109987.578,-26.367,-50.781,-50.781,-25.391,0.000,0
109987.582,-15.625,-54.199,-40.527,-20.020,0.000,0
109987.586,-21.484,-57.129,-27.344,-29.785,0.000,0
109987.590,-23.438,-55.176,-46.387,-32.227,0.000,0
109987.594,-8.301,-53.223,-44.922,-25.879,0.000,0
109987.598,-24.902,-57.617,-41.992,-25.391,0.000,0
109987.602,-34.180,-72.754,-46.387,-38.086,0.000,0
109987.605,-23.926,-63.965,-28.809,-28.809,0.000,0
109987.609,-19.043,-57.617,-45.410,-18.555,0.000,0
109987.613,-25.391,-79.590,-66.895,-32.715,0.000,0
109987.617,-29.297,-75.195,-45.410,-30.273,0.000,0
109987.621,-9.277,-56.641,-26.367,-20.996,0.000,0
109987.625,-3.418,-62.500,-49.805,-30.273,0.000,0
109987.629,-16.602,-61.035,-52.246,-21.484,0.000,0
109987.633,-30.762,-59.570,-40.039,-33.691,0.000,0
109987.637,-19.531,-61.035,-48.340,-33.203,0.000,0
109987.641,-9.766,-56.152,-58.594,-22.949,0.000,0
109987.645,-20.020,-63.477,-60.059,-47.852,0.000,0
109987.648,-26.367,-59.570,-36.621,-53.711,0.000,0
109987.652,-16.113,-55.176,-28.809,-37.598,0.000,0
109987.656,-16.113,-63.965,-51.270,-27.832,0.000,0
109987.660,-23.926,-66.895,-68.359,-26.367,0.000,0
109987.664,-22.949,-69.336,-59.570,-25.391,0.000,0
109987.668,-25.391,-54.688,-27.344,-28.809,0.000,1
109987.672,-15.625,-42.969,-25.879,-26.855,0.000,0
109987.676,-16.602,-52.246,-51.758,-14.160,0.000,0
109987.680,-14.160,-48.828,-39.062,-9.766,0.000,0
109987.684,-13.184,-52.246,-22.949,-19.043,0.000,0
109987.688,-22.949,-52.246,-41.016,-25.391,0.000,0
109987.691,-31.738,-46.875,-56.641,-17.090,0.000,0
109987.695,-21.973,-35.156,-32.715,-7.812,0.000,0
109987.699,-16.113,-40.039,-37.598,-12.207,0.000,0
109987.703,-13.672,-46.875,-33.691,-18.555,0.000,0
109987.707,-11.230,-43.457,-41.016,-23.438,0.000,0
109987.711,-24.902,-38.086,-31.250,-20.020,0.000,0
109987.715,-30.273,-39.551,-21.484,-17.090,0.000,0
109987.719,-26.367,-43.457,-42.480,-22.949,0.000,0
109987.723,-1.953,-32.715,-35.156,-0.488,0.000,0
109987.727,4.883,-32.227,-40.039,7.324,0.000,0
109987.730,-19.531,-40.527,-45.410,-12.207,0.000,0
109987.734,-14.160,-38.086,-23.438,-18.066,0.000,0
109987.738,2.930,-30.273,-26.367,-15.625,0.000,0
109987.742,-3.906,-34.668,-48.340,-19.531,0.000,0
109987.746,-10.254,-36.621,-41.016,-23.926,0.000,0
109987.750,-8.301,-36.133,-22.949,-20.508,0.000,0
109987.754,-5.859,-31.250,-22.461,-3.418,0.000,0
109987.758,-0.488,-29.297,-35.645,0.000,0.000,0
109987.762,-8.789,-40.039,-46.387,-17.578,0.000,0
109987.766,-13.672,-42.480,-36.621,-25.879,0.000,0
109987.770,7.324,-32.715,-14.160,-19.043,0.000,0
109987.773,3.418,-29.785,-24.414,-11.719,0.000,0
109987.777,-2.930,-17.578,-20.020,1.953,0.000,0
109987.781,9.277,-18.066,-7.812,1.953,0.000,0
109987.785,6.348,-24.902,-2.930,-8.789,0.000,0
109987.789,-3.906,-24.414,-12.207,-14.160,0.000,0
109987.793,-2.441,-31.738,-40.527,-15.625,0.000,0
109987.797,5.371,-30.273,-30.762,-13.672,0.000,0
109987.801,18.555,-15.137,14.160,-1.953,0.000,0
109987.805,7.324,-21.973,-9.277,-3.906,0.000,0
109987.809,-13.672,-30.273,-35.645,-7.812,0.000,0
109987.813,-13.672,-28.320,-27.344,-14.160,0.000,0
109987.816,-4.395,-25.391,-22.461,-6.348,0.000,0
109987.820,11.230,-17.578,-11.230,-0.488,0.000,0
109987.824,2.441,-21.484,-17.090,-13.672,0.000,0
109987.828,0.000,-19.043,-18.555,-12.207,0.000,0
109987.832,11.230,-19.043,-18.066,-7.812,0.000,0
109987.836,22.949,-15.137,-18.555,-4.883,0.000,0
109987.840,20.508,-7.812,-10.254,-0.488,0.000,0
109987.844,6.348,-16.113,-5.371,-15.137,0.000,0
109987.848,-0.488,-13.672,-3.906,-12.695,0.000,0
109987.852,10.742,-2.441,5.371,8.301,0.000,0
109987.855,13.672,-10.742,-1.953,0.977,0.000,0
109987.859,5.371,-20.996,-20.508,-2.441,0.000,0
109987.863,-3.906,-22.461,3.418,-6.836,0.000,0
109987.867,-23.438,-38.574,-2.930,-23.438,0.000,0
109987.871,-13.184,-37.598,-36.621,-16.602,0.000,0
109987.875,19.531,-18.555,-20.020,-2.441,0.000,0
109987.879,14.160,-27.344,-4.395,-8.301,0.000,0
109987.883,-4.395,-29.297,-20.508,-11.230,0.000,0
109987.887,-17.090,-25.879,-21.484,-12.695,0.000,0
109987.891,-11.230,-26.367,-11.719,-11.230,0.000,0
109987.895,-0.977,-31.250,-25.879,-10.254,0.000,0
109987.898,-0.977,-31.250,-16.602,-13.672,0.000,0
109987.902,7.324,-14.160,-9.277,3.418,0.000,0
109987.906,0.488,-11.719,-23.438,8.301,0.000,0
109987.910,-3.906,-16.113,-14.160,1.953,0.000,0
109987.914,-0.488,-21.973,-0.488,-20.020,0.000,0
109987.918,-7.812,-26.367,-17.090,-14.648,0.000,0
109987.922,10.254,-10.742,-24.414,16.602,0.000,0
109987.926,11.719,-7.324,-21.973,16.602,0.000,0
109987.930,-0.977,-12.207,-12.207,8.301,0.000,0
109987.934,4.395,-19.043,-12.207,2.441,0.000,0
109987.938,1.953,-18.555,-29.297,-8.789,0.000,0
109987.941,-17.578,-10.742,-27.344,-5.371,0.000,0
109987.945,-14.160,-16.113,-3.418,-12.207,0.000,0
109987.949,-7.812,-19.043,-18.555,-12.207,0.000,0
109987.953,-21.484,-29.297,-37.598,-18.066,0.000,0
109987.957,-22.949,-29.297,-12.207,-23.926,0.000,0
109987.961,-17.090,-26.855,-21.973,-21.973,0.000,0
109987.965,-13.672,-32.715,-41.504,-13.184,0.000,0
109987.969,-12.695,-28.809,-33.691,-7.812,0.000,0
109987.973,-15.137,-26.367,-23.438,-20.020,0.000,0
109987.977,-11.719,-25.391,-17.090,-23.926,0.000,0
109987.980,-12.207,-19.043,-29.297,-19.043,0.000,0
109987.984,-10.742,-25.391,-37.109,-27.832,0.000,0
109987.988,-15.137,-29.785,-43.457,-29.297,0.000,0
109987.992,-22.949,-23.438,-30.762,-18.066,0.000,0
109987.996,-18.066,-24.902,-11.719,-37.598,0.000,0
109988.000,-12.207,-18.066,-19.531,-34.180,0.000,0
109988.004,-19.043,-27.832,-33.203,-26.367,0.000,0
109988.008,-25.391,-34.668,-36.133,-38.574,0.000,0
109988.012,-31.250,-29.297,-40.039,-32.715,0.000,0
109988.016,-12.695,-33.203,-24.414,-34.668,0.000,0
109988.020,-4.883,-31.250,-22.949,-21.484,0.000,0
109988.023,-17.090,-17.578,-23.926,-8.789,0.000,0
109988.027,-20.508,-20.508,-28.809,-13.184,0.000,0
109988.031,-19.043,-32.715,-43.457,-17.578,0.000,0
109988.035,-9.277,-26.855,-14.648,-18.066,0.000,0
109988.039,-5.859,-20.996,-9.766,-15.137,0.000,0
109988.043,-18.066,-25.391,-25.391,-17.578,0.000,0
109988.047,-31.250,-30.273,-15.625,-21.973,0.000,0
109988.051,-32.227,-28.809,-25.391,-15.137,0.000,0
109988.055,-14.160,-21.484,-30.762,-9.277,0.000,0
109988.059,-8.301,-22.949,-25.391,-12.695,0.000,0
109988.063,-17.578,-27.344,-24.414,-8.301,0.000,0
109988.066,-18.066,-23.438,-18.555,-1.465,0.000,0
109988.070,-11.719,-23.926,-35.156,-9.766,0.000,0
109988.074,-18.066,-23.438,-26.855,-16.602,0.000,0
109988.078,-9.277,-17.090,-7.812,4.883,0.000,0
109988.082,-15.137,-24.902,-16.113,-3.418,0.000,0
109988.086,-19.043,-25.391,-25.879,-11.719,0.000,0
109988.090,-7.324,-15.137,-32.227,4.395,0.000,0
109988.094,-14.160,-24.414,-25.879,-13.184,0.000,0
109988.098,-8.789,-25.391,-18.066,-14.160,0.000,0
109988.102,1.953,-14.648,-9.766,13.184,0.000,0
109988.105,-7.812,-16.113,-14.160,14.160,0.000,0
109988.109,-20.020,-23.438,-28.320,12.207,0.000,0
109988.113,-13.184,-24.902,-11.719,16.113,0.000,0
109988.117,-12.695,-20.508,-2.441,5.859,0.000,0
109988.121,-23.926,-22.949,-27.344,-10.254,0.000,0
109988.125,-32.715,-33.691,-34.668,-11.230,0.000,0
109988.129,-31.250,-34.668,-18.555,-12.207,0.000,0
109988.133,-17.578,-23.926,-21.484,-6.836,0.000,0
109988.137,-11.719,-20.508,-26.855,5.371,0.000,0
109988.141,-19.531,-22.949,-28.320,4.395,0.000,0
109988.145,-2.441,-14.160,1.465,9.766,0.000,0
109988.148,3.418,-9.277,5.859,1.465,0.000,0
109988.152,-14.648,-12.695,-20.020,5.371,0.000,0
109988.156,-5.371,-14.160,-23.926,8.789,0.000,0
109988.160,6.348,-12.695,-13.184,5.371,0.000,0
109988.164,-14.648,-18.066,-16.113,-9.766,0.000,0
109988.168,-18.555,-17.578,-25.879,-2.930,0.000,0
109988.172,3.906,-7.812,-7.812,9.766,0.000,0
109988.176,-0.488,-10.742,-4.395,3.906,0.000,0
109988.180,-13.672,-13.184,0.000,-2.930,0.000,0
109988.184,-3.418,-12.207,-2.930,-3.906,0.000,0
109988.188,8.789,-15.137,-25.879,15.137,0.000,0
109988.191,-2.441,-24.414,-32.227,6.348,0.000,0
109988.195,-8.301,-29.297,-17.578,-15.625,0.000,0
109988.199,17.090,-17.578,-6.836,4.395,0.000,0
109988.203,17.090,-22.461,-15.137,3.418,0.000,0
109988.207,12.207,-29.785,-18.555,0.000,0.000,0
109988.211,18.555,-30.273,-14.648,-9.766,0.000,0
109988.215,9.766,-34.668,-11.719,-27.344,0.000,0
109988.219,3.418,-31.250,-27.832,-10.742,0.000,0
109988.223,3.418,-37.598,-53.223,-17.578,0.000,0
109988.227,8.789,-36.133,-31.738,-20.020,0.000,0
109988.230,22.949,-23.438,-9.277,-7.812,0.000,0
109988.234,6.836,-27.344,-11.230,-37.109,0.000,0
109988.238,-7.324,-31.250,-47.363,-27.344,0.000,0
109988.242,4.395,-23.438,-41.016,2.930,0.000,0
109988.246,4.883,-21.973,-19.043,-6.348,0.000,0
109988.250,0.000,-23.438,-21.973,-21.484,0.000,0
109988.254,3.418,-20.020,-32.227,-16.113,0.000,0
109988.258,-7.812,-20.508,-31.250,-19.043,0.000,0
109988.262,-19.043,-26.855,-38.086,-31.738,0.000,0
109988.266,-17.578,-30.762,-57.617,-10.742,0.000,0
109988.270,-24.902,-39.062,-55.176,-14.648,0.000,0
109988.273,-26.855,-34.668,-38.086,-29.785,0.000,0
109988.277,-8.301,-23.926,-30.762,-11.230,0.000,0
109988.281,-17.578,-35.645,-40.039,-16.113,0.000,0
109988.285,-31.738,-39.551,-51.758,-28.809,0.000,0
109988.289,-21.484,-33.691,-39.062,-19.531,0.000,1
109988.293,-11.230,-25.879,-23.438,-10.742,0.000,0
109988.297,-5.859,-29.785,-35.645,-25.391,0.000,0
109988.301,-13.672,-34.180,-39.551,-33.691,0.000,0
109988.305,-21.973,-22.949,-48.340,-15.625,0.000,0
109988.309,-13.184,-25.391,-39.551,-22.461,0.000,0
109988.313,-12.695,-39.551,-27.832,-45.410,0.000,0
109988.316,-25.879,-39.551,-41.992,-38.574,0.000,0
109988.320,-22.461,-35.645,-56.641,-21.484,0.000,0
109988.324,-26.855,-35.156,-39.551,-26.855,0.000,0
109988.328,-23.438,-30.762,-16.113,-44.434,0.000,0
109988.332,-14.648,-34.180,-29.785,-41.016,0.000,0
109988.336,-15.625,-31.738,-51.758,-26.855,0.000,0
109988.340,-15.625,-33.691,-57.129,-28.320,0.000,0
109988.344,-13.184,-39.062,-47.363,-26.855,0.000,0
109988.348,-21.973,-36.621,-19.531,-30.273,0.000,0
109988.352,-26.367,-30.273,-20.020,-20.996,0.000,0
109988.355,-21.973,-31.250,-43.457,-19.043,0.000,0
109988.359,-20.508,-28.809,-32.227,-25.879,0.000,0
109988.363,-4.395,-15.625,-24.902,-2.441,0.000,0
109988.367,-10.254,-20.996,-27.832,-20.020,0.000,0
109988.371,-20.020,-27.832,-32.715,-36.133,0.000,0
109988.375,-5.371,-12.695,-25.879,-11.230,0.000,0
109988.379,-8.789,-7.324,-9.277,-8.789,0.000,0
109988.383,-4.883,-0.977,-11.719,0.488,0.000,0
109988.387,0.488,-3.906,-14.160,-20.020,0.000,0
109988.391,-12.695,-21.973,-20.996,-33.203,0.000,0
109988.395,-18.066,-27.344,-31.250,-20.996,0.000,0
109988.398,-17.090,-25.391,-37.598,-35.156,0.000,0
109988.402,-12.695,-17.578,-38.086,-27.832,0.000,0
109988.406,-9.277,-14.160,-5.859,-8.789,0.000,0
109988.410,-14.160,-25.391,0.488,-10.742,0.000,0
109988.414,-1.953,-31.250,-28.320,-20.020,0.000,0
109988.418,3.418,-28.320,-27.344,-23.438,0.000,0
109988.422,-13.672,-34.180,-37.109,-14.160,0.000,0
109988.426,-11.230,-39.062,-29.297,-30.273,0.000,0
109988.430,5.859,-23.438,-6.836,-29.785,0.000,0
109988.434,6.836,-18.066,-29.785,-3.906,0.000,0
109988.438,4.395,-31.250,-48.340,-11.719,0.000,0
109988.441,19.043,-34.668,-41.016,-14.648,0.000,0
109988.445,11.230,-32.715,-34.668,-19.531,0.000,0
109988.449,-4.395,-26.855,-23.926,-23.438,0.000,0
109988.453,-6.348,-24.414,-14.648,-19.531,0.000,0
109988.457,-7.812,-22.461,-17.578,-3.906,0.000,0
109988.461,10.254,-13.672,-20.996,11.230,0.000,0
109988.465,24.902,-13.184,-10.254,8.301,0.000,0
109988.469,13.672,-17.090,-11.230,0.977,0.000,0
109988.473,-2.930,-21.484,-15.137,-7.812,0.000,0
109988.477,4.395,-26.367,-8.301,-22.949,0.000,0
109988.480,4.395,-23.438,-18.555,-10.742,0.000,0
109988.484,-3.418,-21.973,-26.367,0.977,0.000,0
109988.488,8.789,-20.020,-16.602,5.859,0.000,0
109988.492,10.254,-18.066,-12.207,9.766,0.000,0
109988.496,-1.465,-20.996,-5.371,2.441,0.000,0
109988.500,-12.695,-31.250,-7.324,-18.066,0.000,0
109988.504,-20.508,-36.133,-33.203,-30.273,0.000,0
109988.508,-20.508,-34.180,-37.598,-23.438,0.000,0
109988.512,-14.648,-33.203,-20.020,-18.555,0.000,0
109988.516,-10.254,-23.438,-20.996,-4.883,0.000,0
109988.520,2.441,-18.555,-23.926,10.254,0.000,0
109988.523,-0.977,-24.902,-12.207,1.953,0.000,0
109988.527,-27.344,-32.227,-3.418,-17.090,0.000,0
109988.531,-37.109,-40.527,-27.344,-31.738,0.000,0
109988.535,-24.414,-45.410,-55.176,-31.738,0.000,0
109988.539,-5.859,-27.344,-23.438,-11.719,0.000,0
109988.543,-6.836,-20.996,-7.812,-10.742,0.000,0
109988.547,-21.973,-36.133,-41.504,-21.973,0.000,0
109988.551,-34.668,-37.109,-47.363,-18.066,0.000,0
109988.555,-39.551,-36.621,-25.391,-25.391,0.000,0
109988.559,-50.293,-40.527,-20.508,-45.410,0.000,0
109988.563,-33.203,-35.156,-42.969,-29.785,0.000,0
109988.566,-11.230,-32.227,-45.410,-10.254,0.000,0
109988.570,-20.508,-29.297,-38.086,-13.672,0.000,0
109988.574,-27.344,-31.738,-27.344,-17.090,0.000,0
109988.578,-25.391,-33.203,-23.438,-13.184,0.000,0
109988.582,-26.855,-30.273,-20.508,-12.695,0.000,0
109988.586,-29.785,-33.203,-30.273,-15.625,0.000,0
109988.590,-27.832,-26.367,-20.996,-8.789,0.000,0
109988.594,-31.250,-25.391,-21.973,-13.672,0.000,0
109988.598,-25.391,-23.438,-38.086,-10.254,0.000,0
109988.602,-28.320,-21.973,-13.184,-20.508,0.000,0
109988.605,-38.086,-32.227,-23.438,-28.809,0.000,0
109988.609,-40.527,-42.969,-49.805,-39.062,0.000,0
109988.613,-28.809,-32.227,-43.945,-29.785,0.000,0
109988.617,-8.301,-17.090,-33.203,-5.859,0.000,0
109988.621,-18.066,-28.809,-25.391,-19.531,0.000,0
109988.625,-26.855,-30.273,-23.438,-31.738,0.000,0
109988.629,-16.602,-19.531,-14.160,-13.184,0.000,0
109988.633,-21.973,-24.414,-18.066,-16.113,0.000,0
109988.637,-29.297,-29.785,-40.039,-32.227,0.000,0
109988.641,-6.836,-27.832,-31.250,-18.066,0.000,0
109988.645,-20.508,-38.574,-27.832,-18.555,0.000,0
109988.648,-38.086,-41.992,-32.715,-30.273,0.000,0
109988.652,-30.762,-36.133,-34.668,-23.438,0.000,0
109988.656,-22.949,-33.203,-29.785,-12.207,0.000,0
109988.660,-10.254,-39.551,-29.785,-26.367,0.000,0
109988.664,-8.301,-36.133,-34.180,-21.484,0.000,0
109988.668,-19.043,-31.738,-40.039,-14.648,0.000,0
109988.672,-9.766,-31.250,-40.039,-15.137,0.000,0
109988.676,-18.066,-39.062,-30.762,-24.902,0.000,0
109988.680,-28.320,-48.340,-30.273,-44.434,0.000,0
109988.684,-5.371,-27.832,-30.273,-23.438,0.000,0
109988.688,9.277,-17.578,-28.320,0.000,0.000,0
109988.691,1.953,-21.973,-8.301,-0.977,0.000,0
109988.695,-5.371,-22.949,-19.043,-2.930,0.000,0
109988.699,-6.836,-25.391,-32.715,-8.301,0.000,0
109988.703,5.859,-26.367,-20.020,1.953,0.000,0
109988.707,-12.695,-19.043,-13.184,-5.859,0.000,0
109988.711,-48.828,-24.414,-32.227,-36.133,0.000,0
109988.715,-31.250,-28.320,-38.086,-25.391,0.000,0
109988.719,-20.508,-19.043,-20.020,-3.906,0.000,0
109988.723,-22.461,-19.043,-10.742,1.953,0.000,0
109988.727,-22.949,-21.484,-8.301,0.000,0.000,0
109988.730,-31.738,-27.832,-28.809,-7.324,0.000,0
109988.734,-23.438,-24.414,-27.344,-7.812,0.000,0
109988.738,-11.230,-16.113,0.488,-3.418,0.000,0
109988.742,-17.578,-29.785,-21.973,-16.113,0.000,0
109988.746,-17.578,-27.832,-38.086,-4.883,0.000,0
109988.750,-8.789,-26.855,-33.691,-1.953,0.000,0
109988.754,-13.184,-38.086,-24.414,-11.719,0.000,0
109988.758,-18.555,-36.133,-16.113,-7.324,0.000,0
109988.762,-15.137,-31.738,-14.648,-8.301,0.000,0
109988.766,-16.113,-27.832,-28.809,-5.859,0.000,0
109988.770,-9.277,-18.066,-31.250,0.488,0.000,0
109988.773,-11.230,-24.414,-33.203,-5.371,0.000,0
109988.777,-20.996,-29.297,-17.578,-15.625,0.000,0
109988.781,-9.277,-22.949,-7.812,-9.277,0.000,0
109988.785,0.488,-22.949,-41.504,-2.441,0.000,0
109988.789,-10.742,-28.320,-41.016,-12.695,0.000,0
109988.793,-4.883,-23.926,-23.926,-7.324,0.000,0
109988.797,0.000,-21.973,-30.273,2.441,0.000,0
109988.801,-24.902,-25.391,-39.062,-11.719,0.000,0
109988.805,-17.090,-26.855,-36.133,-19.531,0.000,0
109988.809,-9.766,-30.273,-31.738,-8.301,0.000,0
109988.813,-19.043,-24.902,-29.785,0.977,0.000,0
109988.816,-11.230,-22.949,-29.785,3.906,0.000,0
109988.820,-7.812,-28.320,-26.855,3.906,0.000,0
109988.824,-20.020,-28.809,-16.113,-8.789,0.000,0
109988.828,-26.367,-29.785,-20.020,-12.695,0.000,0
109988.832,-25.879,-24.414,-28.320,-4.395,0.000,0
109988.836,-23.926,-30.273,-35.156,-14.160,0.000,0
109988.840,-14.648,-36.621,-30.762,-17.090,0.000,0
109988.844,-2.930,-12.695,-6.836,11.719,0.000,0
109988.848,-6.348,-14.648,-35.645,10.742,0.000,0
109988.852,-11.230,-26.367,-39.062,-3.906,0.000,0
109988.855,-9.277,-28.320,-24.902,-12.207,0.000,0
109988.859,-16.602,-29.785,-44.434,-15.625,0.000,0
109988.863,-20.996,-24.414,-43.457,-2.930,0.000,0
109988.867,-18.555,-25.879,-34.668,-12.695,0.000,0
109988.871,-16.113,-29.297,-38.574,-15.137,0.000,0
109988.875,-12.695,-26.367,-32.715,-15.625,0.000,0
109988.879,-11.719,-35.156,-36.621,-19.531,0.000,0
109988.883,-14.648,-35.645,-50.781,-4.883,0.000,0
109988.887,-20.996,-33.691,-46.875,-7.324,0.000,0
109988.891,-25.391,-35.645,-43.457,-13.672,0.000,0
109988.895,-15.625,-27.832,-39.062,-8.301,0.000,0
109988.898,-21.484,-27.344,-30.273,-16.602,0.000,0
109988.902,-33.691,-33.203,-21.973,-29.297,0.000,0
109988.906,-27.832,-31.738,-22.461,-18.555,0.000,0
109988.910,-15.625,-27.832,-37.109,-0.488,0.000,0
109988.914,-9.766,-31.250,-41.504,0.977,0.000,0
109988.918,-16.113,-39.062,-46.875,-10.742,0.000,0
109988.922,-20.020,-33.203,-35.645,-10.254,0.000,0
109988.926,-17.090,-28.320,-25.391,-11.719,0.000,0
109988.930,-7.812,-35.156,-44.922,-10.254,0.000,0
109988.934,-24.902,-38.086,-41.504,-12.695,0.000,0
109988.938,-34.668,-41.504,-24.414,-24.902,0.000,0
109988.941,-18.066,-33.691,-15.625,-23.926,0.000,0
109988.945,-20.020,-27.344,-21.973,-20.996,0.000,0
109988.949,-33.691,-28.809,-43.945,-28.809,0.000,0
109988.953,-17.578,-24.902,-37.109,-19.043,0.000,0
109988.957,-0.977,-16.602,-7.812,-0.488,0.000,0
109988.961,-16.113,-22.949,-29.785,-4.883,0.000,0
109988.965,-17.578,-31.250,-46.875,-14.648,0.000,0
109988.969,-23.926,-37.109,-42.480,-12.695,0.000,0
109988.973,-19.043,-37.598,-34.668,-13.672,0.000,0
109988.977,-5.371,-26.367,-11.719,-13.672,0.000,0
109988.980,-14.648,-25.879,-24.414,-11.230,0.000,0
109988.984,-6.836,-20.996,-29.785,-5.371,0.000,1
109988.988,-0.488,-16.602,-14.160,-1.953,0.000,0
109988.992,-11.719,-24.902,-23.926,-8.301,0.000,0
109988.996,-11.719,-29.297,-32.227,-23.438,0.000,0
109989.000,-16.113,-30.762,-27.344,-22.461,0.000,0
109989.004,-22.461,-40.039,-15.137,-19.531,0.000,0
109989.008,-13.184,-41.992,-38.574,-13.184,0.000,0
109989.012,-9.277,-35.156,-51.270,-1.953,0.000,0
109989.016,-7.324,-29.785,-15.625,-9.277,0.000,0
