timestamps,TP9,AF7,AF8,TP10,Right AUX,Marker0
38680.562,-44.434,-42.480,-58.105,-47.363,0.000,0
38680.565,-56.641,-74.219,-68.848,-68.848,0.000,0
38680.569,-64.941,-63.965,-55.176,-72.754,0.000,0
38680.573,-62.500,-47.363,-48.340,-57.129,0.000,0
38680.577,-57.617,-52.246,-61.523,-41.016,0.000,0
38680.581,-53.223,-57.617,-52.246,-43.457,0.000,0
38680.585,-56.152,-73.730,-36.133,-57.129,0.000,0
38680.589,-54.199,-54.199,-41.504,-53.711,0.000,0
38680.593,-46.875,-44.434,-42.480,-41.992,0.000,0
38680.597,-41.992,-43.457,-33.691,-39.551,0.000,0
38680.601,-39.551,-34.180,-40.039,-40.039,0.000,0
38680.605,-50.293,-67.383,-46.875,-54.199,0.000,0
38680.608,-59.082,-68.359,-46.387,-56.641,0.000,0
38680.612,-62.500,-55.176,-44.922,-44.922,0.000,0
38680.616,-51.270,-57.129,-46.875,-40.527,0.000,0
38680.620,-37.598,-47.852,-41.992,-30.273,0.000,0
38680.624,-45.410,-62.012,-35.645,-39.062,0.000,0
38680.628,-49.805,-58.105,-48.340,-49.805,0.000,0
38680.632,-36.621,-39.062,-49.316,-33.203,0.000,0
38680.636,-43.945,-45.410,-44.434,-29.785,0.000,0
38680.640,-38.574,-39.551,-34.668,-23.438,0.000,0
38680.644,-36.133,-60.547,-32.715,-39.551,0.000,0
38680.647,-38.574,-54.688,-38.086,-29.785,0.000,0
38680.651,-24.414,-26.367,-34.180,-7.812,0.000,0
38680.655,-32.227,-42.969,-28.320,-18.555,0.000,0
38680.659,-37.109,-39.062,-30.273,-24.414,0.000,0
38680.663,-27.832,-34.668,-33.203,-19.531,0.000,0
38680.667,-37.109,-41.992,-38.086,-32.227,0.000,0
38680.671,-43.945,-28.809,-29.785,-36.621,0.000,0
38680.675,-22.461,-27.832,-31.738,-15.137,0.000,0
38680.679,-14.160,-21.484,-33.203,-19.531,0.000,0
38680.683,-31.738,-10.742,-31.250,-26.367,0.000,0
38680.687,-29.297,-17.578,-41.504,-20.996,0.000,0
38680.690,-2.441,-18.066,-17.090,-13.184,0.000,0
38680.694,-5.371,-24.414,-16.602,-13.184,0.000,0
38680.698,-4.883,-19.531,-28.320,-2.441,0.000,0
38680.702,10.742,0.977,-1.465,6.348,0.000,0
38680.706,22.461,18.066,6.836,17.578,0.000,0
38680.710,46.875,30.273,4.883,21.973,0.000,0
38680.714,37.109,29.297,14.648,8.301,0.000,0
38680.718,16.113,36.621,22.461,20.508,0.000,0
38680.722,28.809,49.316,33.691,29.297,0.000,0
38680.726,33.691,47.852,34.180,30.273,0.000,0
38680.730,21.484,41.016,23.438,23.438,0.000,0
38680.733,22.949,35.156,31.738,23.926,0.000,0
38680.737,21.484,42.969,32.715,37.598,0.000,0
38680.741,27.832,44.922,25.879,30.273,0.000,0
38680.745,28.809,36.133,30.762,25.879,0.000,0
38680.749,31.250,49.316,36.621,44.434,0.000,0
38680.753,44.922,41.016,37.109,43.457,0.000,0
38680.757,51.270,24.414,29.785,39.551,0.000,0
38680.761,28.809,43.457,26.855,50.781,0.000,0
38680.765,25.879,31.738,25.879,41.992,0.000,0
38680.769,26.855,21.973,20.020,30.273,0.000,0
38680.772,19.531,36.621,27.344,30.762,0.000,0
38680.776,29.297,45.410,22.461,36.133,0.000,0
38680.780,23.926,21.973,23.926,30.762,0.000,0
38680.784,22.461,17.090,26.855,26.855,0.000,0
38680.788,38.086,41.992,29.297,34.180,0.000,0
38680.792,21.973,41.504,28.809,19.531,0.000,0
38680.796,31.738,30.762,25.391,27.832,0.000,0
38680.800,35.645,12.207,17.578,20.020,0.000,0
38680.804,-10.254,-7.324,2.930,-7.812,0.000,0
38680.808,-13.672,-12.207,-15.625,-4.395,0.000,0
38680.812,-13.184,-28.809,-31.250,-8.301,0.000,0
38680.815,-31.250,-31.250,-32.715,-14.160,0.000,0
38680.819,-36.621,-33.203,-30.762,-26.367,0.000,0
38680.823,-35.156,-55.176,-35.156,-24.414,0.000,0
38680.827,-29.785,-36.133,-29.785,-13.184,0.000,0
38680.831,-26.367,-24.414,-30.762,-33.203,0.000,0
38680.835,-35.156,-39.551,-35.156,-48.828,0.000,0
38680.839,-51.270,-44.922,-28.809,-50.781,0.000,0
38680.843,-48.828,-49.316,-28.809,-49.316,0.000,0
38680.847,-32.227,-31.738,-53.223,-39.062,0.000,0
38680.851,-27.832,-15.625,-50.781,-34.180,0.000,0
38680.855,-19.531,-28.809,-33.203,-25.391,0.000,0
38680.858,-32.715,-56.641,-30.762,-37.598,0.000,0
38680.862,-31.738,-40.039,-23.926,-38.574,0.000,0
38680.866,-28.320,-35.156,-20.508,-27.344,0.000,0
38680.870,-35.156,-43.945,-23.926,-33.203,0.000,0
38680.874,-23.438,-20.508,-24.414,-30.273,0.000,0
38680.878,-25.391,-32.715,-20.020,-19.043,0.000,0
38680.882,-15.625,-35.156,-20.020,-12.695,0.000,0
38680.886,0.488,-12.207,-14.160,5.371,0.000,0
38680.890,-14.648,-12.695,-15.625,7.812,0.000,0
38680.894,-8.789,-5.371,-7.812,7.324,0.000,0
38680.897,-1.465,-16.602,9.766,20.020,0.000,0
38680.901,-7.324,-17.578,6.836,6.348,0.000,0
38680.905,-0.977,7.324,0.000,0.000,0.000,0
38680.909,-17.090,-2.930,-5.371,5.371,0.000,0
38680.913,-10.254,4.395,4.883,21.484,0.000,0
38680.917,1.465,3.906,4.395,29.297,0.000,0
38680.921,-9.766,-14.648,-8.789,10.254,0.000,0
38680.925,-12.207,-3.418,-1.465,23.438,0.000,0
38680.929,-18.066,-4.883,3.418,32.227,0.000,0
38680.933,-18.555,-2.441,1.465,19.043,0.000,0
38680.937,-9.766,-2.441,4.883,20.508,0.000,0
38680.940,-7.324,2.441,20.996,27.832,0.000,0
38680.944,-12.695,1.953,2.930,16.602,0.000,0
38680.948,-8.789,-7.324,-16.113,18.555,0.000,0
38680.952,-6.836,-2.930,-6.836,26.367,0.000,0
38680.956,-20.508,-9.766,-4.395,20.020,0.000,0
38680.960,-19.043,-16.113,3.906,22.949,0.000,0
38680.964,-7.324,7.812,6.836,33.203,0.000,0
38680.968,3.418,26.855,-1.465,36.133,0.000,0
38680.972,0.488,20.508,0.000,27.832,0.000,0
38680.976,0.000,12.695,20.508,30.762,0.000,0
38680.980,7.812,16.602,18.066,20.020,0.000,0
38680.983,0.488,16.113,-2.441,5.371,0.000,0
38680.987,-3.418,7.324,1.953,14.648,0.000,0
38680.991,15.625,14.160,7.812,24.902,0.000,0
38680.995,18.555,10.742,7.324,18.555,0.000,0
38680.999,15.625,-0.488,5.371,10.742,0.000,0
38681.003,9.766,3.418,-0.977,3.906,0.000,0
38681.007,7.812,5.371,6.348,-8.301,0.000,0
38681.011,19.043,21.973,5.859,2.441,0.000,0
38681.015,35.645,6.836,-4.395,10.254,0.000,0
38681.019,11.719,-21.973,2.930,0.000,0.000,0
38681.022,4.395,-3.418,14.160,0.488,0.000,0
38681.026,27.832,3.418,17.090,3.418,0.000,0
38681.030,20.508,-5.371,5.859,-2.441,0.000,0
38681.034,15.625,-6.348,1.953,-6.836,0.000,0
38681.038,15.625,-9.766,6.348,-15.137,0.000,0
38681.042,17.090,-6.348,10.254,-6.348,0.000,0
38681.046,16.113,-2.930,18.555,12.207,0.000,0
38681.050,15.137,-2.441,9.277,10.742,0.000,0
38681.054,11.719,3.418,2.441,8.789,0.000,0
38681.058,12.695,4.883,-11.719,12.207,0.000,0
38681.062,19.531,-10.254,3.906,12.207,0.000,0
38681.065,3.418,-6.836,16.113,10.254,0.000,0
38681.069,1.953,0.000,0.977,2.441,0.000,0
38681.073,10.254,-6.348,-5.371,-7.812,0.000,0
38681.077,7.812,-17.578,-11.719,-7.324,0.000,0
38681.081,-2.930,-22.461,-9.277,-11.230,0.000,0
38681.085,-12.207,-0.488,-8.789,-21.973,0.000,0
38681.089,-6.836,-2.441,-12.695,-20.996,0.000,0
38681.093,0.000,-18.555,-16.113,-8.301,0.000,0
38681.097,8.301,-30.273,-1.953,-11.719,0.000,0
38681.101,13.672,-10.742,-0.977,-23.926,0.000,0
38681.105,12.207,2.441,-6.836,-19.043,0.000,0
38681.108,8.301,-15.137,-1.465,-11.230,0.000,0
38681.112,-0.488,-17.578,-9.277,-21.973,0.000,0
38681.116,-5.371,-20.508,-14.648,-30.273,0.000,0
38681.120,-11.719,-9.277,-3.906,-18.555,0.000,0
38681.124,-9.277,-13.672,-4.395,-23.926,0.000,0
38681.128,-8.301,-24.414,-29.785,-16.602,0.000,0
38681.132,-16.113,-17.578,-36.133,-7.324,0.000,0
38681.136,-23.926,-31.250,-8.789,-28.809,0.000,0
38681.140,-38.086,-38.086,-17.578,-32.227,0.000,0
38681.144,-35.156,-29.297,-42.969,-22.461,0.000,0
38681.147,-35.156,-27.344,-44.434,-18.555,0.000,0
38681.151,-34.180,-22.461,-23.926,-20.020,0.000,0
38681.155,-32.227,-40.039,-16.602,-34.180,0.000,0
38681.159,-43.457,-41.016,-47.363,-41.016,0.000,0
38681.163,-47.363,-44.434,-52.734,-34.668,0.000,0
38681.167,-45.898,-44.922,-49.805,-32.715,0.000,0
38681.171,-37.598,-19.043,-41.016,-26.855,0.000,0
38681.175,-13.184,-20.996,-13.184,-7.324,0.000,0
38681.179,-10.742,-11.230,-0.488,4.395,0.000,0
38681.183,-8.789,13.184,4.883,15.625,0.000,0
38681.187,11.230,18.066,18.066,32.715,0.000,0
38681.190,12.207,23.926,22.461,41.992,0.000,0
38681.194,20.996,21.484,26.367,44.922,0.000,0
38681.198,12.207,17.090,24.902,38.574,0.000,0
38681.202,9.277,31.250,15.625,36.621,0.000,0
38681.206,15.137,30.762,27.832,36.133,0.000,0
38681.210,12.695,20.020,34.180,41.992,0.000,0
38681.214,10.254,9.766,28.809,39.551,0.000,0
38681.218,20.508,-3.906,23.438,29.297,0.000,0
38681.222,27.344,13.184,18.066,30.762,0.000,0
38681.226,-3.906,28.809,13.672,25.391,0.000,0
38681.230,-1.953,20.020,23.438,27.344,0.000,0
38681.233,5.859,18.066,20.020,29.297,0.000,0
38681.237,3.906,17.578,15.137,29.785,0.000,0
38681.241,4.395,19.531,17.578,41.016,0.000,0
38681.245,1.465,17.578,12.695,36.621,0.000,0
38681.249,3.906,22.949,0.977,33.203,0.000,0
38681.253,4.883,18.555,1.465,32.227,0.000,0
38681.257,9.766,14.160,11.230,33.691,0.000,0
38681.261,13.184,33.203,2.441,44.922,0.000,0
38681.265,27.344,28.809,6.348,52.734,0.000,0
38681.269,15.137,20.020,10.254,51.270,0.000,0
38681.272,-13.184,19.043,7.812,35.156,0.000,0
38681.276,3.906,14.160,6.836,35.156,0.000,0
38681.280,6.348,29.785,6.836,47.852,0.000,0
38681.284,-10.254,26.367,15.137,43.945,0.000,0
38681.288,-18.066,17.578,11.230,29.785,0.000,0
38681.292,-10.742,9.277,7.812,16.602,0.000,0
38681.296,-17.090,10.742,10.742,17.090,0.000,0
38681.300,-23.438,22.461,7.324,18.066,0.000,0
38681.304,-4.395,14.648,12.695,25.879,0.000,0
38681.308,-12.207,13.672,17.090,24.414,0.000,0
38681.312,-22.461,8.789,11.230,4.883,0.000,0
38681.315,-3.906,0.000,14.160,17.578,0.000,0
38681.319,2.441,18.555,19.531,18.555,0.000,0
38681.323,7.324,36.621,12.207,16.602,0.000,0
38681.327,11.230,25.879,8.789,25.879,0.000,0
38681.331,18.066,-1.465,17.578,31.738,0.000,0
38681.335,17.090,-3.906,17.090,14.160,0.000,0
38681.339,11.719,14.160,7.812,5.371,0.000,0
38681.343,13.672,12.695,0.000,20.508,0.000,0
38681.347,8.301,6.836,-0.488,22.461,0.000,0
38681.351,6.348,2.930,10.254,13.184,0.000,0
38681.355,10.742,2.930,14.160,11.719,0.000,0
38681.358,11.719,5.859,11.719,10.742,0.000,0
38681.362,9.277,3.418,6.348,1.465,0.000,0
38681.366,11.230,-16.113,-4.395,5.859,0.000,0
38681.370,2.441,-15.625,-4.883,15.137,0.000,0
38681.374,2.930,5.371,-1.953,12.207,0.000,0
38681.378,13.672,3.418,3.906,25.879,0.000,0
38681.382,7.324,2.441,5.859,21.484,0.000,0
38681.386,4.395,11.230,4.883,0.977,0.000,0
38681.390,-7.812,-0.488,-7.324,-1.953,0.000,0
38681.394,-13.672,-28.320,-6.836,-3.418,0.000,0
38681.397,2.930,-14.648,-5.859,-7.324,0.000,0
38681.401,3.906,-3.418,-15.137,-9.766,0.000,0
38681.405,5.859,-13.184,-17.090,0.000,0.000,0
38681.409,0.977,-18.066,-16.602,1.465,0.000,0
38681.413,-12.207,-23.438,-14.648,-7.324,0.000,0
38681.417,2.441,-13.184,-15.625,-9.766,0.000,0
38681.421,12.695,-0.488,-0.488,-4.883,0.000,0
38681.425,-0.488,-12.207,-3.418,-8.301,0.000,0
38681.429,-10.254,-13.184,-18.555,-18.066,0.000,0
38681.433,-11.230,-13.184,-9.277,-26.855,0.000,0
38681.437,-7.812,-21.484,-5.371,-20.020,0.000,0
38681.440,-8.301,-20.508,-15.137,-23.926,0.000,0
38681.444,-10.742,-13.672,-15.137,-30.762,0.000,0
38681.448,-0.977,-5.859,-17.090,-17.578,0.000,0
38681.452,-6.348,-19.531,-14.160,-16.602,0.000,0
38681.456,-17.090,-20.508,-12.695,-28.809,0.000,0
38681.460,-11.719,-1.953,-11.719,-16.113,0.000,0
38681.464,12.207,6.348,-2.930,-9.766,0.000,0
38681.468,35.156,5.371,3.906,-14.160,0.000,0
38681.472,12.207,-12.207,5.859,-25.391,0.000,0
38681.476,-9.766,-24.414,-9.277,-34.180,0.000,0
38681.480,1.465,-15.137,-15.625,-21.973,0.000,0
38681.483,6.348,-13.184,-3.418,-13.672,0.000,0
38681.487,13.672,-2.930,-3.906,-14.160,0.000,0
38681.491,20.020,-7.812,-0.977,-21.484,0.000,0
38681.495,12.695,-6.836,4.883,-12.695,0.000,0
38681.499,15.137,1.465,-0.977,-4.883,0.000,0
38681.503,20.020,-2.930,-5.371,-11.230,0.000,0
38681.507,28.809,10.254,4.883,-11.230,0.000,0
38681.511,26.367,-2.930,7.812,-10.742,0.000,0
38681.515,9.766,-12.207,-4.883,-20.508,0.000,0
38681.519,12.695,8.789,-2.930,-15.137,0.000,0
38681.522,10.254,16.113,-4.395,-9.766,0.000,0
38681.526,10.254,5.859,-4.883,-10.742,0.000,0
38681.530,9.277,-25.879,1.953,-14.160,0.000,0
38681.534,17.578,-18.066,-2.441,-21.973,0.000,0
38681.538,17.578,-3.418,-10.742,-24.414,0.000,0
38681.542,-0.488,-19.531,-12.207,-19.043,0.000,0
38681.546,3.418,-9.766,-9.277,-6.348,0.000,0
38681.550,9.766,-15.625,-4.883,-13.184,0.000,0
38681.554,-0.977,-22.949,-6.836,-24.902,0.000,0
38681.558,3.906,-4.395,-15.137,-19.043,0.000,0
38681.562,20.996,-8.789,-18.555,-5.371,0.000,0
38681.565,5.371,-13.184,-14.160,-12.207,0.000,0
38681.569,1.465,-21.973,-10.254,-28.809,0.000,0
38681.573,2.441,-25.879,-7.812,-29.785,0.000,0
38681.577,16.602,-20.996,-9.277,-27.344,0.000,0
38681.581,20.508,-3.418,-18.555,-20.996,0.000,0
38681.585,9.766,15.625,-15.137,-3.418,0.000,0
38681.589,16.113,-13.184,-8.301,-9.766,0.000,0
38681.593,8.789,-24.414,-17.578,-23.926,0.000,0
38681.597,0.000,-13.184,-30.273,-15.625,0.000,0
38681.601,0.000,-15.137,-25.879,-20.996,0.000,0
38681.605,5.859,-7.324,-17.090,-18.555,0.000,0
38681.608,3.418,-8.789,-19.043,-21.973,0.000,0
38681.612,-13.672,-26.855,-24.902,-30.762,0.000,0
38681.616,-5.859,-20.020,-27.832,-24.414,0.000,0
38681.620,-7.324,-5.859,-25.391,-18.066,0.000,0
38681.624,-5.371,-3.906,-28.809,-14.160,0.000,0
38681.628,-3.906,-12.207,-30.273,-17.578,0.000,0
38681.632,-23.926,-24.902,-32.715,-28.809,0.000,0
38681.636,-12.695,-11.719,-31.250,-14.160,0.000,0
38681.640,-7.324,-6.348,-20.508,-12.207,0.000,0
38681.644,-12.695,-10.742,-21.484,-17.090,0.000,0
38681.647,-9.766,-7.812,-22.461,-13.672,0.000,0
38681.651,-10.254,-7.324,-20.020,-18.066,0.000,0
38681.655,-0.977,-1.953,-26.367,-15.137,0.000,0
38681.659,-7.812,-1.953,-21.973,-9.277,0.000,0
38681.663,-31.738,-7.324,-21.484,-8.301,0.000,0
38681.667,-19.043,-1.953,-25.879,-2.930,0.000,0
38681.671,-5.859,-7.812,-25.391,-5.371,0.000,0
38681.675,-33.203,-6.836,-34.180,-17.090,0.000,0
38681.679,-31.250,-18.555,-24.414,-12.695,0.000,0
38681.683,-26.855,-12.695,-12.695,-8.301,0.000,0
38681.687,-31.250,12.207,-24.414,-13.184,0.000,0
38681.690,-7.812,-4.883,-15.137,-7.812,0.000,0
38681.694,-2.930,2.441,-6.348,7.324,0.000,0
38681.698,-10.742,0.977,-22.949,0.000,0.000,0
38681.702,-19.043,-18.066,-34.180,-16.602,0.000,0
38681.706,-24.414,-17.578,-20.996,-16.602,0.000,0
38681.710,-20.020,-21.484,-24.414,-7.324,0.000,0
38681.714,-19.043,-20.020,-28.809,-5.859,0.000,0
38681.718,-23.926,-18.066,-18.066,-10.254,0.000,0
38681.722,-18.066,-21.973,-19.531,-7.812,0.000,0
38681.726,-16.602,-12.695,-9.766,-12.695,0.000,0
38681.730,-3.906,-5.371,3.418,1.465,0.000,0
38681.733,6.348,-2.441,6.348,20.020,0.000,0
38681.737,9.766,-3.906,5.859,20.508,0.000,0
38681.741,17.578,-0.977,8.789,15.137,0.000,0
38681.745,26.855,1.953,20.996,23.438,0.000,0
38681.749,12.695,-10.742,19.043,17.578,0.000,0
38681.753,0.977,-0.977,14.160,20.996,0.000,0
38681.757,11.719,16.113,10.254,25.879,0.000,0
38681.761,17.578,17.578,2.930,28.320,0.000,0
38681.765,25.391,1.953,9.766,39.062,0.000,0
38681.769,21.484,-18.555,19.043,23.438,0.000,0
38681.772,9.277,-3.906,20.508,17.578,0.000,0
38681.776,8.789,5.371,13.184,21.484,0.000,0
38681.780,2.441,-20.996,13.184,8.789,0.000,0
38681.784,-4.883,-19.531,14.648,10.254,0.000,0
38681.788,-4.395,-3.906,3.906,12.695,0.000,0
38681.792,14.648,-12.695,1.953,13.672,0.000,0
38681.796,23.438,-4.883,7.812,32.715,0.000,0
38681.800,21.484,-0.488,5.371,32.715,0.000,0
38681.804,16.113,5.371,-0.977,18.555,0.000,0
38681.808,3.906,-8.301,-2.441,14.160,0.000,0
38681.812,9.277,-17.090,0.488,19.531,0.000,0
38681.815,2.441,-11.719,0.000,14.648,0.000,0
38681.819,-4.883,-14.160,-9.277,-3.418,0.000,0
38681.823,4.883,-9.277,-14.160,3.418,0.000,0
38681.827,11.230,-21.973,-11.230,5.859,0.000,0
38681.831,9.766,-25.879,-9.766,-2.441,0.000,0
38681.835,14.160,-12.207,-11.719,4.883,0.000,0
38681.839,1.465,-18.066,-11.230,7.812,0.000,0
38681.843,-14.160,-24.902,-20.996,6.348,0.000,0
38681.847,-16.113,-26.855,-22.461,-5.859,0.000,0
38681.851,-13.184,-29.297,-21.484,-22.949,0.000,0
38681.855,-26.367,-24.414,-27.832,-20.020,0.000,0
38681.858,-40.039,-36.133,-28.320,-28.320,0.000,0
38681.862,-31.738,-37.598,-40.527,-32.715,0.000,0
38681.866,-43.457,-51.758,-47.852,-38.086,0.000,0
38681.870,-64.453,-68.359,-50.293,-49.805,0.000,0
38681.874,-61.035,-59.570,-52.246,-55.664,0.000,0
38681.878,-64.453,-53.711,-54.199,-53.223,0.000,0
38681.882,-53.711,-47.363,-49.805,-40.527,0.000,0
38681.886,-42.480,-60.547,-31.738,-40.527,0.000,0
38681.890,-35.156,-38.086,-27.832,-27.344,0.000,0
38681.894,-20.508,0.488,-26.855,-6.348,0.000,0
38681.897,-10.254,17.578,-15.625,-0.488,0.000,0
38681.901,-2.930,17.090,3.418,23.438,0.000,0
38681.905,16.113,2.930,14.160,25.879,0.000,0
38681.909,24.902,12.695,11.230,13.672,0.000,0
38681.913,14.648,34.668,7.324,11.230,0.000,0
38681.917,12.695,29.297,13.184,19.043,0.000,0
38681.921,22.461,31.738,15.625,29.297,0.000,0
38681.925,15.625,18.555,9.277,10.254,0.000,0
38681.929,7.324,3.418,18.555,8.789,0.000,0
38681.933,19.531,13.672,17.578,20.020,0.000,0
38681.937,21.484,10.742,7.812,22.949,0.000,0
38681.940,24.414,18.555,8.301,25.391,0.000,0
38681.944,23.926,22.461,7.812,23.438,0.000,0
38681.948,13.184,12.695,16.113,26.367,0.000,0
38681.952,12.695,23.438,17.578,27.344,0.000,0
38681.956,19.043,29.785,13.672,24.414,0.000,0
38681.960,26.367,30.762,22.461,23.926,0.000,0
38681.964,32.227,35.156,21.484,27.832,0.000,0
38681.968,19.531,33.203,11.719,25.879,0.000,0
38681.972,23.926,45.898,14.160,26.855,0.000,0
38681.976,28.320,41.504,15.137,21.973,0.000,0
38681.980,8.789,23.926,9.277,10.742,0.000,0
38681.983,13.672,24.414,7.324,18.555,0.000,0
38681.987,14.160,21.973,5.859,15.137,0.000,0
38681.991,6.836,9.766,6.836,7.324,0.000,0
38681.995,2.930,10.742,5.859,13.184,0.000,0
38681.999,-5.859,17.578,-1.465,12.207,0.000,0
38682.003,0.488,1.953,0.000,9.277,0.000,0
38682.007,12.207,0.488,6.836,4.883,0.000,0
38682.011,10.254,11.230,9.277,3.906,0.000,0
38682.015,10.254,3.418,-0.488,9.277,0.000,0
38682.019,0.000,3.418,2.930,7.324,0.000,0
38682.022,3.418,2.930,9.277,6.836,0.000,0
38682.026,15.137,0.488,9.766,12.207,0.000,0
38682.030,12.207,13.184,6.348,7.324,0.000,0
38682.034,0.488,16.113,1.465,6.836,0.000,0
38682.038,1.465,8.789,11.230,11.719,0.000,0
38682.042,3.906,7.812,1.465,10.742,0.000,0
38682.046,-1.465,5.371,-6.348,9.277,0.000,0
38682.050,9.277,13.672,8.301,17.090,0.000,0
38682.054,11.719,20.508,11.719,20.996,0.000,0
38682.058,1.465,16.602,-0.977,9.277,0.000,0
38682.062,9.766,15.137,-2.930,10.254,0.000,0
38682.065,25.391,18.066,18.066,14.648,0.000,0
38682.069,18.555,20.508,17.578,1.953,0.000,0
38682.073,10.254,15.137,-3.906,-2.930,0.000,0
38682.077,2.930,5.859,-6.348,1.953,0.000,0
38682.081,9.766,3.418,-0.977,7.812,0.000,0
38682.085,11.719,-3.906,3.418,7.324,0.000,0
38682.089,2.930,7.324,-3.418,12.207,0.000,0
38682.093,6.348,7.324,-1.465,8.789,0.000,0
38682.097,10.742,-10.254,-2.930,2.930,0.000,0
38682.101,17.578,-5.371,-5.859,-2.930,0.000,0
38682.105,6.348,-13.672,-12.695,-9.766,0.000,0
38682.108,3.906,-4.395,-11.230,-1.465,0.000,0
38682.112,2.930,-3.418,0.000,-5.371,0.000,0
38682.116,-9.766,-14.160,-5.859,-10.742,0.000,0
38682.120,-1.953,-11.719,-12.695,-6.348,0.000,0
38682.124,-1.953,-23.926,-14.160,-13.184,0.000,0
38682.128,-14.648,-20.996,-7.324,-14.648,0.000,0
38682.132,-15.137,-7.812,-9.766,-8.789,0.000,0
38682.136,-14.648,1.953,-17.578,-6.348,0.000,0
38682.140,-10.254,-2.441,-17.578,0.000,0.000,0
38682.144,-13.672,-31.738,-7.812,-6.836,0.000,0
38682.147,-11.230,-19.531,-7.324,-6.348,0.000,0
38682.151,-1.465,12.207,-15.137,2.441,0.000,0
38682.155,-17.090,2.441,-23.438,6.348,0.000,0
38682.159,-15.625,-18.555,-16.602,0.977,0.000,0
38682.163,-8.301,-24.902,2.441,-8.789,0.000,0
38682.167,4.883,-12.207,5.859,-0.977,0.000,0
38682.171,-0.488,-4.883,-13.672,-3.418,0.000,0
38682.175,-26.855,-8.789,-26.855,-13.672,0.000,0
38682.179,-8.789,6.836,-28.809,-8.301,0.000,0
38682.183,-3.418,-4.395,-28.320,-12.695,0.000,0
38682.187,-29.297,-27.344,-15.625,-15.137,0.000,0
38682.190,-23.438,-18.555,-13.672,-7.812,0.000,0
38682.194,-19.043,-27.344,-22.949,-13.184,0.000,0
38682.198,-22.461,-20.996,-22.949,-5.371,0.000,0
38682.202,-19.531,-21.973,-30.273,-8.789,0.000,0
38682.206,-29.785,-30.273,-23.926,-19.531,0.000,0
38682.210,-26.367,-0.488,-22.461,-21.973,0.000,0
38682.214,-9.766,-1.953,-30.762,-19.531,0.000,0
38682.218,-16.602,-21.973,-23.438,-9.277,0.000,0
38682.222,-31.738,-38.574,-22.461,-26.855,0.000,0
38682.226,-27.344,-47.852,-33.691,-36.133,0.000,0
38682.230,-20.996,-41.016,-40.527,-14.160,0.000,0
38682.233,-21.484,-31.738,-30.762,-10.742,0.000,0
38682.237,-26.855,-24.414,-30.273,-14.160,0.000,0
38682.241,-30.762,-38.574,-33.203,-17.578,0.000,0
38682.245,-10.742,-40.527,-18.555,-22.949,0.000,0
38682.249,-14.160,-19.531,-15.625,-22.949,0.000,0
38682.253,-23.926,-25.391,-25.879,-18.555,0.000,0
38682.257,-8.301,-23.438,-19.531,-9.277,0.000,0
38682.261,-5.859,-33.691,-12.695,-6.348,0.000,0
38682.265,-11.230,-39.062,-10.742,-17.578,0.000,0
38682.269,-14.160,-12.207,-11.230,-17.578,0.000,0
38682.272,-13.184,-14.648,-21.973,-7.812,0.000,0
38682.276,-11.230,-25.879,-15.137,-6.348,0.000,0
38682.280,-20.020,-34.180,-9.766,-20.020,0.000,0
38682.284,-13.672,-35.156,-22.949,-22.461,0.000,0
38682.288,-7.812,-29.785,-15.625,-15.625,0.000,0
38682.292,-10.742,-30.273,-10.254,-2.930,0.000,0
38682.296,-8.789,-34.180,-0.977,4.883,0.000,0
38682.300,-7.324,-39.551,-1.953,-10.254,0.000,0
38682.304,-12.695,-23.926,-17.090,-12.695,0.000,0
38682.308,-0.977,-18.555,-12.695,5.859,0.000,0
38682.312,0.488,-32.715,-14.648,-1.465,0.000,0
38682.315,-22.949,-43.457,-20.996,-12.207,0.000,0
38682.319,-17.090,-37.598,-15.137,-7.812,0.000,0
38682.323,-6.836,-36.621,-11.230,-7.812,0.000,0
38682.327,-3.418,-27.344,-20.996,-18.555,0.000,0
38682.331,-12.207,-27.832,-20.020,-20.020,0.000,0
38682.335,-16.602,-37.109,-17.578,-10.742,0.000,0
38682.339,-8.301,-28.320,-21.484,-17.090,0.000,0
38682.343,-6.348,-16.602,-23.926,-12.695,0.000,0
38682.347,-8.301,-7.812,-24.414,-2.441,0.000,0
38682.351,-14.160,-19.531,-23.926,-0.977,0.000,0
38682.355,-20.996,-31.250,-19.043,-5.859,0.000,0
38682.358,-20.020,-23.926,-14.160,-12.695,0.000,0
38682.362,-24.902,-31.250,-17.090,-34.180,0.000,0
38682.366,-32.227,-35.156,-19.043,-30.762,0.000,0
38682.370,-20.996,-29.297,-20.996,-14.160,0.000,0
38682.374,-31.250,-17.578,-32.227,-22.461,0.000,0
38682.378,-27.344,-16.602,-32.715,-20.508,0.000,0
38682.382,-20.508,-14.160,-19.531,-13.184,0.000,0
38682.386,-31.250,-1.465,-18.555,-27.344,0.000,0
38682.390,-15.625,6.836,-28.320,-36.133,0.000,0
38682.394,-10.254,2.930,-32.715,-24.414,0.000,0
38682.397,-2.930,-16.602,-25.879,-16.602,0.000,0
38682.401,10.742,-1.465,-12.207,-0.488,0.000,0
38682.405,-1.465,22.949,-13.672,12.695,0.000,0
38682.409,-8.301,-7.812,-15.625,-1.953,0.000,0
38682.413,-9.766,-18.555,-20.996,-11.719,0.000,0
38682.417,-7.812,-19.043,-30.273,-11.230,0.000,0
38682.421,-17.578,-18.066,-18.555,-16.113,0.000,0
38682.425,-28.320,-11.230,-8.301,-20.996,0.000,0
38682.429,-15.625,-9.766,-9.766,-26.367,0.000,0
38682.433,-17.578,-10.254,-14.648,-23.438,0.000,0
38682.437,-19.043,-17.090,-13.672,-16.602,0.000,0
38682.440,-11.719,-21.973,-11.230,-21.973,0.000,0
38682.444,-14.648,0.488,-15.137,-15.625,0.000,0
38682.448,-21.973,14.648,-13.184,-3.906,0.000,0
38682.452,-14.160,6.836,-12.207,-4.883,0.000,0
38682.456,-7.812,-12.207,-9.766,-5.859,0.000,0
38682.460,-16.602,-22.949,-12.207,-24.414,0.000,0
38682.464,-15.625,-8.789,-17.578,-31.250,0.000,0
38682.468,-13.184,-13.184,-20.508,-21.973,0.000,0
38682.472,-11.230,-25.391,-17.578,-6.348,0.000,0
38682.476,-10.742,-24.902,-8.789,0.488,0.000,0
38682.480,-16.602,-30.273,-13.184,-16.602,0.000,0
38682.483,-9.277,-16.113,-18.066,-18.555,0.000,0
38682.487,-7.324,-6.348,-11.230,-5.371,0.000,0
38682.491,-7.324,-6.836,-10.742,2.930,0.000,0
38682.495,-8.301,-23.438,-9.277,-7.812,0.000,0
38682.499,-1.953,-20.508,-7.324,-20.508,0.000,0
38682.503,-11.719,-6.348,-15.625,-10.254,0.000,0
38682.507,-20.508,-18.066,-26.367,-3.418,0.000,0
38682.511,-10.742,-18.555,-24.414,-2.441,0.000,0
38682.515,-12.695,-24.414,-10.742,-0.977,0.000,0
38682.519,-8.789,-23.926,-16.113,-10.254,0.000,0
38682.522,-9.277,-4.395,-26.367,-10.254,0.000,0
38682.526,-14.648,-13.184,-18.066,-13.672,0.000,0
38682.530,-11.719,-10.742,-16.602,-10.742,0.000,0
38682.534,-4.395,-18.066,-31.250,-1.953,0.000,0
38682.538,-2.930,-30.762,-28.320,-12.207,0.000,0
38682.542,-17.090,-12.207,-13.672,-11.230,0.000,0
38682.546,-24.414,-10.742,-17.090,-10.742,0.000,0
38682.550,-24.902,-18.555,-31.738,-16.602,0.000,0
38682.554,-23.438,-30.762,-27.344,-19.531,0.000,0
38682.558,-6.836,-31.738,-11.230,-13.184,0.000,0
38682.562,-2.930,-16.113,-10.742,-3.418,0.000,0
38682.565,-5.371,-20.020,-17.578,-5.371,0.000,0
38682.569,-11.719,-17.578,-17.090,0.977,0.000,0
38682.573,-16.113,-32.715,-13.184,-0.488,0.000,0
38682.577,-8.301,-37.598,-18.555,-3.906,0.000,0
38682.581,-22.949,-23.438,-29.785,-14.648,0.000,0
38682.585,-22.461,-30.762,-27.832,-25.879,0.000,0
38682.589,-18.066,-25.879,-19.531,-5.859,0.000,0
38682.593,-28.809,-27.832,-21.484,-2.441,0.000,0
38682.597,-23.926,-31.250,-28.809,-17.578,0.000,0
38682.601,-7.812,-23.926,-33.203,-13.184,0.000,0
38682.605,-15.137,-15.625,-24.414,-10.254,0.000,0
38682.608,-19.043,-20.996,-17.090,-13.184,0.000,0
38682.612,-16.602,-20.996,-20.020,-12.207,0.000,0
38682.616,-19.043,-2.441,-20.508,-10.742,0.000,0
38682.620,-14.160,-2.930,-30.762,-5.371,0.000,0
38682.624,-19.043,-10.254,-31.738,0.000,0.000,0
38682.628,-6.348,-3.906,-10.742,10.254,0.000,0
38682.632,-1.953,-11.230,-8.301,1.465,0.000,0
38682.636,-26.367,-24.414,-15.137,-20.020,0.000,0
38682.640,-28.809,-17.578,-20.020,-24.414,0.000,0
38682.644,-32.715,-22.949,-33.203,-15.625,0.000,0
38682.647,-47.363,-26.367,-37.109,-13.672,0.000,0
38682.651,-37.109,-19.531,-21.973,-24.902,0.000,0
38682.655,-25.391,-16.113,-24.414,-25.391,0.000,0
38682.659,-28.320,-13.184,-30.762,-10.254,0.000,0
38682.663,-26.367,-6.348,-24.414,-16.113,0.000,0
38682.667,-15.625,1.953,-20.508,-17.578,0.000,0
38682.671,-22.461,1.953,-21.973,-9.766,0.000,0
38682.675,-21.484,0.488,-15.137,-21.973,0.000,0
38682.679,-17.578,9.277,-15.625,-26.855,0.000,0
38682.683,-25.391,5.859,-25.391,-22.461,0.000,0
38682.687,-29.297,3.418,-22.461,-21.973,0.000,0
38682.690,-32.715,3.906,-16.113,-21.973,0.000,0
38682.694,-28.809,-8.301,-19.043,-24.414,0.000,0
38682.698,-15.625,6.348,-20.508,-19.043,0.000,0
38682.702,-12.695,17.090,-12.207,-20.020,0.000,0
38682.706,-18.555,3.418,-13.672,-24.902,0.000,0
38682.710,-18.555,-7.324,-19.531,-20.508,0.000,0
38682.714,-17.090,-11.230,-16.113,-23.438,0.000,0
38682.718,-19.043,21.484,-21.484,-19.531,0.000,0
38682.722,-10.254,20.020,-25.391,-11.230,0.000,0
38682.726,-11.719,1.465,-15.625,-20.996,0.000,0
38682.730,-18.066,8.301,-11.719,-19.043,0.000,0
38682.733,-19.043,5.371,-11.719,-6.348,0.000,0
38682.737,-19.043,9.277,-10.254,-21.973,0.000,0
38682.741,-13.184,9.277,-12.695,-25.879,0.000,0
38682.745,-22.461,8.789,-20.996,-26.855,0.000,0
38682.749,-25.391,19.043,-20.020,-28.809,0.000,0
38682.753,-14.160,-2.930,-4.395,-15.137,0.000,0
38682.757,-22.949,-11.230,-6.836,-11.719,0.000,0
38682.761,-29.297,13.184,-29.785,-19.043,0.000,0
38682.765,-27.832,15.137,-27.832,-23.438,0.000,0
38682.769,-23.438,0.977,-16.113,-20.020,0.000,0
38682.772,-12.695,-9.766,-16.602,-13.184,0.000,0
38682.776,-21.484,-1.953,-16.602,-16.113,0.000,0
38682.780,-30.273,9.766,-19.043,-14.160,0.000,0
38682.784,-19.531,0.488,-18.066,-2.441,0.000,0
38682.788,-25.391,-1.953,-21.484,-13.184,0.000,0
38682.792,-32.227,-3.906,-24.414,-27.344,0.000,0
38682.796,-20.508,-7.324,-16.113,-13.672,0.000,0
38682.800,-12.695,4.395,-4.395,0.000,0.000,0
38682.804,-11.230,11.719,-13.184,-4.883,0.000,0
38682.808,-16.602,9.766,-17.090,-14.160,0.000,0
38682.812,-22.461,-18.555,3.418,-20.996,0.000,0
38682.815,-27.832,-20.996,-6.348,-25.879,0.000,0
38682.819,-35.156,12.695,-29.785,-23.926,0.000,0
38682.823,-13.184,17.090,-17.090,-10.254,0.000,0
38682.827,-6.348,5.371,-6.348,-5.859,0.000,0
38682.831,-14.648,-14.160,-9.277,-14.160,0.000,0
38682.835,-19.043,-0.488,-12.207,-21.973,0.000,0
38682.839,-11.230,18.066,-16.113,-25.391,0.000,0
38682.843,-4.883,-11.230,-4.883,-19.043,0.000,0
38682.847,-9.766,-20.996,-6.348,-13.672,0.000,0
38682.851,2.930,-24.902,-18.066,-13.184,0.000,0
38682.855,-1.953,-26.855,-15.137,-14.648,0.000,0
38682.858,-11.230,-10.742,-19.531,-15.625,0.000,0
38682.862,-9.277,-16.602,-19.043,-20.020,0.000,0
38682.866,-7.812,-15.625,-18.066,-17.578,0.000,0
38682.870,-15.625,-34.668,-11.230,-11.719,0.000,0
38682.874,-9.766,-33.203,-2.441,-8.789,0.000,0
38682.878,-7.324,-5.371,-11.230,-6.836,0.000,0
38682.882,-20.020,-4.395,-20.508,-17.578,0.000,0
38682.886,-20.020,-1.465,-25.391,-14.648,0.000,0
38682.890,-25.391,-28.320,-18.555,-10.742,0.000,0
38682.894,-21.484,-24.902,-17.578,-16.602,0.000,0
38682.897,-6.348,-1.465,-25.879,-15.137,0.000,0
38682.901,-15.137,-16.602,-23.438,0.488,0.000,0
38682.905,-24.414,-18.555,-26.367,-3.418,0.000,0
38682.909,-20.996,-26.855,-21.973,-16.113,0.000,0
38682.913,-15.137,-32.227,-20.508,-12.207,0.000,0
38682.917,-13.672,-14.160,-23.926,-6.836,0.000,0
38682.921,-9.277,-9.766,-22.949,-5.371,0.000,0
38682.925,-13.184,-5.859,-22.461,-13.184,0.000,0
38682.929,-26.367,-8.789,-18.066,-23.438,0.000,0
38682.933,-25.391,-22.949,-8.789,-20.508,0.000,0
38682.937,-14.648,-16.602,-17.090,-7.812,0.000,0
38682.940,-12.207,-8.301,-32.715,-11.230,0.000,0
38682.944,-18.555,-9.277,-27.832,-10.254,0.000,0
38682.948,-16.113,-17.090,-15.137,-11.719,0.000,0
38682.952,-9.766,-24.902,-13.184,-10.254,0.000,0
38682.956,-8.789,-16.113,-22.461,-3.906,0.000,0
38682.960,-8.301,-17.090,-17.090,-0.977,0.000,0
38682.964,1.953,-20.508,-15.137,3.418,0.000,0
38682.968,5.859,-20.508,-23.926,0.000,0.000,0
38682.972,0.488,-27.832,-29.785,-1.953,0.000,1
38682.976,5.859,-17.578,-30.273,10.254,0.000,0
38682.980,-3.418,-16.113,-20.020,1.953,0.000,0
38682.983,-17.090,-25.391,-22.949,-13.672,0.000,0
38682.987,-11.719,-26.367,-31.738,-22.949,0.000,0
38682.991,-11.719,-22.461,-22.461,-23.926,0.000,0
38682.995,-13.672,-3.906,-18.066,-13.672,0.000,0
38682.999,-9.277,-5.371,-22.949,-12.695,0.000,0
38683.003,-9.277,-14.648,-24.414,-20.996,0.000,0
38683.007,-18.066,-21.973,-24.414,-28.320,0.000,0
38683.011,-20.508,-23.926,-25.879,-17.578,0.000,0
38683.015,-5.859,-8.301,-19.531,-8.789,0.000,0
38683.019,-13.184,-15.625,-20.996,-23.438,0.000,0
38683.022,-25.391,-33.691,-19.043,-20.508,0.000,0
38683.026,-8.301,-18.555,-8.301,0.000,0.000,0
38683.030,-10.254,-9.277,-20.508,-14.160,0.000,0
38683.034,-17.090,-10.742,-31.250,-20.020,0.000,0
38683.038,-2.930,-10.742,-29.297,-11.230,0.000,0
38683.042,-5.859,-5.371,-23.926,-8.301,0.000,0
38683.046,-20.020,1.465,-17.090,-9.277,0.000,0
38683.050,-20.020,-8.301,-15.137,-10.742,0.000,0
38683.054,-16.602,-4.395,-13.184,-6.836,0.000,0
38683.058,-21.973,2.930,-11.230,-9.766,0.000,0
38683.062,-15.137,-2.441,-12.207,0.488,0.000,0
38683.065,-10.742,-5.859,-11.719,-1.953,0.000,0
38683.069,-12.207,-4.883,-9.277,-11.719,0.000,0
38683.073,-16.113,1.953,-20.020,-8.301,0.000,0
38683.077,-17.090,5.859,-24.902,-1.465,0.000,0
38683.081,-15.137,5.371,-12.207,2.441,0.000,0
38683.085,-22.949,3.418,-19.043,-6.836,0.000,0
38683.089,-22.461,-1.465,-21.484,-5.371,0.000,0
38683.093,-10.742,4.395,-21.973,1.953,0.000,0
38683.097,-22.461,5.371,-24.414,-6.836,0.000,0
38683.101,-27.344,-1.953,-15.625,-10.742,0.000,0
38683.105,-16.113,-1.465,-17.090,0.488,0.000,0
38683.108,-20.020,-8.301,-13.672,2.441,0.000,0
38683.112,-20.508,-8.301,-10.742,3.906,0.000,0
38683.116,-24.414,-6.348,-19.531,-4.883,0.000,0
38683.120,-22.461,-0.488,-26.855,-4.395,0.000,0
38683.124,-16.113,-5.859,-15.625,11.719,0.000,0
38683.128,-28.809,-24.414,-19.043,-3.906,0.000,0
38683.132,-29.297,-5.371,-21.484,-19.531,0.000,0
38683.136,-13.184,0.977,-17.090,-10.742,0.000,0
38683.140,-10.254,-10.254,-20.508,1.465,0.000,0
38683.144,-11.719,-5.371,-19.531,1.465,0.000,0
38683.147,-13.672,-17.578,-20.508,-13.184,0.000,0
38683.151,-10.742,-10.254,-24.902,-11.719,0.000,0
38683.155,-16.113,8.789,-31.738,-8.301,0.000,0
38683.159,-19.043,6.348,-22.949,-9.766,0.000,0
38683.163,-19.531,14.160,-21.484,-9.277,0.000,0
38683.167,-14.160,7.812,-31.250,-10.254,0.000,0
38683.171,-0.977,-3.906,-20.020,-4.883,0.000,0
38683.175,-1.465,-2.930,-8.789,-6.348,0.000,0
38683.179,-5.859,-9.277,-22.461,-5.859,0.000,0
38683.183,7.324,8.789,-29.785,1.465,0.000,0
38683.187,4.395,-10.742,-18.066,0.000,0.000,0
38683.190,-0.488,-30.762,-15.625,-0.977,0.000,0
38683.194,-10.254,-10.742,-27.832,-6.348,0.000,0
38683.198,-21.973,-10.742,-26.855,-14.160,0.000,0
38683.202,-7.812,-1.953,-16.602,-2.930,0.000,0
38683.206,-11.719,-3.906,-12.207,4.883,0.000,0
38683.210,-20.996,-6.348,-21.484,1.953,0.000,0
38683.214,-6.836,12.207,-31.250,20.508,0.000,0
38683.218,6.348,14.648,-26.855,21.973,0.000,0
38683.222,-6.836,1.953,-15.137,3.418,0.000,0
38683.226,-15.137,-3.418,-15.137,-7.324,0.000,0
38683.230,-17.090,5.859,-23.926,-15.625,0.000,0
38683.233,-11.719,26.367,-19.531,-9.766,0.000,0
38683.237,-0.488,23.438,-9.766,1.953,0.000,0
38683.241,-11.719,13.184,-10.254,1.953,0.000,0
38683.245,-14.160,0.977,-11.719,2.930,0.000,0
38683.249,-2.441,-6.836,-6.348,4.883,0.000,0
38683.253,-8.301,4.883,-7.812,1.953,0.000,0
38683.257,-23.438,9.277,-22.949,3.906,0.000,0
38683.261,-32.715,-1.953,-28.809,-8.301,0.000,0
38683.265,-30.762,-37.598,-20.996,-16.602,0.000,0
38683.269,-8.301,-35.645,-19.531,-11.230,0.000,0
38683.272,-16.602,-0.977,-23.926,-11.230,0.000,0
38683.276,-28.320,-4.883,-20.996,-13.672,0.000,0
38683.280,-15.137,-15.137,-20.996,-7.324,0.000,0
38683.284,-20.996,-13.672,-28.809,-6.348,0.000,0
38683.288,-18.066,-23.926,-27.344,-11.230,0.000,0
38683.292,-16.602,-15.625,-22.461,-13.184,0.000,0
38683.296,-20.996,-11.719,-25.391,-14.648,0.000,0
38683.300,-21.484,-10.742,-33.203,-13.672,0.000,0
38683.304,-20.020,-4.395,-29.297,-15.137,0.000,0
38683.308,-12.207,-17.090,-14.160,-12.207,0.000,0
38683.312,-7.812,-19.531,-9.766,-5.371,0.000,0
38683.315,-10.742,-13.184,-16.602,-12.695,0.000,0
38683.319,-20.508,-20.020,-25.391,-16.113,0.000,0
38683.323,-21.973,-20.996,-26.855,-13.184,0.000,0
38683.327,-13.184,-27.832,-24.414,-12.207,0.000,0
38683.331,-24.414,-32.715,-35.156,-24.414,0.000,0
38683.335,-36.621,-35.156,-32.715,-20.996,0.000,0
38683.339,-26.855,-39.062,-20.020,-14.160,0.000,0
38683.343,-14.648,-42.480,-22.949,-26.367,0.000,0
38683.347,-15.625,-42.969,-23.926,-22.461,0.000,0
38683.351,-23.926,-42.969,-21.484,-20.996,0.000,0
38683.355,-24.902,-39.062,-22.461,-14.648,0.000,0
38683.358,-32.227,-41.016,-31.250,-27.832,0.000,0
38683.362,-34.180,-47.852,-33.203,-36.621,0.000,0
38683.366,-27.344,-44.922,-17.090,-25.391,0.000,0
38683.370,-35.645,-38.086,-21.484,-34.180,0.000,0
38683.374,-35.645,-37.598,-37.598,-33.691,0.000,0
38683.378,-36.133,-32.227,-29.297,-24.902,0.000,0
38683.382,-30.273,-28.809,-22.461,-19.043,0.000,0
38683.386,-28.320,-34.668,-25.391,-18.555,0.000,0
38683.390,-48.828,-26.367,-25.879,-21.484,0.000,0
38683.394,-44.922,-22.461,-34.180,-20.508,0.000,0
38683.397,-38.574,-28.809,-37.109,-27.832,0.000,0
38683.401,-37.598,-28.809,-30.273,-31.738,0.000,0
38683.405,-29.785,-27.832,-29.297,-26.367,0.000,0
38683.409,-29.785,-21.484,-31.250,-18.066,0.000,0
38683.413,-26.367,-16.602,-25.879,-18.066,0.000,0
38683.417,-16.113,-20.508,-24.902,-25.879,0.000,0
38683.421,-18.066,-26.855,-30.762,-26.367,0.000,0
38683.425,-24.902,-41.016,-25.879,-20.996,0.000,0
38683.429,-11.230,-32.715,-20.996,-9.277,0.000,0
38683.433,-7.324,-25.391,-17.578,-10.742,0.000,0
38683.437,-18.066,-40.039,-13.184,-13.672,0.000,0
38683.440,-17.090,-35.645,-16.602,-9.277,0.000,0
38683.444,-13.672,-47.363,-19.531,-15.625,0.000,0
38683.448,-13.672,-43.945,-29.785,-20.996,0.000,0
38683.452,-24.414,-26.855,-35.645,-21.484,0.000,0
38683.456,-25.391,-37.598,-22.949,-13.672,0.000,0
38683.460,-15.625,-45.898,-11.719,0.977,0.000,0
38683.464,-10.742,-53.711,-3.906,-1.953,0.000,0
38683.468,-22.461,-53.223,-20.996,-10.254,0.000,0
38683.472,-27.344,-49.805,-31.250,-11.230,0.000,0
38683.476,-19.531,-54.688,-26.367,-12.695,0.000,0
38683.480,-15.625,-47.852,-25.391,-6.836,0.000,0
38683.483,-14.160,-57.617,-16.602,-5.371,0.000,0
38683.487,-9.766,-61.523,-14.160,-9.277,0.000,0
38683.491,-15.137,-43.457,-21.973,-14.648,0.000,0
38683.495,-21.973,-36.621,-20.996,-5.371,0.000,0
38683.499,-7.324,-35.645,-16.602,-1.465,0.000,0
38683.503,-2.930,-64.941,-7.324,-15.137,0.000,0
38683.507,-14.160,-71.777,-4.395,-9.766,0.000,0
38683.511,-19.531,-37.109,-20.020,-10.254,0.000,0
38683.515,-13.184,-30.273,-21.484,-16.602,0.000,0
38683.519,0.977,-38.574,-19.531,-15.137,0.000,0
38683.522,4.395,-54.199,-7.324,-13.184,0.000,0
38683.526,-11.719,-45.898,-5.859,-15.137,0.000,0
38683.530,0.977,-22.461,-15.137,-2.441,0.000,0
38683.534,20.020,-23.438,-20.020,4.883,0.000,0
38683.538,8.789,-26.855,-27.344,-0.977,0.000,0
38683.542,3.418,-24.902,-15.137,-8.301,0.000,0
38683.546,10.254,-18.066,-5.371,-7.324,0.000,0
38683.550,9.766,-9.277,-1.953,0.488,0.000,0
38683.554,2.441,-10.742,-4.883,-11.719,0.000,0
38683.558,0.488,-5.859,-19.043,-16.113,0.000,0
38683.562,-16.113,-16.602,-18.555,-13.672,0.000,0
38683.565,-24.414,-20.996,-12.207,-24.902,0.000,0
38683.569,-8.301,10.254,-22.461,-19.043,0.000,0
38683.573,-14.648,21.484,-24.414,-11.230,0.000,1
38683.577,-18.066,8.301,-20.508,-22.461,0.000,0
38683.581,-8.789,-1.953,-18.066,-20.020,0.000,0
38683.585,-15.137,9.766,-14.160,-15.137,0.000,0
38683.589,-15.625,26.855,-17.090,-15.137,0.000,0
38683.593,-18.555,6.348,-15.625,-4.883,0.000,0
38683.597,-16.113,-0.977,-9.766,5.859,0.000,0
38683.601,-7.812,7.812,-7.324,-1.953,0.000,0
38683.605,-16.602,7.324,-11.230,-18.555,0.000,0
38683.608,-21.484,8.301,-16.602,-14.160,0.000,0
38683.612,-11.230,-0.488,-15.625,-15.625,0.000,0
38683.616,-14.648,-3.906,-14.648,-27.832,0.000,0
38683.620,-24.902,-16.113,-16.113,-28.809,0.000,0
38683.624,-20.508,-17.578,-7.812,-31.738,0.000,0
38683.628,-14.648,-0.977,-10.254,-16.113,0.000,0
38683.632,-6.836,-4.395,-16.113,-18.555,0.000,0
38683.636,-15.137,-8.301,-19.043,-28.320,0.000,0
38683.640,-33.691,-33.691,-19.043,-25.879,0.000,0
38683.644,-31.250,-32.227,-20.996,-36.133,0.000,0
38683.647,-21.484,-9.277,-28.320,-33.203,0.000,0
38683.651,-19.043,-18.555,-22.461,-31.250,0.000,0
38683.655,-27.344,-26.367,-26.367,-33.691,0.000,0
38683.659,-22.461,-26.855,-31.250,-39.062,0.000,0
38683.663,-23.438,-29.297,-26.855,-38.574,0.000,0
38683.667,-28.320,-25.391,-22.461,-32.227,0.000,0
38683.671,-20.996,-25.879,-21.484,-27.344,0.000,0
38683.675,-24.414,-25.879,-27.344,-26.855,0.000,0
38683.679,-32.227,-12.207,-34.668,-37.109,0.000,0
38683.683,-28.809,-19.531,-29.297,-35.645,0.000,0
38683.687,-24.902,-20.020,-24.902,-30.273,0.000,0
38683.690,-33.203,-9.766,-36.133,-32.227,0.000,0
38683.694,-28.320,-10.742,-38.574,-35.156,0.000,0
38683.698,-29.785,-27.344,-34.180,-48.828,0.000,0
38683.702,-32.715,-45.898,-30.273,-50.781,0.000,0
38683.706,-32.715,-32.715,-34.668,-44.922,0.000,0
38683.710,-31.250,-27.344,-35.156,-40.527,0.000,0
38683.714,-18.555,-22.949,-29.297,-21.484,0.000,0
38683.718,-17.578,-19.531,-27.344,-26.855,0.000,0
38683.722,-22.949,-37.598,-30.762,-48.340,0.000,0
38683.726,-23.926,-38.086,-34.668,-42.480,0.000,0
38683.730,-20.508,-24.902,-26.855,-33.203,0.000,0
38683.733,-19.043,-24.902,-28.809,-41.992,0.000,0
38683.737,-14.160,-25.391,-37.109,-46.387,0.000,0
38683.741,-23.926,-54.199,-29.785,-48.340,0.000,0
38683.745,-37.109,-48.828,-32.227,-37.598,0.000,0
38683.749,-32.715,-14.648,-41.504,-32.227,0.000,0
38683.753,-34.180,-9.277,-36.133,-45.410,0.000,0
38683.757,-41.992,-29.297,-32.227,-46.387,0.000,0
38683.761,-33.203,-51.270,-34.668,-45.898,0.000,0
38683.765,-24.414,-36.621,-38.574,-47.363,0.000,0
38683.769,-33.203,-26.367,-42.969,-52.246,0.000,0
38683.772,-21.973,-37.109,-41.992,-40.527,0.000,0
38683.776,-15.625,-37.109,-38.574,-33.691,0.000,0
38683.780,-36.133,-39.551,-38.574,-42.480,0.000,0
38683.784,-26.855,-32.227,-30.273,-34.668,0.000,0
38683.788,-15.625,-29.785,-31.738,-33.691,0.000,0
38683.792,-24.414,-30.273,-31.738,-36.133,0.000,0
38683.796,-24.414,-24.414,-28.809,-32.227,0.000,0
38683.800,-30.273,-45.898,-24.414,-41.016,0.000,0
38683.804,-24.414,-41.992,-22.461,-35.156,0.000,0
38683.808,-18.555,-20.508,-29.297,-35.645,0.000,0
38683.812,-26.855,-39.062,-36.621,-37.598,0.000,0
38683.815,-32.715,-62.012,-34.668,-38.574,0.000,0
38683.819,-32.227,-74.707,-29.297,-46.875,0.000,0
38683.823,-27.344,-60.059,-38.574,-38.086,0.000,0
38683.827,-33.691,-41.016,-46.387,-37.109,0.000,0
38683.831,-38.574,-53.711,-43.945,-39.062,0.000,0
38683.835,-30.762,-53.223,-38.574,-31.738,0.000,0
38683.839,-30.762,-62.012,-31.250,-35.645,0.000,0
38683.843,-30.273,-82.520,-28.809,-49.316,0.000,0
38683.847,-22.949,-68.359,-30.762,-35.645,0.000,0
38683.851,-21.484,-47.852,-33.203,-27.832,0.000,0
38683.855,-27.344,-38.086,-29.297,-41.016,0.000,0
38683.858,-29.785,-52.734,-30.273,-42.969,0.000,0
38683.862,-26.855,-62.012,-34.180,-41.992,0.000,0
38683.866,-21.973,-41.504,-30.273,-34.668,0.000,0
38683.870,-18.066,-31.738,-34.668,-26.855,0.000,0
38683.874,-22.461,-16.602,-39.062,-25.879,0.000,0
38683.878,-22.949,-45.410,-25.879,-34.668,0.000,0
38683.882,-19.531,-59.570,-23.438,-33.203,0.000,0
38683.886,-30.273,-35.645,-31.250,-25.391,0.000,0
38683.890,-26.855,-32.715,-30.762,-30.762,0.000,0
38683.894,-13.184,-31.250,-32.227,-27.832,0.000,0
38683.897,-18.066,-43.945,-25.391,-25.391,0.000,0
38683.901,-25.391,-44.434,-23.926,-23.438,0.000,0
38683.905,-18.555,-28.809,-27.344,-20.996,0.000,0
38683.909,-22.461,-34.180,-27.344,-28.320,0.000,0
38683.913,-21.484,-19.043,-36.133,-18.555,0.000,0
38683.917,-18.555,-15.137,-39.062,-18.066,0.000,0
38683.921,-20.996,-24.902,-28.809,-24.902,0.000,0
38683.925,-20.508,-5.371,-21.484,-17.090,0.000,0
38683.929,-16.602,-7.324,-24.414,-11.230,0.000,0
38683.933,-17.578,-4.883,-22.461,-10.254,0.000,0
38683.937,-25.391,-18.555,-21.484,-25.391,0.000,0
38683.940,-25.391,-23.926,-20.996,-23.438,0.000,0
38683.944,-24.414,-8.301,-22.461,-19.531,0.000,0
38683.948,-23.438,-3.906,-27.344,-20.020,0.000,0
38683.952,-17.090,8.789,-34.180,-11.719,0.000,0
38683.956,-22.461,-11.719,-30.273,-14.160,0.000,0
38683.960,-21.973,-7.324,-25.879,-19.531,0.000,0
38683.964,-18.066,9.277,-26.855,-15.625,0.000,0
38683.968,-15.137,-3.906,-13.184,-2.441,0.000,0
38683.972,-17.090,-8.301,-7.324,-8.301,0.000,0
38683.976,-17.090,-0.977,-19.043,-1.953,0.000,0
38683.980,-4.883,-16.602,-14.160,1.953,0.000,0
38683.983,-30.762,-26.855,-22.461,-29.297,0.000,0
38683.987,-28.320,-34.180,-25.879,-31.250,0.000,0
38683.991,-9.277,-35.645,-17.090,-14.160,0.000,0
38683.995,-21.973,-38.086,-20.996,-19.531,0.000,0
38683.999,-25.879,-46.387,-20.508,-24.902,0.000,0
38684.003,-23.926,-36.133,-20.996,-6.348,0.000,0
38684.007,-31.250,-22.949,-31.738,-14.648,0.000,0
38684.011,-27.832,-30.762,-37.109,-24.414,0.000,0
38684.015,-20.020,-48.340,-24.902,-5.859,0.000,0
38684.019,-22.461,-50.293,-23.438,-13.184,0.000,0
38684.022,-23.926,-36.621,-26.367,-22.461,0.000,0
38684.026,-21.484,-30.273,-20.508,-10.254,0.000,0
38684.030,-16.602,-31.738,-24.414,-7.324,0.000,0
38684.034,-20.996,-25.391,-27.344,-12.207,0.000,0
38684.038,-8.789,-27.344,-19.531,-4.395,0.000,0
38684.042,-1.465,-49.805,-16.113,-13.672,0.000,0
38684.046,-19.531,-54.688,-27.344,-20.020,0.000,0
38684.050,-25.879,-29.297,-33.203,-4.395,0.000,0
38684.054,-27.832,-37.598,-27.832,-13.184,0.000,0
38684.058,-20.508,-56.641,-23.438,-15.625,0.000,0
38684.062,-19.531,-48.828,-37.109,-19.531,0.000,0
38684.065,-37.598,-55.664,-46.875,-33.691,0.000,0
38684.069,-33.691,-58.105,-41.016,-35.645,0.000,0
38684.073,-18.555,-50.293,-30.762,-24.902,0.000,0
38684.077,-13.184,-52.734,-30.273,-22.949,0.000,0
38684.081,-20.996,-46.387,-37.598,-32.227,0.000,0
38684.085,-25.391,-47.363,-40.039,-37.598,0.000,0
38684.089,-18.555,-49.805,-33.203,-26.367,0.000,0
38684.093,-11.719,-59.570,-34.180,-18.555,0.000,0
38684.097,-15.137,-76.172,-44.434,-27.344,0.000,0
38684.101,-22.949,-68.848,-42.480,-30.762,0.000,0
38684.105,-18.555,-57.129,-37.598,-32.715,0.000,0
38684.108,-27.344,-49.316,-35.156,-37.109,0.000,0
38684.112,-30.273,-51.758,-33.691,-31.250,0.000,0
38684.116,-25.879,-49.805,-27.344,-30.762,0.000,0
38684.120,-40.527,-36.133,-37.109,-38.574,0.000,0
38684.124,-44.922,-38.574,-39.062,-36.621,0.000,0
38684.128,-29.297,-36.621,-27.344,-22.461,0.000,0
38684.132,-24.902,-42.480,-21.484,-24.414,0.000,0
38684.136,-34.668,-52.246,-26.855,-31.738,0.000,0
38684.140,-35.645,-46.387,-40.527,-23.438,0.000,0
38684.144,-20.996,-40.039,-38.086,-14.160,0.000,0
38684.147,-21.973,-32.715,-24.414,-7.812,0.000,0
38684.151,-32.227,-20.020,-28.320,-9.277,0.000,0
38684.155,-22.949,-17.578,-35.645,-14.648,0.000,0
38684.159,-20.020,-17.090,-29.785,-8.301,0.000,0
38684.163,-21.484,-24.414,-33.691,-9.277,0.000,0
38684.167,-20.996,-27.832,-35.156,-14.160,0.000,0
38684.171,-25.879,-28.809,-28.809,-12.695,0.000,0
38684.175,-29.297,-44.922,-25.879,-11.719,0.000,0
38684.179,-20.020,-25.879,-27.832,-5.371,0.000,0
38684.183,-18.066,-11.230,-23.926,-8.301,0.000,1
38684.187,-16.113,-18.555,-25.391,-9.766,0.000,0
38684.190,-19.043,-24.902,-26.855,-4.395,0.000,0
38684.194,-25.879,-31.738,-12.207,-4.883,0.000,0
38684.198,-17.090,-7.324,-13.184,-0.977,0.000,0
38684.202,-18.555,-4.395,-25.879,-5.371,0.000,0
38684.206,-36.133,-16.602,-27.832,-16.113,0.000,0
38684.210,-28.320,-13.184,-31.738,-12.695,0.000,0
38684.214,-12.695,-15.625,-21.484,-13.672,0.000,0
38684.218,-20.508,3.418,-16.113,-7.324,0.000,0
38684.222,-21.484,-7.812,-14.648,-7.324,0.000,0
38684.226,-17.090,-26.367,-13.184,-14.648,0.000,0
38684.230,-20.020,8.301,-23.438,-7.324,0.000,0
38684.233,-14.160,0.977,-16.113,-18.555,0.000,0
38684.237,-10.742,-3.418,-8.789,-17.578,0.000,0
38684.241,-2.441,5.859,-15.625,-7.324,0.000,0
38684.245,0.488,17.578,-21.973,-7.324,0.000,0
38684.249,-11.719,2.441,-24.902,-11.719,0.000,0
38684.253,-19.531,-36.621,-14.160,-12.207,0.000,0
38684.257,-20.020,-15.625,-14.648,-18.066,0.000,0
38684.261,-23.926,-3.906,-18.555,-21.973,0.000,0
38684.265,-23.438,-4.395,-11.230,-7.812,0.000,0
38684.269,-27.344,1.465,-10.254,-7.324,0.000,0
38684.272,-20.508,-15.625,-14.648,-17.578,0.000,0
38684.276,-4.395,3.418,-10.742,-7.324,0.000,0
38684.280,-12.207,15.625,-12.695,-9.277,0.000,0
38684.284,-21.484,3.906,-13.672,-17.090,0.000,0
38684.288,-18.555,17.578,-18.555,-13.184,0.000,0
38684.292,-14.160,7.812,-20.020,-22.949,0.000,0
38684.296,-6.836,-9.766,-16.602,-17.578,0.000,0
38684.300,-12.207,-2.441,-18.555,-11.230,0.000,0
38684.304,-28.320,3.418,-20.996,-21.973,0.000,0
38684.308,-33.203,3.418,-20.020,-23.926,0.000,0
38684.312,-18.555,-10.254,-13.672,-19.043,0.000,0
38684.315,-17.090,-10.742,-11.230,-14.160,0.000,0
38684.319,-18.555,-0.977,-21.973,-14.160,0.000,0
38684.323,-22.949,-5.371,-22.949,-18.066,0.000,0
38684.327,-30.273,-10.742,-21.973,-21.484,0.000,0
38684.331,-31.250,-14.648,-24.414,-21.484,0.000,0
38684.335,-28.320,-7.324,-19.531,-20.508,0.000,0
38684.339,-22.949,5.371,-18.555,-19.531,0.000,0
38684.343,-41.992,1.953,-20.508,-25.391,0.000,0
38684.347,-38.574,10.254,-28.320,-31.738,0.000,0
38684.351,-30.762,1.953,-28.809,-38.574,0.000,0
38684.355,-38.086,-13.184,-24.902,-29.785,0.000,0
38684.358,-24.414,7.812,-24.902,-22.461,0.000,0
38684.362,-21.484,5.371,-20.020,-24.414,0.000,0
38684.366,-28.809,-4.395,-20.508,-21.973,0.000,0
38684.370,-16.113,-7.812,-19.043,-23.926,0.000,0
38684.374,-14.160,-13.672,-16.602,-26.367,0.000,0
38684.378,-20.996,-12.695,-17.090,-25.391,0.000,0
38684.382,-17.090,-0.488,-20.996,-28.320,0.000,0
38684.386,-19.043,-6.348,-19.043,-27.832,0.000,0
38684.390,-14.160,-23.438,-8.789,-21.484,0.000,0
38684.394,-9.766,-13.672,-10.254,-17.578,0.000,0
38684.397,-12.695,4.883,-16.602,-14.648,0.000,0
38684.401,-10.254,-7.324,-23.926,-16.602,0.000,0
38684.405,-17.090,-10.254,-21.973,-20.508,0.000,0
38684.409,-20.020,-0.488,-18.555,-22.949,0.000,0
38684.413,-16.602,-0.977,-23.438,-21.484,0.000,0
38684.417,-17.578,7.812,-25.879,-16.602,0.000,0
38684.421,-11.719,6.348,-29.785,-13.184,0.000,0
38684.425,-11.719,4.883,-34.668,-17.578,0.000,0
38684.429,-12.695,-5.371,-25.879,-19.531,0.000,0
38684.433,-15.137,-17.090,-22.461,-16.113,0.000,0
38684.437,-30.273,1.465,-29.785,-21.484,0.000,0
38684.440,-20.508,2.930,-27.832,-19.531,0.000,0
38684.444,-16.602,-3.906,-27.344,-19.043,0.000,0
38684.448,-27.832,-2.930,-28.320,-28.320,0.000,0
38684.452,-11.230,-16.113,-23.438,-17.578,0.000,0
38684.456,-0.977,-22.949,-21.973,-5.371,0.000,0
38684.460,-16.602,-22.461,-20.508,-2.930,0.000,0
38684.464,-15.625,-16.113,-20.508,-7.324,0.000,0
38684.468,-9.766,-16.113,-18.066,-13.184,0.000,0
38684.472,-7.324,-27.344,-17.578,-21.484,0.000,0
38684.476,-4.883,-22.461,-22.461,-14.648,0.000,0
38684.480,-20.508,-21.973,-25.879,-7.324,0.000,0
38684.483,-13.672,-13.672,-22.949,-4.395,0.000,0
38684.487,-11.719,-8.789,-22.949,-6.348,0.000,0
38684.491,-22.949,-31.738,-19.531,-14.648,0.000,0
38684.495,-20.996,-17.090,-22.949,-13.184,0.000,0
38684.499,-19.043,-5.859,-33.691,-17.090,0.000,0
38684.503,-18.555,-11.230,-27.344,-15.137,0.000,0
38684.507,-18.066,-23.926,-22.949,-8.789,0.000,0
38684.511,-21.484,-41.016,-29.785,-18.555,0.000,0
38684.515,-18.066,-22.461,-33.203,-16.113,0.000,0
38684.519,-14.160,-18.066,-27.344,-0.977,0.000,0
38684.522,-21.484,-30.273,-23.438,-3.906,0.000,0
38684.526,-30.762,-28.320,-26.855,-14.160,0.000,0
38684.530,-31.738,-42.480,-24.414,-19.043,0.000,0
38684.534,-21.484,-31.250,-20.996,-19.043,0.000,0
38684.538,-15.137,-30.762,-21.973,-18.555,0.000,0
38684.542,-20.508,-35.645,-21.484,-22.949,0.000,0
38684.546,-33.691,-30.273,-22.461,-28.320,0.000,0
38684.550,-32.227,-41.992,-17.578,-31.738,0.000,0
38684.554,-29.297,-22.461,-25.391,-24.902,0.000,0
38684.558,-20.996,-14.160,-31.738,-11.719,0.000,0
38684.562,-15.137,-18.555,-19.043,-9.277,0.000,0
38684.565,-20.996,-11.230,-22.461,-24.902,0.000,0
38684.569,-25.879,-35.156,-17.578,-26.855,0.000,0
38684.573,-26.367,-12.207,-16.602,-27.344,0.000,0
38684.577,-26.367,10.742,-30.762,-40.527,0.000,0
38684.581,-13.184,-16.113,-26.855,-35.645,0.000,0
38684.585,-13.672,-13.184,-20.020,-24.902,0.000,0
38684.589,-34.668,-18.066,-20.020,-29.785,0.000,0
38684.593,-33.691,-14.160,-20.508,-24.902,0.000,0
38684.597,-15.625,-1.465,-23.438,-15.137,0.000,0
38684.601,-12.207,-4.883,-27.832,-19.531,0.000,0
38684.605,-17.578,-1.465,-27.344,-17.090,0.000,0
38684.608,-14.648,-15.625,-27.832,-23.926,0.000,0
38684.612,-15.625,-7.812,-31.738,-31.250,0.000,0
38684.616,-7.324,15.137,-37.109,-29.297,0.000,0
38684.620,-17.090,21.484,-43.945,-30.762,0.000,0
38684.624,-29.297,9.766,-36.621,-27.832,0.000,0
38684.628,-20.996,-16.113,-26.855,-19.043,0.000,0
38684.632,-21.484,3.418,-32.227,-13.184,0.000,0
38684.636,-11.230,26.855,-26.367,-4.395,0.000,0
38684.640,-3.906,16.113,-23.438,-6.836,0.000,0
38684.644,-1.953,7.324,-25.879,-15.137,0.000,0
38684.647,23.438,10.254,-12.207,-8.789,0.000,0
38684.651,21.973,13.184,-13.672,-6.836,0.000,0
38684.655,5.859,9.766,-21.973,-3.906,0.000,0
38684.659,5.371,17.578,-17.578,7.812,0.000,0
38684.663,5.859,10.254,-19.531,2.441,0.000,0
38684.667,-1.953,-11.230,-24.414,-11.230,0.000,0
38684.671,-9.277,1.953,-17.578,4.395,0.000,0
38684.675,-10.254,11.719,-21.484,-8.789,0.000,0
38684.679,-16.602,7.324,-28.809,-36.621,0.000,0
38684.683,-29.785,3.906,-24.902,-24.414,0.000,0
38684.687,-32.227,7.324,-19.043,-17.578,0.000,0
38684.690,-25.879,19.043,-16.602,-17.090,0.000,0
38684.694,-25.391,33.203,-21.484,-16.602,0.000,0
38684.698,-18.066,29.785,-17.090,-14.648,0.000,0
38684.702,-3.418,23.438,-5.859,4.395,0.000,0
38684.706,-14.160,9.277,-7.324,-7.812,0.000,0
38684.710,-16.113,12.695,-13.672,-23.926,0.000,0
38684.714,-3.906,25.391,-7.324,-14.648,0.000,0
38684.718,-11.230,6.836,-8.789,-19.531,0.000,0
38684.722,-18.066,-2.441,-20.508,-20.020,0.000,0
38684.726,-18.066,-16.602,-18.555,-20.508,0.000,0
38684.730,-20.508,-17.578,-15.625,-15.137,0.000,0
38684.733,-21.484,-19.531,-18.555,-9.277,0.000,0
38684.737,-22.461,-15.137,-20.996,-19.531,0.000,0
38684.741,-20.020,-4.883,-18.555,-21.484,0.000,0
38684.745,-15.137,-19.531,-16.602,-23.438,0.000,0
38684.749,-19.531,-15.137,-24.902,-18.555,0.000,0
38684.753,-20.508,2.441,-28.809,-16.602,0.000,0
38684.757,-15.625,2.930,-26.855,-26.367,0.000,0
38684.761,-11.230,10.254,-21.973,-18.555,0.000,0
38684.765,-7.324,-0.488,-10.254,-17.090,0.000,0
38684.769,11.719,8.301,-2.930,-1.953,0.000,0
38684.772,1.465,33.691,-16.602,10.254,0.000,0
38684.776,-27.832,20.508,-25.879,-15.137,0.000,0
38684.780,-16.113,18.555,-18.066,-28.809,0.000,0
38684.784,-20.508,2.441,-13.672,-32.227,0.000,0
38684.788,-26.855,4.395,-15.137,-28.320,0.000,0
38684.792,-24.902,19.043,-17.090,-20.020,0.000,0
38684.796,-22.949,8.789,-20.996,-24.902,0.000,1
38684.800,-22.461,-2.441,-27.832,-38.086,0.000,0
38684.804,-25.391,-12.695,-22.949,-31.738,0.000,0
38684.808,-28.320,2.441,-16.602,-21.484,0.000,0
38684.812,-21.484,22.949,-21.973,-25.879,0.000,0
38684.815,-25.391,15.137,-21.973,-22.461,0.000,0
38684.819,-20.508,15.625,-13.672,-18.555,0.000,0
38684.823,-13.672,4.883,-5.371,-13.184,0.000,0
38684.827,-23.926,2.930,-9.277,-21.973,0.000,0
38684.831,-18.555,17.090,-13.672,-21.973,0.000,0
38684.835,-16.113,8.301,-14.160,-11.230,0.000,0
38684.839,-21.484,8.789,-16.113,-16.113,0.000,0
38684.843,-27.832,-4.395,-10.742,-28.320,0.000,0
38684.847,-18.066,-0.977,-11.719,-19.531,0.000,0
38684.851,-13.184,20.020,-16.602,-14.648,0.000,0
38684.855,-23.926,14.648,-15.625,-22.949,0.000,0
38684.858,-18.066,21.973,-18.066,-13.672,0.000,0
38684.862,-16.113,5.371,-13.672,-21.484,0.000,0
38684.866,-22.949,5.859,-12.207,-31.250,0.000,0
38684.870,-13.672,14.160,-20.508,-23.926,0.000,0
38684.874,-9.277,19.043,-25.879,-24.902,0.000,0
38684.878,-20.020,20.020,-29.785,-27.344,0.000,0
38684.882,-19.531,-25.879,-19.531,-24.414,0.000,0
38684.886,-12.695,-34.180,-14.160,-21.973,0.000,0
38684.890,-19.043,-17.578,-21.484,-22.949,0.000,0
38684.894,-24.414,-24.902,-21.484,-24.414,0.000,0
38684.897,-22.461,-18.066,-20.996,-15.625,0.000,0
38684.901,-27.344,-29.297,-30.762,-29.785,0.000,0
38684.905,-22.949,-30.273,-28.809,-39.551,0.000,0
38684.909,-15.137,-0.488,-21.973,-19.531,0.000,0
38684.913,-22.461,-9.277,-28.809,-20.996,0.000,0
38684.917,-22.949,-9.277,-33.203,-28.320,0.000,0
38684.921,-21.484,-9.277,-24.902,-31.250,0.000,0
38684.925,-29.785,-17.090,-21.973,-30.273,0.000,0
38684.929,-24.414,11.719,-26.855,-22.949,0.000,0
38684.933,-20.020,24.414,-26.855,-25.391,0.000,0
38684.937,-5.859,12.695,-26.855,-19.043,0.000,0
38684.940,-2.930,4.395,-20.996,-18.066,0.000,0
38684.944,-16.602,5.859,-24.414,-27.832,0.000,0
38684.948,-12.695,24.902,-31.738,-21.484,0.000,0
38684.952,-15.137,13.672,-34.180,-21.973,0.000,0
38684.956,-21.973,-8.301,-28.809,-17.090,0.000,0
38684.960,-15.625,-5.859,-25.879,-15.625,0.000,0
38684.964,-11.719,-5.371,-27.832,-29.297,0.000,0
38684.968,-11.230,18.555,-25.879,-22.461,0.000,0
38684.972,-16.602,13.184,-16.602,-17.578,0.000,0
38684.976,-7.812,20.020,-15.137,-12.695,0.000,0
38684.980,-7.812,48.340,-20.020,-7.812,0.000,0
38684.983,-20.996,21.484,-11.230,-12.695,0.000,0
38684.987,-14.160,19.531,-7.812,-7.812,0.000,0
38684.991,-8.789,31.738,-14.160,-9.766,0.000,0
38684.995,-12.695,42.480,-18.555,-19.043,0.000,0
38684.999,-13.672,31.250,-10.742,-18.555,0.000,0
38685.003,-17.090,9.277,-5.859,-22.461,0.000,0
38685.007,-17.578,18.066,-13.672,-30.273,0.000,0
38685.011,-15.625,13.184,-17.090,-27.344,0.000,0
38685.015,-17.578,2.930,-18.555,-23.926,0.000,0
38685.019,-14.648,-0.977,-15.137,-26.855,0.000,0
38685.022,-19.531,-5.371,-13.184,-26.367,0.000,0
38685.026,-19.531,-1.953,-15.625,-23.438,0.000,0
38685.030,-14.648,1.465,-11.719,-24.902,0.000,0
38685.034,-13.184,4.395,-11.230,-19.043,0.000,0
38685.038,-16.602,12.695,-16.602,-21.484,0.000,0
38685.042,-18.066,-0.977,-19.043,-28.809,0.000,0
38685.046,-22.949,-9.766,-14.648,-25.879,0.000,0
38685.050,-23.926,-1.953,-20.508,-24.414,0.000,0
38685.054,-24.902,-0.488,-22.949,-26.855,0.000,0
38685.058,-26.855,-6.348,-15.625,-30.762,0.000,0
38685.062,-17.578,-9.766,-14.648,-36.133,0.000,0
38685.065,-16.113,-0.488,-18.066,-36.621,0.000,0
38685.069,-16.602,4.395,-14.160,-39.062,0.000,0
38685.073,-11.230,-19.043,-7.324,-35.156,0.000,0
38685.077,-10.254,-27.832,-9.766,-24.902,0.000,0
38685.081,-12.695,-12.207,-14.648,-27.832,0.000,0
38685.085,-19.531,1.465,-16.113,-23.438,0.000,0
38685.089,-23.926,-2.930,-12.207,-15.625,0.000,0
38685.093,-9.766,-3.906,-15.137,-26.855,0.000,0
38685.097,-8.301,-6.348,-14.160,-30.762,0.000,0
38685.101,-29.297,-17.090,-13.184,-26.855,0.000,0
38685.105,-27.832,-2.930,-16.602,-21.973,0.000,0
38685.108,-16.602,2.441,-9.766,-21.484,0.000,0
38685.112,-17.578,2.441,-10.742,-20.508,0.000,0
38685.116,-26.855,-8.789,-20.020,-20.996,0.000,0
38685.120,-18.066,-2.441,-15.137,-20.996,0.000,0
38685.124,-16.113,18.555,-16.602,-18.555,0.000,0
38685.128,-29.297,2.441,-26.855,-23.926,0.000,0
38685.132,-33.203,-19.043,-27.344,-35.645,0.000,0
38685.136,-23.438,-39.551,-22.949,-36.621,0.000,0
38685.140,-31.250,-48.340,-24.414,-34.668,0.000,0
38685.144,-38.086,-43.945,-30.762,-39.062,0.000,0
38685.147,-35.645,-60.059,-33.691,-40.039,0.000,0
38685.151,-42.969,-60.059,-40.039,-35.156,0.000,0
38685.155,-40.039,-58.594,-38.086,-34.180,0.000,0
38685.159,-38.574,-81.055,-31.738,-30.273,0.000,0
38685.163,-44.922,-70.801,-36.133,-32.715,0.000,0
38685.167,-33.203,-55.176,-36.621,-38.574,0.000,0
38685.171,-27.832,-52.734,-32.715,-31.250,0.000,0
38685.175,-38.574,-56.641,-32.227,-34.668,0.000,0
38685.179,-30.273,-88.379,-28.320,-38.086,0.000,0
38685.183,-31.738,-56.152,-34.668,-37.598,0.000,0
38685.187,-44.922,-20.508,-48.340,-36.133,0.000,0
38685.190,-32.227,-27.832,-41.016,-27.832,0.000,0
38685.194,-23.438,-40.039,-18.555,-22.461,0.000,0
38685.198,-20.996,-67.383,-9.277,-25.879,0.000,0
38685.202,-28.809,-51.758,-16.113,-18.066,0.000,0
38685.206,-22.949,-36.621,-14.648,-15.137,0.000,0
38685.210,-11.719,-34.180,-15.625,-17.578,0.000,0
38685.214,-7.324,-31.738,-18.555,-20.020,0.000,0
38685.218,-5.371,-42.969,-13.672,-23.438,0.000,0
38685.222,-0.488,-18.555,-13.184,-8.301,0.000,0
38685.226,-2.441,-13.184,-22.461,0.000,0.000,0
38685.230,-16.113,-10.254,-36.621,-17.090,0.000,0
38685.233,-13.184,15.137,-34.180,-28.809,0.000,0
38685.237,-10.742,-16.602,-21.484,-27.344,0.000,0
38685.241,-22.461,-17.578,-29.297,-25.391,0.000,0
38685.245,-20.020,1.953,-30.762,-22.461,0.000,0
38685.249,-23.438,0.488,-24.902,-26.855,0.000,0
38685.253,-32.227,9.766,-21.484,-34.180,0.000,0
38685.257,-25.391,10.254,-11.230,-32.227,0.000,0
38685.261,-16.113,20.508,-18.066,-32.715,0.000,0
38685.265,-13.184,33.691,-18.555,-26.367,0.000,0
38685.269,-26.367,37.109,-13.184,-20.996,0.000,0
38685.272,-26.855,53.711,-17.578,-17.090,0.000,0
38685.276,-8.789,48.340,-21.484,-11.719,0.000,0
38685.280,-14.160,23.438,-24.414,-14.648,0.000,0
38685.284,-23.438,18.066,-20.996,-8.301,0.000,0
38685.288,-5.859,41.016,-20.020,4.395,0.000,0
38685.292,-4.883,59.570,-23.438,-0.488,0.000,0
38685.296,-7.324,46.387,-21.973,-14.648,0.000,0
38685.300,7.812,34.668,-13.672,-6.348,0.000,0
38685.304,-3.906,46.875,-17.090,1.953,0.000,0
38685.308,-2.441,49.805,-22.949,-9.766,0.000,0
38685.312,-12.695,46.387,-25.391,-3.906,0.000,0
38685.315,-17.090,33.691,-21.973,-7.812,0.000,0
38685.319,-6.836,40.527,-20.996,-12.695,0.000,0
38685.323,-15.137,50.781,-28.320,-14.160,0.000,0
38685.327,-17.090,30.273,-23.438,-16.113,0.000,0
38685.331,-9.766,26.855,-13.672,-3.418,0.000,0
38685.335,8.789,34.180,-5.859,1.465,0.000,0
38685.339,-2.930,25.391,-5.371,1.465,0.000,0
38685.343,-16.602,20.020,-13.184,-1.465,0.000,0
38685.347,2.930,18.066,-11.230,-9.766,0.000,0
38685.351,3.906,19.531,-8.301,-0.977,0.000,0
38685.355,-4.883,4.883,-4.883,5.371,0.000,0
38685.358,-3.418,-6.348,0.000,-2.930,0.000,0
38685.362,-10.254,0.488,-11.719,-14.648,0.000,0
38685.366,-6.348,5.371,-22.461,-21.484,0.000,0
38685.370,-4.883,-3.418,-20.020,-17.578,0.000,0
38685.374,-15.625,-36.621,-6.348,-4.395,0.000,0
38685.378,-23.438,-37.109,-10.742,-12.695,0.000,0
38685.382,-25.879,-32.715,-17.578,-27.344,0.000,0
38685.386,-22.949,-46.387,-8.301,-20.996,0.000,0
38685.390,-17.090,-18.555,-13.672,-14.648,0.000,0
38685.394,-26.855,-12.207,-17.090,-19.531,0.000,0
38685.397,-24.414,-18.066,-14.160,-18.555,0.000,0
38685.401,-5.859,-6.836,-14.648,-7.812,0.000,0
38685.405,-17.578,-13.672,-16.113,-7.324,0.000,0
38685.409,-36.133,-21.973,-22.949,-19.043,0.000,0
38685.413,-32.227,-29.785,-29.785,-23.926,0.000,0
38685.417,-28.320,-33.203,-20.020,-24.414,0.000,0
38685.421,-28.809,-35.156,-13.672,-23.438,0.000,0
38685.425,-14.648,-34.668,-15.625,-19.531,0.000,0
38685.429,-13.672,-33.203,-14.160,-14.648,0.000,0
38685.433,-20.996,-44.922,-9.766,-14.160,0.000,0
38685.437,-31.250,-49.805,-8.301,-19.043,0.000,0
38685.440,-28.320,-38.574,-17.578,-21.484,0.000,0
38685.444,-23.926,-42.480,-23.438,-21.484,0.000,0
38685.448,-24.902,-39.551,-13.672,-26.855,0.000,1
38685.452,-20.020,-29.785,-14.160,-25.391,0.000,0
38685.456,-13.672,-35.645,-16.602,-20.996,0.000,0
38685.460,-18.555,-31.250,-17.090,-26.367,0.000,0
38685.464,-19.531,-36.133,-13.672,-24.902,0.000,0
38685.468,-9.766,-27.344,-12.207,-17.090,0.000,0
38685.472,-6.348,-23.926,-17.090,-17.578,0.000,0
38685.476,-11.230,-36.621,-17.090,-23.438,0.000,0
38685.480,-16.602,-11.230,-13.672,-17.578,0.000,0
38685.483,-17.090,-6.348,-17.578,-16.602,0.000,0
38685.487,-18.555,-18.555,-20.020,-22.461,0.000,0
38685.491,-21.484,-0.977,-20.508,-24.902,0.000,0
38685.495,-18.066,-7.812,-16.113,-26.367,0.000,0
38685.499,-20.508,6.836,-12.695,-19.043,0.000,0
38685.503,-25.391,8.789,-19.531,-23.926,0.000,0
38685.507,-21.973,-1.953,-23.926,-21.973,0.000,0
38685.511,-20.020,-5.859,-16.602,-17.090,0.000,0
38685.515,-8.789,-16.113,-13.672,-21.484,0.000,0
38685.519,-9.766,-0.977,-20.996,-21.484,0.000,0
38685.522,-19.531,-3.418,-25.879,-22.949,0.000,0
38685.526,-14.160,-14.648,-25.391,-25.391,0.000,0
38685.530,-15.625,-19.043,-32.715,-33.203,0.000,0
38685.534,-10.254,-31.738,-24.414,-29.297,0.000,0
38685.538,-1.465,-5.859,-12.207,-14.648,0.000,0
38685.542,-3.418,10.254,-13.672,-9.766,0.000,0
38685.546,-13.184,4.395,-18.066,-19.531,0.000,0
38685.550,-17.578,-2.441,-20.508,-18.066,0.000,0
38685.554,-9.766,-23.438,-7.812,0.488,0.000,0
38685.558,-12.207,-4.395,-9.766,-2.930,0.000,0
38685.562,-9.766,2.441,-14.648,-13.184,0.000,0
38685.565,-11.719,-8.789,-9.766,-16.113,0.000,0
38685.569,-10.742,-2.441,-11.230,-13.672,0.000,0
38685.573,-7.324,-18.555,-12.207,-16.602,0.000,0
38685.577,-12.207,-11.230,-19.043,-20.508,0.000,0
38685.581,-11.230,11.719,-24.902,-13.672,0.000,0
38685.585,-9.766,-0.488,-27.344,-11.719,0.000,0
38685.589,-13.184,-26.855,-28.320,-18.555,0.000,0
38685.593,-25.879,-18.066,-20.508,-22.949,0.000,0
38685.597,-26.855,1.953,-22.949,-16.602,0.000,0
38685.601,-19.043,0.488,-25.391,-10.254,0.000,0
38685.605,-18.066,3.906,-26.855,-15.625,0.000,0
38685.608,-27.344,2.441,-28.320,-16.113,0.000,0
38685.612,-39.062,-18.066,-29.297,-26.367,0.000,0
38685.616,-37.109,-5.371,-40.527,-28.809,0.000,0
38685.620,-32.715,20.020,-44.922,-18.066,0.000,0
38685.624,-20.996,12.695,-26.855,-16.113,0.000,0
38685.628,-19.043,-6.836,-24.902,-25.879,0.000,0
38685.632,-26.367,-25.391,-30.273,-39.062,0.000,0
38685.636,-34.180,-17.090,-23.926,-34.668,0.000,0
38685.640,-33.691,-0.977,-22.949,-30.762,0.000,0
38685.644,-10.254,12.695,-21.973,-13.184,0.000,0
38685.647,-0.488,30.762,-27.344,5.371,0.000,0
38685.651,-20.996,2.930,-33.203,-19.043,0.000,0
38685.655,-33.691,-17.090,-33.203,-17.578,0.000,0
38685.659,-22.949,-23.926,-26.367,-0.977,0.000,0
38685.663,17.578,3.906,-22.949,20.508,0.000,0
38685.667,35.645,41.992,-19.531,51.758,0.000,0
38685.671,-13.672,-0.977,-23.438,7.812,0.000,0
38685.675,-11.719,-4.883,-24.414,-18.555,0.000,0
38685.679,48.340,66.406,-16.113,46.875,0.000,0
38685.683,25.879,58.594,-9.277,45.410,0.000,0
38685.687,-50.781,10.254,-27.344,-46.387,0.000,0
38685.690,-18.555,24.414,-22.949,-17.090,0.000,0
38685.694,0.977,54.688,-15.625,18.066,0.000,0
38685.698,-62.988,50.293,-41.504,-35.645,0.000,0
38685.702,-42.480,59.082,-36.133,-15.137,0.000,0
38685.706,-7.324,97.656,-27.344,3.906,0.000,0
38685.710,-12.207,118.652,-32.227,-7.324,0.000,0
38685.714,-8.789,115.234,-31.738,-7.812,0.000,0
38685.718,-0.488,108.887,-29.785,6.836,0.000,0
38685.722,1.953,125.488,-37.109,25.391,0.000,0
38685.726,10.742,145.020,-30.273,23.926,0.000,0
38685.730,15.137,141.602,-9.766,17.578,0.000,0
38685.733,21.484,143.066,-8.301,23.926,0.000,0
38685.737,19.531,138.672,-16.602,25.879,0.000,0
38685.741,17.578,148.438,-15.625,38.574,0.000,0
38685.745,29.297,140.137,-15.137,38.574,0.000,0
38685.749,21.484,102.051,-19.043,20.020,0.000,0
38685.753,13.184,113.281,-21.973,18.066,0.000,0
38685.757,16.602,131.836,-21.484,28.320,0.000,0
38685.761,22.461,116.699,-15.625,39.551,0.000,0
38685.765,28.809,100.586,-10.254,41.504,0.000,0
38685.769,23.926,87.891,-15.625,33.203,0.000,0
38685.772,12.695,84.473,-27.344,24.902,0.000,0
38685.776,1.953,83.008,-28.809,16.602,0.000,0
38685.780,-0.488,72.266,-29.297,9.277,0.000,0
38685.784,6.348,64.941,-34.180,18.066,0.000,0
38685.788,1.465,39.062,-31.738,12.207,0.000,0
38685.792,4.395,29.297,-26.855,-2.930,0.000,0
38685.796,8.301,36.621,-31.738,-7.324,0.000,0
38685.800,13.184,19.043,-28.320,-6.836,0.000,0
38685.804,7.812,14.648,-22.949,8.301,0.000,0
38685.808,0.488,-3.418,-22.949,-0.488,0.000,0
38685.812,-5.371,-13.184,-28.320,-13.184,0.000,0
38685.815,-17.090,0.977,-31.738,-15.137,0.000,0
38685.819,-21.973,-16.602,-24.902,-20.508,0.000,0
38685.823,-32.227,-41.992,-27.832,-30.273,0.000,0
38685.827,-41.504,-64.453,-26.855,-44.922,0.000,0
38685.831,-39.551,-68.848,-26.855,-43.945,0.000,0
38685.835,-39.062,-66.406,-28.809,-42.969,0.000,0
38685.839,-53.223,-77.148,-25.391,-53.223,0.000,0
38685.843,-41.992,-76.172,-36.133,-45.410,0.000,0
38685.847,-37.109,-97.656,-37.598,-47.852,0.000,0
38685.851,-58.594,-105.957,-36.133,-69.824,0.000,0
38685.855,-54.688,-98.633,-36.621,-65.430,0.000,0
38685.858,-44.922,-108.887,-32.227,-46.875,0.000,0
38685.862,-50.293,-108.398,-32.715,-45.410,0.000,0
38685.866,-61.035,-123.047,-28.320,-56.641,0.000,0
38685.870,-51.270,-126.953,-29.785,-48.340,0.000,0
38685.874,-50.293,-107.422,-39.062,-42.969,0.000,0
38685.878,-56.152,-106.934,-30.273,-49.805,0.000,0
38685.882,-40.039,-106.934,-21.973,-41.504,0.000,0
38685.886,-40.527,-126.465,-29.297,-45.410,0.000,0
38685.890,-42.480,-128.418,-32.227,-47.363,0.000,0
38685.894,-41.016,-108.398,-25.391,-40.527,0.000,0
38685.897,-42.480,-116.211,-27.344,-47.363,0.000,0
38685.901,-45.898,-133.789,-35.156,-50.781,0.000,0
38685.905,-52.734,-126.465,-36.133,-54.199,0.000,0
38685.909,-50.781,-120.117,-39.062,-55.664,0.000,0
38685.913,-48.828,-119.629,-36.133,-51.758,0.000,0
38685.917,-45.410,-116.211,-37.109,-54.688,0.000,0
38685.921,-47.363,-121.094,-41.992,-48.828,0.000,0
38685.925,-46.875,-126.465,-39.062,-42.969,0.000,0
38685.929,-41.504,-122.559,-32.227,-39.551,0.000,0
38685.933,-44.434,-89.355,-41.016,-39.062,0.000,0
38685.937,-41.992,-69.336,-46.875,-40.527,0.000,0
38685.940,-51.758,-83.984,-42.969,-41.992,0.000,0
38685.944,-57.129,-105.469,-43.457,-52.734,0.000,0
38685.948,-49.316,-104.492,-40.527,-62.012,0.000,0
38685.952,-37.598,-88.867,-37.598,-48.340,0.000,0
38685.956,-37.598,-97.168,-35.645,-39.062,0.000,0
38685.960,-47.363,-95.703,-37.109,-39.062,0.000,0
38685.964,-47.363,-93.262,-41.504,-48.340,0.000,0
38685.968,-41.016,-93.262,-33.691,-51.758,0.000,0
38685.972,-40.527,-82.031,-32.227,-39.551,0.000,0
38685.976,-49.316,-78.125,-38.086,-40.527,0.000,0
38685.980,-38.574,-63.965,-35.645,-33.203,0.000,0
38685.983,-30.762,-64.453,-31.250,-28.809,0.000,0
38685.987,-40.527,-83.496,-20.996,-39.062,0.000,0
38685.991,-38.574,-67.383,-28.809,-40.039,0.000,0
38685.995,-35.645,-49.805,-44.434,-38.086,0.000,0
38685.999,-40.527,-60.059,-39.551,-36.621,0.000,0
38686.003,-35.645,-93.750,-31.250,-38.574,0.000,0
38686.007,-24.414,-87.891,-28.320,-28.320,0.000,0
38686.011,-20.020,-41.504,-36.621,-25.391,0.000,1
38686.015,-22.949,-46.387,-29.785,-36.621,0.000,0
38686.019,-30.762,-61.035,-20.020,-35.645,0.000,0
38686.022,-32.715,-45.410,-31.250,-35.645,0.000,0
38686.026,-30.762,-28.809,-36.621,-41.992,0.000,0
38686.030,-20.996,-39.062,-23.926,-38.574,0.000,0
38686.034,-22.461,-60.059,-21.484,-32.715,0.000,0
38686.038,-34.668,-45.898,-31.250,-32.715,0.000,0
38686.042,-30.273,-33.691,-33.691,-29.297,0.000,0
38686.046,-27.832,-43.457,-32.715,-23.926,0.000,0
38686.050,-28.320,-29.785,-33.691,-36.133,0.000,0
38686.054,-30.273,-18.555,-38.086,-43.945,0.000,0
38686.058,-31.738,-32.227,-41.992,-43.945,0.000,0
38686.062,-31.250,-46.875,-32.227,-36.621,0.000,0
38686.065,-27.832,-50.781,-24.902,-28.320,0.000,0
38686.069,-27.344,-24.902,-34.668,-26.367,0.000,0
38686.073,-35.156,-28.320,-35.156,-24.414,0.000,0
38686.077,-27.832,-37.109,-26.367,-23.926,0.000,0
38686.081,-28.809,-31.250,-27.344,-32.715,0.000,0
38686.085,-35.156,-34.668,-28.809,-45.410,0.000,0
38686.089,-27.344,-29.785,-24.902,-41.016,0.000,0
38686.093,-20.508,-27.832,-27.344,-41.992,0.000,0
38686.097,-29.297,-18.555,-41.016,-37.109,0.000,0
38686.101,-27.344,-43.457,-36.621,-32.227,0.000,0
38686.105,-26.855,-45.410,-37.598,-32.227,0.000,0
38686.108,-30.762,-15.137,-46.387,-19.531,0.000,0
38686.112,-27.344,-18.066,-36.133,-23.926,0.000,0
38686.116,-22.949,-18.555,-26.367,-25.879,0.000,0
38686.120,-26.855,-29.297,-28.320,-28.320,0.000,0
38686.124,-30.273,-22.461,-38.086,-37.598,0.000,0
38686.128,-24.902,-15.137,-41.992,-34.668,0.000,0
38686.132,-40.527,-28.320,-41.504,-33.691,0.000,0
38686.136,-38.574,-15.625,-43.945,-30.273,0.000,0
38686.140,-17.578,-20.508,-43.457,-38.574,0.000,0
38686.144,-25.879,-31.738,-41.992,-41.016,0.000,0
38686.147,-25.879,-32.227,-37.598,-29.785,0.000,0
38686.151,-22.461,-45.898,-37.598,-30.762,0.000,0
38686.155,-32.227,-32.715,-38.086,-29.785,0.000,0
38686.159,-27.344,-43.457,-30.762,-28.809,0.000,0
38686.163,-27.832,-57.617,-32.715,-23.926,0.000,0
38686.167,-36.133,-33.203,-36.133,-25.391,0.000,0
38686.171,-24.902,-23.438,-34.180,-34.180,0.000,0
38686.175,-22.949,-31.250,-38.574,-34.668,0.000,0
38686.179,-38.086,-56.641,-38.086,-42.480,0.000,0
38686.183,-31.250,-50.781,-36.621,-31.738,0.000,0
38686.187,-20.508,-28.320,-34.180,-20.508,0.000,0
38686.190,-30.762,-38.086,-31.738,-24.902,0.000,0
38686.194,-32.227,-36.621,-37.109,-26.367,0.000,0
38686.198,-18.555,-45.898,-29.297,-30.273,0.000,0
38686.202,-19.043,-43.457,-24.414,-26.855,0.000,0
38686.206,-31.738,-40.527,-28.320,-24.902,0.000,0
38686.210,-32.715,-49.316,-21.973,-21.973,0.000,0
38686.214,-18.066,-21.973,-24.414,-18.555,0.000,0
38686.218,-35.156,-40.527,-28.320,-29.297,0.000,0
38686.222,-46.387,-57.617,-23.438,-33.691,0.000,0
38686.226,-32.227,-41.504,-26.855,-32.227,0.000,0
38686.230,-28.320,-28.320,-33.203,-27.832,0.000,0
38686.233,-15.625,-12.207,-29.785,-20.508,0.000,0
38686.237,-17.090,-30.762,-20.020,-16.113,0.000,0
38686.241,-23.438,-44.434,-16.113,-20.508,0.000,0
38686.245,-21.484,-21.973,-23.438,-20.020,0.000,0
38686.249,-25.391,-23.926,-25.879,-22.949,0.000,0
38686.253,-33.203,-31.738,-30.273,-28.320,0.000,0
38686.257,-27.344,-29.297,-30.273,-24.414,0.000,0
38686.261,-8.301,-13.184,-23.926,-17.090,0.000,0
38686.265,-9.766,-8.301,-23.926,-15.137,0.000,0
38686.269,-29.297,-39.551,-21.973,-16.602,0.000,0
38686.272,-31.738,-37.598,-23.438,-13.184,0.000,0
38686.276,-27.832,-30.273,-21.973,-20.508,0.000,0
38686.280,-17.090,-39.062,-16.113,-25.879,0.000,0
38686.284,-12.695,-18.555,-18.066,-12.695,0.000,0
38686.288,-17.090,-6.348,-21.484,-11.719,0.000,0
38686.292,-17.090,-12.695,-20.020,-17.090,0.000,0
38686.296,-19.531,-24.902,-15.625,-3.906,0.000,0
38686.300,-13.184,-36.621,-8.301,-1.953,0.000,0
38686.304,-6.348,-14.648,-13.184,-10.742,0.000,0
38686.308,-13.184,-10.742,-21.973,-10.742,0.000,0
38686.312,-28.809,-43.945,-18.555,-2.930,0.000,0
38686.315,-26.367,-40.527,-18.066,-4.395,0.000,0
38686.319,-5.859,-28.320,-17.090,-7.324,0.000,0
38686.323,4.395,-21.484,-11.230,1.953,0.000,0
38686.327,-8.301,-18.555,-10.742,3.418,0.000,0
38686.331,-13.672,-24.414,-14.648,-5.859,0.000,0
38686.335,-4.883,-24.902,-15.137,-10.254,0.000,0
38686.339,-18.066,-35.645,-16.602,-16.602,0.000,0
38686.343,-14.648,-36.133,-20.996,-15.625,0.000,0
38686.347,-2.441,-32.227,-20.508,-7.812,0.000,0
38686.351,-16.602,-29.297,-24.902,-10.742,0.000,0
38686.355,-16.602,-23.438,-24.414,-15.137,0.000,0
38686.358,-12.695,-46.875,-16.113,-9.766,0.000,0
38686.362,-1.465,-36.133,-20.996,-4.883,0.000,0
38686.366,14.160,-22.949,-26.855,-5.859,0.000,0
38686.370,-9.277,-27.344,-26.367,-10.742,0.000,0
38686.374,-16.602,-28.809,-28.320,-7.812,0.000,0
38686.378,5.859,-31.250,-27.832,-2.441,0.000,0
38686.382,1.953,-24.414,-27.832,-9.766,0.000,0
38686.386,2.441,-24.902,-26.367,3.906,0.000,0
38686.390,10.742,-20.996,-21.973,19.531,0.000,0
38686.394,2.930,-18.555,-27.832,5.859,0.000,0
38686.397,0.977,-20.996,-30.762,-7.812,0.000,0
38686.401,-0.977,-16.113,-19.043,-11.230,0.000,0
38686.405,-13.184,-12.695,-16.113,-10.254,0.000,0
38686.409,-18.555,-14.648,-20.020,-12.695,0.000,0
38686.413,-10.742,-20.020,-15.625,-6.836,0.000,0
38686.417,-11.719,-22.461,-17.578,-12.695,0.000,0
38686.421,-22.949,-9.277,-20.996,-15.137,0.000,0
38686.425,-20.020,-1.953,-19.043,-3.906,0.000,0
38686.429,-20.996,-11.719,-22.949,-14.160,0.000,0
38686.433,-27.832,-15.137,-22.461,-18.555,0.000,0
38686.437,-17.578,-24.414,-11.719,-4.883,0.000,0
38686.440,-9.766,-20.996,-19.531,-13.184,0.000,0
38686.444,-21.484,-15.137,-27.344,-15.137,0.000,0
38686.448,-28.809,-18.066,-16.113,-6.836,0.000,0
38686.452,-16.113,-14.648,-19.531,-13.672,0.000,0
38686.456,-16.113,-29.785,-24.414,-19.043,0.000,0
38686.460,-18.555,-29.785,-20.996,-8.789,0.000,0
38686.464,-18.066,-17.090,-21.484,-6.348,0.000,0
38686.468,-23.438,-20.996,-24.902,-15.137,0.000,0
38686.472,-21.973,-21.973,-22.949,-16.113,0.000,0
38686.476,-20.508,-38.574,-14.160,-16.602,0.000,0
38686.480,-8.789,-33.691,-17.578,-10.742,0.000,0
38686.483,-10.254,-9.766,-23.926,-11.719,0.000,0
38686.487,-28.809,-14.648,-25.391,-17.090,0.000,0
38686.491,-33.691,-8.789,-30.273,-12.207,0.000,0
38686.495,-19.043,-14.160,-22.461,-15.625,0.000,0
38686.499,-12.207,-4.883,-22.949,-20.020,0.000,0
38686.503,-15.625,8.789,-24.414,-19.043,0.000,0
38686.507,-6.836,9.766,-14.160,-10.742,0.000,0
38686.511,0.488,19.043,-8.789,-0.977,0.000,0
38686.515,-6.348,10.254,-10.254,-8.789,0.000,0
38686.519,-12.207,13.184,-13.672,-8.301,0.000,0
38686.522,-5.371,15.625,-16.113,-5.371,0.000,0
38686.526,0.977,16.602,-19.043,-7.324,0.000,0
38686.530,-2.441,19.531,-18.555,-10.254,0.000,0
38686.534,-12.695,4.883,-6.348,-4.883,0.000,0
38686.538,-16.113,10.254,-8.789,-2.930,0.000,0
38686.542,-12.207,18.066,-15.137,-9.766,0.000,0
38686.546,-8.789,14.648,-16.113,-9.277,0.000,0
38686.550,-11.719,8.301,-16.602,-11.230,0.000,0
38686.554,-15.625,-11.230,-17.090,-23.926,0.000,0
38686.558,-7.324,14.160,-20.508,-20.996,0.000,0
38686.562,-9.277,25.391,-22.949,-10.742,0.000,0
38686.565,-5.859,3.418,-21.973,-10.742,0.000,0
38686.569,-5.371,4.883,-19.531,-11.230,0.000,0
38686.573,-18.066,-19.043,-16.602,-19.531,0.000,0
38686.577,-18.066,-16.602,-18.066,-19.043,0.000,0
38686.581,-14.160,3.906,-21.973,-11.719,0.000,0
38686.585,-20.508,6.836,-26.855,-12.207,0.000,0
38686.589,-20.508,7.812,-29.785,-16.602,0.000,0
38686.593,-10.254,-1.953,-15.137,-17.090,0.000,0
38686.597,-11.230,-13.184,-10.254,-16.602,0.000,0
38686.601,-21.973,-10.742,-24.902,-18.555,0.000,0
38686.605,-22.949,-5.859,-34.180,-26.367,0.000,0
38686.608,-21.973,-5.371,-35.645,-28.809,0.000,0
38686.612,-16.602,-20.020,-22.461,-27.344,0.000,0
38686.616,-14.648,-17.090,-14.648,-23.438,0.000,0
38686.620,-20.996,15.137,-25.391,-29.297,0.000,0
38686.624,-17.578,4.395,-29.785,-20.020,0.000,0
38686.628,-15.137,-5.859,-24.902,-10.254,0.000,0
38686.632,-20.996,-1.465,-25.879,-16.602,0.000,0
38686.636,-11.230,-4.883,-24.414,-14.648,0.000,0
38686.640,-6.348,-4.883,-22.461,-13.184,0.000,0
38686.644,-22.461,-14.160,-23.438,-15.137,0.000,0
38686.647,-21.973,-16.602,-26.367,-14.160,0.000,0
38686.651,-10.742,-20.020,-20.020,-17.090,0.000,0
38686.655,-20.020,-19.043,-12.695,-19.043,0.000,0
38686.659,-25.879,-8.789,-20.508,-24.414,0.000,0
38686.663,-26.855,-11.230,-30.273,-26.367,0.000,0
38686.667,-22.949,-19.531,-29.297,-31.250,0.000,0
38686.671,-25.879,-31.738,-23.438,-30.762,0.000,0
38686.675,-25.391,-24.414,-23.926,-29.297,0.000,1
38686.679,-24.414,-6.836,-29.297,-32.227,0.000,0
38686.683,-29.297,-14.160,-20.020,-24.902,0.000,0
38686.687,-15.137,-32.715,-17.090,-16.113,0.000,0
38686.690,-20.996,-41.992,-22.461,-29.785,0.000,0
38686.694,-31.250,-30.762,-24.414,-37.109,0.000,0
38686.698,-23.438,-33.203,-24.902,-24.414,0.000,0
38686.702,-24.414,-37.598,-20.996,-17.090,0.000,0
38686.706,-24.902,-25.391,-26.855,-24.414,0.000,0
38686.710,-25.391,-35.156,-27.832,-33.691,0.000,0
38686.714,-31.250,-49.805,-21.484,-31.738,0.000,0
38686.718,-35.645,-36.133,-33.691,-30.273,0.000,0
38686.722,-41.016,-30.762,-41.992,-32.715,0.000,0
38686.726,-37.598,-36.621,-40.527,-35.645,0.000,0
38686.730,-33.203,-50.293,-32.227,-31.250,0.000,0
38686.733,-36.133,-47.363,-24.902,-32.715,0.000,0
38686.737,-37.598,-32.715,-33.203,-40.039,0.000,0
38686.741,-36.133,-38.574,-36.133,-36.133,0.000,0
38686.745,-35.156,-37.109,-34.180,-32.715,0.000,0
38686.749,-35.645,-41.016,-36.621,-41.016,0.000,0
38686.753,-34.180,-31.250,-36.621,-40.039,0.000,0
38686.757,-29.297,-19.531,-30.762,-30.762,0.000,0
38686.761,-25.879,-22.461,-29.785,-31.250,0.000,0
38686.765,-29.785,-14.160,-32.227,-31.250,0.000,0
38686.769,-26.855,-23.438,-24.414,-30.762,0.000,0
38686.772,-36.133,-27.344,-19.043,-26.367,0.000,0
38686.776,-30.273,-19.531,-21.973,-14.160,0.000,0
38686.780,-20.020,-25.879,-31.738,-19.531,0.000,0
38686.784,-30.762,-27.832,-29.785,-25.391,0.000,0
38686.788,-29.785,-41.016,-21.484,-23.926,0.000,0
38686.792,-21.973,-33.691,-22.461,-25.879,0.000,0
38686.796,-22.461,-16.602,-24.902,-29.297,0.000,0
38686.800,-20.996,-24.902,-24.414,-24.902,0.000,0
38686.804,-14.648,-22.949,-31.738,-16.602,0.000,0
38686.808,-19.043,-32.227,-29.785,-17.090,0.000,0
38686.812,-22.949,-33.203,-23.438,-17.578,0.000,0
38686.815,-25.879,-13.672,-31.250,-17.090,0.000,0
38686.819,-25.391,-30.762,-20.996,-14.648,0.000,0
38686.823,-11.719,-23.438,-22.949,-18.066,0.000,0
38686.827,-23.438,-24.414,-34.180,-33.203,0.000,0
38686.831,-34.668,-27.344,-24.902,-37.109,0.000,0
38686.835,-18.555,-8.301,-23.438,-20.020,0.000,0
38686.839,-16.602,-18.066,-31.250,-7.324,0.000,0
38686.843,-27.832,-13.184,-34.668,-15.625,0.000,0
38686.847,-24.414,-26.367,-20.508,-19.531,0.000,0
38686.851,-21.973,-31.250,-13.672,-22.949,0.000,0
38686.855,-26.367,-17.090,-28.320,-25.879,0.000,0
38686.858,-27.832,-27.344,-24.902,-21.973,0.000,0
38686.862,-26.855,-24.902,-20.996,-16.602,0.000,0
38686.866,-20.508,-36.621,-20.508,-20.996,0.000,0
38686.870,-20.996,-38.086,-20.996,-24.414,0.000,0
38686.874,-29.297,-10.254,-34.180,-20.020,0.000,0
38686.878,-30.762,-18.555,-37.598,-25.879,0.000,0
38686.882,-28.809,-23.926,-33.203,-25.879,0.000,0
38686.886,-32.715,-31.738,-29.785,-24.902,0.000,0
38686.890,-39.551,-44.434,-29.785,-33.691,0.000,0
38686.894,-31.738,-34.668,-40.039,-30.762,0.000,0
38686.897,-22.949,-33.203,-39.551,-24.414,0.000,0
38686.901,-20.020,-25.879,-31.738,-16.602,0.000,0
38686.905,-14.160,-28.320,-33.203,-14.160,0.000,0
38686.909,-22.949,-35.156,-31.738,-28.320,0.000,0
38686.913,-32.715,-24.902,-35.645,-27.344,0.000,0
38686.917,-31.738,-18.555,-46.387,-24.902,0.000,0
38686.921,-26.855,-38.574,-44.434,-28.809,0.000,0
38686.925,-26.367,-51.270,-33.203,-29.785,0.000,0
38686.929,-27.344,-51.270,-32.715,-30.762,0.000,0
38686.933,-17.578,-24.414,-30.273,-19.531,0.000,0
38686.937,-18.555,-16.602,-20.508,-14.160,0.000,0
38686.940,-12.695,-28.809,-21.973,-15.137,0.000,0
38686.944,-12.695,-27.832,-26.855,-20.508,0.000,0
38686.948,-20.020,-38.574,-26.367,-26.855,0.000,0
38686.952,-12.695,-35.156,-31.738,-20.508,0.000,0
38686.956,-8.789,-42.969,-34.180,-11.230,0.000,0
38686.960,-8.301,-33.691,-36.133,-17.090,0.000,0
38686.964,-1.465,-23.926,-38.086,-17.090,0.000,0
38686.968,-7.324,-55.176,-30.273,-18.555,0.000,0
38686.972,-12.695,-54.688,-23.438,-22.461,0.000,0
38686.976,-9.766,-40.039,-25.391,-15.137,0.000,0
38686.980,-5.859,-35.645,-24.414,-9.766,0.000,0
38686.983,-9.766,-34.180,-24.902,-16.113,0.000,0
38686.987,-24.414,-54.199,-20.996,-18.066,0.000,0
38686.991,-19.043,-45.898,-25.879,-12.207,0.000,0
38686.995,-33.203,-29.785,-32.227,-31.250,0.000,0
38686.999,-47.852,-46.387,-36.133,-39.551,0.000,0
38687.003,-38.574,-60.547,-34.668,-28.320,0.000,0
38687.007,-19.531,-41.992,-22.949,-22.461,0.000,0
38687.011,-15.137,-25.391,-25.391,-23.926,0.000,0
38687.015,-18.066,-42.969,-21.484,-13.672,0.000,0
38687.019,-10.254,-38.086,-19.531,-5.859,0.000,0
38687.022,-13.672,-43.945,-27.344,-22.949,0.000,0
38687.026,-33.691,-60.059,-26.367,-22.461,0.000,0
38687.030,-41.992,-36.621,-26.367,-15.625,0.000,0
38687.034,-28.809,-26.855,-27.832,-21.973,0.000,0
38687.038,-27.344,-36.621,-29.297,-21.484,0.000,0
38687.042,-23.438,-40.039,-31.250,-16.602,0.000,0
38687.046,-13.184,-40.039,-27.832,-13.184,0.000,0
38687.050,-26.855,-34.180,-25.879,-13.672,0.000,0
38687.054,-22.461,-28.809,-30.762,-21.484,0.000,0
38687.058,-17.578,-34.668,-27.832,-19.043,0.000,0
38687.062,-28.320,-34.668,-20.996,-16.113,0.000,0
38687.065,-26.367,-33.203,-22.949,-21.484,0.000,0
38687.069,-18.555,-34.668,-29.297,-23.438,0.000,0
38687.073,-8.789,-35.645,-31.250,-13.184,0.000,0
38687.077,-10.254,-32.227,-26.367,-7.812,0.000,0
38687.081,-12.207,-28.809,-28.320,-10.254,0.000,0
38687.085,-14.160,-34.668,-24.902,-9.766,0.000,0
38687.089,-14.648,-30.762,-22.461,-4.883,0.000,0
38687.093,-8.301,-24.414,-25.391,-5.859,0.000,0
38687.097,-15.625,-26.367,-24.414,-11.719,0.000,0
38687.101,-20.996,-30.273,-27.832,-11.719,0.000,0
38687.105,-16.602,-40.039,-23.926,-13.184,0.000,0
38687.108,-15.625,-28.809,-23.926,-8.301,0.000,0
38687.112,-19.531,-4.883,-27.832,-12.695,0.000,0
38687.116,-6.348,-9.766,-24.902,-9.277,0.000,0
38687.120,-5.371,-31.738,-14.160,-0.488,0.000,0
38687.124,-17.578,-55.664,-11.230,-21.973,0.000,0
38687.128,-8.301,-21.973,-20.996,-8.789,0.000,0
38687.132,-1.465,-12.207,-25.879,-3.906,0.000,0
38687.136,-20.508,-37.109,-25.879,-17.090,0.000,0
38687.140,-28.809,-39.062,-27.344,-15.625,0.000,0
38687.144,-24.414,-39.551,-24.902,-17.578,0.000,0
38687.147,-26.855,-31.250,-19.043,-21.973,0.000,0
38687.151,-23.438,-27.832,-19.531,-25.391,0.000,0
38687.155,-8.789,-24.902,-26.855,-19.531,0.000,0
38687.159,-9.766,-30.273,-27.344,-20.996,0.000,0
38687.163,-17.578,-49.316,-26.367,-33.691,0.000,0
38687.167,-13.672,-25.879,-26.855,-30.273,0.000,0
38687.171,-23.926,-0.977,-25.391,-28.809,0.000,0
38687.175,-27.344,-11.230,-20.020,-20.508,0.000,0
38687.179,-16.113,-25.879,-13.184,-14.160,0.000,0
38687.183,-21.973,-39.062,-13.184,-20.508,0.000,0
38687.187,-19.043,-23.926,-15.625,-21.484,0.000,0
38687.190,-11.230,-13.184,-12.695,-7.812,0.000,0
38687.194,-20.020,-11.719,-13.672,3.418,0.000,0
38687.198,-18.066,-14.648,-28.320,-4.395,0.000,0
38687.202,-15.137,-32.715,-20.996,-6.348,0.000,0
38687.206,-18.066,-20.996,-16.113,-4.883,0.000,0
38687.210,-10.254,-11.230,-18.555,-6.348,0.000,0
38687.214,-12.207,-9.277,-24.902,-7.812,0.000,1
38687.218,-25.879,-23.926,-28.809,-21.973,0.000,0
38687.222,-21.484,-35.156,-23.438,-28.320,0.000,0
38687.226,-15.625,-27.344,-28.809,-22.949,0.000,0
38687.230,-28.320,-33.691,-30.762,-20.508,0.000,0
38687.233,-29.785,-20.996,-30.273,-19.043,0.000,0
38687.237,-20.508,-37.598,-23.926,-21.484,0.000,0
38687.241,-20.996,-35.645,-20.020,-20.508,0.000,0
38687.245,-27.344,-10.254,-26.367,-24.902,0.000,0
38687.249,-25.391,-26.367,-19.531,-24.414,0.000,0
38687.253,-16.602,-37.598,-13.672,-19.531,0.000,0
38687.257,-15.137,-27.344,-20.996,-23.926,0.000,0
38687.261,-19.531,-24.902,-15.137,-21.973,0.000,0
38687.265,-20.508,-11.230,-14.648,-14.648,0.000,0
38687.269,-7.324,-9.277,-13.672,-14.160,0.000,0
38687.272,-15.137,-10.254,-20.508,-19.531,0.000,0
38687.276,-21.973,-14.160,-23.926,-13.184,0.000,0
38687.280,-11.230,-21.973,-18.555,-22.949,0.000,0
38687.284,-14.648,-12.207,-25.391,-31.250,0.000,0
38687.288,-14.648,-10.254,-32.227,-25.879,0.000,0
38687.292,-8.301,-8.301,-33.691,-22.461,0.000,0
38687.296,-18.555,-18.066,-27.344,-19.531,0.000,0
38687.300,-24.902,-25.879,-25.391,-20.508,0.000,0
38687.304,-9.766,-13.672,-26.367,-19.531,0.000,0
38687.308,-12.207,-18.555,-26.367,-19.043,0.000,0
38687.312,-20.020,-23.926,-28.809,-21.484,0.000,0
38687.315,-12.207,-22.461,-27.832,-23.438,0.000,0
38687.319,-11.719,-23.438,-21.973,-20.996,0.000,0
38687.323,-6.836,-15.137,-13.184,-12.207,0.000,0
38687.327,-16.113,-18.555,-16.113,-7.812,0.000,0
38687.331,-23.438,-24.902,-33.203,-12.207,0.000,0
38687.335,-19.531,-20.508,-34.180,-14.160,0.000,0
38687.339,-19.531,-24.902,-29.297,-9.277,0.000,0
38687.343,-19.531,-20.020,-30.762,-10.254,0.000,0
38687.347,-14.160,-10.254,-31.738,-23.438,0.000,0
38687.351,-19.043,-15.625,-27.344,-26.855,0.000,0
38687.355,-27.832,-21.973,-21.973,-20.996,0.000,0
38687.358,-19.531,-25.879,-19.531,-17.578,0.000,0
38687.362,-15.625,-23.438,-22.949,-19.043,0.000,0
38687.366,-19.531,-24.902,-27.344,-19.043,0.000,0
38687.370,-18.555,-25.879,-27.344,-12.207,0.000,0
38687.374,-11.719,-18.066,-27.832,-16.602,0.000,0
38687.378,-12.207,-14.160,-20.508,-17.578,0.000,0
38687.382,-14.648,-15.625,-16.113,-18.555,0.000,0
38687.386,-16.602,-12.207,-13.672,-22.949,0.000,0
38687.390,-18.066,-13.184,-22.461,-21.973,0.000,0
38687.394,-17.578,-18.066,-31.738,-18.066,0.000,0
38687.397,-23.926,-27.344,-25.879,-20.996,0.000,0
38687.401,-28.809,-24.414,-23.438,-23.438,0.000,0
38687.405,-23.438,-12.695,-29.785,-16.113,0.000,0
38687.409,-24.902,-8.789,-29.785,-9.766,0.000,0
38687.413,-32.227,-24.902,-27.832,-24.414,0.000,0
38687.417,-31.250,-42.480,-26.855,-31.738,0.000,0
38687.421,-25.879,-30.762,-28.320,-31.250,0.000,0
38687.425,-27.832,-16.113,-30.273,-40.039,0.000,0
38687.429,-36.133,-19.043,-22.461,-29.297,0.000,0
38687.433,-24.414,-14.648,-21.484,-11.719,0.000,0
38687.437,-21.484,-31.250,-23.438,-22.949,0.000,0
38687.440,-33.203,-20.996,-23.926,-24.414,0.000,0
38687.444,-39.551,2.930,-28.809,-20.020,0.000,0
38687.448,-32.227,-7.812,-26.367,-26.855,0.000,0
38687.452,-18.555,-1.953,-27.832,-23.926,0.000,0
38687.456,-12.695,-23.926,-23.926,-20.508,0.000,0
38687.460,-19.043,-27.832,-31.738,-24.902,0.000,0
38687.464,-19.043,-8.301,-37.598,-23.926,0.000,0
38687.468,-12.207,-18.066,-28.320,-13.184,0.000,0
38687.472,-19.043,-30.273,-24.902,-10.742,0.000,0
38687.476,-20.996,-45.410,-25.391,-13.184,0.000,0
38687.480,-14.160,-42.969,-26.367,-15.625,0.000,0
38687.483,-28.809,-23.438,-32.715,-19.531,0.000,0
38687.487,-29.297,-26.855,-32.227,-19.531,0.000,0
38687.491,-12.207,-21.484,-26.367,-15.137,0.000,0
38687.495,-17.578,-30.273,-25.879,-20.020,0.000,0
38687.499,-20.508,-31.250,-24.902,-24.414,0.000,0
38687.503,-14.648,-15.625,-23.926,-10.254,0.000,0
38687.507,-14.648,-25.391,-29.297,-14.648,0.000,0
38687.511,-14.160,-25.391,-29.297,-18.555,0.000,0
38687.515,-20.508,-39.062,-17.578,-13.184,0.000,0
38687.519,-29.785,-45.410,-19.043,-12.695,0.000,0
38687.522,-23.926,-23.438,-25.879,-6.836,0.000,0
38687.526,-6.348,-8.789,-21.973,-5.371,0.000,0
38687.530,0.488,10.742,-27.832,-1.953,0.000,0
38687.534,1.465,-17.090,-24.414,-1.953,0.000,0
38687.538,1.465,-51.758,-14.160,-7.324,0.000,0
38687.542,-2.441,-19.531,-30.273,-4.883,0.000,0
38687.546,-12.207,-5.371,-40.527,-10.254,0.000,0
38687.550,-18.066,-22.949,-38.086,-16.113,0.000,0
38687.554,-34.180,-38.086,-32.715,-23.926,0.000,0
38687.558,-28.320,-33.203,-27.832,-33.203,0.000,0
38687.562,-20.508,-17.090,-26.367,-25.879,0.000,0
38687.565,-25.879,-19.531,-20.508,-17.090,0.000,0
38687.569,-22.461,-8.301,-29.297,-23.438,0.000,0
38687.573,-23.926,-10.254,-37.598,-29.297,0.000,0
38687.577,-25.391,-32.715,-32.227,-25.879,0.000,0
38687.581,-20.020,-30.762,-27.832,-18.066,0.000,0
38687.585,-26.367,-22.949,-25.879,-21.484,0.000,0
38687.589,-37.109,-24.902,-33.691,-28.809,0.000,0
38687.593,-41.016,-39.062,-36.621,-34.668,0.000,0
38687.597,-47.363,-41.504,-29.785,-33.691,0.000,0
38687.601,-37.598,-21.484,-31.738,-27.832,0.000,0
38687.605,-31.250,-24.902,-34.180,-38.574,0.000,0
38687.608,-35.645,-24.902,-26.367,-34.668,0.000,0
38687.612,-26.855,-26.855,-27.832,-24.902,0.000,0
38687.616,-33.691,-25.391,-42.480,-35.645,0.000,0
38687.620,-32.715,-20.020,-44.434,-32.715,0.000,0
38687.624,-25.391,-38.574,-30.762,-23.438,0.000,0
38687.628,-34.180,-38.086,-34.180,-24.902,0.000,0
38687.632,-31.250,-33.691,-33.691,-29.785,0.000,0
38687.636,-25.879,-36.133,-25.879,-29.785,0.000,0
38687.640,-26.367,-34.668,-25.391,-27.344,0.000,0
38687.644,-17.578,-10.254,-35.156,-26.367,0.000,0
38687.647,-13.672,-6.836,-41.016,-29.297,0.000,0
38687.651,-25.879,-31.250,-36.621,-35.645,0.000,0
38687.655,-33.691,-45.410,-32.715,-35.645,0.000,0
38687.659,-25.879,-31.250,-28.320,-24.902,0.000,0
38687.663,-18.555,-19.531,-31.250,-22.461,0.000,0
38687.667,-17.578,-26.367,-25.391,-19.531,0.000,0
38687.671,-14.648,-38.574,-16.602,-13.184,0.000,0
38687.675,-18.555,-31.738,-21.973,-24.414,0.000,0
38687.679,-30.762,-27.344,-24.414,-37.109,0.000,0
38687.683,-23.438,-30.762,-19.043,-23.926,0.000,0
38687.687,-10.742,-22.949,-19.043,-19.043,0.000,0
38687.690,-28.809,-28.809,-26.855,-32.227,0.000,0
38687.694,-30.762,-35.156,-31.738,-21.973,0.000,0
38687.698,-22.949,-33.691,-35.645,-19.531,0.000,0
38687.702,-36.133,-37.598,-33.203,-33.203,0.000,0
38687.706,-39.062,-32.715,-30.762,-29.297,0.000,0
38687.710,-33.691,-31.250,-25.879,-23.438,0.000,0
38687.714,-29.785,-31.738,-16.113,-28.320,0.000,0
38687.718,-29.785,-15.137,-20.508,-20.996,0.000,0
38687.722,-33.203,-11.230,-20.508,-17.090,0.000,0
38687.726,-34.668,-16.602,-20.996,-27.344,0.000,0
38687.730,-35.156,-23.438,-24.414,-31.250,0.000,0
38687.733,-24.902,-22.461,-27.832,-28.320,0.000,0
38687.737,-16.602,-16.113,-31.250,-26.855,0.000,0
38687.741,-18.555,-44.434,-27.832,-31.250,0.000,0
38687.745,-22.461,-24.414,-33.203,-24.902,0.000,0
38687.749,-32.227,-13.184,-38.086,-25.391,0.000,0
38687.753,-29.297,-46.387,-27.344,-32.227,0.000,0
38687.757,-25.391,-41.016,-20.020,-24.902,0.000,0
38687.761,-20.020,-33.203,-29.297,-17.578,0.000,0
38687.765,-8.789,-28.320,-31.250,-15.137,0.000,0
38687.769,-7.324,-34.180,-25.391,-18.555,0.000,0
38687.772,-14.648,-49.805,-20.996,-22.949,0.000,0
38687.776,-8.789,-33.203,-26.855,-23.926,0.000,0
38687.780,-2.930,-33.203,-31.250,-19.531,0.000,0
38687.784,-18.555,-33.203,-28.320,-18.555,0.000,0
38687.788,-27.832,-36.621,-25.391,-25.879,0.000,0
38687.792,-21.484,-48.340,-26.855,-24.902,0.000,0
38687.796,-17.090,-23.438,-29.297,-12.695,0.000,0
38687.800,-29.297,-20.508,-26.855,-21.973,0.000,1
38687.804,-32.715,-18.066,-27.344,-21.973,0.000,0
38687.808,-27.832,-12.695,-22.949,-20.996,0.000,0
38687.812,-30.762,-26.367,-19.043,-27.832,0.000,0
38687.815,-31.250,-17.090,-23.438,-20.020,0.000,0
38687.819,-24.414,-23.926,-25.391,-14.160,0.000,0
38687.823,-22.949,-18.555,-23.926,-10.254,0.000,0
38687.827,-27.832,-14.160,-29.297,-18.066,0.000,0
38687.831,-18.066,-43.945,-32.715,-8.301,0.000,0
38687.835,-15.625,-32.715,-29.297,0.000,0.000,0
38687.839,-25.879,-14.160,-21.484,-20.508,0.000,0
38687.843,-20.508,-31.250,-17.090,-23.438,0.000,0
38687.847,-19.531,-22.949,-18.555,-12.207,0.000,0
38687.851,-26.855,-30.273,-20.996,-18.066,0.000,0
38687.855,-17.090,-25.879,-29.297,-18.555,0.000,0
38687.858,-8.301,-14.160,-24.902,-0.488,0.000,0
38687.862,-10.254,-20.020,-16.113,-5.859,0.000,0
38687.866,-8.301,-16.602,-19.043,-18.066,0.000,0
38687.870,0.000,-28.809,-18.066,-12.695,0.000,0
38687.874,-11.230,-25.879,-20.996,-6.836,0.000,0
38687.878,-13.672,-19.531,-26.367,-8.789,0.000,0
38687.882,-2.441,-17.090,-22.461,-7.812,0.000,0
38687.886,-11.230,-18.555,-19.043,-12.207,0.000,0
38687.890,-13.184,-36.133,-9.766,-15.137,0.000,0
38687.894,-3.418,-30.762,-1.953,-8.301,0.000,0
38687.897,-12.695,-18.066,-15.625,-12.207,0.000,0
38687.901,-17.090,-18.066,-23.926,-23.926,0.000,0
38687.905,-15.625,-27.344,-17.578,-22.461,0.000,0
38687.909,-18.555,-55.664,-6.836,-15.625,0.000,0
38687.913,-17.090,-46.875,-10.742,-14.160,0.000,0
38687.917,-11.230,-33.203,-16.113,-19.043,0.000,0
38687.921,-9.277,-35.156,-14.160,-20.508,0.000,0
38687.925,-18.555,-33.203,-16.113,-18.555,0.000,0
38687.929,-9.277,-47.852,-11.230,-23.438,0.000,0
38687.933,-4.883,-48.828,-15.137,-17.090,0.000,0
38687.937,-8.301,-40.039,-20.508,-1.953,0.000,0
38687.940,-12.207,-29.785,-19.531,-5.371,0.000,0
38687.944,-9.766,-28.320,-14.160,-17.578,0.000,0
38687.948,-7.324,-35.156,-13.672,-20.996,0.000,0
38687.952,-18.066,-33.203,-16.602,-25.391,0.000,0
38687.956,-20.020,-34.668,-12.695,-20.508,0.000,0
38687.960,-14.648,-34.180,-20.508,-15.137,0.000,0
38687.964,-7.324,-30.273,-19.531,-5.859,0.000,0
38687.968,-8.301,-33.691,-15.625,-9.277,0.000,0
38687.972,-15.137,-40.039,-26.855,-12.207,0.000,0
38687.976,-17.090,-34.180,-34.180,-7.324,0.000,0
38687.980,-13.672,-34.668,-29.785,-14.160,0.000,0
38687.983,-10.742,-39.551,-26.855,-18.555,0.000,0
38687.987,-19.043,-45.410,-30.762,-14.648,0.000,0
38687.991,-19.531,-42.480,-33.203,-19.043,0.000,0
38687.995,-15.625,-40.527,-32.715,-22.949,0.000,0
38687.999,-21.973,-47.852,-28.809,-17.578,0.000,0
38688.003,-18.555,-34.668,-31.738,-21.973,0.000,0
38688.007,-26.855,-34.180,-34.180,-27.832,0.000,0
38688.011,-34.668,-41.504,-32.715,-24.902,0.000,0
38688.015,-24.902,-33.203,-33.203,-17.578,0.000,0
38688.019,-27.832,-35.645,-37.598,-25.391,0.000,0
38688.022,-33.691,-38.574,-42.969,-31.738,0.000,0
38688.026,-29.785,-39.551,-37.109,-31.738,0.000,0
38688.030,-30.273,-39.551,-33.691,-33.203,0.000,0
38688.034,-21.973,-29.297,-29.785,-21.973,0.000,0
38688.038,-24.902,-20.508,-28.320,-20.996,0.000,0
38688.042,-34.180,-25.391,-35.156,-23.438,0.000,0
38688.046,-21.973,-38.574,-26.855,-19.531,0.000,0
38688.050,-13.184,-18.555,-27.344,-20.996,0.000,0
38688.054,-18.555,-8.789,-32.715,-30.762,0.000,0
38688.058,-29.785,-17.090,-29.785,-30.762,0.000,0
38688.062,-30.273,-12.695,-30.762,-20.508,0.000,0
38688.065,-24.902,-11.230,-28.809,-22.949,0.000,0
38688.069,-22.949,-7.324,-20.996,-18.066,0.000,0
38688.073,-21.484,-8.789,-23.926,-12.695,0.000,0
38688.077,-25.391,-18.066,-29.785,-17.578,0.000,0
38688.081,-26.855,-15.625,-32.227,-25.879,0.000,0
38688.085,-23.438,-32.227,-28.809,-33.203,0.000,0
38688.089,-19.043,-23.926,-21.973,-33.691,0.000,0
38688.093,-12.695,-0.977,-27.832,-31.250,0.000,0
38688.097,-6.348,-3.906,-29.785,-17.578,0.000,0
38688.101,-5.859,-5.859,-32.715,-9.766,0.000,0
38688.105,1.465,-14.648,-27.832,-13.672,0.000,0
38688.108,-1.465,-6.836,-22.949,-6.348,0.000,0
38688.112,-3.906,12.695,-27.832,-1.953,0.000,0
38688.116,9.277,9.277,-24.414,-0.488,0.000,0
38688.120,6.836,2.930,-18.555,-6.836,0.000,0
38688.124,-0.977,-13.184,-14.648,-25.391,0.000,0
38688.128,3.906,-6.836,-14.160,-18.555,0.000,0
38688.132,-6.348,5.859,-14.160,-10.742,0.000,0
38688.136,-15.625,-3.906,-13.184,-13.672,0.000,0
38688.140,-9.766,2.441,-17.090,-9.277,0.000,0
38688.144,-6.836,-19.043,-9.766,-8.789,0.000,0
38688.147,-3.418,-24.414,-5.371,-6.348,0.000,0
38688.151,-2.930,10.742,-16.113,-2.441,0.000,0
38688.155,-6.836,14.160,-18.066,-7.812,0.000,0
38688.159,-0.977,-1.465,-6.836,-5.859,0.000,0
38688.163,-3.906,-33.203,-3.418,-12.207,0.000,0
38688.167,-13.672,-32.227,-8.789,-13.672,0.000,0
38688.171,-11.719,-2.441,-6.836,0.000,0.000,0
38688.175,-15.625,-11.230,-8.789,5.859,0.000,0
38688.179,-15.137,-12.695,-9.766,1.953,0.000,0
38688.183,-2.930,-17.090,-6.836,-4.883,0.000,0
38688.187,-2.930,-20.020,-10.254,0.488,0.000,0
38688.190,-12.207,-0.488,-14.160,4.395,0.000,0
38688.194,-2.930,-2.441,-6.836,0.000,0.000,0
38688.198,-4.883,-7.324,-11.230,2.441,0.000,0
38688.202,-15.625,-24.414,-12.695,-11.719,0.000,0
38688.206,-12.695,-29.297,-8.789,-20.020,0.000,0
38688.210,-8.789,-15.137,-20.996,-10.742,0.000,0
38688.214,-20.020,-17.578,-28.320,-6.348,0.000,0
38688.218,-18.555,-24.902,-26.855,-5.859,0.000,0
38688.222,-13.672,-20.996,-27.832,-5.371,0.000,0
38688.226,-25.879,-21.484,-28.320,-14.160,0.000,0
38688.230,-32.227,-26.855,-26.367,-26.367,0.000,0
38688.233,-32.227,-26.367,-32.227,-32.715,0.000,0
38688.237,-22.949,-31.250,-27.832,-24.414,0.000,0
38688.241,-9.766,-27.344,-21.484,-9.277,0.000,0
38688.245,-16.602,-17.578,-26.855,-9.277,0.000,0
38688.249,-15.137,-18.555,-23.926,-11.230,0.000,0
38688.253,-11.230,-18.066,-18.555,-13.672,0.000,0
38688.257,-27.832,-14.160,-29.297,-24.414,0.000,0
38688.261,-30.273,-25.879,-33.203,-29.297,0.000,0
38688.265,-25.391,-39.062,-22.461,-21.484,0.000,0
38688.269,-25.879,-36.621,-16.602,-11.230,0.000,0
38688.272,-20.508,-24.902,-21.973,-14.160,0.000,0
38688.276,-11.230,-14.160,-25.391,-7.812,0.000,0
38688.280,-14.648,-34.668,-19.531,-2.930,0.000,0
38688.284,-17.578,-50.781,-11.719,-13.672,0.000,0
38688.288,-21.484,-29.785,-21.973,-18.066,0.000,0
38688.292,-27.344,-15.625,-33.203,-16.602,0.000,0
38688.296,-20.020,-23.926,-29.297,-14.160,0.000,0
38688.300,-23.926,-39.062,-24.414,-11.230,0.000,0
38688.304,-29.785,-36.621,-26.855,-17.578,0.000,0
38688.308,-29.297,-24.414,-27.344,-21.484,0.000,0
38688.312,-29.785,-24.902,-27.832,-20.020,0.000,0
38688.315,-31.250,-31.250,-27.344,-18.555,0.000,0
38688.319,-29.297,-16.113,-29.297,-18.555,0.000,0
38688.323,-22.461,-11.719,-32.715,-25.391,0.000,0
38688.327,-22.461,-24.902,-25.391,-25.879,0.000,0
38688.331,-16.113,-19.531,-21.484,-14.648,0.000,0
38688.335,-15.625,-13.672,-23.926,-12.695,0.000,0
38688.339,-5.859,-18.066,-18.555,-10.742,0.000,0
38688.343,2.441,-26.367,-12.207,-11.230,0.000,0
38688.347,-14.648,-20.996,-16.113,-13.672,0.000,0
38688.351,-21.973,-22.461,-20.508,-9.766,0.000,0
38688.355,-16.602,-28.809,-20.996,-10.742,0.000,0
38688.358,-8.789,-31.250,-23.438,-22.461,0.000,0
38688.362,-12.207,-37.109,-26.855,-21.973,0.000,0
38688.366,-13.672,-22.949,-26.367,-20.508,0.000,0
38688.370,-15.137,-38.086,-18.555,-15.625,0.000,0
38688.374,-16.113,-37.598,-21.973,-20.020,0.000,0
38688.378,-17.578,-23.438,-26.855,-29.297,0.000,0
38688.382,-25.391,-28.809,-22.949,-30.762,0.000,0
38688.386,-30.762,-23.926,-25.879,-34.668,0.000,0
38688.390,-26.367,-27.832,-36.621,-35.156,0.000,0
38688.394,-24.414,-20.020,-34.180,-32.227,0.000,0
38688.397,-32.227,-22.461,-28.809,-27.344,0.000,0
38688.401,-37.109,-39.551,-30.273,-31.738,0.000,0
38688.405,-37.109,-25.879,-31.250,-31.738,0.000,0
38688.409,-27.832,-19.043,-31.738,-33.203,0.000,0
38688.413,-22.949,-20.020,-22.949,-27.344,0.000,0
38688.417,-28.809,-25.879,-19.531,-26.855,0.000,0
38688.421,-34.668,-27.344,-25.391,-39.551,0.000,0
38688.425,-28.320,-17.578,-29.785,-35.645,0.000,0
38688.429,-34.668,-21.973,-32.227,-36.621,0.000,0
38688.433,-33.203,-18.555,-29.785,-36.133,0.000,0
38688.437,-38.574,-20.508,-33.203,-38.574,0.000,0
38688.440,-45.410,-30.762,-30.273,-42.480,0.000,1
38688.444,-35.645,-20.020,-25.879,-34.180,0.000,0
38688.448,-34.180,-25.879,-33.203,-33.691,0.000,0
38688.452,-34.668,-33.691,-37.109,-32.227,0.000,0
38688.456,-23.926,-12.695,-34.180,-28.809,0.000,0
38688.460,-37.109,-30.273,-26.855,-35.156,0.000,0
38688.464,-44.434,-20.996,-30.273,-32.227,0.000,0
38688.468,-32.227,7.324,-36.621,-37.109,0.000,0
38688.472,-38.574,-4.883,-38.086,-40.039,0.000,0
38688.476,-36.621,-28.809,-29.297,-34.668,0.000,0
38688.480,-27.832,-36.621,-26.367,-39.062,0.000,0
38688.483,-26.855,-16.113,-30.762,-37.598,0.000,0
38688.487,-28.320,-9.277,-23.926,-34.180,0.000,0
38688.491,-31.738,-8.301,-27.832,-30.762,0.000,0
38688.495,-24.414,-8.301,-27.832,-27.344,0.000,0
38688.499,-14.160,-23.438,-20.020,-31.738,0.000,0
38688.503,-30.273,-15.137,-27.344,-29.785,0.000,0
38688.507,-39.062,-8.301,-35.156,-28.320,0.000,0
38688.511,-31.738,-9.766,-32.715,-28.320,0.000,0
38688.515,-23.438,-14.648,-25.391,-25.391,0.000,0
38688.519,-24.414,-32.227,-23.438,-35.645,0.000,0
38688.522,-34.180,-19.531,-25.879,-36.621,0.000,0
38688.526,-22.461,-8.789,-21.973,-23.926,0.000,0
38688.530,-28.809,-13.184,-26.367,-20.996,0.000,0
38688.534,-34.180,-21.973,-25.879,-25.879,0.000,0
38688.538,-25.391,-34.180,-19.531,-21.484,0.000,0
38688.542,-19.531,-17.578,-17.578,-13.184,0.000,0
38688.546,-12.695,-5.371,-12.207,-7.324,0.000,0
38688.550,-12.695,-13.672,-14.160,-12.207,0.000,0
38688.554,-32.227,-30.762,-20.508,-25.391,0.000,0
38688.558,-19.043,-18.555,-19.531,-19.043,0.000,0
38688.562,-3.418,0.000,-13.184,-12.207,0.000,0
38688.565,-10.254,-16.602,-6.348,-8.789,0.000,0
38688.569,-8.789,-13.672,-6.836,-8.789,0.000,0
38688.573,-6.348,-3.418,-10.254,-11.230,0.000,0
38688.577,-8.301,-25.879,-11.230,-15.137,0.000,0
38688.581,-16.113,-17.090,-17.578,-15.137,0.000,0
38688.585,-24.902,3.906,-27.832,-17.578,0.000,0
38688.589,-26.855,-6.348,-27.832,-23.438,0.000,0
38688.593,-31.738,-20.996,-27.832,-20.508,0.000,0
38688.597,-39.062,-41.504,-28.809,-24.902,0.000,0
38688.601,-34.668,-26.855,-22.949,-27.344,0.000,0
38688.605,-33.203,-5.859,-22.461,-16.113,0.000,0
38688.608,-32.715,-25.879,-22.461,-18.555,0.000,0
38688.612,-31.738,-34.180,-18.555,-21.973,0.000,0
38688.616,-30.273,-30.762,-21.484,-25.879,0.000,0
38688.620,-20.996,-27.832,-24.902,-24.902,0.000,0
38688.624,-32.715,-27.344,-24.414,-23.438,0.000,0
38688.628,-37.109,-27.832,-22.461,-21.484,0.000,0
38688.632,-20.996,-29.785,-20.996,-18.066,0.000,0
38688.636,-10.742,-39.062,-17.578,-18.066,0.000,0
38688.640,-10.742,-34.180,-15.625,-5.371,0.000,0
38688.644,-4.883,-24.414,-19.531,0.488,0.000,0
38688.647,-6.836,-19.043,-23.438,-5.859,0.000,0
38688.651,-17.090,-14.648,-19.531,-11.230,0.000,0
38688.655,-11.719,-47.852,-10.254,-16.113,0.000,0
38688.659,5.371,-28.809,-13.672,-5.859,0.000,0
38688.663,7.812,6.348,-8.789,7.324,0.000,0
38688.667,-6.348,-2.930,-3.906,7.324,0.000,0
38688.671,-2.930,3.418,-11.719,-1.953,0.000,0
38688.675,6.836,0.000,-6.836,-0.488,0.000,0
38688.679,13.672,0.000,-0.488,7.324,0.000,0
38688.683,20.996,14.160,-3.906,15.137,0.000,0
38688.687,28.320,12.695,-4.395,24.414,0.000,0
38688.690,25.879,7.812,-3.906,21.973,0.000,0
38688.694,19.531,13.184,-7.812,15.137,0.000,0
38688.698,17.090,9.277,-5.371,15.137,0.000,0
38688.702,14.160,5.371,-0.977,10.254,0.000,0
38688.706,4.395,9.277,-12.207,2.441,0.000,0
38688.710,-13.672,2.441,-17.090,-2.930,0.000,0
38688.714,-16.602,-1.465,-5.371,-2.441,0.000,0
38688.718,-5.371,0.977,-4.883,-3.418,0.000,0
38688.722,1.465,21.973,-12.207,-4.883,0.000,0
38688.726,-2.441,19.531,-11.230,-8.789,0.000,0
38688.730,-0.977,6.836,-11.230,-0.977,0.000,0
38688.733,4.883,10.742,-12.207,5.371,0.000,0
38688.737,5.371,6.836,-7.324,1.953,0.000,0
38688.741,-0.977,12.207,-7.324,0.000,0.000,0
38688.745,-3.418,16.602,-4.395,-2.441,0.000,0
38688.749,-0.977,27.832,-11.230,-1.953,0.000,0
38688.753,1.465,30.762,-10.742,5.371,0.000,0
38688.757,-2.930,11.719,-10.254,0.000,0.000,0
38688.761,-14.160,-7.324,-19.531,-16.113,0.000,0
38688.765,-9.766,7.324,-24.414,-12.695,0.000,0
38688.769,-10.742,26.367,-27.832,-11.719,0.000,0
38688.772,-8.301,11.230,-19.531,-13.672,0.000,0
38688.776,0.488,-7.812,-8.789,-5.371,0.000,0
38688.780,-4.395,-1.465,-7.324,-4.395,0.000,0
38688.784,-13.184,0.000,-7.812,-4.395,0.000,0
38688.788,-9.277,0.488,-11.719,-7.812,0.000,0
38688.792,-13.184,-9.766,-8.789,-14.648,0.000,0
38688.796,-10.742,-21.484,-8.789,-20.020,0.000,0
38688.800,-8.789,-6.836,-16.602,-30.273,0.000,0
38688.804,-18.555,-7.812,-13.672,-25.391,0.000,0
38688.808,-14.160,-10.254,-14.648,-8.789,0.000,0
38688.812,-8.301,-19.043,-18.555,-11.230,0.000,0
38688.815,-19.531,-41.992,-20.996,-19.043,0.000,0
38688.819,-25.879,-15.137,-20.508,-8.789,0.000,0
38688.823,-25.391,6.348,-15.625,-17.090,0.000,0
38688.827,-30.762,2.441,-19.043,-29.297,0.000,0
38688.831,-27.344,-3.906,-20.508,-20.508,0.000,0
38688.835,-19.531,-18.066,-13.184,-16.113,0.000,0
38688.839,-15.625,-1.953,-14.648,-19.043,0.000,0
38688.843,-15.137,6.348,-20.508,-20.508,0.000,0
38688.847,-22.949,1.465,-25.391,-14.160,0.000,0
38688.851,-25.391,-2.930,-28.809,-10.742,0.000,0
38688.855,-23.438,-21.973,-27.344,-23.438,0.000,0
38688.858,-24.414,-4.883,-31.738,-30.762,0.000,0
38688.862,-28.809,-1.953,-24.414,-25.879,0.000,0
38688.866,-20.508,-7.324,-22.461,-18.555,0.000,0
38688.870,-5.859,1.953,-29.297,-17.578,0.000,0
38688.874,-27.344,-19.043,-27.344,-31.250,0.000,0
38688.878,-43.945,-11.230,-32.227,-30.273,0.000,0
38688.882,-35.156,-7.812,-36.133,-26.367,0.000,0
38688.886,-30.762,-1.465,-33.203,-22.461,0.000,0
38688.890,-31.250,13.184,-34.180,-17.090,0.000,0
38688.894,-35.645,-19.043,-20.020,-19.043,0.000,0
38688.897,-33.691,-20.996,-15.137,-22.461,0.000,0
38688.901,-21.484,-0.488,-22.461,-22.949,0.000,0
38688.905,-14.160,-1.465,-17.578,-8.789,0.000,0
38688.909,-11.230,-2.930,-13.672,0.000,0.000,0
38688.913,-18.555,-12.695,-13.184,-16.602,0.000,0
38688.917,-16.113,3.906,-13.672,-11.230,0.000,0
38688.921,-11.719,6.348,-19.043,-8.301,0.000,0
38688.925,-19.531,-9.277,-18.066,-23.926,0.000,0
38688.929,-16.602,6.348,-22.949,-20.508,0.000,0
38688.933,-8.301,-1.465,-22.949,-11.719,0.000,0
38688.937,0.977,-14.160,-3.418,1.953,0.000,0
38688.940,-7.812,-19.531,-7.324,1.465,0.000,0
38688.944,-28.809,-11.230,-24.414,-16.602,0.000,0
38688.948,-17.090,8.301,-20.996,-13.672,0.000,0
38688.952,-3.906,-3.906,-12.695,-11.230,0.000,0
38688.956,-16.113,-14.648,-12.695,-20.020,0.000,0
38688.960,-24.414,-5.859,-16.113,-16.602,0.000,0
38688.964,-22.461,-12.207,-17.090,-18.066,0.000,0
38688.968,-21.484,-17.578,-20.996,-15.625,0.000,0
38688.972,-19.531,-13.184,-24.902,-18.066,0.000,0
38688.976,-10.254,-0.488,-23.438,-18.555,0.000,0
38688.980,-6.348,7.324,-27.344,-20.508,0.000,0
38688.983,-11.719,-10.254,-23.438,-19.531,0.000,0
38688.987,-8.301,-14.648,-14.648,-12.207,0.000,0
38688.991,-3.906,-8.301,-11.719,-13.672,0.000,0
38688.995,-11.719,0.977,-5.859,-12.695,0.000,0
38688.999,-6.348,11.230,-6.348,-1.953,0.000,0
38689.003,4.883,9.277,-3.906,3.906,0.000,0
38689.007,2.441,11.719,-1.465,0.000,0.000,0
38689.011,6.348,2.441,5.371,3.418,0.000,0
38689.015,19.531,0.000,7.324,10.254,0.000,0
38689.019,15.625,7.324,4.395,2.441,0.000,0
38689.022,11.230,-4.395,6.348,4.395,0.000,0
38689.026,20.020,2.930,5.371,20.020,0.000,0
38689.030,9.277,-5.371,11.719,17.578,0.000,0
38689.034,1.953,1.953,9.277,13.672,0.000,0
38689.038,4.883,9.766,2.930,10.254,0.000,0
38689.042,12.207,-7.812,5.371,7.812,0.000,0
38689.046,17.578,-10.254,8.301,7.812,0.000,0
38689.050,16.602,-8.301,9.766,5.859,0.000,0
38689.054,13.672,-4.883,7.812,4.395,0.000,0
38689.058,6.836,0.488,3.418,1.465,0.000,0
38689.062,9.277,-2.441,4.395,8.789,0.000,0
38689.065,5.859,0.000,5.859,14.648,0.000,0
38689.069,6.348,-19.531,7.324,3.418,0.000,0
38689.073,12.207,-26.367,8.789,4.883,0.000,0
38689.077,10.742,6.348,7.324,14.160,0.000,0
38689.081,9.766,15.625,12.695,10.742,0.000,0
38689.085,5.859,12.207,11.719,16.602,0.000,0
38689.089,7.324,2.930,4.883,8.789,0.000,0
38689.093,9.277,6.348,-0.488,0.000,0.000,0
38689.097,0.977,2.441,-10.254,0.977,0.000,0
38689.101,-5.371,-15.137,-8.789,3.906,0.000,0
38689.105,2.441,-18.555,0.977,14.160,0.000,0
38689.108,5.371,-20.508,2.441,8.301,0.000,0
38689.112,-0.488,-17.090,-3.906,8.301,0.000,0
38689.116,-0.488,-6.348,-7.812,14.160,0.000,0
38689.120,11.230,-1.953,-7.324,10.254,0.000,0
38689.124,3.906,1.465,-12.207,10.254,0.000,0
38689.128,-6.836,-20.996,-13.184,-8.301,0.000,0
38689.132,-17.578,-39.062,-10.254,-9.277,0.000,0
38689.136,-21.484,-31.738,-11.230,-1.953,0.000,0
38689.140,-8.301,-23.438,-7.324,-3.418,0.000,1
38689.144,-2.930,-19.043,-4.395,1.953,0.000,0
38689.147,6.836,-35.156,-5.371,1.465,0.000,0
38689.151,6.836,-30.273,-7.812,-1.465,0.000,0
38689.155,-4.883,-9.277,-11.230,-6.836,0.000,0
38689.159,-1.953,-7.324,-3.418,0.000,0.000,0
38689.163,-1.953,-9.277,-0.977,6.348,0.000,0
38689.167,5.371,-21.484,-4.395,-10.742,0.000,0
38689.171,0.977,-12.207,-16.602,-12.695,0.000,0
38689.175,-19.043,-12.695,-21.973,-6.348,0.000,0
38689.179,-9.277,-10.742,-11.719,-7.324,0.000,0
38689.183,-14.160,-3.418,-10.254,-10.742,0.000,0
38689.187,-23.438,-20.996,-9.766,-20.996,0.000,0
38689.190,-20.508,-20.996,-10.254,-17.578,0.000,0
38689.194,-19.043,-10.254,-18.555,-13.184,0.000,0
38689.198,-12.207,-10.742,-21.973,-5.371,0.000,0
38689.202,-13.672,-9.766,-26.367,-8.789,0.000,0
38689.206,-14.648,-29.297,-21.973,-14.160,0.000,0
38689.210,-12.695,-22.461,-10.254,-6.348,0.000,0
38689.214,-20.996,-11.719,-15.137,-12.207,0.000,0
38689.218,-19.043,-19.531,-15.137,-17.578,0.000,0
38689.222,-4.395,8.789,-8.301,-3.418,0.000,0
38689.226,-8.301,-9.277,-7.812,-3.906,0.000,0
38689.230,-24.414,-29.297,-10.742,-16.113,0.000,0
38689.233,-24.902,-9.766,-13.184,-4.395,0.000,0
38689.237,-18.066,-3.906,-13.184,-2.441,0.000,0
38689.241,-11.719,-10.742,-14.160,-6.348,0.000,0
38689.245,-18.066,-21.484,-15.137,-12.695,0.000,0
38689.249,-24.902,-28.320,-11.230,-20.508,0.000,0
38689.253,-20.508,-8.301,-14.160,-12.695,0.000,0
38689.257,-21.973,1.953,-18.555,-11.719,0.000,0
38689.261,-22.461,8.789,-20.508,-18.555,0.000,0
38689.265,-10.742,-0.488,-18.555,-14.648,0.000,0
38689.269,2.930,-23.926,-11.719,-6.836,0.000,0
38689.272,8.789,-9.766,-16.113,-0.977,0.000,0
38689.276,-3.906,-23.926,-19.531,-7.812,0.000,0
38689.280,-10.254,-27.832,-15.625,-3.418,0.000,0
38689.284,-8.301,-10.254,-19.531,-1.465,0.000,0
38689.288,-17.090,-16.113,-25.879,-20.508,0.000,0
38689.292,-22.461,-5.371,-27.344,-19.531,0.000,0
38689.296,-31.738,-10.742,-29.297,-27.344,0.000,0
38689.300,-40.527,-32.227,-27.344,-32.715,0.000,0
38689.304,-36.621,-24.414,-23.926,-28.809,0.000,0
38689.308,-34.668,-14.160,-25.879,-40.527,0.000,0
38689.312,-39.551,-25.391,-19.531,-37.598,0.000,0
38689.315,-20.996,-31.738,-13.184,-23.926,0.000,0
38689.319,-16.602,-24.902,-20.996,-24.902,0.000,0
38689.323,-43.457,-29.297,-24.414,-29.785,0.000,0
38689.327,-42.969,-41.504,-27.832,-33.203,0.000,0
38689.331,-36.133,-41.016,-36.621,-33.203,0.000,0
38689.335,-42.480,-41.504,-40.527,-35.156,0.000,0
38689.339,-46.387,-44.434,-41.504,-41.504,0.000,0
38689.343,-36.133,-39.551,-33.691,-41.016,0.000,0
38689.347,-33.203,-39.062,-27.344,-24.902,0.000,0
38689.351,-37.598,-29.297,-31.250,-22.949,0.000,0
38689.355,-33.203,-29.297,-27.832,-19.043,0.000,0
38689.358,-40.039,-31.250,-24.414,-18.066,0.000,0
38689.362,-40.039,-32.715,-31.250,-34.180,0.000,0
38689.366,-30.273,-38.574,-33.203,-41.016,0.000,0
38689.370,-33.203,-29.297,-31.250,-31.250,0.000,0
38689.374,-34.668,-39.551,-36.133,-39.062,0.000,0
38689.378,-34.180,-56.152,-38.086,-43.457,0.000,0
38689.382,-45.410,-34.668,-42.969,-38.086,0.000,0
38689.386,-42.969,-42.480,-37.109,-41.504,0.000,0
38689.390,-34.180,-41.992,-28.809,-34.668,0.000,0
38689.394,-27.832,-32.715,-28.320,-33.691,0.000,0
38689.397,-33.691,-34.180,-26.367,-20.996,0.000,0
38689.401,-38.086,-51.758,-30.762,-10.254,0.000,0
38689.405,-40.039,-65.918,-39.551,-27.344,0.000,0
38689.409,-36.133,-43.457,-42.480,-27.832,0.000,0
38689.413,-28.320,-26.855,-35.645,-23.438,0.000,0
38689.417,-23.926,-28.809,-27.832,-18.555,0.000,0
38689.421,-22.949,-37.598,-27.832,-20.020,0.000,0
38689.425,-29.297,-42.969,-28.809,-34.180,0.000,0
38689.429,-31.250,-33.203,-35.156,-33.691,0.000,0
38689.433,-32.227,-30.273,-37.598,-34.180,0.000,0
38689.437,-26.367,-26.367,-33.203,-25.879,0.000,0
38689.440,-32.715,-35.156,-38.086,-25.879,0.000,0
38689.444,-32.227,-52.246,-31.738,-30.762,0.000,0
38689.448,-31.738,-37.598,-33.691,-30.762,0.000,0
38689.452,-32.715,-32.227,-46.875,-39.551,0.000,0
38689.456,-28.809,-31.250,-44.922,-34.668,0.000,0
38689.460,-29.297,-28.320,-34.668,-30.273,0.000,0
38689.464,-32.715,-42.969,-30.273,-26.367,0.000,0
38689.468,-37.598,-25.879,-39.551,-27.832,0.000,0
38689.472,-33.203,-11.230,-45.410,-36.133,0.000,0
38689.476,-27.344,-34.180,-39.551,-23.438,0.000,0
38689.480,-24.414,-55.664,-34.180,-25.391,0.000,0
38689.483,-38.086,-39.062,-38.574,-42.480,0.000,0
38689.487,-38.086,-24.414,-38.574,-36.621,0.000,0
38689.491,-31.738,-38.574,-35.645,-31.250,0.000,0
38689.495,-43.457,-36.621,-41.992,-34.668,0.000,0
38689.499,-37.598,-38.086,-43.945,-44.434,0.000,0
38689.503,-24.414,-55.176,-40.039,-51.758,0.000,0
38689.507,-29.297,-34.668,-39.551,-45.410,0.000,0
38689.511,-35.645,-13.672,-40.527,-37.598,0.000,0
38689.515,-26.367,-19.043,-43.457,-30.762,0.000,0
38689.519,-18.066,-30.762,-40.039,-29.785,0.000,0
38689.522,-27.344,-56.152,-26.855,-36.621,0.000,0
38689.526,-33.691,-44.922,-33.691,-38.574,0.000,0
38689.530,-26.855,-28.320,-48.828,-36.621,0.000,0
38689.534,-28.809,-39.551,-34.668,-27.344,0.000,0
38689.538,-31.250,-41.992,-24.414,-21.484,0.000,0
38689.542,-29.297,-47.363,-31.250,-30.762,0.000,0
38689.546,-34.180,-36.133,-30.762,-36.133,0.000,0
38689.550,-31.738,-30.762,-27.832,-27.832,0.000,0
38689.554,-22.461,-34.180,-26.855,-20.508,0.000,0
38689.558,-31.250,-37.109,-36.133,-25.391,0.000,0
38689.562,-36.133,-51.270,-34.180,-34.668,0.000,0
38689.565,-34.668,-37.598,-27.832,-33.203,0.000,0
38689.569,-33.691,-27.344,-23.926,-21.484,0.000,0
38689.573,-22.949,-26.855,-28.320,-12.695,0.000,0
38689.577,-13.672,-20.508,-32.227,-13.184,0.000,0
38689.581,-23.926,-31.738,-25.391,-24.414,0.000,0
38689.585,-25.391,-26.855,-23.926,-17.090,0.000,0
38689.589,-27.344,-22.461,-27.344,-13.184,0.000,0
38689.593,-33.203,-21.973,-28.320,-22.949,0.000,0
38689.597,-29.785,-34.668,-26.367,-24.902,0.000,0
38689.601,-21.484,-42.480,-25.879,-32.227,0.000,0
38689.605,-27.344,-26.855,-23.926,-31.250,0.000,0
38689.608,-26.855,-26.367,-21.973,-14.648,0.000,0
38689.612,-18.555,-26.367,-23.926,-12.207,0.000,0
38689.616,-20.996,-26.367,-25.879,-22.949,0.000,0
38689.620,-18.555,-33.203,-25.879,-24.414,0.000,0
38689.624,-24.902,-27.832,-27.344,-21.973,0.000,0
38689.628,-34.668,-28.809,-23.438,-23.926,0.000,0
38689.632,-31.738,-21.973,-24.414,-21.973,0.000,0
38689.636,-23.438,-25.879,-28.320,-20.020,0.000,0
38689.640,-32.715,-56.152,-25.391,-28.320,0.000,0
38689.644,-41.992,-51.270,-26.855,-29.785,0.000,0
38689.647,-30.762,-39.551,-26.855,-29.297,0.000,0
38689.651,-19.531,-47.363,-26.367,-27.832,0.000,0
38689.655,-19.531,-43.945,-33.691,-25.879,0.000,0
38689.659,-13.184,-41.016,-29.297,-14.160,0.000,0
38689.663,-20.508,-30.273,-19.531,-16.113,0.000,0
38689.667,-31.738,-21.484,-18.066,-34.180,0.000,0
38689.671,-22.461,-29.297,-14.160,-31.738,0.000,1
38689.675,-22.949,-32.715,-19.043,-22.461,0.000,0
38689.679,-34.668,-28.809,-29.785,-30.762,0.000,0
38689.683,-25.391,-29.297,-26.855,-35.645,0.000,0
38689.687,-17.578,-34.668,-20.996,-20.020,0.000,0
38689.690,-20.996,-34.180,-24.902,-16.113,0.000,0
38689.694,-18.555,-14.648,-23.926,-23.926,0.000,0
38689.698,-13.184,-21.973,-22.949,-20.020,0.000,0
38689.702,-21.973,-27.344,-28.809,-15.137,0.000,0
38689.706,-30.762,-4.395,-30.273,-28.320,0.000,0
38689.710,-27.344,-12.207,-25.391,-30.762,0.000,0
38689.714,-20.508,-22.461,-23.926,-21.973,0.000,0
38689.718,-17.578,-29.785,-20.020,-17.578,0.000,0
38689.722,-18.066,-13.672,-19.531,-19.043,0.000,0
38689.726,-14.648,-3.418,-19.531,-16.602,0.000,0
38689.730,-14.160,-20.020,-18.066,-15.625,0.000,0
38689.733,-11.719,-19.531,-24.414,-22.461,0.000,0
38689.737,-20.020,-23.438,-24.414,-25.879,0.000,0
38689.741,-36.133,-29.297,-25.391,-25.391,0.000,0
38689.745,-26.367,-20.996,-29.297,-26.367,0.000,0
38689.749,-23.438,-20.996,-33.203,-26.367,0.000,0
38689.753,-30.762,-26.367,-36.621,-21.484,0.000,0
38689.757,-18.066,-39.551,-21.484,-20.996,0.000,0
38689.761,-15.137,-33.691,-16.602,-25.391,0.000,0
38689.765,-23.438,-15.137,-28.809,-23.926,0.000,0
38689.769,-16.602,-26.367,-31.738,-18.555,0.000,0
38689.772,-16.602,-34.180,-29.297,-17.578,0.000,0
38689.776,-25.879,-44.922,-26.855,-28.809,0.000,0
38689.780,-26.855,-36.621,-29.297,-37.109,0.000,0
38689.784,-24.902,-20.508,-32.715,-34.668,0.000,0
38689.788,-20.020,-28.320,-32.715,-29.785,0.000,0
38689.792,-19.043,-36.133,-28.320,-20.508,0.000,0
38689.796,-19.531,-29.297,-25.391,-21.973,0.000,0
38689.800,-12.207,-12.207,-25.391,-26.855,0.000,0
38689.804,-15.625,-15.137,-29.785,-15.625,0.000,0
38689.808,-23.926,-24.902,-34.668,-18.066,0.000,0
38689.812,-34.180,-27.832,-35.645,-33.691,0.000,0
38689.815,-38.086,-46.875,-31.738,-44.922,0.000,0
38689.819,-21.484,-45.410,-28.809,-39.551,0.000,0
38689.823,-16.602,-15.625,-26.855,-34.180,0.000,0
38689.827,-24.414,-11.230,-24.414,-27.344,0.000,0
38689.831,-20.020,-13.184,-18.555,-17.578,0.000,0
38689.835,-10.742,-28.809,-14.648,-25.879,0.000,0
38689.839,-23.438,-28.809,-24.414,-29.785,0.000,0
38689.843,-27.344,-11.230,-29.785,-24.902,0.000,0
38689.847,-21.973,-26.855,-28.320,-22.949,0.000,0
38689.851,-24.414,-26.855,-27.344,-19.043,0.000,0
38689.855,-20.996,-36.133,-24.902,-30.273,0.000,0
38689.858,-19.043,-38.574,-22.949,-32.715,0.000,0
38689.862,-15.625,-13.672,-23.926,-16.113,0.000,0
38689.866,-1.465,-21.484,-25.391,-6.348,0.000,0
38689.870,3.906,-19.531,-28.320,-2.441,0.000,0
38689.874,-0.977,-27.344,-23.438,-9.277,0.000,0
38689.878,1.953,-35.156,-16.602,-10.254,0.000,0
38689.882,-0.977,-12.695,-16.113,-2.930,0.000,0
38689.886,-7.324,-11.719,-22.949,-16.602,0.000,0
38689.890,-5.371,-20.020,-29.297,-23.438,0.000,0
38689.894,-10.254,-44.922,-22.461,-22.949,0.000,0
38689.897,-25.391,-32.227,-22.461,-28.320,0.000,0
38689.901,-29.297,-8.789,-28.809,-24.902,0.000,0
38689.905,-26.855,-26.855,-21.484,-23.926,0.000,0
38689.909,-29.297,-41.016,-19.531,-21.484,0.000,0
38689.913,-32.227,-46.387,-23.438,-26.855,0.000,0
38689.917,-32.227,-31.738,-30.273,-37.109,0.000,0
38689.921,-35.645,-35.645,-27.832,-35.156,0.000,0
38689.925,-30.273,-50.293,-21.484,-24.414,0.000,0
38689.929,-25.391,-34.180,-27.344,-18.066,0.000,0
38689.933,-23.926,-38.086,-28.320,-25.879,0.000,0
38689.937,-19.043,-41.504,-21.973,-29.785,0.000,0
38689.940,-27.832,-20.508,-27.832,-28.320,0.000,0
38689.944,-35.156,-17.090,-34.668,-35.645,0.000,0
38689.948,-35.156,-27.344,-35.156,-40.039,0.000,0
38689.952,-35.645,-50.293,-35.645,-42.480,0.000,0
38689.956,-36.621,-55.176,-38.574,-44.922,0.000,0
38689.960,-28.809,-38.086,-42.969,-40.527,0.000,0
38689.964,-23.926,-32.227,-45.898,-32.715,0.000,0
38689.968,-41.016,-49.805,-41.016,-28.809,0.000,0
38689.972,-42.969,-57.617,-39.551,-34.668,0.000,0
38689.976,-25.391,-39.062,-41.016,-32.227,0.000,0
38689.980,-29.785,-28.809,-35.156,-22.949,0.000,0
38689.983,-43.945,-32.715,-34.180,-26.367,0.000,0
38689.987,-45.410,-33.203,-36.133,-25.879,0.000,0
38689.991,-39.551,-34.180,-37.598,-35.156,0.000,0
38689.995,-38.574,-36.621,-34.668,-43.945,0.000,0
38689.999,-42.480,-36.133,-27.344,-31.250,0.000,0
38690.003,-39.062,-25.879,-30.273,-23.926,0.000,0
38690.007,-30.762,-18.066,-33.691,-26.367,0.000,0
38690.011,-24.414,-24.414,-29.785,-23.926,0.000,0
38690.015,-14.648,-30.273,-22.461,-18.066,0.000,0
38690.019,-20.996,-16.113,-32.227,-17.578,0.000,0
38690.022,-27.344,-21.484,-32.715,-21.484,0.000,0
38690.026,-20.996,-29.297,-24.902,-20.996,0.000,0
38690.030,-17.090,-30.762,-25.879,-20.996,0.000,0
38690.034,-21.484,-34.180,-27.832,-25.391,0.000,0
38690.038,-17.090,-21.973,-27.344,-27.344,0.000,0
38690.042,-11.230,-20.020,-24.414,-25.391,0.000,0
38690.046,-8.301,-23.926,-27.344,-22.949,0.000,0
38690.050,-6.348,-25.391,-30.273,-23.438,0.000,0
38690.054,-14.648,-27.344,-24.902,-27.344,0.000,0
38690.058,-19.531,-18.066,-27.832,-21.973,0.000,0
38690.062,-18.555,-12.695,-28.809,-19.043,0.000,0
38690.065,-15.137,-7.812,-29.785,-21.484,0.000,0
38690.069,-15.625,-16.602,-35.156,-21.973,0.000,0
38690.073,-25.391,-28.320,-35.645,-24.902,0.000,0
38690.077,-18.066,-13.672,-35.156,-21.973,0.000,0
38690.081,-19.531,-15.137,-36.621,-18.066,0.000,0
38690.085,-23.438,-21.973,-39.551,-25.879,0.000,0
38690.089,-18.066,-23.926,-34.180,-29.785,0.000,0
38690.093,-11.719,-27.344,-27.344,-23.926,0.000,0
38690.097,-9.766,-10.742,-30.762,-25.391,0.000,0
38690.101,-8.789,-22.949,-31.738,-26.367,0.000,0
38690.105,-18.555,-18.066,-28.320,-13.672,0.000,0
38690.108,-13.672,0.488,-31.250,-18.066,0.000,0
38690.112,-8.789,-16.602,-32.715,-28.809,0.000,0
38690.116,-19.043,-3.906,-32.715,-16.113,0.000,0
38690.120,-21.973,0.000,-32.227,-11.719,0.000,0
38690.124,-18.066,-6.836,-30.273,-14.648,0.000,0
38690.128,-16.602,-10.742,-22.461,-15.625,0.000,0
38690.132,-16.602,-24.902,-12.695,-22.461,0.000,0
38690.136,-21.973,-12.695,-23.926,-27.344,0.000,0
38690.140,-26.367,-10.254,-32.715,-30.273,0.000,0
38690.144,-25.879,-13.184,-31.738,-27.832,0.000,0
38690.147,-23.926,-20.996,-29.785,-22.461,0.000,0
38690.151,-6.348,-28.320,-20.020,-12.695,0.000,0
38690.155,-12.695,-8.789,-25.391,-14.648,0.000,0
38690.159,-25.879,-9.766,-30.273,-20.020,0.000,0
38690.163,-15.625,-15.137,-21.484,-11.230,0.000,0
38690.167,-8.789,-16.602,-20.508,-14.648,0.000,0
38690.171,-12.207,-30.762,-24.902,-26.855,0.000,0
38690.175,-20.508,-18.555,-26.855,-29.297,0.000,0
38690.179,-21.973,-10.742,-28.809,-21.973,0.000,0
38690.183,-14.160,-12.207,-30.273,-16.113,0.000,0
38690.187,-17.090,-11.719,-29.785,-21.973,0.000,0
38690.190,-21.973,-34.180,-21.973,-30.273,0.000,0
