timestamps,TP9,AF7,AF8,TP10,Right AUX,Marker0
38427.249,-29.785,-9.277,-31.250,-24.414,0.000,0
38427.253,-19.531,-7.812,-34.180,-18.555,0.000,0
38427.257,-24.414,-19.043,-34.180,-26.367,0.000,0
38427.261,-48.828,-23.438,-29.297,-39.062,0.000,0
38427.265,-54.199,-14.160,-30.762,-29.785,0.000,0
38427.269,-40.039,-31.738,-36.621,-27.344,0.000,0
38427.272,-35.156,-34.668,-40.527,-31.738,0.000,0
38427.276,-39.062,1.953,-47.852,-38.086,0.000,0
38427.280,-36.133,0.977,-36.133,-39.551,0.000,0
38427.284,-32.715,-32.715,-21.973,-24.414,0.000,0
38427.288,-32.227,-4.883,-14.648,-22.461,0.000,0
38427.292,-34.668,18.555,-18.066,-30.273,0.000,0
38427.296,-29.785,24.414,-35.156,-28.809,0.000,0
38427.300,-21.973,19.531,-40.527,-28.809,0.000,0
38427.304,-28.809,10.254,-28.809,-23.926,0.000,0
38427.308,-28.320,-1.953,-15.137,-24.902,0.000,0
38427.312,-20.996,-11.719,-15.137,-28.320,0.000,0
38427.315,-23.438,-7.324,-18.555,-23.438,0.000,0
38427.319,-23.926,-3.418,-15.137,-3.418,0.000,0
38427.323,-21.484,4.883,-27.344,0.977,0.000,0
38427.327,-23.438,-20.020,-28.809,-9.277,0.000,0
38427.331,-15.625,-52.246,-14.648,-12.695,0.000,0
38427.335,-4.395,-31.250,-20.996,-8.789,0.000,0
38427.339,-11.719,-41.016,-15.137,-15.137,0.000,0
38427.343,-4.883,-33.691,-12.207,-6.836,0.000,0
38427.347,-3.418,-11.230,-8.301,3.906,0.000,0
38427.351,-7.812,-19.531,-9.766,-4.395,0.000,0
38427.355,-5.371,-0.488,-19.531,-10.742,0.000,0
38427.358,-15.137,-5.859,-25.879,-10.742,0.000,0
38427.362,-13.184,-24.902,-25.879,-7.324,0.000,0
38427.366,-6.836,-8.789,-17.090,0.488,0.000,0
38427.370,-10.254,-1.465,-12.695,-3.906,0.000,0
38427.374,-2.930,-12.207,-12.695,-12.695,0.000,0
38427.378,11.719,-14.648,-9.766,0.977,0.000,0
38427.382,6.348,0.488,-8.789,-1.465,0.000,0
38427.386,-8.301,-13.672,-11.719,-11.719,0.000,0
38427.390,-12.695,-31.250,-16.113,-6.348,0.000,0
38427.394,-8.789,-7.812,-23.438,3.418,0.000,0
38427.397,1.953,6.836,-24.414,11.230,0.000,0
38427.401,8.301,19.531,-20.508,10.742,0.000,0
38427.405,-6.348,14.648,-15.137,-0.488,0.000,0
38427.409,-18.555,4.883,-11.230,-10.742,0.000,0
38427.413,-14.160,22.949,-9.766,-15.137,0.000,0
38427.417,-15.137,19.531,-16.113,-3.418,0.000,0
38427.421,-21.484,6.836,-17.578,-2.441,0.000,0
38427.425,-12.695,5.859,-19.043,-20.508,0.000,0
38427.429,-26.367,-8.301,-12.695,-20.020,0.000,0
38427.433,-43.457,3.418,-18.555,-17.090,0.000,0
38427.437,-28.809,7.324,-40.039,-8.789,0.000,0
38427.440,-26.855,-11.230,-31.250,-11.230,0.000,0
38427.444,-29.297,-6.836,-23.438,-10.254,0.000,0
38427.448,-36.621,-19.531,-34.668,-20.020,0.000,0
38427.452,-25.391,-13.184,-25.879,-19.531,0.000,0
38427.456,-25.879,-10.254,-29.297,-22.461,0.000,0
38427.460,-32.227,-12.695,-44.922,-24.414,0.000,0
38427.464,-26.367,-23.926,-37.598,-16.113,0.000,0
38427.468,-32.715,-66.895,-23.438,-25.879,0.000,0
38427.472,-33.691,-34.180,-34.180,-25.391,0.000,0
38427.476,-24.414,5.371,-43.945,-15.625,0.000,0
38427.480,-25.879,-14.160,-41.504,-9.766,0.000,0
38427.483,-23.438,-30.762,-37.109,-16.602,0.000,0
38427.487,-16.602,-41.504,-23.438,-31.738,0.000,0
38427.491,-24.414,-29.785,-26.367,-32.227,0.000,0
38427.495,-21.973,-19.531,-36.133,-26.855,0.000,0
38427.499,-20.996,-12.695,-35.645,-23.926,0.000,0
38427.503,-26.367,-14.160,-35.156,-20.020,0.000,0
38427.507,-29.297,-33.691,-27.344,-22.949,0.000,0
38427.511,-26.367,-31.738,-25.879,-9.766,0.000,0
38427.515,-27.344,-19.043,-27.344,-11.230,0.000,0
38427.519,-27.832,-30.273,-34.668,-25.879,0.000,0
38427.522,-29.297,-40.039,-40.039,-22.461,0.000,0
38427.526,-30.273,-43.457,-30.762,-23.926,0.000,0
38427.530,-29.785,-42.969,-33.691,-38.574,0.000,0
38427.534,-27.344,-19.531,-44.434,-43.457,0.000,0
38427.538,-31.250,-14.160,-35.156,-33.691,0.000,0
38427.542,-32.227,-37.598,-29.297,-24.902,0.000,0
38427.546,-37.598,-45.898,-33.691,-23.438,0.000,0
38427.550,-29.297,-37.598,-34.180,-12.207,0.000,0
38427.554,-25.391,-41.504,-31.250,-7.812,0.000,0
38427.558,-29.297,-39.551,-32.227,-20.020,0.000,0
38427.562,-17.578,-21.484,-31.250,-27.344,0.000,0
38427.565,-3.418,-34.668,-29.785,-24.902,0.000,0
38427.569,0.977,-35.156,-33.203,-19.531,0.000,0
38427.573,-16.113,-28.320,-30.273,-16.602,0.000,0
38427.577,-15.625,-43.457,-41.016,-23.926,0.000,0
38427.581,-14.648,-49.316,-43.945,-28.320,0.000,0
38427.585,-12.695,-56.641,-31.250,-14.648,0.000,0
38427.589,-20.996,-52.734,-32.227,-13.184,0.000,0
38427.593,-28.320,-30.273,-41.504,-24.414,0.000,0
38427.597,-16.602,-40.527,-35.645,-24.414,0.000,0
38427.601,-31.250,-55.176,-26.367,-9.277,0.000,0
38427.605,-33.691,-53.711,-25.879,-11.719,0.000,0
38427.608,-23.926,-37.109,-21.484,-29.785,0.000,0
38427.612,-14.160,-18.066,-28.320,-23.438,0.000,0
38427.616,-12.207,-19.531,-36.621,-15.137,0.000,0
38427.620,-21.973,-13.672,-38.574,-17.090,0.000,0
38427.624,-29.297,-16.602,-44.434,-20.996,0.000,0
38427.628,-29.297,-18.066,-38.086,-14.160,0.000,0
38427.632,-16.113,-5.371,-31.250,-6.836,0.000,0
38427.636,-28.320,-2.930,-33.691,-17.090,0.000,0
38427.640,-38.086,-2.930,-37.598,-14.160,0.000,0
38427.644,-26.855,-7.324,-35.645,-1.465,0.000,0
38427.647,-25.391,-8.301,-21.484,-9.277,0.000,0
38427.651,-16.113,-0.488,-22.461,-17.578,0.000,0
38427.655,-16.113,5.859,-40.039,-10.254,0.000,0
38427.659,-15.137,0.977,-28.809,-5.859,0.000,0
38427.663,-3.906,-20.020,-10.742,-4.883,0.000,0
38427.667,-7.812,-21.484,-11.230,-12.207,0.000,0
38427.671,-17.090,-17.578,-21.484,-11.719,0.000,0
38427.675,-18.066,-29.297,-23.438,-9.766,0.000,0
38427.679,-19.043,-30.762,-23.926,-4.883,0.000,0
38427.683,-23.926,-32.715,-27.832,-3.418,0.000,0
38427.687,-16.113,-34.668,-28.320,-19.043,0.000,0
38427.690,-19.043,-12.207,-17.578,-13.184,0.000,0
38427.694,-25.391,-0.488,-28.809,-11.719,0.000,0
38427.698,-12.207,-3.418,-45.410,-6.348,0.000,0
38427.702,-18.555,-33.203,-35.156,-16.113,0.000,0
38427.706,-24.414,-63.965,-26.367,-24.414,0.000,0
38427.710,-26.855,-35.156,-31.738,-23.926,0.000,0
38427.714,-31.738,-25.391,-24.902,-24.414,0.000,0
38427.718,-14.160,-38.086,-24.414,-9.766,0.000,0
38427.722,-16.602,-63.965,-33.691,-15.625,0.000,0
38427.726,-20.508,-75.684,-33.691,-26.855,0.000,0
38427.730,-20.020,-35.156,-38.574,-18.066,0.000,0
38427.733,-23.926,-30.273,-45.410,-16.602,0.000,0
38427.737,-16.113,-37.598,-36.133,-12.207,0.000,0
38427.741,-19.043,-33.691,-30.273,-12.695,0.000,0
38427.745,-31.738,-33.203,-39.551,-21.973,0.000,0
38427.749,-33.691,-28.809,-40.527,-21.973,0.000,0
38427.753,-31.250,-54.688,-31.738,-26.367,0.000,0
38427.757,-27.832,-22.949,-34.668,-29.785,0.000,0
38427.761,-26.367,-7.812,-42.480,-31.250,0.000,0
38427.765,-27.832,-58.594,-26.855,-33.203,0.000,0
38427.769,-42.480,-36.133,-21.484,-21.973,0.000,0
38427.772,-37.598,-6.836,-32.227,-15.625,0.000,0
38427.776,-23.926,-29.297,-30.273,-11.719,0.000,0
38427.780,-13.184,-64.453,-23.926,-0.488,0.000,0
38427.784,-21.973,-73.242,-20.020,-2.441,0.000,0
38427.788,-25.879,-49.805,-17.090,8.789,0.000,0
38427.792,-2.930,-38.574,-14.648,9.766,0.000,0
38427.796,-16.602,-61.035,-5.859,-12.207,0.000,0
38427.800,-23.438,-59.570,-9.766,-9.766,0.000,0
38427.804,-6.348,-60.059,-9.277,-0.488,0.000,0
38427.808,-5.859,-39.551,-17.578,-5.859,0.000,0
38427.812,-14.648,-34.668,-20.020,-4.883,0.000,0
38427.815,-1.465,-35.645,-14.648,8.301,0.000,0
38427.819,-5.859,-37.598,-16.602,7.324,0.000,0
38427.823,-26.367,-69.336,-14.648,-10.742,0.000,0
38427.827,-16.602,-56.152,-23.438,-12.695,0.000,0
38427.831,-20.020,-42.969,-33.691,-6.836,0.000,0
38427.835,-31.738,-33.203,-35.645,-13.672,0.000,0
38427.839,-29.785,-41.992,-32.227,-21.484,0.000,0
38427.843,-24.902,-75.684,-27.344,-27.344,0.000,0
38427.847,-24.902,-44.922,-32.227,-30.273,0.000,0
38427.851,-21.484,-25.391,-32.227,-26.855,0.000,0
38427.855,-21.484,-57.129,-30.273,-17.090,0.000,0
38427.858,-25.879,-44.922,-36.621,-8.789,0.000,0
38427.862,-11.719,-31.250,-32.227,-21.973,0.000,0
38427.866,-9.277,-42.969,-31.250,-15.625,0.000,0
38427.870,-16.602,-52.734,-33.691,3.906,0.000,0
38427.874,-6.348,-63.965,-27.344,-0.488,0.000,0
38427.878,-18.066,-58.594,-31.250,-13.184,0.000,0
38427.882,-35.156,-56.641,-24.902,-32.227,0.000,0
38427.886,-18.555,-63.477,-11.719,-28.320,0.000,0
38427.890,-7.324,-55.176,-18.555,-19.531,0.000,0
38427.894,-5.859,-51.758,-20.996,-10.742,0.000,0
38427.897,-6.836,-46.387,-22.461,-12.207,0.000,0
38427.901,-6.836,-49.316,-28.320,-31.738,0.000,0
38427.905,2.930,-30.762,-25.391,-20.508,0.000,0
38427.909,2.441,-11.719,-22.949,-11.230,0.000,0
38427.913,-18.555,-19.043,-19.531,-20.508,0.000,0
38427.917,-18.555,-22.949,-23.438,-14.648,0.000,0
38427.921,-9.766,-25.879,-24.902,-17.578,0.000,0
38427.925,-19.043,-16.602,-17.090,-18.555,0.000,0
38427.929,-13.184,-4.883,-16.602,-11.719,0.000,0
38427.933,-4.883,-15.137,-19.531,-3.418,0.000,0
38427.937,-23.438,-25.391,-33.203,-9.766,0.000,0
38427.940,-19.531,-29.297,-31.250,-16.113,0.000,0
38427.944,2.441,-24.902,-24.902,-15.137,0.000,0
38427.948,-6.836,-10.254,-26.367,-23.438,0.000,0
38427.952,-17.090,9.766,-21.973,-16.113,0.000,0
38427.956,-13.184,-6.836,-18.555,-11.719,0.000,0
38427.960,-20.508,-32.227,-20.508,-14.648,0.000,0
38427.964,-22.949,-9.766,-24.414,-12.207,0.000,0
38427.968,-13.672,-0.977,-14.160,-4.395,0.000,0
38427.972,-11.230,-24.902,-12.695,1.953,0.000,0
38427.976,-18.555,-41.504,-23.926,2.930,0.000,0
38427.980,-22.949,-39.551,-36.621,-18.555,0.000,0
38427.983,-20.020,-41.504,-35.156,-21.484,0.000,0
38427.987,-18.555,-40.039,-23.438,-10.254,0.000,0
38427.991,-20.020,-49.805,-23.438,-18.066,0.000,0
38427.995,-25.879,-52.246,-29.297,-21.973,0.000,0
38427.999,-27.344,-57.129,-30.762,-20.996,0.000,0
38428.003,-26.855,-59.570,-29.297,-26.855,0.000,0
38428.007,-38.086,-47.363,-34.180,-30.273,0.000,0
38428.011,-39.062,-50.781,-38.574,-25.391,0.000,0
38428.015,-20.508,-55.176,-42.969,-15.137,0.000,0
38428.019,-11.230,-71.777,-42.480,-4.883,0.000,0
38428.022,-25.391,-77.148,-37.109,-4.883,0.000,0
38428.026,-17.090,-50.781,-39.551,-17.090,0.000,0
38428.030,-5.859,-49.316,-33.203,-8.789,0.000,0
38428.034,-22.949,-51.270,-27.832,-1.953,0.000,0
38428.038,-21.973,-57.129,-32.227,-20.020,0.000,0
38428.042,-17.578,-66.895,-29.785,-31.738,0.000,0
38428.046,-20.508,-60.059,-28.809,-16.602,0.000,0
38428.050,-23.438,-67.871,-27.832,-10.254,0.000,0
38428.054,-24.414,-61.523,-27.344,-14.160,0.000,0
38428.058,-18.066,-62.988,-17.090,-7.324,0.000,0
38428.062,-8.789,-84.473,-12.695,-15.137,0.000,0
38428.065,-23.438,-50.781,-23.926,-28.320,0.000,0
38428.069,-28.320,-40.527,-28.320,-20.996,0.000,0
38428.073,-6.348,-19.531,-30.273,-19.531,0.000,0
38428.077,-24.902,-20.996,-32.227,-34.180,0.000,0
38428.081,-38.574,-88.867,-25.879,-35.645,0.000,0
38428.085,-20.508,-60.547,-31.738,-30.762,0.000,0
38428.089,-23.926,-37.598,-36.133,-30.762,0.000,0
38428.093,-29.297,-47.852,-37.109,-29.785,0.000,0
38428.097,-25.879,-49.316,-37.109,-26.855,0.000,0
38428.101,-24.902,-64.941,-32.715,-24.902,0.000,0
38428.105,-29.297,-49.316,-36.133,-22.949,0.000,0
38428.108,-23.926,-53.711,-43.457,-20.020,0.000,0
38428.112,-18.555,-54.688,-44.922,-16.602,0.000,0
38428.116,-28.809,-22.461,-39.551,-19.043,0.000,0
38428.120,-49.805,-39.062,-40.527,-31.738,0.000,0
38428.124,-42.969,-44.922,-45.410,-22.949,0.000,0
38428.128,-26.855,-28.320,-42.480,-17.090,0.000,0
38428.132,-40.527,-23.438,-47.852,-27.832,0.000,0
38428.136,-39.551,-29.297,-49.316,-37.598,0.000,0
38428.140,-34.668,-59.082,-38.086,-45.898,0.000,0
38428.144,-43.457,-38.086,-48.828,-42.480,0.000,0
38428.147,-32.227,-13.672,-58.105,-35.156,0.000,0
38428.151,-19.043,-15.625,-44.434,-23.438,0.000,0
38428.155,-29.297,-18.066,-41.992,-20.020,0.000,0
38428.159,-31.738,-23.926,-48.340,-30.273,0.000,0
38428.163,-29.785,-30.273,-45.898,-41.016,0.000,0
38428.167,-32.227,-32.715,-46.387,-39.062,0.000,0
38428.171,-20.508,-27.832,-45.410,-20.020,0.000,0
38428.175,-33.203,-6.836,-49.316,-29.785,0.000,0
38428.179,-41.504,-6.836,-46.875,-50.293,0.000,0
38428.183,-29.785,6.348,-41.992,-33.203,0.000,0
38428.187,-36.621,20.508,-43.945,-25.391,0.000,0
38428.190,-30.762,8.789,-42.480,-41.016,0.000,0
38428.194,-27.344,-0.488,-43.457,-43.457,0.000,0
38428.198,-32.715,-20.020,-41.992,-41.992,0.000,0
38428.202,-11.719,-13.184,-41.504,-33.203,0.000,0
38428.206,-40.527,-13.184,-41.992,-35.156,0.000,0
38428.210,-54.199,-0.977,-39.062,-41.992,0.000,0
38428.214,-29.297,3.418,-36.133,-37.109,0.000,0
38428.218,-23.438,-30.273,-34.180,-37.109,0.000,0
38428.222,-26.367,-18.555,-39.062,-31.738,0.000,0
38428.226,-36.133,-5.859,-43.945,-23.438,0.000,0
38428.230,-33.203,-17.578,-37.598,-24.902,0.000,0
38428.233,-28.320,-11.230,-34.180,-25.391,0.000,0
38428.237,-29.297,-9.277,-33.203,-22.949,0.000,0
38428.241,-34.668,-13.672,-30.762,-25.391,0.000,0
38428.245,-39.551,-2.930,-30.762,-23.438,0.000,0
38428.249,-14.160,3.418,-29.297,-13.184,0.000,0
38428.253,-10.742,9.766,-27.832,-13.184,0.000,0
38428.257,-23.926,14.648,-24.414,-12.207,0.000,0
38428.261,-15.137,11.230,-20.020,-5.859,0.000,0
38428.265,-14.648,-1.953,-24.414,-23.438,0.000,0
38428.269,-14.160,-19.531,-27.344,-34.668,0.000,0
38428.272,-10.254,20.020,-25.879,-11.719,0.000,0
38428.276,-14.648,5.371,-21.484,0.977,0.000,0
38428.280,-21.973,4.395,-24.414,-15.137,0.000,0
38428.284,-19.531,9.766,-24.414,-19.043,0.000,0
38428.288,-21.973,-16.113,-21.973,-8.301,0.000,0
38428.292,-18.555,-13.672,-28.320,-7.812,0.000,0
38428.296,-13.672,-25.391,-23.926,-19.043,0.000,0
38428.300,-18.066,-40.039,-20.020,-25.391,0.000,0
38428.304,-15.625,-23.926,-19.043,-14.648,0.000,0
38428.308,-8.301,-16.602,-15.625,0.488,0.000,0
38428.312,-6.836,-17.578,-16.602,4.395,0.000,0
38428.315,-17.090,-24.902,-15.625,-11.719,0.000,0
38428.319,-10.742,-30.762,-12.207,-17.090,0.000,0
38428.323,-1.465,-15.137,-6.836,-3.906,0.000,0
38428.327,5.859,-13.672,-5.371,-6.836,0.000,0
38428.331,3.418,-22.949,-8.301,-16.602,0.000,0
38428.335,-7.812,-40.527,-7.812,-15.137,0.000,0
38428.339,-11.230,-45.898,-13.672,-13.672,0.000,0
38428.343,-13.184,-33.691,-19.043,-13.672,0.000,0
38428.347,-20.996,-38.086,-20.996,-8.789,0.000,0
38428.351,0.488,-39.062,-19.531,1.953,0.000,0
38428.355,-0.977,-35.156,-24.414,0.000,0.000,0
38428.358,-12.207,-40.039,-27.344,-12.207,0.000,0
38428.362,11.230,-26.855,-13.672,-3.906,0.000,0
38428.366,18.555,-15.625,-9.277,2.930,0.000,0
38428.370,-4.395,-21.973,-20.508,-15.137,0.000,0
38428.374,-5.859,1.465,-25.391,-11.719,0.000,0
38428.378,1.953,4.395,-17.578,-5.371,0.000,0
38428.382,-6.348,-7.324,-17.578,-2.930,0.000,0
38428.386,-1.465,-16.602,-19.531,-5.371,0.000,0
38428.390,3.418,-22.461,-22.949,-22.461,0.000,0
38428.394,-2.441,-39.551,-19.043,-19.531,0.000,0
38428.397,-18.066,-55.176,-13.184,-5.371,0.000,0
38428.401,-17.578,-25.879,-24.902,0.000,0.000,0
38428.405,-8.789,-26.367,-31.250,-0.977,0.000,0
38428.409,-18.066,-35.645,-23.926,-7.324,0.000,0
38428.413,-27.344,-43.457,-20.508,-12.207,0.000,0
38428.417,-17.090,-60.547,-15.137,-24.902,0.000,0
38428.421,-14.648,-46.387,-17.090,-16.113,0.000,0
38428.425,-27.832,-45.410,-17.578,-7.812,0.000,0
38428.429,-29.785,-39.062,-21.973,-17.090,0.000,0
38428.433,-26.855,-41.016,-26.367,-20.020,0.000,0
38428.437,-14.648,-67.871,-19.043,-10.254,0.000,0
38428.440,-20.508,-56.152,-23.438,-18.066,0.000,0
38428.444,-44.922,-34.180,-29.785,-28.809,0.000,0
38428.448,-33.691,-22.949,-25.879,-18.066,0.000,0
38428.452,-18.555,-41.504,-18.555,-20.508,0.000,0
38428.456,-19.043,-90.820,-7.324,-27.832,0.000,0
38428.460,-25.879,-70.312,-19.043,-34.180,0.000,0
38428.464,-24.414,-55.176,-28.809,-24.414,0.000,0
38428.468,-20.508,-76.172,-26.855,-10.742,0.000,0
38428.472,-18.066,-95.215,-19.531,-7.812,0.000,0
38428.476,-20.508,-80.078,-16.113,-12.695,0.000,0
38428.480,-31.738,-48.340,-22.461,-22.949,0.000,0
38428.483,-24.414,-40.039,-20.508,-21.484,0.000,0
38428.487,-13.672,-50.781,-8.301,-3.418,0.000,0
38428.491,-24.902,-38.574,-10.742,-16.602,0.000,0
38428.495,-33.203,-51.270,-18.066,-39.062,0.000,0
38428.499,-24.902,-61.035,-11.719,-17.578,0.000,0
38428.503,-13.672,-56.152,-10.742,-14.648,0.000,0
38428.507,-20.508,-44.434,-19.043,-29.785,0.000,0
38428.511,-20.020,-40.039,-23.438,-26.855,0.000,0
38428.515,-25.879,-64.453,-22.949,-35.645,0.000,0
38428.519,-53.223,-40.527,-27.832,-41.504,0.000,0
38428.522,-41.016,-20.508,-29.785,-32.227,0.000,0
38428.526,-34.180,-33.203,-24.902,-39.551,0.000,0
38428.530,-43.945,-35.156,-22.949,-40.039,0.000,0
38428.534,-39.062,-42.480,-19.531,-29.297,0.000,0
38428.538,-39.062,-44.434,-20.508,-27.344,0.000,0
38428.542,-37.109,-41.504,-30.273,-30.273,0.000,0
38428.546,-34.668,-50.293,-23.926,-33.203,0.000,0
38428.550,-23.926,-40.039,-21.484,-31.738,0.000,0
38428.554,-18.066,-38.086,-27.344,-33.691,0.000,0
38428.558,-29.297,-29.297,-25.879,-32.715,0.000,0
38428.562,-32.227,-13.672,-27.344,-30.762,0.000,0
38428.565,-38.574,-13.672,-28.809,-14.160,0.000,0
38428.569,-26.855,-13.184,-24.902,-6.836,0.000,0
38428.573,-32.715,-27.832,-18.555,-24.902,0.000,0
38428.577,-41.504,-0.488,-17.090,-12.207,0.000,0
38428.581,-20.020,29.785,-21.484,-9.277,0.000,0
38428.585,-18.555,25.879,-20.996,-20.996,0.000,0
38428.589,-31.738,22.461,-20.996,-6.348,0.000,0
38428.593,-21.973,0.488,-17.578,-6.348,0.000,0
38428.597,-17.090,12.695,-9.766,-26.367,0.000,0
38428.601,-18.555,41.992,-7.324,-19.043,0.000,0
38428.605,-15.137,25.391,-11.230,-7.812,0.000,0
38428.608,-6.836,4.883,-8.301,-8.789,0.000,0
38428.612,-8.301,0.488,-5.371,-15.625,0.000,0
38428.616,-18.555,1.465,-3.418,-17.578,0.000,0
38428.620,-13.184,4.395,0.488,-9.766,0.000,0
38428.624,-14.160,1.953,-2.930,-4.883,0.000,0
38428.628,-11.719,9.277,-2.930,-6.348,0.000,0
38428.632,-6.836,10.254,-1.953,-11.719,0.000,0
38428.636,-16.602,-10.254,7.324,-11.719,0.000,0
38428.640,-17.090,-6.836,4.883,4.883,0.000,0
38428.644,-8.301,2.441,-2.441,-0.488,0.000,0
38428.647,-10.254,-1.953,0.000,-13.672,0.000,0
38428.651,-6.836,-14.648,0.488,-2.441,0.000,0
38428.655,-7.812,-21.973,2.441,-0.977,0.000,0
38428.659,0.977,-1.465,-4.395,-8.301,0.000,0
38428.663,-3.418,10.742,-12.695,-2.441,0.000,0
38428.667,-2.930,-12.695,-3.906,6.836,0.000,0
38428.671,1.465,-24.414,-0.488,3.418,0.000,0
38428.675,-11.230,-27.344,-9.766,-14.648,0.000,0
38428.679,-4.883,-29.785,-10.254,-5.371,0.000,0
38428.683,-4.883,-29.785,1.953,8.789,0.000,0
38428.687,-20.996,-10.254,-4.395,-1.953,0.000,0
38428.690,-19.043,-31.250,-18.066,-19.043,0.000,0
38428.694,-31.250,-47.852,-16.602,-21.484,0.000,0
38428.698,-31.250,-25.391,-16.113,-29.785,0.000,0
38428.702,-26.367,-30.762,-19.531,-22.949,0.000,0
38428.706,-36.133,-37.109,-17.578,-16.602,0.000,0
38428.710,-32.227,-47.852,-17.090,-20.508,0.000,0
38428.714,-36.133,-53.711,-16.602,-20.508,0.000,0
38428.718,-38.574,-39.551,-27.344,-33.691,0.000,0
38428.722,-30.762,-42.969,-28.809,-32.227,0.000,0
38428.726,-26.855,-53.223,-20.996,-18.555,0.000,0
38428.730,-20.020,-65.430,-24.902,-23.926,0.000,0
38428.733,-29.785,-76.172,-21.973,-32.715,0.000,0
38428.737,-35.156,-62.988,-29.297,-30.762,0.000,0
38428.741,-34.668,-53.223,-32.715,-21.484,0.000,0
38428.745,-42.480,-45.410,-30.762,-24.902,0.000,0
38428.749,-29.785,-52.734,-30.762,-24.902,0.000,0
38428.753,-40.527,-65.430,-22.461,-28.809,0.000,0
38428.757,-46.387,-32.715,-27.832,-23.438,0.000,0
38428.761,-24.414,-23.438,-33.691,-14.648,0.000,0
38428.765,-30.273,-28.320,-29.785,-28.809,0.000,0
38428.769,-34.668,-31.738,-22.949,-26.855,0.000,0
38428.772,-41.016,-53.711,-19.043,-14.160,0.000,0
38428.776,-37.109,-21.484,-30.762,-24.902,0.000,0
38428.780,-28.320,-10.254,-41.504,-35.156,0.000,0
38428.784,-26.855,-27.832,-36.621,-21.484,0.000,0
38428.788,-15.137,-14.648,-35.645,-18.066,0.000,0
38428.792,-20.996,-32.227,-40.039,-39.062,0.000,0
38428.796,-36.133,-6.836,-41.016,-39.551,0.000,0
38428.800,-38.086,-17.578,-29.785,-24.902,0.000,0
38428.804,-36.621,-28.320,-27.832,-24.902,0.000,0
38428.808,-35.645,-13.184,-33.691,-30.762,0.000,0
38428.812,-30.273,-36.621,-29.297,-37.109,0.000,1
38428.815,-36.621,-15.137,-29.785,-29.297,0.000,0
38428.819,-39.551,10.742,-41.016,-34.180,0.000,0
38428.823,-29.785,5.371,-44.434,-35.156,0.000,0
38428.827,-15.625,-10.742,-40.527,-30.273,0.000,0
38428.831,-20.020,-52.734,-25.391,-30.762,0.000,0
38428.835,-36.621,-25.391,-22.461,-25.391,0.000,0
38428.839,-23.438,7.812,-27.344,-20.508,0.000,0
38428.843,-20.020,0.977,-18.066,-6.836,0.000,0
38428.847,-14.160,-13.672,-15.625,-6.348,0.000,0
38428.851,-20.996,-38.574,-23.926,-18.066,0.000,0
38428.855,-24.414,-19.043,-23.438,-13.184,0.000,0
38428.858,-9.277,-0.977,-24.902,-3.418,0.000,0
38428.862,-30.762,-10.254,-29.297,-20.508,0.000,0
38428.866,-38.086,-0.977,-31.738,-23.926,0.000,0
38428.870,-31.738,-13.672,-37.598,-17.578,0.000,0
38428.874,-36.621,-22.949,-29.785,-11.719,0.000,0
38428.878,-28.809,-12.207,-24.902,-5.371,0.000,0
38428.882,-20.996,-20.020,-28.320,-9.766,0.000,0
38428.886,-22.461,-32.715,-25.879,-4.883,0.000,0
38428.890,-26.855,-29.785,-27.344,-4.395,0.000,0
38428.894,-42.480,-33.691,-34.668,-18.066,0.000,0
38428.897,-34.180,-10.254,-44.434,-24.414,0.000,0
38428.901,-22.949,-2.441,-42.480,-19.531,0.000,0
38428.905,-20.508,-26.367,-31.250,-7.324,0.000,0
38428.909,-25.879,-39.062,-34.180,-14.160,0.000,0
38428.913,-42.969,-20.508,-38.574,-25.879,0.000,0
38428.917,-31.738,2.930,-29.785,-16.602,0.000,0
38428.921,-10.254,-24.414,-23.926,-3.906,0.000,0
38428.925,-15.625,-20.508,-31.250,-13.184,0.000,0
38428.929,-28.320,-12.695,-33.203,-30.762,0.000,0
38428.933,-30.273,-20.020,-32.227,-35.645,0.000,0
38428.937,-17.090,-3.418,-30.762,-25.879,0.000,0
38428.940,-10.742,2.441,-36.621,-25.391,0.000,0
38428.944,-23.438,-0.977,-45.410,-20.508,0.000,0
38428.948,-21.484,-7.324,-33.203,-17.090,0.000,0
38428.952,-7.324,-6.348,-23.926,-21.973,0.000,0
38428.956,-25.879,-2.930,-32.715,-22.949,0.000,0
38428.960,-27.344,-8.301,-41.504,-22.461,0.000,0
38428.964,-10.742,-9.766,-32.715,-19.043,0.000,0
38428.968,-20.020,-20.020,-21.484,-16.602,0.000,0
38428.972,-27.832,-19.531,-35.645,-28.320,0.000,0
38428.976,-17.090,-8.789,-37.598,-29.297,0.000,0
38428.980,-15.137,-14.160,-30.762,-22.461,0.000,0
38428.983,-31.250,-27.344,-33.691,-15.137,0.000,0
38428.987,-40.039,-52.734,-29.785,-21.484,0.000,0
38428.991,-35.645,-25.391,-36.133,-40.527,0.000,0
38428.995,-34.668,-18.555,-42.480,-33.691,0.000,0
38428.999,-33.203,-28.809,-34.180,-18.066,0.000,0
38429.003,-42.480,-18.066,-33.203,-16.113,0.000,0
38429.007,-41.016,-34.180,-35.645,-24.902,0.000,0
38429.011,-22.949,-46.875,-33.691,-43.945,0.000,0
38429.015,-29.297,-34.180,-39.551,-48.828,0.000,0
38429.019,-36.133,-37.109,-42.480,-32.227,0.000,0
38429.022,-35.645,-33.691,-44.922,-22.461,0.000,0
38429.026,-36.133,-43.945,-42.969,-40.039,0.000,0
38429.030,-33.203,-60.547,-41.016,-51.270,0.000,0
38429.034,-37.598,-45.898,-49.805,-36.621,0.000,0
38429.038,-48.340,-44.922,-58.105,-43.945,0.000,0
38429.042,-50.781,-30.762,-50.781,-48.340,0.000,0
38429.046,-43.457,-23.926,-45.410,-37.109,0.000,0
38429.050,-35.645,-39.062,-46.875,-37.598,0.000,0
38429.054,-50.293,-33.203,-50.293,-37.109,0.000,0
38429.058,-48.340,-37.109,-47.363,-25.391,0.000,0
38429.062,-51.758,-27.832,-50.781,-27.344,0.000,0
38429.065,-60.059,-33.691,-53.711,-42.480,0.000,0
38429.069,-48.340,-64.941,-43.945,-44.434,0.000,0
38429.073,-40.039,-34.180,-48.340,-27.344,0.000,0
38429.077,-42.969,-6.836,-53.711,-24.414,0.000,0
38429.081,-51.758,-17.090,-50.781,-27.832,0.000,0
38429.085,-42.969,-50.293,-40.527,-17.090,0.000,0
38429.089,-22.949,-81.055,-28.809,-10.254,0.000,0
38429.093,-23.926,-23.926,-36.621,-20.508,0.000,0
38429.097,-37.109,-10.742,-46.387,-20.996,0.000,0
38429.101,-28.809,-35.645,-40.527,-6.836,0.000,0
38429.105,-26.855,-32.715,-38.574,-14.160,0.000,0
38429.108,-31.250,-51.758,-32.227,-28.320,0.000,0
38429.112,-27.832,-31.738,-21.973,-28.320,0.000,0
38429.116,-17.578,-32.227,-24.902,-28.320,0.000,0
38429.120,-14.648,-44.922,-29.785,-28.809,0.000,0
38429.124,-40.039,-43.457,-33.203,-24.902,0.000,0
38429.128,-31.738,-62.988,-31.738,-21.973,0.000,0
38429.132,-20.020,-43.945,-30.273,-21.973,0.000,0
38429.136,-24.902,-28.809,-34.668,-17.578,0.000,0
38429.140,-18.555,-47.363,-32.227,-19.531,0.000,0
38429.144,-12.695,-70.801,-19.531,-22.949,0.000,0
38429.147,-1.465,-91.309,-9.277,-20.020,0.000,0
38429.151,-2.930,-56.641,-16.113,-20.996,0.000,0
38429.155,8.301,-40.527,-10.742,-21.484,0.000,0
38429.159,1.465,-52.734,-12.207,-15.625,0.000,0
38429.163,-13.184,-43.945,-17.090,-18.066,0.000,0
38429.167,12.207,-54.199,-6.348,-18.555,0.000,0
38429.171,7.812,-45.898,-16.113,-7.812,0.000,0
38429.175,-7.812,-32.715,-28.809,-10.254,0.000,0
38429.179,-0.977,-29.785,-26.367,-20.020,0.000,0
38429.183,1.953,-27.832,-22.461,-18.555,0.000,0
38429.187,-6.836,-44.922,-19.043,-22.949,0.000,0
38429.190,-15.137,-31.738,-22.949,-24.902,0.000,0
38429.194,-13.672,-16.113,-26.367,-13.184,0.000,0
38429.198,-17.578,-33.691,-27.344,-15.137,0.000,0
38429.202,-26.367,-31.250,-29.785,-18.555,0.000,0
38429.206,-14.160,-48.340,-14.160,-16.113,0.000,0
38429.210,-20.996,-46.387,-15.625,-10.742,0.000,0
38429.214,-31.250,-13.672,-28.320,-20.508,0.000,0
38429.218,-25.391,-15.625,-31.250,-28.320,0.000,0
38429.222,-24.902,-29.297,-23.438,-10.254,0.000,0
38429.226,-18.066,-34.668,-20.996,-5.371,0.000,0
38429.230,-9.277,-25.391,-27.344,-15.137,0.000,0
38429.233,-24.902,-20.020,-26.855,-17.090,0.000,0
38429.237,-45.898,-14.160,-27.832,-9.766,0.000,0
38429.241,-27.832,13.184,-33.203,-10.254,0.000,0
38429.245,-19.531,15.625,-35.156,-5.371,0.000,0
38429.249,-20.508,2.930,-29.297,9.766,0.000,0
38429.253,-13.672,12.695,-21.973,5.371,0.000,0
38429.257,-24.414,15.137,-21.973,-6.348,0.000,0
38429.261,-31.250,13.184,-21.973,-6.836,0.000,0
38429.265,-22.949,2.930,-21.973,-12.695,0.000,0
38429.269,-19.043,0.488,-29.785,-31.738,0.000,0
38429.272,-27.832,9.766,-36.621,-32.227,0.000,0
38429.276,-26.855,2.930,-31.250,-21.484,0.000,0
38429.280,-26.367,-7.324,-26.855,-27.344,0.000,0
38429.284,-29.785,-8.789,-31.250,-19.043,0.000,0
38429.288,-20.508,-20.508,-30.762,-27.832,0.000,0
38429.292,-11.230,-9.766,-29.785,-31.738,0.000,0
38429.296,-16.113,-3.418,-28.320,-9.766,0.000,0
38429.300,-17.090,-22.949,-35.645,-8.789,0.000,0
38429.304,-9.766,-12.207,-38.574,-9.766,0.000,0
38429.308,-8.789,-2.930,-39.062,-11.719,0.000,0
38429.312,-15.625,-8.301,-38.086,-5.859,0.000,0
38429.315,-16.602,-6.836,-26.855,-10.742,0.000,0
38429.319,-12.695,-7.812,-24.414,-20.996,0.000,0
38429.323,-24.902,-16.113,-30.762,-26.367,0.000,0
38429.327,-33.203,-18.066,-29.785,-31.738,0.000,0
38429.331,-35.645,-10.254,-22.949,-28.809,0.000,0
38429.335,-34.668,-1.465,-25.391,-26.855,0.000,0
38429.339,-14.648,-5.371,-26.367,-19.043,0.000,0
38429.343,-28.320,-33.691,-22.461,-20.508,0.000,0
38429.347,-40.527,-22.461,-29.785,-32.227,0.000,0
38429.351,-22.949,6.836,-29.785,-20.020,0.000,0
38429.355,-25.879,-7.324,-25.879,-17.578,0.000,0
38429.358,-37.598,-9.277,-28.320,-19.043,0.000,0
38429.362,-25.879,-9.766,-24.414,-8.301,0.000,0
38429.366,-23.926,-37.109,-20.508,-5.859,0.000,0
38429.370,-34.668,-30.762,-22.461,-13.672,0.000,0
38429.374,-34.668,-35.645,-27.832,-23.926,0.000,0
38429.378,-29.297,-41.016,-36.133,-22.949,0.000,0
38429.382,-20.020,-41.992,-27.832,-24.902,0.000,0
38429.386,-29.785,-56.152,-19.043,-15.625,0.000,0
38429.390,-26.855,-28.320,-25.391,-10.742,0.000,0
38429.394,-13.184,-21.484,-25.391,-10.742,0.000,0
38429.397,-16.113,-25.879,-21.973,-11.719,0.000,0
38429.401,-26.855,-24.414,-18.555,-21.484,0.000,0
38429.405,-17.090,-25.391,-14.648,-23.926,0.000,2
38429.409,-18.555,4.395,-27.344,-26.367,0.000,0
38429.413,-25.391,6.348,-28.320,-21.484,0.000,0
38429.417,-14.160,-18.066,-23.438,-13.672,0.000,0
38429.421,-17.578,-24.902,-31.250,-20.020,0.000,0
38429.425,-23.926,-27.832,-32.227,-22.461,0.000,0
38429.429,-16.113,-9.277,-31.738,-13.672,0.000,0
38429.433,-18.066,-5.859,-34.180,-17.090,0.000,0
38429.437,-18.555,0.000,-33.691,-24.902,0.000,0
38429.440,-17.578,0.488,-31.738,-30.273,0.000,0
38429.444,-20.508,-22.949,-22.949,-22.461,0.000,0
38429.448,-18.066,-2.930,-21.973,-13.184,0.000,0
38429.452,-21.484,-5.371,-30.273,-15.625,0.000,0
38429.456,-25.391,-15.137,-32.227,-22.949,0.000,0
38429.460,-20.020,-11.719,-26.855,-18.066,0.000,0
38429.464,-17.090,-26.855,-26.367,-24.902,0.000,0
38429.468,-18.066,-6.836,-33.203,-25.879,0.000,0
38429.472,-23.438,-5.371,-31.250,-24.902,0.000,0
38429.476,-23.926,-21.484,-23.926,-27.344,0.000,0
38429.480,-23.438,-18.555,-32.227,-25.879,0.000,0
38429.483,-22.949,-38.574,-25.879,-33.203,0.000,0
38429.487,-6.348,-35.156,-21.484,-22.949,0.000,0
38429.491,1.953,-19.043,-31.738,-0.488,0.000,0
38429.495,-21.973,-7.324,-27.344,-17.090,0.000,0
38429.499,-32.227,2.930,-27.344,-44.434,0.000,0
38429.503,-31.250,-31.738,-38.574,-47.363,0.000,0
38429.507,-32.715,-19.043,-45.410,-43.945,0.000,0
38429.511,-39.551,32.715,-52.734,-45.898,0.000,0
38429.515,-36.621,31.250,-54.199,-37.109,0.000,0
38429.519,-31.250,8.789,-49.805,-17.578,0.000,0
38429.522,-31.250,-11.719,-34.180,-17.578,0.000,0
38429.526,-25.879,11.230,-30.273,-28.320,0.000,0
38429.530,-24.902,21.973,-36.621,-27.832,0.000,0
38429.534,-27.344,5.859,-36.133,-22.461,0.000,0
38429.538,-33.203,7.324,-36.133,-20.020,0.000,0
38429.542,-29.297,-4.883,-39.062,-27.832,0.000,0
38429.546,-14.160,3.418,-37.598,-23.926,0.000,0
38429.550,-26.855,22.461,-35.156,-21.973,0.000,0
38429.554,-33.691,20.508,-36.133,-30.273,0.000,0
38429.558,-33.203,22.461,-44.434,-26.367,0.000,0
38429.562,-35.645,11.719,-38.086,-32.227,0.000,0
38429.565,-23.438,7.324,-31.738,-34.668,0.000,0
38429.569,-25.391,21.973,-40.527,-27.832,0.000,0
38429.573,-34.668,3.418,-37.109,-44.434,0.000,0
38429.577,-32.715,-30.762,-34.668,-50.293,0.000,0
38429.581,-27.832,-21.973,-34.668,-29.785,0.000,0
38429.585,-26.367,-11.230,-33.203,-22.461,0.000,0
38429.589,-30.762,-10.254,-31.250,-12.695,0.000,0
38429.593,-37.109,-21.973,-34.180,-8.789,0.000,0
38429.597,-20.020,-21.973,-37.598,-19.043,0.000,0
38429.601,-20.996,-25.391,-26.855,-33.203,0.000,0
38429.605,-39.062,-27.832,-21.484,-41.992,0.000,0
38429.608,-24.902,-34.180,-22.949,-31.250,0.000,0
38429.612,-16.602,-35.645,-28.809,-21.973,0.000,0
38429.616,-28.320,-21.973,-30.273,-20.508,0.000,0
38429.620,-29.297,-14.160,-36.133,-20.996,0.000,0
38429.624,-20.996,-39.551,-33.691,3.906,0.000,0
38429.628,-27.344,-55.176,-19.043,5.371,0.000,0
38429.632,-32.715,-40.039,-29.785,-24.414,0.000,0
38429.636,-28.809,-24.414,-40.039,-34.668,0.000,0
38429.640,-30.762,-41.504,-32.715,-38.086,0.000,0
38429.644,-27.832,-45.898,-25.391,-32.227,0.000,0
38429.647,-25.391,-32.227,-31.738,-21.973,0.000,0
38429.651,-25.879,-44.434,-38.574,-27.832,0.000,0
38429.655,-34.180,-45.410,-29.785,-28.809,0.000,0
38429.659,-20.508,-40.527,-19.531,-18.555,0.000,0
38429.663,-17.090,-55.176,-20.996,-16.602,0.000,0
38429.667,-27.832,-45.898,-29.297,-15.625,0.000,0
38429.671,-36.133,-48.828,-23.926,-20.508,0.000,0
38429.675,-27.344,-48.828,-18.555,-28.320,0.000,0
38429.679,-10.742,-54.199,-27.344,-33.203,0.000,0
38429.683,-25.879,-65.430,-33.203,-32.227,0.000,0
38429.687,-42.480,-42.969,-33.691,-31.250,0.000,0
38429.690,-30.273,-38.574,-33.203,-23.438,0.000,0
38429.694,-31.250,-35.645,-30.762,-16.113,0.000,0
38429.698,-35.156,-46.875,-31.250,-22.949,0.000,0
38429.702,-20.996,-73.242,-32.227,-25.879,0.000,0
38429.706,-22.949,-50.781,-29.785,-23.438,0.000,0
38429.710,-8.789,-47.852,-25.879,-21.973,0.000,0
38429.714,-1.465,-51.270,-24.414,-20.996,0.000,0
38429.718,-27.344,-48.828,-25.879,-24.414,0.000,0
38429.722,-29.297,-48.340,-26.367,-26.855,0.000,0
38429.726,-28.320,-23.438,-33.203,-20.508,0.000,0
38429.730,-20.508,-27.832,-33.203,-24.414,0.000,0
38429.733,-27.344,-38.574,-28.809,-24.902,0.000,0
38429.737,-22.949,-37.109,-28.809,-19.531,0.000,0
38429.741,0.000,-51.758,-18.066,-16.113,0.000,0
38429.745,-7.324,-35.156,-16.602,-15.137,0.000,0
38429.749,-19.043,-19.531,-21.973,-17.090,0.000,0
38429.753,-20.996,-17.578,-33.691,-21.973,0.000,0
38429.757,-23.438,-25.391,-39.551,-20.508,0.000,0
38429.761,-28.809,-48.828,-21.484,-21.484,0.000,0
38429.765,-26.855,-22.949,-28.809,-25.879,0.000,0
38429.769,-25.391,-14.648,-40.039,-20.996,0.000,0
38429.772,-22.461,-24.902,-35.156,-19.531,0.000,0
38429.776,-19.531,-26.855,-34.668,-13.184,0.000,0
38429.780,-24.902,-50.293,-31.738,-14.160,0.000,0
38429.784,-25.879,-33.691,-32.715,-31.738,0.000,0
38429.788,-13.672,-11.230,-34.668,-35.645,0.000,0
38429.792,-21.484,-32.715,-37.598,-14.160,0.000,0
38429.796,-22.461,-35.156,-40.039,-4.395,0.000,0
38429.800,-21.973,-36.621,-39.551,-18.066,0.000,0
38429.804,-34.180,-30.762,-41.504,-23.438,0.000,0
38429.808,-21.973,-26.367,-34.668,-11.230,0.000,0
38429.812,-20.020,-27.832,-30.273,-15.625,0.000,0
38429.815,-16.602,-18.555,-32.227,-20.020,0.000,0
38429.819,-12.695,-32.227,-27.832,-13.672,0.000,0
38429.823,-10.254,-31.250,-22.461,-22.949,0.000,0
38429.827,-0.488,-15.137,-21.484,-23.926,0.000,0
38429.831,-14.648,-24.414,-20.020,-2.441,0.000,0
38429.835,-13.184,-28.809,-19.531,2.930,0.000,0
38429.839,-2.441,-35.645,-17.578,3.418,0.000,0
38429.843,-5.859,-14.648,-13.184,3.906,0.000,0
38429.847,-19.531,0.488,-21.484,-7.324,0.000,0
38429.851,-23.926,-6.836,-28.809,-6.836,0.000,0
38429.855,-17.090,-4.395,-24.902,2.930,0.000,0
38429.858,-27.344,-22.461,-23.926,-9.766,0.000,0
38429.862,-30.762,-20.020,-27.832,-12.695,0.000,0
38429.866,-20.508,-9.277,-29.785,1.465,0.000,0
38429.870,-15.137,-12.207,-29.297,7.324,0.000,0
38429.874,-21.973,-7.324,-31.250,-15.625,0.000,0
38429.878,-36.133,-16.602,-26.367,-35.156,0.000,0
38429.882,-23.926,-8.789,-22.461,-13.672,0.000,0
38429.886,-9.766,6.836,-25.391,-11.719,0.000,0
38429.890,-15.625,4.395,-22.949,-19.531,0.000,0
38429.894,-19.043,1.953,-22.949,-11.719,0.000,0
38429.897,-19.531,-11.230,-24.414,-7.812,0.000,0
38429.901,-20.020,1.465,-23.438,-12.695,0.000,0
38429.905,-19.043,27.832,-27.344,-20.996,0.000,0
38429.909,-22.461,28.320,-30.762,-9.766,0.000,0
38429.913,-9.277,11.719,-20.020,-9.277,0.000,0
38429.917,1.953,11.230,-18.555,-7.324,0.000,0
38429.921,0.977,46.875,-23.438,-1.953,0.000,0
38429.925,0.977,33.691,-16.602,4.395,0.000,0
38429.929,6.348,12.207,-8.301,8.301,0.000,0
38429.933,13.184,21.484,-6.836,10.742,0.000,0
38429.937,14.160,10.254,-18.066,10.742,0.000,0
38429.940,11.230,-14.160,-16.113,1.953,0.000,0
38429.944,6.836,11.719,-13.184,-0.488,0.000,0
38429.948,2.441,43.945,-23.926,-5.859,0.000,0
38429.952,0.488,19.531,-30.273,-10.742,0.000,0
38429.956,-15.137,-34.180,-21.973,-16.602,0.000,0
38429.960,-20.020,-37.598,-25.879,-29.297,0.000,0
38429.964,-20.020,-5.371,-36.621,-26.855,0.000,0
38429.968,-39.551,-12.207,-35.645,-31.250,0.000,0
38429.972,-33.203,-37.598,-31.250,-31.738,0.000,0
38429.976,-26.855,-39.551,-35.156,-32.715,0.000,0
38429.980,-31.738,-36.621,-35.645,-43.945,0.000,0
38429.983,-25.391,-39.551,-39.551,-36.621,0.000,0
38429.987,-29.297,-49.316,-50.781,-28.809,0.000,1
38429.991,-34.668,-36.133,-51.270,-32.227,0.000,0
38429.995,-28.320,-25.879,-48.828,-34.180,0.000,0
38429.999,-8.789,-36.621,-39.062,-19.043,0.000,0
38430.003,-20.508,-37.109,-33.203,-17.578,0.000,0
38430.007,-24.902,-26.367,-37.598,-29.785,0.000,0
38430.011,-22.949,-13.672,-38.574,-13.672,0.000,0
38430.015,-50.781,-31.250,-38.086,-15.137,0.000,0
38430.019,-50.781,-58.594,-41.016,-32.715,0.000,0
38430.022,-44.922,-32.227,-45.410,-32.227,0.000,0
38430.026,-41.504,-17.578,-49.316,-31.250,0.000,0
38430.030,-38.574,-28.809,-46.387,-31.738,0.000,0
38430.034,-33.203,-44.434,-43.945,-29.297,0.000,0
38430.038,-33.203,-53.223,-52.734,-40.039,0.000,0
38430.042,-39.062,-32.227,-51.758,-44.434,0.000,0
38430.046,-33.691,-48.340,-35.156,-40.527,0.000,0
38430.050,-27.832,-56.152,-42.480,-41.016,0.000,0
38430.054,-48.340,-53.223,-50.781,-41.016,0.000,0
38430.058,-55.664,-62.988,-40.039,-49.316,0.000,0
38430.062,-42.480,-42.480,-42.969,-42.480,0.000,0
38430.065,-29.785,-33.691,-40.527,-32.227,0.000,0
38430.069,-21.973,-32.227,-37.109,-31.250,0.000,0
38430.073,-33.203,-45.898,-41.504,-28.809,0.000,0
38430.077,-41.504,-64.453,-39.062,-30.762,0.000,0
38430.081,-33.203,-41.992,-41.504,-20.996,0.000,0
38430.085,-28.809,-40.527,-41.992,-23.438,0.000,0
38430.089,-31.250,-41.016,-36.621,-29.785,0.000,0
38430.093,-27.344,-42.969,-33.203,-18.555,0.000,0
38430.097,-20.996,-55.664,-35.156,-34.180,0.000,0
38430.101,-13.672,-36.133,-41.992,-40.039,0.000,0
38430.105,-31.738,-41.992,-40.527,-35.645,0.000,0
38430.108,-24.414,-45.410,-41.504,-23.438,0.000,0
38430.112,-22.461,-45.410,-47.363,-30.273,0.000,0
38430.116,-36.621,-83.496,-41.016,-47.852,0.000,0
38430.120,-27.344,-72.266,-39.551,-36.133,0.000,0
38430.124,-26.367,-40.527,-46.875,-26.367,0.000,0
38430.128,-33.203,-38.086,-45.898,-25.391,0.000,0
38430.132,-26.367,-40.039,-44.434,-35.645,0.000,0
38430.136,-20.020,-65.918,-35.156,-40.527,0.000,0
38430.140,-29.785,-39.062,-42.969,-41.016,0.000,0
38430.144,-36.133,-11.719,-54.688,-50.293,0.000,0
38430.147,-34.180,-35.156,-45.410,-44.434,0.000,0
38430.151,-27.832,-49.805,-37.598,-33.691,0.000,0
38430.155,-19.531,-56.152,-35.156,-35.645,0.000,0
38430.159,-29.785,-35.156,-36.621,-34.180,0.000,0
38430.163,-27.832,-20.020,-36.133,-35.156,0.000,0
38430.167,-23.438,-23.438,-36.133,-33.203,0.000,0
38430.171,-38.574,-28.809,-40.039,-35.156,0.000,0
38430.175,-22.949,-31.250,-33.203,-41.016,0.000,0
38430.179,-31.738,-26.367,-28.320,-42.480,0.000,0
38430.183,-38.086,-26.855,-38.574,-35.156,0.000,0
38430.187,-27.832,-16.602,-43.945,-16.602,0.000,0
38430.190,-43.457,-28.320,-31.738,-15.625,0.000,0
38430.194,-36.133,-44.434,-29.297,-22.461,0.000,0
38430.198,-37.109,-18.066,-44.434,-18.066,0.000,0
38430.202,-48.828,-5.859,-52.734,-31.738,0.000,0
38430.206,-39.062,-22.949,-38.574,-28.809,0.000,0
38430.210,-21.973,-46.875,-30.273,-23.926,0.000,0
38430.214,-26.855,-39.062,-36.133,-34.180,0.000,0
38430.218,-45.410,-43.945,-33.691,-35.645,0.000,0
38430.222,-45.410,-49.805,-30.762,-26.367,0.000,0
38430.226,-33.203,-26.367,-32.715,-7.324,0.000,0
38430.230,-27.832,-29.297,-31.250,-9.766,0.000,0
38430.233,-19.043,-40.527,-21.484,-15.625,0.000,0
38430.237,-24.902,-42.480,-17.578,-7.324,0.000,0
38430.241,-24.414,-37.598,-30.762,-12.207,0.000,0
38430.245,-16.602,-29.297,-28.320,-21.484,0.000,0
38430.249,-26.367,-29.785,-23.926,-24.414,0.000,0
38430.253,-23.926,-36.133,-27.832,-41.016,0.000,0
38430.257,-19.531,-14.648,-28.809,-42.969,0.000,0
38430.261,-29.297,4.395,-36.133,-32.227,0.000,0
38430.265,-31.738,-14.648,-41.992,-21.484,0.000,0
38430.269,-20.996,-29.297,-38.086,-11.719,0.000,0
38430.272,-17.090,-33.203,-35.156,-9.277,0.000,0
38430.276,-23.926,-27.832,-37.598,-17.090,0.000,0
38430.280,-15.625,-21.484,-36.621,-22.949,0.000,0
38430.284,-16.113,-23.926,-37.109,-11.230,0.000,0
38430.288,-24.414,-49.316,-41.504,-9.766,0.000,0
38430.292,-23.926,-42.969,-42.480,-10.254,0.000,0
38430.296,-16.602,-15.625,-44.434,-9.766,0.000,0
38430.300,-11.719,-38.086,-38.574,-20.020,0.000,0
38430.304,-24.414,-41.504,-37.598,-20.508,0.000,0
38430.308,-35.156,-37.598,-45.410,-12.695,0.000,0
38430.312,-29.785,-40.039,-36.621,-17.090,0.000,0
38430.315,-23.926,-28.320,-34.668,-18.555,0.000,0
38430.319,-30.762,-23.438,-44.922,-25.391,0.000,0
38430.323,-30.762,-27.832,-42.480,-14.648,0.000,0
38430.327,-33.203,-24.902,-37.109,-6.348,0.000,0
38430.331,-41.504,-30.762,-34.180,-32.227,0.000,0
38430.335,-38.086,-19.043,-45.898,-24.414,0.000,0
38430.339,-28.809,-17.578,-54.688,-13.184,0.000,0
38430.343,-28.809,-31.250,-52.246,-33.691,0.000,0
38430.347,-43.945,-28.320,-42.480,-34.180,0.000,0
38430.351,-40.527,-42.969,-41.016,-24.902,0.000,0
38430.355,-41.504,-38.086,-47.363,-28.320,0.000,0
38430.358,-39.551,-20.508,-40.039,-26.855,0.000,0
38430.362,-30.762,-33.203,-34.668,-20.508,0.000,0
38430.366,-39.551,-24.902,-43.457,-27.344,0.000,0
38430.370,-41.504,-32.227,-44.922,-24.902,0.000,0
38430.374,-35.156,-51.758,-37.598,-13.672,0.000,0
38430.378,-21.484,-34.668,-36.621,-29.785,0.000,0
38430.382,-26.367,-30.273,-42.480,-38.574,0.000,0
38430.386,-20.996,-25.879,-37.598,-28.320,0.000,0
38430.390,-8.789,-40.527,-21.973,-20.996,0.000,0
38430.394,-9.277,-34.180,-18.555,-20.020,0.000,0
38430.397,-12.207,-20.996,-27.832,-23.438,0.000,0
38430.401,-13.184,-34.180,-31.250,-11.230,0.000,0
38430.405,-6.836,-32.227,-27.832,-10.742,0.000,0
38430.409,-4.883,-38.574,-23.926,-28.320,0.000,0
38430.413,-9.766,-26.855,-25.391,-20.020,0.000,0
38430.417,-18.066,-15.137,-25.391,-17.090,0.000,0
38430.421,-20.508,-35.156,-20.020,-20.996,0.000,0
38430.425,-17.578,-39.062,-22.461,-19.531,0.000,0
38430.429,-11.719,-35.645,-24.902,-10.254,0.000,0
38430.433,-4.883,-32.227,-19.531,-6.348,0.000,0
38430.437,-2.441,-30.273,-16.113,4.395,0.000,0
38430.440,-7.812,-39.551,-20.020,-1.953,0.000,0
38430.444,-21.484,-37.109,-23.926,-11.230,0.000,0
38430.448,-26.855,-59.570,-19.043,-4.395,0.000,0
38430.452,-24.414,-63.477,-20.020,-11.230,0.000,0
38430.456,-18.555,-39.551,-26.367,-14.648,0.000,0
38430.460,0.488,-48.828,-21.484,-8.301,0.000,0
38430.464,-2.441,-39.062,-5.371,6.836,0.000,0
38430.468,-20.508,-49.316,-4.883,-5.371,0.000,0
38430.472,-23.438,-53.223,-24.414,-17.090,0.000,0
38430.476,-29.297,-28.809,-35.645,0.488,0.000,0
38430.480,-16.602,-28.320,-32.227,12.695,0.000,0
38430.483,-5.859,-21.484,-25.391,9.277,0.000,0
38430.487,-22.949,-41.504,-22.461,-19.531,0.000,0
38430.491,-21.973,-47.363,-18.066,-25.879,0.000,0
38430.495,-15.625,-4.883,-18.066,-8.301,0.000,0
38430.499,-7.324,-6.836,-29.297,-5.859,0.000,0
38430.503,5.859,-6.836,-34.180,4.395,0.000,0
38430.507,-6.348,-11.719,-14.648,-4.395,0.000,0
38430.511,-3.906,-14.648,-4.883,-7.812,0.000,0
38430.515,19.531,18.555,-21.484,30.273,0.000,0
38430.519,10.742,19.531,-24.414,25.391,0.000,0
38430.522,-15.625,20.020,-20.020,-18.555,0.000,0
38430.526,-9.277,10.742,-16.113,-22.949,0.000,1
38430.530,8.789,6.836,-22.949,-3.418,0.000,0
38430.534,37.598,91.797,-12.207,29.785,0.000,0
38430.538,63.965,116.699,-1.465,62.500,0.000,0
38430.542,15.625,66.406,-14.160,37.109,0.000,0
38430.546,-18.555,53.711,-23.926,-2.441,0.000,0
38430.550,21.973,44.434,-22.949,17.090,0.000,0
38430.554,51.758,67.383,-15.137,47.852,0.000,0
38430.558,41.992,81.543,-29.297,39.062,0.000,0
38430.562,20.996,81.543,-47.363,24.414,0.000,0
38430.565,21.973,81.543,-28.320,17.090,0.000,0
38430.569,17.578,75.684,-19.531,3.418,0.000,0
38430.573,8.789,97.168,-37.109,-4.395,0.000,0
38430.577,8.789,103.516,-41.992,-1.465,0.000,0
38430.581,-5.859,88.379,-46.875,-1.465,0.000,0
38430.585,-10.254,73.242,-56.152,0.000,0.000,0
38430.589,-12.207,69.336,-52.246,-12.207,0.000,0
38430.593,-15.625,98.633,-44.434,-16.113,0.000,0
38430.597,-3.418,116.211,-36.621,-1.953,0.000,0
38430.601,12.695,119.629,-30.762,14.648,0.000,0
38430.605,3.418,128.418,-42.969,6.836,0.000,0
38430.608,-1.953,120.117,-50.781,-4.395,0.000,0
38430.612,-2.930,118.652,-58.105,-2.930,0.000,0
38430.616,-6.348,111.816,-59.570,2.441,0.000,0
38430.620,-2.930,101.074,-59.082,0.977,0.000,0
38430.624,6.348,98.633,-66.895,0.977,0.000,0
38430.628,2.441,52.246,-54.199,-4.395,0.000,0
38430.632,-16.602,59.570,-56.641,-14.160,0.000,0
38430.636,-19.043,102.051,-66.895,-11.230,0.000,0
38430.640,-5.859,69.824,-56.152,-14.648,0.000,0
38430.644,-12.695,36.621,-53.711,-18.555,0.000,0
38430.647,-31.250,20.508,-56.641,-24.414,0.000,0
38430.651,-22.949,26.367,-51.758,-33.203,0.000,0
38430.655,-16.602,22.461,-49.316,-26.367,0.000,0
38430.659,-34.668,7.324,-53.711,-30.273,0.000,0
38430.663,-56.641,2.441,-58.105,-50.781,0.000,0
38430.667,-53.223,-22.949,-49.805,-51.758,0.000,0
38430.671,-39.551,-29.297,-47.852,-49.316,0.000,0
38430.675,-40.527,-23.926,-53.223,-56.641,0.000,0
38430.679,-50.781,-28.809,-50.781,-48.340,0.000,0
38430.683,-48.828,-40.039,-54.199,-34.668,0.000,0
38430.687,-46.387,-65.430,-43.945,-44.922,0.000,0
38430.690,-46.875,-72.266,-38.574,-54.199,0.000,0
38430.694,-49.316,-67.871,-42.480,-52.734,0.000,0
38430.698,-56.152,-56.152,-48.340,-49.805,0.000,0
38430.702,-61.523,-82.031,-43.945,-53.711,0.000,0
38430.706,-60.547,-123.047,-26.855,-56.641,0.000,0
38430.710,-48.340,-98.145,-29.297,-53.711,0.000,0
38430.714,-57.617,-91.797,-32.715,-63.477,0.000,0
38430.718,-62.012,-114.258,-31.250,-62.988,0.000,0
38430.722,-51.758,-110.352,-35.156,-55.176,0.000,0
38430.726,-53.711,-121.582,-36.133,-60.547,0.000,0
38430.730,-59.570,-122.070,-31.250,-53.223,0.000,0
38430.733,-66.406,-112.305,-36.621,-52.734,0.000,0
38430.737,-62.012,-108.887,-39.062,-59.570,0.000,0
38430.741,-63.965,-90.332,-39.062,-59.082,0.000,0
38430.745,-51.758,-97.656,-31.250,-54.199,0.000,0
38430.749,-40.527,-118.164,-20.020,-46.875,0.000,0
38430.753,-52.734,-96.680,-21.973,-40.527,0.000,0
38430.757,-47.852,-81.543,-26.855,-47.852,0.000,0
38430.761,-46.387,-75.195,-21.973,-50.781,0.000,0
38430.765,-60.059,-97.656,-12.207,-44.922,0.000,0
38430.769,-46.875,-98.633,-16.113,-48.828,0.000,0
38430.772,-35.156,-65.430,-23.438,-44.434,0.000,0
38430.776,-25.879,-77.148,-19.043,-39.551,0.000,0
38430.780,-34.668,-85.938,-17.578,-38.574,0.000,0
38430.784,-49.805,-89.844,-15.137,-41.992,0.000,0
38430.788,-40.527,-87.891,-13.672,-45.410,0.000,0
38430.792,-44.922,-78.125,-18.555,-27.832,0.000,0
38430.796,-41.504,-84.473,-24.902,-35.645,0.000,0
38430.800,-44.922,-73.242,-28.809,-44.434,0.000,0
38430.804,-42.969,-86.426,-19.531,-31.250,0.000,0
38430.808,-25.391,-93.750,-14.648,-37.598,0.000,0
38430.812,-30.273,-60.059,-20.996,-37.598,0.000,0
38430.815,-45.898,-58.105,-21.973,-39.062,0.000,0
38430.819,-43.457,-48.828,-23.438,-46.875,0.000,0
38430.823,-33.203,-49.805,-24.902,-41.016,0.000,0
38430.827,-34.180,-52.734,-24.414,-38.086,0.000,0
38430.831,-35.645,-19.043,-22.949,-27.832,0.000,0
38430.835,-41.016,-26.855,-19.531,-33.203,0.000,0
38430.839,-44.434,-32.715,-20.996,-38.574,0.000,0
38430.843,-46.875,-32.227,-25.879,-33.203,0.000,0
38430.847,-46.875,-47.852,-31.738,-41.992,0.000,0
38430.851,-38.086,-33.691,-33.203,-38.574,0.000,0
38430.855,-34.180,-33.203,-29.297,-29.297,0.000,0
38430.858,-34.180,-38.574,-31.250,-28.320,0.000,0
38430.862,-33.691,-51.758,-33.691,-33.691,0.000,0
38430.866,-31.738,-70.312,-23.438,-40.039,0.000,0
38430.870,-38.086,-53.711,-31.738,-32.227,0.000,0
38430.874,-37.109,-52.734,-39.551,-24.414,0.000,0
38430.878,-35.645,-53.711,-38.574,-34.180,0.000,0
38430.882,-35.645,-62.988,-42.480,-37.598,0.000,0
38430.886,-25.879,-68.848,-33.691,-35.645,0.000,0
38430.890,-33.691,-40.039,-38.086,-36.133,0.000,0
38430.894,-35.645,-38.086,-35.645,-25.391,0.000,0
38430.897,-36.133,-46.387,-32.227,-15.625,0.000,0
38430.901,-39.062,-53.223,-44.434,-26.855,0.000,0
38430.905,-39.062,-57.617,-43.457,-35.645,0.000,0
38430.909,-40.527,-36.621,-38.574,-28.809,0.000,0
38430.913,-44.434,-31.250,-43.945,-31.250,0.000,0
38430.917,-29.785,-45.898,-42.480,-28.320,0.000,0
38430.921,-22.461,-40.039,-44.922,-30.273,0.000,0
38430.925,-39.551,-34.180,-46.387,-45.898,0.000,0
38430.929,-46.875,-39.062,-40.039,-45.898,0.000,0
38430.933,-48.828,-47.363,-44.922,-41.504,0.000,0
38430.937,-50.293,-49.805,-48.828,-36.133,0.000,0
38430.940,-50.293,-33.203,-47.363,-31.738,0.000,0
38430.944,-44.922,-39.062,-39.551,-33.691,0.000,0
38430.948,-31.738,-42.480,-28.320,-34.668,0.000,0
38430.952,-29.297,-34.668,-31.738,-36.621,0.000,0
38430.956,-30.273,-44.922,-28.320,-41.992,0.000,0
38430.960,-32.715,-47.363,-29.785,-39.551,0.000,0
38430.964,-43.945,-50.293,-38.574,-31.738,0.000,0
38430.968,-44.922,-44.434,-42.480,-41.016,0.000,0
38430.972,-32.227,-42.969,-37.109,-36.621,0.000,0
38430.976,-34.180,-52.246,-32.227,-26.367,0.000,0
38430.980,-36.621,-46.875,-36.621,-27.344,0.000,0
38430.983,-18.555,-49.316,-30.273,-30.762,0.000,0
38430.987,-34.668,-48.340,-32.227,-33.691,0.000,0
38430.991,-49.805,-39.551,-45.410,-33.691,0.000,0
38430.995,-41.504,-38.086,-48.828,-32.715,0.000,0
38430.999,-37.109,-36.621,-42.969,-25.879,0.000,0
38431.003,-35.645,-50.781,-37.598,-32.227,0.000,0
38431.007,-37.109,-49.805,-41.016,-35.156,0.000,0
38431.011,-36.621,-33.691,-42.480,-24.902,0.000,0
38431.015,-34.668,-32.227,-31.738,-30.762,0.000,0
38431.019,-24.414,-35.645,-26.367,-25.391,0.000,0
38431.022,-26.855,-45.898,-25.391,-19.531,0.000,0
38431.026,-29.785,-28.320,-23.926,-20.996,0.000,0
38431.030,-23.926,-11.230,-29.785,-15.625,0.000,0
38431.034,-30.762,-30.273,-32.227,-22.461,0.000,0
38431.038,-34.180,-50.781,-33.691,-30.762,0.000,0
38431.042,-32.227,-39.551,-32.227,-32.227,0.000,0
38431.046,-45.898,-16.602,-25.879,-30.273,0.000,0
38431.050,-47.852,-23.926,-24.414,-18.066,0.000,0
38431.054,-25.879,-24.414,-27.344,-24.902,0.000,0
38431.058,-22.949,-4.395,-23.438,-21.484,0.000,0
38431.062,-25.879,-17.578,-11.719,-13.184,0.000,0
38431.065,-25.879,-15.137,-7.324,-19.531,0.000,0
38431.069,-28.809,20.020,-12.207,-10.254,0.000,0
38431.073,-29.785,26.855,-20.996,-5.371,0.000,0
38431.077,-28.320,11.230,-16.602,-19.043,0.000,0
38431.081,-23.926,-35.645,-7.324,-24.414,0.000,0
38431.085,-25.391,-33.691,-18.066,-11.230,0.000,0
38431.089,-33.203,12.695,-29.297,-7.324,0.000,0
38431.093,-25.879,7.324,-25.879,-4.883,0.000,0
38431.097,-16.113,-5.371,-20.508,-7.812,0.000,0
38431.101,-11.719,-20.508,-22.461,-20.508,0.000,0
38431.105,-13.184,-20.996,-25.879,-16.602,0.000,0
38431.108,-27.832,-4.395,-28.809,-19.531,0.000,0
38431.112,-33.203,-17.090,-17.578,-17.578,0.000,0
38431.116,-32.227,-1.465,-19.043,-6.348,0.000,0
38431.120,-23.926,-12.695,-24.902,-9.766,0.000,0
38431.124,-9.277,-40.039,-8.301,-0.977,0.000,0
38431.128,-10.254,-18.066,-4.883,8.301,0.000,0
38431.132,-4.395,-14.160,-9.766,-6.348,0.000,0
38431.136,2.930,-18.555,-5.859,-4.395,0.000,0
38431.140,-10.254,-33.203,-8.789,-0.977,0.000,0
38431.144,-12.207,-12.695,-21.973,-9.277,0.000,0
38431.147,-23.926,15.625,-25.879,-16.113,0.000,0
38431.151,-18.555,-0.977,-19.531,-15.137,0.000,0
38431.155,-4.883,-11.719,-17.578,-12.207,0.000,0
38431.159,-15.137,-10.742,-14.160,-24.414,0.000,0
38431.163,-26.855,-2.930,-7.812,-26.367,0.000,0
38431.167,-20.996,-3.418,-9.277,-5.859,0.000,0
38431.171,-7.324,6.836,-20.508,5.859,0.000,0
38431.175,-6.348,-8.301,-24.902,-15.625,0.000,0
38431.179,-1.953,-24.414,-19.043,-24.414,0.000,0
38431.183,0.488,-1.465,-19.531,-12.695,0.000,0
38431.187,-14.648,-5.859,-28.809,-12.695,0.000,0
38431.190,-1.953,-12.207,-29.297,-8.789,0.000,0
38431.194,3.418,-20.020,-24.414,-4.395,0.000,0
38431.198,-3.418,-24.414,-17.578,-7.812,0.000,0
38431.202,3.418,-10.254,-14.648,-8.301,0.000,0
38431.206,-18.066,-20.508,-22.461,-8.789,0.000,0
38431.210,-27.344,-34.668,-17.578,-8.301,0.000,0
38431.214,-11.230,-31.738,-4.395,-10.742,0.000,0
38431.218,-15.625,-40.527,-20.996,-18.066,0.000,0
38431.222,-15.625,-35.156,-36.621,-9.277,0.000,0
38431.226,-13.184,-30.273,-28.320,-1.465,0.000,0
38431.230,-22.949,-43.457,-28.809,-13.672,0.000,0
38431.233,-23.926,-41.992,-30.762,-21.484,0.000,0
38431.237,-18.555,-67.383,-15.625,-17.090,0.000,0
38431.241,-19.043,-59.570,-10.742,-13.184,0.000,0
38431.245,-13.672,-31.738,-24.902,-12.695,0.000,0
38431.249,-8.789,-45.410,-28.809,-6.348,0.000,0
38431.253,-22.949,-50.293,-24.902,-7.324,0.000,1
38431.257,-36.133,-61.523,-21.973,-13.184,0.000,0
38431.261,-31.738,-41.992,-28.320,-18.066,0.000,0
38431.265,-32.715,-23.438,-36.621,-21.484,0.000,0
38431.269,-34.668,-43.945,-28.320,-17.090,0.000,0
38431.272,-16.602,-58.594,-22.461,-17.578,0.000,0
38431.276,-13.672,-57.129,-26.367,-22.461,0.000,0
38431.280,-25.879,-42.480,-25.879,-17.578,0.000,0
38431.284,-31.738,-42.969,-29.297,-18.066,0.000,0
38431.288,-34.668,-55.176,-30.273,-29.785,0.000,0
38431.292,-27.832,-29.785,-37.109,-28.809,0.000,0
38431.296,-32.715,-32.715,-35.645,-27.344,0.000,0
38431.300,-41.016,-48.828,-26.855,-36.133,0.000,0
38431.304,-28.809,-39.062,-32.227,-36.621,0.000,0
38431.308,-21.973,-25.879,-31.738,-20.020,0.000,0
38431.312,-22.949,-22.461,-28.809,-11.719,0.000,0
38431.315,-29.785,-40.039,-28.809,-13.672,0.000,0
38431.319,-24.414,-37.598,-34.668,-16.602,0.000,0
38431.323,-14.160,-19.531,-40.527,-27.832,0.000,0
38431.327,-25.879,-16.113,-34.180,-33.691,0.000,0
38431.331,-20.020,-33.203,-22.949,-16.602,0.000,0
38431.335,-5.371,-27.344,-25.391,-8.789,0.000,0
38431.339,-19.043,-27.832,-24.414,-24.414,0.000,0
38431.343,-24.414,-33.691,-26.367,-25.879,0.000,0
38431.347,-22.461,-6.836,-40.527,-10.742,0.000,0
38431.351,-29.297,7.324,-48.340,-14.160,0.000,0
38431.355,-31.250,-9.277,-43.945,-22.461,0.000,0
38431.358,-15.625,-33.203,-37.598,-20.508,0.000,0
38431.362,3.906,-34.180,-33.203,-13.672,0.000,0
38431.366,-12.207,-13.184,-35.156,-20.020,0.000,0
38431.370,-32.227,-6.836,-33.203,-16.602,0.000,0
38431.374,-18.555,-28.809,-24.902,-7.324,0.000,0
38431.378,-10.742,-19.043,-22.461,-16.113,0.000,0
38431.382,-15.625,11.230,-30.762,-22.461,0.000,0
38431.386,-20.020,8.301,-40.039,-19.043,0.000,0
38431.390,-11.719,-2.441,-30.762,-13.672,0.000,0
38431.394,-16.602,-23.926,-19.043,-17.090,0.000,0
38431.397,-36.133,-21.973,-30.762,-14.648,0.000,0
38431.401,-27.344,4.883,-43.945,-10.742,0.000,0
38431.405,-17.090,-13.672,-26.367,-6.348,0.000,0
38431.409,-16.602,-22.461,-18.555,-8.789,0.000,0
38431.413,-19.531,-37.598,-30.273,-43.945,0.000,0
38431.417,-26.367,-43.945,-32.227,-50.293,0.000,0
38431.421,-39.551,-29.785,-35.156,-32.715,0.000,0
38431.425,-33.203,-42.480,-42.969,-22.949,0.000,0
38431.429,-25.391,-38.086,-48.828,-7.812,0.000,0
38431.433,-22.461,-70.801,-37.109,-20.020,0.000,0
38431.437,-21.484,-83.984,-29.297,-33.691,0.000,0
38431.440,-30.762,-53.711,-44.434,-30.762,0.000,0
38431.444,-24.414,-69.824,-43.945,-44.922,0.000,0
38431.448,-26.855,-70.801,-33.203,-32.715,0.000,0
38431.452,-29.297,-68.359,-29.297,-17.090,0.000,0
38431.456,-22.949,-57.617,-32.227,-23.926,0.000,0
38431.460,-35.156,-34.668,-41.992,-23.926,0.000,0
38431.464,-37.109,-40.039,-43.457,-20.508,0.000,0
38431.468,-33.203,-32.227,-40.039,-19.531,0.000,0
38431.472,-40.039,-57.129,-35.156,-42.969,0.000,0
38431.476,-40.039,-65.918,-32.227,-59.082,0.000,0
38431.480,-34.180,-37.109,-42.969,-52.734,0.000,0
38431.483,-32.715,-47.852,-41.016,-45.410,0.000,0
38431.487,-44.434,-42.969,-33.203,-30.762,0.000,0
38431.491,-52.246,-45.898,-40.527,-38.574,0.000,0
38431.495,-56.152,-62.988,-30.762,-38.574,0.000,0
38431.499,-39.062,-32.227,-32.715,-21.484,0.000,0
38431.503,-23.926,-17.090,-39.551,-33.203,0.000,0
38431.507,-32.227,-17.578,-34.668,-39.551,0.000,0
38431.511,-27.832,-24.902,-32.227,-25.879,0.000,0
38431.515,-20.996,-30.762,-40.527,-36.133,0.000,0
38431.519,-33.691,-9.766,-41.504,-41.504,0.000,0
38431.522,-37.109,-18.555,-40.039,-28.320,0.000,0
38431.526,-36.133,-20.508,-36.621,-29.297,0.000,0
38431.530,-31.250,-4.883,-26.855,-21.973,0.000,0
38431.534,-25.879,-9.277,-37.598,-23.926,0.000,0
38431.538,-24.414,-14.160,-43.457,-29.785,0.000,0
38431.542,-26.855,-5.859,-35.645,-23.438,0.000,0
38431.546,-43.945,-21.973,-38.086,-42.969,0.000,0
38431.550,-40.527,-16.602,-40.527,-47.363,0.000,0
38431.554,-27.344,14.648,-40.527,-27.832,0.000,0
38431.558,-38.086,10.254,-35.156,-38.574,0.000,0
38431.562,-39.062,14.160,-45.410,-52.734,0.000,0
38431.565,-27.832,19.531,-44.922,-39.551,0.000,0
38431.569,-18.066,0.000,-34.668,-31.250,0.000,0
38431.573,-14.160,-21.484,-30.762,-22.949,0.000,0
38431.577,-20.996,2.441,-35.156,-22.949,0.000,0
38431.581,-22.949,9.277,-39.062,-34.180,0.000,0
38431.585,-25.879,6.348,-28.809,-21.973,0.000,0
38431.589,-26.367,9.277,-26.367,-27.832,0.000,0
38431.593,-23.926,6.836,-35.156,-38.086,0.000,0
38431.597,-17.090,8.789,-38.574,-38.574,0.000,0
38431.601,-14.160,2.930,-41.016,-44.434,0.000,0
38431.605,-11.230,6.348,-38.574,-40.039,0.000,0
38431.608,-20.996,9.766,-32.715,-40.527,0.000,0
38431.612,-29.297,-12.207,-36.621,-37.109,0.000,0
38431.616,-38.086,-10.254,-48.340,-27.832,0.000,0
38431.620,-35.645,15.625,-50.293,-33.691,0.000,0
38431.624,-32.715,0.977,-48.340,-46.387,0.000,0
38431.628,-35.645,-23.438,-41.992,-30.273,0.000,0
38431.632,-20.996,-17.090,-25.391,-9.766,0.000,0
38431.636,-16.113,4.395,-29.297,-18.066,0.000,0
38431.640,-27.344,0.488,-35.645,-28.320,0.000,0
38431.644,-28.809,-6.348,-24.414,-19.531,0.000,0
38431.647,-22.949,-10.254,-20.996,-8.301,0.000,0
38431.651,-32.227,-29.785,-23.438,-13.184,0.000,0
38431.655,-24.902,4.395,-28.320,-10.254,0.000,0
38431.659,-20.996,14.648,-28.809,-21.484,0.000,0
38431.663,-23.926,-2.930,-21.973,-16.602,0.000,0
38431.667,-27.344,13.184,-26.367,-0.977,0.000,0
38431.671,-31.250,4.395,-24.414,-21.484,0.000,0
38431.675,-36.621,12.695,-22.949,-19.043,0.000,0
38431.679,-32.715,23.438,-30.273,-16.113,0.000,0
38431.683,-26.367,34.180,-27.344,-9.766,0.000,0
38431.687,-30.273,45.898,-25.879,-18.066,0.000,0
38431.690,-25.879,11.230,-14.648,-28.809,0.000,0
38431.694,-20.020,18.555,-18.066,-15.137,0.000,0
38431.698,-15.625,39.062,-25.879,-23.438,0.000,0
38431.702,-1.465,30.762,-21.484,-18.066,0.000,0
38431.706,-6.836,31.738,-25.879,-20.996,0.000,0
38431.710,-29.785,11.719,-23.926,-42.480,0.000,0
38431.714,-32.715,8.789,-23.926,-41.016,0.000,0
38431.718,-31.250,23.926,-37.109,-33.203,0.000,0
38431.722,-15.137,14.160,-28.320,-15.137,0.000,0
38431.726,-11.719,29.297,-27.832,-3.906,0.000,0
38431.730,-27.832,22.949,-33.691,-24.902,0.000,0
38431.733,-27.832,-4.395,-30.273,-28.320,0.000,0
38431.737,-18.555,10.742,-20.508,-22.461,0.000,0
38431.741,-20.996,7.324,-17.578,-34.668,0.000,0
38431.745,-37.598,21.484,-34.180,-38.086,0.000,0
38431.749,-32.227,-0.488,-22.461,-43.457,0.000,0
38431.753,-24.414,-22.461,-6.836,-44.434,0.000,0
38431.757,-20.020,31.250,-31.738,-41.504,0.000,0
38431.761,-20.996,40.039,-33.691,-38.574,0.000,0
38431.765,-39.062,16.602,-20.020,-41.504,0.000,0
38431.769,-34.668,-6.836,-22.949,-53.223,0.000,0
38431.772,-28.320,12.695,-29.785,-67.383,0.000,0
38431.776,-20.020,36.133,-36.133,-39.062,0.000,0
38431.780,-11.719,11.230,-24.902,-5.371,0.000,0
38431.784,-14.648,10.254,-29.297,-16.113,0.000,0
38431.788,-6.348,4.395,-38.574,-20.020,0.000,0
38431.792,-7.812,1.953,-27.832,-18.555,0.000,0
38431.796,4.395,33.691,-23.926,-25.391,0.000,0
38431.800,27.344,28.320,-21.484,-10.742,0.000,0
38431.804,20.020,42.480,-29.297,6.836,0.000,0
38431.808,9.766,31.250,-36.133,3.418,0.000,0
38431.812,7.812,10.742,-39.551,3.906,0.000,0
38431.815,17.578,32.227,-38.574,10.254,0.000,0
38431.819,16.602,43.945,-37.109,-4.883,0.000,0
38431.823,6.348,35.156,-33.691,-17.578,0.000,0
38431.827,0.977,-4.883,-26.855,-27.344,0.000,0
38431.831,-11.230,-5.859,-37.598,-15.137,0.000,0
38431.835,-15.137,14.648,-40.039,-9.277,0.000,0
38431.839,-24.414,2.441,-34.180,-26.855,0.000,0
38431.843,-25.391,5.371,-34.668,-18.066,0.000,1
38431.847,-16.113,0.488,-40.039,-11.230,0.000,0
38431.851,-21.484,-9.277,-36.621,-24.414,0.000,0
38431.855,-12.207,-7.812,-28.320,-22.949,0.000,0
38431.858,-19.043,-2.930,-44.922,-28.320,0.000,0
38431.862,-38.086,2.441,-49.805,-13.184,0.000,0
38431.866,-16.113,1.953,-32.227,-1.465,0.000,0
38431.870,-1.953,-12.207,-25.391,-28.809,0.000,0
38431.874,-14.648,-8.301,-27.832,-22.949,0.000,0
38431.878,-20.996,10.254,-37.598,3.418,0.000,0
38431.882,-21.484,-2.930,-36.621,-6.348,0.000,0
38431.886,-7.812,-8.789,-27.832,-31.250,0.000,0
38431.890,-14.160,-11.719,-26.855,-19.531,0.000,0
38431.894,-25.391,-4.883,-25.879,-20.996,0.000,0
38431.897,-16.113,-13.672,-25.879,-30.762,0.000,0
38431.901,-11.719,-12.695,-25.391,-42.969,0.000,0
38431.905,-30.762,-10.742,-21.973,-27.832,0.000,0
38431.909,-38.086,-20.020,-28.320,-31.738,0.000,0
38431.913,-31.250,-4.395,-23.926,-49.316,0.000,0
38431.917,-44.434,-14.648,-20.020,-37.598,0.000,0
38431.921,-39.062,-15.625,-29.297,-18.555,0.000,0
38431.925,-45.410,-6.348,-33.691,-9.277,0.000,0
38431.929,-41.504,-22.949,-23.926,-24.414,0.000,0
38431.933,-33.203,-17.578,-27.344,-27.344,0.000,0
38431.937,-50.781,-3.906,-37.109,-23.926,0.000,0
38431.940,-32.715,-18.555,-22.949,-43.457,0.000,0
38431.944,-16.602,-24.414,-19.043,-23.438,0.000,0
38431.948,-14.160,-12.207,-18.555,-12.695,0.000,0
38431.952,-21.484,4.395,-16.602,-34.180,0.000,0
38431.956,-45.410,-1.465,-25.879,-29.297,0.000,0
38431.960,-67.871,-37.109,-29.297,-21.973,0.000,0
38431.964,-51.270,-22.461,-36.133,-29.785,0.000,0
38431.968,-40.039,4.883,-28.809,-46.387,0.000,0
38431.972,-30.762,0.977,-9.277,-17.578,0.000,0
38431.976,-8.301,-8.301,-23.438,-17.090,0.000,0
38431.980,-1.953,-19.531,-36.621,-20.508,0.000,0
38431.983,-48.828,-11.230,-39.062,-13.184,0.000,0
38431.987,-90.820,-12.695,-31.738,-46.875,0.000,0
38431.991,-44.922,-10.742,-26.367,-43.457,0.000,0
38431.995,-21.484,-8.301,-33.203,-14.648,0.000,0
38431.999,-9.766,-4.395,-22.461,-16.602,0.000,0
38432.003,-11.719,-4.883,-18.066,-34.180,0.000,0
38432.007,-46.387,-19.531,-17.578,-45.898,0.000,0
38432.011,-76.172,-12.207,-30.273,-60.059,0.000,0
38432.015,-82.520,-4.883,-39.551,-31.738,0.000,0
38432.019,-38.574,-13.672,-30.762,-3.906,0.000,0
38432.022,-19.531,-6.348,-36.133,-16.602,0.000,0
38432.026,-37.109,-15.625,-27.832,-33.203,0.000,0
38432.030,-28.809,-16.602,-16.602,-20.020,0.000,0
38432.034,-45.410,-1.953,-32.227,1.465,0.000,0
38432.038,-21.484,-2.441,-32.227,-4.883,0.000,0
38432.042,-30.273,0.977,-24.414,-11.230,0.000,0
38432.046,-158.691,-10.742,-19.043,-36.621,0.000,0
38432.050,-66.406,-9.277,-17.090,-48.340,0.000,0
38432.054,-19.531,3.418,-28.809,-32.715,0.000,0
38432.058,-74.219,12.207,-34.180,-40.039,0.000,0
38432.062,-0.488,-6.348,-26.855,-34.180,0.000,0
38432.065,43.457,-58.105,-16.602,-5.371,0.000,0
38432.069,7.812,-38.574,-22.949,-8.789,0.000,0
38432.073,-104.492,2.930,-30.762,-41.016,0.000,0
38432.077,-99.121,-10.254,-28.320,-42.480,0.000,0
38432.081,22.949,-7.812,-21.484,-32.227,0.000,0
38432.085,-12.695,-31.250,-21.973,-55.664,0.000,0
38432.089,-34.668,-37.109,-16.602,-43.945,0.000,0
38432.093,15.137,-10.742,-11.230,-11.230,0.000,0
38432.097,40.527,-16.113,-14.648,-5.371,0.000,0
38432.101,-35.645,10.742,-35.645,-16.602,0.000,0
38432.105,-62.012,0.977,-30.762,-22.949,0.000,0
38432.108,40.527,-26.367,-4.395,-15.625,0.000,0
38432.112,-7.812,-17.090,-14.648,-14.648,0.000,0
38432.116,-83.984,-16.113,-24.414,-35.645,0.000,0
38432.120,0.488,-19.531,-20.996,-36.621,0.000,0
38432.124,-12.207,-32.715,-23.926,-8.301,0.000,0
38432.128,0.488,-25.391,-26.855,-15.625,0.000,0
38432.132,4.883,-11.230,-28.809,-11.719,0.000,0
38432.136,-59.082,-17.578,-31.738,5.371,0.000,0
38432.140,11.719,-13.672,-37.598,1.465,0.000,0
38432.144,22.461,-10.742,-25.879,-3.418,0.000,0
38432.147,-32.227,-9.766,-29.297,-8.789,0.000,0
38432.151,-30.762,3.906,-37.109,-20.996,0.000,0
38432.155,-44.922,-1.953,-20.020,-19.531,0.000,0
38432.159,-46.387,-0.488,-25.391,-4.395,0.000,0
38432.163,-0.488,10.742,-25.391,-9.766,0.000,0
38432.167,-29.297,-19.043,-26.855,-24.902,0.000,0
38432.171,0.488,3.418,-33.691,-8.301,0.000,0
38432.175,44.922,16.113,-20.020,17.090,0.000,0
38432.179,28.809,7.324,-28.320,4.883,0.000,0
38432.183,-24.902,-5.371,-36.621,-17.578,0.000,0
38432.187,-52.246,-12.695,-28.320,-7.324,0.000,0
38432.190,-12.207,4.883,-27.832,7.324,0.000,0
38432.194,4.395,12.207,-40.039,-8.301,0.000,0
38432.198,-36.621,-0.488,-40.039,-6.348,0.000,0
38432.202,-62.012,-16.602,-36.133,4.395,0.000,0
38432.206,-65.430,-25.879,-39.062,-39.062,0.000,0
38432.210,-7.812,-11.719,-35.645,-29.297,0.000,0
38432.214,52.246,-12.695,-43.945,6.348,0.000,0
38432.218,29.297,-16.602,-35.156,-20.996,0.000,0
38432.222,-6.348,-17.090,-31.250,-26.367,0.000,0
38432.226,-27.344,-15.137,-26.367,-32.715,0.000,0
38432.230,1.465,-4.395,-23.438,-25.391,0.000,0
38432.233,-12.695,-30.273,-32.715,-61.035,0.000,0
38432.237,-31.738,-32.227,-29.785,-62.988,0.000,0
38432.241,-40.039,-13.184,-35.156,-46.387,0.000,0
38432.245,-19.043,-38.574,-32.227,-24.902,0.000,0
38432.249,52.246,-26.855,-16.602,45.410,0.000,0
38432.253,15.137,-1.465,-28.809,-54.199,0.000,0
38432.257,-62.500,-17.090,-39.062,-156.250,0.000,0
38432.261,-54.688,-21.973,-21.973,-87.402,0.000,0
38432.265,-21.484,-14.648,-10.254,2.441,0.000,0
38432.269,-1.953,-30.273,-29.297,-57.617,0.000,0
38432.272,-79.590,-16.113,-18.066,-120.117,0.000,0
38432.276,-114.746,-14.648,-23.926,-111.328,0.000,0
38432.280,-10.742,-28.809,-21.973,-15.137,0.000,0
38432.284,-40.039,-21.484,-17.578,-39.551,0.000,0
38432.288,-76.172,-50.781,-34.668,-99.609,0.000,0
38432.292,-40.039,-43.457,-25.879,-33.203,0.000,0
38432.296,7.812,-19.531,-30.273,13.672,0.000,0
38432.300,40.039,-33.203,-45.898,31.250,0.000,0
38432.304,14.160,-53.711,-35.156,9.766,0.000,0
38432.308,28.809,-48.828,-29.297,32.715,0.000,0
38432.312,16.113,-42.969,-40.039,12.207,0.000,0
38432.315,1.953,-47.852,-36.133,-0.488,0.000,0
38432.319,11.719,-53.711,-23.926,40.527,0.000,0
38432.323,16.602,-53.223,-19.043,-1.953,0.000,0
38432.327,-32.715,-44.922,-20.020,-61.035,0.000,0
38432.331,-62.500,-32.227,-22.461,-62.988,0.000,0
38432.335,-44.434,-36.133,-24.902,-32.715,0.000,0
38432.339,-51.758,-56.152,-33.203,-1.953,0.000,0
38432.343,-24.902,-45.410,-23.926,-62.012,0.000,0
38432.347,0.488,-28.320,-14.648,-69.336,0.000,0
38432.351,-2.441,-38.574,-29.785,8.789,0.000,0
38432.355,-4.395,-45.410,-41.992,13.184,0.000,0
38432.358,-13.184,-32.715,-44.434,-12.207,0.000,0
38432.362,-25.391,-53.223,-29.297,-27.832,0.000,0
38432.366,-34.180,-55.664,-30.273,-26.367,0.000,0
38432.370,-39.551,-43.945,-36.133,-20.020,0.000,0
38432.374,-8.301,-57.129,-28.320,19.531,0.000,0
38432.378,-8.789,-32.715,-33.691,38.086,0.000,0
38432.382,-37.109,-50.293,-25.391,-29.785,0.000,0
38432.386,-51.270,-54.199,-20.508,-48.340,0.000,0
38432.390,-63.477,-22.461,-32.715,-29.297,0.000,0
38432.394,-68.359,-48.340,-46.875,-47.852,0.000,0
38432.397,-75.684,-59.082,-56.641,-56.641,0.000,0
38432.401,-51.758,-62.012,-44.922,-32.227,0.000,0
38432.405,-17.578,-59.570,-31.738,-3.906,0.000,0
38432.409,-18.555,-43.945,-38.086,-22.949,0.000,0
38432.413,-19.043,-53.223,-41.992,-16.602,0.000,0
38432.417,-12.207,-47.363,-38.574,0.977,0.000,0
38432.421,-45.898,-40.527,-32.227,-40.039,0.000,0
38432.425,-46.387,-45.898,-27.832,-48.340,0.000,0
38432.429,9.277,-29.297,-22.949,-21.973,0.000,0
38432.433,18.555,-9.766,-29.785,-12.207,0.000,0
38432.437,-16.602,-21.973,-41.992,-30.762,0.000,0
38432.440,-26.367,-68.359,-31.250,-16.113,0.000,0
38432.444,-20.996,-82.520,-28.809,1.465,0.000,0
38432.448,-41.016,-33.203,-46.875,-27.344,0.000,0
38432.452,-61.035,-35.645,-48.828,-30.762,0.000,0
38432.456,-57.617,-54.688,-41.504,-21.973,0.000,0
38432.460,-29.297,-61.035,-24.414,-24.902,0.000,0
38432.464,-33.203,-63.477,-25.879,-42.480,0.000,0
38432.468,-59.082,-42.480,-39.551,-56.152,0.000,0
38432.472,-55.176,-42.480,-33.203,-43.457,0.000,0
38432.476,-36.621,-40.039,-28.809,-32.227,0.000,0
38432.480,-19.531,-31.250,-28.809,-31.738,0.000,0
38432.483,-38.574,-47.363,-38.086,-43.457,0.000,0
38432.487,-80.078,-46.387,-41.016,-64.941,0.000,0
38432.491,-62.988,-22.461,-32.227,-37.109,0.000,0
38432.495,-30.762,-13.672,-31.250,-13.672,0.000,0
38432.499,-29.785,-26.855,-25.391,-24.902,0.000,0
38432.503,-34.668,-41.016,-20.996,-23.438,0.000,0
38432.507,-40.527,-16.113,-29.785,-7.812,0.000,0
38432.511,-46.387,-1.953,-29.297,-67.383,0.000,0
38432.515,-36.621,-28.320,-21.484,-68.359,0.000,0
38432.519,-42.969,-46.387,-26.855,10.742,0.000,0
38432.522,-50.781,-30.762,-27.344,-5.859,0.000,0
38432.526,-18.555,-7.812,-20.996,-4.883,0.000,0
38432.530,-19.531,-34.180,-16.602,-6.836,0.000,0
38432.534,-31.250,-51.270,-24.902,-9.277,0.000,0
38432.538,-9.277,-33.691,-29.785,6.836,0.000,0
38432.542,-8.301,-32.715,-17.578,-0.977,0.000,0
38432.546,-15.625,-25.879,-15.137,-2.441,0.000,0
38432.550,-30.762,-24.414,-20.020,15.625,0.000,0
38432.554,-16.602,-24.414,-25.879,5.371,0.000,0
38432.558,2.930,-31.250,-22.949,-6.348,0.000,0
38432.562,-6.348,-37.598,-20.508,-3.906,0.000,0
38432.565,-19.531,-26.367,-27.832,-13.184,0.000,1
38432.569,-13.184,-20.020,-24.414,-14.648,0.000,0
38432.573,-2.441,-18.555,-20.508,5.859,0.000,0
38432.577,1.465,-23.926,-12.695,25.391,0.000,0
38432.581,5.859,3.906,-19.043,2.441,0.000,0
38432.585,7.324,20.508,-22.461,-2.441,0.000,0
38432.589,2.930,-7.324,-13.672,17.090,0.000,0
38432.593,-4.883,-9.277,-12.695,10.254,0.000,0
38432.597,-23.926,-15.137,-20.020,-6.836,0.000,0
38432.601,-15.137,-15.137,-16.113,8.301,0.000,0
38432.605,-0.977,2.930,-11.230,12.207,0.000,0
38432.608,-15.625,1.465,-20.020,1.953,0.000,0
38432.612,-25.391,-9.277,-24.902,1.953,0.000,0
38432.616,-9.766,7.324,-26.367,11.719,0.000,0
38432.620,-20.020,-6.836,-23.438,0.488,0.000,0
38432.624,-29.785,-13.184,-26.367,-23.438,0.000,0
38432.628,-35.645,12.207,-33.203,-22.949,0.000,0
38432.632,-44.922,0.488,-34.180,-6.348,0.000,0
38432.636,-26.367,-28.320,-32.715,-7.812,0.000,0
38432.640,-4.395,-46.875,-31.250,2.930,0.000,0
38432.644,-20.020,-33.203,-32.715,9.766,0.000,0
38432.647,-12.207,-33.691,-37.598,-8.789,0.000,0
38432.651,2.930,-44.922,-36.621,-5.859,0.000,0
38432.655,-30.273,-39.062,-24.414,-7.812,0.000,0
38432.659,-43.457,-51.758,-18.555,-26.367,0.000,0
38432.663,-26.367,-56.641,-23.438,-1.953,0.000,0
38432.667,-20.020,-44.434,-22.461,20.020,0.000,0
38432.671,-40.527,-39.551,-31.250,-11.719,0.000,0
38432.675,-43.457,-23.438,-33.691,-14.160,0.000,0
38432.679,-48.828,-47.852,-26.367,-7.812,0.000,0
38432.683,-58.594,-46.875,-21.484,-14.648,0.000,0
38432.687,-28.809,0.977,-19.531,-7.812,0.000,0
38432.690,-4.883,12.695,-30.273,3.906,0.000,0
38432.694,-21.973,-14.648,-37.598,1.465,0.000,0
38432.698,-40.527,-61.523,-32.715,-15.137,0.000,0
38432.702,-34.180,-57.617,-34.668,-18.066,0.000,0
38432.706,-29.297,-42.480,-37.598,-6.836,0.000,0
38432.710,-51.758,-63.477,-24.902,-3.418,0.000,0
38432.714,-45.898,-67.383,-15.137,-14.648,0.000,0
38432.718,-5.859,-69.824,-18.066,-5.371,0.000,0
38432.722,1.465,-67.383,-14.648,-2.930,0.000,0
38432.726,-13.672,-55.664,-18.066,-5.859,0.000,0
38432.730,-29.785,-74.707,-20.996,-21.973,0.000,0
38432.733,-18.066,-77.637,-20.020,-20.508,0.000,0
38432.737,-27.344,-102.051,-13.184,-20.996,0.000,0
38432.741,-43.945,-106.445,-11.230,-21.973,0.000,0
38432.745,-15.137,-65.430,-28.320,6.348,0.000,0
38432.749,-5.859,-75.684,-26.855,-0.488,0.000,0
38432.753,-19.531,-92.285,-16.602,-18.066,0.000,0
38432.757,-1.953,-103.027,-16.113,-11.230,0.000,0
38432.761,-3.418,-105.957,-23.926,-8.301,0.000,0
38432.765,-17.578,-83.008,-28.809,-10.742,0.000,0
38432.769,-22.461,-95.703,-29.785,-12.695,0.000,0
38432.772,-13.184,-83.984,-27.832,-14.160,0.000,0
38432.776,-22.949,-96.680,-25.879,-16.602,0.000,0
38432.780,-27.832,-131.348,-22.949,-18.555,0.000,0
38432.784,-1.953,-95.215,-22.461,6.348,0.000,0
38432.788,-17.090,-82.031,-27.344,-8.301,0.000,0
38432.792,-9.766,-95.215,-29.785,-15.625,0.000,0
38432.796,0.488,-93.262,-28.320,0.000,0.000,0
38432.800,-27.344,-91.309,-29.785,-2.930,0.000,0
38432.804,-28.809,-75.684,-36.621,-4.883,0.000,0
38432.808,-32.227,-72.266,-39.551,-12.695,0.000,0
38432.812,-30.762,-56.641,-41.992,1.465,0.000,0
38432.815,-8.301,-70.801,-30.273,-4.395,0.000,0
38432.819,0.977,-76.172,-23.438,-21.973,0.000,0
38432.823,-20.020,-43.945,-33.203,-29.785,0.000,0
38432.827,-26.855,-55.664,-33.203,-18.066,0.000,0
38432.831,-18.555,-49.805,-35.156,-0.488,0.000,0
38432.835,-19.043,-33.691,-38.086,-0.977,0.000,0
38432.839,-19.043,-27.344,-29.297,-23.438,0.000,0
38432.843,-22.949,-12.695,-26.855,-20.996,0.000,0
38432.847,-24.414,-9.766,-26.855,-5.371,0.000,0
38432.851,-13.184,19.531,-34.180,10.742,0.000,0
38432.855,-8.789,32.227,-35.156,16.113,0.000,0
38432.858,-21.973,-3.906,-22.949,-13.672,0.000,0
38432.862,-15.625,2.930,-19.043,-11.719,0.000,0
38432.866,-14.160,20.020,-20.996,-18.555,0.000,0
38432.870,-34.180,23.438,-25.879,-24.414,0.000,0
38432.874,-27.344,13.184,-24.902,-0.488,0.000,0
38432.878,-6.348,10.742,-24.414,12.695,0.000,0
38432.882,-6.836,-0.977,-28.809,6.836,0.000,0
38432.886,-14.648,-6.348,-32.227,-11.719,0.000,0
38432.890,-30.762,0.977,-34.180,-5.859,0.000,0
38432.894,-46.387,-39.551,-26.367,2.441,0.000,0
38432.897,-27.344,-42.969,-32.227,0.488,0.000,0
38432.901,-14.160,-19.043,-39.062,-5.859,0.000,0
38432.905,-1.465,-45.898,-26.855,2.441,0.000,0
38432.909,1.953,-55.176,-20.996,10.742,0.000,0
38432.913,-20.996,-39.062,-23.438,-15.625,0.000,0
38432.917,-29.297,-53.223,-20.020,-22.461,0.000,0
38432.921,-20.996,-39.062,-21.484,-9.766,0.000,0
38432.925,-20.996,-31.250,-21.484,-12.207,0.000,0
38432.929,-21.973,-48.828,-21.973,-3.906,0.000,0
38432.933,-9.277,-60.059,-12.695,6.836,0.000,0
38432.937,-8.301,-55.664,-5.859,-4.883,0.000,0
38432.940,-11.230,-39.062,-17.090,-9.766,0.000,0
38432.944,-6.836,-20.508,-25.879,-2.441,0.000,0
38432.948,-9.766,-35.645,-19.043,0.977,0.000,0
38432.952,-22.949,-82.031,-19.531,-2.930,0.000,0
38432.956,-13.184,-76.660,-23.438,-4.395,0.000,0
38432.960,-8.789,-53.711,-20.020,-14.160,0.000,0
38432.964,-10.254,-52.246,-17.578,-12.695,0.000,0
38432.968,0.000,-50.781,-14.648,-2.930,0.000,0
38432.972,1.953,-43.457,-16.113,-5.371,0.000,0
38432.976,0.977,-54.688,-12.695,-12.695,0.000,0
38432.980,-14.648,-48.340,-20.508,-15.625,0.000,0
38432.983,-9.766,-64.453,-25.879,-25.879,0.000,0
38432.987,1.465,-82.031,-20.020,-31.738,0.000,0
38432.991,10.742,-60.059,-24.902,-14.648,0.000,0
38432.995,4.883,-83.496,-17.578,-17.578,0.000,0
38432.999,10.742,-60.059,-17.578,-22.949,0.000,0
38433.003,26.855,-26.367,-27.344,-17.578,0.000,0
38433.007,16.602,-37.109,-28.320,-9.766,0.000,0
38433.011,7.812,-34.180,-32.715,-6.836,0.000,0
38433.015,-5.371,-52.246,-32.227,-19.043,0.000,0
38433.019,-12.695,-55.176,-28.320,-25.391,0.000,0
38433.022,2.930,-45.410,-20.020,-21.484,0.000,0
38433.026,2.930,-44.434,-13.184,-22.949,0.000,0
38433.030,-17.090,-44.434,-18.555,-20.996,0.000,0
38433.034,-14.648,-69.336,-17.090,-29.297,0.000,0
38433.038,7.324,-69.336,-13.672,-36.621,0.000,0
38433.042,-1.465,-44.922,-8.789,-36.133,0.000,0
38433.046,1.953,-28.320,-5.371,-18.066,0.000,0
38433.050,16.113,-8.301,-3.906,-1.953,0.000,0
38433.054,11.719,-30.273,7.324,-30.273,0.000,0
38433.058,10.254,-29.785,11.230,-32.715,0.000,0
38433.062,6.348,1.953,-0.977,-20.020,0.000,0
38433.065,7.324,-4.883,-3.418,-16.602,0.000,0
38433.069,6.348,-2.930,-0.977,-14.648,0.000,0
38433.073,-0.977,-28.809,0.488,-20.508,0.000,0
38433.077,9.766,-35.156,-4.395,-20.996,0.000,0
38433.081,8.301,-8.789,-14.160,-10.254,0.000,0
38433.085,-14.160,-46.387,-7.324,-12.695,0.000,0
38433.089,-7.812,-50.293,-1.953,-17.578,0.000,0
38433.093,5.371,-20.996,-3.906,-12.695,0.000,0
38433.097,4.883,-41.016,3.906,-4.883,0.000,0
38433.101,6.348,-25.391,-0.488,0.977,0.000,0
38433.105,-5.371,-16.602,-6.836,-14.160,0.000,0
38433.108,-6.836,-1.953,-5.371,-12.207,0.000,0
38433.112,11.719,-3.906,7.812,2.930,0.000,0
38433.116,7.324,-9.766,9.766,-3.418,0.000,0
38433.120,-6.836,4.883,-7.324,-9.766,0.000,0
38433.124,-6.348,-10.742,-6.836,-2.930,0.000,0
38433.128,-12.207,-13.672,-9.766,-0.977,0.000,0
38433.132,-3.906,-39.062,-14.160,-12.695,0.000,0
38433.136,6.836,-42.480,-15.137,-12.695,0.000,0
38433.140,-0.488,-7.324,-18.066,-11.230,0.000,0
38433.144,-8.789,-27.832,-15.137,-11.230,0.000,0
38433.147,-10.742,-32.227,-15.625,9.277,0.000,0
38433.151,-0.977,-35.156,-19.531,4.395,0.000,0
38433.155,-0.488,-40.527,-13.672,-11.230,0.000,0
38433.159,4.883,-9.766,-6.348,6.348,0.000,0
38433.163,13.672,-11.230,-11.230,6.348,0.000,0
38433.167,2.441,-21.484,-15.137,1.953,0.000,0
38433.171,-15.625,-34.180,-15.137,-0.488,0.000,0
38433.175,-9.766,-41.992,-14.648,-5.371,0.000,0
38433.179,5.859,-7.812,-12.695,10.254,0.000,0
38433.183,21.484,20.508,-9.766,29.297,0.000,1
38433.187,23.438,12.695,-2.441,26.367,0.000,0
38433.190,7.324,-35.645,2.441,6.836,0.000,0
38433.194,-5.859,-49.316,-8.789,0.000,0.000,0
38433.198,-13.184,-28.809,-20.020,5.859,0.000,0
38433.202,-8.301,-36.133,-11.719,14.160,0.000,0
38433.206,4.883,-28.809,-1.953,14.648,0.000,0
38433.210,1.953,-29.785,-7.324,-1.953,0.000,0
38433.214,-5.859,-33.203,-10.742,-6.348,0.000,0
38433.218,-15.625,-21.973,-16.602,-15.625,0.000,0
38433.222,-23.438,-38.574,-27.832,-20.020,0.000,0
38433.226,-14.648,-34.668,-30.273,5.859,0.000,0
38433.230,-17.090,-23.926,-28.809,0.000,0.000,0
38433.233,-24.414,-34.180,-20.996,-11.230,0.000,0
38433.237,-19.531,-24.414,-21.484,-5.859,0.000,0
38433.241,-7.324,-18.066,-27.344,-13.184,0.000,0
38433.245,-0.977,-22.461,-21.973,-11.719,0.000,0
38433.249,-4.395,-22.949,-17.578,-3.418,0.000,0
38433.253,-15.625,-27.344,-14.160,-6.836,0.000,0
38433.257,-1.953,-4.395,-4.883,-15.625,0.000,0
38433.261,-1.465,-6.348,-12.207,-27.832,0.000,0
38433.265,-7.324,-25.879,-26.367,-24.414,0.000,0
38433.269,-15.625,-31.250,-26.855,-16.113,0.000,0
38433.272,-27.832,-38.574,-29.297,-18.555,0.000,0
38433.276,-24.414,-23.926,-27.344,-19.531,0.000,0
38433.280,-10.742,-27.832,-22.461,-9.766,0.000,0
38433.284,0.977,-23.438,-22.949,-9.277,0.000,0
38433.288,-18.555,-22.949,-28.320,-27.344,0.000,0
38433.292,-34.668,-47.363,-27.344,-25.879,0.000,0
38433.296,-34.180,-16.602,-31.250,-22.461,0.000,0
38433.300,-34.180,18.066,-32.715,-28.320,0.000,0
38433.304,-36.133,9.766,-24.902,-32.715,0.000,0
38433.308,-28.320,-21.484,-12.695,-24.902,0.000,0
38433.312,0.977,-17.578,-4.883,-12.207,0.000,0
38433.315,-1.465,3.418,-3.418,-5.859,0.000,0
38433.319,-23.438,-3.906,-10.254,-10.254,0.000,0
38433.323,-22.461,-6.836,-10.254,-16.602,0.000,0
38433.327,-24.414,-9.766,-11.719,-30.273,0.000,0
38433.331,-28.809,-5.859,-14.160,-34.668,0.000,0
38433.335,-22.461,6.348,-11.230,-17.578,0.000,0
38433.339,-20.020,-0.977,-13.672,-18.066,0.000,0
38433.343,-27.832,-5.371,-16.602,-26.367,0.000,0
38433.347,-28.809,-18.555,-18.066,-30.273,0.000,0
38433.351,-21.484,-24.902,-14.648,-31.738,0.000,0
38433.355,-18.066,-14.160,-17.090,-34.668,0.000,0
38433.358,-28.809,-25.391,-19.531,-44.434,0.000,0
38433.362,-29.785,-21.973,-22.949,-34.180,0.000,0
38433.366,-27.832,-36.621,-25.391,-28.809,0.000,0
38433.370,-32.715,-57.129,-19.043,-32.715,0.000,0
38433.374,-36.621,-22.461,-21.973,-23.438,0.000,0
38433.378,-21.973,-16.602,-13.672,-19.043,0.000,0
38433.382,-9.277,-18.555,-1.465,-25.391,0.000,0
38433.386,-18.555,-19.531,-5.371,-34.180,0.000,0
38433.390,-19.043,-39.062,-13.672,-33.691,0.000,0
38433.394,-25.879,-22.949,-19.043,-20.996,0.000,0
38433.397,-28.320,-17.578,-16.602,-18.555,0.000,0
38433.401,-24.414,-11.719,-23.926,-15.137,0.000,0
38433.405,-48.340,-11.719,-26.855,-22.461,0.000,0
38433.409,-53.711,-20.020,-23.438,-37.598,0.000,0
38433.413,-44.922,-8.301,-26.367,-30.762,0.000,0
38433.417,-40.039,5.371,-21.973,-30.273,0.000,0
38433.421,-35.645,20.020,-24.414,-34.180,0.000,0
38433.425,-39.062,6.836,-26.855,-36.621,0.000,0
38433.429,-35.645,-21.973,-13.672,-32.715,0.000,0
38433.433,-29.297,17.090,-23.438,-34.180,0.000,0
38433.437,-27.344,34.180,-37.598,-32.227,0.000,0
38433.440,-34.180,22.461,-29.297,-26.367,0.000,0
38433.444,-37.598,0.000,-26.855,-30.273,0.000,0
38433.448,-36.133,-31.738,-23.926,-33.203,0.000,0
38433.452,-34.668,0.488,-23.438,-33.691,0.000,0
38433.456,-31.250,10.254,-30.273,-34.668,0.000,0
38433.460,-38.574,-11.230,-31.738,-30.273,0.000,0
38433.464,-45.898,-6.348,-33.691,-30.273,0.000,0
38433.468,-40.527,-29.785,-35.645,-51.758,0.000,0
38433.472,-45.898,-17.578,-35.156,-51.270,0.000,0
38433.476,-48.828,-13.184,-37.109,-33.691,0.000,0
38433.480,-42.480,-25.879,-39.551,-34.668,0.000,0
38433.483,-42.969,-12.695,-31.738,-27.344,0.000,0
38433.487,-43.457,-25.879,-22.461,-22.949,0.000,0
38433.491,-34.180,0.488,-22.461,-22.461,0.000,0
38433.495,-32.715,3.418,-23.926,-37.598,0.000,0
38433.499,-36.621,-25.879,-21.973,-27.832,0.000,0
38433.503,-24.414,-7.812,-30.273,-17.090,0.000,0
38433.507,-22.949,-29.785,-30.762,-39.062,0.000,0
38433.511,-39.062,-26.367,-25.391,-33.691,0.000,0
38433.515,-49.805,-0.488,-32.227,-28.809,0.000,0
38433.519,-37.109,-29.297,-30.273,-31.738,0.000,0
38433.522,-23.926,-38.086,-24.902,-30.273,0.000,0
38433.526,-25.391,-35.156,-26.367,-36.621,0.000,0
38433.530,-26.855,-28.809,-26.367,-30.762,0.000,0
38433.534,-24.902,-18.066,-24.414,-18.066,0.000,0
38433.538,-28.809,-12.695,-23.926,-9.766,0.000,0
38433.542,-23.926,6.836,-21.973,-14.648,0.000,0
38433.546,-21.484,-3.906,-20.020,-22.949,0.000,0
38433.550,-25.391,-10.742,-22.461,-8.301,0.000,0
38433.554,-24.414,6.836,-23.438,-14.648,0.000,0
38433.558,-11.230,28.809,-19.043,-27.344,0.000,0
38433.562,-2.930,19.531,-15.137,-19.043,0.000,0
38433.565,-14.648,-20.020,-4.883,-13.672,0.000,0
38433.569,-17.090,-8.789,-9.277,-12.207,0.000,0
38433.573,-10.254,26.855,-22.461,-9.766,0.000,0
38433.577,-4.883,16.602,-25.879,0.488,0.000,0
38433.581,-0.977,-4.883,-21.484,7.324,0.000,0
38433.585,-6.348,-12.695,-20.508,3.906,0.000,0
38433.589,-6.836,-7.812,-18.555,-2.441,0.000,0
38433.593,-8.301,1.953,-13.184,-14.648,0.000,0
38433.597,-16.113,-12.695,-21.484,-21.484,0.000,0
38433.601,-10.742,-28.809,-25.879,-16.602,0.000,0
38433.605,-8.789,-10.254,-22.461,-7.324,0.000,0
38433.608,-14.160,-20.020,-20.020,-13.184,0.000,0
38433.612,-21.484,-32.715,-22.461,-17.090,0.000,0
38433.616,-17.578,-27.832,-22.461,-25.391,0.000,0
38433.620,-9.277,-25.879,-17.090,-19.043,0.000,0
38433.624,-17.090,-27.832,-21.973,-5.371,0.000,0
38433.628,-21.484,-31.250,-28.320,-9.766,0.000,0
38433.632,-24.414,-9.277,-39.062,-9.766,0.000,0
38433.636,-22.461,-3.906,-39.551,-16.113,0.000,0
38433.640,-16.113,-30.762,-32.227,-15.137,0.000,0
38433.644,-15.625,-36.133,-28.320,-5.371,0.000,0
38433.647,-21.973,-41.016,-27.344,-13.672,0.000,0
38433.651,-17.578,-34.668,-27.832,-10.742,0.000,0
38433.655,-13.184,-28.809,-14.160,-2.930,0.000,0
38433.659,-10.254,-20.996,-15.625,-8.301,0.000,0
38433.663,-19.043,-34.180,-24.902,-10.742,0.000,0
38433.667,-28.809,-40.527,-23.926,-13.184,0.000,0
38433.671,-23.926,-19.043,-29.785,-16.602,0.000,0
38433.675,-28.809,-24.902,-32.227,-21.973,0.000,0
38433.679,-38.574,-26.367,-31.250,-22.461,0.000,0
38433.683,-32.227,-36.621,-27.832,-20.508,0.000,0
38433.687,-26.367,-42.480,-16.602,-11.719,0.000,0
38433.690,-14.648,-7.812,-10.742,2.441,0.000,0
38433.694,-23.926,-6.836,-15.625,2.930,0.000,0
38433.698,-31.250,-23.926,-23.438,-2.441,0.000,0
38433.702,-13.672,-40.039,-18.066,-6.836,0.000,0
38433.706,-15.137,-26.367,-21.484,-18.066,0.000,0
38433.710,-11.719,10.254,-27.344,-18.555,0.000,0
38433.714,-13.184,-14.648,-12.207,-4.883,0.000,0
38433.718,-29.297,-20.996,-15.137,-11.230,0.000,0
38433.722,-17.578,-16.113,-22.949,-17.578,0.000,0
38433.726,-11.719,-32.227,-13.672,-13.184,0.000,0
38433.730,-20.508,-11.719,-15.137,-12.207,0.000,0
38433.733,-27.344,-6.836,-27.344,-12.695,0.000,0
38433.737,-21.484,-10.254,-28.320,-2.930,0.000,0
38433.741,-11.230,-11.719,-26.367,-10.254,0.000,0
38433.745,-10.254,-50.781,-14.160,-12.207,0.000,0
38433.749,-20.508,-25.879,-15.137,-12.695,0.000,0
38433.753,-31.250,0.000,-30.762,-27.832,0.000,0
38433.757,-21.973,-21.973,-26.367,-27.344,0.000,0
38433.761,-23.438,-46.387,-16.602,-30.273,0.000,0
38433.765,-24.902,-65.430,-14.160,-35.156,0.000,0
38433.769,-18.066,-31.250,-14.648,-32.715,0.000,0
38433.772,-16.113,-24.414,-17.578,-25.391,0.000,0
38433.776,-17.578,-35.156,-22.461,-10.254,0.000,0
38433.780,-22.461,-34.668,-28.320,-14.160,0.000,0
38433.784,-36.133,-45.898,-27.832,-24.902,0.000,0
38433.788,-29.785,-41.504,-26.855,-14.160,0.000,0
38433.792,-20.020,-38.574,-29.297,-22.461,0.000,0
38433.796,-30.762,-24.902,-30.273,-30.762,0.000,0
38433.800,-31.250,-47.852,-28.320,-30.762,0.000,0
38433.804,-34.668,-65.430,-26.855,-36.621,0.000,0
38433.808,-44.434,-24.414,-34.180,-28.320,0.000,0
38433.812,-36.621,-8.789,-35.645,-23.926,0.000,0
38433.815,-33.203,-10.254,-33.691,-24.414,0.000,0
38433.819,-30.273,-34.668,-35.645,-17.090,0.000,0
38433.823,-24.414,-35.645,-32.227,-18.555,0.000,0
38433.827,-25.879,-6.348,-31.738,-19.531,0.000,0
38433.831,-26.855,-10.742,-26.367,-12.207,0.000,0
38433.835,-16.113,-14.160,-19.531,-11.719,0.000,0
38433.839,-29.297,-24.902,-22.949,-19.043,0.000,0
38433.843,-38.086,-36.621,-23.438,-27.832,0.000,0
38433.847,-34.668,-17.578,-19.043,-30.762,0.000,0
38433.851,-40.039,-26.367,-18.555,-23.438,0.000,0
38433.855,-38.086,-12.207,-26.855,-12.207,0.000,1
38433.858,-32.715,1.953,-26.855,-17.578,0.000,0
38433.862,-30.762,-34.180,-19.531,-17.578,0.000,0
38433.866,-33.203,-17.090,-23.926,-12.207,0.000,0
38433.870,-30.273,7.812,-30.762,-26.855,0.000,0
38433.874,-31.250,-16.602,-25.879,-27.832,0.000,0
38433.878,-29.297,-40.527,-20.508,-20.508,0.000,0
38433.882,-29.297,-45.898,-20.020,-28.320,0.000,0
38433.886,-36.621,-17.578,-28.809,-31.738,0.000,0
38433.890,-31.738,-26.367,-28.809,-25.391,0.000,0
38433.894,-30.762,-50.293,-20.020,-22.461,0.000,0
38433.897,-20.996,-32.715,-24.414,-25.879,0.000,0
38433.901,-20.020,-34.668,-20.020,-27.832,0.000,0
38433.905,-13.672,-30.273,-14.160,-6.348,0.000,0
38433.909,2.930,-15.625,-23.438,10.742,0.000,0
38433.913,-41.016,-29.297,-39.062,-31.250,0.000,0
38433.917,-59.082,-45.898,-38.086,-49.805,0.000,0
38433.921,-26.855,-65.918,-25.391,-28.320,0.000,0
38433.925,-9.277,-62.012,-15.625,-18.555,0.000,0
38433.929,-20.508,-45.410,-7.812,-17.090,0.000,0
38433.933,-26.367,-34.668,-14.160,-20.508,0.000,0
38433.937,-24.414,-47.363,-19.531,-16.602,0.000,0
38433.940,-22.949,-65.918,-15.137,-4.883,0.000,0
38433.944,-16.113,-41.504,-20.020,-9.277,0.000,0
38433.948,-18.555,-36.621,-17.578,-14.160,0.000,0
38433.952,-8.789,-40.039,-11.230,-9.766,0.000,0
38433.956,-4.883,-41.504,-15.625,-8.789,0.000,0
38433.960,-11.230,-47.363,-18.555,-6.348,0.000,0
38433.964,-7.324,-40.039,-7.812,-1.953,0.000,0
38433.968,-3.906,-33.691,-0.977,6.348,0.000,0
38433.972,-8.789,-34.668,-13.184,7.324,0.000,0
38433.976,-14.160,-22.949,-18.555,-2.441,0.000,0
38433.980,-15.625,-28.809,-9.766,-5.859,0.000,0
38433.983,-23.926,-41.016,-16.602,-13.184,0.000,0
38433.987,-27.832,-25.391,-33.203,-17.578,0.000,0
38433.991,-18.066,-32.715,-31.738,-17.090,0.000,0
38433.995,-16.113,-57.617,-31.250,-14.648,0.000,0
38433.999,-19.531,-83.496,-27.832,-18.555,0.000,0
38434.003,-19.043,-66.895,-31.250,-25.879,0.000,0
38434.007,-20.020,-58.594,-42.480,-12.695,0.000,0
38434.011,-18.555,-63.477,-45.898,-7.324,0.000,0
38434.015,-19.043,-54.199,-36.621,-13.672,0.000,0
38434.019,-24.902,-66.895,-36.621,-27.832,0.000,0
38434.022,-34.180,-75.195,-48.340,-38.086,0.000,0
38434.026,-38.086,-78.613,-49.316,-31.250,0.000,0
38434.030,-24.902,-74.219,-46.875,-21.973,0.000,0
38434.034,-19.531,-59.570,-49.805,-21.973,0.000,0
38434.038,-31.738,-81.543,-47.363,-40.039,0.000,0
38434.042,-37.598,-76.660,-44.434,-33.203,0.000,0
38434.046,-42.969,-38.086,-43.945,-24.902,0.000,0
38434.050,-37.109,-17.578,-35.156,-35.156,0.000,0
38434.054,-41.016,-26.855,-34.668,-35.156,0.000,0
38434.058,-32.227,-65.918,-22.461,-23.926,0.000,0
38434.062,-20.996,-57.129,-22.461,-23.438,0.000,0
38434.065,-31.738,-27.832,-41.992,-27.832,0.000,0
38434.069,-37.598,-38.574,-41.992,-24.902,0.000,0
38434.073,-27.832,-33.691,-31.250,-20.996,0.000,0
38434.077,-19.531,-43.945,-28.320,-26.855,0.000,0
38434.081,-14.160,-49.316,-36.621,-24.414,0.000,0
38434.085,-21.484,-38.086,-36.621,-20.996,0.000,0
38434.089,-25.879,-48.828,-33.691,-20.508,0.000,0
38434.093,-20.020,-42.969,-41.504,-15.625,0.000,0
38434.097,-31.738,-62.500,-41.992,-24.902,0.000,0
38434.101,-39.062,-67.871,-41.992,-31.250,0.000,0
38434.105,-38.086,-29.297,-47.363,-24.414,0.000,0
38434.108,-41.504,-40.527,-41.504,-27.344,0.000,0
38434.112,-42.480,-46.875,-40.527,-36.621,0.000,0
38434.116,-44.922,-58.105,-35.156,-34.180,0.000,0
38434.120,-46.387,-71.777,-31.738,-30.273,0.000,0
38434.124,-39.551,-43.945,-48.340,-32.715,0.000,0
38434.128,-22.461,-44.922,-45.410,-39.062,0.000,0
38434.132,-15.137,-41.016,-35.645,-27.344,0.000,0
38434.136,-17.578,-53.711,-36.133,-31.250,0.000,0
38434.140,-10.742,-59.082,-34.668,-41.504,0.000,0
38434.144,-4.883,-41.016,-30.762,-29.785,0.000,0
38434.147,-8.789,-43.945,-25.391,-18.066,0.000,0
38434.151,-9.766,-42.480,-32.715,-13.184,0.000,0
38434.155,-5.859,-46.875,-39.062,-18.066,0.000,0
38434.159,-22.461,-53.711,-36.133,-23.926,0.000,0
38434.163,-39.062,-47.852,-34.180,-25.879,0.000,0
38434.167,-28.809,-31.250,-33.691,-27.344,0.000,0
38434.171,-27.832,-13.672,-34.668,-22.949,0.000,0
38434.175,-32.227,-47.852,-31.738,-34.668,0.000,0
38434.179,-38.086,-71.289,-20.996,-40.039,0.000,0
38434.183,-40.039,-39.551,-23.926,-24.414,0.000,0
38434.187,-28.809,-37.109,-30.762,-25.391,0.000,0
38434.190,-18.066,-31.250,-20.508,-29.297,0.000,0
38434.194,-21.973,-31.250,-16.113,-24.414,0.000,0
38434.198,-22.461,-38.086,-22.461,-30.273,0.000,0
38434.202,-27.832,-18.555,-20.020,-36.621,0.000,0
38434.206,-25.879,-13.184,-16.113,-17.090,0.000,0
38434.210,-18.555,-26.367,-14.160,1.465,0.000,0
38434.214,-33.203,-2.930,-27.832,-11.719,0.000,0
38434.218,-32.227,-6.348,-38.574,-26.855,0.000,0
38434.222,-35.156,-28.320,-37.598,-29.297,0.000,0
38434.226,-41.992,-21.484,-42.969,-33.691,0.000,0
38434.230,-44.434,-25.879,-43.457,-28.809,0.000,0
38434.233,-45.410,-34.668,-35.645,-29.297,0.000,0
38434.237,-31.738,-39.062,-33.691,-38.086,0.000,0
38434.241,-34.180,-24.414,-40.039,-38.574,0.000,0
38434.245,-38.086,-27.832,-42.969,-37.598,0.000,0
38434.249,-29.297,-39.551,-41.016,-31.250,0.000,0
38434.253,-34.180,-41.992,-38.574,-20.996,0.000,0
38434.257,-48.828,-57.617,-41.016,-32.227,0.000,0
38434.261,-46.875,-31.738,-42.969,-44.922,0.000,0
38434.265,-34.668,-22.461,-34.180,-38.086,0.000,0
38434.269,-30.273,-53.223,-16.113,-18.066,0.000,0
38434.272,-23.438,-35.645,-17.578,-11.719,0.000,0
38434.276,-35.156,-27.832,-29.297,-26.855,0.000,0
38434.280,-39.062,-21.973,-27.832,-25.391,0.000,0
38434.284,-24.414,-15.137,-26.855,-22.461,0.000,0
38434.288,-25.391,-12.207,-34.180,-19.531,0.000,0
38434.292,-32.715,-34.180,-29.297,-25.391,0.000,0
38434.296,-26.855,-53.223,-19.531,-34.180,0.000,0
38434.300,-31.250,-15.625,-27.832,-30.273,0.000,0
38434.304,-26.855,-0.977,-31.738,-25.391,0.000,0
38434.308,-15.625,9.766,-33.691,-25.391,0.000,0
38434.312,-32.227,-33.203,-28.809,-22.461,0.000,0
38434.315,-35.645,-51.270,-20.508,-20.508,0.000,0
38434.319,-23.438,1.953,-29.297,-24.414,0.000,0
38434.323,-25.391,-1.953,-32.227,-24.414,0.000,0
38434.327,-31.738,-16.602,-38.086,-29.297,0.000,0
38434.331,-27.832,-19.043,-43.457,-27.832,0.000,0
38434.335,-30.273,-33.691,-38.574,-28.809,0.000,0
38434.339,-41.016,-31.250,-45.898,-31.738,0.000,0
38434.343,-38.574,-27.832,-50.293,-35.645,0.000,0
38434.347,-36.621,-37.598,-45.410,-34.668,0.000,0
38434.351,-46.387,-21.973,-56.152,-41.016,0.000,0
38434.355,-45.410,-35.645,-50.293,-55.176,0.000,0
38434.358,-45.898,-46.875,-36.133,-38.086,0.000,0
38434.362,-47.852,-22.461,-48.340,-29.297,0.000,0
38434.366,-35.645,-21.973,-46.387,-49.805,0.000,0
38434.370,-34.180,-28.809,-39.062,-59.570,0.000,0
38434.374,-36.621,-51.758,-44.922,-65.430,0.000,0
38434.378,-46.387,-37.109,-49.805,-53.223,0.000,0
38434.382,-39.062,-15.137,-48.828,-41.016,0.000,0
38434.386,-35.645,-24.902,-48.828,-41.016,0.000,0
38434.390,-38.086,-17.090,-46.875,-29.785,0.000,0
38434.394,-33.691,-23.438,-41.992,-42.969,0.000,0
38434.397,-35.645,-32.227,-41.016,-41.504,0.000,0
38434.401,-32.227,-26.367,-40.527,-29.785,0.000,0
38434.405,-38.086,-23.926,-38.086,-42.480,0.000,0
38434.409,-39.551,-9.277,-44.922,-40.039,0.000,0
38434.413,-23.438,-38.086,-40.527,-33.691,0.000,0
38434.417,-28.320,-48.828,-35.156,-40.039,0.000,0
38434.421,-44.434,-0.977,-49.316,-38.086,0.000,0
38434.425,-46.387,-6.348,-54.199,-35.156,0.000,0
38434.429,-33.203,-15.625,-45.410,-31.250,0.000,0
38434.433,-33.203,-41.016,-32.227,-29.297,0.000,0
38434.437,-36.621,-47.852,-33.691,-39.551,0.000,0
38434.440,-31.250,-20.996,-44.922,-36.133,0.000,0
38434.444,-28.320,-21.484,-44.434,-26.367,0.000,0
38434.448,-30.273,-21.484,-36.133,-23.438,0.000,0
38434.452,-32.715,-40.527,-37.109,-31.738,0.000,0
38434.456,-40.039,-43.457,-37.598,-32.715,0.000,0
38434.460,-40.527,-18.066,-32.715,-21.973,0.000,0
38434.464,-29.785,-23.438,-29.785,-26.855,0.000,0
38434.468,-35.645,-23.438,-36.621,-30.762,0.000,0
38434.472,-45.898,-42.480,-41.016,-39.062,0.000,1
38434.476,-39.062,-50.781,-40.039,-39.062,0.000,0
38434.480,-20.508,-22.949,-44.922,-19.043,0.000,0
38434.483,-26.367,-17.090,-29.297,-23.926,0.000,0
38434.487,-45.898,-5.859,-20.508,-33.691,0.000,0
38434.491,-39.062,-20.508,-24.902,-36.621,0.000,0
38434.495,-34.668,-31.250,-22.461,-38.086,0.000,0
38434.499,-37.598,-2.930,-26.367,-34.180,0.000,0
38434.503,-44.922,-13.672,-29.785,-44.922,0.000,0
38434.507,-52.246,-22.461,-30.762,-41.992,0.000,0
38434.511,-27.832,-27.344,-23.438,-27.344,0.000,0
38434.515,-12.695,-30.273,-17.578,-27.344,0.000,0
38434.519,-32.715,-39.062,-22.949,-34.668,0.000,0
38434.522,-34.180,-38.086,-29.297,-25.391,0.000,0
38434.526,-24.414,-12.207,-39.062,-14.160,0.000,0
38434.530,-32.715,-24.414,-42.969,-28.809,0.000,0
38434.534,-32.227,-38.086,-37.109,-26.855,0.000,0
38434.538,-24.414,-26.855,-40.039,-19.531,0.000,0
38434.542,-23.438,-17.090,-47.363,-30.762,0.000,0
38434.546,-26.367,-20.020,-51.758,-33.203,0.000,0
38434.550,-33.203,-27.344,-42.480,-29.785,0.000,0
38434.554,-35.156,-32.715,-34.180,-37.109,0.000,0
38434.558,-29.297,-20.020,-41.992,-31.250,0.000,0
38434.562,-25.879,-23.438,-43.945,-28.809,0.000,0
38434.565,-27.344,-24.902,-41.504,-27.832,0.000,0
38434.569,-25.391,-48.340,-31.250,-30.762,0.000,0
38434.573,-21.973,-44.922,-30.273,-24.902,0.000,0
38434.577,-32.227,-3.418,-41.504,-27.344,0.000,0
38434.581,-39.062,-12.695,-41.504,-40.527,0.000,0
38434.585,-30.762,-19.531,-40.039,-30.762,0.000,0
38434.589,-37.598,-28.320,-41.992,-27.344,0.000,0
38434.593,-46.387,-40.039,-41.504,-38.086,0.000,0
38434.597,-47.363,-37.598,-36.621,-40.527,0.000,0
38434.601,-37.598,-36.133,-39.062,-33.691,0.000,0
38434.605,-23.438,-36.133,-44.434,-24.902,0.000,0
38434.608,-27.832,-44.922,-42.969,-28.809,0.000,0
38434.612,-30.273,-44.922,-38.086,-17.578,0.000,0
38434.616,-18.066,-29.785,-39.062,-9.766,0.000,0
38434.620,-30.762,-45.410,-27.832,-27.344,0.000,0
38434.624,-41.504,-28.320,-29.785,-15.137,0.000,0
38434.628,-28.809,-25.879,-39.551,-11.719,0.000,0
38434.632,-23.438,-41.992,-31.738,-24.902,0.000,0
38434.636,-35.156,-25.879,-34.180,-21.973,0.000,0
38434.640,-38.086,-23.926,-32.227,-13.184,0.000,0
38434.644,-21.973,-22.949,-31.250,-17.090,0.000,0
38434.647,-20.996,-34.668,-32.227,-31.250,0.000,0
38434.651,-31.738,-45.410,-23.926,-37.598,0.000,0
38434.655,-33.691,-33.203,-27.832,-32.227,0.000,0
38434.659,-32.227,-36.621,-29.297,-21.484,0.000,0
38434.663,-32.715,-45.898,-30.273,-18.066,0.000,0
38434.667,-36.621,-58.594,-28.320,-27.832,0.000,0
38434.671,-32.227,-56.641,-15.625,-27.344,0.000,0
38434.675,-20.996,-41.992,-13.672,-14.648,0.000,0
38434.679,-37.109,-42.480,-25.879,-24.414,0.000,0
38434.683,-40.039,-26.367,-32.227,-30.762,0.000,0
38434.687,-30.762,-57.617,-23.438,-21.484,0.000,0
38434.690,-29.297,-71.777,-26.855,-37.109,0.000,0
38434.694,-29.785,-42.480,-28.320,-39.062,0.000,0
38434.698,-35.645,-52.734,-25.879,-27.832,0.000,0
38434.702,-37.109,-56.641,-31.738,-26.855,0.000,0
38434.706,-31.738,-59.570,-30.762,-33.691,0.000,0
38434.710,-30.273,-78.125,-20.508,-35.156,0.000,0
38434.714,-26.367,-63.477,-18.066,-27.344,0.000,0
38434.718,-16.113,-57.129,-25.879,-18.555,0.000,0
38434.722,-9.277,-57.617,-28.320,-20.996,0.000,0
38434.726,-16.602,-81.543,-28.809,-31.738,0.000,0
38434.730,-21.484,-95.215,-26.367,-20.508,0.000,0
38434.733,-13.672,-68.359,-32.227,-18.066,0.000,0
38434.737,-0.977,-59.570,-34.180,-17.578,0.000,0
38434.741,2.441,-53.223,-25.879,-2.930,0.000,0
38434.745,-0.488,-69.336,-24.902,-18.555,0.000,0
38434.749,1.953,-96.191,-18.555,-31.250,0.000,0
38434.753,-16.113,-71.777,-23.438,-26.855,0.000,0
38434.757,-36.621,-60.547,-37.109,-36.621,0.000,0
38434.761,-32.715,-81.543,-29.297,-37.598,0.000,0
38434.765,-41.992,-93.750,-27.832,-38.574,0.000,0
38434.769,-46.875,-96.191,-41.504,-50.781,0.000,0
38434.772,-41.992,-82.520,-35.156,-48.828,0.000,0
38434.776,-41.504,-78.613,-30.762,-32.715,0.000,0
38434.780,-21.484,-65.430,-41.992,-27.832,0.000,0
38434.784,-19.531,-75.684,-30.762,-31.250,0.000,0
38434.788,-29.785,-82.031,-22.949,-29.297,0.000,0
38434.792,-25.391,-53.711,-29.785,-33.691,0.000,0
38434.796,-17.578,-51.270,-26.367,-30.762,0.000,0
38434.800,-15.137,-34.180,-18.066,-15.625,0.000,0
38434.804,-22.461,-41.504,-15.625,-28.320,0.000,0
38434.808,-17.578,-55.176,-15.625,-39.062,0.000,0
38434.812,-20.020,-29.297,-24.414,-25.879,0.000,0
38434.815,-20.020,-32.715,-27.344,-16.602,0.000,0
38434.819,-17.090,-33.203,-24.414,-20.020,0.000,0
38434.823,-7.324,-41.992,-25.879,-24.414,0.000,0
38434.827,5.859,-47.363,-17.578,-8.789,0.000,0
38434.831,-10.254,-22.461,-16.113,1.953,0.000,0
38434.835,-20.020,-38.086,-18.555,-6.348,0.000,0
38434.839,-22.461,-45.410,-24.902,-12.695,0.000,0
38434.843,-24.414,-53.223,-30.273,-26.855,0.000,0
38434.847,-34.180,-70.312,-29.785,-43.457,0.000,0
38434.851,-32.227,-51.270,-31.250,-27.832,0.000,0
38434.855,-25.879,-31.250,-30.273,-20.508,0.000,0
38434.858,-34.180,-38.574,-37.109,-37.598,0.000,0
38434.862,-39.062,-53.711,-41.504,-38.086,0.000,0
38434.866,-42.480,-59.570,-38.086,-27.344,0.000,0
38434.870,-36.133,-23.438,-44.434,-37.109,0.000,0
38434.874,-33.203,-1.953,-43.457,-41.016,0.000,0
38434.878,-39.062,-30.273,-37.598,-27.344,0.000,0
38434.882,-35.156,-45.898,-33.691,-22.461,0.000,0
38434.886,-30.762,-49.316,-32.227,-28.809,0.000,0
38434.890,-32.715,-38.086,-31.250,-27.832,0.000,0
38434.894,-23.438,-28.809,-32.715,-24.414,0.000,0
38434.897,-24.902,-28.320,-28.809,-23.438,0.000,0
38434.901,-28.320,-28.320,-29.297,-25.391,0.000,0
38434.905,-27.832,-38.086,-34.180,-36.133,0.000,0
38434.909,-44.434,-32.715,-36.133,-35.645,0.000,0
38434.913,-48.828,-30.762,-35.645,-29.297,0.000,0
38434.917,-43.945,-20.996,-40.527,-36.133,0.000,0
38434.921,-37.598,-30.762,-38.086,-35.156,0.000,0
38434.925,-36.133,-50.293,-26.367,-20.020,0.000,0
38434.929,-39.551,-40.039,-32.715,-28.809,0.000,0
38434.933,-28.320,-20.996,-43.457,-27.832,0.000,0
38434.937,-14.160,-10.742,-38.086,-11.719,0.000,0
38434.940,-22.461,-38.086,-28.809,-24.414,0.000,0
38434.944,-34.180,-49.805,-34.668,-44.434,0.000,0
38434.948,-29.785,-42.480,-47.363,-32.227,0.000,0
38434.952,-25.879,-49.805,-50.781,-16.602,0.000,0
38434.956,-34.180,-60.547,-42.480,-21.484,0.000,0
38434.960,-41.016,-43.457,-41.016,-23.926,0.000,0
38434.964,-36.621,-37.598,-41.992,-31.738,0.000,0
38434.968,-30.273,-60.547,-29.785,-28.320,0.000,0
38434.972,-16.113,-67.871,-28.809,-26.367,0.000,0
38434.976,-14.160,-60.059,-42.969,-28.809,0.000,0
38434.980,-27.344,-55.176,-40.527,-22.949,0.000,0
38434.983,-19.531,-66.895,-28.320,-24.902,0.000,0
38434.987,-21.973,-67.871,-33.203,-18.066,0.000,0
38434.991,-30.762,-41.504,-48.340,-8.789,0.000,0
38434.995,-25.391,-45.898,-49.805,-15.137,0.000,0
38434.999,-11.719,-70.312,-36.133,-16.113,0.000,0
38435.003,0.000,-73.730,-24.414,-20.020,0.000,0
38435.007,-3.906,-45.898,-27.832,-35.156,0.000,0
38435.011,-13.184,-36.621,-30.273,-34.668,0.000,0
38435.015,-10.254,-71.777,-28.320,-23.438,0.000,0
38435.019,-9.277,-53.711,-34.180,-13.672,0.000,0
38435.022,-18.066,-56.152,-31.738,-19.043,0.000,0
38435.026,-13.672,-49.316,-26.855,-13.184,0.000,0
38435.030,-17.090,-49.316,-29.785,-12.695,0.000,0
38435.034,-26.855,-38.574,-34.180,-24.414,0.000,0
38435.038,-14.160,15.137,-40.039,-20.508,0.000,0
38435.042,-14.648,-29.297,-30.762,-19.531,0.000,0
38435.046,-31.738,-50.293,-25.879,-24.902,0.000,0
38435.050,-30.273,-16.602,-34.668,-25.879,0.000,0
38435.054,-29.297,-22.949,-35.645,-21.484,0.000,0
38435.058,-29.785,-32.227,-30.273,-22.461,0.000,0
38435.062,-21.484,-41.992,-26.367,-19.531,0.000,0
38435.065,-19.531,-31.250,-32.715,-25.879,0.000,1
38435.069,-22.949,-4.883,-40.527,-23.438,0.000,0
38435.073,-22.949,-2.930,-36.133,-12.695,0.000,0
38435.077,-18.555,-7.324,-25.391,-16.113,0.000,0
38435.081,-19.531,-29.297,-20.020,-21.973,0.000,0
38435.085,-25.879,-31.738,-20.996,-21.484,0.000,0
38435.089,-21.973,-7.812,-27.344,-13.672,0.000,0
38435.093,-19.531,-14.160,-25.391,-9.766,0.000,0
38435.097,-19.043,-7.812,-24.902,-12.695,0.000,0
38435.101,-15.137,-20.996,-25.391,-11.230,0.000,0
38435.105,-8.789,-23.438,-10.254,0.977,0.000,0
38435.108,-0.488,14.648,-16.602,2.441,0.000,0
38435.112,5.859,19.531,-32.715,-1.953,0.000,0
38435.116,16.602,28.320,-24.414,24.414,0.000,0
38435.120,-1.953,9.766,-15.137,19.531,0.000,0
38435.124,20.508,26.855,-23.926,32.227,0.000,0
38435.128,47.852,77.637,-40.039,68.359,0.000,0
38435.132,-2.441,35.645,-25.391,20.020,0.000,0
38435.136,-38.574,4.883,-23.926,-24.902,0.000,0
38435.140,-1.953,44.922,-31.250,14.160,0.000,0
38435.144,48.828,48.340,-32.227,53.223,0.000,0
38435.147,10.742,34.180,-63.477,21.973,0.000,0
38435.151,4.883,66.895,-49.805,20.508,0.000,0
38435.155,6.836,83.984,-20.508,20.508,0.000,0
38435.159,-36.621,54.688,-43.457,-29.297,0.000,0
38435.163,-36.133,51.270,-47.852,-27.344,0.000,0
38435.167,-21.484,85.938,-54.199,-7.812,0.000,0
38435.171,-15.625,102.539,-74.707,-13.672,0.000,0
38435.175,-3.418,116.211,-61.035,2.441,0.000,0
38435.179,11.230,104.492,-49.316,5.371,0.000,0
38435.183,8.789,100.586,-45.410,-1.953,0.000,0
38435.187,-3.906,123.535,-50.781,13.672,0.000,0
38435.190,15.137,134.766,-42.969,32.227,0.000,0
38435.194,22.461,133.789,-36.621,30.762,0.000,0
38435.198,15.625,134.277,-45.898,15.625,0.000,0
38435.202,9.766,134.766,-46.387,7.324,0.000,0
38435.206,15.137,136.719,-43.457,15.625,0.000,0
38435.210,21.484,135.254,-46.875,13.184,0.000,0
38435.214,8.789,129.395,-49.805,4.883,0.000,0
38435.218,9.766,121.094,-40.527,9.277,0.000,0
38435.222,18.066,117.188,-31.738,5.859,0.000,0
38435.226,8.301,125.488,-31.738,1.465,0.000,0
38435.230,-3.906,125.000,-39.062,-5.371,0.000,0
38435.233,1.465,103.516,-38.574,-6.836,0.000,0
38435.237,-5.859,54.199,-32.715,-11.230,0.000,0
38435.241,-20.020,38.574,-35.156,-20.020,0.000,0
38435.245,-23.438,69.824,-42.969,-28.809,0.000,0
38435.249,-29.297,52.246,-34.668,-27.344,0.000,0
38435.253,-33.691,16.113,-26.855,-20.020,0.000,0
38435.257,-28.809,4.395,-27.344,-21.484,0.000,0
38435.261,-28.809,0.000,-25.879,-33.691,0.000,0
38435.265,-40.527,-3.906,-29.785,-40.039,0.000,0
38435.269,-38.574,-13.672,-33.691,-30.273,0.000,0
38435.272,-38.086,-20.508,-37.109,-34.180,0.000,0
38435.276,-40.039,-36.133,-30.273,-45.410,0.000,0
38435.280,-51.758,-51.758,-27.832,-54.199,0.000,0
38435.284,-61.523,-50.781,-34.180,-56.641,0.000,0
38435.288,-59.082,-62.012,-33.691,-55.664,0.000,0
38435.292,-45.898,-72.754,-39.551,-44.434,0.000,0
38435.296,-53.711,-93.262,-43.457,-40.527,0.000,0
38435.300,-56.152,-104.980,-32.227,-48.340,0.000,0
38435.304,-46.387,-92.285,-32.715,-42.480,0.000,0
38435.308,-55.664,-102.539,-29.785,-41.504,0.000,0
38435.312,-59.570,-106.934,-24.414,-50.781,0.000,0
38435.315,-52.734,-105.469,-23.926,-46.875,0.000,0
38435.319,-54.199,-106.934,-27.344,-46.875,0.000,0
38435.323,-39.551,-92.773,-28.809,-46.875,0.000,0
38435.327,-32.715,-93.262,-21.484,-35.645,0.000,0
38435.331,-35.645,-97.168,-23.438,-34.668,0.000,0
38435.335,-33.203,-100.098,-30.762,-39.551,0.000,0
38435.339,-26.367,-111.328,-30.762,-40.039,0.000,0
38435.343,-27.344,-137.695,-23.438,-32.715,0.000,0
38435.347,-37.598,-106.445,-26.855,-32.715,0.000,0
38435.351,-41.016,-84.473,-35.645,-51.758,0.000,0
38435.355,-48.828,-126.953,-33.691,-54.688,0.000,0
38435.358,-42.969,-155.273,-23.438,-48.828,0.000,0
38435.362,-45.898,-131.348,-23.926,-48.340,0.000,0
38435.366,-41.992,-123.047,-22.949,-44.922,0.000,0
38435.370,-32.715,-130.371,-20.996,-38.574,0.000,0
38435.374,-26.855,-125.488,-20.020,-41.992,0.000,0
38435.378,-33.691,-127.930,-15.625,-57.617,0.000,0
38435.382,-41.016,-107.422,-17.090,-46.387,0.000,0
38435.386,-28.320,-101.074,-9.277,-34.668,0.000,0
38435.390,-26.367,-93.750,-10.742,-34.668,0.000,0
38435.394,-32.227,-92.285,-20.508,-37.598,0.000,0
38435.397,-32.715,-111.816,-9.766,-35.645,0.000,0
38435.401,-35.156,-89.355,-8.301,-36.133,0.000,0
38435.405,-35.156,-76.660,-19.531,-19.531,0.000,0
38435.409,-29.785,-72.266,-19.531,-12.695,0.000,0
38435.413,-18.066,-74.707,-13.184,-31.738,0.000,0
38435.417,-24.414,-92.773,-7.324,-41.016,0.000,0
38435.421,-35.645,-66.895,-15.625,-30.762,0.000,0
38435.425,-40.527,-58.105,-22.461,-32.227,0.000,0
38435.429,-34.668,-51.758,-23.926,-37.598,0.000,0
38435.433,-27.832,-59.082,-19.043,-30.762,0.000,0
38435.437,-35.156,-75.195,-18.555,-30.762,0.000,0
38435.440,-32.227,-62.012,-30.273,-24.414,0.000,0
38435.444,-37.109,-77.148,-23.926,-17.578,0.000,0
38435.448,-35.156,-54.199,-27.344,-30.273,0.000,0
38435.452,-27.832,-46.387,-38.574,-48.340,0.000,0
38435.456,-41.016,-88.379,-30.762,-54.199,0.000,0
38435.460,-51.270,-88.379,-30.273,-44.922,0.000,0
38435.464,-38.086,-80.566,-29.297,-42.969,0.000,0
38435.468,-36.133,-83.984,-33.203,-44.434,0.000,0
38435.472,-65.430,-87.402,-44.922,-32.227,0.000,0
38435.476,-63.965,-104.980,-36.621,-38.574,0.000,0
38435.480,-46.875,-83.496,-32.715,-40.039,0.000,0
38435.483,-47.852,-56.152,-39.551,-30.762,0.000,0
38435.487,-44.922,-66.406,-35.156,-35.156,0.000,0
38435.491,-40.039,-74.707,-33.691,-30.273,0.000,0
38435.495,-34.180,-87.891,-30.762,-27.344,0.000,0
38435.499,-36.133,-76.660,-34.668,-35.645,0.000,0
38435.503,-49.316,-64.941,-40.039,-41.016,0.000,0
38435.507,-52.246,-74.707,-38.086,-40.527,0.000,0
38435.511,-38.574,-63.477,-43.457,-33.203,0.000,0
38435.515,-31.250,-67.383,-42.969,-36.133,0.000,0
38435.519,-39.062,-67.871,-44.922,-41.504,0.000,0
38435.522,-47.363,-52.246,-47.363,-32.715,0.000,0
38435.526,-42.969,-56.641,-48.340,-28.809,0.000,0
38435.530,-41.504,-56.641,-43.457,-22.461,0.000,0
38435.534,-37.598,-66.895,-35.645,-24.414,0.000,0
38435.538,-28.320,-66.895,-34.180,-33.691,0.000,0
38435.542,-24.414,-27.832,-40.527,-42.969,0.000,0
38435.546,-43.457,-43.457,-41.504,-41.016,0.000,0
38435.550,-34.668,-56.641,-36.621,-24.902,0.000,0
38435.554,-28.320,-36.621,-31.738,-30.273,0.000,0
38435.558,-40.527,-30.273,-30.273,-33.203,0.000,0
38435.562,-33.203,-25.879,-32.715,-23.926,0.000,0
38435.565,-30.273,-26.855,-28.320,-25.391,0.000,0
38435.569,-25.391,-23.438,-31.738,-32.715,0.000,0
38435.573,-26.855,-27.832,-37.109,-30.273,0.000,0
38435.577,-41.016,-32.227,-32.227,-28.809,0.000,0
38435.581,-34.668,-32.227,-33.203,-40.039,0.000,0
38435.585,-36.133,-31.738,-38.086,-48.340,0.000,0
38435.589,-38.086,-31.738,-36.133,-48.828,0.000,0
38435.593,-28.320,-45.898,-40.527,-41.016,0.000,0
38435.597,-34.668,-50.293,-37.598,-28.320,0.000,0
38435.601,-35.645,-30.762,-30.762,-20.020,0.000,0
38435.605,-31.250,-27.832,-26.855,-26.367,0.000,0
38435.608,-28.320,-30.762,-30.762,-32.227,0.000,0
38435.612,-34.668,-34.180,-39.062,-24.902,0.000,0
38435.616,-42.969,-30.273,-39.062,-30.762,0.000,0
38435.620,-43.457,-9.766,-36.621,-33.691,0.000,0
38435.624,-38.086,-20.996,-34.180,-21.484,0.000,0
38435.628,-26.367,-35.645,-23.926,-15.137,0.000,0
38435.632,-19.043,-33.203,-21.484,-13.672,0.000,0
38435.636,-31.250,-35.645,-22.949,-20.996,0.000,0
38435.640,-29.785,-21.484,-18.066,-23.438,0.000,0
38435.644,-19.531,-20.020,-20.996,-23.926,0.000,0
38435.647,-23.926,-35.156,-23.438,-27.344,0.000,0
38435.651,-21.973,-28.809,-28.809,-24.902,0.000,0
38435.655,-12.207,-23.926,-30.762,-21.484,0.000,0
38435.659,-37.109,-28.809,-27.832,-26.367,0.000,0
38435.663,-52.734,-8.789,-37.109,-37.598,0.000,0
38435.667,-43.945,-7.812,-43.945,-31.250,0.000,0
38435.671,-39.551,-46.875,-28.320,-20.508,0.000,0
38435.675,-36.621,-62.012,-19.043,-22.949,0.000,0
38435.679,-36.133,-41.992,-31.250,-26.855,0.000,0
38435.683,-46.387,-49.805,-38.574,-33.203,0.000,0
38435.687,-49.316,-52.246,-41.992,-26.367,0.000,0
38435.690,-41.992,-46.387,-34.180,-24.414,0.000,0
38435.694,-40.527,-51.758,-28.320,-22.949,0.000,0
38435.698,-39.062,-31.738,-30.273,-21.484,0.000,0
38435.702,-35.645,-24.414,-28.320,-27.344,0.000,0
38435.706,-35.156,-24.414,-30.762,-22.949,0.000,0
38435.710,-31.738,-11.230,-31.250,-21.973,0.000,0
38435.714,-26.855,-29.297,-32.227,-30.273,0.000,0
38435.718,-28.809,-42.969,-23.926,-28.320,0.000,0
38435.722,-35.645,-35.156,-28.809,-30.762,0.000,0
38435.726,-32.715,-27.344,-37.598,-30.762,0.000,0
38435.730,-25.879,-38.086,-28.809,-29.785,0.000,0
38435.733,-24.902,-50.781,-21.484,-27.344,0.000,0
38435.737,-20.508,-19.043,-23.926,-24.414,0.000,0
38435.741,-22.461,-14.648,-24.414,-16.602,0.000,1
38435.745,-22.461,-24.902,-18.066,-10.254,0.000,0
38435.749,-24.414,-36.621,-18.555,-22.461,0.000,0
38435.753,-19.531,-42.480,-26.367,-29.785,0.000,0
38435.757,-14.648,-34.180,-25.879,-13.672,0.000,0
38435.761,-16.602,-42.480,-27.344,-11.719,0.000,0
38435.765,-14.648,-27.832,-38.086,-19.043,0.000,0
38435.769,-23.926,-45.410,-37.598,-28.809,0.000,0
38435.772,-8.789,-61.035,-29.297,-9.766,0.000,0
38435.776,-4.883,-25.391,-26.367,-2.441,0.000,0
38435.780,-30.273,-6.836,-21.484,-30.762,0.000,0
38435.784,-30.273,-8.301,-26.367,-25.879,0.000,0
38435.788,-20.508,-37.598,-26.367,-23.438,0.000,0
38435.792,-35.645,-31.250,-21.484,-28.320,0.000,0
38435.796,-37.598,-2.441,-32.227,-20.996,0.000,0
38435.800,-30.762,-12.695,-36.133,-19.043,0.000,0
38435.804,-27.832,-23.926,-28.809,-21.973,0.000,0
38435.808,-24.414,-29.785,-24.414,-25.391,0.000,0
38435.812,-23.438,-24.902,-31.738,-30.273,0.000,0
38435.815,-10.742,8.301,-30.273,-30.273,0.000,0
38435.819,-21.973,6.836,-31.250,-39.062,0.000,0
38435.823,-33.203,-5.371,-30.273,-36.133,0.000,0
38435.827,-28.320,-9.766,-28.809,-28.320,0.000,0
38435.831,-30.273,-26.367,-33.691,-38.574,0.000,0
38435.835,-35.156,-9.766,-35.645,-37.109,0.000,0
38435.839,-21.973,-1.465,-33.691,-34.668,0.000,0
38435.843,-18.555,-8.301,-30.273,-35.645,0.000,0
38435.847,-31.738,-14.160,-27.832,-36.133,0.000,0
38435.851,-23.438,-36.621,-18.066,-38.086,0.000,0
38435.855,-19.043,-2.441,-22.949,-24.414,0.000,0
38435.858,-21.484,37.598,-31.250,-22.461,0.000,0
38435.862,-19.531,5.371,-27.344,-27.832,0.000,0
38435.866,-15.625,-18.066,-34.180,-29.297,0.000,0
38435.870,-28.320,-25.391,-33.691,-36.133,0.000,0
38435.874,-36.133,-12.695,-36.133,-35.156,0.000,0
38435.878,-25.391,-5.859,-39.551,-33.203,0.000,0
38435.882,-21.484,-19.043,-31.250,-24.414,0.000,0
38435.886,-27.344,-21.484,-31.250,-23.438,0.000,0
38435.890,-24.902,-33.203,-36.133,-40.039,0.000,0
38435.894,-23.926,-32.227,-36.621,-32.227,0.000,0
38435.897,-39.062,-24.414,-38.574,-32.715,0.000,0
38435.901,-36.133,-20.996,-41.504,-39.062,0.000,0
38435.905,-24.414,-35.156,-43.457,-31.250,0.000,0
38435.909,-31.250,-56.152,-38.574,-36.621,0.000,0
38435.913,-30.762,-45.898,-38.574,-28.320,0.000,0
38435.917,-24.902,-39.062,-39.062,-15.137,0.000,0
38435.921,-27.832,-47.363,-32.715,-29.297,0.000,0
38435.925,-35.645,-51.758,-32.227,-34.668,0.000,0
38435.929,-28.320,-54.199,-25.879,-20.996,0.000,0
38435.933,-21.484,-38.574,-25.391,-18.066,0.000,0
38435.937,-26.855,-22.461,-35.156,-10.742,0.000,0
38435.940,-21.973,-22.949,-35.156,-0.488,0.000,0
38435.944,-22.461,-11.230,-35.156,-13.184,0.000,0
38435.948,-21.973,-4.883,-34.180,-30.273,0.000,0
38435.952,-12.207,-33.691,-31.250,-30.762,0.000,0
38435.956,-19.043,-43.945,-29.785,-28.320,0.000,0
38435.960,-28.320,-17.578,-41.016,-29.297,0.000,0
38435.964,-20.508,-2.930,-50.293,-23.438,0.000,0
38435.968,-18.555,-12.695,-42.969,-17.578,0.000,0
38435.972,-19.531,-25.879,-33.203,-10.742,0.000,0
38435.976,-6.348,-10.254,-36.621,-11.230,0.000,0
38435.980,-3.906,-9.277,-42.480,-18.555,0.000,0
38435.983,-9.766,-3.418,-38.086,-6.836,0.000,0
38435.987,0.000,-9.277,-23.926,-0.977,0.000,0
38435.991,5.371,-6.836,-21.973,-10.742,0.000,0
38435.995,-0.977,23.926,-34.180,-19.531,0.000,0
38435.999,0.488,13.672,-25.879,-12.207,0.000,0
38436.003,-4.883,-4.395,-22.949,-2.930,0.000,0
38436.007,-26.367,-19.531,-34.668,-21.484,0.000,0
38436.011,-27.832,-19.043,-33.203,-26.367,0.000,0
38436.015,-21.973,-9.277,-35.645,-20.996,0.000,0
38436.019,-25.391,-22.461,-40.039,-31.250,0.000,0
38436.022,-27.344,-24.414,-40.527,-29.297,0.000,0
38436.026,-21.973,-48.340,-32.715,-18.555,0.000,0
38436.030,-21.484,-50.781,-29.785,-24.414,0.000,0
38436.034,-24.902,-28.320,-35.156,-20.020,0.000,0
38436.038,-28.320,-24.414,-42.480,-10.742,0.000,0
38436.042,-26.855,-27.344,-41.992,-18.066,0.000,0
38436.046,-22.461,-72.266,-19.531,-23.438,0.000,0
38436.050,-28.320,-60.059,-20.508,-19.531,0.000,0
38436.054,-27.344,-23.926,-34.668,-18.555,0.000,0
38436.058,-17.090,-39.551,-31.738,-14.160,0.000,0
38436.062,-21.484,-25.879,-26.855,-7.324,0.000,0
38436.065,-22.949,-41.504,-22.949,-15.137,0.000,0
38436.069,-9.766,-27.832,-17.578,-5.859,0.000,0
38436.073,-17.578,-3.906,-14.648,-2.930,0.000,0
38436.077,-17.578,-23.438,-13.184,-9.766,0.000,0
38436.081,-15.137,-13.672,-20.508,-14.648,0.000,0
38436.085,-21.973,-20.508,-30.273,-28.320,0.000,0
38436.089,-26.367,-42.969,-27.832,-28.320,0.000,0
38436.093,-37.109,-39.062,-29.297,-25.391,0.000,0
38436.097,-36.621,-35.645,-34.668,-28.809,0.000,0
38436.101,-40.527,-37.109,-30.762,-22.949,0.000,0
38436.105,-39.551,-59.570,-30.273,-33.203,0.000,0
38436.108,-28.809,-65.430,-31.250,-33.691,0.000,0
38436.112,-32.715,-23.438,-36.621,-23.438,0.000,0
38436.116,-35.645,-18.555,-40.039,-21.484,0.000,0
38436.120,-24.902,-41.992,-30.762,-16.113,0.000,0
38436.124,-16.113,-42.480,-25.879,-17.578,0.000,0
38436.128,-29.297,-35.645,-26.855,-30.273,0.000,0
38436.132,-27.344,-25.391,-33.691,-35.645,0.000,0
38436.136,-27.344,-27.832,-38.574,-33.203,0.000,0
38436.140,-40.527,-19.043,-45.410,-26.855,0.000,0
38436.144,-29.785,-16.602,-41.992,-19.043,0.000,0
38436.147,-28.320,-27.832,-22.461,-27.344,0.000,0
38436.151,-36.621,-11.230,-27.344,-24.902,0.000,0
38436.155,-38.574,-24.902,-37.109,-25.391,0.000,0
38436.159,-35.156,-35.156,-38.574,-27.344,0.000,0
38436.163,-29.785,-22.461,-34.180,-26.855,0.000,0
38436.167,-28.809,-31.738,-26.855,-31.250,0.000,0
38436.171,-33.691,-16.602,-38.086,-30.762,0.000,0
38436.175,-44.922,-22.461,-43.457,-38.086,0.000,0
38436.179,-43.945,-31.250,-39.062,-35.156,0.000,0
38436.183,-35.645,-26.855,-41.504,-29.785,0.000,0
38436.187,-30.762,-25.879,-44.434,-36.133,0.000,0
38436.190,-42.969,-14.160,-46.387,-26.855,0.000,0
38436.194,-42.480,-5.859,-43.457,-21.973,0.000,0
38436.198,-39.062,-3.418,-41.504,-30.273,0.000,0
38436.202,-39.062,-8.789,-41.992,-33.203,0.000,0
38436.206,-28.809,-8.789,-30.273,-30.762,0.000,0
38436.210,-25.879,1.953,-24.414,-20.508,0.000,0
38436.214,-33.691,-1.953,-33.203,-19.043,0.000,0
38436.218,-36.133,-5.371,-36.621,-20.020,0.000,0
38436.222,-37.109,-12.695,-33.203,-25.879,0.000,0
38436.226,-34.668,-29.297,-30.273,-32.715,0.000,0
38436.230,-30.273,-12.695,-39.062,-23.926,0.000,0
38436.233,-33.203,18.555,-47.363,-31.250,0.000,0
38436.237,-34.180,4.395,-38.574,-35.645,0.000,0
38436.241,-29.297,-17.090,-28.809,-15.137,0.000,0
38436.245,-27.832,-12.207,-28.320,-22.461,0.000,0
38436.249,-20.996,-1.953,-31.250,-37.598,0.000,0
38436.253,-26.367,-6.348,-36.621,-30.762,0.000,0
38436.257,-34.180,-17.578,-40.527,-28.320,0.000,0
38436.261,-35.645,-26.855,-40.527,-33.691,0.000,0
38436.265,-44.922,-22.949,-41.016,-37.598,0.000,0
38436.269,-39.062,-26.367,-35.645,-28.809,0.000,0
38436.272,-34.668,-23.926,-33.203,-30.762,0.000,0
38436.276,-42.480,-23.438,-39.551,-39.062,0.000,0
38436.280,-41.504,-30.273,-41.992,-34.180,0.000,0
38436.284,-40.527,-39.551,-40.527,-32.227,0.000,0
38436.288,-39.062,-42.480,-36.133,-29.785,0.000,0
38436.292,-35.645,-40.527,-39.551,-27.832,0.000,0
38436.296,-24.414,-17.578,-41.992,-24.902,0.000,0
38436.300,-16.113,-26.367,-36.621,-21.973,0.000,0
38436.304,-13.672,-53.223,-32.227,-20.508,0.000,0
38436.308,-21.973,-43.457,-35.156,-24.902,0.000,2
38436.312,-29.785,-29.785,-32.715,-27.832,0.000,0
38436.315,-13.184,-34.180,-31.738,-22.461,0.000,0
38436.319,-17.578,-25.391,-43.945,-21.973,0.000,0
38436.323,-30.762,-18.555,-41.016,-23.926,0.000,0
38436.327,-21.484,-18.555,-26.367,-20.020,0.000,0
38436.331,-17.578,-17.578,-25.391,-17.578,0.000,0
38436.335,-26.855,-6.836,-30.762,-24.414,0.000,0
38436.339,-26.367,8.301,-28.320,-20.508,0.000,0
38436.343,-15.137,-6.836,-20.508,-19.043,0.000,0
38436.347,-6.836,10.742,-20.508,-24.902,0.000,0
38436.351,-5.859,45.898,-31.250,-24.414,0.000,0
38436.355,-13.184,36.621,-31.738,-20.996,0.000,0
38436.358,-10.742,27.832,-19.531,-9.766,0.000,0
38436.362,-8.301,6.348,-11.719,-11.719,0.000,0
38436.366,-6.836,3.418,-14.160,-12.695,0.000,0
38436.370,-0.488,38.574,-24.902,0.000,0.000,0
38436.374,-8.789,20.996,-15.137,0.000,0.000,0
38436.378,-11.230,3.906,-10.742,0.488,0.000,0
38436.382,-2.930,-4.395,-15.625,-7.812,0.000,0
38436.386,-5.371,1.465,-16.113,-14.160,0.000,0
38436.390,-9.766,14.160,-19.043,-9.277,0.000,0
38436.394,-15.625,-6.348,-13.184,-0.488,0.000,0
38436.397,-12.207,6.348,-12.695,-1.465,0.000,0
38436.401,-5.371,-7.812,-8.301,-16.113,0.000,0
38436.405,-2.441,-10.254,-10.254,-15.625,0.000,0
38436.409,-6.348,12.695,-18.066,-8.789,0.000,0
38436.413,-21.973,10.254,-26.855,-20.996,0.000,0
38436.417,-26.367,9.277,-34.180,-25.879,0.000,0
38436.421,-28.809,-35.156,-29.297,-23.926,0.000,0
38436.425,-40.527,-38.574,-36.621,-37.109,0.000,0
38436.429,-37.598,-8.789,-43.457,-39.062,0.000,0
38436.433,-34.668,-30.273,-41.016,-34.180,0.000,0
38436.437,-38.086,-30.762,-41.016,-35.645,0.000,0
38436.440,-36.133,-38.086,-40.039,-41.504,0.000,0
38436.444,-35.645,-37.598,-33.203,-33.691,0.000,0
38436.448,-34.668,-13.672,-29.785,-29.297,0.000,0
38436.452,-32.227,-24.902,-33.203,-45.410,0.000,0
38436.456,-35.645,-19.043,-36.133,-35.645,0.000,0
38436.460,-34.668,-11.719,-33.691,-34.668,0.000,0
38436.464,-33.203,-24.902,-27.344,-42.969,0.000,0
38436.468,-41.504,-25.391,-30.762,-27.344,0.000,0
38436.472,-38.086,10.254,-37.598,-22.461,0.000,0
38436.476,-29.297,21.973,-38.574,-25.391,0.000,0
38436.480,-31.250,-27.344,-41.992,-24.414,0.000,0
38436.483,-27.832,-38.574,-35.156,-18.066,0.000,0
38436.487,-22.461,-9.766,-35.645,-14.160,0.000,0
38436.491,-24.414,-20.020,-31.250,-12.207,0.000,0
38436.495,-29.297,-34.180,-30.762,-4.395,0.000,0
38436.499,-31.738,-36.133,-40.039,-9.766,0.000,0
38436.503,-29.297,-41.992,-35.645,-26.367,0.000,0
38436.507,-22.461,-32.227,-29.785,-20.996,0.000,0
38436.511,-24.414,-24.902,-28.809,-23.926,0.000,0
38436.515,-36.621,-21.973,-33.203,-34.668,0.000,0
38436.519,-39.551,-31.250,-37.109,-40.527,0.000,0
38436.522,-32.715,-43.945,-34.668,-46.387,0.000,0
38436.526,-34.668,-17.578,-39.062,-40.039,0.000,0
38436.530,-39.062,-3.418,-44.922,-31.738,0.000,0
38436.534,-31.250,-10.742,-41.992,-27.344,0.000,0
38436.538,-26.367,-35.645,-33.691,-29.297,0.000,0
38436.542,-28.809,-54.688,-26.855,-25.391,0.000,0
38436.546,-20.020,-31.738,-24.902,-22.949,0.000,0
38436.550,-24.414,-23.926,-28.320,-32.227,0.000,0
38436.554,-36.621,-28.809,-33.691,-31.250,0.000,0
38436.558,-35.645,-25.879,-38.086,-25.879,0.000,0
38436.562,-29.785,-22.461,-43.945,-32.227,0.000,0
38436.565,-30.762,-18.066,-43.457,-39.551,0.000,0
38436.569,-46.875,-40.039,-37.109,-41.016,0.000,0
38436.573,-46.387,-19.531,-40.039,-30.273,0.000,0
38436.577,-35.645,9.277,-41.992,-27.344,0.000,0
38436.581,-47.852,-28.320,-28.809,-23.438,0.000,0
38436.585,-58.105,-41.992,-31.250,-24.902,0.000,0
38436.589,-45.410,-28.809,-40.527,-31.738,0.000,0
38436.593,-33.203,-23.926,-37.598,-24.902,0.000,0
38436.597,-28.320,-22.949,-35.645,-17.090,0.000,0
38436.601,-32.227,-32.715,-31.738,-23.926,0.000,0
38436.605,-28.320,-22.949,-27.344,-34.668,0.000,0
38436.608,-27.832,-23.438,-36.133,-29.785,0.000,0
38436.612,-38.574,-39.551,-37.598,-27.832,0.000,0
38436.616,-41.016,-39.062,-30.762,-32.227,0.000,0
38436.620,-39.551,-48.828,-28.809,-35.645,0.000,0
38436.624,-35.156,-42.969,-30.273,-29.785,0.000,0
38436.628,-31.250,-37.598,-26.367,-31.738,0.000,0
38436.632,-24.902,-49.805,-26.855,-37.109,0.000,0
38436.636,-26.855,-46.875,-30.762,-24.414,0.000,0
38436.640,-31.250,-56.152,-20.020,-18.066,0.000,0
38436.644,-26.855,-48.828,-14.160,-15.137,0.000,0
38436.647,-13.672,-43.945,-17.090,-10.254,0.000,0
38436.651,-7.324,-45.898,-20.508,-16.602,0.000,0
38436.655,-22.949,-37.598,-21.973,-26.367,0.000,0
38436.659,-21.484,-85.938,-11.230,-20.020,0.000,0
38436.663,-15.137,-89.355,-14.160,-15.625,0.000,0
38436.667,-19.531,-55.176,-29.785,-29.785,0.000,0
38436.671,-16.602,-93.262,-23.438,-22.949,0.000,0
38436.675,-21.973,-89.355,-29.297,-16.113,0.000,0
38436.679,-13.184,-61.523,-37.598,-27.344,0.000,0
38436.683,-4.883,-62.988,-34.180,-16.113,0.000,0
38436.687,-10.254,-63.477,-32.227,-6.836,0.000,0
38436.690,-8.789,-79.590,-24.414,-7.324,0.000,0
38436.694,0.488,-57.129,-33.203,-6.348,0.000,0
38436.698,-7.812,-68.359,-30.273,-18.066,0.000,0
38436.702,-11.230,-88.379,-20.508,-14.648,0.000,0
38436.706,-2.930,-69.336,-20.020,-11.719,0.000,0
38436.710,-15.625,-64.941,-20.020,-11.719,0.000,0
38436.714,-23.926,-56.641,-25.879,-17.090,0.000,0
38436.718,-23.926,-80.566,-18.066,-30.273,0.000,0
38436.722,-19.531,-78.125,-19.531,-20.996,0.000,0
38436.726,-16.602,-41.992,-35.156,-16.113,0.000,0
38436.730,-16.113,-41.504,-28.809,-18.066,0.000,0
38436.733,-15.137,-35.645,-20.020,-2.930,0.000,0
38436.737,-11.719,-41.992,-12.695,-5.859,0.000,0
38436.741,-10.742,-39.551,-15.137,-16.113,0.000,0
38436.745,-11.230,-25.391,-26.855,-14.160,0.000,0
38436.749,-10.742,-57.617,-17.578,-4.395,0.000,0
38436.753,-12.207,-61.035,-12.207,1.953,0.000,0
38436.757,-13.184,-65.430,-20.508,-14.648,0.000,0
38436.761,-24.414,-76.172,-22.949,-20.020,0.000,0
38436.765,-23.926,-51.270,-28.320,-11.719,0.000,0
