timestamps,TP9,AF7,AF8,TP10,Right AUX,Marker0
36925.769,-25.879,-18.555,-8.789,-16.113,0.000,0
36925.773,-24.902,-22.949,-14.160,-29.297,0.000,0
36925.777,-28.809,-18.555,-19.531,-21.973,0.000,0
36925.781,-26.367,-17.578,-16.113,-14.648,0.000,0
36925.785,-32.715,-21.484,-19.043,-13.184,0.000,0
36925.789,-35.156,-20.508,-23.926,-21.973,0.000,0
36925.793,-21.973,-14.160,-19.043,-21.973,0.000,0
36925.797,-22.461,-19.531,-21.973,-20.020,0.000,0
36925.801,-30.762,-24.414,-36.133,-23.438,0.000,0
36925.805,-27.344,-20.996,-38.086,-13.672,0.000,0
36925.809,-25.391,-24.414,-26.367,-20.996,0.000,0
36925.812,-37.598,-29.297,-33.691,-31.738,0.000,0
36925.816,-24.902,-25.879,-41.992,-19.043,0.000,0
36925.820,-16.602,-23.926,-30.762,-14.648,0.000,0
36925.824,-21.973,-18.066,-17.090,-18.066,0.000,0
36925.828,-23.438,-17.090,-15.137,-15.137,0.000,0
36925.832,-27.344,-20.996,-25.391,-17.090,0.000,0
36925.836,-23.438,-26.367,-31.738,-18.555,0.000,0
36925.840,-15.137,-25.879,-22.461,-17.578,0.000,0
36925.844,-10.254,-24.414,-22.949,-9.766,0.000,0
36925.848,-12.207,-27.832,-24.414,-5.371,0.000,0
36925.851,-14.160,-22.461,-15.625,-15.625,0.000,0
36925.855,-16.113,-25.391,-18.066,-18.066,0.000,0
36925.859,-21.484,-23.438,-19.531,-22.461,0.000,0
36925.863,-11.719,-20.508,-13.672,-20.508,0.000,0
36925.867,-8.301,-20.508,-7.324,-21.484,0.000,0
36925.871,-15.137,-15.137,-17.090,-23.926,0.000,0
36925.875,-11.719,-13.184,-24.902,-24.902,0.000,0
36925.879,-12.695,-18.066,-25.391,-20.508,0.000,0
36925.883,-14.648,-20.508,-24.902,-10.254,0.000,0
36925.887,-10.254,-22.461,-26.367,-11.230,0.000,0
36925.891,-20.996,-16.113,-34.180,-19.531,0.000,0
36925.894,-28.809,-15.625,-29.297,-12.207,0.000,0
36925.898,-20.020,-17.090,-18.555,-9.766,0.000,0
36925.902,-19.531,-14.160,-20.996,-20.020,0.000,0
36925.906,-14.160,-13.184,-18.066,-12.695,0.000,0
36925.910,-14.160,-15.625,-15.137,-18.555,0.000,0
36925.914,-18.066,-12.695,-14.160,-13.672,0.000,0
36925.918,-18.066,-13.184,-14.648,-11.230,0.000,0
36925.922,-25.879,-20.020,-20.996,-27.344,0.000,0
36925.926,-25.879,-17.090,-15.625,-21.484,0.000,0
36925.930,-18.066,-14.648,-18.066,-14.648,0.000,0
36925.934,-16.113,-11.719,-24.902,-13.184,0.000,0
36925.937,-23.438,-10.254,-24.902,-15.625,0.000,0
36925.941,-16.602,-19.043,-29.785,-2.930,0.000,0
36925.945,-19.043,-24.902,-21.973,0.000,0.000,0
36925.949,-25.879,-21.484,-22.461,-24.902,0.000,0
36925.953,-17.578,-20.996,-20.508,-23.438,0.000,0
36925.957,-20.020,-26.855,-18.066,-22.461,0.000,0
36925.961,-20.996,-23.438,-25.879,-27.832,0.000,0
36925.965,-16.602,-18.555,-22.461,-19.531,0.000,0
36925.969,0.977,-21.973,-18.066,-4.395,0.000,0
36925.973,13.184,-12.695,-12.695,3.418,0.000,0
36925.976,-24.414,-14.648,-8.789,-22.949,0.000,0
36925.980,-44.922,-24.414,-17.090,-35.645,0.000,0
36925.984,-31.738,-19.043,-12.695,-34.668,0.000,0
36925.988,-34.668,-20.996,-2.930,-45.898,0.000,0
36925.992,-32.715,-20.020,-19.531,-28.320,0.000,0
36925.996,-18.066,-20.020,-28.809,-18.555,0.000,0
36926.000,-4.395,-25.879,-23.438,-17.578,0.000,0
36926.004,0.488,-20.996,-8.301,-4.883,0.000,0
36926.008,0.977,-19.531,0.488,-13.184,0.000,0
36926.012,-4.883,-24.414,-9.766,-21.484,0.000,0
36926.016,-10.742,-21.484,-12.207,-11.230,0.000,0
36926.019,-7.812,-16.113,-11.230,1.953,0.000,0
36926.023,-7.324,-16.113,-11.719,-6.348,0.000,0
36926.027,-10.254,-22.949,-11.719,-23.438,0.000,0
36926.031,-9.766,-22.949,-16.113,-20.508,0.000,0
36926.035,-11.719,-23.926,-11.719,-14.648,0.000,0
36926.039,-11.230,-29.297,-17.578,-29.785,0.000,0
36926.043,-15.625,-25.879,-19.531,-32.715,0.000,0
36926.047,-11.230,-20.996,-5.371,-21.484,0.000,0
36926.051,-5.859,-18.555,-8.789,-19.531,0.000,0
36926.055,-13.672,-25.391,-21.484,-19.043,0.000,0
36926.059,-23.438,-29.785,-25.391,-16.602,0.000,0
36926.062,-20.508,-24.902,-16.602,-2.441,0.000,0
36926.066,-18.555,-18.066,-5.371,-1.465,0.000,0
36926.070,-28.809,-21.484,-18.066,-1.953,0.000,0
36926.074,-30.273,-27.832,-34.180,-8.789,0.000,0
36926.078,-20.996,-17.578,-25.879,-20.996,0.000,0
36926.082,-8.301,-17.578,-22.949,-25.879,0.000,0
36926.086,-5.371,-30.762,-24.902,-31.738,0.000,0
36926.090,-11.230,-33.203,-18.555,-20.996,0.000,0
36926.094,-6.348,-22.949,-17.090,2.441,0.000,0
36926.098,4.883,-12.695,-18.066,-1.465,0.000,0
36926.101,-2.441,-17.578,-20.508,-3.418,0.000,0
36926.105,-14.648,-25.879,-14.648,-8.301,0.000,0
36926.109,-19.531,-25.391,-18.555,-13.672,0.000,0
36926.113,-18.066,-23.926,-22.949,-8.789,0.000,0
36926.117,-10.254,-20.996,-15.625,4.395,0.000,0
36926.121,-13.672,-21.484,-9.766,12.695,0.000,0
36926.125,-12.207,-26.367,-2.930,-1.465,0.000,0
36926.129,-7.812,-26.855,-19.043,-16.602,0.000,0
36926.133,-12.695,-27.344,-26.367,-12.695,0.000,0
36926.137,-16.602,-26.367,-20.508,-11.230,0.000,0
36926.141,-16.113,-22.461,-13.672,-9.766,0.000,0
36926.144,-11.719,-23.438,-6.348,-16.113,0.000,0
36926.148,-11.230,-23.438,-12.207,-18.066,0.000,0
36926.152,-11.230,-28.320,-17.090,-10.742,0.000,0
36926.156,-3.906,-26.855,-17.090,-1.953,0.000,0
36926.160,-5.859,-23.926,-20.508,-3.418,0.000,0
36926.164,-18.555,-24.414,-17.090,-20.996,0.000,0
36926.168,-15.137,-17.578,-12.695,-22.949,0.000,0
36926.172,-8.789,-18.066,-19.531,-20.996,0.000,0
36926.176,-17.578,-26.367,-31.250,-27.832,0.000,0
36926.180,-22.949,-24.902,-27.832,-35.645,0.000,0
36926.184,-17.578,-23.926,-15.137,-31.738,0.000,0
36926.187,-18.066,-31.738,-20.020,-28.320,0.000,0
36926.191,-22.949,-30.273,-27.832,-41.016,0.000,0
36926.195,-31.250,-29.785,-25.879,-26.367,0.000,0
36926.199,-23.438,-27.344,-21.484,-10.742,0.000,0
36926.203,-15.625,-26.367,-18.066,-15.137,0.000,0
36926.207,-16.602,-27.344,-19.043,-20.020,0.000,0
36926.211,-29.297,-30.762,-29.297,-29.297,0.000,0
36926.215,-28.809,-30.273,-28.809,-24.902,0.000,0
36926.219,-25.879,-29.297,-29.297,-26.855,0.000,0
36926.223,-27.832,-27.832,-27.832,-34.668,0.000,0
36926.226,-19.531,-29.297,-24.414,-34.668,0.000,0
36926.230,-28.320,-29.297,-32.227,-38.574,0.000,0
36926.234,-40.527,-22.949,-23.438,-32.227,0.000,0
36926.238,-29.297,-27.832,-26.855,-30.762,0.000,0
36926.242,-22.461,-30.273,-25.391,-34.180,0.000,0
36926.246,-28.320,-28.809,-20.996,-26.855,0.000,0
36926.250,-31.250,-29.785,-32.715,-33.691,0.000,0
36926.254,-39.062,-30.273,-28.809,-43.457,0.000,0
36926.258,-36.621,-29.785,-19.531,-39.062,0.000,0
36926.262,-30.273,-31.250,-23.926,-40.527,0.000,0
36926.266,-33.203,-31.738,-25.391,-37.109,0.000,0
36926.269,-26.367,-27.832,-26.855,-30.273,0.000,0
36926.273,-26.367,-29.297,-24.414,-39.062,0.000,0
36926.277,-35.156,-37.109,-27.832,-40.527,0.000,0
36926.281,-25.879,-33.203,-25.879,-25.879,0.000,0
36926.285,-23.926,-30.762,-21.973,-26.367,0.000,0
36926.289,-30.273,-37.109,-26.855,-34.180,0.000,0
36926.293,-26.855,-40.039,-23.438,-29.297,0.000,0
36926.297,-23.438,-38.574,-29.297,-21.973,0.000,0
36926.301,-21.973,-37.109,-37.598,-18.555,0.000,0
36926.305,-11.719,-34.180,-24.902,-14.648,0.000,0
36926.309,-13.184,-32.715,-29.785,-15.625,0.000,0
36926.312,-16.113,-27.344,-41.992,-23.926,0.000,0
36926.316,-10.254,-19.531,-24.902,-10.254,0.000,0
36926.320,-13.184,-13.184,-4.395,-0.977,0.000,0
36926.324,-8.789,-22.461,-14.160,-14.160,0.000,0
36926.328,-11.230,-27.344,-21.484,-27.344,0.000,0
36926.332,-20.020,-26.855,-14.648,-18.555,0.000,0
36926.336,-8.301,-29.297,-21.973,-5.859,0.000,0
36926.340,-2.930,-31.738,-28.320,-17.578,0.000,0
36926.344,-15.137,-32.227,-18.555,-24.902,0.000,0
36926.348,-18.555,-27.344,-19.043,-20.996,0.000,0
36926.351,-15.625,-24.902,-21.973,-25.391,0.000,0
36926.355,-19.043,-27.832,-29.297,-20.020,0.000,0
36926.359,-21.973,-35.645,-35.156,-20.020,0.000,0
36926.363,-22.949,-23.926,-10.742,-28.320,0.000,0
36926.367,-21.484,-21.973,-8.789,-27.344,0.000,0
36926.371,-24.902,-36.133,-28.809,-23.438,0.000,0
36926.375,-29.297,-31.738,-32.715,-25.879,0.000,0
36926.379,-25.391,-25.879,-28.320,-31.738,0.000,0
36926.383,-30.273,-26.855,-20.508,-33.691,0.000,0
36926.387,-23.926,-27.832,-23.926,-21.973,0.000,0
36926.391,-17.090,-26.855,-22.461,-19.043,0.000,0
36926.394,-24.902,-28.320,-20.020,-20.508,0.000,0
36926.398,-21.973,-30.273,-23.438,-7.812,0.000,0
36926.402,-23.926,-31.250,-28.320,-20.508,0.000,0
36926.406,-20.020,-23.926,-18.555,-20.020,0.000,0
36926.410,-17.090,-24.414,-19.043,-6.836,0.000,0
36926.414,-18.555,-30.762,-35.645,-12.207,0.000,0
36926.418,-16.113,-31.250,-18.066,-29.785,0.000,0
36926.422,-21.973,-32.227,-12.695,-31.738,0.000,0
36926.426,-15.625,-24.414,-22.461,-17.578,0.000,0
36926.430,-9.766,-20.020,-15.625,-19.531,0.000,0
36926.434,-13.672,-20.996,-16.602,-14.160,0.000,0
36926.437,-18.066,-24.414,-11.230,-10.742,0.000,0
36926.441,-16.602,-31.250,-10.254,-24.902,0.000,0
36926.445,-20.996,-26.855,-26.367,-30.273,0.000,0
36926.449,-23.926,-26.855,-30.762,-22.949,0.000,0
36926.453,-15.137,-22.949,-23.926,-18.555,0.000,0
36926.457,-16.602,-28.809,-26.367,-36.621,0.000,0
36926.461,-29.785,-34.180,-28.809,-41.016,0.000,0
36926.465,-26.367,-24.414,-31.738,-20.508,0.000,0
36926.469,-21.484,-24.902,-32.715,-14.648,0.000,0
36926.473,-33.203,-23.438,-31.738,-11.230,0.000,0
36926.476,-39.551,-22.461,-29.297,-1.465,0.000,0
36926.480,-32.715,-28.809,-27.832,-17.090,0.000,0
36926.484,-26.855,-30.273,-32.227,-28.320,0.000,0
36926.488,-25.879,-25.391,-32.227,-20.996,0.000,0
36926.492,-22.461,-17.090,-26.855,-15.625,0.000,0
36926.496,-18.555,-16.602,-20.020,-13.184,0.000,0
36926.500,-16.602,-17.578,-19.531,-18.066,0.000,0
36926.504,-21.484,-18.555,-29.785,-27.832,0.000,0
36926.508,-19.043,-17.578,-30.273,-19.043,0.000,0
36926.512,-16.602,-14.648,-26.367,-10.254,0.000,0
36926.516,-20.508,-18.555,-29.785,-24.902,0.000,0
36926.519,-21.484,-25.879,-31.250,-31.250,0.000,0
36926.523,-17.090,-23.438,-27.344,-15.137,0.000,0
36926.527,-23.438,-20.508,-29.297,-15.625,0.000,0
36926.531,-28.320,-21.973,-31.738,-19.531,0.000,0
36926.535,-31.738,-24.902,-29.785,-21.484,0.000,0
36926.539,-38.086,-22.461,-24.414,-31.250,0.000,0
36926.543,-28.809,-19.043,-28.320,-28.809,0.000,0
36926.547,-34.180,-21.973,-30.273,-25.879,0.000,0
36926.551,-38.574,-22.949,-27.832,-18.555,0.000,0
36926.555,-31.250,-22.949,-21.484,-22.461,0.000,0
36926.559,-39.062,-17.578,-19.531,-31.738,0.000,0
36926.562,-39.551,-23.438,-31.738,-22.949,0.000,0
36926.566,-33.203,-28.809,-32.227,-20.508,0.000,0
36926.570,-24.414,-24.902,-17.578,-23.438,0.000,0
36926.574,-20.508,-21.484,-14.648,-13.672,0.000,0
36926.578,-31.738,-17.578,-22.461,-15.625,0.000,0
36926.582,-32.715,-20.508,-25.879,-31.738,0.000,0
36926.586,-24.414,-23.438,-19.043,-23.438,0.000,0
36926.590,-20.020,-16.113,-19.043,-21.484,0.000,0
36926.594,-17.578,-23.438,-27.344,-35.156,0.000,0
36926.598,-19.531,-37.598,-21.484,-40.527,0.000,0
36926.601,-21.484,-32.227,-24.902,-34.180,0.000,0
36926.605,-22.461,-29.297,-34.180,-24.414,0.000,0
36926.609,-33.691,-38.574,-34.180,-33.691,0.000,0
36926.613,-43.945,-41.504,-35.645,-37.109,0.000,0
36926.617,-29.785,-29.785,-22.949,-27.344,0.000,0
36926.621,-17.578,-24.414,-19.531,-17.578,0.000,0
36926.625,-21.484,-27.832,-29.297,-24.414,0.000,0
36926.629,-25.391,-21.973,-26.367,-25.879,0.000,0
36926.633,-31.738,-25.879,-17.578,-22.461,0.000,0
36926.637,-37.598,-33.203,-25.391,-41.992,0.000,0
36926.641,-27.832,-26.367,-32.227,-37.598,0.000,0
36926.644,-27.344,-22.949,-21.973,-27.832,0.000,0
36926.648,-33.203,-22.949,-25.879,-28.320,0.000,0
36926.652,-31.250,-24.414,-28.320,-18.066,0.000,0
36926.656,-31.250,-26.367,-21.484,-25.879,0.000,0
36926.660,-34.668,-27.344,-28.809,-17.578,0.000,0
36926.664,-36.621,-32.715,-41.992,-9.277,0.000,0
36926.668,-36.621,-31.738,-41.992,-21.973,0.000,0
36926.672,-35.156,-32.715,-34.668,-30.762,0.000,0
36926.676,-32.715,-33.203,-29.785,-36.621,0.000,0
36926.680,-26.367,-24.414,-26.367,-48.340,0.000,0
36926.684,-30.762,-27.344,-26.855,-41.504,0.000,0
36926.687,-32.715,-30.273,-26.855,-18.066,0.000,0
36926.691,-21.484,-25.391,-18.555,-22.461,0.000,0
36926.695,-20.020,-26.367,-19.531,-37.109,0.000,0
36926.699,-22.949,-31.250,-23.926,-30.273,0.000,0
36926.703,-30.273,-31.250,-25.879,-34.180,0.000,0
36926.707,-32.227,-27.344,-27.832,-36.133,0.000,0
36926.711,-25.879,-24.414,-22.461,-27.832,0.000,0
36926.715,-30.273,-27.344,-18.555,-31.738,0.000,0
36926.719,-38.574,-29.297,-24.902,-28.809,0.000,0
36926.723,-32.227,-29.297,-34.180,-25.391,0.000,0
36926.726,-30.762,-26.855,-32.227,-20.020,0.000,0
36926.730,-34.668,-23.438,-23.438,-9.277,0.000,0
36926.734,-31.738,-24.414,-14.648,-1.953,0.000,0
36926.738,-25.391,-19.531,-16.602,-10.254,0.000,0
36926.742,-19.531,-18.555,-25.391,-21.484,0.000,0
36926.746,-17.090,-20.508,-26.367,-12.207,0.000,0
36926.750,-22.949,-20.020,-23.926,-15.137,0.000,1
36926.754,-16.113,-19.531,-16.113,-18.066,0.000,0
36926.758,-8.789,-20.020,-18.555,-18.066,0.000,0
36926.762,-21.973,-24.902,-36.133,-26.855,0.000,0
36926.766,-20.508,-18.555,-30.762,-7.324,0.000,0
36926.769,-15.625,-12.207,-19.531,6.348,0.000,0
36926.773,-10.742,-19.531,-17.090,-6.836,0.000,0
36926.777,-11.230,-21.973,-15.625,-13.184,0.000,0
36926.781,-16.602,-20.508,-16.113,-13.184,0.000,0
36926.785,-8.789,-24.902,-22.949,-6.836,0.000,0
36926.789,-16.602,-24.414,-18.555,-13.672,0.000,0
36926.793,-21.484,-23.438,-16.113,-22.461,0.000,0
36926.797,-13.672,-26.855,-26.855,-7.812,0.000,0
36926.801,-16.602,-25.391,-20.508,-8.789,0.000,0
36926.805,-21.484,-19.531,-21.484,-14.160,0.000,0
36926.809,-17.090,-22.461,-22.461,-13.184,0.000,0
36926.812,-16.602,-20.508,-13.184,-25.391,0.000,0
36926.816,-23.438,-18.555,-23.438,-20.508,0.000,0
36926.820,-14.160,-16.113,-22.949,-9.277,0.000,0
36926.824,-10.742,-13.184,-20.020,-7.812,0.000,0
36926.828,-7.812,-19.043,-27.344,-9.766,0.000,0
36926.832,2.441,-20.996,-22.949,-13.184,0.000,0
36926.836,0.977,-16.113,-21.973,-2.441,0.000,0
36926.840,-4.395,-14.160,-27.344,-5.859,0.000,0
36926.844,-15.625,-19.531,-26.855,-14.160,0.000,0
36926.848,-16.113,-28.809,-22.949,-8.789,0.000,0
36926.851,-16.113,-30.273,-16.113,-15.625,0.000,0
36926.855,-18.066,-23.926,-12.207,-14.160,0.000,0
36926.859,-20.996,-26.855,-21.973,-6.836,0.000,0
36926.863,-22.949,-29.297,-20.508,-16.113,0.000,0
36926.867,-16.602,-20.996,-10.742,-25.391,0.000,0
36926.871,-10.254,-21.973,-9.766,-18.066,0.000,0
36926.875,-12.695,-22.461,-16.113,-10.742,0.000,0
36926.879,-17.090,-23.926,-27.344,-25.391,0.000,0
36926.883,-15.625,-21.973,-19.531,-23.926,0.000,0
36926.887,-8.301,-19.043,-14.160,-6.836,0.000,0
36926.891,-13.672,-23.926,-19.043,-27.344,0.000,0
36926.894,-17.578,-20.508,-24.414,-47.363,0.000,0
36926.898,-16.113,-18.555,-26.855,-34.180,0.000,0
36926.902,-20.508,-23.926,-21.973,-22.461,0.000,0
36926.906,-20.508,-28.320,-29.785,-27.344,0.000,0
36926.910,-23.438,-29.297,-31.738,-39.062,0.000,0
36926.914,-29.297,-24.414,-23.926,-22.461,0.000,0
36926.918,-30.762,-25.879,-28.809,-3.418,0.000,0
36926.922,-20.020,-28.320,-36.621,-15.137,0.000,0
36926.926,-19.043,-27.344,-26.367,-17.578,0.000,0
36926.930,-20.508,-21.973,-13.184,-13.184,0.000,0
36926.934,-20.996,-21.484,-22.461,-19.531,0.000,0
36926.937,-25.879,-23.438,-30.273,-20.996,0.000,0
36926.941,-20.996,-23.926,-27.832,-17.578,0.000,0
36926.945,-16.602,-24.902,-24.414,-20.996,0.000,0
36926.949,-24.902,-26.855,-23.926,-30.273,0.000,0
36926.953,-30.273,-33.691,-29.297,-30.273,0.000,0
36926.957,-34.668,-32.227,-27.344,-28.809,0.000,0
36926.961,-29.785,-28.809,-23.926,-22.949,0.000,0
36926.965,-29.785,-30.273,-26.855,-15.137,0.000,0
36926.969,-35.156,-34.668,-27.832,-23.926,0.000,0
36926.973,-27.344,-24.414,-13.672,-12.207,0.000,0
36926.976,-27.832,-23.926,-13.672,-10.254,0.000,0
36926.980,-40.039,-29.297,-28.809,-15.625,0.000,0
36926.984,-30.273,-23.926,-22.949,-4.395,0.000,0
36926.988,-25.391,-24.902,-14.648,-20.996,0.000,0
36926.992,-29.785,-27.832,-23.926,-33.691,0.000,0
36926.996,-30.273,-29.785,-34.180,-36.621,0.000,0
36927.000,-28.809,-27.344,-29.297,-26.855,0.000,0
36927.004,-26.367,-23.926,-17.578,-17.578,0.000,0
36927.008,-23.438,-23.438,-18.555,-16.113,0.000,0
36927.012,-22.949,-21.484,-28.809,-10.254,0.000,0
36927.016,-24.902,-20.996,-20.020,-12.207,0.000,0
36927.019,-25.391,-19.043,-19.043,-11.719,0.000,0
36927.023,-17.090,-23.926,-22.949,-15.625,0.000,0
36927.027,-13.184,-29.297,-16.602,-22.461,0.000,0
36927.031,-9.277,-23.926,-21.484,-21.484,0.000,0
36927.035,-12.207,-28.809,-27.832,-19.531,0.000,0
36927.039,-23.438,-30.762,-28.809,-18.555,0.000,0
36927.043,-24.414,-26.855,-23.926,-27.344,0.000,0
36927.047,-22.949,-26.367,-17.090,-37.109,0.000,0
36927.051,-26.855,-29.785,-23.438,-26.367,0.000,0
36927.055,-26.367,-30.762,-28.809,-20.996,0.000,0
36927.059,-22.949,-30.273,-25.391,-19.531,0.000,0
36927.062,-11.230,-23.926,-16.113,-14.160,0.000,0
36927.066,-9.277,-27.344,-17.090,-25.391,0.000,0
36927.070,-18.555,-26.855,-20.508,-29.785,0.000,0
36927.074,-13.672,-20.020,-17.090,-14.648,0.000,0
36927.078,-12.207,-26.367,-16.602,-5.371,0.000,0
36927.082,-20.020,-29.785,-22.949,-14.160,0.000,0
36927.086,-22.461,-31.250,-21.484,-28.320,0.000,0
36927.090,-24.414,-28.809,-14.648,-29.297,0.000,0
36927.094,-22.461,-25.391,-16.602,-22.461,0.000,0
36927.098,-23.438,-26.855,-23.926,-18.066,0.000,0
36927.101,-23.926,-25.879,-29.785,-4.883,0.000,0
36927.105,-23.926,-22.949,-18.066,-20.996,0.000,0
36927.109,-31.250,-27.832,-19.531,-32.715,0.000,0
36927.113,-24.902,-27.344,-31.738,-18.555,0.000,0
36927.117,-22.461,-28.809,-29.785,-11.230,0.000,0
36927.121,-24.414,-28.809,-20.996,-8.789,0.000,0
36927.125,-30.273,-27.832,-15.625,-12.695,0.000,0
36927.129,-27.832,-24.902,-18.555,-6.348,0.000,0
36927.133,-22.949,-21.973,-19.043,-14.648,0.000,0
36927.137,-22.461,-19.043,-21.484,-20.996,0.000,0
36927.141,-19.531,-19.531,-24.414,-17.578,0.000,0
36927.144,-24.414,-24.902,-19.043,-28.320,0.000,0
36927.148,-31.738,-26.855,-24.414,-28.320,0.000,0
36927.152,-34.668,-32.227,-26.855,-23.926,0.000,0
36927.156,-37.598,-35.156,-31.250,-26.367,0.000,0
36927.160,-36.621,-29.297,-31.250,-15.625,0.000,0
36927.164,-28.809,-25.391,-25.391,-8.789,0.000,0
36927.168,-20.508,-24.902,-30.273,-21.973,0.000,0
36927.172,-19.043,-25.879,-35.156,-27.344,0.000,0
36927.176,-20.508,-25.391,-28.809,-20.996,0.000,0
36927.180,-25.391,-29.785,-23.926,-14.648,0.000,0
36927.184,-22.461,-29.785,-20.996,-12.695,0.000,0
36927.187,-16.113,-21.484,-20.508,-17.090,0.000,0
36927.191,-31.738,-20.996,-25.391,-17.090,0.000,0
36927.195,-33.691,-20.508,-29.297,-17.578,0.000,0
36927.199,-19.531,-22.461,-32.715,-19.043,0.000,0
36927.203,-24.414,-21.973,-32.715,-18.555,0.000,0
36927.207,-26.855,-20.508,-24.902,-22.949,0.000,0
36927.211,-17.578,-21.484,-9.766,-10.742,0.000,0
36927.215,-19.531,-18.066,-16.602,2.441,0.000,0
36927.219,-21.973,-17.090,-31.738,-4.395,0.000,0
36927.223,-23.926,-20.996,-27.832,-6.348,0.000,0
36927.226,-25.879,-18.066,-18.066,-4.395,0.000,0
36927.230,-19.531,-18.555,-24.414,-10.254,0.000,0
36927.234,-20.020,-22.949,-32.715,-13.184,0.000,0
36927.238,-24.414,-20.508,-24.414,-16.602,0.000,0
36927.242,-22.461,-18.555,-21.484,-20.020,0.000,0
36927.246,-24.902,-18.555,-26.367,-20.020,0.000,0
36927.250,-29.297,-16.113,-26.855,-11.719,0.000,0
36927.254,-21.973,-17.578,-21.973,-4.883,0.000,0
36927.258,-20.020,-14.648,-8.789,-10.742,0.000,0
36927.262,-20.996,-12.695,-9.277,-12.695,0.000,0
36927.266,-19.043,-17.578,-13.184,-27.832,0.000,0
36927.269,-29.297,-24.902,-21.973,-41.992,0.000,0
36927.273,-38.574,-23.438,-32.227,-34.180,0.000,0
36927.277,-34.180,-20.020,-34.180,-24.414,0.000,0
36927.281,-26.367,-23.926,-31.250,-15.137,0.000,0
36927.285,-28.320,-23.926,-24.414,-13.184,0.000,0
36927.289,-36.133,-27.832,-28.809,-16.113,0.000,0
36927.293,-38.086,-31.738,-32.227,-22.949,0.000,0
36927.297,-38.574,-32.227,-34.180,-33.691,0.000,0
36927.301,-41.016,-30.273,-25.391,-40.527,0.000,0
36927.305,-34.180,-33.691,-25.391,-41.504,0.000,0
36927.309,-34.180,-36.621,-39.062,-42.480,0.000,0
36927.312,-33.691,-30.273,-29.297,-31.250,0.000,0
36927.316,-35.156,-28.809,-26.855,-18.555,0.000,0
36927.320,-36.133,-30.762,-31.738,-25.879,0.000,0
36927.324,-30.273,-34.668,-29.785,-33.691,0.000,0
36927.328,-33.203,-33.203,-34.180,-26.855,0.000,0
36927.332,-32.227,-28.320,-27.832,-15.137,0.000,0
36927.336,-30.762,-23.926,-25.391,-19.043,0.000,0
36927.340,-24.902,-21.973,-22.949,-29.785,0.000,0
36927.344,-22.461,-25.391,-18.066,-31.738,0.000,0
36927.348,-20.996,-15.625,-12.207,-14.160,0.000,0
36927.351,-23.926,-19.043,-12.207,-13.184,0.000,0
36927.355,-27.832,-21.973,-17.090,-5.859,0.000,0
36927.359,-11.719,-16.113,-17.090,-1.953,0.000,0
36927.363,-2.441,-17.090,-12.207,-6.348,0.000,0
36927.367,-17.090,-23.926,-18.066,-4.883,0.000,0
36927.371,-27.344,-28.809,-25.879,-14.648,0.000,0
36927.375,-30.273,-25.879,-27.344,-19.531,0.000,0
36927.379,-28.320,-23.438,-23.926,-20.020,0.000,0
36927.383,-23.438,-28.809,-19.531,-32.227,0.000,0
36927.387,-29.785,-25.879,-19.043,-33.691,0.000,0
36927.391,-29.297,-20.996,-14.648,-17.090,0.000,0
36927.394,-16.113,-20.020,-18.555,-10.742,0.000,0
36927.398,-12.695,-16.113,-21.484,-12.695,0.000,0
36927.402,-15.137,-12.695,-14.160,-18.555,0.000,0
36927.406,-12.207,-12.695,-12.695,-11.230,0.000,0
36927.410,-12.207,-23.926,-21.973,-3.906,0.000,0
36927.414,-20.996,-26.855,-24.902,-11.719,0.000,0
36927.418,-20.996,-22.949,-14.160,-21.484,0.000,2
36927.422,-9.277,-20.020,-9.277,-26.367,0.000,0
36927.426,-6.836,-20.020,-14.160,-25.879,0.000,0
36927.430,-7.812,-15.137,-14.160,-12.695,0.000,0
36927.434,-10.254,-14.648,-17.090,-6.836,0.000,0
36927.437,-15.137,-15.137,-18.066,-6.836,0.000,0
36927.441,-22.949,-22.461,-20.996,-23.926,0.000,0
36927.445,-21.973,-22.461,-24.902,-19.531,0.000,0
36927.449,-20.996,-20.996,-23.438,-9.766,0.000,0
36927.453,-16.602,-27.344,-26.855,-11.719,0.000,0
36927.457,-8.789,-23.438,-27.344,-16.602,0.000,0
36927.461,-15.625,-25.879,-17.578,-24.414,0.000,0
36927.465,-12.207,-27.344,-7.812,-10.742,0.000,0
36927.469,-9.766,-24.902,-11.719,-11.719,0.000,0
36927.473,-23.926,-26.367,-17.090,-28.320,0.000,0
36927.476,-27.832,-27.832,-20.020,-23.438,0.000,0
36927.480,-18.066,-25.879,-11.230,-19.531,0.000,0
36927.484,-22.461,-23.438,-11.719,-21.484,0.000,0
36927.488,-16.602,-21.973,-21.973,-16.602,0.000,0
36927.492,-13.184,-26.367,-24.902,-16.113,0.000,0
36927.496,-20.020,-27.344,-23.438,-16.602,0.000,0
36927.500,-19.043,-21.973,-11.719,-16.113,0.000,0
36927.504,-17.090,-20.508,-16.113,-20.020,0.000,0
36927.508,-20.508,-20.996,-21.973,-6.348,0.000,0
36927.512,-24.414,-24.414,-19.043,-10.742,0.000,0
36927.516,-25.879,-23.438,-20.508,-20.996,0.000,0
36927.519,-25.879,-27.344,-21.484,-25.391,0.000,0
36927.523,-26.855,-23.926,-22.461,-17.578,0.000,0
36927.527,-27.344,-20.508,-24.414,-17.578,0.000,0
36927.531,-29.785,-29.785,-39.062,-28.320,0.000,0
36927.535,-26.367,-29.785,-33.691,-22.949,0.000,0
36927.539,-16.113,-25.879,-11.719,-20.508,0.000,0
36927.543,-18.555,-19.043,-11.719,-20.020,0.000,0
36927.547,-21.973,-20.020,-16.113,-15.137,0.000,0
36927.551,-16.113,-25.391,-14.648,-9.766,0.000,0
36927.555,-19.043,-28.809,-14.648,-5.859,0.000,0
36927.559,-17.578,-29.785,-15.625,-14.648,0.000,0
36927.562,-22.949,-28.320,-20.508,-22.949,0.000,0
36927.566,-29.785,-31.738,-20.996,-24.902,0.000,0
36927.570,-21.973,-26.367,-17.578,-23.438,0.000,0
36927.574,-24.902,-25.391,-28.809,-25.879,0.000,0
36927.578,-33.203,-32.715,-34.180,-25.879,0.000,0
36927.582,-26.855,-24.902,-22.461,-8.789,0.000,0
36927.586,-22.461,-18.066,-20.020,-7.812,0.000,0
36927.590,-24.902,-22.461,-23.438,-20.996,0.000,0
36927.594,-21.973,-25.879,-24.902,-25.879,0.000,0
36927.598,-15.625,-27.344,-26.367,-29.297,0.000,0
36927.601,-10.742,-22.461,-26.855,-20.996,0.000,0
36927.605,-2.441,-20.996,-24.414,-9.277,0.000,0
36927.609,0.977,-19.043,-22.461,-9.277,0.000,0
36927.613,-8.301,-14.648,-20.996,-3.418,0.000,0
36927.617,-17.090,-16.602,-20.996,-15.137,0.000,0
36927.621,-18.066,-25.391,-27.344,-33.203,0.000,0
36927.625,-27.344,-25.391,-28.320,-27.344,0.000,0
36927.629,-16.113,-20.020,-13.184,-1.953,0.000,0
36927.633,-19.043,-28.320,-14.160,-3.906,0.000,0
36927.637,-32.715,-28.809,-13.184,-23.438,0.000,0
36927.641,-33.203,-25.879,-19.043,-20.508,0.000,0
36927.644,-33.203,-26.855,-28.320,-20.020,0.000,0
36927.648,-30.762,-25.879,-26.855,-16.602,0.000,0
36927.652,-27.344,-26.855,-24.414,-13.672,0.000,0
36927.656,-28.809,-26.855,-21.484,-36.133,0.000,0
36927.660,-30.273,-25.879,-24.902,-43.457,0.000,0
36927.664,-19.043,-25.879,-17.578,-26.855,0.000,0
36927.668,-26.367,-27.832,-22.461,-20.020,0.000,0
36927.672,-34.180,-34.180,-26.367,-19.043,0.000,0
36927.676,-30.762,-35.156,-25.391,-21.973,0.000,0
36927.680,-27.344,-32.715,-29.297,-23.438,0.000,0
36927.684,-22.949,-33.691,-28.320,-19.043,0.000,0
36927.687,-25.879,-38.086,-29.297,-28.320,0.000,0
36927.691,-32.227,-41.504,-29.297,-38.574,0.000,0
36927.695,-32.227,-39.062,-25.391,-35.156,0.000,0
36927.699,-28.320,-24.902,-18.555,-27.832,0.000,0
36927.703,-26.855,-27.344,-19.531,-32.227,0.000,0
36927.707,-28.320,-31.738,-29.785,-18.555,0.000,0
36927.711,-29.785,-28.809,-26.367,-13.672,0.000,0
36927.715,-26.367,-29.785,-22.461,-30.273,0.000,0
36927.719,-22.949,-25.879,-23.438,-25.391,0.000,0
36927.723,-20.996,-25.391,-20.020,-26.855,0.000,0
36927.726,-32.227,-30.273,-30.762,-35.156,0.000,0
36927.730,-34.180,-27.344,-33.203,-34.180,0.000,0
36927.734,-35.645,-27.344,-16.602,-31.738,0.000,0
36927.738,-37.109,-24.902,-15.625,-23.926,0.000,0
36927.742,-25.879,-21.973,-21.973,-20.508,0.000,0
36927.746,-25.391,-18.066,-23.438,-25.391,0.000,0
36927.750,-20.996,-18.066,-25.879,-34.668,0.000,0
36927.754,-16.602,-27.344,-30.273,-27.344,0.000,0
36927.758,-17.090,-27.344,-26.855,-16.602,0.000,0
36927.762,-17.578,-22.949,-23.926,-27.832,0.000,0
36927.766,-18.066,-27.344,-31.250,-31.738,0.000,0
36927.769,-20.020,-33.691,-34.180,-27.832,0.000,0
36927.773,-19.531,-33.203,-22.461,-35.645,0.000,0
36927.777,-11.230,-23.926,-19.043,-39.062,0.000,0
36927.781,-3.906,-20.020,-28.320,-25.391,0.000,0
36927.785,-6.836,-22.461,-27.832,-27.344,0.000,0
36927.789,-16.113,-17.090,-15.137,-33.691,0.000,0
36927.793,-18.066,-13.184,-6.348,-31.250,0.000,0
36927.797,-21.484,-15.625,-13.184,-35.156,0.000,0
36927.801,-23.438,-15.625,-13.184,-33.203,0.000,0
36927.805,-23.438,-8.789,-10.254,-11.230,0.000,0
36927.809,-16.602,-10.742,-6.348,-6.348,0.000,0
36927.812,-7.324,-19.043,-11.719,-26.855,0.000,0
36927.816,-11.230,-17.578,-19.531,-32.715,0.000,0
36927.820,-11.719,-16.113,-14.160,-20.996,0.000,0
36927.824,-12.695,-20.020,-14.160,-19.531,0.000,0
36927.828,-20.508,-19.531,-19.531,-20.508,0.000,0
36927.832,-12.207,-24.414,-21.484,-20.996,0.000,0
36927.836,-8.789,-25.391,-18.066,-25.391,0.000,0
36927.840,-15.137,-16.113,-13.672,-19.531,0.000,0
36927.844,-2.441,-14.160,-11.719,-11.230,0.000,0
36927.848,-0.488,-15.137,-14.648,-10.742,0.000,0
36927.851,-12.695,-19.043,-17.578,-25.391,0.000,0
36927.855,-19.043,-21.973,-20.508,-30.273,0.000,0
36927.859,-9.766,-24.414,-28.809,-12.695,0.000,0
36927.863,0.000,-18.555,-20.020,-7.324,0.000,0
36927.867,-2.441,-12.695,-12.695,-9.277,0.000,0
36927.871,-14.160,-20.020,-20.020,-18.066,0.000,0
36927.875,-21.973,-23.438,-20.020,-27.344,0.000,0
36927.879,-20.508,-21.973,-23.438,-23.438,0.000,0
36927.883,-20.508,-21.973,-25.391,-20.508,0.000,0
36927.887,-25.879,-20.020,-24.902,-20.020,0.000,0
36927.891,-16.113,-20.508,-19.043,-15.625,0.000,0
36927.894,-13.672,-18.555,-19.531,-1.953,0.000,0
36927.898,-14.160,-14.648,-19.043,-6.836,0.000,0
36927.902,-14.160,-23.926,-20.508,-26.367,0.000,0
36927.906,-23.926,-28.809,-31.250,-30.762,0.000,0
36927.910,-17.090,-18.066,-18.066,-11.719,0.000,0
36927.914,-14.160,-19.531,-3.906,-5.371,0.000,0
36927.918,-26.367,-23.438,-18.066,-17.090,0.000,0
36927.922,-15.137,-16.113,-19.531,1.953,0.000,0
36927.926,-14.648,-16.113,-13.184,9.277,0.000,0
36927.930,-20.508,-18.555,-12.695,-1.953,0.000,0
36927.934,-12.695,-19.531,-18.066,-5.859,0.000,0
36927.937,-21.484,-23.926,-29.297,-16.113,0.000,0
36927.941,-25.879,-22.949,-20.508,-16.113,0.000,0
36927.945,-14.160,-21.973,-7.812,-3.906,0.000,0
36927.949,-7.812,-24.414,-17.578,-7.324,0.000,0
36927.953,-9.766,-20.020,-20.996,-9.277,0.000,0
36927.957,-14.160,-14.648,-9.277,2.441,0.000,0
36927.961,-19.531,-22.949,-16.113,-15.137,0.000,0
36927.965,-21.484,-34.668,-32.715,-32.227,0.000,0
36927.969,-25.879,-31.250,-26.367,-28.809,0.000,0
36927.973,-31.250,-24.414,-20.996,-27.832,0.000,0
36927.976,-23.926,-19.531,-23.926,-20.020,0.000,0
36927.980,-29.297,-15.625,-21.973,-13.672,0.000,0
36927.984,-45.410,-20.020,-27.832,-4.395,0.000,2
36927.988,-36.133,-21.973,-27.832,-7.812,0.000,0
36927.992,-29.785,-26.855,-24.414,-16.602,0.000,0
36927.996,-35.156,-23.926,-27.832,-9.766,0.000,0
36928.000,-32.715,-24.902,-26.855,-10.254,0.000,0
36928.004,-30.762,-26.367,-22.949,-8.789,0.000,0
36928.008,-31.250,-25.879,-30.273,-11.230,0.000,0
36928.012,-24.902,-23.438,-26.367,-6.348,0.000,0
36928.016,-19.531,-12.695,-20.996,-11.230,0.000,0
36928.019,-22.949,-13.184,-21.484,-15.625,0.000,0
36928.023,-22.461,-14.648,-19.043,-4.395,0.000,0
36928.027,-17.090,-18.066,-15.625,-16.113,0.000,0
36928.031,-22.461,-20.020,-12.207,-22.461,0.000,0
36928.035,-22.949,-18.066,-25.879,-21.973,0.000,0
36928.039,-16.113,-17.578,-20.508,-22.461,0.000,0
36928.043,-18.066,-20.020,-14.160,-15.137,0.000,0
36928.047,-10.742,-19.531,-11.230,-8.789,0.000,0
36928.051,-9.277,-17.090,-2.930,-12.207,0.000,0
36928.055,-17.090,-18.555,-13.184,-16.602,0.000,0
36928.059,-18.066,-21.973,-18.066,-14.648,0.000,0
36928.062,-21.484,-21.484,-15.625,-4.395,0.000,0
36928.066,-17.090,-20.996,-24.902,-12.207,0.000,0
36928.070,-16.602,-24.414,-23.438,-14.160,0.000,0
36928.074,-24.902,-24.414,-19.531,-3.418,0.000,0
36928.078,-23.438,-26.855,-20.996,-16.113,0.000,0
36928.082,-14.160,-18.066,-22.949,-17.090,0.000,0
36928.086,-17.578,-20.020,-18.066,-19.043,0.000,0
36928.090,-23.926,-19.043,-8.789,-21.484,0.000,0
36928.094,-23.926,-16.113,-19.043,-28.320,0.000,0
36928.098,-19.531,-28.320,-36.133,-36.621,0.000,0
36928.101,-12.207,-29.297,-28.320,-21.973,0.000,0
36928.105,-16.113,-27.832,-19.043,-22.949,0.000,0
36928.109,-19.043,-26.855,-22.949,-30.273,0.000,0
36928.113,-14.160,-26.367,-36.621,-32.227,0.000,0
36928.117,-22.461,-26.855,-35.156,-37.109,0.000,0
36928.121,-32.227,-26.855,-26.367,-21.484,0.000,0
36928.125,-22.949,-32.715,-32.715,-11.719,0.000,0
36928.129,-24.414,-33.203,-28.809,-25.391,0.000,0
36928.133,-31.250,-28.320,-20.996,-24.902,0.000,0
36928.137,-27.344,-32.227,-25.879,-11.230,0.000,0
36928.141,-28.320,-36.133,-38.086,-10.254,0.000,0
36928.144,-26.855,-33.203,-31.738,-20.020,0.000,0
36928.148,-20.508,-29.785,-17.090,-10.254,0.000,0
36928.152,-16.602,-27.832,-23.438,-3.906,0.000,0
36928.156,-19.043,-30.762,-31.738,-19.531,0.000,0
36928.160,-21.973,-32.227,-32.715,-22.949,0.000,0
36928.164,-26.855,-31.738,-26.367,-24.414,0.000,0
36928.168,-37.598,-32.227,-20.508,-37.109,0.000,0
36928.172,-37.109,-35.156,-32.715,-37.109,0.000,0
36928.176,-26.855,-29.297,-39.062,-24.902,0.000,0
36928.180,-20.996,-23.926,-27.832,-15.625,0.000,0
36928.184,-20.020,-32.715,-28.320,-23.926,0.000,0
36928.187,-18.066,-35.156,-30.762,-37.109,0.000,0
36928.191,-17.090,-30.762,-29.297,-35.645,0.000,0
36928.195,-15.137,-30.762,-20.996,-30.762,0.000,0
36928.199,-13.672,-25.879,-20.020,-22.461,0.000,0
36928.203,-16.113,-28.320,-24.902,-21.484,0.000,0
36928.207,-22.461,-27.832,-15.137,-17.578,0.000,0
36928.211,-21.484,-15.137,-15.625,-5.859,0.000,0
36928.215,-14.648,-16.602,-18.555,-9.766,0.000,0
36928.219,-16.113,-21.973,-12.695,-24.414,0.000,0
36928.223,-22.461,-20.996,-13.672,-27.344,0.000,0
36928.226,-32.227,-24.902,-18.066,-23.926,0.000,0
36928.230,-34.668,-26.367,-18.555,-16.602,0.000,0
36928.234,-29.297,-27.344,-24.902,-10.254,0.000,0
36928.238,-22.949,-22.461,-26.855,-11.230,0.000,0
36928.242,-23.438,-19.531,-17.090,-12.695,0.000,0
36928.246,-20.508,-26.367,-22.461,-18.066,0.000,0
36928.250,-17.578,-23.926,-24.414,-22.461,0.000,0
36928.254,-21.484,-24.414,-22.461,-31.250,0.000,0
36928.258,-21.484,-26.855,-20.508,-32.715,0.000,0
36928.262,-24.414,-23.926,-18.066,-31.250,0.000,0
36928.266,-29.297,-28.809,-21.973,-31.250,0.000,0
36928.269,-24.902,-29.785,-19.531,-36.133,0.000,0
36928.273,-19.531,-22.949,-19.531,-28.809,0.000,0
36928.277,-17.090,-26.855,-30.273,-18.066,0.000,0
36928.281,-22.949,-33.691,-34.180,-20.996,0.000,0
36928.285,-28.320,-23.926,-11.719,-9.766,0.000,0
36928.289,-19.531,-20.020,-13.184,-15.625,0.000,0
36928.293,-16.113,-25.879,-31.738,-32.227,0.000,0
36928.297,-18.066,-25.879,-26.367,-26.367,0.000,0
36928.301,-24.902,-29.785,-31.250,-26.855,0.000,0
36928.305,-19.531,-32.227,-31.738,-31.250,0.000,0
36928.309,-14.648,-30.762,-28.320,-29.297,0.000,0
36928.312,-13.672,-19.043,-20.508,-24.414,0.000,0
36928.316,-17.578,-19.043,-22.461,-20.996,0.000,0
36928.320,-27.832,-23.926,-29.297,-15.137,0.000,0
36928.324,-32.715,-26.855,-30.273,-25.879,0.000,0
36928.328,-28.320,-25.391,-26.855,-27.832,0.000,0
36928.332,-27.832,-21.973,-18.066,-20.996,0.000,0
36928.336,-27.344,-30.273,-29.785,-36.621,0.000,0
36928.340,-23.926,-34.180,-33.691,-23.926,0.000,0
36928.344,-24.902,-35.645,-23.438,-6.348,0.000,0
36928.348,-33.691,-33.203,-26.367,-19.043,0.000,0
36928.351,-30.762,-35.645,-37.598,-36.621,0.000,0
36928.355,-15.137,-36.133,-36.621,-39.062,0.000,0
36928.359,-20.508,-25.879,-21.973,-20.508,0.000,0
36928.363,-22.949,-27.344,-8.301,-21.484,0.000,0
36928.367,-21.973,-31.738,-13.672,-24.414,0.000,0
36928.371,-25.879,-28.809,-18.066,-22.949,0.000,0
36928.375,-24.902,-31.738,-19.043,-25.391,0.000,0
36928.379,-31.738,-32.715,-25.391,-29.785,0.000,0
36928.383,-30.273,-32.715,-17.578,-40.039,0.000,0
36928.387,-26.855,-33.203,-14.648,-27.344,0.000,0
36928.391,-23.438,-31.738,-22.949,-17.090,0.000,0
36928.394,-22.949,-34.180,-25.879,-28.320,0.000,0
36928.398,-28.320,-30.762,-28.809,-32.227,0.000,0
36928.402,-34.668,-30.273,-20.508,-43.457,0.000,0
36928.406,-20.996,-25.879,-14.648,-32.227,0.000,0
36928.410,-13.672,-24.902,-23.926,-20.020,0.000,0
36928.414,-20.020,-30.273,-28.320,-20.020,0.000,0
36928.418,-24.414,-28.809,-25.879,-19.043,0.000,0
36928.422,-21.484,-25.879,-16.113,-14.160,0.000,0
36928.426,-14.160,-29.785,-22.461,-18.066,0.000,0
36928.430,-22.461,-29.297,-34.668,-27.832,0.000,0
36928.434,-25.391,-28.320,-31.250,-29.297,0.000,0
36928.437,-20.996,-31.738,-31.250,-21.973,0.000,0
36928.441,-28.320,-38.086,-32.227,-23.438,0.000,0
36928.445,-47.852,-41.016,-40.527,-42.480,0.000,0
36928.449,-42.480,-37.109,-41.504,-30.273,0.000,0
36928.453,-22.949,-31.250,-32.715,-13.672,0.000,0
36928.457,-25.879,-31.250,-30.762,-20.020,0.000,0
36928.461,-34.668,-34.668,-29.297,-37.109,0.000,0
36928.465,-34.668,-34.668,-26.367,-32.715,0.000,0
36928.469,-37.109,-33.203,-34.668,-37.598,0.000,0
36928.473,-36.133,-31.738,-41.504,-44.434,0.000,0
36928.476,-27.344,-23.926,-28.320,-30.273,0.000,0
36928.480,-32.227,-28.809,-16.602,-38.574,0.000,0
36928.484,-32.715,-29.297,-23.926,-38.086,0.000,0
36928.488,-24.902,-20.996,-26.855,-20.020,0.000,0
36928.492,-31.738,-21.484,-26.367,-22.949,0.000,0
36928.496,-33.203,-25.391,-29.297,-21.973,0.000,0
36928.500,-17.578,-21.484,-16.602,-19.531,0.000,0
36928.504,-20.508,-20.996,-14.648,-31.738,0.000,0
36928.508,-34.668,-22.949,-20.020,-24.902,0.000,0
36928.512,-36.621,-19.531,-27.832,-15.625,0.000,0
36928.516,-32.227,-22.461,-38.086,-26.367,0.000,0
36928.519,-27.344,-25.879,-25.879,-28.320,0.000,0
36928.523,-31.738,-23.438,-16.602,-22.949,0.000,0
36928.527,-33.691,-22.949,-26.855,-25.391,0.000,0
36928.531,-25.879,-24.902,-34.180,-24.414,0.000,0
36928.535,-23.926,-22.949,-29.785,-17.090,0.000,0
36928.539,-27.832,-21.973,-16.113,-13.184,0.000,0
36928.543,-23.438,-22.949,-10.254,-14.648,0.000,0
36928.547,-18.066,-19.043,-27.344,-13.672,0.000,0
36928.551,-21.484,-19.531,-28.320,-14.160,0.000,0
36928.555,-29.297,-22.461,-18.555,-2.441,0.000,0
36928.559,-32.715,-28.320,-28.809,-8.301,0.000,0
36928.562,-29.785,-27.344,-31.250,-17.090,0.000,0
36928.566,-21.973,-20.020,-22.949,-7.324,0.000,0
36928.570,-22.461,-17.090,-14.160,-8.301,0.000,0
36928.574,-12.695,-20.508,-14.648,-11.230,0.000,0
36928.578,-3.906,-20.996,-14.160,-16.113,0.000,0
36928.582,-5.859,-20.508,-13.184,-25.391,0.000,0
36928.586,-8.301,-22.461,-18.555,-21.973,0.000,0
36928.590,-19.531,-24.414,-24.414,-20.020,0.000,0
36928.594,-30.273,-23.438,-26.367,-25.879,0.000,0
36928.598,-28.320,-24.414,-21.484,-30.762,0.000,0
36928.601,-24.414,-26.855,-27.344,-28.809,0.000,0
36928.605,-28.809,-27.832,-36.621,-31.738,0.000,0
36928.609,-21.484,-21.484,-20.996,-13.184,0.000,0
36928.613,-19.043,-15.625,-12.207,-1.953,0.000,0
36928.617,-22.461,-24.414,-23.438,-30.273,0.000,0
36928.621,-20.020,-22.949,-23.438,-25.879,0.000,0
36928.625,-19.043,-17.090,-20.020,-16.602,0.000,2
36928.629,-13.184,-17.578,-21.484,-21.973,0.000,0
36928.633,-10.742,-15.137,-23.438,-22.461,0.000,0
36928.637,-15.137,-12.207,-17.578,-20.020,0.000,0
36928.641,-23.438,-23.438,-14.648,-34.180,0.000,0
36928.644,-18.555,-21.484,-18.555,-38.574,0.000,0
36928.648,-20.508,-14.160,-25.879,-32.715,0.000,0
36928.652,-22.949,-20.996,-27.344,-31.738,0.000,0
36928.656,-4.395,-15.137,-5.859,-20.996,0.000,0
36928.660,-0.977,-10.742,-6.348,-18.066,0.000,0
36928.664,-5.859,-15.625,-25.391,-11.230,0.000,0
36928.668,0.000,-21.484,-20.020,-4.883,0.000,0
36928.672,-1.465,-19.531,-17.090,-7.812,0.000,0
36928.676,-9.766,-19.531,-17.578,-21.973,0.000,0
36928.680,-25.391,-25.391,-24.414,-33.691,0.000,0
36928.684,-23.438,-22.949,-26.855,-23.438,0.000,0
36928.687,-14.648,-18.066,-17.578,-9.766,0.000,0
36928.691,-23.438,-17.578,-19.043,-7.324,0.000,0
36928.695,-20.508,-21.484,-19.043,-10.742,0.000,0
36928.699,-23.438,-27.832,-24.902,-14.160,0.000,0
36928.703,-30.273,-22.461,-30.273,-20.020,0.000,0
36928.707,-23.438,-23.438,-29.785,-13.184,0.000,0
36928.711,-24.414,-31.250,-32.227,-12.695,0.000,0
36928.715,-31.250,-30.762,-18.066,-31.250,0.000,0
36928.719,-30.762,-29.297,-19.531,-43.457,0.000,0
36928.723,-28.809,-30.762,-34.180,-24.902,0.000,0
36928.726,-31.250,-36.133,-33.691,-10.742,0.000,0
36928.730,-30.762,-31.250,-32.227,-18.555,0.000,0
36928.734,-26.367,-27.344,-23.438,-31.250,0.000,0
36928.738,-19.043,-23.926,-16.602,-31.250,0.000,0
36928.742,-18.066,-22.949,-26.855,-20.020,0.000,0
36928.746,-18.555,-25.391,-28.809,-17.090,0.000,0
36928.750,-22.461,-24.902,-27.344,-20.020,0.000,0
36928.754,-18.555,-30.762,-30.273,-25.391,0.000,0
36928.758,-18.555,-29.297,-28.320,-18.066,0.000,0
36928.762,-22.461,-23.438,-35.645,-11.719,0.000,0
36928.766,-27.344,-25.879,-38.086,-19.531,0.000,0
36928.769,-26.855,-25.879,-33.691,-18.555,0.000,0
36928.773,-18.555,-26.367,-21.973,-10.254,0.000,0
36928.777,-16.602,-28.320,-16.602,-15.625,0.000,0
36928.781,-16.602,-28.320,-24.414,-15.137,0.000,0
36928.785,-28.320,-32.715,-25.879,-15.137,0.000,0
36928.789,-35.156,-31.738,-26.367,-12.207,0.000,0
36928.793,-32.227,-32.227,-24.902,-16.113,0.000,0
36928.797,-32.715,-39.551,-27.832,-37.109,0.000,0
36928.801,-28.809,-33.203,-30.762,-31.738,0.000,0
36928.805,-20.020,-28.320,-25.391,-2.930,0.000,0
36928.809,-22.461,-32.227,-26.367,-11.230,0.000,0
36928.812,-21.484,-26.855,-20.020,-33.691,0.000,0
36928.816,-24.414,-25.879,-15.137,-30.762,0.000,0
36928.820,-32.715,-28.809,-20.020,-30.273,0.000,0
36928.824,-26.855,-31.738,-21.484,-29.297,0.000,0
36928.828,-23.438,-28.809,-28.320,-17.578,0.000,0
36928.832,-17.090,-24.414,-28.320,-14.160,0.000,0
36928.836,-19.531,-26.367,-18.066,-20.020,0.000,0
36928.840,-38.086,-23.438,-24.414,-24.414,0.000,0
36928.844,-30.273,-27.344,-35.156,-24.414,0.000,0
36928.848,-24.902,-30.762,-32.715,-32.715,0.000,0
36928.851,-32.715,-27.344,-27.832,-30.273,0.000,0
36928.855,-24.902,-29.297,-24.902,-22.949,0.000,0
36928.859,-25.879,-27.344,-30.273,-34.668,0.000,0
36928.863,-30.273,-22.461,-31.250,-25.879,0.000,0
36928.867,-28.809,-23.438,-29.297,-11.230,0.000,0
36928.871,-29.297,-27.832,-28.809,-23.926,0.000,0
36928.875,-22.949,-26.855,-24.414,-20.020,0.000,0
36928.879,-16.602,-22.949,-19.531,-11.230,0.000,0
36928.883,-20.508,-15.625,-16.113,-24.414,0.000,0
36928.887,-31.250,-14.648,-23.926,-32.715,0.000,0
36928.891,-27.832,-26.367,-32.227,-24.902,0.000,0
36928.894,-20.996,-23.438,-14.648,-29.785,0.000,0
36928.898,-23.438,-15.137,-3.418,-27.832,0.000,0
36928.902,-28.809,-15.137,-17.578,-28.320,0.000,0
36928.906,-26.855,-20.020,-22.949,-23.438,0.000,0
36928.910,-27.344,-23.926,-18.555,-24.414,0.000,0
36928.914,-29.785,-21.973,-16.113,-39.062,0.000,0
36928.918,-29.297,-23.438,-24.414,-22.949,0.000,0
36928.922,-29.785,-24.414,-24.902,-8.789,0.000,0
36928.926,-24.414,-21.973,-17.090,-20.020,0.000,0
36928.930,-31.250,-26.367,-21.973,-27.344,0.000,0
36928.934,-40.039,-29.785,-27.344,-32.227,0.000,0
36928.937,-34.668,-24.902,-27.344,-25.879,0.000,0
36928.941,-36.621,-28.809,-25.391,-17.090,0.000,0
36928.945,-37.598,-30.273,-26.367,-20.020,0.000,0
36928.949,-26.367,-29.297,-28.320,-20.020,0.000,0
36928.953,-28.320,-31.250,-26.855,-14.648,0.000,0
36928.957,-30.762,-29.785,-28.320,-14.160,0.000,0
36928.961,-32.715,-28.320,-25.391,-23.926,0.000,0
36928.965,-40.527,-23.926,-26.855,-31.738,0.000,0
36928.969,-32.227,-19.043,-26.855,-13.184,0.000,0
36928.973,-22.949,-21.973,-19.043,-18.555,0.000,0
36928.976,-25.879,-22.461,-21.973,-41.992,0.000,0
36928.980,-31.738,-23.438,-30.762,-33.691,0.000,0
36928.984,-27.344,-25.391,-32.227,-23.926,0.000,0
36928.988,-25.879,-22.461,-21.973,-22.949,0.000,0
36928.992,-29.785,-25.391,-20.020,-30.762,0.000,0
36928.996,-33.691,-25.879,-27.344,-35.156,0.000,0
36929.000,-30.273,-20.996,-25.879,-29.297,0.000,0
36929.004,-23.926,-17.578,-21.973,-17.090,0.000,0
36929.008,-26.367,-17.578,-27.832,-20.508,0.000,0
36929.012,-22.461,-21.484,-24.902,-26.855,0.000,0
36929.016,-16.113,-20.996,-20.996,-9.277,0.000,0
36929.019,-17.090,-17.090,-23.926,-15.137,0.000,0
36929.023,-25.879,-15.625,-22.949,-23.438,0.000,0
36929.027,-29.297,-22.949,-30.762,-18.066,0.000,0
36929.031,-20.996,-25.879,-20.996,-20.996,0.000,0
36929.035,-9.766,-26.855,-12.207,-15.137,0.000,0
36929.039,-16.602,-29.785,-23.438,-9.277,0.000,0
36929.043,-27.832,-21.973,-22.461,-8.789,0.000,0
36929.047,-21.973,-21.484,-21.973,-22.461,0.000,0
36929.051,-24.414,-26.367,-22.949,-39.062,0.000,0
36929.055,-24.902,-27.344,-25.879,-29.785,0.000,0
36929.059,-2.441,-26.367,-26.855,-0.977,0.000,0
36929.062,8.789,-29.297,-28.809,0.977,0.000,0
36929.066,-29.297,-27.832,-28.809,-33.203,0.000,0
36929.070,-53.711,-24.414,-23.926,-52.246,0.000,0
36929.074,-33.203,-20.996,-24.414,-27.344,0.000,0
36929.078,-32.227,-21.973,-24.902,-25.879,0.000,0
36929.082,-38.086,-19.043,-27.344,-46.875,0.000,0
36929.086,-21.973,-16.113,-22.461,-35.645,0.000,0
36929.090,-19.043,-20.508,-18.555,-30.762,0.000,0
36929.094,-25.391,-19.043,-25.879,-32.227,0.000,0
36929.098,-25.879,-21.973,-25.879,-21.973,0.000,0
36929.101,-22.461,-17.578,-22.949,-16.113,0.000,0
36929.105,-21.484,-14.160,-20.508,-11.230,0.000,0
36929.109,-28.320,-15.137,-17.578,-16.113,0.000,0
36929.113,-29.297,-18.555,-23.926,-21.484,0.000,0
36929.117,-26.855,-20.996,-27.832,-28.809,0.000,0
36929.121,-27.832,-19.043,-28.809,-30.273,0.000,0
36929.125,-28.809,-24.414,-28.809,-34.668,0.000,0
36929.129,-29.297,-21.484,-21.973,-43.457,0.000,0
36929.133,-30.273,-20.020,-28.320,-30.762,0.000,0
36929.137,-24.902,-24.414,-28.320,-20.020,0.000,0
36929.141,-29.785,-21.484,-29.297,-17.578,0.000,0
36929.144,-37.598,-21.973,-27.344,-20.508,0.000,0
36929.148,-27.344,-23.926,-5.859,-24.414,0.000,0
36929.152,-27.832,-21.973,-14.160,-11.230,0.000,0
36929.156,-31.250,-22.461,-31.250,-10.254,0.000,0
36929.160,-27.832,-26.855,-23.926,-13.184,0.000,0
36929.164,-26.855,-26.855,-12.695,-16.113,0.000,0
36929.168,-27.832,-22.949,-19.043,-26.855,0.000,0
36929.172,-31.738,-28.320,-30.273,-30.762,0.000,0
36929.176,-38.574,-33.691,-26.855,-34.668,0.000,0
36929.180,-34.668,-32.715,-28.320,-9.277,0.000,0
36929.184,-29.785,-28.320,-24.902,4.395,0.000,0
36929.187,-24.902,-24.414,-16.602,-11.230,0.000,0
36929.191,-18.066,-30.273,-25.879,-18.555,0.000,0
36929.195,-10.254,-26.367,-33.203,-17.578,0.000,0
36929.199,-10.254,-21.973,-29.785,-11.719,0.000,0
36929.203,-18.555,-26.367,-24.414,-20.996,0.000,0
36929.207,-23.926,-27.832,-24.902,-30.273,0.000,0
36929.211,-33.203,-22.949,-24.902,-21.973,0.000,0
36929.215,-42.480,-24.902,-29.297,-26.367,0.000,0
36929.219,-37.598,-26.855,-34.180,-25.879,0.000,0
36929.223,-30.762,-23.926,-20.996,-20.996,0.000,0
36929.226,-33.691,-24.414,-22.461,-25.391,0.000,0
36929.230,-31.250,-23.438,-36.133,-27.832,0.000,0
36929.234,-36.621,-26.367,-34.668,-36.133,0.000,0
36929.238,-33.691,-27.832,-24.902,-31.738,0.000,0
36929.242,-33.691,-32.227,-30.273,-18.555,0.000,0
36929.246,-37.109,-30.762,-31.250,-35.156,0.000,0
36929.250,-36.621,-30.762,-22.949,-43.457,0.000,0
36929.254,-29.297,-34.180,-33.691,-26.855,0.000,0
36929.258,-23.926,-33.203,-37.598,-33.203,0.000,0
36929.262,-25.879,-31.738,-30.273,-40.527,0.000,0
36929.266,-19.531,-29.785,-18.555,-31.250,0.000,0
36929.269,-15.137,-32.227,-20.996,-34.668,0.000,0
36929.273,-20.020,-39.062,-31.738,-41.016,0.000,0
36929.277,-23.438,-37.598,-34.668,-31.738,0.000,0
36929.281,-19.531,-34.668,-33.203,-27.832,0.000,0
36929.285,-26.855,-31.738,-30.273,-40.527,0.000,0
36929.289,-34.668,-28.809,-31.250,-31.250,0.000,0
36929.293,-29.785,-30.762,-37.598,-25.879,0.000,0
36929.297,-20.020,-31.250,-31.738,-36.621,0.000,0
36929.301,-17.090,-26.855,-21.484,-25.391,0.000,0
36929.305,-29.297,-28.809,-24.902,-22.461,0.000,0
36929.309,-32.227,-28.320,-26.367,-27.832,0.000,0
36929.312,-35.156,-26.855,-17.578,-28.320,0.000,0
36929.316,-34.180,-34.668,-27.832,-23.438,0.000,2
36929.320,-31.738,-33.691,-29.297,-22.461,0.000,0
36929.324,-34.180,-25.391,-15.625,-29.785,0.000,0
36929.328,-24.902,-21.973,-20.508,-26.855,0.000,0
36929.332,-20.508,-17.578,-27.344,-28.320,0.000,0
36929.336,-27.344,-20.996,-24.414,-33.203,0.000,0
36929.340,-30.762,-23.438,-16.113,-30.762,0.000,0
36929.344,-28.320,-21.484,-19.043,-16.113,0.000,0
36929.348,-32.715,-28.320,-35.645,-28.320,0.000,0
36929.351,-26.367,-28.809,-31.250,-40.039,0.000,0
36929.355,-26.367,-23.438,-23.438,-20.508,0.000,0
36929.359,-33.203,-29.297,-28.320,-24.902,0.000,0
36929.363,-34.180,-34.668,-28.809,-47.852,0.000,0
36929.367,-24.902,-29.297,-26.367,-36.621,0.000,0
36929.371,-15.625,-22.949,-22.949,-22.461,0.000,0
36929.375,-22.461,-25.391,-23.926,-31.738,0.000,0
36929.379,-28.809,-27.344,-26.367,-37.109,0.000,0
36929.383,-30.273,-27.344,-29.785,-35.645,0.000,0
36929.387,-19.043,-18.066,-27.832,-27.344,0.000,0
36929.391,-14.160,-20.508,-25.391,-21.973,0.000,0
36929.394,-17.578,-24.902,-32.715,-18.555,0.000,0
36929.398,-22.949,-20.508,-29.785,-21.973,0.000,0
36929.402,-24.414,-26.855,-17.578,-27.832,0.000,0
36929.406,-16.113,-33.203,-28.809,-20.020,0.000,0
36929.410,-18.555,-27.832,-35.156,-20.508,0.000,0
36929.414,-18.066,-26.367,-27.344,-14.160,0.000,0
36929.418,-22.461,-26.855,-18.066,-18.555,0.000,0
36929.422,-22.461,-28.809,-15.137,-37.598,0.000,0
36929.426,-29.785,-27.344,-25.879,-38.086,0.000,0
36929.430,-38.574,-20.996,-24.902,-22.949,0.000,0
36929.434,-30.273,-23.438,-26.367,-13.672,0.000,0
36929.437,-27.344,-24.414,-32.227,-18.555,0.000,0
36929.441,-16.602,-25.391,-20.020,-16.602,0.000,0
36929.445,-13.184,-20.020,-16.602,-11.719,0.000,0
36929.449,-24.902,-21.973,-28.320,-20.508,0.000,0
36929.453,-25.391,-30.762,-28.809,-27.344,0.000,0
36929.457,-17.090,-23.438,-15.137,-22.949,0.000,0
36929.461,-18.066,-17.578,-10.254,-17.090,0.000,0
36929.465,-20.996,-15.625,-13.184,-2.930,0.000,0
36929.469,-27.344,-20.996,-22.949,-5.371,0.000,0
36929.473,-18.555,-20.020,-20.508,-5.371,0.000,0
36929.476,-15.625,-15.137,-8.789,-13.184,0.000,0
36929.480,-25.391,-21.973,-11.719,-23.926,0.000,0
36929.484,-25.879,-25.391,-17.578,-23.438,0.000,0
36929.488,-25.391,-21.973,-20.996,-18.066,0.000,0
36929.492,-25.879,-17.578,-23.926,-2.441,0.000,0
36929.496,-20.020,-18.066,-24.414,-7.812,0.000,0
36929.500,-25.391,-26.855,-28.320,-42.969,0.000,0
36929.504,-33.691,-20.020,-16.602,-40.039,0.000,0
36929.508,-28.809,-18.555,-11.719,-31.738,0.000,0
36929.512,-26.367,-23.438,-18.555,-35.156,0.000,0
36929.516,-24.414,-23.438,-9.277,-25.391,0.000,0
36929.519,-34.668,-30.273,-8.789,-36.621,0.000,0
36929.523,-34.668,-29.297,-18.066,-39.062,0.000,0
36929.527,-26.855,-28.809,-28.809,-34.180,0.000,0
36929.531,-26.367,-24.902,-21.973,-24.902,0.000,0
36929.535,-23.926,-22.949,-6.348,-20.996,0.000,0
36929.539,-26.855,-23.926,-9.277,-26.855,0.000,0
36929.543,-31.738,-30.762,-23.926,-26.367,0.000,0
36929.547,-33.691,-34.180,-24.902,-33.203,0.000,0
36929.551,-25.391,-26.855,-18.555,-32.715,0.000,0
36929.555,-23.926,-27.832,-26.367,-24.414,0.000,0
36929.559,-26.855,-29.297,-22.461,-26.855,0.000,0
36929.562,-31.738,-22.461,-19.531,-28.320,0.000,0
36929.566,-31.738,-20.508,-25.391,-26.367,0.000,0
36929.570,-29.785,-30.762,-29.297,-23.438,0.000,0
36929.574,-32.227,-37.109,-28.320,-30.273,0.000,0
36929.578,-38.086,-35.645,-25.879,-38.086,0.000,0
36929.582,-40.039,-29.297,-27.832,-25.391,0.000,0
36929.586,-33.691,-29.785,-32.715,-22.461,0.000,0
36929.590,-33.691,-33.691,-34.668,-21.973,0.000,0
36929.594,-24.902,-35.645,-21.484,-19.043,0.000,0
36929.598,-23.438,-32.715,-23.438,-37.598,0.000,0
36929.601,-29.297,-32.227,-35.645,-41.504,0.000,0
36929.605,-33.203,-35.645,-33.203,-32.227,0.000,0
36929.609,-36.621,-36.133,-34.180,-30.762,0.000,0
36929.613,-37.598,-31.250,-36.621,-24.414,0.000,0
36929.617,-29.297,-31.250,-29.785,-36.133,0.000,0
36929.621,-18.066,-30.762,-23.438,-33.691,0.000,0
36929.625,-15.625,-25.879,-22.461,-8.301,0.000,0
36929.629,-22.461,-27.832,-24.902,-12.695,0.000,0
36929.633,-26.367,-21.973,-28.320,-17.578,0.000,0
36929.637,-17.578,-17.090,-18.066,-13.184,0.000,0
36929.641,-18.555,-20.996,-12.207,-21.484,0.000,0
36929.644,-22.949,-26.855,-24.414,-20.508,0.000,0
36929.648,-28.320,-28.809,-29.297,-18.555,0.000,0
36929.652,-31.250,-26.367,-20.508,-22.949,0.000,0
36929.656,-26.855,-27.344,-15.625,-17.090,0.000,0
36929.660,-19.043,-33.203,-19.043,-19.531,0.000,0
36929.664,-24.414,-31.250,-23.438,-27.344,0.000,0
36929.668,-33.691,-29.297,-27.832,-21.484,0.000,0
36929.672,-29.785,-33.203,-22.461,-20.020,0.000,0
36929.676,-18.555,-27.832,-15.625,-21.973,0.000,0
36929.680,-20.508,-24.414,-24.902,-19.531,0.000,0
36929.684,-27.344,-19.043,-25.391,-15.137,0.000,0
36929.687,-27.344,-20.996,-27.344,-17.090,0.000,0
36929.691,-22.461,-25.879,-29.785,-27.344,0.000,0
36929.695,-24.902,-25.391,-21.484,-28.809,0.000,0
36929.699,-27.344,-23.438,-29.297,-18.555,0.000,0
36929.703,-26.855,-19.043,-36.621,-17.090,0.000,0
36929.707,-30.762,-23.438,-38.574,-25.391,0.000,0
36929.711,-32.227,-24.902,-34.180,-22.461,0.000,0
36929.715,-25.391,-19.043,-20.020,-23.438,0.000,0
36929.719,-26.367,-22.949,-22.949,-22.949,0.000,0
36929.723,-32.227,-26.855,-26.367,-13.672,0.000,0
36929.726,-25.879,-25.879,-21.973,-20.996,0.000,0
36929.730,-24.414,-21.973,-21.973,-27.832,0.000,0
36929.734,-28.809,-28.809,-20.996,-30.273,0.000,0
36929.738,-29.785,-39.551,-25.391,-44.434,0.000,0
36929.742,-29.297,-25.879,-21.973,-32.715,0.000,0
36929.746,-26.367,-16.602,-18.066,-17.090,0.000,0
36929.750,-35.156,-25.879,-27.832,-20.020,0.000,0
36929.754,-38.574,-33.691,-26.367,-26.367,0.000,0
36929.758,-24.414,-28.320,-24.414,-29.785,0.000,0
36929.762,-20.996,-26.367,-30.762,-25.879,0.000,0
36929.766,-24.414,-37.598,-30.762,-20.508,0.000,0
36929.769,-25.391,-34.668,-30.273,-14.648,0.000,0
36929.773,-29.785,-26.367,-17.578,-18.555,0.000,0
36929.777,-29.297,-27.832,-20.020,-31.738,0.000,0
36929.781,-24.902,-25.391,-31.250,-25.879,0.000,0
36929.785,-22.461,-23.438,-28.809,-15.625,0.000,0
36929.789,-13.184,-21.484,-23.438,-13.672,0.000,0
36929.793,-3.418,-20.020,-18.555,-18.066,0.000,0
36929.797,-15.625,-18.555,-18.066,-34.180,0.000,0
36929.801,-21.484,-16.602,-22.949,-27.344,0.000,0
36929.805,-18.066,-16.113,-20.020,-18.555,0.000,0
36929.809,-27.344,-20.508,-25.879,-18.555,0.000,0
36929.812,-25.391,-28.809,-32.227,-16.602,0.000,0
36929.816,-23.926,-32.227,-26.367,-27.344,0.000,0
36929.820,-37.109,-27.344,-34.180,-28.320,0.000,0
36929.824,-34.668,-22.949,-39.551,-12.207,0.000,0
36929.828,-18.066,-25.879,-38.086,-14.648,0.000,0
36929.832,-28.320,-23.926,-25.879,-25.879,0.000,0
36929.836,-39.551,-23.438,-15.625,-31.250,0.000,0
36929.840,-22.949,-26.855,-29.297,-33.691,0.000,0
36929.844,-20.996,-25.391,-31.738,-27.832,0.000,0
36929.848,-32.715,-23.438,-26.855,-21.484,0.000,0
36929.851,-25.879,-29.785,-21.973,-24.902,0.000,0
36929.855,-27.832,-36.621,-27.344,-33.203,0.000,0
36929.859,-39.551,-38.086,-38.574,-37.109,0.000,0
36929.863,-35.645,-35.645,-33.691,-29.297,0.000,0
36929.867,-33.691,-32.715,-27.832,-14.160,0.000,0
36929.871,-39.551,-32.227,-31.250,-24.414,0.000,0
36929.875,-25.879,-31.738,-25.391,-32.227,0.000,0
36929.879,-18.066,-25.879,-19.531,-24.902,0.000,0
36929.883,-24.414,-27.832,-27.344,-19.043,0.000,0
36929.887,-25.879,-32.715,-37.109,-10.742,0.000,0
36929.891,-25.879,-27.832,-26.367,-13.184,0.000,0
36929.894,-28.320,-28.320,-19.531,-20.996,0.000,1
36929.898,-20.996,-29.297,-26.855,-15.625,0.000,0
36929.902,-23.926,-28.809,-29.785,-28.320,0.000,0
36929.906,-30.273,-31.250,-23.438,-30.273,0.000,0
36929.910,-25.879,-28.320,-17.578,-8.301,0.000,0
36929.914,-26.367,-29.785,-23.926,-14.160,0.000,0
36929.918,-22.461,-30.273,-28.809,-29.785,0.000,0
36929.922,-20.020,-25.391,-27.832,-13.672,0.000,0
36929.926,-20.020,-23.438,-21.484,-1.953,0.000,0
36929.930,-17.090,-23.438,-20.020,-4.395,0.000,0
36929.934,-21.973,-22.949,-18.066,-4.883,0.000,0
36929.937,-26.367,-23.438,-21.973,-9.766,0.000,0
36929.941,-31.738,-22.949,-23.438,-14.648,0.000,0
36929.945,-35.645,-22.461,-26.855,-17.578,0.000,0
36929.949,-35.156,-28.809,-34.180,-17.090,0.000,0
36929.953,-37.109,-28.320,-25.879,-27.344,0.000,0
36929.957,-27.344,-23.438,-21.973,-27.832,0.000,0
36929.961,-19.531,-20.508,-25.879,-12.695,0.000,0
36929.965,-27.344,-22.949,-29.297,-16.602,0.000,0
36929.969,-27.344,-25.391,-17.578,-23.926,0.000,0
36929.973,-20.020,-28.809,-6.348,-29.297,0.000,0
36929.976,-18.555,-31.738,-28.320,-33.691,0.000,0
36929.980,-26.367,-33.203,-41.504,-32.715,0.000,0
36929.984,-19.531,-32.227,-32.715,-19.531,0.000,0
36929.988,-14.160,-26.367,-30.762,-6.836,0.000,0
36929.992,-26.855,-25.879,-27.344,-18.555,0.000,0
36929.996,-29.785,-30.273,-24.414,-18.066,0.000,0
36930.000,-30.762,-32.715,-29.297,-12.695,0.000,0
36930.004,-30.762,-25.391,-22.461,-17.090,0.000,0
36930.008,-26.855,-21.484,-18.555,-25.391,0.000,0
36930.012,-33.691,-26.367,-15.137,-35.645,0.000,0
36930.016,-39.062,-30.762,-13.184,-34.668,0.000,0
36930.019,-31.738,-37.109,-30.273,-38.086,0.000,0
36930.023,-32.227,-36.621,-35.645,-30.273,0.000,0
36930.027,-33.691,-35.156,-31.250,-25.879,0.000,0
36930.031,-35.156,-36.133,-24.902,-44.922,0.000,0
36930.035,-34.180,-34.180,-23.438,-37.598,0.000,0
36930.039,-22.949,-29.785,-20.996,-20.020,0.000,0
36930.043,-22.949,-28.809,-20.020,-22.949,0.000,0
36930.047,-31.250,-34.668,-29.785,-20.020,0.000,0
36930.051,-33.203,-36.133,-25.879,-25.391,0.000,0
36930.055,-29.297,-39.062,-24.414,-35.645,0.000,0
36930.059,-30.273,-37.598,-28.320,-28.320,0.000,0
36930.062,-31.250,-29.785,-27.344,-27.832,0.000,0
36930.066,-33.203,-28.320,-33.203,-23.438,0.000,0
36930.070,-32.227,-31.250,-25.879,-18.066,0.000,0
36930.074,-30.762,-33.691,-15.625,-15.137,0.000,0
36930.078,-35.156,-25.391,-24.902,-14.160,0.000,0
36930.082,-32.715,-31.738,-36.621,-23.438,0.000,0
36930.086,-30.762,-35.645,-30.273,-25.879,0.000,0
36930.090,-25.879,-24.902,-15.625,-31.738,0.000,0
36930.094,-25.391,-26.855,-18.066,-31.250,0.000,0
36930.098,-24.902,-22.949,-25.391,-19.531,0.000,0
36930.101,-25.879,-25.879,-21.484,-18.555,0.000,0
36930.105,-30.273,-24.902,-17.090,-25.879,0.000,0
36930.109,-22.461,-18.555,-13.672,-23.926,0.000,0
36930.113,-17.090,-20.508,-14.648,-17.578,0.000,0
36930.117,-22.949,-16.602,-16.602,-21.484,0.000,0
36930.121,-23.926,-20.020,-16.602,-29.297,0.000,0
36930.125,-24.902,-31.250,-23.926,-21.484,0.000,0
36930.129,-31.250,-30.762,-23.926,-20.996,0.000,0
36930.133,-23.926,-26.367,-12.207,-32.227,0.000,0
36930.137,-25.391,-26.367,-16.602,-28.320,0.000,0
36930.141,-30.273,-27.832,-25.879,-12.207,0.000,0
36930.144,-20.996,-27.344,-20.020,-18.066,0.000,0
36930.148,-20.508,-27.344,-13.184,-34.668,0.000,0
36930.152,-27.832,-26.855,-17.578,-41.016,0.000,0
36930.156,-28.809,-28.320,-24.414,-44.922,0.000,0
36930.160,-25.879,-30.273,-23.438,-45.410,0.000,0
36930.164,-27.344,-31.250,-19.043,-37.598,0.000,0
36930.168,-28.809,-30.273,-17.090,-30.762,0.000,0
36930.172,-26.367,-23.926,-15.625,-31.738,0.000,0
36930.176,-26.855,-22.949,-14.160,-30.273,0.000,0
36930.180,-27.832,-31.250,-19.531,-24.414,0.000,0
36930.184,-31.250,-34.180,-21.973,-22.461,0.000,0
36930.187,-32.715,-30.273,-18.555,-26.855,0.000,0
36930.191,-21.484,-28.809,-13.184,-20.996,0.000,0
36930.195,-23.438,-29.297,-14.160,-8.789,0.000,0
36930.199,-30.762,-29.785,-23.926,-32.715,0.000,0
36930.203,-28.809,-31.738,-36.133,-52.734,0.000,0
36930.207,-33.203,-30.273,-27.832,-46.875,0.000,0
36930.211,-33.203,-24.902,-14.160,-41.016,0.000,0
36930.215,-23.926,-22.949,-24.902,-34.180,0.000,0
36930.219,-19.531,-24.902,-22.949,-25.391,0.000,0
36930.223,-23.926,-24.414,-18.555,-24.902,0.000,0
36930.226,-22.949,-24.902,-24.414,-32.715,0.000,0
36930.230,-20.996,-29.785,-26.855,-38.574,0.000,0
36930.234,-26.855,-22.461,-19.531,-35.156,0.000,0
36930.238,-21.973,-18.555,-19.043,-21.484,0.000,0
36930.242,2.930,-23.926,-22.461,3.906,0.000,0
36930.246,-8.301,-23.926,-29.297,-9.766,0.000,0
36930.250,-42.480,-23.438,-32.715,-45.410,0.000,0
36930.254,-36.133,-22.461,-25.391,-41.992,0.000,0
36930.258,-27.344,-23.926,-26.367,-34.668,0.000,0
36930.262,-29.297,-26.855,-23.926,-27.832,0.000,0
36930.266,-26.367,-21.484,-19.043,-24.414,0.000,0
36930.269,-29.785,-16.113,-18.066,-36.621,0.000,0
36930.273,-34.668,-12.695,-21.973,-31.738,0.000,0
36930.277,-30.273,-25.879,-24.902,-20.996,0.000,0
36930.281,-30.273,-37.598,-23.926,-23.438,0.000,0
36930.285,-29.297,-28.320,-24.902,-23.438,0.000,0
36930.289,-22.949,-25.879,-22.461,-32.715,0.000,0
36930.293,-29.297,-25.879,-25.879,-32.227,0.000,0
36930.297,-30.273,-21.484,-25.391,-29.297,0.000,0
36930.301,-16.602,-20.996,-27.344,-22.461,0.000,0
36930.305,-19.531,-23.926,-26.367,-22.461,0.000,0
36930.309,-29.297,-26.855,-21.973,-38.574,0.000,0
36930.312,-24.902,-22.949,-20.508,-22.461,0.000,0
36930.316,-21.484,-24.902,-23.438,-12.207,0.000,0
36930.320,-18.066,-26.367,-25.391,-20.020,0.000,0
36930.324,-21.973,-27.832,-23.438,-16.113,0.000,0
36930.328,-26.367,-28.809,-22.949,-21.484,0.000,0
36930.332,-18.555,-27.344,-22.949,-19.531,0.000,0
36930.336,-15.137,-25.879,-18.555,-22.461,0.000,0
36930.340,-13.672,-18.066,-18.066,-15.625,0.000,0
36930.344,-21.973,-13.672,-20.508,-16.602,0.000,0
36930.348,-25.391,-21.484,-28.320,-19.531,0.000,0
36930.351,-19.531,-25.879,-37.109,-5.859,0.000,0
36930.355,-29.785,-30.762,-43.457,-12.207,0.000,0
36930.359,-37.598,-28.809,-38.086,-16.113,0.000,0
36930.363,-31.250,-27.344,-28.320,-17.090,0.000,0
36930.367,-23.438,-27.344,-20.996,-17.578,0.000,0
36930.371,-21.973,-22.461,-19.531,-24.414,0.000,0
36930.375,-19.043,-24.414,-18.555,-23.438,0.000,0
36930.379,-21.973,-25.391,-20.508,-21.484,0.000,0
36930.383,-26.367,-20.508,-21.484,-29.785,0.000,0
36930.387,-19.531,-20.508,-12.695,-23.438,0.000,0
36930.391,-20.508,-24.414,-20.020,-11.719,0.000,0
36930.394,-21.973,-23.926,-28.809,-13.184,0.000,0
36930.398,-21.484,-22.949,-24.902,-17.090,0.000,0
36930.402,-29.785,-24.414,-20.508,-18.555,0.000,0
36930.406,-24.414,-24.414,-17.578,-24.902,0.000,0
36930.410,-20.020,-22.949,-21.484,-19.531,0.000,0
36930.414,-16.602,-23.438,-28.320,-9.766,0.000,0
36930.418,-15.137,-26.855,-25.879,-7.324,0.000,0
36930.422,-20.996,-30.273,-22.461,-19.531,0.000,0
36930.426,-23.926,-31.250,-19.531,-23.438,0.000,0
36930.430,-31.250,-29.297,-17.090,-19.043,0.000,0
36930.434,-24.902,-26.367,-13.672,-16.602,0.000,0
36930.437,-13.184,-29.297,-25.879,-14.160,0.000,0
36930.441,-13.184,-31.738,-27.832,-15.137,0.000,0
36930.445,-10.254,-31.738,-14.648,-15.137,0.000,0
36930.449,-7.812,-29.785,-15.137,-16.602,0.000,0
36930.453,-17.090,-30.762,-28.320,-24.902,0.000,0
36930.457,-21.973,-35.156,-30.273,-28.809,0.000,0
36930.461,-20.508,-25.879,-18.066,-21.484,0.000,0
36930.465,-20.996,-22.949,-11.719,-20.996,0.000,0
36930.469,-25.391,-28.320,-20.508,-17.090,0.000,0
36930.473,-20.508,-26.367,-26.855,-20.508,0.000,0
36930.476,-16.602,-22.461,-17.090,-18.555,0.000,0
36930.480,-19.043,-25.879,-21.973,-10.254,0.000,0
36930.484,-18.555,-27.832,-23.926,-17.090,0.000,0
36930.488,-27.344,-30.762,-27.344,-31.738,0.000,0
36930.492,-20.508,-29.785,-21.484,-20.996,0.000,0
36930.496,-20.020,-28.809,-20.020,-24.902,0.000,0
36930.500,-28.320,-33.691,-23.926,-27.832,0.000,0
36930.504,-23.438,-31.250,-8.301,-16.602,0.000,0
36930.508,-20.996,-27.832,-9.766,-22.461,0.000,0
36930.512,-24.414,-29.785,-24.902,-29.785,0.000,0
36930.516,-21.973,-26.367,-23.926,-25.391,0.000,0
36930.519,-27.344,-24.414,-24.902,-18.555,0.000,0
36930.523,-27.344,-21.484,-23.438,-15.625,0.000,0
36930.527,-13.672,-19.531,-23.926,-12.695,0.000,0
36930.531,-15.625,-24.414,-27.832,-19.043,0.000,0
36930.535,-27.832,-22.461,-24.414,-35.156,0.000,0
36930.539,-26.855,-15.625,-19.531,-33.691,0.000,0
36930.543,-26.367,-23.926,-32.227,-32.227,0.000,0
36930.547,-32.227,-29.785,-34.668,-28.320,0.000,0
36930.551,-33.203,-26.367,-26.367,-20.996,0.000,0
36930.555,-32.227,-28.320,-30.762,-19.531,0.000,0
36930.559,-27.344,-34.668,-34.668,-20.996,0.000,0
36930.562,-22.461,-27.344,-26.855,-27.344,0.000,0
36930.566,-27.832,-22.461,-24.414,-25.879,0.000,0
36930.570,-29.785,-20.996,-29.297,-18.066,0.000,0
36930.574,-29.297,-25.391,-30.762,-25.879,0.000,0
36930.578,-29.297,-26.855,-30.273,-21.973,0.000,0
36930.582,-23.926,-19.043,-14.160,-6.836,0.000,2
36930.586,-24.414,-22.461,-14.648,-19.531,0.000,0
36930.590,-23.438,-22.949,-31.250,-18.066,0.000,0
36930.594,-22.461,-24.902,-34.668,-7.324,0.000,0
36930.598,-20.996,-28.320,-27.832,-6.348,0.000,0
36930.601,-16.602,-32.715,-25.879,-3.906,0.000,0
36930.605,-16.602,-27.344,-24.902,-2.441,0.000,0
36930.609,-10.742,-22.461,-19.043,-12.695,0.000,0
36930.613,-18.066,-31.738,-23.926,-33.203,0.000,0
36930.617,-27.344,-28.320,-28.320,-17.578,0.000,0
36930.621,-27.832,-30.273,-34.668,-15.137,0.000,0
36930.625,-28.809,-33.691,-39.551,-21.973,0.000,0
36930.629,-21.484,-23.438,-22.949,-4.883,0.000,0
36930.633,-24.902,-27.344,-32.227,-13.672,0.000,0
36930.637,-35.645,-29.297,-35.156,-27.832,0.000,0
36930.641,-29.297,-26.855,-23.438,-23.438,0.000,0
36930.644,-26.367,-31.250,-27.344,-18.555,0.000,0
36930.648,-29.785,-24.902,-28.809,-32.715,0.000,0
36930.652,-27.832,-19.531,-32.227,-31.738,0.000,0
36930.656,-27.832,-22.461,-30.762,-13.672,0.000,0
36930.660,-24.902,-27.344,-21.484,-12.207,0.000,0
36930.664,-23.926,-31.250,-21.484,-36.621,0.000,0
36930.668,-22.949,-25.879,-25.879,-26.367,0.000,0
36930.672,-24.414,-23.926,-18.555,-15.625,0.000,0
36930.676,-34.180,-33.691,-19.043,-33.691,0.000,0
36930.680,-34.180,-35.156,-35.156,-26.367,0.000,0
36930.684,-30.762,-33.203,-29.297,-26.855,0.000,0
36930.687,-27.344,-29.297,-17.090,-30.762,0.000,0
36930.691,-29.785,-29.297,-32.227,-33.691,0.000,0
36930.695,-30.273,-26.855,-33.691,-22.949,0.000,0
36930.699,-38.574,-26.855,-21.484,-14.160,0.000,0
36930.703,-36.133,-29.785,-16.113,-27.344,0.000,0
36930.707,-28.809,-21.973,-17.090,-14.160,0.000,0
36930.711,-27.344,-17.090,-20.020,-14.648,0.000,0
36930.715,-19.531,-9.766,-15.625,-13.672,0.000,0
36930.719,-20.020,-13.672,-8.789,-15.137,0.000,0
36930.723,-24.902,-24.414,-20.996,-30.273,0.000,0
36930.726,-16.602,-20.996,-30.762,-31.738,0.000,0
36930.730,-18.555,-16.113,-23.926,-29.785,0.000,0
36930.734,-25.391,-13.672,-21.973,-18.066,0.000,0
36930.738,-19.531,-16.602,-20.020,-11.719,0.000,0
36930.742,-23.438,-22.461,-12.695,-23.438,0.000,0
36930.746,-29.785,-20.508,-14.160,-22.461,0.000,0
36930.750,-27.344,-26.855,-22.461,-20.996,0.000,0
36930.754,-21.973,-29.297,-21.484,-15.625,0.000,0
36930.758,-20.508,-26.367,-17.578,-7.812,0.000,0
36930.762,-18.555,-24.902,-11.230,-21.484,0.000,0
36930.766,-25.391,-27.344,-20.996,-14.648,0.000,0
36930.769,-24.902,-25.391,-30.273,-14.648,0.000,0
36930.773,-21.973,-24.902,-28.320,-32.715,0.000,0
36930.777,-30.762,-25.391,-19.043,-29.785,0.000,0
36930.781,-32.715,-26.367,-12.695,-31.250,0.000,0
36930.785,-32.227,-30.273,-27.832,-41.016,0.000,0
36930.789,-32.227,-26.367,-24.902,-41.016,0.000,0
36930.793,-30.273,-23.438,-19.531,-29.785,0.000,0
36930.797,-23.926,-23.926,-28.320,-29.785,0.000,0
36930.801,-18.066,-22.461,-21.484,-24.902,0.000,0
36930.805,-20.020,-20.508,-19.043,-28.320,0.000,0
36930.809,-20.996,-13.672,-21.484,-23.926,0.000,0
36930.812,-15.625,-21.973,-29.785,-11.719,0.000,0
36930.816,-21.484,-28.320,-32.715,-5.371,0.000,0
36930.820,-28.320,-22.949,-21.973,-12.207,0.000,0
36930.824,-24.414,-22.461,-16.113,-18.066,0.000,0
36930.828,-32.227,-26.855,-27.344,-23.438,0.000,0
36930.832,-35.156,-28.320,-33.203,-28.809,0.000,0
36930.836,-27.832,-24.902,-24.414,-20.020,0.000,0
36930.840,-23.926,-23.438,-15.625,-18.066,0.000,0
36930.844,-23.926,-26.367,-20.508,-28.809,0.000,0
36930.848,-28.809,-23.438,-22.949,-18.555,0.000,0
36930.851,-32.227,-18.066,-20.508,-11.230,0.000,0
36930.855,-28.809,-21.484,-20.996,-20.996,0.000,0
36930.859,-26.367,-25.879,-21.973,-22.461,0.000,0
36930.863,-29.785,-28.809,-26.367,-26.367,0.000,0
36930.867,-36.621,-26.367,-25.879,-26.367,0.000,0
36930.871,-36.133,-28.320,-30.273,-18.555,0.000,0
36930.875,-25.391,-24.414,-27.832,-7.812,0.000,0
36930.879,-23.926,-21.484,-22.461,-19.531,0.000,0
36930.883,-31.738,-20.996,-17.578,-31.738,0.000,0
36930.887,-37.109,-22.949,-26.855,-31.250,0.000,0
36930.891,-34.668,-29.297,-31.250,-39.551,0.000,0
36930.894,-36.133,-29.785,-26.367,-28.320,0.000,0
36930.898,-33.691,-26.367,-28.320,-17.090,0.000,0
36930.902,-31.738,-24.414,-26.855,-27.832,0.000,0
36930.906,-34.180,-28.809,-28.809,-27.832,0.000,0
36930.910,-29.785,-27.832,-27.832,-15.625,0.000,0
36930.914,-29.785,-23.926,-25.391,-22.461,0.000,0
36930.918,-32.227,-26.367,-30.273,-36.133,0.000,0
36930.922,-34.668,-29.785,-31.250,-43.945,0.000,0
36930.926,-31.250,-20.996,-29.785,-29.297,0.000,0
36930.930,-28.809,-21.973,-29.297,-16.602,0.000,0
36930.934,-36.133,-26.855,-32.715,-36.621,0.000,0
36930.937,-26.855,-20.020,-28.320,-40.039,0.000,0
36930.941,-8.789,-19.043,-22.949,-10.254,0.000,0
36930.945,-5.859,-19.043,-28.320,-0.488,0.000,0
36930.949,-37.598,-21.973,-35.156,-29.785,0.000,0
36930.953,-46.387,-25.879,-37.598,-40.527,0.000,0
36930.957,-27.344,-17.090,-20.020,-20.996,0.000,0
36930.961,-41.992,-23.438,-19.531,-40.527,0.000,0
36930.965,-44.434,-29.297,-33.203,-60.059,0.000,0
36930.969,-30.762,-24.414,-22.461,-37.598,0.000,0
36930.973,-29.785,-20.508,-21.973,-24.414,0.000,0
36930.976,-26.367,-16.602,-22.461,-24.902,0.000,0
36930.980,-24.414,-20.508,-16.113,-15.137,0.000,0
36930.984,-22.461,-19.531,-20.020,-13.184,0.000,0
36930.988,-24.902,-18.066,-21.484,-30.762,0.000,0
36930.992,-23.926,-21.973,-21.973,-25.391,0.000,0
36930.996,-17.578,-24.414,-20.020,-18.555,0.000,0
36931.000,-19.043,-18.555,-13.672,-17.090,0.000,0
36931.004,-18.066,-14.160,-13.672,-19.043,0.000,0
36931.008,-15.625,-19.043,-23.926,-11.719,0.000,0
36931.012,-17.090,-21.484,-23.926,-3.906,0.000,0
36931.016,-20.020,-25.879,-14.648,-21.973,0.000,0
36931.019,-24.902,-27.344,-15.137,-24.414,0.000,0
36931.023,-24.902,-23.926,-20.996,-11.230,0.000,0
36931.027,-17.578,-28.809,-23.926,-11.719,0.000,0
36931.031,-17.090,-25.391,-17.578,-6.348,0.000,0
36931.035,-26.367,-24.414,-11.230,-10.254,0.000,0
36931.039,-29.297,-28.320,-22.461,-20.508,0.000,0
36931.043,-20.020,-23.438,-22.949,-28.809,0.000,0
36931.047,-15.625,-24.902,-17.090,-29.785,0.000,0
36931.051,-23.926,-26.367,-31.738,-24.414,0.000,0
36931.055,-20.508,-23.926,-22.461,-26.855,0.000,0
36931.059,-11.230,-18.555,-9.766,-17.090,0.000,0
36931.062,-12.207,-20.508,-21.973,-19.043,0.000,0
36931.066,-15.625,-30.273,-30.273,-20.508,0.000,0
36931.070,-17.578,-29.785,-26.855,-11.230,0.000,0
36931.074,-20.508,-29.297,-18.066,-22.949,0.000,0
36931.078,-19.043,-30.273,-18.066,-29.297,0.000,0
36931.082,-24.902,-30.273,-27.344,-19.043,0.000,0
36931.086,-27.832,-27.832,-26.367,-19.531,0.000,0
36931.090,-28.809,-23.438,-23.926,-25.879,0.000,0
36931.094,-23.926,-24.414,-18.555,-20.020,0.000,0
36931.098,-18.555,-25.879,-17.090,-18.555,0.000,0
36931.101,-23.926,-32.227,-28.320,-29.785,0.000,0
36931.105,-34.180,-32.227,-25.391,-35.156,0.000,0
36931.109,-27.344,-22.461,-20.020,-23.926,0.000,0
36931.113,-13.672,-21.973,-17.578,-14.648,0.000,0
36931.117,-17.578,-19.043,-7.812,-17.090,0.000,0
36931.121,-23.926,-20.508,-18.066,-8.789,0.000,0
36931.125,-27.832,-28.809,-28.809,-14.648,0.000,0
36931.129,-33.691,-31.738,-30.273,-32.227,0.000,0
36931.133,-32.715,-27.344,-24.414,-24.414,0.000,0
36931.137,-34.180,-27.344,-18.555,-12.695,0.000,0
36931.141,-32.227,-29.297,-26.855,-17.090,0.000,0
36931.144,-24.414,-26.855,-29.297,-23.926,0.000,0
36931.148,-26.367,-25.391,-18.555,-23.438,0.000,0
36931.152,-30.273,-25.879,-20.996,-25.879,0.000,0
36931.156,-28.809,-32.227,-25.391,-37.598,0.000,0
36931.160,-29.297,-33.203,-25.391,-23.926,0.000,0
36931.164,-33.203,-25.879,-22.461,-16.113,0.000,0
36931.168,-33.691,-20.996,-15.625,-23.926,0.000,0
36931.172,-42.480,-22.461,-17.090,-27.832,0.000,0
36931.176,-41.992,-24.414,-16.602,-21.484,0.000,0
36931.180,-27.832,-23.926,-18.555,-11.230,0.000,0
36931.184,-30.762,-24.414,-25.879,-14.648,0.000,0
36931.187,-29.297,-28.809,-30.762,-17.090,0.000,0
36931.191,-29.297,-23.926,-25.879,-11.230,0.000,0
36931.195,-31.738,-16.113,-11.230,-16.113,0.000,0
36931.199,-30.762,-19.531,-19.531,-20.020,0.000,0
36931.203,-41.992,-26.367,-41.504,-24.414,0.000,0
36931.207,-38.574,-23.438,-33.691,-28.320,0.000,0
36931.211,-15.137,-13.672,-18.066,-17.578,0.000,0
36931.215,-11.230,-19.043,-17.578,-19.043,0.000,0
36931.219,-16.113,-24.902,-26.367,-24.902,0.000,0
36931.223,-18.066,-20.508,-23.438,-19.043,0.000,0
36931.226,-19.531,-20.508,-18.066,-12.207,0.000,0
36931.230,-23.438,-23.926,-21.973,-11.230,0.000,0
36931.234,-24.414,-23.926,-21.484,-16.602,0.000,0
36931.238,-22.949,-20.996,-16.113,-10.254,0.000,0
36931.242,-27.832,-24.414,-20.020,-11.719,0.000,0
36931.246,-30.273,-26.367,-23.438,-27.832,0.000,0
36931.250,-34.668,-20.020,-25.879,-23.926,0.000,0
36931.254,-31.250,-21.484,-23.438,-14.648,0.000,0
36931.258,-22.949,-19.043,-15.625,-20.996,0.000,0
36931.262,-18.066,-20.508,-22.949,-21.973,0.000,0
36931.266,-20.996,-27.344,-29.785,-21.484,0.000,0
36931.269,-22.949,-31.738,-30.762,-24.902,0.000,0
36931.273,-29.297,-38.086,-31.250,-19.043,0.000,0
36931.277,-34.180,-36.133,-31.738,-27.344,0.000,0
36931.281,-26.367,-26.855,-31.250,-33.691,0.000,0
36931.285,-26.367,-21.484,-15.625,-16.113,0.000,0
36931.289,-27.344,-21.484,-13.184,-9.766,0.000,0
36931.293,-27.832,-25.391,-22.949,-27.344,0.000,0
36931.297,-26.367,-23.438,-21.484,-23.438,0.000,2
36931.301,-22.949,-29.785,-30.273,-13.184,0.000,0
36931.305,-25.879,-32.227,-37.109,-5.859,0.000,0
36931.309,-26.367,-24.902,-30.762,-10.254,0.000,0
36931.312,-24.414,-20.996,-19.043,-19.531,0.000,0
36931.316,-15.625,-20.508,-10.254,-16.113,0.000,0
36931.320,-10.254,-23.438,-14.160,-8.789,0.000,0
36931.324,-11.719,-28.809,-26.855,-3.906,0.000,0
36931.328,-15.625,-24.902,-20.996,3.906,0.000,0
36931.332,-21.484,-19.043,-4.883,-9.277,0.000,0
36931.336,-25.391,-20.508,-12.695,-26.367,0.000,0
36931.340,-14.648,-20.996,-19.531,-8.301,0.000,0
36931.344,-24.414,-31.250,-22.461,-15.137,0.000,0
36931.348,-38.086,-35.156,-24.902,-30.273,0.000,0
36931.351,-26.855,-38.574,-21.973,-27.344,0.000,0
36931.355,-21.484,-37.598,-23.926,-21.973,0.000,0
36931.359,-22.461,-23.926,-23.926,-19.531,0.000,0
36931.363,-25.391,-26.855,-26.367,-20.020,0.000,0
36931.367,-30.273,-29.297,-29.297,-13.672,0.000,0
36931.371,-28.809,-29.297,-24.902,-22.949,0.000,0
36931.375,-21.973,-23.926,-17.578,-26.855,0.000,0
36931.379,-15.137,-19.531,-16.113,-10.742,0.000,0
36931.383,-20.020,-21.973,-26.855,-18.555,0.000,0
36931.387,-29.297,-21.973,-29.297,-19.531,0.000,0
36931.391,-23.926,-23.926,-20.996,-22.461,0.000,0
36931.394,-23.438,-26.855,-25.879,-27.832,0.000,0
36931.398,-27.832,-27.344,-32.227,-26.367,0.000,0
36931.402,-27.832,-24.414,-27.832,-27.344,0.000,0
36931.406,-26.367,-27.832,-31.738,-18.555,0.000,0
36931.410,-18.555,-27.832,-24.902,-22.949,0.000,0
36931.414,-24.414,-16.113,-22.461,-23.926,0.000,0
36931.418,-22.461,-13.184,-25.879,-18.555,0.000,0
36931.422,-15.137,-22.949,-21.973,-23.438,0.000,0
36931.426,-21.973,-25.391,-26.855,-36.133,0.000,0
36931.430,-23.438,-21.973,-22.949,-34.180,0.000,0
36931.434,-18.066,-20.020,-10.742,-14.160,0.000,0
36931.437,-30.762,-20.508,-14.648,-19.531,0.000,0
36931.441,-37.109,-23.926,-20.996,-32.715,0.000,0
36931.445,-30.273,-20.996,-22.461,-23.926,0.000,0
36931.449,-29.785,-20.996,-17.578,-8.301,0.000,0
36931.453,-21.484,-23.438,-19.043,-20.996,0.000,0
36931.457,-20.020,-25.391,-29.785,-36.133,0.000,0
36931.461,-33.203,-27.832,-29.785,-37.598,0.000,0
36931.465,-28.320,-27.832,-25.879,-26.367,0.000,0
36931.469,-19.043,-28.809,-23.926,-15.137,0.000,0
36931.473,-17.578,-22.461,-27.344,-17.578,0.000,0
36931.476,-20.996,-19.531,-23.438,-8.789,0.000,0
36931.480,-24.414,-23.438,-22.949,-8.301,0.000,0
36931.484,-17.090,-24.414,-27.832,0.488,0.000,0
36931.488,-13.184,-28.809,-22.461,-1.953,0.000,0
36931.492,-23.926,-28.320,-18.066,-17.090,0.000,0
36931.496,-24.414,-30.762,-25.879,-11.230,0.000,0
36931.500,-22.949,-31.738,-31.250,-12.207,0.000,0
36931.504,-31.738,-29.785,-32.715,-17.090,0.000,0
36931.508,-25.391,-31.250,-40.039,-10.742,0.000,0
36931.512,-20.020,-28.320,-31.250,-4.883,0.000,0
36931.516,-20.996,-25.879,-26.855,-6.348,0.000,0
36931.519,-17.578,-32.227,-27.832,-11.719,0.000,0
36931.523,-20.020,-26.855,-15.137,-13.184,0.000,0
36931.527,-29.785,-16.602,-13.672,-12.695,0.000,0
36931.531,-30.273,-21.484,-21.973,-23.438,0.000,0
36931.535,-21.973,-20.996,-19.043,-35.156,0.000,0
36931.539,-16.602,-18.555,-14.648,-23.438,0.000,0
36931.543,-9.766,-18.066,-12.207,-9.766,0.000,0
36931.547,-9.766,-19.043,-14.160,-8.301,0.000,0
36931.551,-26.367,-25.879,-14.160,-18.555,0.000,0
36931.555,-33.691,-30.762,-13.184,-23.926,0.000,0
36931.559,-28.320,-27.344,-12.207,-22.949,0.000,0
36931.562,-23.926,-29.785,-21.973,-25.391,0.000,0
36931.566,-21.973,-27.832,-24.902,-22.949,0.000,0
36931.570,-17.090,-20.508,-17.090,-20.020,0.000,0
36931.574,-14.648,-18.066,-17.090,-16.602,0.000,0
36931.578,-23.926,-30.273,-26.855,-15.137,0.000,0
36931.582,-22.949,-30.273,-28.809,-13.184,0.000,0
36931.586,-16.602,-18.555,-22.949,-15.625,0.000,0
36931.590,-14.160,-22.461,-16.113,-20.508,0.000,0
36931.594,-20.996,-23.926,-19.043,-16.113,0.000,0
36931.598,-24.414,-20.020,-24.902,-14.648,0.000,0
36931.601,-17.578,-13.672,-11.719,-16.113,0.000,0
36931.605,-18.555,-20.996,-10.254,-21.973,0.000,0
36931.609,-23.926,-32.715,-24.414,-26.367,0.000,0
36931.613,-22.461,-26.855,-20.020,-17.090,0.000,0
36931.617,-22.461,-28.809,-17.578,-13.184,0.000,0
36931.621,-23.926,-33.203,-34.180,-25.391,0.000,0
36931.625,-23.926,-27.344,-27.344,-20.996,0.000,0
36931.629,-24.414,-18.555,-9.766,-7.812,0.000,0
36931.633,-16.602,-17.578,-15.625,-16.602,0.000,0
36931.637,-20.020,-25.879,-27.344,-28.320,0.000,0
36931.641,-26.367,-28.809,-30.273,-25.879,0.000,0
36931.644,-26.855,-30.273,-29.785,-15.625,0.000,0
36931.648,-33.691,-34.180,-22.461,-19.043,0.000,0
36931.652,-30.762,-28.809,-26.367,-27.344,0.000,0
36931.656,-28.809,-26.367,-30.273,-24.414,0.000,0
36931.660,-35.156,-28.320,-24.902,-28.320,0.000,0
36931.664,-40.527,-36.133,-33.203,-35.645,0.000,0
36931.668,-36.133,-40.039,-34.180,-38.086,0.000,0
36931.672,-28.809,-36.621,-31.738,-47.363,0.000,0
36931.676,-24.902,-30.762,-30.762,-49.805,0.000,0
36931.680,-29.297,-29.785,-41.504,-37.598,0.000,0
36931.684,-32.715,-34.180,-42.480,-35.645,0.000,0
36931.687,-27.832,-28.320,-23.926,-31.250,0.000,0
36931.691,-21.484,-21.484,-20.508,-15.137,0.000,0
36931.695,-23.926,-25.391,-24.414,-15.625,0.000,0
36931.699,-14.648,-20.508,-21.484,-18.555,0.000,0
36931.703,-11.719,-21.973,-15.137,-12.207,0.000,0
36931.707,-8.789,-27.832,-10.742,-20.508,0.000,0
36931.711,-6.348,-25.879,-27.832,-31.250,0.000,0
36931.715,-15.137,-21.484,-31.738,-30.762,0.000,0
36931.719,-17.090,-20.020,-30.273,-13.184,0.000,0
36931.723,-11.719,-23.926,-29.297,-15.137,0.000,0
36931.726,-15.137,-29.785,-22.949,-24.902,0.000,0
36931.730,-17.578,-28.809,-30.273,-17.090,0.000,0
36931.734,-17.578,-27.344,-31.250,-15.137,0.000,0
36931.738,-21.484,-26.855,-26.855,-19.043,0.000,0
36931.742,-30.762,-29.297,-28.809,-20.508,0.000,0
36931.746,-33.203,-35.156,-28.320,-28.809,0.000,0
36931.750,-22.949,-25.391,-20.020,-25.879,0.000,0
36931.754,-23.438,-23.438,-30.273,-22.949,0.000,0
36931.758,-28.320,-31.738,-37.109,-27.344,0.000,0
36931.762,-31.738,-32.227,-32.715,-26.855,0.000,0
36931.766,-41.016,-29.785,-27.832,-28.320,0.000,0
36931.769,-30.273,-23.926,-28.320,-22.949,0.000,0
36931.773,-27.344,-26.367,-35.645,-29.785,0.000,0
36931.777,-35.645,-27.832,-31.738,-45.898,0.000,0
36931.781,-25.879,-26.367,-31.250,-48.340,0.000,0
36931.785,-17.578,-22.461,-23.438,-39.062,0.000,0
36931.789,-23.926,-21.484,-16.602,-37.109,0.000,0
36931.793,-28.320,-20.508,-19.043,-33.203,0.000,0
36931.797,-29.785,-14.648,-14.160,-22.949,0.000,0
36931.801,-32.715,-21.484,-19.531,-26.367,0.000,0
36931.805,-21.484,-23.926,-20.020,-28.320,0.000,0
36931.809,-18.066,-20.996,-16.602,-31.250,0.000,0
36931.812,-26.367,-23.926,-26.855,-40.039,0.000,0
36931.816,-25.879,-24.902,-33.203,-36.621,0.000,0
36931.820,-20.508,-19.531,-22.949,-21.973,0.000,0
36931.824,-19.531,-18.555,-7.812,-25.391,0.000,0
36931.828,-24.414,-21.484,-13.672,-23.926,0.000,0
36931.832,-24.902,-26.855,-26.367,-0.977,0.000,0
36931.836,-30.762,-25.879,-27.832,0.488,0.000,0
36931.840,-29.785,-22.461,-20.020,-18.066,0.000,0
36931.844,-13.184,-24.902,-18.066,-29.297,0.000,0
36931.848,-14.160,-29.297,-24.902,-33.691,0.000,0
36931.851,-22.461,-27.344,-25.391,-29.297,0.000,0
36931.855,-22.949,-26.855,-21.484,-17.578,0.000,0
36931.859,-17.090,-29.297,-24.414,-24.902,0.000,0
36931.863,-24.414,-31.250,-20.508,-33.203,0.000,0
36931.867,-30.273,-27.344,-13.184,-24.414,0.000,0
36931.871,-22.461,-25.879,-24.902,-26.855,0.000,0
36931.875,-11.230,-21.484,-27.832,-19.531,0.000,0
36931.879,-9.766,-22.949,-24.902,-13.672,0.000,0
36931.883,-23.926,-21.484,-26.855,-17.090,0.000,0
36931.887,-31.738,-22.949,-26.367,-22.461,0.000,0
36931.891,-30.273,-29.297,-31.250,-30.762,0.000,0
36931.894,-26.367,-23.926,-36.133,-22.949,0.000,0
36931.898,-18.555,-14.648,-24.414,-7.812,0.000,0
36931.902,-17.090,-20.508,-15.625,-2.441,0.000,0
36931.906,-22.461,-23.926,-16.602,-5.859,0.000,0
36931.910,-20.508,-21.973,-22.949,-19.043,0.000,0
36931.914,-26.855,-28.320,-31.738,-27.832,0.000,0
36931.918,-33.203,-29.297,-39.062,-20.508,0.000,0
36931.922,-26.855,-29.785,-35.645,-17.090,0.000,0
36931.926,-22.461,-32.715,-25.879,-24.414,0.000,0
36931.930,-26.367,-23.438,-14.160,-19.043,0.000,0
36931.934,-30.273,-22.949,-20.020,-23.926,0.000,0
36931.937,-30.273,-38.574,-38.574,-31.250,0.000,0
36931.941,-31.738,-31.250,-26.367,-27.344,0.000,0
36931.945,-41.016,-22.949,-13.672,-28.320,0.000,0
36931.949,-33.691,-24.414,-29.297,-26.367,0.000,0
36931.953,-29.297,-24.414,-26.855,-24.414,0.000,0
36931.957,-30.762,-25.391,-20.020,-14.160,0.000,0
36931.961,-24.902,-26.855,-18.066,-7.812,0.000,0
36931.965,-30.762,-21.484,-16.113,-17.578,0.000,0
36931.969,-23.926,-16.602,-20.508,-20.508,0.000,1
36931.973,-19.043,-22.949,-25.879,-18.066,0.000,0
36931.976,-19.531,-26.855,-30.762,-20.996,0.000,0
36931.980,-24.902,-20.996,-30.273,-29.785,0.000,0
36931.984,-29.297,-22.949,-28.809,-27.344,0.000,0
36931.988,-15.137,-25.879,-16.602,-14.648,0.000,0
36931.992,-17.090,-24.414,-15.625,-24.902,0.000,0
36931.996,-21.973,-26.855,-24.902,-17.578,0.000,0
36932.000,-18.555,-23.438,-18.066,-1.465,0.000,0
36932.004,-20.508,-24.414,-16.602,-8.789,0.000,0
36932.008,-25.391,-27.344,-33.203,-24.902,0.000,0
36932.012,-22.949,-24.414,-35.156,-26.367,0.000,0
36932.016,-25.391,-24.414,-33.203,-8.301,0.000,0
36932.019,-31.738,-22.949,-37.109,-7.324,0.000,0
36932.023,-28.320,-23.926,-30.273,-23.926,0.000,0
36932.027,-28.320,-24.902,-27.344,-19.531,0.000,0
36932.031,-31.738,-24.902,-27.832,-15.137,0.000,0
36932.035,-24.414,-21.484,-17.090,-8.301,0.000,0
36932.039,-27.344,-21.484,-22.949,-14.648,0.000,0
36932.043,-31.250,-26.367,-18.555,-33.203,0.000,0
36932.047,-23.438,-24.902,-15.137,-32.227,0.000,0
36932.051,-23.438,-26.855,-22.461,-27.344,0.000,0
36932.055,-28.809,-29.297,-20.508,-33.203,0.000,0
36932.059,-38.086,-28.320,-17.090,-33.203,0.000,0
36932.062,-35.156,-27.344,-9.277,-41.992,0.000,0
36932.066,-26.855,-21.973,-10.254,-36.133,0.000,0
36932.070,-35.645,-25.391,-21.484,-20.020,0.000,0
36932.074,-29.297,-30.273,-31.738,-12.207,0.000,0
36932.078,-25.879,-30.762,-21.973,-15.137,0.000,0
36932.082,-33.203,-26.855,-12.695,-29.297,0.000,0
36932.086,-30.273,-23.926,-28.809,-20.996,0.000,0
36932.090,-30.762,-24.414,-32.715,-25.879,0.000,0
36932.094,-40.039,-23.926,-28.809,-36.133,0.000,0
36932.098,-37.598,-22.461,-29.785,-26.367,0.000,0
36932.101,-29.785,-29.297,-28.320,-28.320,0.000,0
36932.105,-29.297,-30.762,-34.180,-23.438,0.000,0
36932.109,-26.367,-24.414,-33.203,-16.113,0.000,0
36932.113,-30.273,-30.273,-32.227,-30.273,0.000,0
36932.117,-34.668,-32.227,-30.273,-32.227,0.000,0
36932.121,-32.715,-32.227,-20.020,-31.738,0.000,0
36932.125,-33.691,-30.273,-20.020,-32.227,0.000,0
36932.129,-40.527,-38.574,-39.062,-44.922,0.000,0
36932.133,-36.133,-43.945,-43.945,-37.598,0.000,0
36932.137,-25.391,-34.180,-37.109,-23.438,0.000,0
36932.141,-29.785,-33.691,-28.809,-35.156,0.000,0
36932.144,-25.391,-31.250,-25.391,-27.832,0.000,0
36932.148,-21.484,-22.461,-25.391,-2.441,0.000,0
36932.152,-29.785,-21.973,-23.438,-1.953,0.000,0
36932.156,-27.344,-24.414,-20.996,6.836,0.000,0
36932.160,-24.414,-25.391,-18.066,-5.859,0.000,0
36932.164,-28.809,-20.508,-16.113,-30.762,0.000,0
36932.168,-28.320,-19.043,-22.949,-28.320,0.000,0
36932.172,-17.578,-23.438,-25.879,-23.926,0.000,0
36932.176,-20.996,-20.020,-22.461,-28.809,0.000,0
36932.180,-29.785,-15.625,-14.160,-30.273,0.000,0
36932.184,-31.250,-18.555,-17.090,-20.996,0.000,0
36932.187,-26.367,-20.508,-29.785,-21.484,0.000,0
36932.191,-20.508,-20.996,-25.879,-28.320,0.000,0
36932.195,-19.043,-16.602,-18.066,-29.297,0.000,0
36932.199,-17.578,-14.648,-6.836,-16.113,0.000,0
36932.203,-16.113,-21.484,-13.184,-20.508,0.000,0
36932.207,-17.090,-24.902,-24.414,-33.203,0.000,0
36932.211,-27.832,-24.414,-15.625,-12.695,0.000,0
36932.215,-29.785,-26.855,-14.160,-3.418,0.000,0
36932.219,-23.438,-28.320,-24.902,-23.926,0.000,0
36932.223,-14.160,-22.949,-19.043,-32.715,0.000,0
36932.226,-14.648,-17.090,-20.996,-20.996,0.000,0
36932.230,-15.625,-20.996,-27.832,-23.438,0.000,0
36932.234,-11.719,-20.508,-20.020,-23.926,0.000,0
36932.238,-14.160,-19.531,-15.137,-14.648,0.000,0
36932.242,-23.438,-22.461,-21.973,-22.949,0.000,0
36932.246,-16.602,-23.926,-31.738,-34.180,0.000,0
36932.250,-18.555,-27.832,-33.203,-27.344,0.000,0
36932.254,-32.715,-31.738,-39.062,-16.602,0.000,0
36932.258,-25.879,-27.344,-32.227,-1.465,0.000,0
36932.262,-24.414,-19.043,-26.855,-3.418,0.000,0
36932.266,-23.926,-23.926,-32.227,-31.250,0.000,0
36932.269,-20.996,-31.738,-30.273,-33.203,0.000,0
36932.273,-23.438,-26.367,-24.902,-17.578,0.000,0
36932.277,-20.020,-25.391,-20.996,-19.043,0.000,0
36932.281,-20.020,-28.809,-17.578,-23.438,0.000,0
36932.285,-29.785,-29.785,-21.973,-30.762,0.000,0
36932.289,-28.809,-32.227,-22.461,-22.949,0.000,0
36932.293,-19.043,-33.203,-27.344,-22.949,0.000,0
36932.297,-21.973,-31.738,-27.344,-29.297,0.000,0
36932.301,-27.344,-30.762,-16.602,-25.391,0.000,0
36932.305,-23.926,-29.785,-20.996,-28.809,0.000,0
36932.309,-19.043,-20.020,-19.043,-16.113,0.000,0
36932.312,-25.391,-25.391,-26.855,-13.184,0.000,0
36932.316,-27.832,-32.227,-29.297,-26.367,0.000,0
36932.320,-22.461,-19.531,-6.836,-28.809,0.000,0
36932.324,-20.508,-19.043,-13.672,-34.180,0.000,0
36932.328,-27.344,-22.949,-23.926,-12.695,0.000,0
36932.332,-29.785,-25.391,-20.996,-5.371,0.000,0
36932.336,-24.414,-26.855,-17.090,-21.484,0.000,0
36932.340,-30.762,-20.020,-17.578,-31.250,0.000,0
36932.344,-24.902,-14.160,-18.555,-32.715,0.000,0
36932.348,-9.766,-13.672,-11.719,-20.508,0.000,0
36932.351,-19.531,-17.578,-19.043,-12.207,0.000,0
36932.355,-27.832,-23.438,-35.645,-26.855,0.000,0
36932.359,-20.508,-19.531,-23.926,-36.621,0.000,0
36932.363,-8.789,-4.883,-7.812,-10.254,0.000,0
36932.367,-4.395,-9.766,-15.137,1.465,0.000,0
36932.371,-13.672,-22.949,-28.320,-13.184,0.000,0
36932.375,-17.090,-23.926,-23.438,-12.207,0.000,0
36932.379,-13.184,-17.578,-13.184,-21.973,0.000,0
36932.383,-17.090,-22.461,-23.926,-27.832,0.000,0
36932.387,-14.160,-27.344,-23.438,-23.438,0.000,0
36932.391,-19.043,-20.508,-18.555,-19.043,0.000,0
36932.394,-23.926,-20.508,-21.484,-15.625,0.000,0
36932.398,-27.344,-22.949,-20.020,-30.273,0.000,0
36932.402,-24.902,-22.461,-28.809,-36.621,0.000,0
36932.406,-17.090,-18.066,-17.090,-21.484,0.000,0
36932.410,-15.625,-19.043,-12.207,-14.648,0.000,0
36932.414,-14.648,-27.344,-21.973,-31.250,0.000,0
36932.418,-15.625,-18.555,-14.648,-37.109,0.000,0
36932.422,-18.555,-13.672,-17.090,-27.832,0.000,0
36932.426,-14.648,-18.555,-14.160,-23.926,0.000,0
36932.430,-26.367,-21.484,-25.879,-26.367,0.000,0
36932.434,-28.809,-24.414,-22.461,-32.227,0.000,0
36932.437,-17.578,-21.484,-12.207,-19.043,0.000,0
36932.441,-29.785,-20.996,-23.438,-16.602,0.000,0
36932.445,-28.320,-20.996,-15.137,-22.949,0.000,0
36932.449,-22.461,-14.160,-7.812,-12.207,0.000,0
36932.453,-19.043,-12.695,-10.254,-16.602,0.000,0
36932.457,-16.113,-22.949,-20.996,-30.762,0.000,0
36932.461,-21.973,-23.926,-26.855,-19.043,0.000,0
36932.465,-24.414,-17.578,-20.508,-18.555,0.000,0
36932.469,-23.438,-23.438,-21.973,-26.367,0.000,0
36932.473,-20.996,-23.926,-19.531,-18.555,0.000,0
36932.476,-21.484,-15.625,-12.207,-21.973,0.000,0
36932.480,-17.090,-20.020,-22.461,-18.066,0.000,0
36932.484,-17.578,-22.949,-28.809,-20.020,0.000,0
36932.488,-28.320,-18.555,-26.367,-24.902,0.000,0
36932.492,-34.180,-21.484,-24.902,-20.508,0.000,0
36932.496,-34.180,-20.508,-19.043,-18.066,0.000,0
36932.500,-22.461,-19.531,-18.555,0.000,0.000,0
36932.504,-17.578,-22.461,-26.367,1.953,0.000,0
36932.508,-21.973,-14.648,-19.043,-22.461,0.000,0
36932.512,-17.578,-16.602,-9.766,-20.996,0.000,0
36932.516,-19.531,-25.391,-15.625,-17.090,0.000,0
36932.519,-22.949,-32.715,-30.273,-26.855,0.000,0
36932.523,-24.902,-29.785,-27.344,-31.738,0.000,0
36932.527,-25.879,-21.484,-18.066,-14.648,0.000,0
36932.531,-14.160,-20.996,-23.438,-3.906,0.000,0
36932.535,-20.508,-20.508,-24.414,-16.602,0.000,0
36932.539,-30.762,-19.043,-23.438,-17.090,0.000,0
36932.543,-29.785,-24.414,-30.762,-22.949,0.000,0
36932.547,-23.438,-30.273,-32.227,-23.926,0.000,0
36932.551,-15.137,-31.250,-28.320,-19.531,0.000,0
36932.555,-22.461,-30.273,-25.391,-26.855,0.000,0
36932.559,-31.250,-23.438,-20.020,-30.273,0.000,0
36932.562,-25.879,-22.949,-17.578,-29.297,0.000,0
36932.566,-18.066,-21.484,-18.066,-20.508,0.000,0
36932.570,-21.484,-18.066,-16.602,-21.484,0.000,0
36932.574,-25.391,-17.090,-18.066,-25.879,0.000,0
36932.578,-24.414,-16.602,-27.832,-28.809,0.000,0
36932.582,-30.762,-21.973,-31.738,-22.461,0.000,0
36932.586,-27.344,-24.902,-25.879,-20.020,0.000,0
36932.590,-20.996,-27.344,-26.367,-25.879,0.000,0
36932.594,-27.344,-30.762,-32.715,-23.926,0.000,0
36932.598,-32.715,-24.414,-29.297,-15.625,0.000,0
36932.601,-33.203,-28.320,-26.367,-13.672,0.000,0
36932.605,-31.738,-33.691,-29.785,-23.926,0.000,0
36932.609,-28.809,-29.785,-34.180,-28.320,0.000,0
36932.613,-34.668,-34.180,-31.250,-26.367,0.000,0
36932.617,-37.109,-32.715,-28.809,-34.668,0.000,0
36932.621,-33.203,-31.738,-36.133,-31.738,0.000,0
36932.625,-32.227,-25.879,-32.715,-19.043,0.000,0
36932.629,-20.996,-16.602,-20.020,-21.484,0.000,0
36932.633,-20.020,-17.578,-19.043,-17.578,0.000,0
36932.637,-29.297,-18.555,-20.508,-14.160,0.000,0
36932.641,-30.762,-22.949,-30.273,-17.090,0.000,0
36932.644,-26.367,-24.902,-27.832,-19.531,0.000,0
36932.648,-27.344,-20.996,-15.137,-13.184,0.000,0
36932.652,-35.156,-23.926,-24.414,-32.715,0.000,0
36932.656,-35.645,-20.020,-29.297,-36.133,0.000,0
36932.660,-39.551,-16.602,-29.297,-28.809,0.000,0
36932.664,-39.062,-15.137,-25.391,-28.809,0.000,0
36932.668,-26.855,-13.184,-22.461,-9.277,0.000,0
36932.672,-26.855,-21.973,-23.926,-12.695,0.000,0
36932.676,-30.273,-25.879,-26.367,-23.926,0.000,2
36932.680,-24.902,-24.902,-29.785,-19.531,0.000,0
36932.684,-24.414,-26.367,-31.250,-25.391,0.000,0
36932.687,-27.832,-27.832,-37.598,-26.855,0.000,0
36932.691,-19.531,-22.949,-22.461,-23.438,0.000,0
36932.695,-25.879,-20.020,-19.531,-32.715,0.000,0
36932.699,-29.297,-28.320,-30.762,-27.344,0.000,0
36932.703,-13.672,-23.926,-20.020,-21.484,0.000,0
36932.707,-13.672,-15.137,-19.043,-21.484,0.000,0
36932.711,-17.090,-19.531,-17.578,-26.367,0.000,0
36932.715,-17.578,-18.066,-11.719,-28.320,0.000,0
36932.719,-22.949,-18.066,-26.367,-22.461,0.000,0
36932.723,-25.391,-25.391,-31.738,-26.855,0.000,0
36932.726,-24.902,-31.738,-28.320,-25.879,0.000,0
36932.730,-32.227,-29.297,-31.250,-36.133,0.000,0
36932.734,-37.109,-25.879,-30.762,-50.293,0.000,0
36932.738,-34.180,-24.414,-29.785,-39.551,0.000,0
36932.742,-28.809,-25.879,-28.809,-28.320,0.000,0
36932.746,-20.020,-28.809,-28.809,-17.578,0.000,0
36932.750,-19.043,-26.367,-13.672,-20.508,0.000,0
36932.754,-34.668,-22.949,-12.207,-28.320,0.000,0
36932.758,-38.086,-24.414,-22.949,-17.090,0.000,0
36932.762,-33.691,-24.902,-19.043,-21.484,0.000,0
36932.766,-43.945,-18.555,-16.602,-20.996,0.000,0
36932.769,-35.156,-12.695,-12.207,-13.672,0.000,0
36932.773,-19.043,-20.020,-10.254,-25.391,0.000,0
36932.777,-21.973,-21.973,-17.578,-19.531,0.000,0
36932.781,-20.996,-17.578,-15.625,-4.395,0.000,0
36932.785,-18.066,-17.578,-14.648,-3.418,0.000,0
36932.789,-12.695,-19.043,-20.020,-20.508,0.000,0
36932.793,-9.766,-19.531,-14.648,-36.621,0.000,0
36932.797,-14.648,-15.137,-17.090,-36.133,0.000,0
36932.801,-14.160,-15.625,-12.695,-30.273,0.000,0
36932.805,-24.414,-18.066,-18.555,-27.344,0.000,0
36932.809,-31.738,-23.926,-29.297,-27.832,0.000,0
36932.812,-24.414,-24.414,-23.438,-31.738,0.000,0
36932.816,-26.367,-13.672,-18.066,-26.367,0.000,0
36932.820,-25.879,-14.648,-20.508,-22.461,0.000,0
36932.824,-29.297,-20.508,-29.785,-23.438,0.000,0
36932.828,-29.785,-20.996,-20.020,-18.555,0.000,0
36932.832,-32.227,-21.973,-24.414,-28.809,0.000,0
36932.836,-34.668,-29.785,-40.527,-51.270,0.000,0
36932.840,-30.762,-29.785,-31.738,-41.504,0.000,0
36932.844,-31.738,-26.367,-33.691,-26.855,0.000,0
36932.848,-25.391,-30.273,-34.180,-34.180,0.000,0
36932.851,-16.602,-31.250,-24.414,-27.832,0.000,0
36932.855,-20.996,-25.391,-23.438,-10.254,0.000,0
36932.859,-20.508,-19.531,-25.879,-5.859,0.000,0
36932.863,-22.949,-22.461,-30.273,-1.465,0.000,0
36932.867,-29.785,-29.297,-35.645,-16.113,0.000,0
36932.871,-31.250,-27.344,-27.344,-31.738,0.000,0
36932.875,-33.203,-21.973,-23.438,-30.273,0.000,0
36932.879,-32.715,-23.926,-31.250,-28.320,0.000,0
36932.883,-29.785,-22.461,-30.273,-21.973,0.000,0
36932.887,-29.297,-28.320,-35.645,-23.438,0.000,0
36932.891,-31.738,-37.598,-34.180,-22.949,0.000,0
36932.894,-25.879,-32.715,-28.809,-15.625,0.000,0
36932.898,-28.809,-25.879,-37.598,-27.832,0.000,0
36932.902,-26.367,-26.855,-28.809,-37.598,0.000,0
36932.906,-19.531,-22.949,-20.020,-27.344,0.000,0
36932.910,-24.414,-20.996,-24.414,-35.645,0.000,0
36932.914,-30.762,-23.926,-20.996,-41.504,0.000,0
36932.918,-36.621,-27.832,-22.949,-19.531,0.000,0
36932.922,-34.668,-30.273,-38.574,-15.625,0.000,0
36932.926,-21.484,-30.273,-38.574,-20.996,0.000,0
36932.930,-20.996,-31.250,-25.879,-25.391,0.000,0
36932.934,-26.855,-24.414,-26.367,-17.578,0.000,0
36932.937,-27.344,-24.414,-30.762,-19.531,0.000,0
36932.941,-25.879,-27.344,-26.855,-28.809,0.000,0
36932.945,-21.973,-23.438,-29.297,-16.602,0.000,0
36932.949,-25.879,-32.227,-33.203,-22.949,0.000,0
36932.953,-36.621,-36.621,-31.738,-33.203,0.000,0
36932.957,-28.320,-28.320,-30.273,-23.926,0.000,0
36932.961,-20.020,-23.926,-21.973,-10.742,0.000,0
36932.965,-21.484,-22.949,-19.043,-11.230,0.000,0
36932.969,-17.578,-22.949,-21.973,-28.320,0.000,0
36932.973,-19.043,-23.926,-27.344,-32.715,0.000,0
36932.976,-26.367,-29.297,-30.762,-26.367,0.000,0
36932.980,-25.879,-26.855,-25.391,-32.227,0.000,0
36932.984,-19.531,-30.762,-26.855,-32.715,0.000,0
36932.988,-24.902,-31.250,-25.879,-34.668,0.000,0
36932.992,-26.855,-23.926,-21.484,-32.715,0.000,0
36932.996,-21.484,-22.461,-26.855,-22.949,0.000,0
36933.000,-21.973,-18.066,-27.832,-21.484,0.000,0
36933.004,-27.344,-19.043,-25.879,-23.438,0.000,0
36933.008,-32.227,-23.926,-28.320,-24.902,0.000,0
36933.012,-30.273,-27.344,-28.320,-27.344,0.000,0
36933.016,-27.344,-23.438,-26.855,-20.996,0.000,0
36933.019,-33.203,-18.555,-15.137,-22.461,0.000,0
36933.023,-39.062,-20.020,-17.090,-17.578,0.000,0
36933.027,-38.574,-22.461,-26.855,-19.043,0.000,0
36933.031,-36.621,-23.926,-24.902,-20.508,0.000,0
36933.035,-37.109,-21.484,-30.762,-11.230,0.000,0
36933.039,-33.203,-18.555,-24.414,-14.648,0.000,0
36933.043,-25.879,-23.438,-23.926,-25.879,0.000,0
36933.047,-30.273,-25.879,-27.344,-37.109,0.000,0
36933.051,-42.480,-28.809,-22.949,-46.387,0.000,0
36933.055,-38.574,-24.902,-26.367,-18.555,0.000,0
36933.059,-26.855,-20.996,-28.320,-8.789,0.000,0
36933.062,-23.926,-24.902,-29.785,-24.902,0.000,0
36933.066,-35.645,-28.809,-14.160,-29.297,0.000,0
36933.070,-35.645,-27.344,-20.508,-15.625,0.000,0
36933.074,-34.180,-26.855,-40.527,-20.508,0.000,0
36933.078,-37.109,-29.297,-37.598,-30.762,0.000,0
36933.082,-32.227,-23.926,-26.367,-28.809,0.000,0
36933.086,-26.367,-25.879,-24.414,-22.461,0.000,0
36933.090,-25.879,-30.762,-30.273,-24.414,0.000,0
36933.094,-31.250,-26.367,-28.320,-24.902,0.000,0
36933.098,-38.574,-33.203,-32.227,-20.508,0.000,0
36933.101,-33.203,-29.297,-28.809,-17.578,0.000,0
36933.105,-16.602,-15.625,-15.625,-18.066,0.000,0
36933.109,-18.555,-14.160,-20.996,-17.090,0.000,0
36933.113,-26.367,-17.578,-24.414,-20.508,0.000,0
36933.117,-20.020,-19.043,-21.973,-27.832,0.000,0
36933.121,-22.949,-18.555,-23.926,-31.738,0.000,0
36933.125,-27.344,-24.414,-18.066,-36.133,0.000,0
36933.129,-28.809,-28.320,-19.531,-20.508,0.000,0
36933.133,-35.645,-30.762,-35.645,-20.020,0.000,0
36933.137,-29.785,-31.250,-36.133,-20.508,0.000,0
36933.141,-15.137,-25.879,-20.996,-9.766,0.000,0
36933.144,-13.672,-24.902,-16.602,-11.719,0.000,0
36933.148,-16.113,-22.949,-20.996,-3.906,0.000,0
36933.152,-18.066,-21.484,-23.926,0.000,0.000,0
36933.156,-26.855,-25.391,-25.391,-17.090,0.000,0
36933.160,-21.973,-29.297,-36.133,-18.066,0.000,0
36933.164,-10.254,-22.461,-20.020,-9.766,0.000,0
36933.168,-11.719,-14.648,-10.254,-7.324,0.000,0
36933.172,-21.973,-20.020,-21.484,0.000,0.000,0
36933.176,-31.250,-24.414,-21.484,-22.461,0.000,0
36933.180,-34.668,-21.973,-25.879,-43.457,0.000,0
36933.184,-32.715,-23.926,-24.414,-37.598,0.000,0
36933.187,-31.250,-25.879,-20.020,-25.879,0.000,0
36933.191,-32.227,-18.555,-25.879,-19.531,0.000,0
36933.195,-33.203,-19.531,-29.297,-14.648,0.000,0
36933.199,-27.344,-23.438,-28.320,-12.207,0.000,0
36933.203,-25.879,-23.438,-22.949,-15.625,0.000,0
36933.207,-22.949,-25.391,-25.879,-22.949,0.000,0
36933.211,-17.090,-20.508,-29.785,-17.090,0.000,0
36933.215,-20.508,-20.508,-23.926,-18.066,0.000,0
36933.219,-20.508,-24.902,-25.879,-31.250,0.000,0
36933.223,-19.043,-24.414,-23.438,-27.832,0.000,0
36933.226,-14.648,-22.461,-16.602,-16.113,0.000,0
36933.230,-22.461,-29.785,-20.996,-25.391,0.000,0
36933.234,-28.320,-34.668,-24.902,-27.344,0.000,0
36933.238,-22.949,-30.273,-25.879,-22.949,0.000,0
36933.242,-20.020,-29.297,-21.484,-16.113,0.000,0
36933.246,-26.367,-29.785,-20.020,-13.672,0.000,0
36933.250,-26.367,-27.832,-22.461,-17.090,0.000,0
36933.254,-25.879,-25.879,-24.902,-27.344,0.000,0
36933.258,-25.879,-24.902,-29.785,-24.414,0.000,0
36933.262,-15.625,-27.832,-16.602,-20.996,0.000,0
36933.266,-18.066,-31.250,-17.578,-35.156,0.000,0
36933.269,-21.484,-35.156,-24.414,-27.344,0.000,0
36933.273,-18.066,-31.738,-21.973,-22.949,0.000,0
36933.277,-21.973,-27.832,-26.855,-32.715,0.000,0
36933.281,-25.391,-31.250,-22.461,-32.715,0.000,0
36933.285,-24.902,-24.414,-18.555,-28.809,0.000,0
36933.289,-38.086,-22.461,-22.949,-22.949,0.000,0
36933.293,-43.457,-27.832,-27.832,-27.832,0.000,0
36933.297,-38.086,-30.273,-34.668,-32.715,0.000,0
36933.301,-31.738,-26.855,-27.344,-30.273,0.000,0
36933.305,-22.461,-23.438,-20.020,-29.297,0.000,0
36933.309,-22.461,-20.508,-27.832,-42.480,0.000,0
36933.312,-19.531,-22.949,-25.879,-36.621,0.000,0
36933.316,-13.672,-24.414,-23.438,-23.926,0.000,0
36933.320,-16.602,-23.438,-19.531,-23.438,0.000,0
36933.324,-20.020,-20.020,-16.113,-20.996,0.000,0
36933.328,-21.973,-20.996,-19.531,-19.043,0.000,0
36933.332,-24.902,-19.043,-14.648,-21.484,0.000,0
36933.336,-20.020,-13.184,-15.137,-13.672,0.000,0
36933.340,-15.137,-19.043,-27.344,-16.602,0.000,0
36933.344,-16.113,-19.043,-20.996,-29.785,0.000,0
36933.348,-18.066,-15.137,-12.695,-23.438,0.000,0
36933.351,-18.555,-21.484,-11.230,-13.184,0.000,0
36933.355,-19.043,-22.461,-18.066,-10.742,0.000,0
36933.359,-15.625,-20.508,-22.461,-16.113,0.000,0
36933.363,-11.230,-25.391,-18.555,-26.367,0.000,0
36933.367,-12.207,-21.973,-22.461,-26.367,0.000,0
36933.371,-26.367,-20.020,-29.297,-30.273,0.000,2
36933.375,-22.949,-16.113,-29.297,-20.020,0.000,0
36933.379,-8.789,-16.602,-21.973,-10.742,0.000,0
36933.383,-22.949,-26.367,-13.184,-19.043,0.000,0
36933.387,-28.320,-20.996,-19.531,-11.719,0.000,0
36933.391,-19.531,-18.555,-29.297,-10.254,0.000,0
36933.394,-6.836,-17.090,-13.672,-14.160,0.000,0
36933.398,-11.230,-18.555,-8.301,-28.809,0.000,0
36933.402,-20.508,-22.461,-14.160,-40.039,0.000,0
36933.406,-13.672,-18.066,-16.602,-19.531,0.000,0
36933.410,-18.555,-18.555,-15.625,-16.602,0.000,0
36933.414,-33.691,-20.020,-24.414,-25.879,0.000,0
36933.418,-26.855,-16.602,-24.902,-27.344,0.000,0
36933.422,-28.320,-18.555,-13.184,-37.598,0.000,0
36933.426,-30.273,-20.020,-25.879,-28.809,0.000,0
36933.430,-22.949,-19.043,-30.273,-17.578,0.000,0
36933.434,-27.344,-23.926,-31.250,-25.391,0.000,0
36933.437,-25.391,-17.578,-24.414,-22.461,0.000,0
36933.441,-21.484,-14.648,-5.371,-14.648,0.000,0
36933.445,-20.996,-17.090,-16.113,-20.996,0.000,0
36933.449,-26.367,-15.137,-23.926,-23.438,0.000,0
36933.453,-20.508,-15.137,-21.973,-13.672,0.000,0
36933.457,-16.113,-15.625,-28.320,-14.160,0.000,0
36933.461,-23.926,-18.555,-33.203,-24.414,0.000,0
36933.465,-23.438,-23.438,-38.086,-24.414,0.000,0
36933.469,-26.367,-25.391,-38.086,-18.555,0.000,0
36933.473,-29.297,-19.531,-26.367,-26.367,0.000,0
36933.476,-21.484,-17.578,-22.461,-24.414,0.000,0
36933.480,-20.020,-20.508,-19.531,-21.484,0.000,0
36933.484,-20.508,-20.996,-12.207,-28.809,0.000,0
36933.488,-18.066,-20.996,-16.113,-27.832,0.000,0
36933.492,-25.391,-21.973,-26.855,-20.508,0.000,0
36933.496,-27.832,-26.855,-24.414,-19.531,0.000,0
36933.500,-24.414,-25.391,-16.113,-23.926,0.000,0
36933.504,-18.555,-23.438,-18.555,-32.227,0.000,0
36933.508,-13.184,-19.531,-17.578,-30.273,0.000,0
36933.512,-9.766,-22.949,-16.113,-16.602,0.000,0
36933.516,-17.090,-27.832,-19.531,-9.766,0.000,0
36933.519,-22.949,-25.391,-15.137,-23.926,0.000,0
36933.523,-25.391,-24.414,-13.184,-23.438,0.000,0
36933.527,-26.855,-26.367,-19.043,-16.602,0.000,0
36933.531,-33.203,-24.414,-13.672,-24.414,0.000,0
36933.535,-29.297,-23.926,-16.602,-18.066,0.000,0
36933.539,-23.438,-23.438,-16.602,-14.160,0.000,0
36933.543,-33.691,-24.414,-22.949,-20.508,0.000,0
36933.547,-28.809,-26.855,-28.320,-18.066,0.000,0
36933.551,-21.973,-26.855,-24.414,-19.531,0.000,0
36933.555,-26.367,-29.297,-24.414,-23.926,0.000,0
36933.559,-20.996,-29.785,-22.461,-23.926,0.000,0
36933.562,-24.414,-25.879,-34.180,-23.926,0.000,0
36933.566,-26.367,-23.926,-37.109,-22.461,0.000,0
36933.570,-20.508,-16.113,-20.996,-20.996,0.000,0
36933.574,-20.996,-19.531,-21.973,-13.672,0.000,0
36933.578,-26.367,-28.320,-26.367,-20.020,0.000,0
36933.582,-22.949,-36.621,-27.832,-31.738,0.000,0
36933.586,-29.297,-38.086,-29.785,-39.551,0.000,0
36933.590,-26.367,-27.344,-19.043,-33.691,0.000,0
36933.594,-12.207,-21.973,-23.926,-21.484,0.000,0
36933.598,-12.207,-23.926,-23.926,-22.949,0.000,0
36933.601,-23.438,-26.855,-17.090,-27.344,0.000,0
36933.605,-25.879,-28.809,-28.320,-34.180,0.000,0
36933.609,-25.879,-33.691,-29.297,-31.250,0.000,0
36933.613,-31.250,-39.551,-29.297,-27.344,0.000,0
36933.617,-28.809,-31.250,-20.508,-33.203,0.000,0
36933.621,-25.879,-27.832,-10.742,-18.555,0.000,0
36933.625,-25.391,-29.785,-24.902,-11.719,0.000,0
36933.629,-29.297,-35.156,-30.762,-15.625,0.000,0
36933.633,-25.391,-33.691,-22.949,-20.508,0.000,0
36933.637,-21.484,-31.738,-20.508,-28.809,0.000,0
36933.641,-20.020,-32.227,-19.043,-23.926,0.000,0
36933.644,-21.484,-27.344,-25.879,-23.438,0.000,0
36933.648,-20.996,-26.367,-26.367,-30.762,0.000,0
36933.652,-20.508,-21.973,-18.066,-24.414,0.000,0
36933.656,-29.785,-27.832,-20.996,-27.344,0.000,0
36933.660,-36.133,-32.715,-26.367,-27.344,0.000,0
36933.664,-27.832,-21.973,-27.344,-7.324,0.000,0
36933.668,-21.973,-29.785,-30.762,4.883,0.000,0
36933.672,-30.273,-40.039,-38.574,-4.395,0.000,0
36933.676,-27.832,-32.715,-20.996,-20.996,0.000,0
36933.680,-19.531,-24.902,-4.883,-18.066,0.000,0
36933.684,-22.949,-24.902,-20.508,-33.203,0.000,0
36933.687,-20.508,-22.949,-23.438,-37.598,0.000,0
36933.691,-16.113,-20.020,-18.066,-19.043,0.000,0
36933.695,-20.020,-25.879,-14.648,-18.555,0.000,0
36933.699,-18.066,-26.855,-14.648,-20.508,0.000,0
36933.703,-5.859,-23.438,-18.066,-3.418,0.000,0
36933.707,0.488,-18.066,-14.648,2.930,0.000,0
36933.711,-5.859,-15.137,-14.648,-8.789,0.000,0
36933.715,-4.395,-17.578,-12.695,-10.254,0.000,0
36933.719,6.836,-15.625,-11.230,2.441,0.000,0
36933.723,-5.371,-12.207,-8.301,-0.977,0.000,0
36933.726,-31.250,-10.254,-11.719,-21.973,0.000,0
36933.730,-30.273,-4.883,-18.066,-15.137,0.000,0
36933.734,-21.973,-9.277,-11.719,-18.066,0.000,0
36933.738,-22.949,-11.719,-5.859,-24.414,0.000,0
36933.742,-22.949,-7.324,-9.277,-16.602,0.000,0
36933.746,-20.020,-10.254,-11.230,-15.137,0.000,0
36933.750,-18.066,-9.766,-5.371,-4.395,0.000,0
36933.754,-16.113,-11.230,-5.371,-10.742,0.000,0
36933.758,-20.020,-12.695,-15.137,-31.738,0.000,0
36933.762,-22.461,-13.184,-17.090,-28.809,0.000,0
36933.766,-20.508,-9.766,-16.113,-3.906,0.000,0
36933.769,-16.113,-6.836,-14.648,0.977,0.000,0
36933.773,-14.648,-12.207,-10.254,-6.348,0.000,0
36933.777,-22.949,-12.207,-11.719,-7.324,0.000,0
36933.781,-20.508,-20.020,-18.066,-10.254,0.000,0
36933.785,-14.160,-23.926,-20.508,-5.859,0.000,0
36933.789,-19.043,-18.555,-22.461,-1.465,0.000,0
36933.793,-21.484,-20.020,-20.020,-13.672,0.000,0
36933.797,-16.113,-18.066,-15.625,-27.832,0.000,0
36933.801,-8.789,-10.742,-16.113,-15.625,0.000,0
36933.805,-10.254,-10.742,-19.043,-12.695,0.000,0
36933.809,-17.090,-14.160,-19.531,-14.648,0.000,0
36933.812,-19.531,-18.555,-6.348,-16.113,0.000,0
36933.816,-22.461,-16.113,-13.184,-28.809,0.000,0
36933.820,-21.484,-19.531,-30.273,-27.344,0.000,0
36933.824,-23.438,-26.367,-27.344,-29.785,0.000,0
36933.828,-25.391,-24.414,-22.461,-6.836,0.000,0
36933.832,-21.484,-20.508,-17.578,3.906,0.000,0
36933.836,-25.879,-16.113,-14.160,-12.207,0.000,0
36933.840,-28.809,-16.113,-17.090,-10.742,0.000,0
36933.844,-24.414,-19.043,-19.531,-10.742,0.000,0
36933.848,-15.137,-22.461,-16.602,-7.812,0.000,0
36933.851,-20.996,-19.531,-13.184,-14.648,0.000,0
36933.855,-25.391,-16.113,-15.625,-15.137,0.000,0
36933.859,-22.949,-21.973,-18.555,-16.602,0.000,0
36933.863,-20.020,-31.250,-14.648,-34.668,0.000,0
36933.867,-23.926,-30.273,-21.973,-26.855,0.000,0
36933.871,-30.273,-25.391,-19.531,-12.207,0.000,0
36933.875,-25.391,-25.391,-12.207,-7.324,0.000,0
36933.879,-17.090,-21.973,-20.508,-7.812,0.000,0
36933.883,-23.438,-24.902,-24.414,-16.602,0.000,0
36933.887,-33.691,-28.320,-18.555,-22.461,0.000,0
36933.891,-28.320,-29.785,-15.625,-23.438,0.000,0
36933.894,-25.879,-28.809,-19.531,-25.391,0.000,0
36933.898,-34.668,-25.391,-21.484,-21.973,0.000,0
36933.902,-41.016,-31.738,-25.391,-8.301,0.000,0
36933.906,-36.133,-29.297,-32.227,-21.484,0.000,0
36933.910,-21.484,-23.438,-27.344,-26.367,0.000,0
36933.914,-24.414,-23.438,-23.926,-17.090,0.000,0
36933.918,-27.344,-20.508,-23.438,-8.789,0.000,0
36933.922,-25.391,-27.344,-22.461,-16.602,0.000,0
36933.926,-27.344,-27.832,-18.555,-28.320,0.000,0
36933.930,-33.203,-30.273,-15.137,-25.879,0.000,0
36933.934,-40.527,-25.879,-18.066,-40.527,0.000,0
36933.937,-30.762,-24.414,-22.949,-40.039,0.000,0
36933.941,-25.391,-27.832,-19.531,-29.785,0.000,0
36933.945,-18.066,-22.461,-20.508,-23.926,0.000,0
36933.949,-13.184,-24.902,-29.297,-18.555,0.000,0
36933.953,-8.301,-24.414,-24.902,-12.695,0.000,0
36933.957,-10.254,-20.996,-27.344,-15.137,0.000,0
36933.961,-14.160,-22.949,-29.785,-13.672,0.000,0
36933.965,-3.906,-22.949,-15.625,-8.301,0.000,0
36933.969,-13.184,-19.531,-16.113,-19.043,0.000,0
36933.973,-30.273,-17.090,-19.531,-34.180,0.000,0
36933.976,-35.156,-22.949,-17.578,-28.809,0.000,0
36933.980,-37.598,-28.809,-21.484,-35.645,0.000,0
36933.984,-29.297,-27.344,-24.414,-46.387,0.000,0
36933.988,-26.855,-23.926,-20.020,-33.203,0.000,0
36933.992,-21.973,-21.973,-9.766,-28.320,0.000,0
36933.996,-12.695,-20.020,-14.160,-26.855,0.000,0
36934.000,-13.672,-23.926,-21.973,-30.273,0.000,0
36934.004,-22.461,-25.391,-26.367,-23.926,0.000,0
36934.008,-26.855,-20.508,-18.555,-17.578,0.000,0
36934.012,-28.809,-28.809,-20.020,-31.738,0.000,0
36934.016,-32.227,-33.691,-27.344,-23.926,0.000,0
36934.019,-26.367,-30.762,-29.785,-15.137,0.000,0
36934.023,-23.926,-25.391,-24.414,-18.066,0.000,0
36934.027,-25.391,-21.973,-21.484,-13.672,0.000,0
36934.031,-31.250,-24.414,-20.996,-32.227,0.000,0
36934.035,-32.227,-25.391,-24.902,-30.762,0.000,0
36934.039,-22.461,-25.391,-26.855,-15.137,0.000,0
36934.043,-26.367,-32.227,-37.109,-17.578,0.000,0
36934.047,-28.809,-33.203,-32.227,-21.484,0.000,2
36934.051,-15.137,-25.879,-6.348,-28.320,0.000,0
36934.055,-13.672,-24.414,-12.207,-12.207,0.000,0
36934.059,-23.926,-29.785,-27.344,-17.090,0.000,0
36934.062,-27.832,-26.855,-24.414,-30.762,0.000,0
36934.066,-31.250,-25.879,-21.484,-33.203,0.000,0
36934.070,-35.156,-26.855,-23.438,-34.668,0.000,0
36934.074,-30.273,-23.926,-25.391,-22.461,0.000,0
36934.078,-30.273,-26.855,-27.832,-23.438,0.000,0
36934.082,-26.855,-21.484,-22.949,-16.602,0.000,0
36934.086,-32.227,-20.508,-18.066,-11.230,0.000,0
36934.090,-40.039,-26.367,-24.414,-12.207,0.000,0
36934.094,-26.855,-19.043,-21.973,-12.695,0.000,0
36934.098,-22.461,-20.996,-26.367,-21.973,0.000,0
36934.101,-25.391,-26.855,-32.715,-30.273,0.000,0
36934.105,-28.320,-26.367,-25.879,-41.992,0.000,0
36934.109,-29.297,-27.832,-22.461,-38.086,0.000,0
36934.113,-26.855,-27.344,-22.461,-31.250,0.000,0
36934.117,-26.367,-22.949,-25.879,-28.809,0.000,0
36934.121,-28.320,-26.855,-31.250,-27.344,0.000,0
36934.125,-26.367,-31.250,-24.902,-25.879,0.000,0
36934.129,-24.414,-25.879,-22.949,-23.438,0.000,0
36934.133,-24.902,-24.414,-29.785,-29.785,0.000,0
36934.137,-20.996,-19.531,-19.531,-24.902,0.000,0
36934.141,-20.508,-20.508,-17.578,-20.508,0.000,0
36934.144,-20.996,-27.344,-25.879,-26.855,0.000,0
36934.148,-23.926,-25.391,-25.391,-17.578,0.000,0
36934.152,-23.438,-27.344,-20.996,-1.953,0.000,0
36934.156,-19.043,-26.855,-21.973,-18.555,0.000,0
36934.160,-20.508,-23.438,-24.902,-30.273,0.000,0
36934.164,-22.949,-22.461,-18.066,-27.344,0.000,0
36934.168,-21.484,-22.461,-24.414,-22.949,0.000,0
36934.172,-20.508,-25.391,-31.738,-32.227,0.000,0
36934.176,-28.320,-26.855,-31.250,-37.598,0.000,0
36934.180,-33.691,-22.949,-30.273,-21.484,0.000,0
36934.184,-30.762,-22.949,-28.809,-19.531,0.000,0
36934.187,-27.832,-23.926,-31.250,-18.555,0.000,0
36934.191,-24.902,-25.391,-31.738,-11.719,0.000,0
36934.195,-20.996,-27.344,-27.344,-14.160,0.000,0
36934.199,-18.066,-22.949,-23.438,-10.742,0.000,0
36934.203,-20.996,-16.113,-19.043,-8.789,0.000,0
36934.207,-15.625,-15.625,-26.855,-27.344,0.000,0
36934.211,-17.578,-19.043,-25.391,-37.109,0.000,0
36934.215,-24.414,-16.602,-19.043,-33.691,0.000,0
36934.219,-22.949,-17.578,-23.926,-28.320,0.000,0
36934.223,-29.785,-23.438,-23.926,-25.391,0.000,0
36934.226,-36.621,-21.973,-26.855,-20.508,0.000,0
36934.230,-32.227,-20.996,-31.738,-18.555,0.000,0
36934.234,-40.039,-22.461,-35.645,-32.227,0.000,0
36934.238,-38.574,-17.578,-28.809,-20.508,0.000,0
36934.242,-23.438,-6.348,-11.719,-6.348,0.000,0
36934.246,-22.949,-8.789,-18.555,-12.695,0.000,0
36934.250,-28.320,-15.625,-28.809,-12.695,0.000,0
36934.254,-31.738,-16.602,-27.832,-11.719,0.000,0
36934.258,-27.832,-21.973,-24.902,-10.254,0.000,0
36934.262,-28.809,-22.461,-22.461,-20.996,0.000,0
36934.266,-28.320,-18.066,-19.043,-20.996,0.000,0
36934.269,-31.250,-21.484,-20.508,-15.137,0.000,0
36934.273,-30.762,-21.484,-27.832,-18.066,0.000,0
36934.277,-30.762,-20.020,-32.227,-15.625,0.000,0
36934.281,-33.203,-20.996,-29.297,-17.090,0.000,0
36934.285,-20.996,-21.484,-10.742,-7.812,0.000,0
36934.289,-11.719,-13.184,-3.906,0.977,0.000,0
36934.293,-15.625,-9.766,-19.043,-4.883,0.000,0
36934.297,-18.066,-15.137,-23.438,-10.254,0.000,0
36934.301,-17.090,-18.555,-16.113,-15.137,0.000,0
36934.305,-12.695,-17.090,-14.648,-14.648,0.000,0
36934.309,-15.625,-15.137,-25.879,-24.414,0.000,0
36934.312,-26.855,-20.996,-26.367,-19.531,0.000,0
36934.316,-20.996,-21.484,-12.695,-6.348,0.000,0
36934.320,-15.625,-14.648,-11.230,-27.832,0.000,0
36934.324,-23.438,-14.160,-23.926,-27.832,0.000,0
36934.328,-24.414,-18.555,-25.879,-1.953,0.000,0
36934.332,-20.996,-19.531,-17.090,-11.719,0.000,0
36934.336,-29.297,-18.555,-21.973,-24.902,0.000,0
36934.340,-31.738,-18.555,-20.508,-22.949,0.000,0
36934.344,-25.391,-19.043,-14.160,-25.391,0.000,0
36934.348,-18.555,-20.020,-14.648,-19.531,0.000,0
36934.351,-17.090,-16.113,-15.625,-9.277,0.000,0
36934.355,-22.949,-10.254,-14.160,-0.488,0.000,0
36934.359,-13.184,-10.254,-7.324,-2.441,0.000,0
36934.363,-13.184,-10.254,-12.695,-8.301,0.000,0
36934.367,-28.809,-17.578,-25.879,-20.508,0.000,0
36934.371,-30.762,-30.273,-31.738,-22.949,0.000,0
36934.375,-11.719,-25.391,-20.508,-1.465,0.000,0
36934.379,-10.254,-15.625,-14.648,-21.973,0.000,0
36934.383,-19.043,-18.066,-24.414,-36.621,0.000,0
36934.387,-13.184,-18.555,-24.902,-21.484,0.000,0
36934.391,-21.973,-23.926,-29.297,-12.695,0.000,0
36934.394,-31.250,-32.715,-29.785,-21.973,0.000,0
36934.398,-17.578,-29.297,-16.113,-33.691,0.000,0
36934.402,-18.555,-22.949,-18.555,-17.090,0.000,0
36934.406,-24.414,-16.602,-23.438,-9.766,0.000,0
36934.410,-23.438,-19.531,-17.578,-19.531,0.000,0
36934.414,-26.855,-23.438,-23.438,-23.438,0.000,0
36934.418,-35.156,-20.508,-19.043,-34.180,0.000,0
36934.422,-35.645,-20.508,-21.973,-40.039,0.000,0
36934.426,-29.785,-19.531,-36.133,-35.156,0.000,0
36934.430,-20.996,-13.672,-28.320,-19.531,0.000,0
36934.434,-15.137,-15.137,-16.602,-12.207,0.000,0
36934.437,-17.578,-27.344,-15.137,-19.043,0.000,0
36934.441,-21.484,-24.414,-18.066,-3.906,0.000,0
36934.445,-24.902,-20.996,-19.531,-3.906,0.000,0
36934.449,-25.391,-23.926,-21.973,-20.020,0.000,0
36934.453,-27.344,-20.020,-22.461,-22.461,0.000,0
36934.457,-25.391,-23.438,-15.137,-16.113,0.000,0
36934.461,-28.809,-24.414,-22.949,-20.020,0.000,0
36934.465,-30.762,-18.555,-22.949,-14.648,0.000,0
36934.469,-26.367,-20.996,-24.902,-12.695,0.000,0
36934.473,-31.738,-21.973,-26.855,-26.367,0.000,0
36934.476,-32.715,-20.508,-18.555,-25.879,0.000,0
36934.480,-28.320,-18.555,-18.066,-22.949,0.000,0
36934.484,-23.438,-20.020,-24.902,-28.809,0.000,0
36934.488,-26.855,-23.438,-25.879,-28.320,0.000,0
36934.492,-24.902,-17.578,-20.996,-16.602,0.000,0
36934.496,-21.484,-18.555,-19.531,-20.996,0.000,0
36934.500,-26.367,-20.508,-21.484,-23.926,0.000,0
36934.504,-24.902,-13.672,-22.949,-13.672,0.000,0
36934.508,-19.043,-14.160,-16.113,-14.648,0.000,0
36934.512,-17.090,-13.184,-12.207,-16.602,0.000,0
36934.516,-20.020,-17.090,-17.090,-22.949,0.000,0
36934.519,-29.297,-19.531,-16.602,-33.203,0.000,0
36934.523,-24.414,-19.531,-12.207,-26.367,0.000,0
36934.527,-22.461,-25.391,-14.648,-14.648,0.000,0
36934.531,-18.066,-21.484,-18.066,-4.395,0.000,0
36934.535,-16.113,-20.996,-16.602,-16.602,0.000,0
36934.539,-17.578,-22.949,-13.184,-28.320,0.000,0
36934.543,-11.230,-20.020,-17.578,-17.090,0.000,0
36934.547,-12.695,-28.809,-27.344,-22.461,0.000,0
36934.551,-11.719,-30.273,-25.879,-19.043,0.000,0
36934.555,-19.043,-27.344,-19.043,-16.113,0.000,0
36934.559,-26.367,-27.344,-18.555,-36.133,0.000,0
36934.562,-21.973,-24.902,-23.926,-44.434,0.000,0
36934.566,-22.949,-26.367,-19.531,-24.902,0.000,0
36934.570,-26.855,-21.973,-6.348,-10.254,0.000,0
36934.574,-27.832,-29.297,-17.578,-14.648,0.000,0
36934.578,-32.227,-39.551,-33.691,-20.996,0.000,0
36934.582,-34.668,-36.621,-32.227,-28.809,0.000,0
36934.586,-29.297,-30.762,-23.438,-28.809,0.000,0
36934.590,-27.344,-27.344,-20.020,-26.367,0.000,0
36934.594,-30.762,-28.320,-17.578,-26.855,0.000,0
36934.598,-29.297,-28.320,-13.672,-27.832,0.000,0
36934.601,-19.531,-27.344,-12.695,-18.555,0.000,0
36934.605,-12.207,-27.344,-22.949,-23.438,0.000,0
36934.609,-12.207,-27.832,-19.043,-21.484,0.000,0
36934.613,-17.578,-26.855,-5.371,-16.113,0.000,0
36934.617,-22.461,-26.367,-20.508,-22.949,0.000,0
36934.621,-25.879,-23.926,-26.367,-22.949,0.000,0
36934.625,-24.414,-18.555,-17.578,-19.531,0.000,0
36934.629,-23.926,-17.578,-14.160,-7.812,0.000,0
36934.633,-28.320,-23.438,-18.066,-7.812,0.000,0
36934.637,-27.832,-21.484,-21.973,-18.555,0.000,0
36934.641,-31.250,-21.484,-20.020,-16.602,0.000,0
36934.644,-29.785,-21.973,-18.066,-14.648,0.000,0
36934.648,-20.996,-18.066,-21.973,-22.949,0.000,0
36934.652,-26.855,-24.414,-26.367,-29.297,0.000,0
36934.656,-29.785,-27.344,-26.855,-34.668,0.000,0
36934.660,-25.391,-22.949,-28.320,-31.250,0.000,0
36934.664,-21.484,-25.879,-23.926,-12.695,0.000,0
36934.668,-27.344,-27.832,-23.438,-4.883,0.000,0
36934.672,-37.598,-30.762,-32.227,-27.344,0.000,0
36934.676,-26.855,-28.809,-24.902,-31.738,0.000,0
36934.680,-12.695,-26.367,-30.273,-16.113,0.000,0
36934.684,-2.930,-23.926,-28.320,-11.230,0.000,0
36934.687,-4.395,-18.066,-20.508,-10.742,0.000,0
36934.691,-16.113,-20.020,-20.508,-17.578,0.000,0
36934.695,-19.043,-22.949,-20.020,-16.113,0.000,0
36934.699,-15.625,-20.508,-22.461,-12.695,0.000,0
36934.703,-16.602,-18.555,-19.043,-18.066,0.000,0
36934.707,-14.648,-22.949,-23.926,-20.020,0.000,0
36934.711,-5.371,-20.996,-21.973,-10.254,0.000,0
36934.715,-7.812,-11.230,-18.066,-10.254,0.000,0
36934.719,-14.160,-10.742,-24.902,-18.555,0.000,0
36934.723,-10.742,-17.090,-28.809,-22.949,0.000,0
36934.726,-13.672,-21.973,-27.344,-19.531,0.000,0
36934.730,-16.602,-22.461,-11.230,-26.367,0.000,0
36934.734,-18.555,-21.973,-8.301,-33.203,0.000,0
36934.738,-19.043,-22.461,-18.555,-26.367,0.000,2
36934.742,-18.066,-26.855,-23.926,-21.973,0.000,0
36934.746,-19.531,-20.996,-23.926,-4.883,0.000,0
36934.750,-20.996,-19.531,-18.555,-7.812,0.000,0
36934.754,-20.020,-22.949,-23.926,-29.297,0.000,0
36934.758,-13.672,-19.531,-22.949,-23.438,0.000,0
36934.762,-16.602,-20.508,-22.949,-29.297,0.000,0
36934.766,-26.855,-25.879,-25.879,-34.668,0.000,0
36934.769,-25.391,-30.762,-22.461,-27.344,0.000,0
36934.773,-27.832,-26.367,-17.578,-28.809,0.000,0
36934.777,-25.879,-20.508,-15.625,-18.066,0.000,0
36934.781,-21.973,-26.855,-27.344,-13.672,0.000,0
36934.785,-22.949,-32.227,-33.691,-20.020,0.000,0
36934.789,-20.020,-25.879,-21.973,-11.230,0.000,0
36934.793,-14.160,-23.926,-9.766,-1.465,0.000,0
36934.797,-15.625,-27.344,-17.090,-7.812,0.000,0
36934.801,-24.414,-26.855,-23.438,-21.484,0.000,0
36934.805,-21.484,-20.508,-18.066,-18.066,0.000,0
36934.809,-23.438,-25.391,-26.367,-17.090,0.000,0
36934.812,-30.762,-25.391,-30.762,-31.250,0.000,0
36934.816,-22.461,-16.113,-24.414,-19.043,0.000,0
36934.820,-16.602,-21.484,-19.043,-5.859,0.000,0
36934.824,-19.043,-20.996,-17.578,-8.301,0.000,0
36934.828,-21.484,-22.461,-20.996,-21.973,0.000,0
36934.832,-23.438,-22.461,-12.695,-19.531,0.000,0
36934.836,-17.090,-13.672,-10.254,-4.883,0.000,0
36934.840,-12.207,-6.836,-12.207,-4.883,0.000,0
36934.844,-15.137,-13.184,-24.414,-2.441,0.000,0
36934.848,-12.695,-18.555,-34.180,-5.371,0.000,0
36934.851,-8.789,-4.883,-16.113,-5.859,0.000,0
36934.855,-8.301,3.906,-13.672,-0.488,0.000,0
36934.859,-12.695,1.953,-20.020,-2.441,0.000,0
36934.863,-11.230,9.766,-21.484,2.930,0.000,0
36934.867,-1.465,16.602,-20.020,11.719,0.000,0
36934.871,-0.488,17.090,-18.555,7.324,0.000,0
36934.875,-30.762,26.855,-21.973,-25.391,0.000,0
36934.879,-39.551,32.227,-21.973,-31.738,0.000,0
36934.883,-20.020,30.762,-23.926,1.953,0.000,0
36934.887,-35.645,36.621,-37.109,-8.789,0.000,0
36934.891,-33.691,38.086,-41.992,-27.344,0.000,0
36934.894,-16.113,36.621,-30.762,-5.371,0.000,0
36934.898,-29.785,41.016,-37.109,-13.184,0.000,0
36934.902,-30.762,48.828,-49.316,-28.809,0.000,0
36934.906,-24.414,48.340,-45.410,-16.602,0.000,0
36934.910,-32.227,48.828,-37.598,-18.555,0.000,0
36934.914,-32.227,46.875,-34.180,-39.062,0.000,0
36934.918,-24.414,49.805,-31.738,-42.480,0.000,0
36934.922,-24.902,49.805,-33.691,-36.621,0.000,0
36934.926,-28.320,46.875,-30.273,-23.926,0.000,0
36934.930,-22.949,45.898,-20.996,-30.273,0.000,0
36934.934,-26.367,37.109,-24.414,-41.016,0.000,0
36934.937,-24.902,28.320,-37.598,-29.785,0.000,0
36934.941,-9.766,22.949,-24.414,-9.277,0.000,0
36934.945,-13.672,16.113,-21.973,-12.207,0.000,0
36934.949,-17.578,5.371,-38.086,-38.574,0.000,0
36934.953,-28.320,0.977,-36.133,-42.480,0.000,0
36934.957,-35.645,0.977,-30.762,-28.320,0.000,0
36934.961,-23.926,-2.441,-28.809,-9.766,0.000,0
36934.965,-17.578,-3.418,-27.344,-9.277,0.000,0
36934.969,-22.461,-5.859,-20.508,-26.367,0.000,0
36934.973,-27.344,-16.602,-26.855,-39.062,0.000,0
36934.976,-24.902,-20.020,-32.715,-35.645,0.000,0
36934.980,-25.879,-25.391,-31.738,-45.410,0.000,0
36934.984,-29.297,-27.832,-26.367,-35.645,0.000,0
36934.988,-27.832,-24.902,-16.113,-12.695,0.000,0
36934.992,-27.832,-31.738,-22.949,-20.996,0.000,0
36934.996,-30.273,-31.250,-26.855,-17.578,0.000,0
36935.000,-28.809,-33.691,-21.973,-18.555,0.000,0
36935.004,-20.508,-37.598,-22.949,-21.973,0.000,0
36935.008,-17.090,-38.574,-18.066,-21.973,0.000,0
36935.012,-17.090,-36.621,-17.090,-26.367,0.000,0
36935.016,-10.742,-32.227,-19.531,-19.531,0.000,0
36935.019,-7.812,-29.297,-16.602,-13.184,0.000,0
36935.023,-16.602,-28.320,-17.090,-9.277,0.000,0
36935.027,-13.184,-33.203,-15.625,-14.648,0.000,0
36935.031,-19.531,-37.598,-13.184,-20.020,0.000,0
36935.035,-15.625,-37.109,-16.602,-13.184,0.000,0
36935.039,-2.441,-32.715,-17.090,-7.812,0.000,0
36935.043,-13.184,-33.691,-10.742,-14.160,0.000,0
36935.047,-20.996,-39.062,-13.184,-30.762,0.000,0
36935.051,-16.113,-41.992,-23.926,-23.926,0.000,0
36935.055,-12.207,-39.062,-17.578,-4.395,0.000,0
36935.059,-9.277,-37.109,-11.230,2.930,0.000,0
36935.062,-17.090,-41.504,-18.555,-6.836,0.000,0
36935.066,-27.832,-40.527,-16.113,-21.484,0.000,0
36935.070,-17.578,-34.668,-11.719,-13.672,0.000,0
36935.074,-20.508,-39.062,-18.555,-11.719,0.000,0
36935.078,-30.273,-39.551,-20.508,-14.648,0.000,0
36935.082,-23.926,-42.969,-21.973,-22.461,0.000,0
36935.086,-29.785,-45.410,-19.043,-29.785,0.000,0
36935.090,-28.320,-36.621,-15.625,-19.531,0.000,0
36935.094,-19.531,-34.668,-16.113,-14.648,0.000,0
36935.098,-23.438,-42.969,-21.973,-12.207,0.000,0
36935.101,-20.020,-35.156,-21.484,-1.953,0.000,0
36935.105,-23.926,-34.668,-14.160,-15.137,0.000,0
36935.109,-28.809,-39.062,-19.043,-28.809,0.000,0
36935.113,-20.996,-31.738,-19.531,-28.320,0.000,0
36935.117,-18.555,-29.785,-16.113,-15.625,0.000,0
36935.121,-20.020,-28.809,-13.672,-1.465,0.000,0
36935.125,-23.438,-33.691,-12.695,-26.855,0.000,0
36935.129,-20.020,-37.109,-15.137,-37.109,0.000,0
36935.133,-18.066,-29.785,-14.648,-19.043,0.000,0
36935.137,-20.508,-31.250,-19.531,-14.648,0.000,0
36935.141,-19.531,-38.574,-21.484,-20.020,0.000,0
36935.144,-18.066,-34.180,-16.602,-29.785,0.000,0
36935.148,-21.484,-35.156,-17.090,-40.039,0.000,0
36935.152,-20.508,-33.691,-20.020,-31.250,0.000,0
36935.156,-27.832,-26.367,-11.719,-23.926,0.000,0
36935.160,-23.926,-28.320,-18.066,-27.832,0.000,0
36935.164,-12.207,-28.320,-24.902,-11.230,0.000,0
36935.168,-19.531,-26.367,-19.043,-8.789,0.000,0
36935.172,-22.461,-30.273,-22.949,-7.324,0.000,0
36935.176,-20.020,-37.598,-30.273,-2.930,0.000,0
36935.180,-19.043,-37.598,-25.879,-15.137,0.000,0
