timestamps,TP9,AF7,AF8,TP10,Right AUX,Marker0
158358.227,-15.137,-7.812,-10.254,-9.277,0.000,0
158358.231,-18.555,-13.184,-11.719,-14.648,0.000,0
158358.235,-22.461,-19.043,-14.160,-12.695,0.000,0
158358.239,-20.020,-15.137,-17.090,-14.160,0.000,0
158358.243,-21.973,-11.719,-13.184,-23.926,0.000,0
158358.247,-16.602,-6.836,-7.324,-19.043,0.000,0
158358.250,-14.648,-5.859,-14.648,-14.160,0.000,0
158358.254,-21.484,-7.812,-14.648,-5.371,0.000,0
158358.258,-20.996,-5.371,-6.348,-3.418,0.000,0
158358.262,-7.812,-7.324,-6.348,0.000,0.000,0
158358.266,-6.836,-13.672,-12.207,-10.742,0.000,0
158358.270,-23.438,-12.207,-15.625,-15.137,0.000,0
158358.274,-22.949,-7.324,-14.648,-9.277,0.000,0
158358.278,-13.672,-7.324,-10.742,1.953,0.000,0
158358.282,-13.672,-7.324,-5.371,-16.602,0.000,0
158358.286,-22.461,-2.930,-6.836,-20.996,0.000,0
158358.290,-20.996,-5.371,-15.625,-10.254,0.000,0
158358.293,-16.113,-8.301,-11.719,-21.484,0.000,0
158358.297,-28.809,-10.254,-15.625,-28.320,0.000,0
158358.301,-30.762,-13.184,-22.461,-15.625,0.000,0
158358.305,-29.297,-17.578,-22.949,-24.902,0.000,0
158358.309,-26.367,-17.090,-23.438,-20.996,0.000,0
158358.313,-28.320,-16.602,-21.484,-1.953,0.000,0
158358.317,-30.762,-21.973,-21.973,-30.273,0.000,0
158358.321,-34.180,-24.902,-26.367,-39.551,0.000,0
158358.325,-41.992,-27.832,-30.273,-31.738,0.000,0
158358.329,-33.203,-30.273,-29.297,-36.133,0.000,0
158358.332,-21.484,-29.297,-23.438,-37.598,0.000,0
158358.336,-31.250,-26.855,-24.414,-27.832,0.000,0
158358.340,-34.180,-22.461,-23.926,-16.602,0.000,0
158358.344,-29.297,-24.902,-18.066,-20.508,0.000,0
158358.348,-32.227,-30.273,-20.996,-21.973,0.000,0
158358.352,-22.461,-25.391,-20.996,-20.508,0.000,0
158358.356,-15.625,-19.531,-17.090,-32.227,0.000,0
158358.360,-21.484,-21.484,-20.508,-32.715,0.000,0
158358.364,-16.602,-27.832,-25.391,-32.715,0.000,0
158358.368,-21.484,-27.344,-28.320,-37.598,0.000,0
158358.372,-20.508,-25.391,-27.344,-29.297,0.000,0
158358.375,-16.602,-20.020,-24.414,-21.484,0.000,0
158358.379,-18.555,-18.555,-24.414,-36.133,0.000,0
158358.383,-13.184,-20.508,-22.461,-33.203,0.000,0
158358.387,-13.672,-19.531,-27.344,-34.668,0.000,0
158358.391,-16.602,-21.973,-26.367,-36.621,0.000,0
158358.395,-14.160,-21.973,-25.391,-19.531,0.000,0
158358.399,-13.184,-25.879,-29.297,-25.391,0.000,0
158358.403,-24.902,-28.809,-29.297,-36.621,0.000,0
158358.407,-28.320,-23.926,-27.344,-27.344,0.000,0
158358.411,-16.113,-19.043,-28.809,-28.320,0.000,0
158358.415,-17.578,-20.020,-25.879,-31.250,0.000,0
158358.418,-16.113,-23.438,-22.461,-27.832,0.000,0
158358.422,-13.184,-21.973,-20.020,-25.879,0.000,0
158358.426,-22.949,-20.020,-25.391,-35.645,0.000,0
158358.430,-28.320,-25.391,-33.203,-36.133,0.000,0
158358.434,-24.902,-22.461,-32.227,-16.602,0.000,0
158358.438,-25.879,-23.926,-32.715,-8.301,0.000,0
158358.442,-30.762,-30.762,-35.645,-25.391,0.000,0
158358.446,-27.344,-25.879,-30.762,-34.180,0.000,0
158358.450,-20.996,-21.973,-26.855,-15.137,0.000,0
158358.454,-17.578,-21.484,-27.344,-15.137,0.000,0
158358.457,-13.184,-17.090,-21.973,-17.578,0.000,0
158358.461,-15.625,-15.137,-18.555,-17.090,0.000,0
158358.465,-20.508,-15.137,-19.043,-27.344,0.000,0
158358.469,-22.949,-20.020,-22.461,-26.367,0.000,0
158358.473,-20.020,-25.391,-31.250,-20.020,0.000,0
158358.477,-21.973,-23.926,-26.855,-15.137,0.000,0
158358.481,-21.484,-24.414,-20.020,-20.996,0.000,0
158358.485,-18.555,-20.508,-23.438,-25.879,0.000,0
158358.489,-20.996,-20.020,-27.832,-21.484,0.000,0
158358.493,-30.273,-23.926,-28.320,-26.367,0.000,0
158358.497,-33.691,-27.344,-23.438,-37.598,0.000,0
158358.500,-30.273,-32.227,-25.879,-32.227,0.000,0
158358.504,-29.297,-31.738,-30.273,-34.180,0.000,0
158358.508,-30.762,-30.273,-30.273,-39.062,0.000,0
158358.512,-29.297,-34.180,-30.273,-33.203,0.000,0
158358.516,-30.273,-34.180,-32.715,-28.320,0.000,0
158358.520,-39.551,-35.645,-35.645,-23.926,0.000,0
158358.524,-32.227,-33.691,-35.156,-28.809,0.000,0
158358.528,-17.090,-26.367,-31.738,-10.254,0.000,0
158358.532,-27.344,-28.320,-35.156,-20.996,0.000,0
158358.536,-33.203,-30.762,-38.086,-30.762,0.000,0
158358.540,-23.926,-29.785,-27.344,-17.090,0.000,0
158358.543,-25.391,-31.250,-25.879,-15.137,0.000,0
158358.547,-20.996,-32.227,-29.297,-23.438,0.000,0
158358.551,-20.996,-32.715,-21.973,-34.180,0.000,0
158358.555,-23.926,-28.809,-21.973,-26.855,0.000,0
158358.559,-20.996,-22.949,-27.344,-28.320,0.000,0
158358.563,-23.926,-23.438,-27.832,-27.344,0.000,0
158358.567,-31.738,-27.344,-29.297,-27.832,0.000,0
158358.571,-29.785,-23.926,-24.414,-25.391,0.000,0
158358.575,-25.391,-20.508,-22.949,-31.250,0.000,0
158358.579,-33.691,-27.344,-28.809,-38.574,0.000,0
158358.582,-32.715,-26.367,-28.320,-31.250,0.000,0
158358.586,-21.973,-19.531,-25.391,-28.320,0.000,0
158358.590,-17.090,-20.996,-26.367,-22.949,0.000,0
158358.594,-16.113,-20.508,-22.461,-10.742,0.000,0
158358.598,-22.461,-21.484,-19.043,-14.160,0.000,0
158358.602,-15.625,-20.996,-23.438,-25.879,0.000,0
158358.606,-3.906,-18.066,-26.855,-15.137,0.000,0
158358.610,-17.090,-23.438,-31.738,-4.395,0.000,0
158358.614,-21.973,-25.391,-34.668,-14.160,0.000,0
158358.618,-5.859,-21.973,-28.809,-24.414,0.000,0
158358.622,-20.020,-24.902,-31.738,-24.902,0.000,0
158358.625,-32.715,-28.320,-36.133,-35.645,0.000,0
158358.629,-33.203,-26.367,-30.273,-30.273,0.000,0
158358.633,-37.109,-24.414,-29.297,-21.484,0.000,0
158358.637,-36.621,-30.273,-31.738,-30.273,0.000,0
158358.641,-33.691,-35.156,-33.203,-32.715,0.000,0
158358.645,-31.250,-31.738,-32.227,-51.270,0.000,0
158358.649,-29.785,-29.785,-29.785,-53.711,0.000,0
158358.653,-37.598,-32.715,-29.785,-43.457,0.000,0
158358.657,-42.969,-32.227,-32.227,-43.945,0.000,0
158358.661,-35.645,-27.832,-35.156,-25.391,0.000,0
158358.665,-37.598,-26.855,-34.180,-19.531,0.000,0
158358.668,-45.410,-22.949,-29.785,-19.531,0.000,0
158358.672,-33.203,-24.414,-32.715,-21.484,0.000,0
158358.676,-26.855,-29.297,-32.227,-32.227,0.000,0
158358.680,-29.785,-26.367,-31.738,-30.762,0.000,0
158358.684,-24.902,-22.461,-30.762,-39.551,0.000,0
158358.688,-21.973,-24.414,-25.879,-45.898,0.000,0
158358.692,-14.648,-28.809,-34.180,-19.043,0.000,0
158358.696,-14.160,-29.785,-34.180,-13.672,0.000,0
158358.700,-31.250,-28.320,-28.320,-21.973,0.000,0
158358.704,-33.203,-25.879,-36.133,-14.648,0.000,0
158358.707,-23.438,-23.438,-36.133,-27.344,0.000,0
158358.711,-26.367,-24.414,-34.180,-28.320,0.000,0
158358.715,-26.855,-24.414,-36.133,-11.230,0.000,0
158358.719,-24.414,-17.578,-31.738,-25.879,0.000,0
158358.723,-23.926,-20.020,-34.668,-28.809,0.000,0
158358.727,-14.160,-19.531,-33.203,-17.578,0.000,0
158358.731,-9.277,-19.043,-26.855,-14.160,0.000,0
158358.735,-24.414,-30.762,-33.691,-22.949,0.000,0
158358.739,-36.133,-32.227,-37.109,-24.902,0.000,0
158358.743,-32.227,-30.762,-37.109,-20.508,0.000,0
158358.747,-30.273,-29.297,-33.691,-34.180,0.000,0
158358.750,-40.527,-27.832,-27.832,-26.855,0.000,0
158358.754,-32.715,-27.344,-24.414,-23.926,0.000,0
158358.758,-21.484,-25.879,-27.344,-32.227,0.000,0
158358.762,-21.973,-22.949,-26.367,-19.043,0.000,0
158358.766,-16.113,-25.879,-26.855,-21.484,0.000,0
158358.770,-16.113,-30.273,-30.273,-32.227,0.000,0
158358.774,-20.508,-30.273,-24.414,-23.926,0.000,0
158358.778,-25.879,-29.297,-23.926,-26.367,0.000,0
158358.782,-26.855,-25.391,-30.273,-24.902,0.000,0
158358.786,-18.066,-26.855,-34.668,-35.645,0.000,0
158358.790,-21.973,-25.879,-28.809,-33.203,0.000,0
158358.793,-18.555,-23.438,-27.344,-24.414,0.000,0
158358.797,-10.742,-23.438,-24.902,-25.391,0.000,0
158358.801,-10.254,-25.391,-20.996,-15.137,0.000,0
158358.805,-15.625,-28.320,-24.902,-15.137,0.000,0
158358.809,-36.621,-30.273,-29.297,-31.250,0.000,0
158358.813,-39.551,-27.832,-30.273,-35.645,0.000,0
158358.817,-35.156,-28.809,-28.320,-40.039,0.000,0
158358.821,-36.621,-32.227,-25.391,-45.898,0.000,0
158358.825,-33.203,-30.273,-24.414,-45.898,0.000,0
158358.829,-30.273,-29.297,-36.621,-36.621,0.000,0
158358.832,-25.391,-26.855,-35.156,-24.414,0.000,0
158358.836,-21.973,-25.391,-23.926,-26.855,0.000,0
158358.840,-27.832,-25.879,-22.949,-22.461,0.000,0
158358.844,-22.949,-25.879,-20.508,-23.926,0.000,0
158358.848,-21.484,-25.391,-22.461,-26.367,0.000,0
158358.852,-25.391,-26.367,-25.391,-29.785,0.000,0
158358.856,-22.461,-25.879,-24.414,-28.809,0.000,0
158358.860,-19.043,-23.926,-30.273,-8.301,0.000,0
158358.864,-14.648,-22.461,-31.738,-15.625,0.000,0
158358.868,-16.602,-18.555,-25.879,-23.926,0.000,0
158358.872,-16.602,-19.043,-27.832,-24.902,0.000,0
158358.875,-20.020,-20.508,-32.227,-30.273,0.000,0
158358.879,-18.555,-18.066,-29.785,-16.602,0.000,0
158358.883,-14.648,-20.020,-22.949,-18.066,0.000,0
158358.887,-19.531,-18.066,-24.414,-29.785,0.000,0
158358.891,-21.973,-20.996,-26.367,-33.691,0.000,0
158358.895,-19.043,-21.484,-24.902,-30.762,0.000,0
158358.899,-21.484,-22.461,-28.320,-19.043,0.000,0
158358.903,-34.180,-27.344,-33.691,-15.137,0.000,0
158358.907,-41.504,-20.996,-29.785,-24.414,0.000,0
158358.911,-34.668,-17.090,-23.438,-19.043,0.000,0
158358.915,-30.762,-19.531,-23.438,-9.277,0.000,0
158358.918,-36.133,-20.996,-30.273,-29.785,0.000,0
158358.922,-38.574,-19.043,-29.785,-22.949,0.000,0
158358.926,-37.598,-22.461,-25.879,-10.254,0.000,0
158358.930,-33.203,-23.438,-23.438,-37.109,0.000,0
158358.934,-28.320,-24.902,-27.832,-44.434,0.000,0
158358.938,-34.668,-29.785,-32.715,-35.645,0.000,0
158358.942,-34.668,-25.391,-30.273,-34.180,0.000,0
158358.946,-25.879,-26.367,-29.785,-33.691,0.000,0
158358.950,-22.949,-30.273,-27.832,-30.762,0.000,0
158358.954,-24.902,-30.273,-28.320,-41.992,0.000,0
158358.957,-27.832,-27.832,-24.414,-35.645,0.000,0
158358.961,-27.344,-27.832,-24.902,-23.438,0.000,0
158358.965,-25.879,-28.809,-28.809,-2.441,0.000,0
158358.969,-23.438,-26.855,-27.832,-20.996,0.000,0
158358.973,-34.668,-28.320,-29.297,-30.762,0.000,0
158358.977,-34.668,-30.273,-33.203,-13.184,0.000,0
158358.981,-20.508,-21.973,-29.785,-34.180,0.000,0
158358.985,-21.973,-18.066,-21.484,-32.715,0.000,0
158358.989,-23.926,-26.855,-23.926,-24.902,0.000,0
158358.993,-25.879,-25.391,-33.203,-22.461,0.000,0
158358.997,-37.598,-23.926,-36.133,-28.809,0.000,0
158359.000,-43.457,-25.391,-30.273,-26.367,0.000,0
158359.004,-23.926,-26.367,-38.086,-11.719,0.000,0
158359.008,-4.395,-34.180,-39.551,-1.953,0.000,0
158359.012,-15.137,-27.832,-26.855,-15.137,0.000,0
158359.016,-54.199,-24.414,-37.109,-54.688,0.000,0
158359.020,-52.734,-28.320,-40.039,-36.621,0.000,0
158359.024,-31.738,-27.832,-26.367,-12.207,0.000,0
158359.028,-30.273,-27.832,-24.902,-35.156,0.000,0
158359.032,-29.297,-21.973,-20.020,-27.344,0.000,0
158359.036,-24.902,-20.020,-24.414,-15.137,0.000,0
158359.040,-26.367,-20.996,-30.762,-14.648,0.000,0
158359.043,-23.926,-14.160,-18.555,-12.207,0.000,0
158359.047,-14.648,-12.695,-12.207,-22.461,0.000,0
158359.051,-11.719,-18.066,-20.996,-20.996,0.000,0
158359.055,-18.066,-20.020,-23.438,-13.672,0.000,0
158359.059,-20.508,-25.391,-19.043,-25.391,0.000,0
158359.063,-22.461,-23.926,-17.090,-20.508,0.000,0
158359.067,-25.879,-20.020,-15.137,-27.832,0.000,0
158359.071,-22.949,-20.508,-18.066,-27.832,0.000,0
158359.075,-29.785,-24.414,-20.508,-25.391,0.000,0
158359.079,-40.039,-30.762,-20.020,-25.879,0.000,0
158359.082,-28.809,-29.785,-20.996,-29.785,0.000,0
158359.086,-22.949,-19.531,-18.066,-28.320,0.000,0
158359.090,-28.809,-16.602,-16.602,-11.719,0.000,0
158359.094,-26.855,-20.508,-18.555,-23.926,0.000,0
158359.098,-16.602,-19.531,-23.926,-33.691,0.000,0
158359.102,-15.137,-17.578,-26.855,-23.926,0.000,0
158359.106,-17.578,-19.531,-22.949,-16.113,0.000,0
158359.110,-21.484,-20.508,-24.902,-25.879,0.000,0
158359.114,-29.297,-18.555,-24.902,-21.973,0.000,0
158359.118,-25.391,-18.555,-22.949,-24.414,0.000,0
158359.122,-24.414,-20.508,-21.973,-38.086,0.000,0
158359.125,-21.973,-22.461,-22.949,-29.297,0.000,0
158359.129,-13.184,-23.926,-23.926,-22.949,0.000,0
158359.133,-6.348,-23.438,-19.043,-27.832,0.000,0
158359.137,-15.625,-27.344,-21.484,-30.762,0.000,0
158359.141,-20.996,-27.344,-29.297,-30.762,0.000,0
158359.145,-20.020,-21.484,-29.785,-10.254,0.000,0
158359.149,-27.832,-19.043,-24.414,-3.906,0.000,0
158359.153,-30.273,-21.973,-27.832,-26.367,0.000,0
158359.157,-35.156,-27.832,-36.621,-30.762,0.000,0
158359.161,-31.250,-25.391,-35.156,-26.855,0.000,0
158359.165,-29.785,-23.926,-33.691,-20.020,0.000,0
158359.168,-37.598,-29.297,-34.180,-27.832,0.000,0
158359.172,-37.109,-27.344,-37.109,-40.527,0.000,0
158359.176,-32.227,-25.391,-37.598,-30.762,0.000,0
158359.180,-37.109,-28.809,-38.086,-16.602,0.000,0
158359.184,-32.227,-30.762,-36.621,-12.695,0.000,0
158359.188,-35.645,-33.203,-38.086,-22.461,0.000,0
158359.192,-40.039,-29.785,-34.180,-34.180,0.000,0
158359.196,-36.621,-24.902,-27.832,-25.391,0.000,0
158359.200,-33.203,-27.344,-30.273,-26.367,0.000,0
158359.204,-34.180,-30.273,-33.203,-21.484,0.000,0
158359.207,-33.691,-27.832,-31.738,-25.391,0.000,0
158359.211,-27.832,-25.879,-29.785,-28.809,0.000,0
158359.215,-20.508,-20.996,-26.855,-21.973,0.000,0
158359.219,-12.207,-18.066,-24.414,-12.207,0.000,0
158359.223,-11.719,-18.066,-22.461,-7.324,0.000,0
158359.227,-18.066,-21.484,-22.949,-25.391,0.000,0
158359.231,-20.996,-25.391,-25.391,-9.766,0.000,0
158359.235,-19.531,-25.391,-28.320,-15.137,0.000,0
158359.239,-29.297,-26.367,-26.367,-39.062,0.000,0
158359.243,-31.738,-22.949,-25.391,-28.320,0.000,0
158359.247,-25.391,-26.367,-29.297,-37.109,0.000,0
158359.250,-19.043,-31.738,-26.367,-42.969,0.000,0
158359.254,-17.090,-25.879,-24.902,-29.297,0.000,0
158359.258,-21.973,-25.879,-24.414,-23.438,0.000,0
158359.262,-22.461,-24.902,-16.602,-25.391,0.000,0
158359.266,-17.090,-23.926,-15.137,-29.297,0.000,0
158359.270,-14.160,-24.414,-18.555,-34.668,0.000,0
158359.274,-14.648,-26.367,-19.531,-20.020,0.000,0
158359.278,-10.742,-27.344,-22.949,-18.066,0.000,0
158359.282,-18.066,-27.832,-31.250,-8.301,0.000,0
158359.286,-27.832,-28.809,-26.855,4.395,0.000,0
158359.290,-29.785,-22.949,-23.438,-14.160,0.000,0
158359.293,-25.879,-23.438,-28.320,-3.906,0.000,0
158359.297,-32.715,-30.762,-32.227,-8.301,0.000,0
158359.301,-29.785,-27.344,-26.855,-31.250,0.000,0
158359.305,-17.090,-26.367,-22.461,-34.180,0.000,0
158359.309,-25.879,-30.273,-26.367,-22.461,0.000,0
158359.313,-27.832,-30.273,-23.926,-16.113,0.000,0
158359.317,-28.320,-29.785,-23.926,-24.902,0.000,0
158359.321,-30.762,-29.297,-25.391,-18.555,0.000,0
158359.325,-27.832,-25.391,-22.461,-22.461,0.000,0
158359.329,-20.508,-26.367,-20.508,-38.086,0.000,0
158359.332,-29.785,-29.297,-20.508,-32.227,0.000,0
158359.336,-27.832,-29.297,-27.344,-32.227,0.000,0
158359.340,-25.879,-29.297,-30.273,-33.203,0.000,0
158359.344,-30.273,-30.762,-24.902,-25.391,0.000,0
158359.348,-31.250,-31.250,-29.785,-26.855,0.000,0
158359.352,-29.785,-31.738,-30.762,-27.344,0.000,0
158359.356,-32.715,-35.156,-29.297,-21.484,0.000,0
158359.360,-40.039,-37.109,-28.809,-17.578,0.000,0
158359.364,-37.598,-34.180,-27.344,-22.949,0.000,0
158359.368,-31.250,-29.297,-30.273,-20.996,0.000,0
158359.372,-28.809,-26.855,-31.250,-8.789,0.000,0
158359.375,-30.273,-27.344,-30.273,-2.930,0.000,0
158359.379,-28.320,-26.855,-34.180,-18.066,0.000,0
158359.383,-20.996,-28.320,-32.715,-33.203,0.000,0
158359.387,-18.066,-26.855,-24.414,-28.809,0.000,0
158359.391,-17.090,-22.949,-23.438,-26.367,0.000,0
158359.395,-24.902,-23.926,-24.414,-25.391,0.000,0
158359.399,-18.066,-20.996,-22.949,-7.324,0.000,0
158359.403,0.000,-18.066,-17.578,-3.906,0.000,0
158359.407,-19.531,-23.438,-20.020,-10.742,0.000,0
158359.411,-26.855,-28.320,-25.879,-18.066,0.000,0
158359.415,-17.578,-24.414,-22.461,-31.250,0.000,0
158359.418,-17.090,-18.066,-16.113,-23.438,0.000,0
158359.422,-15.625,-16.113,-12.207,0.000,0.000,0
158359.426,-9.277,-18.555,-14.160,-8.301,0.000,0
158359.430,-0.977,-18.066,-9.766,-26.367,0.000,0
158359.434,-5.859,-17.578,-9.277,-11.230,0.000,0
158359.438,-21.484,-22.949,-21.484,-6.348,0.000,0
158359.442,-28.320,-21.484,-23.438,-25.391,0.000,0
158359.446,-13.184,-18.066,-18.066,-23.926,0.000,0
158359.450,-11.719,-19.043,-17.578,-23.438,0.000,0
158359.454,-17.090,-17.578,-20.508,-35.156,0.000,0
158359.457,-17.090,-17.090,-24.902,-29.297,0.000,0
158359.461,-16.113,-12.695,-17.578,-4.883,0.000,0
158359.465,-16.113,-9.766,-8.789,-13.184,0.000,0
158359.469,-25.391,-14.648,-14.160,-18.066,0.000,0
158359.473,-22.461,-20.508,-17.090,-14.160,0.000,0
158359.477,-12.695,-20.508,-15.137,-19.043,0.000,0
158359.481,-18.066,-21.484,-13.672,-18.066,0.000,0
158359.485,-17.090,-27.832,-19.531,-39.062,0.000,0
158359.489,-14.160,-30.273,-28.320,-41.016,0.000,0
158359.493,-15.137,-25.391,-23.438,-17.578,0.000,0
158359.497,-21.973,-24.902,-25.391,-11.230,0.000,0
158359.500,-26.367,-27.832,-35.156,-19.531,0.000,0
158359.504,-20.508,-26.855,-30.762,-33.691,0.000,0
158359.508,-22.949,-26.855,-26.367,-29.297,0.000,0
158359.512,-27.344,-25.391,-22.949,-15.137,0.000,0
158359.516,-22.949,-23.926,-23.438,-20.996,0.000,0
158359.520,-21.484,-24.414,-29.785,-34.180,0.000,0
158359.524,-30.762,-26.367,-29.297,-27.344,0.000,0
158359.528,-36.133,-28.809,-26.855,-27.344,0.000,0
158359.532,-25.391,-27.344,-26.367,-22.461,0.000,0
158359.536,-27.832,-24.414,-23.438,-13.672,0.000,0
158359.540,-29.297,-24.414,-24.414,-19.531,0.000,0
158359.543,-27.344,-26.367,-23.438,-28.809,0.000,0
158359.547,-30.273,-24.414,-26.367,-22.949,0.000,0
158359.551,-25.879,-22.461,-29.785,-7.812,0.000,0
158359.555,-20.508,-22.461,-21.484,-14.160,0.000,0
158359.559,-22.461,-19.043,-23.926,-23.438,0.000,0
158359.563,-27.344,-23.438,-28.809,-20.508,0.000,0
158359.567,-29.297,-27.832,-24.414,-20.996,0.000,0
158359.571,-34.668,-24.902,-23.926,-28.809,0.000,0
158359.575,-30.762,-23.438,-26.367,-20.508,0.000,0
158359.579,-28.809,-32.715,-31.738,-27.832,0.000,0
158359.582,-36.621,-33.691,-31.250,-39.551,0.000,0
158359.586,-31.250,-26.367,-29.785,-25.391,0.000,0
158359.590,-31.250,-27.832,-33.691,-14.160,0.000,0
158359.594,-23.438,-28.809,-34.668,-20.996,0.000,0
158359.598,-16.113,-26.367,-27.832,-17.090,0.000,0
158359.602,-13.672,-25.391,-23.438,-18.555,0.000,0
158359.606,-14.160,-25.879,-25.879,-24.414,0.000,0
158359.610,-23.438,-24.902,-26.855,-37.109,0.000,0
158359.614,-26.367,-21.484,-23.438,-34.668,0.000,0
158359.618,-21.973,-16.602,-21.973,-13.672,0.000,0
158359.622,-19.043,-14.648,-19.043,-13.184,0.000,0
158359.625,-22.461,-17.090,-20.508,-12.207,0.000,0
158359.629,-26.855,-20.996,-27.344,-26.855,0.000,0
158359.633,-35.645,-27.344,-30.273,-40.527,0.000,0
158359.637,-33.691,-29.785,-31.738,-36.133,0.000,0
158359.641,-26.855,-25.879,-25.391,-28.809,0.000,0
158359.645,-39.551,-24.902,-26.367,-34.668,0.000,0
158359.649,-40.527,-22.949,-33.203,-31.738,0.000,0
158359.653,-35.156,-18.066,-27.344,-17.578,0.000,0
158359.657,-38.574,-18.555,-25.391,-24.902,0.000,0
158359.661,-26.855,-14.648,-17.578,-20.020,0.000,0
158359.665,-16.602,-12.207,-16.602,-11.719,0.000,0
158359.668,-31.250,-16.113,-22.949,-31.250,0.000,0
158359.672,-23.438,-20.020,-19.531,-35.156,0.000,0
158359.676,-8.301,-20.020,-21.484,-5.371,0.000,0
158359.680,-18.066,-15.625,-19.531,-9.766,0.000,0
158359.684,-27.832,-21.484,-23.438,-21.484,0.000,0
158359.688,-33.203,-25.391,-33.203,-22.461,0.000,0
158359.692,-32.227,-26.367,-30.762,-39.551,0.000,0
158359.696,-33.203,-21.973,-28.809,-36.621,0.000,0
158359.700,-28.809,-20.996,-29.297,-19.043,0.000,0
158359.704,-25.879,-23.926,-30.762,-37.109,0.000,0
158359.707,-20.508,-20.508,-31.738,-24.902,0.000,0
158359.711,-19.043,-18.066,-28.809,-8.789,0.000,0
158359.715,-26.367,-20.020,-31.250,-16.602,0.000,0
158359.719,-21.484,-21.484,-27.344,-31.250,0.000,0
158359.723,-21.484,-22.461,-27.344,-41.992,0.000,0
158359.727,-20.996,-22.461,-29.297,-30.762,0.000,0
158359.731,-18.066,-24.414,-25.391,-31.738,0.000,0
158359.735,-18.555,-22.461,-20.508,-29.297,0.000,0
158359.739,-18.066,-18.066,-15.137,-19.531,0.000,0
158359.743,-16.602,-12.695,-15.625,-31.250,0.000,0
158359.747,-19.531,-13.672,-20.996,-20.020,0.000,0
158359.750,-20.508,-15.137,-24.902,-12.695,0.000,0
158359.754,-17.090,-15.625,-26.367,-15.137,0.000,0
158359.758,-2.441,-15.625,-23.926,-6.836,0.000,0
158359.762,-4.395,-14.160,-22.949,-3.418,0.000,0
158359.766,-23.438,-13.184,-18.066,-13.184,0.000,0
158359.770,-22.949,-16.113,-18.066,-20.508,0.000,0
158359.774,-22.949,-18.555,-25.391,-13.184,0.000,0
158359.778,-20.020,-11.719,-15.137,-3.906,0.000,0
158359.782,-14.160,-13.184,-11.719,-12.207,0.000,0
158359.786,-26.855,-16.602,-23.926,-29.297,0.000,0
158359.790,-32.715,-11.230,-23.926,-22.461,0.000,0
158359.793,-19.043,-9.766,-15.137,-23.438,0.000,0
158359.797,-14.648,-15.625,-13.184,-16.602,0.000,0
158359.801,-22.461,-17.090,-11.719,-4.395,0.000,0
158359.805,-20.508,-14.648,-11.230,-17.090,0.000,0
158359.809,-12.695,-16.113,-11.230,-24.902,0.000,0
158359.813,-17.578,-21.484,-19.531,-31.250,0.000,0
158359.817,-33.203,-22.461,-29.297,-26.855,0.000,0
158359.821,-26.367,-21.484,-24.902,-23.438,0.000,0
158359.825,-20.996,-27.344,-26.367,-27.832,0.000,0
158359.829,-21.973,-25.391,-24.902,-29.297,0.000,0
158359.832,-15.137,-21.484,-20.996,-20.020,0.000,0
158359.836,-14.648,-23.438,-24.902,-13.184,0.000,0
158359.840,-24.902,-20.996,-27.344,-16.602,0.000,0
158359.844,-24.414,-20.996,-30.273,-27.344,0.000,0
158359.848,-15.137,-21.973,-29.297,-36.621,0.000,0
158359.852,-20.508,-24.902,-25.879,-21.484,0.000,0
158359.856,-32.227,-26.855,-25.391,-22.949,0.000,0
158359.860,-22.949,-22.949,-29.297,-33.691,0.000,0
158359.864,-20.996,-22.461,-28.809,-43.457,0.000,0
158359.868,-26.855,-23.438,-24.414,-22.949,0.000,0
158359.872,-24.414,-26.367,-29.297,-15.625,0.000,0
158359.875,-20.996,-29.785,-30.762,-25.879,0.000,0
158359.879,-33.691,-26.855,-27.344,-30.273,0.000,0
158359.883,-33.691,-20.996,-28.320,-40.039,0.000,0
158359.887,-26.367,-21.484,-25.391,-29.785,0.000,0
158359.891,-26.855,-20.996,-25.391,-28.809,0.000,0
158359.895,-24.414,-19.531,-24.414,-38.086,0.000,0
158359.899,-25.391,-19.531,-19.531,-35.645,0.000,0
158359.903,-23.926,-15.137,-20.508,-27.832,0.000,0
158359.907,-27.344,-16.113,-26.855,-25.879,0.000,0
158359.911,-23.926,-20.508,-31.250,-13.184,0.000,0
158359.915,-23.438,-21.973,-27.832,-16.113,0.000,0
158359.918,-32.715,-24.902,-27.344,-38.574,0.000,0
158359.922,-31.250,-24.414,-36.621,-53.711,0.000,0
158359.926,-35.156,-22.949,-33.203,-41.504,0.000,0
158359.930,-38.574,-22.461,-27.344,-26.367,0.000,0
158359.934,-37.598,-21.484,-29.785,-13.184,0.000,0
158359.938,-40.527,-21.484,-27.832,-15.137,0.000,0
158359.942,-37.598,-21.973,-26.855,-42.969,0.000,0
158359.946,-32.227,-21.973,-18.555,-25.879,0.000,0
158359.950,-13.672,-18.066,-15.137,-11.230,0.000,0
158359.954,-3.418,-15.625,-18.555,-27.344,0.000,0
158359.957,-9.277,-19.043,-18.066,-16.113,0.000,0
158359.961,-11.719,-20.996,-23.926,-16.113,0.000,0
158359.965,-9.277,-17.578,-24.414,-7.324,0.000,0
158359.969,-12.695,-18.555,-20.020,-4.395,0.000,0
158359.973,-18.555,-19.043,-15.625,-6.348,0.000,0
158359.977,-19.531,-16.113,-7.812,-8.301,0.000,0
158359.981,-18.066,-17.090,-4.395,-23.438,0.000,0
158359.985,-21.484,-17.090,-13.672,-9.766,0.000,0
158359.989,-17.578,-11.230,-14.160,0.000,0.000,0
158359.993,-17.090,-9.277,-10.742,-2.930,0.000,0
158359.997,-12.207,-19.531,-12.695,-28.320,0.000,0
158360.000,-14.160,-23.926,-17.090,-29.785,0.000,0
158360.004,-21.973,-18.066,-20.508,-1.465,0.000,0
158360.008,-33.691,-12.207,-13.672,-9.766,0.000,0
158360.012,-33.691,-15.137,-17.090,-21.973,0.000,0
158360.016,-11.719,-18.066,-21.484,-28.809,0.000,0
158360.020,-23.438,-20.508,-20.508,-32.227,0.000,0
158360.024,-27.832,-17.090,-16.113,-30.762,0.000,0
158360.028,-26.367,-15.625,-14.648,-31.250,0.000,0
158360.032,-29.297,-19.043,-23.438,-20.996,0.000,0
158360.036,-16.113,-21.484,-20.020,-18.066,0.000,0
158360.040,-20.020,-22.461,-16.602,-24.902,0.000,0
158360.043,-27.832,-25.879,-28.320,-25.391,0.000,0
158360.047,-24.414,-27.344,-25.391,-11.719,0.000,0
158360.051,-24.414,-22.949,-15.137,-13.184,0.000,0
158360.055,-26.855,-26.855,-17.090,-26.367,0.000,0
158360.059,-23.926,-26.367,-25.391,-27.832,0.000,0
158360.063,-27.344,-25.879,-27.832,-23.438,0.000,0
158360.067,-31.738,-27.344,-27.344,-23.438,0.000,0
158360.071,-32.715,-21.973,-26.367,-12.695,0.000,0
158360.075,-37.598,-17.578,-27.344,-10.254,0.000,0
158360.079,-41.992,-16.113,-26.855,-18.555,0.000,0
158360.082,-29.297,-17.578,-22.949,-23.926,0.000,0
158360.086,-24.902,-18.066,-21.973,-47.363,0.000,0
158360.090,-30.273,-14.648,-22.949,-31.738,0.000,0
158360.094,-34.180,-17.090,-20.020,-18.066,0.000,0
158360.098,-34.180,-20.996,-21.973,-29.297,0.000,0
158360.102,-22.461,-20.020,-21.973,-31.250,0.000,0
158360.106,-21.484,-20.508,-16.113,-14.648,0.000,0
158360.110,-21.973,-20.020,-16.113,-2.441,0.000,0
158360.114,-15.625,-20.508,-14.160,-6.348,0.000,0
158360.118,-15.625,-22.949,-14.648,-16.602,0.000,0
158360.122,-24.414,-26.855,-19.043,-28.809,0.000,0
158360.125,-31.250,-30.762,-18.066,-44.922,0.000,0
158360.129,-17.090,-29.297,-26.367,-13.184,0.000,0
158360.133,-5.371,-25.391,-28.320,-2.930,0.000,0
158360.137,-16.113,-25.391,-22.461,-16.113,0.000,0
158360.141,-24.414,-22.949,-24.414,-16.113,0.000,0
158360.145,-16.602,-22.949,-24.902,-17.578,0.000,0
158360.149,-12.695,-25.879,-24.414,-23.926,0.000,0
158360.153,-23.926,-26.367,-26.855,-33.203,0.000,0
158360.157,-16.602,-28.320,-24.414,-30.273,0.000,0
158360.161,-9.766,-25.391,-28.809,-24.414,0.000,0
158360.165,-12.207,-25.391,-29.785,-25.879,0.000,0
158360.168,-21.973,-26.367,-23.926,-26.855,0.000,0
158360.172,-27.832,-29.297,-30.762,-32.227,0.000,0
158360.176,-18.555,-29.785,-28.320,-38.086,0.000,0
158360.180,-23.926,-27.344,-25.879,-26.367,0.000,0
158360.184,-21.484,-29.297,-34.180,-29.297,0.000,0
158360.188,-16.113,-30.273,-31.738,-27.344,0.000,0
158360.192,-22.949,-32.227,-30.273,-16.113,0.000,0
158360.196,-20.996,-38.086,-34.180,-26.367,0.000,0
158360.200,-11.719,-37.109,-35.645,-19.043,0.000,0
158360.204,-14.648,-28.809,-30.762,-14.160,0.000,0
158360.207,-19.043,-23.438,-27.832,-2.930,0.000,0
158360.211,-11.230,-25.879,-26.855,-14.648,0.000,0
158360.215,-28.320,-27.832,-32.715,-46.875,0.000,0
158360.219,-32.715,-23.926,-38.574,-25.879,0.000,0
158360.223,-27.344,-21.973,-35.156,-30.762,0.000,0
158360.227,-31.738,-22.949,-31.250,-38.086,0.000,0
158360.231,-29.785,-20.996,-26.855,-21.973,0.000,0
158360.235,-24.414,-19.043,-29.297,-28.320,0.000,0
158360.239,-29.297,-21.484,-35.156,-21.484,0.000,0
158360.243,-29.785,-22.949,-34.668,-22.949,0.000,0
158360.247,-22.949,-18.066,-26.855,-41.992,0.000,0
158360.250,-25.391,-21.973,-24.414,-33.691,0.000,0
158360.254,-33.203,-21.484,-24.902,-14.648,0.000,0
158360.258,-32.715,-21.973,-23.438,-20.020,0.000,0
158360.262,-23.926,-20.996,-28.809,-17.090,0.000,0
158360.266,-35.645,-17.578,-36.621,-28.320,0.000,0
158360.270,-32.227,-20.020,-36.133,-39.551,0.000,0
158360.274,-16.113,-16.602,-23.438,-24.414,0.000,0
158360.278,-21.973,-15.625,-17.090,-29.785,0.000,0
158360.282,-10.742,-14.648,-15.625,-9.766,0.000,0
158360.286,1.953,-14.160,-11.719,2.930,0.000,0
158360.290,-10.742,-13.672,-10.254,-6.348,0.000,0
158360.293,-16.602,-13.184,-14.160,-13.184,0.000,0
158360.297,-14.648,-13.184,-23.926,-15.625,0.000,0
158360.301,-22.461,-18.555,-30.762,-26.855,0.000,0
158360.305,-21.484,-22.949,-29.785,-30.762,0.000,0
158360.309,-16.602,-22.461,-28.320,-3.906,0.000,0
158360.313,-22.949,-26.855,-25.391,-9.766,0.000,0
158360.317,-20.996,-22.949,-19.531,-20.020,0.000,0
158360.321,-24.414,-19.043,-15.625,-4.395,0.000,0
158360.325,-31.250,-21.973,-20.020,-14.160,0.000,0
158360.329,-26.855,-21.484,-18.066,-19.043,0.000,0
158360.332,-19.043,-20.996,-15.625,-19.531,0.000,0
158360.336,-23.926,-19.043,-21.484,-16.602,0.000,0
158360.340,-29.297,-18.066,-21.973,-13.672,0.000,0
158360.344,-26.855,-20.508,-21.484,-26.367,0.000,0
158360.348,-30.273,-26.855,-27.344,-33.203,0.000,0
158360.352,-39.062,-26.855,-25.391,-40.527,0.000,0
158360.356,-33.203,-19.531,-28.320,-28.809,0.000,0
158360.360,-25.879,-17.090,-33.203,-15.625,0.000,0
158360.364,-37.109,-18.066,-30.762,-36.133,0.000,0
158360.368,-35.156,-15.137,-33.203,-26.855,0.000,0
158360.372,-23.926,-20.020,-29.785,-33.691,0.000,0
158360.375,-29.297,-21.484,-30.273,-32.715,0.000,0
158360.379,-40.039,-20.508,-30.273,-14.648,0.000,0
158360.383,-29.785,-20.996,-27.832,-24.414,0.000,0
158360.387,-22.461,-17.578,-28.320,-22.949,0.000,0
158360.391,-38.086,-21.973,-30.273,-26.855,0.000,0
158360.395,-42.969,-27.344,-35.156,-27.344,0.000,0
158360.399,-35.645,-24.902,-37.598,-18.066,0.000,0
158360.403,-39.062,-22.461,-31.738,-21.484,0.000,0
158360.407,-46.875,-26.367,-31.738,-41.504,0.000,0
158360.411,-37.109,-27.344,-27.832,-44.434,0.000,0
158360.415,-30.273,-24.902,-25.879,-41.992,0.000,0
158360.418,-35.156,-25.391,-32.715,-51.270,0.000,0
158360.422,-42.969,-25.879,-36.621,-42.969,0.000,0
158360.426,-40.039,-24.902,-28.809,-26.855,0.000,0
158360.430,-37.109,-25.879,-25.879,-31.250,0.000,0
158360.434,-26.367,-22.949,-29.785,-32.227,0.000,0
158360.438,-22.949,-22.949,-25.879,-33.203,0.000,0
158360.442,-28.320,-20.996,-23.438,-46.387,0.000,0
158360.446,-20.508,-18.555,-19.531,-29.297,0.000,0
158360.450,0.977,-20.020,-22.949,-8.301,0.000,0
158360.454,-5.859,-17.090,-26.367,-21.484,0.000,0
158360.457,-43.945,-21.973,-33.691,-36.133,0.000,0
158360.461,-32.715,-26.855,-29.297,-39.551,0.000,0
158360.465,-11.230,-22.949,-19.043,-27.344,0.000,0
158360.469,-31.738,-21.973,-23.438,-28.320,0.000,0
158360.473,-35.645,-15.625,-19.043,-58.105,0.000,0
158360.477,-14.648,-17.090,-13.672,-43.945,0.000,0
158360.481,-15.625,-22.461,-21.484,-26.367,0.000,0
158360.485,-24.414,-21.973,-26.367,-23.438,0.000,0
158360.489,-13.672,-21.973,-22.461,-21.484,0.000,0
158360.493,-20.996,-28.809,-22.461,-19.043,0.000,0
158360.497,-32.715,-29.297,-19.531,-17.090,0.000,0
158360.500,-26.367,-24.414,-21.973,-19.531,0.000,0
158360.504,-22.949,-26.855,-25.391,-29.785,0.000,0
158360.508,-24.414,-30.273,-22.949,-25.391,0.000,0
158360.512,-20.508,-27.832,-21.484,-18.555,0.000,0
158360.516,-4.883,-21.484,-18.555,-11.230,0.000,0
158360.520,0.000,-16.602,-13.672,-5.859,0.000,0
158360.524,-1.953,-21.973,-17.578,-20.020,0.000,0
158360.528,-6.348,-22.461,-23.926,-18.066,0.000,0
158360.532,-13.672,-17.578,-18.555,-17.578,0.000,0
158360.536,-20.020,-24.902,-19.043,-8.301,0.000,0
158360.540,-6.836,-19.531,-14.648,4.395,0.000,0
158360.543,-11.230,-14.648,-12.695,-20.508,0.000,0
158360.547,-25.391,-22.949,-16.113,-51.270,0.000,0
158360.551,-26.367,-25.391,-16.602,-47.363,0.000,0
158360.555,-25.879,-25.879,-21.484,-37.598,0.000,0
158360.559,-20.508,-22.949,-23.438,-25.391,0.000,0
158360.563,-22.949,-22.949,-24.414,-27.832,0.000,0
158360.567,-28.809,-28.320,-25.879,-38.086,0.000,0
158360.571,-20.996,-27.344,-24.902,-21.484,0.000,0
158360.575,-26.367,-26.367,-23.926,-22.461,0.000,0
158360.579,-30.273,-27.344,-28.809,-31.250,0.000,0
158360.582,-26.855,-23.926,-26.367,-23.926,0.000,0
158360.586,-29.785,-19.043,-22.461,-25.391,0.000,0
158360.590,-32.227,-15.625,-24.414,-32.227,0.000,0
158360.594,-26.855,-13.184,-24.414,-25.391,0.000,0
158360.598,-27.344,-14.648,-25.879,-14.648,0.000,0
158360.602,-26.855,-15.137,-20.020,-23.926,0.000,0
158360.606,-16.113,-13.184,-16.602,-11.230,0.000,0
158360.610,-18.066,-16.602,-19.531,-4.883,0.000,0
158360.614,-28.809,-19.043,-17.578,-8.789,0.000,0
158360.618,-27.344,-17.090,-23.438,-4.395,0.000,0
158360.622,-20.996,-15.625,-28.809,-14.160,0.000,0
158360.625,-11.230,-16.113,-19.531,-11.719,0.000,0
158360.629,-14.648,-14.160,-14.160,-21.973,0.000,0
158360.633,-18.066,-15.625,-14.648,-17.578,0.000,0
158360.637,-14.160,-20.996,-15.137,-5.371,0.000,0
158360.641,-13.672,-22.949,-16.602,-13.672,0.000,0
158360.645,-16.113,-25.391,-22.949,-25.391,0.000,0
158360.649,-22.461,-22.461,-26.855,-20.996,0.000,0
158360.653,-17.578,-25.391,-26.367,-20.508,0.000,0
158360.657,-11.719,-26.855,-24.414,-16.113,0.000,0
158360.661,-12.695,-22.949,-18.555,-14.160,0.000,0
158360.665,-16.602,-27.344,-14.160,-33.691,0.000,0
158360.668,-12.207,-27.344,-18.066,-21.973,0.000,0
158360.672,-14.648,-26.367,-23.926,-8.789,0.000,0
158360.676,-24.414,-28.809,-22.949,-8.789,0.000,0
158360.680,-20.020,-26.367,-25.879,-7.324,0.000,0
158360.684,-19.531,-25.879,-26.367,-12.207,0.000,0
158360.688,-28.320,-25.391,-21.484,-20.996,0.000,0
158360.692,-33.691,-24.414,-19.531,-12.695,0.000,0
158360.696,-31.250,-25.879,-24.414,-18.555,0.000,0
158360.700,-24.902,-25.879,-25.879,-39.551,0.000,0
158360.704,-23.438,-26.855,-21.973,-34.180,0.000,0
158360.707,-31.738,-27.344,-28.809,-23.438,0.000,0
158360.711,-29.785,-27.344,-31.250,-26.855,0.000,0
158360.715,-22.949,-25.391,-30.273,-25.391,0.000,0
158360.719,-28.809,-21.973,-25.391,-22.461,0.000,0
158360.723,-27.832,-22.461,-20.996,-33.691,0.000,0
158360.727,-24.902,-26.855,-24.414,-18.066,0.000,0
158360.731,-31.738,-27.344,-29.785,-12.695,0.000,0
158360.735,-19.043,-26.855,-29.297,-28.320,0.000,0
158360.739,-21.484,-27.344,-24.902,-19.043,0.000,0
158360.743,-20.508,-29.785,-26.367,-21.973,0.000,0
158360.747,-19.531,-30.273,-26.855,-19.531,0.000,0
158360.750,-20.020,-31.738,-25.391,-22.461,0.000,0
158360.754,-14.648,-31.250,-25.391,-22.949,0.000,0
158360.758,-20.020,-30.273,-23.438,-9.766,0.000,0
158360.762,-24.902,-28.809,-23.926,-21.484,0.000,0
158360.766,-17.578,-26.367,-27.832,-25.391,0.000,0
158360.770,-21.973,-29.785,-33.691,-24.902,0.000,0
158360.774,-26.855,-28.320,-32.227,-16.602,0.000,0
158360.778,-23.438,-27.832,-28.320,-11.719,0.000,0
158360.782,-28.809,-27.344,-24.902,-25.879,0.000,0
158360.786,-27.344,-26.855,-28.809,-37.598,0.000,0
158360.790,-26.367,-26.367,-31.738,-20.020,0.000,0
158360.793,-20.020,-22.949,-24.902,-17.578,0.000,0
158360.797,-18.066,-21.484,-22.949,-16.113,0.000,0
158360.801,-20.020,-25.879,-23.438,-20.996,0.000,0
158360.805,-23.926,-25.879,-19.531,-35.645,0.000,0
158360.809,-21.484,-20.020,-13.672,-2.441,0.000,0
158360.813,-10.254,-13.672,-14.160,-8.301,0.000,0
158360.817,-10.254,-15.625,-16.602,-12.207,0.000,0
158360.821,-12.207,-13.672,-9.766,-2.930,0.000,0
158360.825,-11.719,-10.742,-5.859,-25.391,0.000,0
158360.829,-6.348,-14.648,-10.742,-27.832,0.000,0
158360.832,-8.789,-14.648,-17.578,-31.738,0.000,0
158360.836,-12.207,-12.695,-23.926,-34.668,0.000,0
158360.840,-13.672,-17.090,-20.020,-19.043,0.000,0
158360.844,-13.672,-20.996,-21.973,-14.160,0.000,0
158360.848,-17.578,-25.879,-32.715,-31.250,0.000,0
158360.852,-23.438,-28.809,-30.762,-28.809,0.000,0
158360.856,-23.438,-20.020,-27.344,-17.578,0.000,0
158360.860,-23.438,-18.066,-29.785,-21.973,0.000,0
158360.864,-18.066,-24.902,-31.738,-24.902,0.000,0
158360.868,-16.113,-23.438,-27.832,-27.832,0.000,0
158360.872,-23.438,-21.484,-24.414,-27.344,0.000,0
158360.875,-22.949,-25.391,-24.902,-23.926,0.000,0
158360.879,-24.414,-26.855,-24.414,-26.367,0.000,0
158360.883,-30.273,-27.832,-25.391,-19.043,0.000,0
158360.887,-33.691,-23.438,-24.414,-6.348,0.000,0
158360.891,-25.391,-25.879,-25.391,-12.207,0.000,0
158360.895,-20.020,-29.297,-30.273,-20.996,0.000,0
158360.899,-25.879,-29.785,-29.297,-19.043,0.000,0
158360.903,-17.090,-29.297,-22.949,-25.391,0.000,0
158360.907,-11.719,-25.391,-22.461,-34.180,0.000,0
158360.911,-22.461,-20.508,-25.391,-33.691,0.000,0
158360.915,-13.672,-14.160,-18.066,-19.043,0.000,0
158360.918,-20.020,-16.602,-20.996,-12.695,0.000,0
158360.922,-21.973,-19.531,-26.855,-24.902,0.000,0
158360.926,-22.949,-12.695,-12.207,-14.648,0.000,0
158360.930,-21.973,-13.184,-12.695,-16.113,0.000,0
158360.934,-12.207,-15.625,-21.973,-20.020,0.000,0
158360.938,-14.648,-18.555,-20.020,-25.879,0.000,0
158360.942,-20.996,-20.996,-19.043,-33.203,0.000,0
158360.946,-22.949,-14.160,-14.160,-15.137,0.000,0
158360.950,-22.461,-16.602,-22.461,-17.578,0.000,0
158360.954,-28.320,-22.949,-33.203,-28.320,0.000,0
158360.957,-30.273,-22.949,-25.879,-27.344,0.000,0
158360.961,-31.250,-27.344,-27.344,-19.531,0.000,0
158360.965,-28.320,-30.273,-33.203,-34.180,0.000,0
158360.969,-21.484,-26.855,-29.785,-30.762,0.000,0
158360.973,-25.391,-26.855,-27.832,-17.578,0.000,0
158360.977,-27.832,-23.926,-21.484,-35.156,0.000,0
158360.981,-25.879,-23.926,-22.461,-30.273,0.000,0
158360.985,-28.809,-24.902,-24.414,-19.531,0.000,0
158360.989,-19.043,-20.508,-20.020,-18.555,0.000,0
158360.993,-10.254,-21.484,-20.508,-24.414,0.000,0
158360.997,-18.555,-25.391,-21.484,-25.391,0.000,0
158361.000,-28.320,-28.809,-27.832,-28.809,0.000,0
158361.004,-22.461,-24.414,-27.344,-27.832,0.000,0
158361.008,-27.832,-23.926,-25.879,-11.719,0.000,0
158361.012,-33.203,-26.855,-31.250,-5.371,0.000,0
158361.016,-28.809,-28.809,-29.297,-20.020,0.000,0
158361.020,-31.738,-27.832,-25.391,-26.367,0.000,0
158361.024,-27.344,-25.879,-28.320,-17.090,0.000,0
158361.028,-27.344,-28.809,-27.344,-17.090,0.000,0
158361.032,-28.320,-26.367,-22.461,-26.855,0.000,0
158361.036,-29.785,-25.391,-23.438,-20.508,0.000,0
158361.040,-20.020,-25.879,-23.438,-15.137,0.000,0
158361.043,-14.648,-24.414,-20.020,-12.695,0.000,0
158361.047,-24.414,-28.320,-23.926,-12.695,0.000,0
158361.051,-17.090,-28.320,-27.832,-21.973,0.000,0
158361.055,-6.836,-24.902,-19.531,-23.438,0.000,0
158361.059,-12.207,-20.996,-20.508,-22.949,0.000,0
158361.063,-20.508,-18.555,-24.414,-6.836,0.000,0
158361.067,-15.625,-24.902,-24.414,-4.395,0.000,0
158361.071,-9.277,-28.320,-23.438,-11.719,0.000,0
158361.075,-16.602,-28.809,-23.926,-20.020,0.000,0
158361.079,-26.367,-28.320,-25.879,-28.320,0.000,0
158361.082,-23.926,-22.949,-25.391,-23.438,0.000,0
158361.086,-13.672,-22.949,-26.367,-16.113,0.000,0
158361.090,-14.160,-25.879,-28.320,0.488,0.000,0
158361.094,-23.438,-20.996,-21.973,-19.531,0.000,0
158361.098,-17.578,-17.578,-20.996,-31.738,0.000,0
158361.102,-16.602,-21.973,-23.438,-2.930,0.000,0
158361.106,-30.273,-23.438,-26.855,-11.719,0.000,0
158361.110,-29.785,-24.902,-31.738,-17.090,0.000,0
158361.114,-24.414,-31.250,-33.203,-12.695,0.000,0
158361.118,-26.855,-31.250,-28.320,-25.879,0.000,0
158361.122,-23.926,-21.973,-24.902,-18.555,0.000,0
158361.125,-17.090,-20.508,-27.832,-18.066,0.000,0
158361.129,-14.648,-25.879,-28.809,-23.438,0.000,0
158361.133,-20.020,-22.461,-26.855,-14.648,0.000,0
158361.137,-23.438,-20.020,-21.973,-14.648,0.000,0
158361.141,-24.414,-20.996,-24.414,-26.367,0.000,0
158361.145,-19.531,-18.555,-26.367,-23.438,0.000,0
158361.149,-20.996,-16.113,-23.926,-7.324,0.000,0
158361.153,-24.414,-14.160,-19.043,-6.348,0.000,0
158361.157,-12.695,-15.137,-19.531,-14.648,0.000,0
158361.161,-9.277,-20.020,-18.555,-15.137,0.000,0
158361.165,-9.277,-22.949,-16.602,-17.090,0.000,0
158361.168,-18.555,-20.508,-15.137,-27.344,0.000,0
158361.172,-21.484,-20.020,-11.719,-23.438,0.000,0
158361.176,-20.508,-22.461,-17.090,-12.695,0.000,0
158361.180,-25.391,-25.391,-19.531,-32.715,0.000,0
158361.184,-20.020,-25.391,-23.926,-56.641,0.000,0
158361.188,-23.926,-24.902,-33.203,-13.184,0.000,0
158361.192,-31.250,-29.785,-32.715,3.418,0.000,0
158361.196,-28.320,-28.809,-30.273,-13.184,0.000,0
158361.200,-27.832,-22.949,-28.809,-15.625,0.000,0
158361.204,-25.879,-21.973,-25.391,-10.742,0.000,0
158361.207,-17.578,-20.508,-22.461,-13.672,0.000,0
158361.211,-20.996,-19.531,-15.137,-18.066,0.000,0
158361.215,-32.227,-20.996,-22.461,-28.320,0.000,0
158361.219,-36.621,-23.926,-31.738,-40.527,0.000,0
158361.223,-32.715,-26.367,-29.785,-22.949,0.000,0
158361.227,-27.344,-22.461,-29.785,-19.531,0.000,0
158361.231,-24.902,-23.438,-29.785,-35.156,0.000,0
158361.235,-30.762,-28.809,-30.273,-34.668,0.000,0
158361.239,-18.066,-30.273,-31.738,-2.930,0.000,0
158361.243,-10.742,-25.879,-23.438,-2.930,0.000,0
158361.247,-22.949,-20.996,-17.090,-29.297,0.000,0
158361.250,-29.297,-26.855,-28.809,-35.645,0.000,0
158361.254,-30.273,-30.762,-32.715,-46.875,0.000,0
158361.258,-30.762,-21.973,-19.531,-36.133,0.000,0
158361.262,-14.160,-16.602,-26.367,-23.926,0.000,0
158361.266,-9.277,-21.973,-36.621,-16.113,0.000,0
158361.270,-20.996,-23.438,-29.785,-5.371,0.000,0
158361.274,-14.648,-20.020,-29.297,-11.230,0.000,0
158361.278,-14.160,-16.113,-33.203,-26.367,0.000,0
158361.282,-26.855,-21.484,-34.180,-40.039,0.000,0
158361.286,-23.438,-21.484,-30.762,-27.832,0.000,0
158361.290,-18.555,-17.578,-29.297,-21.973,0.000,0
158361.293,-21.484,-21.484,-31.738,-36.133,0.000,0
158361.297,-18.555,-24.414,-37.109,-37.598,0.000,0
158361.301,-22.461,-26.367,-36.621,-30.762,0.000,0
158361.305,-28.320,-27.344,-37.598,-18.555,0.000,0
158361.309,-22.949,-27.344,-33.203,-21.973,0.000,0
158361.313,-24.414,-25.391,-22.461,-33.691,0.000,0
158361.317,-23.438,-19.531,-23.926,-21.973,0.000,0
158361.321,-21.484,-22.949,-32.227,-19.043,0.000,0
158361.325,-17.578,-22.461,-28.809,-14.648,0.000,0
158361.329,-15.137,-17.578,-25.879,-16.602,0.000,0
158361.332,-16.113,-24.414,-29.785,-18.555,0.000,0
158361.336,-19.531,-23.438,-30.273,-6.836,0.000,0
158361.340,-26.855,-21.484,-31.738,-16.602,0.000,0
158361.344,-21.973,-25.391,-29.785,-21.973,0.000,0
158361.348,-23.438,-21.973,-20.020,-14.160,0.000,0
158361.352,-25.391,-20.508,-20.020,-26.855,0.000,0
158361.356,-18.066,-22.949,-24.414,-26.855,0.000,0
158361.360,-20.996,-21.973,-27.832,-24.414,0.000,0
158361.364,-25.879,-23.438,-28.809,-32.715,0.000,0
158361.368,-22.461,-26.367,-28.320,-27.344,0.000,0
158361.372,-14.648,-26.367,-24.414,-27.832,0.000,0
158361.375,-25.879,-27.344,-24.902,-30.273,0.000,0
158361.379,-26.855,-31.738,-30.762,-32.715,0.000,0
158361.383,-25.391,-31.738,-30.273,-33.691,0.000,0
158361.387,-34.180,-29.297,-31.738,-38.086,0.000,0
158361.391,-36.621,-27.344,-33.691,-41.016,0.000,0
158361.395,-32.715,-27.344,-34.668,-41.504,0.000,0
158361.399,-26.367,-31.738,-33.691,-38.086,0.000,0
158361.403,-22.461,-30.273,-31.250,-19.043,0.000,0
158361.407,-24.414,-26.367,-29.785,-20.020,0.000,0
158361.411,-27.344,-23.438,-25.391,-39.062,0.000,0
158361.415,-33.691,-21.484,-28.320,-27.832,0.000,0
158361.418,-26.855,-21.484,-33.203,-20.996,0.000,0
158361.422,-14.160,-23.926,-32.227,-18.066,0.000,0
158361.426,-17.578,-23.438,-27.344,-19.531,0.000,0
158361.430,-16.602,-22.461,-22.461,-28.320,0.000,0
158361.434,-9.277,-20.020,-22.949,-25.391,0.000,0
158361.438,-22.949,-17.578,-19.531,-10.742,0.000,0
158361.442,-17.090,-17.578,-27.344,-6.348,0.000,0
158361.446,-21.484,-20.996,-34.180,-21.484,0.000,0
158361.450,-41.504,-23.926,-30.273,-24.414,0.000,0
158361.454,-38.574,-26.367,-29.785,-19.043,0.000,0
158361.457,-35.156,-27.344,-28.320,-27.344,0.000,0
158361.461,-31.250,-27.344,-25.391,-22.949,0.000,0
158361.465,-43.457,-34.668,-31.738,-13.672,0.000,0
158361.469,-49.805,-32.715,-34.180,-26.367,0.000,0
158361.473,-30.273,-25.879,-29.785,-39.062,0.000,0
158361.477,-27.344,-23.926,-25.879,-20.996,0.000,0
158361.481,-29.297,-23.438,-23.926,-17.578,0.000,0
158361.485,-19.531,-20.508,-23.438,-26.367,0.000,0
158361.489,-24.902,-22.461,-24.414,-25.391,0.000,0
158361.493,-29.785,-26.367,-22.949,-29.297,0.000,0
158361.497,-27.344,-23.926,-19.531,-18.066,0.000,0
158361.500,-21.484,-23.926,-24.902,-21.484,0.000,0
158361.504,-18.555,-25.879,-26.855,-29.785,0.000,0
158361.508,-30.762,-29.297,-23.438,-14.648,0.000,0
158361.512,-30.762,-20.508,-16.602,-20.508,0.000,0
158361.516,-12.695,-16.113,-17.090,-22.461,0.000,0
158361.520,-15.625,-23.926,-20.996,-20.020,0.000,0
158361.524,-23.926,-25.391,-20.020,-18.555,0.000,0
158361.528,-22.461,-23.926,-21.484,-15.137,0.000,0
158361.532,-18.066,-22.461,-26.855,-25.879,0.000,0
158361.536,-14.648,-16.602,-21.484,-51.270,0.000,0
158361.540,-25.391,-15.137,-19.043,-31.250,0.000,0
158361.543,-29.785,-20.020,-25.879,-16.113,0.000,0
158361.547,-29.785,-23.926,-29.785,-40.527,0.000,0
158361.551,-31.738,-26.855,-27.344,-31.738,0.000,0
158361.555,-34.180,-27.832,-29.297,-22.949,0.000,0
158361.559,-38.086,-29.297,-35.645,-31.250,0.000,0
158361.563,-41.016,-25.391,-33.691,-29.785,0.000,0
158361.567,-41.992,-21.973,-24.414,-24.902,0.000,0
158361.571,-37.598,-22.461,-23.438,-37.109,0.000,0
158361.575,-27.344,-22.949,-31.738,-29.297,0.000,0
158361.579,-23.438,-21.484,-32.227,-13.184,0.000,0
158361.582,-26.855,-18.555,-26.367,-19.043,0.000,0
158361.586,-18.555,-16.602,-16.602,-8.301,0.000,0
158361.590,-19.531,-18.555,-20.020,-12.207,0.000,0
158361.594,-19.531,-17.090,-21.973,-22.949,0.000,0
158361.598,-15.625,-14.160,-18.555,-24.902,0.000,0
158361.602,-18.555,-14.160,-16.602,-28.320,0.000,0
158361.606,-11.230,-21.484,-21.484,-14.160,0.000,0
158361.610,-6.836,-30.762,-32.715,-14.648,0.000,0
158361.614,-24.902,-31.250,-33.203,-24.414,0.000,0
158361.618,-40.039,-33.203,-33.203,-38.086,0.000,0
158361.622,-30.273,-32.227,-32.227,-39.062,0.000,0
158361.625,-21.484,-20.508,-26.367,-28.320,0.000,0
158361.629,-31.738,-21.973,-29.785,-27.832,0.000,0
158361.633,-32.715,-26.855,-35.156,-35.156,0.000,0
158361.637,-33.203,-20.996,-28.809,-20.996,0.000,0
158361.641,-27.344,-20.020,-24.902,-17.090,0.000,0
158361.645,-18.555,-21.484,-22.461,-21.484,0.000,0
158361.649,-19.043,-20.996,-24.902,-21.484,0.000,0
158361.653,-12.207,-18.555,-25.391,-13.672,0.000,0
158361.657,-10.254,-13.672,-21.973,-6.348,0.000,0
158361.661,-20.508,-19.531,-26.367,-23.438,0.000,0
158361.665,-25.391,-24.414,-31.250,-34.180,0.000,0
158361.668,-20.508,-20.996,-30.273,-33.203,0.000,0
158361.672,-23.926,-19.531,-26.855,-29.297,0.000,0
158361.676,-24.902,-16.113,-17.578,-15.625,0.000,0
158361.680,-15.625,-20.996,-18.066,-12.695,0.000,0
158361.684,-4.883,-23.926,-18.066,-18.555,0.000,0
158361.688,-7.324,-22.461,-19.043,-19.531,0.000,0
158361.692,-18.066,-25.879,-25.879,-15.137,0.000,0
158361.696,-14.160,-22.949,-25.391,-18.555,0.000,0
158361.700,-9.277,-19.531,-19.043,-20.020,0.000,0
158361.704,-21.484,-20.508,-19.531,-30.273,0.000,0
158361.707,-25.391,-20.996,-29.785,-30.762,0.000,0
158361.711,-26.855,-24.414,-33.203,-24.414,0.000,0
158361.715,-40.527,-26.367,-32.227,-16.602,0.000,0
158361.719,-35.645,-22.949,-22.461,-21.973,0.000,0
158361.723,-17.090,-23.438,-18.555,-29.297,0.000,0
158361.727,-19.043,-25.879,-27.344,-10.254,0.000,0
158361.731,-30.273,-22.461,-30.762,-3.906,0.000,0
158361.735,-28.320,-18.066,-22.461,3.418,0.000,0
158361.739,-34.668,-22.949,-21.484,-4.883,0.000,0
158361.743,-38.086,-30.762,-29.785,-29.785,0.000,0
158361.747,-32.715,-30.762,-28.809,-32.715,0.000,0
158361.750,-31.738,-29.297,-25.879,-27.832,0.000,0
158361.754,-29.297,-32.227,-33.203,-31.738,0.000,0
158361.758,-24.414,-27.832,-34.180,-17.578,0.000,0
158361.762,-22.949,-23.438,-21.484,-15.625,0.000,0
158361.766,-30.762,-26.367,-21.484,-25.391,0.000,0
158361.770,-26.367,-20.508,-21.973,-17.578,0.000,0
158361.774,-24.902,-20.508,-22.949,-16.113,0.000,0
158361.778,-25.879,-28.320,-25.879,-26.367,0.000,0
158361.782,-22.461,-25.879,-20.996,-27.344,0.000,0
158361.786,-18.066,-23.438,-19.531,-32.227,0.000,0
158361.790,-15.137,-18.066,-20.020,-26.855,0.000,0
158361.793,-16.113,-19.531,-19.043,3.906,0.000,0
158361.797,-15.137,-27.832,-21.484,0.000,0.000,0
158361.801,-26.367,-29.297,-21.484,-27.832,0.000,0
158361.805,-27.344,-27.344,-24.902,-39.062,0.000,0
158361.809,-28.809,-25.391,-26.367,-27.832,0.000,0
158361.813,-29.297,-28.320,-26.367,-10.742,0.000,0
158361.817,-19.531,-28.320,-30.273,-21.973,0.000,0
158361.821,-21.973,-24.902,-24.902,-25.391,0.000,0
158361.825,-22.949,-21.484,-19.043,-25.879,0.000,0
158361.829,-19.531,-24.902,-25.879,-26.367,0.000,0
158361.832,-23.926,-26.367,-26.367,-27.344,0.000,0
158361.836,-24.414,-20.508,-18.066,-30.273,0.000,0
158361.840,-25.391,-20.020,-16.113,-32.227,0.000,0
158361.844,-20.996,-17.090,-20.020,-36.133,0.000,0
158361.848,-9.277,-15.625,-22.461,-24.414,0.000,0
158361.852,-17.090,-19.531,-21.484,-22.461,0.000,0
158361.856,-26.855,-19.531,-24.902,-27.344,0.000,0
158361.860,-16.113,-22.949,-23.926,-31.250,0.000,0
158361.864,-13.184,-28.320,-19.043,-23.438,0.000,0
158361.868,-23.438,-24.902,-18.555,-19.043,0.000,0
158361.872,-20.508,-27.344,-22.949,-27.832,0.000,0
158361.875,-6.348,-23.926,-20.996,-27.344,0.000,0
158361.879,-2.930,-22.461,-14.648,0.977,0.000,0
158361.883,-12.695,-26.855,-12.695,7.324,0.000,0
158361.887,-17.090,-28.320,-18.066,-16.602,0.000,0
158361.891,-10.742,-24.414,-18.555,-18.555,0.000,0
158361.895,-15.625,-21.484,-21.973,-22.461,0.000,0
158361.899,-25.879,-20.020,-19.043,-32.227,0.000,0
158361.903,-15.137,-21.973,-18.066,-21.973,0.000,0
158361.907,-11.230,-24.414,-25.391,-13.672,0.000,0
158361.911,-17.578,-22.949,-26.367,-20.020,0.000,0
158361.915,-16.113,-23.438,-22.461,-30.762,0.000,0
158361.918,-16.602,-25.391,-20.996,-19.531,0.000,0
158361.922,-17.578,-25.391,-22.949,-19.043,0.000,0
158361.926,-26.855,-26.367,-23.926,-25.879,0.000,0
158361.930,-32.227,-29.297,-26.367,-28.320,0.000,0
158361.934,-15.137,-22.461,-25.391,-28.320,0.000,0
158361.938,-17.090,-20.020,-23.438,-29.297,0.000,0
158361.942,-28.320,-27.344,-24.902,-35.645,0.000,0
158361.946,-24.902,-28.320,-26.367,-17.090,0.000,0
158361.950,-29.785,-25.879,-27.832,-22.461,0.000,0
158361.954,-22.949,-22.949,-27.344,-36.621,0.000,0
158361.957,-28.809,-21.484,-24.414,-29.785,0.000,0
158361.961,-30.762,-24.414,-22.949,-37.109,0.000,0
158361.965,-27.344,-20.996,-21.973,-37.109,0.000,0
158361.969,-32.715,-20.020,-26.367,-22.949,0.000,0
158361.973,-24.414,-21.973,-25.879,-24.902,0.000,0
158361.977,-28.320,-20.020,-20.508,-19.043,0.000,0
158361.981,-36.133,-21.973,-21.973,-16.113,0.000,0
158361.985,-29.297,-24.902,-25.391,-24.414,0.000,0
158361.989,-30.273,-24.902,-25.391,-30.762,0.000,0
158361.993,-35.156,-23.438,-21.484,-35.156,0.000,0
158361.997,-24.902,-20.020,-23.926,-27.344,0.000,0
158362.000,-24.902,-24.414,-31.250,-37.598,0.000,0
158362.004,-25.391,-26.367,-37.109,-21.973,0.000,0
158362.008,-20.020,-22.461,-31.738,-7.812,0.000,0
158362.012,-22.461,-24.902,-28.320,-12.695,0.000,0
158362.016,-24.414,-28.809,-25.391,-13.184,0.000,0
158362.020,-22.461,-28.320,-23.438,-23.926,0.000,0
158362.024,-13.184,-22.461,-26.367,-30.762,0.000,0
158362.028,-11.719,-20.020,-24.902,-14.160,0.000,0
158362.032,-28.809,-23.438,-30.273,-13.672,0.000,0
158362.036,-36.621,-29.785,-36.133,-38.086,0.000,0
158362.040,-34.668,-34.180,-31.738,-33.203,0.000,0
158362.043,-38.086,-30.273,-28.809,-12.207,0.000,0
158362.047,-32.715,-29.297,-31.738,-20.020,0.000,0
158362.051,-28.320,-30.273,-32.715,-27.344,0.000,0
158362.055,-33.691,-28.320,-32.227,-18.555,0.000,0
158362.059,-27.344,-25.879,-29.297,-15.137,0.000,0
158362.063,-19.531,-23.438,-27.832,-2.930,0.000,0
158362.067,-13.184,-30.273,-30.273,-1.465,0.000,0
158362.071,-16.113,-29.785,-27.344,-14.160,0.000,0
158362.075,-30.762,-25.391,-24.902,-28.320,0.000,0
158362.079,-45.898,-25.879,-24.414,-40.039,0.000,0
158362.082,-33.203,-23.438,-22.949,-31.738,0.000,0
158362.086,-15.625,-20.996,-23.438,-25.879,0.000,0
158362.090,-26.367,-21.484,-21.973,-17.578,0.000,0
158362.094,-27.832,-19.043,-19.043,-24.902,0.000,0
158362.098,-22.461,-22.461,-26.367,-33.203,0.000,0
158362.102,-22.461,-28.809,-31.250,-26.367,0.000,0
158362.106,-29.785,-27.832,-31.738,-32.715,0.000,0
158362.110,-36.133,-21.484,-32.227,-32.715,0.000,0
158362.114,-20.020,-19.531,-26.855,-20.020,0.000,0
158362.118,-15.137,-21.484,-17.578,-19.043,0.000,0
158362.122,-25.879,-25.879,-22.461,-34.180,0.000,0
158362.125,-17.578,-28.320,-29.785,-38.086,0.000,0
158362.129,-19.043,-24.414,-27.344,-35.156,0.000,0
158362.133,-36.621,-23.438,-25.879,-23.926,0.000,0
158362.137,-43.945,-26.855,-27.344,-20.508,0.000,0
158362.141,-36.621,-23.926,-25.391,-29.785,0.000,0
158362.145,-16.602,-16.602,-20.508,-22.461,0.000,0
158362.149,-9.277,-19.531,-17.090,-18.555,0.000,0
158362.153,-13.672,-18.066,-16.113,-5.371,0.000,0
158362.157,-17.578,-14.648,-22.949,-8.789,0.000,0
158362.161,-20.996,-22.461,-32.227,-24.902,0.000,0
158362.165,-34.180,-20.996,-29.785,-22.949,0.000,0
158362.168,-48.340,-21.973,-27.832,-30.762,0.000,0
158362.172,-41.016,-29.785,-27.832,-18.555,0.000,0
158362.176,-28.809,-26.855,-23.926,-17.578,0.000,0
158362.180,-31.250,-22.949,-25.879,-44.434,0.000,0
158362.184,-32.227,-21.484,-29.785,-26.367,0.000,0
158362.188,-33.691,-22.461,-29.297,-21.484,0.000,0
158362.192,-30.762,-21.973,-28.320,-23.438,0.000,0
158362.196,-22.461,-19.531,-23.926,-21.484,0.000,0
158362.200,-25.879,-17.090,-22.949,-19.043,0.000,0
158362.204,-24.414,-15.625,-28.809,-23.926,0.000,0
158362.207,-20.020,-19.531,-27.344,-20.996,0.000,0
158362.211,-18.555,-19.531,-23.438,-14.648,0.000,0
158362.215,-23.926,-15.625,-27.344,-7.324,0.000,0
158362.219,-26.367,-13.184,-28.809,-15.625,0.000,0
158362.223,-25.879,-17.578,-29.785,-30.273,0.000,0
158362.227,-27.832,-23.926,-34.180,-26.855,0.000,0
158362.231,-38.574,-19.043,-36.621,-19.043,0.000,0
158362.235,-25.879,-16.113,-33.691,-24.902,0.000,0
158362.239,-18.066,-24.902,-34.180,-46.875,0.000,0
158362.243,-32.715,-24.414,-35.156,-37.598,0.000,0
158362.247,-35.156,-25.391,-33.203,-32.715,0.000,0
158362.250,-24.902,-29.785,-28.809,-29.297,0.000,0
158362.254,-26.855,-27.832,-23.926,-26.367,0.000,0
158362.258,-39.062,-25.879,-26.855,-27.344,0.000,0
158362.262,-21.484,-20.020,-32.715,-18.066,0.000,0
158362.266,-16.113,-16.113,-28.809,-27.832,0.000,0
158362.270,-19.043,-18.066,-24.902,-24.902,0.000,0
158362.274,-15.625,-17.578,-25.879,-12.207,0.000,0
158362.278,-21.484,-15.625,-22.461,-27.344,0.000,0
158362.282,-25.391,-19.531,-20.508,-35.645,0.000,0
158362.286,-22.949,-20.020,-21.973,-25.391,0.000,0
158362.290,-20.020,-15.625,-19.043,-13.672,0.000,0
158362.293,-16.602,-16.602,-18.555,-16.602,0.000,0
158362.297,-17.578,-15.625,-13.672,-26.855,0.000,0
158362.301,-20.020,-11.230,-16.602,-24.414,0.000,0
158362.305,-19.531,-11.719,-23.438,-29.785,0.000,0
158362.309,-21.484,-14.648,-24.414,-30.273,0.000,0
158362.313,-29.785,-19.531,-28.320,-36.621,0.000,0
158362.317,-34.180,-26.855,-27.344,-40.527,0.000,0
158362.321,-29.785,-24.902,-24.414,-46.875,0.000,0
158362.325,-33.691,-25.879,-29.297,-34.668,0.000,0
158362.329,-35.156,-27.344,-25.391,-23.926,0.000,0
158362.332,-32.715,-27.832,-23.926,-37.598,0.000,0
158362.336,-29.785,-30.273,-28.809,-33.203,0.000,0
158362.340,-34.180,-31.250,-33.691,-30.273,0.000,0
158362.344,-46.387,-34.668,-36.133,-50.293,0.000,0
158362.348,-41.992,-36.621,-34.180,-38.086,0.000,0
158362.352,-33.691,-34.668,-33.203,-34.668,0.000,0
158362.356,-28.809,-26.855,-31.250,-38.574,0.000,0
158362.360,-28.809,-18.066,-31.250,-18.066,0.000,0
158362.364,-26.855,-21.484,-29.297,-20.508,0.000,0
158362.368,-25.879,-26.367,-32.227,-24.902,0.000,0
158362.372,-33.203,-25.879,-34.180,-18.066,0.000,0
158362.375,-25.391,-31.738,-29.785,-22.949,0.000,0
158362.379,-20.020,-30.273,-26.855,-27.344,0.000,0
158362.383,-28.809,-27.344,-29.785,-32.227,0.000,0
158362.387,-29.785,-28.809,-29.785,-34.668,0.000,0
158362.391,-31.250,-28.320,-26.367,-18.066,0.000,0
158362.395,-39.551,-28.320,-25.879,-15.625,0.000,0
158362.399,-26.367,-26.367,-29.297,-20.996,0.000,0
158362.403,-14.648,-26.367,-27.344,-21.484,0.000,0
158362.407,-21.973,-25.879,-26.855,-13.184,0.000,0
158362.411,-23.926,-21.973,-27.344,-21.484,0.000,0
158362.415,-20.020,-24.902,-24.414,-42.969,0.000,0
158362.418,-17.090,-23.926,-25.879,-38.086,0.000,0
158362.422,-22.461,-25.391,-35.645,-43.457,0.000,0
158362.426,-25.879,-32.715,-41.992,-32.715,0.000,0
158362.430,-22.949,-29.785,-38.086,-21.484,0.000,0
158362.434,-30.762,-29.785,-33.691,-30.273,0.000,0
158362.438,-43.457,-32.715,-34.668,-27.832,0.000,0
158362.442,-50.781,-23.926,-29.297,-24.414,0.000,0
158362.446,-45.410,-22.949,-24.902,-24.902,0.000,0
158362.450,-37.598,-29.297,-34.180,-26.367,0.000,0
158362.454,-34.668,-28.809,-38.574,-35.645,0.000,0
158362.457,-29.785,-27.344,-37.598,-42.969,0.000,0
158362.461,-36.133,-29.785,-37.109,-29.785,0.000,0
158362.465,-40.039,-28.809,-35.156,-27.832,0.000,0
158362.469,-37.109,-26.855,-34.668,-30.273,0.000,0
158362.473,-37.109,-29.785,-40.039,-34.668,0.000,0
158362.477,-42.969,-30.273,-38.086,-37.598,0.000,0
158362.481,-41.992,-29.785,-37.109,-20.996,0.000,0
158362.485,-32.227,-30.762,-37.598,-24.902,0.000,0
158362.489,-28.809,-35.645,-40.527,-20.996,0.000,0
158362.493,-35.156,-35.156,-40.039,-18.555,0.000,0
158362.497,-36.621,-32.715,-38.086,-26.367,0.000,0
158362.500,-35.156,-33.203,-40.527,-18.066,0.000,0
158362.504,-31.250,-27.832,-35.645,-25.391,0.000,0
158362.508,-31.738,-29.297,-34.180,-14.648,0.000,0
158362.512,-36.621,-29.297,-35.645,-6.836,0.000,0
158362.516,-19.531,-20.508,-38.086,-19.043,0.000,0
158362.520,-19.043,-24.902,-38.574,-24.414,0.000,0
158362.524,-31.250,-29.785,-31.738,-23.438,0.000,0
158362.528,-29.297,-26.367,-29.297,-21.973,0.000,0
158362.532,-15.625,-24.414,-28.320,-12.695,0.000,0
158362.536,-18.066,-20.996,-27.344,-22.461,0.000,0
158362.540,-32.227,-22.949,-33.203,-36.133,0.000,0
158362.543,-18.066,-21.973,-30.273,-25.879,0.000,0
158362.547,-15.625,-19.043,-30.762,-27.344,0.000,0
158362.551,-26.367,-24.414,-34.180,-27.832,0.000,0
158362.555,-24.414,-28.320,-31.250,-18.066,0.000,0
158362.559,-29.785,-25.391,-32.715,-29.785,0.000,0
158362.563,-34.180,-23.926,-34.180,-45.410,0.000,0
158362.567,-20.020,-26.367,-37.598,-30.762,0.000,0
158362.571,-16.602,-25.391,-33.203,-18.066,0.000,0
158362.575,-26.367,-24.414,-30.273,-20.996,0.000,0
158362.579,-29.297,-25.391,-39.551,-38.086,0.000,0
158362.582,-35.156,-24.902,-39.551,-32.227,0.000,0
158362.586,-35.645,-22.949,-36.621,-24.902,0.000,0
158362.590,-30.273,-20.020,-33.691,-34.180,0.000,0
158362.594,-30.273,-22.461,-33.691,-26.855,0.000,0
158362.598,-33.203,-24.414,-40.039,-29.785,0.000,0
158362.602,-41.992,-25.391,-43.945,-32.715,0.000,0
158362.606,-37.598,-27.832,-41.016,-28.809,0.000,0
158362.610,-24.414,-31.250,-38.574,-42.480,0.000,0
158362.614,-24.902,-27.832,-39.551,-32.715,0.000,0
158362.618,-27.344,-23.926,-33.203,-27.344,0.000,0
158362.622,-26.367,-24.902,-28.320,-32.227,0.000,0
158362.625,-19.531,-19.043,-28.809,-27.344,0.000,0
158362.629,-16.113,-17.578,-25.879,-35.645,0.000,0
158362.633,-17.090,-21.973,-25.879,-34.180,0.000,0
158362.637,-0.977,-20.020,-25.391,-1.465,0.000,0
158362.641,-5.371,-18.066,-24.414,6.348,0.000,0
158362.645,-21.484,-15.137,-26.367,-11.719,0.000,0
158362.649,-21.484,-16.113,-25.879,-19.531,0.000,0
158362.653,-24.902,-12.695,-24.902,-24.414,0.000,0
158362.657,-25.879,-14.648,-29.297,-21.484,0.000,0
158362.661,-24.414,-15.137,-28.809,-27.832,0.000,0
158362.665,-19.043,-14.160,-31.250,-20.020,0.000,0
158362.668,-4.395,-19.531,-26.367,-8.789,0.000,0
158362.672,-4.395,-19.043,-20.996,-12.695,0.000,0
158362.676,-18.066,-19.531,-28.320,3.906,0.000,0
158362.680,-18.066,-20.996,-23.438,-11.719,0.000,0
158362.684,-17.578,-21.973,-17.578,-20.020,0.000,0
158362.688,-23.926,-22.461,-20.996,-28.809,0.000,0
158362.692,-20.996,-19.043,-19.531,-44.922,0.000,0
158362.696,-19.531,-19.531,-23.438,-34.180,0.000,0
158362.700,-24.902,-22.461,-31.250,-24.902,0.000,0
158362.704,-21.973,-17.578,-26.855,-11.719,0.000,0
158362.707,-27.832,-20.996,-23.926,-25.879,0.000,0
158362.711,-28.809,-23.438,-25.391,-39.551,0.000,0
158362.715,-20.508,-14.160,-26.367,-14.160,0.000,0
158362.719,-21.484,-15.625,-24.902,-18.555,0.000,0
158362.723,-15.137,-20.020,-20.996,-19.043,0.000,0
158362.727,-15.137,-22.949,-24.414,-21.484,0.000,0
158362.731,-20.508,-24.902,-22.461,-37.598,0.000,0
158362.735,-15.137,-24.414,-18.066,-26.855,0.000,0
158362.739,-21.484,-22.461,-24.902,-14.648,0.000,0
158362.743,-27.832,-19.531,-26.367,-17.090,0.000,0
158362.747,-28.320,-20.996,-25.391,-26.367,0.000,0
158362.750,-30.273,-19.531,-29.785,-35.645,0.000,0
158362.754,-30.762,-27.344,-40.039,-31.250,0.000,0
158362.758,-37.109,-37.598,-42.969,-35.156,0.000,0
158362.762,-41.992,-33.691,-35.645,-40.527,0.000,0
158362.766,-35.156,-32.227,-36.621,-27.344,0.000,0
158362.770,-27.344,-30.273,-34.180,-34.180,0.000,0
158362.774,-21.973,-25.879,-33.691,-37.598,0.000,0
158362.778,-28.320,-24.414,-35.645,-38.574,0.000,0
158362.782,-40.039,-23.926,-31.250,-39.551,0.000,0
158362.786,-42.480,-22.949,-32.227,-36.133,0.000,0
158362.790,-35.156,-22.949,-35.645,-34.668,0.000,0
158362.793,-38.086,-25.391,-39.062,-36.133,0.000,0
158362.797,-40.527,-28.809,-40.527,-33.203,0.000,0
158362.801,-34.180,-28.809,-35.156,-29.297,0.000,0
158362.805,-23.926,-25.879,-31.250,-20.508,0.000,0
158362.809,-30.273,-21.973,-26.855,-36.621,0.000,0
158362.813,-28.809,-21.484,-22.949,-30.762,0.000,0
158362.817,-20.020,-23.438,-23.926,-25.879,0.000,0
158362.821,-20.508,-21.973,-22.461,-40.527,0.000,0
158362.825,-21.484,-22.949,-21.973,-20.996,0.000,0
158362.829,-20.996,-20.996,-22.461,-28.320,0.000,0
158362.832,-15.625,-21.484,-25.391,-28.320,0.000,0
158362.836,-10.742,-24.414,-25.391,-24.414,0.000,0
158362.840,-18.066,-27.344,-32.715,-22.949,0.000,0
158362.844,-19.531,-27.832,-32.227,-16.113,0.000,0
158362.848,-10.742,-17.578,-19.531,-19.043,0.000,0
158362.852,-16.113,-16.602,-21.484,-26.367,0.000,0
158362.856,-18.066,-19.531,-22.461,-17.578,0.000,0
158362.860,-12.695,-18.066,-19.531,-13.672,0.000,0
158362.864,-15.625,-19.531,-18.066,-25.391,0.000,0
158362.868,-14.160,-20.508,-12.207,-14.648,0.000,0
158362.872,-6.348,-16.602,-8.789,2.441,0.000,0
158362.875,0.977,-12.695,-10.742,-16.602,0.000,0
158362.879,8.789,-13.184,-10.742,-21.973,0.000,0
158362.883,1.465,-8.789,-13.184,-3.418,0.000,0
158362.887,-11.230,-8.789,-16.113,-6.348,0.000,0
158362.891,-11.719,-13.672,-20.020,-3.418,0.000,0
158362.895,-20.508,-15.137,-25.879,3.906,0.000,0
158362.899,-23.926,-16.113,-25.879,3.418,0.000,0
158362.903,-18.555,-11.719,-12.695,0.977,0.000,0
158362.907,-21.973,-16.602,-14.648,-12.695,0.000,0
158362.911,-23.926,-21.973,-27.344,-23.926,0.000,0
158362.915,-15.137,-15.137,-21.973,-12.207,0.000,0
158362.918,-16.602,-17.090,-24.414,-3.418,0.000,0
158362.922,-18.066,-20.508,-26.367,-19.531,0.000,0
158362.926,-14.160,-22.461,-24.414,-23.438,0.000,0
158362.930,-16.602,-20.996,-24.902,-4.883,0.000,0
158362.934,-23.438,-18.066,-24.414,-13.672,0.000,0
158362.938,-24.414,-23.926,-26.855,-10.742,0.000,0
158362.942,-18.066,-24.414,-25.391,0.000,0.000,0
158362.946,-19.531,-20.020,-20.996,-9.766,0.000,0
158362.950,-20.996,-22.461,-21.973,-28.320,0.000,0
158362.954,-23.438,-23.926,-28.320,-29.297,0.000,0
158362.957,-13.184,-23.926,-31.250,-21.973,0.000,0
158362.961,-13.672,-22.949,-29.297,-9.277,0.000,0
158362.965,-27.832,-23.926,-23.926,-5.859,0.000,0
158362.969,-27.344,-25.879,-28.320,-25.391,0.000,0
158362.973,-23.438,-25.391,-28.809,-34.668,0.000,0
158362.977,-24.902,-28.320,-26.367,-23.438,0.000,0
158362.981,-24.902,-25.391,-28.809,-16.113,0.000,0
158362.985,-18.555,-26.367,-29.297,-17.578,0.000,0
158362.989,-17.578,-21.484,-23.438,-27.832,0.000,0
158362.993,-17.090,-10.742,-13.672,-6.836,0.000,0
158362.997,-15.625,-13.672,-19.043,13.184,0.000,0
158363.000,-7.812,-16.113,-21.973,-5.371,0.000,0
158363.004,-16.113,-22.461,-21.484,-21.484,0.000,0
158363.008,-24.414,-32.715,-30.273,-23.438,0.000,0
158363.012,-13.184,-29.785,-35.645,-29.297,0.000,0
158363.016,-19.043,-25.879,-32.715,-22.949,0.000,0
158363.020,-31.738,-28.320,-32.227,-11.719,0.000,0
158363.024,-27.832,-28.809,-30.273,-20.996,0.000,0
158363.028,-17.578,-25.879,-29.297,-23.438,0.000,0
158363.032,-11.230,-23.438,-28.809,-20.508,0.000,0
158363.036,-10.742,-22.461,-20.508,-8.789,0.000,0
158363.040,-20.996,-25.879,-21.973,-8.789,0.000,0
158363.043,-24.902,-31.738,-32.227,-34.180,0.000,0
158363.047,-22.949,-28.320,-28.320,-39.062,0.000,0
158363.051,-20.020,-17.578,-25.391,-30.762,0.000,0
158363.055,-24.414,-22.949,-30.762,-27.344,0.000,0
158363.059,-33.203,-26.855,-31.738,-24.414,0.000,0
158363.063,-32.715,-23.926,-31.738,-22.461,0.000,0
158363.067,-37.598,-28.809,-30.273,-16.113,0.000,0
158363.071,-36.621,-28.320,-26.855,-22.949,0.000,0
158363.075,-28.320,-25.879,-31.738,-29.297,0.000,0
158363.079,-26.855,-23.438,-26.855,-9.277,0.000,0
158363.082,-30.762,-22.949,-19.531,-8.301,0.000,0
158363.086,-30.762,-24.414,-28.809,-26.855,0.000,0
158363.090,-25.879,-23.438,-27.344,-32.227,0.000,0
158363.094,-28.809,-21.484,-21.973,-23.926,0.000,0
158363.098,-32.227,-20.996,-22.949,-13.184,0.000,0
158363.102,-21.973,-23.438,-20.020,-27.832,0.000,0
158363.106,-14.648,-24.902,-17.578,-25.391,0.000,0
158363.110,-17.578,-20.508,-22.461,-13.672,0.000,0
158363.114,-15.625,-20.508,-22.949,-20.020,0.000,0
158363.118,-9.766,-24.414,-18.066,-18.066,0.000,0
158363.122,-14.160,-20.508,-19.043,-25.879,0.000,0
158363.125,-13.184,-16.602,-17.578,-35.645,0.000,0
158363.129,-6.836,-18.066,-20.020,-22.461,0.000,0
158363.133,-10.254,-20.508,-21.973,-15.625,0.000,0
158363.137,-8.789,-21.484,-20.020,-17.090,0.000,0
158363.141,-7.324,-21.973,-17.578,-18.066,0.000,0
158363.145,-7.812,-24.414,-18.066,-33.203,0.000,0
158363.149,-20.996,-26.367,-23.438,-41.016,0.000,0
158363.153,-21.973,-27.832,-18.555,-45.898,0.000,0
158363.157,-10.254,-22.949,-15.137,-26.367,0.000,0
158363.161,-14.160,-18.066,-21.484,-12.695,0.000,0
158363.165,-12.695,-20.020,-20.508,-23.438,0.000,1
158363.168,-31.738,-22.461,-21.484,-20.020,0.000,0
158363.172,-36.133,-25.391,-27.344,-5.371,0.000,0
158363.176,-13.184,-24.414,-27.832,-13.184,0.000,0
158363.180,-21.484,-21.484,-20.508,-16.602,0.000,0
158363.184,-32.715,-24.902,-19.043,-25.391,0.000,0
158363.188,-22.949,-21.973,-23.438,-32.715,0.000,0
158363.192,-17.578,-20.508,-22.461,-23.926,0.000,0
158363.196,-20.020,-26.855,-24.414,-19.531,0.000,0
158363.200,-22.949,-26.367,-23.926,-20.508,0.000,0
158363.204,-24.902,-22.461,-22.461,-25.391,0.000,0
158363.207,-22.461,-22.949,-27.344,-19.043,0.000,0
158363.211,-17.090,-20.996,-24.414,-10.742,0.000,0
158363.215,-24.414,-19.531,-22.461,-19.531,0.000,0
158363.219,-27.344,-19.043,-28.809,-27.344,0.000,0
158363.223,-18.066,-21.484,-29.785,-26.855,0.000,0
158363.227,-20.020,-20.508,-24.902,-23.438,0.000,0
158363.231,-25.391,-20.020,-15.625,-13.184,0.000,0
158363.235,-20.020,-22.949,-18.066,-17.090,0.000,0
158363.239,-15.137,-24.414,-21.973,-13.672,0.000,0
158363.243,-21.484,-19.531,-15.137,-15.137,0.000,0
158363.247,-26.367,-20.996,-22.461,-21.973,0.000,0
158363.250,-25.391,-30.273,-34.180,-34.180,0.000,0
158363.254,-19.531,-24.902,-21.484,-28.809,0.000,0
158363.258,-6.836,-20.996,-14.160,-1.465,0.000,0
158363.262,-2.930,-28.809,-15.625,-11.230,0.000,0
158363.266,-31.250,-27.344,-15.137,-41.504,0.000,0
158363.270,-40.527,-25.879,-20.020,-41.504,0.000,0
158363.274,-33.203,-24.414,-20.996,-17.090,0.000,0
158363.278,-24.902,-18.066,-14.648,-16.113,0.000,0
158363.282,-19.043,-16.113,-14.648,-26.855,0.000,0
158363.286,-32.715,-18.066,-16.113,-32.227,0.000,0
158363.290,-36.621,-19.043,-14.648,-35.645,0.000,0
158363.293,-34.180,-14.160,-12.207,-24.414,0.000,0
158363.297,-28.320,-17.578,-17.090,-20.508,0.000,0
158363.301,-23.926,-21.484,-16.113,-25.879,0.000,0
158363.305,-19.043,-14.648,-8.789,-19.043,0.000,0
158363.309,-19.043,-17.578,-20.020,-8.789,0.000,0
158363.313,-13.672,-20.020,-26.367,-17.090,0.000,0
158363.317,-2.441,-15.137,-21.973,-18.066,0.000,0
158363.321,-11.230,-22.461,-17.578,-15.625,0.000,0
158363.325,-17.578,-25.391,-16.602,-19.531,0.000,0
158363.329,-19.531,-23.926,-26.855,-22.461,0.000,0
158363.332,-24.902,-24.414,-29.297,-31.250,0.000,0
158363.336,-24.414,-21.973,-22.949,-25.879,0.000,0
158363.340,-28.320,-23.438,-21.484,-20.020,0.000,0
158363.344,-24.414,-22.461,-22.461,-31.738,0.000,0
158363.348,-28.320,-22.461,-24.902,-23.926,0.000,0
158363.352,-31.250,-20.996,-21.973,-33.691,0.000,0
158363.356,-27.832,-18.555,-24.414,-28.809,0.000,0
158363.360,-34.668,-21.973,-27.344,-22.461,0.000,0
158363.364,-26.855,-21.484,-20.508,-29.297,0.000,0
158363.368,-20.996,-23.926,-18.066,-13.184,0.000,0
158363.372,-18.555,-25.391,-19.531,-26.855,0.000,0
158363.375,-10.254,-26.367,-23.438,-21.484,0.000,0
158363.379,-20.996,-28.320,-24.414,-17.090,0.000,0
158363.383,-31.250,-27.832,-24.902,-30.762,0.000,0
158363.387,-28.320,-27.344,-30.762,-22.461,0.000,0
158363.391,-33.203,-28.809,-31.738,-20.508,0.000,0
158363.395,-36.621,-28.320,-28.809,-16.602,0.000,0
158363.399,-23.438,-23.438,-20.996,-16.113,0.000,0
158363.403,-22.949,-23.438,-22.949,-22.949,0.000,0
158363.407,-20.508,-25.391,-25.391,-39.062,0.000,0
158363.411,-19.531,-24.414,-19.043,-23.926,0.000,0
158363.415,-30.762,-29.297,-22.949,1.465,0.000,0
158363.418,-28.809,-36.621,-23.926,-9.277,0.000,0
158363.422,-19.531,-33.691,-22.461,-15.625,0.000,0
158363.426,-41.992,-30.273,-32.715,-23.926,0.000,0
158363.430,-55.176,-34.180,-37.109,-27.344,0.000,0
158363.434,-39.062,-33.203,-29.297,-11.719,0.000,0
158363.438,-32.227,-32.227,-27.832,-23.438,0.000,0
158363.442,-27.832,-34.668,-30.273,-30.762,0.000,0
158363.446,-30.762,-29.785,-27.344,-6.836,0.000,0
158363.450,-29.785,-29.785,-25.879,-23.438,0.000,0
158363.454,-31.250,-32.227,-24.902,-26.367,0.000,0
158363.457,-24.414,-26.367,-20.508,-21.484,0.000,0
158363.461,-19.043,-23.926,-21.484,-32.715,0.000,0
158363.465,-13.184,-23.438,-20.508,-17.578,0.000,0
158363.469,-12.695,-24.414,-17.578,-19.531,0.000,0
158363.473,-17.578,-22.949,-21.973,-19.043,0.000,0
158363.477,-20.508,-22.949,-25.879,-17.090,0.000,0
158363.481,-25.391,-24.414,-24.902,-24.902,0.000,0
158363.485,-22.461,-22.949,-29.297,-20.020,0.000,0
158363.489,-20.996,-23.438,-34.668,-19.043,0.000,0
158363.493,-17.578,-20.996,-27.832,-23.926,0.000,0
158363.497,-22.949,-21.973,-23.926,-15.137,0.000,0
158363.500,-29.297,-24.414,-20.508,-31.250,0.000,0
158363.504,-19.531,-23.438,-21.484,-28.320,0.000,0
158363.508,-18.555,-26.367,-28.809,-14.160,0.000,0
158363.512,-21.484,-30.273,-30.273,-17.578,0.000,0
158363.516,-25.391,-30.762,-27.832,-9.766,0.000,0
158363.520,-30.273,-31.738,-25.879,-23.926,0.000,0
158363.524,-36.133,-28.320,-23.926,-24.902,0.000,0
158363.528,-41.992,-26.367,-23.438,-16.113,0.000,0
158363.532,-30.762,-27.344,-24.414,-47.852,0.000,0
158363.536,-24.902,-23.926,-23.438,-37.598,0.000,0
158363.540,-17.578,-23.926,-20.508,1.953,0.000,0
158363.543,-23.438,-26.367,-19.531,-13.184,0.000,0
158363.547,-35.645,-28.809,-22.949,-22.949,0.000,0
158363.551,-25.391,-30.273,-33.691,-19.531,0.000,0
158363.555,-17.090,-24.902,-32.715,-17.090,0.000,0
158363.559,-21.484,-18.555,-23.438,-22.949,0.000,0
158363.563,-30.762,-18.066,-27.344,-25.391,0.000,0
158363.567,-22.949,-19.531,-27.344,-17.578,0.000,0
158363.571,-15.137,-24.414,-21.484,-18.066,0.000,0
158363.575,-23.438,-25.391,-19.043,-18.066,0.000,0
158363.579,-24.414,-26.855,-22.949,-13.184,0.000,0
158363.582,-25.391,-29.297,-29.297,-21.973,0.000,0
158363.586,-26.367,-27.344,-29.297,-28.320,0.000,0
158363.590,-21.484,-25.879,-32.227,-26.367,0.000,0
158363.594,-22.461,-23.438,-33.691,-19.531,0.000,0
158363.598,-23.926,-20.996,-22.949,-32.715,0.000,0
158363.602,-17.578,-20.996,-15.137,-39.062,0.000,0
158363.606,-11.719,-20.020,-18.555,-20.508,0.000,0
158363.610,-20.996,-23.438,-21.973,-23.926,0.000,0
158363.614,-16.113,-26.855,-22.949,-23.438,0.000,0
158363.618,-6.836,-30.762,-15.625,-23.438,0.000,0
158363.622,-20.020,-34.180,-15.625,-35.156,0.000,0
158363.625,-27.832,-31.250,-22.461,-38.086,0.000,0
158363.629,-20.996,-27.344,-15.137,-33.203,0.000,0
158363.633,-22.461,-26.367,-10.742,-25.391,0.000,0
158363.637,-28.809,-21.973,-16.113,-23.438,0.000,0
158363.641,-21.484,-25.391,-21.973,-24.414,0.000,0
158363.645,-19.531,-29.785,-28.320,-18.066,0.000,0
158363.649,-24.902,-25.391,-24.414,-22.461,0.000,0
158363.653,-25.391,-17.090,-21.973,-18.555,0.000,0
158363.657,-20.020,-20.996,-26.367,-24.414,0.000,0
158363.661,-32.227,-27.344,-25.879,-36.621,0.000,0
158363.665,-34.668,-27.344,-29.785,-29.297,0.000,0
158363.668,-25.391,-27.832,-29.785,-33.203,0.000,0
158363.672,-34.668,-28.809,-23.438,-41.992,0.000,0
158363.676,-30.273,-31.250,-20.996,-38.086,0.000,0
158363.680,-28.320,-26.367,-23.438,-31.738,0.000,0
158363.684,-35.645,-25.391,-28.320,-43.457,0.000,0
158363.688,-32.715,-29.297,-31.738,-32.715,0.000,0
158363.692,-22.949,-25.879,-29.785,-20.996,0.000,0
158363.696,-18.555,-21.973,-20.996,-30.273,0.000,0
158363.700,-22.461,-18.066,-19.531,-43.457,0.000,0
158363.704,-20.020,-19.043,-25.879,-26.367,0.000,0
158363.707,-22.949,-22.461,-24.902,-18.066,0.000,0
158363.711,-28.809,-19.043,-20.996,-18.066,0.000,0
158363.715,-32.227,-17.090,-20.020,-11.719,0.000,0
158363.719,-17.578,-14.160,-15.137,-16.113,0.000,0
158363.723,-6.836,-11.719,-14.648,-10.742,0.000,0
158363.727,-21.484,-11.719,-19.043,-21.484,0.000,0
158363.731,-20.020,-13.184,-18.555,-12.207,0.000,0
158363.735,-16.602,-13.672,-17.090,-4.395,0.000,0
158363.739,-25.391,-11.719,-17.578,-15.625,0.000,0
158363.743,-24.902,-11.230,-12.207,-17.090,0.000,0
158363.747,-22.461,-15.625,-16.113,-16.113,0.000,0
158363.750,-16.113,-20.508,-26.367,0.000,0.000,0
158363.754,-18.555,-22.461,-23.926,-13.184,0.000,0
158363.758,-18.066,-22.461,-20.508,-32.227,0.000,0
158363.762,-9.277,-24.902,-24.902,-22.461,0.000,0
158363.766,-15.137,-26.367,-23.438,-17.578,0.000,0
158363.770,-24.902,-29.785,-27.832,-17.090,0.000,0
158363.774,-25.879,-29.785,-30.762,-26.855,0.000,0
158363.778,-27.344,-29.297,-29.785,-23.438,0.000,0
158363.782,-35.645,-32.227,-37.109,-34.668,0.000,0
158363.786,-37.109,-31.738,-36.621,-32.715,0.000,0
158363.790,-34.668,-28.320,-26.367,-12.207,0.000,0
158363.793,-23.438,-26.367,-23.926,-19.043,0.000,0
158363.797,-24.414,-27.832,-25.391,-19.531,0.000,0
158363.801,-32.227,-26.855,-27.832,-16.602,0.000,0
158363.805,-37.598,-32.227,-30.762,-20.508,0.000,0
158363.809,-35.645,-31.738,-30.762,-24.902,0.000,0
158363.813,-22.949,-23.926,-22.949,-19.043,0.000,0
158363.817,-23.438,-21.484,-15.137,-13.672,0.000,0
158363.821,-18.555,-21.484,-21.973,-14.160,0.000,0
158363.825,-16.113,-20.996,-26.855,-15.137,0.000,0
158363.829,-26.367,-18.555,-27.344,-27.344,0.000,0
158363.832,-28.320,-17.578,-21.973,-22.461,0.000,0
158363.836,-25.879,-20.508,-22.949,-28.320,0.000,0
158363.840,-21.973,-21.973,-30.762,-31.250,0.000,0
158363.844,-13.672,-19.043,-25.879,-21.973,0.000,0
158363.848,-12.695,-21.973,-24.414,-20.996,0.000,1
158363.852,-15.137,-21.973,-24.414,-20.508,0.000,0
158363.856,-17.578,-14.648,-17.090,-14.160,0.000,0
158363.860,-15.137,-13.184,-17.090,-12.695,0.000,0
158363.864,-12.695,-21.484,-20.020,-19.531,0.000,0
158363.868,-19.531,-25.391,-21.973,-13.184,0.000,0
158363.872,-20.020,-21.973,-24.414,-12.207,0.000,0
158363.875,-21.484,-21.973,-27.832,-25.391,0.000,0
158363.879,-23.438,-23.438,-31.738,-15.625,0.000,0
158363.883,-18.555,-24.414,-33.203,-21.973,0.000,0
158363.887,-25.879,-25.879,-32.227,-36.621,0.000,0
158363.891,-34.180,-25.391,-31.738,-29.297,0.000,0
158363.895,-33.691,-24.902,-25.391,-25.391,0.000,0
158363.899,-25.391,-26.367,-29.785,-34.180,0.000,0
158363.903,-22.461,-22.949,-39.062,-21.973,0.000,0
158363.907,-21.973,-24.414,-32.715,-8.301,0.000,0
158363.911,-17.090,-24.414,-24.902,-4.883,0.000,0
158363.915,-13.672,-22.461,-19.043,-11.230,0.000,0
158363.918,-16.113,-24.902,-21.484,-20.996,0.000,0
158363.922,-24.902,-30.273,-29.297,-25.391,0.000,0
158363.926,-30.273,-36.133,-27.344,-24.902,0.000,0
158363.930,-16.602,-36.133,-24.902,-13.672,0.000,0
158363.934,-5.859,-35.156,-23.438,-27.344,0.000,0
158363.938,-8.301,-35.645,-20.996,-42.480,0.000,0
158363.942,-12.207,-32.227,-28.320,-20.508,0.000,0
158363.946,-22.949,-32.227,-37.109,-6.836,0.000,0
158363.950,-26.855,-31.738,-31.250,-14.648,0.000,0
158363.954,-35.645,-27.344,-25.391,-18.555,0.000,0
158363.957,-37.109,-28.320,-29.297,-11.230,0.000,0
158363.961,-26.855,-32.715,-34.180,-21.484,0.000,0
158363.965,-31.738,-29.785,-29.297,-21.484,0.000,0
158363.969,-29.785,-28.809,-29.297,-23.438,0.000,0
158363.973,-25.879,-30.762,-31.738,-36.621,0.000,0
158363.977,-18.066,-28.809,-30.762,-31.250,0.000,0
158363.981,-13.184,-23.926,-31.250,-31.250,0.000,0
158363.985,-16.113,-21.973,-27.344,-12.207,0.000,0
158363.989,-20.020,-24.414,-26.855,-13.672,0.000,0
158363.993,-22.461,-25.879,-24.902,-33.203,0.000,0
158363.997,-21.973,-29.785,-28.320,-32.227,0.000,0
158364.000,-27.344,-29.785,-39.551,-20.508,0.000,0
158364.004,-35.645,-31.738,-38.574,-27.344,0.000,0
158364.008,-35.645,-30.762,-33.203,-29.297,0.000,0
158364.012,-24.414,-28.320,-32.227,-26.855,0.000,0
158364.016,-17.090,-29.297,-31.738,-19.043,0.000,0
158364.020,-21.484,-26.855,-27.832,-13.184,0.000,0
158364.024,-17.578,-19.531,-18.066,-20.020,0.000,0
158364.028,-15.137,-22.461,-18.066,-14.160,0.000,0
158364.032,-23.926,-33.203,-24.902,-18.066,0.000,0
158364.036,-26.855,-26.855,-23.926,-27.832,0.000,0
158364.040,-26.855,-25.879,-21.973,-41.504,0.000,0
158364.043,-29.785,-26.855,-24.414,-31.738,0.000,0
158364.047,-26.855,-23.438,-27.344,0.488,0.000,0
158364.051,-11.719,-22.461,-19.043,-16.602,0.000,0
158364.055,-16.602,-23.926,-20.508,-31.738,0.000,0
158364.059,-27.832,-27.832,-23.926,-13.672,0.000,0
158364.063,-20.508,-26.367,-16.602,-16.602,0.000,0
158364.067,-9.277,-25.391,-16.602,-20.996,0.000,0
158364.071,-14.648,-24.902,-14.648,-19.043,0.000,0
158364.075,-18.555,-23.438,-15.137,-32.227,0.000,0
158364.079,-17.578,-25.391,-25.879,-32.715,0.000,0
158364.082,-16.602,-27.344,-27.832,-30.762,0.000,0
158364.086,-6.348,-26.855,-22.461,-25.879,0.000,0
158364.090,-19.531,-27.832,-21.484,-25.391,0.000,0
158364.094,-24.902,-29.785,-23.438,-31.250,0.000,0
158364.098,-15.137,-28.809,-25.879,-24.414,0.000,0
158364.102,-23.926,-31.738,-30.273,-38.086,0.000,0
158364.106,-35.645,-34.180,-31.738,-41.016,0.000,0
158364.110,-34.180,-35.645,-31.250,-41.504,0.000,0
158364.114,-24.902,-33.691,-27.344,-56.641,0.000,0
158364.118,-23.438,-28.320,-21.484,-36.133,0.000,0
158364.122,-16.602,-27.832,-23.438,-14.648,0.000,0
158364.125,-12.207,-20.508,-23.438,-23.438,0.000,0
158364.129,-25.391,-19.043,-18.555,-29.297,0.000,0
158364.133,-31.250,-27.344,-24.414,-16.113,0.000,0
158364.137,-30.273,-26.855,-25.879,-16.113,0.000,0
158364.141,-34.180,-28.809,-21.973,-36.133,0.000,0
158364.145,-31.738,-33.203,-22.949,-34.180,0.000,0
158364.149,-32.227,-31.738,-26.855,-26.855,0.000,0
158364.153,-28.320,-31.738,-29.785,-34.668,0.000,0
158364.157,-25.879,-30.762,-29.297,-34.180,0.000,0
158364.161,-32.715,-25.879,-28.809,-29.297,0.000,0
158364.165,-29.297,-27.344,-23.926,-20.020,0.000,0
158364.168,-20.508,-31.738,-23.926,-8.789,0.000,0
158364.172,-28.809,-25.879,-22.461,-10.254,0.000,0
158364.176,-30.273,-16.113,-17.090,-35.156,0.000,0
158364.180,-20.020,-14.648,-15.137,-31.738,0.000,0
158364.184,-16.602,-16.602,-18.555,-12.695,0.000,0
158364.188,-23.926,-21.973,-22.949,-18.555,0.000,0
158364.192,-28.809,-24.902,-25.879,-24.902,0.000,0
158364.196,-20.996,-16.602,-24.902,-11.230,0.000,0
158364.200,-19.043,-20.996,-27.344,-18.066,0.000,0
158364.204,-19.043,-29.297,-26.855,-8.301,0.000,0
158364.207,-21.484,-25.391,-24.902,-7.324,0.000,0
158364.211,-20.996,-23.926,-28.320,-28.809,0.000,0
158364.215,-12.695,-24.902,-24.414,-25.879,0.000,0
158364.219,-13.672,-25.391,-18.066,-23.926,0.000,0
158364.223,-14.648,-22.461,-18.555,-19.043,0.000,0
158364.227,-10.254,-19.531,-22.461,-16.602,0.000,0
158364.231,-13.672,-19.043,-15.625,-28.809,0.000,0
158364.235,-19.043,-20.996,-10.742,-18.555,0.000,0
158364.239,-18.066,-23.926,-21.484,-7.324,0.000,0
158364.243,-11.719,-16.602,-14.160,-6.836,0.000,0
158364.247,-8.301,-9.766,-9.766,-4.395,0.000,0
158364.250,-11.719,-14.648,-15.625,-20.508,0.000,0
158364.254,-22.949,-19.043,-22.949,-31.250,0.000,0
158364.258,-23.438,-20.020,-31.250,-29.297,0.000,0
158364.262,-15.625,-19.043,-26.855,-23.926,0.000,0
158364.266,-13.672,-16.113,-23.438,-9.277,0.000,0
158364.270,-18.555,-18.555,-21.484,-21.973,0.000,0
158364.274,-20.020,-21.484,-22.461,-31.250,0.000,0
158364.278,-22.461,-22.949,-24.902,-25.879,0.000,0
158364.282,-23.438,-23.926,-25.391,-24.414,0.000,0
158364.286,-23.438,-23.926,-25.879,-29.785,0.000,0
158364.290,-28.320,-25.391,-24.902,-44.922,0.000,0
158364.293,-27.344,-21.973,-23.438,-50.293,0.000,0
158364.297,-29.785,-15.137,-23.926,-27.832,0.000,0
158364.301,-27.344,-19.043,-31.250,-2.930,0.000,0
158364.305,-20.508,-20.020,-32.227,-6.836,0.000,0
158364.309,-18.555,-16.602,-22.461,-29.297,0.000,0
158364.313,-15.625,-16.113,-21.973,-41.504,0.000,0
158364.317,-16.113,-20.508,-28.809,-26.855,0.000,0
158364.321,-19.531,-28.809,-26.367,-32.715,0.000,0
158364.325,-23.438,-25.391,-26.367,-29.297,0.000,0
158364.329,-20.508,-19.531,-26.367,-17.090,0.000,0
158364.332,-12.207,-17.578,-21.973,-31.250,0.000,0
158364.336,-8.301,-17.578,-17.578,-15.625,0.000,0
158364.340,-13.184,-19.043,-22.949,-17.090,0.000,0
158364.344,-13.184,-22.461,-30.273,-32.227,0.000,0
158364.348,-16.602,-22.949,-24.902,-20.020,0.000,0
158364.352,-27.344,-20.996,-23.438,-16.602,0.000,0
158364.356,-27.344,-24.414,-26.367,-17.578,0.000,0
158364.360,-22.461,-22.461,-22.461,-34.180,0.000,0
158364.364,-16.602,-17.578,-23.438,-24.902,0.000,0
158364.368,-23.438,-16.113,-22.949,-22.949,0.000,0
158364.372,-29.297,-16.113,-24.902,-44.434,0.000,0
158364.375,-27.344,-21.973,-32.715,-28.320,0.000,0
158364.379,-22.461,-26.367,-27.344,-15.625,0.000,0
158364.383,-18.066,-23.438,-17.090,-12.207,0.000,0
158364.387,-19.531,-23.926,-21.484,-17.578,0.000,0
158364.391,-18.555,-23.926,-24.414,-26.855,0.000,0
158364.395,-7.812,-20.508,-21.973,-20.508,0.000,0
158364.399,-7.324,-18.066,-18.066,-8.301,0.000,0
158364.403,-11.230,-18.066,-19.531,-1.953,0.000,0
158364.407,-4.883,-20.996,-25.391,2.441,0.000,0
158364.411,-9.277,-23.926,-26.367,-8.789,0.000,0
158364.415,-20.508,-21.973,-23.926,-18.066,0.000,0
158364.418,-22.949,-29.785,-25.391,-19.531,0.000,0
158364.422,-29.785,-33.203,-28.320,-20.996,0.000,0
158364.426,-31.738,-27.832,-24.414,-24.902,0.000,0
158364.430,-27.832,-29.297,-20.508,-40.527,0.000,0
158364.434,-23.438,-28.809,-24.414,-29.785,0.000,0
158364.438,-27.832,-26.367,-32.715,-18.555,0.000,0
158364.442,-34.668,-26.367,-32.227,-27.344,0.000,0
158364.446,-33.691,-27.832,-27.344,-20.020,0.000,0
158364.450,-30.762,-27.832,-28.320,-19.043,0.000,0
158364.454,-34.180,-26.855,-27.832,-29.785,0.000,0
158364.457,-37.598,-24.902,-31.250,-25.391,0.000,0
158364.461,-22.461,-23.438,-32.715,-24.414,0.000,0
158364.465,-19.531,-21.973,-24.902,-28.320,0.000,0
158364.469,-21.484,-21.484,-27.344,-21.484,0.000,0
158364.473,-31.738,-20.020,-29.785,-20.020,0.000,0
158364.477,-33.203,-16.602,-26.367,-16.113,0.000,0
158364.481,-21.973,-20.508,-24.414,-8.301,0.000,0
158364.485,-18.066,-22.949,-29.785,-12.207,0.000,0
158364.489,-28.809,-24.902,-29.297,-20.996,0.000,0
158364.493,-32.227,-31.250,-28.320,-25.391,0.000,0
158364.497,-25.879,-31.250,-30.762,-36.621,0.000,0
158364.500,-35.645,-28.320,-31.250,-43.457,0.000,0
158364.504,-39.062,-26.855,-30.762,-30.762,0.000,0
158364.508,-33.691,-23.438,-23.438,-20.020,0.000,0
158364.512,-28.809,-22.949,-23.926,-26.367,0.000,0
158364.516,-26.367,-27.832,-26.367,-20.508,0.000,0
158364.520,-27.344,-34.180,-23.926,-18.066,0.000,0
158364.524,-26.367,-33.691,-23.926,-31.250,0.000,0
158364.528,-35.645,-32.715,-31.250,-33.691,0.000,0
158364.532,-33.691,-28.809,-35.645,-33.691,0.000,0
158364.536,-27.344,-24.902,-28.320,-42.969,0.000,0
158364.540,-24.414,-24.902,-29.785,-27.832,0.000,0
158364.543,-20.020,-24.414,-26.367,-16.113,0.000,0
158364.547,-20.996,-25.391,-23.438,-14.648,0.000,0
158364.551,-27.344,-22.461,-26.367,-12.207,0.000,0
158364.555,-11.230,-17.578,-20.508,-20.020,0.000,0
158364.559,-10.254,-18.555,-23.926,-17.578,0.000,0
158364.563,-20.508,-22.461,-25.879,-12.207,0.000,0
158364.567,-14.160,-22.461,-20.508,-1.953,0.000,0
158364.571,-16.113,-19.043,-24.902,-8.301,0.000,0
158364.575,-24.414,-22.461,-33.203,-32.715,0.000,0
158364.579,-18.555,-21.484,-27.344,-17.578,0.000,1
158364.582,-22.949,-17.578,-22.949,-20.020,0.000,0
158364.586,-15.625,-17.090,-20.020,-31.250,0.000,0
158364.590,-6.348,-15.625,-18.555,-17.578,0.000,0
158364.594,-18.066,-16.602,-17.578,-30.762,0.000,0
158364.598,-20.020,-20.996,-20.020,-44.922,0.000,0
158364.602,-20.508,-18.555,-20.508,-28.809,0.000,0
158364.606,-24.414,-15.137,-20.508,-29.297,0.000,0
158364.610,-20.020,-20.020,-26.855,-32.227,0.000,0
158364.614,-16.113,-20.996,-24.414,-10.254,0.000,0
158364.618,-19.043,-17.090,-24.902,-3.418,0.000,0
158364.622,-25.391,-15.625,-22.461,-7.812,0.000,0
158364.625,-21.484,-14.160,-18.066,-27.832,0.000,0
158364.629,-16.113,-17.090,-25.391,-31.250,0.000,0
158364.633,-10.254,-19.531,-23.438,-15.625,0.000,0
158364.637,-3.418,-15.625,-18.555,-11.230,0.000,0
158364.641,-15.625,-18.066,-21.484,-14.648,0.000,0
158364.645,-18.555,-26.367,-22.461,-32.715,0.000,0
158364.649,-9.277,-20.996,-27.344,-25.391,0.000,0
158364.653,-5.371,-13.672,-20.508,-10.254,0.000,0
158364.657,-4.883,-15.137,-10.742,-26.855,0.000,0
158364.661,-8.301,-19.531,-15.625,-33.203,0.000,0
158364.665,-7.812,-19.043,-13.184,-21.484,0.000,0
158364.668,-7.812,-13.672,-9.277,-7.324,0.000,0
158364.672,-11.230,-14.160,-16.602,-13.672,0.000,0
158364.676,-18.066,-19.531,-23.438,-17.090,0.000,0
158364.680,-17.578,-21.973,-24.414,-15.625,0.000,0
158364.684,-18.555,-24.414,-21.484,-25.391,0.000,0
158364.688,-25.391,-25.391,-22.461,-30.273,0.000,0
158364.692,-15.625,-27.832,-20.996,-16.113,0.000,0
158364.696,-13.184,-29.297,-16.602,-11.230,0.000,0
158364.700,-17.578,-22.949,-16.602,-10.254,0.000,0
158364.704,-19.043,-21.973,-12.695,-25.391,0.000,0
158364.707,-24.902,-23.438,-15.137,-32.227,0.000,0
158364.711,-25.879,-23.926,-20.996,-16.113,0.000,0
158364.715,-23.926,-21.973,-20.996,-14.648,0.000,0
158364.719,-33.203,-26.367,-30.273,-22.461,0.000,0
158364.723,-24.414,-28.809,-33.691,-31.738,0.000,0
158364.727,-24.902,-22.461,-29.297,-22.949,0.000,0
158364.731,-18.555,-20.996,-22.461,-14.648,0.000,0
158364.735,0.488,-24.902,-22.461,-6.348,0.000,0
158364.739,-16.113,-29.785,-30.273,-16.113,0.000,0
158364.743,-34.180,-28.320,-29.297,-28.809,0.000,0
158364.747,-37.598,-21.484,-28.809,-28.809,0.000,0
158364.750,-43.457,-15.625,-35.645,-25.391,0.000,0
158364.754,-30.762,-18.555,-37.598,-15.625,0.000,0
158364.758,-27.832,-21.484,-33.203,-33.203,0.000,0
158364.762,-40.039,-16.602,-33.203,-33.203,0.000,0
158364.766,-34.668,-21.484,-35.645,-0.488,0.000,0
158364.770,-32.715,-20.996,-33.691,-7.812,0.000,0
158364.774,-34.668,-15.137,-31.250,-24.414,0.000,0
158364.778,-29.297,-16.602,-25.879,-17.578,0.000,0
158364.782,-26.367,-21.484,-28.809,-25.391,0.000,0
158364.786,-23.438,-23.926,-31.738,-42.480,0.000,0
158364.790,-24.414,-19.043,-30.273,-23.438,0.000,0
158364.793,-21.484,-18.555,-27.344,-0.488,0.000,0
158364.797,-17.090,-19.043,-23.438,-10.742,0.000,0
158364.801,-15.625,-14.648,-21.484,-26.367,0.000,0
158364.805,-20.020,-11.230,-20.508,-13.672,0.000,0
158364.809,-21.973,-13.672,-22.949,-11.230,0.000,0
158364.813,-10.742,-16.113,-25.879,-19.531,0.000,0
158364.817,-5.859,-17.578,-27.344,-23.438,0.000,0
158364.821,-15.625,-18.066,-22.949,-27.344,0.000,0
158364.825,-18.066,-17.578,-24.414,-27.832,0.000,0
158364.829,-24.902,-18.066,-26.855,-20.996,0.000,0
158364.832,-19.531,-17.578,-22.461,-12.207,0.000,0
158364.836,-10.254,-13.672,-16.113,-3.418,0.000,0
158364.840,-17.090,-14.648,-20.020,-23.438,0.000,0
158364.844,-14.648,-11.719,-20.508,-37.109,0.000,0
158364.848,-25.391,-13.672,-21.973,-28.809,0.000,0
158364.852,-24.414,-19.043,-27.832,-23.438,0.000,0
158364.856,-20.508,-15.625,-23.926,-10.742,0.000,0
158364.860,-26.367,-13.184,-24.902,-12.695,0.000,0
158364.864,-21.973,-5.859,-20.996,-8.301,0.000,0
158364.868,-9.766,-3.906,-18.066,-8.789,0.000,0
158364.872,-11.230,-3.418,-20.996,-12.695,0.000,0
158364.875,-19.531,-7.812,-29.297,-10.254,0.000,0
158364.879,-13.672,-8.301,-31.250,-2.930,0.000,0
158364.883,-16.602,5.859,-21.484,-8.789,0.000,0
158364.887,-31.250,9.277,-22.461,-29.297,0.000,0
158364.891,-24.902,9.766,-25.391,-22.461,0.000,0
158364.895,-12.207,14.160,-26.855,-5.371,0.000,0
158364.899,-20.020,21.484,-23.438,-12.207,0.000,0
158364.903,-22.949,26.855,-20.508,-8.301,0.000,0
158364.907,-24.902,29.785,-26.855,-8.301,0.000,0
158364.911,-22.949,35.156,-27.832,-17.090,0.000,0
158364.915,-15.625,36.621,-29.785,-8.789,0.000,0
158364.918,-15.625,39.062,-27.344,-2.441,0.000,0
158364.922,-17.090,44.434,-27.344,-21.973,0.000,0
158364.926,-28.320,45.410,-37.109,-34.180,0.000,0
158364.930,-29.785,44.434,-37.598,-18.066,0.000,0
158364.934,-22.461,46.875,-38.086,-22.461,0.000,0
158364.938,-27.832,42.969,-37.109,-36.133,0.000,0
158364.942,-35.156,39.062,-38.086,-35.645,0.000,0
158364.946,-37.109,35.645,-46.387,-36.133,0.000,0
158364.950,-32.715,33.203,-43.457,-46.387,0.000,0
158364.954,-29.297,35.156,-37.109,-40.527,0.000,0
158364.957,-33.203,25.391,-42.480,-28.320,0.000,0
158364.961,-32.227,19.531,-44.922,-54.688,0.000,0
158364.965,-33.691,17.578,-40.039,-53.711,0.000,0
158364.969,-28.320,8.301,-46.387,-17.578,0.000,0
158364.973,-27.832,1.465,-52.734,-24.414,0.000,0
158364.977,-36.133,1.953,-45.410,-40.039,0.000,0
158364.981,-28.809,1.953,-40.039,-35.645,0.000,0
158364.985,-30.762,-2.930,-42.969,-35.156,0.000,0
158364.989,-22.949,-1.465,-35.645,-28.320,0.000,0
158364.993,-13.184,-1.953,-34.180,-24.414,0.000,0
158364.997,-26.855,-6.348,-35.156,-38.574,0.000,0
158365.000,-22.461,-9.766,-26.367,-42.480,0.000,0
158365.004,-18.555,-19.043,-32.227,-32.715,0.000,0
158365.008,-35.156,-21.973,-32.715,-28.809,0.000,0
158365.012,-39.062,-22.461,-24.902,-23.926,0.000,0
158365.016,-39.062,-28.320,-21.484,-17.090,0.000,0
158365.020,-47.363,-29.297,-20.020,-23.438,0.000,0
158365.024,-45.898,-28.809,-29.297,-20.508,0.000,0
158365.028,-41.016,-32.715,-32.715,-5.859,0.000,0
158365.032,-32.715,-31.250,-25.391,-6.348,0.000,0
158365.036,-29.785,-31.738,-24.414,-27.344,0.000,0
158365.040,-34.180,-33.203,-27.344,-34.668,0.000,0
158365.043,-32.227,-34.668,-28.809,-9.277,0.000,0
158365.047,-25.879,-41.992,-30.273,-17.578,0.000,0
158365.051,-16.113,-43.945,-29.785,-36.621,0.000,0
158365.055,-21.484,-45.410,-21.973,-35.645,0.000,0
158365.059,-30.273,-44.922,-21.484,-47.363,0.000,0
158365.063,-14.648,-43.945,-24.414,-32.227,0.000,0
158365.067,-20.020,-45.410,-21.973,-27.832,0.000,0
158365.071,-29.297,-41.504,-21.973,-23.926,0.000,0
158365.075,-21.973,-41.016,-23.926,-11.230,0.000,0
158365.079,-23.926,-46.875,-25.391,-19.531,0.000,0
158365.082,-20.996,-47.363,-22.461,-17.090,0.000,0
158365.086,-15.625,-44.434,-20.996,-5.371,0.000,0
158365.090,-19.043,-42.969,-24.902,-18.066,0.000,0
158365.094,-17.578,-43.457,-22.461,-30.762,0.000,0
158365.098,-15.137,-44.922,-18.066,-30.762,0.000,0
158365.102,-14.160,-38.086,-15.137,-24.414,0.000,0
158365.106,-19.043,-38.086,-16.602,-6.348,0.000,0
158365.110,-22.461,-49.316,-27.344,-2.441,0.000,0
158365.114,-11.230,-50.781,-25.391,-15.137,0.000,0
158365.118,-22.949,-49.805,-23.926,-22.461,0.000,0
158365.122,-34.668,-47.363,-28.320,-20.996,0.000,0
158365.125,-32.227,-46.875,-26.855,-13.672,0.000,0
158365.129,-40.527,-46.875,-28.809,-26.855,0.000,0
158365.133,-35.156,-47.852,-24.902,-33.203,0.000,0
158365.137,-33.203,-43.945,-20.996,-28.320,0.000,0
158365.141,-31.738,-41.016,-25.879,-36.133,0.000,0
158365.145,-23.438,-47.363,-28.320,-34.668,0.000,0
158365.149,-20.508,-45.898,-24.902,-27.344,0.000,0
158365.153,-12.207,-41.504,-22.461,-18.555,0.000,0
158365.157,-20.508,-43.945,-24.902,-45.898,0.000,0
158365.161,-31.738,-42.480,-32.227,-45.898,0.000,0
158365.165,-28.809,-41.992,-26.855,-30.273,0.000,0
158365.168,-31.738,-46.387,-23.438,-29.297,0.000,0
158365.172,-24.902,-44.434,-28.320,0.488,0.000,0
158365.176,-15.625,-41.504,-23.438,-7.324,0.000,0
158365.180,-20.508,-40.039,-17.578,-36.133,0.000,0
158365.184,-19.043,-40.039,-14.648,-25.879,0.000,0
158365.188,-15.625,-46.387,-20.996,-11.719,0.000,0
158365.192,-24.902,-47.852,-23.926,-22.461,0.000,0
158365.196,-34.668,-45.410,-20.508,-32.715,0.000,0
158365.200,-34.180,-42.480,-28.809,-17.578,0.000,0
158365.204,-24.902,-42.969,-30.762,-21.973,0.000,0
158365.207,-23.438,-42.480,-33.691,-27.832,0.000,0
158365.211,-23.438,-42.969,-31.250,-27.344,0.000,0
158365.215,-16.602,-45.410,-25.879,-28.809,0.000,0
158365.219,-21.973,-41.016,-27.832,-15.625,0.000,0
158365.223,-20.996,-41.504,-28.809,-15.625,0.000,0
158365.227,-18.066,-43.945,-34.180,-24.414,0.000,0
158365.231,-26.367,-40.527,-35.645,-28.320,0.000,2
158365.235,-28.320,-37.109,-33.203,-36.133,0.000,0
158365.239,-24.902,-35.156,-24.902,-32.227,0.000,0
158365.243,-22.461,-34.668,-20.996,-26.367,0.000,0
158365.247,-14.160,-33.203,-22.461,-15.625,0.000,0
158365.250,-10.254,-27.832,-18.066,-8.301,0.000,0
158365.254,-20.996,-32.227,-19.043,-21.973,0.000,0
158365.258,-21.484,-38.574,-26.367,-26.855,0.000,0
158365.262,-20.508,-36.621,-28.320,-20.508,0.000,0
158365.266,-23.438,-34.668,-26.367,-26.367,0.000,0
158365.270,-15.625,-33.203,-20.996,-24.902,0.000,0
158365.274,-15.137,-34.180,-19.043,-35.156,0.000,0
158365.278,-20.996,-36.621,-26.367,-35.645,0.000,0
158365.282,-23.438,-31.250,-20.996,-19.531,0.000,0
158365.286,-21.973,-31.738,-20.508,-17.578,0.000,0
158365.290,-22.461,-35.156,-27.344,-18.066,0.000,0
158365.293,-23.926,-35.156,-21.484,-23.438,0.000,0
158365.297,-28.809,-36.621,-23.926,-30.762,0.000,0
158365.301,-18.066,-32.715,-22.461,-11.719,0.000,0
158365.305,-10.742,-32.715,-16.602,3.418,0.000,0
158365.309,-21.484,-33.691,-22.949,-10.742,0.000,0
158365.313,-27.344,-33.691,-20.508,-29.297,0.000,0
158365.317,-26.367,-29.297,-18.555,-36.133,0.000,0
158365.321,-29.785,-29.297,-25.879,-30.273,0.000,0
158365.325,-30.273,-30.762,-27.344,-20.508,0.000,0
158365.329,-20.996,-26.367,-22.949,-6.836,0.000,0
158365.332,-29.785,-32.715,-20.020,-10.254,0.000,0
158365.336,-34.668,-32.227,-22.949,-25.391,0.000,0
158365.340,-26.855,-25.879,-19.043,-22.461,0.000,0
158365.344,-30.762,-28.320,-18.555,-23.926,0.000,0
158365.348,-19.531,-27.344,-18.066,-18.066,0.000,0
158365.352,-17.578,-25.391,-12.695,-25.391,0.000,0
158365.356,-30.273,-27.344,-18.066,-32.715,0.000,0
158365.360,-24.414,-27.832,-24.902,-20.020,0.000,0
158365.364,-14.648,-26.367,-24.414,-21.484,0.000,0
158365.368,-20.508,-26.855,-21.484,-32.715,0.000,0
158365.372,-19.531,-26.367,-16.602,-27.344,0.000,0
158365.375,-28.320,-30.273,-22.461,-17.578,0.000,0
158365.379,-25.391,-36.621,-33.203,-18.555,0.000,0
158365.383,-14.160,-35.156,-29.785,-16.113,0.000,0
158365.387,-20.508,-33.203,-26.855,-14.160,0.000,0
158365.391,-27.832,-31.250,-21.973,-21.484,0.000,0
158365.395,-28.320,-30.273,-20.020,-21.973,0.000,0
158365.399,-22.949,-26.367,-21.973,-6.348,0.000,0
158365.403,-21.973,-27.344,-17.090,-11.719,0.000,0
158365.407,-19.043,-29.785,-20.020,-29.785,0.000,0
158365.411,-15.625,-27.832,-22.949,-27.344,0.000,0
158365.415,-12.695,-28.809,-21.484,-26.367,0.000,0
158365.418,-10.742,-27.832,-20.020,-22.949,0.000,0
158365.422,-19.043,-26.855,-19.531,-20.020,0.000,0
158365.426,-27.344,-28.809,-25.879,-19.043,0.000,0
158365.430,-22.461,-21.973,-18.555,-20.508,0.000,0
158365.434,-21.973,-19.043,-7.812,-20.020,0.000,0
158365.438,-30.273,-24.902,-17.578,-19.531,0.000,0
158365.442,-20.508,-26.367,-22.949,-24.902,0.000,0
158365.446,-18.555,-23.926,-15.625,-32.227,0.000,0
158365.450,-19.043,-20.020,-8.301,-20.508,0.000,0
158365.454,-8.789,-19.531,-9.766,-8.789,0.000,0
158365.457,-18.066,-21.484,-17.090,-20.996,0.000,0
158365.461,-29.785,-24.902,-20.508,-24.902,0.000,0
158365.465,-31.250,-24.902,-21.484,-18.066,0.000,0
158365.469,-20.508,-27.344,-25.391,-22.949,0.000,0
158365.473,-16.602,-27.344,-23.438,-24.414,0.000,0
158365.477,-21.484,-21.973,-14.648,-13.672,0.000,0
158365.481,-13.672,-19.043,-14.648,1.953,0.000,0
158365.485,-8.301,-21.484,-23.926,-7.324,0.000,0
158365.489,-5.859,-26.855,-23.926,-25.879,0.000,0
158365.493,-10.254,-28.809,-21.484,-23.438,0.000,0
158365.497,-22.949,-23.438,-25.391,-23.438,0.000,0
158365.500,-14.648,-25.879,-28.320,-23.438,0.000,0
158365.504,-13.184,-29.297,-26.367,-12.207,0.000,0
158365.508,-24.902,-24.902,-22.461,-14.648,0.000,0
158365.512,-18.066,-25.391,-20.996,-17.578,0.000,0
158365.516,-14.648,-25.391,-21.973,-10.254,0.000,0
158365.520,-16.113,-24.902,-25.879,-5.371,0.000,0
158365.524,-16.113,-23.438,-25.391,-7.324,0.000,0
158365.528,-14.648,-20.996,-26.855,-4.883,0.000,0
158365.532,-7.324,-20.996,-23.438,-10.254,0.000,0
158365.536,-8.789,-18.066,-19.043,-21.484,0.000,0
158365.540,-13.184,-14.160,-23.438,-22.949,0.000,0
158365.543,-13.184,-15.137,-21.484,-10.742,0.000,0
158365.547,-13.672,-19.043,-21.484,-6.836,0.000,0
158365.551,-17.578,-18.555,-28.809,-14.160,0.000,0
158365.555,-20.996,-19.043,-28.809,-15.137,0.000,0
158365.559,-13.672,-21.973,-31.250,-14.648,0.000,0
158365.563,-16.113,-20.996,-32.715,-16.113,0.000,0
158365.567,-27.344,-21.973,-26.367,-18.555,0.000,0
158365.571,-27.832,-26.855,-25.391,-25.391,0.000,0
158365.575,-20.508,-26.367,-33.203,-24.414,0.000,0
158365.579,-18.066,-24.902,-33.203,-9.766,0.000,0
158365.582,-28.809,-23.438,-26.367,-13.184,0.000,0
158365.586,-24.902,-22.461,-27.344,-21.484,0.000,0
158365.590,-14.648,-25.391,-31.738,-20.508,0.000,0
158365.594,-18.066,-24.902,-33.203,-20.996,0.000,0
158365.598,-25.391,-26.855,-26.855,-20.996,0.000,0
158365.602,-34.668,-33.691,-28.320,-16.602,0.000,0
158365.606,-33.203,-38.574,-37.598,-16.113,0.000,0
158365.610,-31.250,-39.062,-31.738,-30.273,0.000,0
158365.614,-39.062,-35.645,-33.691,-33.691,0.000,0
158365.618,-40.527,-33.203,-43.457,-20.020,0.000,0
158365.622,-35.645,-32.227,-38.086,-19.531,0.000,0
158365.625,-32.715,-31.250,-32.227,-28.320,0.000,0
158365.629,-36.133,-33.691,-30.762,-41.016,0.000,0
158365.633,-34.668,-34.180,-32.715,-40.039,0.000,0
158365.637,-31.738,-35.156,-33.203,-23.438,0.000,0
158365.641,-31.738,-33.691,-30.762,-17.578,0.000,0
158365.645,-29.785,-30.762,-31.250,-21.973,0.000,0
158365.649,-22.949,-36.133,-26.855,-39.062,0.000,0
158365.653,-21.973,-31.250,-24.414,-34.668,0.000,0
158365.657,-22.949,-21.973,-26.855,-19.043,0.000,0
158365.661,-20.020,-24.414,-26.855,-23.926,0.000,0
158365.665,-13.184,-23.926,-24.414,-29.297,0.000,0
158365.668,-17.090,-23.926,-19.531,-29.785,0.000,0
158365.672,-22.949,-27.832,-26.855,-34.668,0.000,0
158365.676,-24.902,-22.949,-32.715,-36.621,0.000,0
158365.680,-28.809,-25.879,-33.691,-21.484,0.000,0
158365.684,-35.156,-32.715,-35.645,-19.531,0.000,0
158365.688,-31.250,-25.879,-22.461,-24.414,0.000,0
158365.692,-22.949,-26.855,-26.367,-28.809,0.000,0
158365.696,-23.926,-30.273,-31.738,-36.133,0.000,0
158365.700,-27.344,-28.320,-25.879,-33.691,0.000,0
158365.704,-24.414,-28.320,-29.297,-18.066,0.000,0
158365.707,-24.902,-25.391,-24.902,-13.672,0.000,0
158365.711,-20.996,-26.855,-26.855,-24.902,0.000,0
158365.715,-23.926,-28.320,-27.832,-9.766,0.000,0
158365.719,-24.414,-22.461,-15.137,0.488,0.000,0
158365.723,-8.789,-20.508,-21.973,-20.020,0.000,0
158365.727,-13.184,-20.996,-22.461,-34.180,0.000,0
158365.731,-20.508,-20.996,-19.531,-25.391,0.000,0
158365.735,-21.484,-20.996,-25.879,-21.484,0.000,0
158365.739,-20.020,-23.438,-24.902,-34.668,0.000,0
158365.743,-12.207,-25.391,-22.949,-33.203,0.000,0
158365.747,-20.020,-30.273,-28.320,-17.578,0.000,0
158365.750,-20.020,-29.785,-27.344,-17.090,0.000,0
158365.754,-6.836,-23.926,-22.461,-21.484,0.000,0
158365.758,-10.254,-20.996,-21.484,-10.254,0.000,0
158365.762,-13.184,-17.578,-15.137,2.930,0.000,0
158365.766,-16.602,-20.508,-13.672,-16.113,0.000,0
158365.770,-21.973,-21.973,-19.043,-37.598,0.000,0
158365.774,-23.438,-20.020,-24.902,-49.316,0.000,0
158365.778,-22.949,-21.484,-25.391,-41.016,0.000,0
158365.782,-18.555,-20.996,-20.508,-16.602,0.000,0
158365.786,-15.625,-18.066,-16.602,-19.531,0.000,0
158365.790,-19.531,-17.090,-15.137,-20.508,0.000,1
158365.793,-17.578,-12.207,-15.625,-13.672,0.000,0
158365.797,-13.672,-13.672,-16.602,-3.418,0.000,0
158365.801,-17.090,-16.113,-15.137,4.883,0.000,0
158365.805,-12.207,-15.625,-15.137,-3.418,0.000,0
158365.809,-14.160,-18.066,-20.996,-14.648,0.000,0
158365.813,-21.973,-18.066,-24.902,-23.438,0.000,0
158365.817,-16.602,-17.578,-20.508,-5.859,0.000,0
158365.821,-18.066,-19.043,-18.066,6.836,0.000,0
158365.825,-34.180,-26.855,-23.438,-18.555,0.000,0
158365.829,-22.949,-28.809,-27.344,-20.508,0.000,0
158365.832,-10.254,-26.855,-28.320,-13.184,0.000,0
158365.836,-20.996,-29.297,-33.203,-34.668,0.000,0
158365.840,-25.879,-29.785,-28.320,-33.203,0.000,0
158365.844,-22.461,-33.203,-24.414,-19.043,0.000,0
158365.848,-15.137,-33.691,-25.391,-37.598,0.000,0
158365.852,-20.020,-31.250,-15.625,-34.180,0.000,0
158365.856,-29.297,-29.785,-11.719,-5.859,0.000,0
158365.860,-14.648,-29.785,-21.484,-20.996,0.000,0
158365.864,-17.578,-30.762,-21.484,-20.508,0.000,0
158365.868,-31.738,-29.297,-17.578,-17.090,0.000,0
158365.872,-25.391,-24.902,-22.461,-28.320,0.000,0
158365.875,-24.414,-25.879,-28.809,-24.414,0.000,0
158365.879,-29.785,-21.973,-23.438,-25.391,0.000,0
158365.883,-24.414,-17.578,-18.555,-25.879,0.000,0
158365.887,-13.184,-14.648,-22.949,-32.227,0.000,0
158365.891,-12.695,-11.719,-18.066,-27.832,0.000,0
158365.895,-20.020,-16.602,-20.020,-21.973,0.000,0
158365.899,-28.809,-21.973,-20.020,-16.602,0.000,0
158365.903,-21.484,-24.414,-21.973,-15.625,0.000,0
158365.907,-16.602,-23.438,-22.461,-21.973,0.000,0
158365.911,-20.508,-21.484,-16.113,-20.020,0.000,0
158365.915,-26.855,-22.949,-18.555,-11.230,0.000,0
158365.918,-22.461,-22.461,-21.973,-15.625,0.000,0
158365.922,-25.879,-21.484,-20.508,-30.273,0.000,0
158365.926,-21.484,-20.020,-18.555,-21.973,0.000,0
158365.930,-17.090,-16.113,-16.602,-17.578,0.000,0
158365.934,-31.738,-20.508,-17.578,-27.344,0.000,0
158365.938,-32.227,-20.020,-20.020,-12.695,0.000,0
158365.942,-31.738,-19.043,-16.602,0.000,0.000,0
158365.946,-30.273,-24.902,-18.066,-22.461,0.000,0
158365.950,-30.762,-26.855,-25.391,-32.715,0.000,0
158365.954,-33.691,-26.855,-23.438,-28.320,0.000,0
158365.957,-24.902,-24.902,-21.973,-27.832,0.000,0
158365.961,-23.438,-28.320,-23.438,-28.320,0.000,0
158365.965,-34.180,-30.762,-28.320,-28.320,0.000,0
158365.969,-37.109,-26.855,-33.691,-23.438,0.000,0
158365.973,-34.180,-26.367,-34.180,-26.367,0.000,0
158365.977,-24.414,-27.344,-31.250,-29.785,0.000,0
158365.981,-16.602,-28.320,-30.762,-30.273,0.000,0
158365.985,-23.438,-26.855,-26.367,-32.227,0.000,0
158365.989,-29.297,-20.508,-21.484,-25.879,0.000,0
158365.993,-27.832,-28.320,-27.344,-32.227,0.000,0
158365.997,-26.367,-33.203,-30.273,-19.043,0.000,0
158366.000,-20.508,-29.785,-23.926,-10.742,0.000,0
158366.004,-20.996,-30.762,-25.391,-30.273,0.000,0
158366.008,-25.879,-26.855,-26.855,-31.738,0.000,0
158366.012,-17.090,-23.438,-22.949,-19.531,0.000,0
158366.016,-26.367,-23.438,-23.438,-13.672,0.000,0
158366.020,-26.855,-27.832,-28.809,-25.879,0.000,0
158366.024,-20.508,-26.855,-24.414,-28.809,0.000,0
158366.028,-23.438,-22.461,-25.391,-13.184,0.000,0
158366.032,-18.066,-20.996,-31.250,-6.836,0.000,0
158366.036,-24.902,-22.949,-33.203,-14.648,0.000,0
158366.040,-28.809,-25.391,-29.785,-26.367,0.000,0
158366.043,-21.484,-23.438,-20.996,-42.480,0.000,0
158366.047,-20.508,-19.531,-18.555,-33.691,0.000,0
158366.051,-19.531,-21.973,-23.926,-18.066,0.000,0
158366.055,-22.461,-18.555,-20.996,-9.766,0.000,0
158366.059,-30.273,-19.043,-25.391,-20.996,0.000,0
158366.063,-31.738,-23.926,-27.832,-42.969,0.000,0
158366.067,-20.020,-21.973,-24.414,-20.508,0.000,0
158366.071,-14.648,-20.508,-25.879,-17.578,0.000,0
158366.075,-25.879,-20.996,-24.414,-20.020,0.000,0
158366.079,-34.180,-23.438,-23.438,-15.625,0.000,0
158366.082,-31.250,-29.785,-23.438,-33.691,0.000,0
158366.086,-21.973,-29.785,-24.414,-25.879,0.000,0
158366.090,-22.461,-27.344,-25.391,-6.836,0.000,0
158366.094,-39.062,-24.902,-27.344,-20.020,0.000,0
158366.098,-29.785,-24.414,-32.715,-33.691,0.000,0
158366.102,-19.043,-26.367,-35.645,-36.621,0.000,0
158366.106,-28.809,-26.855,-33.691,-28.809,0.000,0
158366.110,-30.762,-27.344,-26.855,-24.414,0.000,0
158366.114,-24.414,-19.531,-20.996,-30.273,0.000,0
158366.118,-21.973,-20.020,-23.926,-22.461,0.000,0
158366.122,-29.297,-24.414,-26.367,-23.438,0.000,0
158366.125,-34.180,-22.461,-29.297,-40.039,0.000,0
158366.129,-38.086,-22.461,-32.715,-39.062,0.000,0
158366.133,-34.180,-21.973,-28.320,-28.320,0.000,0
158366.137,-32.227,-20.508,-25.391,-24.902,0.000,0
158366.141,-32.715,-21.973,-28.809,-20.508,0.000,0
158366.145,-32.715,-21.973,-31.738,-16.113,0.000,0
158366.149,-27.344,-24.414,-33.203,-20.996,0.000,0
158366.153,-24.902,-25.879,-34.668,-28.809,0.000,0
158366.157,-31.738,-21.973,-30.762,-29.785,0.000,0
158366.161,-21.484,-19.531,-25.879,-25.879,0.000,0
158366.165,-23.438,-21.973,-29.297,-16.602,0.000,0
158366.168,-33.691,-20.020,-30.273,-11.719,0.000,0
158366.172,-30.273,-21.973,-31.738,-17.578,0.000,0
158366.176,-30.762,-26.855,-32.715,-43.457,0.000,0
158366.180,-30.273,-25.391,-22.949,-45.410,0.000,0
158366.184,-20.508,-21.973,-26.855,-25.391,0.000,0
158366.188,-24.902,-19.531,-28.809,-18.066,0.000,0
158366.192,-13.184,-20.508,-23.438,2.441,0.000,0
158366.196,7.812,-14.160,-13.184,8.789,0.000,0
158366.200,-26.855,-16.602,-19.043,-29.297,0.000,0
158366.204,-42.480,-26.855,-41.016,-53.711,0.000,0
158366.207,-23.438,-25.391,-42.969,-20.020,0.000,0
158366.211,-24.902,-20.508,-39.062,-13.672,0.000,0
158366.215,-34.180,-17.578,-34.180,-30.762,0.000,0
158366.219,-34.180,-18.066,-33.691,-32.715,0.000,0
158366.223,-32.227,-20.020,-35.156,-37.109,0.000,0
158366.227,-32.715,-24.902,-32.227,-31.250,0.000,0
158366.231,-30.273,-32.227,-42.969,-22.949,0.000,0
158366.235,-31.250,-33.691,-44.434,-14.160,0.000,0
158366.239,-31.250,-26.367,-34.180,-27.344,0.000,0
158366.243,-29.785,-24.902,-37.109,-31.738,0.000,0
158366.247,-29.297,-26.855,-40.039,-9.277,0.000,0
158366.250,-32.715,-23.438,-38.574,-13.672,0.000,0
158366.254,-30.762,-23.926,-37.109,-26.367,0.000,0
158366.258,-29.297,-26.855,-31.250,-44.922,0.000,0
158366.262,-26.367,-20.996,-28.320,-46.387,0.000,0
158366.266,-27.832,-20.996,-34.180,-37.109,0.000,0
158366.270,-32.715,-20.508,-32.715,-27.344,0.000,0
158366.274,-22.461,-15.137,-20.996,-21.484,0.000,0
158366.278,-24.902,-20.508,-22.949,-29.297,0.000,0
158366.282,-30.273,-19.043,-28.809,-17.090,0.000,0
158366.286,-26.855,-16.602,-33.691,-17.578,0.000,0
158366.290,-33.203,-23.926,-34.668,-26.855,0.000,0
158366.293,-34.180,-24.902,-29.297,-34.180,0.000,0
158366.297,-32.227,-21.484,-26.367,-38.086,0.000,0
158366.301,-35.156,-21.973,-31.738,-38.574,0.000,0
158366.305,-34.180,-24.414,-33.203,-44.922,0.000,0
158366.309,-38.574,-28.809,-34.180,-22.461,0.000,0
158366.313,-34.668,-28.809,-30.762,-15.625,0.000,0
158366.317,-18.555,-28.809,-26.367,-29.297,0.000,0
158366.321,-25.879,-31.250,-27.344,-26.367,0.000,0
158366.325,-32.227,-28.320,-28.809,-28.809,0.000,0
158366.329,-27.344,-26.855,-26.855,-26.367,0.000,0
158366.332,-20.996,-21.484,-24.902,-19.531,0.000,0
158366.336,-28.809,-20.020,-23.438,-35.645,0.000,0
158366.340,-31.250,-22.949,-21.484,-31.738,0.000,0
158366.344,-26.367,-22.461,-25.391,-20.996,0.000,0
158366.348,-20.996,-19.531,-26.855,-31.250,0.000,0
158366.352,-22.949,-17.090,-27.344,-31.250,0.000,0
158366.356,-37.598,-18.555,-25.879,-33.691,0.000,0
158366.360,-33.203,-17.090,-18.555,-24.902,0.000,0
158366.364,-23.926,-19.531,-20.996,-13.672,0.000,0
158366.368,-12.695,-20.020,-22.461,-13.184,0.000,0
158366.372,-7.324,-16.602,-17.578,0.977,0.000,0
158366.375,-0.977,-17.578,-14.648,-1.465,0.000,0
158366.379,-7.324,-15.137,-17.090,-20.996,0.000,0
158366.383,-12.207,-18.066,-23.438,-15.137,0.000,0
158366.387,1.465,-19.043,-22.461,0.000,0.000,0
158366.391,-1.465,-19.531,-23.926,-6.348,0.000,1
158366.395,-11.719,-24.902,-21.484,-6.348,0.000,0
158366.399,-14.648,-19.531,-20.996,-11.719,0.000,0
158366.403,-14.648,-17.578,-33.203,-10.742,0.000,0
158366.407,-20.508,-22.949,-35.156,-3.418,0.000,0
158366.411,-21.484,-24.414,-29.297,1.465,0.000,0
158366.415,-14.160,-21.973,-30.273,-20.508,0.000,0
158366.418,-18.555,-23.926,-28.809,-24.902,0.000,0
158366.422,-22.949,-29.297,-26.367,-17.578,0.000,0
158366.426,-18.555,-31.738,-28.809,-26.367,0.000,0
158366.430,-19.531,-33.691,-28.809,-15.625,0.000,0
158366.434,-21.973,-28.809,-27.344,-13.184,0.000,0
158366.438,-23.926,-26.367,-26.367,-19.043,0.000,0
158366.442,-17.578,-25.391,-21.973,-18.555,0.000,0
158366.446,2.930,-26.855,-22.461,10.742,0.000,0
158366.450,-21.973,-28.809,-25.391,1.953,0.000,0
158366.454,-48.340,-23.926,-17.090,-33.691,0.000,0
158366.457,-38.574,-23.438,-14.648,-23.926,0.000,0
158366.461,-27.344,-22.461,-15.625,-6.348,0.000,0
158366.465,-16.602,-20.996,-7.324,-8.789,0.000,0
158366.469,-25.879,-24.414,-6.836,-41.504,0.000,0
158366.473,-37.109,-23.438,-7.812,-43.945,0.000,0
158366.477,-33.203,-20.996,-4.395,-34.180,0.000,0
158366.481,-20.020,-19.043,-2.441,-26.855,0.000,0
158366.485,-16.113,-20.508,-3.906,-11.230,0.000,0
158366.489,-21.484,-23.438,-10.742,-20.508,0.000,0
158366.493,-21.973,-20.020,-7.812,-26.367,0.000,0
158366.497,-22.949,-19.531,-5.371,-21.484,0.000,0
158366.500,-24.414,-23.926,-10.742,-16.602,0.000,0
158366.504,-24.414,-24.902,-10.742,-27.832,0.000,0
158366.508,-27.344,-24.902,-9.766,-20.996,0.000,0
158366.512,-26.855,-25.879,-12.207,-1.953,0.000,0
158366.516,-16.113,-23.926,-10.742,-27.344,0.000,0
158366.520,-16.602,-20.020,-5.859,-26.367,0.000,0
158366.524,-10.742,-22.949,-8.789,-0.488,0.000,0
158366.528,3.906,-23.438,-11.719,-9.766,0.000,0
158366.532,0.977,-25.391,-12.695,-17.578,0.000,0
158366.536,-3.906,-22.949,-15.625,-11.230,0.000,0
158366.540,0.000,-20.020,-17.578,-13.672,0.000,0
158366.543,-8.301,-18.555,-15.137,-4.883,0.000,0
158366.547,-14.648,-19.531,-15.137,6.348,0.000,0
158366.551,-10.742,-20.996,-16.602,-3.418,0.000,0
158366.555,-15.137,-18.066,-14.648,-15.137,0.000,0
158366.559,-14.160,-19.043,-20.508,-12.695,0.000,0
158366.563,-17.578,-19.043,-24.414,-18.066,0.000,0
158366.567,-25.391,-19.043,-18.066,-7.812,0.000,0
158366.571,-26.855,-28.809,-20.020,1.465,0.000,0
158366.575,-32.715,-30.273,-23.926,-13.672,0.000,0
158366.579,-32.227,-24.414,-22.949,-29.785,0.000,0
158366.582,-20.996,-24.902,-21.484,-33.203,0.000,0
158366.586,-16.602,-21.484,-19.531,-16.602,0.000,0
158366.590,-28.809,-19.531,-16.602,-4.883,0.000,0
158366.594,-26.367,-24.902,-14.160,-20.020,0.000,0
158366.598,-16.602,-22.949,-17.578,-21.484,0.000,0
158366.602,-22.461,-17.578,-15.625,-22.949,0.000,0
158366.606,-20.020,-17.578,-10.742,-33.203,0.000,0
158366.610,-10.742,-21.973,-14.648,-5.859,0.000,0
158366.614,-14.648,-20.996,-15.625,-11.719,0.000,0
158366.618,-21.973,-23.438,-17.578,-30.273,0.000,0
158366.622,-26.855,-32.227,-27.832,-19.043,0.000,0
158366.625,-20.996,-32.715,-28.320,-20.996,0.000,0
158366.629,-19.531,-26.855,-24.414,-14.160,0.000,0
158366.633,-23.438,-24.902,-15.625,-17.578,0.000,0
158366.637,-21.484,-22.949,-12.695,-29.297,0.000,0
158366.641,-26.367,-19.043,-24.414,-20.996,0.000,0
158366.645,-25.391,-20.508,-23.926,-19.531,0.000,0
158366.649,-9.766,-22.949,-21.484,-19.043,0.000,0
158366.653,-15.137,-24.902,-22.949,-26.367,0.000,0
158366.657,-22.949,-21.973,-15.137,-36.621,0.000,0
158366.661,-19.043,-20.996,-13.672,-23.926,0.000,0
158366.665,-14.648,-22.461,-15.137,-16.602,0.000,0
158366.668,-24.902,-22.461,-19.043,-24.414,0.000,0
158366.672,-25.391,-18.555,-15.625,-36.133,0.000,0
158366.676,-18.066,-20.996,-16.602,-35.645,0.000,0
158366.680,-27.344,-25.879,-26.367,-31.738,0.000,0
158366.684,-18.066,-24.902,-25.391,-40.039,0.000,0
158366.688,-15.625,-21.484,-17.578,-24.902,0.000,0
158366.692,-26.855,-21.484,-19.043,-19.043,0.000,0
158366.696,-18.555,-25.391,-23.926,-25.879,0.000,0
158366.700,-19.043,-24.902,-23.438,-28.809,0.000,0
158366.704,-21.973,-23.438,-22.949,-34.180,0.000,0
158366.707,-10.254,-25.879,-23.438,-24.902,0.000,0
158366.711,-17.090,-26.855,-18.555,-26.367,0.000,0
158366.715,-22.461,-29.297,-23.438,-31.738,0.000,0
158366.719,-17.090,-31.250,-24.414,-13.184,0.000,0
158366.723,-15.625,-25.879,-17.578,-7.324,0.000,0
158366.727,-16.113,-24.414,-21.973,-22.461,0.000,0
158366.731,-20.996,-25.391,-23.926,-17.578,0.000,0
158366.735,-26.367,-24.902,-20.508,-11.230,0.000,0
158366.739,-25.391,-30.762,-27.832,-8.789,0.000,0
158366.743,-13.672,-28.809,-25.391,-7.324,0.000,0
158366.747,-11.230,-23.926,-20.020,-16.602,0.000,0
158366.750,-20.996,-25.879,-21.484,-29.297,0.000,0
158366.754,-12.695,-24.414,-20.508,-44.922,0.000,0
158366.758,-7.812,-23.438,-25.879,-36.133,0.000,0
158366.762,-18.066,-25.391,-22.461,-25.391,0.000,0
158366.766,-20.996,-23.926,-22.461,-12.207,0.000,0
158366.770,-12.207,-24.902,-28.809,-15.137,0.000,0
158366.774,-13.184,-23.926,-26.855,-30.762,0.000,0
158366.778,-20.996,-16.602,-24.414,-21.484,0.000,0
158366.782,-20.996,-14.160,-18.555,-6.836,0.000,0
158366.786,-11.230,-16.113,-17.090,-6.836,0.000,0
158366.790,-15.137,-16.113,-17.578,-6.348,0.000,0
158366.793,-16.602,-14.648,-18.066,-21.484,0.000,0
158366.797,-10.742,-13.672,-26.367,-20.020,0.000,0
158366.801,-10.742,-16.113,-26.367,-5.371,0.000,0
158366.805,-14.160,-18.066,-23.438,-7.324,0.000,0
158366.809,-22.461,-19.531,-24.414,-6.348,0.000,0
158366.813,-22.461,-22.461,-19.043,-13.672,0.000,0
158366.817,-12.207,-26.855,-26.855,-25.391,0.000,0
158366.821,-22.461,-27.344,-30.762,-35.156,0.000,0
158366.825,-32.715,-28.320,-27.344,-28.320,0.000,0
158366.829,-22.949,-27.344,-25.879,-17.578,0.000,0
158366.832,-26.367,-24.414,-26.367,-24.414,0.000,0
158366.836,-35.645,-23.438,-25.879,-33.691,0.000,0
158366.840,-30.762,-19.531,-25.391,-19.531,0.000,0
158366.844,-27.344,-23.926,-24.414,-10.742,0.000,0
158366.848,-25.391,-26.367,-23.926,-20.996,0.000,0
158366.852,-20.020,-24.414,-26.367,-29.785,0.000,0
158366.856,-21.484,-28.320,-27.832,-36.133,0.000,0
158366.860,-24.902,-32.227,-28.320,-40.527,0.000,0
158366.864,-23.926,-34.668,-24.902,-12.695,0.000,0
158366.868,-25.879,-30.273,-24.902,-17.578,0.000,0
158366.872,-28.809,-23.438,-30.762,-35.645,0.000,0
158366.875,-26.855,-22.461,-28.809,-22.949,0.000,0
158366.879,-24.414,-27.344,-30.762,-11.230,0.000,0
158366.883,-18.555,-30.273,-31.738,-14.160,0.000,0
158366.887,-15.137,-30.762,-23.926,-27.832,0.000,0
158366.891,-20.508,-31.250,-25.391,-29.785,0.000,0
158366.895,-31.250,-31.250,-29.785,-30.762,0.000,0
158366.899,-27.832,-28.809,-29.785,-17.578,0.000,0
158366.903,-24.902,-29.297,-29.785,-23.926,0.000,0
158366.907,-28.809,-32.715,-29.297,-40.527,0.000,0
158366.911,-23.438,-32.715,-33.203,-33.691,0.000,0
158366.915,-21.973,-32.715,-37.109,-37.598,0.000,0
158366.918,-18.066,-30.762,-30.762,-38.574,0.000,0
158366.922,-16.113,-29.785,-29.297,-15.625,0.000,0
158366.926,-22.461,-30.273,-24.414,-3.418,0.000,0
158366.930,-17.090,-23.438,-22.461,-13.184,0.000,0
158366.934,-14.160,-20.508,-26.855,-28.809,0.000,0
158366.938,-19.531,-21.484,-22.461,-28.320,0.000,0
158366.942,-17.090,-20.996,-20.996,-14.160,0.000,0
158366.946,-18.066,-23.926,-23.438,-21.973,0.000,0
158366.950,-12.207,-21.484,-24.902,-24.414,0.000,0
158366.954,-14.648,-16.602,-22.461,-14.648,0.000,0
158366.957,-20.020,-23.438,-24.414,-16.602,0.000,0
158366.961,-14.648,-30.273,-27.832,-19.043,0.000,0
158366.965,-23.926,-26.367,-24.414,-22.461,0.000,0
158366.969,-20.020,-20.996,-21.484,-17.090,0.000,0
158366.973,-15.625,-14.160,-20.508,-8.301,0.000,0
158366.977,-20.996,-18.555,-23.926,-10.254,0.000,0
158366.981,-21.973,-23.438,-27.832,-17.090,0.000,0
158366.985,-21.973,-26.367,-24.902,-24.414,0.000,0
158366.989,-23.926,-27.344,-24.414,-14.648,0.000,0
158366.993,-30.273,-23.926,-28.809,-23.926,0.000,0
158366.997,-26.367,-23.926,-30.273,-24.414,0.000,0
158367.000,-20.508,-24.902,-27.344,-13.184,0.000,0
158367.004,-25.879,-21.973,-20.508,-21.484,0.000,2
158367.008,-26.855,-20.996,-17.090,-45.898,0.000,0
158367.012,-30.762,-24.902,-23.926,-41.992,0.000,0
158367.016,-35.645,-27.344,-26.855,-29.297,0.000,0
158367.020,-29.785,-24.414,-23.438,-20.508,0.000,0
158367.024,-29.785,-26.367,-24.902,-23.438,0.000,0
158367.028,-31.250,-26.855,-24.902,-23.438,0.000,0
158367.032,-27.344,-26.855,-27.832,-29.785,0.000,0
158367.036,-19.531,-25.879,-27.832,-41.992,0.000,0
158367.040,-19.043,-23.438,-25.879,-20.020,0.000,0
158367.043,-21.484,-28.320,-22.949,-15.625,0.000,0
158367.047,-25.879,-26.367,-19.531,-30.273,0.000,0
158367.051,-32.715,-28.809,-31.738,-30.762,0.000,0
158367.055,-33.691,-33.203,-36.621,-32.227,0.000,0
158367.059,-35.156,-32.715,-32.715,-25.391,0.000,0
158367.063,-30.273,-30.273,-30.762,-19.043,0.000,0
158367.067,-26.367,-26.855,-28.809,-32.227,0.000,0
158367.071,-27.344,-25.879,-26.855,-42.480,0.000,0
158367.075,-35.156,-26.855,-24.414,-36.133,0.000,0
158367.079,-36.133,-31.250,-29.297,-26.367,0.000,0
158367.082,-32.715,-29.785,-26.855,-21.973,0.000,0
158367.086,-36.621,-23.926,-22.461,-42.480,0.000,0
158367.090,-33.203,-25.391,-24.414,-27.344,0.000,0
158367.094,-27.832,-26.855,-23.926,-10.742,0.000,0
158367.098,-27.832,-24.902,-25.879,-26.855,0.000,0
158367.102,-37.598,-25.879,-26.855,-33.691,0.000,0
158367.106,-47.852,-20.996,-28.809,-38.574,0.000,0
158367.110,-41.504,-19.043,-31.738,-34.180,0.000,0
158367.114,-34.180,-26.855,-28.320,-22.949,0.000,0
158367.118,-33.691,-23.926,-24.902,-25.391,0.000,0
158367.122,-34.180,-22.461,-27.344,-20.996,0.000,0
158367.125,-34.668,-29.785,-38.574,-25.879,0.000,0
158367.129,-30.273,-23.926,-36.621,-26.367,0.000,0
158367.133,-29.297,-21.484,-23.926,-24.902,0.000,0
158367.137,-25.391,-23.438,-23.438,-31.738,0.000,0
158367.141,-18.555,-21.484,-22.461,-31.250,0.000,0
158367.145,-27.832,-23.438,-24.902,-35.156,0.000,0
158367.149,-31.738,-27.344,-32.715,-34.180,0.000,0
158367.153,-34.180,-30.273,-39.551,-28.809,0.000,0
158367.157,-30.762,-31.738,-43.457,-23.438,0.000,0
158367.161,-28.809,-35.645,-41.016,-20.996,0.000,0
158367.165,-33.691,-33.203,-33.203,-27.344,0.000,0
158367.168,-35.645,-30.762,-33.203,-27.832,0.000,0
158367.172,-33.203,-32.227,-33.691,-39.551,0.000,0
158367.176,-26.855,-32.227,-27.344,-30.273,0.000,0
158367.180,-31.738,-34.668,-33.203,-11.230,0.000,0
158367.184,-37.109,-34.668,-40.527,-29.297,0.000,0
158367.188,-32.715,-34.668,-41.016,-42.480,0.000,0
158367.192,-32.715,-33.691,-36.621,-32.715,0.000,0
158367.196,-32.227,-31.738,-29.297,-22.949,0.000,0
158367.200,-28.809,-32.715,-30.273,-9.766,0.000,0
158367.204,-20.020,-27.344,-31.738,-13.672,0.000,0
158367.207,-22.949,-23.926,-28.320,-18.555,0.000,0
158367.211,-17.090,-23.926,-20.996,-11.230,0.000,0
158367.215,-6.348,-21.973,-21.484,-8.789,0.000,0
158367.219,-20.996,-22.949,-25.879,-18.555,0.000,0
158367.223,-30.762,-17.090,-19.043,-19.043,0.000,0
158367.227,-20.508,-16.602,-20.020,-19.531,0.000,0
158367.231,-22.461,-20.508,-25.879,-22.461,0.000,0
158367.235,-21.484,-21.973,-25.879,-16.113,0.000,0
158367.239,-24.902,-26.855,-26.367,-14.160,0.000,0
158367.243,-29.785,-30.273,-22.949,-22.949,0.000,0
158367.247,-21.973,-23.926,-20.508,-32.227,0.000,0
158367.250,-20.996,-20.020,-26.367,-24.414,0.000,0
158367.254,-25.391,-23.926,-29.785,-11.230,0.000,0
158367.258,-25.391,-23.438,-27.832,-4.395,0.000,0
158367.262,-22.461,-21.973,-23.926,-22.461,0.000,0
158367.266,-27.344,-20.020,-24.414,-21.484,0.000,0
158367.270,-27.832,-22.461,-30.273,-14.160,0.000,0
158367.274,-30.273,-22.949,-22.949,-23.438,0.000,0
158367.278,-22.949,-15.625,-19.043,-24.902,0.000,0
158367.282,-16.602,-19.043,-20.020,-29.785,0.000,0
158367.286,-32.227,-20.996,-25.879,-37.109,0.000,0
158367.290,-27.832,-17.090,-25.391,-27.832,0.000,0
158367.293,-13.184,-12.695,-20.996,-9.277,0.000,0
158367.297,-16.113,-13.672,-23.438,-20.508,0.000,0
158367.301,-16.602,-13.672,-11.719,-32.227,0.000,0
158367.305,-16.113,-11.230,-10.742,-17.090,0.000,0
158367.309,-8.301,-8.301,-16.602,1.465,0.000,0
158367.313,-1.465,-3.906,-12.207,-2.930,0.000,0
158367.317,-6.836,-8.301,-15.625,-13.672,0.000,0
158367.321,6.348,-11.719,-19.531,-5.371,0.000,0
158367.325,-6.348,-14.648,-16.113,-5.859,0.000,0
158367.329,-38.086,-18.555,-24.414,-28.809,0.000,0
158367.332,-28.320,-19.531,-30.273,-24.414,0.000,0
158367.336,-25.879,-20.996,-29.297,-21.484,0.000,0
158367.340,-36.133,-22.949,-33.203,-39.062,0.000,0
158367.344,-43.457,-16.113,-30.273,-42.969,0.000,0
158367.348,-54.199,-16.602,-36.621,-40.039,0.000,0
158367.352,-49.805,-22.461,-38.086,-42.969,0.000,0
158367.356,-40.039,-24.902,-36.133,-45.898,0.000,0
158367.360,-38.574,-28.809,-40.039,-54.199,0.000,0
158367.364,-37.109,-27.344,-41.992,-43.945,0.000,0
158367.368,-35.645,-25.879,-40.527,-34.668,0.000,0
158367.372,-33.691,-26.367,-33.691,-35.156,0.000,0
158367.375,-42.969,-25.391,-32.715,-37.109,0.000,0
158367.379,-37.598,-23.926,-36.133,-44.922,0.000,0
158367.383,-27.832,-18.555,-34.180,-43.457,0.000,0
158367.387,-26.367,-22.461,-39.551,-45.898,0.000,0
158367.391,-27.832,-25.391,-43.457,-32.227,0.000,0
158367.395,-23.926,-19.043,-42.480,-21.484,0.000,0
158367.399,-20.508,-20.996,-33.203,-22.949,0.000,0
158367.403,-32.715,-21.484,-28.809,-16.113,0.000,0
158367.407,-28.809,-21.973,-29.785,-22.461,0.000,0
158367.411,-13.184,-21.484,-26.855,-20.508,0.000,0
158367.415,-25.879,-24.902,-31.738,-19.043,0.000,0
158367.418,-31.738,-29.297,-31.250,-31.250,0.000,0
158367.422,-23.438,-21.973,-24.414,-38.086,0.000,0
158367.426,-17.578,-20.020,-30.762,-21.484,0.000,0
158367.430,-20.020,-25.391,-33.203,-14.160,0.000,0
158367.434,-26.855,-20.020,-25.879,-17.090,0.000,0
158367.438,-24.902,-16.602,-21.484,-18.066,0.000,0
158367.442,-33.203,-17.578,-22.461,-17.090,0.000,0
158367.446,-40.527,-18.555,-21.484,-28.809,0.000,0
158367.450,-30.762,-17.090,-18.066,-26.367,0.000,0
