timestamps,TP9,AF7,AF8,TP10,Right AUX,Marker0
157308.040,-9.277,-17.090,-13.184,-25.391,0.000,0
157308.043,-6.836,-14.160,-31.250,-4.395,0.000,0
157308.047,0.977,-9.277,-41.016,18.066,0.000,0
157308.051,-11.719,-20.508,-22.949,16.113,0.000,0
157308.055,-22.461,-30.273,-5.859,-17.090,0.000,0
157308.059,-20.020,-28.809,-20.508,-13.184,0.000,0
157308.063,-17.578,-26.855,-29.297,-17.578,0.000,0
157308.067,-23.926,-18.066,-10.254,-16.113,0.000,0
157308.071,-12.207,-22.949,-21.973,-21.484,0.000,0
157308.075,-10.742,-29.297,-25.391,-79.102,0.000,0
157308.079,-18.555,-19.531,-23.438,-68.359,0.000,0
157308.082,-14.648,-18.555,-28.809,-21.484,0.000,0
157308.086,-8.789,-25.391,-28.809,-14.160,0.000,0
157308.090,-2.930,-21.484,-31.738,-23.926,0.000,0
157308.094,-11.230,-16.602,-13.184,-63.965,0.000,0
157308.098,-24.414,-15.137,-18.066,-66.895,0.000,0
157308.102,-11.719,-16.602,-31.738,-45.898,0.000,0
157308.106,-15.137,-20.996,-14.648,-36.133,0.000,0
157308.110,-25.879,-20.508,-17.090,-8.301,0.000,0
157308.114,-19.043,-25.391,-16.113,-28.320,0.000,0
157308.118,-0.977,-23.438,-20.508,-41.992,0.000,0
157308.122,2.441,-18.555,-28.320,-8.789,0.000,0
157308.125,-14.160,-20.508,-20.508,-2.930,0.000,0
157308.129,-22.461,-21.973,-21.973,-2.930,0.000,0
157308.133,-16.113,-20.508,-14.648,-29.297,0.000,0
157308.137,-10.254,-17.578,-19.531,-35.645,0.000,0
157308.141,-18.066,-18.555,-20.996,-24.902,0.000,0
157308.145,-22.461,-15.137,-25.879,-14.648,0.000,0
157308.149,-8.789,-14.160,-44.922,10.742,0.000,0
157308.153,-17.578,-14.160,-18.555,0.977,0.000,0
157308.157,-33.691,-13.184,-4.395,-11.230,0.000,0
157308.161,-20.996,-13.184,-28.320,4.395,0.000,0
157308.165,-5.859,-12.207,-41.992,-2.930,0.000,0
157308.168,-8.301,-15.625,-36.621,-7.324,0.000,0
157308.172,-1.953,-17.090,-13.672,-5.859,0.000,0
157308.176,0.000,-16.602,-17.578,-26.367,0.000,0
157308.180,-17.090,-11.719,-32.227,-22.461,0.000,0
157308.184,-22.949,-13.184,-29.297,7.812,0.000,0
157308.188,-19.043,-9.277,-26.367,16.602,0.000,0
157308.192,-17.090,-11.230,-29.785,-6.836,0.000,0
157308.196,-21.973,-15.625,-40.039,-23.438,0.000,0
157308.200,-33.203,-11.230,-39.551,-14.160,0.000,0
157308.204,-25.391,-14.648,-33.691,-5.859,0.000,0
157308.207,-4.395,-19.043,-38.574,1.465,0.000,0
157308.211,-24.902,-18.066,-31.738,-8.789,0.000,0
157308.215,-35.645,-14.160,-21.973,-29.297,0.000,0
157308.219,-29.785,-19.043,-43.457,-22.461,0.000,0
157308.223,-26.855,-28.320,-57.617,-0.977,0.000,0
157308.227,-19.043,-21.484,-43.457,-1.953,0.000,0
157308.231,-37.598,-20.020,-23.438,-14.160,0.000,0
157308.235,-37.598,-23.926,-25.879,-29.297,0.000,0
157308.239,-25.879,-23.926,-38.574,-24.414,0.000,0
157308.243,-28.320,-22.461,-30.762,-14.648,0.000,0
157308.247,-36.133,-19.531,-28.809,-8.301,0.000,0
157308.250,-28.809,-23.438,-32.227,-23.926,0.000,0
157308.254,-10.254,-25.879,-37.109,-35.156,0.000,0
157308.258,-15.137,-25.391,-32.715,-12.695,0.000,0
157308.262,-25.391,-20.508,-14.160,8.301,0.000,0
157308.266,-5.371,-16.602,-23.438,-1.953,0.000,0
157308.270,-4.883,-25.391,-26.367,-7.324,0.000,0
157308.274,-20.508,-22.949,-14.160,-20.020,0.000,0
157308.278,-18.555,-24.902,-31.738,-24.414,0.000,0
157308.282,-14.160,-30.762,-42.969,-20.020,0.000,0
157308.286,-10.742,-24.902,-34.180,10.254,0.000,0
157308.290,-10.254,-26.855,-22.461,26.367,0.000,0
157308.293,-9.766,-24.414,-3.906,-25.391,0.000,0
157308.297,-6.348,-18.066,-27.344,-13.184,0.000,0
157308.301,-8.789,-25.879,-45.898,14.648,0.000,0
157308.305,-23.438,-25.879,-14.160,9.766,0.000,0
157308.309,-26.367,-21.973,-5.859,-5.859,0.000,0
157308.313,-3.906,-19.531,-18.066,-27.832,0.000,0
157308.317,3.418,-14.160,-19.043,-15.137,0.000,0
157308.321,-4.883,-14.648,-11.230,-3.906,0.000,0
157308.325,0.000,-13.672,-22.949,21.484,0.000,0
157308.329,-0.488,-15.625,-27.344,3.418,0.000,0
157308.332,-5.859,-18.555,-9.766,-29.297,0.000,0
157308.336,-1.953,-12.207,-15.137,12.695,0.000,0
157308.340,-6.348,-14.648,-19.043,19.531,0.000,0
157308.344,0.488,-19.043,-32.227,-0.488,0.000,0
157308.348,5.371,-17.578,-29.785,-7.324,0.000,0
157308.352,-11.230,-21.973,17.090,-43.945,0.000,0
157308.356,-3.418,-20.508,-9.766,-24.414,0.000,0
157308.360,8.301,-17.578,-40.527,-0.977,0.000,0
157308.364,0.488,-15.137,-30.762,6.348,0.000,0
157308.368,6.348,-12.207,-13.184,10.742,0.000,0
157308.372,16.113,-16.602,-2.930,-25.391,0.000,0
157308.375,0.977,-12.207,-21.484,-6.836,0.000,0
157308.379,-18.555,-10.254,-19.531,4.395,0.000,0
157308.383,-23.926,-13.184,-20.020,-12.207,0.000,0
157308.387,-26.367,-10.742,-21.973,-11.719,0.000,0
157308.391,-19.043,-15.625,-16.113,-37.598,0.000,0
157308.395,-29.785,-18.555,-20.508,-39.062,0.000,0
157308.399,-29.785,-13.672,-16.113,-3.906,0.000,0
157308.403,-1.953,-15.137,-17.090,11.719,0.000,0
157308.407,-3.906,-12.695,-15.625,-12.695,0.000,0
157308.411,-28.320,-18.066,-0.977,-51.758,0.000,0
157308.415,-26.855,-16.602,-14.160,-41.504,0.000,0
157308.418,-16.602,-5.859,-19.531,-26.855,0.000,0
157308.422,-15.625,-8.789,-14.160,-18.066,0.000,0
157308.426,-16.113,-13.184,-14.648,12.695,0.000,0
157308.430,-23.438,-8.789,-10.254,-27.832,0.000,0
157308.434,-21.973,-6.348,-20.020,-31.738,0.000,0
157308.438,-19.531,-8.789,-21.484,6.348,0.000,0
157308.442,-24.902,-4.883,-7.812,4.883,0.000,0
157308.446,-12.695,-6.348,-18.555,2.441,0.000,0
157308.450,-2.441,-13.184,-7.324,-10.254,0.000,0
157308.454,0.977,-9.766,-3.418,-9.766,0.000,0
157308.457,-4.883,-4.883,-22.949,0.977,0.000,0
157308.461,-12.695,-4.395,-39.551,5.371,0.000,0
157308.465,-14.648,-1.953,-45.410,-0.488,0.000,0
157308.469,-20.508,-1.465,-22.461,-18.066,0.000,0
157308.473,-19.043,0.488,-11.230,-15.625,0.000,0
157308.477,-19.043,6.348,-24.902,11.230,0.000,0
157308.481,-24.414,7.812,-22.949,4.883,0.000,0
157308.485,-28.809,4.883,-10.742,7.324,0.000,0
157308.489,-17.578,0.488,-5.859,0.000,0.000,0
157308.493,1.465,6.836,-20.020,-22.461,0.000,0
157308.497,-3.418,1.953,-28.320,-14.648,0.000,0
157308.500,-19.531,-0.488,-24.414,1.953,0.000,0
157308.504,-20.508,6.348,-33.203,6.348,0.000,0
157308.508,-21.973,-4.883,-24.414,-12.207,0.000,0
157308.512,-32.715,-8.301,-14.648,-16.113,0.000,0
157308.516,-24.414,-8.301,-20.508,2.930,0.000,0
157308.520,-3.906,-17.578,-18.555,8.789,0.000,0
157308.524,-16.602,-14.648,-17.578,7.812,0.000,0
157308.528,-36.621,-9.277,-7.812,-7.324,0.000,0
157308.532,-41.016,-6.348,-0.977,-34.180,0.000,0
157308.536,-29.297,-9.277,-19.043,-34.668,0.000,0
157308.540,-13.672,-10.742,-31.250,-7.812,0.000,0
157308.543,-9.277,-7.812,-28.809,6.836,0.000,0
157308.547,-16.113,-7.324,-18.555,-10.254,0.000,0
157308.551,-26.367,-8.789,-20.508,-8.301,0.000,0
157308.555,-26.855,-16.602,-26.855,-10.742,0.000,0
157308.559,-31.738,-21.484,-26.367,-25.391,0.000,0
157308.563,-29.297,-12.695,-33.203,-3.906,0.000,0
157308.567,-17.578,-8.789,-30.762,-16.113,0.000,0
157308.571,-19.531,-10.254,-24.414,-36.133,0.000,0
157308.575,-29.297,-16.602,-26.855,-17.578,0.000,0
157308.579,-27.832,-20.020,-36.133,-5.371,0.000,0
157308.582,-14.648,-19.043,-47.852,-0.488,0.000,0
157308.586,-19.043,-24.414,-41.992,-5.371,0.000,0
157308.590,-27.832,-17.578,-14.648,-26.855,0.000,0
157308.594,-23.926,-13.184,-21.484,-24.414,0.000,0
157308.598,-20.508,-16.113,-40.527,-32.227,0.000,0
157308.602,-21.484,-18.555,-36.621,-11.230,0.000,0
157308.606,-25.879,-16.602,-25.879,2.930,0.000,0
157308.610,-15.625,-12.695,-23.926,-29.297,0.000,0
157308.614,-11.230,-19.043,-41.016,-14.648,0.000,0
157308.618,-14.648,-18.066,-39.062,4.883,0.000,0
157308.622,-20.508,-13.672,-21.973,5.371,0.000,0
157308.625,-19.043,-17.090,-25.879,-3.418,0.000,0
157308.629,-9.277,-16.113,-29.297,-31.738,0.000,0
157308.633,-11.719,-8.789,-25.879,-11.230,0.000,0
157308.637,-20.996,-8.301,-16.113,-3.418,0.000,0
157308.641,2.441,-15.625,-32.227,-3.906,0.000,0
157308.645,11.719,-22.461,-37.598,-8.301,0.000,0
157308.649,-16.602,-19.531,-19.043,-37.598,0.000,0
157308.653,-20.508,-12.695,-29.785,-11.230,0.000,0
157308.657,-11.230,-17.578,-33.691,-12.695,0.000,0
157308.661,-15.625,-18.066,-28.320,-22.949,0.000,0
157308.665,-22.949,-15.137,-32.715,6.836,0.000,0
157308.668,-17.090,-18.066,-10.742,-25.879,0.000,0
157308.672,-5.859,-17.578,-20.020,-27.832,0.000,0
157308.676,-8.789,-19.531,-35.156,-6.348,0.000,0
157308.680,-32.227,-18.066,-20.508,16.602,0.000,0
157308.684,-27.832,-21.973,-15.625,11.719,0.000,0
157308.688,-14.648,-22.949,-19.531,-27.832,0.000,0
157308.692,-23.438,-13.672,-24.414,-2.930,0.000,0
157308.696,-16.602,-13.184,-20.996,-0.977,0.000,0
157308.700,-10.742,-17.578,-21.973,-18.555,0.000,0
157308.704,-11.230,-20.020,-23.926,-13.672,0.000,0
157308.707,-14.648,-13.672,-8.789,-34.180,0.000,0
157308.711,-20.996,-13.184,-4.395,-47.363,0.000,0
157308.715,-26.855,-19.043,-20.020,-26.367,0.000,0
157308.719,-20.508,-20.996,-34.180,2.441,0.000,0
157308.723,-16.113,-25.879,-34.180,-6.348,0.000,0
157308.727,-33.691,-26.367,-6.348,-30.273,0.000,0
157308.731,-19.531,-25.879,-21.973,-4.395,0.000,0
157308.735,-7.812,-24.902,-35.156,8.789,0.000,0
157308.739,-6.836,-23.926,-25.879,-0.977,0.000,0
157308.743,-0.488,-26.367,-27.344,-5.371,0.000,0
157308.747,-7.324,-24.902,-17.090,-33.691,0.000,0
157308.750,-20.996,-20.508,-17.578,-22.461,0.000,0
157308.754,-17.578,-19.531,-27.832,9.277,0.000,0
157308.758,-11.230,-23.926,-24.414,10.254,0.000,0
157308.762,-27.344,-24.414,-27.344,-2.441,0.000,0
157308.766,-24.414,-20.020,-13.672,-30.762,0.000,0
157308.770,-10.742,-11.719,1.465,-19.043,0.000,0
157308.774,0.488,-7.324,-4.883,-3.418,0.000,0
157308.778,8.301,-11.719,-20.020,-6.836,0.000,0
157308.782,4.883,-10.254,-20.508,18.066,0.000,0
157308.786,4.395,-12.695,-3.418,2.441,0.000,0
157308.790,3.418,-16.113,-15.625,-5.371,0.000,0
157308.793,2.930,-18.066,-35.645,25.879,0.000,0
157308.797,-3.418,-14.160,-30.762,19.043,0.000,0
157308.801,-16.602,-14.648,-20.020,6.836,0.000,0
157308.805,-16.602,-16.602,-10.254,-10.742,0.000,0
157308.809,-21.973,-14.648,-21.484,-20.508,0.000,0
157308.813,-32.227,-13.672,-26.367,-26.855,0.000,0
157308.817,-38.574,-12.207,-9.277,-15.137,0.000,0
157308.821,-17.090,-15.137,-28.320,2.441,0.000,0
157308.825,-3.418,-18.066,-30.273,-21.484,0.000,0
157308.829,-19.531,-19.043,-19.531,-34.180,0.000,0
157308.832,-22.949,-23.438,-26.855,-7.812,0.000,0
157308.836,-8.789,-18.555,-22.461,2.441,0.000,0
157308.840,-4.883,-17.090,-21.973,-0.488,0.000,0
157308.844,-8.301,-17.090,-18.066,-15.137,0.000,0
157308.848,-4.883,-14.648,-17.578,-34.668,0.000,0
157308.852,-17.578,-20.508,-25.391,-23.438,0.000,0
157308.856,-34.180,-26.855,-24.902,1.465,0.000,0
157308.860,-40.039,-30.762,-25.391,1.465,0.000,0
157308.864,-40.039,-28.320,-26.367,-20.996,0.000,0
157308.868,-26.855,-30.273,-28.320,-14.648,0.000,0
157308.872,-18.066,-28.320,-28.320,-27.344,0.000,0
157308.875,-15.137,-23.926,-32.227,-19.043,0.000,0
157308.879,-11.230,-27.344,-37.109,-1.953,0.000,0
157308.883,-5.859,-31.250,-26.855,-11.230,0.000,0
157308.887,-12.695,-28.320,-17.578,-30.273,0.000,0
157308.891,-24.902,-27.344,-20.996,-19.043,0.000,0
157308.895,-12.695,-29.297,-27.344,5.859,0.000,0
157308.899,-3.906,-25.879,-28.809,7.812,0.000,0
157308.903,-19.531,-28.809,-17.090,-1.465,0.000,0
157308.907,-22.949,-26.855,-5.371,-16.602,0.000,0
157308.911,-1.465,-19.043,-23.926,-9.766,0.000,0
157308.915,-2.930,-25.391,-34.180,-23.926,0.000,0
157308.918,-17.090,-28.809,-28.809,-10.254,0.000,0
157308.922,-4.395,-29.297,-25.879,7.324,0.000,0
157308.926,-6.836,-27.344,-22.949,-28.809,0.000,0
157308.930,-25.879,-26.855,-38.574,-33.691,0.000,0
157308.934,-12.695,-30.762,-42.480,-8.789,0.000,0
157308.938,-9.277,-22.949,-24.414,-4.395,0.000,0
157308.942,-8.789,-19.531,-16.113,-19.043,0.000,0
157308.946,-0.977,-20.020,-18.555,-41.992,0.000,0
157308.950,-11.719,-14.648,-21.484,-42.480,0.000,0
157308.954,-12.207,-10.742,-17.578,-38.086,0.000,0
157308.957,0.000,-12.207,-31.738,-13.672,0.000,0
157308.961,-1.953,-14.160,-34.180,-17.090,0.000,0
157308.965,-13.672,-13.672,-15.625,-53.711,0.000,0
157308.969,-14.648,-13.672,-20.996,-35.645,0.000,0
157308.973,-6.836,-18.066,-20.020,-42.480,0.000,0
157308.977,-13.672,-15.625,-29.785,-31.738,0.000,0
157308.981,-20.508,-14.648,-26.367,-18.066,0.000,0
157308.985,-13.672,-18.066,-10.742,-37.109,0.000,0
157308.989,0.488,-17.090,-26.855,-26.855,0.000,0
157308.993,10.742,-16.602,-37.109,-25.391,0.000,0
157308.997,-12.695,-18.555,-31.250,-6.348,0.000,0
157309.000,-16.113,-21.973,-38.086,-7.324,0.000,0
157309.004,-4.883,-23.926,-36.621,-37.109,0.000,0
157309.008,-7.812,-18.066,-29.785,-12.695,0.000,0
157309.012,-24.902,-14.648,-19.531,-5.859,0.000,0
157309.016,-20.020,-19.531,-31.738,-13.672,0.000,0
157309.020,-13.184,-23.926,-30.762,-12.695,0.000,0
157309.024,-14.648,-24.902,-20.996,-34.668,0.000,0
157309.028,-16.602,-22.461,-31.250,-25.391,0.000,0
157309.032,-22.461,-17.578,-41.016,-13.672,0.000,0
157309.036,-18.066,-25.391,-49.805,0.000,0.000,0
157309.040,-10.254,-28.320,-31.250,6.836,0.000,0
157309.043,-16.602,-25.391,-15.137,-29.297,0.000,0
157309.047,-22.461,-22.461,-29.297,-9.277,0.000,0
157309.051,-9.766,-16.602,-26.855,21.973,0.000,0
157309.055,-9.277,-17.578,-19.043,18.066,0.000,0
157309.059,-13.672,-29.297,-19.043,9.277,0.000,0
157309.063,0.977,-27.344,-23.926,-35.645,0.000,0
157309.067,-1.953,-13.184,-21.484,-30.273,0.000,0
157309.071,-15.137,-13.184,-13.672,11.230,0.000,0
157309.075,-5.859,-18.066,-12.695,11.719,0.000,0
157309.079,1.953,-19.531,-27.344,7.812,0.000,0
157309.082,1.465,-18.555,-18.066,-17.578,0.000,0
157309.086,-17.090,-16.602,-12.207,-20.020,0.000,0
157309.090,-20.508,-26.367,-24.414,-5.859,0.000,0
157309.094,-19.531,-20.020,-26.367,-3.906,0.000,0
157309.098,-25.391,-17.090,-44.434,0.488,0.000,0
157309.102,-39.062,-26.367,-12.207,-27.832,0.000,0
157309.106,-28.320,-22.461,-16.113,-32.227,0.000,0
157309.110,-6.348,-22.461,-51.758,2.930,0.000,0
157309.114,-17.090,-26.367,-43.945,3.906,0.000,0
157309.118,-26.855,-29.297,-28.809,-12.207,0.000,0
157309.122,-29.785,-32.227,-13.184,-33.203,0.000,0
157309.125,-33.203,-32.715,-18.066,-35.645,0.000,0
157309.129,-32.227,-32.715,-33.691,-32.715,0.000,0
157309.133,-26.367,-32.227,-31.738,-21.484,0.000,0
157309.137,-28.809,-31.738,-30.762,10.742,0.000,0
157309.141,-25.391,-33.691,-35.645,-16.113,0.000,0
157309.145,-32.227,-32.715,-34.668,-35.156,0.000,0
157309.149,-36.621,-22.949,-27.832,-1.953,0.000,0
157309.153,-9.277,-21.973,-31.738,10.742,0.000,0
157309.157,-4.395,-32.227,-34.180,9.277,0.000,0
157309.161,-20.996,-29.785,-17.090,-11.230,0.000,0
157309.165,-26.855,-23.438,-18.066,-21.973,0.000,0
157309.168,-11.719,-20.996,-32.715,-15.625,0.000,0
157309.172,-5.859,-23.438,-33.203,0.000,0.000,0
157309.176,-15.625,-25.879,-21.484,12.695,0.000,0
157309.180,-13.184,-23.926,-17.090,-2.930,0.000,0
157309.184,-22.949,-32.227,-25.391,7.812,0.000,0
157309.188,-30.762,-34.668,-29.785,29.785,0.000,0
157309.192,-31.738,-29.297,-19.043,13.672,0.000,0
157309.196,-27.832,-29.297,-31.250,-1.953,0.000,0
157309.200,-18.555,-27.832,-36.133,9.277,0.000,0
157309.204,-17.578,-27.832,-21.484,-8.789,0.000,0
157309.207,-20.508,-27.832,-24.902,-29.297,0.000,0
157309.211,-27.344,-26.855,-35.156,-4.395,0.000,0
157309.215,-24.902,-27.344,-32.715,7.324,0.000,0
157309.219,-21.973,-32.227,-17.578,-6.348,0.000,0
157309.223,-36.133,-23.926,-15.625,-14.160,0.000,0
157309.227,-30.762,-17.090,-39.062,-8.789,0.000,0
157309.231,-21.973,-19.043,-35.156,-15.625,0.000,0
157309.235,-28.809,-20.020,-18.066,-7.324,0.000,0
157309.239,-24.902,-22.461,-11.719,-2.441,0.000,0
157309.243,-9.766,-19.531,-22.461,-20.996,0.000,0
157309.247,-8.301,-24.414,-40.527,-23.438,0.000,1
157309.250,-18.555,-30.273,-24.902,-2.441,0.000,0
157309.254,-14.160,-22.461,-15.137,9.277,0.000,0
157309.258,-8.301,-20.020,-18.555,-5.371,0.000,0
157309.262,-16.602,-20.020,-15.625,-38.574,0.000,0
157309.266,-16.602,-17.578,-18.066,-39.062,0.000,0
157309.270,-6.348,-21.973,-24.414,-26.367,0.000,0
157309.274,-9.277,-22.461,-26.367,-3.906,0.000,0
157309.278,-25.879,-21.973,-28.320,-3.418,0.000,0
157309.282,-35.156,-19.531,-12.207,-32.227,0.000,0
157309.286,-11.230,-8.301,-11.230,-34.668,0.000,0
157309.290,10.742,-4.395,-40.039,0.488,0.000,0
157309.293,-3.418,-6.836,-41.016,8.301,0.000,0
157309.297,-22.461,-9.766,-19.043,-7.324,0.000,0
157309.301,-23.438,-12.207,-17.090,-28.809,0.000,0
157309.305,-14.160,-10.742,-21.973,-26.367,0.000,0
157309.309,-15.137,-11.230,-20.020,-13.184,0.000,0
157309.313,-22.949,-18.066,-30.762,0.000,0.000,0
157309.317,-18.066,-20.508,-29.297,-3.906,0.000,0
157309.321,-20.020,-20.996,-19.531,-31.738,0.000,0
157309.325,-31.250,-22.949,-23.438,-0.977,0.000,0
157309.329,-26.367,-23.438,-28.809,12.207,0.000,0
157309.332,-9.766,-19.043,-39.062,-9.766,0.000,0
157309.336,-9.277,-19.531,-34.180,-14.648,0.000,0
157309.340,-16.602,-25.391,-17.090,-35.645,0.000,0
157309.344,-17.090,-20.996,-27.344,-26.855,0.000,0
157309.348,-0.488,-13.184,-40.039,-12.207,0.000,0
157309.352,7.324,-10.742,-30.762,7.324,0.000,0
157309.356,2.441,-15.137,-8.301,4.883,0.000,0
157309.360,-1.465,-17.090,-3.906,-21.484,0.000,0
157309.364,0.000,-17.578,-27.344,7.324,0.000,0
157309.368,1.953,-17.090,-23.438,19.043,0.000,0
157309.372,-7.324,-15.137,-11.230,9.766,0.000,0
157309.375,-7.812,-17.578,-19.531,0.000,0.000,0
157309.379,-13.672,-21.973,-24.902,-38.086,0.000,0
157309.383,-20.508,-20.020,-24.902,-24.414,0.000,0
157309.387,-29.297,-12.207,7.812,-6.348,0.000,0
157309.391,-23.926,-13.184,-15.137,3.418,0.000,0
157309.395,-20.508,-20.508,-48.828,-3.418,0.000,0
157309.399,-24.902,-18.066,-20.508,-18.066,0.000,0
157309.403,-2.930,-15.137,-12.695,21.973,0.000,0
157309.407,21.484,-24.902,-33.203,39.062,0.000,0
157309.411,-8.301,-26.367,-37.598,7.324,0.000,0
157309.415,-40.527,-24.414,-26.855,-14.160,0.000,0
157309.418,-38.086,-27.344,-17.090,-34.668,0.000,0
157309.422,-16.602,-23.926,-30.273,-21.973,0.000,0
157309.426,-20.020,-22.461,-35.645,0.000,0.000,0
157309.430,-40.039,-21.973,-19.531,-2.930,0.000,0
157309.434,-23.926,-22.949,-12.207,-17.578,0.000,0
157309.438,-5.859,-23.926,-11.719,-30.273,0.000,0
157309.442,-17.090,-23.438,-20.508,-12.207,0.000,0
157309.446,-23.926,-24.902,-20.020,-11.230,0.000,0
157309.450,-16.602,-20.020,-19.531,6.348,0.000,0
157309.454,-12.695,-20.508,-22.949,6.836,0.000,0
157309.457,-19.043,-23.438,-16.602,-30.762,0.000,0
157309.461,-22.949,-21.484,-19.043,-7.324,0.000,0
157309.465,-13.672,-19.531,-20.508,17.578,0.000,0
157309.469,-7.324,-18.555,-27.344,16.113,0.000,0
157309.473,-16.113,-23.438,-8.789,9.277,0.000,0
157309.477,-14.648,-18.066,10.254,-20.020,0.000,0
157309.481,1.465,-6.348,-17.090,-21.973,0.000,0
157309.485,-13.672,-15.137,-15.625,-14.648,0.000,0
157309.489,-20.996,-19.531,-10.742,2.930,0.000,0
157309.493,-18.555,-19.531,-21.484,8.789,0.000,0
157309.497,-16.602,-22.461,-20.996,-24.902,0.000,0
157309.500,-14.160,-20.508,-22.949,-5.371,0.000,0
157309.504,-15.137,-20.996,-26.367,15.625,0.000,0
157309.508,-19.043,-21.973,-26.855,10.742,0.000,0
157309.512,-28.320,-21.484,-24.414,9.766,0.000,0
157309.516,-24.902,-21.973,-20.020,-20.020,0.000,0
157309.520,-25.391,-20.996,-19.531,-30.762,0.000,0
157309.524,-28.320,-20.020,-28.809,-16.113,0.000,0
157309.528,-18.555,-24.902,-38.086,-6.836,0.000,0
157309.532,-17.090,-26.367,-26.855,-5.859,0.000,0
157309.536,-11.230,-20.508,-9.277,-16.113,0.000,0
157309.540,0.000,-15.625,-19.043,-3.906,0.000,0
157309.543,0.488,-11.719,-24.414,3.906,0.000,0
157309.547,-4.395,-14.160,-10.254,-1.953,0.000,0
157309.551,-7.324,-17.578,-6.836,0.488,0.000,0
157309.555,-11.719,-18.066,-15.137,-9.277,0.000,0
157309.559,-17.578,-25.879,-24.902,-22.949,0.000,0
157309.563,-26.367,-31.738,-28.809,-19.531,0.000,0
157309.567,-26.855,-33.203,-31.738,-1.465,0.000,0
157309.571,-4.395,-37.109,-41.016,-7.324,0.000,0
157309.575,-12.695,-29.785,-28.809,-22.461,0.000,0
157309.579,-18.066,-18.555,-25.879,-7.812,0.000,0
157309.582,-6.836,-20.508,-30.762,0.488,0.000,0
157309.586,-9.766,-21.484,-27.832,-12.695,0.000,0
157309.590,-14.648,-22.461,-18.555,-16.602,0.000,0
157309.594,-11.719,-16.113,-15.137,-17.090,0.000,0
157309.598,-5.859,-13.672,-23.926,-24.414,0.000,0
157309.602,-6.348,-15.625,-25.879,-10.742,0.000,0
157309.606,-11.719,-17.090,-30.273,-8.301,0.000,0
157309.610,-16.113,-13.184,-29.785,-11.719,0.000,0
157309.614,-10.254,-8.301,-23.926,-36.621,0.000,0
157309.618,-8.301,-17.578,-34.668,-48.828,0.000,0
157309.622,-16.113,-19.043,-32.227,-40.039,0.000,0
157309.625,-14.160,-15.137,-22.949,-36.621,0.000,0
157309.629,-13.184,-13.184,-34.668,-22.949,0.000,0
157309.633,-15.137,-10.254,-27.832,-49.805,0.000,0
157309.637,-21.484,-10.254,-18.066,-46.387,0.000,0
157309.641,-16.113,-10.254,-26.367,-16.113,0.000,0
157309.645,1.465,-5.859,-32.227,-23.926,0.000,0
157309.649,-9.766,-11.719,-27.832,-37.598,0.000,0
157309.653,-18.066,-18.555,-12.695,-48.828,0.000,0
157309.657,-2.930,-16.602,-25.391,-34.180,0.000,0
157309.661,-4.395,-12.207,-32.227,-29.297,0.000,0
157309.665,-8.789,-13.184,-33.691,-15.625,0.000,0
157309.668,-5.859,-18.066,-26.367,-14.160,0.000,0
157309.672,-3.906,-15.625,-13.672,-41.016,0.000,0
157309.676,-0.488,-14.160,-27.832,-18.555,0.000,0
157309.680,-0.488,-11.230,-22.461,0.977,0.000,0
157309.684,-2.930,-11.719,-20.996,0.977,0.000,0
157309.688,7.812,-14.648,-20.508,-2.930,0.000,0
157309.692,11.230,-9.766,-5.371,-32.227,0.000,0
157309.696,-5.371,-5.859,-17.578,-8.789,0.000,0
157309.700,-9.766,-4.883,-20.508,14.648,0.000,0
157309.704,3.906,-6.836,-32.227,15.625,0.000,0
157309.707,8.789,-11.230,-41.504,4.883,0.000,0
157309.711,-12.695,-12.207,1.465,-42.969,0.000,0
157309.715,-13.184,-9.766,-5.859,0.488,0.000,0
157309.719,10.254,-12.695,-34.180,29.297,0.000,0
157309.723,2.930,-8.301,-22.461,0.488,0.000,0
157309.727,-21.484,-3.906,-7.812,3.906,0.000,0
157309.731,-13.184,-10.742,-2.930,-20.508,0.000,0
157309.735,-4.883,-14.160,-16.113,-29.785,0.000,0
157309.739,-15.137,-9.766,-13.672,1.465,0.000,0
157309.743,-16.602,-10.742,-11.230,21.973,0.000,0
157309.747,-16.113,-16.113,-15.625,13.184,0.000,0
157309.750,-8.789,-14.160,-3.906,-16.113,0.000,0
157309.754,-5.859,-14.648,-3.418,-11.230,0.000,0
157309.758,-19.043,-13.672,-5.371,-10.742,0.000,0
157309.762,-13.672,-14.160,-13.184,-12.207,0.000,0
157309.766,-2.930,-18.555,-20.508,25.879,0.000,0
157309.770,-4.883,-17.578,-1.953,-1.465,0.000,0
157309.774,-7.324,-20.020,-3.906,-18.555,0.000,0
157309.778,1.465,-27.344,-20.508,9.277,0.000,0
157309.782,-10.254,-24.414,-21.484,3.418,0.000,0
157309.786,-26.855,-23.438,-15.137,5.371,0.000,0
157309.790,-27.832,-28.809,-9.766,-16.113,0.000,0
157309.793,-29.297,-21.973,-23.926,-27.832,0.000,0
157309.797,-21.484,-17.090,-29.297,-13.184,0.000,0
157309.801,-20.020,-18.066,-20.996,-2.441,0.000,0
157309.805,-16.602,-19.043,-26.855,27.344,0.000,0
157309.809,-11.230,-18.555,-24.902,0.977,0.000,0
157309.813,-17.090,-20.508,-14.160,-2.441,0.000,0
157309.817,-7.812,-21.973,-15.625,36.133,0.000,0
157309.821,0.000,-12.207,-19.043,17.578,0.000,0
157309.825,-9.277,-15.625,-24.414,8.301,0.000,0
157309.829,-15.625,-20.020,-9.277,2.930,0.000,0
157309.832,-14.648,-15.137,-1.953,-15.625,0.000,0
157309.836,-8.789,-15.625,-11.719,-10.254,0.000,0
157309.840,-18.066,-19.531,-16.113,-2.930,0.000,0
157309.844,-22.461,-18.555,-27.832,1.465,0.000,0
157309.848,-19.531,-18.555,-4.883,3.418,0.000,0
157309.852,-0.488,-22.461,-3.418,-2.930,0.000,0
157309.856,0.488,-14.160,-23.926,2.441,0.000,0
157309.860,-7.812,-9.277,-19.531,4.883,0.000,0
157309.864,-5.371,-13.672,-16.602,9.766,0.000,0
157309.868,2.441,-14.648,-14.648,-3.906,0.000,0
157309.872,3.906,-10.254,-8.789,-35.156,0.000,0
157309.875,3.906,-5.859,-14.648,-27.344,0.000,0
157309.879,9.277,-9.277,-21.973,9.766,0.000,0
157309.883,2.441,-10.254,-19.043,13.184,0.000,2
157309.887,-2.930,-13.184,-15.625,-1.465,0.000,0
157309.891,-6.348,-11.719,-11.719,5.371,0.000,0
157309.895,-9.277,-3.906,-16.602,21.484,0.000,0
157309.899,-3.418,-4.883,-21.484,4.395,0.000,0
157309.903,-7.812,-0.488,-16.113,0.488,0.000,0
157309.907,-7.812,0.000,-15.625,10.254,0.000,0
157309.911,-1.465,-3.418,-16.602,-14.648,0.000,0
157309.915,-0.488,-2.930,-17.578,-8.789,0.000,0
157309.918,-2.930,-3.906,-15.625,24.902,0.000,0
157309.922,-11.719,-2.930,-18.066,30.762,0.000,0
157309.926,-10.254,-9.277,-23.438,18.555,0.000,0
157309.930,-8.301,-10.742,-19.043,-3.906,0.000,0
157309.934,-21.973,-11.719,-23.926,3.906,0.000,0
157309.938,-31.250,-16.113,-18.555,6.348,0.000,0
157309.942,-11.719,-16.113,-28.809,9.766,0.000,0
157309.946,-2.930,-16.602,-35.156,18.555,0.000,0
157309.950,-20.020,-20.996,-20.508,3.418,0.000,0
157309.954,-25.391,-25.879,-24.902,3.906,0.000,0
157309.957,-18.555,-24.902,-33.691,19.531,0.000,0
157309.961,-12.695,-17.090,-36.621,20.508,0.000,0
157309.965,-11.230,-17.578,-23.926,12.695,0.000,0
157309.969,-16.602,-20.996,-19.531,-13.672,0.000,0
157309.973,-22.949,-18.066,-34.180,-14.648,0.000,0
157309.977,-20.996,-16.602,-33.203,-1.465,0.000,0
157309.981,-20.996,-12.207,-23.438,24.414,0.000,0
157309.985,-15.625,-9.766,-15.137,22.949,0.000,0
157309.989,-5.371,-14.160,-18.555,-2.441,0.000,0
157309.993,-15.137,-17.090,-34.668,16.602,0.000,0
157309.997,-19.531,-15.137,-37.598,28.809,0.000,0
157310.000,-19.043,-13.672,-28.320,19.531,0.000,0
157310.004,-16.113,-15.625,-24.414,7.812,0.000,0
157310.008,-11.719,-11.230,-30.273,-18.066,0.000,0
157310.012,-15.137,-14.160,-23.438,-17.090,0.000,0
157310.016,-12.207,-20.508,-19.043,6.348,0.000,0
157310.020,-11.719,-16.113,-26.367,15.625,0.000,0
157310.024,-13.672,-16.113,-24.902,11.719,0.000,0
157310.028,-12.695,-20.020,-16.113,-2.441,0.000,0
157310.032,2.441,-19.043,-28.809,25.879,0.000,0
157310.036,14.648,-20.508,-51.270,35.645,0.000,0
157310.040,-21.973,-24.902,-47.852,-0.488,0.000,0
157310.043,-50.781,-22.461,-18.555,-5.371,0.000,0
157310.047,-23.438,-25.391,-11.230,-15.137,0.000,0
157310.051,-21.973,-24.414,-28.809,-20.020,0.000,0
157310.055,-21.484,-15.625,-34.668,-3.418,0.000,0
157310.059,-10.742,-12.695,-31.250,23.438,0.000,0
157310.063,-6.836,-16.113,-27.832,22.461,0.000,0
157310.067,-1.953,-16.602,-10.742,-12.695,0.000,0
157310.071,-5.371,-12.695,-15.625,15.137,0.000,0
157310.075,-14.160,-12.207,-26.367,31.738,0.000,0
157310.079,1.465,-15.137,-35.645,14.648,0.000,0
157310.082,13.184,-17.090,-30.762,25.879,0.000,0
157310.086,-11.719,-21.973,3.906,7.324,0.000,0
157310.090,-19.043,-17.578,-1.465,-8.789,0.000,0
157310.094,-6.836,-18.066,-30.762,12.207,0.000,0
157310.098,-2.930,-20.508,-29.785,24.902,0.000,0
157310.102,-14.160,-19.531,-14.648,4.883,0.000,0
157310.106,-17.090,-22.949,-15.625,-24.902,0.000,0
157310.110,-2.930,-21.973,-30.762,-11.719,0.000,0
157310.114,-4.883,-21.973,-27.344,-1.953,0.000,0
157310.118,-7.812,-22.461,-20.508,16.602,0.000,0
157310.122,-12.207,-19.043,-14.160,37.598,0.000,0
157310.125,-20.020,-17.090,-27.344,-11.230,0.000,0
157310.129,-21.973,-21.973,-21.484,-17.578,0.000,0
157310.133,-11.230,-23.438,-3.906,17.578,0.000,0
157310.137,1.953,-21.973,-23.438,-0.977,0.000,0
157310.141,-9.766,-20.020,-20.020,-9.277,0.000,0
157310.145,-16.113,-24.902,-9.766,-19.043,0.000,0
157310.149,-11.719,-29.297,-24.902,-26.367,0.000,0
157310.153,-13.184,-35.156,-31.250,-24.902,0.000,0
157310.157,-24.414,-33.691,-32.227,-2.930,0.000,0
157310.161,-26.855,-23.438,-25.391,0.488,0.000,0
157310.165,-21.484,-22.461,-16.602,-27.344,0.000,0
157310.168,-19.531,-22.949,-31.738,-8.301,0.000,0
157310.172,-19.531,-21.973,-36.133,8.789,0.000,0
157310.176,-13.672,-19.043,-25.391,-3.906,0.000,0
157310.180,-2.930,-19.043,-30.762,-6.836,0.000,0
157310.184,-7.812,-22.461,-31.738,-27.832,0.000,0
157310.188,-3.906,-23.438,-30.762,-35.645,0.000,0
157310.192,-6.348,-22.949,-29.297,-26.855,0.000,0
157310.196,-10.254,-24.414,-28.320,-6.836,0.000,0
157310.200,-10.254,-23.926,-31.738,2.441,0.000,0
157310.204,-25.879,-25.879,-10.742,-39.062,0.000,0
157310.207,-18.555,-26.855,-23.926,-29.785,0.000,0
157310.211,2.930,-25.391,-47.363,14.648,0.000,0
157310.215,-8.301,-24.414,-25.391,6.348,0.000,0
157310.219,-24.414,-22.949,-16.602,6.348,0.000,0
157310.223,-27.344,-25.879,-16.113,-20.996,0.000,0
157310.227,-9.277,-27.344,-28.320,-28.320,0.000,0
157310.231,1.953,-21.484,-37.109,-8.789,0.000,0
157310.235,1.465,-16.602,-26.855,9.277,0.000,0
157310.239,0.000,-15.625,-16.602,8.301,0.000,0
157310.243,-4.883,-14.648,-20.020,-3.906,0.000,0
157310.247,-6.348,-15.137,-21.973,7.812,0.000,0
157310.250,-5.859,-16.602,-22.949,11.230,0.000,0
157310.254,-16.602,-18.066,-23.926,-3.418,0.000,0
157310.258,-22.949,-19.043,-21.973,-14.648,0.000,0
157310.262,-23.926,-25.879,-13.672,-29.785,0.000,0
157310.266,-15.137,-18.555,-15.137,-30.762,0.000,0
157310.270,11.230,-14.160,-31.250,-3.906,0.000,0
157310.274,-5.859,-25.391,-43.457,3.418,0.000,0
157310.278,-29.297,-24.414,-34.180,-5.371,0.000,0
157310.282,-30.762,-20.020,-11.230,-19.043,0.000,0
157310.286,-26.367,-19.043,-23.926,-19.531,0.000,0
157310.290,-12.207,-16.602,-44.922,-18.066,0.000,0
157310.293,-20.508,-13.184,-28.809,-13.672,0.000,0
157310.297,-20.020,-14.648,-15.625,20.996,0.000,0
157310.301,-5.859,-11.719,-14.648,-6.836,0.000,0
157310.305,-16.602,-13.184,-24.414,-19.531,0.000,0
157310.309,-33.203,-20.020,-20.508,-9.766,0.000,0
157310.313,-24.902,-21.484,-12.207,-11.719,0.000,0
157310.317,-2.441,-19.043,-31.250,17.090,0.000,0
157310.321,-5.859,-22.949,-24.902,-9.277,0.000,0
157310.325,-15.137,-20.508,-22.949,-26.367,0.000,0
157310.329,-8.789,-11.719,-28.809,-21.484,0.000,0
157310.332,-3.906,-17.578,-27.344,-6.348,0.000,0
157310.336,-13.184,-23.926,-31.738,20.020,0.000,0
157310.340,-21.484,-22.949,-24.414,-17.578,0.000,0
157310.344,-27.344,-18.066,-17.090,-21.484,0.000,0
157310.348,-11.719,-16.113,-34.668,8.789,0.000,0
157310.352,-0.977,-19.043,-39.551,-6.836,0.000,0
157310.356,-10.742,-18.066,-25.391,1.953,0.000,0
157310.360,-9.277,-16.113,-20.996,-20.020,0.000,0
157310.364,-6.836,-24.414,-29.297,-47.363,0.000,0
157310.368,-17.090,-32.227,-29.785,-32.715,0.000,0
157310.372,-21.973,-30.273,-12.695,-10.254,0.000,0
157310.375,-8.301,-20.996,-25.391,14.648,0.000,0
157310.379,-12.207,-19.531,-17.578,-14.648,0.000,0
157310.383,-15.625,-13.184,-1.953,-18.066,0.000,0
157310.387,-12.695,-16.602,-20.508,17.578,0.000,0
157310.391,-17.090,-19.043,-28.809,9.277,0.000,0
157310.395,-17.578,-13.184,-20.508,-0.977,0.000,0
157310.399,-15.137,-18.555,-14.160,-21.484,0.000,0
157310.403,-20.508,-19.531,-21.973,-37.109,0.000,0
157310.407,-22.949,-18.555,-32.715,-22.461,0.000,0
157310.411,-14.160,-19.531,-37.598,-18.066,0.000,0
157310.415,-18.066,-24.414,-26.367,-6.348,0.000,0
157310.418,-13.184,-30.273,-24.902,-26.855,0.000,0
157310.422,-13.184,-25.391,-43.457,-22.461,0.000,0
157310.426,-26.367,-22.461,-36.621,-8.789,0.000,0
157310.430,-26.367,-24.902,-25.879,-21.484,0.000,0
157310.434,-21.484,-25.391,-25.879,-10.254,0.000,0
157310.438,-31.250,-29.785,-19.531,-42.480,0.000,0
157310.442,-28.809,-27.832,-19.531,-48.340,0.000,0
157310.446,-22.949,-25.391,-24.414,0.000,0.000,0
157310.450,-30.762,-20.020,-27.344,1.953,0.000,0
157310.454,-23.438,-20.020,-32.715,1.465,0.000,0
157310.457,-24.414,-19.531,-9.766,-16.602,0.000,0
157310.461,-18.555,-17.090,-3.906,-26.855,0.000,0
157310.465,10.742,-16.602,-22.461,-14.160,0.000,0
157310.469,2.441,-19.043,-22.461,-21.973,0.000,0
157310.473,-27.344,-21.973,-23.926,-4.883,0.000,0
157310.477,-20.020,-22.461,-16.602,-15.625,0.000,0
157310.481,-7.812,-26.367,-17.578,-29.785,0.000,0
157310.485,-10.742,-21.973,-21.973,-2.930,0.000,0
157310.489,-10.254,-20.996,-20.508,6.348,0.000,0
157310.493,-8.789,-29.297,-23.926,2.441,0.000,0
157310.497,-18.066,-27.832,-17.578,-21.973,0.000,0
157310.500,-30.762,-26.855,-15.625,-31.738,0.000,0
157310.504,-33.203,-21.973,-16.602,-25.879,0.000,0
157310.508,-14.160,-20.020,-34.668,-14.160,0.000,0
157310.512,-21.484,-34.180,-37.598,-11.719,0.000,0
157310.516,-38.574,-32.715,-25.391,-23.926,0.000,0
157310.520,-32.715,-25.879,-41.016,-16.113,0.000,1
157310.524,-14.160,-24.414,-49.316,-11.719,0.000,0
157310.528,-11.719,-22.949,-41.504,-20.508,0.000,0
157310.532,-27.832,-25.879,-23.926,-20.020,0.000,0
157310.536,-21.973,-17.090,-17.090,-36.133,0.000,0
157310.540,-14.160,-16.602,-25.879,-40.039,0.000,0
157310.543,-20.508,-19.043,-24.414,-19.531,0.000,0
157310.547,-24.902,-13.672,-24.902,-4.883,0.000,0
157310.551,-15.137,-15.137,-31.250,-7.812,0.000,0
157310.555,-2.930,-16.113,-28.320,-18.066,0.000,0
157310.559,-6.348,-14.160,-21.484,-1.953,0.000,0
157310.563,-1.953,-17.578,-23.926,7.812,0.000,0
157310.567,2.930,-20.020,-30.762,4.883,0.000,0
157310.571,-13.672,-26.367,-34.180,-0.977,0.000,0
157310.575,-25.391,-30.762,-25.879,-17.090,0.000,0
157310.579,-23.926,-25.391,-25.879,-5.859,0.000,0
157310.582,-6.348,-24.414,-45.898,2.441,0.000,0
157310.586,-9.277,-26.855,-47.363,-2.441,0.000,0
157310.590,-30.762,-22.461,-20.020,-3.418,0.000,0
157310.594,-25.391,-21.484,-11.719,-13.184,0.000,0
157310.598,-5.859,-30.273,-30.762,-5.859,0.000,0
157310.602,-16.113,-27.832,-32.715,-2.930,0.000,0
157310.606,-29.297,-18.555,-25.879,-12.207,0.000,0
157310.610,-20.508,-17.090,-29.785,-5.371,0.000,0
157310.614,-13.184,-24.902,-20.508,-38.086,0.000,0
157310.618,-14.160,-22.949,-27.832,-52.246,0.000,0
157310.622,-21.484,-25.391,-46.387,-6.348,0.000,0
157310.625,-18.555,-29.297,-37.598,1.465,0.000,0
157310.629,-8.301,-23.438,-30.273,-1.465,0.000,0
157310.633,-15.137,-23.438,-18.555,-10.254,0.000,0
157310.637,-24.902,-19.043,-20.996,-26.855,0.000,0
157310.641,-24.414,-16.113,-25.879,-22.949,0.000,0
157310.645,-16.113,-20.508,-33.203,-17.090,0.000,0
157310.649,-5.859,-19.043,-38.086,5.371,0.000,0
157310.653,-16.113,-17.090,-6.836,-17.090,0.000,0
157310.657,-11.230,-20.020,-9.766,-19.531,0.000,0
157310.661,-0.977,-20.996,-22.949,14.160,0.000,0
157310.665,-3.418,-18.555,-13.184,11.230,0.000,0
157310.668,-8.301,-18.066,-18.066,8.789,0.000,0
157310.672,-18.066,-22.949,-18.555,-19.043,0.000,0
157310.676,-12.207,-20.508,-16.113,-34.180,0.000,0
157310.680,-11.719,-17.090,-18.555,-20.996,0.000,0
157310.684,-29.297,-17.578,-25.879,-4.883,0.000,0
157310.688,-13.672,-17.578,-47.852,10.742,0.000,0
157310.692,3.906,-23.926,-36.621,-17.090,0.000,0
157310.696,-32.715,-23.926,-11.230,-26.855,0.000,0
157310.700,-34.668,-15.137,-24.414,-0.488,0.000,0
157310.704,-14.160,-17.578,-38.574,-0.488,0.000,0
157310.707,-21.973,-20.020,-22.949,-19.531,0.000,0
157310.711,-29.785,-17.090,8.789,-40.039,0.000,0
157310.715,-22.949,-18.555,4.395,-48.828,0.000,0
157310.719,-19.043,-11.719,-19.043,-28.809,0.000,0
157310.723,-21.484,-13.672,-34.180,-0.977,0.000,0
157310.727,-17.090,-20.996,-28.809,8.301,0.000,0
157310.731,-23.926,-20.020,-15.137,-20.996,0.000,0
157310.735,-21.484,-20.508,-26.855,-41.992,0.000,0
157310.739,-15.625,-18.066,-37.598,-8.789,0.000,0
157310.743,-26.855,-15.137,-14.160,-12.207,0.000,0
157310.747,-19.043,-16.602,-17.090,-17.578,0.000,0
157310.750,-11.719,-25.879,-22.461,-42.969,0.000,0
157310.754,-24.414,-27.344,-10.742,-69.824,0.000,0
157310.758,-18.555,-20.508,-22.949,-32.715,0.000,0
157310.762,-9.277,-23.438,-35.645,-21.973,0.000,0
157310.766,-16.113,-24.414,-38.086,-31.738,0.000,0
157310.770,-25.391,-23.926,-19.531,-44.434,0.000,0
157310.774,-18.066,-24.414,-7.812,-61.035,0.000,0
157310.778,-17.578,-18.066,-15.137,-50.293,0.000,0
157310.782,-17.578,-17.090,-26.855,-47.363,0.000,0
157310.786,-23.926,-20.020,-30.273,-18.555,0.000,0
157310.790,-28.320,-26.367,-17.090,-0.488,0.000,0
157310.793,-2.441,-25.391,-20.508,-33.203,0.000,0
157310.797,-5.371,-17.090,-28.320,-16.113,0.000,0
157310.801,-20.508,-23.926,-31.250,1.953,0.000,0
157310.805,-21.484,-23.438,-36.621,-15.137,0.000,0
157310.809,-12.207,-21.484,-31.250,-22.461,0.000,0
157310.813,-20.508,-22.461,-21.973,-29.785,0.000,0
157310.817,-22.461,-25.391,-24.902,-44.434,0.000,0
157310.821,-19.043,-29.297,-29.297,-37.598,0.000,0
157310.825,-25.879,-22.461,-44.434,8.301,0.000,0
157310.829,-13.184,-20.020,-44.922,6.348,0.000,0
157310.832,-13.184,-18.555,-26.855,-28.320,0.000,0
157310.836,-12.695,-16.113,-35.156,-11.719,0.000,0
157310.840,-1.465,-18.555,-42.480,12.207,0.000,0
157310.844,-9.277,-15.625,-25.391,8.301,0.000,0
157310.848,-14.648,-17.090,-19.531,9.766,0.000,0
157310.852,-11.719,-21.484,-27.344,-14.160,0.000,0
157310.856,-16.602,-18.555,-33.691,-28.809,0.000,0
157310.860,-26.855,-20.020,-26.855,-19.531,0.000,0
157310.864,-24.902,-24.414,-32.715,-5.371,0.000,0
157310.868,-23.926,-25.879,-42.480,-0.977,0.000,0
157310.872,-21.973,-22.461,-33.691,-27.832,0.000,0
157310.875,-15.137,-20.996,-23.438,-18.066,0.000,0
157310.879,-18.066,-21.973,-21.973,0.488,0.000,0
157310.883,-17.578,-16.602,-31.250,-5.371,0.000,0
157310.887,-16.113,-15.137,-26.367,-2.441,0.000,0
157310.891,-14.648,-20.996,-17.578,-34.180,0.000,0
157310.895,-10.254,-22.461,-21.973,-35.645,0.000,0
157310.899,-9.277,-21.484,-26.855,-10.254,0.000,0
157310.903,-12.695,-26.855,-29.297,-1.953,0.000,0
157310.907,-8.301,-23.926,-26.367,0.977,0.000,0
157310.911,-14.648,-20.020,-19.531,-18.066,0.000,0
157310.915,-14.160,-17.090,-22.461,-10.742,0.000,0
157310.918,-15.137,-15.137,-28.320,3.418,0.000,0
157310.922,-24.414,-14.648,-23.438,-13.672,0.000,0
157310.926,-13.672,-11.230,-26.367,2.441,0.000,0
157310.930,-4.395,-10.742,-25.879,-4.883,0.000,0
157310.934,-14.648,-14.648,-23.926,-19.531,0.000,0
157310.938,-22.949,-20.996,-34.668,-2.441,0.000,0
157310.942,-10.742,-19.531,-38.574,5.371,0.000,0
157310.946,-2.930,-20.996,-34.180,15.625,0.000,0
157310.950,-20.020,-20.996,-16.602,-15.625,0.000,0
157310.954,-23.926,-18.066,-15.625,-38.086,0.000,0
157310.957,-8.301,-19.531,-30.273,-17.578,0.000,0
157310.961,-13.672,-19.043,-28.320,-12.695,0.000,0
157310.965,-26.855,-15.625,-24.902,5.371,0.000,0
157310.969,-23.438,-19.531,-20.020,-16.113,0.000,0
157310.973,-7.324,-18.066,-26.367,-39.551,0.000,0
157310.977,-7.324,-15.625,-27.832,-5.859,0.000,0
157310.981,-12.207,-18.555,-24.902,4.883,0.000,0
157310.985,-8.301,-23.438,-30.273,-2.441,0.000,0
157310.989,-8.789,-21.484,-19.043,-25.391,0.000,0
157310.993,-15.137,-16.602,-16.602,-31.738,0.000,0
157310.997,-2.930,-17.090,-27.832,-12.695,0.000,0
157311.000,5.859,-11.719,-22.949,-4.883,0.000,0
157311.004,1.953,-13.184,-30.273,13.672,0.000,0
157311.008,-8.789,-20.020,-24.414,-10.254,0.000,0
157311.012,-22.949,-20.996,-15.625,-21.484,0.000,0
157311.016,-19.531,-23.926,-33.203,10.742,0.000,0
157311.020,-8.301,-25.391,-42.969,-2.930,0.000,0
157311.024,-20.996,-25.391,-32.227,-19.043,0.000,0
157311.028,-38.086,-24.414,-9.766,-24.414,0.000,0
157311.032,-18.066,-20.508,-16.602,-35.645,0.000,0
157311.036,-3.906,-16.602,-31.250,-24.902,0.000,0
157311.040,-18.066,-17.090,-23.926,-5.859,0.000,0
157311.043,-18.066,-20.508,-25.879,20.020,0.000,0
157311.047,-12.207,-24.414,-15.137,-14.160,0.000,0
157311.051,-24.902,-20.020,-13.672,-18.555,0.000,0
157311.055,-28.320,-13.184,-31.250,11.719,0.000,0
157311.059,-18.066,-13.184,-24.414,-13.184,0.000,0
157311.063,-1.953,-9.766,-29.785,-8.789,0.000,0
157311.067,2.441,-15.137,-27.344,-22.461,0.000,0
157311.071,-19.531,-17.578,-8.789,-42.480,0.000,0
157311.075,-15.137,-18.555,-7.324,-12.207,0.000,0
157311.079,11.719,-16.113,-16.113,-0.977,0.000,0
157311.082,-9.277,-19.531,-24.414,-2.441,0.000,0
157311.086,-26.855,-23.438,-17.578,-20.996,0.000,0
157311.090,-14.648,-12.207,-12.207,-35.156,0.000,0
157311.094,-7.812,-8.301,-28.809,-12.695,0.000,0
157311.098,-14.160,-14.648,-26.855,-19.043,0.000,0
157311.102,-23.926,-13.184,-19.531,-19.531,0.000,0
157311.106,-22.461,-15.625,-22.461,-26.367,0.000,0
157311.110,-16.602,-18.555,-27.344,-41.016,0.000,0
157311.114,-19.531,-14.648,-24.902,-3.906,0.000,0
157311.118,-10.254,-18.555,-29.785,20.020,0.000,0
157311.122,-4.395,-18.066,-35.645,-10.254,0.000,0
157311.125,-21.973,-20.020,-23.438,-34.668,0.000,0
157311.129,-22.461,-18.555,-24.902,-37.598,0.000,0
157311.133,-12.695,-14.648,-30.273,-33.691,0.000,0
157311.137,-8.301,-15.137,-30.762,-19.043,0.000,0
157311.141,-4.883,-19.531,-32.227,17.090,0.000,0
157311.145,-12.695,-20.996,-20.020,-9.766,0.000,0
157311.149,-12.207,-14.648,-21.484,-35.645,0.000,0
157311.153,-7.812,-12.207,-33.691,0.488,0.000,0
157311.157,-7.324,-11.719,-29.785,1.953,0.000,0
157311.161,-14.160,-12.695,-20.020,-1.953,0.000,0
157311.165,-6.836,-17.578,-22.949,-7.812,0.000,0
157311.168,-15.625,-15.137,-33.203,-26.855,0.000,0
157311.172,-20.996,-13.672,-43.457,-29.297,0.000,0
157311.176,-2.930,-19.043,-43.457,-10.254,0.000,0
157311.180,-2.930,-15.625,-43.945,6.348,0.000,0
157311.184,-21.484,-20.508,-43.945,-16.602,0.000,0
157311.188,-25.391,-17.090,-34.180,-29.297,0.000,0
157311.192,-21.973,-14.160,-37.109,-4.883,0.000,0
157311.196,-20.508,-22.461,-39.551,3.906,0.000,0
157311.200,-24.414,-20.508,-37.598,12.207,0.000,0
157311.204,-36.133,-12.695,-25.391,7.324,0.000,0
157311.207,-20.508,-10.254,-12.695,-21.973,0.000,0
157311.211,-4.883,-15.137,-29.297,-21.973,0.000,1
157311.215,-15.625,-15.625,-34.180,0.488,0.000,0
157311.219,-19.043,-15.137,-29.297,6.348,0.000,0
157311.223,-16.602,-17.578,-23.926,-9.277,0.000,0
157311.227,-29.297,-23.926,-23.926,-14.160,0.000,0
157311.231,-18.066,-26.855,-28.320,-16.113,0.000,0
157311.235,-12.207,-10.742,-30.273,0.977,0.000,0
157311.239,-19.043,-3.906,-31.738,12.207,0.000,0
157311.243,-16.602,-16.602,-28.320,-0.977,0.000,0
157311.247,-21.973,-23.438,-22.949,-33.691,0.000,0
157311.250,-25.391,-14.160,-23.438,-26.367,0.000,0
157311.254,-14.160,-13.184,-29.785,10.254,0.000,0
157311.258,-4.883,-21.484,-36.133,11.719,0.000,0
157311.262,-17.090,-18.555,-23.438,-1.953,0.000,0
157311.266,-37.109,-18.066,-11.719,0.000,0.000,0
157311.270,-21.484,-20.020,-32.715,5.859,0.000,0
157311.274,-12.207,-23.438,-35.645,-12.695,0.000,0
157311.278,-24.902,-26.367,-33.691,-12.695,0.000,0
157311.282,-21.484,-21.484,-33.203,-9.277,0.000,0
157311.286,-20.020,-22.461,-28.809,-27.344,0.000,0
157311.290,-28.809,-22.949,-37.109,-17.578,0.000,0
157311.293,-28.809,-15.625,-30.762,2.441,0.000,0
157311.297,-20.508,-15.137,-20.508,8.789,0.000,0
157311.301,-8.789,-18.066,-28.320,-0.977,0.000,0
157311.305,-9.277,-16.602,-21.484,-26.367,0.000,0
157311.309,-18.555,-17.090,-20.996,-17.578,0.000,0
157311.313,-20.508,-26.367,-31.250,-11.230,0.000,0
157311.317,-19.043,-23.438,-39.551,-0.488,0.000,0
157311.321,-19.531,-22.461,-33.691,-3.418,0.000,0
157311.325,-19.043,-28.320,-17.578,-29.785,0.000,0
157311.329,-15.625,-33.691,-32.227,-11.230,0.000,0
157311.332,-16.602,-32.227,-33.203,-12.695,0.000,0
157311.336,-26.367,-27.832,-34.668,-11.230,0.000,0
157311.340,-30.762,-31.250,-35.156,1.953,0.000,0
157311.344,-17.090,-36.133,-25.879,-30.273,0.000,0
157311.348,-8.301,-32.227,-36.133,-18.066,0.000,0
157311.352,-15.625,-31.738,-45.898,-16.113,0.000,0
157311.356,-24.414,-34.668,-36.133,-6.836,0.000,0
157311.360,-11.719,-33.203,-35.156,6.348,0.000,0
157311.364,-15.137,-31.250,-28.809,-31.250,0.000,0
157311.368,-23.438,-27.344,-32.227,-13.184,0.000,0
157311.372,-13.672,-21.484,-35.156,-3.906,0.000,0
157311.375,-9.277,-20.020,-27.832,-7.324,0.000,0
157311.379,-20.508,-22.949,-21.973,-10.254,0.000,0
157311.383,-27.832,-26.367,-10.254,-50.293,0.000,0
157311.387,-20.996,-20.508,-22.949,-47.852,0.000,0
157311.391,-2.441,-21.973,-35.645,-22.949,0.000,0
157311.395,0.000,-28.809,-41.992,0.000,0.000,0
157311.399,-13.672,-23.438,-23.438,0.488,0.000,0
157311.403,-28.320,-22.461,0.000,-38.574,0.000,0
157311.407,-28.320,-21.973,-30.762,-20.508,0.000,0
157311.411,-13.672,-22.949,-46.387,3.418,0.000,0
157311.415,-20.020,-21.484,-21.973,0.488,0.000,0
157311.418,-29.785,-22.949,-20.020,-15.625,0.000,0
157311.422,-20.020,-24.902,-20.508,-49.316,0.000,0
157311.426,-12.207,-13.672,-18.066,-42.969,0.000,0
157311.430,-17.578,-12.695,-20.508,-11.230,0.000,0
157311.434,-20.020,-14.160,-25.391,-1.465,0.000,0
157311.438,-7.812,-17.090,-27.344,-27.344,0.000,0
157311.442,-4.883,-22.461,-30.273,-21.973,0.000,0
157311.446,-14.160,-18.066,-17.090,18.555,0.000,0
157311.450,0.488,-12.695,-20.508,13.672,0.000,0
157311.454,0.488,-14.648,-31.250,-6.836,0.000,0
157311.457,-7.324,-25.879,-24.902,3.418,0.000,0
157311.461,-5.859,-22.461,-11.719,-6.836,0.000,0
157311.465,-12.207,-15.625,-19.043,-16.113,0.000,0
157311.469,-7.812,-21.973,-45.410,1.953,0.000,0
157311.473,-4.883,-25.391,-41.504,17.090,0.000,0
157311.477,-11.719,-19.531,-19.531,10.742,0.000,0
157311.481,-14.160,-16.602,-21.484,-27.832,0.000,0
157311.485,-13.672,-18.066,-35.156,-27.832,0.000,0
157311.489,-25.879,-16.113,-21.973,-12.207,0.000,0
157311.493,-22.949,-20.020,-26.855,-6.836,0.000,0
157311.497,-11.719,-20.508,-36.133,4.395,0.000,0
157311.500,-20.020,-11.719,-13.184,-18.555,0.000,0
157311.504,-21.973,-15.137,-21.973,-8.789,0.000,0
157311.508,-9.277,-24.414,-33.203,18.555,0.000,0
157311.512,-10.742,-28.809,-27.832,3.418,0.000,0
157311.516,-21.973,-27.344,-25.391,-14.160,0.000,0
157311.520,-31.738,-28.320,-26.367,-30.762,0.000,0
157311.524,-35.645,-26.367,-27.832,-39.062,0.000,0
157311.528,-30.762,-21.973,-28.809,-31.250,0.000,0
157311.532,-37.109,-19.043,-33.691,-7.812,0.000,0
157311.536,-29.297,-20.996,-23.438,-24.902,0.000,0
157311.540,-19.531,-28.320,-17.090,-54.199,0.000,0
157311.543,-19.043,-24.414,-35.156,-12.207,0.000,0
157311.547,-12.695,-20.508,-38.574,-2.930,0.000,0
157311.551,-10.254,-24.414,-34.180,-24.902,0.000,0
157311.555,-8.789,-26.855,-39.062,-23.438,0.000,0
157311.559,-12.207,-24.414,-25.391,-32.715,0.000,0
157311.563,-14.648,-23.438,-25.391,-41.016,0.000,0
157311.567,-17.578,-25.391,-36.133,-27.832,0.000,0
157311.571,-16.113,-22.949,-31.250,-13.672,0.000,0
157311.575,-10.254,-22.461,-28.320,-9.277,0.000,0
157311.579,-34.668,-24.414,-24.902,-20.020,0.000,0
157311.582,-45.410,-25.879,-35.645,-19.531,0.000,0
157311.586,-27.344,-26.855,-43.945,-3.906,0.000,0
157311.590,-22.949,-25.879,-28.320,6.348,0.000,0
157311.594,-18.555,-23.438,-26.367,2.441,0.000,0
157311.598,-17.578,-20.996,-34.668,-28.809,0.000,0
157311.602,-16.113,-20.020,-37.109,-42.480,0.000,0
157311.606,-17.578,-16.602,-26.855,-8.789,0.000,0
157311.610,-11.230,-17.578,-24.902,13.672,0.000,0
157311.614,-8.789,-19.043,-33.691,0.000,0.000,0
157311.618,-29.297,-17.578,-25.879,-31.250,0.000,0
157311.622,-43.457,-13.184,-21.484,-32.715,0.000,0
157311.625,-31.738,-15.137,-26.855,-19.531,0.000,0
157311.629,-21.484,-21.484,-35.156,-12.695,0.000,0
157311.633,-26.367,-21.484,-45.898,9.766,0.000,0
157311.637,-18.066,-20.996,-27.344,0.488,0.000,0
157311.641,-21.973,-21.973,-12.207,-7.812,0.000,0
157311.645,-20.508,-21.484,-26.367,13.672,0.000,0
157311.649,-8.301,-23.438,-44.434,19.531,0.000,0
157311.653,-16.113,-25.879,-37.598,9.277,0.000,0
157311.657,-20.020,-21.484,-13.184,-17.578,0.000,0
157311.661,-12.207,-20.020,-20.020,-27.344,0.000,0
157311.665,-14.160,-19.531,-30.762,-6.836,0.000,0
157311.668,-32.715,-15.137,-27.832,3.418,0.000,0
157311.672,-29.785,-18.066,-43.945,16.113,0.000,0
157311.676,-9.766,-24.414,-37.598,-14.160,0.000,0
157311.680,-22.461,-20.508,-18.555,-25.391,0.000,0
157311.684,-40.039,-14.648,-17.578,7.324,0.000,0
157311.688,-18.555,-18.555,-21.973,7.812,0.000,0
157311.692,-6.348,-23.438,-25.391,6.836,0.000,0
157311.696,-18.555,-28.320,-10.742,-10.742,0.000,0
157311.700,-15.137,-26.367,-9.766,-37.598,0.000,0
157311.704,3.906,-22.949,-39.062,-23.926,0.000,0
157311.707,-0.488,-26.855,-27.344,-20.508,0.000,0
157311.711,-18.555,-21.973,-13.184,0.000,0.000,0
157311.715,-20.996,-19.531,-24.414,-2.441,0.000,0
157311.719,-5.859,-20.996,-33.203,-24.414,0.000,0
157311.723,-5.371,-23.438,-45.410,3.906,0.000,0
157311.727,-24.414,-20.508,-21.973,12.207,0.000,0
157311.731,-30.273,-17.578,-10.742,13.672,0.000,0
157311.735,-15.137,-17.578,-20.508,-15.137,0.000,0
157311.739,-11.719,-14.160,-11.230,-29.785,0.000,0
157311.743,-4.395,-16.113,-13.672,1.465,0.000,0
157311.747,-0.977,-16.113,-17.090,1.953,0.000,0
157311.750,-5.859,-17.578,-39.062,2.930,0.000,0
157311.754,-12.695,-24.414,-31.250,-13.184,0.000,0
157311.758,-15.625,-19.531,-8.301,-12.207,0.000,0
157311.762,-14.160,-13.672,-23.438,19.531,0.000,0
157311.766,-12.695,-20.996,-41.016,2.930,0.000,0
157311.770,-17.090,-27.344,-48.828,-3.418,0.000,0
157311.774,-33.203,-34.668,-20.508,-18.555,0.000,0
157311.778,-23.926,-28.320,-11.230,-46.387,0.000,0
157311.782,-9.277,-13.672,-23.926,-20.020,0.000,0
157311.786,-16.113,-10.254,-18.555,11.719,0.000,0
157311.790,-6.836,-8.789,-15.625,23.926,0.000,0
157311.793,0.977,-14.160,-10.742,6.348,0.000,0
157311.797,-1.953,-16.602,-9.766,-26.855,0.000,0
157311.801,2.930,-19.043,-14.160,-17.578,0.000,0
157311.805,-0.488,-15.625,-11.719,-8.301,0.000,0
157311.809,-8.301,-15.137,-18.066,3.906,0.000,0
157311.813,-5.371,-21.973,-30.762,12.207,0.000,0
157311.817,-11.719,-17.578,-20.996,-10.742,0.000,0
157311.821,-20.020,-16.113,-26.855,-9.277,0.000,0
157311.825,-2.441,-16.113,-41.504,0.977,0.000,0
157311.829,-0.977,-20.508,-37.109,1.953,0.000,0
157311.832,-19.043,-23.926,-26.855,-9.766,0.000,0
157311.836,-15.137,-21.484,-11.719,-30.273,0.000,0
157311.840,-4.395,-23.926,-25.879,-34.668,0.000,0
157311.844,-20.020,-26.367,-27.832,-22.949,0.000,0
157311.848,-26.367,-19.531,-19.043,-1.465,0.000,0
157311.852,-22.461,-21.484,-33.691,6.836,0.000,0
157311.856,-19.531,-30.273,-28.809,-15.625,0.000,0
157311.860,-22.461,-24.414,-20.020,-19.043,0.000,0
157311.864,-26.367,-19.043,-21.484,4.883,0.000,0
157311.868,-14.648,-23.438,-28.320,5.371,0.000,0
157311.872,-13.672,-25.879,-28.809,-7.324,0.000,0
157311.875,-20.508,-21.484,-12.695,-20.996,0.000,0
157311.879,-19.043,-28.320,-18.066,-23.438,0.000,0
157311.883,-16.602,-26.367,-28.809,-28.320,0.000,0
157311.887,-12.207,-20.508,-28.809,-6.836,0.000,0
157311.891,-17.578,-24.902,-21.973,6.836,0.000,0
157311.895,-15.625,-20.508,-4.395,-17.090,0.000,0
157311.899,-6.836,-20.020,-11.719,-3.418,0.000,0
157311.903,-17.578,-21.484,-22.461,7.324,0.000,0
157311.907,-21.484,-20.508,-14.160,-7.324,0.000,0
157311.911,-13.672,-21.973,-16.113,2.930,0.000,0
157311.915,0.488,-28.809,-26.855,-15.137,0.000,0
157311.918,-7.812,-28.809,-25.391,-34.668,0.000,0
157311.922,-20.996,-24.414,-21.973,-12.207,0.000,0
157311.926,-14.648,-29.297,-24.902,13.672,0.000,1
157311.930,-4.395,-39.062,-32.227,9.766,0.000,0
157311.934,-21.484,-34.668,-28.320,-16.602,0.000,0
157311.938,-32.715,-30.762,-30.762,-2.441,0.000,0
157311.942,-14.160,-34.668,-42.969,9.766,0.000,0
157311.946,-16.113,-25.879,-34.668,9.277,0.000,0
157311.950,-27.832,-19.043,-15.137,1.953,0.000,0
157311.954,-32.715,-20.508,0.488,-32.227,0.000,0
157311.957,-15.625,-20.996,-12.207,-15.625,0.000,0
157311.961,-0.488,-23.926,-25.879,8.789,0.000,0
157311.965,-5.371,-21.484,-18.066,6.348,0.000,0
157311.969,-7.324,-18.066,-18.555,5.859,0.000,0
157311.973,-0.488,-20.020,-16.113,-11.719,0.000,0
157311.977,5.859,-18.555,-20.020,-17.578,0.000,0
157311.981,-1.465,-14.160,-23.438,-2.930,0.000,0
157311.985,-15.625,-21.973,-31.250,-15.137,0.000,0
157311.989,-10.254,-22.949,-47.852,1.953,0.000,0
157311.993,1.953,-18.555,-30.762,-8.301,0.000,0
157311.997,-12.695,-19.043,-15.137,-20.508,0.000,0
157312.000,-36.133,-19.043,-21.973,11.719,0.000,0
157312.004,-20.020,-24.414,-35.645,3.906,0.000,0
157312.008,-3.418,-26.367,-41.016,1.953,0.000,0
157312.012,-32.227,-24.414,-9.277,-19.043,0.000,0
157312.016,-40.039,-19.531,-9.277,-44.922,0.000,0
157312.020,-14.648,-11.719,-34.668,-25.879,0.000,0
157312.024,-12.207,-16.113,-25.879,-8.301,0.000,0
157312.028,-11.230,-28.320,-24.902,15.137,0.000,0
157312.032,-10.254,-25.879,-17.090,-17.578,0.000,0
157312.036,-11.719,-16.602,-12.695,-36.133,0.000,0
157312.040,-14.648,-17.090,-22.461,8.789,0.000,0
157312.043,-24.902,-18.555,-17.578,9.277,0.000,0
157312.047,-23.926,-20.020,-27.832,-9.277,0.000,0
157312.051,-12.695,-21.484,-32.227,-40.039,0.000,0
157312.055,-21.973,-22.949,-8.789,-56.641,0.000,0
157312.059,-25.879,-17.578,-0.977,-44.922,0.000,0
157312.063,-13.184,-10.254,-21.973,-9.277,0.000,0
157312.067,-24.902,-18.555,-38.574,2.441,0.000,0
157312.071,-33.691,-20.996,-16.602,-38.086,0.000,0
157312.075,-23.438,-17.578,-6.348,-34.180,0.000,0
157312.079,-14.648,-20.508,-28.809,-9.766,0.000,0
157312.082,-17.090,-20.996,-34.180,-27.344,0.000,0
157312.086,-31.738,-23.926,-26.367,-14.648,0.000,0
157312.090,-39.062,-27.344,-17.578,-3.418,0.000,0
157312.094,-23.926,-20.508,-26.855,-37.598,0.000,0
157312.098,-9.766,-17.578,-44.922,-58.594,0.000,0
157312.102,-28.809,-13.672,-23.926,-18.555,0.000,0
157312.106,-37.598,-10.742,-10.742,8.301,0.000,0
157312.110,-21.973,-17.090,-24.902,-25.391,0.000,0
157312.114,-33.203,-19.043,-23.438,-40.039,0.000,0
157312.118,-36.621,-13.184,-33.203,-7.324,0.000,0
157312.122,-20.996,-13.672,-30.273,-10.254,0.000,0
157312.125,-12.695,-10.742,-23.438,-10.742,0.000,0
157312.129,-17.578,-14.648,-19.531,-15.137,0.000,0
157312.133,-19.043,-18.066,-19.531,-31.250,0.000,0
157312.137,-19.043,-20.020,-27.832,-19.531,0.000,0
157312.141,-1.953,-27.344,-34.180,3.418,0.000,0
157312.145,8.301,-21.973,-35.156,-2.441,0.000,0
157312.149,-20.020,-18.066,-9.766,-18.555,0.000,0
157312.153,-20.020,-20.508,-9.277,-26.855,0.000,0
157312.157,4.883,-14.648,-21.973,-20.508,0.000,0
157312.161,6.348,-12.695,-11.230,-17.090,0.000,0
157312.165,-9.766,-16.602,-22.461,19.043,0.000,0
157312.168,-19.531,-18.555,-34.180,25.879,0.000,0
157312.172,-21.484,-24.414,-27.344,-20.996,0.000,0
157312.176,-25.391,-19.531,-28.320,-16.113,0.000,0
157312.180,-21.973,-19.531,-30.273,-1.953,0.000,0
157312.184,-25.879,-21.484,-26.855,-15.137,0.000,0
157312.188,-27.832,-23.926,-33.691,-15.137,0.000,0
157312.192,-32.715,-28.809,-20.508,-28.320,0.000,0
157312.196,-35.645,-24.414,-17.090,-34.668,0.000,0
157312.200,-21.484,-28.320,-33.691,-14.648,0.000,0
157312.204,-21.973,-32.227,-34.180,-3.418,0.000,0
157312.207,-31.738,-30.762,-33.691,-8.789,0.000,0
157312.211,-27.344,-26.367,-28.320,-27.344,0.000,0
157312.215,-20.020,-26.367,-34.180,-26.367,0.000,0
157312.219,-22.461,-27.832,-36.621,-14.160,0.000,0
157312.223,-21.973,-26.367,-30.273,-21.484,0.000,0
157312.227,-24.902,-27.344,-27.344,-18.066,0.000,0
157312.231,-27.344,-27.832,-24.902,-31.738,0.000,0
157312.235,-27.832,-26.367,-32.227,-44.434,0.000,0
157312.239,-36.621,-24.414,-26.367,-15.625,0.000,0
157312.243,-22.461,-24.902,-30.273,6.348,0.000,0
157312.247,-2.441,-28.320,-40.039,-2.441,0.000,0
157312.250,-14.160,-24.902,-20.020,-16.113,0.000,0
157312.254,-15.137,-22.461,-17.090,-0.977,0.000,0
157312.258,10.254,-16.113,-20.996,9.766,0.000,0
157312.262,5.371,-16.602,-7.324,-3.906,0.000,0
157312.266,-21.973,-21.973,-11.230,8.789,0.000,0
157312.270,-17.090,-18.555,-12.207,-5.859,0.000,0
157312.274,-6.836,-13.184,-13.672,-30.273,0.000,0
157312.278,-16.602,-14.160,-23.926,-7.324,0.000,0
157312.282,-32.715,-16.113,-25.391,-2.441,0.000,0
157312.286,-29.297,-26.367,-29.785,-14.648,0.000,0
157312.290,-12.207,-26.855,-27.832,-15.137,0.000,0
157312.293,-19.531,-18.066,-25.391,-4.883,0.000,0
157312.297,-23.438,-21.973,-36.621,-10.742,0.000,0
157312.301,-17.578,-18.066,-36.621,-12.695,0.000,0
157312.305,-16.602,-17.578,-35.156,0.977,0.000,0
157312.309,-11.230,-20.996,-21.973,-15.625,0.000,0
157312.313,-12.695,-18.066,-15.137,-20.508,0.000,0
157312.317,-21.484,-19.043,-32.227,-3.418,0.000,0
157312.321,-20.508,-20.508,-36.133,-13.184,0.000,0
157312.325,-21.484,-16.602,-28.809,-14.160,0.000,0
157312.329,-31.250,-23.926,-15.625,-22.461,0.000,0
157312.332,-25.879,-31.250,-25.879,-45.410,0.000,0
157312.336,-18.066,-29.785,-38.574,-46.875,0.000,0
157312.340,-19.043,-25.879,-18.555,-33.691,0.000,0
157312.344,-8.789,-18.555,-18.555,-7.812,0.000,0
157312.348,-0.488,-20.996,-15.137,-40.527,0.000,0
157312.352,-15.625,-24.414,-19.043,-58.594,0.000,0
157312.356,-20.996,-20.020,-28.809,-13.672,0.000,0
157312.360,-10.254,-19.531,-25.879,-0.977,0.000,0
157312.364,-9.277,-20.020,-22.949,-4.395,0.000,0
157312.368,-13.672,-21.973,-20.996,-21.484,0.000,0
157312.372,-16.602,-22.461,-18.555,-23.926,0.000,0
157312.375,-14.648,-17.090,-12.695,-11.719,0.000,0
157312.379,-2.441,-17.578,-23.926,-4.883,0.000,0
157312.383,-1.465,-20.020,-34.180,21.484,0.000,0
157312.387,-5.859,-23.926,-12.695,-5.859,0.000,0
157312.391,-6.348,-26.855,-10.742,-19.043,0.000,0
157312.395,-9.277,-29.785,-33.691,7.812,0.000,0
157312.399,-9.766,-27.832,-32.227,8.789,0.000,0
157312.403,-16.113,-13.672,-23.926,9.277,0.000,0
157312.407,-15.625,-19.531,-19.043,-11.230,0.000,0
157312.411,-9.277,-26.367,-20.508,-30.273,0.000,0
157312.415,-14.160,-17.578,-22.949,-13.672,0.000,0
157312.418,-14.160,-16.113,-22.949,10.742,0.000,0
157312.422,2.441,-15.625,-25.879,26.855,0.000,0
157312.426,8.301,-14.648,-14.160,-4.883,0.000,0
157312.430,-2.930,-15.137,-7.324,-10.254,0.000,0
157312.434,-23.926,-20.996,-24.414,13.184,0.000,0
157312.438,-25.879,-27.344,-29.785,-9.766,0.000,0
157312.442,-9.766,-27.832,-25.391,-6.348,0.000,0
157312.446,-12.695,-34.668,-12.207,-8.301,0.000,0
157312.450,-14.648,-32.715,-10.254,-34.180,0.000,0
157312.454,-12.695,-21.973,-28.320,-19.043,0.000,0
157312.457,-18.066,-22.461,-28.320,13.184,0.000,0
157312.461,-19.531,-25.391,-23.438,13.184,0.000,0
157312.465,-21.973,-28.809,-25.879,4.883,0.000,0
157312.469,-23.438,-28.809,-26.855,-4.395,0.000,0
157312.473,-17.090,-26.855,-18.066,-42.480,0.000,0
157312.477,-18.555,-30.762,-12.695,-39.062,0.000,0
157312.481,-27.832,-23.438,-24.414,19.043,0.000,0
157312.485,-13.184,-17.090,-35.156,23.926,0.000,0
157312.489,-9.766,-23.438,-28.320,-14.160,0.000,0
157312.493,-17.090,-23.926,-28.320,-4.883,0.000,0
157312.497,-15.625,-20.020,-29.297,25.391,0.000,0
157312.500,-6.348,-15.625,-28.320,23.438,0.000,0
157312.504,-13.184,-20.508,-18.555,9.766,0.000,0
157312.508,-25.879,-23.926,-14.160,-16.113,0.000,0
157312.512,-19.043,-13.672,-20.020,-8.789,0.000,0
157312.516,-8.301,-12.207,-30.762,0.488,0.000,0
157312.520,-13.184,-17.578,-43.945,8.789,0.000,0
157312.524,-27.344,-14.648,-20.020,26.367,0.000,0
157312.528,-28.809,-19.531,-13.672,-5.371,0.000,0
157312.532,-23.438,-25.391,-32.715,-6.836,0.000,0
157312.536,-19.043,-23.438,-34.668,17.578,0.000,0
157312.540,-6.836,-18.066,-17.578,17.090,0.000,0
157312.543,-0.488,-14.160,-13.184,14.160,0.000,0
157312.547,-5.859,-17.578,-15.625,-9.766,0.000,0
157312.551,-9.277,-19.531,-15.625,-20.508,0.000,0
157312.555,-24.414,-20.020,-17.090,-4.883,0.000,0
157312.559,-25.879,-20.508,-18.066,22.461,0.000,0
157312.563,-9.766,-20.996,-26.367,29.297,0.000,0
157312.567,-24.414,-23.926,-21.484,-18.555,0.000,0
157312.571,-36.133,-22.461,-24.902,-15.137,0.000,0
157312.575,-9.277,-27.344,-38.086,-10.742,0.000,0
157312.579,-11.230,-31.250,-31.250,-21.973,0.000,0
157312.582,-18.066,-24.414,-39.062,6.348,0.000,0
157312.586,-16.602,-24.902,-26.367,-9.766,0.000,0
157312.590,-12.207,-20.996,-23.438,-18.066,0.000,0
157312.594,-4.395,-15.625,-33.691,-7.324,0.000,0
157312.598,-8.789,-20.508,-37.109,12.695,0.000,0
157312.602,-24.414,-27.344,-32.715,-5.859,0.000,0
157312.606,-27.832,-27.832,-25.879,-28.809,0.000,0
157312.610,-24.414,-28.320,-26.367,0.000,0.000,0
157312.614,-29.297,-29.785,-29.297,-14.648,0.000,0
157312.618,-14.160,-28.320,-47.852,-28.809,0.000,1
157312.622,-17.578,-29.297,-49.805,-34.180,0.000,0
157312.625,-26.855,-25.391,-21.973,-51.758,0.000,0
157312.629,-23.926,-20.996,-22.949,-43.457,0.000,0
157312.633,-17.090,-20.508,-38.574,-22.461,0.000,0
157312.637,-17.090,-20.508,-36.133,-9.277,0.000,0
157312.641,-20.020,-22.949,-20.996,-22.949,0.000,0
157312.645,-16.113,-25.391,-17.090,-38.574,0.000,0
157312.649,-22.461,-30.273,-35.156,-30.762,0.000,0
157312.653,-32.715,-26.367,-32.715,-33.203,0.000,0
157312.657,-40.527,-20.020,-20.020,-11.719,0.000,0
157312.661,-23.926,-21.973,-27.832,-1.465,0.000,0
157312.665,-16.113,-28.809,-32.715,-38.086,0.000,0
157312.668,-27.832,-27.832,-31.250,-35.156,0.000,0
157312.672,-32.227,-27.344,-33.203,-16.113,0.000,0
157312.676,-29.297,-32.227,-31.250,-20.020,0.000,0
157312.680,-38.086,-30.273,-33.203,-29.785,0.000,0
157312.684,-40.039,-29.297,-36.133,-48.828,0.000,0
157312.688,-29.297,-30.273,-30.273,-39.062,0.000,0
157312.692,-23.438,-28.809,-26.367,-35.156,0.000,0
157312.696,-29.785,-31.250,-31.738,-15.137,0.000,0
157312.700,-39.551,-39.062,-35.156,-9.277,0.000,0
157312.704,-40.527,-33.203,-14.648,-41.016,0.000,0
157312.707,-24.902,-28.320,-25.391,-26.367,0.000,0
157312.711,-20.508,-27.344,-42.480,-16.602,0.000,0
157312.715,-30.762,-21.484,-38.574,0.000,0.000,0
157312.719,-26.367,-17.090,-25.879,-2.930,0.000,0
157312.723,-6.836,-23.438,-14.648,-38.086,0.000,0
157312.727,-6.348,-25.391,-18.066,-30.762,0.000,0
157312.731,-23.926,-16.113,-13.184,-9.766,0.000,0
157312.735,-21.484,-18.555,-22.949,12.207,0.000,0
157312.739,-12.695,-19.531,-24.902,-0.977,0.000,0
157312.743,-18.555,-19.531,-7.812,-35.156,0.000,0
157312.747,-30.762,-22.949,-20.508,-8.789,0.000,0
157312.750,-19.531,-22.461,-35.645,-3.418,0.000,0
157312.754,-16.113,-27.344,-35.645,-8.301,0.000,0
157312.758,-20.996,-28.320,-26.367,-4.395,0.000,0
157312.762,-31.250,-22.949,10.742,-33.691,0.000,0
157312.766,-25.879,-22.461,-13.184,-34.668,0.000,0
157312.770,-12.207,-19.043,-42.969,-10.742,0.000,0
157312.774,-6.348,-20.508,-26.855,5.371,0.000,0
157312.778,-17.578,-25.879,-15.137,-3.906,0.000,0
157312.782,-31.250,-27.344,-20.020,-23.926,0.000,0
157312.786,-14.648,-22.949,-37.598,-5.859,0.000,0
157312.790,-10.254,-18.066,-29.785,4.883,0.000,0
157312.793,-20.996,-20.996,-13.672,1.465,0.000,0
157312.797,-8.789,-22.461,-25.879,4.883,0.000,0
157312.801,-2.930,-21.484,-28.809,-27.344,0.000,0
157312.805,-19.531,-23.926,-10.742,-28.809,0.000,0
157312.809,-18.066,-21.973,-3.906,16.602,0.000,0
157312.813,-8.789,-17.578,-23.926,9.766,0.000,0
157312.817,-18.555,-17.578,-33.203,-11.719,0.000,0
157312.821,-26.855,-17.090,-9.766,-20.020,0.000,0
157312.825,-16.602,-15.137,-9.277,-26.855,0.000,0
157312.829,-7.812,-13.184,-22.461,-16.602,0.000,0
157312.832,-10.742,-19.531,-29.297,-18.066,0.000,0
157312.836,-13.184,-21.973,-17.090,7.324,0.000,0
157312.840,-7.324,-19.043,-10.254,7.324,0.000,0
157312.844,-0.977,-18.066,-23.926,-21.484,0.000,0
157312.848,-11.230,-19.043,-31.250,1.465,0.000,0
157312.852,-22.461,-19.531,-11.230,16.602,0.000,0
157312.856,-3.906,-20.020,-15.137,21.973,0.000,0
157312.860,-1.953,-25.391,-21.484,1.953,0.000,0
157312.864,-13.184,-21.973,-17.090,-37.598,0.000,0
157312.868,-14.160,-17.090,-19.531,-32.227,0.000,0
157312.872,-18.555,-28.320,-17.090,-39.551,0.000,0
157312.875,-23.438,-23.926,-28.320,-2.441,0.000,0
157312.879,-27.832,-21.484,-23.438,-16.113,0.000,0
157312.883,-35.156,-31.250,-30.762,-22.461,0.000,0
157312.887,-27.832,-28.809,-42.969,13.184,0.000,0
157312.891,-16.113,-19.043,-34.668,-5.371,0.000,0
157312.895,-25.391,-21.484,-25.391,-10.254,0.000,0
157312.899,-23.926,-28.809,-27.832,-33.203,0.000,0
157312.903,-11.719,-26.367,-38.086,-37.598,0.000,0
157312.907,-11.719,-19.043,-26.855,-14.648,0.000,0
157312.911,-20.508,-20.508,-27.832,-6.348,0.000,0
157312.915,-20.996,-24.414,-36.621,-10.742,0.000,0
157312.918,-13.184,-18.555,-18.555,-25.879,0.000,0
157312.922,-16.602,-11.719,-11.230,4.883,0.000,0
157312.926,-16.602,-14.160,-24.902,13.672,0.000,0
157312.930,-11.230,-17.578,-31.250,-14.648,0.000,0
157312.934,-18.066,-14.648,-22.461,-2.930,0.000,0
157312.938,-27.832,-17.578,-8.301,-20.020,0.000,0
157312.942,-20.508,-20.020,-11.719,-35.645,0.000,0
157312.946,-0.488,-19.043,-28.809,-11.230,0.000,0
157312.950,-4.395,-24.902,-31.738,-0.977,0.000,0
157312.954,-13.672,-28.320,-27.344,-4.883,0.000,0
157312.957,-15.137,-26.367,-21.973,-16.602,0.000,0
157312.961,-12.695,-20.020,-28.320,-12.207,0.000,0
157312.965,-12.695,-18.555,-33.691,0.488,0.000,0
157312.969,-23.438,-18.066,-26.367,-3.906,0.000,0
157312.973,-22.461,-20.508,-30.762,-9.277,0.000,0
157312.977,-10.254,-23.926,-26.855,-24.414,0.000,0
157312.981,-9.766,-19.043,-22.461,-21.484,0.000,0
157312.985,-6.348,-19.043,-22.461,4.395,0.000,0
157312.989,9.277,-22.949,-27.344,16.113,0.000,0
157312.993,5.859,-22.949,-36.621,13.672,0.000,0
157312.997,-21.973,-24.902,-26.855,-21.484,0.000,0
157313.000,-30.273,-20.508,-19.043,-33.203,0.000,0
157313.004,-13.672,-12.207,-26.367,-16.602,0.000,0
157313.008,2.930,-19.043,-36.621,-6.348,0.000,0
157313.012,-12.695,-27.832,-32.227,15.625,0.000,0
157313.016,-30.273,-31.250,-8.789,-10.742,0.000,0
157313.020,-15.625,-27.832,-14.648,-30.762,0.000,0
157313.024,-7.324,-24.902,-28.809,3.906,0.000,0
157313.028,-25.879,-26.367,-18.066,10.742,0.000,0
157313.032,-31.250,-25.879,-23.926,-1.465,0.000,0
157313.036,-22.949,-25.879,-21.973,-25.879,0.000,0
157313.040,-18.555,-32.715,-24.414,-33.691,0.000,0
157313.043,-24.902,-30.762,-42.480,-20.996,0.000,0
157313.047,-37.109,-28.320,-38.086,-20.020,0.000,0
157313.051,-24.902,-25.391,-36.621,10.254,0.000,0
157313.055,-20.996,-23.926,-24.414,-7.812,0.000,0
157313.059,-33.203,-29.297,-20.020,-23.926,0.000,0
157313.063,-21.484,-22.949,-36.133,5.859,0.000,0
157313.067,-10.254,-28.320,-43.945,-7.324,0.000,0
157313.071,-20.996,-36.621,-40.527,-14.648,0.000,0
157313.075,-26.855,-30.762,-15.625,-20.996,0.000,0
157313.079,-20.508,-29.297,-19.043,-48.828,0.000,0
157313.082,2.441,-27.832,-41.992,-44.922,0.000,0
157313.086,-4.395,-24.902,-28.320,-30.273,0.000,0
157313.090,-18.066,-25.391,-23.926,5.371,0.000,0
157313.094,-2.930,-28.809,-21.484,-9.277,0.000,0
157313.098,-6.836,-25.879,-21.484,-33.203,0.000,0
157313.102,-13.672,-20.020,-25.879,2.930,0.000,0
157313.106,-11.230,-20.996,-18.555,3.906,0.000,0
157313.110,-7.324,-23.926,-26.367,3.906,0.000,0
157313.114,-9.277,-30.762,-23.438,-11.719,0.000,0
157313.118,-11.719,-34.180,-12.695,-29.297,0.000,0
157313.122,-9.766,-30.762,-19.043,-21.484,0.000,0
157313.125,-5.371,-23.926,-25.391,-13.672,0.000,0
157313.129,-1.953,-23.926,-39.062,-3.418,0.000,0
157313.133,-24.902,-28.320,-19.043,-17.578,0.000,0
157313.137,-31.738,-30.273,-5.859,-21.484,0.000,0
157313.141,-8.789,-34.668,-40.527,-15.137,0.000,0
157313.145,-15.625,-39.551,-35.645,-19.043,0.000,0
157313.149,-31.250,-35.156,-27.832,-20.020,0.000,0
157313.153,-24.902,-29.297,-28.809,-31.250,0.000,0
157313.157,-17.090,-29.785,-28.320,-62.500,0.000,0
157313.161,-20.020,-25.879,-31.738,-56.641,0.000,0
157313.165,-25.879,-30.273,-36.133,-30.273,0.000,0
157313.168,-23.926,-27.344,-35.645,-18.555,0.000,0
157313.172,-9.277,-19.531,-34.180,-20.508,0.000,0
157313.176,-17.090,-21.484,-26.855,-39.551,0.000,0
157313.180,-31.738,-18.066,-16.602,-32.227,0.000,0
157313.184,-22.949,-23.438,-25.391,-23.926,0.000,0
157313.188,-18.066,-23.438,-25.879,-39.551,0.000,0
157313.192,-20.508,-22.949,-20.996,-6.348,0.000,0
157313.196,-16.602,-22.461,-23.438,-12.695,0.000,0
157313.200,-17.578,-17.090,-31.250,-34.668,0.000,0
157313.204,-19.043,-19.043,-34.668,-6.836,0.000,0
157313.207,-22.461,-20.996,-24.414,-4.883,0.000,0
157313.211,-30.273,-19.531,-18.555,-6.348,0.000,0
157313.215,-35.645,-19.531,-25.391,-23.926,0.000,0
157313.219,-29.297,-27.832,-36.133,-35.156,0.000,1
157313.223,-29.785,-23.438,-26.855,-19.531,0.000,0
157313.227,-30.762,-15.137,-21.484,2.930,0.000,0
157313.231,-11.230,-20.508,-35.645,5.371,0.000,0
157313.235,-20.508,-17.090,-16.602,-17.578,0.000,0
157313.239,-24.414,-16.113,-15.625,-12.695,0.000,0
157313.243,-10.742,-20.020,-30.273,-4.883,0.000,0
157313.247,-13.184,-20.508,-27.832,-13.184,0.000,0
157313.250,-20.508,-24.414,-31.738,-8.301,0.000,0
157313.254,-17.578,-21.973,-20.508,-19.043,0.000,0
157313.258,-16.113,-20.996,-7.812,-28.320,0.000,0
157313.262,-20.996,-20.508,-14.160,-5.859,0.000,0
157313.266,-18.066,-22.949,-17.090,11.719,0.000,0
157313.270,-15.137,-24.414,-8.301,0.000,0.000,0
157313.274,-11.230,-21.973,-7.812,-15.625,0.000,0
157313.278,0.488,-25.879,-23.438,-3.418,0.000,0
157313.282,-8.789,-29.297,-25.879,-4.395,0.000,0
157313.286,-17.090,-25.879,-22.461,-0.488,0.000,0
157313.290,-12.695,-27.832,-17.578,-15.625,0.000,0
157313.293,-28.809,-29.785,-14.648,-52.246,0.000,0
157313.297,-33.691,-28.320,-21.484,-23.438,0.000,0
157313.301,-19.531,-22.461,-24.902,5.859,0.000,0
157313.305,-14.648,-21.973,-28.809,-0.977,0.000,0
157313.309,-26.367,-26.367,-19.043,-19.531,0.000,0
157313.313,-38.574,-24.902,-6.836,-35.156,0.000,0
157313.317,-18.555,-19.043,-22.949,-25.879,0.000,0
157313.321,-4.883,-14.160,-21.973,-22.461,0.000,0
157313.325,-20.020,-12.207,-18.555,-7.812,0.000,0
157313.329,-29.297,-15.625,-23.438,0.488,0.000,0
157313.332,-24.902,-21.973,-20.508,-37.109,0.000,0
157313.336,-13.672,-20.996,-23.438,-15.137,0.000,0
157313.340,-7.812,-23.438,-21.973,15.625,0.000,0
157313.344,-11.230,-20.020,-23.438,4.395,0.000,0
157313.348,-13.672,-17.090,-20.508,-3.906,0.000,0
157313.352,-8.789,-16.602,-5.371,-33.691,0.000,0
157313.356,-11.719,-13.184,-12.695,-20.508,0.000,0
157313.360,-23.926,-14.160,-22.949,-7.812,0.000,0
157313.364,-19.043,-16.113,-34.180,2.441,0.000,0
157313.368,-8.789,-21.484,-30.273,11.230,0.000,0
157313.372,-19.043,-22.949,-3.418,-19.531,0.000,0
157313.375,-24.902,-16.113,-9.277,-5.371,0.000,0
157313.379,-10.742,-15.137,-30.762,9.766,0.000,0
157313.383,-5.859,-14.648,-26.367,13.184,0.000,0
157313.387,-4.395,-16.113,-10.254,15.137,0.000,0
157313.391,-1.465,-20.020,-1.953,-34.668,0.000,0
157313.395,-12.207,-20.508,-27.832,-31.250,0.000,0
157313.399,-14.160,-23.438,-37.598,-2.441,0.000,0
157313.403,-16.113,-17.578,-20.508,16.113,0.000,0
157313.407,-4.883,-11.230,-24.414,8.301,0.000,0
157313.411,-4.395,-14.160,-17.578,-34.180,0.000,0
157313.415,-18.555,-15.625,-18.555,-6.348,0.000,0
157313.418,-17.090,-10.254,-16.113,21.973,0.000,0
157313.422,-4.395,-16.602,-26.367,3.906,0.000,0
157313.426,-7.324,-27.832,-33.203,-5.859,0.000,0
157313.430,-18.555,-19.531,-15.625,-37.109,0.000,0
157313.434,-13.672,-13.184,-18.066,-42.480,0.000,0
157313.438,-9.277,-16.113,-23.926,-14.648,0.000,0
157313.442,-17.578,-16.602,-28.809,3.418,0.000,0
157313.446,-24.414,-23.438,-36.133,0.488,0.000,0
157313.450,-31.250,-27.832,-30.273,-7.324,0.000,0
157313.454,-25.879,-31.250,-33.691,-21.484,0.000,0
157313.457,-12.207,-27.832,-39.551,-24.414,0.000,0
157313.461,-27.344,-20.996,-20.996,-14.160,0.000,0
157313.465,-34.180,-26.367,-22.949,2.930,0.000,0
157313.469,-15.137,-30.273,-24.414,-16.602,0.000,0
157313.473,-21.484,-21.484,-19.043,-28.320,0.000,0
157313.477,-19.043,-15.625,-27.832,1.465,0.000,0
157313.481,2.441,-20.020,-29.785,19.043,0.000,0
157313.485,2.930,-20.508,-24.414,24.902,0.000,0
157313.489,-7.812,-22.949,-11.230,2.930,0.000,0
157313.493,-17.578,-14.160,-2.441,-37.598,0.000,0
157313.497,-27.344,-10.254,-18.066,-31.250,0.000,0
157313.500,-17.090,-11.230,-25.879,-8.789,0.000,0
157313.504,1.953,-10.254,-32.715,12.207,0.000,0
157313.508,-20.508,-10.742,-15.625,3.418,0.000,0
157313.512,-19.043,-11.719,-17.578,-27.832,0.000,0
157313.516,2.930,-14.648,-34.180,-2.930,0.000,0
157313.520,-5.371,-15.625,-27.832,4.883,0.000,0
157313.524,-18.555,-22.461,-25.879,-7.324,0.000,0
157313.528,-12.695,-22.461,-17.578,-10.742,0.000,0
157313.532,-12.207,-13.184,-11.719,-26.367,0.000,0
157313.536,-13.184,-12.695,-17.090,-20.508,0.000,0
157313.540,-11.719,-18.066,-20.996,-10.254,0.000,0
157313.543,-11.230,-14.160,-18.066,13.672,0.000,0
157313.547,-10.742,-11.230,-17.578,14.160,0.000,0
157313.551,-8.789,-16.113,-14.648,1.953,0.000,0
157313.555,-4.883,-12.207,-7.812,19.531,0.000,0
157313.559,0.977,-13.672,-27.344,6.348,0.000,0
157313.563,-1.953,-18.066,-31.738,-5.371,0.000,0
157313.567,-12.207,-20.996,-14.648,-11.230,0.000,0
157313.571,-8.789,-24.414,-18.066,-27.832,0.000,0
157313.575,-1.953,-22.461,-25.879,-20.020,0.000,0
157313.579,-16.113,-18.066,-24.414,-0.488,0.000,0
157313.582,-22.949,-17.578,-19.531,13.672,0.000,0
157313.586,-16.602,-24.414,-20.020,-0.977,0.000,0
157313.590,-21.484,-30.273,-21.973,-32.715,0.000,0
157313.594,-20.996,-28.809,-26.367,-3.418,0.000,0
157313.598,-17.578,-22.461,-15.625,-1.953,0.000,0
157313.602,-13.672,-20.508,-25.879,-10.254,0.000,0
157313.606,-0.977,-20.508,-35.156,-3.906,0.000,0
157313.610,-2.441,-19.531,-20.020,-27.832,0.000,0
157313.614,-10.742,-18.066,-16.602,-22.949,0.000,0
157313.618,-7.324,-22.461,-21.484,6.836,0.000,0
157313.622,-8.301,-15.625,-22.461,8.789,0.000,0
157313.625,-13.184,-16.113,-11.719,-13.184,0.000,0
157313.629,-15.137,-17.090,-13.184,-23.438,0.000,0
157313.633,-13.672,-14.648,-25.879,-3.418,0.000,0
157313.637,-8.301,-18.066,-20.020,0.000,0.000,0
157313.641,-10.742,-15.625,-17.578,-4.395,0.000,0
157313.645,-22.949,-22.949,-23.438,-11.719,0.000,0
157313.649,-8.789,-23.926,-22.461,-29.297,0.000,0
157313.653,-7.812,-21.484,-29.297,-22.461,0.000,0
157313.657,-21.484,-26.367,-36.621,-5.371,0.000,0
157313.661,-23.926,-27.832,-36.621,-2.441,0.000,0
157313.665,-18.555,-26.855,-31.250,-9.766,0.000,0
157313.668,-20.020,-25.879,-16.602,-28.809,0.000,0
157313.672,-28.320,-31.738,-25.879,-18.555,0.000,0
157313.676,-24.414,-32.227,-37.109,-28.320,0.000,0
157313.680,-19.043,-24.414,-35.156,-18.066,0.000,0
157313.684,-21.484,-20.996,-21.973,-2.441,0.000,0
157313.688,-21.973,-20.508,-2.930,-27.832,0.000,0
157313.692,-9.277,-21.484,-21.484,-16.602,0.000,0
157313.696,-8.789,-20.508,-32.227,2.930,0.000,0
157313.700,-15.137,-21.973,-17.578,-6.348,0.000,0
157313.704,-1.465,-20.996,-22.949,-10.254,0.000,0
157313.707,-2.930,-16.602,-22.461,-31.250,0.000,0
157313.711,-15.625,-13.184,-15.137,-34.180,0.000,0
157313.715,-20.020,-14.648,-21.484,-24.414,0.000,0
157313.719,-23.926,-21.973,-31.250,-10.254,0.000,0
157313.723,-20.508,-25.391,-29.785,-9.277,0.000,0
157313.727,-13.672,-24.902,-19.043,-36.621,0.000,0
157313.731,-19.043,-26.855,-18.555,-10.254,0.000,0
157313.735,-25.391,-22.949,-16.113,7.324,0.000,0
157313.739,-8.789,-25.391,-27.832,-1.465,0.000,0
157313.743,-16.113,-24.902,-30.762,-0.977,0.000,0
157313.747,-29.297,-22.949,-14.648,-42.969,0.000,0
157313.750,-19.531,-20.996,-22.949,-45.410,0.000,0
157313.754,-9.277,-21.484,-32.227,-20.020,0.000,0
157313.758,-16.602,-26.855,-33.691,-0.977,0.000,0
157313.762,-33.691,-22.949,-37.109,-9.277,0.000,0
157313.766,-30.273,-22.461,-25.391,-41.992,0.000,0
157313.770,-17.578,-23.926,-32.227,-17.090,0.000,0
157313.774,-8.789,-23.926,-47.363,-0.488,0.000,0
157313.778,-23.438,-29.785,-33.203,-14.160,0.000,0
157313.782,-28.320,-30.762,-37.598,-25.879,0.000,0
157313.786,-12.695,-27.344,-39.551,-54.199,0.000,0
157313.790,-8.789,-28.320,-28.320,-50.293,0.000,0
157313.793,-29.785,-25.391,-17.090,-21.973,0.000,0
157313.797,-22.461,-22.949,-31.250,-0.977,0.000,0
157313.801,-12.207,-26.367,-30.273,-11.719,0.000,0
157313.805,-25.879,-25.879,-12.695,-43.945,0.000,0
157313.809,-20.508,-22.461,-25.391,-38.574,0.000,0
157313.813,-9.766,-21.973,-38.574,-28.809,0.000,0
157313.817,-3.418,-22.461,-27.344,-24.414,0.000,0
157313.821,-13.184,-25.879,-23.926,0.488,0.000,0
157313.825,-14.160,-30.273,-30.273,-0.488,0.000,0
157313.829,-15.625,-29.785,-29.297,-19.531,0.000,0
157313.832,-39.551,-32.227,-41.992,-19.043,0.000,0
157313.836,-37.109,-28.320,-40.039,-13.184,0.000,0
157313.840,-33.203,-20.996,-22.949,-1.465,0.000,0
157313.844,-34.180,-24.902,-29.785,-21.973,0.000,0
157313.848,-28.809,-24.902,-30.762,-42.480,0.000,0
157313.852,-35.156,-30.273,-26.855,-29.785,0.000,0
157313.856,-32.715,-30.273,-31.738,-29.785,0.000,0
157313.860,-24.414,-25.391,-43.457,-13.184,0.000,0
157313.864,-31.738,-29.297,-35.645,-22.949,0.000,0
157313.868,-39.062,-28.809,-22.949,-34.668,0.000,0
157313.872,-36.133,-26.855,-26.367,-2.441,0.000,0
157313.875,-24.414,-29.785,-44.434,-9.766,0.000,0
157313.879,-20.508,-28.320,-47.363,-18.066,0.000,0
157313.883,-35.645,-19.531,-9.277,-10.742,0.000,0
157313.887,-32.227,-20.020,-8.301,-29.785,0.000,0
157313.891,-8.301,-18.066,-34.668,-32.715,0.000,0
157313.895,-13.184,-15.625,-36.621,-29.297,0.000,0
157313.899,-25.879,-20.508,-34.180,-6.836,0.000,0
157313.903,-19.531,-19.531,-19.531,-8.789,0.000,0
157313.907,-20.996,-18.555,-9.277,-29.785,0.000,0
157313.911,-18.555,-16.113,-35.645,-4.395,0.000,0
157313.915,-11.230,-14.648,-31.738,1.953,0.000,0
157313.918,-20.996,-15.137,-24.414,2.441,0.000,0
157313.922,-12.207,-18.066,-35.156,-5.859,0.000,0
157313.926,6.348,-12.695,-20.996,-19.531,0.000,0
157313.930,-16.602,-10.254,-6.348,-22.949,0.000,0
157313.934,-23.438,-20.996,-24.414,-6.836,0.000,0
157313.938,-14.648,-25.879,-27.832,19.531,0.000,0
157313.942,-21.973,-19.531,-14.648,-10.742,0.000,1
157313.946,-33.203,-16.602,-13.184,-39.062,0.000,0
157313.950,-23.438,-20.508,-38.086,-13.184,0.000,0
157313.954,-11.719,-25.879,-42.480,-7.812,0.000,0
157313.957,-20.508,-20.508,-14.160,-4.395,0.000,0
157313.961,-21.973,-18.066,-11.230,-2.441,0.000,0
157313.965,-16.602,-24.902,-13.672,-27.344,0.000,0
157313.969,-20.020,-19.043,-18.066,-20.508,0.000,0
157313.973,-25.391,-21.973,-18.066,-5.371,0.000,0
157313.977,-13.184,-24.414,-25.879,-13.184,0.000,0
157313.981,-12.695,-22.949,-30.762,-23.926,0.000,0
157313.985,-19.043,-23.926,-18.555,-35.645,0.000,0
157313.989,-10.254,-24.902,-25.879,-14.648,0.000,0
157313.993,1.465,-27.832,-31.738,-14.648,0.000,0
157313.997,-3.906,-24.902,-26.367,-16.113,0.000,0
157314.000,-12.207,-22.949,-21.973,-25.391,0.000,0
157314.004,-9.277,-21.973,-14.160,-56.641,0.000,0
157314.008,-14.160,-22.949,-18.066,-37.598,0.000,0
157314.012,-22.461,-28.320,-30.273,-22.949,0.000,0
157314.016,-25.879,-33.691,-20.020,-46.387,0.000,0
157314.020,-25.391,-29.297,-18.066,-35.645,0.000,0
157314.024,-9.766,-30.273,-27.344,-39.551,0.000,0
157314.028,-4.883,-33.691,-30.273,-35.156,0.000,0
157314.032,-10.742,-27.832,-25.879,-25.391,0.000,0
157314.036,-8.789,-25.391,-28.320,-11.719,0.000,0
157314.040,-5.859,-26.367,-26.367,-6.348,0.000,0
157314.043,-8.789,-24.414,-11.230,-38.086,0.000,0
157314.047,-17.090,-20.996,-17.090,-26.855,0.000,0
157314.051,-3.906,-19.043,-24.902,5.371,0.000,0
157314.055,5.859,-25.391,-28.809,2.930,0.000,0
157314.059,-17.578,-34.180,-29.297,-14.160,0.000,0
157314.063,-29.297,-31.738,-13.184,-39.062,0.000,0
157314.067,-3.906,-21.484,-21.973,-31.738,0.000,0
157314.071,5.371,-20.508,-26.367,-13.672,0.000,0
157314.075,-12.695,-23.926,-25.391,-0.488,0.000,0
157314.079,-14.648,-27.832,-32.715,-5.371,0.000,0
157314.082,-7.324,-24.902,-22.949,-36.621,0.000,0
157314.086,-8.789,-19.043,-32.227,-5.371,0.000,0
157314.090,-2.930,-21.484,-31.738,18.066,0.000,0
157314.094,1.465,-20.996,-36.621,-3.418,0.000,0
157314.098,-4.883,-15.625,-43.457,-2.441,0.000,0
157314.102,-4.395,-14.648,-20.508,-20.996,0.000,0
157314.106,-14.648,-14.648,-20.020,-14.648,0.000,0
157314.110,-24.902,-19.531,-24.414,6.836,0.000,0
157314.114,-10.742,-20.020,-36.133,12.207,0.000,0
157314.118,0.977,-17.578,-30.762,3.906,0.000,0
157314.122,-9.766,-21.484,-10.742,4.395,0.000,0
157314.125,-20.996,-15.625,-26.855,28.320,0.000,0
157314.129,-5.859,-21.973,-53.711,15.625,0.000,0
157314.133,0.488,-27.344,-43.945,-2.930,0.000,0
157314.137,-9.277,-24.902,-18.066,5.859,0.000,0
157314.141,-5.371,-26.367,-14.648,-19.531,0.000,0
157314.145,-5.859,-23.926,-22.461,-33.203,0.000,0
157314.149,-7.812,-21.484,-20.996,1.953,0.000,0
157314.153,-15.625,-19.531,-19.531,8.789,0.000,0
157314.157,-12.695,-14.648,-32.715,-1.953,0.000,0
157314.161,-2.441,-19.043,-34.180,-23.926,0.000,0
157314.165,-6.348,-22.461,-29.785,-32.227,0.000,0
157314.168,-20.020,-12.695,-12.207,-5.859,0.000,0
157314.172,-14.160,-15.137,-16.113,-6.348,0.000,0
157314.176,0.488,-21.484,-32.715,8.789,0.000,0
157314.180,1.465,-14.160,-21.484,-0.488,0.000,0
157314.184,-16.602,-12.207,-17.578,-26.855,0.000,0
157314.188,-13.184,-13.184,-34.180,1.465,0.000,0
157314.192,-0.977,-12.207,-40.527,14.160,0.000,0
157314.196,-14.648,-16.113,-33.203,-0.488,0.000,0
157314.200,-30.762,-16.602,-16.113,-7.324,0.000,0
157314.204,-20.020,-12.207,-16.113,-15.625,0.000,0
157314.207,0.977,-15.137,-30.762,-18.555,0.000,0
157314.211,-17.090,-29.297,-20.996,-19.043,0.000,0
157314.215,-27.344,-30.273,-16.602,11.230,0.000,0
157314.219,-9.766,-29.785,-22.949,-2.441,0.000,0
157314.223,-17.090,-26.855,-17.578,-48.828,0.000,0
157314.227,-24.414,-22.949,-29.785,-1.465,0.000,0
157314.231,-13.672,-29.785,-39.062,9.277,0.000,0
157314.235,-5.859,-25.879,-34.668,-3.418,0.000,0
157314.239,-5.371,-18.555,-22.461,-15.137,0.000,0
157314.243,-9.277,-16.602,-14.160,-40.527,0.000,0
157314.247,-18.555,-12.695,-16.602,-34.668,0.000,0
157314.250,-21.484,-13.184,-20.996,-13.672,0.000,0
157314.254,-13.184,-19.531,-28.809,10.254,0.000,0
157314.258,-22.949,-20.996,-8.789,-3.906,0.000,0
157314.262,-21.973,-16.113,-16.602,-30.273,0.000,0
157314.266,-12.207,-21.484,-38.574,-7.812,0.000,0
157314.270,-14.160,-24.902,-23.926,3.418,0.000,0
157314.274,-17.090,-20.020,-18.066,4.395,0.000,0
157314.278,-18.066,-22.949,-22.461,-13.672,0.000,0
157314.282,-5.371,-20.508,-17.090,-38.574,0.000,0
157314.286,-4.883,-19.531,-22.949,-22.949,0.000,0
157314.290,-20.996,-25.879,-28.809,-1.953,0.000,0
157314.293,-23.926,-23.438,-26.367,13.184,0.000,0
157314.297,-24.414,-24.902,-33.691,-10.254,0.000,0
157314.301,-21.484,-25.391,-24.414,-32.227,0.000,0
157314.305,-18.066,-21.484,-22.461,-1.465,0.000,0
157314.309,-7.812,-27.344,-42.480,0.488,0.000,0
157314.313,-15.625,-36.133,-44.434,-13.184,0.000,0
157314.317,-33.203,-40.039,-32.227,-15.625,0.000,0
157314.321,-32.227,-32.715,-18.066,-42.480,0.000,0
157314.325,-26.855,-27.832,-20.508,-42.969,0.000,0
157314.329,-31.738,-31.250,-38.574,-1.465,0.000,0
157314.332,-32.715,-33.203,-28.809,13.672,0.000,0
157314.336,-19.531,-31.250,-18.555,-7.812,0.000,0
157314.340,-12.207,-31.738,-15.137,-33.203,0.000,0
157314.344,-16.602,-29.785,-19.043,-9.277,0.000,0
157314.348,-30.273,-22.949,-14.160,-9.766,0.000,0
157314.352,-24.414,-27.344,-26.367,-13.672,0.000,0
157314.356,-13.184,-30.762,-34.180,0.977,0.000,0
157314.360,-24.902,-20.508,-15.625,-30.762,0.000,0
157314.364,-26.855,-19.531,-26.855,-26.367,0.000,0
157314.368,-13.672,-31.250,-38.574,4.883,0.000,0
157314.372,-13.184,-29.785,-36.621,-7.812,0.000,0
157314.375,-12.207,-21.973,-31.250,-13.184,0.000,0
157314.379,-18.555,-25.391,-26.367,-38.086,0.000,0
157314.383,-19.043,-25.391,-31.738,-35.645,0.000,0
157314.387,-25.391,-24.902,-34.668,-25.391,0.000,0
157314.391,-33.203,-24.902,-34.668,-1.465,0.000,0
157314.395,-28.320,-20.996,-21.973,16.602,0.000,0
157314.399,-16.602,-19.531,-20.020,-33.203,0.000,0
157314.403,-13.184,-20.020,-34.180,-20.508,0.000,0
157314.407,-6.348,-19.043,-26.855,13.672,0.000,0
157314.411,-15.625,-20.020,-25.391,10.742,0.000,0
157314.415,-13.672,-23.438,-30.762,14.648,0.000,0
157314.418,-13.672,-20.508,-14.648,-24.414,0.000,0
157314.422,-32.715,-20.020,-17.578,-43.945,0.000,0
157314.426,-27.344,-27.344,-26.855,-49.805,0.000,0
157314.430,-19.043,-18.555,-45.410,-10.254,0.000,0
157314.434,-20.996,-14.160,-32.227,14.160,0.000,0
157314.438,-26.367,-20.020,2.441,-26.855,0.000,0
157314.442,-16.113,-22.949,-16.113,-13.184,0.000,0
157314.446,-0.488,-19.531,-32.715,1.953,0.000,0
157314.450,0.000,-17.090,-25.391,-12.695,0.000,0
157314.454,-13.184,-25.879,-24.414,-3.906,0.000,0
157314.457,-19.531,-24.902,-18.555,-30.762,0.000,0
157314.461,-16.602,-20.020,-21.973,-36.621,0.000,0
157314.465,-17.090,-21.973,-23.438,-16.113,0.000,0
157314.469,-8.301,-19.043,-18.555,1.953,0.000,0
157314.473,0.488,-20.020,-25.391,6.836,0.000,0
157314.477,-2.441,-26.367,-17.578,-9.277,0.000,0
157314.481,-11.719,-26.855,-22.461,-4.395,0.000,0
157314.485,-7.812,-18.066,-29.785,8.301,0.000,0
157314.489,5.371,-16.113,-26.367,2.441,0.000,0
157314.493,2.441,-20.020,-35.156,-1.953,0.000,0
157314.497,-15.625,-21.973,-16.602,-23.926,0.000,0
157314.500,-18.555,-18.066,-0.977,-37.598,0.000,0
157314.504,5.859,-16.113,-18.555,-10.254,0.000,0
157314.508,5.859,-20.020,-24.902,13.672,0.000,0
157314.512,-14.648,-19.531,-21.484,2.930,0.000,0
157314.516,-18.066,-14.160,-20.020,-23.926,0.000,0
157314.520,-11.719,-18.066,-26.367,-39.551,0.000,0
157314.524,-16.602,-20.996,-25.879,-24.414,0.000,0
157314.528,-29.297,-19.043,-2.930,-17.578,0.000,0
157314.532,-25.879,-23.438,-3.418,-19.043,0.000,0
157314.536,-8.301,-22.461,-19.043,-1.465,0.000,0
157314.540,-11.719,-16.602,-8.301,-3.906,0.000,0
157314.543,-27.832,-20.996,-10.254,16.113,0.000,1
157314.547,-14.160,-24.902,-24.902,16.113,0.000,0
157314.551,-0.977,-23.438,-25.391,4.395,0.000,0
157314.555,-12.207,-21.973,-19.043,1.465,0.000,0
157314.559,-15.137,-21.973,-17.578,-20.996,0.000,0
157314.563,-14.648,-23.438,-27.344,-27.344,0.000,0
157314.567,-14.648,-19.043,-24.414,-7.812,0.000,0
157314.571,-18.555,-18.066,-20.020,19.043,0.000,0
157314.575,-28.320,-25.879,-25.879,8.301,0.000,0
157314.579,-24.414,-27.832,-30.273,-18.066,0.000,0
157314.582,-10.742,-27.344,-41.992,-8.789,0.000,0
157314.586,-10.254,-29.785,-30.273,-3.906,0.000,0
157314.590,-30.762,-28.809,-16.113,-6.836,0.000,0
157314.594,-22.461,-24.902,-24.414,-16.113,0.000,0
157314.598,-18.555,-24.902,-23.926,-41.016,0.000,0
157314.602,-28.809,-24.902,-26.367,-37.109,0.000,0
157314.606,-29.297,-28.809,-30.762,-14.648,0.000,0
157314.610,-26.367,-26.367,-38.574,11.230,0.000,0
157314.614,-22.949,-21.973,-31.250,3.418,0.000,0
157314.618,-22.461,-17.578,-16.113,-15.625,0.000,0
157314.622,-19.531,-12.207,-22.949,-0.977,0.000,0
157314.625,-17.578,-17.090,-43.945,-6.836,0.000,0
157314.629,-13.184,-20.020,-44.922,-14.648,0.000,0
157314.633,-22.949,-17.578,-0.488,-33.203,0.000,0
157314.637,-17.578,-15.625,-4.395,-33.203,0.000,0
157314.641,-11.719,-21.484,-32.715,-21.973,0.000,0
157314.645,-26.855,-22.949,-30.762,-5.859,0.000,0
157314.649,-29.297,-19.043,-30.273,20.020,0.000,0
157314.653,-25.391,-20.508,-27.344,-5.371,0.000,0
157314.657,-27.344,-19.531,-14.648,-33.691,0.000,0
157314.661,-27.832,-16.602,-22.949,-13.184,0.000,0
157314.665,-26.367,-16.113,-24.902,-8.789,0.000,0
157314.668,-27.344,-12.695,-14.648,-2.930,0.000,0
157314.672,-15.625,-20.996,-29.297,-6.836,0.000,0
157314.676,-20.020,-27.832,-29.297,-36.133,0.000,0
157314.680,-32.715,-17.090,-17.090,-20.508,0.000,0
157314.684,-12.695,-12.695,-28.809,7.324,0.000,0
157314.688,-4.883,-18.555,-29.785,11.230,0.000,0
157314.692,-16.113,-24.414,-19.043,0.977,0.000,0
157314.696,-25.879,-19.531,-12.695,-27.832,0.000,0
157314.700,-13.672,-12.695,-18.555,-25.879,0.000,0
157314.704,-8.301,-17.090,-24.414,-19.043,0.000,0
157314.707,-23.926,-19.531,-24.902,-7.324,0.000,0
157314.711,-24.414,-22.949,-28.809,5.371,0.000,0
157314.715,-21.484,-26.855,-25.879,-35.645,0.000,0
157314.719,-24.414,-21.484,-24.414,-30.762,0.000,0
157314.723,-23.438,-17.578,-16.602,-1.953,0.000,0
157314.727,-15.137,-17.578,-21.973,-8.789,0.000,0
157314.731,-4.395,-18.066,-42.480,-10.254,0.000,0
157314.735,-4.395,-25.391,-21.484,-48.340,0.000,0
157314.739,-10.742,-17.090,-18.066,-32.715,0.000,0
157314.743,-4.395,-16.113,-31.738,-14.648,0.000,0
157314.747,-3.906,-18.066,-30.762,-2.930,0.000,0
157314.750,-14.648,-17.090,-27.344,0.488,0.000,0
157314.754,-25.879,-23.438,-7.324,-45.898,0.000,0
157314.758,-32.227,-22.461,-19.043,-27.344,0.000,0
157314.762,-35.645,-23.438,-33.203,-0.977,0.000,0
157314.766,-37.109,-19.043,-23.926,-10.254,0.000,0
157314.770,-33.691,-20.020,-12.695,-8.789,0.000,0
157314.774,-29.297,-31.250,-15.137,-43.457,0.000,0
157314.778,-36.133,-25.391,-27.344,-51.270,0.000,0
157314.782,-30.762,-20.020,-27.344,-17.578,0.000,0
157314.786,-24.902,-25.391,-28.809,-0.488,0.000,0
157314.790,-21.973,-25.879,-32.715,-11.230,0.000,0
157314.793,-28.320,-21.973,-14.648,-37.109,0.000,0
157314.797,-34.668,-16.602,-17.090,-21.973,0.000,0
157314.801,-20.996,-21.973,-29.785,-19.043,0.000,0
157314.805,-6.348,-24.414,-24.902,-29.785,0.000,0
157314.809,-16.113,-15.137,-19.043,-14.648,0.000,0
157314.813,-31.250,-20.508,-9.277,-39.551,0.000,0
157314.817,-21.484,-31.738,-20.020,-52.246,0.000,0
157314.821,-7.324,-27.832,-30.762,-20.020,0.000,0
157314.825,-7.812,-22.949,-24.902,-1.953,0.000,0
157314.829,-9.766,-26.855,-22.949,-19.531,0.000,0
157314.832,-20.508,-28.320,-20.508,-38.574,0.000,0
157314.836,-32.715,-28.320,-21.484,-21.484,0.000,0
157314.840,-26.367,-28.809,-25.879,-27.344,0.000,0
157314.844,-21.484,-28.320,-37.109,-26.855,0.000,0
157314.848,-16.113,-24.414,-40.039,-14.648,0.000,0
157314.852,-11.719,-27.344,-30.273,-27.344,0.000,0
157314.856,-20.508,-24.902,-11.230,-29.785,0.000,0
157314.860,-25.391,-16.602,-8.789,-0.488,0.000,0
157314.864,-16.113,-18.555,-29.297,1.465,0.000,0
157314.868,-13.672,-21.973,-27.832,-0.488,0.000,0
157314.872,-9.766,-21.973,-11.719,5.859,0.000,0
157314.875,-11.230,-21.973,-15.625,-2.441,0.000,0
157314.879,-10.254,-20.508,-27.344,-16.113,0.000,0
157314.883,-1.465,-15.137,-18.066,-9.766,0.000,0
157314.887,-9.766,-12.695,-13.672,30.273,0.000,0
157314.891,-12.695,-16.113,-19.531,17.090,0.000,0
157314.895,-19.043,-10.254,-18.066,-9.277,0.000,0
157314.899,-16.602,-15.137,-26.367,15.137,0.000,0
157314.903,-7.324,-28.320,-30.273,30.762,0.000,0
157314.907,-1.465,-18.555,-28.320,27.832,0.000,0
157314.911,-7.324,-16.113,-23.438,3.906,0.000,0
157314.915,-14.160,-16.602,-20.996,-25.391,0.000,0
157314.918,-13.672,-14.160,-15.625,-17.090,0.000,0
157314.922,0.000,-19.531,-17.090,-1.465,0.000,0
157314.926,9.277,-22.949,-28.320,17.090,0.000,0
157314.930,1.953,-15.625,-23.438,9.766,0.000,0
157314.934,-4.395,-16.113,-12.695,-9.766,0.000,0
157314.938,-2.441,-20.020,-27.344,7.812,0.000,0
157314.942,0.488,-22.461,-28.809,-3.906,0.000,0
157314.946,-16.113,-19.043,-14.648,-1.953,0.000,0
157314.950,-13.184,-11.719,-9.277,-9.277,0.000,0
157314.954,-0.488,-16.602,-4.883,-26.367,0.000,0
157314.957,0.977,-20.508,-20.996,-9.766,0.000,0
157314.961,-9.766,-16.602,-29.297,-7.812,0.000,0
157314.965,-20.508,-17.578,-17.578,13.184,0.000,0
157314.969,-4.883,-18.555,-17.578,15.137,0.000,0
157314.973,-0.488,-15.625,-15.137,-9.277,0.000,0
157314.977,-15.625,-10.254,-19.043,-3.906,0.000,0
157314.981,-18.555,-7.324,-21.973,0.000,0.000,0
157314.985,-7.324,-10.254,-24.902,0.977,0.000,0
157314.989,1.953,-11.719,-16.602,-8.301,0.000,0
157314.993,10.742,-10.742,-6.836,-28.320,0.000,0
157314.997,-6.836,-10.742,-22.949,-20.508,0.000,0
157315.000,-20.508,-18.066,-35.156,5.371,0.000,0
157315.004,-4.395,-18.066,-34.180,15.137,0.000,0
157315.008,-19.531,-15.625,-8.301,4.883,0.000,0
157315.012,-27.344,-18.555,-4.883,-17.090,0.000,0
157315.016,-12.695,-19.043,-28.320,-13.672,0.000,0
157315.020,-9.766,-21.484,-35.156,-11.230,0.000,0
157315.024,-19.531,-20.996,-22.949,2.930,0.000,0
157315.028,-19.531,-21.973,-21.973,12.207,0.000,0
157315.032,-15.137,-23.438,-19.531,-19.531,0.000,0
157315.036,-7.812,-21.484,-19.043,-10.254,0.000,0
157315.040,-7.812,-21.484,-25.391,9.766,0.000,0
157315.043,-21.484,-29.785,-32.715,3.418,0.000,0
157315.047,-19.043,-31.250,-30.273,-30.762,0.000,0
157315.051,-21.484,-23.926,-12.207,-37.109,0.000,0
157315.055,-24.414,-23.926,-10.742,-15.137,0.000,0
157315.059,-13.672,-30.273,-29.297,-18.555,0.000,0
157315.063,-20.996,-30.762,-37.598,-10.254,0.000,0
157315.067,-25.391,-32.715,-28.809,0.000,0.000,0
157315.071,-20.996,-31.250,-11.719,-27.344,0.000,0
157315.075,-9.766,-23.438,-23.926,-16.602,0.000,0
157315.079,-3.418,-20.508,-42.480,-0.977,0.000,0
157315.082,-11.230,-20.508,-24.414,-3.418,0.000,0
157315.086,-4.883,-16.602,-14.160,0.977,0.000,1
157315.090,-5.371,-17.578,-15.137,-21.484,0.000,0
157315.094,-17.090,-18.066,-4.883,-27.832,0.000,0
157315.098,-13.184,-20.508,-16.113,-12.695,0.000,0
157315.102,0.488,-23.438,-41.016,12.695,0.000,0
157315.106,-10.254,-22.461,-28.809,-7.812,0.000,0
157315.110,-25.879,-16.113,-17.578,-35.645,0.000,0
157315.114,-24.414,-15.625,-33.203,-5.371,0.000,0
157315.118,-17.578,-24.902,-36.133,-3.906,0.000,0
157315.122,-19.043,-19.531,-33.203,-0.977,0.000,0
157315.125,-22.461,-12.695,-21.973,-11.230,0.000,0
157315.129,-19.043,-18.555,-13.184,-33.203,0.000,0
157315.133,-11.230,-18.555,-20.508,-30.273,0.000,0
157315.137,-11.230,-16.602,-23.438,-18.066,0.000,0
157315.141,-24.902,-14.648,-22.949,8.301,0.000,0
157315.145,-15.137,-18.066,-17.578,-10.254,0.000,0
157315.149,-11.230,-21.484,-16.602,-31.250,0.000,0
157315.153,-26.367,-20.508,-37.598,-6.348,0.000,0
157315.157,-23.926,-21.973,-36.621,-2.930,0.000,0
157315.161,-24.414,-25.391,-29.785,3.906,0.000,0
157315.165,-22.461,-18.555,-25.879,-3.906,0.000,0
157315.168,-24.414,-19.043,-15.137,-36.621,0.000,0
157315.172,-19.531,-20.996,-20.020,-27.832,0.000,0
157315.176,-0.488,-10.742,-24.902,-6.348,0.000,0
157315.180,-1.953,-10.254,-25.879,1.953,0.000,0
157315.184,-8.301,-17.578,-17.090,3.418,0.000,0
157315.188,-15.137,-21.484,-7.812,-14.648,0.000,0
157315.192,-17.090,-17.090,-27.344,-22.949,0.000,0
157315.196,-11.230,-16.602,-40.039,-18.555,0.000,0
157315.200,-20.020,-20.020,-25.879,0.000,0.000,0
157315.204,-17.578,-22.461,-18.066,15.137,0.000,0
157315.207,-8.301,-26.855,-17.578,-16.113,0.000,0
157315.211,-19.043,-23.926,-23.438,-24.902,0.000,0
157315.215,-26.855,-21.973,-29.297,0.977,0.000,0
157315.219,-20.508,-19.531,-25.879,0.977,0.000,0
157315.223,-23.438,-15.625,-27.344,-12.207,0.000,0
157315.227,-21.973,-19.043,-24.902,-27.344,0.000,0
157315.231,-20.020,-15.625,-28.320,-27.832,0.000,0
157315.235,-23.438,-13.672,-32.227,-12.695,0.000,0
157315.239,-11.719,-17.578,-37.598,0.977,0.000,0
157315.243,-19.043,-22.461,-42.480,-2.930,0.000,0
157315.247,-43.457,-21.484,-23.438,-27.344,0.000,0
157315.250,-32.227,-21.973,-20.996,-43.457,0.000,0
157315.254,-17.578,-22.949,-46.875,-23.438,0.000,0
157315.258,-26.855,-18.555,-47.363,-3.906,0.000,0
157315.262,-29.785,-19.043,-28.320,-11.719,0.000,0
157315.266,-19.531,-19.043,-23.438,-17.578,0.000,0
157315.270,-11.719,-8.789,-21.973,-27.344,0.000,0
157315.274,-19.043,-9.277,-17.578,-29.785,0.000,0
157315.278,-27.344,-12.207,-22.461,-13.672,0.000,0
157315.282,-8.789,-13.184,-30.762,5.859,0.000,0
157315.286,7.812,-14.648,-26.855,-15.625,0.000,0
157315.290,-12.695,-13.672,-13.184,-4.883,0.000,0
157315.293,-27.832,-18.555,-13.184,5.859,0.000,0
157315.297,-11.719,-19.531,-25.391,-9.277,0.000,0
157315.301,-7.324,-12.695,-23.438,0.977,0.000,0
157315.305,-12.695,-14.648,-12.207,-27.344,0.000,0
157315.309,-11.230,-9.766,-6.836,-35.645,0.000,0
157315.313,-5.859,-2.930,-16.113,-7.324,0.000,0
157315.317,-3.906,-15.137,-23.438,0.977,0.000,0
157315.321,-14.160,-20.508,-11.230,7.324,0.000,0
157315.325,-21.973,-12.695,6.836,-4.395,0.000,0
157315.329,-12.695,-17.578,-11.719,-34.668,0.000,0
157315.332,-7.812,-23.926,-33.203,-28.320,0.000,0
157315.336,-19.531,-22.949,-8.789,-23.438,0.000,0
157315.340,-17.578,-21.973,-10.254,-2.930,0.000,0
157315.344,-11.719,-23.926,-21.973,-15.625,0.000,0
157315.348,-16.602,-24.902,-15.625,-32.715,0.000,0
157315.352,-16.602,-30.762,-16.113,-22.949,0.000,0
157315.356,-20.996,-31.738,-22.461,-10.254,0.000,0
157315.360,-17.090,-27.832,-41.992,10.742,0.000,0
157315.364,-20.996,-33.691,-23.926,-24.902,0.000,0
157315.368,-26.367,-33.691,-8.789,-31.250,0.000,0
157315.372,-18.066,-32.715,-25.879,-20.508,0.000,0
157315.375,-17.090,-32.227,-36.133,-21.973,0.000,0
157315.379,-21.973,-27.832,-35.156,11.230,0.000,0
157315.383,-29.297,-27.832,-13.672,-5.859,0.000,0
157315.387,-14.160,-29.297,-20.996,-40.039,0.000,0
157315.391,0.488,-22.949,-34.180,-15.625,0.000,0
157315.395,-11.719,-16.602,-28.320,-2.930,0.000,0
157315.399,-18.066,-13.672,-21.484,-0.977,0.000,0
157315.403,-12.695,-24.414,-14.160,-24.902,0.000,0
157315.407,-19.531,-31.250,-15.625,-45.898,0.000,0
157315.411,-10.254,-22.461,-25.391,-27.344,0.000,0
157315.415,-4.883,-25.391,-20.996,-17.090,0.000,0
157315.418,-6.348,-29.297,-28.320,14.160,0.000,0
157315.422,5.371,-30.762,-30.273,6.836,0.000,0
157315.426,-14.648,-28.320,-23.438,-25.391,0.000,0
157315.430,-16.602,-24.902,-41.992,0.000,0.000,0
157315.434,-2.441,-24.902,-49.316,4.883,0.000,0
157315.438,-17.090,-31.738,-39.062,-2.930,0.000,0
157315.442,-26.367,-32.715,-19.043,-13.184,0.000,0
157315.446,-23.926,-24.902,-14.648,-41.016,0.000,0
157315.450,-18.555,-28.320,-37.109,-37.109,0.000,0
157315.454,-23.926,-28.320,-30.273,-19.531,0.000,0
157315.457,-26.367,-29.297,-30.273,-26.367,0.000,0
157315.461,-27.832,-32.715,-51.758,-21.484,0.000,0
157315.465,-23.438,-30.273,-35.156,-7.812,0.000,0
157315.469,-18.066,-24.414,-23.438,-2.441,0.000,0
157315.473,-20.996,-19.531,-24.902,0.000,0.000,0
157315.477,-9.766,-15.137,-30.762,-2.930,0.000,0
157315.481,-13.184,-16.113,-26.855,-14.648,0.000,0
157315.485,-21.484,-22.461,-19.043,-35.645,0.000,0
157315.489,-15.625,-24.902,-31.738,-27.832,0.000,0
157315.493,-15.625,-22.461,-49.316,-15.625,0.000,0
157315.497,-18.066,-23.926,-52.734,-7.812,0.000,0
157315.500,-19.531,-25.391,-32.227,-17.578,0.000,0
157315.504,-16.602,-26.367,-22.461,-30.273,0.000,0
157315.508,-15.137,-26.367,-31.250,-9.766,0.000,0
157315.512,-23.926,-21.484,-30.273,-7.812,0.000,0
157315.516,-27.832,-19.531,-15.625,-2.930,0.000,0
157315.520,-20.996,-24.414,-13.184,-1.953,0.000,0
157315.524,-5.371,-21.484,-20.996,-39.551,0.000,0
157315.528,-7.812,-17.090,-20.996,-31.738,0.000,0
157315.532,-8.301,-13.184,-19.531,3.418,0.000,0
157315.536,0.000,-14.648,-27.832,10.742,0.000,0
157315.540,-9.766,-25.879,-32.715,-8.301,0.000,0
157315.543,-23.926,-28.809,-20.996,-32.227,0.000,0
157315.547,-15.625,-20.020,-20.508,-22.949,0.000,0
157315.551,-3.906,-24.414,-37.109,-24.414,0.000,0
157315.555,-11.719,-29.297,-36.133,-6.348,0.000,0
157315.559,-22.461,-22.461,-19.043,8.789,0.000,0
157315.563,-25.391,-23.438,-18.066,-25.391,0.000,0
157315.567,-19.531,-24.414,-44.922,-6.836,0.000,0
157315.571,-19.531,-23.438,-40.039,1.953,0.000,0
157315.575,-27.832,-25.391,-27.832,-9.277,0.000,0
157315.579,-33.203,-25.879,-29.785,-27.832,0.000,0
157315.582,-20.508,-23.926,-32.715,-42.480,0.000,0
157315.586,-15.137,-26.855,-36.133,-39.062,0.000,0
157315.590,-39.551,-36.133,-37.109,-39.551,0.000,0
157315.594,-41.016,-33.691,-45.410,-24.902,0.000,0
157315.598,-20.020,-26.855,-30.762,-27.832,0.000,0
157315.602,-23.438,-28.809,-18.066,-40.039,0.000,0
157315.606,-35.645,-30.762,-32.715,-20.020,0.000,0
157315.610,-33.203,-27.344,-34.180,-12.207,0.000,0
157315.614,-20.508,-29.297,-42.480,-11.719,0.000,0
157315.618,-29.785,-26.855,-30.273,-19.043,0.000,0
157315.622,-43.457,-23.438,-9.766,-38.086,0.000,0
157315.625,-25.879,-24.902,-28.320,-32.715,0.000,0
157315.629,-7.812,-27.344,-30.762,-19.531,0.000,0
157315.633,-11.719,-31.250,-27.344,-3.906,0.000,0
157315.637,-18.555,-30.273,-29.297,-14.648,0.000,0
157315.641,-19.043,-25.391,-26.367,-27.832,0.000,0
157315.645,-22.949,-27.832,-36.133,-14.648,0.000,0
157315.649,-16.602,-28.320,-25.879,-11.230,0.000,0
157315.653,-16.602,-22.949,-20.508,-11.719,0.000,0
157315.657,-14.648,-30.273,-39.062,-14.160,0.000,0
157315.661,-15.625,-36.133,-32.715,-41.504,0.000,0
157315.665,-24.902,-28.809,-3.906,-54.688,0.000,0
157315.668,-13.672,-24.902,-17.578,-1.465,0.000,0
157315.672,-10.742,-25.391,-34.668,23.926,0.000,0
157315.676,-19.531,-24.902,-25.879,-1.465,0.000,0
157315.680,-18.555,-26.367,-17.090,-8.789,0.000,0
157315.684,-17.090,-25.879,-30.762,8.789,0.000,0
157315.688,-28.320,-26.367,-41.016,-3.906,0.000,0
157315.692,-34.180,-23.926,-31.738,-8.789,0.000,0
157315.696,-27.832,-21.973,-27.344,-0.488,0.000,0
157315.700,-20.996,-23.926,-22.461,-31.738,0.000,0
157315.704,-28.809,-22.461,-31.250,-23.438,0.000,0
157315.707,-31.738,-23.926,-43.945,10.742,0.000,0
157315.711,-29.297,-18.555,-25.391,17.578,0.000,0
157315.715,-20.020,-20.020,-26.855,-5.859,0.000,0
157315.719,-22.461,-23.926,-18.555,-37.109,0.000,0
157315.723,-26.855,-17.090,-19.043,-26.367,0.000,0
157315.727,-22.949,-19.531,-35.645,-22.461,0.000,0
157315.731,-19.531,-20.508,-46.387,0.488,0.000,0
157315.735,-23.926,-24.902,-42.969,16.602,0.000,0
157315.739,-32.227,-26.367,-15.625,-13.672,0.000,0
157315.743,-26.855,-16.113,-16.113,-11.719,0.000,0
157315.747,-22.949,-13.672,-26.367,13.672,0.000,0
157315.750,-17.578,-12.207,-24.902,8.301,0.000,0
157315.754,-24.414,-15.625,-14.648,9.766,0.000,1
157315.758,-22.461,-22.461,-13.184,-11.719,0.000,0
157315.762,-3.418,-18.066,-30.273,-23.926,0.000,0
157315.766,0.000,-17.578,-17.090,-15.625,0.000,0
157315.770,-1.953,-20.508,-21.484,19.531,0.000,0
157315.774,-2.441,-13.672,-42.480,23.926,0.000,0
157315.778,-4.883,-16.113,-25.879,-23.926,0.000,0
157315.782,-17.090,-16.113,-10.742,-12.207,0.000,0
157315.786,-17.090,-18.066,-19.043,6.348,0.000,0
157315.790,-16.113,-24.414,-23.926,-1.465,0.000,0
157315.793,-27.832,-24.414,-24.902,-0.488,0.000,0
157315.797,-26.855,-26.367,-10.254,-14.648,0.000,0
157315.801,-23.438,-21.484,-1.953,-17.090,0.000,0
157315.805,-9.766,-17.090,-21.973,-15.137,0.000,0
157315.809,-5.859,-17.578,-27.344,1.953,0.000,0
157315.813,-15.625,-16.113,-16.113,17.090,0.000,0
157315.817,-12.695,-16.602,-3.906,-12.695,0.000,0
157315.821,0.977,-12.207,-11.230,-4.883,0.000,0
157315.825,1.465,-8.789,-24.414,6.348,0.000,0
157315.829,-22.461,-16.113,-22.949,-6.348,0.000,0
157315.832,-25.391,-22.461,-23.926,-1.465,0.000,0
157315.836,-14.160,-22.461,-12.695,-22.949,0.000,0
157315.840,-23.926,-21.484,-10.254,-36.621,0.000,0
157315.844,-28.809,-18.555,-24.414,-15.625,0.000,0
157315.848,-10.254,-16.113,-29.297,5.371,0.000,0
157315.852,-8.301,-17.578,-35.645,6.836,0.000,0
157315.856,-21.484,-19.043,-23.438,-9.766,0.000,0
157315.860,-24.902,-14.648,1.465,-20.020,0.000,0
157315.864,-10.742,-14.160,-11.719,-22.461,0.000,0
157315.868,-12.695,-22.949,-19.043,-27.344,0.000,0
157315.872,-30.273,-22.461,-15.625,-12.207,0.000,0
157315.875,-24.414,-21.484,-24.414,-6.836,0.000,0
157315.879,-12.207,-25.879,-21.973,-20.020,0.000,0
157315.883,-23.438,-21.484,-22.949,-3.906,0.000,0
157315.887,-35.645,-24.902,-20.508,5.859,0.000,0
157315.891,-36.621,-28.320,-15.625,0.977,0.000,0
157315.895,-28.809,-25.879,-20.020,-14.648,0.000,0
157315.899,-20.020,-22.461,-13.672,-29.785,0.000,0
157315.903,-10.742,-18.066,-14.160,-26.855,0.000,0
157315.907,-6.836,-21.973,-24.414,-23.438,0.000,0
157315.911,-9.766,-24.902,-32.227,1.465,0.000,0
157315.915,-15.137,-23.926,-27.832,-6.348,0.000,0
157315.918,-23.438,-24.414,-15.137,-28.320,0.000,0
157315.922,-20.020,-25.879,-25.879,-4.395,0.000,0
157315.926,-18.066,-20.996,-30.273,4.395,0.000,0
157315.930,-19.043,-17.090,-19.531,2.930,0.000,0
157315.934,-25.391,-21.484,-15.137,-12.207,0.000,0
157315.938,-21.973,-21.484,-20.508,-37.109,0.000,0
157315.942,-2.930,-18.066,-36.621,-43.457,0.000,0
157315.946,-12.207,-20.996,-30.762,-28.320,0.000,0
157315.950,-29.785,-21.973,-10.742,1.953,0.000,0
157315.954,-15.625,-19.043,-10.254,0.977,0.000,0
157315.957,-21.484,-12.207,-13.184,-24.414,0.000,0
157315.961,-28.809,-4.395,-17.578,5.859,0.000,0
157315.965,-8.301,-5.371,-17.578,13.672,0.000,0
157315.969,-8.301,-10.254,-16.602,-7.812,0.000,0
157315.973,-17.090,-11.230,-17.578,-17.090,0.000,0
157315.977,-10.254,-22.461,-27.832,-33.203,0.000,0
157315.981,-25.391,-30.762,-24.902,-27.832,0.000,0
157315.985,-27.832,-22.949,-28.320,-15.625,0.000,0
157315.989,-18.066,-25.391,-40.039,-10.742,0.000,0
157315.993,-32.227,-22.461,-18.066,-21.484,0.000,0
157315.997,-39.551,-19.043,-8.301,-27.344,0.000,0
157316.000,-23.438,-24.902,-36.133,-11.719,0.000,0
157316.004,-10.254,-21.973,-35.156,-13.672,0.000,0
157316.008,-16.602,-23.438,-24.902,-10.742,0.000,0
157316.012,-21.973,-25.879,-24.902,-20.020,0.000,0
157316.016,-22.949,-21.973,-14.648,-42.969,0.000,0
157316.020,-29.297,-19.043,-19.531,-37.598,0.000,0
157316.024,-26.855,-16.113,-23.438,-11.230,0.000,0
157316.028,-21.484,-13.672,-21.484,2.441,0.000,0
157316.032,-16.602,-16.113,-26.367,-18.555,0.000,0
157316.036,-9.277,-23.926,-20.996,-51.270,0.000,0
157316.040,-20.996,-27.344,-14.160,-33.203,0.000,0
157316.043,-22.461,-22.461,-22.461,-26.367,0.000,0
157316.047,-19.531,-21.973,-30.273,-17.090,0.000,0
157316.051,-20.508,-27.344,-26.855,4.395,0.000,0
157316.055,-16.113,-24.902,-10.254,-24.902,0.000,0
157316.059,-13.672,-19.531,-20.508,-28.809,0.000,0
157316.063,-17.578,-25.391,-32.227,-5.859,0.000,0
157316.067,-17.090,-25.391,-28.320,6.836,0.000,0
157316.071,-15.137,-16.113,-18.066,7.324,0.000,0
157316.075,-13.672,-18.066,-18.555,-13.672,0.000,0
157316.079,-10.254,-20.508,-19.531,-6.348,0.000,0
157316.082,-23.438,-20.996,-6.348,-6.348,0.000,0
157316.086,-23.926,-21.484,-24.902,5.859,0.000,0
157316.090,-11.230,-22.949,-32.227,-6.348,0.000,0
157316.094,-17.090,-26.367,-17.090,-33.203,0.000,0
157316.098,-16.602,-15.625,-14.160,-0.977,0.000,0
157316.102,-2.930,-14.160,-13.184,4.883,0.000,0
157316.106,2.441,-20.508,-20.996,3.906,0.000,0
157316.110,-8.301,-20.996,-4.395,-13.184,0.000,0
157316.114,-9.766,-25.391,6.348,-39.062,0.000,0
157316.118,-1.953,-20.508,-4.883,-21.484,0.000,0
157316.122,-6.836,-12.695,-9.277,-0.977,0.000,0
157316.125,-15.137,-16.602,-21.973,18.066,0.000,0
157316.129,-10.742,-20.508,-16.113,-4.395,0.000,0
157316.133,0.000,-21.484,-9.766,-24.902,0.000,0
157316.137,1.953,-18.066,-26.855,-1.465,0.000,0
157316.141,-4.883,-19.531,-28.320,-0.977,0.000,0
157316.145,-17.090,-19.531,-9.277,11.230,0.000,0
157316.149,-5.859,-13.672,0.488,1.465,0.000,0
157316.153,-4.395,-12.207,1.953,-37.109,0.000,0
157316.157,-14.160,-12.695,-5.371,-26.367,0.000,0
157316.161,-11.719,-13.672,-8.301,2.441,0.000,0
157316.165,-2.930,-12.207,-8.789,8.789,0.000,0
157316.168,-6.836,-12.207,-11.230,4.395,0.000,0
157316.172,-14.648,-10.742,-1.465,-10.254,0.000,0
157316.176,-6.348,-11.719,-9.277,-17.578,0.000,0
157316.180,4.883,-10.254,-16.602,-11.719,0.000,0
157316.184,-5.371,-12.207,-5.371,-9.766,0.000,0
157316.188,-15.137,-17.090,-17.578,8.789,0.000,0
157316.192,-16.602,-15.137,-12.695,-10.742,0.000,0
157316.196,-17.578,-13.672,-15.625,-15.625,0.000,0
157316.200,-14.160,-20.996,-25.879,4.883,0.000,0
157316.204,-13.672,-27.344,-23.926,17.578,0.000,0
157316.207,-7.324,-19.531,-24.902,17.578,0.000,0
157316.211,-5.859,-15.625,-13.672,-13.672,0.000,0
157316.215,-11.719,-15.625,-5.371,-23.926,0.000,0
157316.219,-7.324,-11.719,-4.883,-9.766,0.000,0
157316.223,-0.488,-14.160,-20.020,0.977,0.000,0
157316.227,0.977,-17.578,-24.414,8.789,0.000,0
157316.231,-3.418,-22.461,-5.371,-17.090,0.000,0
157316.235,-7.812,-20.020,-7.324,-16.113,0.000,0
157316.239,-3.906,-13.672,-19.043,14.160,0.000,0
157316.243,-7.812,-15.137,-20.020,12.695,0.000,0
157316.247,-5.859,-18.066,-10.254,3.418,0.000,0
157316.250,0.488,-16.113,0.488,-7.324,0.000,0
157316.254,-8.789,-14.160,-10.254,-17.090,0.000,0
157316.258,-7.324,-19.531,-24.414,-17.578,0.000,0
157316.262,-8.789,-10.742,-12.695,6.836,0.000,0
157316.266,-3.906,-7.324,-18.066,28.320,0.000,0
157316.270,8.301,-16.113,-29.297,2.441,0.000,0
157316.274,2.441,-15.137,-31.250,4.395,0.000,0
157316.278,-4.883,-13.184,-28.320,21.973,0.000,0
157316.282,-11.230,-22.461,-28.320,7.324,0.000,0
157316.286,-19.531,-23.926,-22.949,-2.930,0.000,0
157316.290,-33.203,-17.578,-19.043,-20.020,0.000,0
157316.293,-30.762,-18.555,-25.879,-27.344,0.000,0
157316.297,-22.461,-21.484,-25.879,-16.113,0.000,0
157316.301,-20.996,-22.949,-27.832,1.953,0.000,0
157316.305,-24.902,-25.391,-27.832,-3.418,0.000,0
157316.309,-28.809,-26.855,-21.484,-29.297,0.000,0
157316.313,-17.090,-25.391,-23.438,5.371,0.000,0
157316.317,-6.348,-17.090,-26.855,7.812,0.000,0
157316.321,-2.930,-13.672,-22.461,7.324,0.000,0
157316.325,0.488,-15.625,-20.996,6.348,0.000,0
157316.329,-19.531,-17.090,-22.461,-46.387,0.000,0
157316.332,-30.762,-14.160,-23.438,-42.480,0.000,0
157316.336,-22.461,-12.695,-24.414,0.488,0.000,0
157316.340,-14.648,-14.160,-25.391,4.395,0.000,0
157316.344,-22.949,-16.113,-20.508,-23.438,0.000,0
157316.348,-41.504,-20.508,-12.207,-28.809,0.000,0
157316.352,-40.527,-19.531,-23.926,-11.230,0.000,0
157316.356,-33.691,-16.602,-26.367,-18.555,0.000,0
157316.360,-29.297,-15.137,-22.461,-6.348,0.000,0
157316.364,-19.531,-14.648,-1.953,-13.184,0.000,0
157316.368,-11.230,-14.648,-2.441,-37.598,0.000,0
157316.372,-7.324,-13.184,-37.109,-21.973,0.000,0
157316.375,-8.789,-11.230,-27.832,2.930,0.000,0
157316.379,-10.742,-11.230,-10.742,5.859,0.000,0
157316.383,-15.625,-19.531,-13.672,-24.414,0.000,1
157316.387,-13.672,-20.508,-30.273,-23.926,0.000,0
157316.391,-28.320,-24.902,-24.902,-8.789,0.000,0
157316.395,-29.297,-26.367,-18.066,-1.465,0.000,0
157316.399,-13.672,-18.555,-24.902,11.719,0.000,0
157316.403,-13.672,-24.414,-24.902,-27.832,0.000,0
157316.407,-18.066,-20.020,-16.602,-29.297,0.000,0
157316.411,-12.207,-20.508,-23.438,2.930,0.000,0
157316.415,0.488,-20.508,-41.504,-0.488,0.000,0
157316.418,0.000,-17.090,-35.645,-26.367,0.000,0
157316.422,-15.625,-15.625,-7.812,-59.082,0.000,0
157316.426,-15.625,-10.254,-13.184,-47.363,0.000,0
157316.430,-0.488,-14.648,-31.250,-46.387,0.000,0
157316.434,-5.371,-16.602,-30.762,-35.645,0.000,0
157316.438,-15.137,-16.113,-20.508,-16.602,0.000,0
157316.442,-6.836,-18.555,-0.488,-43.945,0.000,0
157316.446,-4.883,-15.625,-10.742,-30.273,0.000,0
157316.450,-10.742,-14.648,-19.531,-7.812,0.000,0
157316.454,-15.625,-21.973,-7.812,-14.160,0.000,0
157316.457,-14.160,-24.414,-20.996,-15.625,0.000,0
157316.461,-15.137,-22.949,-19.531,-29.785,0.000,0
157316.465,-19.043,-19.043,-17.578,-33.203,0.000,0
157316.469,-19.043,-20.020,-28.809,-27.832,0.000,0
157316.473,-7.812,-23.438,-30.762,-11.230,0.000,0
157316.477,1.953,-19.043,-28.320,-6.348,0.000,0
157316.481,-20.508,-26.855,-15.625,-17.578,0.000,0
157316.485,-31.250,-19.043,-19.531,-4.883,0.000,0
157316.489,-12.207,-13.672,-33.691,-3.418,0.000,0
157316.493,-3.906,-14.160,-30.273,14.648,0.000,0
157316.497,-20.020,-11.230,-14.648,15.625,0.000,0
157316.500,-15.137,-11.230,-16.113,-20.020,0.000,0
157316.504,0.000,-14.160,-25.391,-35.645,0.000,0
157316.508,-6.836,-18.066,-21.973,-11.230,0.000,0
157316.512,-14.160,-14.648,-11.230,19.531,0.000,0
157316.516,-9.277,-16.113,-19.531,13.184,0.000,0
157316.520,-12.695,-21.484,-21.973,-12.207,0.000,0
157316.524,-24.414,-22.949,-22.461,-2.441,0.000,0
157316.528,-20.508,-23.926,-24.902,13.672,0.000,0
157316.532,-11.230,-20.996,-25.391,4.883,0.000,0
157316.536,-16.113,-25.391,-27.344,1.465,0.000,0
157316.540,-23.438,-24.902,-22.461,-8.301,0.000,0
157316.543,-22.461,-23.926,-19.531,-27.832,0.000,0
157316.547,-22.461,-23.926,-26.855,-16.602,0.000,0
157316.551,-15.137,-14.160,-29.785,3.906,0.000,0
157316.555,-7.812,-12.207,-20.508,6.836,0.000,0
157316.559,-14.648,-13.184,-1.953,-1.465,0.000,0
157316.563,-5.371,-14.160,-18.066,-8.301,0.000,0
157316.567,-7.324,-16.602,-29.297,-7.324,0.000,0
157316.571,-22.949,-14.160,-24.902,-23.438,0.000,0
157316.575,-19.043,-15.137,-34.180,-0.488,0.000,0
157316.579,-11.719,-15.137,-29.785,1.465,0.000,0
157316.582,-18.555,-16.602,-17.578,-28.809,0.000,0
157316.586,-26.367,-17.090,-15.137,-4.395,0.000,0
157316.590,-19.043,-13.184,-17.578,6.348,0.000,0
157316.594,-8.301,-22.461,-20.508,-19.531,0.000,0
157316.598,-17.090,-22.949,-26.367,-10.742,0.000,0
157316.602,-29.297,-16.602,-20.020,-21.484,0.000,0
157316.606,-9.766,-17.578,-24.902,-31.250,0.000,0
157316.610,-9.766,-19.531,-28.809,-18.555,0.000,0
157316.614,-22.461,-24.902,-26.367,5.371,0.000,0
157316.618,-17.090,-20.508,-19.531,3.418,0.000,0
157316.622,-19.043,-17.578,-14.648,-19.043,0.000,0
157316.625,-20.020,-23.438,-33.691,5.371,0.000,0
157316.629,-18.066,-23.926,-37.109,0.000,0.000,0
157316.633,-24.414,-24.414,-26.855,-11.230,0.000,0
157316.637,-33.203,-25.391,-25.391,-8.301,0.000,0
157316.641,-18.555,-21.973,-22.461,-37.109,0.000,0
157316.645,-10.742,-20.020,-27.344,-26.855,0.000,0
157316.649,-28.320,-23.438,-20.508,5.371,0.000,0
157316.653,-12.695,-20.508,-31.250,4.395,0.000,0
157316.657,-5.859,-20.020,-23.926,-7.812,0.000,0
157316.661,-20.020,-27.344,-5.859,-19.531,0.000,0
157316.665,-13.184,-23.926,-24.902,7.324,0.000,0
157316.668,0.488,-20.508,-38.574,13.184,0.000,0
157316.672,-1.953,-21.484,-30.762,1.465,0.000,0
157316.676,-5.371,-23.438,-12.207,-5.371,0.000,0
157316.680,-13.184,-17.578,-5.371,-42.969,0.000,0
157316.684,-22.461,-12.695,-20.996,-37.109,0.000,0
157316.688,-17.578,-17.090,-36.133,1.953,0.000,0
157316.692,-19.043,-20.996,-23.926,11.719,0.000,0
157316.696,-16.602,-20.508,-9.277,-13.672,0.000,0
157316.700,-12.207,-22.461,-16.602,-42.969,0.000,0
157316.704,-7.812,-22.949,-30.762,-27.344,0.000,0
157316.707,-11.719,-21.484,-21.484,-8.301,0.000,0
157316.711,-15.137,-21.973,-22.461,-16.113,0.000,0
157316.715,-13.184,-27.344,-31.738,-12.695,0.000,0
157316.719,-18.066,-31.738,-18.555,-32.715,0.000,0
157316.723,-10.742,-26.367,-20.020,-26.367,0.000,0
157316.727,-6.836,-25.879,-31.738,0.488,0.000,0
157316.731,-16.602,-26.367,-37.109,10.742,0.000,0
157316.735,-17.090,-22.461,-28.809,7.812,0.000,0
157316.739,-17.090,-24.414,-13.672,-28.809,0.000,0
157316.743,-0.488,-22.949,-29.297,-33.203,0.000,0
157316.747,1.465,-19.043,-32.715,-16.602,0.000,0
157316.750,-10.742,-16.113,-23.926,-0.977,0.000,0
157316.754,-12.207,-15.137,-32.227,9.277,0.000,0
157316.758,-10.742,-24.902,-24.414,-25.391,0.000,0
157316.762,-9.766,-27.344,-21.973,-11.719,0.000,0
157316.766,-16.602,-19.531,-28.320,20.020,0.000,0
157316.770,-11.230,-19.043,-25.879,4.395,0.000,0
157316.774,-7.324,-20.020,-19.531,10.742,0.000,0
157316.778,-15.625,-17.090,-15.625,5.859,0.000,0
157316.782,-20.996,-17.578,-14.160,-30.762,0.000,0
157316.786,-24.414,-26.367,-25.391,-32.715,0.000,0
157316.790,-17.090,-29.785,-41.016,-9.277,0.000,0
157316.793,-9.277,-25.391,-33.691,6.348,0.000,0
157316.797,-17.090,-24.902,-8.789,-12.695,0.000,0
157316.801,-30.273,-26.855,-23.926,-15.625,0.000,0
157316.805,-19.043,-29.785,-51.758,1.953,0.000,0
157316.809,-16.113,-35.645,-39.551,-1.465,0.000,0
157316.813,-23.926,-37.109,-24.902,0.000,0.000,0
157316.817,-8.789,-28.809,-16.602,-12.695,0.000,0
157316.821,-11.719,-24.414,-22.461,-24.902,0.000,0
157316.825,-28.809,-26.855,-21.973,-10.254,0.000,0
157316.829,-21.484,-20.508,-11.719,13.672,0.000,0
157316.832,-6.836,-15.137,-26.855,11.230,0.000,0
157316.836,-10.742,-19.531,-28.809,-19.043,0.000,0
157316.840,-18.555,-21.973,-26.367,-14.160,0.000,0
157316.844,-13.672,-20.508,-28.320,8.789,0.000,0
157316.848,-10.742,-15.625,-26.367,12.695,0.000,0
157316.852,-15.625,-20.996,-30.273,10.742,0.000,0
157316.856,-19.043,-23.438,-13.184,-8.789,0.000,0
157316.860,-15.137,-20.508,-16.113,-22.461,0.000,0
157316.864,-11.719,-16.602,-25.391,1.953,0.000,0
157316.868,-14.160,-15.137,-21.484,16.602,0.000,0
157316.872,-24.414,-19.531,-22.461,5.859,0.000,0
157316.875,-9.277,-22.461,-26.367,-3.906,0.000,0
157316.879,8.301,-20.020,-34.180,-19.043,0.000,0
157316.883,-8.301,-23.438,-37.109,-21.484,0.000,0
157316.887,-33.203,-28.809,-20.508,-17.578,0.000,0
157316.891,-21.973,-28.320,-24.414,-1.465,0.000,0
157316.895,-15.625,-25.879,-30.273,1.953,0.000,0
157316.899,-26.367,-28.320,-15.625,-24.902,0.000,0
157316.903,-22.949,-27.344,-19.043,-13.672,0.000,0
157316.907,-6.348,-18.555,-40.527,16.602,0.000,0
157316.911,0.488,-19.531,-41.992,16.113,0.000,0
157316.915,-14.648,-25.391,-29.297,1.953,0.000,0
157316.918,-19.531,-23.438,-17.578,-38.574,0.000,0
157316.922,-12.695,-15.625,-22.461,-24.414,0.000,0
157316.926,-3.418,-18.555,-36.621,-10.254,0.000,0
157316.930,-6.348,-19.531,-29.785,-0.977,0.000,0
157316.934,-21.484,-13.184,-15.137,-7.324,0.000,0
157316.938,-14.160,-16.113,-24.902,-25.391,0.000,0
157316.942,-9.766,-17.578,-31.250,4.395,0.000,0
157316.946,-8.789,-16.602,-22.461,13.184,0.000,0
157316.950,-8.301,-15.137,-26.855,8.301,0.000,0
157316.954,-9.766,-17.090,-29.297,-4.883,0.000,0
157316.957,-14.648,-19.043,-14.648,-33.203,0.000,0
157316.961,-20.508,-17.090,-24.902,-20.508,0.000,0
157316.965,-19.043,-10.254,-32.715,-0.977,0.000,0
157316.969,-8.301,-5.859,-38.574,2.930,0.000,0
157316.973,0.488,-6.836,-31.738,1.465,0.000,0
157316.977,-16.602,-3.418,1.465,-7.324,0.000,0
157316.981,-10.254,-4.395,-12.207,6.348,0.000,0
157316.985,4.395,-14.648,-29.785,2.930,0.000,0
157316.989,2.930,-12.207,-20.996,1.953,0.000,0
157316.993,-3.418,-12.207,-9.766,1.953,0.000,0
157316.997,-15.625,-20.508,-17.090,-31.250,0.000,0
157317.000,-24.902,-21.484,-24.414,-35.645,0.000,0
157317.004,-26.855,-18.066,-19.531,-2.441,0.000,0
157317.008,-20.996,-14.160,-24.902,24.902,0.000,0
157317.012,-21.973,-20.996,-20.508,2.441,0.000,0
157317.016,-18.555,-26.855,-20.020,-26.367,0.000,0
157317.020,-20.996,-17.578,-22.461,-25.879,0.000,0
157317.024,-28.809,-17.578,-17.090,-22.949,0.000,0
157317.028,-15.137,-17.090,-29.297,-15.137,0.000,0
157317.032,-13.184,-18.555,-34.180,-0.488,0.000,0
157317.036,-21.484,-20.996,-18.066,-32.715,0.000,0
157317.040,-16.113,-18.066,-25.879,-27.832,0.000,0
157317.043,-8.789,-20.996,-35.645,-0.488,0.000,0
157317.047,-3.418,-23.438,-35.156,3.418,0.000,0
157317.051,-17.090,-22.949,-24.902,-9.766,0.000,0
157317.055,-22.461,-20.508,-11.230,-41.016,0.000,0
157317.059,-13.672,-16.602,-17.578,-31.738,0.000,0
157317.063,-16.113,-19.043,-24.414,-17.090,0.000,0
157317.067,-28.320,-24.414,-22.949,-5.371,0.000,0
157317.071,-20.020,-22.461,-26.855,5.859,0.000,0
157317.075,-4.883,-24.902,-21.484,-23.926,0.000,0
157317.079,-11.719,-20.508,-19.043,-25.879,0.000,0
157317.082,-16.113,-18.066,-25.391,-2.930,0.000,0
157317.086,-13.672,-19.531,-32.227,-0.977,0.000,0
157317.090,-16.113,-20.020,-31.250,-4.395,0.000,1
157317.094,-15.625,-21.484,-17.090,-31.250,0.000,0
157317.098,-18.066,-20.508,-23.926,-37.598,0.000,0
157317.102,-11.719,-16.602,-31.738,-26.855,0.000,0
157317.106,-13.672,-18.555,-30.762,-6.836,0.000,0
157317.110,-32.227,-25.391,-21.973,-23.438,0.000,0
157317.114,-33.691,-26.367,-8.789,-46.875,0.000,0
157317.118,-12.695,-19.043,-32.715,-16.113,0.000,0
157317.122,0.488,-22.461,-41.992,10.742,0.000,0
157317.125,-6.348,-23.926,-27.344,14.160,0.000,0
157317.129,-15.137,-19.531,-28.809,13.184,0.000,0
157317.133,-20.508,-23.926,-25.391,-9.277,0.000,0
157317.137,-30.273,-22.949,-24.414,-14.648,0.000,0
157317.141,-36.621,-17.090,-29.297,-9.277,0.000,0
157317.145,-22.949,-18.066,-31.738,-8.301,0.000,0
157317.149,-17.090,-22.949,-29.785,-8.301,0.000,0
157317.153,-44.922,-18.555,-15.625,-30.762,0.000,0
157317.157,-44.434,-15.625,-19.531,-17.578,0.000,0
157317.161,-21.484,-21.973,-37.109,-12.207,0.000,0
157317.165,-20.020,-19.531,-35.156,-4.395,0.000,0
157317.168,-27.832,-15.625,-19.531,-5.859,0.000,0
157317.172,-22.949,-22.949,-11.719,-38.574,0.000,0
157317.176,-13.672,-29.785,-23.926,-34.668,0.000,0
157317.180,-10.742,-21.484,-25.879,-7.812,0.000,0
157317.184,-13.184,-13.672,-26.367,-1.953,0.000,0
157317.188,-14.160,-16.113,-26.855,-12.207,0.000,0
157317.192,-14.648,-15.137,-21.484,-16.602,0.000,0
157317.196,-23.926,-15.137,-28.809,-1.465,0.000,0
157317.200,-33.203,-11.230,-22.461,-9.766,0.000,0
157317.204,-22.949,-18.555,-23.926,-14.648,0.000,0
157317.207,-3.906,-22.949,-30.273,-17.090,0.000,0
157317.211,-9.277,-13.184,-22.461,-44.434,0.000,0
157317.215,-10.254,-12.207,-29.785,-27.832,0.000,0
157317.219,9.766,-10.254,-24.414,7.324,0.000,0
157317.223,4.395,-10.254,-22.461,12.695,0.000,0
157317.227,-26.855,-18.555,-13.184,-4.883,0.000,0
157317.231,-16.602,-18.066,-15.625,-26.855,0.000,0
157317.235,-0.977,-12.695,-25.879,-27.344,0.000,0
157317.239,-14.160,-14.648,-22.461,-16.113,0.000,0
157317.243,-24.414,-14.160,-23.438,11.230,0.000,0
157317.247,-20.508,-14.160,-25.391,2.930,0.000,0
157317.250,-20.508,-15.137,-22.461,-12.207,0.000,0
157317.254,-16.113,-13.184,-20.996,7.812,0.000,0
157317.258,-7.324,-12.207,-12.695,18.066,0.000,0
157317.262,-2.930,-12.695,-17.578,16.602,0.000,0
157317.266,-0.488,-9.277,-20.020,0.977,0.000,0
157317.270,2.930,-7.324,-10.254,-13.672,0.000,0
157317.274,1.953,-7.812,-17.090,-10.742,0.000,0
157317.278,5.859,-6.348,-20.508,-15.137,0.000,0
157317.282,-1.953,-5.371,-28.809,-3.906,0.000,0
157317.286,-13.184,-16.113,-27.832,0.977,0.000,0
157317.290,-6.836,-28.809,-19.531,-17.090,0.000,0
157317.293,-12.695,-23.438,-27.344,-10.254,0.000,0
157317.297,-20.508,-20.996,-41.992,-10.254,0.000,0
157317.301,-17.090,-23.438,-36.133,-8.301,0.000,0
157317.305,-20.996,-23.926,-7.812,-10.742,0.000,0
157317.309,-8.301,-21.973,-8.789,-42.480,0.000,0
157317.313,-10.254,-18.555,-20.020,-47.852,0.000,0
157317.317,-22.949,-24.414,-25.879,-35.156,0.000,0
157317.321,-14.160,-21.973,-38.574,-9.277,0.000,0
157317.325,-11.230,-21.484,-37.109,-26.855,0.000,0
157317.329,-22.461,-25.879,-27.832,-50.293,0.000,0
157317.332,-22.949,-22.461,-31.738,-16.602,0.000,0
157317.336,-10.742,-21.973,-29.785,-6.836,0.000,0
157317.340,-15.137,-21.973,-28.809,-17.090,0.000,0
157317.344,-26.855,-22.949,-22.461,-23.926,0.000,0
157317.348,-27.832,-28.320,-12.695,-35.156,0.000,0
157317.352,-2.930,-22.949,-31.250,-28.320,0.000,0
157317.356,4.883,-17.090,-42.480,-16.113,0.000,0
157317.360,-10.742,-18.555,-34.180,-0.977,0.000,0
157317.364,-7.324,-20.020,-25.879,-5.859,0.000,0
157317.368,-12.207,-25.391,-19.043,-40.527,0.000,0
157317.372,-14.160,-24.414,-29.785,-26.855,0.000,0
157317.375,-2.930,-23.926,-41.504,-17.578,0.000,0
157317.379,-10.254,-20.020,-30.762,-21.973,0.000,0
157317.383,-10.742,-19.043,-28.320,1.953,0.000,0
157317.387,-6.836,-23.438,-21.973,-25.391,0.000,0
157317.391,-19.531,-22.461,-20.508,-21.973,0.000,0
157317.395,-19.043,-21.484,-21.973,13.184,0.000,0
157317.399,-1.465,-22.461,-32.227,9.277,0.000,0
157317.403,1.465,-25.391,-29.785,6.836,0.000,0
157317.407,-9.766,-20.996,-8.301,-20.508,0.000,0
157317.411,-16.113,-18.555,-27.344,-35.156,0.000,0
157317.415,-15.137,-21.484,-33.691,-34.668,0.000,0
157317.418,-20.508,-19.531,-20.508,-17.090,0.000,0
157317.422,-24.902,-20.020,-32.715,16.602,0.000,0
157317.426,-17.578,-23.438,-22.461,-12.695,0.000,0
