timestamps,TP9,AF7,AF8,TP10,Right AUX,Marker0
157962.368,-24.414,-18.066,62.012,3.418,0.000,0
157962.372,-19.043,-20.996,76.660,11.230,0.000,0
157962.375,-19.531,-20.020,80.078,2.930,0.000,0
157962.379,-25.391,-17.090,75.195,9.277,0.000,0
157962.383,-4.883,-15.137,78.613,20.508,0.000,0
157962.387,14.648,-15.137,82.031,19.531,0.000,0
157962.391,5.371,-13.672,79.590,26.855,0.000,0
157962.395,-1.953,-15.625,74.707,33.203,0.000,0
157962.399,1.953,-17.578,61.523,32.227,0.000,0
157962.403,-13.184,-15.137,61.035,20.996,0.000,0
157962.407,-5.371,-17.090,65.918,11.719,0.000,0
157962.411,9.277,-18.555,54.688,9.277,0.000,0
157962.415,3.418,-18.555,45.898,13.184,0.000,0
157962.418,-1.465,-24.414,35.156,18.066,0.000,0
157962.422,-5.859,-27.344,29.785,11.719,0.000,0
157962.426,-5.371,-17.578,36.133,12.207,0.000,0
157962.430,-4.395,-20.020,29.785,11.719,0.000,0
157962.434,1.465,-18.555,32.715,11.719,0.000,0
157962.438,5.371,-14.648,40.039,20.996,0.000,0
157962.442,-5.859,-21.484,29.785,20.508,0.000,0
157962.446,-3.418,-25.879,24.414,15.137,0.000,0
157962.450,11.719,-20.996,26.855,10.254,0.000,0
157962.454,9.766,-16.602,19.531,13.672,0.000,0
157962.457,-7.812,-18.555,10.254,20.508,0.000,0
157962.461,-21.973,-20.996,10.742,11.230,0.000,0
157962.465,-7.812,-24.902,12.207,0.488,0.000,0
157962.469,-7.812,-25.879,1.465,-2.930,0.000,0
157962.473,-15.625,-19.043,1.953,1.953,0.000,0
157962.477,-13.184,-20.508,1.465,-0.488,0.000,0
157962.481,-14.648,-18.555,1.465,-3.906,0.000,0
157962.485,-18.066,-16.602,10.742,-3.418,0.000,0
157962.489,-16.113,-20.508,0.000,-7.812,0.000,0
157962.493,-12.695,-21.973,-4.395,-3.906,0.000,0
157962.497,-7.812,-23.438,-3.906,5.859,0.000,0
157962.500,-13.184,-22.461,-4.883,-0.977,0.000,0
157962.504,-13.184,-25.879,-1.465,-15.625,0.000,0
157962.508,1.465,-22.461,-4.395,-14.160,0.000,0
157962.512,-8.789,-19.043,-2.930,-5.371,0.000,0
157962.516,-8.789,-24.414,-6.836,-3.418,0.000,0
157962.520,9.277,-26.367,-8.789,3.418,0.000,0
157962.524,-3.906,-24.414,-5.371,-4.883,0.000,0
157962.528,-17.090,-18.555,-12.695,-16.602,0.000,0
157962.532,-25.391,-17.578,-17.090,-15.137,0.000,0
157962.536,-18.066,-20.508,-15.137,-14.648,0.000,0
157962.540,-17.090,-25.391,-14.160,-26.855,0.000,0
157962.543,-23.438,-22.461,-8.301,-32.715,0.000,0
157962.547,-25.391,-24.902,-16.113,-17.090,0.000,0
157962.551,-14.160,-22.461,-17.578,-10.254,0.000,0
157962.555,-3.418,-22.949,-14.648,-13.672,0.000,0
157962.559,-16.602,-25.391,-18.066,-10.254,0.000,0
157962.563,-28.320,-23.438,-14.160,-19.043,0.000,0
157962.567,-22.461,-25.879,-15.137,-14.648,0.000,0
157962.571,-28.809,-29.785,-23.438,-16.602,0.000,0
157962.575,-32.715,-31.250,-22.949,-23.926,0.000,0
157962.579,-17.090,-27.832,-22.461,-19.531,0.000,0
157962.582,-20.020,-24.902,-21.484,-29.785,0.000,0
157962.586,-23.926,-26.367,-14.648,-37.109,0.000,0
157962.590,-26.855,-27.344,-11.719,-24.414,0.000,0
157962.594,-27.832,-23.926,-13.184,-16.602,0.000,0
157962.598,-19.043,-21.973,-13.672,-22.461,0.000,0
157962.602,-21.973,-20.020,-11.230,-28.809,0.000,0
157962.606,-33.691,-23.438,-18.555,-27.344,0.000,0
157962.610,-28.320,-29.785,-26.367,-25.879,0.000,0
157962.614,-24.902,-24.414,-25.879,-24.414,0.000,0
157962.618,-25.391,-24.902,-21.484,-22.949,0.000,0
157962.622,-27.832,-19.531,-14.160,-37.598,0.000,0
157962.625,-40.527,-13.184,-20.508,-40.527,0.000,0
157962.629,-27.832,-20.508,-27.832,-31.250,0.000,0
157962.633,-25.391,-20.020,-18.555,-23.926,0.000,0
157962.637,-29.297,-20.020,-18.066,-27.344,0.000,0
157962.641,-30.273,-25.391,-20.996,-36.133,0.000,0
157962.645,-16.113,-21.484,-22.461,-11.719,0.000,0
157962.649,6.836,-17.578,-21.484,3.418,0.000,0
157962.653,-22.461,-18.555,-23.438,-22.461,0.000,0
157962.657,-36.621,-14.648,-14.160,-27.832,0.000,0
157962.661,-31.738,-17.578,-3.906,-23.438,0.000,0
157962.665,-34.180,-20.508,-12.207,-19.043,0.000,0
157962.668,-29.785,-20.996,-17.090,-18.555,0.000,0
157962.672,-31.738,-22.461,-20.508,-15.625,0.000,0
157962.676,-29.297,-17.090,-14.648,-12.207,0.000,0
157962.680,-16.602,-14.648,-9.277,-13.672,0.000,0
157962.684,-21.973,-22.949,-22.461,-24.902,0.000,0
157962.688,-25.391,-26.855,-23.926,-26.367,0.000,0
157962.692,-26.367,-22.461,-18.066,-9.277,0.000,0
157962.696,-27.344,-13.672,-15.137,-19.043,0.000,0
157962.700,-3.418,-16.113,-12.695,-26.367,0.000,0
157962.704,-7.324,-18.555,-14.648,-8.789,0.000,0
157962.707,-25.391,-21.484,-22.949,-17.090,0.000,0
157962.711,-26.855,-29.785,-29.297,-39.551,0.000,0
157962.715,-31.738,-28.320,-23.438,-34.180,0.000,0
157962.719,-29.297,-21.484,-16.113,-29.297,0.000,0
157962.723,-22.949,-21.973,-20.508,-31.250,0.000,0
157962.727,-25.879,-24.902,-28.320,-28.320,0.000,0
157962.731,-14.648,-19.043,-23.926,-17.090,0.000,0
157962.735,-15.137,-21.484,-18.555,-9.766,0.000,0
157962.739,-19.043,-28.809,-13.672,-23.438,0.000,0
157962.743,-20.508,-26.367,-15.137,-23.926,0.000,0
157962.747,-14.648,-22.461,-17.578,-5.859,0.000,0
157962.750,-4.883,-28.320,-15.625,-0.977,0.000,0
157962.754,-16.602,-28.809,-16.602,-11.230,0.000,0
157962.758,-17.578,-23.438,-20.020,-27.832,0.000,0
157962.762,-16.113,-22.461,-23.926,-26.855,0.000,0
157962.766,-18.555,-21.973,-24.902,-11.719,0.000,0
157962.770,-22.461,-22.949,-25.879,-21.973,0.000,0
157962.774,-18.066,-29.297,-26.855,-21.484,0.000,0
157962.778,-14.648,-29.785,-23.926,-13.184,0.000,0
157962.782,-30.273,-20.508,-19.043,-14.160,0.000,0
157962.786,-30.762,-19.043,-21.484,-17.090,0.000,0
157962.790,-16.113,-20.020,-21.973,-18.555,0.000,0
157962.793,-17.090,-20.020,-14.160,-17.090,0.000,0
157962.797,-20.508,-22.949,-12.207,-29.297,0.000,0
157962.801,-12.207,-28.320,-14.160,-22.461,0.000,0
157962.805,-8.301,-24.902,-14.648,-5.859,0.000,0
157962.809,-7.324,-12.207,-9.766,-1.953,0.000,0
157962.813,-8.789,-13.184,-9.277,0.977,0.000,0
157962.817,-8.301,-17.578,-12.695,-11.719,0.000,0
157962.821,-16.113,-20.996,-16.113,-4.395,0.000,0
157962.825,-6.348,-18.555,-14.648,17.578,0.000,0
157962.829,-3.418,-9.766,-9.277,-10.254,0.000,0
157962.832,-14.648,-15.137,-15.137,-15.625,0.000,0
157962.836,-15.137,-21.484,-20.508,-15.137,0.000,0
157962.840,-16.602,-20.996,-18.555,-31.738,0.000,0
157962.844,-20.996,-20.020,-18.066,-17.090,0.000,0
157962.848,-22.949,-23.438,-27.832,-14.160,0.000,0
157962.852,-14.648,-22.949,-28.809,-12.695,0.000,0
157962.856,-17.090,-16.113,-16.113,-9.277,0.000,0
157962.860,-20.508,-14.648,-20.020,-22.949,0.000,0
157962.864,-20.996,-15.137,-26.367,-22.949,0.000,0
157962.868,-21.973,-15.137,-19.043,-14.648,0.000,0
157962.872,-20.508,-17.090,-20.508,-5.859,0.000,0
157962.875,-22.949,-12.695,-20.996,-10.742,0.000,0
157962.879,-25.879,-15.625,-20.020,-12.695,0.000,0
157962.883,-30.273,-19.531,-23.926,-15.625,0.000,0
157962.887,-24.902,-16.602,-24.414,-25.391,0.000,0
157962.891,-20.996,-18.066,-29.297,-15.137,0.000,0
157962.895,-28.809,-20.508,-24.902,-18.066,0.000,0
157962.899,-24.414,-20.508,-15.137,-30.273,0.000,0
157962.903,-20.996,-24.414,-20.020,-36.621,0.000,0
157962.907,-29.297,-28.320,-30.273,-33.203,0.000,0
157962.911,-19.531,-26.367,-34.180,-19.043,0.000,0
157962.915,-16.602,-24.902,-27.344,-24.902,0.000,0
157962.918,-28.809,-25.879,-23.438,-30.273,0.000,0
157962.922,-29.297,-28.320,-35.645,-22.949,0.000,0
157962.926,-28.320,-28.809,-32.715,-27.832,0.000,0
157962.930,-20.996,-26.367,-21.973,-17.578,0.000,0
157962.934,-26.855,-33.203,-20.508,-7.324,0.000,0
157962.938,-28.320,-40.527,-26.367,-25.391,0.000,0
157962.942,-14.648,-24.902,-16.113,-35.156,0.000,0
157962.946,-16.113,-16.113,-13.184,-27.832,0.000,0
157962.950,-22.461,-21.484,-25.879,-12.695,0.000,0
157962.954,-23.438,-23.438,-26.367,-17.578,0.000,0
157962.957,-16.113,-24.902,-21.973,-20.020,0.000,0
157962.961,-18.555,-27.344,-21.973,-22.461,0.000,0
157962.965,-25.391,-28.809,-28.320,-24.902,0.000,0
157962.969,-23.438,-26.855,-28.320,-7.324,0.000,0
157962.973,-11.719,-22.461,-18.555,0.000,0.000,0
157962.977,-10.742,-20.508,-19.531,-12.695,0.000,0
157962.981,-21.484,-23.926,-23.926,-19.043,0.000,0
157962.985,-21.973,-22.461,-18.555,-11.230,0.000,0
157962.989,-16.113,-20.020,-14.648,-0.488,0.000,0
157962.993,-23.926,-27.832,-22.461,-11.719,0.000,0
157962.997,-23.926,-24.414,-24.902,-20.996,0.000,0
157963.000,-20.508,-22.949,-25.879,-14.160,0.000,0
157963.004,-32.227,-20.508,-23.438,-17.090,0.000,0
157963.008,-26.367,-20.508,-23.438,-16.113,0.000,0
157963.012,-18.555,-32.715,-30.762,-17.090,0.000,0
157963.016,-18.555,-30.762,-24.902,-25.391,0.000,0
157963.020,-16.602,-23.438,-20.020,-17.578,0.000,0
157963.024,-25.879,-30.762,-26.367,-8.301,0.000,0
157963.028,-23.926,-31.738,-29.297,-4.395,0.000,0
157963.032,-21.973,-30.273,-30.762,-25.391,0.000,0
157963.036,-18.066,-31.738,-31.250,-47.363,0.000,0
157963.040,-24.902,-36.133,-31.738,-51.758,0.000,0
157963.043,-31.250,-30.762,-29.785,-49.316,0.000,0
157963.047,-24.414,-25.391,-30.762,-45.410,0.000,0
157963.051,-27.344,-28.809,-34.180,-35.645,0.000,0
157963.055,-34.668,-24.902,-34.668,-36.133,0.000,0
157963.059,-39.062,-23.438,-34.180,-31.250,0.000,0
157963.063,-19.043,-25.879,-31.738,-11.230,0.000,0
157963.067,15.137,-18.066,-22.461,4.395,0.000,0
157963.071,4.395,-21.484,-23.926,-6.836,0.000,0
157963.075,-30.273,-28.809,-27.832,-45.410,0.000,0
157963.079,-46.387,-21.973,-23.926,-64.941,0.000,0
157963.082,-25.879,-15.625,-17.578,-43.945,0.000,0
157963.086,-3.906,-7.812,-6.836,-8.301,0.000,0
157963.090,-16.602,-16.113,-12.695,0.977,0.000,0
157963.094,-24.414,-19.043,-12.695,-7.324,0.000,0
157963.098,-26.367,-4.395,-0.488,-12.695,0.000,0
157963.102,-32.227,-11.719,-18.066,-24.414,0.000,0
157963.106,-26.855,-20.020,-26.367,-20.020,0.000,0
157963.110,-28.320,-16.113,-21.484,-12.207,0.000,0
157963.114,-27.344,-21.484,-23.926,-20.996,0.000,0
157963.118,-22.461,-22.949,-22.949,-17.578,0.000,0
157963.122,-21.973,-20.020,-22.949,-16.113,0.000,0
157963.125,-15.137,-18.066,-17.578,-11.230,0.000,0
157963.129,-16.602,-26.855,-19.531,-4.883,0.000,0
157963.133,-22.949,-28.320,-21.484,-28.809,0.000,0
157963.137,-20.508,-25.879,-26.367,-59.082,0.000,0
157963.141,-27.832,-26.855,-29.297,-44.922,0.000,0
157963.145,-40.527,-28.320,-26.367,-22.949,0.000,0
157963.149,-39.062,-36.133,-32.227,-38.574,0.000,0
157963.153,-40.527,-37.598,-30.762,-46.387,0.000,0
157963.157,-32.715,-27.832,-23.438,-31.738,0.000,0
157963.161,-18.555,-24.902,-23.926,-19.531,0.000,0
157963.165,-22.461,-30.273,-29.297,-17.578,0.000,0
157963.168,-27.832,-26.855,-28.320,-26.367,0.000,0
157963.172,-33.691,-29.785,-23.926,-35.156,0.000,0
157963.176,-40.039,-37.109,-30.273,-29.785,0.000,0
157963.180,-36.621,-34.668,-41.016,-21.973,0.000,0
157963.184,-33.203,-30.762,-40.527,-23.438,0.000,0
157963.188,-50.293,-22.461,-35.645,-25.391,0.000,0
157963.192,-41.016,-22.461,-29.297,-37.109,0.000,0
157963.196,-19.043,-24.902,-24.902,-44.434,0.000,0
157963.200,-27.344,-23.926,-28.320,-30.762,0.000,0
157963.204,-29.785,-19.531,-27.832,-23.926,0.000,0
157963.207,-30.762,-19.531,-30.762,-25.879,0.000,0
157963.211,-31.250,-28.320,-33.691,-27.832,0.000,0
157963.215,-31.250,-28.320,-27.832,-31.250,0.000,0
157963.219,-30.762,-27.832,-31.738,-36.133,0.000,0
157963.223,-23.438,-31.738,-39.551,-32.227,0.000,0
157963.227,-21.484,-33.203,-40.527,-21.973,0.000,0
157963.231,-23.438,-28.809,-35.645,-32.227,0.000,0
157963.235,-26.367,-19.531,-31.250,-35.645,0.000,0
157963.239,-28.809,-13.184,-32.227,-20.996,0.000,0
157963.243,-26.367,-14.160,-32.227,-22.949,0.000,0
157963.247,-22.949,-18.066,-35.156,-28.809,0.000,0
157963.250,-25.879,-18.066,-31.250,-34.180,0.000,0
157963.254,-20.996,-18.555,-35.645,-34.668,0.000,0
157963.258,-14.648,-16.602,-41.016,-31.738,0.000,0
157963.262,-17.578,-15.625,-32.715,-23.438,0.000,0
157963.266,-20.020,-22.461,-36.133,-7.324,0.000,0
157963.270,-27.344,-24.414,-35.156,-19.531,0.000,0
157963.274,-31.250,-23.926,-33.203,-38.574,0.000,0
157963.278,-31.250,-22.461,-41.504,-28.809,0.000,0
157963.282,-38.574,-31.738,-49.316,-35.645,0.000,0
157963.286,-32.227,-38.574,-49.805,-37.598,0.000,0
157963.290,-25.879,-29.297,-40.039,-25.879,0.000,0
157963.293,-32.715,-30.273,-38.086,-27.344,0.000,0
157963.297,-35.645,-31.738,-45.898,-35.645,0.000,0
157963.301,-30.762,-38.086,-49.805,-36.621,0.000,0
157963.305,-37.598,-42.969,-50.293,-33.691,0.000,0
157963.309,-57.129,-41.016,-46.387,-36.133,0.000,0
157963.313,-41.016,-37.109,-48.340,-41.504,0.000,0
157963.317,-26.855,-28.809,-48.828,-39.551,0.000,0
157963.321,-29.785,-22.949,-43.945,-36.621,0.000,0
157963.325,-34.668,-23.438,-46.875,-38.086,0.000,0
157963.329,-39.062,-28.809,-47.852,-34.668,0.000,0
157963.332,-35.156,-28.320,-44.922,-43.945,0.000,0
157963.336,-30.762,-25.879,-40.527,-41.992,0.000,0
157963.340,-35.645,-30.273,-41.992,-26.855,0.000,0
157963.344,-41.992,-39.062,-48.828,-32.715,0.000,0
157963.348,-30.762,-36.133,-49.316,-29.297,0.000,0
157963.352,-21.484,-25.879,-44.434,-32.715,0.000,0
157963.356,-31.250,-29.297,-44.922,-44.922,0.000,0
157963.360,-45.898,-38.086,-51.758,-45.410,0.000,0
157963.364,-44.434,-35.645,-56.152,-39.062,0.000,0
157963.368,-40.039,-37.109,-59.570,-34.180,0.000,0
157963.372,-41.504,-40.039,-53.223,-50.781,0.000,0
157963.375,-34.668,-37.109,-47.852,-50.781,0.000,0
157963.379,-27.344,-37.109,-55.176,-37.109,0.000,0
157963.383,-22.461,-37.598,-52.734,-34.668,0.000,0
157963.387,-26.367,-36.621,-53.223,-32.715,0.000,0
157963.391,-32.715,-35.156,-51.758,-42.480,0.000,0
157963.395,-30.273,-35.156,-51.270,-41.016,0.000,0
157963.399,-25.391,-36.621,-54.688,-40.039,0.000,0
157963.403,-32.227,-38.086,-51.758,-48.340,0.000,0
157963.407,-35.156,-37.109,-47.363,-42.969,0.000,0
157963.411,-27.832,-34.180,-45.898,-37.109,0.000,0
157963.415,-15.625,-31.250,-46.387,-29.785,0.000,0
157963.418,-21.973,-34.668,-51.758,-21.973,0.000,0
157963.422,-20.020,-42.969,-59.082,-29.297,0.000,0
157963.426,-21.484,-41.504,-50.781,-32.715,0.000,0
157963.430,-30.273,-38.574,-47.852,-40.039,0.000,0
157963.434,-30.273,-45.410,-55.176,-54.199,0.000,0
157963.438,-26.855,-34.668,-44.434,-37.598,0.000,0
157963.442,-15.625,-24.414,-40.039,-19.043,0.000,0
157963.446,-28.809,-29.785,-50.293,-33.203,0.000,0
157963.450,-34.180,-30.762,-48.340,-33.203,0.000,0
157963.454,-24.902,-30.273,-43.945,-24.902,0.000,0
157963.457,-30.273,-30.273,-42.969,-27.832,0.000,0
157963.461,-35.156,-31.738,-44.434,-29.785,0.000,0
157963.465,-33.691,-33.203,-51.270,-28.320,0.000,0
157963.469,-34.180,-43.945,-47.363,-37.109,0.000,0
157963.473,-28.320,-49.316,-44.434,-48.340,0.000,0
157963.477,-39.551,-41.992,-59.570,-50.781,0.000,0
157963.481,-46.875,-44.434,-67.871,-45.898,0.000,0
157963.485,-41.504,-43.457,-57.129,-40.527,0.000,0
157963.489,-33.691,-42.480,-45.410,-48.340,0.000,0
157963.493,-27.344,-41.504,-50.293,-41.504,0.000,0
157963.497,-29.297,-41.016,-52.734,-51.270,0.000,0
157963.500,-30.762,-47.852,-49.805,-60.547,0.000,0
157963.504,-19.043,-40.527,-52.734,-34.668,0.000,0
157963.508,-20.020,-33.203,-50.781,-31.738,0.000,0
157963.512,-33.203,-39.062,-51.758,-38.574,0.000,0
157963.516,-20.996,-37.598,-49.316,-36.621,0.000,0
157963.520,-20.020,-34.668,-44.922,-35.645,0.000,0
157963.524,-27.344,-37.109,-49.316,-29.785,0.000,0
157963.528,-21.973,-32.227,-43.457,-41.992,0.000,0
157963.532,-19.531,-27.832,-37.109,-44.434,0.000,0
157963.536,-27.344,-31.250,-46.387,-35.645,0.000,0
157963.540,-26.855,-33.691,-46.875,-36.133,0.000,0
157963.543,-24.414,-30.762,-40.527,-26.855,0.000,0
157963.547,-28.320,-32.227,-39.551,-38.086,0.000,0
157963.551,-26.855,-35.156,-41.016,-51.270,0.000,0
157963.555,-21.973,-28.809,-43.457,-30.273,0.000,0
157963.559,-17.090,-31.738,-41.016,-24.414,0.000,0
157963.563,-26.855,-35.156,-42.969,-29.785,0.000,0
157963.567,-32.227,-29.785,-51.758,-27.832,0.000,0
157963.571,-26.855,-31.738,-45.410,-26.855,0.000,0
157963.575,-24.414,-30.762,-34.668,-21.973,0.000,0
157963.579,-30.762,-32.715,-40.039,-24.902,0.000,0
157963.582,-40.039,-36.133,-43.945,-32.227,0.000,0
157963.586,-31.738,-41.016,-39.062,-40.527,0.000,0
157963.590,-28.320,-35.645,-37.109,-40.527,0.000,0
157963.594,-39.062,-30.273,-44.434,-31.738,0.000,0
157963.598,-40.039,-28.809,-42.969,-29.785,0.000,0
157963.602,-35.645,-28.320,-38.574,-33.203,0.000,0
157963.606,-46.875,-38.574,-37.598,-41.992,0.000,0
157963.610,-42.969,-37.109,-39.551,-56.152,0.000,0
157963.614,-30.273,-34.180,-45.898,-66.406,0.000,0
157963.618,-42.969,-38.086,-45.410,-53.223,0.000,0
157963.622,-43.457,-42.480,-41.016,-40.527,0.000,0
157963.625,-38.086,-41.504,-34.668,-48.340,0.000,0
157963.629,-42.480,-34.668,-32.227,-48.828,0.000,0
157963.633,-37.109,-31.250,-32.227,-38.086,0.000,0
157963.637,-28.809,-29.785,-23.926,-35.156,0.000,0
157963.641,-28.809,-29.297,-26.855,-38.086,0.000,0
157963.645,-20.996,-32.227,-32.715,-37.109,0.000,0
157963.649,-27.832,-36.621,-31.738,-39.551,0.000,0
157963.653,-41.992,-38.574,-34.180,-47.852,0.000,0
157963.657,-32.715,-36.621,-36.621,-38.086,0.000,0
157963.661,-29.785,-37.109,-37.598,-32.227,0.000,0
157963.665,-20.508,-36.133,-27.832,-31.738,0.000,0
157963.668,-22.949,-39.062,-25.391,-39.062,0.000,0
157963.672,-39.062,-36.621,-36.621,-50.781,0.000,0
157963.676,-34.180,-29.785,-33.203,-46.387,0.000,0
157963.680,-24.902,-24.414,-30.273,-40.527,0.000,0
157963.684,-27.832,-23.926,-35.156,-41.016,0.000,0
157963.688,-28.809,-30.273,-34.180,-36.621,0.000,0
157963.692,-35.156,-34.180,-34.180,-25.391,0.000,0
157963.696,-45.410,-34.668,-41.992,-39.062,0.000,0
157963.700,-32.715,-31.738,-40.527,-43.457,0.000,0
157963.704,-29.785,-28.809,-39.551,-36.133,0.000,0
157963.707,-41.504,-27.344,-37.109,-44.434,0.000,0
157963.711,-35.156,-22.949,-26.855,-47.363,0.000,0
157963.715,-33.691,-26.855,-34.180,-44.434,0.000,0
157963.719,-34.180,-37.598,-43.945,-35.645,0.000,0
157963.723,-36.621,-36.621,-36.133,-41.504,0.000,0
157963.727,-36.621,-31.738,-31.250,-51.270,0.000,0
157963.731,-38.086,-36.133,-39.551,-41.504,0.000,0
157963.735,-35.645,-35.645,-45.410,-31.250,0.000,0
157963.739,-22.949,-27.832,-39.062,-29.297,0.000,0
157963.743,-25.879,-33.203,-38.574,-29.785,0.000,0
157963.747,-41.504,-31.250,-42.480,-43.945,0.000,0
157963.750,-38.086,-30.762,-43.457,-47.363,0.000,0
157963.754,-40.039,-31.738,-40.039,-31.250,0.000,0
157963.758,-39.062,-23.438,-26.855,-28.320,0.000,0
157963.762,-21.973,-23.438,-28.809,-32.715,0.000,0
157963.766,-29.297,-27.344,-34.180,-28.320,0.000,0
157963.770,-33.691,-25.879,-32.715,-33.691,0.000,0
157963.774,-27.344,-26.855,-34.668,-31.738,0.000,0
157963.778,-38.086,-32.227,-42.969,-30.273,0.000,0
157963.782,-38.574,-30.273,-42.969,-33.691,0.000,0
157963.786,-30.762,-24.414,-36.133,-30.762,0.000,0
157963.790,-31.250,-24.414,-28.809,-36.133,0.000,0
157963.793,-31.738,-22.949,-23.438,-30.762,0.000,0
157963.797,-37.109,-25.391,-32.715,-29.297,0.000,0
157963.801,-40.527,-31.738,-40.039,-32.227,0.000,0
157963.805,-44.922,-36.133,-34.180,-33.203,0.000,0
157963.809,-31.738,-35.645,-36.621,-27.344,0.000,0
157963.813,-30.273,-28.809,-38.574,-27.832,0.000,0
157963.817,-32.227,-29.297,-33.691,-35.645,0.000,0
157963.821,-18.066,-31.250,-34.668,-28.320,0.000,0
157963.825,-5.371,-26.855,-29.785,-20.996,0.000,0
157963.829,-9.277,-21.973,-22.949,-22.949,0.000,0
157963.832,-22.949,-23.926,-24.414,-16.602,0.000,0
157963.836,-27.832,-25.879,-28.809,-18.555,0.000,0
157963.840,-25.391,-30.762,-33.691,-16.113,0.000,0
157963.844,-32.715,-31.738,-32.227,-28.809,0.000,0
157963.848,-37.598,-22.461,-27.344,-44.434,0.000,0
157963.852,-24.902,-24.902,-36.133,-41.016,0.000,0
157963.856,-23.438,-23.438,-33.691,-34.668,0.000,0
157963.860,-34.180,-20.508,-29.297,-28.320,0.000,0
157963.864,-30.762,-25.879,-27.344,-41.016,0.000,0
157963.868,-30.762,-26.855,-29.297,-43.945,0.000,0
157963.872,-32.227,-25.391,-28.320,-30.762,0.000,0
157963.875,-28.809,-24.414,-22.949,-37.598,0.000,0
157963.879,-24.902,-18.066,-32.715,-39.062,0.000,0
157963.883,-30.762,-18.555,-34.668,-37.598,0.000,0
157963.887,-31.738,-22.949,-33.203,-36.621,0.000,0
157963.891,-31.250,-23.926,-29.297,-38.574,0.000,0
157963.895,-35.156,-23.438,-28.809,-41.992,0.000,0
157963.899,-23.926,-29.297,-35.645,-30.762,0.000,0
157963.903,-24.902,-30.273,-28.809,-28.809,0.000,0
157963.907,-36.621,-23.438,-23.926,-34.180,0.000,0
157963.911,-31.738,-18.066,-26.855,-29.297,0.000,0
157963.915,-29.297,-27.832,-39.551,-27.344,0.000,0
157963.918,-26.367,-32.715,-41.504,-13.672,0.000,0
157963.922,-38.086,-20.996,-25.879,-40.527,0.000,0
157963.926,-49.805,-16.113,-29.297,-64.941,0.000,0
157963.930,-37.109,-19.531,-46.875,-47.852,0.000,0
157963.934,-42.969,-28.320,-45.898,-39.062,0.000,0
157963.938,-42.480,-25.391,-38.086,-34.180,0.000,0
157963.942,-47.363,-23.438,-42.480,-50.781,0.000,0
157963.946,-54.199,-24.902,-41.992,-64.453,0.000,0
157963.950,-47.852,-23.926,-44.922,-42.480,0.000,0
157963.954,-39.551,-27.344,-47.363,-31.250,0.000,0
157963.957,-46.387,-30.273,-46.387,-42.480,0.000,0
157963.961,-49.805,-30.273,-47.852,-42.969,0.000,0
157963.965,-32.715,-26.367,-41.992,-44.434,0.000,0
157963.969,-25.391,-22.949,-29.297,-42.969,0.000,0
157963.973,-29.297,-19.531,-25.879,-31.738,0.000,0
157963.977,-36.133,-13.672,-31.738,-22.949,0.000,0
157963.981,-41.016,-15.625,-39.551,-26.367,0.000,0
157963.985,-29.785,-21.484,-37.109,-27.344,0.000,0
157963.989,-22.461,-23.926,-37.598,-30.762,0.000,0
157963.993,-27.344,-24.902,-37.598,-37.109,0.000,0
157963.997,-31.250,-25.879,-35.156,-35.645,0.000,0
157964.000,-30.273,-22.461,-37.598,-31.738,0.000,0
157964.004,-33.691,-20.996,-36.133,-37.598,0.000,0
157964.008,-36.133,-25.391,-41.016,-37.598,0.000,0
157964.012,-31.738,-23.438,-43.457,-14.160,0.000,0
157964.016,-31.250,-21.484,-39.551,-23.438,0.000,0
157964.020,-29.297,-22.949,-38.086,-38.086,0.000,0
157964.024,-33.691,-21.973,-35.156,-31.250,0.000,0
157964.028,-40.039,-22.461,-38.574,-35.156,0.000,0
157964.032,-46.875,-24.414,-39.551,-44.922,0.000,0
157964.036,-41.016,-28.809,-38.574,-40.527,0.000,0
157964.040,-41.016,-35.156,-46.875,-37.598,0.000,0
157964.043,-43.457,-34.180,-45.410,-43.945,0.000,0
157964.047,-38.574,-32.227,-46.387,-40.527,0.000,0
157964.051,-41.504,-31.250,-47.363,-40.039,0.000,0
157964.055,-39.551,-36.133,-42.969,-45.410,0.000,0
157964.059,-33.203,-39.551,-44.922,-42.480,0.000,0
157964.063,-40.527,-33.691,-44.922,-41.016,0.000,0
157964.067,-40.039,-27.832,-46.387,-41.016,0.000,0
157964.071,-29.297,-24.902,-48.340,-32.715,0.000,0
157964.075,-34.668,-28.320,-40.039,-26.367,0.000,0
157964.079,-36.133,-26.855,-38.574,-21.484,0.000,0
157964.082,-23.438,-20.996,-32.227,-17.090,0.000,0
157964.086,-21.484,-20.996,-23.438,-10.254,0.000,0
157964.090,-19.531,-20.020,-26.855,-3.418,0.000,0
157964.094,-23.438,-24.414,-31.738,-6.348,0.000,0
157964.098,-20.020,-23.438,-29.297,-10.742,0.000,0
157964.102,-17.090,-16.113,-26.367,-25.879,0.000,0
157964.106,-16.113,-14.648,-26.855,-23.926,0.000,0
157964.110,-17.578,-13.672,-25.391,-13.672,0.000,0
157964.114,-32.227,-14.648,-26.855,-22.461,0.000,0
157964.118,-34.668,-24.902,-33.203,-17.578,0.000,0
157964.122,-31.250,-24.902,-32.715,-22.461,0.000,0
157964.125,-21.484,-21.484,-33.203,-28.320,0.000,0
157964.129,-15.625,-19.043,-29.297,-8.789,0.000,0
157964.133,-11.719,-15.625,-23.438,-4.395,0.000,0
157964.137,-15.625,-15.625,-29.785,-17.578,0.000,0
157964.141,-26.367,-17.578,-28.320,-37.109,0.000,0
157964.145,-20.996,-18.066,-24.902,-38.574,0.000,0
157964.149,-15.137,-16.602,-26.367,-21.484,0.000,0
157964.153,-20.508,-19.043,-28.320,-12.695,0.000,0
157964.157,-23.438,-19.043,-32.227,-21.484,0.000,0
157964.161,-12.695,-19.043,-30.273,-27.344,0.000,0
157964.165,-11.230,-19.043,-25.879,-13.672,0.000,0
157964.168,-16.113,-15.137,-29.297,-16.113,0.000,0
157964.172,-7.324,-14.160,-25.391,-20.020,0.000,0
157964.176,-19.531,-16.602,-22.461,-6.348,0.000,0
157964.180,-41.504,-20.508,-26.855,-14.648,0.000,0
157964.184,-37.598,-20.996,-31.250,-28.320,0.000,0
157964.188,-34.668,-21.484,-32.715,-25.391,0.000,0
157964.192,-29.785,-25.879,-30.273,-24.902,0.000,0
157964.196,-20.996,-24.414,-24.414,-23.438,0.000,0
157964.200,-20.996,-20.020,-19.043,-34.180,0.000,0
157964.204,-23.438,-20.020,-21.973,-41.992,0.000,0
157964.207,-20.508,-22.461,-23.438,-38.086,0.000,0
157964.211,-22.461,-21.973,-20.996,-38.574,0.000,0
157964.215,-30.273,-20.508,-23.438,-22.949,0.000,0
157964.219,-29.297,-20.996,-19.531,-18.555,0.000,0
157964.223,-21.484,-23.438,-18.555,-37.109,0.000,0
157964.227,-21.973,-18.555,-27.832,-37.109,0.000,0
157964.231,-24.902,-14.160,-24.902,-23.926,0.000,0
157964.235,-25.391,-18.066,-21.484,-26.855,0.000,0
157964.239,-25.879,-23.438,-21.973,-35.156,0.000,0
157964.243,-34.180,-27.344,-22.949,-39.551,0.000,0
157964.247,-41.504,-26.855,-31.250,-34.668,0.000,0
157964.250,-38.086,-24.414,-27.832,-28.320,0.000,0
157964.254,-20.020,-18.066,-20.508,-20.996,0.000,0
157964.258,-3.418,-16.113,-20.020,-20.996,0.000,0
157964.262,-7.324,-16.113,-21.973,-24.414,0.000,0
157964.266,-21.973,-4.395,-21.973,-6.348,0.000,0
157964.270,-20.996,-7.324,-21.484,-1.953,0.000,0
157964.274,-14.160,-20.020,-22.949,-12.695,0.000,0
157964.278,-24.414,-27.832,-26.855,-13.184,0.000,0
157964.282,-24.414,-22.461,-22.461,-29.785,0.000,0
157964.286,-12.695,-8.789,-14.160,-31.250,0.000,0
157964.290,-17.090,-14.160,-20.020,-22.949,0.000,0
157964.293,-20.020,-19.531,-26.367,-23.438,0.000,0
157964.297,-21.484,-19.531,-24.414,-25.879,0.000,0
157964.301,-19.531,-23.438,-22.949,-19.043,0.000,0
157964.305,-7.324,-25.391,-23.438,-10.742,0.000,0
157964.309,-9.766,-21.973,-17.090,-21.973,0.000,0
157964.313,-33.203,-13.184,-11.230,-26.855,0.000,0
157964.317,-32.715,-16.113,-15.625,-21.973,0.000,0
157964.321,-13.184,-17.578,-14.160,-30.762,0.000,0
157964.325,-23.438,-15.625,-16.113,-32.715,0.000,0
157964.329,-24.902,-19.531,-23.438,-21.973,0.000,0
157964.332,-20.020,-21.973,-25.879,-24.902,0.000,0
157964.336,-22.461,-22.949,-26.367,-22.461,0.000,0
157964.340,-26.367,-25.391,-22.461,-14.648,0.000,0
157964.344,-35.156,-27.832,-24.414,-35.645,0.000,0
157964.348,-28.320,-18.555,-21.973,-44.434,0.000,0
157964.352,-25.391,-16.113,-20.508,-34.668,0.000,0
157964.356,-30.273,-22.461,-24.902,-29.785,0.000,0
157964.360,-30.762,-24.902,-24.414,-40.527,0.000,0
157964.364,-27.832,-22.461,-22.461,-41.992,0.000,0
157964.368,-21.484,-25.879,-25.879,-28.320,0.000,0
157964.372,-27.832,-27.832,-28.320,-26.367,0.000,0
157964.375,-32.715,-22.949,-23.438,-29.297,0.000,0
157964.379,-24.902,-23.926,-28.320,-40.527,0.000,0
157964.383,-34.180,-22.461,-30.273,-50.781,0.000,0
157964.387,-47.363,-20.020,-31.250,-44.434,0.000,0
157964.391,-37.598,-21.484,-37.109,-33.691,0.000,0
157964.395,-21.973,-18.066,-30.273,-32.715,0.000,0
157964.399,-24.414,-16.602,-25.391,-33.203,0.000,0
157964.403,-26.855,-24.414,-29.297,-23.438,0.000,0
157964.407,-35.156,-27.832,-36.133,-19.043,0.000,0
157964.411,-30.762,-25.879,-32.227,-29.785,0.000,0
157964.415,-25.879,-23.438,-26.855,-38.574,0.000,0
157964.418,-31.738,-20.996,-21.973,-40.527,0.000,0
157964.422,-22.949,-25.391,-24.414,-46.387,0.000,0
157964.426,-22.461,-23.926,-25.391,-41.504,0.000,0
157964.430,-30.762,-17.578,-20.020,-28.320,0.000,0
157964.434,-24.414,-23.438,-20.996,-22.461,0.000,0
157964.438,-20.996,-22.461,-19.531,-31.250,0.000,0
157964.442,-27.344,-14.648,-24.414,-32.227,0.000,0
157964.446,-20.020,-18.066,-29.297,-28.320,0.000,0
157964.450,-21.973,-19.043,-26.367,-36.133,0.000,0
157964.454,-30.762,-23.438,-28.320,-31.250,0.000,0
157964.457,-27.832,-28.809,-29.785,-30.273,0.000,0
157964.461,-28.320,-20.508,-22.461,-27.344,0.000,0
157964.465,-21.484,-13.672,-19.531,-10.254,0.000,0
157964.469,-19.531,-13.672,-23.438,-7.324,0.000,0
157964.473,-19.531,-13.184,-21.973,-16.602,0.000,0
157964.477,-15.625,-16.113,-19.531,-20.996,0.000,0
157964.481,-25.391,-17.090,-24.902,-18.066,0.000,0
157964.485,-26.855,-21.484,-29.297,-16.113,0.000,0
157964.489,-22.461,-22.949,-24.414,-20.996,0.000,0
157964.493,-23.926,-17.578,-27.344,-14.160,0.000,0
157964.497,-22.949,-22.461,-26.367,-18.066,0.000,0
157964.500,-22.461,-26.367,-23.926,-25.391,0.000,0
157964.504,-14.160,-19.531,-23.438,-17.578,0.000,0
157964.508,-3.906,-14.648,-13.184,1.953,0.000,0
157964.512,-20.020,-21.973,-19.043,4.395,0.000,0
157964.516,-23.926,-23.926,-14.160,-18.555,0.000,0
157964.520,-18.066,-15.625,-5.371,-18.555,0.000,0
157964.524,-17.578,-16.113,-8.301,-9.277,0.000,0
157964.528,-11.719,-19.043,-11.230,-17.578,0.000,0
157964.532,-19.043,-15.137,-20.020,-15.137,0.000,0
157964.536,-20.996,-18.066,-18.066,-18.555,0.000,0
157964.540,-23.438,-21.484,-18.555,-32.715,0.000,0
157964.543,-27.832,-23.926,-27.344,-18.066,0.000,0
157964.547,-24.902,-25.879,-21.973,-5.859,0.000,0
157964.551,-16.602,-18.555,-11.719,-1.953,0.000,0
157964.555,-14.648,-14.160,-8.789,2.441,0.000,0
157964.559,-16.113,-16.113,-13.672,-8.789,0.000,0
157964.563,-24.902,-15.625,-15.625,-16.602,0.000,0
157964.567,-32.227,-19.531,-13.184,-19.043,0.000,0
157964.571,-16.602,-17.578,-11.230,-10.254,0.000,0
157964.575,-13.184,-10.742,-8.789,-14.648,0.000,0
157964.579,-30.762,-16.602,-9.277,-23.438,0.000,0
157964.582,-37.109,-22.949,-13.672,-13.672,0.000,0
157964.586,-28.809,-22.461,-14.160,-9.766,0.000,0
157964.590,-35.645,-19.531,-19.531,-24.414,0.000,0
157964.594,-35.645,-20.508,-18.066,-38.086,0.000,0
157964.598,-36.621,-25.391,-14.160,-34.180,0.000,0
157964.602,-38.086,-26.855,-17.090,-34.180,0.000,0
157964.606,-28.320,-26.855,-18.555,-29.297,0.000,0
157964.610,-34.180,-28.809,-14.648,-22.949,0.000,0
157964.614,-37.598,-24.414,-10.254,-17.090,0.000,0
157964.618,-15.137,-25.879,-13.184,-10.742,0.000,0
157964.622,-18.066,-25.391,-18.555,-24.902,0.000,0
157964.625,-47.363,-18.555,-23.438,-33.691,0.000,0
157964.629,-39.062,-22.949,-19.531,-26.367,0.000,0
157964.633,-26.855,-25.391,-19.531,-34.180,0.000,0
157964.637,-30.762,-24.414,-24.902,-31.738,0.000,0
157964.641,-28.320,-25.879,-23.438,-25.391,0.000,0
157964.645,-32.227,-23.926,-23.926,-20.508,0.000,0
157964.649,-42.969,-23.438,-26.855,-15.137,0.000,0
157964.653,-49.316,-26.855,-24.902,-21.973,0.000,0
157964.657,-51.758,-29.785,-25.879,-24.902,0.000,0
157964.661,-51.758,-30.273,-28.809,-20.508,0.000,0
157964.665,-33.203,-25.391,-25.391,-18.555,0.000,0
157964.668,-33.203,-27.344,-27.344,-29.785,0.000,0
157964.672,-39.551,-28.320,-30.762,-45.410,0.000,0
157964.676,-36.621,-27.344,-30.273,-41.016,0.000,0
157964.680,-39.551,-20.508,-27.344,-31.738,0.000,0
157964.684,-47.363,-20.508,-24.414,-24.902,0.000,0
157964.688,-54.199,-25.391,-27.832,-34.180,0.000,0
157964.692,-39.551,-24.902,-33.691,-46.387,0.000,0
157964.696,-30.762,-24.902,-26.855,-50.293,0.000,0
157964.700,-33.203,-26.855,-20.508,-45.410,0.000,0
157964.704,-22.949,-22.949,-18.555,-35.156,0.000,0
157964.707,-31.738,-20.508,-19.043,-27.832,0.000,0
157964.711,-43.457,-24.414,-27.344,-27.832,0.000,0
157964.715,-24.414,-16.602,-21.484,-36.133,0.000,0
157964.719,-17.578,-13.184,-11.719,-33.691,0.000,0
157964.723,-24.414,-18.555,-1.953,-26.367,0.000,0
157964.727,-29.297,-17.578,4.883,-20.996,0.000,0
157964.731,-31.250,-16.113,8.789,-20.508,0.000,0
157964.735,-17.578,-14.160,12.207,-22.461,0.000,0
157964.739,-7.324,-15.625,10.742,-13.672,0.000,0
157964.743,-16.113,-16.602,12.207,-15.625,0.000,0
157964.747,-24.902,-14.160,10.742,-24.902,0.000,0
157964.750,-16.113,-20.508,2.930,-8.301,0.000,0
157964.754,-15.137,-25.879,7.324,-12.207,0.000,0
157964.758,-21.484,-16.602,11.230,-21.484,0.000,0
157964.762,-28.809,-18.066,2.930,-22.461,0.000,0
157964.766,-29.785,-21.973,-0.977,-25.879,0.000,0
157964.770,-20.996,-15.625,5.859,-16.602,0.000,0
157964.774,-17.090,-17.578,3.418,-24.414,0.000,0
157964.778,-25.879,-18.066,-1.953,-31.250,0.000,0
157964.782,-26.367,-14.160,-0.977,-25.879,0.000,0
157964.786,-11.230,-15.137,0.977,-14.160,0.000,0
157964.790,-1.953,-12.207,3.906,3.906,0.000,0
157964.793,-13.184,-15.625,1.465,-7.812,0.000,0
157964.797,-30.762,-19.043,-3.418,-30.273,0.000,0
157964.801,-24.414,-11.719,-2.441,-21.484,0.000,0
157964.805,-21.484,-10.254,-2.930,-16.113,0.000,0
157964.809,-32.227,-16.602,-6.836,-18.066,0.000,0
157964.813,-28.809,-10.254,-4.395,-16.602,0.000,0
157964.817,-15.625,-7.324,-6.348,-17.578,0.000,0
157964.821,-3.418,-0.488,-7.812,1.953,0.000,0
157964.825,-5.859,3.906,-9.766,11.719,0.000,0
157964.829,9.766,1.953,-10.254,17.090,0.000,0
157964.832,4.395,-1.953,-7.324,-5.371,0.000,0
157964.836,-16.602,8.301,-12.207,-10.254,0.000,0
157964.840,-0.977,14.160,-16.113,13.672,0.000,0
157964.844,-4.883,11.719,-18.066,-5.859,0.000,0
157964.848,-22.461,19.531,-28.809,-22.461,0.000,0
157964.852,-5.371,39.551,-12.207,-13.184,0.000,0
157964.856,8.789,54.199,1.465,-3.906,0.000,0
157964.860,-6.836,50.781,-19.043,-7.812,0.000,0
157964.864,-14.648,50.293,-37.598,-12.695,0.000,0
157964.868,-14.160,60.547,-35.156,-6.836,0.000,0
157964.872,-13.672,76.660,-20.508,-11.230,0.000,0
157964.875,-13.184,77.148,-25.391,-25.391,0.000,0
157964.879,-4.395,89.844,-22.949,-7.324,0.000,0
157964.883,-3.906,107.910,-21.484,1.465,0.000,0
157964.887,-6.836,106.445,-33.203,-20.508,0.000,0
157964.891,-16.113,104.004,-33.203,-28.320,0.000,0
157964.895,-23.438,107.422,-39.062,-24.414,0.000,0
157964.899,-3.906,117.188,-38.574,-16.602,0.000,0
157964.903,4.883,122.070,-27.832,-3.906,0.000,0
157964.907,-12.695,106.934,-42.480,-6.836,0.000,0
157964.911,-19.531,105.469,-40.039,-20.020,0.000,0
157964.915,-21.484,104.492,-35.156,-32.715,0.000,0
157964.918,-18.555,95.215,-40.039,-23.926,0.000,0
157964.922,-11.719,89.844,-35.645,-16.602,0.000,0
157964.926,-21.484,82.031,-33.691,-29.297,0.000,0
157964.930,-19.531,73.730,-29.297,-40.527,0.000,0
157964.934,-10.254,66.406,-37.109,-25.391,0.000,0
157964.938,-14.648,62.012,-43.457,-13.184,0.000,0
157964.942,-14.160,61.035,-34.180,-18.555,0.000,0
157964.946,-11.719,54.199,-30.762,-23.438,0.000,0
157964.950,-26.367,41.992,-26.367,-38.086,0.000,0
157964.954,-20.508,36.133,-19.043,-38.086,0.000,0
157964.957,-3.418,32.227,-21.973,-27.344,0.000,0
157964.961,-16.602,29.785,-20.508,-19.043,0.000,0
157964.965,-33.203,20.996,-26.855,-26.855,0.000,0
157964.969,-25.879,9.277,-25.879,-26.367,0.000,0
157964.973,-20.996,0.488,-19.531,-21.484,0.000,0
157964.977,-31.738,-3.906,-28.809,-41.992,0.000,0
157964.981,-25.879,-3.418,-20.996,-32.227,0.000,0
157964.985,-29.297,-9.766,-12.695,-24.902,0.000,0
157964.989,-27.832,-17.090,-20.508,-33.691,0.000,0
157964.993,-22.461,-21.973,-20.996,-40.039,0.000,0
157964.997,-39.062,-27.832,-21.484,-47.852,0.000,0
157965.000,-43.457,-28.320,-17.578,-36.621,0.000,0
157965.004,-39.551,-33.691,-16.602,-19.043,0.000,0
157965.008,-30.273,-41.504,-21.973,-23.438,0.000,0
157965.012,-28.809,-43.457,-19.043,-39.062,0.000,0
157965.016,-34.668,-50.293,-16.602,-35.645,0.000,0
157965.020,-28.809,-51.758,-23.926,-42.480,0.000,0
157965.024,-23.438,-50.781,-29.785,-29.785,0.000,0
157965.028,-26.855,-55.664,-26.855,-17.090,0.000,0
157965.032,-35.645,-57.617,-22.949,-35.156,0.000,0
157965.036,-42.480,-55.664,-21.484,-32.227,0.000,0
157965.040,-31.250,-51.758,-20.996,-18.066,0.000,0
157965.043,-26.367,-51.270,-18.555,-18.066,0.000,0
157965.047,-26.367,-54.199,-18.066,-18.555,0.000,0
157965.051,-29.785,-56.641,-17.090,-22.461,0.000,0
157965.055,-33.203,-62.988,-17.090,-22.461,0.000,0
157965.059,-29.297,-62.988,-17.578,-20.508,0.000,0
157965.063,-29.297,-60.059,-17.090,-12.695,0.000,0
157965.067,-34.668,-63.477,-17.578,-18.555,0.000,0
157965.071,-37.598,-64.453,-17.578,-29.297,0.000,0
157965.075,-33.203,-64.941,-20.996,-15.625,0.000,0
157965.079,-22.949,-67.383,-23.926,-13.672,0.000,0
157965.082,-20.020,-69.824,-23.926,-14.648,0.000,0
157965.086,-20.508,-65.430,-18.555,-10.742,0.000,0
157965.090,-23.926,-62.500,-10.742,-19.531,0.000,0
157965.094,-20.996,-64.941,-16.113,-17.090,0.000,0
157965.098,-10.742,-66.895,-15.625,-15.625,0.000,0
157965.102,-19.531,-59.570,-10.254,-16.113,0.000,0
157965.106,-20.996,-55.664,-14.160,-11.719,0.000,0
157965.110,-21.973,-62.012,-13.184,-18.555,0.000,0
157965.114,-25.879,-69.336,-13.672,-11.230,0.000,0
157965.118,-22.949,-70.801,-15.137,-14.648,0.000,0
157965.122,-31.738,-66.895,-14.648,-24.414,0.000,0
157965.125,-29.785,-64.941,-17.578,-22.949,0.000,0
157965.129,-23.438,-67.871,-14.160,-31.250,0.000,0
157965.133,-33.203,-73.242,-7.812,-24.902,0.000,0
157965.137,-38.574,-68.848,-12.207,-22.461,0.000,0
157965.141,-26.855,-62.012,-18.555,-30.762,0.000,0
157965.145,-25.879,-62.012,-16.113,-36.621,0.000,0
157965.149,-35.645,-62.012,-12.695,-39.551,0.000,0
157965.153,-40.039,-57.129,-15.625,-22.461,0.000,0
157965.157,-29.785,-55.664,-17.578,-10.742,0.000,0
157965.161,-14.160,-54.199,-15.625,-8.301,0.000,0
157965.165,-16.602,-54.199,-9.277,-19.531,0.000,0
157965.168,-27.832,-57.129,-8.301,-41.016,0.000,0
157965.172,-27.344,-58.105,-16.602,-31.250,0.000,0
157965.176,-14.648,-62.500,-21.484,-19.531,0.000,0
157965.180,-11.230,-56.641,-20.996,-22.461,0.000,0
157965.184,-11.719,-52.734,-18.555,-27.344,0.000,0
157965.188,-17.578,-48.828,-12.695,-22.461,0.000,0
157965.192,-27.832,-44.434,-19.043,-16.602,0.000,0
157965.196,-27.344,-46.387,-25.879,-17.578,0.000,0
157965.200,-33.203,-44.434,-25.391,-8.301,0.000,0
157965.204,-36.621,-47.363,-26.367,-10.742,0.000,0
157965.207,-31.738,-54.199,-23.926,-28.809,0.000,0
157965.211,-36.621,-44.434,-11.230,-26.855,0.000,0
157965.215,-33.691,-35.156,-8.301,-16.602,0.000,0
157965.219,-26.855,-30.762,-9.766,-10.254,0.000,0
157965.223,-28.809,-37.598,-15.137,-12.695,0.000,0
157965.227,-29.297,-42.480,-17.578,-31.250,0.000,0
157965.231,-32.227,-39.551,-19.043,-29.785,0.000,0
157965.235,-34.180,-43.945,-20.508,-20.508,0.000,0
157965.239,-39.551,-47.363,-21.484,-17.578,0.000,0
157965.243,-30.273,-42.480,-20.996,-9.766,0.000,0
157965.247,-17.578,-43.457,-13.184,-7.812,0.000,0
157965.250,-18.066,-41.504,-12.207,-9.766,0.000,0
157965.254,-10.742,-38.086,-15.625,-9.766,0.000,0
157965.258,-9.766,-37.598,-20.996,-9.277,0.000,0
157965.262,-15.137,-38.086,-22.461,-27.344,0.000,0
157965.266,0.000,-41.992,-17.090,-38.086,0.000,0
157965.270,-9.766,-41.016,-19.531,-23.926,0.000,0
157965.274,-22.461,-38.574,-21.484,-11.230,0.000,0
157965.278,-5.859,-36.621,-19.531,-17.090,0.000,0
157965.282,-8.301,-38.086,-12.695,-15.137,0.000,0
157965.286,-21.484,-40.039,-13.184,-11.719,0.000,0
157965.290,-28.809,-34.180,-21.973,-14.160,0.000,0
157965.293,-26.855,-32.227,-22.461,-9.766,0.000,0
157965.297,-23.438,-32.715,-18.066,-9.277,0.000,0
157965.301,-14.160,-38.086,-22.949,-15.625,0.000,0
157965.305,-6.836,-36.621,-25.879,-19.043,0.000,0
157965.309,-14.648,-28.809,-20.508,-20.996,0.000,0
157965.313,-13.672,-25.879,-20.020,-17.090,0.000,0
157965.317,-14.160,-26.855,-22.949,-12.207,0.000,0
157965.321,-19.531,-22.461,-17.578,-20.996,0.000,0
157965.325,-21.973,-20.996,-19.531,-22.461,0.000,0
157965.329,-22.949,-23.926,-21.973,-16.602,0.000,0
157965.332,-24.902,-20.508,-19.043,-16.602,0.000,0
157965.336,-22.949,-16.113,-14.160,-15.625,0.000,0
157965.340,-20.996,-25.391,-14.160,-13.184,0.000,0
157965.344,-16.113,-28.809,-17.578,-16.113,0.000,0
157965.348,-2.441,-25.879,-19.043,-12.695,0.000,0
157965.352,-4.883,-31.738,-20.996,-6.836,0.000,0
157965.356,-10.254,-25.879,-18.555,-16.113,0.000,0
157965.360,-18.066,-27.832,-20.020,-26.367,0.000,0
157965.364,-41.992,-34.668,-25.391,-29.785,0.000,0
157965.368,-30.762,-31.738,-29.297,-31.250,0.000,0
157965.372,-12.207,-32.715,-31.738,-32.715,0.000,0
157965.375,-19.043,-37.598,-27.832,-25.391,0.000,0
157965.379,-25.391,-41.992,-30.762,-15.625,0.000,0
157965.383,-24.414,-38.574,-30.273,-21.484,0.000,0
157965.387,-33.203,-35.645,-26.367,-32.715,0.000,0
157965.391,-38.574,-39.062,-28.809,-23.438,0.000,0
157965.395,-25.391,-36.621,-26.855,-19.043,0.000,0
157965.399,-23.438,-34.180,-21.484,-22.461,0.000,0
157965.403,-33.203,-34.668,-24.414,-30.762,0.000,0
157965.407,-31.250,-35.156,-27.344,-33.691,0.000,0
157965.411,-24.902,-39.551,-28.320,-36.133,0.000,0
157965.415,-21.973,-37.598,-25.391,-29.297,0.000,0
157965.418,-18.555,-33.691,-26.367,-20.020,0.000,0
157965.422,-22.461,-36.133,-26.367,-40.527,0.000,0
157965.426,-9.277,-26.855,-25.879,-28.809,0.000,0
157965.430,-8.301,-26.367,-25.391,-5.371,0.000,0
157965.434,-33.203,-32.227,-23.926,-23.438,0.000,0
157965.438,-44.922,-31.738,-27.344,-35.156,0.000,0
157965.442,-48.828,-37.109,-28.809,-31.738,0.000,0
157965.446,-40.527,-43.457,-33.691,-30.762,0.000,0
157965.450,-48.340,-42.480,-34.180,-39.062,0.000,0
157965.454,-49.316,-38.086,-31.738,-37.109,0.000,0
157965.457,-38.574,-39.062,-38.086,-24.414,0.000,0
157965.461,-44.922,-37.598,-31.738,-31.250,0.000,0
157965.465,-45.410,-38.086,-25.879,-33.691,0.000,0
157965.469,-32.227,-33.203,-25.879,-26.367,0.000,0
157965.473,-19.531,-26.855,-21.973,-19.531,0.000,0
157965.477,-16.602,-27.832,-16.113,-14.648,0.000,0
157965.481,-20.996,-19.531,-14.160,-27.832,0.000,0
157965.485,-19.531,-11.719,-16.602,-40.527,0.000,0
157965.489,-14.648,-15.137,-19.043,-35.156,0.000,0
157965.493,-19.531,-20.508,-19.043,-23.926,0.000,0
157965.497,-6.836,-18.066,-16.113,-10.254,0.000,0
157965.500,18.066,-11.719,-11.230,2.441,0.000,0
157965.504,14.160,-11.230,-10.254,4.883,0.000,0
157965.508,-1.465,-11.719,-12.695,2.441,0.000,0
157965.512,-9.766,-18.555,-19.531,-4.395,0.000,0
157965.516,-13.672,-25.391,-26.855,-1.953,0.000,0
157965.520,-15.137,-22.949,-23.926,-11.230,0.000,0
157965.524,-22.949,-21.484,-20.508,-33.203,0.000,0
157965.528,-29.297,-24.902,-26.367,-24.414,0.000,0
157965.532,-23.438,-26.367,-28.320,-20.020,0.000,0
157965.536,-22.949,-25.391,-24.902,-21.484,0.000,0
157965.540,-23.926,-29.785,-19.531,-29.297,0.000,0
157965.543,-23.438,-26.367,-14.648,-42.969,0.000,0
157965.547,-16.602,-19.043,-15.625,-39.062,0.000,0
157965.551,-10.254,-23.926,-18.555,-31.738,0.000,0
157965.555,-24.902,-24.414,-21.484,-22.461,0.000,0
157965.559,-31.250,-20.996,-21.484,-23.438,0.000,0
157965.563,-31.738,-24.414,-18.555,-29.297,0.000,0
157965.567,-27.832,-22.461,-16.113,-19.043,0.000,0
157965.571,-19.043,-26.367,-13.184,-15.625,0.000,0
157965.575,-23.926,-32.715,-17.090,-20.508,0.000,0
157965.579,-29.297,-35.156,-22.949,-30.273,0.000,0
157965.582,-27.344,-30.762,-18.555,-30.762,0.000,0
157965.586,-22.461,-23.926,-16.113,-15.625,0.000,0
157965.590,-20.508,-25.391,-18.066,-19.531,0.000,0
157965.594,-13.672,-30.762,-19.043,-17.578,0.000,0
157965.598,-12.207,-27.832,-20.508,-22.461,0.000,0
157965.602,-28.809,-22.949,-22.461,-24.414,0.000,0
157965.606,-20.020,-25.879,-29.785,-19.531,0.000,0
157965.610,-20.020,-29.297,-32.715,-26.367,0.000,0
157965.614,-24.902,-26.367,-22.949,-15.625,0.000,0
157965.618,-22.461,-25.391,-17.578,-14.648,0.000,0
157965.622,-24.414,-22.461,-27.344,-28.809,0.000,0
157965.625,-20.020,-22.461,-28.320,-17.578,0.000,0
157965.629,-21.973,-25.879,-22.461,-7.324,0.000,0
157965.633,-17.578,-27.344,-20.020,-15.137,0.000,0
157965.637,-9.277,-27.344,-15.137,-12.207,0.000,0
157965.641,-21.484,-27.344,-17.578,-11.230,0.000,0
157965.645,-20.020,-30.273,-26.855,-3.906,0.000,0
157965.649,0.977,-29.297,-21.484,3.418,0.000,0
157965.653,-29.297,-32.715,-19.043,-34.180,0.000,0
157965.657,-51.758,-34.668,-27.832,-62.988,0.000,0
157965.661,-32.715,-24.902,-25.879,-42.969,0.000,0
157965.665,-26.855,-24.414,-28.809,-29.785,0.000,0
157965.668,-29.785,-23.438,-28.809,-28.809,0.000,0
157965.672,-29.297,-20.996,-20.508,-26.367,0.000,0
157965.676,-23.926,-26.367,-23.926,-34.668,0.000,0
157965.680,-22.461,-31.738,-26.855,-41.504,0.000,0
157965.684,-17.578,-39.062,-30.762,-37.109,0.000,0
157965.688,-9.277,-39.551,-28.809,-24.902,0.000,0
157965.692,-12.695,-24.414,-20.508,-13.672,0.000,0
157965.696,-17.578,-23.926,-20.508,-21.973,0.000,0
157965.700,-14.648,-30.273,-20.508,-32.715,0.000,0
157965.704,-17.090,-34.180,-24.902,-30.273,0.000,0
157965.707,-18.555,-38.574,-31.250,-28.320,0.000,0
157965.711,-26.367,-37.109,-31.250,-30.762,0.000,0
157965.715,-34.180,-33.203,-27.832,-21.484,0.000,0
157965.719,-19.531,-35.645,-25.391,-23.926,0.000,0
157965.723,-13.672,-39.062,-27.344,-30.273,0.000,0
157965.727,-28.809,-36.133,-32.227,-27.344,0.000,0
157965.731,-33.691,-30.273,-28.320,-23.438,0.000,0
157965.735,-24.414,-30.762,-25.391,-23.926,0.000,0
157965.739,-24.414,-34.180,-31.738,-28.809,0.000,0
157965.743,-32.227,-33.691,-36.621,-19.043,0.000,0
157965.747,-21.973,-30.273,-35.645,-15.137,0.000,0
157965.750,-20.020,-31.738,-34.180,-18.066,0.000,0
157965.754,-29.785,-34.668,-29.297,-20.020,0.000,0
157965.758,-26.367,-35.645,-25.879,-24.414,0.000,0
157965.762,-25.879,-35.156,-31.738,-25.391,0.000,0
157965.766,-30.273,-31.738,-32.715,-20.508,0.000,0
157965.770,-29.297,-32.227,-29.785,-9.766,0.000,0
157965.774,-35.156,-34.668,-28.320,-8.789,0.000,0
157965.778,-47.852,-27.832,-26.855,-24.414,0.000,0
157965.782,-46.875,-26.367,-28.809,-24.902,0.000,0
157965.786,-31.738,-26.367,-28.320,-17.578,0.000,0
157965.790,-27.344,-24.414,-20.996,-16.602,0.000,0
157965.793,-28.809,-26.855,-16.602,-13.672,0.000,0
157965.797,-21.484,-26.367,-17.090,-19.043,0.000,0
157965.801,-17.090,-25.879,-20.020,-19.531,0.000,0
157965.805,-25.879,-29.297,-20.020,-14.648,0.000,0
157965.809,-40.527,-32.227,-26.855,-21.484,0.000,0
157965.813,-39.551,-41.504,-30.273,-22.949,0.000,0
157965.817,-33.203,-41.016,-26.855,-25.879,0.000,0
157965.821,-31.250,-27.344,-26.367,-29.297,0.000,0
157965.825,-36.621,-35.156,-23.438,-36.133,0.000,0
157965.829,-31.250,-42.480,-30.762,-26.855,0.000,0
157965.832,-22.949,-35.156,-31.738,-16.602,0.000,0
157965.836,-28.320,-32.715,-25.391,-28.320,0.000,0
157965.840,-32.715,-35.156,-26.855,-33.203,0.000,0
157965.844,-34.668,-39.551,-34.668,-24.902,0.000,0
157965.848,-26.855,-41.504,-31.250,-21.973,0.000,0
157965.852,-24.902,-42.480,-31.250,-19.043,0.000,0
157965.856,-24.414,-41.992,-36.133,-21.973,0.000,0
157965.860,-16.602,-35.645,-32.715,-37.598,0.000,0
157965.864,-22.949,-34.180,-26.855,-34.668,0.000,0
157965.868,-25.391,-34.668,-23.926,-24.414,0.000,0
157965.872,-20.020,-28.320,-26.367,-26.855,0.000,0
157965.875,-25.391,-26.855,-26.855,-34.180,0.000,0
157965.879,-24.414,-30.273,-28.320,-37.109,0.000,0
157965.883,-18.555,-33.691,-27.344,-26.367,0.000,0
157965.887,-15.137,-28.809,-28.809,-23.926,0.000,0
157965.891,-25.391,-30.273,-31.738,-41.504,0.000,0
157965.895,-38.086,-34.668,-25.391,-57.129,0.000,0
157965.899,-36.133,-27.832,-22.949,-41.504,0.000,0
157965.903,-38.086,-24.414,-26.367,-28.809,0.000,0
157965.907,-27.344,-25.879,-24.902,-26.367,0.000,0
157965.911,-18.555,-31.250,-26.367,-9.277,0.000,0
157965.915,-31.250,-27.832,-23.438,-22.949,0.000,0
157965.918,-20.996,-30.273,-28.809,-28.320,0.000,0
157965.922,-17.578,-36.133,-34.180,-11.719,0.000,0
157965.926,-34.180,-31.250,-31.738,-27.832,0.000,0
157965.930,-34.668,-31.250,-35.645,-22.461,0.000,0
157965.934,-28.320,-31.250,-31.738,-19.043,0.000,0
157965.938,-30.762,-31.250,-24.902,-26.367,0.000,0
157965.942,-23.438,-28.320,-24.902,-23.438,0.000,0
157965.946,-22.461,-26.367,-25.879,-19.043,0.000,0
157965.950,-28.809,-36.621,-32.715,-19.043,0.000,0
157965.954,-37.598,-36.133,-34.668,-25.391,0.000,0
157965.957,-40.039,-26.855,-31.738,-22.461,0.000,0
157965.961,-32.227,-35.156,-39.551,-15.137,0.000,0
157965.965,-20.996,-35.156,-36.133,-21.973,0.000,0
157965.969,-25.879,-33.203,-28.809,-28.809,0.000,0
157965.973,-32.227,-31.250,-25.879,-24.902,0.000,0
157965.977,-25.879,-28.320,-27.344,-28.809,0.000,0
157965.981,-25.879,-28.320,-30.762,-35.645,0.000,0
157965.985,-29.297,-27.832,-30.762,-16.113,0.000,0
157965.989,-20.996,-26.855,-28.809,-1.953,0.000,0
157965.993,-19.043,-23.438,-25.879,-21.484,0.000,0
157965.997,-38.086,-34.668,-37.109,-35.645,0.000,0
157966.000,-39.551,-41.992,-40.527,-37.598,0.000,0
157966.004,-35.156,-39.551,-34.668,-36.133,0.000,0
157966.008,-39.551,-38.574,-39.062,-37.598,0.000,0
157966.012,-38.086,-35.156,-30.762,-44.922,0.000,0
157966.016,-37.598,-32.227,-24.902,-42.480,0.000,0
157966.020,-36.621,-32.227,-34.668,-39.551,0.000,0
157966.024,-7.812,-26.855,-28.809,-14.648,0.000,0
157966.028,-6.836,-24.902,-23.438,-1.465,0.000,0
157966.032,-38.086,-24.414,-24.902,-18.066,0.000,0
157966.036,-46.875,-20.020,-16.602,-27.832,0.000,0
157966.040,-35.645,-22.461,-16.113,-23.926,0.000,0
157966.043,-34.668,-29.297,-16.602,-15.625,0.000,0
157966.047,-50.293,-25.879,-8.301,-22.461,0.000,0
157966.051,-42.969,-24.902,-10.742,-24.902,0.000,0
157966.055,-26.367,-20.508,-6.836,-24.414,0.000,0
157966.059,-33.203,-17.090,-0.488,-23.438,0.000,0
157966.063,-35.156,-21.973,-2.930,-12.207,0.000,1
157966.067,-24.414,-18.555,-2.441,-8.789,0.000,0
157966.071,-18.066,-18.555,-0.977,-11.230,0.000,0
157966.075,-16.602,-19.531,-0.488,-19.043,0.000,0
157966.079,-15.625,-12.695,0.000,-26.855,0.000,0
157966.082,-13.184,-14.160,0.488,-20.996,0.000,0
157966.086,-13.184,-16.113,-5.859,-9.277,0.000,0
157966.090,-21.484,-12.695,-7.324,-5.371,0.000,0
157966.094,-8.789,-8.301,-0.977,-13.184,0.000,0
157966.098,4.883,-9.766,-5.859,-1.465,0.000,0
157966.102,-8.789,-16.602,-12.207,-1.953,0.000,0
157966.106,-12.207,-18.066,-13.672,-9.766,0.000,0
157966.110,-14.160,-19.531,-15.625,-0.488,0.000,0
157966.114,-14.648,-19.531,-11.719,-3.906,0.000,0
157966.118,-20.020,-19.531,-15.137,-16.113,0.000,0
157966.122,-20.996,-18.555,-10.742,-12.695,0.000,0
157966.125,-14.648,-17.578,-13.184,-5.371,0.000,0
157966.129,-15.625,-17.090,-12.695,-19.043,0.000,0
157966.133,-11.719,-21.973,-8.301,-27.832,0.000,0
157966.137,-20.020,-26.367,-13.672,-29.785,0.000,0
157966.141,-24.414,-19.043,-15.625,-22.949,0.000,0
157966.145,-26.855,-20.020,-14.648,-18.066,0.000,0
157966.149,-17.578,-19.043,-7.812,-16.113,0.000,0
157966.153,-5.859,-20.020,-3.906,-14.648,0.000,0
157966.157,-20.020,-26.855,-15.625,-10.742,0.000,0
157966.161,-17.090,-21.484,-14.648,-13.672,0.000,0
157966.165,-4.395,-17.578,-6.348,-21.484,0.000,0
157966.168,-17.090,-22.949,-10.254,-23.926,0.000,0
157966.172,-12.207,-17.090,-8.301,-20.996,0.000,0
157966.176,-7.324,-18.555,-17.090,-8.789,0.000,0
157966.180,-19.043,-21.484,-17.090,-22.949,0.000,0
157966.184,-24.902,-10.742,-14.648,-29.297,0.000,0
157966.188,-19.043,-13.672,-19.043,-25.391,0.000,0
157966.192,-14.648,-17.578,-15.137,-34.180,0.000,0
157966.196,-18.066,-15.137,-10.254,-24.902,0.000,0
157966.200,-11.230,-15.137,-5.371,-13.672,0.000,0
157966.204,-13.184,-15.625,-14.160,-8.301,0.000,0
157966.207,-18.066,-14.648,-19.043,-13.184,0.000,0
157966.211,-21.484,-14.160,-8.301,-20.020,0.000,0
157966.215,-12.207,-12.695,-8.301,-8.789,0.000,0
157966.219,1.465,-13.184,-8.301,-15.137,0.000,0
157966.223,-2.930,-14.160,-4.883,-16.602,0.000,0
157966.227,-11.719,-19.531,-16.113,-3.418,0.000,0
157966.231,-13.184,-26.855,-20.508,-14.648,0.000,0
157966.235,-16.113,-25.879,-17.090,-24.414,0.000,0
157966.239,-21.484,-25.391,-23.926,-4.883,0.000,0
157966.243,-24.414,-27.832,-25.879,-18.066,0.000,0
157966.247,-20.020,-25.391,-30.762,-26.367,0.000,0
157966.250,-12.695,-23.926,-27.344,-28.809,0.000,0
157966.254,-14.648,-19.531,-16.602,-24.414,0.000,0
157966.258,-19.043,-19.531,-19.531,-23.438,0.000,0
157966.262,-16.113,-26.855,-27.344,-23.438,0.000,0
157966.266,-15.625,-25.391,-26.855,-9.277,0.000,0
157966.270,-21.484,-18.555,-18.066,-14.648,0.000,0
157966.274,-25.391,-20.996,-22.461,-29.785,0.000,0
157966.278,-35.645,-22.949,-27.344,-26.855,0.000,0
157966.282,-27.344,-23.438,-24.902,-23.926,0.000,0
157966.286,-31.250,-27.832,-27.344,-26.367,0.000,0
157966.290,-33.203,-28.320,-27.832,-36.133,0.000,0
157966.293,-20.996,-30.762,-34.180,-42.969,0.000,0
157966.297,-16.602,-30.762,-28.320,-30.762,0.000,0
157966.301,-22.949,-31.738,-28.809,-28.320,0.000,0
157966.305,-30.273,-37.109,-37.109,-27.832,0.000,0
157966.309,-19.531,-32.715,-26.367,-24.902,0.000,0
157966.313,-32.715,-33.203,-21.484,-34.668,0.000,0
157966.317,-45.898,-42.480,-32.715,-34.180,0.000,0
157966.321,-35.156,-41.016,-34.668,-26.855,0.000,0
157966.325,-41.504,-32.715,-26.855,-22.461,0.000,0
157966.329,-38.574,-32.227,-24.902,-22.461,0.000,0
157966.332,-40.039,-33.203,-29.785,-20.508,0.000,0
157966.336,-37.109,-36.621,-32.227,-32.715,0.000,0
157966.340,-24.414,-36.133,-27.832,-41.016,0.000,0
157966.344,-21.484,-39.062,-27.832,-33.691,0.000,0
157966.348,-38.574,-41.992,-28.320,-28.809,0.000,0
157966.352,-41.504,-40.039,-29.297,-20.508,0.000,0
157966.356,-31.738,-32.715,-29.785,-15.137,0.000,0
157966.360,-35.156,-30.762,-25.391,-12.207,0.000,0
157966.364,-38.574,-29.785,-21.484,-13.672,0.000,0
157966.368,-35.156,-30.762,-25.391,-19.531,0.000,0
157966.372,-40.039,-32.715,-27.344,-40.527,0.000,0
157966.375,-42.480,-28.320,-27.832,-35.645,0.000,0
157966.379,-39.551,-28.809,-25.879,-23.438,0.000,0
157966.383,-35.645,-28.320,-24.414,-33.691,0.000,0
157966.387,-34.668,-23.926,-19.043,-24.902,0.000,0
157966.391,-38.574,-29.785,-18.555,-20.996,0.000,0
157966.395,-41.992,-40.039,-28.320,-41.016,0.000,0
157966.399,-35.156,-43.457,-30.273,-55.664,0.000,0
157966.403,-33.691,-39.062,-24.902,-47.852,0.000,0
157966.407,-40.039,-34.668,-24.414,-45.410,0.000,0
157966.411,-36.621,-36.133,-30.273,-49.805,0.000,0
157966.415,-30.762,-42.480,-27.832,-31.250,0.000,0
157966.418,-31.738,-39.062,-24.902,-22.949,0.000,0
157966.422,-30.762,-33.691,-28.320,-35.645,0.000,0
157966.426,-30.762,-29.785,-26.855,-41.016,0.000,0
157966.430,-32.715,-26.855,-23.438,-45.410,0.000,0
157966.434,-40.527,-34.180,-28.320,-36.621,0.000,0
157966.438,-35.645,-40.527,-30.762,-30.762,0.000,0
157966.442,-29.785,-39.551,-31.250,-31.250,0.000,0
157966.446,-28.809,-29.785,-26.855,-29.785,0.000,0
157966.450,-23.438,-27.832,-25.879,-34.668,0.000,0
157966.454,-28.809,-30.762,-28.320,-21.484,0.000,0
157966.457,-20.020,-28.320,-20.996,-16.602,0.000,0
157966.461,-17.578,-27.344,-19.531,-14.648,0.000,0
157966.465,-26.367,-28.809,-18.555,-16.113,0.000,0
157966.469,-18.555,-30.273,-19.043,-26.855,0.000,0
157966.473,-14.160,-28.320,-19.531,-31.738,0.000,0
157966.477,-24.902,-27.832,-20.508,-26.367,0.000,0
157966.481,-31.250,-27.832,-25.391,-6.836,0.000,0
157966.485,-13.672,-31.250,-27.344,-8.789,0.000,0
157966.489,-22.461,-33.691,-23.926,-11.719,0.000,0
157966.493,-27.832,-31.250,-25.879,-2.441,0.000,0
157966.497,-19.531,-32.715,-29.297,-11.230,0.000,0
157966.500,-23.926,-36.621,-32.227,-25.879,0.000,0
157966.504,-24.902,-33.203,-30.762,-38.086,0.000,0
157966.508,-23.926,-27.344,-23.438,-34.180,0.000,0
157966.512,-26.855,-29.785,-28.809,-20.996,0.000,0
157966.516,-25.879,-31.250,-33.691,-22.461,0.000,0
157966.520,-25.391,-27.832,-34.180,-28.320,0.000,0
157966.524,-33.203,-25.879,-33.691,-35.645,0.000,0
157966.528,-40.039,-26.855,-21.484,-40.039,0.000,0
157966.532,-20.996,-23.438,-19.531,-34.668,0.000,0
157966.536,-16.113,-19.531,-21.484,-31.250,0.000,0
157966.540,-26.855,-17.090,-20.020,-24.414,0.000,0
157966.543,-29.785,-15.625,-23.438,-26.367,0.000,0
157966.547,-26.855,-18.066,-22.949,-42.969,0.000,0
157966.551,-22.949,-22.461,-25.391,-39.062,0.000,0
157966.555,-23.438,-30.762,-33.203,-27.344,0.000,0
157966.559,-32.227,-31.250,-31.738,-24.902,0.000,0
157966.563,-20.996,-25.879,-28.809,-21.484,0.000,0
157966.567,-8.301,-25.879,-23.438,-30.762,0.000,0
157966.571,-20.020,-24.902,-21.484,-28.809,0.000,0
157966.575,-26.855,-26.367,-24.414,-23.926,0.000,0
157966.579,-23.438,-30.273,-28.320,-28.809,0.000,0
157966.582,-24.902,-26.855,-27.344,-14.648,0.000,0
157966.586,-24.902,-22.949,-23.926,-11.719,0.000,0
157966.590,-23.438,-22.949,-26.855,-31.738,0.000,0
157966.594,-21.484,-21.484,-29.297,-29.297,0.000,0
157966.598,-19.531,-24.414,-30.273,-18.066,0.000,0
157966.602,-22.461,-28.320,-28.320,-20.996,0.000,0
157966.606,-22.949,-27.344,-24.414,-32.715,0.000,0
157966.610,-28.320,-23.926,-25.879,-30.762,0.000,0
157966.614,-34.180,-26.855,-21.973,-27.832,0.000,0
157966.618,-30.762,-28.320,-21.484,-24.902,0.000,0
157966.622,-22.461,-28.320,-27.344,-17.578,0.000,0
157966.625,-22.949,-27.832,-22.461,-24.414,0.000,0
157966.629,-21.973,-24.414,-20.996,-24.902,0.000,0
157966.633,-16.602,-26.367,-24.414,-23.438,0.000,0
157966.637,-21.973,-28.320,-25.391,-25.879,0.000,0
157966.641,-31.250,-27.832,-24.414,-25.391,0.000,0
157966.645,-24.902,-23.926,-23.926,-26.367,0.000,0
157966.649,-20.996,-16.602,-22.949,-11.230,0.000,0
157966.653,-28.320,-21.973,-23.438,-1.465,0.000,0
157966.657,-20.020,-22.949,-20.020,-14.648,0.000,0
157966.661,-16.602,-12.695,-14.648,-10.254,0.000,0
157966.665,-23.926,-18.555,-16.113,-4.883,0.000,1
157966.668,-32.715,-27.344,-23.438,-14.648,0.000,0
157966.672,-32.715,-25.879,-24.414,-21.973,0.000,0
157966.676,-38.574,-26.367,-20.996,-27.832,0.000,0
157966.680,-37.109,-26.367,-25.879,-29.297,0.000,0
157966.684,-27.832,-23.926,-25.391,-32.227,0.000,0
157966.688,-25.391,-25.879,-20.996,-30.762,0.000,0
157966.692,-24.902,-22.461,-22.949,-22.949,0.000,0
157966.696,-25.391,-20.020,-25.391,-22.461,0.000,0
157966.700,-29.297,-17.090,-21.973,-23.438,0.000,0
157966.704,-41.016,-19.043,-20.020,-30.273,0.000,0
157966.707,-37.109,-21.973,-19.531,-30.762,0.000,0
157966.711,-31.738,-25.391,-17.090,-17.090,0.000,0
157966.715,-32.227,-29.297,-19.043,-19.531,0.000,0
157966.719,-26.855,-24.414,-22.949,-24.414,0.000,0
157966.723,-28.320,-24.902,-19.043,-23.438,0.000,0
157966.727,-28.320,-24.902,-19.043,-24.414,0.000,0
157966.731,-26.855,-23.438,-20.996,-20.508,0.000,0
157966.735,-22.461,-20.996,-21.484,-18.555,0.000,0
157966.739,-17.578,-24.414,-20.508,-12.695,0.000,0
157966.743,-22.949,-27.344,-16.602,-10.742,0.000,0
157966.747,-16.113,-24.414,-19.531,-11.719,0.000,0
157966.750,-14.160,-25.879,-17.578,0.000,0.000,0
157966.754,-34.180,-35.156,-28.320,-13.184,0.000,0
157966.758,-30.762,-38.086,-33.691,-25.391,0.000,0
157966.762,-23.926,-34.668,-20.996,-27.832,0.000,0
157966.766,-30.762,-35.645,-21.973,-35.645,0.000,0
157966.770,-26.855,-32.227,-30.273,-23.438,0.000,0
157966.774,-23.926,-26.855,-24.902,-23.926,0.000,0
157966.778,-25.879,-25.391,-21.973,-30.762,0.000,0
157966.782,-30.273,-28.809,-21.973,-38.086,0.000,0
157966.786,-26.367,-30.762,-22.949,-35.645,0.000,0
157966.790,-19.531,-32.715,-27.344,-28.809,0.000,0
157966.793,-19.043,-31.250,-20.508,-12.695,0.000,0
157966.797,-16.602,-26.855,-16.113,-20.508,0.000,0
157966.801,-22.461,-24.902,-16.602,-31.738,0.000,0
157966.805,-22.949,-17.090,-13.672,-3.906,0.000,0
157966.809,-1.465,-15.137,-8.789,-4.395,0.000,0
157966.813,-3.418,-19.531,-10.254,-12.207,0.000,0
157966.817,-8.789,-21.973,-13.672,-20.508,0.000,0
157966.821,-10.254,-22.949,-17.090,-43.457,0.000,0
157966.825,-12.207,-23.438,-18.066,-35.645,0.000,0
157966.829,-4.883,-16.113,-16.113,-19.531,0.000,0
157966.832,-7.812,-15.137,-19.043,-18.555,0.000,0
157966.836,-15.137,-21.973,-16.113,-22.461,0.000,0
157966.840,-12.207,-27.832,-23.438,-30.762,0.000,0
157966.844,-17.090,-30.273,-33.691,-28.809,0.000,0
157966.848,-26.367,-27.832,-26.367,-36.621,0.000,0
157966.852,-29.297,-25.879,-17.090,-35.645,0.000,0
157966.856,-22.949,-28.320,-23.926,-28.320,0.000,0
157966.860,-7.812,-25.391,-23.438,-15.137,0.000,0
157966.864,-20.996,-24.414,-19.043,-10.254,0.000,0
157966.868,-38.574,-25.879,-24.902,-38.086,0.000,0
157966.872,-12.207,-26.367,-32.715,-28.809,0.000,0
157966.875,-16.602,-25.391,-28.320,-23.438,0.000,0
157966.879,-38.086,-28.809,-25.879,-43.945,0.000,0
157966.883,-28.809,-32.227,-35.156,-37.598,0.000,0
157966.887,-35.645,-25.879,-35.156,-37.109,0.000,0
157966.891,-53.223,-30.273,-43.457,-39.062,0.000,0
157966.895,-48.828,-29.785,-37.598,-31.250,0.000,0
157966.899,-36.621,-25.879,-29.785,-29.785,0.000,0
157966.903,-29.297,-27.832,-40.527,-16.602,0.000,0
157966.907,-25.879,-26.855,-40.039,-18.555,0.000,0
157966.911,-29.297,-24.902,-39.551,-25.879,0.000,0
157966.915,-34.180,-26.855,-35.156,-29.785,0.000,0
157966.918,-29.785,-27.344,-32.715,-35.156,0.000,0
157966.922,-25.391,-24.414,-36.133,-26.855,0.000,0
157966.926,-31.250,-27.344,-33.691,-21.484,0.000,0
157966.930,-33.203,-30.273,-35.156,-4.883,0.000,0
157966.934,-29.785,-29.297,-39.551,-10.254,0.000,0
157966.938,-29.785,-30.273,-32.715,-36.133,0.000,0
157966.942,-36.133,-25.391,-27.832,-28.320,0.000,0
157966.946,-30.762,-24.414,-31.250,-20.508,0.000,0
157966.950,-25.879,-32.715,-29.785,-25.879,0.000,0
157966.954,-28.809,-35.156,-31.250,-31.738,0.000,0
157966.957,-28.320,-31.250,-29.297,-32.227,0.000,0
157966.961,-29.297,-26.855,-27.832,-28.320,0.000,0
157966.965,-22.949,-30.273,-32.227,-17.578,0.000,0
157966.969,-26.367,-36.621,-35.156,-14.160,0.000,0
157966.973,-39.062,-35.645,-31.250,-22.949,0.000,0
157966.977,-36.133,-32.715,-31.250,-31.250,0.000,0
157966.981,-21.484,-31.250,-33.691,-15.625,0.000,0
157966.985,-20.996,-29.297,-29.297,-7.324,0.000,0
157966.989,-29.785,-31.738,-27.344,-26.367,0.000,0
157966.993,-20.996,-28.809,-23.438,-20.508,0.000,0
157966.997,-20.020,-24.414,-20.020,-20.996,0.000,0
157967.000,-24.902,-31.250,-30.762,-27.832,0.000,0
157967.004,-24.902,-35.645,-34.180,-18.555,0.000,0
157967.008,-27.832,-30.762,-28.320,-17.578,0.000,0
157967.012,-28.320,-37.109,-29.785,-21.973,0.000,0
157967.016,-37.109,-38.086,-34.180,-28.320,0.000,0
157967.020,-42.480,-34.668,-37.598,-30.273,0.000,0
157967.024,-29.785,-32.715,-30.273,-26.367,0.000,0
157967.028,-27.344,-29.785,-23.926,-17.578,0.000,0
157967.032,-35.156,-34.180,-24.414,-15.137,0.000,0
157967.036,-26.855,-37.598,-27.832,-30.273,0.000,0
157967.040,-37.598,-36.133,-29.785,-44.434,0.000,0
157967.043,-43.457,-40.527,-28.809,-38.574,0.000,0
157967.047,-30.273,-32.715,-25.879,-26.367,0.000,0
157967.051,-36.133,-30.273,-24.902,-22.949,0.000,0
157967.055,-43.457,-41.992,-30.273,-27.344,0.000,0
157967.059,-41.992,-40.527,-27.832,-36.133,0.000,0
157967.063,-38.574,-35.645,-27.344,-39.062,0.000,0
157967.067,-33.203,-33.691,-33.203,-28.320,0.000,0
157967.071,-42.480,-40.527,-35.645,-28.320,0.000,0
157967.075,-45.410,-35.645,-26.855,-38.574,0.000,0
157967.079,-26.367,-23.438,-20.508,-31.738,0.000,0
157967.082,-23.438,-28.809,-26.855,-30.762,0.000,0
157967.086,-29.785,-31.250,-32.715,-32.227,0.000,0
157967.090,-41.504,-31.738,-28.320,-36.621,0.000,0
157967.094,-40.527,-37.109,-32.227,-56.152,0.000,0
157967.098,-30.273,-34.668,-33.691,-41.504,0.000,0
157967.102,-35.156,-32.715,-31.250,-29.785,0.000,0
157967.106,-26.855,-26.855,-29.785,-22.461,0.000,0
157967.110,-22.461,-26.855,-23.438,-17.578,0.000,0
157967.114,-23.926,-30.762,-23.438,-25.391,0.000,0
157967.118,-21.484,-27.344,-24.414,-20.020,0.000,0
157967.122,-31.738,-30.762,-32.715,-23.438,0.000,0
157967.125,-36.133,-34.668,-35.156,-33.203,0.000,0
157967.129,-34.668,-27.344,-32.715,-39.062,0.000,0
157967.133,-29.297,-23.438,-24.902,-36.621,0.000,0
157967.137,-29.297,-20.020,-25.879,-31.738,0.000,0
157967.141,-33.691,-20.996,-31.250,-22.461,0.000,0
157967.145,-31.738,-23.438,-28.809,-19.531,0.000,0
157967.149,-33.203,-24.414,-27.832,-26.367,0.000,0
157967.153,-29.297,-26.367,-25.391,-27.832,0.000,0
157967.157,-21.973,-25.879,-29.297,-20.020,0.000,0
157967.161,-28.809,-25.879,-33.203,-23.438,0.000,0
157967.165,-47.363,-29.297,-32.227,-27.344,0.000,0
157967.168,-46.875,-31.738,-37.598,-27.832,0.000,0
157967.172,-32.715,-27.344,-37.109,-47.363,0.000,0
157967.176,-28.809,-26.855,-33.691,-52.246,0.000,0
157967.180,-30.273,-25.879,-27.832,-28.320,0.000,0
157967.184,-20.020,-26.855,-30.273,-29.297,0.000,0
157967.188,-10.254,-27.832,-28.809,-33.203,0.000,0
157967.192,-18.555,-27.344,-28.320,-29.785,0.000,0
157967.196,-29.297,-28.320,-27.344,-24.902,0.000,0
157967.200,-17.578,-20.508,-21.484,-21.484,0.000,0
157967.204,-23.438,-23.926,-28.320,-26.855,0.000,0
157967.207,-38.086,-30.762,-26.855,-20.508,0.000,0
157967.211,-28.809,-27.344,-14.160,-28.320,0.000,0
157967.215,-23.926,-24.414,-16.113,-28.809,0.000,0
157967.219,-21.484,-23.926,-22.949,-7.324,0.000,0
157967.223,-17.090,-20.020,-22.949,-6.836,0.000,0
157967.227,-28.320,-22.461,-24.414,-29.785,0.000,0
157967.231,-20.020,-30.762,-26.367,-32.715,0.000,0
157967.235,-15.625,-28.809,-23.438,-26.855,0.000,0
157967.239,-25.879,-29.297,-23.438,-26.367,0.000,0
157967.243,-27.344,-39.062,-28.809,-27.832,0.000,1
157967.247,-28.809,-38.086,-35.156,-31.738,0.000,0
157967.250,-25.879,-32.715,-33.691,-43.457,0.000,0
157967.254,-20.996,-27.344,-27.344,-33.691,0.000,0
157967.258,-22.461,-24.414,-25.879,-20.996,0.000,0
157967.262,-26.367,-24.414,-31.250,-19.043,0.000,0
157967.266,-13.184,-22.461,-26.367,-17.578,0.000,0
157967.270,-21.484,-26.367,-21.973,-27.344,0.000,0
157967.274,-28.320,-29.297,-28.809,-30.273,0.000,0
157967.278,-20.996,-26.855,-27.344,-34.180,0.000,0
157967.282,-28.320,-30.762,-24.902,-33.691,0.000,0
157967.286,-33.691,-34.180,-27.344,-27.344,0.000,0
157967.290,-25.879,-29.297,-24.902,-33.203,0.000,0
157967.293,-22.949,-25.879,-25.391,-30.273,0.000,0
157967.297,-23.926,-27.832,-24.414,-16.113,0.000,0
157967.301,-24.414,-23.926,-22.461,-20.996,0.000,0
157967.305,-22.949,-18.555,-19.043,-17.578,0.000,0
157967.309,-30.762,-23.438,-22.461,-28.809,0.000,0
157967.313,-37.598,-22.461,-25.391,-36.621,0.000,0
157967.317,-30.762,-20.996,-24.414,-20.996,0.000,0
157967.321,-29.297,-28.809,-29.785,-20.020,0.000,0
157967.325,-29.297,-36.133,-29.785,-19.043,0.000,0
157967.329,-32.227,-30.762,-23.926,-14.648,0.000,0
157967.332,-37.109,-34.668,-29.297,-13.672,0.000,0
157967.336,-41.504,-45.898,-36.133,-24.414,0.000,0
157967.340,-41.016,-38.574,-31.738,-29.297,0.000,0
157967.344,-30.762,-30.762,-22.949,-21.973,0.000,0
157967.348,-26.855,-34.668,-17.578,-21.484,0.000,0
157967.352,-33.203,-26.855,-18.555,-26.367,0.000,0
157967.356,-29.785,-22.461,-26.367,-32.227,0.000,0
157967.360,-25.879,-26.367,-29.297,-26.855,0.000,0
157967.364,-21.973,-26.855,-34.180,-17.090,0.000,0
157967.368,-23.438,-30.762,-27.832,-26.367,0.000,0
157967.372,-24.902,-28.809,-20.996,-24.414,0.000,0
157967.375,-18.555,-25.879,-24.902,-24.414,0.000,0
157967.379,-16.602,-32.715,-23.438,-35.156,0.000,0
157967.383,-31.250,-33.691,-27.832,-35.645,0.000,0
157967.387,-27.832,-32.715,-29.297,-28.320,0.000,0
157967.391,-14.160,-29.785,-24.414,-24.902,0.000,0
157967.395,-12.695,-27.832,-26.367,-12.695,0.000,0
157967.399,-12.207,-30.273,-31.738,-5.859,0.000,0
157967.403,-21.484,-31.250,-35.156,-20.020,0.000,0
157967.407,-36.133,-38.086,-38.086,-28.320,0.000,0
157967.411,-34.180,-40.527,-39.551,-30.762,0.000,0
157967.415,-39.551,-35.645,-39.062,-28.809,0.000,0
157967.418,-39.551,-36.621,-36.621,-31.250,0.000,0
157967.422,-33.691,-37.109,-32.227,-25.879,0.000,0
157967.426,-29.297,-33.691,-21.484,-25.391,0.000,0
157967.430,-24.414,-27.832,-19.043,-38.574,0.000,0
157967.434,-37.109,-27.832,-29.297,-33.691,0.000,0
157967.438,-34.668,-31.250,-31.738,-25.391,0.000,0
157967.442,-32.715,-30.762,-27.344,-18.066,0.000,0
157967.446,-45.898,-29.785,-27.344,-22.949,0.000,0
157967.450,-36.621,-29.297,-28.809,-37.598,0.000,0
157967.454,-27.832,-25.879,-29.297,-35.156,0.000,0
157967.457,-30.273,-28.809,-31.738,-34.180,0.000,0
157967.461,-32.227,-35.645,-29.785,-31.738,0.000,0
157967.465,-29.785,-38.574,-31.738,-22.461,0.000,0
157967.469,-29.785,-33.203,-32.227,-32.227,0.000,0
157967.473,-41.016,-26.367,-31.738,-35.156,0.000,0
157967.477,-34.668,-27.344,-32.227,-36.621,0.000,0
157967.481,-25.879,-23.926,-30.273,-32.227,0.000,0
157967.485,-28.320,-24.902,-28.809,-31.250,0.000,0
157967.489,-32.715,-33.203,-31.250,-39.551,0.000,0
157967.493,-31.250,-31.250,-38.574,-29.785,0.000,0
157967.497,-30.762,-35.156,-35.645,-15.625,0.000,0
157967.500,-31.250,-38.086,-35.156,-19.043,0.000,0
157967.504,-29.785,-34.668,-35.645,-35.156,0.000,0
157967.508,-34.668,-31.738,-26.367,-42.480,0.000,0
157967.512,-35.645,-31.250,-29.785,-28.320,0.000,0
157967.516,-22.461,-32.227,-34.668,-33.691,0.000,0
157967.520,-19.043,-32.715,-36.621,-34.180,0.000,0
157967.524,-25.879,-40.527,-38.574,-24.414,0.000,0
157967.528,-30.273,-37.598,-30.273,-41.992,0.000,0
157967.532,-31.738,-36.133,-35.156,-56.641,0.000,0
157967.536,-43.457,-44.922,-48.340,-51.270,0.000,0
157967.540,-41.016,-43.457,-45.898,-34.668,0.000,0
157967.543,-29.297,-35.645,-40.039,-34.668,0.000,0
157967.547,-30.273,-35.645,-35.156,-48.828,0.000,0
157967.551,-31.250,-37.598,-38.086,-36.621,0.000,0
157967.555,-37.598,-39.551,-37.109,-34.180,0.000,0
157967.559,-37.598,-37.109,-37.109,-42.480,0.000,0
157967.563,-22.949,-35.645,-40.527,-26.855,0.000,0
157967.567,-12.695,-37.598,-36.133,-14.648,0.000,0
157967.571,-35.156,-33.691,-30.762,-37.598,0.000,0
157967.575,-56.641,-35.156,-36.133,-38.574,0.000,0
157967.579,-41.504,-33.203,-40.039,-26.367,0.000,0
157967.582,-29.785,-32.715,-40.039,-32.715,0.000,0
157967.586,-32.715,-33.203,-36.621,-40.527,0.000,0
157967.590,-36.621,-24.414,-29.785,-46.387,0.000,0
157967.594,-39.551,-26.367,-34.180,-49.805,0.000,0
157967.598,-41.504,-29.785,-33.691,-35.156,0.000,0
157967.602,-34.668,-30.762,-32.715,-21.973,0.000,0
157967.606,-24.414,-32.227,-35.645,-25.391,0.000,0
157967.610,-22.949,-28.320,-35.156,-23.438,0.000,0
157967.614,-16.113,-22.461,-36.133,-20.996,0.000,0
157967.618,-16.602,-25.391,-33.203,-26.855,0.000,0
157967.622,-25.391,-33.203,-30.273,-26.855,0.000,0
157967.625,-29.297,-28.320,-29.785,-30.273,0.000,0
157967.629,-22.461,-26.367,-32.227,-44.434,0.000,0
157967.633,-24.414,-32.715,-36.621,-42.969,0.000,0
157967.637,-20.508,-28.320,-31.738,-19.043,0.000,0
157967.641,-13.184,-24.414,-28.320,-18.066,0.000,0
157967.645,-22.949,-25.391,-21.484,-29.297,0.000,0
157967.649,-22.461,-27.344,-24.902,-23.438,0.000,0
157967.653,-11.719,-25.391,-29.297,-19.043,0.000,0
157967.657,-16.602,-22.949,-24.414,-20.020,0.000,0
157967.661,-20.508,-25.879,-21.484,-19.043,0.000,0
157967.665,-13.184,-23.926,-20.020,-25.391,0.000,0
157967.668,-19.531,-27.832,-26.855,-30.762,0.000,0
157967.672,-32.227,-34.668,-32.715,-28.809,0.000,0
157967.676,-26.367,-33.203,-25.879,-28.320,0.000,0
157967.680,-20.996,-32.227,-22.461,-17.578,0.000,0
157967.684,-29.785,-37.598,-30.762,-19.531,0.000,0
157967.688,-32.227,-31.738,-27.344,-38.086,0.000,0
157967.692,-36.133,-24.902,-25.879,-38.086,0.000,0
157967.696,-37.598,-29.297,-29.785,-38.574,0.000,0
157967.700,-27.832,-29.297,-29.297,-32.227,0.000,0
157967.704,-31.738,-31.250,-31.738,-22.949,0.000,0
157967.707,-35.645,-31.250,-34.668,-38.086,0.000,0
157967.711,-27.832,-29.785,-34.668,-37.598,0.000,0
157967.715,-25.879,-34.180,-31.738,-12.695,0.000,0
157967.719,-25.391,-24.902,-24.902,-13.184,0.000,0
157967.723,-17.578,-21.973,-24.414,-26.367,0.000,0
157967.727,-20.020,-26.855,-31.250,-31.738,0.000,0
157967.731,-32.227,-28.320,-34.668,-36.133,0.000,0
157967.735,-28.320,-30.273,-29.297,-37.109,0.000,0
157967.739,-19.531,-29.297,-31.250,-11.230,0.000,0
157967.743,-18.066,-28.320,-34.668,-8.789,0.000,0
157967.747,-16.602,-28.320,-28.320,-18.066,0.000,0
157967.750,-15.137,-31.738,-26.367,-14.160,0.000,0
157967.754,-24.902,-31.738,-27.832,-15.137,0.000,0
157967.758,-29.297,-32.227,-31.738,-20.508,0.000,0
157967.762,-19.531,-36.621,-34.180,-27.344,0.000,0
157967.766,-33.203,-40.527,-35.645,-36.133,0.000,0
157967.770,-46.875,-40.527,-41.016,-42.480,0.000,0
157967.774,-35.156,-40.527,-41.016,-22.949,0.000,0
157967.778,-38.086,-36.621,-39.062,-7.812,0.000,0
157967.782,-40.039,-37.109,-38.086,-12.695,0.000,0
157967.786,-39.551,-39.551,-38.574,-29.785,0.000,0
157967.790,-31.250,-31.250,-39.551,-34.668,0.000,0
157967.793,-20.020,-30.273,-34.668,-16.113,0.000,0
157967.797,-30.273,-32.715,-38.574,-14.648,0.000,0
157967.801,-39.062,-34.668,-41.016,-38.086,0.000,0
157967.805,-39.551,-36.133,-33.691,-47.363,0.000,0
157967.809,-35.156,-35.156,-34.668,-25.391,0.000,0
157967.813,-35.156,-33.203,-36.621,-29.785,0.000,0
157967.817,-32.227,-27.832,-36.621,-26.367,0.000,0
157967.821,-21.484,-21.973,-31.738,-22.461,0.000,0
157967.825,-19.531,-21.484,-23.926,-34.180,0.000,0
157967.829,-29.297,-24.902,-32.227,-22.949,0.000,0
157967.832,-26.367,-29.785,-39.551,-20.508,0.000,0
157967.836,-25.879,-35.156,-36.133,-37.109,0.000,0
157967.840,-36.133,-36.621,-33.203,-35.156,0.000,0
157967.844,-30.273,-34.180,-28.320,-40.527,0.000,0
157967.848,-36.133,-31.250,-27.832,-46.387,0.000,1
157967.852,-38.086,-30.762,-34.668,-33.203,0.000,0
157967.856,-27.344,-26.855,-33.691,-27.344,0.000,0
157967.860,-24.414,-27.832,-27.344,-29.297,0.000,0
157967.864,-32.715,-32.227,-25.391,-33.691,0.000,0
157967.868,-27.832,-28.320,-22.949,-25.391,0.000,0
157967.872,-24.902,-30.273,-26.367,-23.926,0.000,0
157967.875,-35.156,-33.691,-32.715,-37.598,0.000,0
157967.879,-37.598,-33.203,-37.598,-30.273,0.000,0
157967.883,-35.156,-33.691,-31.250,-34.180,0.000,0
157967.887,-36.621,-28.320,-24.902,-41.504,0.000,0
157967.891,-30.762,-28.809,-27.832,-28.809,0.000,0
157967.895,-36.621,-35.156,-27.832,-27.832,0.000,0
157967.899,-44.922,-35.156,-27.344,-29.297,0.000,0
157967.903,-32.227,-31.250,-22.461,-36.133,0.000,0
157967.907,-25.391,-27.832,-21.484,-38.086,0.000,0
157967.911,-20.508,-26.855,-23.438,-30.273,0.000,0
157967.915,-15.137,-27.344,-25.391,-24.902,0.000,0
157967.918,-22.461,-29.297,-31.738,-30.273,0.000,0
157967.922,-30.762,-39.062,-34.180,-41.016,0.000,0
157967.926,-32.715,-41.016,-30.762,-35.156,0.000,0
157967.930,-38.574,-35.156,-21.973,-24.902,0.000,0
157967.934,-20.996,-36.621,-24.414,-20.020,0.000,0
157967.938,-20.996,-33.203,-23.926,-22.949,0.000,0
157967.942,-31.738,-33.691,-19.043,-29.785,0.000,0
157967.946,-29.297,-32.227,-27.344,-35.156,0.000,0
157967.950,-28.320,-24.902,-26.855,-28.809,0.000,0
157967.954,-30.273,-27.344,-24.902,-27.344,0.000,0
157967.957,-35.156,-31.250,-17.578,-34.180,0.000,0
157967.961,-31.250,-31.250,-15.625,-32.227,0.000,0
157967.965,-34.668,-26.855,-21.973,-31.250,0.000,0
157967.969,-39.062,-26.367,-26.855,-22.461,0.000,0
157967.973,-32.227,-31.250,-21.973,-30.273,0.000,0
157967.977,-25.879,-30.762,-21.484,-24.902,0.000,0
157967.981,-27.344,-27.344,-30.762,-20.508,0.000,0
157967.985,-32.715,-34.668,-38.086,-39.062,0.000,0
157967.989,-31.738,-30.762,-31.738,-37.598,0.000,0
157967.993,-29.785,-23.438,-31.250,-27.832,0.000,0
157967.997,-25.391,-28.320,-32.227,-29.297,0.000,0
157968.000,-20.996,-32.227,-24.902,-28.809,0.000,0
157968.004,-24.414,-31.250,-29.297,-22.461,0.000,0
157968.008,-30.762,-30.762,-26.855,-21.973,0.000,0
157968.012,-32.715,-34.180,-26.367,-25.391,0.000,0
157968.016,-35.645,-29.297,-29.297,-25.879,0.000,0
157968.020,-25.879,-22.949,-20.508,-19.043,0.000,0
157968.024,-21.973,-24.414,-22.949,-20.020,0.000,0
157968.028,-14.648,-24.902,-24.414,-19.531,0.000,0
157968.032,0.977,-19.043,-17.578,-2.930,0.000,0
157968.036,-16.602,-24.902,-25.391,-16.602,0.000,0
157968.040,-35.156,-26.367,-28.809,-32.715,0.000,0
157968.043,-31.250,-26.367,-28.809,-36.621,0.000,0
157968.047,-25.879,-31.250,-28.320,-32.715,0.000,0
157968.051,-37.109,-27.832,-23.438,-33.691,0.000,0
157968.055,-28.809,-25.879,-26.855,-31.738,0.000,0
157968.059,-21.973,-28.320,-33.203,-20.020,0.000,0
157968.063,-29.785,-32.227,-31.250,-25.879,0.000,0
157968.067,-20.996,-29.297,-23.926,-12.207,0.000,0
157968.071,-21.973,-23.438,-28.320,-3.906,0.000,0
157968.075,-31.250,-26.855,-29.785,-13.672,0.000,0
157968.079,-30.273,-28.320,-26.855,-19.043,0.000,0
157968.082,-36.621,-31.250,-30.762,-32.715,0.000,0
157968.086,-40.527,-31.738,-31.738,-39.551,0.000,0
157968.090,-31.738,-28.320,-30.273,-32.227,0.000,0
157968.094,-17.090,-25.879,-26.367,-10.742,0.000,0
157968.098,-14.160,-23.438,-21.973,-9.277,0.000,0
157968.102,-17.578,-24.414,-20.020,-27.344,0.000,0
157968.106,-19.531,-28.809,-25.391,-20.508,0.000,0
157968.110,-16.602,-29.297,-23.926,-12.207,0.000,0
157968.114,-21.973,-31.250,-31.738,-25.879,0.000,0
157968.118,-35.156,-35.156,-34.668,-22.949,0.000,0
157968.122,-29.785,-34.668,-24.414,-20.020,0.000,0
157968.125,-20.508,-36.621,-25.391,-26.367,0.000,0
157968.129,-29.297,-35.645,-29.297,-30.762,0.000,0
157968.133,-33.203,-26.855,-27.344,-25.879,0.000,0
157968.137,-23.438,-29.785,-22.461,-22.949,0.000,0
157968.141,-18.555,-32.227,-19.043,-24.902,0.000,0
157968.145,-28.320,-34.668,-33.691,-11.230,0.000,0
157968.149,-35.645,-43.945,-42.969,-15.625,0.000,0
157968.153,-40.039,-35.156,-33.691,-31.738,0.000,0
157968.157,-26.367,-28.320,-28.320,-35.156,0.000,0
157968.161,-16.602,-31.738,-31.250,-37.109,0.000,0
157968.165,-16.602,-22.461,-31.738,-35.645,0.000,0
157968.168,-10.742,-20.996,-29.785,-23.438,0.000,0
157968.172,-20.020,-29.297,-30.273,-19.531,0.000,0
157968.176,-21.484,-26.855,-24.902,-22.461,0.000,0
157968.180,-19.531,-25.879,-21.484,-29.297,0.000,0
157968.184,-28.809,-23.926,-29.297,-24.902,0.000,0
157968.188,-15.625,-21.973,-24.902,-19.043,0.000,0
157968.192,-15.137,-27.344,-21.973,-6.348,0.000,0
157968.196,-20.020,-25.879,-25.879,-16.113,0.000,0
157968.200,-19.531,-34.180,-29.785,-25.391,0.000,0
157968.204,-34.180,-36.133,-29.297,-21.973,0.000,0
157968.207,-31.250,-22.461,-22.461,-26.367,0.000,0
157968.211,-31.250,-23.926,-19.043,-24.414,0.000,0
157968.215,-40.039,-31.738,-21.973,-30.762,0.000,0
157968.219,-22.461,-27.832,-25.879,-32.715,0.000,0
157968.223,-10.742,-19.043,-20.996,-15.625,0.000,0
157968.227,-15.625,-21.973,-18.066,-18.066,0.000,0
157968.231,-14.160,-22.949,-25.391,-23.438,0.000,0
157968.235,-27.344,-26.367,-32.715,-29.785,0.000,0
157968.239,-30.273,-30.273,-25.391,-36.621,0.000,0
157968.243,-28.809,-23.926,-17.578,-21.484,0.000,0
157968.247,-30.762,-22.461,-14.160,-7.324,0.000,0
157968.250,-16.113,-19.531,-15.137,-9.766,0.000,0
157968.254,-15.137,-18.066,-17.578,-28.320,0.000,0
157968.258,-23.926,-20.508,-15.625,-39.062,0.000,0
157968.262,-21.973,-23.438,-24.902,-38.574,0.000,0
157968.266,-20.020,-27.832,-29.297,-35.645,0.000,0
157968.270,-16.113,-24.902,-25.391,-21.484,0.000,0
157968.274,-14.160,-27.832,-27.344,-15.625,0.000,0
157968.278,-19.531,-33.203,-29.297,-32.227,0.000,0
157968.282,-18.066,-26.367,-30.762,-29.785,0.000,0
157968.286,-14.648,-22.949,-28.809,-17.578,0.000,0
157968.290,-23.926,-28.809,-29.297,-29.785,0.000,0
157968.293,-31.738,-25.879,-36.621,-31.738,0.000,0
157968.297,-21.484,-23.926,-40.039,-32.227,0.000,0
157968.301,-25.391,-26.367,-31.250,-43.945,0.000,0
157968.305,-35.156,-19.531,-24.902,-31.250,0.000,0
157968.309,-26.367,-19.043,-29.785,-22.949,0.000,0
157968.313,-20.020,-20.020,-26.367,-19.531,0.000,0
157968.317,-25.879,-24.414,-26.855,-14.648,0.000,0
157968.321,-25.879,-28.809,-33.691,-18.555,0.000,0
157968.325,-22.949,-22.949,-28.809,-13.184,0.000,0
157968.329,-21.973,-26.855,-25.391,-21.973,0.000,0
157968.332,-20.020,-23.926,-23.438,-27.344,0.000,0
157968.336,-26.855,-11.230,-19.043,-18.555,0.000,0
157968.340,-18.555,-14.160,-20.508,-23.926,0.000,0
157968.344,-5.371,-16.602,-20.508,-25.391,0.000,0
157968.348,-15.625,-16.113,-20.508,-22.949,0.000,0
157968.352,-21.484,-15.625,-19.531,-26.367,0.000,0
157968.356,-20.020,-20.508,-16.113,-20.020,0.000,0
157968.360,-15.625,-22.949,-17.090,-2.441,0.000,0
157968.364,-16.113,-16.602,-19.043,-11.719,0.000,0
157968.368,-25.391,-19.043,-22.949,-29.297,0.000,0
157968.372,-19.531,-20.996,-22.949,-20.508,0.000,0
157968.375,-14.160,-20.996,-21.973,-19.043,0.000,0
157968.379,-24.414,-23.438,-27.344,-29.785,0.000,0
157968.383,-27.832,-22.949,-32.227,-16.113,0.000,0
157968.387,-28.809,-26.855,-38.086,-6.348,0.000,0
157968.391,-19.531,-26.367,-27.832,-5.371,0.000,0
157968.395,-20.020,-21.484,-17.578,-2.441,0.000,0
157968.399,-24.414,-21.973,-29.297,-14.160,0.000,0
157968.403,-25.879,-23.438,-31.250,-23.926,0.000,0
157968.407,-20.996,-19.531,-22.461,-17.578,0.000,0
157968.411,-22.949,-18.555,-26.367,-16.602,0.000,0
157968.415,-26.367,-21.973,-25.879,-18.066,0.000,0
157968.418,-28.320,-23.926,-20.508,-15.625,0.000,0
157968.422,-32.715,-20.508,-29.297,-20.020,0.000,0
157968.426,-18.555,-15.137,-28.320,-17.090,0.000,0
157968.430,-19.043,-16.113,-25.879,-10.742,0.000,0
157968.434,-21.973,-15.625,-24.414,-26.367,0.000,0
157968.438,-14.160,-19.043,-21.973,-23.438,0.000,0
157968.442,-19.043,-18.555,-22.461,-13.672,0.000,0
157968.446,-25.879,-20.508,-24.414,-19.043,0.000,0
157968.450,-31.250,-27.832,-28.320,-10.742,0.000,0
157968.454,-23.438,-26.855,-24.414,-13.672,0.000,0
157968.457,-25.879,-25.391,-26.855,-21.973,0.000,0
157968.461,-28.320,-21.484,-25.879,-12.695,0.000,0
157968.465,-23.438,-17.578,-18.555,-6.348,0.000,0
157968.469,-24.414,-19.043,-20.996,-15.625,0.000,0
157968.473,-22.461,-20.508,-16.113,-21.484,0.000,0
157968.477,-16.602,-27.832,-16.602,-25.391,0.000,0
157968.481,-25.879,-32.227,-19.043,-33.691,0.000,1
157968.485,-24.414,-25.391,-16.602,-27.344,0.000,0
157968.489,-12.695,-26.855,-23.926,-12.695,0.000,0
157968.493,-24.902,-30.762,-19.043,-16.113,0.000,0
157968.497,-30.273,-31.250,-19.043,-11.719,0.000,0
157968.500,-25.391,-28.809,-25.391,0.000,0.000,0
157968.504,-8.301,-24.902,-16.602,-7.324,0.000,0
157968.508,-5.859,-22.461,-19.531,-16.602,0.000,0
157968.512,-12.695,-17.090,-18.555,-13.672,0.000,0
157968.516,-18.555,-16.113,-13.184,-15.625,0.000,0
157968.520,-19.043,-16.602,-15.625,-12.695,0.000,0
157968.524,-15.137,-17.090,-12.695,-5.859,0.000,0
157968.528,-20.508,-14.160,-14.648,-8.789,0.000,0
157968.532,-31.738,-7.812,-11.719,-18.066,0.000,0
157968.536,-24.902,-8.789,-13.184,-31.250,0.000,0
157968.540,-18.555,-11.230,-13.184,-30.762,0.000,0
157968.543,-23.926,-12.207,-10.742,-19.043,0.000,0
157968.547,-17.090,-18.066,-20.996,-12.695,0.000,0
157968.551,-17.090,-22.949,-25.391,-20.996,0.000,0
157968.555,-26.367,-30.762,-22.461,-25.391,0.000,0
157968.559,-27.344,-32.715,-26.367,-19.531,0.000,0
157968.563,-27.344,-22.461,-22.461,-19.043,0.000,0
157968.567,-21.973,-22.949,-18.066,-2.930,0.000,0
157968.571,-14.648,-26.367,-17.090,-11.719,0.000,0
157968.575,-18.066,-25.391,-19.531,-26.855,0.000,0
157968.579,-11.230,-27.344,-25.879,-20.508,0.000,0
157968.582,-9.277,-31.738,-21.973,-21.973,0.000,0
157968.586,-17.090,-30.762,-16.602,-16.113,0.000,0
157968.590,-13.184,-33.203,-23.926,-17.090,0.000,0
157968.594,-12.207,-33.691,-25.879,-19.043,0.000,0
157968.598,-18.555,-25.879,-21.973,-12.695,0.000,0
157968.602,-14.648,-26.367,-21.484,-4.883,0.000,0
157968.606,-10.254,-23.926,-23.438,-5.371,0.000,0
157968.610,-11.230,-26.367,-25.879,-21.973,0.000,0
157968.614,-18.066,-31.250,-28.320,-19.531,0.000,0
157968.618,-22.949,-28.320,-31.250,-23.926,0.000,0
157968.622,-24.902,-25.391,-30.273,-32.715,0.000,0
157968.625,-12.695,-17.090,-23.438,-15.137,0.000,0
157968.629,-11.719,-15.137,-17.578,-9.766,0.000,0
157968.633,-19.531,-16.113,-13.672,-19.043,0.000,0
157968.637,-6.348,-21.484,-13.184,-14.160,0.000,0
157968.641,-5.859,-31.250,-20.020,-15.137,0.000,0
157968.645,-24.902,-26.855,-23.926,-22.461,0.000,0
157968.649,-38.574,-26.855,-22.949,-28.320,0.000,0
157968.653,-40.039,-33.691,-32.227,-36.133,0.000,0
157968.657,-32.715,-37.109,-35.645,-32.227,0.000,0
157968.661,-36.621,-36.621,-31.738,-25.879,0.000,0
157968.665,-34.668,-33.691,-33.691,-17.578,0.000,0
157968.668,-28.320,-33.691,-31.738,-13.184,0.000,0
157968.672,-33.203,-25.391,-29.785,-18.066,0.000,0
157968.676,-34.180,-22.461,-28.809,-20.996,0.000,0
157968.680,-27.344,-28.809,-28.809,-24.902,0.000,0
157968.684,-22.949,-35.156,-34.668,-38.574,0.000,0
157968.688,-24.902,-38.574,-36.133,-39.551,0.000,0
157968.692,-24.414,-36.621,-32.715,-36.133,0.000,0
157968.696,-28.320,-42.480,-38.086,-32.715,0.000,0
157968.700,-23.926,-37.109,-36.621,-20.020,0.000,0
157968.704,-22.949,-32.227,-32.715,-9.277,0.000,0
157968.707,-25.879,-36.133,-32.715,-24.414,0.000,0
157968.711,-24.414,-31.738,-33.691,-41.504,0.000,0
157968.715,-27.344,-27.832,-33.203,-32.227,0.000,0
157968.719,-23.438,-23.438,-23.926,-38.086,0.000,0
157968.723,-26.855,-23.926,-23.926,-24.414,0.000,0
157968.727,-11.230,-29.297,-25.391,-5.859,0.000,0
157968.731,-16.113,-24.414,-26.367,-33.691,0.000,0
157968.735,-35.645,-23.438,-26.855,-39.551,0.000,0
157968.739,-28.320,-28.809,-26.855,-18.066,0.000,0
157968.743,-20.508,-31.250,-30.762,-15.137,0.000,0
157968.747,-26.855,-31.738,-33.691,-12.207,0.000,0
157968.750,-32.715,-32.715,-31.250,-14.648,0.000,0
157968.754,-28.320,-33.203,-27.832,-19.531,0.000,0
157968.758,-28.809,-26.367,-26.367,-17.578,0.000,0
157968.762,-27.832,-30.273,-32.715,-19.531,0.000,0
157968.766,-50.293,-32.227,-28.809,-29.785,0.000,0
157968.770,-47.852,-27.832,-23.926,-29.785,0.000,0
157968.774,-26.855,-26.855,-29.297,-19.043,0.000,0
157968.778,-23.438,-22.949,-26.367,-20.996,0.000,0
157968.782,-22.949,-18.555,-24.902,-27.832,0.000,0
157968.786,-17.578,-23.438,-17.578,-36.621,0.000,0
157968.790,-9.277,-26.855,-12.695,-34.668,0.000,0
157968.793,-4.883,-22.949,-22.949,-30.762,0.000,0
157968.797,-12.695,-24.414,-25.391,-24.902,0.000,0
157968.801,-17.090,-33.203,-23.438,-17.578,0.000,0
157968.805,-23.438,-30.762,-20.508,-30.762,0.000,0
157968.809,-27.344,-26.855,-26.855,-33.691,0.000,0
157968.813,-19.043,-25.879,-33.691,-20.996,0.000,0
157968.817,-17.090,-23.438,-32.227,-29.785,0.000,0
157968.821,-10.254,-24.902,-28.809,-20.996,0.000,0
157968.825,-8.301,-24.902,-19.531,-3.906,0.000,0
157968.829,-15.625,-20.996,-26.855,-18.555,0.000,0
157968.832,-18.555,-24.414,-31.250,-31.738,0.000,0
157968.836,-15.625,-22.461,-20.508,-14.160,0.000,0
157968.840,-17.578,-17.578,-20.508,-8.301,0.000,0
157968.844,-27.344,-19.043,-25.879,-28.809,0.000,0
157968.848,-31.738,-26.367,-31.250,-29.785,0.000,0
157968.852,-31.250,-27.832,-30.273,-19.531,0.000,0
157968.856,-32.227,-24.902,-31.738,-25.391,0.000,0
157968.860,-24.414,-25.391,-32.715,-24.902,0.000,0
157968.864,-25.391,-24.902,-25.391,-29.785,0.000,0
157968.868,-31.738,-31.250,-25.879,-32.227,0.000,0
157968.872,-13.672,-29.297,-27.344,-15.137,0.000,0
157968.875,-8.789,-29.785,-26.855,-7.324,0.000,0
157968.879,-27.344,-34.668,-29.785,-20.020,0.000,0
157968.883,-19.531,-33.691,-25.879,-29.785,0.000,0
157968.887,-14.160,-29.297,-25.391,-32.715,0.000,0
157968.891,-16.602,-27.344,-37.109,-29.297,0.000,0
157968.895,-19.531,-33.691,-41.992,-37.109,0.000,0
157968.899,-35.156,-37.598,-41.504,-34.180,0.000,0
157968.903,-38.574,-39.551,-40.039,-27.832,0.000,0
157968.907,-41.992,-38.574,-37.109,-40.527,0.000,0
157968.911,-38.086,-31.738,-34.668,-38.574,0.000,0
157968.915,-27.344,-23.438,-29.297,-26.367,0.000,0
157968.918,-22.461,-25.879,-32.715,-26.367,0.000,0
157968.922,-18.066,-30.273,-31.738,-25.879,0.000,0
157968.926,-23.926,-28.320,-30.762,-31.250,0.000,0
157968.930,-24.414,-33.691,-29.785,-38.086,0.000,0
157968.934,-25.391,-34.180,-28.809,-27.832,0.000,0
157968.938,-28.320,-28.809,-34.668,-24.902,0.000,0
157968.942,-23.438,-28.809,-26.855,-31.738,0.000,0
157968.946,-30.762,-31.738,-28.809,-39.551,0.000,0
157968.950,-35.156,-34.180,-35.645,-30.273,0.000,0
157968.954,-32.227,-34.668,-39.551,-38.574,0.000,0
157968.957,-41.016,-38.086,-38.574,-39.062,0.000,0
157968.961,-38.086,-34.668,-28.809,-16.113,0.000,0
157968.965,-23.926,-25.879,-25.879,-19.043,0.000,0
157968.969,-15.625,-23.926,-24.414,-12.695,0.000,0
157968.973,-23.926,-22.461,-30.273,-9.766,0.000,0
157968.977,-22.461,-17.578,-29.297,-2.930,0.000,0
157968.981,-3.418,-17.578,-23.926,-3.418,0.000,0
157968.985,-11.230,-20.508,-22.461,-14.648,0.000,0
157968.989,-17.578,-14.648,-20.020,-9.277,0.000,0
157968.993,-21.973,-12.695,-24.414,-3.906,0.000,0
157968.997,-28.809,-18.066,-25.879,-9.277,0.000,0
157969.000,-29.297,-18.555,-20.996,-13.672,0.000,0
157969.004,-32.715,-21.973,-20.020,-17.578,0.000,0
157969.008,-32.227,-26.367,-20.996,-20.020,0.000,0
157969.012,-29.785,-19.043,-21.973,-16.602,0.000,0
157969.016,-28.320,-17.090,-26.367,-19.531,0.000,0
157969.020,-22.949,-19.043,-27.344,-18.066,0.000,0
157969.024,-27.832,-17.090,-25.879,-15.137,0.000,0
157969.028,-35.645,-16.602,-30.273,-13.672,0.000,0
157969.032,-33.203,-20.508,-27.832,-7.812,0.000,0
157969.036,-28.320,-18.066,-25.879,-8.301,0.000,0
157969.040,-23.926,-20.508,-25.391,-24.414,0.000,0
157969.043,-15.137,-24.414,-16.113,-28.809,0.000,0
157969.047,-10.254,-20.996,-16.602,-19.531,0.000,0
157969.051,-7.812,-19.043,-21.973,-18.555,0.000,0
157969.055,-4.883,-23.926,-28.320,-19.043,0.000,0
157969.059,-11.719,-25.879,-27.832,-17.090,0.000,0
157969.063,-11.719,-16.113,-19.043,-17.090,0.000,0
157969.067,-11.719,-21.484,-23.438,-22.461,0.000,0
157969.071,-22.461,-32.715,-30.762,-30.273,0.000,0
157969.075,-31.738,-31.250,-32.227,-25.879,0.000,0
157969.079,-33.691,-35.156,-33.691,-28.320,0.000,0
157969.082,-32.715,-34.668,-35.645,-41.992,0.000,0
157969.086,-29.785,-32.227,-40.039,-30.762,0.000,0
157969.090,-24.414,-29.785,-35.156,-14.648,0.000,0
157969.094,-24.414,-23.926,-26.367,-20.508,0.000,0
157969.098,-27.344,-30.762,-33.203,-31.738,0.000,0
157969.102,-23.926,-35.645,-33.691,-37.109,0.000,0
157969.106,-27.832,-36.133,-32.227,-37.598,0.000,0
157969.110,-29.785,-33.203,-40.527,-35.645,0.000,0
157969.114,-31.250,-25.391,-37.598,-28.809,0.000,0
157969.118,-31.250,-23.926,-34.668,-33.203,0.000,1
157969.122,-27.344,-27.344,-36.133,-41.992,0.000,0
157969.125,-29.297,-31.250,-38.086,-41.016,0.000,0
157969.129,-27.344,-29.785,-34.180,-32.715,0.000,0
157969.133,-20.508,-22.949,-28.320,-35.156,0.000,0
157969.137,-23.438,-20.996,-25.391,-37.109,0.000,0
157969.141,-31.250,-25.879,-24.414,-41.016,0.000,0
157969.145,-19.043,-26.855,-27.832,-35.645,0.000,0
157969.149,-15.137,-29.297,-28.809,-29.785,0.000,0
157969.153,-24.902,-31.738,-29.785,-23.438,0.000,0
157969.157,-22.461,-29.785,-28.320,-25.391,0.000,0
157969.161,-14.160,-27.344,-19.043,-31.738,0.000,0
157969.165,-11.719,-14.160,-18.555,-25.879,0.000,0
157969.168,-16.602,-8.301,-14.648,-20.508,0.000,0
157969.172,-25.879,-12.695,-13.672,-26.367,0.000,0
157969.176,-21.484,-15.137,-21.973,-33.691,0.000,0
157969.180,-18.555,-20.020,-25.391,-33.691,0.000,0
157969.184,-29.785,-17.090,-22.461,-21.973,0.000,0
157969.188,-33.691,-15.625,-21.973,-22.949,0.000,0
157969.192,-27.344,-19.043,-23.438,-25.879,0.000,0
157969.196,-34.668,-20.508,-21.973,-14.160,0.000,0
157969.200,-37.109,-24.414,-18.555,-17.578,0.000,0
157969.204,-30.762,-30.273,-27.344,-28.320,0.000,0
157969.207,-21.973,-24.902,-33.691,-32.715,0.000,0
157969.211,-17.578,-18.555,-25.879,-23.926,0.000,0
157969.215,-26.855,-27.832,-22.461,-25.391,0.000,0
157969.219,-31.738,-30.762,-25.879,-37.109,0.000,0
157969.223,-28.320,-23.926,-31.250,-36.133,0.000,0
157969.227,-36.133,-27.832,-34.668,-30.762,0.000,0
157969.231,-43.945,-34.668,-35.645,-28.320,0.000,0
157969.235,-32.227,-29.785,-34.180,-19.043,0.000,0
157969.239,-19.531,-24.902,-29.785,-21.484,0.000,0
157969.243,-28.809,-21.973,-27.832,-25.391,0.000,0
157969.247,-36.621,-21.973,-31.738,-23.926,0.000,0
157969.250,-33.691,-21.973,-25.879,-24.414,0.000,0
157969.254,-26.367,-23.438,-25.391,-13.184,0.000,0
157969.258,-26.367,-24.414,-22.949,-16.602,0.000,0
157969.262,-34.668,-25.391,-26.855,-18.555,0.000,0
157969.266,-40.527,-30.762,-38.574,-17.578,0.000,0
157969.270,-38.574,-29.297,-32.227,-18.066,0.000,0
157969.274,-22.461,-26.855,-22.949,-7.324,0.000,0
157969.278,-25.391,-28.320,-25.391,-9.277,0.000,0
157969.282,-29.785,-26.367,-27.344,-23.926,0.000,0
157969.286,-16.602,-20.508,-21.973,-19.043,0.000,0
157969.290,-14.160,-24.414,-23.438,-10.742,0.000,0
157969.293,-26.367,-31.250,-30.762,-18.066,0.000,0
157969.297,-24.414,-26.855,-20.020,-21.973,0.000,0
157969.301,-15.625,-26.855,-25.879,-23.926,0.000,0
157969.305,-17.578,-26.367,-34.180,-28.809,0.000,0
157969.309,-17.578,-22.949,-29.297,-32.227,0.000,0
157969.313,-20.020,-20.508,-26.855,-29.785,0.000,0
157969.317,-26.855,-20.020,-25.391,-28.809,0.000,0
157969.321,-26.367,-25.879,-33.203,-33.203,0.000,0
157969.325,-26.855,-33.691,-36.133,-20.020,0.000,0
157969.329,-34.668,-39.062,-34.180,-18.555,0.000,0
157969.332,-27.344,-38.574,-32.715,-29.785,0.000,0
157969.336,-15.625,-29.785,-28.320,-31.738,0.000,0
157969.340,-23.438,-25.391,-28.809,-32.715,0.000,0
157969.344,-28.320,-30.762,-33.203,-31.738,0.000,0
157969.348,-25.879,-31.738,-30.273,-34.180,0.000,0
157969.352,-20.020,-25.391,-20.508,-33.203,0.000,0
157969.356,-20.996,-24.414,-14.648,-31.250,0.000,0
157969.360,-33.691,-26.855,-19.531,-42.969,0.000,0
157969.364,-30.762,-33.691,-33.203,-43.457,0.000,0
157969.368,-18.066,-31.738,-33.203,-26.855,0.000,0
157969.372,-20.020,-27.832,-31.738,-19.531,0.000,0
157969.375,-26.855,-23.926,-31.250,-20.996,0.000,0
157969.379,-27.832,-22.949,-29.297,-24.414,0.000,0
157969.383,-16.602,-27.344,-26.855,-19.043,0.000,0
157969.387,-13.184,-24.902,-23.926,-22.949,0.000,0
157969.391,-21.484,-22.949,-22.461,-12.695,0.000,0
157969.395,-24.414,-29.785,-21.973,-15.137,0.000,0
157969.399,-27.832,-32.227,-25.391,-32.715,0.000,0
157969.403,-23.926,-29.785,-28.809,-13.184,0.000,0
157969.407,-17.578,-22.461,-20.020,-13.672,0.000,0
157969.411,-19.043,-21.484,-21.973,-18.555,0.000,0
157969.415,-17.578,-28.320,-24.414,-12.695,0.000,0
157969.418,-22.461,-24.414,-22.949,-21.484,0.000,0
157969.422,-27.832,-22.461,-27.344,-21.973,0.000,0
157969.426,-24.902,-25.879,-29.297,-18.066,0.000,0
157969.430,-23.438,-25.879,-31.250,-15.137,0.000,0
157969.434,-19.043,-27.344,-18.555,-17.090,0.000,0
157969.438,2.930,-22.949,-6.836,-0.488,0.000,0
157969.442,7.812,-22.949,-17.090,11.719,0.000,0
157969.446,-29.785,-21.484,-22.949,-29.297,0.000,0
157969.450,-39.062,-19.043,-24.902,-39.551,0.000,0
157969.454,-20.996,-20.508,-23.926,-19.043,0.000,0
157969.457,-32.227,-25.879,-31.250,-36.621,0.000,0
157969.461,-41.016,-20.996,-28.809,-35.156,0.000,0
157969.465,-29.785,-15.625,-20.508,-19.531,0.000,0
157969.469,-21.973,-23.438,-32.227,-13.184,0.000,0
157969.473,-19.043,-21.973,-33.691,-9.766,0.000,0
157969.477,-30.273,-21.973,-27.832,-20.996,0.000,0
157969.481,-34.180,-30.273,-33.691,-19.043,0.000,0
157969.485,-20.508,-25.391,-33.203,-23.438,0.000,0
157969.489,-14.160,-18.555,-22.949,-22.461,0.000,0
157969.493,-23.926,-18.555,-19.043,-24.414,0.000,0
157969.497,-33.691,-16.113,-19.531,-38.574,0.000,0
157969.500,-23.438,-14.160,-25.879,-37.598,0.000,0
157969.504,-18.555,-13.672,-27.344,-28.320,0.000,0
157969.508,-28.320,-17.090,-27.832,-20.020,0.000,0
157969.512,-34.180,-14.648,-21.484,-23.438,0.000,0
157969.516,-28.320,-11.719,-19.043,-27.344,0.000,0
157969.520,-18.555,-20.996,-25.391,-19.531,0.000,0
157969.524,-20.996,-22.461,-20.508,-18.066,0.000,0
157969.528,-38.086,-20.020,-15.625,-24.414,0.000,0
157969.532,-29.297,-19.043,-20.020,-20.508,0.000,0
157969.536,-17.578,-14.648,-17.090,-25.879,0.000,0
157969.540,-21.484,-20.508,-23.438,-26.855,0.000,0
157969.543,-18.555,-21.973,-24.414,-6.836,0.000,0
157969.547,-17.090,-19.043,-23.438,-17.578,0.000,0
157969.551,-20.508,-22.949,-29.785,-30.273,0.000,0
157969.555,-21.973,-22.461,-21.973,-25.391,0.000,0
157969.559,-27.344,-24.414,-23.926,-28.320,0.000,0
157969.563,-34.668,-29.785,-36.133,-35.645,0.000,0
157969.567,-17.578,-30.273,-39.551,-23.438,0.000,0
157969.571,-16.113,-29.785,-31.250,-10.254,0.000,0
157969.575,-25.391,-28.320,-27.832,-31.738,0.000,0
157969.579,-30.273,-27.832,-41.504,-42.480,0.000,0
157969.582,-34.668,-29.785,-41.992,-38.574,0.000,0
157969.586,-37.598,-28.809,-32.227,-36.133,0.000,0
157969.590,-38.086,-34.180,-36.621,-29.785,0.000,0
157969.594,-26.855,-40.039,-36.621,-37.109,0.000,0
157969.598,-30.762,-31.250,-32.227,-40.039,0.000,0
157969.602,-30.273,-23.438,-28.809,-29.297,0.000,0
157969.606,-20.020,-23.926,-30.273,-18.066,0.000,0
157969.610,-22.949,-25.879,-34.668,-15.625,0.000,0
157969.614,-21.484,-29.785,-33.203,-30.762,0.000,0
157969.618,-19.043,-32.715,-31.738,-40.039,0.000,0
157969.622,-17.090,-35.156,-31.250,-26.855,0.000,0
157969.625,-16.113,-31.250,-31.738,-28.809,0.000,0
157969.629,-24.902,-29.785,-38.086,-35.156,0.000,0
157969.633,-19.531,-29.785,-36.133,-28.809,0.000,0
157969.637,-14.160,-29.785,-32.227,-26.367,0.000,0
157969.641,-22.949,-30.273,-33.203,-18.555,0.000,0
157969.645,-27.832,-28.320,-27.832,-24.902,0.000,0
157969.649,-24.414,-28.320,-27.832,-26.855,0.000,0
157969.653,-22.949,-23.926,-33.203,-25.879,0.000,0
157969.657,-31.250,-24.414,-36.621,-27.344,0.000,0
157969.661,-30.762,-30.273,-37.109,-20.020,0.000,0
157969.665,-24.902,-25.879,-27.832,-18.555,0.000,0
157969.668,-27.832,-27.832,-24.902,-19.531,0.000,0
157969.672,-27.832,-39.062,-26.367,-21.973,0.000,0
157969.676,-36.621,-40.039,-25.879,-32.715,0.000,0
157969.680,-36.133,-33.203,-22.949,-29.297,0.000,0
157969.684,-23.926,-31.738,-26.855,-15.625,0.000,0
157969.688,-32.227,-32.715,-32.227,-20.996,0.000,0
157969.692,-39.551,-29.297,-26.367,-16.602,0.000,0
157969.696,-27.832,-24.902,-21.973,-11.719,0.000,0
157969.700,-24.414,-28.320,-26.855,-25.879,0.000,0
157969.704,-28.809,-29.297,-28.809,-38.086,0.000,0
157969.707,-25.391,-20.508,-20.508,-28.320,0.000,0
157969.711,-17.578,-19.043,-20.508,-20.508,0.000,0
157969.715,-11.719,-26.367,-24.902,-31.250,0.000,0
157969.719,-23.926,-31.738,-27.832,-34.180,0.000,0
157969.723,-27.344,-27.344,-26.367,-23.926,0.000,0
157969.727,-29.785,-31.250,-29.785,-20.020,0.000,0
157969.731,-34.180,-36.133,-31.250,-21.484,0.000,0
157969.735,-31.738,-33.691,-32.227,-34.180,0.000,0
157969.739,-29.785,-32.227,-33.691,-45.898,0.000,0
157969.743,-22.461,-29.297,-28.320,-35.156,0.000,0
157969.747,-32.227,-28.809,-31.250,-23.438,0.000,0
157969.750,-39.551,-28.809,-33.203,-27.832,0.000,0
157969.754,-30.273,-28.809,-32.715,-30.762,0.000,0
157969.758,-29.297,-33.691,-36.133,-22.461,0.000,0
157969.762,-34.668,-37.109,-31.250,-14.648,0.000,0
157969.766,-24.414,-27.344,-30.762,-18.066,0.000,0
157969.770,-14.160,-23.926,-29.785,-14.160,0.000,0
157969.774,-25.879,-26.855,-36.133,-21.973,0.000,0
157969.778,-34.180,-31.738,-40.039,-34.668,0.000,1
157969.782,-27.832,-32.227,-31.250,-27.832,0.000,0
157969.786,-13.184,-27.832,-29.297,-13.672,0.000,0
157969.790,-19.531,-24.414,-25.391,-11.230,0.000,0
157969.793,-15.137,-22.461,-20.508,-19.043,0.000,0
157969.797,-10.742,-20.996,-24.902,-14.648,0.000,0
157969.801,-20.508,-20.996,-31.250,-11.230,0.000,0
157969.805,-10.254,-22.461,-32.227,-14.160,0.000,0
157969.809,-9.766,-19.531,-23.926,-8.301,0.000,0
157969.813,-11.230,-20.996,-20.996,-17.090,0.000,0
157969.817,-7.812,-19.531,-21.484,-22.461,0.000,0
157969.821,-10.742,-19.043,-18.066,-23.438,0.000,0
157969.825,-13.672,-24.414,-24.414,-23.926,0.000,0
157969.829,-10.254,-23.438,-26.855,-14.160,0.000,0
157969.832,-16.113,-23.926,-18.555,-16.113,0.000,0
157969.836,-20.996,-25.391,-22.461,-13.184,0.000,0
157969.840,-17.090,-19.531,-25.391,-6.836,0.000,0
157969.844,-24.902,-20.508,-24.414,-10.742,0.000,0
157969.848,-21.973,-16.602,-24.414,-9.766,0.000,0
157969.852,-17.578,-11.230,-17.578,-16.602,0.000,0
157969.856,-23.926,-18.555,-21.973,-29.297,0.000,0
157969.860,-19.531,-24.902,-26.855,-20.996,0.000,0
157969.864,-14.648,-26.367,-29.297,-11.230,0.000,0
157969.868,-18.066,-25.879,-28.320,-16.602,0.000,0
157969.872,-20.508,-22.949,-19.531,-23.438,0.000,0
157969.875,-18.066,-20.020,-25.879,-21.973,0.000,0
157969.879,-19.043,-20.508,-30.762,-17.090,0.000,0
157969.883,-11.230,-19.043,-23.926,-14.160,0.000,0
157969.887,-6.836,-17.578,-19.043,-10.254,0.000,0
157969.891,-15.625,-18.066,-20.020,-20.508,0.000,0
157969.895,-16.602,-20.996,-26.367,-23.926,0.000,0
157969.899,-17.090,-23.438,-28.320,-7.812,0.000,0
157969.903,-21.973,-23.438,-21.484,-3.906,0.000,0
157969.907,-13.672,-27.344,-21.973,-14.648,0.000,0
157969.911,-17.578,-31.250,-28.809,-18.555,0.000,0
157969.915,-14.160,-22.949,-24.902,-18.066,0.000,0
157969.918,-15.137,-21.484,-19.531,-21.484,0.000,0
157969.922,-22.461,-25.879,-25.879,-18.066,0.000,0
157969.926,-24.902,-27.832,-27.344,-20.508,0.000,0
157969.930,-29.297,-24.902,-24.414,-35.156,0.000,0
157969.934,-25.879,-20.996,-22.461,-17.578,0.000,0
157969.938,-22.461,-30.762,-23.438,3.418,0.000,0
157969.942,-17.090,-33.203,-29.785,-24.902,0.000,0
157969.946,-28.809,-26.367,-21.484,-45.898,0.000,0
157969.950,-27.832,-28.320,-24.902,-46.875,0.000,0
157969.954,-21.484,-27.832,-36.621,-37.109,0.000,0
157969.957,-31.250,-24.414,-35.156,-27.832,0.000,0
157969.961,-27.344,-19.531,-35.645,-20.996,0.000,0
157969.965,-22.949,-20.508,-31.738,-16.113,0.000,0
157969.969,-26.367,-20.508,-14.648,-23.438,0.000,0
157969.973,-27.832,-13.672,-1.953,-20.996,0.000,0
157969.977,-28.809,-19.531,3.906,-18.555,0.000,0
157969.981,-33.203,-25.391,14.648,-20.996,0.000,0
157969.985,-29.297,-23.926,23.926,-22.461,0.000,0
157969.989,-35.156,-31.738,29.785,-25.879,0.000,0
157969.993,-41.504,-35.645,26.855,-28.320,0.000,0
157969.997,-25.879,-32.227,23.438,-20.508,0.000,0
157970.000,-24.414,-33.203,18.066,-16.602,0.000,0
157970.004,-25.879,-35.156,16.113,-20.508,0.000,0
157970.008,-25.391,-32.227,22.949,-26.855,0.000,0
157970.012,-19.531,-19.043,20.508,-20.996,0.000,0
157970.016,-18.066,-22.949,14.160,-6.836,0.000,0
157970.020,-20.508,-31.250,14.160,-8.789,0.000,0
157970.024,-25.879,-24.902,12.207,-17.578,0.000,0
157970.028,-27.832,-24.414,5.859,-19.531,0.000,0
157970.032,-20.020,-22.461,2.930,-17.090,0.000,0
157970.036,-20.508,-25.879,-2.441,-13.672,0.000,0
157970.040,-15.625,-29.297,-0.977,-8.301,0.000,0
157970.043,-20.508,-29.297,0.000,-18.066,0.000,0
157970.047,-29.297,-23.438,0.977,-30.273,0.000,0
157970.051,-27.344,-21.973,4.883,-23.438,0.000,0
157970.055,-25.879,-25.879,2.930,-27.344,0.000,0
157970.059,-20.508,-22.949,4.883,-20.996,0.000,0
157970.063,-10.742,-21.484,7.324,2.441,0.000,0
157970.067,-4.883,-26.855,3.906,-9.766,0.000,0
157970.071,-9.766,-30.273,-4.883,-23.926,0.000,0
157970.075,-18.066,-25.391,-4.883,-18.555,0.000,0
157970.079,-22.461,-17.578,3.418,-12.207,0.000,0
157970.082,-25.879,-20.996,-1.465,-12.207,0.000,0
157970.086,-27.344,-26.855,-8.789,-28.809,0.000,0
157970.090,-29.785,-29.297,-11.719,-29.785,0.000,0
157970.094,-21.973,-34.668,-14.648,-16.602,0.000,0
157970.098,-17.090,-31.250,-13.672,-12.207,0.000,0
157970.102,-19.531,-27.832,-12.695,-19.043,0.000,0
157970.106,-15.625,-26.855,-10.742,-23.438,0.000,0
157970.110,-10.742,-29.785,-8.301,-14.648,0.000,0
157970.114,-12.207,-22.461,-10.742,-3.418,0.000,0
157970.118,-13.184,-26.855,-20.020,-11.719,0.000,0
157970.122,-15.625,-35.156,-22.461,-23.438,0.000,0
157970.125,-24.902,-23.438,-15.625,-30.762,0.000,0
157970.129,-23.926,-22.949,-20.508,-29.297,0.000,0
157970.133,-15.625,-29.785,-21.484,-25.391,0.000,0
157970.137,-12.207,-24.902,-15.137,-19.531,0.000,0
157970.141,-20.996,-20.508,-16.602,-27.344,0.000,0
157970.145,-18.066,-25.391,-16.113,-31.250,0.000,0
157970.149,-16.602,-25.391,-13.672,-31.738,0.000,0
157970.153,-9.277,-17.090,-9.766,-30.762,0.000,0
157970.157,-10.742,-19.531,-14.160,-24.902,0.000,0
157970.161,-22.949,-24.414,-15.625,-26.367,0.000,0
157970.165,-18.555,-20.996,-12.207,-33.203,0.000,0
157970.168,-24.902,-19.043,-22.461,-35.645,0.000,0
157970.172,-31.738,-28.809,-26.855,-30.762,0.000,0
157970.176,-26.855,-27.832,-22.461,-18.555,0.000,0
157970.180,-23.438,-27.832,-24.902,-27.344,0.000,0
157970.184,-31.738,-28.320,-17.578,-34.180,0.000,0
157970.188,-23.438,-21.484,-18.066,-9.277,0.000,0
157970.192,-20.996,-20.508,-22.949,-13.184,0.000,0
157970.196,-32.227,-24.902,-20.020,-24.414,0.000,0
157970.200,-23.926,-26.855,-16.113,-20.508,0.000,0
157970.204,-18.555,-21.973,-16.113,-30.273,0.000,0
157970.207,-17.090,-17.578,-22.461,-33.203,0.000,0
157970.211,-15.137,-19.043,-21.973,-30.273,0.000,0
157970.215,-15.625,-20.020,-20.996,-20.508,0.000,0
157970.219,-15.625,-18.066,-20.508,-16.113,0.000,0
157970.223,-18.555,-25.391,-18.066,-32.715,0.000,0
157970.227,-29.785,-23.926,-20.508,-41.016,0.000,0
157970.231,-34.180,-20.508,-20.020,-35.645,0.000,0
157970.235,-23.438,-21.484,-22.949,-27.832,0.000,0
157970.239,-25.879,-28.320,-27.832,-23.926,0.000,0
157970.243,-25.879,-28.809,-20.996,-20.020,0.000,0
157970.247,-23.926,-19.043,-20.020,-8.301,0.000,0
157970.250,-26.855,-18.555,-25.391,-2.441,0.000,0
157970.254,-30.273,-20.020,-21.973,-3.906,0.000,0
157970.258,-39.551,-18.066,-20.508,-11.719,0.000,0
157970.262,-28.320,-18.555,-23.926,-18.066,0.000,0
157970.266,-23.926,-20.020,-23.438,-15.137,0.000,0
157970.270,-32.227,-20.996,-25.879,-30.762,0.000,0
157970.274,-35.156,-22.949,-23.438,-38.574,0.000,0
157970.278,-34.180,-24.902,-22.949,-37.109,0.000,0
157970.282,-32.715,-31.250,-24.414,-41.504,0.000,0
157970.286,-31.250,-28.320,-21.484,-37.109,0.000,0
157970.290,-29.297,-22.461,-17.578,-17.578,0.000,0
157970.293,-25.879,-25.879,-16.602,-16.602,0.000,0
157970.297,-18.066,-31.250,-19.043,-25.391,0.000,0
157970.301,-27.832,-25.879,-14.160,-22.461,0.000,0
157970.305,-35.645,-27.832,-20.996,-37.109,0.000,0
157970.309,-32.227,-30.273,-24.414,-37.598,0.000,0
157970.313,-22.461,-26.855,-22.949,-27.344,0.000,0
157970.317,-20.020,-24.414,-24.414,-22.461,0.000,0
157970.321,-33.691,-19.531,-18.555,-24.902,0.000,0
157970.325,-41.992,-25.879,-16.113,-25.879,0.000,0
157970.329,-29.297,-25.879,-18.066,-18.555,0.000,0
157970.332,-23.438,-21.484,-18.066,-26.367,0.000,0
157970.336,-19.043,-21.973,-18.066,-27.344,0.000,0
157970.340,-13.184,-26.367,-20.508,-20.508,0.000,0
157970.344,-20.020,-34.668,-22.949,-31.738,0.000,0
157970.348,-24.414,-26.855,-17.578,-33.203,0.000,0
157970.352,-23.438,-20.996,-15.137,-18.555,0.000,0
157970.356,-29.297,-23.438,-22.949,-18.555,0.000,0
157970.360,-27.832,-23.438,-20.508,-29.297,0.000,0
157970.364,-24.902,-22.949,-12.695,-26.367,0.000,0
157970.368,-20.996,-24.902,-22.949,-28.320,0.000,0
157970.372,-20.996,-29.297,-30.762,-43.945,0.000,0
157970.375,-24.902,-27.344,-26.855,-37.109,0.000,0
157970.379,-29.297,-28.809,-24.414,-29.785,0.000,0
157970.383,-30.273,-32.227,-30.273,-37.109,0.000,0
157970.387,-32.715,-35.156,-39.062,-35.156,0.000,0
157970.391,-25.879,-35.156,-36.621,-26.367,0.000,0
157970.395,-27.344,-33.691,-33.691,-30.273,0.000,0
157970.399,-32.227,-30.762,-29.297,-34.180,0.000,0
157970.403,-26.367,-29.297,-21.484,-24.414,0.000,0
157970.407,-27.832,-22.461,-23.438,-19.043,0.000,0
157970.411,-25.391,-19.531,-23.926,-38.574,0.000,0
157970.415,-22.461,-27.344,-27.344,-33.203,0.000,1
157970.418,-15.137,-29.297,-29.785,-17.578,0.000,0
157970.422,-4.395,-30.762,-28.809,-24.414,0.000,0
157970.426,-11.719,-31.738,-27.832,-25.391,0.000,0
157970.430,-14.648,-23.438,-20.996,-16.113,0.000,0
157970.434,-3.418,-21.973,-17.090,-12.207,0.000,0
157970.438,-8.301,-29.785,-17.578,-16.113,0.000,0
157970.442,-20.996,-33.691,-25.391,-24.902,0.000,0
157970.446,-23.438,-31.738,-27.344,-21.484,0.000,0
157970.450,-26.855,-32.227,-24.414,-11.230,0.000,0
157970.454,-20.996,-29.785,-23.926,0.488,0.000,0
157970.457,-23.438,-29.297,-29.297,-14.648,0.000,0
157970.461,-29.785,-33.203,-29.785,-46.875,0.000,0
157970.465,-27.344,-29.785,-22.461,-29.785,0.000,0
157970.469,-25.879,-30.273,-25.391,-15.137,0.000,0
157970.473,-25.391,-35.156,-30.762,-23.926,0.000,0
157970.477,-27.344,-27.344,-21.973,-26.367,0.000,0
157970.481,-19.043,-22.461,-19.043,-28.809,0.000,0
157970.485,-22.949,-26.367,-23.438,-29.785,0.000,0
157970.489,-23.926,-30.273,-22.949,-26.855,0.000,0
157970.493,-12.207,-31.738,-25.879,-14.648,0.000,0
157970.497,-20.996,-33.203,-25.879,-16.113,0.000,0
157970.500,-28.320,-34.180,-29.785,-27.832,0.000,0
157970.504,-20.996,-37.598,-32.715,-17.090,0.000,0
157970.508,-17.578,-34.668,-36.133,-16.602,0.000,0
157970.512,-18.066,-30.273,-35.645,-26.855,0.000,0
157970.516,-20.996,-28.809,-28.320,-25.391,0.000,0
157970.520,-14.160,-26.855,-26.855,-30.762,0.000,0
157970.524,-7.812,-26.855,-33.203,-25.391,0.000,0
157970.528,-17.090,-27.344,-35.156,-16.602,0.000,0
157970.532,-23.926,-35.156,-33.691,-13.184,0.000,0
157970.536,-22.461,-31.738,-35.645,-12.695,0.000,0
157970.540,-23.926,-27.344,-29.297,-16.602,0.000,0
157970.543,-27.832,-25.391,-23.926,-12.207,0.000,0
157970.547,-23.926,-23.438,-23.438,-12.695,0.000,0
157970.551,-17.578,-28.809,-28.320,-19.531,0.000,0
157970.555,-20.508,-34.180,-28.809,-17.090,0.000,0
157970.559,-29.785,-27.344,-20.020,-20.508,0.000,0
157970.563,-22.949,-21.973,-24.414,-18.555,0.000,0
157970.567,-19.043,-22.461,-27.832,-7.324,0.000,0
157970.571,-25.391,-23.438,-23.926,-1.465,0.000,0
157970.575,-25.879,-24.414,-27.832,-11.719,0.000,0
157970.579,-29.297,-24.902,-27.344,-28.809,0.000,0
157970.582,-24.414,-22.949,-21.484,-23.438,0.000,0
157970.586,-6.348,-14.648,-13.672,-8.301,0.000,0
157970.590,-13.184,-9.766,-14.160,-11.719,0.000,0
157970.594,-23.438,-15.137,-20.996,-20.020,0.000,0
157970.598,-16.602,-23.926,-21.973,-25.879,0.000,0
157970.602,-24.414,-24.902,-22.949,-19.043,0.000,0
157970.606,-27.344,-30.273,-27.344,-15.625,0.000,0
157970.610,-14.648,-30.273,-25.879,-24.414,0.000,0
157970.614,-18.066,-27.344,-18.066,-28.809,0.000,0
157970.618,-25.879,-29.297,-11.719,-30.273,0.000,0
157970.622,-17.578,-22.949,-20.508,-32.227,0.000,0
157970.625,-6.836,-23.926,-25.391,-35.645,0.000,0
157970.629,-15.137,-26.855,-33.203,-20.020,0.000,0
157970.633,-22.949,-21.484,-35.645,-16.113,0.000,0
157970.637,-15.137,-18.066,-24.902,-25.391,0.000,0
157970.641,-12.207,-16.602,-21.484,-28.809,0.000,0
157970.645,-16.602,-14.160,-22.949,-23.438,0.000,0
157970.649,-23.438,-17.090,-24.414,-21.973,0.000,0
157970.653,-19.531,-27.344,-28.809,-29.297,0.000,0
157970.657,-18.066,-30.273,-28.320,-30.273,0.000,0
157970.661,-16.602,-22.949,-28.320,-34.180,0.000,0
157970.665,-19.043,-18.555,-25.879,-33.203,0.000,0
157970.668,-27.832,-20.020,-27.344,-17.090,0.000,0
157970.672,-33.691,-24.414,-29.785,-10.254,0.000,0
157970.676,-28.320,-18.555,-18.066,-25.879,0.000,0
157970.680,-31.250,-20.996,-19.043,-27.344,0.000,0
157970.684,-28.320,-25.391,-32.227,-18.066,0.000,0
157970.688,-22.949,-23.438,-29.297,-18.066,0.000,0
157970.692,-28.809,-24.902,-22.949,-23.926,0.000,0
157970.696,-27.832,-25.391,-24.414,-32.715,0.000,0
157970.700,-22.461,-27.344,-26.855,-38.086,0.000,0
157970.704,-20.996,-27.344,-31.250,-35.645,0.000,0
157970.707,-21.484,-24.414,-28.809,-30.762,0.000,0
157970.711,-18.066,-22.949,-29.297,-32.715,0.000,0
157970.715,-27.344,-20.020,-28.809,-32.715,0.000,0
157970.719,-31.738,-19.531,-24.902,-34.668,0.000,0
157970.723,-26.855,-21.484,-22.949,-30.273,0.000,0
157970.727,-29.785,-25.391,-26.367,-31.250,0.000,0
157970.731,-37.109,-27.344,-38.574,-21.973,0.000,0
157970.735,-33.691,-28.320,-39.551,-19.043,0.000,0
157970.739,-34.180,-27.832,-31.738,-23.438,0.000,0
157970.743,-31.738,-30.273,-36.621,-18.066,0.000,0
157970.747,-31.250,-35.156,-37.598,-25.879,0.000,0
157970.750,-33.203,-33.203,-34.180,-28.809,0.000,0
157970.754,-33.203,-33.203,-32.227,-25.391,0.000,0
157970.758,-28.809,-34.180,-32.227,-27.344,0.000,0
157970.762,-29.297,-33.691,-34.180,-33.691,0.000,0
157970.766,-31.738,-39.062,-35.645,-34.668,0.000,0
157970.770,-19.043,-35.156,-30.273,-15.625,0.000,0
157970.774,-18.066,-26.367,-25.391,-19.043,0.000,0
157970.778,-23.438,-26.855,-27.832,-29.297,0.000,0
157970.782,-20.508,-23.438,-31.738,-14.648,0.000,0
157970.786,-25.391,-23.438,-28.320,-13.184,0.000,0
157970.790,-17.578,-30.273,-26.855,-16.113,0.000,0
157970.793,-20.020,-29.297,-25.879,-14.160,0.000,0
157970.797,-23.438,-22.949,-21.973,-12.695,0.000,0
157970.801,-22.461,-26.855,-30.273,-13.672,0.000,0
157970.805,-18.555,-36.621,-36.133,-21.484,0.000,0
157970.809,-20.996,-30.762,-29.297,-11.230,0.000,0
157970.813,-28.320,-24.902,-19.043,-18.555,0.000,0
157970.817,-10.742,-23.926,-16.113,-29.785,0.000,0
157970.821,-1.953,-17.090,-23.926,-22.461,0.000,0
157970.825,-16.113,-15.137,-20.020,-16.113,0.000,0
157970.829,-20.508,-17.578,-9.277,-21.484,0.000,0
157970.832,-15.137,-18.066,-16.113,-23.438,0.000,0
157970.836,-8.789,-22.461,-20.996,-25.391,0.000,0
157970.840,-14.160,-24.902,-20.996,-29.297,0.000,0
157970.844,-24.414,-23.926,-18.066,-29.297,0.000,0
157970.848,-28.320,-27.832,-24.902,-20.020,0.000,0
157970.852,-28.809,-27.832,-30.762,-24.902,0.000,0
157970.856,-28.320,-28.809,-23.438,-23.926,0.000,0
157970.860,-28.320,-27.832,-22.461,-6.836,0.000,0
157970.864,-19.531,-27.832,-25.391,-11.719,0.000,0
157970.868,-21.973,-27.832,-30.762,-18.555,0.000,0
157970.872,-41.016,-28.809,-33.203,-23.438,0.000,0
157970.875,-39.551,-32.715,-25.879,-39.062,0.000,0
157970.879,-29.785,-31.250,-26.855,-25.879,0.000,0
157970.883,-25.391,-25.391,-27.344,-10.254,0.000,0
157970.887,-26.855,-26.367,-26.367,-17.578,0.000,0
157970.891,-30.273,-33.203,-29.297,-30.273,0.000,0
157970.895,-29.785,-31.738,-22.461,-49.316,0.000,0
157970.899,-28.320,-31.250,-25.879,-40.527,0.000,0
157970.903,-34.180,-32.715,-31.738,-32.227,0.000,0
157970.907,-30.762,-34.668,-30.762,-32.227,0.000,0
157970.911,-24.902,-32.227,-28.809,-18.555,0.000,0
157970.915,-19.531,-30.273,-22.461,-17.090,0.000,0
157970.918,-25.391,-32.227,-27.832,-16.113,0.000,0
157970.922,-31.250,-30.273,-37.109,-13.672,0.000,0
157970.926,-22.461,-28.809,-39.062,-13.672,0.000,0
157970.930,-29.297,-26.367,-28.809,-16.602,0.000,0
157970.934,-44.434,-25.391,-13.184,-28.320,0.000,0
157970.938,-31.250,-27.832,-23.926,-30.273,0.000,0
157970.942,-22.949,-32.227,-30.273,-29.297,0.000,0
157970.946,-29.785,-36.621,-30.273,-24.414,0.000,1
157970.950,-14.160,-35.645,-31.250,0.977,0.000,0
157970.954,-21.973,-28.809,-27.832,-22.949,0.000,0
157970.957,-32.715,-26.855,-30.273,-25.391,0.000,0
157970.961,-31.738,-28.320,-31.738,-10.254,0.000,0
157970.965,-39.062,-37.598,-39.551,-28.320,0.000,0
157970.969,-30.762,-37.109,-41.016,-28.809,0.000,0
157970.973,-34.180,-31.250,-34.668,-33.203,0.000,0
157970.977,-43.457,-33.203,-33.691,-43.457,0.000,0
157970.981,-38.574,-32.227,-33.691,-43.945,0.000,0
157970.985,-27.832,-29.785,-32.227,-33.691,0.000,0
157970.989,-27.832,-32.227,-34.180,-36.621,0.000,0
157970.993,-23.926,-39.062,-32.227,-36.133,0.000,0
157970.997,-18.555,-39.062,-33.691,-23.926,0.000,0
157971.000,-16.602,-30.273,-33.691,-26.855,0.000,0
157971.004,-8.301,-23.438,-26.855,-17.578,0.000,0
157971.008,-15.625,-26.367,-31.738,-11.230,0.000,0
157971.012,-20.996,-27.344,-34.180,-16.602,0.000,0
157971.016,-20.996,-25.391,-35.645,-8.789,0.000,0
157971.020,-30.273,-28.809,-38.086,-14.648,0.000,0
157971.024,-36.621,-28.320,-45.410,-17.090,0.000,0
157971.028,-36.133,-29.297,-47.363,-20.996,0.000,0
157971.032,-45.410,-25.391,-31.250,-23.926,0.000,0
157971.036,-38.574,-23.926,-28.809,-11.719,0.000,0
157971.040,-20.996,-27.832,-31.250,-16.602,0.000,0
157971.043,-23.926,-19.043,-28.320,-25.391,0.000,0
157971.047,-29.785,-20.508,-29.785,-21.973,0.000,0
157971.051,-24.902,-25.879,-27.832,-29.297,0.000,0
157971.055,-25.879,-22.949,-26.367,-32.715,0.000,0
157971.059,-34.668,-25.391,-28.809,-16.602,0.000,0
157971.063,-23.926,-19.043,-21.484,-13.184,0.000,0
157971.067,-18.066,-11.719,-17.090,-18.066,0.000,0
157971.071,-19.531,-9.766,-19.531,-22.461,0.000,0
157971.075,-24.414,-14.648,-22.949,-22.461,0.000,0
157971.079,-25.879,-18.555,-20.020,-16.602,0.000,0
157971.082,-15.625,-18.066,-13.672,-25.391,0.000,0
157971.086,-10.742,-23.438,-11.719,-34.180,0.000,0
157971.090,-20.996,-18.066,-15.137,-34.180,0.000,0
157971.094,-28.320,-17.578,-25.391,-19.043,0.000,0
157971.098,-21.973,-23.926,-28.320,-16.602,0.000,0
157971.102,-21.973,-26.367,-29.297,-27.832,0.000,0
157971.106,-29.297,-27.832,-27.832,-35.645,0.000,0
157971.110,-36.133,-27.344,-24.902,-39.551,0.000,0
157971.114,-24.414,-27.832,-28.809,-41.016,0.000,0
157971.118,-10.742,-23.438,-25.879,-35.645,0.000,0
157971.122,-21.973,-22.461,-26.367,-25.879,0.000,0
157971.125,-35.156,-25.391,-27.344,-23.438,0.000,0
157971.129,-24.902,-27.344,-23.926,-35.156,0.000,0
157971.133,-25.391,-28.320,-27.832,-33.203,0.000,0
157971.137,-22.949,-30.273,-28.320,-17.090,0.000,0
157971.141,-22.461,-30.273,-26.367,-14.160,0.000,0
157971.145,-31.250,-26.855,-23.926,-25.391,0.000,0
157971.149,-23.926,-28.809,-23.926,-35.645,0.000,0
157971.153,-17.090,-22.949,-29.785,-30.273,0.000,0
157971.157,-31.250,-25.391,-36.133,-26.855,0.000,0
157971.161,-27.832,-25.879,-33.203,-22.949,0.000,0
157971.165,-6.836,-16.113,-21.484,-24.902,0.000,0
157971.168,-13.672,-21.973,-15.137,-30.762,0.000,0
157971.172,-22.949,-28.320,-25.391,-17.578,0.000,0
157971.176,-14.160,-22.461,-31.250,-8.789,0.000,0
157971.180,-11.230,-18.555,-27.344,-20.020,0.000,0
157971.184,-11.230,-24.902,-28.320,-14.160,0.000,0
157971.188,-9.277,-30.762,-30.762,-15.137,0.000,0
157971.192,-20.508,-23.438,-28.809,-37.598,0.000,0
157971.196,-30.273,-22.949,-27.832,-36.621,0.000,0
157971.200,-27.344,-22.461,-30.762,-20.996,0.000,0
157971.204,-24.902,-21.484,-31.250,-21.973,0.000,0
157971.207,-20.508,-29.785,-33.691,-33.691,0.000,0
157971.211,-18.555,-30.273,-39.551,-29.297,0.000,0
157971.215,-26.367,-26.367,-33.203,-20.020,0.000,0
157971.219,-25.391,-26.367,-33.691,-11.230,0.000,0
157971.223,-15.137,-29.785,-33.691,-13.184,0.000,0
157971.227,-19.043,-22.949,-19.531,-29.297,0.000,0
157971.231,-26.367,-22.461,-21.484,-30.762,0.000,0
157971.235,-31.738,-31.738,-35.645,-20.996,0.000,0
157971.239,-30.273,-31.738,-41.016,-13.672,0.000,0
157971.243,-18.066,-29.785,-36.621,-20.020,0.000,0
157971.247,-14.648,-23.926,-26.367,-18.555,0.000,0
157971.250,-20.020,-15.625,-22.949,-18.066,0.000,0
157971.254,-14.648,-18.066,-26.855,-21.973,0.000,0
157971.258,-10.742,-20.996,-27.832,-16.113,0.000,0
157971.262,-7.812,-18.066,-23.926,1.465,0.000,0
157971.266,-15.137,-17.578,-21.484,-7.324,0.000,0
157971.270,-23.438,-14.160,-25.879,-20.996,0.000,0
157971.274,-15.625,-12.207,-32.227,-15.137,0.000,0
157971.278,-20.996,-20.996,-32.715,-24.902,0.000,0
157971.282,-21.973,-19.531,-23.438,-14.160,0.000,0
157971.286,-25.879,-17.578,-20.508,-6.836,0.000,0
157971.290,-27.832,-24.902,-33.691,-27.832,0.000,0
157971.293,-18.555,-20.996,-34.668,-20.508,0.000,0
157971.297,-14.648,-18.066,-30.273,-11.719,0.000,0
157971.301,-16.113,-24.414,-35.645,-18.555,0.000,0
157971.305,-23.438,-22.461,-25.391,-20.996,0.000,0
157971.309,-23.438,-19.043,-23.438,-18.066,0.000,0
157971.313,-17.578,-21.973,-28.320,-13.672,0.000,0
157971.317,-21.973,-24.902,-29.297,-13.672,0.000,0
157971.321,-22.461,-22.461,-31.738,-18.555,0.000,0
157971.325,-24.902,-25.391,-27.344,-28.320,0.000,0
157971.329,-32.227,-37.109,-32.715,-25.879,0.000,0
157971.332,-24.414,-32.715,-34.180,-22.949,0.000,0
157971.336,-20.996,-25.879,-26.855,-21.973,0.000,0
157971.340,-28.320,-29.785,-27.344,-14.648,0.000,0
157971.344,-25.391,-27.344,-24.414,-18.066,0.000,0
157971.348,-20.508,-25.391,-24.902,-19.043,0.000,0
157971.352,-11.719,-23.438,-21.484,0.000,0.000,0
157971.356,-5.371,-21.484,-23.926,-8.301,0.000,0
157971.360,-23.438,-23.926,-28.320,-33.203,0.000,0
157971.364,-30.273,-23.438,-23.926,-28.809,0.000,0
157971.368,-17.090,-22.949,-20.996,-29.785,0.000,0
157971.372,-26.367,-20.508,-22.949,-34.668,0.000,0
157971.375,-42.480,-22.461,-28.320,-25.391,0.000,0
157971.379,-31.738,-28.809,-30.762,-12.695,0.000,0
157971.383,-20.996,-28.320,-23.926,-11.719,0.000,0
157971.387,-23.438,-23.926,-22.949,-23.926,0.000,0
157971.391,-31.738,-26.855,-30.273,-22.949,0.000,0
157971.395,-30.273,-27.832,-27.344,-25.879,0.000,0
157971.399,-18.555,-27.344,-28.809,-27.832,0.000,0
157971.403,-15.137,-30.273,-32.715,-25.879,0.000,0
157971.407,-20.508,-34.668,-32.715,-37.598,0.000,0
157971.411,-18.555,-29.297,-24.902,-32.715,0.000,0
157971.415,-10.742,-23.926,-22.461,-18.066,0.000,0
157971.418,-10.254,-22.949,-26.367,-17.578,0.000,0
157971.422,-19.043,-24.414,-24.414,-16.602,0.000,0
157971.426,-22.461,-23.438,-18.066,-27.832,0.000,0
157971.430,-22.949,-27.832,-23.926,-31.250,0.000,0
157971.434,-28.320,-27.344,-29.785,-25.879,0.000,0
157971.438,-30.273,-20.996,-20.996,-28.320,0.000,0
157971.442,-31.250,-21.973,-19.043,-17.578,0.000,0
157971.446,-25.879,-24.902,-23.926,-21.973,0.000,0
157971.450,-33.203,-27.344,-29.785,-22.461,0.000,0
157971.454,-28.320,-32.227,-27.344,-15.137,0.000,0
157971.457,-18.066,-37.598,-30.762,-24.414,0.000,0
157971.461,-34.668,-35.645,-30.273,-35.645,0.000,0
157971.465,-40.527,-33.203,-25.391,-33.203,0.000,0
157971.469,-35.645,-34.180,-27.832,-23.438,0.000,0
157971.473,-43.945,-36.621,-30.762,-34.180,0.000,0
157971.477,-45.898,-35.156,-30.273,-36.133,0.000,0
157971.481,-33.203,-28.320,-28.809,-26.855,0.000,0
157971.485,-34.668,-27.832,-28.320,-33.203,0.000,0
157971.489,-37.109,-34.180,-32.227,-29.785,0.000,0
157971.493,-29.785,-32.227,-33.203,-23.438,0.000,0
157971.497,-26.855,-24.902,-27.832,-27.344,0.000,0
157971.500,-31.738,-25.391,-30.762,-30.762,0.000,0
157971.504,-37.109,-28.809,-33.691,-37.598,0.000,0
157971.508,-36.621,-38.086,-38.574,-40.527,0.000,0
157971.512,-31.250,-34.180,-40.039,-31.250,0.000,0
157971.516,-32.227,-28.320,-36.133,-12.207,0.000,0
157971.520,-34.180,-32.227,-34.668,-25.879,0.000,0
157971.524,-34.668,-33.203,-32.715,-39.062,0.000,0
157971.528,-40.039,-28.809,-29.785,-24.902,0.000,0
157971.532,-37.598,-23.926,-29.297,-23.438,0.000,0
157971.536,-29.785,-21.484,-29.785,-25.391,0.000,0
157971.540,-39.551,-20.996,-24.414,-27.832,0.000,0
157971.543,-31.250,-29.785,-27.344,-31.738,0.000,0
157971.547,-18.066,-25.879,-32.227,-25.879,0.000,1
157971.551,-24.414,-20.508,-26.855,-18.555,0.000,0
157971.555,-24.902,-24.414,-25.391,-23.438,0.000,0
157971.559,-27.832,-20.508,-24.414,-20.508,0.000,0
157971.563,-33.203,-20.508,-20.996,-22.461,0.000,0
157971.567,-34.180,-27.832,-20.996,-28.809,0.000,0
157971.571,-30.762,-34.668,-23.438,-29.297,0.000,0
157971.575,-21.484,-25.391,-20.996,-24.902,0.000,0
157971.579,-16.113,-20.508,-20.996,-16.113,0.000,0
157971.582,-17.090,-25.879,-23.438,-19.043,0.000,0
157971.586,-19.531,-24.902,-21.973,-14.160,0.000,0
157971.590,-21.973,-24.902,-21.484,-13.672,0.000,0
157971.594,-12.695,-27.832,-19.531,-19.531,0.000,0
157971.598,-1.465,-29.785,-19.531,-17.090,0.000,0
