timestamps,TP9,AF7,AF8,TP10,Right AUX,Marker0
157825.493,-24.414,-26.367,-18.066,-35.645,0.000,0
157825.497,-30.762,-28.320,-23.926,-29.785,0.000,0
157825.500,-23.926,-24.902,-20.020,-17.090,0.000,0
157825.504,-13.672,-20.508,-12.207,-17.090,0.000,0
157825.508,-19.531,-27.832,-15.625,-19.043,0.000,0
157825.512,-24.414,-25.879,-14.160,-25.391,0.000,0
157825.516,-27.832,-20.996,-16.113,-39.062,0.000,0
157825.520,-19.043,-28.809,-27.344,-33.203,0.000,0
157825.524,-15.625,-31.738,-32.715,-26.855,0.000,0
157825.528,-31.250,-30.273,-34.668,-29.785,0.000,0
157825.532,-27.832,-30.762,-25.879,-35.645,0.000,0
157825.536,-19.043,-32.227,-24.902,-28.320,0.000,0
157825.540,-24.414,-30.273,-29.785,-19.043,0.000,0
157825.543,-22.461,-23.926,-25.879,-22.461,0.000,0
157825.547,-22.461,-22.461,-23.438,-22.461,0.000,0
157825.551,-27.344,-24.414,-21.484,-31.250,0.000,0
157825.555,-29.297,-25.879,-29.297,-36.133,0.000,0
157825.559,-31.738,-28.320,-27.832,-31.738,0.000,0
157825.563,-30.762,-37.598,-28.320,-31.250,0.000,0
157825.567,-31.738,-35.156,-31.738,-31.738,0.000,0
157825.571,-28.809,-29.785,-26.855,-34.668,0.000,0
157825.575,-25.879,-28.809,-27.344,-30.273,0.000,0
157825.579,-34.668,-29.297,-31.250,-23.438,0.000,0
157825.582,-33.691,-25.879,-28.809,-26.367,0.000,0
157825.586,-32.715,-26.855,-26.855,-21.973,0.000,0
157825.590,-30.762,-28.809,-22.949,-15.625,0.000,0
157825.594,-25.879,-27.344,-24.902,-33.203,0.000,0
157825.598,-36.621,-34.180,-32.227,-38.086,0.000,0
157825.602,-45.410,-39.551,-33.203,-31.250,0.000,0
157825.606,-38.086,-33.203,-29.297,-23.438,0.000,0
157825.610,-36.133,-33.203,-26.855,-27.832,0.000,0
157825.614,-47.363,-41.504,-32.227,-35.156,0.000,0
157825.618,-44.434,-47.363,-41.504,-34.180,0.000,0
157825.622,-36.621,-46.387,-43.457,-37.598,0.000,0
157825.625,-39.062,-46.875,-47.363,-38.086,0.000,0
157825.629,-37.109,-41.992,-40.527,-36.133,0.000,0
157825.633,-34.180,-36.133,-31.738,-42.480,0.000,0
157825.637,-41.504,-39.551,-40.527,-40.527,0.000,0
157825.641,-44.922,-42.969,-51.270,-34.180,0.000,0
157825.645,-38.574,-33.203,-42.480,-35.156,0.000,0
157825.649,-33.203,-28.320,-33.691,-31.250,0.000,0
157825.653,-31.250,-26.367,-33.203,-26.855,0.000,0
157825.657,-21.973,-25.391,-28.809,-23.438,0.000,0
157825.661,-19.531,-35.645,-31.738,-22.461,0.000,0
157825.665,-21.484,-31.738,-31.250,-13.672,0.000,0
157825.668,-14.160,-23.438,-21.973,-17.578,0.000,0
157825.672,-2.930,-30.762,-22.461,-22.461,0.000,0
157825.676,14.160,-22.949,-20.996,-0.977,0.000,0
157825.680,-4.883,-16.113,-21.973,-7.812,0.000,0
157825.684,-32.227,-17.578,-20.508,-28.320,0.000,0
157825.688,-23.438,-19.043,-12.207,-23.438,0.000,0
157825.692,-24.902,-24.414,-10.254,-26.367,0.000,0
157825.696,-31.250,-19.043,-6.348,-27.344,0.000,0
157825.700,-23.438,-12.695,-11.230,-16.602,0.000,0
157825.704,-11.230,-15.625,-17.578,-4.395,0.000,0
157825.707,-9.277,-23.926,-18.555,-1.953,0.000,0
157825.711,-20.996,-17.578,-11.719,-10.742,0.000,0
157825.715,-10.742,-10.254,-8.789,-9.766,0.000,0
157825.719,0.977,-13.672,-10.742,-3.906,0.000,0
157825.723,-11.230,-15.625,-14.160,-2.930,0.000,0
157825.727,-11.719,-17.578,-13.672,0.488,0.000,0
157825.731,-8.301,-18.066,-17.090,-10.254,0.000,0
157825.735,-14.160,-13.184,-20.996,-21.973,0.000,0
157825.739,-20.020,-17.578,-20.508,-31.738,0.000,0
157825.743,-18.555,-23.438,-23.926,-25.391,0.000,0
157825.747,-19.043,-32.227,-28.320,-27.344,0.000,0
157825.750,-17.090,-33.691,-24.902,-36.621,0.000,0
157825.754,-13.672,-27.832,-21.484,-18.066,0.000,0
157825.758,-15.137,-24.902,-21.484,-9.766,0.000,0
157825.762,-20.020,-30.762,-32.715,-24.414,0.000,0
157825.766,-33.203,-39.062,-39.062,-39.551,0.000,0
157825.770,-32.227,-36.621,-27.832,-42.480,0.000,0
157825.774,-22.461,-33.691,-27.344,-33.203,0.000,0
157825.778,-24.414,-30.273,-29.297,-27.832,0.000,0
157825.782,-25.391,-33.691,-33.203,-22.461,0.000,0
157825.786,-20.996,-40.527,-36.621,-31.738,0.000,0
157825.790,-19.531,-30.762,-26.855,-39.062,0.000,0
157825.793,-27.344,-21.484,-21.484,-26.367,0.000,0
157825.797,-32.227,-24.414,-24.902,-27.344,0.000,0
157825.801,-27.344,-24.414,-26.855,-30.273,0.000,0
157825.805,-23.926,-26.367,-34.180,-26.367,0.000,0
157825.809,-25.391,-26.367,-32.227,-26.855,0.000,0
157825.813,-24.902,-21.973,-29.297,-23.926,0.000,0
157825.817,-22.461,-21.484,-32.227,-28.320,0.000,0
157825.821,-15.625,-25.391,-30.762,-24.902,0.000,0
157825.825,-18.066,-26.367,-28.809,-20.508,0.000,0
157825.829,-22.949,-23.926,-22.461,-29.297,0.000,0
157825.832,-13.672,-23.926,-23.438,-27.344,0.000,0
157825.836,-10.742,-16.602,-25.879,-20.996,0.000,0
157825.840,-17.090,-15.625,-29.785,-21.484,0.000,0
157825.844,-15.625,-16.113,-32.227,-13.672,0.000,0
157825.848,-9.766,-10.742,-18.555,-11.230,0.000,0
157825.852,-9.766,-16.602,-17.090,-9.277,0.000,0
157825.856,-11.230,-24.902,-22.461,-2.441,0.000,0
157825.860,-18.066,-16.113,-15.625,0.488,0.000,0
157825.864,-20.508,-18.066,-15.625,-1.465,0.000,0
157825.868,-12.207,-24.902,-17.090,-8.789,0.000,0
157825.872,-14.160,-18.555,-18.555,-12.695,0.000,0
157825.875,-28.320,-20.508,-22.949,-16.602,0.000,0
157825.879,-28.320,-22.461,-25.391,-17.578,0.000,0
157825.883,-22.949,-23.926,-31.250,-12.695,0.000,0
157825.887,-23.926,-21.973,-30.762,-18.555,0.000,0
157825.891,-28.809,-17.578,-25.391,-15.625,0.000,0
157825.895,-35.645,-24.902,-34.668,-14.160,0.000,0
157825.899,-38.086,-32.715,-40.039,-29.297,0.000,0
157825.903,-38.086,-34.668,-40.039,-29.297,0.000,0
157825.907,-46.387,-36.621,-42.480,-35.645,0.000,0
157825.911,-39.551,-32.715,-35.156,-33.203,0.000,0
157825.915,-23.926,-20.996,-28.320,-24.902,0.000,0
157825.918,-24.902,-26.367,-31.738,-20.996,0.000,0
157825.922,-26.367,-31.738,-27.344,-20.508,0.000,0
157825.926,-20.996,-27.832,-26.855,-23.438,0.000,0
157825.930,-32.227,-32.715,-39.062,-25.391,0.000,0
157825.934,-41.504,-36.133,-37.109,-29.297,0.000,0
157825.938,-32.227,-36.621,-24.414,-22.949,0.000,0
157825.942,-25.391,-31.250,-26.855,-18.066,0.000,0
157825.946,-24.414,-32.227,-30.273,-22.461,0.000,0
157825.950,-29.297,-35.645,-30.762,-29.785,0.000,0
157825.954,-30.273,-30.762,-30.762,-23.926,0.000,0
157825.957,-28.320,-34.180,-34.180,-20.508,0.000,0
157825.961,-29.785,-36.621,-31.738,-25.879,0.000,0
157825.965,-40.039,-30.762,-23.926,-24.414,0.000,0
157825.969,-37.598,-32.227,-25.391,-15.625,0.000,0
157825.973,-25.391,-35.156,-32.715,-17.578,0.000,0
157825.977,-27.344,-31.738,-36.133,-24.902,0.000,0
157825.981,-26.855,-28.320,-36.133,-26.855,0.000,0
157825.985,-21.484,-27.832,-37.598,-24.902,0.000,0
157825.989,-22.461,-27.832,-34.668,-27.832,0.000,0
157825.993,-26.367,-22.949,-30.762,-24.414,0.000,0
157825.997,-32.227,-24.414,-26.367,-20.996,0.000,0
157826.000,-30.273,-28.809,-28.320,-33.203,0.000,0
157826.004,-36.133,-33.203,-37.109,-39.062,0.000,0
157826.008,-40.527,-39.551,-42.480,-40.527,0.000,0
157826.012,-32.715,-35.156,-42.969,-40.039,0.000,0
157826.016,-29.785,-28.320,-41.016,-33.691,0.000,0
157826.020,-29.297,-36.133,-37.598,-26.367,0.000,0
157826.024,-30.762,-30.762,-33.203,-34.180,0.000,0
157826.028,-32.227,-19.043,-33.691,-27.344,0.000,0
157826.032,-23.438,-18.555,-28.809,-16.113,0.000,0
157826.036,-26.367,-23.438,-25.879,-27.832,0.000,0
157826.040,-29.297,-33.691,-28.809,-21.484,0.000,0
157826.043,-25.879,-33.203,-30.273,-25.391,0.000,0
157826.047,-21.973,-20.508,-28.320,-25.391,0.000,0
157826.051,-16.602,-22.461,-26.367,-17.090,0.000,0
157826.055,-15.137,-26.367,-32.227,-16.113,0.000,0
157826.059,-10.254,-20.508,-32.227,-10.742,0.000,0
157826.063,-11.230,-17.578,-24.414,-14.648,0.000,0
157826.067,-22.949,-24.414,-29.785,-14.160,0.000,0
157826.071,-27.344,-31.250,-31.738,-10.742,0.000,0
157826.075,-31.250,-33.691,-30.762,-13.184,0.000,0
157826.079,-29.785,-30.762,-38.086,-17.578,0.000,0
157826.082,-20.996,-27.344,-25.391,-26.855,0.000,0
157826.086,2.441,-27.344,-17.578,-0.977,0.000,0
157826.090,8.789,-32.715,-33.691,0.977,0.000,0
157826.094,-32.227,-39.551,-40.039,-37.598,0.000,0
157826.098,-46.875,-42.480,-37.109,-41.504,0.000,0
157826.102,-42.480,-39.551,-31.738,-46.387,0.000,0
157826.106,-38.086,-39.551,-32.227,-43.457,0.000,0
157826.110,-37.109,-39.551,-36.621,-34.180,0.000,0
157826.114,-47.363,-40.527,-32.227,-44.434,0.000,0
157826.118,-45.898,-37.598,-30.273,-39.551,0.000,0
157826.122,-26.855,-28.809,-27.344,-31.250,0.000,0
157826.125,-15.137,-26.367,-26.855,-26.367,0.000,0
157826.129,-19.531,-30.762,-24.902,-20.020,0.000,0
157826.133,-16.113,-28.320,-22.461,-21.484,0.000,0
157826.137,-18.555,-27.832,-26.367,-25.879,0.000,0
157826.141,-12.695,-22.461,-18.555,-24.902,0.000,0
157826.145,-12.695,-14.160,-10.742,-25.391,0.000,0
157826.149,-12.695,-9.766,-9.766,-14.648,0.000,0
157826.153,0.488,-16.602,-15.137,-13.672,0.000,0
157826.157,-10.742,-20.020,-17.578,-1.953,0.000,0
157826.161,-15.137,-14.648,-8.301,-2.930,0.000,0
157826.165,-13.672,-20.020,-15.137,-22.949,0.000,0
157826.168,-15.625,-20.508,-25.391,-12.695,0.000,0
157826.172,-14.160,-14.160,-20.508,-14.160,0.000,0
157826.176,-14.160,-13.672,-17.578,-20.020,0.000,0
157826.180,-13.184,-20.996,-18.555,-24.414,0.000,0
157826.184,-20.020,-24.902,-21.484,-34.180,0.000,0
157826.188,-24.414,-24.902,-29.785,-37.109,0.000,0
157826.192,-27.832,-27.832,-37.109,-33.203,0.000,0
157826.196,-29.297,-31.250,-39.062,-26.367,0.000,0
157826.200,-14.648,-30.762,-29.785,-27.344,0.000,0
157826.204,-9.766,-23.926,-28.320,-22.949,0.000,0
157826.207,-18.066,-28.320,-36.133,-20.020,0.000,0
157826.211,-18.066,-35.156,-31.738,-21.484,0.000,0
157826.215,-26.855,-30.762,-29.297,-15.137,0.000,0
157826.219,-34.668,-27.832,-24.902,-19.043,0.000,0
157826.223,-23.438,-23.926,-22.461,-24.414,0.000,0
157826.227,-18.066,-20.508,-25.391,-23.438,0.000,0
157826.231,-32.715,-21.484,-23.438,-15.137,0.000,0
157826.235,-37.109,-24.414,-23.438,-12.695,0.000,0
157826.239,-37.598,-28.320,-21.973,-33.203,0.000,0
157826.243,-45.898,-30.762,-24.414,-46.387,0.000,0
157826.247,-48.828,-28.320,-28.320,-36.621,0.000,0
157826.250,-41.992,-30.762,-24.902,-31.738,0.000,0
157826.254,-30.273,-30.762,-29.785,-38.574,0.000,0
157826.258,-26.855,-28.320,-30.762,-36.621,0.000,0
157826.262,-29.297,-30.273,-23.926,-29.785,0.000,0
157826.266,-30.762,-29.785,-27.832,-30.762,0.000,0
157826.270,-26.855,-29.785,-35.645,-36.133,0.000,0
157826.274,-20.020,-31.738,-34.180,-26.367,0.000,0
157826.278,-21.973,-32.715,-23.438,-22.461,0.000,0
157826.282,-19.531,-34.180,-22.461,-29.785,0.000,0
157826.286,-20.996,-26.855,-30.273,-27.344,0.000,0
157826.290,-25.391,-27.832,-30.762,-28.320,0.000,0
157826.293,-19.043,-31.250,-29.785,-31.250,0.000,0
157826.297,-16.602,-28.809,-24.902,-30.273,0.000,0
157826.301,-20.996,-37.598,-25.391,-37.598,0.000,0
157826.305,-28.320,-33.203,-33.691,-37.109,0.000,0
157826.309,-34.180,-30.273,-36.133,-25.879,0.000,0
157826.313,-34.668,-33.691,-37.109,-30.273,0.000,0
157826.317,-28.320,-33.691,-34.668,-35.645,0.000,0
157826.321,-31.738,-35.645,-28.809,-34.668,0.000,0
157826.325,-33.203,-26.855,-28.809,-29.297,0.000,0
157826.329,-27.832,-21.973,-33.203,-30.762,0.000,0
157826.332,-27.344,-23.926,-31.250,-31.250,0.000,0
157826.336,-28.809,-28.809,-28.320,-20.996,0.000,0
157826.340,-21.484,-34.668,-24.902,-25.391,0.000,0
157826.344,-25.391,-39.062,-29.297,-25.879,0.000,0
157826.348,-32.715,-30.762,-33.203,-20.508,0.000,0
157826.352,-22.949,-18.066,-24.414,-15.137,0.000,0
157826.356,-27.344,-19.043,-25.391,-20.020,0.000,0
157826.360,-34.668,-25.391,-33.691,-33.691,0.000,0
157826.364,-21.973,-28.809,-35.645,-33.691,0.000,0
157826.368,-10.742,-24.414,-24.414,-22.949,0.000,0
157826.372,-12.207,-25.879,-24.902,-19.043,0.000,0
157826.375,-10.254,-27.344,-36.621,-21.484,0.000,0
157826.379,-15.625,-23.926,-29.297,-29.297,0.000,0
157826.383,-32.715,-31.738,-36.133,-41.992,0.000,0
157826.387,-35.645,-42.969,-46.387,-41.992,0.000,0
157826.391,-31.738,-43.457,-41.992,-44.434,0.000,0
157826.395,-40.527,-41.504,-41.992,-49.805,0.000,0
157826.399,-49.316,-43.945,-42.480,-56.152,0.000,0
157826.403,-48.340,-45.410,-42.480,-58.105,0.000,0
157826.407,-41.992,-42.480,-44.434,-48.340,0.000,0
157826.411,-39.062,-37.109,-46.387,-38.086,0.000,0
157826.415,-41.504,-35.156,-44.922,-33.203,0.000,0
157826.418,-31.738,-39.062,-44.922,-44.434,0.000,0
157826.422,-26.855,-38.574,-38.574,-42.969,0.000,0
157826.426,-35.156,-33.203,-29.785,-24.902,0.000,0
157826.430,-30.762,-31.738,-30.273,-22.949,0.000,0
157826.434,-14.648,-22.461,-29.785,-20.996,0.000,0
157826.438,-10.742,-18.066,-20.020,-22.461,0.000,0
157826.442,-17.090,-18.066,-19.043,-24.414,0.000,0
157826.446,-15.625,-13.184,-20.020,-17.090,0.000,0
157826.450,-6.836,-15.137,-16.113,-2.441,0.000,0
157826.454,0.000,-17.090,-15.625,5.859,0.000,0
157826.457,-3.418,-6.836,1.953,0.977,0.000,0
157826.461,-8.789,-2.930,7.324,-6.836,0.000,0
157826.465,-0.488,-5.371,-10.254,-3.906,0.000,0
157826.469,0.977,-9.766,-8.789,0.000,0.000,0
157826.473,-7.812,-13.672,-13.184,-3.906,0.000,0
157826.477,-13.184,-14.648,-18.066,-19.043,0.000,0
157826.481,-10.742,-16.113,-17.578,-26.855,0.000,0
157826.485,-14.648,-11.719,-19.043,-18.555,0.000,0
157826.489,-17.578,-8.789,-14.160,-13.672,0.000,0
157826.493,-9.277,-14.648,-14.160,-10.742,0.000,0
157826.497,-16.602,-18.555,-17.578,-19.043,0.000,0
157826.500,-24.902,-19.043,-18.066,-21.973,0.000,0
157826.504,-24.414,-18.066,-15.137,-19.043,0.000,0
157826.508,-19.531,-21.973,-20.020,-20.996,0.000,0
157826.512,-12.695,-25.391,-23.926,-13.184,0.000,0
157826.516,-19.531,-23.438,-16.602,-24.414,0.000,0
157826.520,-13.184,-19.043,-18.066,-26.367,0.000,0
157826.524,-0.977,-15.625,-19.043,-10.742,0.000,0
157826.528,-8.789,-20.020,-18.066,-13.184,0.000,0
157826.532,-15.625,-22.461,-18.066,-14.648,0.000,0
157826.536,-14.648,-23.438,-18.555,-21.484,0.000,0
157826.540,-18.066,-25.391,-26.367,-27.832,0.000,0
157826.543,-21.973,-25.391,-23.438,-25.879,0.000,0
157826.547,-22.949,-17.578,-13.672,-16.602,0.000,0
157826.551,-4.395,-17.090,-18.555,-5.371,0.000,0
157826.555,1.953,-20.508,-20.020,-16.602,0.000,0
157826.559,-20.020,-20.020,-20.996,-21.973,0.000,0
157826.563,-21.973,-20.996,-28.320,-12.695,0.000,0
157826.567,-20.020,-20.508,-26.855,-18.066,0.000,0
157826.571,-25.391,-24.414,-23.926,-20.020,0.000,0
157826.575,-27.344,-25.879,-21.484,-20.020,0.000,0
157826.579,-26.367,-18.555,-25.391,-32.715,0.000,0
157826.582,-20.996,-13.672,-27.832,-25.391,0.000,0
157826.586,-20.508,-13.672,-20.996,-12.207,0.000,0
157826.590,-28.320,-12.695,-14.648,-23.438,0.000,0
157826.594,-21.484,-12.695,-11.230,-16.113,0.000,0
157826.598,-10.742,-14.160,-14.648,-9.766,0.000,0
157826.602,-19.531,-12.695,-21.484,-25.391,0.000,0
157826.606,-18.555,-13.184,-20.508,-24.902,0.000,0
157826.610,-13.184,-18.555,-19.531,-25.391,0.000,0
157826.614,-22.461,-26.367,-27.344,-31.738,0.000,0
157826.618,-25.391,-23.438,-24.414,-30.273,0.000,0
157826.622,-20.996,-17.578,-21.484,-22.461,0.000,0
157826.625,-21.973,-20.508,-27.344,-14.648,0.000,0
157826.629,-21.484,-19.531,-23.926,-13.184,0.000,0
157826.633,-20.996,-14.160,-18.066,-16.602,0.000,0
157826.637,-19.531,-19.043,-15.625,-19.531,0.000,0
157826.641,-10.254,-19.043,-13.672,-12.207,0.000,0
157826.645,-11.719,-24.414,-20.508,-18.066,0.000,0
157826.649,-23.438,-27.832,-25.391,-17.578,0.000,0
157826.653,-29.785,-29.297,-25.391,-5.859,0.000,0
157826.657,-23.926,-43.945,-34.668,-14.648,0.000,0
157826.661,-28.320,-41.992,-37.598,-24.902,0.000,0
157826.665,-34.668,-37.109,-34.668,-21.973,0.000,0
157826.668,-41.504,-41.992,-36.133,-24.414,0.000,0
157826.672,-41.992,-37.109,-35.156,-27.344,0.000,0
157826.676,-39.551,-30.273,-32.715,-27.832,0.000,0
157826.680,-35.645,-27.832,-35.645,-23.438,0.000,0
157826.684,-23.926,-27.832,-30.762,-11.719,0.000,0
157826.688,-18.066,-28.320,-29.297,-4.883,0.000,0
157826.692,-20.508,-28.809,-36.133,-22.461,0.000,0
157826.696,-17.090,-29.297,-29.785,-30.273,0.000,0
157826.700,-17.090,-25.879,-22.949,-19.043,0.000,0
157826.704,-22.461,-27.832,-26.855,-24.902,0.000,0
157826.707,-21.973,-27.344,-30.273,-25.879,0.000,0
157826.711,-22.461,-25.391,-20.996,-22.461,0.000,0
157826.715,-18.555,-21.973,-19.531,-29.297,0.000,0
157826.719,-9.277,-20.996,-27.344,-24.414,0.000,0
157826.723,-17.090,-20.508,-26.855,-24.414,0.000,0
157826.727,-28.320,-16.602,-25.879,-22.461,0.000,0
157826.731,-26.855,-17.090,-25.879,-21.973,0.000,0
157826.735,-30.273,-21.484,-27.832,-32.227,0.000,0
157826.739,-33.203,-24.414,-29.785,-17.090,0.000,0
157826.743,-34.180,-28.809,-29.785,-13.184,0.000,0
157826.747,-37.109,-35.645,-32.227,-24.902,0.000,0
157826.750,-41.016,-39.551,-30.273,-34.668,0.000,0
157826.754,-40.527,-35.645,-31.738,-41.016,0.000,0
157826.758,-33.691,-27.832,-33.203,-32.715,0.000,0
157826.762,-28.320,-28.320,-32.715,-24.902,0.000,0
157826.766,-30.273,-37.109,-38.086,-19.531,0.000,0
157826.770,-37.109,-41.016,-36.621,-22.949,0.000,0
157826.774,-31.738,-38.574,-32.227,-25.879,0.000,0
157826.778,-33.203,-36.621,-38.086,-24.414,0.000,0
157826.782,-43.945,-36.133,-44.922,-37.109,0.000,0
157826.786,-38.574,-39.062,-45.898,-38.086,0.000,0
157826.790,-36.133,-41.992,-39.551,-36.621,0.000,0
157826.793,-43.945,-39.062,-37.598,-50.781,0.000,0
157826.797,-46.875,-36.621,-41.016,-46.387,0.000,0
157826.801,-38.086,-39.551,-37.109,-29.297,0.000,0
157826.805,-34.180,-33.691,-36.133,-27.832,0.000,0
157826.809,-36.133,-26.855,-37.598,-33.203,0.000,0
157826.813,-33.203,-25.879,-29.785,-30.273,0.000,0
157826.817,-31.738,-28.320,-28.809,-26.367,0.000,0
157826.821,-38.574,-29.297,-31.738,-38.574,0.000,0
157826.825,-47.852,-26.367,-29.785,-38.086,0.000,0
157826.829,-40.527,-26.367,-30.273,-19.531,0.000,0
157826.832,-38.086,-24.414,-23.926,-29.297,0.000,0
157826.836,-39.062,-21.973,-28.320,-32.715,0.000,0
157826.840,-32.715,-19.531,-34.668,-14.648,0.000,0
157826.844,-32.227,-16.113,-32.227,-16.113,0.000,0
157826.848,-24.414,-19.043,-29.785,-23.926,0.000,0
157826.852,-18.066,-24.414,-29.297,-27.832,0.000,0
157826.856,-24.902,-24.414,-33.691,-23.926,0.000,0
157826.860,-32.715,-22.949,-38.086,-27.832,0.000,0
157826.864,-36.621,-23.926,-41.504,-29.297,0.000,0
157826.868,-36.621,-30.273,-40.527,-27.344,0.000,0
157826.872,-33.691,-32.715,-37.109,-35.156,0.000,0
157826.875,-40.527,-35.156,-39.062,-33.691,0.000,0
157826.879,-38.086,-44.922,-40.039,-22.949,0.000,0
157826.883,-35.645,-42.480,-45.410,-19.043,0.000,0
157826.887,-41.504,-40.039,-46.875,-22.461,0.000,0
157826.891,-41.504,-44.434,-42.480,-40.039,0.000,0
157826.895,-38.574,-43.457,-46.387,-52.246,0.000,0
157826.899,-31.250,-42.480,-46.387,-41.992,0.000,0
157826.903,-31.738,-34.180,-40.527,-21.484,0.000,0
157826.907,-36.621,-32.227,-34.668,-21.484,0.000,0
157826.911,-27.344,-28.320,-28.320,-28.320,0.000,0
157826.915,-20.508,-21.973,-31.250,-20.508,0.000,0
157826.918,-30.273,-21.484,-29.785,-18.555,0.000,0
157826.922,-31.250,-23.926,-24.902,-25.391,0.000,0
157826.926,-17.090,-19.043,-24.902,-24.902,0.000,0
157826.930,-14.648,-21.973,-27.832,-22.461,0.000,0
157826.934,-16.113,-29.297,-30.273,-33.691,0.000,0
157826.938,-16.113,-27.832,-34.180,-40.039,0.000,0
157826.942,-10.254,-28.320,-39.062,-22.461,0.000,0
157826.946,-4.883,-29.297,-32.715,-17.578,0.000,0
157826.950,-13.184,-31.250,-24.414,-30.762,0.000,0
157826.954,-18.066,-34.668,-29.785,-31.738,0.000,0
157826.957,-10.254,-31.738,-38.574,-20.020,0.000,0
157826.961,-11.230,-34.180,-35.645,-16.113,0.000,0
157826.965,-29.297,-38.574,-38.086,-23.438,0.000,0
157826.969,-27.344,-31.250,-34.668,-30.762,0.000,0
157826.973,-22.949,-32.227,-31.738,-25.879,0.000,0
157826.977,-21.484,-28.809,-28.809,-13.184,0.000,0
157826.981,-17.578,-21.484,-20.020,-5.371,0.000,0
157826.985,-33.691,-24.902,-20.020,-17.578,0.000,0
157826.989,-44.922,-32.715,-25.879,-36.133,0.000,0
157826.993,-41.016,-30.273,-29.297,-34.668,0.000,0
157826.997,-35.156,-23.438,-25.391,-22.461,0.000,0
157827.000,-35.645,-28.809,-28.809,-21.484,0.000,0
157827.004,-37.109,-37.598,-35.156,-27.832,0.000,0
157827.008,-35.645,-32.227,-31.250,-33.203,0.000,0
157827.012,-38.086,-22.461,-28.320,-28.809,0.000,0
157827.016,-35.156,-33.203,-32.227,-18.066,0.000,0
157827.020,-21.973,-38.574,-35.156,-20.996,0.000,0
157827.024,-20.508,-25.391,-27.832,-26.367,0.000,0
157827.028,-31.250,-24.414,-24.414,-30.762,0.000,0
157827.032,-22.949,-23.926,-29.785,-35.156,0.000,0
157827.036,-16.113,-19.043,-28.809,-34.180,0.000,0
157827.040,-15.625,-20.996,-22.949,-36.621,0.000,0
157827.043,-25.879,-24.414,-28.809,-23.438,0.000,0
157827.047,-27.832,-25.391,-31.738,-19.531,0.000,0
157827.051,-11.719,-25.391,-28.809,-17.578,0.000,0
157827.055,-2.441,-15.625,-19.043,-4.883,0.000,0
157827.059,-1.953,-5.859,-12.207,5.859,0.000,0
157827.063,-1.953,-7.812,-10.742,5.859,0.000,0
157827.067,-0.977,-12.207,-0.488,-3.418,0.000,0
157827.071,-7.324,-14.160,3.418,-10.742,0.000,0
157827.075,-13.184,-17.578,-5.859,-27.344,0.000,0
157827.079,-12.695,-24.414,-14.160,-27.832,0.000,0
157827.082,-20.996,-24.902,-15.137,-26.367,0.000,0
157827.086,-27.344,-27.832,-16.602,-42.969,0.000,0
157827.090,-35.645,-29.297,-27.832,-39.551,0.000,0
157827.094,-36.621,-28.320,-32.715,-26.367,0.000,0
157827.098,-26.855,-23.438,-27.344,-26.855,0.000,0
157827.102,-23.438,-22.949,-26.367,-23.438,0.000,0
157827.106,-36.133,-32.715,-29.785,-41.016,0.000,0
157827.110,-37.109,-41.016,-38.086,-49.316,0.000,0
157827.114,-39.551,-39.551,-38.086,-41.504,0.000,0
157827.118,-42.969,-38.574,-33.203,-34.180,0.000,0
157827.122,-20.996,-34.668,-33.203,-24.414,0.000,0
157827.125,-20.020,-28.809,-24.902,-33.691,0.000,0
157827.129,-30.762,-28.320,-26.855,-29.785,0.000,0
157827.133,-30.762,-23.438,-32.227,-17.090,0.000,0
157827.137,-26.855,-25.879,-31.738,-19.531,0.000,0
157827.141,-20.996,-20.508,-31.250,-17.090,0.000,0
157827.145,-9.277,-23.438,-28.809,-8.301,0.000,0
157827.149,-22.949,-34.180,-33.203,-25.391,0.000,0
157827.153,-51.758,-27.832,-36.133,-46.387,0.000,0
157827.157,-41.016,-22.949,-32.715,-34.180,0.000,0
157827.161,-30.273,-20.020,-35.645,-28.809,0.000,0
157827.165,-33.203,-18.066,-39.062,-37.109,0.000,0
157827.168,-29.785,-22.949,-36.621,-43.457,0.000,0
157827.172,-32.715,-25.879,-37.598,-39.062,0.000,0
157827.176,-31.250,-26.855,-36.133,-33.691,0.000,0
157827.180,-27.344,-27.344,-37.598,-27.344,0.000,0
157827.184,-32.715,-31.738,-35.645,-32.715,0.000,0
157827.188,-36.133,-33.203,-35.645,-45.898,0.000,0
157827.192,-34.180,-27.832,-36.621,-38.574,0.000,0
157827.196,-28.320,-23.438,-29.297,-25.879,0.000,0
157827.200,-32.715,-20.508,-31.250,-30.762,0.000,0
157827.204,-38.086,-20.996,-26.367,-35.645,0.000,0
157827.207,-36.621,-22.949,-24.414,-29.785,0.000,0
157827.211,-26.855,-23.926,-34.180,-19.043,0.000,0
157827.215,-22.461,-17.090,-28.320,-24.414,0.000,0
157827.219,-19.043,-19.043,-22.949,-18.555,0.000,0
157827.223,-19.043,-26.367,-21.484,-21.973,0.000,0
157827.227,-23.438,-24.902,-26.367,-36.621,0.000,0
157827.231,-25.879,-30.273,-30.273,-25.879,0.000,0
157827.235,-30.762,-37.109,-32.227,-21.973,0.000,0
157827.239,-29.785,-33.203,-38.086,-29.297,0.000,0
157827.243,-29.297,-34.180,-40.039,-32.227,0.000,0
157827.247,-21.973,-29.785,-31.738,-29.785,0.000,0
157827.250,-22.461,-30.762,-24.902,-29.297,0.000,0
157827.254,-20.996,-33.691,-28.809,-31.250,0.000,0
157827.258,-9.277,-32.227,-28.809,-26.367,0.000,0
157827.262,-17.090,-33.691,-24.414,-20.508,0.000,0
157827.266,-20.996,-31.250,-28.809,-16.602,0.000,0
157827.270,-21.484,-30.273,-37.109,-16.113,0.000,0
157827.274,-23.438,-26.367,-33.203,-17.090,0.000,0
157827.278,-27.344,-26.367,-26.855,-16.602,0.000,0
157827.282,-22.949,-25.391,-20.508,-10.742,0.000,0
157827.286,-11.230,-21.973,-17.578,-9.277,0.000,0
157827.290,-17.578,-23.926,-22.949,-19.531,0.000,0
157827.293,-22.949,-26.367,-25.879,-26.855,0.000,0
157827.297,-14.648,-21.484,-22.461,-18.555,0.000,0
157827.301,-11.230,-19.531,-23.926,-18.066,0.000,0
157827.305,-19.531,-26.367,-24.902,-25.879,0.000,0
157827.309,-16.602,-24.902,-22.949,-17.578,0.000,0
157827.313,-11.719,-20.508,-16.113,-10.254,0.000,0
157827.317,-8.789,-17.090,-9.277,-14.160,0.000,0
157827.321,-7.812,-18.066,-11.230,-11.719,0.000,0
157827.325,-20.020,-19.531,-14.648,-18.555,0.000,0
157827.329,-19.043,-20.508,-12.207,-25.391,0.000,0
157827.332,-14.648,-26.855,-18.066,-17.578,0.000,0
157827.336,-18.066,-33.203,-27.344,-8.789,0.000,0
157827.340,-30.273,-41.992,-32.227,-19.531,0.000,0
157827.344,-36.133,-44.922,-35.645,-41.016,0.000,0
157827.348,-28.320,-37.598,-33.203,-39.062,0.000,0
157827.352,-32.715,-40.527,-34.668,-42.969,0.000,0
157827.356,-37.598,-40.527,-40.527,-42.480,0.000,0
157827.360,-26.367,-32.715,-37.598,-29.297,0.000,0
157827.364,-35.156,-33.691,-33.691,-36.133,0.000,0
157827.368,-45.410,-32.227,-40.039,-35.156,0.000,0
157827.372,-36.621,-28.320,-42.969,-29.785,0.000,0
157827.375,-35.156,-29.785,-41.992,-27.344,0.000,0
157827.379,-36.133,-29.785,-36.133,-20.508,0.000,0
157827.383,-34.668,-27.832,-33.691,-23.438,0.000,0
157827.387,-38.086,-28.809,-40.527,-36.133,0.000,0
157827.391,-39.551,-35.645,-44.434,-42.969,0.000,0
157827.395,-32.227,-34.668,-40.527,-29.297,0.000,0
157827.399,-29.297,-29.297,-27.344,-19.043,0.000,0
157827.403,-24.902,-30.273,-28.809,-24.902,0.000,0
157827.407,-17.090,-31.250,-34.668,-16.602,0.000,0
157827.411,-17.090,-30.273,-31.738,-15.625,0.000,0
157827.415,-17.090,-26.367,-30.273,-12.207,0.000,0
157827.418,-13.184,-21.484,-27.344,-8.301,0.000,0
157827.422,-10.742,-24.902,-27.344,-24.414,0.000,0
157827.426,-12.695,-27.832,-29.785,-28.320,0.000,0
157827.430,-11.230,-26.367,-29.785,-25.391,0.000,0
157827.434,-19.043,-23.438,-33.203,-21.484,0.000,0
157827.438,-27.832,-28.320,-39.551,-30.273,0.000,0
157827.442,-25.879,-30.273,-27.344,-37.109,0.000,0
157827.446,-25.391,-28.809,-20.020,-29.785,0.000,0
157827.450,-21.973,-28.809,-29.297,-33.203,0.000,0
157827.454,-20.996,-30.762,-32.227,-33.203,0.000,0
157827.457,-22.949,-32.227,-31.738,-33.203,0.000,0
157827.461,-21.484,-28.809,-27.344,-48.828,0.000,0
157827.465,-22.949,-26.855,-30.273,-44.922,0.000,0
157827.469,-17.090,-28.320,-33.203,-23.926,0.000,0
157827.473,-19.531,-31.250,-30.762,-18.066,0.000,0
157827.477,-28.320,-28.320,-25.879,-16.602,0.000,0
157827.481,-21.973,-20.996,-17.578,-8.301,0.000,0
157827.485,-17.090,-17.090,-20.020,-20.508,0.000,0
157827.489,-26.367,-18.066,-20.996,-33.691,0.000,0
157827.493,-21.973,-18.066,-16.113,-22.461,0.000,0
157827.497,-13.184,-18.555,-19.043,-9.277,0.000,0
157827.500,-21.484,-29.785,-24.902,-27.344,0.000,0
157827.504,-43.945,-38.086,-36.133,-46.875,0.000,0
157827.508,-48.828,-42.969,-40.039,-41.016,0.000,0
157827.512,-40.527,-36.133,-30.762,-30.762,0.000,0
157827.516,-38.086,-27.344,-20.508,-23.438,0.000,0
157827.520,-37.598,-29.297,-17.090,-33.203,0.000,0
157827.524,-33.691,-28.320,-23.926,-33.203,0.000,0
157827.528,-33.203,-23.926,-27.832,-33.203,0.000,0
157827.532,-37.598,-29.785,-31.250,-35.156,0.000,0
157827.536,-40.039,-32.715,-33.691,-20.508,0.000,0
157827.540,-34.668,-24.414,-23.438,-25.391,0.000,0
157827.543,-32.227,-27.344,-26.367,-26.855,0.000,0
157827.547,-33.691,-28.809,-33.691,-15.625,0.000,0
157827.551,-31.738,-30.273,-37.598,-20.020,0.000,0
157827.555,-29.785,-39.551,-38.086,-19.043,0.000,0
157827.559,-28.809,-40.527,-28.809,-17.578,0.000,0
157827.563,-26.367,-31.738,-22.461,-20.020,0.000,0
157827.567,-31.738,-32.227,-29.785,-18.555,0.000,0
157827.571,-41.016,-35.156,-41.016,-20.996,0.000,0
157827.575,-46.387,-36.133,-39.551,-20.508,0.000,0
157827.579,-48.828,-32.227,-31.738,-24.902,0.000,0
157827.582,-42.969,-35.156,-33.203,-26.855,0.000,0
157827.586,-37.109,-36.621,-33.203,-21.484,0.000,0
157827.590,-40.527,-32.227,-27.832,-25.391,0.000,0
157827.594,-45.898,-33.691,-34.180,-28.320,0.000,0
157827.598,-37.598,-35.156,-38.574,-28.809,0.000,0
157827.602,-27.832,-35.645,-34.668,-34.668,0.000,0
157827.606,-39.062,-34.180,-34.668,-36.133,0.000,0
157827.610,-37.109,-35.645,-33.691,-28.809,0.000,0
157827.614,-22.949,-30.762,-33.691,-24.902,0.000,0
157827.618,-22.949,-23.926,-32.715,-24.414,0.000,0
157827.622,-30.762,-26.367,-30.762,-21.973,0.000,0
157827.625,-34.180,-29.297,-33.203,-23.926,0.000,0
157827.629,-25.391,-31.250,-32.227,-21.973,0.000,0
157827.633,-22.461,-29.297,-31.250,-22.461,0.000,0
157827.637,-21.973,-26.367,-27.344,-24.902,0.000,0
157827.641,-21.973,-26.367,-25.879,-29.297,0.000,0
157827.645,-18.555,-18.066,-25.391,-22.461,0.000,0
157827.649,-8.789,-10.254,-13.184,-7.812,0.000,0
157827.653,-7.324,-17.578,-13.184,-10.254,0.000,0
157827.657,-7.812,-18.555,-18.066,-12.695,0.000,0
157827.661,-16.602,-14.648,-21.484,-26.367,0.000,0
157827.665,-19.043,-16.602,-29.297,-26.367,0.000,0
157827.668,-18.066,-18.066,-25.879,-29.297,0.000,0
157827.672,-19.043,-19.043,-23.926,-28.320,0.000,0
157827.676,-8.789,-19.043,-29.297,-14.160,0.000,0
157827.680,-16.602,-28.320,-31.738,-27.344,0.000,0
157827.684,-28.809,-29.785,-26.855,-25.391,0.000,0
157827.688,-25.879,-26.367,-25.391,-22.461,0.000,0
157827.692,-25.391,-34.668,-31.250,-35.645,0.000,0
157827.696,-23.438,-36.133,-31.738,-38.574,0.000,0
157827.700,-31.738,-35.645,-31.250,-37.109,0.000,0
157827.704,-28.320,-32.715,-30.762,-32.227,0.000,0
157827.707,-19.043,-35.156,-30.762,-25.879,0.000,0
157827.711,-22.461,-31.738,-28.809,-15.625,0.000,0
157827.715,-20.996,-24.414,-26.367,-16.113,0.000,0
157827.719,-16.602,-20.508,-21.484,-27.344,0.000,0
157827.723,-23.926,-20.508,-22.949,-24.902,0.000,0
157827.727,-35.645,-26.855,-25.391,-27.344,0.000,0
157827.731,-38.574,-35.156,-38.086,-36.621,0.000,0
157827.735,-37.109,-42.480,-42.480,-39.062,0.000,0
157827.739,-46.387,-39.062,-41.016,-48.828,0.000,0
157827.743,-47.852,-35.156,-43.945,-50.781,0.000,0
157827.747,-41.992,-33.691,-36.621,-41.016,0.000,0
157827.750,-41.992,-33.203,-33.691,-33.203,0.000,0
157827.754,-43.945,-41.992,-38.574,-36.621,0.000,0
157827.758,-33.691,-36.621,-28.320,-34.668,0.000,0
157827.762,-19.043,-25.879,-23.926,-15.625,0.000,0
157827.766,-17.578,-27.832,-33.691,-8.789,0.000,0
157827.770,-26.855,-20.508,-27.832,-13.672,0.000,0
157827.774,-38.086,-17.090,-16.113,-22.461,0.000,0
157827.778,-25.879,-20.020,-19.531,-22.461,0.000,0
157827.782,-23.438,-20.508,-26.367,-11.719,0.000,0
157827.786,-29.785,-22.949,-26.367,-5.859,0.000,0
157827.790,-30.762,-30.762,-26.855,-10.254,0.000,0
157827.793,-27.832,-32.715,-31.738,-26.855,0.000,0
157827.797,-28.809,-29.785,-32.227,-30.762,0.000,0
157827.801,-34.180,-33.203,-38.086,-23.438,0.000,0
157827.805,-29.785,-34.668,-42.480,-37.109,0.000,0
157827.809,-35.156,-34.180,-38.574,-45.410,0.000,0
157827.813,-39.551,-38.574,-36.621,-40.039,0.000,0
157827.817,-25.879,-37.598,-34.668,-38.574,0.000,0
157827.821,-28.320,-33.203,-34.668,-35.156,0.000,0
157827.825,-31.738,-28.809,-31.250,-25.879,0.000,0
157827.829,-20.996,-22.949,-28.809,-15.625,0.000,0
157827.832,-25.391,-26.367,-30.762,-18.066,0.000,0
157827.836,-26.855,-32.227,-33.691,-23.438,0.000,0
157827.840,-18.066,-30.273,-32.227,-7.812,0.000,0
157827.844,-18.555,-31.250,-31.738,-2.930,0.000,0
157827.848,-22.461,-31.738,-27.832,-3.906,0.000,0
157827.852,-20.996,-34.668,-26.367,6.348,0.000,0
157827.856,-27.344,-43.945,-32.227,-12.207,0.000,0
157827.860,-48.340,-41.992,-34.180,-34.668,0.000,0
157827.864,-61.523,-34.668,-37.109,-34.668,0.000,0
157827.868,-50.293,-37.109,-41.016,-38.086,0.000,0
157827.872,-37.598,-38.574,-38.574,-45.410,0.000,0
157827.875,-45.410,-36.133,-41.992,-51.758,0.000,0
157827.879,-54.688,-38.574,-55.176,-59.570,0.000,0
157827.883,-49.805,-38.086,-51.270,-60.059,0.000,0
157827.887,-40.039,-31.738,-38.574,-35.156,0.000,0
157827.891,-33.203,-26.367,-27.344,-22.461,0.000,0
157827.895,-41.992,-39.551,-34.668,-42.969,0.000,0
157827.899,-49.316,-46.387,-49.316,-46.875,0.000,0
157827.903,-42.480,-38.086,-45.898,-37.109,0.000,0
157827.907,-41.016,-38.086,-42.969,-32.715,0.000,0
157827.911,-43.457,-35.645,-42.969,-29.297,0.000,0
157827.915,-36.133,-36.621,-38.574,-33.691,0.000,0
157827.918,-36.133,-37.109,-35.645,-31.738,0.000,0
157827.922,-29.297,-35.156,-31.738,-22.461,0.000,0
157827.926,-24.414,-33.203,-27.832,-18.555,0.000,0
157827.930,-21.973,-26.855,-25.391,-19.043,0.000,0
157827.934,-31.250,-28.809,-21.484,-35.156,0.000,0
157827.938,-42.480,-28.809,-28.809,-38.574,0.000,0
157827.942,-21.973,-19.531,-32.715,-23.438,0.000,0
157827.946,-12.207,-18.066,-27.344,-21.484,0.000,0
157827.950,-31.738,-25.879,-27.832,-24.414,0.000,0
157827.954,-38.086,-27.832,-31.738,-40.039,0.000,0
157827.957,-25.879,-26.367,-30.273,-41.992,0.000,0
157827.961,-24.902,-32.227,-30.273,-36.621,0.000,0
157827.965,-24.414,-38.086,-33.691,-39.062,0.000,0
157827.969,-20.996,-32.227,-29.785,-39.551,0.000,0
157827.973,-19.531,-21.973,-28.320,-30.762,0.000,0
157827.977,-13.184,-18.066,-23.926,-21.973,0.000,0
157827.981,-3.418,-9.277,-14.160,-20.996,0.000,0
157827.985,-5.371,-5.371,-16.113,-12.207,0.000,0
157827.989,-7.812,-10.742,-19.043,-14.648,0.000,0
157827.993,-5.859,-11.719,-18.555,-23.926,0.000,0
157827.997,-22.461,-15.137,-23.438,-27.344,0.000,0
157828.000,-21.484,-17.578,-31.250,-17.578,0.000,0
157828.004,-11.230,-21.484,-33.691,-6.348,0.000,0
157828.008,-20.020,-22.949,-28.809,-2.930,0.000,0
157828.012,-29.297,-19.531,-21.973,-17.090,0.000,0
157828.016,-27.832,-19.043,-32.227,-29.297,0.000,0
157828.020,-23.926,-20.508,-37.109,-23.438,0.000,0
157828.024,-24.414,-22.461,-29.785,-16.113,0.000,0
157828.028,-25.879,-22.461,-29.785,-9.277,0.000,0
157828.032,-25.879,-35.645,-36.133,-24.902,0.000,0
157828.036,-40.039,-41.992,-44.922,-37.109,0.000,0
157828.040,-46.387,-32.715,-42.969,-28.320,0.000,0
157828.043,-35.156,-34.668,-44.434,-25.391,0.000,0
157828.047,-34.180,-41.992,-46.387,-33.203,0.000,0
157828.051,-28.320,-45.898,-42.480,-35.645,0.000,0
157828.055,-10.254,-48.828,-40.527,-13.672,0.000,0
157828.059,-0.488,-40.527,-27.344,-0.977,0.000,0
157828.063,-36.133,-35.156,-31.250,-38.574,0.000,0
157828.067,-46.875,-35.645,-34.180,-45.898,0.000,0
157828.071,-18.555,-31.250,-21.484,-30.273,0.000,0
157828.075,-30.273,-31.738,-24.414,-33.203,0.000,0
157828.079,-37.109,-31.250,-30.273,-38.086,0.000,0
157828.082,-15.137,-23.926,-23.926,-22.461,0.000,0
157828.086,-12.207,-18.066,-21.484,-4.395,0.000,0
157828.090,-14.160,-22.949,-19.531,-18.066,0.000,0
157828.094,-9.277,-22.949,-18.555,-23.438,0.000,0
157828.098,-19.043,-16.602,-19.531,-21.973,0.000,0
157828.102,-30.273,-19.043,-23.926,-24.414,0.000,0
157828.106,-17.090,-20.996,-28.809,-23.438,0.000,0
157828.110,-9.277,-18.066,-25.391,-29.297,0.000,0
157828.114,-20.508,-20.020,-24.414,-22.461,0.000,0
157828.118,-21.484,-19.043,-27.832,-15.625,0.000,0
157828.122,-14.648,-18.555,-29.785,-22.949,0.000,0
157828.125,-20.508,-27.832,-30.762,-22.949,0.000,0
157828.129,-31.250,-27.832,-22.949,-29.297,0.000,0
157828.133,-26.855,-21.484,-18.555,-28.809,0.000,0
157828.137,-29.297,-27.344,-29.297,-27.344,0.000,0
157828.141,-33.203,-32.227,-41.504,-29.297,0.000,0
157828.145,-36.133,-37.598,-41.016,-29.785,0.000,0
157828.149,-39.062,-45.898,-37.109,-38.574,0.000,0
157828.153,-36.621,-42.969,-42.969,-41.016,0.000,0
157828.157,-39.551,-41.016,-41.992,-31.738,0.000,0
157828.161,-32.227,-41.504,-33.203,-14.160,0.000,0
157828.165,-32.227,-39.551,-27.832,-12.695,0.000,0
157828.168,-33.203,-33.691,-26.367,-27.832,0.000,0
157828.172,-31.250,-33.691,-28.320,-33.203,0.000,0
157828.176,-36.621,-33.203,-32.227,-30.273,0.000,0
157828.180,-32.227,-33.691,-34.180,-25.391,0.000,0
157828.184,-30.762,-38.086,-39.062,-31.250,0.000,0
157828.188,-34.180,-40.039,-39.551,-34.668,0.000,0
157828.192,-31.250,-29.297,-28.809,-28.809,0.000,0
157828.196,-20.508,-21.973,-23.438,-23.438,0.000,0
157828.200,-19.531,-29.785,-29.785,-33.203,0.000,0
157828.204,-29.297,-35.645,-33.691,-31.738,0.000,0
157828.207,-33.691,-37.598,-32.715,-24.902,0.000,0
157828.211,-31.738,-34.668,-31.250,-36.621,0.000,0
157828.215,-28.809,-35.156,-31.738,-28.320,0.000,0
157828.219,-35.156,-33.203,-36.133,-21.973,0.000,0
157828.223,-40.039,-28.320,-38.086,-32.715,0.000,0
157828.227,-25.879,-18.555,-27.344,-28.809,0.000,0
157828.231,-25.879,-22.949,-33.691,-26.367,0.000,0
157828.235,-29.297,-27.832,-39.062,-34.668,0.000,0
157828.239,-23.438,-27.832,-31.738,-38.086,0.000,0
157828.243,-26.367,-27.832,-35.645,-30.762,0.000,0
157828.247,-22.949,-18.555,-26.367,-27.344,0.000,0
157828.250,-17.090,-15.625,-19.043,-37.109,0.000,0
157828.254,-8.301,-9.277,-18.066,-25.879,0.000,0
157828.258,7.324,0.000,-10.254,-7.324,0.000,0
157828.262,7.324,-5.371,-9.277,-5.859,0.000,0
157828.266,-0.977,-13.184,-18.066,-10.742,0.000,0
157828.270,-4.883,-11.230,-21.973,-18.066,0.000,0
157828.274,-9.766,-12.695,-21.973,-21.973,0.000,0
157828.278,-8.301,-18.066,-28.809,-18.555,0.000,0
157828.282,-17.578,-30.273,-30.762,-16.602,0.000,0
157828.286,-27.344,-41.992,-28.809,-21.973,0.000,0
157828.290,-23.926,-40.039,-31.738,-34.180,0.000,0
157828.293,-30.762,-26.855,-36.133,-29.785,0.000,0
157828.297,-31.250,-21.973,-31.250,-20.020,0.000,0
157828.301,-31.738,-27.344,-29.297,-26.367,0.000,0
157828.305,-22.461,-29.785,-33.691,-30.762,0.000,0
157828.309,-24.902,-35.156,-32.715,-34.180,0.000,0
157828.313,-35.645,-34.668,-27.344,-35.156,0.000,0
157828.317,-26.855,-23.926,-21.973,-34.180,0.000,0
157828.321,-29.297,-27.832,-22.949,-41.016,0.000,0
157828.325,-34.180,-30.762,-21.484,-37.598,0.000,0
157828.329,-23.438,-18.555,-17.578,-28.320,0.000,0
157828.332,-13.672,-19.531,-20.996,-25.391,0.000,0
157828.336,-16.113,-23.926,-24.414,-21.973,0.000,0
157828.340,-22.461,-19.531,-23.926,-21.973,0.000,0
157828.344,-13.672,-18.555,-19.043,-24.414,0.000,0
157828.348,-14.648,-17.090,-16.113,-34.668,0.000,0
157828.352,-26.855,-16.113,-20.020,-37.109,0.000,0
157828.356,-22.949,-18.066,-19.043,-20.020,0.000,0
157828.360,-19.531,-14.160,-16.113,-22.949,0.000,0
157828.364,-15.137,-23.926,-25.879,-35.645,0.000,0
157828.368,-9.277,-28.809,-26.855,-31.738,0.000,0
157828.372,-22.461,-16.113,-26.855,-27.344,0.000,0
157828.375,-19.043,-13.672,-30.762,-26.367,0.000,0
157828.379,-11.230,-15.625,-23.438,-27.832,0.000,0
157828.383,-22.949,-18.555,-24.414,-23.438,0.000,0
157828.387,-26.855,-14.160,-14.648,-21.973,0.000,0
157828.391,-24.902,-9.766,-14.160,-20.020,0.000,0
157828.395,-16.113,-18.066,-25.391,-17.090,0.000,0
157828.399,-12.207,-19.043,-21.484,-8.789,0.000,0
157828.403,-27.344,-17.578,-18.066,-3.418,0.000,0
157828.407,-26.855,-20.508,-15.137,-18.555,0.000,1
157828.411,-13.672,-17.578,-12.207,-17.578,0.000,0
157828.415,-12.207,-12.695,-11.230,-6.836,0.000,0
157828.418,-20.508,-9.277,-5.371,-6.836,0.000,0
157828.422,-17.578,-10.742,-9.766,-4.883,0.000,0
157828.426,-18.066,-16.113,-15.137,-20.020,0.000,0
157828.430,-25.391,-18.555,-19.531,-23.438,0.000,0
157828.434,-20.020,-20.996,-25.391,-11.719,0.000,0
157828.438,-17.090,-24.902,-25.879,-19.043,0.000,0
157828.442,-27.832,-28.809,-24.414,-22.461,0.000,0
157828.446,-31.738,-24.902,-10.742,-19.043,0.000,0
157828.450,-24.414,-17.090,-8.301,-21.973,0.000,0
157828.454,-20.996,-19.531,-24.902,-19.531,0.000,0
157828.457,-20.020,-21.973,-29.785,-18.066,0.000,0
157828.461,-23.926,-20.020,-22.949,-18.066,0.000,0
157828.465,-23.926,-22.949,-16.602,-17.578,0.000,0
157828.469,-19.043,-29.297,-20.508,-27.344,0.000,0
157828.473,-22.949,-28.809,-27.832,-29.297,0.000,0
157828.477,-30.273,-26.367,-22.461,-25.391,0.000,0
157828.481,-29.785,-29.297,-22.949,-24.414,0.000,0
157828.485,-27.344,-30.762,-22.949,-28.809,0.000,0
157828.489,-28.320,-31.250,-20.996,-33.691,0.000,0
157828.493,-25.391,-30.273,-25.391,-25.879,0.000,0
157828.497,-24.414,-32.715,-27.832,-19.043,0.000,0
157828.500,-31.250,-30.273,-30.273,-14.160,0.000,0
157828.504,-36.133,-35.156,-28.809,-20.996,0.000,0
157828.508,-34.180,-41.992,-25.879,-30.762,0.000,0
157828.512,-32.715,-34.668,-34.668,-23.926,0.000,0
157828.516,-33.203,-32.715,-37.598,-25.879,0.000,0
157828.520,-33.691,-30.762,-35.156,-30.762,0.000,0
157828.524,-39.551,-32.715,-33.203,-36.133,0.000,0
157828.528,-42.480,-42.969,-35.156,-46.387,0.000,0
157828.532,-39.551,-40.039,-35.156,-28.809,0.000,0
157828.536,-43.945,-42.480,-36.621,-23.926,0.000,0
157828.540,-44.922,-45.410,-35.645,-40.527,0.000,0
157828.543,-32.715,-32.227,-24.902,-39.062,0.000,0
157828.547,-27.832,-28.809,-27.344,-39.551,0.000,0
157828.551,-30.762,-30.762,-35.645,-38.574,0.000,0
157828.555,-32.715,-38.574,-35.156,-32.227,0.000,0
157828.559,-38.086,-43.945,-37.598,-30.762,0.000,0
157828.563,-37.598,-44.922,-41.504,-38.574,0.000,0
157828.567,-43.457,-44.434,-39.551,-47.852,0.000,0
157828.571,-46.387,-39.062,-41.992,-44.922,0.000,0
157828.575,-36.621,-42.480,-47.852,-37.109,0.000,0
157828.579,-37.109,-45.410,-43.457,-39.062,0.000,0
157828.582,-38.086,-37.598,-32.715,-39.062,0.000,0
157828.586,-32.227,-35.645,-30.762,-37.109,0.000,0
157828.590,-32.227,-37.109,-33.203,-43.945,0.000,0
157828.594,-27.344,-28.809,-19.043,-25.879,0.000,0
157828.598,-17.578,-17.090,-11.719,-10.742,0.000,0
157828.602,-19.531,-16.113,-23.438,-17.090,0.000,0
157828.606,-22.461,-18.066,-22.461,-17.090,0.000,0
157828.610,-20.508,-19.043,-21.484,-16.602,0.000,0
157828.614,-18.066,-27.344,-25.879,-17.090,0.000,0
157828.618,-19.531,-27.832,-24.902,-18.555,0.000,0
157828.622,-16.113,-25.391,-21.484,-14.160,0.000,0
157828.625,-6.836,-24.902,-21.973,-12.695,0.000,0
157828.629,-3.418,-21.484,-26.855,-8.789,0.000,0
157828.633,-2.441,-20.996,-26.855,2.441,0.000,0
157828.637,-6.836,-20.508,-26.855,3.906,0.000,0
157828.641,-12.207,-22.949,-27.832,-4.883,0.000,0
157828.645,-14.160,-20.020,-21.484,-5.859,0.000,0
157828.649,-21.484,-23.926,-20.996,-1.953,0.000,0
157828.653,-23.438,-20.020,-16.602,-6.348,0.000,0
157828.657,-24.414,-16.602,-15.625,-14.160,0.000,0
157828.661,-23.438,-23.438,-20.508,-13.184,0.000,0
157828.665,-21.484,-28.809,-25.391,-17.578,0.000,0
157828.668,-26.855,-26.855,-25.391,-37.109,0.000,0
157828.672,-14.648,-16.602,-18.066,-24.902,0.000,0
157828.676,-3.906,-18.066,-14.648,-6.348,0.000,0
157828.680,-16.602,-25.879,-20.508,-17.090,0.000,0
157828.684,-29.297,-28.809,-24.414,-34.668,0.000,0
157828.688,-19.043,-26.855,-25.391,-26.367,0.000,0
157828.692,-13.672,-30.273,-32.227,-23.438,0.000,0
157828.696,-38.086,-33.691,-34.668,-33.203,0.000,0
157828.700,-50.781,-28.320,-25.879,-33.691,0.000,0
157828.704,-38.574,-28.809,-24.902,-37.598,0.000,0
157828.707,-24.902,-26.367,-32.715,-26.367,0.000,0
157828.711,-40.527,-28.320,-37.109,-29.785,0.000,0
157828.715,-55.664,-34.180,-37.109,-43.457,0.000,0
157828.719,-41.992,-34.180,-32.715,-38.086,0.000,0
157828.723,-33.691,-30.762,-31.738,-37.109,0.000,0
157828.727,-30.762,-25.879,-30.273,-35.156,0.000,0
157828.731,-25.391,-28.320,-28.320,-21.484,0.000,0
157828.735,-23.438,-29.297,-33.203,-16.113,0.000,0
157828.739,-22.461,-28.320,-38.086,-12.695,0.000,0
157828.743,-25.879,-30.762,-32.715,-24.902,0.000,0
157828.747,-23.926,-31.250,-33.203,-21.973,0.000,0
157828.750,-18.066,-23.438,-33.691,-3.906,0.000,0
157828.754,-28.320,-27.344,-37.598,-14.160,0.000,0
157828.758,-28.320,-28.320,-38.086,-20.996,0.000,0
157828.762,-28.809,-25.391,-26.367,-26.367,0.000,0
157828.766,-31.250,-29.785,-30.762,-35.645,0.000,0
157828.770,-19.531,-30.762,-30.273,-24.902,0.000,0
157828.774,-18.555,-27.832,-21.973,-10.742,0.000,0
157828.778,-14.648,-25.391,-20.508,-5.859,0.000,0
157828.782,-12.207,-22.949,-18.555,-19.043,0.000,0
157828.786,-12.695,-23.438,-27.832,-28.320,0.000,0
157828.790,-15.137,-23.438,-29.297,-20.020,0.000,0
157828.793,-18.555,-17.578,-19.043,-16.113,0.000,0
157828.797,-17.578,-21.973,-27.832,-16.113,0.000,0
157828.801,-20.020,-23.438,-29.785,-42.480,0.000,0
157828.805,-27.832,-22.461,-21.973,-50.293,0.000,0
157828.809,-33.691,-26.855,-32.715,-30.762,0.000,0
157828.813,-28.320,-34.180,-47.363,-26.855,0.000,0
157828.817,-30.762,-36.621,-41.504,-23.926,0.000,0
157828.821,-31.250,-32.715,-27.344,-31.738,0.000,0
157828.825,-23.438,-32.227,-27.832,-25.879,0.000,0
157828.829,-25.879,-28.320,-30.273,-8.789,0.000,0
157828.832,-31.738,-22.949,-26.855,-14.648,0.000,0
157828.836,-35.645,-28.809,-34.668,-21.484,0.000,0
157828.840,-35.645,-37.598,-36.621,-27.832,0.000,0
157828.844,-29.297,-32.227,-25.879,-33.691,0.000,0
157828.848,-23.926,-23.438,-23.926,-30.762,0.000,0
157828.852,-27.832,-27.344,-20.996,-22.949,0.000,0
157828.856,-25.879,-25.879,-20.996,-21.484,0.000,0
157828.860,-19.531,-25.391,-22.949,-24.414,0.000,0
157828.864,-22.461,-20.996,-32.715,-23.926,0.000,0
157828.868,-17.578,-17.578,-35.645,-25.391,0.000,0
157828.872,-20.508,-28.809,-28.320,-25.391,0.000,0
157828.875,-20.508,-29.785,-26.367,-16.602,0.000,0
157828.879,-20.996,-22.461,-19.531,-31.250,0.000,0
157828.883,-13.672,-16.113,-12.207,-27.344,0.000,0
157828.887,-6.836,-19.043,-9.766,-5.859,0.000,0
157828.891,-3.906,-16.602,-12.695,-5.371,0.000,0
157828.895,-8.789,-8.301,-9.766,-4.883,0.000,0
157828.899,-7.812,-5.859,-2.930,0.977,0.000,0
157828.903,-0.977,3.906,3.906,0.977,0.000,0
157828.907,-6.836,0.000,-1.953,-9.766,0.000,0
157828.911,-11.230,-14.648,-12.207,-14.160,0.000,0
157828.915,-23.926,-13.672,-15.137,-18.066,0.000,0
157828.918,-27.832,-14.648,-15.625,-22.461,0.000,0
157828.922,-33.203,-23.926,-20.020,-33.203,0.000,0
157828.926,-39.551,-25.879,-21.484,-27.344,0.000,0
157828.930,-29.297,-22.949,-24.414,-16.602,0.000,0
157828.934,-36.133,-18.555,-24.414,-13.184,0.000,0
157828.938,-35.645,-10.254,-8.789,-9.766,0.000,0
157828.942,-22.949,-7.812,-10.254,-4.395,0.000,0
157828.946,-22.949,-14.648,-19.531,-8.301,0.000,0
157828.950,-29.785,-21.973,-22.461,-16.602,0.000,0
157828.954,-33.691,-23.438,-18.555,-13.672,0.000,0
157828.957,-34.668,-26.855,-15.137,-20.996,0.000,0
157828.961,-32.715,-33.691,-28.809,-33.691,0.000,0
157828.965,-30.273,-32.715,-31.250,-27.832,0.000,0
157828.969,-31.738,-32.227,-24.902,-23.926,0.000,0
157828.973,-25.391,-41.016,-29.297,-25.879,0.000,0
157828.977,-21.484,-39.551,-28.320,-26.367,0.000,0
157828.981,-37.109,-35.156,-31.250,-43.457,0.000,0
157828.985,-37.109,-31.738,-31.738,-39.551,0.000,0
157828.989,-28.809,-30.273,-32.227,-26.855,0.000,0
157828.993,-34.668,-37.598,-35.645,-23.926,0.000,1
157828.997,-36.133,-34.668,-32.715,-15.625,0.000,0
157829.000,-33.203,-29.297,-33.203,-17.578,0.000,0
157829.004,-24.414,-32.227,-29.785,-15.137,0.000,0
157829.008,-28.320,-32.227,-25.391,-10.742,0.000,0
157829.012,-32.227,-27.832,-28.809,-17.578,0.000,0
157829.016,-27.832,-25.879,-28.320,-24.414,0.000,0
157829.020,-27.832,-25.391,-30.273,-26.367,0.000,0
157829.024,-30.273,-29.297,-33.691,-25.391,0.000,0
157829.028,-30.273,-31.738,-27.832,-19.531,0.000,0
157829.032,-24.414,-25.391,-28.809,-19.043,0.000,0
157829.036,-23.926,-26.855,-35.645,-28.809,0.000,0
157829.040,-24.414,-26.367,-32.227,-34.668,0.000,0
157829.043,-23.926,-17.090,-27.344,-28.809,0.000,0
157829.047,-28.809,-20.020,-30.273,-32.715,0.000,0
157829.051,-20.996,-19.531,-25.879,-19.043,0.000,0
157829.055,-10.254,-16.602,-17.090,-5.859,0.000,0
157829.059,-15.625,-15.625,-11.230,-21.973,0.000,0
157829.063,-25.391,-15.137,-13.184,-25.391,0.000,0
157829.067,-25.391,-19.043,-21.973,-18.555,0.000,0
157829.071,-22.461,-22.461,-23.926,-17.578,0.000,0
157829.075,-21.484,-29.297,-21.484,-24.902,0.000,0
157829.079,-24.902,-43.457,-27.832,-37.109,0.000,0
157829.082,-38.086,-45.410,-39.062,-48.828,0.000,0
157829.086,-45.410,-44.922,-35.645,-50.293,0.000,0
157829.090,-49.805,-46.875,-29.785,-34.668,0.000,0
157829.094,-50.293,-53.223,-39.062,-41.016,0.000,0
157829.098,-48.340,-51.758,-41.016,-50.781,0.000,0
157829.102,-53.223,-47.852,-44.434,-39.062,0.000,0
157829.106,-48.340,-51.270,-41.992,-41.016,0.000,0
157829.110,-50.781,-46.875,-37.598,-49.805,0.000,0
157829.114,-49.805,-41.016,-40.527,-50.781,0.000,0
157829.118,-38.574,-46.875,-42.480,-53.223,0.000,0
157829.122,-35.156,-43.945,-34.668,-36.133,0.000,0
157829.125,-30.273,-36.133,-29.297,-23.438,0.000,0
157829.129,-24.414,-37.109,-33.691,-29.297,0.000,0
157829.133,-17.578,-35.645,-26.367,-31.250,0.000,0
157829.137,-24.902,-31.250,-18.066,-42.480,0.000,0
157829.141,-33.691,-37.109,-32.227,-41.016,0.000,0
157829.145,-32.715,-48.340,-41.992,-34.668,0.000,0
157829.149,-36.621,-49.316,-41.504,-36.621,0.000,0
157829.153,-40.039,-47.852,-42.480,-41.504,0.000,0
157829.157,-40.527,-46.875,-43.457,-50.293,0.000,0
157829.161,-42.480,-44.922,-42.480,-43.945,0.000,0
157829.165,-42.969,-41.992,-36.621,-31.250,0.000,0
157829.168,-49.316,-39.551,-43.457,-35.645,0.000,0
157829.172,-43.457,-38.086,-43.945,-39.551,0.000,0
157829.176,-32.227,-36.621,-33.691,-47.363,0.000,0
157829.180,-35.156,-31.250,-29.297,-41.016,0.000,0
157829.184,-35.156,-29.785,-35.156,-36.621,0.000,0
157829.188,-21.484,-30.273,-31.738,-26.855,0.000,0
157829.192,-27.344,-26.855,-24.902,-11.719,0.000,0
157829.196,-39.551,-27.832,-23.926,-27.344,0.000,0
157829.200,-29.785,-21.484,-19.531,-31.250,0.000,0
157829.204,-20.508,-18.066,-17.578,-19.531,0.000,0
157829.207,-14.648,-22.949,-15.137,-20.996,0.000,0
157829.211,-18.066,-22.949,-13.184,-18.066,0.000,0
157829.215,-14.160,-20.020,-16.602,-13.184,0.000,0
157829.219,-11.230,-22.949,-20.508,-24.902,0.000,0
157829.223,-24.414,-21.484,-23.438,-33.203,0.000,0
157829.227,-32.715,-19.531,-22.461,-29.785,0.000,0
157829.231,-23.438,-18.066,-21.973,-17.090,0.000,0
157829.235,-15.625,-13.672,-13.672,-20.020,0.000,0
157829.239,-16.113,-14.648,-13.184,-30.273,0.000,0
157829.243,-18.555,-19.043,-19.043,-25.879,0.000,0
157829.247,-21.484,-23.926,-18.555,-25.391,0.000,0
157829.250,-21.484,-18.555,-16.602,-22.949,0.000,0
157829.254,-25.391,-21.484,-14.160,-27.344,0.000,0
157829.258,-31.738,-25.879,-19.531,-33.691,0.000,0
157829.262,-31.250,-28.809,-22.949,-27.832,0.000,0
157829.266,-33.203,-28.320,-23.438,-26.367,0.000,0
157829.270,-35.645,-24.414,-22.461,-17.578,0.000,0
157829.274,-25.879,-23.438,-15.625,-15.625,0.000,0
157829.278,-23.438,-20.508,-15.137,-25.391,0.000,0
157829.282,-24.414,-17.578,-25.879,-21.484,0.000,0
157829.286,-21.973,-25.391,-28.320,-23.926,0.000,0
157829.290,-28.320,-31.250,-28.809,-30.762,0.000,0
157829.293,-27.344,-26.367,-20.508,-25.391,0.000,0
157829.297,-23.438,-18.555,-14.160,-28.809,0.000,0
157829.301,-20.996,-17.090,-19.531,-32.227,0.000,0
157829.305,-22.461,-21.973,-18.066,-19.531,0.000,0
157829.309,-28.809,-30.273,-22.949,-15.625,0.000,0
157829.313,-36.133,-38.574,-26.367,-27.832,0.000,0
157829.317,-35.156,-31.250,-29.297,-24.902,0.000,0
157829.321,-28.320,-26.855,-36.133,-22.949,0.000,0
157829.325,-29.297,-30.273,-34.668,-28.320,0.000,0
157829.329,-32.715,-30.762,-29.785,-23.438,0.000,0
157829.332,-20.020,-22.461,-20.508,-24.414,0.000,0
157829.336,-15.625,-16.113,-16.113,-31.250,0.000,0
157829.340,-21.484,-19.531,-17.090,-27.832,0.000,0
157829.344,-17.578,-25.879,-12.207,-14.160,0.000,0
157829.348,-21.973,-20.508,-15.137,-14.160,0.000,0
157829.352,-33.203,-20.508,-26.855,-32.227,0.000,0
157829.356,-32.715,-20.020,-22.949,-35.645,0.000,0
157829.360,-23.438,-12.695,-14.160,-21.484,0.000,0
157829.364,-17.090,-19.043,-13.672,-22.461,0.000,0
157829.368,-20.020,-23.926,-13.672,-13.672,0.000,0
157829.372,-20.508,-16.602,-11.230,-6.836,0.000,0
157829.375,-20.020,-12.695,-10.742,-26.367,0.000,0
157829.379,-19.043,-17.578,-19.531,-24.902,0.000,0
157829.383,-20.508,-18.555,-23.438,-11.230,0.000,0
157829.387,-26.855,-19.531,-23.438,-18.066,0.000,0
157829.391,-21.484,-26.367,-16.113,-18.555,0.000,0
157829.395,-17.578,-22.949,-12.207,-15.625,0.000,0
157829.399,-23.438,-19.531,-21.973,-22.949,0.000,0
157829.403,-26.855,-18.066,-19.043,-29.785,0.000,0
157829.407,-23.438,-18.066,-17.090,-15.137,0.000,0
157829.411,-14.160,-22.461,-21.484,-16.602,0.000,0
157829.415,-19.531,-22.949,-17.578,-43.945,0.000,0
157829.418,-17.578,-18.066,-22.949,-28.809,0.000,0
157829.422,-4.395,-19.531,-28.320,-17.090,0.000,0
157829.426,-6.836,-24.902,-29.297,-20.020,0.000,0
157829.430,-7.812,-26.367,-24.902,-11.719,0.000,0
157829.434,-15.625,-26.367,-24.902,-23.438,0.000,0
157829.438,-20.996,-23.926,-34.180,-31.738,0.000,0
157829.442,-16.602,-25.391,-28.809,-27.344,0.000,0
157829.446,-22.949,-31.738,-31.250,-20.508,0.000,0
157829.450,-29.297,-34.668,-33.691,-23.438,0.000,0
157829.454,-38.574,-36.133,-32.715,-48.340,0.000,0
157829.457,-39.551,-33.691,-39.551,-47.363,0.000,0
157829.461,-31.250,-35.645,-40.527,-37.109,0.000,0
157829.465,-42.480,-37.109,-34.180,-37.598,0.000,0
157829.469,-41.016,-35.645,-39.062,-33.691,0.000,0
157829.473,-21.973,-29.297,-30.762,-32.227,0.000,0
157829.477,-22.461,-20.996,-25.391,-22.949,0.000,0
157829.481,-30.762,-32.227,-29.297,-26.367,0.000,0
157829.485,-39.551,-36.621,-32.227,-40.039,0.000,0
157829.489,-43.457,-34.668,-31.738,-46.875,0.000,0
157829.493,-36.621,-37.109,-27.832,-48.828,0.000,0
157829.497,-33.203,-30.273,-30.273,-36.133,0.000,0
157829.500,-26.855,-23.926,-26.367,-24.902,0.000,0
157829.504,-22.461,-23.926,-26.367,-26.367,0.000,0
157829.508,-21.973,-25.391,-22.461,-19.531,0.000,0
157829.512,-20.020,-20.508,-14.648,-22.461,0.000,0
157829.516,-16.113,-20.020,-23.926,-30.273,0.000,0
157829.520,-16.602,-22.949,-29.785,-22.461,0.000,0
157829.524,-20.996,-21.973,-28.320,-18.555,0.000,0
157829.528,-18.066,-21.973,-28.809,-20.020,0.000,0
157829.532,-25.391,-23.438,-26.367,-33.691,0.000,0
157829.536,-26.855,-21.484,-25.879,-38.086,0.000,0
157829.540,-22.461,-21.484,-23.438,-32.227,0.000,0
157829.543,-30.273,-16.602,-25.391,-29.297,0.000,0
157829.547,-30.762,-17.578,-30.273,-28.809,0.000,0
157829.551,-23.926,-23.926,-27.344,-37.109,0.000,0
157829.555,-21.973,-21.973,-18.066,-21.484,0.000,0
157829.559,-20.508,-23.438,-24.902,-13.672,0.000,0
157829.563,-16.602,-23.438,-27.832,-18.555,0.000,0
157829.567,-18.555,-17.090,-22.461,-12.695,0.000,0
157829.571,-24.902,-20.508,-26.367,-21.973,0.000,0
157829.575,-20.996,-23.926,-25.879,-26.855,0.000,0
157829.579,-14.648,-22.461,-28.809,-22.461,0.000,0
157829.582,-23.438,-36.133,-35.645,-23.926,0.000,0
157829.586,-30.273,-29.297,-31.250,-11.719,0.000,0
157829.590,-21.973,-16.602,-23.438,-4.883,0.000,0
157829.594,-12.695,-14.648,-22.461,-6.348,0.000,0
157829.598,-15.137,-14.160,-19.531,-4.395,0.000,0
157829.602,-14.648,-12.695,-13.184,-11.230,0.000,0
157829.606,-0.977,-14.160,-16.602,-16.113,0.000,0
157829.610,-1.465,-24.902,-17.090,-14.648,0.000,0
157829.614,-11.230,-20.020,-15.137,-23.438,0.000,0
157829.618,-7.324,-14.648,-18.555,-32.227,0.000,0
157829.622,-6.836,-19.043,-18.555,-16.602,0.000,0
157829.625,-8.301,-18.555,-18.066,-2.441,0.000,0
157829.629,-4.883,-20.020,-15.625,-8.789,0.000,0
157829.633,0.000,-21.973,-17.578,-10.254,0.000,1
157829.637,-3.418,-15.625,-23.438,-6.348,0.000,0
157829.641,-5.859,-14.648,-19.043,-14.648,0.000,0
157829.645,-3.418,-14.160,-13.672,-16.113,0.000,0
157829.649,0.488,-17.578,-18.066,-15.625,0.000,0
157829.653,-4.395,-32.227,-26.855,-23.926,0.000,0
157829.657,-17.090,-31.738,-31.250,-27.344,0.000,0
157829.661,-13.672,-24.414,-31.250,-15.625,0.000,0
157829.665,-8.789,-28.320,-32.227,-6.836,0.000,0
157829.668,-19.043,-34.668,-33.691,-22.461,0.000,0
157829.672,-24.414,-34.180,-34.668,-27.832,0.000,0
157829.676,-22.949,-30.762,-35.645,-25.391,0.000,0
157829.680,-22.949,-34.180,-29.785,-24.902,0.000,0
157829.684,-28.809,-34.180,-31.250,-14.648,0.000,0
157829.688,-26.855,-23.926,-25.879,-19.531,0.000,0
157829.692,-27.344,-21.973,-25.391,-32.715,0.000,0
157829.696,-23.438,-25.879,-31.250,-25.879,0.000,0
157829.700,-19.043,-31.250,-33.203,-20.508,0.000,0
157829.704,-26.367,-30.762,-29.297,-19.531,0.000,0
157829.707,-27.832,-29.297,-22.949,-15.625,0.000,0
157829.711,-27.344,-25.879,-22.949,-23.926,0.000,0
157829.715,-26.367,-24.414,-25.391,-23.926,0.000,0
157829.719,-26.855,-22.949,-21.973,-18.066,0.000,0
157829.723,-36.621,-25.879,-28.320,-13.672,0.000,0
157829.727,-41.504,-27.832,-39.551,-10.742,0.000,0
157829.731,-41.992,-30.273,-29.785,-25.879,0.000,0
157829.735,-46.875,-32.715,-26.855,-18.066,0.000,0
157829.739,-44.434,-34.668,-33.203,-11.230,0.000,0
157829.743,-42.480,-38.086,-38.086,-23.926,0.000,0
157829.747,-41.992,-33.203,-37.109,-25.391,0.000,0
157829.750,-35.645,-28.320,-27.832,-26.855,0.000,0
157829.754,-34.668,-29.785,-30.762,-31.738,0.000,0
157829.758,-35.156,-31.738,-36.621,-28.809,0.000,0
157829.762,-33.203,-30.762,-36.133,-19.043,0.000,0
157829.766,-34.180,-30.273,-30.762,-26.367,0.000,0
157829.770,-31.738,-30.273,-30.273,-39.062,0.000,0
157829.774,-31.738,-33.691,-33.691,-31.250,0.000,0
157829.778,-42.969,-43.457,-40.527,-32.227,0.000,0
157829.782,-48.340,-41.016,-44.434,-35.156,0.000,0
157829.786,-39.062,-30.762,-38.086,-30.762,0.000,0
157829.790,-30.273,-30.762,-31.250,-31.250,0.000,0
157829.793,-27.344,-24.414,-26.367,-35.156,0.000,0
157829.797,-23.438,-15.137,-23.438,-28.809,0.000,0
157829.801,-20.996,-21.973,-31.738,-25.391,0.000,0
157829.805,-21.973,-26.855,-28.809,-30.762,0.000,0
157829.809,-30.762,-22.949,-18.555,-31.738,0.000,0
157829.813,-28.809,-20.508,-26.367,-15.625,0.000,0
157829.817,-22.461,-25.879,-35.156,-19.043,0.000,0
157829.821,-24.902,-33.691,-35.156,-23.926,0.000,0
157829.825,-20.508,-29.297,-26.855,-17.578,0.000,0
157829.829,-12.207,-20.996,-17.090,-22.949,0.000,0
157829.832,-12.207,-22.949,-25.391,-19.531,0.000,0
157829.836,-18.555,-18.555,-23.438,-10.254,0.000,0
157829.840,-10.742,-16.113,-15.625,-6.348,0.000,0
157829.844,-8.301,-22.461,-17.578,-12.695,0.000,0
157829.848,-12.207,-20.508,-13.672,-17.090,0.000,0
157829.852,-3.418,-12.695,-12.695,-11.230,0.000,0
157829.856,-9.277,-14.160,-16.113,-12.695,0.000,0
157829.860,-19.531,-15.137,-16.602,-19.531,0.000,0
157829.864,-13.184,-16.602,-8.789,-13.184,0.000,0
157829.868,-13.184,-14.648,-10.742,-15.137,0.000,0
157829.872,-16.113,-11.230,-23.926,-20.020,0.000,0
157829.875,-20.996,-17.090,-29.785,-21.973,0.000,0
157829.879,-20.996,-14.160,-25.879,-23.438,0.000,0
157829.883,-19.043,-13.184,-18.555,-17.578,0.000,0
157829.887,-18.066,-21.973,-24.902,-20.996,0.000,0
157829.891,-5.371,-23.926,-32.227,-21.484,0.000,0
157829.895,-14.160,-27.344,-23.438,-21.484,0.000,0
157829.899,-29.785,-30.273,-25.391,-23.438,0.000,0
157829.903,-25.879,-20.508,-28.320,-27.832,0.000,0
157829.907,-20.020,-19.531,-28.320,-30.273,0.000,0
157829.911,-18.555,-17.090,-25.879,-20.020,0.000,0
157829.915,-18.555,-13.184,-19.043,-9.277,0.000,0
157829.918,-19.531,-19.531,-28.809,-9.766,0.000,0
157829.922,-20.508,-21.973,-28.320,-9.766,0.000,0
157829.926,-15.625,-22.461,-20.996,-17.578,0.000,0
157829.930,-27.344,-24.902,-28.320,-29.297,0.000,0
157829.934,-32.227,-24.414,-35.156,-21.973,0.000,0
157829.938,-24.902,-24.414,-30.273,-19.043,0.000,0
157829.942,-26.855,-27.832,-28.809,-15.137,0.000,0
157829.946,-28.809,-23.438,-28.809,-4.883,0.000,0
157829.950,-21.484,-22.949,-29.785,-4.883,0.000,0
157829.954,-21.973,-23.926,-25.879,-10.742,0.000,0
157829.957,-23.438,-20.508,-23.926,-17.090,0.000,0
157829.961,-25.391,-20.020,-25.879,-20.020,0.000,0
157829.965,-29.297,-11.230,-20.508,-20.508,0.000,0
157829.969,-25.391,-15.137,-24.902,-21.973,0.000,0
157829.973,-30.762,-21.973,-25.391,-21.484,0.000,0
157829.977,-27.832,-24.414,-28.320,-14.648,0.000,0
157829.981,-19.043,-19.531,-23.438,-15.137,0.000,0
157829.985,-20.508,-14.160,-13.184,-12.207,0.000,0
157829.989,-24.902,-19.531,-21.484,-6.836,0.000,0
157829.993,-20.996,-20.508,-27.832,-8.789,0.000,0
157829.997,-22.949,-26.367,-27.344,-14.160,0.000,0
157830.000,-40.039,-34.668,-31.738,-23.438,0.000,0
157830.004,-40.039,-31.738,-32.227,-26.855,0.000,0
157830.008,-32.227,-34.180,-30.762,-31.250,0.000,0
157830.012,-37.109,-39.551,-35.156,-38.086,0.000,0
157830.016,-38.574,-32.715,-38.086,-32.715,0.000,0
157830.020,-28.809,-25.879,-35.156,-20.508,0.000,0
157830.024,-20.508,-26.367,-32.227,-22.461,0.000,0
157830.028,-23.438,-27.344,-33.691,-27.832,0.000,0
157830.032,-24.414,-30.762,-32.227,-30.273,0.000,0
157830.036,-16.602,-25.391,-23.926,-24.902,0.000,0
157830.040,-13.672,-24.902,-27.344,-19.043,0.000,0
157830.043,-24.414,-26.367,-25.879,-21.973,0.000,0
157830.047,-28.320,-19.531,-20.996,-17.090,0.000,0
157830.051,-21.484,-22.461,-31.250,-22.949,0.000,0
157830.055,-18.066,-31.250,-36.133,-30.273,0.000,0
157830.059,-28.320,-38.086,-33.203,-29.785,0.000,0
157830.063,-34.668,-41.016,-34.180,-35.156,0.000,0
157830.067,-30.762,-38.086,-35.156,-35.156,0.000,0
157830.071,-31.738,-35.645,-35.156,-31.738,0.000,0
157830.075,-30.762,-40.039,-32.227,-25.879,0.000,0
157830.079,-22.949,-38.086,-31.738,-23.438,0.000,0
157830.082,-23.926,-33.691,-28.320,-26.367,0.000,0
157830.086,-37.109,-38.574,-27.832,-34.668,0.000,0
157830.090,-41.992,-40.527,-35.156,-28.320,0.000,0
157830.094,-32.715,-32.227,-30.762,-20.020,0.000,0
157830.098,-26.855,-29.785,-26.855,-23.926,0.000,0
157830.102,-25.879,-32.715,-29.297,-31.250,0.000,0
157830.106,-29.297,-30.273,-27.832,-31.738,0.000,0
157830.110,-33.203,-25.391,-29.785,-26.367,0.000,0
157830.114,-26.855,-18.066,-33.203,-18.555,0.000,0
157830.118,-18.066,-15.625,-28.809,-12.695,0.000,0
157830.122,-10.742,-20.508,-16.602,-18.066,0.000,0
157830.125,-7.324,-14.648,-6.348,-16.113,0.000,0
157830.129,-5.371,-10.742,-12.207,-5.371,0.000,0
157830.133,-6.836,-17.578,-15.137,-12.695,0.000,0
157830.137,-7.812,-20.996,-14.160,-12.207,0.000,0
157830.141,-0.977,-11.230,-7.812,-1.465,0.000,0
157830.145,-6.836,-9.277,-8.301,-8.301,0.000,0
157830.149,-20.020,-14.648,-16.113,-14.648,0.000,0
157830.153,-25.391,-20.996,-14.648,-5.371,0.000,0
157830.157,-20.020,-22.461,-14.160,1.953,0.000,0
157830.161,-17.090,-20.996,-23.438,-16.602,0.000,0
157830.165,-20.508,-24.902,-24.414,-23.926,0.000,0
157830.168,-24.902,-22.461,-22.461,-22.949,0.000,0
157830.172,-28.809,-27.344,-29.785,-33.691,0.000,0
157830.176,-24.414,-30.762,-29.785,-30.273,0.000,0
157830.180,-17.578,-30.273,-18.555,-26.367,0.000,0
157830.184,-15.625,-26.367,-17.090,-38.086,0.000,0
157830.188,-20.996,-26.855,-27.832,-42.480,0.000,0
157830.192,-21.484,-29.297,-25.879,-36.133,0.000,0
157830.196,-20.996,-31.250,-25.391,-28.809,0.000,0
157830.200,-34.668,-35.645,-33.203,-32.227,0.000,0
157830.204,-34.180,-42.480,-37.109,-36.621,0.000,0
157830.207,-20.996,-39.062,-37.109,-35.156,0.000,0
157830.211,-25.391,-30.273,-27.344,-30.273,0.000,0
157830.215,-25.879,-28.320,-23.926,-14.648,0.000,0
157830.219,-21.973,-29.785,-35.645,-17.090,0.000,0
157830.223,-24.902,-31.738,-35.156,-29.785,0.000,0
157830.227,-24.414,-33.691,-35.156,-21.484,0.000,0
157830.231,-30.273,-31.250,-40.527,-25.391,0.000,0
157830.235,-31.738,-28.809,-38.574,-34.668,0.000,0
157830.239,-25.879,-26.367,-29.297,-26.367,0.000,0
157830.243,-24.902,-20.508,-28.320,-24.902,0.000,0
157830.247,-30.273,-17.578,-25.879,-27.344,0.000,0
157830.250,-20.996,-13.672,-22.949,-28.320,0.000,1
157830.254,-9.277,-20.508,-30.762,-17.578,0.000,0
157830.258,-15.625,-22.949,-32.715,-18.555,0.000,0
157830.262,-13.184,-23.438,-27.344,-41.992,0.000,0
157830.266,-18.066,-28.809,-32.715,-30.273,0.000,0
157830.270,-20.508,-24.902,-27.344,-18.555,0.000,0
157830.274,-17.090,-22.461,-26.855,-32.227,0.000,0
157830.278,-12.207,-25.879,-31.250,-30.762,0.000,0
157830.282,-3.418,-23.438,-20.020,-24.414,0.000,0
157830.286,-21.484,-24.414,-24.902,-32.715,0.000,0
157830.290,-38.574,-24.902,-34.180,-41.504,0.000,0
157830.293,-27.344,-20.508,-34.668,-25.879,0.000,0
157830.297,-19.531,-18.555,-31.738,-17.090,0.000,0
157830.301,-21.973,-21.973,-25.879,-24.414,0.000,0
157830.305,-28.809,-30.762,-29.297,-21.484,0.000,0
157830.309,-32.227,-33.203,-34.668,-24.414,0.000,0
157830.313,-29.297,-25.879,-25.879,-24.414,0.000,0
157830.317,-22.461,-23.438,-17.090,-16.602,0.000,0
157830.321,-21.484,-28.320,-24.414,-29.785,0.000,0
157830.325,-17.578,-33.203,-33.203,-35.645,0.000,0
157830.329,-23.926,-28.809,-28.809,-28.809,0.000,0
157830.332,-31.738,-26.855,-24.414,-18.066,0.000,0
157830.336,-26.367,-27.832,-26.855,-23.926,0.000,0
157830.340,-35.645,-29.297,-35.645,-50.293,0.000,0
157830.344,-34.668,-32.227,-34.180,-44.922,0.000,0
157830.348,-35.156,-31.738,-34.668,-40.527,0.000,0
157830.352,-33.203,-33.203,-45.410,-39.062,0.000,0
157830.356,-32.227,-37.598,-41.992,-33.203,0.000,0
157830.360,-36.621,-30.273,-37.598,-37.598,0.000,0
157830.364,-25.879,-23.926,-33.203,-33.691,0.000,0
157830.368,-19.531,-30.273,-31.738,-24.902,0.000,0
157830.372,-27.344,-37.109,-35.645,-23.926,0.000,0
157830.375,-25.879,-33.203,-34.180,-27.832,0.000,0
157830.379,-24.902,-31.250,-38.086,-36.621,0.000,0
157830.383,-30.762,-37.109,-44.922,-43.457,0.000,0
157830.387,-34.180,-38.086,-41.992,-37.109,0.000,0
157830.391,-30.762,-28.320,-37.598,-25.879,0.000,0
157830.395,-24.414,-27.344,-37.598,-24.414,0.000,0
157830.399,-30.273,-24.902,-32.227,-31.250,0.000,0
157830.403,-33.203,-25.879,-29.785,-30.273,0.000,0
157830.407,-29.785,-28.320,-30.762,-24.414,0.000,0
157830.411,-21.973,-24.902,-34.180,-15.137,0.000,0
157830.415,-21.973,-24.902,-32.227,-11.230,0.000,0
157830.418,-28.809,-23.926,-31.738,-39.062,0.000,0
157830.422,-30.273,-23.926,-34.668,-45.898,0.000,0
157830.426,-25.879,-24.902,-32.227,-30.273,0.000,0
157830.430,-28.809,-22.461,-36.133,-30.273,0.000,0
157830.434,-26.855,-22.949,-37.598,-31.250,0.000,0
157830.438,-26.855,-31.738,-35.156,-32.227,0.000,0
157830.442,-23.926,-28.320,-34.180,-29.297,0.000,0
157830.446,-18.066,-21.973,-30.762,-23.926,0.000,0
157830.450,-19.531,-20.020,-28.809,-22.949,0.000,0
157830.454,-18.555,-22.949,-37.109,-10.254,0.000,0
157830.457,-17.578,-28.809,-37.598,-19.043,0.000,0
157830.461,-20.508,-30.273,-38.574,-35.156,0.000,0
157830.465,-23.438,-36.621,-39.551,-35.645,0.000,0
157830.469,-29.785,-41.992,-44.922,-31.250,0.000,0
157830.473,-30.273,-37.109,-45.410,-26.855,0.000,0
157830.477,-31.738,-32.715,-37.598,-32.715,0.000,0
157830.481,-32.227,-27.832,-32.715,-18.555,0.000,0
157830.485,-24.902,-29.785,-36.133,-14.160,0.000,0
157830.489,-28.809,-36.621,-43.945,-28.320,0.000,0
157830.493,-36.133,-44.922,-39.551,-29.785,0.000,0
157830.497,-40.527,-49.805,-31.250,-35.645,0.000,0
157830.500,-42.969,-38.086,-37.109,-39.062,0.000,0
157830.504,-31.738,-30.273,-39.062,-26.367,0.000,0
157830.508,-26.855,-33.691,-36.133,-19.043,0.000,0
157830.512,-34.668,-31.250,-37.109,-20.508,0.000,0
157830.516,-31.738,-21.484,-25.391,-19.531,0.000,0
157830.520,-22.461,-16.113,-19.531,-2.930,0.000,0
157830.524,-11.719,-14.648,-20.508,2.930,0.000,0
157830.528,-16.602,-19.531,-18.555,-9.766,0.000,0
157830.532,-22.461,-20.020,-21.484,-14.160,0.000,0
157830.536,-10.742,-10.254,-15.137,-8.789,0.000,0
157830.540,-4.883,-8.301,-9.277,-7.324,0.000,0
157830.543,-11.719,-11.719,-8.789,-3.418,0.000,0
157830.547,-12.207,-11.719,-9.766,-3.418,0.000,0
157830.551,-4.395,-12.695,-7.324,-10.742,0.000,0
157830.555,-13.184,-21.973,-13.184,-18.066,0.000,0
157830.559,-21.973,-35.156,-24.414,-22.949,0.000,0
157830.563,-16.113,-28.320,-28.320,-23.438,0.000,0
157830.567,-16.602,-26.855,-30.762,-27.344,0.000,0
157830.571,-19.531,-32.227,-27.344,-18.555,0.000,0
157830.575,-20.996,-31.250,-26.367,-17.578,0.000,0
157830.579,-23.926,-29.785,-27.344,-24.902,0.000,0
157830.582,-31.250,-34.180,-28.320,-20.508,0.000,0
157830.586,-32.227,-28.320,-28.320,-21.484,0.000,0
157830.590,-26.855,-22.949,-28.809,-20.996,0.000,0
157830.594,-23.438,-25.391,-25.391,-21.973,0.000,0
157830.598,-25.391,-26.855,-23.438,-23.926,0.000,0
157830.602,-26.855,-25.879,-23.438,-20.996,0.000,0
157830.606,-29.297,-26.855,-27.832,-29.785,0.000,0
157830.610,-11.719,-18.555,-21.973,-17.090,0.000,0
157830.614,0.977,-13.672,-10.742,-8.789,0.000,0
157830.618,-4.883,-11.230,-15.625,-15.625,0.000,0
157830.622,-10.254,-8.789,-16.113,-9.277,0.000,0
157830.625,-17.090,-16.602,-20.508,-15.137,0.000,0
157830.629,-12.207,-19.531,-22.461,-14.160,0.000,0
157830.633,-20.508,-17.090,-16.602,-9.766,0.000,0
157830.637,-35.645,-24.902,-29.785,-26.367,0.000,0
157830.641,-29.297,-32.227,-37.598,-33.203,0.000,0
157830.645,-36.133,-29.297,-37.109,-28.809,0.000,0
157830.649,-37.109,-26.367,-32.715,-25.391,0.000,0
157830.653,-29.297,-23.926,-24.414,-29.785,0.000,0
157830.657,-28.320,-15.625,-21.973,-24.414,0.000,0
157830.661,-21.973,-5.859,-19.043,-17.090,0.000,0
157830.665,-23.438,-8.301,-19.043,-21.484,0.000,0
157830.668,-28.809,-11.719,-19.531,-26.855,0.000,0
157830.672,-24.902,-20.996,-24.414,-28.809,0.000,0
157830.676,-27.344,-21.973,-22.461,-26.367,0.000,0
157830.680,-27.344,-18.066,-21.973,-22.949,0.000,0
157830.684,-14.160,-21.973,-26.367,-22.461,0.000,0
157830.688,-4.883,-15.625,-17.578,-15.137,0.000,0
157830.692,-20.020,-16.113,-15.625,-18.066,0.000,0
157830.696,-32.715,-24.414,-23.438,-25.879,0.000,0
157830.700,-28.320,-27.344,-28.320,-26.367,0.000,0
157830.704,-27.832,-30.273,-32.715,-30.762,0.000,0
157830.707,-29.785,-24.414,-31.738,-28.320,0.000,0
157830.711,-25.391,-19.043,-25.391,-20.508,0.000,0
157830.715,-27.344,-27.344,-25.879,-35.645,0.000,0
157830.719,-23.438,-25.391,-23.926,-36.133,0.000,0
157830.723,-14.648,-18.555,-18.066,-20.020,0.000,0
157830.727,-23.438,-24.902,-26.367,-28.320,0.000,0
157830.731,-40.039,-26.367,-28.320,-41.992,0.000,0
157830.735,-38.574,-25.879,-29.297,-46.387,0.000,0
157830.739,-29.297,-28.809,-30.273,-32.227,0.000,0
157830.743,-31.250,-30.762,-29.297,-25.391,0.000,0
157830.747,-37.109,-29.297,-34.180,-22.461,0.000,0
157830.750,-28.809,-22.461,-25.879,-21.973,0.000,0
157830.754,-28.809,-25.879,-23.438,-30.762,0.000,0
157830.758,-36.133,-23.438,-26.367,-29.785,0.000,0
157830.762,-38.086,-30.273,-33.691,-31.250,0.000,0
157830.766,-40.039,-35.156,-37.598,-28.320,0.000,0
157830.770,-20.020,-25.391,-29.785,-18.066,0.000,0
157830.774,-17.090,-28.809,-33.691,-40.527,0.000,0
157830.778,-31.738,-38.086,-38.086,-39.551,0.000,0
157830.782,-34.668,-38.086,-34.668,-31.250,0.000,0
157830.786,-38.574,-35.645,-40.039,-28.320,0.000,0
157830.790,-42.969,-42.480,-40.039,-26.855,0.000,0
157830.793,-42.969,-47.852,-35.156,-41.016,0.000,0
157830.797,-39.551,-44.922,-40.527,-37.598,0.000,0
157830.801,-39.551,-42.480,-39.551,-31.738,0.000,0
157830.805,-34.180,-45.410,-33.203,-27.832,0.000,0
157830.809,-32.715,-42.969,-37.109,-27.832,0.000,0
157830.813,-39.551,-30.762,-33.691,-42.969,0.000,0
157830.817,-32.227,-24.902,-36.133,-41.992,0.000,0
157830.821,-25.391,-32.227,-40.039,-34.668,0.000,0
157830.825,-24.902,-34.668,-30.762,-23.926,0.000,0
157830.829,-22.949,-25.391,-20.508,-21.484,0.000,0
157830.832,-17.090,-20.020,-14.648,-28.320,0.000,0
157830.836,-11.719,-20.508,-19.531,-20.996,0.000,0
157830.840,-11.719,-24.902,-26.855,-16.113,0.000,0
157830.844,-17.090,-22.461,-26.855,-21.973,0.000,0
157830.848,-22.461,-20.508,-28.320,-27.344,0.000,0
157830.852,-22.461,-22.461,-28.320,-31.738,0.000,0
157830.856,-25.391,-23.438,-27.344,-20.508,0.000,0
157830.860,-23.926,-22.461,-33.691,-9.277,0.000,0
157830.864,-20.508,-24.414,-32.227,-17.090,0.000,0
157830.868,-24.414,-29.297,-18.555,-20.508,0.000,0
157830.872,-29.785,-22.461,-10.742,-13.184,0.000,0
157830.875,-28.809,-18.555,-20.020,-12.207,0.000,0
157830.879,-25.879,-24.902,-36.621,-16.113,0.000,0
157830.883,-27.832,-29.785,-36.621,-17.090,0.000,0
157830.887,-25.391,-25.391,-28.320,-4.395,0.000,0
157830.891,-22.949,-23.926,-27.832,-6.836,0.000,0
157830.895,-15.137,-23.438,-27.344,-17.090,0.000,0
157830.899,-15.137,-19.531,-24.902,-12.695,0.000,0
157830.903,-23.926,-14.160,-22.949,-5.859,0.000,0
157830.907,-13.672,-11.719,-21.484,-2.930,0.000,0
157830.911,-3.418,-8.789,-17.090,-10.742,0.000,0
157830.915,-1.953,-8.789,-10.254,-19.531,0.000,0
157830.918,-5.859,-18.555,-14.160,-17.578,0.000,0
157830.922,-9.766,-18.066,-19.531,-20.020,0.000,0
157830.926,-7.812,-17.090,-16.113,-7.324,0.000,0
157830.930,-11.719,-19.531,-16.113,2.930,0.000,0
157830.934,-14.160,-12.207,-17.090,-12.207,0.000,0
157830.938,-19.043,-15.137,-24.414,-26.367,0.000,0
157830.942,-19.531,-20.020,-21.484,-13.184,0.000,0
157830.946,-9.766,-7.324,-17.090,-2.441,0.000,0
157830.950,-11.719,-13.184,-27.344,-16.602,0.000,0
157830.954,-13.184,-22.949,-26.367,-24.414,0.000,0
157830.957,0.977,-18.066,-18.555,-20.508,0.000,0
157830.961,-11.230,-19.043,-15.137,-15.137,0.000,1
157830.965,-16.602,-19.531,-14.160,-11.230,0.000,0
157830.969,0.000,-15.137,-9.277,-7.812,0.000,0
157830.973,-8.301,-10.742,-17.090,-6.348,0.000,0
157830.977,-14.648,-9.766,-27.832,-1.465,0.000,0
157830.981,-12.695,-17.578,-35.156,-8.301,0.000,0
157830.985,-20.020,-26.367,-38.086,-20.020,0.000,0
157830.989,-23.926,-30.273,-34.180,-20.508,0.000,0
157830.993,-27.344,-31.250,-29.785,-21.973,0.000,0
157830.997,-46.875,-41.016,-38.574,-31.738,0.000,0
157831.000,-51.270,-46.875,-42.480,-40.527,0.000,0
157831.004,-36.133,-39.551,-35.645,-30.273,0.000,0
157831.008,-37.598,-39.551,-36.621,-36.133,0.000,0
157831.012,-27.344,-42.969,-39.062,-36.133,0.000,0
157831.016,-19.531,-36.621,-37.598,-14.648,0.000,0
157831.020,-25.391,-31.250,-27.832,-20.020,0.000,0
157831.024,-20.996,-29.785,-24.902,-33.691,0.000,0
157831.028,-21.484,-29.297,-25.879,-39.062,0.000,0
157831.032,-20.020,-28.809,-23.926,-31.250,0.000,0
157831.036,-25.879,-30.273,-30.273,-31.250,0.000,0
157831.040,-31.738,-30.273,-34.180,-32.715,0.000,0
157831.043,-26.855,-26.855,-33.691,-31.250,0.000,0
157831.047,-26.367,-30.762,-36.621,-31.738,0.000,0
157831.051,-40.039,-40.039,-38.086,-39.062,0.000,0
157831.055,-41.992,-42.480,-41.504,-45.898,0.000,0
157831.059,-36.621,-47.852,-44.922,-52.734,0.000,0
157831.063,-32.227,-47.363,-43.457,-43.945,0.000,0
157831.067,-29.297,-41.992,-37.598,-27.344,0.000,0
157831.071,-38.086,-47.363,-32.715,-40.527,0.000,0
157831.075,-39.551,-44.922,-33.691,-41.504,0.000,0
157831.079,-39.062,-41.504,-39.551,-34.180,0.000,0
157831.082,-42.480,-42.480,-39.062,-40.039,0.000,0
157831.086,-42.480,-45.898,-39.062,-38.574,0.000,0
157831.090,-34.180,-40.039,-39.551,-40.527,0.000,0
157831.094,-33.691,-33.203,-43.945,-42.480,0.000,0
157831.098,-37.109,-34.668,-37.109,-37.109,0.000,0
157831.102,-22.949,-32.227,-34.668,-20.508,0.000,0
157831.106,-8.789,-32.227,-40.527,-14.648,0.000,0
157831.110,-18.066,-33.203,-37.109,-27.832,0.000,0
157831.114,-29.785,-22.461,-31.250,-19.043,0.000,0
157831.118,-20.020,-23.438,-29.297,-10.742,0.000,0
157831.122,-6.836,-22.461,-20.996,-11.230,0.000,0
157831.125,-15.625,-19.043,-16.113,-9.766,0.000,0
157831.129,-15.137,-24.414,-21.973,-20.508,0.000,0
157831.133,-7.812,-19.531,-21.973,-21.484,0.000,0
157831.137,-18.066,-18.066,-16.602,-14.160,0.000,0
157831.141,-13.184,-12.207,-15.137,-3.418,0.000,0
157831.145,-7.812,-12.695,-13.672,-10.742,0.000,0
157831.149,-12.695,-16.113,-13.184,-28.320,0.000,0
157831.153,-16.113,-11.230,-18.555,-9.766,0.000,0
157831.157,-21.484,-12.207,-21.973,-10.254,0.000,0
157831.161,-23.438,-15.137,-23.926,-18.555,0.000,0
157831.165,-28.809,-18.066,-28.320,-24.902,0.000,0
157831.168,-29.785,-25.879,-27.832,-39.062,0.000,0
157831.172,-32.227,-25.391,-29.785,-43.457,0.000,0
157831.176,-31.738,-21.484,-30.762,-40.527,0.000,0
157831.180,-21.973,-15.137,-24.902,-20.996,0.000,0
157831.184,-29.297,-17.090,-23.926,-18.066,0.000,0
157831.188,-38.086,-26.855,-26.367,-30.762,0.000,0
157831.192,-27.832,-28.320,-28.809,-29.785,0.000,0
157831.196,-21.973,-29.297,-36.621,-39.551,0.000,0
157831.200,-27.344,-27.832,-41.016,-44.434,0.000,0
157831.204,-37.598,-27.344,-40.527,-34.180,0.000,0
157831.207,-32.715,-28.809,-37.109,-45.898,0.000,0
157831.211,-26.855,-29.297,-37.109,-47.852,0.000,0
157831.215,-35.645,-29.785,-35.156,-35.645,0.000,0
157831.219,-32.227,-30.273,-34.180,-29.785,0.000,0
157831.223,-16.602,-33.203,-36.133,-20.996,0.000,0
157831.227,-24.414,-31.738,-29.297,-22.461,0.000,0
157831.231,-34.668,-27.344,-24.414,-23.438,0.000,0
157831.235,-26.367,-20.996,-20.020,-15.625,0.000,0
157831.239,-23.438,-23.926,-20.996,-12.695,0.000,0
157831.243,-22.461,-23.926,-18.066,-6.836,0.000,0
157831.247,-18.555,-21.973,-6.348,-5.371,0.000,0
157831.250,-11.230,-20.508,-13.672,-7.812,0.000,0
157831.254,-16.113,-26.855,-26.367,-12.207,0.000,0
157831.258,-22.461,-35.156,-29.297,-23.438,0.000,0
157831.262,-26.367,-34.668,-23.438,-19.531,0.000,0
157831.266,-27.344,-27.344,-18.555,-24.414,0.000,0
157831.270,-20.996,-21.484,-19.043,-29.297,0.000,0
157831.274,-19.531,-22.461,-20.508,-22.461,0.000,0
157831.278,-29.785,-24.414,-22.461,-24.902,0.000,0
157831.282,-32.715,-27.344,-22.949,-27.344,0.000,0
157831.286,-32.715,-27.344,-33.691,-28.809,0.000,0
157831.290,-30.273,-22.461,-28.809,-26.855,0.000,0
157831.293,-21.973,-23.438,-19.531,-17.578,0.000,0
157831.297,-21.973,-24.902,-22.949,-19.531,0.000,0
157831.301,-29.297,-24.414,-17.090,-19.043,0.000,0
157831.305,-28.809,-28.320,-14.648,-18.066,0.000,0
157831.309,-23.438,-24.902,-16.602,-19.531,0.000,0
157831.313,-22.461,-20.020,-19.043,-15.625,0.000,0
157831.317,-19.043,-23.438,-19.531,-7.812,0.000,0
157831.321,-21.484,-22.461,-15.625,0.000,0.000,0
157831.325,-24.414,-26.367,-19.043,-14.160,0.000,0
157831.329,-18.555,-29.297,-23.438,-34.668,0.000,0
157831.332,-17.090,-23.438,-31.250,-25.391,0.000,0
157831.336,-25.879,-21.973,-27.832,-17.578,0.000,0
157831.340,-28.809,-28.809,-24.414,-26.367,0.000,0
157831.344,-24.902,-24.902,-24.414,-27.344,0.000,0
157831.348,-24.902,-25.391,-26.855,-30.273,0.000,0
157831.352,-26.855,-26.855,-31.738,-26.855,0.000,0
157831.356,-24.902,-24.902,-27.832,-16.113,0.000,0
157831.360,-25.879,-30.762,-33.691,-19.531,0.000,0
157831.364,-28.320,-30.762,-33.203,-17.578,0.000,0
157831.368,-34.180,-26.367,-27.832,-21.484,0.000,0
157831.372,-37.598,-29.297,-37.109,-29.785,0.000,0
157831.375,-31.738,-28.809,-38.574,-26.367,0.000,0
157831.379,-29.785,-30.273,-31.250,-28.809,0.000,0
157831.383,-32.715,-30.762,-24.902,-25.879,0.000,0
157831.387,-27.832,-33.691,-36.133,-23.438,0.000,0
157831.391,-26.855,-37.598,-41.992,-32.227,0.000,0
157831.395,-35.645,-33.203,-29.785,-31.738,0.000,0
157831.399,-35.156,-31.250,-29.785,-22.949,0.000,0
157831.403,-25.391,-30.273,-28.320,-18.066,0.000,0
157831.407,-28.320,-25.391,-20.996,-24.414,0.000,0
157831.411,-36.621,-25.879,-25.391,-21.484,0.000,0
157831.415,-30.273,-28.809,-26.367,-20.996,0.000,0
157831.418,-30.762,-23.438,-24.414,-19.043,0.000,0
157831.422,-27.832,-29.297,-27.344,-17.090,0.000,0
157831.426,-19.531,-31.250,-19.531,-25.391,0.000,0
157831.430,-25.391,-29.785,-22.949,-24.902,0.000,0
157831.434,-30.762,-34.180,-31.738,-27.344,0.000,0
157831.438,-28.809,-39.062,-29.297,-33.691,0.000,0
157831.442,-29.785,-41.992,-30.762,-34.180,0.000,0
157831.446,-31.738,-40.527,-35.645,-41.992,0.000,0
157831.450,-39.062,-39.062,-37.598,-42.969,0.000,0
157831.454,-41.504,-37.109,-34.668,-32.227,0.000,0
157831.457,-30.762,-30.762,-26.855,-17.090,0.000,0
157831.461,-26.855,-25.879,-22.461,-20.996,0.000,0
157831.465,-31.250,-26.367,-24.414,-35.645,0.000,0
157831.469,-27.832,-24.902,-23.926,-20.996,0.000,0
157831.473,-23.438,-21.484,-26.855,-15.137,0.000,0
157831.477,-25.391,-21.484,-31.738,-31.250,0.000,0
157831.481,-26.367,-23.926,-23.438,-26.855,0.000,0
157831.485,-28.320,-29.297,-20.996,-28.320,0.000,0
157831.489,-27.344,-32.227,-32.715,-36.133,0.000,0
157831.493,-20.996,-28.809,-33.203,-29.785,0.000,0
157831.497,-20.996,-25.391,-31.738,-20.020,0.000,0
157831.500,-21.484,-20.020,-27.832,-20.020,0.000,0
157831.504,-19.043,-19.043,-18.066,-25.391,0.000,0
157831.508,-33.203,-22.949,-23.926,-23.438,0.000,0
157831.512,-44.434,-21.973,-29.297,-24.902,0.000,0
157831.516,-39.062,-17.090,-27.344,-25.391,0.000,0
157831.520,-30.762,-18.555,-27.832,-24.414,0.000,0
157831.524,-24.902,-29.785,-26.855,-32.715,0.000,0
157831.528,-32.227,-30.273,-28.809,-34.668,0.000,0
157831.532,-36.133,-29.297,-30.273,-32.227,0.000,0
157831.536,-32.227,-26.855,-27.344,-29.297,0.000,0
157831.540,-27.832,-19.531,-20.020,-26.367,0.000,0
157831.543,-27.344,-23.926,-16.113,-24.414,0.000,0
157831.547,-27.344,-23.438,-23.438,-18.066,0.000,0
157831.551,-20.508,-20.996,-25.879,-20.996,0.000,0
157831.555,-20.996,-21.973,-21.484,-20.508,0.000,0
157831.559,-34.180,-21.973,-24.902,-14.648,0.000,0
157831.563,-41.504,-21.973,-22.461,-24.902,0.000,0
157831.567,-31.738,-21.973,-22.949,-32.715,0.000,0
157831.571,-22.949,-23.926,-29.785,-13.672,0.000,0
157831.575,-25.879,-25.391,-30.273,-12.207,0.000,0
157831.579,-26.367,-24.414,-28.809,-29.297,0.000,0
157831.582,-28.320,-24.902,-26.367,-27.344,0.000,0
157831.586,-31.738,-28.809,-25.391,-25.879,0.000,0
157831.590,-25.391,-24.902,-21.973,-25.879,0.000,0
157831.594,-21.484,-25.879,-32.227,-18.066,0.000,0
157831.598,-20.996,-29.297,-37.598,-9.766,0.000,0
157831.602,-22.949,-28.809,-28.320,-15.137,0.000,0
157831.606,-32.227,-26.367,-20.996,-16.602,0.000,0
157831.610,-25.391,-22.461,-24.902,-7.812,0.000,0
157831.614,-18.066,-26.367,-33.691,-10.254,0.000,0
157831.618,-31.250,-30.273,-30.273,-17.090,0.000,0
157831.622,-34.668,-28.809,-21.973,-15.137,0.000,0
157831.625,-20.996,-29.297,-26.855,-14.160,0.000,0
157831.629,-28.320,-35.156,-32.227,-22.949,0.000,0
157831.633,-37.598,-43.457,-30.273,-25.391,0.000,0
157831.637,-38.086,-43.945,-32.227,-19.531,0.000,0
157831.641,-29.785,-38.574,-29.785,-13.672,0.000,0
157831.645,-29.297,-38.574,-31.738,-18.555,0.000,0
157831.649,-11.719,-35.156,-40.527,-6.348,0.000,0
157831.653,-15.625,-28.809,-36.621,-12.207,0.000,0
157831.657,-47.363,-28.809,-34.668,-45.410,0.000,0
157831.661,-41.504,-33.203,-38.574,-48.828,0.000,1
157831.665,-39.551,-32.715,-40.039,-46.387,0.000,0
157831.668,-45.898,-30.273,-38.574,-46.875,0.000,0
157831.672,-34.668,-30.762,-38.574,-31.738,0.000,0
157831.676,-32.227,-22.461,-38.574,-29.785,0.000,0
157831.680,-29.297,-11.230,-32.715,-28.809,0.000,0
157831.684,-23.926,-11.719,-27.832,-22.949,0.000,0
157831.688,-25.391,-22.461,-33.691,-27.344,0.000,0
157831.692,-23.438,-20.020,-26.855,-34.180,0.000,0
157831.696,-26.855,-12.695,-21.973,-20.996,0.000,0
157831.700,-27.344,-18.555,-31.250,-20.020,0.000,0
157831.704,-12.207,-22.461,-29.785,-30.762,0.000,0
157831.707,-20.020,-16.113,-27.344,-33.691,0.000,0
157831.711,-39.062,-18.066,-30.273,-29.785,0.000,0
157831.715,-32.227,-18.555,-32.227,-16.602,0.000,0
157831.719,-24.414,-21.484,-34.180,-27.832,0.000,0
157831.723,-30.762,-25.391,-31.738,-52.246,0.000,0
157831.727,-27.832,-24.902,-32.715,-45.410,0.000,0
157831.731,-20.996,-32.227,-40.039,-41.504,0.000,0
157831.735,-25.391,-34.180,-44.434,-37.109,0.000,0
157831.739,-29.297,-37.109,-42.969,-26.855,0.000,0
157831.743,-35.645,-41.504,-40.039,-32.227,0.000,0
157831.747,-34.668,-32.715,-36.133,-22.949,0.000,0
157831.750,-28.320,-23.438,-34.668,-10.742,0.000,0
157831.754,-29.785,-30.762,-32.715,-15.137,0.000,0
157831.758,-30.273,-29.297,-23.438,-13.184,0.000,0
157831.762,-28.320,-20.996,-24.414,-21.973,0.000,0
157831.766,-33.203,-22.461,-29.297,-29.785,0.000,0
157831.770,-35.645,-22.949,-24.902,-29.297,0.000,0
157831.774,-30.762,-23.438,-21.484,-25.879,0.000,0
157831.778,-19.043,-21.973,-18.555,-23.438,0.000,0
157831.782,-24.902,-25.391,-13.672,-28.809,0.000,0
157831.786,-39.551,-29.785,-20.020,-26.855,0.000,0
157831.790,-32.715,-25.879,-22.461,-21.973,0.000,0
157831.793,-29.297,-27.344,-23.438,-19.531,0.000,0
157831.797,-41.016,-30.762,-24.414,-40.039,0.000,0
157831.801,-40.527,-21.973,-19.043,-42.969,0.000,0
157831.805,-29.785,-16.113,-25.391,-33.691,0.000,0
157831.809,-26.367,-20.020,-28.320,-33.203,0.000,0
157831.813,-25.391,-22.461,-21.973,-16.113,0.000,0
157831.817,-19.531,-18.066,-17.090,-11.719,0.000,0
157831.821,-11.230,-12.207,-14.648,-19.531,0.000,0
157831.825,-15.137,-14.648,-23.926,-13.672,0.000,0
157831.829,-15.137,-18.555,-24.902,-10.254,0.000,0
157831.832,-17.090,-17.578,-20.020,-15.137,0.000,0
157831.836,-21.973,-15.625,-20.020,-17.090,0.000,0
157831.840,-22.949,-16.602,-13.672,-14.648,0.000,0
157831.844,-23.926,-15.625,-12.207,-21.973,0.000,0
157831.848,-27.344,-13.672,-11.230,-18.066,0.000,0
157831.852,-21.973,-16.113,-17.090,-9.277,0.000,0
157831.856,-12.207,-20.508,-17.578,-17.090,0.000,0
157831.860,-14.160,-20.996,-11.719,-31.250,0.000,0
157831.864,-16.602,-21.484,-19.043,-27.832,0.000,0
157831.868,-7.812,-31.250,-30.762,-22.949,0.000,0
157831.872,-14.648,-33.691,-29.785,-24.902,0.000,0
157831.875,-34.180,-33.691,-27.832,-31.738,0.000,0
157831.879,-32.715,-30.762,-23.438,-35.156,0.000,0
157831.883,-27.832,-20.508,-24.902,-32.227,0.000,0
157831.887,-34.668,-20.996,-26.367,-28.320,0.000,0
157831.891,-29.785,-29.785,-21.973,-28.320,0.000,0
157831.895,-17.578,-32.715,-28.809,-28.320,0.000,0
157831.899,-23.438,-29.785,-31.250,-35.156,0.000,0
157831.903,-36.133,-29.785,-31.738,-34.668,0.000,0
157831.907,-37.109,-34.668,-41.504,-27.832,0.000,0
157831.911,-32.227,-32.227,-41.992,-31.738,0.000,0
157831.915,-32.227,-28.320,-38.086,-27.832,0.000,0
157831.918,-28.809,-27.832,-32.715,-29.785,0.000,0
157831.922,-23.438,-22.461,-29.297,-32.227,0.000,0
157831.926,-20.020,-28.809,-30.273,-16.602,0.000,0
157831.930,-21.973,-28.809,-31.738,-17.090,0.000,0
157831.934,-26.855,-17.578,-26.855,-24.414,0.000,0
157831.938,-25.391,-16.113,-14.648,-15.137,0.000,0
157831.942,-10.254,-21.484,-22.461,-14.648,0.000,0
157831.946,-14.160,-21.484,-29.785,-21.973,0.000,0
157831.950,-25.391,-23.438,-32.227,-17.090,0.000,0
157831.954,-18.555,-26.855,-29.297,-4.883,0.000,0
157831.957,-9.277,-19.531,-21.973,-11.719,0.000,0
157831.961,-7.324,-18.555,-23.438,-20.996,0.000,0
157831.965,-9.277,-16.602,-19.531,-17.578,0.000,0
157831.969,-14.160,-21.973,-19.043,-20.508,0.000,0
157831.973,-13.672,-30.762,-24.902,-18.066,0.000,0
157831.977,-11.230,-20.508,-21.484,-17.090,0.000,0
157831.981,-19.043,-18.066,-17.578,-32.715,0.000,0
157831.985,-23.926,-20.996,-20.508,-29.785,0.000,0
157831.989,-14.648,-22.461,-22.461,-20.508,0.000,0
157831.993,-13.672,-21.973,-25.391,-23.438,0.000,0
157831.997,-19.531,-21.484,-16.113,-25.879,0.000,0
157832.000,-17.090,-20.020,-9.766,-29.785,0.000,0
157832.004,-18.066,-24.902,-24.414,-37.109,0.000,0
157832.008,-16.113,-27.344,-30.273,-28.320,0.000,0
157832.012,-10.742,-19.043,-24.902,-19.043,0.000,0
157832.016,-18.555,-20.508,-27.344,-21.973,0.000,0
157832.020,-25.879,-24.902,-26.855,-29.297,0.000,0
157832.024,-28.320,-27.832,-28.809,-27.344,0.000,0
157832.028,-30.273,-26.367,-29.297,-20.996,0.000,0
157832.032,-26.855,-25.391,-29.297,-27.344,0.000,0
157832.036,-20.020,-23.438,-22.461,-36.133,0.000,0
157832.040,-21.973,-15.625,-12.207,-23.438,0.000,0
157832.043,-29.785,-19.531,-30.762,-10.254,0.000,0
157832.047,-24.414,-24.902,-38.086,-18.555,0.000,0
157832.051,-21.484,-25.879,-27.344,-15.137,0.000,0
157832.055,-36.133,-32.227,-30.762,-23.926,0.000,0
157832.059,-43.457,-34.180,-34.180,-35.156,0.000,0
157832.063,-39.551,-34.668,-39.551,-33.691,0.000,0
157832.067,-32.227,-34.180,-35.156,-24.902,0.000,0
157832.071,-30.273,-30.273,-24.902,-20.020,0.000,0
157832.075,-32.227,-34.180,-26.855,-29.785,0.000,0
157832.079,-24.902,-29.785,-28.809,-30.762,0.000,0
157832.082,-16.602,-23.438,-25.879,-23.438,0.000,0
157832.086,-17.578,-23.438,-22.949,-21.973,0.000,0
157832.090,-13.184,-26.855,-20.020,-15.625,0.000,0
157832.094,-11.719,-30.273,-16.602,-21.484,0.000,0
157832.098,-21.484,-25.391,-20.508,-22.461,0.000,0
157832.102,-19.043,-24.414,-20.996,-21.973,0.000,0
157832.106,-8.789,-25.391,-18.555,-24.414,0.000,0
157832.110,-17.578,-26.855,-27.832,-20.508,0.000,0
157832.114,-21.484,-26.855,-26.367,-26.367,0.000,0
157832.118,-17.578,-28.320,-19.043,-18.066,0.000,0
157832.122,-17.578,-26.855,-19.531,-7.812,0.000,0
157832.125,-19.043,-19.531,-18.066,-8.301,0.000,0
157832.129,-21.484,-14.648,-20.020,-6.836,0.000,0
157832.133,-14.160,-20.508,-22.461,-18.555,0.000,0
157832.137,-11.719,-22.461,-27.832,-23.926,0.000,0
157832.141,-22.461,-24.902,-30.762,-14.160,0.000,0
157832.145,-26.855,-29.297,-33.203,-19.531,0.000,0
157832.149,-22.949,-27.832,-34.668,-20.996,0.000,0
157832.153,-25.391,-34.180,-27.344,-19.043,0.000,0
157832.157,-26.855,-33.691,-30.762,-28.320,0.000,0
157832.161,-19.043,-24.414,-27.344,-31.738,0.000,0
157832.165,-22.461,-21.973,-23.438,-30.273,0.000,0
157832.168,-30.762,-21.484,-28.320,-20.508,0.000,0
157832.172,-28.320,-20.508,-21.973,-20.996,0.000,0
157832.176,-24.414,-23.438,-22.461,-20.508,0.000,0
157832.180,-12.695,-20.996,-24.414,-7.812,0.000,0
157832.184,-2.930,-14.160,-12.207,-8.301,0.000,0
157832.188,-6.836,-12.207,-5.371,-2.441,0.000,0
157832.192,-9.277,-18.555,-14.160,-8.789,0.000,0
157832.196,-1.465,-19.531,-18.555,-20.508,0.000,0
157832.200,-15.137,-20.508,-22.949,-26.367,0.000,0
157832.204,-21.973,-20.020,-18.555,-28.320,0.000,0
157832.207,-9.277,-12.695,-13.184,-10.254,0.000,0
157832.211,-11.719,-16.602,-19.531,-3.418,0.000,0
157832.215,-20.508,-18.066,-19.531,-16.602,0.000,1
157832.219,-16.602,-14.648,-11.230,-10.742,0.000,0
157832.223,-15.625,-21.484,-17.090,-15.137,0.000,0
157832.227,-19.531,-22.949,-21.973,-21.973,0.000,0
157832.231,-22.461,-20.996,-15.137,-14.160,0.000,0
157832.235,-22.949,-16.602,-13.672,-23.926,0.000,0
157832.239,-13.672,-10.254,-20.020,-14.648,0.000,0
157832.243,-3.418,-13.184,-23.438,7.812,0.000,0
157832.247,-4.395,-9.277,-13.184,10.742,0.000,0
157832.250,-13.672,-7.324,-9.766,0.977,0.000,0
157832.254,-14.160,-13.672,-17.090,-16.113,0.000,0
157832.258,-17.090,-12.207,-16.113,-19.043,0.000,0
157832.262,-32.715,-10.742,-16.113,-18.555,0.000,0
157832.266,-40.039,-20.020,-22.461,-11.230,0.000,0
157832.270,-27.344,-19.531,-24.902,-0.488,0.000,0
157832.274,-20.996,-13.672,-23.926,-20.020,0.000,0
157832.278,-27.832,-16.113,-23.926,-21.484,0.000,0
157832.282,-21.484,-12.695,-17.578,-7.324,0.000,0
157832.286,-16.602,-13.184,-12.207,-12.695,0.000,0
157832.290,-19.043,-12.207,-9.766,-13.672,0.000,0
157832.293,-14.160,-10.254,-11.719,-16.602,0.000,0
157832.297,-16.113,-14.648,-22.461,-29.297,0.000,0
157832.301,-26.855,-22.461,-23.438,-28.809,0.000,0
157832.305,-31.250,-27.832,-19.531,-11.719,0.000,0
157832.309,-34.180,-31.738,-25.391,-18.066,0.000,0
157832.313,-33.691,-27.344,-28.809,-35.156,0.000,0
157832.317,-29.297,-24.902,-31.738,-23.926,0.000,0
157832.321,-24.902,-27.344,-33.203,-17.578,0.000,0
157832.325,-31.738,-25.391,-28.320,-29.785,0.000,0
157832.329,-41.992,-27.832,-32.715,-38.574,0.000,0
157832.332,-42.480,-28.320,-35.645,-42.480,0.000,0
157832.336,-42.480,-26.367,-33.691,-47.363,0.000,0
157832.340,-40.527,-30.762,-31.250,-41.016,0.000,0
157832.344,-33.203,-26.855,-26.367,-24.902,0.000,0
157832.348,-24.414,-21.973,-26.855,-21.484,0.000,0
157832.352,-16.602,-26.855,-21.973,-35.645,0.000,0
157832.356,-22.461,-25.391,-17.578,-38.574,0.000,0
157832.360,-28.809,-25.391,-23.926,-31.250,0.000,0
157832.364,-25.391,-25.391,-30.762,-36.621,0.000,0
157832.368,-27.344,-25.391,-24.902,-30.273,0.000,0
157832.372,-6.836,-22.949,-14.648,-26.367,0.000,0
157832.375,-2.441,-17.090,-18.555,-30.273,0.000,0
157832.379,-27.832,-20.020,-22.461,-22.461,0.000,0
157832.383,-33.203,-28.320,-30.273,-21.973,0.000,0
157832.387,-40.039,-34.668,-36.133,-25.879,0.000,0
157832.391,-37.109,-29.785,-26.367,-24.414,0.000,0
157832.395,-36.133,-31.738,-26.855,-35.645,0.000,0
157832.399,-38.574,-31.250,-33.203,-35.156,0.000,0
157832.403,-34.668,-36.133,-35.156,-22.461,0.000,0
157832.407,-25.391,-33.691,-38.086,-19.531,0.000,0
157832.411,-19.531,-24.902,-32.227,-29.297,0.000,0
157832.415,-27.832,-26.367,-27.832,-36.133,0.000,0
157832.418,-22.949,-19.531,-25.391,-16.602,0.000,0
157832.422,-17.578,-15.625,-21.973,0.977,0.000,0
157832.426,-30.273,-23.926,-27.344,-14.648,0.000,0
157832.430,-39.062,-32.227,-29.297,-32.715,0.000,0
157832.434,-41.016,-32.227,-29.297,-41.016,0.000,0
157832.438,-37.109,-35.645,-32.227,-43.945,0.000,0
157832.442,-35.156,-37.598,-35.156,-40.527,0.000,0
157832.446,-42.969,-37.598,-36.133,-30.273,0.000,0
157832.450,-42.480,-36.133,-28.809,-32.227,0.000,0
157832.454,-32.715,-38.086,-30.273,-29.785,0.000,0
157832.457,-35.156,-41.992,-39.062,-27.344,0.000,0
157832.461,-39.551,-41.504,-41.016,-37.598,0.000,0
157832.465,-31.250,-45.898,-46.875,-37.598,0.000,0
157832.469,-32.715,-48.340,-41.016,-44.434,0.000,0
157832.473,-34.668,-37.109,-24.902,-38.086,0.000,0
157832.477,-25.391,-28.809,-19.531,-27.832,0.000,0
157832.481,-19.531,-31.250,-24.414,-27.832,0.000,0
157832.485,-13.672,-27.832,-31.250,-17.578,0.000,0
157832.489,-20.020,-34.180,-36.621,-32.715,0.000,0
157832.493,-38.574,-43.945,-44.922,-42.480,0.000,0
157832.497,-40.039,-36.621,-46.387,-30.762,0.000,0
157832.500,-30.762,-33.203,-41.992,-24.414,0.000,0
157832.504,-31.250,-39.062,-38.574,-13.184,0.000,0
157832.508,-28.320,-37.598,-30.273,-23.438,0.000,0
157832.512,-25.879,-27.832,-29.785,-30.762,0.000,0
157832.516,-29.785,-23.926,-25.391,-27.344,0.000,0
157832.520,-21.484,-28.809,-23.438,-26.367,0.000,0
157832.524,-22.461,-31.738,-38.086,-20.020,0.000,0
157832.528,-32.715,-35.645,-38.086,-32.227,0.000,0
157832.532,-38.086,-38.086,-33.691,-33.691,0.000,0
157832.536,-33.691,-41.016,-47.852,-25.879,0.000,0
157832.540,-31.738,-42.969,-52.246,-24.902,0.000,0
157832.543,-33.691,-35.156,-44.922,-15.137,0.000,0
157832.547,-23.438,-33.203,-37.598,-8.301,0.000,0
157832.551,-20.020,-27.344,-28.809,-12.207,0.000,0
157832.555,-23.926,-23.438,-34.180,-19.531,0.000,0
157832.559,-28.320,-34.180,-38.574,-16.113,0.000,0
157832.563,-42.480,-38.086,-37.109,-20.508,0.000,0
157832.567,-46.875,-28.809,-29.785,-34.668,0.000,0
157832.571,-37.109,-25.879,-25.879,-43.945,0.000,0
157832.575,-33.203,-22.949,-26.367,-28.320,0.000,0
157832.579,-24.414,-16.602,-20.020,-17.578,0.000,0
157832.582,-15.625,-16.602,-19.531,-21.973,0.000,0
157832.586,-16.113,-18.555,-19.531,-8.789,0.000,0
157832.590,-14.160,-13.184,-19.043,-12.207,0.000,0
157832.594,-12.695,-6.836,-19.043,-17.578,0.000,0
157832.598,-15.137,-7.324,-20.020,-10.254,0.000,0
157832.602,-2.441,-10.254,-20.996,-10.742,0.000,0
157832.606,-2.441,-13.184,-16.113,-13.672,0.000,0
157832.610,-12.695,-20.508,-17.090,-21.484,0.000,0
157832.614,-9.766,-17.090,-18.555,-22.461,0.000,0
157832.618,-11.719,-15.137,-18.555,-20.020,0.000,0
157832.622,-22.461,-21.973,-24.902,-21.484,0.000,0
157832.625,-26.367,-28.809,-29.785,-23.438,0.000,0
157832.629,-26.367,-29.297,-33.203,-33.691,0.000,0
157832.633,-32.715,-29.297,-32.227,-32.715,0.000,0
157832.637,-33.691,-33.203,-32.227,-27.832,0.000,0
157832.641,-30.762,-36.621,-35.156,-29.785,0.000,0
157832.645,-28.809,-35.645,-30.762,-32.227,0.000,0
157832.649,-30.762,-30.762,-26.855,-43.457,0.000,0
157832.653,-36.621,-36.621,-31.738,-46.875,0.000,0
157832.657,-37.109,-39.062,-36.621,-39.062,0.000,0
157832.661,-30.273,-32.715,-35.156,-37.109,0.000,0
157832.665,-31.250,-28.809,-31.738,-41.016,0.000,0
157832.668,-30.273,-27.344,-21.484,-40.039,0.000,0
157832.672,-21.973,-22.461,-15.137,-24.902,0.000,0
157832.676,-21.484,-18.066,-17.578,-16.113,0.000,0
157832.680,-25.879,-21.973,-18.066,-19.043,0.000,0
157832.684,-24.902,-24.414,-17.090,-21.973,0.000,0
157832.688,-22.461,-23.438,-21.973,-32.227,0.000,0
157832.692,-20.996,-25.391,-25.879,-36.621,0.000,0
157832.696,-13.672,-19.531,-19.531,-24.902,0.000,0
157832.700,-14.648,-19.531,-16.602,-9.277,0.000,0
157832.704,-21.484,-13.184,-11.719,-11.230,0.000,0
157832.707,-24.414,-14.160,-14.160,-26.367,0.000,0
157832.711,-24.414,-21.973,-22.461,-23.438,0.000,0
157832.715,-20.996,-20.508,-25.879,-21.973,0.000,0
157832.719,-20.508,-23.926,-28.809,-25.879,0.000,0
157832.723,-26.855,-28.809,-30.762,-22.949,0.000,0
157832.727,-32.715,-26.367,-29.785,-24.414,0.000,0
157832.731,-36.133,-23.438,-31.250,-22.461,0.000,0
157832.735,-30.762,-20.020,-34.668,-16.113,0.000,0
157832.739,-27.344,-20.996,-36.621,-21.973,0.000,0
157832.743,-28.809,-22.949,-28.809,-21.484,0.000,0
157832.747,-26.367,-19.043,-20.020,-18.066,0.000,0
157832.750,-14.160,-20.020,-25.391,-27.344,0.000,0
157832.754,-12.207,-21.484,-21.484,-21.973,0.000,0
157832.758,-13.184,-20.996,-9.766,-2.930,0.000,0
157832.762,-7.812,-17.090,-10.742,-0.488,0.000,0
157832.766,-8.789,-14.648,-6.348,-19.043,0.000,0
157832.770,-8.301,-14.160,-7.324,-21.484,0.000,0
157832.774,-7.324,-12.207,-17.578,-8.789,0.000,0
157832.778,-10.254,-16.602,-20.020,-9.277,0.000,0
157832.782,-15.137,-16.602,-21.484,-16.113,0.000,0
157832.786,-19.531,-20.996,-22.461,-27.832,0.000,0
157832.790,-22.461,-21.484,-14.648,-30.273,0.000,0
157832.793,-16.602,-9.766,-10.742,-20.508,0.000,0
157832.797,-8.789,-9.277,-18.066,-13.184,0.000,0
157832.801,-6.836,-7.324,-17.090,-6.348,0.000,0
157832.805,-4.883,-5.371,-14.160,-16.602,0.000,0
157832.809,-4.395,-10.254,-21.484,-21.484,0.000,0
157832.813,-10.742,-20.508,-23.926,-1.953,0.000,0
157832.817,-23.926,-28.320,-22.949,-14.648,0.000,1
157832.821,-15.625,-20.508,-19.043,-27.832,0.000,0
157832.825,-8.301,-18.066,-16.113,-23.438,0.000,0
157832.829,-25.391,-24.902,-28.809,-33.203,0.000,0
157832.832,-35.156,-33.691,-36.621,-43.457,0.000,0
157832.836,-32.715,-35.645,-38.086,-39.551,0.000,0
157832.840,-34.180,-33.691,-43.457,-24.902,0.000,0
157832.844,-32.715,-33.203,-27.832,-32.227,0.000,0
157832.848,-30.273,-34.180,-20.508,-34.668,0.000,0
157832.852,-36.133,-36.621,-28.320,-28.320,0.000,0
157832.856,-30.273,-31.738,-27.832,-29.785,0.000,0
157832.860,-34.668,-32.227,-26.855,-30.762,0.000,0
157832.864,-40.039,-29.297,-22.461,-35.156,0.000,0
157832.868,-24.902,-23.926,-19.043,-37.109,0.000,0
157832.872,-26.855,-22.461,-27.832,-31.250,0.000,0
157832.875,-30.762,-25.391,-30.762,-26.855,0.000,0
157832.879,-33.203,-29.785,-27.832,-28.320,0.000,0
157832.883,-39.062,-34.668,-34.668,-40.527,0.000,0
157832.887,-37.109,-34.668,-35.156,-36.133,0.000,0
157832.891,-36.133,-31.738,-35.156,-27.832,0.000,0
157832.895,-33.203,-34.668,-39.062,-35.156,0.000,0
157832.899,-28.809,-31.738,-36.621,-28.320,0.000,0
157832.903,-32.715,-29.785,-33.203,-30.762,0.000,0
157832.907,-36.133,-34.668,-28.809,-48.828,0.000,0
157832.911,-33.691,-29.785,-26.855,-40.039,0.000,0
157832.915,-32.715,-29.785,-29.297,-24.902,0.000,0
157832.918,-41.504,-33.203,-31.738,-30.762,0.000,0
157832.922,-48.828,-37.598,-33.203,-39.551,0.000,0
157832.926,-37.109,-37.109,-29.785,-36.621,0.000,0
157832.930,-19.531,-32.227,-34.180,-28.809,0.000,0
157832.934,-19.531,-32.227,-30.273,-38.086,0.000,0
157832.938,-29.785,-34.668,-33.203,-37.598,0.000,0
157832.942,-28.809,-36.621,-44.434,-28.320,0.000,0
157832.946,-25.879,-36.621,-42.480,-35.645,0.000,0
157832.950,-29.785,-38.574,-41.504,-44.434,0.000,0
157832.954,-32.227,-38.574,-40.039,-38.574,0.000,0
157832.957,-33.691,-35.156,-38.086,-31.250,0.000,0
157832.961,-45.410,-41.016,-39.551,-39.551,0.000,0
157832.965,-47.852,-42.969,-42.969,-43.457,0.000,0
157832.969,-48.340,-38.574,-41.016,-32.715,0.000,0
157832.973,-44.434,-34.668,-38.086,-28.320,0.000,0
157832.977,-37.109,-38.086,-41.992,-32.227,0.000,0
157832.981,-37.598,-40.527,-36.133,-29.297,0.000,0
157832.985,-27.344,-31.250,-28.809,-28.320,0.000,0
157832.989,-20.508,-31.250,-30.762,-27.344,0.000,0
157832.993,-30.762,-31.250,-31.250,-27.832,0.000,0
157832.997,-37.109,-30.273,-26.855,-27.344,0.000,0
157833.000,-29.785,-23.926,-21.484,-27.832,0.000,0
157833.004,-21.973,-24.414,-23.926,-27.832,0.000,0
157833.008,-17.090,-33.203,-25.879,-19.531,0.000,0
157833.012,-25.391,-27.832,-28.809,-19.531,0.000,0
157833.016,-29.785,-27.344,-31.250,-28.320,0.000,0
157833.020,-21.484,-27.832,-30.762,-33.691,0.000,0
157833.024,-14.160,-20.996,-24.902,-32.715,0.000,0
157833.028,-11.230,-20.020,-24.414,-20.020,0.000,0
157833.032,-15.625,-20.996,-28.320,-12.207,0.000,0
157833.036,-12.695,-23.438,-22.461,-17.090,0.000,0
157833.040,-11.230,-24.414,-18.066,-9.766,0.000,0
157833.043,-13.672,-21.973,-22.461,-8.301,0.000,0
157833.047,-9.277,-17.578,-22.461,-19.043,0.000,0
157833.051,-7.812,-12.695,-19.531,-11.230,0.000,0
157833.055,-13.184,-9.766,-16.602,-3.906,0.000,0
157833.059,-10.254,-7.812,-9.277,-5.371,0.000,0
157833.063,0.977,-7.324,-7.812,-13.672,0.000,0
157833.067,6.348,-5.371,-6.836,-6.348,0.000,0
157833.071,5.859,-1.465,-7.812,-2.930,0.000,0
157833.075,3.906,-1.465,-6.836,-4.395,0.000,0
157833.079,-7.324,-10.254,-11.719,-14.160,0.000,0
157833.082,-11.719,-16.602,-13.184,-27.832,0.000,0
157833.086,-8.301,-20.996,-8.789,-22.949,0.000,0
157833.090,-4.395,-11.230,-8.789,-7.812,0.000,0
157833.094,3.418,1.465,-5.859,9.277,0.000,0
157833.098,3.906,2.441,-9.766,7.324,0.000,0
157833.102,3.418,-0.488,-7.812,-10.254,0.000,0
157833.106,-6.836,-5.859,-10.742,-15.625,0.000,0
157833.110,-13.184,-7.812,-12.207,-8.301,0.000,0
157833.114,-4.395,-9.766,-8.789,1.953,0.000,0
157833.118,-8.301,-7.324,-9.766,7.812,0.000,0
157833.122,-16.602,-14.160,-13.184,-10.254,0.000,0
157833.125,-19.043,-24.902,-22.461,-22.461,0.000,0
157833.129,-26.855,-27.344,-31.738,-15.137,0.000,0
157833.133,-29.297,-29.785,-29.785,2.930,0.000,0
157833.137,-11.230,-22.949,-23.926,0.488,0.000,0
157833.141,-13.672,-18.066,-26.855,-23.926,0.000,0
157833.145,-31.738,-25.879,-32.715,-29.785,0.000,0
157833.149,-31.250,-26.855,-36.621,-22.949,0.000,0
157833.153,-35.645,-30.762,-43.945,-16.113,0.000,0
157833.157,-28.809,-31.250,-43.457,-11.719,0.000,0
157833.161,-25.879,-37.598,-38.086,-31.250,0.000,0
157833.165,-30.273,-35.645,-32.227,-38.086,0.000,0
157833.168,-25.391,-26.367,-32.715,-19.531,0.000,0
157833.172,-26.855,-25.879,-35.156,-19.531,0.000,0
157833.176,-30.273,-27.344,-29.785,-17.578,0.000,0
157833.180,-26.367,-32.227,-31.738,-21.973,0.000,0
157833.184,-29.785,-29.297,-40.039,-27.832,0.000,0
157833.188,-38.086,-31.250,-47.363,-28.809,0.000,0
157833.192,-29.297,-38.086,-42.969,-28.320,0.000,0
157833.196,-27.832,-31.738,-31.738,-23.438,0.000,0
157833.200,-33.691,-31.250,-28.320,-30.273,0.000,0
157833.204,-33.691,-34.180,-37.109,-29.297,0.000,0
157833.207,-30.762,-30.273,-34.180,-19.043,0.000,0
157833.211,-19.043,-33.203,-30.762,-18.066,0.000,0
157833.215,-20.020,-31.738,-35.645,-22.461,0.000,0
157833.219,-19.531,-25.879,-25.391,-28.320,0.000,0
157833.223,-23.926,-24.902,-21.973,-29.785,0.000,0
157833.227,-29.785,-28.809,-31.250,-31.250,0.000,0
157833.231,-25.879,-35.156,-36.621,-28.320,0.000,0
157833.235,-20.020,-36.621,-32.715,-22.461,0.000,0
157833.239,-27.832,-30.273,-26.855,-29.785,0.000,0
157833.243,-28.809,-28.809,-35.645,-20.996,0.000,0
157833.247,-21.973,-26.855,-38.574,-22.949,0.000,0
157833.250,-26.367,-30.273,-33.203,-24.414,0.000,0
157833.254,-28.320,-32.227,-36.133,-21.484,0.000,0
157833.258,-28.320,-29.785,-34.668,-38.574,0.000,0
157833.262,-26.367,-27.344,-30.762,-32.227,0.000,0
157833.266,-21.484,-23.926,-27.832,-20.508,0.000,0
157833.270,-20.508,-24.414,-28.320,-20.996,0.000,0
157833.274,-14.160,-25.879,-30.762,-22.461,0.000,0
157833.278,-17.578,-20.996,-20.020,-30.273,0.000,0
157833.282,-30.762,-24.414,-24.414,-34.668,0.000,0
157833.286,-20.020,-24.902,-26.367,-28.809,0.000,0
157833.290,-14.160,-26.367,-21.973,-14.648,0.000,0
157833.293,-16.113,-18.066,-16.113,-8.301,0.000,0
157833.297,-1.953,-4.395,-2.441,3.906,0.000,0
157833.301,21.973,-7.812,-7.812,29.297,0.000,0
157833.305,16.113,-4.883,-12.695,8.789,0.000,0
157833.309,-15.625,-5.859,-14.160,-19.043,0.000,0
157833.313,-8.789,-4.883,-18.555,-4.395,0.000,0
157833.317,-2.930,-3.418,-12.695,-0.977,0.000,0
157833.321,-25.391,-9.766,-11.230,-18.066,0.000,0
157833.325,-25.391,-6.348,-5.371,-14.160,0.000,0
157833.329,-29.297,-7.812,-1.465,-17.090,0.000,0
157833.332,-27.832,-13.672,-4.395,-22.949,0.000,0
157833.336,-18.555,-10.742,-5.859,-12.695,0.000,0
157833.340,-32.227,-12.695,-11.719,-15.137,0.000,0
157833.344,-33.203,-20.996,-23.926,-17.578,0.000,0
157833.348,-20.508,-22.461,-32.715,-13.672,0.000,0
157833.352,-9.277,-17.090,-22.949,-15.137,0.000,0
157833.356,-11.719,-14.160,-13.184,-18.555,0.000,0
157833.360,-21.484,-18.066,-17.578,-21.973,0.000,0
157833.364,-19.043,-17.578,-17.090,-24.902,0.000,0
157833.368,-19.531,-22.461,-14.648,-17.090,0.000,0
157833.372,-14.648,-21.973,-16.113,-8.301,0.000,0
157833.375,-14.160,-15.625,-20.508,-10.254,0.000,0
157833.379,-25.391,-18.066,-23.926,-4.395,0.000,0
157833.383,-20.996,-16.113,-17.090,-1.953,0.000,0
157833.387,-18.066,-19.043,-18.066,-19.531,0.000,1
157833.391,-19.531,-17.090,-20.508,-25.391,0.000,0
157833.395,-12.695,-13.672,-19.043,-22.949,0.000,0
157833.399,-17.090,-17.090,-20.508,-22.461,0.000,0
157833.403,-19.531,-13.184,-20.508,-17.090,0.000,0
157833.407,-7.812,-11.230,-16.602,-15.137,0.000,0
157833.411,-3.906,-13.184,-11.230,-13.672,0.000,0
157833.415,-1.465,-13.184,-1.465,-15.137,0.000,0
157833.418,-1.465,-9.766,-2.930,-13.672,0.000,0
157833.422,-4.883,-6.836,-17.090,-5.859,0.000,0
157833.426,-10.742,-16.113,-23.926,-14.648,0.000,0
157833.430,-9.766,-19.531,-19.043,-10.742,0.000,0
157833.434,2.441,-18.066,-12.695,-8.301,0.000,0
157833.438,-10.742,-25.391,-18.066,-29.297,0.000,0
157833.442,-17.090,-24.414,-24.414,-23.438,0.000,0
157833.446,-10.742,-19.531,-23.438,-8.301,0.000,0
157833.450,-15.625,-16.113,-20.996,0.977,0.000,0
157833.454,-17.578,-20.508,-19.531,-16.602,0.000,0
157833.457,-17.090,-22.949,-19.043,-36.621,0.000,0
157833.461,-14.160,-17.578,-18.066,-26.855,0.000,0
157833.465,-17.090,-20.996,-20.508,-20.020,0.000,0
157833.469,-26.367,-26.367,-29.297,-19.531,0.000,0
157833.473,-41.504,-33.691,-35.156,-27.832,0.000,0
157833.477,-44.922,-30.762,-38.086,-26.855,0.000,0
157833.481,-37.598,-32.227,-41.992,-17.578,0.000,0
157833.485,-35.645,-39.551,-45.898,-20.508,0.000,0
157833.489,-42.480,-41.992,-45.898,-21.484,0.000,0
157833.493,-41.016,-43.945,-39.062,-25.879,0.000,0
157833.497,-27.832,-47.363,-42.480,-35.645,0.000,0
157833.500,-20.996,-40.527,-39.062,-41.016,0.000,0
157833.504,-26.855,-41.016,-37.109,-35.645,0.000,0
157833.508,-27.344,-46.387,-42.969,-30.273,0.000,0
157833.512,-22.949,-45.898,-39.551,-44.922,0.000,0
157833.516,-31.250,-49.805,-34.668,-47.852,0.000,0
157833.520,-29.785,-42.969,-35.645,-27.832,0.000,0
157833.524,-30.273,-40.527,-44.434,-22.949,0.000,0
157833.528,-37.109,-42.480,-50.781,-20.996,0.000,0
157833.532,-39.062,-43.457,-49.805,-39.551,0.000,0
157833.536,-35.645,-42.969,-43.945,-48.828,0.000,0
157833.540,-25.879,-35.156,-41.016,-32.227,0.000,0
157833.543,-25.391,-35.156,-39.551,-31.250,0.000,0
157833.547,-28.809,-28.809,-29.297,-29.785,0.000,0
157833.551,-22.461,-22.461,-28.809,-31.250,0.000,0
157833.555,-20.508,-27.344,-30.273,-26.367,0.000,0
157833.559,-21.484,-25.879,-34.668,-17.578,0.000,0
157833.563,-24.902,-28.320,-35.645,-27.832,0.000,0
157833.567,-26.367,-37.109,-33.203,-24.902,0.000,0
157833.571,-25.879,-32.715,-30.762,-20.996,0.000,0
157833.575,-26.367,-20.996,-21.484,-27.344,0.000,0
157833.579,-33.691,-25.391,-25.391,-28.809,0.000,0
157833.582,-30.273,-27.344,-27.832,-16.113,0.000,0
157833.586,-5.859,-17.090,-22.949,-1.953,0.000,0
157833.590,-3.418,-14.160,-17.090,-2.930,0.000,0
157833.594,-13.672,-20.996,-16.602,-11.230,0.000,0
157833.598,-21.484,-21.484,-28.809,-19.531,0.000,0
157833.602,-22.949,-20.996,-30.273,-16.602,0.000,0
157833.606,-15.625,-21.973,-26.855,-5.859,0.000,0
157833.610,-24.414,-31.250,-38.086,-20.508,0.000,0
157833.614,-36.621,-36.621,-37.598,-41.016,0.000,0
157833.618,-31.250,-29.785,-29.785,-28.320,0.000,0
157833.622,-29.297,-30.273,-30.273,-19.531,0.000,0
157833.625,-31.738,-28.809,-21.973,-27.344,0.000,0
157833.629,-34.180,-23.438,-20.508,-24.414,0.000,0
157833.633,-26.855,-20.508,-27.832,-26.855,0.000,0
157833.637,-25.879,-24.902,-27.832,-28.809,0.000,0
157833.641,-34.180,-24.902,-23.926,-24.414,0.000,0
157833.645,-33.691,-26.855,-24.902,-19.531,0.000,0
157833.649,-25.391,-29.785,-25.879,-15.137,0.000,0
157833.653,-20.996,-27.344,-24.902,-15.625,0.000,0
157833.657,-28.809,-23.926,-30.273,-18.555,0.000,0
157833.661,-30.762,-28.809,-31.738,-20.508,0.000,0
157833.665,-23.926,-32.227,-27.832,-21.973,0.000,0
157833.668,-30.762,-32.715,-26.367,-21.484,0.000,0
157833.672,-34.668,-29.297,-27.344,-25.879,0.000,0
157833.676,-26.855,-26.855,-31.738,-30.273,0.000,0
157833.680,-24.902,-31.738,-33.203,-22.461,0.000,0
157833.684,-26.367,-29.785,-28.809,-11.719,0.000,0
157833.688,-24.902,-27.832,-27.344,-12.207,0.000,0
157833.692,-22.949,-24.414,-23.926,-23.926,0.000,0
157833.696,-16.113,-23.438,-24.902,-23.438,0.000,0
157833.700,-7.812,-26.367,-20.508,-15.625,0.000,0
157833.704,-16.113,-23.438,-16.602,-17.578,0.000,0
157833.707,-21.484,-21.973,-23.438,-18.555,0.000,0
157833.711,-12.695,-15.625,-19.531,-17.578,0.000,0
157833.715,-9.277,-6.836,-13.184,-14.648,0.000,0
157833.719,-21.973,-14.160,-18.555,-11.230,0.000,0
157833.723,-22.949,-20.996,-22.461,-8.789,0.000,0
157833.727,-18.066,-20.996,-20.996,-8.789,0.000,0
157833.731,-22.949,-15.625,-12.695,-6.836,0.000,0
157833.735,-20.020,-16.113,-14.160,-4.883,0.000,0
157833.739,-10.254,-13.184,-16.602,-4.883,0.000,0
157833.743,-14.648,-14.648,-18.066,-9.277,0.000,0
157833.747,-22.949,-23.926,-24.902,-5.371,0.000,0
157833.750,-22.949,-20.996,-20.996,-13.672,0.000,0
157833.754,-20.508,-20.020,-26.855,-20.508,0.000,0
157833.758,-21.484,-21.973,-27.344,-17.578,0.000,0
157833.762,-29.297,-23.438,-24.414,-22.461,0.000,0
157833.766,-26.367,-22.949,-28.320,-23.926,0.000,0
157833.770,-18.066,-18.555,-20.508,-25.879,0.000,0
157833.774,-18.066,-15.625,-10.254,-14.160,0.000,0
157833.778,-9.277,-9.277,-9.766,-15.137,0.000,0
157833.782,-10.254,-9.766,-13.672,-16.602,0.000,0
157833.786,-15.137,-15.137,-10.742,-12.695,0.000,0
157833.790,-12.695,-12.695,-9.766,-22.949,0.000,0
157833.793,-10.742,-13.672,-19.043,-19.043,0.000,0
157833.797,-5.859,-15.625,-17.578,-5.859,0.000,0
157833.801,-6.348,-14.160,-16.602,-5.859,0.000,0
157833.805,-4.883,-14.160,-11.719,-10.254,0.000,0
157833.809,-17.578,-17.578,-14.648,-19.043,0.000,0
157833.813,-20.996,-20.996,-22.949,-28.320,0.000,0
157833.817,-19.531,-19.043,-20.996,-26.367,0.000,0
157833.821,-20.020,-18.555,-24.902,-20.020,0.000,0
157833.825,-19.043,-20.020,-24.414,-26.367,0.000,0
157833.829,-23.926,-17.090,-23.438,-26.367,0.000,0
157833.832,-20.020,-19.043,-31.738,-19.043,0.000,0
157833.836,-21.973,-26.367,-31.250,-26.855,0.000,0
157833.840,-20.508,-22.949,-26.367,-22.461,0.000,0
157833.844,-12.207,-19.043,-25.879,-23.926,0.000,0
157833.848,-9.277,-22.949,-18.066,-31.250,0.000,0
157833.852,-7.324,-12.207,-17.090,-22.461,0.000,0
157833.856,-6.348,-5.859,-19.531,-8.789,0.000,0
157833.860,-14.648,-12.207,-16.602,-10.254,0.000,0
157833.864,-21.973,-14.160,-16.113,-21.484,0.000,0
157833.868,-10.742,-13.672,-22.461,-18.555,0.000,0
157833.872,-7.812,-20.508,-25.391,-9.766,0.000,0
157833.875,-16.602,-26.855,-23.438,-16.602,0.000,0
157833.879,-9.766,-18.066,-21.484,-14.648,0.000,0
157833.883,-3.906,-13.184,-17.578,-14.648,0.000,0
157833.887,-15.137,-15.137,-14.648,-20.020,0.000,0
157833.891,-16.113,-11.230,-18.066,-8.789,0.000,0
157833.895,-6.348,-14.648,-20.508,-0.488,0.000,0
157833.899,-11.719,-18.066,-21.484,-10.254,0.000,0
157833.903,-15.625,-19.531,-26.367,-18.555,0.000,0
157833.907,-18.066,-21.484,-32.715,-25.391,0.000,0
157833.911,-21.484,-17.090,-28.320,-27.344,0.000,0
157833.915,-17.090,-22.461,-23.926,-26.367,0.000,0
157833.918,-18.555,-22.949,-27.832,-25.879,0.000,0
157833.922,-21.484,-22.949,-27.344,-27.344,0.000,0
157833.926,-20.996,-29.297,-26.367,-37.598,0.000,0
157833.930,-20.996,-36.621,-25.879,-32.715,0.000,0
157833.934,-22.949,-36.133,-28.320,-27.344,0.000,0
157833.938,-18.555,-27.832,-32.715,-27.832,0.000,0
157833.942,-13.184,-22.461,-25.879,-23.438,0.000,0
157833.946,-14.160,-24.902,-21.484,-25.391,0.000,0
157833.950,-18.066,-24.902,-24.902,-25.391,0.000,0
157833.954,-19.043,-26.855,-26.855,-31.738,0.000,0
157833.957,-16.602,-23.926,-25.391,-22.949,0.000,0
157833.961,-13.184,-17.578,-24.902,-0.977,0.000,0
157833.965,-14.160,-25.391,-20.508,-16.602,0.000,0
157833.969,-16.113,-26.367,-20.020,-14.648,0.000,0
157833.973,-8.789,-23.926,-25.879,-7.324,0.000,0
157833.977,-2.930,-30.273,-27.344,-20.508,0.000,0
157833.981,-14.160,-35.156,-21.973,-26.367,0.000,0
157833.985,-19.043,-25.879,-17.578,-28.809,0.000,1
157833.989,-9.277,-16.602,-20.508,-23.438,0.000,0
157833.993,-20.508,-16.602,-21.973,-25.879,0.000,0
157833.997,-29.785,-12.695,-20.020,-18.555,0.000,0
157834.000,-15.625,-15.137,-21.484,-5.859,0.000,0
157834.004,-12.695,-18.066,-20.020,-14.648,0.000,0
157834.008,-20.020,-9.766,-16.602,-14.160,0.000,0
157834.012,-17.578,-5.859,-13.672,-3.906,0.000,0
157834.016,-15.625,-11.230,-14.648,-8.301,0.000,0
157834.020,-18.555,-20.996,-17.578,-6.836,0.000,0
157834.024,-25.391,-18.066,-15.625,-9.277,0.000,0
157834.028,-27.832,-12.207,-16.602,-24.414,0.000,0
157834.032,-30.273,-22.461,-20.508,-30.273,0.000,0
157834.036,-35.645,-34.180,-30.273,-28.809,0.000,0
157834.040,-37.598,-30.273,-33.691,-25.391,0.000,0
157834.043,-45.898,-37.598,-35.645,-33.691,0.000,0
157834.047,-52.246,-48.828,-51.270,-43.457,0.000,0
157834.051,-47.852,-46.875,-57.129,-45.898,0.000,0
157834.055,-51.270,-41.016,-51.270,-43.945,0.000,0
157834.059,-56.641,-49.805,-49.805,-41.504,0.000,0
157834.063,-47.363,-49.805,-49.316,-46.875,0.000,0
157834.067,-43.945,-39.062,-48.828,-44.434,0.000,0
157834.071,-31.738,-31.738,-48.340,-23.926,0.000,0
157834.075,-18.066,-33.203,-46.875,-8.301,0.000,0
157834.079,-10.254,-41.504,-45.410,8.301,0.000,0
157834.082,-16.113,-38.086,-35.645,-4.395,0.000,0
157834.086,-48.340,-28.320,-34.668,-42.969,0.000,0
157834.090,-56.641,-30.273,-49.316,-47.363,0.000,0
157834.094,-40.039,-33.691,-50.781,-31.738,0.000,0
157834.098,-49.316,-38.086,-53.223,-32.715,0.000,0
157834.102,-62.500,-47.852,-49.805,-56.641,0.000,0
157834.106,-61.523,-55.664,-51.270,-65.430,0.000,0
157834.110,-66.895,-60.059,-65.430,-60.547,0.000,0
157834.114,-71.777,-57.129,-64.941,-58.594,0.000,0
157834.118,-69.336,-50.293,-61.523,-49.316,0.000,0
157834.122,-58.594,-46.387,-49.805,-54.688,0.000,0
157834.125,-63.965,-46.387,-49.805,-60.547,0.000,0
157834.129,-71.777,-47.852,-57.129,-57.617,0.000,0
157834.133,-52.734,-55.176,-54.199,-56.152,0.000,0
157834.137,-43.945,-50.781,-53.223,-44.922,0.000,0
157834.141,-39.062,-34.180,-43.945,-46.387,0.000,0
157834.145,-35.645,-31.250,-38.574,-45.410,0.000,0
157834.149,-37.598,-27.832,-39.062,-28.320,0.000,0
157834.153,-23.926,-22.949,-34.668,-26.855,0.000,0
157834.157,-26.367,-29.297,-33.203,-35.156,0.000,0
157834.161,-38.574,-27.832,-32.227,-41.504,0.000,0
157834.165,-34.668,-23.926,-38.574,-35.645,0.000,0
157834.168,-22.461,-24.902,-36.133,-27.832,0.000,0
157834.172,-24.902,-28.809,-31.738,-27.832,0.000,0
157834.176,-24.414,-29.785,-29.785,-25.391,0.000,0
157834.180,-16.602,-20.020,-20.020,-18.555,0.000,0
157834.184,-19.043,-18.555,-18.066,-14.648,0.000,0
157834.188,-23.438,-28.809,-30.273,-29.297,0.000,0
157834.192,-27.344,-29.785,-38.086,-40.527,0.000,0
157834.196,-30.273,-27.832,-40.039,-33.203,0.000,0
157834.200,-29.297,-29.785,-33.691,-36.133,0.000,0
157834.204,-34.180,-30.762,-26.367,-46.387,0.000,0
157834.207,-34.668,-35.645,-31.250,-40.527,0.000,0
157834.211,-32.227,-37.109,-34.180,-37.598,0.000,0
157834.215,-31.738,-31.250,-34.180,-35.156,0.000,0
157834.219,-24.902,-32.715,-29.297,-29.785,0.000,0
157834.223,-28.320,-34.180,-30.762,-33.203,0.000,0
157834.227,-22.461,-30.762,-36.133,-29.297,0.000,0
157834.231,-16.602,-33.203,-42.480,-30.762,0.000,0
157834.235,-36.133,-35.645,-45.410,-40.039,0.000,0
157834.239,-38.574,-35.156,-37.109,-42.480,0.000,0
157834.243,-31.738,-38.574,-42.969,-42.480,0.000,0
157834.247,-29.785,-38.574,-54.199,-33.691,0.000,0
157834.250,-21.973,-35.645,-47.363,-15.137,0.000,0
157834.254,-17.090,-35.645,-39.062,-6.836,0.000,0
157834.258,-15.137,-32.715,-30.762,-9.766,0.000,0
157834.262,-17.090,-20.508,-15.137,-16.113,0.000,0
157834.266,-13.184,-18.066,-16.113,-10.742,0.000,0
157834.270,-7.812,-20.020,-23.926,0.000,0.000,0
157834.274,-12.695,-19.043,-24.414,1.953,0.000,0
157834.278,-16.113,-16.113,-25.879,-6.836,0.000,0
157834.282,-18.555,-20.020,-21.973,-17.090,0.000,0
157834.286,-13.184,-29.785,-28.809,-20.996,0.000,0
157834.290,-5.859,-24.902,-36.133,-18.555,0.000,0
157834.293,-9.277,-24.902,-27.832,-6.348,0.000,0
157834.297,-13.672,-32.227,-31.738,-9.277,0.000,0
157834.301,-23.438,-30.762,-35.645,-20.996,0.000,0
157834.305,-23.438,-24.414,-32.715,-16.602,0.000,0
157834.309,-18.066,-20.020,-25.879,-6.348,0.000,0
157834.313,-6.348,-19.531,-18.555,6.836,0.000,0
157834.317,-1.953,-14.160,-17.578,14.160,0.000,0
157834.321,-11.719,-11.719,-16.602,1.953,0.000,0
157834.325,-20.996,-17.090,-22.461,-5.371,0.000,0
157834.329,-13.184,-12.695,-21.484,0.488,0.000,0
157834.332,-15.625,-13.672,-24.414,-1.953,0.000,0
157834.336,-28.320,-22.949,-30.762,-2.930,0.000,0
157834.340,-20.020,-24.902,-24.902,-9.766,0.000,0
157834.344,-17.578,-20.508,-27.344,-24.902,0.000,0
157834.348,-15.137,-15.625,-26.367,-17.578,0.000,0
157834.352,-15.137,-21.973,-30.762,-5.859,0.000,0
157834.356,-14.648,-27.832,-34.668,-9.277,0.000,0
157834.360,-16.602,-29.297,-30.273,-15.137,0.000,0
157834.364,-18.066,-28.320,-32.715,-18.066,0.000,0
157834.368,-16.113,-29.297,-35.645,-12.207,0.000,0
157834.372,-22.461,-27.832,-36.133,-4.883,0.000,0
157834.375,-14.648,-23.926,-32.227,-3.906,0.000,0
157834.379,-3.418,-19.531,-20.508,-7.812,0.000,0
157834.383,-5.859,-17.578,-15.625,-7.324,0.000,0
157834.387,-9.766,-15.137,-19.043,-10.254,0.000,0
157834.391,-9.766,-11.230,-16.602,-14.648,0.000,0
157834.395,-0.488,-16.602,-11.230,-3.418,0.000,0
157834.399,-7.812,-18.555,-6.348,1.953,0.000,0
157834.403,-14.648,-14.648,-13.184,-3.418,0.000,0
157834.407,-11.230,-14.160,-18.555,-12.207,0.000,0
157834.411,-16.602,-16.602,-12.207,-22.461,0.000,0
157834.415,-11.719,-19.043,-17.090,-15.137,0.000,0
157834.418,-18.555,-28.809,-26.855,-19.531,0.000,0
157834.422,-28.809,-31.250,-30.762,-37.109,0.000,0
157834.426,-26.855,-25.879,-32.715,-28.809,0.000,0
157834.430,-25.391,-30.273,-34.668,-19.531,0.000,0
157834.434,-23.926,-26.855,-32.715,-20.996,0.000,0
157834.438,-18.555,-25.879,-29.785,-25.879,0.000,0
157834.442,-17.090,-32.715,-33.691,-27.832,0.000,0
157834.446,-34.180,-35.645,-36.621,-28.320,0.000,0
157834.450,-41.504,-29.785,-29.297,-32.715,0.000,0
157834.454,-34.180,-29.785,-31.250,-22.461,0.000,0
157834.457,-36.133,-35.156,-34.180,-28.809,0.000,0
157834.461,-32.715,-30.273,-24.902,-41.504,0.000,0
157834.465,-21.973,-25.879,-25.391,-20.508,0.000,0
157834.469,-18.066,-22.949,-28.320,-11.719,0.000,0
157834.473,-22.949,-21.484,-30.273,-17.090,0.000,0
157834.477,-34.668,-26.367,-23.438,-33.203,0.000,0
157834.481,-29.297,-24.902,-20.996,-37.598,0.000,0
157834.485,-12.207,-21.973,-32.227,-24.902,0.000,0
157834.489,-19.043,-24.414,-30.273,-14.160,0.000,0
157834.493,-19.531,-22.461,-25.391,-2.930,0.000,0
157834.497,-8.301,-19.043,-20.020,-10.742,0.000,0
157834.500,-17.578,-17.090,-19.531,-19.043,0.000,0
157834.504,-26.855,-12.207,-20.508,-11.230,0.000,0
157834.508,-21.973,-11.719,-17.090,-6.348,0.000,0
157834.512,-26.367,-19.043,-21.484,-7.812,0.000,0
157834.516,-22.461,-16.602,-18.066,-17.578,0.000,0
157834.520,-9.277,-4.883,-5.859,-17.578,0.000,0
157834.524,-12.207,-11.719,-13.672,-9.277,0.000,0
157834.528,-11.230,-19.043,-27.832,-12.207,0.000,1
157834.532,-7.812,-23.926,-29.785,-9.766,0.000,0
157834.536,-18.066,-26.855,-24.902,-19.531,0.000,0
157834.540,-21.484,-22.949,-20.508,-29.785,0.000,0
157834.543,-20.020,-30.273,-30.273,-24.414,0.000,0
157834.547,-20.508,-23.926,-29.297,-34.668,0.000,0
157834.551,-19.531,-15.137,-22.461,-41.016,0.000,0
157834.555,-18.555,-21.973,-23.926,-30.762,0.000,0
157834.559,-17.090,-23.926,-21.973,-35.156,0.000,0
157834.563,-16.113,-24.902,-21.973,-34.668,0.000,0
157834.567,-24.414,-26.367,-21.484,-24.414,0.000,0
157834.571,-20.996,-21.973,-20.020,-24.902,0.000,0
157834.575,-11.719,-18.555,-25.391,-28.809,0.000,0
157834.579,-17.090,-16.602,-25.879,-27.344,0.000,0
157834.582,-25.879,-18.066,-23.438,-20.996,0.000,0
157834.586,-23.926,-17.578,-19.043,-20.020,0.000,0
157834.590,-20.020,-15.625,-20.020,-20.020,0.000,0
157834.594,-28.809,-14.160,-19.043,-25.879,0.000,0
157834.598,-33.203,-21.973,-20.996,-36.133,0.000,0
157834.602,-32.227,-27.832,-32.715,-31.738,0.000,0
157834.606,-33.203,-21.973,-37.598,-24.414,0.000,0
157834.610,-36.621,-20.508,-36.621,-26.855,0.000,0
157834.614,-36.133,-26.367,-33.691,-31.250,0.000,0
157834.618,-23.438,-23.926,-34.180,-35.156,0.000,0
157834.622,-16.602,-19.043,-37.109,-35.645,0.000,0
157834.625,-28.320,-24.902,-37.598,-34.668,0.000,0
157834.629,-20.020,-22.461,-29.297,-15.625,0.000,0
157834.633,-12.695,-24.414,-30.273,-6.836,0.000,0
157834.637,-25.879,-29.785,-34.668,-26.855,0.000,0
157834.641,-27.344,-25.879,-30.762,-30.762,0.000,0
157834.645,-22.949,-25.391,-30.762,-20.996,0.000,0
157834.649,-26.855,-24.414,-30.273,-16.602,0.000,0
157834.653,-26.855,-18.066,-21.484,-15.625,0.000,0
157834.657,-27.832,-14.648,-15.625,-23.438,0.000,0
157834.661,-21.973,-8.301,-16.113,-21.973,0.000,0
157834.665,-8.789,-1.953,-17.578,-17.090,0.000,0
157834.668,-12.207,-4.883,-18.555,-9.766,0.000,0
157834.672,-16.113,-8.789,-15.137,-10.254,0.000,0
157834.676,-20.020,-7.324,-17.090,-18.066,0.000,0
157834.680,-15.137,-3.906,-19.043,-13.184,0.000,0
157834.684,-11.719,-2.930,-18.066,-2.441,0.000,0
157834.688,-15.137,-1.465,-19.043,-2.930,0.000,0
157834.692,-10.254,-4.883,-17.090,-11.719,0.000,0
157834.696,-6.836,-5.859,-11.719,-13.184,0.000,0
157834.700,-9.277,-0.488,-1.465,-6.348,0.000,0
157834.704,-8.301,-1.953,-2.441,-2.441,0.000,0
157834.707,-5.371,-6.836,-14.160,-5.371,0.000,0
157834.711,-9.277,-7.812,-11.719,-11.230,0.000,0
157834.715,-17.578,-7.324,-6.348,-21.484,0.000,0
157834.719,-22.949,-11.719,-12.695,-22.949,0.000,0
157834.723,-10.254,-13.672,-16.113,-7.812,0.000,0
157834.727,-12.695,-13.672,-15.625,-12.695,0.000,0
