timestamps,TP9,AF7,AF8,TP10,Right AUX,Marker0
157438.915,-35.645,-28.809,-15.625,-40.039,0.000,0
157438.918,-35.645,-28.320,-21.973,-36.133,0.000,0
157438.922,-30.273,-24.902,-25.391,-25.879,0.000,0
157438.926,-27.344,-23.926,-30.273,-16.113,0.000,0
157438.930,-27.832,-20.996,-22.949,-17.578,0.000,0
157438.934,-23.926,-22.949,-11.719,-25.391,0.000,0
157438.938,-21.484,-20.508,-20.020,-36.621,0.000,0
157438.942,-12.695,-20.508,-21.484,-22.461,0.000,0
157438.946,-14.160,-22.949,-16.602,-11.230,0.000,0
157438.950,-14.160,-21.973,-18.066,-34.180,0.000,0
157438.954,-10.254,-18.066,-4.883,-24.414,0.000,0
157438.957,-2.441,-16.113,-3.906,-2.930,0.000,0
157438.961,-3.906,-20.020,-15.137,-29.297,0.000,0
157438.965,-12.207,-14.648,-17.090,-18.555,0.000,0
157438.969,-22.461,-13.672,-17.578,-5.859,0.000,0
157438.973,-31.250,-20.996,-8.301,-33.203,0.000,0
157438.977,-25.391,-17.090,-10.742,-20.508,0.000,0
157438.981,-22.461,-17.090,-22.949,-3.906,0.000,0
157438.985,-13.184,-17.090,-22.461,1.953,0.000,0
157438.989,-17.578,-19.043,-10.254,1.953,0.000,0
157438.993,-21.973,-21.484,-8.789,-26.367,0.000,0
157438.997,-14.648,-17.090,-21.484,-26.367,0.000,0
157439.000,-21.484,-16.113,-17.578,-22.949,0.000,0
157439.004,-21.973,-15.137,-14.648,-13.184,0.000,0
157439.008,-12.207,-16.602,-23.926,-8.789,0.000,0
157439.012,-15.137,-16.602,-17.578,-29.297,0.000,0
157439.016,-12.695,-13.184,-16.602,-11.719,0.000,0
157439.020,-3.418,-18.066,-19.043,-4.395,0.000,0
157439.024,-3.906,-20.996,-19.043,-15.625,0.000,0
157439.028,-7.812,-25.879,-25.879,-18.066,0.000,0
157439.032,-19.043,-28.320,-17.578,-38.086,0.000,0
157439.036,-22.949,-25.391,-13.184,-34.180,0.000,0
157439.040,-11.719,-22.949,-20.996,-22.949,0.000,0
157439.043,-16.602,-24.902,-28.320,-5.859,0.000,0
157439.047,-23.438,-26.367,-23.926,4.883,0.000,0
157439.051,-23.438,-27.344,-15.137,-28.320,0.000,0
157439.055,-23.438,-24.414,-23.926,-21.973,0.000,0
157439.059,-13.184,-19.531,-18.555,4.883,0.000,0
157439.063,-20.020,-20.996,-11.719,-6.348,0.000,0
157439.067,-24.414,-23.926,-17.578,-20.020,0.000,0
157439.071,-23.438,-24.902,-15.137,-33.691,0.000,0
157439.075,-28.809,-20.996,-14.160,-30.762,0.000,0
157439.079,-27.344,-16.602,-11.719,-15.625,0.000,0
157439.082,-21.973,-19.043,-20.996,-8.301,0.000,0
157439.086,-12.207,-22.461,-27.832,0.488,0.000,0
157439.090,-5.859,-21.484,-14.160,-9.277,0.000,0
157439.094,-16.602,-22.949,-20.508,-11.230,0.000,0
157439.098,-17.090,-22.949,-30.273,-8.301,0.000,0
157439.102,-12.207,-28.809,-27.832,-4.883,0.000,0
157439.106,-11.719,-35.156,-23.438,18.555,0.000,0
157439.110,-10.742,-27.832,-9.766,-0.488,0.000,0
157439.114,-3.418,-26.367,-12.207,-24.414,0.000,0
157439.118,-5.859,-29.297,-22.949,-17.090,0.000,0
157439.122,-23.438,-29.297,-19.531,-12.695,0.000,0
157439.125,-26.855,-32.715,-17.090,-11.719,0.000,0
157439.129,-22.949,-31.738,-25.391,-25.879,0.000,0
157439.133,-16.602,-34.668,-27.832,-29.297,0.000,0
157439.137,-15.137,-30.273,-20.508,-8.301,0.000,0
157439.141,-26.367,-32.227,-24.414,-20.508,0.000,0
157439.145,-20.996,-35.645,-31.738,-21.484,0.000,0
157439.149,-11.719,-25.879,-24.414,-19.043,0.000,0
157439.153,-20.996,-23.926,-23.438,-37.598,0.000,0
157439.157,-20.996,-25.391,-28.809,-27.344,0.000,0
157439.161,-15.137,-30.273,-34.668,-10.254,0.000,0
157439.165,-20.996,-39.551,-35.645,-15.625,0.000,0
157439.168,-34.668,-34.180,-24.414,-16.602,0.000,0
157439.172,-33.203,-29.785,-27.832,-25.879,0.000,0
157439.176,-21.484,-31.738,-38.086,-33.691,0.000,0
157439.180,-21.973,-27.832,-34.668,-22.949,0.000,0
157439.184,-27.344,-26.367,-25.391,-7.324,0.000,0
157439.188,-13.672,-28.320,-21.484,-8.789,0.000,0
157439.192,-10.742,-27.832,-22.949,-6.836,0.000,0
157439.196,-14.160,-26.367,-25.391,5.371,0.000,0
157439.200,-4.883,-27.344,-23.438,8.789,0.000,0
157439.204,-10.742,-27.344,-22.949,-7.324,0.000,0
157439.207,-19.531,-28.809,-22.949,-12.207,0.000,0
157439.211,-21.973,-24.414,-24.902,-13.184,0.000,0
157439.215,-27.344,-22.949,-32.715,-9.277,0.000,0
157439.219,-23.926,-23.926,-28.809,3.418,0.000,0
157439.223,-13.184,-22.949,-28.809,-1.465,0.000,0
157439.227,-15.137,-26.855,-17.578,-4.883,0.000,0
157439.231,-18.555,-23.438,-8.789,-2.930,0.000,0
157439.235,-11.719,-21.973,-20.508,5.371,0.000,0
157439.239,-8.301,-21.484,-20.020,0.488,0.000,0
157439.243,-9.277,-20.508,-16.602,-7.324,0.000,0
157439.247,-14.160,-24.414,-24.414,-11.719,0.000,0
157439.250,-6.836,-27.344,-24.414,-27.344,0.000,0
157439.254,0.488,-27.344,-23.926,-24.902,0.000,0
157439.258,-7.324,-25.391,-25.879,-4.883,0.000,0
157439.262,-23.926,-29.785,-37.598,4.395,0.000,0
157439.266,-37.109,-27.344,-38.086,-9.766,0.000,0
157439.270,-39.551,-18.555,-26.855,-10.742,0.000,0
157439.274,-30.762,-22.461,-27.832,0.000,0.000,0
157439.278,-24.902,-29.297,-33.203,-6.836,0.000,0
157439.282,-22.461,-30.273,-33.203,-10.742,0.000,0
157439.286,-11.230,-27.832,-19.531,-20.020,0.000,0
157439.290,-14.648,-26.855,-15.137,-40.039,0.000,0
157439.293,-18.555,-25.391,-27.344,-25.391,0.000,0
157439.297,-14.160,-25.879,-26.855,-22.949,0.000,0
157439.301,-17.578,-26.855,-20.508,-17.090,0.000,0
157439.305,-19.531,-28.320,-14.160,-15.625,0.000,0
157439.309,-23.926,-29.297,-14.160,-29.785,0.000,0
157439.313,-24.902,-29.297,-20.996,-27.344,0.000,0
157439.317,-25.879,-29.785,-15.625,-34.180,0.000,0
157439.321,-22.949,-28.809,-24.902,-17.578,0.000,0
157439.325,-16.113,-27.832,-19.043,-21.973,0.000,0
157439.329,-16.602,-27.344,-2.930,-40.527,0.000,0
157439.332,-14.648,-29.297,-19.531,-19.531,0.000,0
157439.336,-9.277,-31.250,-28.809,-14.648,0.000,0
157439.340,-5.371,-28.320,-23.926,-8.301,0.000,0
157439.344,-10.742,-25.879,-7.812,-25.879,0.000,0
157439.348,-12.207,-24.414,-5.371,-41.016,0.000,0
157439.352,-9.277,-19.531,-17.578,-43.457,0.000,0
157439.356,-14.160,-22.949,-19.531,-31.250,0.000,0
157439.360,-11.230,-27.344,-18.066,0.000,0.000,0
157439.364,-13.184,-24.902,-11.719,-20.508,0.000,0
157439.368,-13.184,-23.438,-12.207,-32.227,0.000,0
157439.372,-12.695,-25.879,-20.996,-19.043,0.000,0
157439.375,-18.555,-31.250,-24.414,-25.391,0.000,0
157439.379,-18.555,-25.391,-26.367,-12.695,0.000,0
157439.383,-21.484,-24.902,-25.391,-15.137,0.000,0
157439.387,-21.973,-28.809,-19.531,-31.250,0.000,0
157439.391,-23.926,-20.508,-24.414,-20.996,0.000,0
157439.395,-24.414,-20.996,-30.273,-12.207,0.000,0
157439.399,-26.367,-30.762,-34.180,-7.812,0.000,0
157439.403,-29.785,-29.785,-25.391,-11.230,0.000,0
157439.407,-25.879,-23.926,-15.625,-18.555,0.000,0
157439.411,-24.902,-20.996,-31.250,-19.043,0.000,0
157439.415,-10.742,-24.414,-35.156,-24.902,0.000,0
157439.418,-17.090,-23.438,-22.949,-31.250,0.000,0
157439.422,-29.785,-20.020,-18.066,-27.832,0.000,0
157439.426,-20.020,-20.996,-16.113,-48.828,0.000,0
157439.430,-31.738,-22.461,-17.578,-54.199,0.000,0
157439.434,-41.504,-30.762,-31.250,-41.016,0.000,0
157439.438,-34.180,-31.738,-35.645,-30.762,0.000,0
157439.442,-30.762,-30.273,-29.785,-28.320,0.000,0
157439.446,-33.203,-34.668,-27.344,-32.227,0.000,0
157439.450,-37.598,-32.227,-30.762,-16.602,0.000,0
157439.454,-33.691,-29.785,-29.297,-9.277,0.000,0
157439.457,-33.203,-32.715,-35.645,-24.902,0.000,0
157439.461,-31.738,-27.344,-38.086,-29.785,0.000,0
157439.465,-32.715,-26.367,-25.879,-39.062,0.000,0
157439.469,-39.062,-30.273,-30.762,-40.527,0.000,0
157439.473,-29.785,-27.832,-37.598,-22.949,0.000,0
157439.477,-26.855,-24.414,-30.273,-20.996,0.000,0
157439.481,-30.273,-22.949,-24.902,-23.438,0.000,0
157439.485,-33.203,-23.926,-25.879,-26.367,0.000,0
157439.489,-28.809,-24.414,-30.762,-28.809,0.000,0
157439.493,-27.344,-22.949,-29.785,-25.879,0.000,0
157439.497,-34.668,-21.484,-34.180,-27.344,0.000,0
157439.500,-31.250,-21.973,-34.668,-25.391,0.000,0
157439.504,-20.996,-19.531,-25.879,-32.227,0.000,0
157439.508,-30.273,-20.020,-28.320,-28.809,0.000,0
157439.512,-34.180,-27.832,-33.691,-16.602,0.000,0
157439.516,-19.043,-27.344,-37.109,-15.625,0.000,0
157439.520,-23.926,-26.367,-34.668,-22.461,0.000,0
157439.524,-39.551,-30.273,-27.832,-35.156,0.000,0
157439.528,-32.715,-33.691,-35.645,-35.645,0.000,0
157439.532,-31.250,-36.133,-40.527,-39.551,0.000,0
157439.536,-31.250,-35.156,-46.387,-36.133,0.000,0
157439.540,-25.879,-30.273,-43.457,-27.344,0.000,0
157439.543,-31.250,-29.297,-33.203,-45.410,0.000,0
157439.547,-32.715,-29.297,-49.316,-48.828,0.000,0
157439.551,-20.508,-25.391,-57.129,-41.016,0.000,0
157439.555,-19.531,-22.461,-38.086,-29.785,0.000,0
157439.559,-21.484,-22.461,-30.762,-12.695,0.000,0
157439.563,-14.648,-24.414,-32.715,-28.809,0.000,0
157439.567,-30.273,-24.414,-33.691,-37.109,0.000,0
157439.571,-37.598,-22.461,-33.203,-19.043,0.000,0
157439.575,-29.785,-24.902,-36.133,-6.348,0.000,0
157439.579,-27.344,-30.273,-41.992,-17.090,0.000,0
157439.582,-32.715,-33.203,-37.109,-41.992,0.000,0
157439.586,-46.875,-30.762,-39.551,-44.434,0.000,0
157439.590,-56.152,-34.668,-46.387,-30.762,0.000,0
157439.594,-47.852,-34.668,-44.434,-39.551,0.000,0
157439.598,-38.574,-26.367,-37.109,-39.062,0.000,0
157439.602,-48.828,-28.809,-21.973,-32.227,0.000,0
157439.606,-47.852,-31.738,-29.785,-43.457,0.000,0
157439.610,-35.645,-29.297,-40.527,-41.504,0.000,0
157439.614,-36.133,-27.344,-30.273,-25.879,0.000,0
157439.618,-36.133,-31.250,-27.832,-11.719,0.000,0
157439.622,-32.715,-32.715,-25.879,-23.438,0.000,0
157439.625,-34.180,-27.832,-27.832,-38.086,0.000,0
157439.629,-34.668,-27.344,-32.715,-35.156,0.000,0
157439.633,-28.809,-30.273,-31.250,-34.668,0.000,0
157439.637,-26.855,-25.879,-31.738,-24.414,0.000,0
157439.641,-23.438,-26.855,-30.273,-20.996,0.000,0
157439.645,-22.461,-25.391,-23.926,-26.367,0.000,0
157439.649,-20.996,-29.297,-26.367,-27.344,0.000,0
157439.653,-11.230,-39.551,-35.645,-28.809,0.000,0
157439.657,-14.648,-36.621,-34.668,-16.113,0.000,0
157439.661,-16.602,-29.785,-26.855,-26.367,0.000,0
157439.665,-18.555,-22.461,-24.414,-29.297,0.000,0
157439.668,-21.973,-20.020,-26.367,-20.508,0.000,0
157439.672,-17.578,-27.832,-25.391,-20.508,0.000,0
157439.676,-18.555,-27.344,-27.344,-10.742,0.000,0
157439.680,-22.461,-28.809,-34.180,-14.648,0.000,0
157439.684,-20.020,-34.668,-35.645,-22.461,0.000,0
157439.688,-14.648,-27.344,-29.297,-19.531,0.000,0
157439.692,-24.902,-26.367,-30.273,-20.996,0.000,0
157439.696,-7.812,-31.250,-38.086,-3.418,0.000,0
157439.700,11.230,-33.203,-24.414,-5.371,0.000,0
157439.704,-20.020,-32.715,-8.789,-44.434,0.000,0
157439.707,-22.949,-30.762,-17.090,-35.156,0.000,0
157439.711,-6.348,-31.250,-29.785,-19.531,0.000,0
157439.715,-19.043,-33.203,-32.227,-20.508,0.000,0
157439.719,-29.785,-37.598,-25.879,-24.902,0.000,0
157439.723,-31.738,-35.645,-21.484,-34.668,0.000,0
157439.727,-35.156,-31.250,-28.320,-35.645,0.000,0
157439.731,-33.203,-34.668,-29.785,-32.227,0.000,0
157439.735,-30.762,-29.785,-20.020,-33.691,0.000,0
157439.739,-36.133,-32.227,-22.949,-35.156,0.000,0
157439.743,-28.320,-31.250,-29.785,-36.133,0.000,0
157439.747,-26.855,-22.949,-31.250,-39.551,0.000,0
157439.750,-28.809,-28.809,-34.668,-40.527,0.000,0
157439.754,-24.902,-28.809,-38.574,-24.414,0.000,0
157439.758,-15.625,-28.320,-35.156,-24.902,0.000,0
157439.762,-13.672,-31.250,-33.203,-38.086,0.000,0
157439.766,-18.555,-26.855,-37.109,-28.320,0.000,0
157439.770,-20.996,-26.855,-33.691,-20.020,0.000,0
157439.774,-29.297,-32.227,-36.621,-16.113,0.000,0
157439.778,-33.691,-27.832,-34.668,-16.113,0.000,0
157439.782,-36.133,-25.391,-28.320,-28.809,0.000,0
157439.786,-28.320,-26.855,-33.691,-35.156,0.000,0
157439.790,-15.137,-31.738,-39.551,-20.508,0.000,0
157439.793,-23.438,-33.691,-37.598,-4.395,0.000,0
157439.797,-26.855,-28.809,-35.156,-13.184,0.000,0
157439.801,-23.926,-30.762,-30.762,-29.785,0.000,0
157439.805,-29.785,-29.785,-36.621,-34.180,0.000,0
157439.809,-19.043,-20.508,-35.156,-31.250,0.000,0
157439.813,-19.531,-24.902,-38.574,-28.320,0.000,0
157439.817,-22.949,-25.391,-43.945,-23.438,0.000,0
157439.821,-13.672,-22.949,-28.320,-30.273,0.000,0
157439.825,-19.531,-25.391,-22.461,-24.902,0.000,0
157439.829,-20.996,-31.738,-28.809,-8.301,0.000,0
157439.832,-7.812,-28.809,-37.598,-5.371,0.000,0
157439.836,-15.137,-24.414,-29.785,-30.762,0.000,0
157439.840,-18.066,-24.414,-21.973,-33.203,0.000,0
157439.844,-14.160,-21.973,-38.086,-5.859,0.000,0
157439.848,-14.648,-24.902,-37.598,-11.719,0.000,0
157439.852,-16.113,-28.809,-28.809,-9.277,0.000,0
157439.856,-22.949,-31.250,-29.785,-5.859,0.000,0
157439.860,-31.250,-36.621,-29.297,-28.809,0.000,0
157439.864,-36.133,-32.227,-34.180,-32.227,0.000,0
157439.868,-29.785,-27.832,-38.086,-28.320,0.000,0
157439.872,-21.484,-29.785,-32.227,-24.414,0.000,0
157439.875,-21.973,-25.879,-30.762,-19.043,0.000,0
157439.879,-34.180,-27.344,-38.086,-30.273,0.000,0
157439.883,-46.387,-35.645,-42.480,-47.363,0.000,0
157439.887,-47.852,-41.992,-32.715,-44.434,0.000,0
157439.891,-43.457,-37.109,-30.273,-32.715,0.000,0
157439.895,-36.621,-29.785,-38.086,-28.809,0.000,0
157439.899,-34.180,-27.832,-29.297,-35.156,0.000,0
157439.903,-35.645,-31.250,-29.297,-20.996,0.000,0
157439.907,-28.320,-32.715,-35.645,-11.230,0.000,0
157439.911,-28.320,-25.391,-34.180,-26.367,0.000,0
157439.915,-38.086,-26.855,-36.621,-24.902,0.000,0
157439.918,-36.133,-32.715,-31.250,-30.762,0.000,0
157439.922,-30.273,-35.645,-32.715,-35.645,0.000,0
157439.926,-27.832,-29.785,-41.016,-16.113,0.000,0
157439.930,-34.668,-23.438,-38.574,-5.371,0.000,0
157439.934,-33.203,-25.391,-24.414,-17.090,0.000,0
157439.938,-20.508,-29.785,-13.672,-36.621,0.000,0
157439.942,-24.902,-26.855,-28.809,-18.555,0.000,0
157439.946,-20.508,-30.273,-34.668,-9.766,0.000,0
157439.950,-19.531,-34.668,-29.785,-16.113,0.000,0
157439.954,-23.926,-34.668,-27.344,-11.230,0.000,0
157439.957,-18.555,-30.762,-21.484,-15.137,0.000,0
157439.961,-14.160,-20.508,-22.949,-13.672,0.000,0
157439.965,-15.137,-23.438,-24.414,0.977,0.000,0
157439.969,-10.742,-23.926,-32.715,0.488,0.000,0
157439.973,-12.695,-30.273,-30.762,-20.996,0.000,0
157439.977,-23.438,-34.668,-12.695,-36.133,0.000,0
157439.981,-14.648,-22.461,-21.973,-28.320,0.000,0
157439.985,-0.977,-20.508,-30.273,-19.531,0.000,0
157439.989,-7.812,-17.578,-17.578,-8.301,0.000,0
157439.993,-0.977,-15.137,-18.066,-9.766,0.000,0
157439.997,0.977,-23.438,-17.090,-32.227,0.000,0
157440.000,-14.160,-25.879,-18.555,-27.832,0.000,0
157440.004,-20.508,-29.297,-26.367,-15.625,0.000,0
157440.008,-19.043,-28.809,-31.250,-16.113,0.000,0
157440.012,-22.949,-29.297,-32.227,-21.973,0.000,0
157440.016,-25.391,-33.203,-27.832,-43.457,0.000,0
157440.020,-25.879,-27.832,-20.996,-39.062,0.000,0
157440.024,-18.066,-24.414,-28.320,-27.832,0.000,0
157440.028,-18.555,-23.438,-34.668,-21.973,0.000,0
157440.032,-22.461,-28.320,-30.762,-11.719,0.000,0
157440.036,-16.602,-30.762,-20.508,-29.785,0.000,0
157440.040,-20.996,-30.273,-26.855,-37.109,0.000,0
157440.043,-19.531,-27.344,-37.598,-23.438,0.000,0
157440.047,-14.648,-27.344,-37.598,-17.090,0.000,0
157440.051,-18.066,-31.738,-28.320,-8.789,0.000,0
157440.055,-15.625,-26.367,-19.043,-19.531,0.000,0
157440.059,-19.043,-23.438,-27.344,-29.785,0.000,0
157440.063,-27.344,-27.832,-31.250,-25.391,0.000,0
157440.067,-26.367,-25.879,-28.809,-11.230,0.000,0
157440.071,-15.137,-28.809,-37.109,-9.766,0.000,0
157440.075,-17.090,-38.574,-34.668,-22.949,0.000,0
157440.079,-20.508,-28.809,-32.715,-12.207,0.000,0
157440.082,-17.578,-19.043,-31.250,-0.977,0.000,0
157440.086,-18.066,-20.508,-25.879,-10.742,0.000,0
157440.090,-21.484,-17.090,-22.949,-2.441,0.000,0
157440.094,-21.973,-17.578,-15.625,-8.301,0.000,0
157440.098,-20.996,-14.648,-17.090,-28.320,0.000,0
157440.102,-16.113,-15.625,-22.949,-20.996,0.000,0
157440.106,-17.578,-22.461,-23.926,-3.906,0.000,0
157440.110,-28.809,-18.555,-21.484,-5.859,0.000,0
157440.114,-21.973,-18.066,-18.066,-20.508,0.000,0
157440.118,-11.230,-18.066,-21.973,-17.090,0.000,0
157440.122,-6.836,-15.137,-18.066,-3.418,0.000,0
157440.125,-6.836,-20.996,-9.766,11.230,0.000,0
157440.129,-11.719,-26.855,-26.855,-4.395,0.000,0
157440.133,-25.879,-23.926,-24.902,-33.691,0.000,0
157440.137,-26.367,-21.484,-17.578,-33.691,0.000,0
157440.141,-14.648,-23.926,-19.531,-20.508,0.000,0
157440.145,-17.090,-19.043,-17.578,-24.902,0.000,0
157440.149,-15.625,-18.066,-29.297,-17.578,0.000,0
157440.153,-17.578,-13.184,-15.625,-13.184,0.000,0
157440.157,-31.250,-12.695,-0.977,-29.297,0.000,0
157440.161,-24.902,-20.996,-18.555,-32.715,0.000,0
157440.165,-8.789,-19.043,-22.949,-21.973,0.000,0
157440.168,-9.766,-19.043,-11.719,-0.977,0.000,0
157440.172,-13.184,-20.020,-8.789,-1.953,0.000,0
157440.176,-10.254,-19.043,-12.207,-20.020,0.000,0
157440.180,-11.230,-21.973,-20.020,-11.719,0.000,0
157440.184,-19.531,-21.484,-19.531,-12.207,0.000,0
157440.188,-18.066,-21.973,-12.695,-17.090,0.000,0
157440.192,-5.371,-22.461,-11.230,-11.230,0.000,0
157440.196,-11.230,-20.508,-14.160,-24.414,0.000,0
157440.200,-28.809,-22.461,-20.508,-32.227,0.000,0
157440.204,-28.809,-32.715,-30.273,-18.066,0.000,0
157440.207,-32.227,-29.785,-37.109,-6.836,0.000,0
157440.211,-39.062,-25.879,-34.668,-19.531,0.000,0
157440.215,-37.109,-29.297,-23.926,-27.832,0.000,0
157440.219,-34.180,-29.785,-32.227,-19.043,0.000,0
157440.223,-35.645,-30.273,-36.133,-20.996,0.000,0
157440.227,-33.691,-27.344,-26.855,-20.996,0.000,0
157440.231,-27.832,-29.785,-21.973,-10.742,0.000,0
157440.235,-20.020,-24.902,-19.043,-19.531,0.000,0
157440.239,-17.578,-16.113,-24.414,-26.367,0.000,0
157440.243,-22.949,-18.555,-24.902,-14.648,0.000,0
157440.247,-27.344,-21.973,-24.414,-9.766,0.000,0
157440.250,-24.414,-29.297,-20.996,-23.438,0.000,0
157440.254,-13.672,-31.738,-22.461,-18.555,0.000,0
157440.258,-12.207,-25.879,-20.020,0.977,0.000,0
157440.262,-18.066,-22.461,-16.113,-5.859,0.000,0
157440.266,-14.648,-23.926,-28.809,-13.184,0.000,0
157440.270,-12.695,-22.461,-25.879,-9.766,0.000,0
157440.274,-17.578,-23.438,-20.996,-23.926,0.000,0
157440.278,-26.367,-22.461,-30.762,-31.250,0.000,0
157440.282,-18.555,-23.438,-39.062,-15.625,0.000,0
157440.286,-9.277,-21.484,-30.273,-3.418,0.000,0
157440.290,-17.578,-17.090,-12.207,-7.812,0.000,0
157440.293,-26.367,-27.832,-10.254,-26.367,0.000,0
157440.297,-30.273,-30.273,-24.414,-33.203,0.000,0
157440.301,-27.344,-27.832,-29.297,-35.645,0.000,0
157440.305,-28.809,-22.461,-15.625,-21.484,0.000,0
157440.309,-25.391,-24.902,-22.949,-13.672,0.000,0
157440.313,-16.602,-29.297,-26.367,-29.785,0.000,0
157440.317,-9.766,-25.391,-23.438,-18.555,0.000,0
157440.321,-7.324,-27.344,-26.855,8.301,0.000,0
157440.325,-6.348,-26.855,-27.344,10.254,0.000,0
157440.329,-8.301,-26.855,-24.902,-11.719,0.000,0
157440.332,-16.602,-30.762,-17.578,-23.926,0.000,0
157440.336,-20.020,-33.691,-25.879,-14.160,0.000,0
157440.340,-21.973,-31.738,-31.250,-21.973,0.000,0
157440.344,-21.973,-32.227,-41.504,-27.832,0.000,0
157440.348,-24.414,-33.203,-37.109,-18.555,0.000,0
157440.352,-31.738,-32.227,-13.672,-44.434,0.000,0
157440.356,-30.762,-33.203,-33.691,-40.527,0.000,0
157440.360,-26.855,-34.668,-46.875,-19.043,0.000,0
157440.364,-30.762,-29.785,-34.180,-21.484,0.000,0
157440.368,-29.785,-27.832,-26.855,-15.625,0.000,0
157440.372,-22.461,-30.273,-23.926,-28.320,0.000,0
157440.375,-19.531,-29.297,-27.344,-29.785,0.000,0
157440.379,-21.484,-27.832,-26.367,-20.020,0.000,0
157440.383,-19.043,-30.273,-29.785,-12.695,0.000,0
157440.387,-22.461,-39.551,-39.551,-13.672,0.000,0
157440.391,-33.203,-36.621,-37.598,-27.344,0.000,0
157440.395,-34.668,-29.297,-27.832,-24.414,0.000,0
157440.399,-20.020,-30.273,-31.738,-15.625,0.000,0
157440.403,-16.602,-33.691,-33.691,-8.789,0.000,0
157440.407,-29.297,-32.715,-30.273,-9.766,0.000,0
157440.411,-28.320,-36.621,-27.344,-31.738,0.000,0
157440.415,-17.090,-41.016,-27.832,-30.273,0.000,0
157440.418,-19.531,-40.039,-27.832,-17.090,0.000,0
157440.422,-24.902,-40.527,-27.344,-8.301,0.000,0
157440.426,-20.020,-36.621,-28.320,-13.672,0.000,0
157440.430,-16.113,-33.691,-19.531,-29.297,0.000,0
157440.434,-20.996,-31.250,-21.484,-22.461,0.000,0
157440.438,-27.832,-25.879,-23.926,-12.207,0.000,0
157440.442,-28.809,-26.367,-21.484,-18.066,0.000,0
157440.446,-19.531,-34.180,-35.645,-28.320,0.000,0
157440.450,-20.020,-32.227,-30.273,-32.715,0.000,0
157440.454,-25.391,-23.926,-13.184,-33.691,0.000,0
157440.457,-28.320,-28.320,-19.531,-29.785,0.000,0
157440.461,-20.020,-27.344,-30.762,-15.137,0.000,0
157440.465,-13.184,-19.043,-22.949,-8.789,0.000,0
157440.469,-19.043,-21.484,-8.301,-11.719,0.000,0
157440.473,-12.207,-23.438,-10.254,-17.578,0.000,0
157440.477,-18.066,-18.555,-12.207,-12.207,0.000,0
157440.481,-32.227,-20.508,-15.625,-15.137,0.000,0
157440.485,-39.062,-21.973,-17.090,-16.602,0.000,0
157440.489,-29.297,-20.020,-19.531,-18.555,0.000,0
157440.493,-11.719,-20.020,-20.020,-22.949,0.000,0
157440.497,-12.207,-17.578,-18.066,-11.719,0.000,0
157440.500,-22.461,-20.020,-21.973,-17.578,0.000,0
157440.504,-25.879,-25.391,-24.414,-22.949,0.000,0
157440.508,-33.203,-27.832,-21.484,-24.902,0.000,0
157440.512,-41.504,-25.879,-22.949,-41.992,0.000,0
157440.516,-38.574,-21.484,-26.367,-41.504,0.000,0
157440.520,-25.879,-22.461,-26.855,-24.902,0.000,0
157440.524,-21.973,-27.832,-26.367,-7.812,0.000,0
157440.528,-31.738,-28.809,-19.531,-5.859,0.000,0
157440.532,-25.879,-30.273,-10.254,-13.672,0.000,0
157440.536,-10.254,-20.508,-14.160,-11.230,0.000,0
157440.540,-12.207,-20.508,-22.461,-7.812,0.000,0
157440.543,-16.602,-26.855,-19.531,-10.742,0.000,0
157440.547,-21.484,-25.879,-17.090,-19.531,0.000,0
157440.551,-22.461,-27.344,-20.996,-27.832,0.000,0
157440.555,-18.066,-28.320,-18.555,-25.879,0.000,0
157440.559,-26.855,-19.043,-13.672,-14.160,0.000,0
157440.563,-26.367,-19.043,-27.832,-1.465,0.000,0
157440.567,-16.602,-21.484,-26.367,-16.602,0.000,0
157440.571,-23.438,-22.461,-17.090,-25.391,0.000,0
157440.575,-25.391,-27.344,-19.531,-4.395,0.000,0
157440.579,-19.531,-22.949,-23.438,0.488,0.000,0
157440.582,-8.789,-16.602,-21.484,-6.836,0.000,0
157440.586,-4.395,-15.137,-12.695,-4.883,0.000,0
157440.590,-24.902,-16.602,-2.930,-17.090,0.000,0
157440.594,-23.926,-16.602,-19.043,-28.320,0.000,0
157440.598,-19.043,-20.996,-31.738,-18.066,0.000,0
157440.602,-23.926,-26.855,-31.250,-8.301,0.000,0
157440.606,-20.020,-22.949,-22.949,-15.625,0.000,0
157440.610,-17.090,-20.508,-20.996,-25.391,0.000,0
157440.614,-7.324,-21.484,-22.949,-13.184,0.000,0
157440.618,-5.859,-18.555,-13.672,-10.254,0.000,0
157440.622,-21.484,-13.184,-15.625,-11.719,0.000,0
157440.625,-18.555,-15.137,-24.902,-17.090,0.000,0
157440.629,-12.207,-15.625,-21.973,-30.762,0.000,0
157440.633,-23.438,-8.789,-12.207,-23.926,0.000,0
157440.637,-16.113,-6.348,-6.836,0.977,0.000,0
157440.641,0.977,-7.324,-15.625,11.719,0.000,0
157440.645,-6.348,-7.812,-19.043,-5.859,0.000,0
157440.649,-15.625,-5.371,-4.883,-29.785,0.000,0
157440.653,-16.602,-9.277,-13.184,-24.902,0.000,0
157440.657,-16.113,-17.578,-25.391,-20.020,0.000,0
157440.661,-20.996,-19.043,-21.484,-20.020,0.000,0
157440.665,-24.902,-14.648,-18.066,-7.324,0.000,0
157440.668,-21.484,-19.043,-11.719,-24.414,0.000,0
157440.672,-15.137,-26.367,-20.996,-22.461,0.000,0
157440.676,-9.766,-19.043,-32.715,-7.812,0.000,0
157440.680,-23.438,-8.301,-14.160,-3.906,0.000,0
157440.684,-13.672,-6.836,-8.789,-1.953,0.000,0
157440.688,-5.371,-9.766,-14.648,-26.855,0.000,0
157440.692,-18.066,-11.230,-16.602,-29.297,0.000,0
157440.696,-15.137,-12.207,-18.066,-15.625,0.000,0
157440.700,-11.719,-17.578,-18.555,-2.930,0.000,0
157440.704,-8.789,-20.020,-16.113,-0.488,0.000,0
157440.707,-9.277,-19.531,-3.906,-17.578,0.000,1
157440.711,-20.508,-21.973,-18.066,-18.066,0.000,0
157440.715,-24.414,-21.484,-29.297,-9.277,0.000,0
157440.719,-17.090,-18.555,-28.809,-7.324,0.000,0
157440.723,-17.090,-14.648,-23.926,-12.207,0.000,0
157440.727,-26.367,-17.090,-10.254,-30.273,0.000,0
157440.731,-21.484,-21.973,-20.508,-36.133,0.000,0
157440.735,-16.113,-20.996,-23.438,-24.414,0.000,0
157440.739,-19.531,-20.508,-20.020,-4.395,0.000,0
157440.743,-16.113,-18.555,-29.785,-7.324,0.000,0
157440.747,-16.113,-20.996,-29.297,-29.297,0.000,0
157440.750,-20.996,-26.367,-23.438,-24.902,0.000,0
157440.754,-16.602,-20.508,-21.484,-15.137,0.000,0
157440.758,-18.555,-20.996,-30.273,-6.836,0.000,0
157440.762,-25.391,-25.391,-34.668,-14.160,0.000,0
157440.766,-19.531,-28.320,-25.391,-36.621,0.000,0
157440.770,-18.555,-30.762,-23.438,-33.203,0.000,0
157440.774,-16.113,-27.832,-29.297,-11.719,0.000,0
157440.778,-10.254,-27.832,-38.086,-6.348,0.000,0
157440.782,-8.789,-32.715,-35.156,-12.695,0.000,0
157440.786,-14.160,-31.250,-20.996,-34.668,0.000,0
157440.790,-13.184,-23.438,-26.367,-23.926,0.000,0
157440.793,-12.207,-20.020,-31.738,-10.742,0.000,0
157440.797,-23.926,-24.414,-24.414,-21.484,0.000,0
157440.801,-26.367,-25.391,-29.785,-26.855,0.000,0
157440.805,-16.602,-27.832,-28.320,-34.668,0.000,0
157440.809,-16.602,-32.227,-23.926,-32.227,0.000,0
157440.813,-25.391,-28.320,-33.203,-25.879,0.000,0
157440.817,-19.043,-22.461,-30.273,-23.926,0.000,0
157440.821,-9.277,-23.926,-27.832,-16.113,0.000,0
157440.825,-17.090,-22.949,-29.297,-26.367,0.000,0
157440.829,-24.414,-25.391,-26.367,-42.480,0.000,0
157440.832,-19.531,-31.738,-24.902,-39.062,0.000,0
157440.836,-19.043,-33.203,-30.762,-38.086,0.000,0
157440.840,-20.020,-36.133,-31.738,-17.578,0.000,0
157440.844,-24.414,-29.297,-17.578,0.488,0.000,0
157440.848,-19.531,-23.926,-15.137,-17.090,0.000,0
157440.852,-21.973,-27.344,-25.879,-21.484,0.000,0
157440.856,-26.367,-28.809,-25.391,-16.113,0.000,0
157440.860,-25.879,-23.926,-18.555,-21.484,0.000,0
157440.864,-27.344,-26.367,-21.973,-29.297,0.000,0
157440.868,-24.902,-26.855,-24.902,-36.133,0.000,0
157440.872,-25.879,-28.809,-25.391,-37.598,0.000,0
157440.875,-32.715,-28.809,-30.273,-36.133,0.000,0
157440.879,-23.926,-25.391,-37.109,-12.695,0.000,0
157440.883,-22.461,-25.879,-32.715,-13.184,0.000,0
157440.887,-26.855,-27.344,-23.926,-31.250,0.000,0
157440.891,-29.785,-28.809,-33.691,-21.973,0.000,0
157440.895,-34.180,-32.715,-44.434,-31.250,0.000,0
157440.899,-25.879,-35.645,-35.645,-26.367,0.000,0
157440.903,-31.250,-31.738,-22.461,-21.484,0.000,0
157440.907,-38.574,-27.344,-20.508,-37.598,0.000,0
157440.911,-24.902,-23.926,-28.320,-31.250,0.000,0
157440.915,-13.672,-26.855,-30.273,-14.160,0.000,0
157440.918,-24.414,-30.762,-29.297,0.000,0.000,0
157440.922,-37.598,-37.598,-24.902,-8.301,0.000,0
157440.926,-30.762,-40.039,-20.508,-30.273,0.000,0
157440.930,-27.832,-33.691,-25.391,-26.367,0.000,0
157440.934,-30.762,-32.715,-22.461,-20.508,0.000,0
157440.938,-32.227,-33.203,-20.508,-23.438,0.000,0
157440.942,-33.691,-34.668,-20.996,-32.227,0.000,0
157440.946,-33.203,-31.738,-15.625,-38.574,0.000,0
157440.950,-43.457,-27.832,-18.555,-31.738,0.000,0
157440.954,-38.086,-29.297,-30.762,-15.137,0.000,0
157440.957,-29.297,-29.785,-35.645,-11.719,0.000,0
157440.961,-37.598,-27.832,-26.855,-29.785,0.000,0
157440.965,-45.410,-30.273,-14.160,-34.668,0.000,0
157440.969,-36.133,-33.203,-27.832,-22.461,0.000,0
157440.973,-19.531,-34.180,-26.855,-23.926,0.000,0
157440.977,-27.344,-30.273,-17.090,-28.809,0.000,0
157440.981,-26.367,-19.531,-19.043,-9.766,0.000,0
157440.985,-19.043,-16.113,-13.672,-14.648,0.000,0
157440.989,-31.250,-19.043,-25.391,-19.043,0.000,0
157440.993,-24.414,-14.648,-31.250,-9.766,0.000,0
157440.997,-17.578,-13.184,-21.484,2.441,0.000,0
157441.000,-14.648,-16.602,-19.043,-3.418,0.000,0
157441.004,-16.113,-16.113,-21.484,-27.832,0.000,0
157441.008,-24.902,-16.602,-22.461,-33.203,0.000,0
157441.012,-27.344,-21.973,-19.531,-28.320,0.000,0
157441.016,-24.414,-23.926,-26.367,-20.996,0.000,0
157441.020,-28.809,-26.367,-30.762,-23.926,0.000,0
157441.024,-31.738,-25.391,-16.113,-43.457,0.000,0
157441.028,-29.785,-24.414,-24.414,-39.551,0.000,0
157441.032,-29.297,-30.273,-39.062,-25.879,0.000,0
157441.036,-20.020,-30.273,-32.227,-19.531,0.000,0
157441.040,-21.484,-22.949,-22.949,-20.996,0.000,0
157441.043,-30.273,-26.367,-28.320,-45.898,0.000,0
157441.047,-24.414,-31.250,-37.109,-50.293,0.000,0
157441.051,-21.484,-34.180,-32.227,-29.297,0.000,0
157441.055,-30.273,-35.156,-24.414,-21.973,0.000,0
157441.059,-16.113,-32.715,-29.297,-20.996,0.000,0
157441.063,-12.695,-30.762,-29.297,-42.969,0.000,0
157441.067,-23.926,-31.250,-30.273,-37.109,0.000,0
157441.071,-22.461,-36.621,-37.598,-12.207,0.000,0
157441.075,-20.996,-25.879,-29.297,-26.855,0.000,0
157441.079,-21.484,-20.020,-22.949,-30.762,0.000,0
157441.082,-20.996,-27.344,-27.832,-27.832,0.000,0
157441.086,-20.020,-28.320,-26.855,-26.367,0.000,0
157441.090,-23.438,-25.879,-30.273,-20.508,0.000,0
157441.094,-15.625,-26.855,-40.527,-18.555,0.000,0
157441.098,-5.859,-26.855,-33.203,-11.230,0.000,0
157441.102,-15.625,-18.066,-13.672,-16.113,0.000,0
157441.106,-9.277,-11.719,-20.020,-16.602,0.000,0
157441.110,-3.418,-14.160,-28.809,-10.742,0.000,0
157441.114,-12.695,-15.137,-21.484,-13.184,0.000,0
157441.118,-9.277,-17.578,-15.137,-10.254,0.000,0
157441.122,-0.977,-26.367,-18.066,-15.625,0.000,0
157441.125,-7.324,-22.461,-20.996,-25.391,0.000,0
157441.129,-10.742,-18.066,-22.461,-18.066,0.000,0
157441.133,-2.441,-20.996,-20.508,-4.883,0.000,0
157441.137,-3.418,-21.973,-22.461,-2.441,0.000,0
157441.141,-7.812,-22.461,-20.508,-1.953,0.000,0
157441.145,-13.184,-27.832,-21.484,4.883,0.000,0
157441.149,-14.648,-22.949,-28.320,-0.488,0.000,0
157441.153,-12.695,-21.973,-32.715,-13.672,0.000,0
157441.157,-13.672,-25.879,-35.156,1.953,0.000,0
157441.161,-23.438,-26.855,-32.227,-4.395,0.000,0
157441.165,-37.109,-23.438,-27.344,-25.879,0.000,0
157441.168,-28.320,-21.484,-35.156,-12.695,0.000,0
157441.172,-14.160,-23.438,-38.574,0.488,0.000,0
157441.176,-16.602,-20.020,-25.879,-9.766,0.000,0
157441.180,-29.785,-14.648,-15.625,-33.203,0.000,0
157441.184,-28.320,-14.160,-19.043,-26.855,0.000,0
157441.188,-19.043,-15.137,-23.926,-13.184,0.000,0
157441.192,-26.367,-11.230,-19.043,-11.230,0.000,0
157441.196,-18.066,-12.207,-28.809,-3.418,0.000,0
157441.200,-14.160,-16.113,-29.297,-9.766,0.000,0
157441.204,-24.414,-16.602,-21.973,-20.020,0.000,0
157441.207,-23.926,-20.508,-29.297,-23.438,0.000,0
157441.211,-22.461,-23.926,-35.156,-29.785,0.000,0
157441.215,-29.297,-26.367,-30.762,-27.344,0.000,0
157441.219,-33.203,-32.227,-24.414,-29.297,0.000,0
157441.223,-20.996,-28.809,-22.461,-32.715,0.000,0
157441.227,-14.160,-20.508,-31.738,-31.250,0.000,0
157441.231,-19.043,-20.020,-35.156,-23.438,0.000,0
157441.235,-23.438,-22.461,-30.762,-9.277,0.000,0
157441.239,-20.020,-23.926,-28.320,-10.742,0.000,0
157441.243,-22.461,-30.762,-31.250,-24.414,0.000,0
157441.247,-31.250,-33.203,-38.086,-15.137,0.000,1
157441.250,-24.414,-28.809,-31.250,-7.812,0.000,0
157441.254,-18.066,-26.855,-27.832,-10.742,0.000,0
157441.258,-20.020,-32.715,-32.227,-20.020,0.000,0
157441.262,-20.508,-37.109,-33.691,-34.668,0.000,0
157441.266,-24.902,-38.574,-34.180,-26.855,0.000,0
157441.270,-20.508,-32.227,-28.320,-3.418,0.000,0
157441.274,-19.043,-34.180,-26.855,-11.719,0.000,0
157441.278,-32.715,-36.621,-17.578,-25.391,0.000,0
157441.282,-33.203,-31.250,-16.113,-23.926,0.000,0
157441.286,-16.113,-29.297,-23.438,-28.320,0.000,0
157441.290,-12.695,-25.879,-24.902,-23.438,0.000,0
157441.293,-14.648,-24.902,-26.367,-12.695,0.000,0
157441.297,-11.719,-23.926,-16.113,-15.137,0.000,0
157441.301,-10.254,-29.785,-13.672,-27.832,0.000,0
157441.305,-15.137,-30.273,-21.484,-28.809,0.000,0
157441.309,-25.879,-32.227,-26.855,-17.578,0.000,0
157441.313,-23.438,-34.668,-31.738,-18.066,0.000,0
157441.317,-20.508,-35.645,-30.762,-23.926,0.000,0
157441.321,-22.949,-32.715,-20.508,-22.461,0.000,0
157441.325,-24.414,-30.273,-23.438,-16.602,0.000,0
157441.329,-28.809,-33.691,-34.668,-21.973,0.000,0
157441.332,-22.949,-31.738,-30.273,-14.160,0.000,0
157441.336,-19.531,-31.738,-21.973,-9.277,0.000,0
157441.340,-33.203,-30.273,-8.789,-26.367,0.000,0
157441.344,-29.785,-26.855,-18.066,-15.625,0.000,0
157441.348,-17.578,-29.297,-34.668,-5.371,0.000,0
157441.352,-14.160,-29.785,-27.832,-6.836,0.000,0
157441.356,-18.066,-24.902,-18.066,-3.906,0.000,0
157441.360,-20.020,-27.832,-15.625,-20.020,0.000,0
157441.364,-16.602,-22.949,-20.996,-23.926,0.000,0
157441.368,-18.066,-19.531,-24.414,-16.602,0.000,0
157441.372,-21.484,-24.902,-26.855,-5.371,0.000,0
157441.375,-6.348,-23.438,-31.250,1.953,0.000,0
157441.379,-2.441,-26.367,-28.809,-18.066,0.000,0
157441.383,-17.090,-20.996,-18.555,-13.184,0.000,0
157441.387,-20.508,-19.531,-9.766,3.906,0.000,0
157441.391,-17.578,-21.484,-21.484,-2.930,0.000,0
157441.395,-13.672,-22.461,-33.203,-6.836,0.000,0
157441.399,-26.855,-22.461,-16.113,-17.578,0.000,0
157441.403,-34.668,-24.902,-14.160,-12.695,0.000,0
157441.407,-21.484,-27.832,-27.344,-5.859,0.000,0
157441.411,-28.809,-22.949,-31.250,-13.672,0.000,0
157441.415,-36.621,-20.020,-24.414,-9.277,0.000,0
157441.418,-27.832,-18.066,-10.254,-7.812,0.000,0
157441.422,-22.949,-15.137,-15.137,-12.695,0.000,0
157441.426,-26.855,-15.625,-32.227,-13.672,0.000,0
157441.430,-34.668,-20.996,-23.926,-12.695,0.000,0
157441.434,-32.227,-32.227,-25.879,-18.555,0.000,0
157441.438,-16.602,-24.414,-28.320,-32.715,0.000,0
157441.442,-14.160,-14.160,-22.461,-38.086,0.000,0
157441.446,-21.484,-16.602,-21.484,-27.832,0.000,0
157441.450,-12.695,-19.531,-21.484,-11.719,0.000,0
157441.454,-11.719,-21.973,-25.391,-12.695,0.000,0
157441.457,-19.531,-25.391,-19.043,-16.113,0.000,0
157441.461,-22.949,-22.461,-13.672,-3.906,0.000,0
157441.465,-26.367,-22.461,-23.926,-7.812,0.000,0
157441.469,-21.484,-24.414,-32.227,-19.043,0.000,0
157441.473,-27.344,-21.973,-26.367,-10.254,0.000,0
157441.477,-38.086,-25.391,-18.066,-26.367,0.000,0
157441.481,-25.879,-31.250,-24.902,-43.457,0.000,0
157441.485,-22.461,-31.738,-27.832,-27.832,0.000,0
157441.489,-25.391,-25.879,-21.484,-18.066,0.000,0
157441.493,-17.090,-12.695,-24.414,-17.090,0.000,0
157441.497,-14.160,-13.672,-27.832,-22.461,0.000,0
157441.500,-21.973,-20.508,-15.625,-31.738,0.000,0
157441.504,-20.508,-20.996,-11.719,-31.250,0.000,0
157441.508,-18.555,-33.203,-19.531,-33.691,0.000,0
157441.512,-20.508,-38.086,-23.438,-16.113,0.000,0
157441.516,-20.508,-28.809,-22.949,-23.926,0.000,0
157441.520,-21.973,-24.414,-18.555,-33.691,0.000,0
157441.524,-20.508,-19.531,-21.973,-16.113,0.000,0
157441.528,-4.883,-17.090,-23.926,-18.066,0.000,0
157441.532,-6.348,-18.555,-15.137,-16.602,0.000,0
157441.536,-20.996,-23.438,-7.324,-11.719,0.000,0
157441.540,-13.672,-26.855,-14.648,-32.715,0.000,0
157441.543,-12.695,-20.020,-22.949,-40.527,0.000,0
157441.547,-20.508,-17.090,-20.508,-25.879,0.000,0
157441.551,-23.438,-21.484,-20.508,-9.766,0.000,0
157441.555,-13.672,-20.508,-20.020,-11.719,0.000,0
157441.559,-9.277,-19.531,-20.996,-26.367,0.000,0
157441.563,-20.020,-20.020,-28.320,-14.648,0.000,0
157441.567,-22.461,-21.484,-18.555,-11.719,0.000,0
157441.571,-8.789,-21.973,-20.996,-11.230,0.000,0
157441.575,-15.625,-26.367,-29.785,-15.137,0.000,0
157441.579,-21.973,-24.902,-21.484,-30.762,0.000,0
157441.582,-14.648,-21.484,-25.391,-27.344,0.000,0
157441.586,-18.555,-26.855,-39.551,-21.484,0.000,0
157441.590,-22.949,-26.367,-38.574,-22.949,0.000,0
157441.594,-27.832,-28.320,-25.391,-23.438,0.000,0
157441.598,-25.879,-27.832,-29.297,-27.832,0.000,0
157441.602,-20.020,-20.508,-35.645,-17.578,0.000,0
157441.606,-24.902,-18.066,-25.879,-5.859,0.000,0
157441.610,-32.227,-22.461,-24.902,-14.160,0.000,0
157441.614,-28.809,-27.344,-31.738,-22.461,0.000,0
157441.618,-31.250,-29.785,-33.691,-30.762,0.000,0
157441.622,-33.691,-27.344,-32.227,-33.691,0.000,0
157441.625,-23.926,-20.020,-24.902,-18.555,0.000,0
157441.629,-16.602,-20.020,-30.762,-6.836,0.000,0
157441.633,-10.254,-18.066,-26.855,-16.602,0.000,0
157441.637,-17.090,-14.160,-14.648,-24.902,0.000,0
157441.641,-27.832,-21.484,-27.344,-20.996,0.000,0
157441.645,-15.137,-19.043,-37.598,-20.508,0.000,0
157441.649,-10.254,-16.113,-32.715,-13.672,0.000,0
157441.653,-28.320,-18.066,-20.020,-20.020,0.000,0
157441.657,-33.691,-16.113,-10.742,-29.785,0.000,0
157441.661,-21.973,-17.090,-29.785,-18.555,0.000,0
157441.665,-17.578,-20.996,-35.645,-8.789,0.000,0
157441.668,-23.438,-22.949,-24.414,-8.301,0.000,0
157441.672,-25.391,-18.066,-22.949,-9.766,0.000,0
157441.676,-22.949,-19.043,-18.555,-32.227,0.000,0
157441.680,-27.344,-20.996,-23.926,-33.691,0.000,0
157441.684,-27.832,-24.414,-22.949,-26.855,0.000,0
157441.688,-20.996,-25.391,-23.438,-15.625,0.000,0
157441.692,-21.484,-26.367,-31.250,-5.371,0.000,0
157441.696,-23.926,-22.949,-28.809,-16.113,0.000,0
157441.700,-14.648,-17.578,-28.320,-11.230,0.000,0
157441.704,-13.672,-18.066,-24.902,-12.207,0.000,0
157441.707,-21.484,-20.508,-35.156,-19.043,0.000,0
157441.711,-21.484,-17.578,-22.949,-27.832,0.000,0
157441.715,-7.812,-10.254,-10.254,-30.273,0.000,0
157441.719,-0.488,-15.137,-26.367,-20.996,0.000,0
157441.723,-9.277,-22.949,-27.344,-12.695,0.000,0
157441.727,-6.836,-19.043,-26.367,1.465,0.000,0
157441.731,3.418,-18.555,-18.555,-7.812,0.000,0
157441.735,-1.465,-21.484,-15.625,-22.949,0.000,0
157441.739,-8.301,-25.879,-23.926,-3.418,0.000,0
157441.743,-18.555,-27.344,-26.367,-10.742,0.000,0
157441.747,-22.949,-20.508,-28.320,-18.555,0.000,0
157441.750,-14.648,-22.949,-27.832,-15.625,0.000,0
157441.754,-17.090,-27.344,-22.949,-35.645,0.000,0
157441.758,-30.762,-22.949,-22.461,-25.879,0.000,0
157441.762,-30.273,-19.531,-27.832,-9.277,0.000,0
157441.766,-20.508,-25.879,-33.691,0.488,0.000,0
157441.770,-24.414,-24.414,-25.391,-15.137,0.000,0
157441.774,-31.250,-20.020,-22.461,-28.320,0.000,0
157441.778,-27.832,-22.949,-32.227,-15.137,0.000,0
157441.782,-29.785,-21.973,-34.668,-15.137,0.000,1
157441.786,-35.156,-22.949,-28.809,-13.184,0.000,0
157441.790,-32.227,-28.809,-25.879,-14.648,0.000,0
157441.793,-27.344,-28.809,-27.344,-21.484,0.000,0
157441.797,-19.531,-26.855,-25.391,-29.297,0.000,0
157441.801,-17.090,-24.902,-22.461,-13.672,0.000,0
157441.805,-22.461,-21.973,-24.414,12.695,0.000,0
157441.809,-23.926,-26.855,-35.645,0.977,0.000,0
157441.813,-29.785,-29.297,-34.668,-13.184,0.000,0
157441.817,-21.973,-30.273,-31.250,-5.371,0.000,0
157441.821,-15.625,-29.785,-33.691,-6.836,0.000,0
157441.825,-23.926,-22.461,-31.738,-15.625,0.000,0
157441.829,-27.832,-17.090,-27.832,-15.625,0.000,0
157441.832,-19.531,-21.484,-24.902,-22.949,0.000,0
157441.836,-21.973,-26.367,-28.320,-21.484,0.000,0
157441.840,-32.227,-25.391,-37.598,-5.859,0.000,0
157441.844,-24.414,-23.926,-48.340,-8.301,0.000,0
157441.848,-25.879,-23.926,-34.668,-12.695,0.000,0
157441.852,-27.344,-24.902,-22.949,-21.973,0.000,0
157441.856,-21.973,-27.832,-39.062,-22.949,0.000,0
157441.860,-30.762,-31.738,-37.109,-21.484,0.000,0
157441.864,-31.738,-33.203,-30.273,-14.648,0.000,0
157441.868,-26.367,-30.762,-38.086,-9.766,0.000,0
157441.872,-31.250,-25.391,-32.227,-30.762,0.000,0
157441.875,-33.691,-20.020,-25.391,-19.531,0.000,0
157441.879,-19.531,-19.531,-27.344,-6.836,0.000,0
157441.883,-19.531,-25.879,-31.250,-26.855,0.000,0
157441.887,-33.691,-23.926,-25.879,-21.484,0.000,0
157441.891,-30.762,-24.414,-20.020,-23.926,0.000,0
157441.895,-22.949,-23.438,-24.414,-26.367,0.000,0
157441.899,-7.812,-21.973,-20.020,-26.367,0.000,0
157441.903,-0.977,-21.484,-11.230,-16.602,0.000,0
157441.907,-4.395,-18.066,-15.625,10.742,0.000,0
157441.911,-16.602,-21.973,-21.973,-10.254,0.000,0
157441.915,-17.578,-22.949,-32.715,-18.066,0.000,0
157441.918,-13.672,-22.461,-26.855,7.812,0.000,0
157441.922,-22.461,-20.996,-18.066,11.719,0.000,0
157441.926,-24.902,-22.461,-21.973,-6.348,0.000,0
157441.930,-24.902,-27.832,-18.066,-29.297,0.000,0
157441.934,-23.438,-28.809,-21.484,-41.504,0.000,0
157441.938,-22.949,-31.250,-28.809,-28.809,0.000,0
157441.942,-21.973,-28.320,-27.832,-15.137,0.000,0
157441.946,-21.484,-19.531,-29.297,-16.602,0.000,0
157441.950,-20.508,-26.367,-22.461,-28.320,0.000,0
157441.954,-20.996,-25.391,-20.020,-25.879,0.000,0
157441.957,-10.254,-20.508,-26.855,-16.602,0.000,0
157441.961,-12.207,-22.949,-27.344,-23.926,0.000,0
157441.965,-20.020,-25.391,-18.555,-18.555,0.000,0
157441.969,-18.066,-23.926,-9.766,-23.926,0.000,0
157441.973,-22.461,-25.879,-21.973,-44.434,0.000,0
157441.977,-31.738,-28.320,-26.855,-38.086,0.000,0
157441.981,-31.738,-25.391,-16.602,-22.461,0.000,0
157441.985,-29.785,-19.043,-18.555,-17.578,0.000,0
157441.989,-29.297,-29.297,-15.625,-23.926,0.000,0
157441.993,-27.832,-30.762,-14.160,-31.738,0.000,0
157441.997,-27.344,-19.043,-24.902,-29.297,0.000,0
157442.000,-21.973,-23.926,-21.973,-26.855,0.000,0
157442.004,-18.555,-27.344,-20.020,-12.207,0.000,0
157442.008,-19.043,-24.902,-28.809,-20.508,0.000,0
157442.012,-20.996,-29.785,-26.367,-33.203,0.000,0
157442.016,-27.344,-31.738,-28.320,-20.508,0.000,0
157442.020,-29.785,-27.832,-31.738,-28.320,0.000,0
157442.024,-29.297,-28.320,-30.273,-28.809,0.000,0
157442.028,-41.992,-29.297,-23.438,-27.344,0.000,0
157442.032,-34.180,-30.273,-26.855,-44.922,0.000,0
157442.036,-16.113,-32.227,-34.180,-40.039,0.000,0
157442.040,-16.113,-31.738,-23.438,-19.531,0.000,0
157442.043,-20.020,-27.344,-15.137,-9.277,0.000,0
157442.047,-22.461,-27.832,-15.137,-18.066,0.000,0
157442.051,-29.785,-26.855,-14.160,-32.227,0.000,0
157442.055,-30.762,-21.973,-20.508,-24.902,0.000,0
157442.059,-25.879,-23.438,-24.414,-21.973,0.000,0
157442.063,-22.949,-28.320,-24.902,-14.160,0.000,0
157442.067,-18.555,-26.855,-20.508,-6.836,0.000,0
157442.071,-21.484,-26.855,-15.625,-23.438,0.000,0
157442.075,-22.949,-27.344,-19.531,-28.809,0.000,0
157442.079,-18.066,-29.785,-19.043,-20.508,0.000,0
157442.082,-7.324,-28.809,-20.508,-6.836,0.000,0
157442.086,-5.859,-23.438,-7.324,-11.719,0.000,0
157442.090,-6.836,-18.066,6.348,-22.461,0.000,0
157442.094,-5.371,-17.578,-12.207,-17.578,0.000,0
157442.098,-0.488,-22.949,-16.602,-12.207,0.000,0
157442.102,0.488,-23.926,-11.719,-6.348,0.000,0
157442.106,-6.836,-21.973,-12.207,-15.137,0.000,0
157442.110,-5.371,-16.602,-20.020,-22.461,0.000,0
157442.114,-0.488,-11.230,-23.438,-18.066,0.000,0
157442.118,-4.883,-13.672,-14.160,-9.277,0.000,0
157442.122,-11.230,-19.043,-22.461,-9.277,0.000,0
157442.125,-12.695,-21.484,-32.227,-24.902,0.000,0
157442.129,-13.672,-14.648,-21.973,-20.508,0.000,0
157442.133,-15.137,-17.090,-14.648,1.953,0.000,0
157442.137,-7.812,-25.391,-25.391,-7.812,0.000,0
157442.141,-13.184,-23.438,-27.344,-18.066,0.000,0
157442.145,-20.508,-21.484,-21.484,-28.809,0.000,0
157442.149,-12.207,-22.949,-20.020,-38.086,0.000,0
157442.153,-11.230,-24.902,-26.367,-22.461,0.000,0
157442.157,-15.137,-19.043,-28.809,-17.578,0.000,0
157442.161,-22.949,-19.043,-28.809,-21.973,0.000,0
157442.165,-30.273,-29.297,-33.203,-24.902,0.000,0
157442.168,-16.113,-31.738,-27.832,-18.066,0.000,0
157442.172,1.953,-16.113,-14.160,-4.395,0.000,0
157442.176,-33.203,-17.090,-17.578,-26.855,0.000,0
157442.180,-53.711,-29.297,-37.598,-38.086,0.000,0
157442.184,-41.016,-27.832,-38.574,-35.645,0.000,0
157442.188,-39.062,-30.762,-36.133,-43.457,0.000,0
157442.192,-34.668,-27.344,-41.504,-33.691,0.000,0
157442.196,-34.668,-28.320,-41.992,-29.297,0.000,0
157442.200,-36.621,-28.809,-39.062,-27.832,0.000,0
157442.204,-38.086,-28.320,-31.738,-31.250,0.000,0
157442.207,-41.992,-35.156,-31.250,-40.039,0.000,0
157442.211,-35.156,-26.855,-41.016,-28.320,0.000,0
157442.215,-26.367,-22.461,-35.156,-23.438,0.000,0
157442.219,-28.809,-31.738,-33.203,-13.672,0.000,0
157442.223,-43.945,-25.391,-31.250,-17.578,0.000,0
157442.227,-46.875,-23.926,-32.715,-38.574,0.000,0
157442.231,-34.668,-28.809,-35.156,-16.113,0.000,0
157442.235,-29.297,-31.250,-34.180,-0.488,0.000,0
157442.239,-29.297,-29.297,-33.203,-9.277,0.000,0
157442.243,-26.855,-21.973,-26.855,-12.695,0.000,0
157442.247,-20.996,-20.996,-21.484,-17.090,0.000,0
157442.250,-24.414,-20.508,-21.484,-16.113,0.000,0
157442.254,-23.926,-19.531,-21.973,-2.441,0.000,0
157442.258,-20.508,-23.438,-28.809,10.742,0.000,0
157442.262,-33.691,-24.902,-29.297,-12.695,0.000,0
157442.266,-38.086,-21.973,-20.508,-28.809,0.000,0
157442.270,-34.180,-25.391,-34.180,-13.184,0.000,0
157442.274,-29.297,-27.832,-42.969,-1.953,0.000,0
157442.278,-19.531,-21.484,-28.809,-1.953,0.000,0
157442.282,-27.344,-21.484,-19.531,-20.996,0.000,0
157442.286,-27.832,-24.902,-20.020,-37.109,0.000,0
157442.290,-21.973,-23.926,-33.203,-27.344,0.000,0
157442.293,-27.832,-30.273,-41.016,-17.090,0.000,0
157442.297,-24.414,-24.902,-26.367,-11.719,0.000,0
157442.301,-15.625,-21.973,-21.973,-18.066,0.000,0
157442.305,-20.508,-23.926,-24.902,-31.250,0.000,0
157442.309,-28.809,-23.438,-25.879,-32.227,0.000,0
157442.313,-29.785,-22.461,-19.531,-31.738,0.000,0
157442.317,-15.137,-17.578,-26.367,-19.531,0.000,0
157442.321,-11.230,-19.531,-28.809,-17.578,0.000,0
157442.325,-11.719,-24.414,-20.020,-26.855,0.000,0
157442.329,-14.648,-20.508,-23.926,-31.738,0.000,0
157442.332,-11.230,-16.113,-17.578,-24.902,0.000,0
157442.336,-6.836,-19.043,-14.160,-15.137,0.000,0
157442.340,-19.531,-16.602,-18.066,-12.695,0.000,0
157442.344,-18.555,-18.066,-18.066,-41.504,0.000,0
157442.348,-5.371,-16.113,-16.602,-32.715,0.000,0
157442.352,-8.301,-13.184,-18.066,-20.996,0.000,0
157442.356,-20.020,-11.719,-16.113,-13.672,0.000,0
157442.360,-18.555,-20.508,-23.926,-3.418,0.000,0
157442.364,-15.625,-28.320,-23.926,-25.391,0.000,0
157442.368,-14.160,-21.484,-21.484,-20.996,0.000,0
157442.372,-17.578,-18.555,-18.066,-4.395,0.000,0
157442.375,-16.602,-16.602,-20.508,-8.301,0.000,0
157442.379,-10.742,-12.695,-23.926,-16.602,0.000,0
157442.383,-10.254,-14.648,-11.230,-27.832,0.000,0
157442.387,-17.578,-15.137,-15.137,-29.297,0.000,0
157442.391,-23.438,-20.508,-26.855,-28.809,0.000,0
157442.395,-21.973,-28.809,-33.691,-20.020,0.000,0
157442.399,-17.578,-30.762,-32.227,-20.020,0.000,0
157442.403,-23.926,-30.762,-27.344,-22.461,0.000,0
157442.407,-30.762,-28.809,-30.762,-12.695,0.000,0
157442.411,-24.414,-24.902,-23.438,-29.297,0.000,0
157442.415,-17.090,-25.391,-21.973,-17.578,0.000,0
157442.418,-11.719,-24.414,-27.344,-3.906,0.000,0
157442.422,-1.953,-27.832,-26.367,-20.020,0.000,0
157442.426,-11.230,-28.809,-27.344,-11.719,0.000,0
157442.430,-22.461,-23.438,-20.020,-6.836,0.000,0
157442.434,-14.160,-21.973,-18.555,-5.859,0.000,0
157442.438,-7.324,-24.902,-19.531,-9.277,0.000,0
157442.442,-15.137,-21.484,-17.578,-12.207,0.000,0
157442.446,-12.207,-15.625,-13.672,1.953,0.000,0
157442.450,-5.371,-18.066,-12.207,1.953,0.000,0
157442.454,-0.488,-18.555,-20.508,0.488,0.000,0
157442.457,-6.836,-19.043,-19.043,-2.930,0.000,0
157442.461,-20.508,-20.508,-8.301,-12.695,0.000,0
157442.465,-6.348,-19.043,-17.090,-5.859,0.000,0
157442.469,-2.441,-14.160,-17.578,1.953,0.000,0
157442.473,-9.766,-13.672,-16.113,9.277,0.000,0
157442.477,-9.277,-11.230,-9.766,8.301,0.000,0
157442.481,-6.348,-19.531,-11.230,-8.301,0.000,0
157442.485,-8.789,-20.508,-21.484,-6.348,0.000,1
157442.489,-19.531,-14.160,-21.484,-2.930,0.000,0
157442.493,-25.879,-20.996,-17.090,-7.812,0.000,0
157442.497,-26.367,-24.414,-17.090,-1.953,0.000,0
157442.500,-25.391,-27.344,-29.297,-14.648,0.000,0
157442.504,-20.508,-21.973,-24.414,-12.207,0.000,0
157442.508,-19.043,-20.996,-23.438,7.812,0.000,0
157442.512,-22.461,-20.508,-24.902,-10.742,0.000,0
157442.516,-29.297,-20.508,-16.602,-12.207,0.000,0
157442.520,-36.133,-25.879,-25.879,-18.066,0.000,0
157442.524,-34.668,-26.367,-34.668,-24.902,0.000,0
157442.528,-20.508,-27.832,-34.668,-12.695,0.000,0
157442.532,-19.531,-29.785,-23.438,-16.113,0.000,0
157442.536,-30.273,-32.715,-27.344,-13.672,0.000,0
157442.540,-21.484,-26.855,-25.879,-22.461,0.000,0
157442.543,-19.531,-19.531,-27.344,-21.484,0.000,0
157442.547,-24.902,-21.973,-31.738,-12.207,0.000,0
157442.551,-26.855,-21.484,-24.902,-11.719,0.000,0
157442.555,-17.578,-21.484,-34.180,-8.789,0.000,0
157442.559,-9.766,-20.996,-34.668,-19.043,0.000,0
157442.563,-16.602,-20.020,-23.438,-15.625,0.000,0
157442.567,-7.812,-16.602,-18.555,-6.836,0.000,0
157442.571,-5.859,-15.137,-23.438,-9.277,0.000,0
157442.575,-18.555,-15.625,-27.832,-6.836,0.000,0
157442.579,-18.066,-16.113,-22.461,-11.230,0.000,0
157442.582,-18.066,-19.043,-23.438,-3.418,0.000,0
157442.586,-20.020,-17.090,-30.273,-8.301,0.000,0
157442.590,-18.066,-19.531,-29.297,-17.578,0.000,0
157442.594,-28.809,-19.531,-20.508,-19.043,0.000,0
157442.598,-24.902,-17.090,-19.043,-25.391,0.000,0
157442.602,-0.977,-13.672,-22.949,-26.367,0.000,0
157442.606,-13.184,-15.625,-19.531,-31.738,0.000,0
157442.610,-24.414,-20.020,-28.809,-19.531,0.000,0
157442.614,-20.020,-19.043,-28.809,-14.648,0.000,0
157442.618,-21.973,-22.461,-20.020,-32.227,0.000,0
157442.622,-19.043,-20.508,-27.344,-26.855,0.000,0
157442.625,-21.973,-19.531,-31.738,-25.879,0.000,0
157442.629,-22.461,-21.484,-33.203,-30.273,0.000,0
157442.633,-13.184,-23.438,-31.250,-19.043,0.000,0
157442.637,-7.812,-25.879,-21.973,-26.855,0.000,0
157442.641,-20.020,-21.484,-20.020,-41.504,0.000,0
157442.645,-16.602,-20.020,-29.785,-27.344,0.000,0
157442.649,-3.418,-25.879,-37.598,-12.207,0.000,0
157442.653,-13.672,-22.949,-31.738,-11.230,0.000,0
157442.657,-26.855,-24.414,-19.043,-21.973,0.000,0
157442.661,-23.438,-27.344,-22.461,-18.066,0.000,0
157442.665,-24.414,-29.785,-22.461,-31.250,0.000,0
157442.668,-29.297,-32.227,-22.461,-49.805,0.000,0
157442.672,-31.250,-28.809,-45.410,-14.648,0.000,0
157442.676,-34.668,-31.738,-41.016,-21.973,0.000,0
157442.680,-37.598,-39.551,-30.273,-43.945,0.000,0
157442.684,-37.109,-37.109,-38.086,-25.879,0.000,0
157442.688,-26.855,-28.320,-45.410,-20.996,0.000,0
157442.692,-24.414,-28.809,-43.945,-26.367,0.000,0
157442.696,-22.461,-27.832,-26.367,-24.902,0.000,0
157442.700,-23.926,-24.414,-15.625,-25.879,0.000,0
157442.704,-17.578,-18.555,-22.461,-14.648,0.000,0
157442.707,-19.531,-22.461,-28.320,-11.719,0.000,0
157442.711,-37.598,-29.297,-28.809,-8.789,0.000,0
157442.715,-42.480,-32.227,-30.762,-28.320,0.000,0
157442.719,-43.945,-34.668,-30.762,-46.875,0.000,0
157442.723,-40.039,-33.203,-41.016,-25.879,0.000,0
157442.727,-39.062,-32.715,-39.062,-22.461,0.000,0
157442.731,-45.898,-25.879,-26.855,-15.137,0.000,0
157442.735,-38.574,-23.438,-22.461,-24.414,0.000,0
157442.739,-29.297,-27.832,-28.320,-54.199,0.000,0
157442.743,-32.715,-30.273,-23.438,-40.039,0.000,0
157442.747,-42.480,-23.438,-16.602,-23.438,0.000,0
157442.750,-34.180,-21.973,-33.691,-28.809,0.000,0
157442.754,-23.438,-28.809,-25.879,-41.016,0.000,0
157442.758,-27.832,-22.949,-19.531,-37.109,0.000,0
157442.762,-29.297,-22.949,-25.391,-23.926,0.000,0
157442.766,-23.926,-25.879,-24.902,-19.043,0.000,0
157442.770,-23.926,-25.391,-27.344,-24.414,0.000,0
157442.774,-23.438,-25.879,-23.926,-38.574,0.000,0
157442.778,-20.996,-18.066,-18.555,-42.480,0.000,0
157442.782,-24.414,-22.949,-26.855,-33.691,0.000,0
157442.786,-29.785,-29.785,-25.879,-18.555,0.000,0
157442.790,-32.227,-21.973,-15.625,-11.719,0.000,0
157442.793,-7.324,-20.020,-16.602,-7.812,0.000,0
157442.797,0.977,-20.996,-15.625,5.859,0.000,0
157442.801,-34.668,-20.508,-13.672,-20.508,0.000,0
157442.805,-44.434,-30.762,-25.391,-46.387,0.000,0
157442.809,-35.156,-33.203,-31.738,-40.527,0.000,0
157442.813,-33.203,-25.879,-25.391,-39.062,0.000,0
157442.817,-34.668,-24.414,-24.414,-54.199,0.000,0
157442.821,-41.992,-29.297,-31.738,-57.617,0.000,0
157442.825,-45.410,-30.762,-44.434,-31.250,0.000,0
157442.829,-35.645,-28.809,-44.922,-20.020,0.000,0
157442.832,-30.762,-27.832,-33.203,-24.902,0.000,0
157442.836,-21.484,-26.367,-27.832,-24.414,0.000,0
157442.840,-22.949,-31.738,-38.574,-26.367,0.000,0
157442.844,-35.156,-36.133,-36.621,-35.645,0.000,0
157442.848,-29.297,-33.691,-32.715,-16.602,0.000,0
157442.852,-20.996,-34.668,-35.645,-12.207,0.000,0
157442.856,-27.832,-33.203,-29.297,-26.367,0.000,0
157442.860,-25.391,-30.273,-27.832,-14.648,0.000,0
157442.864,-18.066,-32.227,-28.809,-12.207,0.000,0
157442.868,-24.902,-34.668,-28.320,-8.789,0.000,0
157442.872,-28.320,-31.250,-26.367,-13.184,0.000,0
157442.875,-22.949,-32.227,-24.902,-34.180,0.000,0
157442.879,-17.578,-29.785,-22.461,-25.879,0.000,0
157442.883,-12.695,-24.902,-27.344,-23.926,0.000,0
157442.887,-8.789,-24.414,-35.645,-7.324,0.000,0
157442.891,-12.695,-21.973,-21.484,5.371,0.000,0
157442.895,-19.043,-20.020,-12.695,-19.043,0.000,0
157442.899,-11.230,-21.484,-28.809,-16.602,0.000,0
157442.903,-1.465,-20.508,-26.367,-2.441,0.000,0
157442.907,-4.395,-22.949,-16.113,-6.836,0.000,0
157442.911,-9.277,-22.949,-17.090,-22.461,0.000,0
157442.915,-4.395,-16.602,-20.508,-23.438,0.000,0
157442.918,-13.184,-15.625,-20.020,-19.531,0.000,0
157442.922,-27.832,-20.996,-11.719,-36.133,0.000,0
157442.926,-15.137,-21.484,-19.043,-5.371,0.000,0
157442.930,-6.348,-30.762,-26.855,-3.418,0.000,0
157442.934,-20.508,-28.320,-27.344,-28.809,0.000,0
157442.938,-17.090,-22.461,-32.227,-12.695,0.000,0
157442.942,-5.859,-28.320,-30.273,-7.812,0.000,0
157442.946,-14.648,-33.203,-30.273,-7.812,0.000,0
157442.950,-21.973,-29.297,-22.949,-8.789,0.000,0
157442.954,-15.625,-26.367,-16.113,-18.066,0.000,0
157442.957,-15.137,-33.203,-24.414,-17.090,0.000,0
157442.961,-20.508,-36.133,-25.879,-2.930,0.000,0
157442.965,-22.949,-29.785,-30.273,1.953,0.000,0
157442.969,-20.996,-23.438,-23.926,-3.906,0.000,0
157442.973,-12.695,-19.531,-21.484,-10.742,0.000,0
157442.977,-7.324,-22.461,-34.668,-10.742,0.000,0
157442.981,-5.371,-31.738,-33.691,-13.672,0.000,0
157442.985,-6.836,-33.203,-24.902,-9.766,0.000,0
157442.989,-10.742,-35.156,-28.809,-15.137,0.000,0
157442.993,-25.879,-36.621,-27.832,-38.086,0.000,0
157442.997,-33.203,-31.738,-32.227,-29.785,0.000,0
157443.000,-22.461,-28.809,-37.109,-8.301,0.000,0
157443.004,-22.949,-28.809,-37.109,-14.648,0.000,0
157443.008,-27.832,-29.297,-27.832,-21.973,0.000,0
157443.012,-33.203,-29.297,-13.184,-31.738,0.000,0
157443.016,-26.855,-29.297,-27.832,-33.691,0.000,0
157443.020,-19.043,-30.762,-39.551,-30.273,0.000,0
157443.024,-25.879,-31.738,-30.273,-32.715,0.000,0
157443.028,-29.785,-29.785,-22.949,-21.973,0.000,0
157443.032,-23.438,-28.809,-20.996,-28.809,0.000,0
157443.036,-20.020,-24.902,-20.020,-27.832,0.000,0
157443.040,-15.137,-22.461,-20.020,-14.160,0.000,0
157443.043,-23.926,-26.855,-25.391,-23.926,0.000,0
157443.047,-29.297,-22.949,-25.879,-28.320,0.000,0
157443.051,-26.855,-23.438,-20.508,-33.203,0.000,0
157443.055,-31.738,-24.902,-28.809,-33.691,0.000,0
157443.059,-24.414,-22.461,-30.762,-14.648,0.000,0
157443.063,-14.160,-22.461,-25.391,-4.883,0.000,0
157443.067,-5.371,-20.508,-21.973,-7.324,0.000,0
157443.071,-8.789,-19.043,-8.301,-20.020,0.000,0
157443.075,-22.461,-19.531,-4.883,-13.184,0.000,0
157443.079,-1.465,-19.043,-11.230,14.648,0.000,0
157443.082,1.953,-15.625,-9.277,9.277,0.000,0
157443.086,-11.719,-20.020,-10.254,-9.766,0.000,0
157443.090,-11.719,-26.855,-12.207,-29.785,0.000,0
157443.094,-15.625,-27.344,-20.020,-40.039,0.000,0
157443.098,-14.160,-23.438,-19.531,-20.996,0.000,0
157443.102,-9.277,-16.602,-15.137,0.488,0.000,0
157443.106,-13.672,-17.090,-28.320,-6.836,0.000,0
157443.110,-13.184,-25.391,-27.832,-30.273,0.000,0
157443.114,-9.766,-16.602,-14.160,-20.508,0.000,0
157443.118,-20.020,-10.742,-18.555,-0.488,0.000,0
157443.122,-20.020,-18.555,-33.203,-9.277,0.000,0
157443.125,-16.113,-24.414,-34.180,-23.926,0.000,0
157443.129,-17.090,-24.414,-24.414,-21.973,0.000,0
157443.133,-16.113,-22.949,-26.367,-16.602,0.000,0
157443.137,-17.578,-23.926,-28.809,-22.461,0.000,0
157443.141,-11.719,-23.926,-25.879,-17.090,0.000,0
157443.145,-13.672,-23.438,-23.926,-14.160,0.000,0
157443.149,-17.090,-23.438,-19.043,-19.043,0.000,0
157443.153,-19.043,-21.973,-15.137,-7.812,0.000,0
157443.157,-18.555,-25.391,-23.926,-7.324,0.000,0
157443.161,-14.160,-24.414,-20.508,-12.207,0.000,0
157443.165,-10.742,-19.043,-3.418,1.465,0.000,0
157443.168,-5.859,-21.973,-10.742,-6.348,0.000,0
157443.172,-18.555,-28.320,-18.555,-32.227,0.000,0
157443.176,-27.832,-25.391,-21.484,-24.902,0.000,0
157443.180,-16.602,-23.438,-24.902,-7.324,0.000,0
157443.184,-9.277,-27.344,-27.344,-15.625,0.000,0
157443.188,-17.578,-34.180,-23.438,-18.555,0.000,0
157443.192,-24.414,-30.762,-14.648,-21.973,0.000,0
157443.196,-23.438,-27.832,-17.090,-25.879,0.000,0
157443.200,-29.297,-25.391,-22.949,-23.926,0.000,0
157443.204,-24.902,-20.996,-26.367,-11.230,0.000,0
157443.207,-14.648,-23.438,-14.648,-7.324,0.000,1
157443.211,-10.742,-28.809,-18.066,-10.254,0.000,0
157443.215,-13.184,-25.391,-33.203,-5.859,0.000,0
157443.219,-11.719,-20.508,-24.414,-5.859,0.000,0
157443.223,-9.277,-20.508,-18.066,-5.371,0.000,0
157443.227,-13.184,-22.461,-19.531,-16.602,0.000,0
157443.231,-21.973,-27.832,-24.902,-28.320,0.000,0
157443.235,-20.020,-24.414,-28.320,-31.250,0.000,0
157443.239,-15.625,-20.508,-27.344,-20.508,0.000,0
157443.243,-7.324,-35.156,-31.250,-7.324,0.000,0
157443.247,-14.160,-38.086,-24.902,-19.043,0.000,0
157443.250,-41.992,-24.414,-25.879,-20.508,0.000,0
157443.254,-33.691,-28.320,-36.133,-27.344,0.000,0
157443.258,-27.344,-22.461,-27.344,-23.926,0.000,0
157443.262,-40.527,-20.996,-20.996,-22.461,0.000,0
157443.266,-41.504,-30.273,-26.367,-41.504,0.000,0
157443.270,-38.086,-26.367,-31.738,-45.410,0.000,0
157443.274,-29.297,-27.832,-32.715,-31.250,0.000,0
157443.278,-22.461,-33.203,-30.762,-15.137,0.000,0
157443.282,-27.832,-35.156,-30.762,-21.973,0.000,0
157443.286,-28.809,-26.855,-22.949,-26.855,0.000,0
157443.290,-25.879,-18.066,-20.508,-0.977,0.000,0
157443.293,-24.902,-23.926,-20.508,2.930,0.000,0
157443.297,-16.113,-20.020,-27.344,-9.277,0.000,0
157443.301,-18.066,-19.043,-28.320,-14.648,0.000,0
157443.305,-20.996,-22.949,-16.602,-26.367,0.000,0
157443.309,-17.090,-18.555,-16.113,-23.926,0.000,0
157443.313,-9.277,-18.066,-22.949,-19.531,0.000,0
157443.317,-13.184,-24.902,-30.273,-20.508,0.000,0
157443.321,-16.113,-26.367,-29.297,-16.113,0.000,0
157443.325,-15.137,-25.391,-14.648,-38.086,0.000,0
157443.329,-18.555,-23.926,-16.113,-37.598,0.000,0
157443.332,-20.020,-21.484,-28.809,-25.879,0.000,0
157443.336,-23.926,-20.996,-30.273,-16.113,0.000,0
157443.340,-20.508,-14.160,-20.996,7.812,0.000,0
157443.344,-13.184,-10.742,-12.695,-9.277,0.000,0
157443.348,-13.672,-15.137,-23.438,-25.391,0.000,0
157443.352,-17.090,-15.625,-28.809,-11.230,0.000,0
157443.356,-18.066,-14.160,-14.160,5.859,0.000,0
157443.360,-18.066,-18.066,-16.602,-3.906,0.000,0
157443.364,-27.832,-24.414,-14.648,-31.738,0.000,0
157443.368,-25.879,-20.020,-16.113,-33.203,0.000,0
157443.372,-16.113,-19.043,-20.508,-18.066,0.000,0
157443.375,-10.742,-20.020,-21.973,3.418,0.000,0
157443.379,-8.789,-22.461,-24.902,5.371,0.000,0
157443.383,-16.113,-25.879,-12.207,-19.531,0.000,0
157443.387,-24.902,-18.555,-16.113,-17.090,0.000,0
157443.391,-18.555,-20.020,-30.273,-10.742,0.000,0
157443.395,-5.371,-19.531,-20.020,-7.812,0.000,0
157443.399,-17.578,-18.555,-9.277,2.930,0.000,0
157443.403,-21.484,-18.555,-8.789,-14.648,0.000,0
157443.407,-11.719,-18.066,-17.578,-23.438,0.000,0
157443.411,-2.930,-28.809,-25.391,-15.137,0.000,0
157443.415,-7.812,-22.949,-20.508,-2.930,0.000,0
157443.418,-7.812,-16.602,-21.484,-0.488,0.000,0
157443.422,-6.348,-18.066,-14.648,-9.277,0.000,0
157443.426,-11.719,-19.531,-10.742,-9.766,0.000,0
157443.430,-16.602,-25.391,-17.578,-18.066,0.000,0
157443.434,-25.391,-22.949,-24.902,-16.113,0.000,0
157443.438,-26.855,-21.973,-33.691,-14.160,0.000,0
157443.442,-21.973,-27.344,-27.344,-36.133,0.000,0
157443.446,-10.742,-26.367,-15.137,-32.227,0.000,0
157443.450,-10.254,-17.090,-20.996,-24.414,0.000,0
157443.454,-17.090,-16.602,-21.484,-21.484,0.000,0
157443.457,-15.625,-20.020,-18.066,-13.184,0.000,0
157443.461,-14.160,-18.066,-15.625,-21.484,0.000,0
157443.465,-16.602,-14.648,-20.996,-13.672,0.000,0
157443.469,-11.230,-12.207,-28.320,1.465,0.000,0
157443.473,-6.836,-17.090,-18.066,0.977,0.000,0
157443.477,-9.277,-22.461,-16.602,-11.719,0.000,0
157443.481,-12.695,-19.531,-20.020,-23.926,0.000,0
157443.485,-11.719,-17.090,-19.531,-28.320,0.000,0
157443.489,-22.461,-19.531,-20.996,-28.320,0.000,0
157443.493,-23.926,-23.438,-23.438,-16.602,0.000,0
157443.497,-17.578,-25.391,-35.645,-17.090,0.000,0
157443.500,-32.227,-32.227,-37.109,-32.715,0.000,0
157443.504,-32.715,-30.273,-23.926,-41.504,0.000,0
157443.508,-24.902,-20.508,-23.926,-40.527,0.000,0
157443.512,-21.484,-20.508,-27.832,-33.691,0.000,0
157443.516,-20.508,-16.602,-22.949,-15.137,0.000,0
157443.520,-20.020,-17.090,-20.996,-15.137,0.000,0
157443.524,-21.973,-21.973,-21.973,-28.320,0.000,0
157443.528,-32.227,-28.320,-29.297,-20.020,0.000,0
157443.532,-36.621,-30.762,-29.785,-11.230,0.000,0
157443.536,-37.598,-22.949,-24.414,-4.883,0.000,0
157443.540,-28.809,-26.855,-29.297,-22.949,0.000,0
157443.543,-14.648,-27.344,-22.461,-32.227,0.000,0
157443.547,-20.508,-26.367,-22.461,-18.555,0.000,0
157443.551,-23.926,-30.762,-29.297,-18.066,0.000,0
157443.555,-14.160,-31.250,-29.785,-0.488,0.000,0
157443.559,-13.672,-21.973,-21.484,4.395,0.000,0
157443.563,-22.461,-22.461,-17.578,-14.648,0.000,0
157443.567,-24.414,-31.250,-30.762,-7.324,0.000,0
157443.571,-28.809,-31.738,-31.250,1.465,0.000,0
157443.575,-36.133,-31.250,-30.762,-12.695,0.000,0
157443.579,-30.762,-36.133,-32.227,-27.344,0.000,0
157443.582,-32.715,-37.109,-32.227,-44.434,0.000,0
157443.586,-33.203,-35.156,-33.203,-38.574,0.000,0
157443.590,-32.715,-37.109,-30.762,-26.855,0.000,0
157443.594,-38.574,-33.691,-33.203,-11.230,0.000,0
157443.598,-33.203,-33.203,-37.598,-11.230,0.000,0
157443.602,-26.367,-29.785,-32.227,-28.809,0.000,0
157443.606,-29.785,-29.785,-37.598,-24.414,0.000,0
157443.610,-32.715,-33.203,-39.062,-19.043,0.000,0
157443.614,-27.832,-30.762,-36.621,-15.625,0.000,0
157443.618,-28.320,-25.391,-29.785,-14.648,0.000,0
157443.622,-35.156,-24.902,-13.184,-22.461,0.000,0
157443.625,-37.109,-20.020,-10.254,-30.273,0.000,0
157443.629,-31.250,-16.113,-20.020,-26.855,0.000,0
157443.633,-30.762,-20.020,-28.320,-19.043,0.000,0
157443.637,-32.227,-19.531,-24.414,-25.879,0.000,0
157443.641,-18.555,-19.043,-19.531,-21.973,0.000,0
157443.645,-14.648,-18.066,-25.391,-6.348,0.000,0
157443.649,-17.090,-20.996,-33.691,-11.230,0.000,0
157443.653,-15.137,-25.391,-23.926,-8.301,0.000,0
157443.657,-14.648,-20.996,-14.648,-11.719,0.000,0
157443.661,-16.602,-22.949,-17.578,-32.227,0.000,0
157443.665,-22.949,-25.879,-19.043,-29.785,0.000,0
157443.668,-31.250,-28.320,-20.020,-14.648,0.000,0
157443.672,-20.508,-35.645,-33.691,-5.859,0.000,0
157443.676,-7.324,-26.855,-28.809,-13.184,0.000,0
157443.680,-14.160,-21.484,-12.695,-34.180,0.000,0
157443.684,-31.738,-24.414,-9.766,-34.180,0.000,0
157443.688,-25.879,-28.320,-16.602,-22.461,0.000,0
157443.692,-25.879,-37.598,-25.391,-21.484,0.000,0
157443.696,-25.391,-38.086,-22.949,-21.973,0.000,0
157443.700,-23.438,-26.855,-16.113,-34.180,0.000,0
157443.704,-25.879,-18.066,-19.531,-29.297,0.000,0
157443.707,-16.113,-19.043,-26.367,-11.719,0.000,0
157443.711,-17.578,-24.902,-31.738,-6.836,0.000,0
157443.715,-28.809,-35.645,-33.203,-12.695,0.000,0
157443.719,-34.668,-41.992,-29.297,-34.180,0.000,0
157443.723,-24.414,-29.297,-30.762,-30.273,0.000,0
157443.727,-22.949,-25.391,-19.043,-22.949,0.000,0
157443.731,-30.273,-27.344,-12.207,-18.555,0.000,0
157443.735,-19.531,-27.344,-23.438,-17.090,0.000,0
157443.739,-19.043,-27.832,-15.625,-25.879,0.000,0
157443.743,-20.996,-30.273,-24.902,-12.207,0.000,0
157443.747,-16.602,-31.250,-29.297,-22.461,0.000,0
157443.750,-9.277,-23.438,-26.367,-33.691,0.000,0
157443.754,-11.230,-23.438,-29.785,-7.324,0.000,0
157443.758,-21.973,-23.926,-14.648,-10.742,0.000,0
157443.762,-21.484,-19.043,-19.531,-29.785,0.000,0
157443.766,-22.949,-23.438,-31.738,-27.344,0.000,0
157443.770,-22.461,-29.785,-29.297,-6.348,0.000,0
157443.774,-20.508,-23.926,-18.066,-12.207,0.000,0
157443.778,-20.508,-22.461,-21.973,-29.785,0.000,0
157443.782,-15.137,-24.414,-31.250,-19.043,0.000,0
157443.786,-15.625,-22.461,-25.879,-20.508,0.000,0
157443.790,-23.438,-25.391,-22.949,-20.996,0.000,0
157443.793,-20.996,-33.203,-23.926,-17.578,0.000,0
157443.797,-12.207,-30.273,-20.996,-27.344,0.000,0
157443.801,-15.625,-27.344,-22.461,-25.879,0.000,0
157443.805,-22.461,-27.344,-24.902,-13.672,0.000,0
157443.809,-19.043,-27.832,-33.203,-7.812,0.000,0
157443.813,-16.113,-30.762,-34.668,-9.766,0.000,0
157443.817,-26.367,-23.926,-26.855,-20.508,0.000,0
157443.821,-19.043,-24.902,-28.809,-18.066,0.000,0
157443.825,-10.742,-24.414,-35.156,-9.766,0.000,0
157443.829,-23.438,-21.484,-29.297,-17.090,0.000,0
157443.832,-26.367,-25.879,-25.391,-27.344,0.000,1
157443.836,-20.020,-26.855,-18.555,-41.504,0.000,0
157443.840,-17.578,-26.855,-18.555,-33.203,0.000,0
157443.844,-18.555,-33.203,-30.273,-11.230,0.000,0
157443.848,-21.973,-31.250,-31.250,-11.230,0.000,0
157443.852,-26.855,-25.879,-25.879,-25.879,0.000,0
157443.856,-27.832,-32.227,-23.438,-40.527,0.000,0
157443.860,-31.250,-33.691,-27.344,-35.645,0.000,0
157443.864,-26.855,-32.227,-24.902,-29.785,0.000,0
157443.868,-16.602,-34.180,-29.785,-19.531,0.000,0
157443.872,-28.320,-30.273,-35.156,-5.859,0.000,0
157443.875,-34.668,-27.832,-28.320,-14.648,0.000,0
157443.879,-36.621,-29.297,-32.227,-20.996,0.000,0
157443.883,-25.391,-28.320,-41.992,-22.461,0.000,0
157443.887,-20.508,-31.738,-41.504,-25.391,0.000,0
157443.891,-30.762,-33.203,-36.621,-22.461,0.000,0
157443.895,-23.926,-38.086,-29.785,-21.484,0.000,0
157443.899,-20.020,-36.621,-24.902,-23.926,0.000,0
157443.903,-28.809,-29.297,-26.855,-27.832,0.000,0
157443.907,-32.715,-25.879,-27.344,-17.090,0.000,0
157443.911,-22.461,-27.344,-25.391,-9.766,0.000,0
157443.915,-17.578,-30.273,-26.367,-23.438,0.000,0
157443.918,-24.414,-30.273,-25.391,-21.484,0.000,0
157443.922,-30.762,-26.367,-27.832,-20.508,0.000,0
157443.926,-34.668,-22.461,-28.809,-28.809,0.000,0
157443.930,-26.367,-23.438,-24.902,-14.648,0.000,0
157443.934,-19.531,-22.461,-17.090,-6.348,0.000,0
157443.938,-25.391,-21.484,-10.254,-21.973,0.000,0
157443.942,-15.625,-22.949,-12.207,-31.250,0.000,0
157443.946,-6.836,-22.461,-22.461,-9.277,0.000,0
157443.950,-15.625,-25.391,-23.438,-4.395,0.000,0
157443.954,-20.508,-19.043,-11.230,-23.926,0.000,0
157443.957,-16.113,-13.184,-14.648,-23.438,0.000,0
157443.961,-12.695,-20.996,-20.996,-10.742,0.000,0
157443.965,-17.578,-21.484,-18.555,-12.695,0.000,0
157443.969,-13.184,-21.973,-18.555,-3.418,0.000,0
157443.973,-9.766,-23.926,-10.742,-14.160,0.000,0
157443.977,-10.254,-13.672,-5.859,-19.531,0.000,0
157443.981,-15.137,-10.254,-11.230,-8.789,0.000,0
157443.985,-20.996,-12.695,-17.578,-3.418,0.000,0
157443.989,-12.207,-15.137,-16.113,-2.930,0.000,0
157443.993,-9.766,-17.578,-0.488,-10.254,0.000,0
157443.997,-12.695,-19.043,-1.953,-11.719,0.000,0
157444.000,-11.719,-16.602,-12.695,-1.465,0.000,0
157444.004,-7.812,-19.043,-12.207,-2.930,0.000,0
157444.008,-4.883,-20.020,-22.949,-7.324,0.000,0
157444.012,-19.531,-18.066,-12.207,-12.207,0.000,0
157444.016,-27.832,-20.020,-10.254,-28.320,0.000,0
157444.020,-24.902,-18.066,-22.949,-20.996,0.000,0
157444.024,-25.879,-19.531,-17.578,-12.695,0.000,0
157444.028,-20.508,-23.926,-18.555,-13.672,0.000,0
157444.032,-22.461,-28.809,-28.320,-30.273,0.000,0
157444.036,-20.020,-28.320,-28.809,-40.527,0.000,0
157444.040,-19.531,-22.461,-22.461,-19.531,0.000,0
157444.043,-37.109,-28.809,-19.043,-12.207,0.000,0
157444.047,-32.715,-28.809,-28.809,-13.184,0.000,0
157444.051,-23.438,-32.715,-38.086,-24.902,0.000,0
157444.055,-37.598,-35.156,-30.762,-37.109,0.000,0
157444.059,-41.016,-24.414,-25.391,-20.996,0.000,0
157444.063,-23.438,-27.344,-32.227,-13.184,0.000,0
157444.067,-20.508,-26.367,-31.738,-12.695,0.000,0
157444.071,-21.484,-30.273,-20.996,-21.484,0.000,0
157444.075,-18.555,-32.227,-16.602,-32.715,0.000,0
157444.079,-23.438,-30.273,-27.832,-28.809,0.000,0
157444.082,-23.438,-35.156,-27.344,-13.672,0.000,0
157444.086,-22.461,-35.645,-21.973,-5.371,0.000,0
157444.090,-29.297,-30.762,-25.391,-14.648,0.000,0
157444.094,-27.344,-27.832,-28.320,-22.461,0.000,0
157444.098,-25.391,-29.297,-34.668,-21.973,0.000,0
157444.102,-33.203,-25.391,-25.391,-20.020,0.000,0
157444.106,-26.367,-29.297,-23.926,-17.578,0.000,0
157444.110,-24.414,-34.668,-34.180,-21.973,0.000,0
157444.114,-29.297,-35.156,-26.367,-32.715,0.000,0
157444.118,-34.180,-33.203,-37.598,-38.574,0.000,0
157444.122,-27.832,-30.273,-44.434,-32.715,0.000,0
157444.125,-18.066,-29.785,-33.691,-20.508,0.000,0
157444.129,-21.484,-24.414,-20.996,-20.508,0.000,0
157444.133,-20.508,-23.438,-15.625,-16.113,0.000,0
157444.137,-22.461,-29.785,-23.926,-7.324,0.000,0
157444.141,-21.484,-35.645,-32.715,-10.254,0.000,0
157444.145,-20.996,-28.809,-27.832,-14.160,0.000,0
157444.149,-33.203,-24.414,-13.184,-23.926,0.000,0
157444.153,-23.926,-24.414,-26.367,-34.180,0.000,0
157444.157,-13.184,-19.043,-31.250,-26.367,0.000,0
157444.161,-24.902,-20.020,-20.996,-21.484,0.000,0
157444.165,-31.250,-23.438,-27.344,-23.926,0.000,0
157444.168,-30.273,-27.832,-33.203,-27.832,0.000,0
157444.172,-28.320,-30.273,-22.461,-37.598,0.000,0
157444.176,-20.020,-26.367,-17.578,-29.785,0.000,0
157444.180,-14.160,-20.996,-22.949,-22.949,0.000,0
157444.184,-11.230,-18.555,-20.508,-18.066,0.000,0
157444.188,-12.695,-24.414,-22.461,-3.906,0.000,0
157444.192,-22.949,-25.879,-20.508,-19.531,0.000,0
157444.196,-27.344,-25.879,-27.344,-25.391,0.000,0
157444.200,-22.461,-30.762,-34.180,-15.625,0.000,0
157444.204,-19.531,-28.809,-28.320,-17.578,0.000,0
157444.207,-27.832,-28.809,-23.926,-18.555,0.000,0
157444.211,-21.973,-26.855,-20.020,-26.855,0.000,0
157444.215,-14.648,-30.762,-26.855,-28.809,0.000,0
157444.219,-28.320,-41.016,-27.832,-26.855,0.000,0
157444.223,-36.621,-34.668,-25.391,-24.414,0.000,0
157444.227,-32.715,-29.297,-29.785,-13.672,0.000,0
157444.231,-29.785,-28.809,-30.762,-30.273,0.000,0
157444.235,-37.109,-28.320,-30.762,-33.203,0.000,0
157444.239,-25.879,-30.273,-26.367,-23.438,0.000,0
157444.243,-9.766,-30.273,-30.273,-19.531,0.000,0
157444.247,-19.043,-30.273,-21.973,-35.645,0.000,0
157444.250,-21.484,-32.715,-14.160,-51.758,0.000,0
157444.254,-18.066,-31.738,-31.738,-36.621,0.000,0
157444.258,-18.555,-22.949,-27.344,-24.902,0.000,0
157444.262,-21.973,-20.508,-24.902,-19.531,0.000,0
157444.266,-33.691,-30.273,-23.926,-23.926,0.000,0
157444.270,-35.156,-33.691,-24.414,-34.180,0.000,0
157444.274,-25.879,-34.180,-36.133,-28.809,0.000,0
157444.278,-29.297,-31.738,-30.762,-24.414,0.000,0
157444.282,-38.086,-29.785,-25.391,-19.043,0.000,0
157444.286,-32.715,-27.344,-26.367,-22.949,0.000,0
157444.290,-31.250,-20.508,-20.508,-41.992,0.000,0
157444.293,-33.203,-17.578,-26.367,-37.109,0.000,0
157444.297,-31.250,-20.508,-35.156,-21.973,0.000,0
157444.301,-25.391,-22.461,-35.156,-25.391,0.000,0
157444.305,-17.090,-23.926,-25.391,-28.320,0.000,0
157444.309,-25.391,-26.855,-14.648,-20.020,0.000,0
157444.313,-29.297,-27.344,-26.367,-16.113,0.000,0
157444.317,-25.879,-25.879,-33.203,-20.996,0.000,0
157444.321,-26.367,-26.855,-32.227,-17.578,0.000,0
157444.325,-32.715,-27.832,-30.762,-21.973,0.000,0
157444.329,-20.508,-30.273,-31.738,-48.828,0.000,0
157444.332,-10.254,-25.879,-34.668,-42.969,0.000,0
157444.336,-18.066,-22.461,-25.879,-20.508,0.000,0
157444.340,-25.391,-25.879,-17.090,-20.996,0.000,0
157444.344,-17.578,-20.508,-19.043,-26.367,0.000,0
157444.348,-19.043,-16.602,-12.695,-34.668,0.000,0
157444.352,-25.391,-14.648,-12.207,-32.227,0.000,0
157444.356,-20.508,-14.648,-14.160,-25.391,0.000,0
157444.360,-21.484,-22.461,-25.391,-18.555,0.000,0
157444.364,-14.160,-20.996,-27.344,-10.254,0.000,0
157444.368,-18.066,-22.461,-16.113,-29.785,0.000,0
157444.372,-29.297,-25.391,-21.973,-34.668,0.000,0
157444.375,-23.926,-21.973,-28.809,-18.066,0.000,0
157444.379,-19.531,-26.855,-35.645,-24.414,0.000,0
157444.383,-24.414,-31.738,-28.320,-34.180,0.000,0
157444.387,-28.320,-33.691,-10.742,-35.156,0.000,0
157444.391,-8.789,-32.227,-22.461,-24.414,0.000,0
157444.395,-7.812,-33.203,-33.691,-18.555,0.000,0
157444.399,-18.555,-32.227,-28.320,-9.277,0.000,0
157444.403,-9.277,-26.855,-22.949,5.371,0.000,0
157444.407,0.488,-23.438,-9.766,-6.836,0.000,0
157444.411,-8.301,-20.020,-11.719,-7.812,0.000,0
157444.415,-14.160,-20.508,-17.090,-1.953,0.000,0
157444.418,-12.695,-19.531,-13.672,-7.324,0.000,0
157444.422,-14.160,-18.066,-18.555,-9.277,0.000,0
157444.426,-17.578,-27.344,-23.438,-25.391,0.000,0
157444.430,-24.414,-23.926,-11.719,-30.762,0.000,0
157444.434,-22.461,-22.461,-14.160,-19.531,0.000,0
157444.438,-15.137,-31.738,-23.926,-9.766,0.000,0
157444.442,-15.137,-27.832,-19.531,-8.301,0.000,0
157444.446,-17.090,-26.855,-19.531,-20.996,0.000,0
157444.450,-9.766,-27.344,-22.461,-9.277,0.000,0
157444.454,-7.812,-33.203,-24.902,1.953,0.000,0
157444.457,-15.625,-28.809,-17.578,-2.441,0.000,0
157444.461,-9.277,-20.508,-8.301,-5.371,0.000,0
157444.465,-5.371,-19.531,-14.648,-29.785,0.000,1
157444.469,-15.625,-20.508,-17.090,-36.133,0.000,0
157444.473,-16.602,-21.484,-9.766,-5.859,0.000,0
157444.477,-13.184,-23.926,-17.578,3.906,0.000,0
157444.481,-22.949,-29.297,-25.391,-6.836,0.000,0
157444.485,-23.438,-27.344,-15.625,-5.371,0.000,0
157444.489,-11.719,-20.996,-13.184,1.953,0.000,0
157444.493,-10.742,-20.996,-22.949,-0.977,0.000,0
157444.497,-11.719,-15.625,-23.926,-7.324,0.000,0
157444.500,-17.090,-18.066,-20.020,-10.742,0.000,0
157444.504,-24.414,-23.926,-18.555,-24.902,0.000,0
157444.508,-24.414,-24.414,-24.414,-29.297,0.000,0
157444.512,-25.879,-27.832,-33.691,-11.719,0.000,0
157444.516,-26.367,-31.250,-35.645,-2.441,0.000,0
157444.520,-28.320,-31.738,-33.203,-16.113,0.000,0
157444.524,-22.461,-31.738,-34.180,-27.832,0.000,0
157444.528,-20.020,-30.762,-40.527,-29.297,0.000,0
157444.532,-20.020,-26.855,-40.039,-31.250,0.000,0
157444.536,-18.066,-23.926,-32.227,-22.461,0.000,0
157444.540,-12.207,-28.320,-32.227,-4.395,0.000,0
157444.543,-14.648,-32.715,-28.809,-17.090,0.000,0
157444.547,-20.508,-29.297,-26.367,-28.320,0.000,0
157444.551,-14.648,-27.832,-28.320,-14.648,0.000,0
157444.555,-7.324,-27.832,-20.508,-19.531,0.000,0
157444.559,-11.230,-25.391,-23.926,-10.254,0.000,0
157444.563,-25.391,-26.367,-24.902,-12.207,0.000,0
157444.567,-20.020,-31.250,-26.367,-24.414,0.000,0
157444.571,-13.184,-36.133,-39.062,-20.020,0.000,0
157444.575,-16.602,-30.273,-38.574,-9.277,0.000,0
157444.579,-20.508,-29.297,-32.715,-16.113,0.000,0
157444.582,-18.555,-27.832,-24.414,-24.902,0.000,0
157444.586,-4.395,-22.461,-27.344,-13.672,0.000,0
157444.590,-12.695,-22.461,-23.926,-17.090,0.000,0
157444.594,-22.949,-22.461,-25.879,-16.602,0.000,0
157444.598,-20.508,-25.879,-30.762,-17.578,0.000,0
157444.602,-19.531,-26.855,-26.367,-33.203,0.000,0
157444.606,-20.996,-25.391,-25.879,-27.832,0.000,0
157444.610,-24.414,-21.484,-29.785,-22.949,0.000,0
157444.614,-20.996,-26.367,-41.504,-23.438,0.000,0
157444.618,-15.625,-30.273,-31.738,-15.137,0.000,0
157444.622,-21.973,-22.461,-11.230,-18.555,0.000,0
157444.625,-9.766,-25.391,-26.855,-18.066,0.000,0
157444.629,2.930,-23.926,-33.203,-12.207,0.000,0
157444.633,-9.766,-19.531,-24.414,-11.719,0.000,0
157444.637,-11.719,-16.113,-18.555,-13.672,0.000,0
157444.641,-12.695,-17.090,-19.531,-17.090,0.000,0
157444.645,-18.555,-20.996,-30.762,-27.344,0.000,0
157444.649,-13.672,-20.020,-35.156,-20.996,0.000,0
157444.653,-17.090,-20.996,-26.367,-2.441,0.000,0
157444.657,-17.578,-20.996,-14.160,-25.391,0.000,0
157444.661,-12.695,-19.043,-20.996,-28.809,0.000,0
157444.665,-19.531,-20.020,-30.273,-7.324,0.000,0
157444.668,-14.160,-17.090,-23.438,-10.742,0.000,0
157444.672,1.953,-10.254,-20.996,-10.742,0.000,0
157444.676,-3.906,-10.254,-16.113,-13.672,0.000,0
157444.680,-15.625,-12.695,-8.301,-33.691,0.000,0
157444.684,-23.926,-10.742,-15.137,-31.250,0.000,0
157444.688,-23.926,-12.695,-21.484,-14.160,0.000,0
157444.692,-17.090,-20.508,-20.996,-10.254,0.000,0
157444.696,-20.508,-25.391,-18.555,-8.301,0.000,0
157444.700,-27.832,-24.414,-22.949,-16.113,0.000,0
157444.704,-31.250,-23.438,-28.809,-22.461,0.000,0
157444.707,-26.367,-20.020,-20.020,-16.602,0.000,0
157444.711,-34.668,-17.090,-15.625,-15.625,0.000,0
157444.715,-29.297,-24.902,-29.785,-13.672,0.000,0
157444.719,-16.602,-33.203,-30.762,-30.762,0.000,0
157444.723,-25.879,-24.414,-29.785,-34.668,0.000,0
157444.727,-29.297,-19.043,-35.156,-9.277,0.000,0
157444.731,-19.043,-24.902,-31.738,-2.930,0.000,0
157444.735,-20.996,-25.391,-27.832,-12.695,0.000,0
157444.739,-29.785,-28.809,-22.461,-23.926,0.000,0
157444.743,-26.855,-22.949,-22.949,-20.996,0.000,0
157444.747,-24.902,-20.020,-27.832,-25.879,0.000,0
157444.750,-15.137,-30.273,-30.762,-28.320,0.000,0
157444.754,-19.043,-26.855,-26.855,-15.137,0.000,0
157444.758,-26.367,-23.438,-19.043,-25.879,0.000,0
157444.762,-20.996,-21.484,-26.855,-13.672,0.000,0
157444.766,-22.949,-21.484,-26.367,-10.254,0.000,0
157444.770,-18.555,-26.367,-21.973,-0.977,0.000,0
157444.774,-15.625,-28.809,-24.414,-3.418,0.000,0
157444.778,-17.090,-30.273,-25.391,-30.273,0.000,0
157444.782,-11.719,-24.902,-20.996,-22.461,0.000,0
157444.786,-17.090,-23.438,-27.344,-14.648,0.000,0
157444.790,-29.785,-29.297,-41.504,-12.207,0.000,0
157444.793,-33.203,-29.785,-37.109,-20.996,0.000,0
157444.797,-35.645,-33.691,-23.438,-29.297,0.000,0
157444.801,-34.668,-31.738,-25.879,-16.113,0.000,0
157444.805,-21.484,-24.414,-32.715,-18.066,0.000,0
157444.809,-9.277,-24.902,-23.438,-17.090,0.000,0
157444.813,-15.137,-26.855,-17.578,-14.160,0.000,0
157444.817,-27.344,-31.250,-22.461,-33.203,0.000,0
157444.821,-20.020,-27.344,-20.020,-31.738,0.000,0
157444.825,-11.230,-24.902,-30.762,-19.531,0.000,0
157444.829,-14.160,-29.785,-30.762,-11.230,0.000,0
157444.832,-16.602,-29.297,-18.555,-7.324,0.000,0
157444.836,-24.414,-32.715,-18.555,-17.090,0.000,0
157444.840,-35.156,-37.109,-26.855,-18.555,0.000,0
157444.844,-37.109,-38.086,-33.203,-17.578,0.000,0
157444.848,-29.297,-37.598,-30.762,-24.414,0.000,0
157444.852,-23.438,-37.109,-38.574,-30.273,0.000,0
157444.856,-18.555,-42.480,-32.715,-42.969,0.000,0
157444.860,-16.113,-38.574,-26.367,-44.434,0.000,0
157444.864,-24.902,-28.809,-32.715,-28.809,0.000,0
157444.868,-23.438,-29.297,-27.344,-25.879,0.000,0
157444.872,-20.996,-33.691,-22.949,-20.508,0.000,0
157444.875,-28.809,-33.691,-26.855,-30.762,0.000,0
157444.879,-32.715,-31.738,-30.762,-34.668,0.000,0
157444.883,-22.461,-33.691,-30.762,-31.250,0.000,0
157444.887,-21.484,-34.668,-21.973,-10.254,0.000,0
157444.891,-30.762,-34.180,-24.414,-7.324,0.000,0
157444.895,-18.066,-36.621,-30.762,-37.109,0.000,0
157444.899,-15.137,-30.762,-26.855,-37.109,0.000,0
157444.903,-19.043,-29.785,-25.391,-18.555,0.000,0
157444.907,-12.207,-30.273,-20.996,-16.602,0.000,0
157444.911,-11.230,-31.250,-24.414,-20.996,0.000,0
157444.915,-13.184,-33.203,-21.484,-21.973,0.000,0
157444.918,-17.578,-29.785,-18.066,-24.414,0.000,0
157444.922,-19.531,-32.227,-25.879,-24.902,0.000,0
157444.926,-21.973,-37.109,-32.227,-21.973,0.000,0
157444.930,-28.809,-37.598,-30.273,-11.719,0.000,0
157444.934,-25.879,-37.109,-19.043,-18.555,0.000,0
157444.938,-24.414,-39.062,-15.625,-21.484,0.000,0
157444.942,-27.344,-36.621,-27.832,-7.812,0.000,0
157444.946,-19.531,-28.809,-31.738,-2.930,0.000,0
157444.950,-22.949,-22.949,-22.461,-4.395,0.000,0
157444.954,-21.973,-23.438,-19.531,-22.461,0.000,0
157444.957,-16.602,-20.996,-24.414,-34.668,0.000,0
157444.961,-23.926,-23.438,-25.879,-32.715,0.000,0
157444.965,-23.438,-29.297,-29.785,-13.672,0.000,0
157444.969,-23.438,-33.691,-32.227,-8.789,0.000,0
157444.973,-26.367,-28.320,-22.949,-24.902,0.000,0
157444.977,-26.367,-24.414,-22.949,-23.438,0.000,0
157444.981,-29.297,-26.855,-27.832,-7.324,0.000,0
157444.985,-36.133,-27.344,-35.156,-5.859,0.000,0
157444.989,-30.273,-23.926,-37.598,-12.695,0.000,0
157444.993,-29.297,-21.973,-13.672,-20.508,0.000,0
157444.997,-34.668,-25.879,-11.719,-15.625,0.000,0
157445.000,-18.555,-23.926,-26.367,-2.441,0.000,0
157445.004,-22.949,-18.555,-23.438,-12.695,0.000,0
157445.008,-32.227,-23.438,-24.902,-15.625,0.000,0
157445.012,-27.832,-26.855,-18.066,-18.555,0.000,0
157445.016,-17.578,-24.414,-17.090,-31.738,0.000,0
157445.020,-6.348,-26.367,-30.273,-19.531,0.000,0
157445.024,-14.648,-29.785,-30.273,-18.066,0.000,0
157445.028,-21.973,-26.855,-31.738,-14.648,0.000,0
157445.032,-16.602,-28.809,-37.109,-20.996,0.000,0
157445.036,-14.648,-23.438,-33.203,-29.785,0.000,0
157445.040,-22.461,-20.020,-28.809,-14.648,0.000,0
157445.043,-23.438,-23.438,-25.391,-11.230,0.000,0
157445.047,-15.625,-23.926,-30.762,-12.207,0.000,0
157445.051,-20.020,-27.832,-23.438,-25.391,0.000,0
157445.055,-20.020,-24.902,-20.996,-43.457,0.000,0
157445.059,-18.066,-20.996,-35.645,-38.574,0.000,0
157445.063,-27.344,-26.855,-32.227,-37.109,0.000,0
157445.067,-29.785,-22.949,-28.809,-10.254,0.000,0
157445.071,-24.902,-22.461,-28.320,-0.977,0.000,0
157445.075,-15.625,-20.020,-20.508,-24.414,0.000,0
157445.079,-22.949,-17.090,-22.949,-26.855,0.000,0
157445.082,-31.250,-21.484,-34.668,-22.949,0.000,0
157445.086,-21.973,-19.531,-30.273,-21.484,0.000,0
157445.090,-11.719,-24.414,-32.715,-36.133,0.000,0
157445.094,-15.625,-30.762,-36.133,-49.805,0.000,0
157445.098,-33.691,-27.832,-30.273,-48.828,0.000,0
157445.102,-31.738,-24.414,-27.832,-41.016,0.000,0
157445.106,-13.672,-20.996,-27.344,-13.672,0.000,0
157445.110,-18.066,-19.531,-24.414,-18.066,0.000,0
157445.114,-22.461,-20.996,-19.531,-30.762,0.000,0
157445.118,-15.137,-22.461,-27.832,-15.625,0.000,0
157445.122,-14.160,-22.461,-25.391,-2.930,0.000,0
157445.125,-21.973,-21.484,-25.391,-21.484,0.000,0
157445.129,-32.227,-19.531,-21.973,-32.227,0.000,0
157445.133,-12.695,-18.555,-12.695,-25.879,0.000,0
157445.137,-0.488,-18.555,-22.949,-24.414,0.000,0
157445.141,-16.113,-18.066,-25.879,-9.766,0.000,0
157445.145,-18.066,-14.648,-21.484,0.000,0.000,0
157445.149,-18.066,-14.160,-17.578,-12.695,0.000,2
157445.153,-22.949,-13.184,-17.090,-22.461,0.000,0
157445.157,-28.809,-11.719,-20.020,-17.578,0.000,0
157445.161,-23.438,-15.137,-21.484,-15.137,0.000,0
157445.165,-13.672,-15.137,-20.020,-14.160,0.000,0
157445.168,-20.020,-13.672,-20.020,-6.836,0.000,0
157445.172,-15.137,-22.461,-22.949,-10.742,0.000,0
157445.176,-20.020,-21.973,-25.391,-17.090,0.000,0
157445.180,-22.949,-16.602,-32.715,-12.207,0.000,0
157445.184,-12.207,-17.578,-33.691,-8.301,0.000,0
157445.188,-16.113,-14.160,-21.973,-4.883,0.000,0
157445.192,-17.090,-13.672,-17.090,-10.742,0.000,0
157445.196,-20.996,-16.602,-21.973,-18.066,0.000,0
157445.200,-30.762,-20.508,-26.855,-20.020,0.000,0
157445.204,-26.855,-20.996,-20.996,-5.371,0.000,0
157445.207,-15.137,-20.508,-16.602,7.324,0.000,0
157445.211,-16.602,-20.020,-17.578,-11.719,0.000,0
157445.215,-26.367,-15.625,-17.578,-10.254,0.000,0
157445.219,-22.949,-12.695,-13.672,4.395,0.000,0
157445.223,-18.066,-20.020,-19.531,-12.207,0.000,0
157445.227,-20.996,-25.879,-29.785,-22.949,0.000,0
157445.231,-29.297,-26.367,-19.043,-25.391,0.000,0
157445.235,-33.203,-27.832,-22.461,-33.203,0.000,0
157445.239,-26.855,-27.832,-33.203,-33.203,0.000,0
157445.243,-25.879,-29.785,-36.621,-23.926,0.000,0
157445.247,-27.832,-30.273,-36.133,-7.812,0.000,0
157445.250,-22.461,-31.738,-23.438,-15.137,0.000,0
157445.254,-24.902,-28.809,-23.438,-22.461,0.000,0
157445.258,-36.621,-33.691,-32.715,-11.719,0.000,0
157445.262,-41.992,-39.062,-35.156,-13.672,0.000,0
157445.266,-44.434,-33.203,-22.949,-28.320,0.000,0
157445.270,-31.250,-31.738,-20.020,-41.992,0.000,0
157445.274,-23.926,-33.691,-33.691,-50.781,0.000,0
157445.278,-38.086,-34.668,-28.809,-43.457,0.000,0
157445.282,-30.273,-33.203,-27.832,-21.973,0.000,0
157445.286,-26.367,-31.250,-36.133,-14.160,0.000,0
157445.290,-33.691,-26.855,-23.926,-35.156,0.000,0
157445.293,-34.668,-27.344,-25.391,-39.062,0.000,0
157445.297,-31.250,-23.926,-31.738,-18.066,0.000,0
157445.301,-19.043,-20.996,-21.484,-12.695,0.000,0
157445.305,-20.020,-24.414,-22.949,-5.371,0.000,0
157445.309,-37.109,-30.762,-26.855,-18.555,0.000,0
157445.313,-33.203,-28.809,-29.785,-35.156,0.000,0
157445.317,-26.855,-26.855,-38.086,-30.273,0.000,0
157445.321,-34.180,-27.832,-36.621,-20.508,0.000,0
157445.325,-36.621,-25.391,-28.809,-16.113,0.000,0
157445.329,-37.109,-34.668,-24.902,-33.203,0.000,0
157445.332,-25.879,-32.227,-24.902,-26.855,0.000,0
157445.336,-14.648,-26.367,-26.855,-12.207,0.000,0
157445.340,-22.949,-31.738,-28.809,-21.973,0.000,0
157445.344,-22.949,-27.344,-28.320,-21.973,0.000,0
157445.348,-14.160,-21.484,-17.578,-31.250,0.000,0
157445.352,-17.090,-19.531,-13.184,-37.598,0.000,0
157445.356,-17.090,-19.531,-19.531,-18.555,0.000,0
157445.360,-14.160,-21.484,-24.902,-21.484,0.000,0
157445.364,-6.836,-21.484,-32.715,-25.391,0.000,0
157445.368,-7.812,-19.531,-9.277,-30.762,0.000,0
157445.372,-10.742,-20.508,-1.953,-34.180,0.000,0
157445.375,-7.812,-20.508,-31.738,-19.531,0.000,0
157445.379,-4.883,-18.555,-22.461,-12.695,0.000,0
157445.383,-6.348,-18.066,-14.160,0.977,0.000,0
157445.387,0.000,-16.602,-6.348,-5.859,0.000,0
157445.391,1.953,-13.184,-2.441,-23.926,0.000,0
157445.395,-0.488,-13.672,-16.602,-7.812,0.000,0
157445.399,-1.953,-18.555,-17.578,8.789,0.000,0
157445.403,-3.418,-10.742,-10.742,5.371,0.000,0
157445.407,2.930,-6.348,-8.789,-2.930,0.000,0
157445.411,-4.395,-10.254,-9.766,-16.602,0.000,0
157445.415,-13.672,-7.812,-8.301,-9.277,0.000,0
157445.418,-8.301,-10.254,-8.789,-3.906,0.000,0
157445.422,-5.859,-14.648,-18.066,3.418,0.000,0
157445.426,-12.207,-12.207,-13.672,-4.883,0.000,0
157445.430,-9.766,-16.113,-9.766,-19.043,0.000,0
157445.434,-4.883,-19.043,-22.461,-8.301,0.000,0
157445.438,-11.230,-19.043,-23.438,-8.789,0.000,0
157445.442,-14.160,-14.160,-15.625,-8.301,0.000,0
157445.446,-13.184,-11.719,-13.184,-9.766,0.000,0
157445.450,-18.066,-16.113,-17.578,-19.043,0.000,0
157445.454,-24.414,-20.508,-28.809,-18.066,0.000,0
157445.457,-27.344,-26.855,-30.273,-12.207,0.000,0
157445.461,-20.996,-21.484,-20.996,9.766,0.000,0
157445.465,-8.789,-16.113,-23.438,8.301,0.000,0
157445.469,-14.648,-17.578,-24.414,-17.090,0.000,0
157445.473,-20.020,-14.648,-24.414,-18.066,0.000,0
157445.477,-22.461,-15.137,-31.738,-14.160,0.000,0
157445.481,-19.043,-20.996,-38.574,-14.648,0.000,0
157445.485,-14.160,-22.949,-27.832,-18.555,0.000,0
157445.489,-21.484,-25.879,-19.531,-24.902,0.000,0
157445.493,-23.926,-24.902,-23.926,-29.785,0.000,0
157445.497,-31.738,-18.066,-28.320,-20.508,0.000,0
157445.500,-36.133,-18.555,-35.645,-12.695,0.000,0
157445.504,-30.273,-19.043,-26.855,-11.230,0.000,0
157445.508,-30.762,-17.578,-17.090,-11.719,0.000,0
157445.512,-25.391,-16.113,-25.391,-9.277,0.000,0
157445.516,-16.602,-15.137,-22.461,-5.859,0.000,0
157445.520,-21.973,-18.066,-16.113,-11.719,0.000,0
157445.524,-24.414,-20.020,-19.531,-15.625,0.000,0
157445.528,-19.043,-22.949,-20.020,-19.043,0.000,0
157445.532,-22.461,-19.531,-14.160,-25.879,0.000,0
157445.536,-20.020,-20.996,-15.137,-15.625,0.000,0
157445.540,-24.414,-29.785,-25.391,-12.695,0.000,0
157445.543,-36.133,-34.668,-29.785,-19.531,0.000,0
157445.547,-39.062,-35.645,-18.555,-25.391,0.000,0
157445.551,-26.855,-30.273,-18.066,-27.832,0.000,0
157445.555,-11.719,-25.391,-28.809,-31.250,0.000,0
157445.559,-12.695,-25.391,-24.902,-29.297,0.000,0
157445.563,-23.438,-24.414,-20.996,-9.766,0.000,0
157445.567,-28.809,-27.832,-30.273,-20.508,0.000,0
157445.571,-22.461,-27.832,-33.203,-21.484,0.000,0
157445.575,-27.344,-32.227,-27.832,-23.926,0.000,0
157445.579,-35.645,-34.668,-29.785,-25.391,0.000,0
157445.582,-25.879,-27.832,-28.809,-3.906,0.000,0
157445.586,-21.484,-27.832,-18.066,-11.230,0.000,0
157445.590,-29.785,-31.738,-24.902,-19.531,0.000,0
157445.594,-26.855,-29.785,-30.273,-19.043,0.000,0
157445.598,-16.113,-29.785,-29.297,-17.090,0.000,0
157445.602,-10.742,-31.738,-38.574,-15.625,0.000,0
157445.606,-15.625,-29.297,-27.832,-18.066,0.000,0
157445.610,-20.508,-23.438,-11.719,-9.766,0.000,0
157445.614,-20.020,-20.996,-19.043,2.441,0.000,0
157445.618,-15.625,-22.461,-22.949,-1.953,0.000,0
157445.622,-15.137,-20.996,-18.555,0.000,0.000,0
157445.625,-18.555,-23.438,-14.160,-11.719,0.000,0
157445.629,-10.254,-25.879,-10.742,-23.926,0.000,0
157445.633,-21.484,-21.973,-14.648,-21.973,0.000,0
157445.637,-36.133,-17.578,-18.066,-6.348,0.000,0
157445.641,-23.438,-16.113,-19.531,11.230,0.000,0
157445.645,-17.090,-20.508,-15.137,-15.625,0.000,0
157445.649,-18.555,-28.320,-17.578,-15.137,0.000,0
157445.653,-16.602,-29.785,-27.832,4.883,0.000,0
157445.657,-17.090,-21.973,-26.855,-0.488,0.000,0
157445.661,-22.461,-22.949,-29.297,-7.812,0.000,0
157445.665,-22.461,-25.879,-21.484,-22.949,0.000,0
157445.668,-23.438,-30.273,-19.043,-27.344,0.000,0
157445.672,-28.320,-33.203,-31.738,-20.508,0.000,0
157445.676,-24.414,-31.250,-30.273,-26.367,0.000,0
157445.680,-29.297,-36.621,-35.156,-24.414,0.000,0
157445.684,-41.504,-39.551,-33.691,-24.902,0.000,0
157445.688,-27.832,-31.250,-28.320,-38.086,0.000,0
157445.692,-9.766,-28.809,-36.133,-27.832,0.000,0
157445.696,-11.719,-25.879,-27.832,-24.902,0.000,0
157445.700,-13.184,-19.043,-19.043,-8.301,0.000,0
157445.704,-8.301,-22.949,-13.672,-16.113,0.000,0
157445.707,-14.648,-29.785,-21.484,-42.480,0.000,0
157445.711,-25.879,-29.785,-35.645,-33.691,0.000,0
157445.715,-25.391,-29.785,-30.762,-25.391,0.000,0
157445.719,-16.113,-32.227,-35.156,-20.996,0.000,0
157445.723,-10.742,-27.832,-32.227,-27.344,0.000,0
157445.727,-13.184,-26.367,-20.020,-37.109,0.000,0
157445.731,-19.043,-35.645,-23.926,-40.039,0.000,0
157445.735,-23.926,-42.480,-28.320,-40.527,0.000,0
157445.739,-16.602,-39.062,-36.621,-23.926,0.000,0
157445.743,-22.949,-32.715,-28.809,-29.297,0.000,0
157445.747,-21.484,-30.762,-22.949,-35.156,0.000,0
157445.750,-6.836,-32.227,-24.902,-13.672,0.000,0
157445.754,-15.625,-34.180,-33.691,-9.277,0.000,0
157445.758,-22.949,-32.227,-45.410,-19.043,0.000,0
157445.762,-13.184,-35.156,-28.320,-21.973,0.000,0
157445.766,-8.301,-30.273,-17.090,-23.926,0.000,0
157445.770,-19.043,-22.461,-23.438,-26.367,0.000,0
157445.774,-28.809,-27.344,-28.809,-32.715,0.000,0
157445.778,-31.738,-32.227,-29.785,-25.391,0.000,0
157445.782,-24.902,-34.180,-28.809,-21.484,0.000,0
157445.786,-16.113,-34.180,-28.809,-25.391,0.000,0
157445.790,-24.414,-29.297,-24.414,-8.789,0.000,0
157445.793,-25.391,-23.438,-20.508,-9.277,0.000,0
157445.797,-13.672,-29.785,-27.344,-11.719,0.000,0
157445.801,-20.020,-32.715,-26.367,-11.719,0.000,0
157445.805,-20.996,-24.414,-24.902,-26.367,0.000,0
157445.809,-14.648,-21.484,-30.762,-29.785,0.000,0
157445.813,-20.508,-23.438,-31.738,-15.137,0.000,0
157445.817,-20.508,-25.391,-32.715,-5.859,0.000,0
157445.821,-15.137,-24.414,-29.297,-9.277,0.000,0
157445.825,-20.996,-24.414,-28.809,-21.973,0.000,1
157445.829,-20.996,-24.414,-33.203,-18.066,0.000,0
157445.832,-14.160,-27.832,-25.391,-8.301,0.000,0
157445.836,-26.855,-25.879,-22.949,-13.672,0.000,0
157445.840,-27.832,-20.508,-28.809,-16.602,0.000,0
157445.844,-12.695,-20.020,-26.367,-23.438,0.000,0
157445.848,-15.625,-20.020,-22.949,-31.738,0.000,0
157445.852,-20.996,-22.949,-31.250,-17.090,0.000,0
157445.856,-14.648,-28.320,-38.574,-1.465,0.000,0
157445.860,-15.625,-31.738,-36.621,-4.395,0.000,0
157445.864,-22.949,-25.879,-33.203,-13.184,0.000,0
157445.868,-28.809,-24.902,-32.715,-7.812,0.000,0
157445.872,-32.715,-30.762,-34.180,-9.277,0.000,0
157445.875,-34.180,-24.414,-33.691,-3.906,0.000,0
157445.879,-30.273,-19.043,-23.926,15.137,0.000,0
157445.883,-21.973,-27.344,-14.648,-10.742,0.000,0
157445.887,-20.508,-28.320,-25.879,-20.020,0.000,0
157445.891,-29.785,-23.438,-33.203,7.812,0.000,0
157445.895,-25.391,-25.391,-29.297,2.441,0.000,0
157445.899,-20.020,-23.926,-23.438,-9.766,0.000,0
157445.903,-20.020,-24.414,-19.043,-15.625,0.000,0
157445.907,-30.273,-27.344,-22.949,-26.855,0.000,0
157445.911,-30.762,-26.855,-24.902,-24.902,0.000,0
157445.915,-29.785,-28.320,-25.391,-20.996,0.000,0
157445.918,-27.832,-30.273,-33.203,-15.625,0.000,0
157445.922,-26.855,-31.250,-25.879,-29.297,0.000,0
157445.926,-40.527,-25.391,-21.484,-31.250,0.000,0
157445.930,-27.832,-24.414,-35.645,-19.043,0.000,0
157445.934,-21.973,-30.273,-41.504,-23.926,0.000,0
157445.938,-24.902,-29.785,-32.227,-6.348,0.000,0
157445.942,-23.926,-26.367,-19.531,-24.414,0.000,0
157445.946,-32.227,-26.855,-26.855,-45.898,0.000,0
157445.950,-33.691,-32.715,-38.574,-36.133,0.000,0
157445.954,-30.762,-32.227,-32.227,-25.879,0.000,0
157445.957,-34.180,-26.855,-30.273,-18.066,0.000,0
157445.961,-40.039,-24.414,-26.855,-39.062,0.000,0
157445.965,-50.781,-26.855,-28.320,-39.062,0.000,0
157445.969,-49.805,-29.785,-35.156,-22.949,0.000,0
157445.973,-39.062,-27.832,-33.203,-31.738,0.000,0
157445.977,-37.109,-31.250,-38.574,-32.715,0.000,0
157445.981,-33.691,-25.879,-32.227,-31.738,0.000,0
157445.985,-32.715,-27.832,-25.879,-43.457,0.000,0
157445.989,-29.297,-31.738,-26.855,-34.668,0.000,0
157445.993,-24.414,-24.414,-31.250,-16.113,0.000,0
157445.997,-27.344,-28.809,-26.855,-14.160,0.000,0
157446.000,-27.344,-27.832,-9.277,-24.414,0.000,0
157446.004,-29.297,-16.602,-7.812,-29.785,0.000,0
157446.008,-18.066,-19.531,-29.785,-11.230,0.000,0
157446.012,3.418,-20.996,-29.297,-5.859,0.000,0
157446.016,-19.043,-15.625,-20.508,-18.555,0.000,0
157446.020,-30.273,-19.043,-28.809,-35.156,0.000,0
157446.024,-21.973,-14.648,-31.738,-43.457,0.000,0
157446.028,-29.785,-17.578,-33.691,-31.250,0.000,0
157446.032,-28.809,-22.949,-38.086,-18.066,0.000,0
157446.036,-24.902,-13.184,-33.203,-23.438,0.000,0
157446.040,-35.645,-16.113,-25.879,-47.852,0.000,0
157446.043,-42.480,-17.578,-24.902,-63.477,0.000,0
157446.047,-31.250,-17.578,-29.785,-45.410,0.000,0
157446.051,-17.578,-22.949,-27.832,-34.180,0.000,0
157446.055,-20.020,-21.973,-25.391,-28.809,0.000,0
157446.059,-32.227,-14.160,-21.973,-28.320,0.000,0
157446.063,-30.762,-10.742,-17.578,-21.484,0.000,0
157446.067,-17.578,-15.625,-24.414,-20.508,0.000,0
157446.071,-16.113,-16.602,-23.438,-23.438,0.000,0
157446.075,-23.438,-15.625,-19.043,-19.043,0.000,0
157446.079,-17.578,-17.090,-14.160,-32.227,0.000,0
157446.082,-9.766,-17.578,-19.531,-35.156,0.000,0
157446.086,-18.066,-17.090,-17.578,-34.668,0.000,0
157446.090,-18.555,-16.602,-25.391,-19.043,0.000,0
157446.094,-4.883,-15.625,-32.227,4.883,0.000,0
157446.098,-8.789,-18.555,-17.090,-17.578,0.000,0
157446.102,-13.184,-23.438,-12.695,-23.438,0.000,0
157446.106,-18.066,-19.043,-13.184,-0.488,0.000,0
157446.110,-12.207,-16.602,-23.438,-7.812,0.000,0
157446.114,-7.324,-17.578,-27.344,-10.254,0.000,0
157446.118,-22.949,-19.531,-6.836,-15.137,0.000,0
157446.122,-26.855,-25.391,-18.066,-23.438,0.000,0
157446.125,-19.043,-25.879,-36.621,-20.996,0.000,0
157446.129,-15.625,-27.832,-31.738,-5.859,0.000,0
157446.133,-14.160,-29.297,-24.414,10.254,0.000,0
157446.137,-11.719,-20.996,-18.555,-13.672,0.000,0
157446.141,-15.625,-18.066,-23.438,-23.926,0.000,0
157446.145,-15.625,-21.973,-30.273,-17.578,0.000,0
157446.149,-15.137,-26.367,-22.461,-19.531,0.000,0
157446.153,-21.484,-28.809,-19.531,-16.602,0.000,0
157446.157,-24.414,-25.391,-25.391,-22.949,0.000,0
157446.161,-26.367,-27.344,-31.738,-26.855,0.000,0
157446.165,-25.391,-34.180,-26.855,-14.160,0.000,0
157446.168,-22.949,-32.715,-35.156,-14.160,0.000,0
157446.172,-25.879,-27.344,-41.504,-16.113,0.000,0
157446.176,-25.879,-26.367,-33.691,-18.555,0.000,0
157446.180,-28.809,-28.320,-33.691,-21.973,0.000,0
157446.184,-25.391,-31.738,-48.828,-15.625,0.000,0
157446.188,-20.020,-26.855,-45.410,-14.648,0.000,0
157446.192,-20.020,-19.043,-29.785,-9.277,0.000,0
157446.196,-12.695,-19.043,-20.508,-1.953,0.000,0
157446.200,-7.812,-20.996,-18.066,-22.461,0.000,0
157446.204,-19.043,-22.461,-24.902,-32.715,0.000,0
157446.207,-30.762,-24.414,-26.367,-28.320,0.000,0
157446.211,-13.184,-26.855,-26.367,-17.578,0.000,0
157446.215,-6.348,-23.438,-25.879,-20.020,0.000,0
157446.219,-16.113,-20.020,-19.531,-32.227,0.000,0
157446.223,-20.020,-14.648,-15.625,-22.461,0.000,0
157446.227,-22.949,-17.090,-24.414,-22.949,0.000,0
157446.231,-18.066,-20.508,-29.297,-9.277,0.000,0
157446.235,-17.578,-17.578,-21.973,-1.465,0.000,0
157446.239,-22.461,-21.973,-20.020,-22.949,0.000,0
157446.243,-23.438,-26.367,-26.855,-24.902,0.000,0
157446.247,-21.973,-23.438,-28.320,-11.230,0.000,0
157446.250,-17.578,-25.391,-23.926,2.930,0.000,0
157446.254,-19.531,-20.996,-17.090,-7.324,0.000,0
157446.258,-10.742,-19.531,-22.461,-22.949,0.000,0
157446.262,-8.301,-27.832,-31.250,-27.344,0.000,0
157446.266,-19.531,-26.855,-28.320,-32.227,0.000,0
157446.270,-22.461,-30.273,-34.180,-12.695,0.000,0
157446.274,-20.020,-30.762,-33.203,-7.812,0.000,0
157446.278,-10.254,-26.367,-22.461,-10.742,0.000,0
157446.282,-8.789,-25.391,-18.555,2.930,0.000,0
157446.286,-18.555,-30.273,-23.438,0.488,0.000,0
157446.290,-18.066,-27.832,-26.367,-8.789,0.000,0
157446.293,-20.996,-27.344,-24.902,-12.695,0.000,0
157446.297,-25.879,-31.738,-20.996,-18.066,0.000,0
157446.301,-24.414,-23.926,-22.461,-18.066,0.000,0
157446.305,-11.230,-21.484,-34.180,-16.602,0.000,0
157446.309,-7.812,-20.508,-32.715,-3.418,0.000,0
157446.313,-18.066,-18.066,-15.137,3.906,0.000,0
157446.317,-11.719,-16.113,-11.719,-11.719,0.000,0
157446.321,-14.160,-15.625,-22.949,-4.395,0.000,0
157446.325,-20.508,-19.531,-22.461,-1.953,0.000,0
157446.329,-20.020,-14.160,-19.043,-7.324,0.000,0
157446.332,-20.996,-11.719,-22.461,-8.301,0.000,0
157446.336,-22.949,-16.113,-20.508,-23.438,0.000,0
157446.340,-26.367,-16.113,-28.320,-21.973,0.000,0
157446.344,-26.855,-16.602,-27.832,-14.648,0.000,0
157446.348,-19.531,-14.648,-27.832,-11.719,0.000,0
157446.352,-14.648,-18.555,-32.227,-15.137,0.000,0
157446.356,-19.531,-25.391,-28.809,-24.414,0.000,0
157446.360,-39.551,-25.879,-28.320,-21.973,0.000,0
157446.364,-35.156,-24.414,-29.297,-21.973,0.000,0
157446.368,-15.625,-24.414,-28.320,-12.207,0.000,0
157446.372,-24.902,-27.344,-27.832,-17.090,0.000,0
157446.375,-31.738,-26.367,-17.578,-38.086,0.000,0
157446.379,-22.461,-28.320,-22.461,-27.832,0.000,0
157446.383,-20.996,-32.227,-28.320,-8.789,0.000,0
157446.387,-37.109,-26.367,-25.879,-14.648,0.000,0
157446.391,-33.691,-30.273,-32.715,-18.555,0.000,0
157446.395,-36.133,-38.574,-34.180,-25.879,0.000,0
157446.399,-42.480,-34.180,-31.250,-33.203,0.000,1
157446.403,-37.109,-26.855,-20.996,-16.113,0.000,0
157446.407,-31.738,-28.809,-30.273,-19.531,0.000,0
157446.411,-27.344,-24.414,-36.133,-26.855,0.000,0
157446.415,-25.391,-20.020,-19.043,-29.785,0.000,0
157446.418,-28.809,-25.879,-24.902,-30.762,0.000,0
157446.422,-21.973,-31.738,-37.598,-21.484,0.000,0
157446.426,-16.113,-30.762,-33.203,-19.531,0.000,0
157446.430,-15.137,-27.344,-28.320,-16.113,0.000,0
157446.434,-12.207,-29.297,-22.461,-17.578,0.000,0
157446.438,-21.484,-25.879,-20.508,-37.109,0.000,0
157446.442,-26.855,-20.996,-29.785,-44.922,0.000,0
157446.446,-31.250,-26.855,-25.879,-37.598,0.000,0
157446.450,-34.668,-33.691,-18.066,-31.250,0.000,0
157446.454,-27.832,-32.227,-21.484,-42.969,0.000,0
157446.457,-27.832,-31.738,-25.879,-41.016,0.000,0
157446.461,-29.785,-35.156,-30.762,-17.578,0.000,0
157446.465,-23.926,-30.273,-26.367,-17.090,0.000,0
157446.469,-23.438,-26.367,-24.902,-15.625,0.000,0
157446.473,-29.785,-29.297,-23.438,-21.973,0.000,0
157446.477,-29.785,-27.832,-18.555,-32.227,0.000,0
157446.481,-31.250,-29.785,-21.973,-31.738,0.000,0
157446.485,-25.879,-27.832,-29.297,-23.438,0.000,0
157446.489,-20.508,-21.973,-38.574,-20.508,0.000,0
157446.493,-31.250,-19.043,-20.020,-29.297,0.000,0
157446.497,-20.020,-16.113,-5.371,-23.926,0.000,0
157446.500,-13.672,-23.438,-31.738,-15.625,0.000,0
157446.504,-22.461,-24.902,-29.297,-21.484,0.000,0
157446.508,-23.926,-24.902,-17.578,-22.949,0.000,0
157446.512,-22.461,-23.926,-23.926,-32.227,0.000,0
157446.516,-18.555,-18.066,-19.531,-38.086,0.000,0
157446.520,-12.695,-21.973,-13.672,-22.461,0.000,0
157446.524,-13.672,-23.926,-22.461,-9.766,0.000,0
157446.528,-17.578,-19.531,-27.344,-11.230,0.000,0
157446.532,-16.602,-21.973,-22.949,-22.949,0.000,0
157446.536,-20.508,-22.461,-14.160,-31.250,0.000,0
157446.540,-23.926,-15.625,-12.695,-24.902,0.000,0
157446.543,-10.254,-12.207,-23.438,-24.902,0.000,0
157446.547,-9.277,-13.184,-24.414,-14.648,0.000,0
157446.551,-10.254,-15.137,-15.625,-10.254,0.000,0
157446.555,-6.348,-19.043,-12.695,-19.531,0.000,0
157446.559,-13.184,-18.555,-15.625,-15.137,0.000,0
157446.563,-7.324,-19.531,-17.578,0.000,0.000,0
157446.567,-9.766,-19.531,-17.090,2.441,0.000,0
157446.571,-20.508,-18.555,-15.137,-1.953,0.000,0
157446.575,-23.438,-22.461,-19.531,-24.414,0.000,0
157446.579,-31.738,-23.926,-24.902,-33.203,0.000,0
157446.582,-39.551,-26.855,-24.414,-20.996,0.000,0
157446.586,-32.227,-28.320,-32.715,-5.371,0.000,0
157446.590,-20.996,-32.715,-32.715,-5.371,0.000,0
157446.594,-26.855,-34.180,-23.926,-31.738,0.000,0
157446.598,-31.738,-26.855,-16.113,-28.320,0.000,0
157446.602,-17.578,-21.973,-25.391,-3.906,0.000,0
157446.606,-16.113,-26.367,-35.156,-8.789,0.000,0
157446.610,-20.508,-25.879,-29.297,-22.949,0.000,0
157446.614,-19.531,-26.367,-20.996,-25.391,0.000,0
157446.618,-20.508,-28.809,-26.855,-21.973,0.000,0
157446.622,-27.832,-26.855,-27.344,-27.832,0.000,0
157446.625,-36.621,-23.926,-27.344,-15.625,0.000,0
157446.629,-33.203,-27.832,-25.879,-14.648,0.000,0
157446.633,-16.602,-35.645,-25.391,-28.809,0.000,0
157446.637,-23.438,-33.203,-35.645,-22.461,0.000,0
157446.641,-31.738,-36.621,-39.062,-20.996,0.000,0
157446.645,-24.902,-38.574,-31.738,-13.672,0.000,0
157446.649,-30.762,-31.250,-32.227,-16.602,0.000,0
157446.653,-36.621,-32.715,-31.250,-39.551,0.000,0
157446.657,-42.969,-38.086,-33.691,-42.969,0.000,0
157446.661,-38.086,-37.109,-36.133,-36.133,0.000,0
157446.665,-27.832,-29.297,-32.227,-20.508,0.000,0
157446.668,-37.598,-29.785,-28.809,-21.484,0.000,0
157446.672,-40.039,-33.203,-18.066,-25.879,0.000,0
157446.676,-28.809,-30.273,-23.438,-1.953,0.000,0
157446.680,-28.809,-31.250,-34.180,-2.930,0.000,0
157446.684,-29.297,-31.738,-33.691,-18.066,0.000,0
157446.688,-29.785,-32.715,-27.344,-25.879,0.000,0
157446.692,-37.598,-43.457,-26.855,-40.527,0.000,0
157446.696,-33.691,-40.039,-33.203,-39.062,0.000,0
157446.700,-25.879,-35.645,-24.902,-20.508,0.000,0
157446.704,-28.809,-35.645,-29.785,-6.348,0.000,0
157446.707,-29.785,-29.785,-36.133,-9.766,0.000,0
157446.711,-33.203,-31.738,-23.926,-23.926,0.000,0
157446.715,-34.668,-32.715,-25.879,-27.832,0.000,0
157446.719,-30.273,-28.320,-28.320,-29.785,0.000,0
157446.723,-22.949,-26.855,-28.320,-31.738,0.000,0
157446.727,-10.254,-28.320,-28.320,-20.020,0.000,0
157446.731,-14.648,-26.855,-11.719,-24.902,0.000,0
157446.735,-22.461,-18.066,-5.859,-23.438,0.000,0
157446.739,-20.508,-20.020,-22.949,-10.742,0.000,0
157446.743,-22.949,-21.484,-24.414,-14.648,0.000,0
157446.747,-27.832,-22.461,-16.602,-9.766,0.000,0
157446.750,-26.367,-27.344,-9.277,-30.273,0.000,0
157446.754,-18.066,-23.926,-12.207,-40.527,0.000,0
157446.758,-28.809,-31.738,-30.273,-34.180,0.000,0
157446.762,-35.156,-40.527,-26.367,-30.273,0.000,0
157446.766,-24.414,-32.227,-24.902,-10.742,0.000,0
157446.770,-25.879,-27.832,-20.020,-25.391,0.000,0
157446.774,-35.156,-27.832,-13.184,-28.320,0.000,0
157446.778,-30.762,-27.832,-20.020,-2.441,0.000,0
157446.782,-21.973,-28.809,-19.531,-7.812,0.000,0
157446.786,-27.832,-35.156,-23.926,-18.066,0.000,0
157446.790,-42.969,-35.645,-25.391,-42.969,0.000,0
157446.793,-44.434,-30.762,-20.020,-51.270,0.000,0
157446.797,-34.180,-32.715,-15.137,-31.250,0.000,0
157446.801,-35.645,-30.762,-17.090,-35.156,0.000,0
157446.805,-36.133,-27.832,-22.461,-27.832,0.000,0
157446.809,-37.109,-29.785,-24.902,-30.273,0.000,0
157446.813,-27.832,-24.902,-27.832,-28.320,0.000,0
157446.817,-16.602,-25.391,-35.645,-14.160,0.000,0
157446.821,-25.879,-25.879,-26.855,-27.832,0.000,0
157446.825,-34.668,-22.949,-20.508,-23.438,0.000,0
157446.829,-26.855,-24.414,-27.344,-20.020,0.000,0
157446.832,-27.344,-24.414,-20.508,-33.203,0.000,0
157446.836,-24.902,-24.902,-21.484,-32.227,0.000,0
157446.840,-21.973,-27.832,-29.785,-16.602,0.000,0
157446.844,-21.973,-24.902,-27.832,-20.996,0.000,0
157446.848,-24.414,-20.020,-21.484,-37.109,0.000,0
157446.852,-27.344,-20.996,-17.578,-28.809,0.000,0
157446.856,-33.203,-20.508,-24.414,-25.391,0.000,0
157446.860,-35.645,-25.879,-34.668,-36.621,0.000,0
157446.864,-30.762,-22.461,-27.344,-32.715,0.000,0
157446.868,-29.785,-19.043,-7.324,-26.855,0.000,0
157446.872,-19.043,-16.602,-7.812,-29.785,0.000,0
157446.875,-12.695,-16.113,-24.902,-27.344,0.000,0
157446.879,-17.578,-19.531,-25.391,-14.648,0.000,0
157446.883,-21.484,-18.066,-18.066,-6.836,0.000,0
157446.887,-22.949,-23.926,-19.043,-19.043,0.000,0
157446.891,-31.250,-29.297,-21.484,-33.203,0.000,0
157446.895,-37.598,-24.414,-24.902,-32.227,0.000,0
157446.899,-29.785,-19.043,-25.879,-24.414,0.000,0
157446.903,-26.855,-16.602,-28.320,-22.461,0.000,0
157446.907,-27.344,-22.461,-33.691,-35.156,0.000,0
157446.911,-31.250,-22.949,-30.762,-36.621,0.000,0
157446.915,-18.066,-22.949,-30.273,-26.367,0.000,0
157446.918,-4.883,-27.832,-32.227,-25.879,0.000,0
157446.922,-16.113,-25.879,-32.227,-20.996,0.000,0
157446.926,-21.484,-23.926,-27.832,-29.297,0.000,0
157446.930,-20.508,-27.832,-28.320,-35.645,0.000,0
157446.934,-27.832,-28.320,-35.645,-32.227,0.000,0
157446.938,-39.062,-29.785,-41.016,-34.180,0.000,0
157446.942,-41.016,-29.297,-42.480,-24.902,0.000,0
157446.946,-29.297,-28.809,-33.203,-27.832,0.000,0
157446.950,-26.855,-28.809,-29.297,-24.414,0.000,0
157446.954,-32.227,-28.320,-35.156,-8.789,0.000,0
157446.957,-42.480,-29.785,-37.109,-18.066,0.000,0
157446.961,-33.203,-32.227,-33.203,-25.879,0.000,0
157446.965,-28.809,-29.785,-20.508,-38.086,0.000,0
157446.969,-41.016,-27.344,-22.461,-44.922,0.000,0
157446.973,-31.250,-25.879,-26.855,-24.902,0.000,0
157446.977,-26.367,-28.809,-29.297,-16.113,0.000,0
157446.981,-34.180,-26.367,-31.250,-20.508,0.000,0
157446.985,-31.738,-31.250,-18.555,-33.691,0.000,0
157446.989,-28.320,-36.133,-23.438,-29.785,0.000,0
157446.993,-23.926,-27.832,-29.297,-12.695,0.000,0
157446.997,-19.043,-19.043,-20.508,-18.066,0.000,0
157447.000,-20.020,-21.484,-15.137,-13.184,0.000,0
157447.004,-20.508,-19.531,-13.184,-29.297,0.000,0
157447.008,-12.695,-15.137,-19.531,-43.945,0.000,0
157447.012,-8.301,-16.113,-21.484,-30.273,0.000,0
157447.016,-13.672,-20.996,-32.715,-10.742,0.000,0
157447.020,-18.066,-27.344,-38.086,-9.277,0.000,0
157447.024,-20.020,-27.344,-25.879,-25.879,0.000,0
157447.028,-23.438,-29.785,-28.320,-23.926,0.000,0
157447.032,-22.461,-25.879,-32.227,-12.695,0.000,0
157447.036,-14.160,-22.461,-28.320,-18.066,0.000,0
157447.040,-10.742,-20.508,-21.973,-15.625,0.000,0
157447.043,-20.996,-21.973,-13.672,-19.531,0.000,0
157447.047,-20.508,-24.902,-15.137,-28.320,0.000,0
157447.051,-15.137,-20.996,-23.438,-11.719,0.000,0
157447.055,-17.578,-22.949,-22.949,1.953,0.000,0
157447.059,-21.484,-23.438,-18.555,-6.836,0.000,0
157447.063,-23.438,-24.902,-15.137,-33.203,0.000,0
157447.067,-17.578,-24.414,-17.090,-37.598,0.000,0
157447.071,-6.348,-18.555,-19.043,-23.438,0.000,0
157447.075,-6.836,-24.902,-17.090,-24.902,0.000,0
157447.079,-11.719,-27.832,-18.555,-16.602,0.000,0
157447.082,-13.184,-20.020,-8.301,-17.578,0.000,0
157447.086,-20.020,-19.043,0.000,-31.738,0.000,0
157447.090,-24.414,-20.020,-12.207,-24.902,0.000,0
157447.094,-11.719,-23.438,-24.414,-10.254,0.000,0
157447.098,0.977,-20.508,-23.438,-7.324,0.000,1
157447.102,-1.953,-24.902,-14.160,-9.766,0.000,0
157447.106,-8.301,-28.809,-8.789,-23.926,0.000,0
157447.110,-7.324,-23.438,-15.625,-20.020,0.000,0
157447.114,-7.324,-26.855,-17.578,-22.949,0.000,0
157447.118,-14.648,-30.273,-24.902,-11.719,0.000,0
157447.122,-13.184,-30.273,-26.855,-2.441,0.000,0
157447.125,-13.672,-23.926,-16.602,-19.043,0.000,0
157447.129,-19.531,-27.344,-30.273,-12.207,0.000,0
157447.133,-21.484,-33.203,-38.574,-0.488,0.000,0
157447.137,-31.738,-25.391,-34.180,-2.930,0.000,0
157447.141,-28.809,-25.391,-40.039,-11.719,0.000,0
157447.145,-12.207,-26.367,-42.480,-22.949,0.000,0
157447.149,-18.066,-22.461,-33.691,-26.367,0.000,0
157447.153,-22.949,-21.973,-25.391,-21.484,0.000,0
157447.157,-20.996,-23.438,-40.039,-16.113,0.000,0
157447.161,-26.367,-28.809,-42.480,-16.602,0.000,0
157447.165,-23.438,-28.809,-26.855,-20.996,0.000,0
157447.168,-23.926,-27.344,-33.691,-17.578,0.000,0
157447.172,-19.043,-27.832,-36.621,-18.555,0.000,0
157447.176,-12.695,-27.344,-31.738,-20.508,0.000,0
157447.180,-26.367,-32.227,-29.297,-20.508,0.000,0
157447.184,-37.109,-29.785,-22.461,-38.086,0.000,0
157447.188,-28.320,-29.297,-24.414,-29.785,0.000,0
157447.192,-26.367,-27.344,-28.809,-13.184,0.000,0
157447.196,-37.109,-23.438,-25.879,-16.602,0.000,0
157447.200,-29.297,-26.367,-23.926,-12.207,0.000,0
157447.204,-16.113,-28.809,-24.902,-11.230,0.000,0
157447.207,-20.508,-28.809,-26.855,-14.648,0.000,0
157447.211,-15.625,-22.461,-22.949,-9.277,0.000,0
157447.215,-12.207,-20.020,-8.789,-19.531,0.000,0
157447.219,-14.160,-22.461,-15.137,-22.949,0.000,0
157447.223,-13.672,-19.043,-21.484,-22.461,0.000,0
157447.227,-20.996,-18.066,-11.230,-25.391,0.000,0
157447.231,-20.996,-25.879,-17.090,-6.836,0.000,0
157447.235,-19.531,-27.344,-29.785,-5.859,0.000,0
157447.239,-24.902,-19.043,-28.809,-19.531,0.000,0
157447.243,-17.578,-18.555,-12.207,-20.508,0.000,0
157447.247,-17.578,-20.508,-20.020,-21.484,0.000,0
157447.250,-26.855,-22.949,-34.668,-24.902,0.000,0
157447.254,-24.902,-22.949,-29.785,-17.090,0.000,0
157447.258,-25.391,-27.832,-26.367,-7.812,0.000,0
157447.262,-26.855,-31.738,-22.461,-25.879,0.000,0
157447.266,-28.320,-21.484,-24.902,-24.902,0.000,0
157447.270,-27.832,-22.461,-34.180,-9.277,0.000,0
157447.274,-22.461,-25.879,-29.297,-16.602,0.000,0
157447.278,-32.715,-22.949,-22.461,-16.602,0.000,0
157447.282,-32.227,-23.438,-22.949,-26.855,0.000,0
157447.286,-25.879,-27.344,-21.484,-29.785,0.000,0
157447.290,-27.344,-27.344,-19.043,-25.391,0.000,0
157447.293,-20.508,-24.414,-26.367,-22.461,0.000,0
157447.297,-16.602,-23.438,-25.879,-6.836,0.000,0
157447.301,-15.625,-21.484,-17.090,-19.043,0.000,0
157447.305,-14.160,-12.695,-19.043,-18.555,0.000,0
157447.309,-5.371,-6.348,-23.438,-2.441,0.000,0
157447.313,-8.301,-14.648,-20.020,-12.207,0.000,0
157447.317,-21.484,-18.066,-7.812,-28.320,0.000,0
157447.321,-14.648,-16.602,-6.836,-28.320,0.000,0
157447.325,-12.695,-16.113,-15.625,-14.160,0.000,0
157447.329,-19.531,-11.230,-5.371,0.488,0.000,0
157447.332,-8.789,-1.465,-0.488,18.555,0.000,0
157447.336,-0.977,-5.371,-22.461,11.230,0.000,0
157447.340,-6.348,-23.926,-27.344,-13.184,0.000,0
157447.344,-10.742,-22.461,-16.113,-11.230,0.000,0
157447.348,-11.719,-8.789,-15.137,0.977,0.000,0
157447.352,-11.719,-16.113,-20.996,-7.812,0.000,0
157447.356,-10.742,-21.973,-25.391,-13.672,0.000,0
157447.360,4.395,-18.555,-17.090,-8.301,0.000,0
157447.364,16.602,-18.066,-14.160,-0.488,0.000,0
157447.368,-21.484,-19.531,-25.879,-29.297,0.000,0
157447.372,-49.805,-18.066,-31.738,-45.898,0.000,0
157447.375,-32.227,-11.719,-23.438,-21.484,0.000,0
157447.379,-21.973,-16.602,-14.160,-30.762,0.000,0
157447.383,-19.043,-20.996,-18.555,-41.992,0.000,0
157447.387,-25.391,-24.414,-25.879,-41.504,0.000,0
157447.391,-30.273,-26.367,-20.508,-43.945,0.000,0
157447.395,-23.438,-24.414,-21.484,-18.555,0.000,0
157447.399,-20.020,-22.949,-24.414,-19.531,0.000,0
157447.403,-23.438,-18.066,-21.484,-34.180,0.000,0
157447.407,-29.297,-20.508,-35.156,-15.137,0.000,0
157447.411,-28.320,-23.926,-41.992,-16.113,0.000,0
157447.415,-21.973,-16.113,-24.902,-17.578,0.000,0
157447.418,-24.902,-11.230,-9.277,-12.695,0.000,0
157447.422,-32.227,-19.043,-17.090,-24.414,0.000,0
157447.426,-27.832,-26.855,-30.273,-24.902,0.000,0
157447.430,-15.625,-19.043,-21.484,-12.695,0.000,0
157447.434,-9.766,-20.996,-18.555,-0.488,0.000,0
157447.438,-18.066,-24.902,-23.438,-8.301,0.000,0
157447.442,-24.902,-22.949,-18.555,-23.438,0.000,0
157447.446,-21.484,-23.926,-23.926,-14.648,0.000,0
157447.450,-21.484,-22.461,-25.391,-9.277,0.000,0
157447.454,-22.949,-28.809,-26.855,-14.648,0.000,0
157447.457,-28.320,-34.180,-30.762,-25.391,0.000,0
157447.461,-32.715,-28.320,-22.949,-32.227,0.000,0
157447.465,-35.645,-21.484,-21.484,-18.066,0.000,0
157447.469,-34.668,-20.508,-20.508,-19.043,0.000,0
157447.473,-27.344,-20.996,-22.949,-24.414,0.000,0
157447.477,-18.555,-24.414,-20.508,-17.578,0.000,0
157447.481,-15.137,-25.879,-8.301,-17.090,0.000,0
157447.485,-6.836,-15.625,-12.695,-0.488,0.000,0
157447.489,-4.395,-19.531,-30.762,-8.789,0.000,0
157447.493,-22.949,-24.902,-29.785,-24.414,0.000,0
157447.497,-29.297,-20.020,-17.090,-10.742,0.000,0
157447.500,-26.855,-22.949,-16.113,-16.602,0.000,0
157447.504,-22.949,-24.414,-24.414,-28.809,0.000,0
157447.508,-25.391,-28.320,-24.902,-17.090,0.000,0
157447.512,-35.156,-25.879,-17.090,-4.883,0.000,0
157447.516,-31.738,-20.996,-18.066,-12.207,0.000,0
157447.520,-19.531,-20.996,-22.949,-17.578,0.000,0
157447.524,-17.578,-19.043,-18.066,-3.906,0.000,0
157447.528,-26.855,-20.508,-3.906,1.465,0.000,0
157447.532,-25.391,-29.297,-21.484,-11.719,0.000,0
157447.536,-23.926,-30.762,-36.621,-14.648,0.000,0
157447.540,-28.809,-24.414,-19.043,-18.555,0.000,0
157447.543,-22.949,-24.414,-14.160,-23.438,0.000,0
157447.547,-17.578,-30.762,-30.273,-20.020,0.000,0
157447.551,-14.648,-35.156,-31.738,-16.113,0.000,0
157447.555,-19.043,-30.273,-23.438,-19.531,0.000,0
157447.559,-28.320,-30.273,-25.391,-28.320,0.000,0
157447.563,-23.438,-27.832,-34.180,-31.738,0.000,0
157447.567,-19.531,-21.973,-25.391,-25.391,0.000,0
157447.571,-31.738,-24.414,-17.578,-11.230,0.000,0
157447.575,-25.391,-31.250,-27.832,-10.742,0.000,0
157447.579,-13.184,-33.691,-22.949,-21.973,0.000,0
157447.582,-20.996,-24.414,-18.555,-14.648,0.000,0
157447.586,-24.414,-24.902,-25.391,-2.930,0.000,0
157447.590,-17.578,-25.391,-24.414,1.953,0.000,0
157447.594,-20.020,-22.461,-17.090,-4.395,0.000,0
157447.598,-25.879,-23.926,-16.113,-27.832,0.000,0
157447.602,-26.367,-25.879,-16.602,-30.762,0.000,0
157447.606,-23.926,-35.645,-25.391,-19.531,0.000,0
157447.610,-17.090,-30.273,-31.738,-12.695,0.000,0
157447.614,-20.996,-25.391,-13.672,-20.508,0.000,0
157447.618,-20.996,-20.996,-7.324,-31.738,0.000,0
157447.622,-11.719,-23.438,-26.855,-18.555,0.000,0
157447.625,-10.742,-32.715,-25.879,-8.301,0.000,0
157447.629,-11.230,-22.949,-15.137,-9.277,0.000,0
157447.633,-15.625,-26.367,-24.414,-6.348,0.000,0
157447.637,-17.090,-33.203,-24.414,-20.508,0.000,0
157447.641,-13.672,-33.691,-25.879,-28.320,0.000,0
157447.645,-21.484,-36.133,-27.832,-26.367,0.000,0
157447.649,-26.855,-34.668,-38.086,-15.625,0.000,0
157447.653,-24.414,-32.715,-41.016,-18.555,0.000,0
157447.657,-21.484,-33.691,-29.785,-28.320,0.000,0
157447.661,-20.508,-32.227,-22.949,-29.785,0.000,0
157447.665,-20.020,-36.621,-37.109,-25.391,0.000,0
157447.668,-20.508,-32.227,-43.457,0.000,0.000,0
157447.672,-17.090,-23.438,-29.297,-9.766,0.000,1
157447.676,-21.484,-30.762,-32.227,-27.832,0.000,0
157447.680,-21.484,-33.203,-34.180,-22.461,0.000,0
157447.684,-22.461,-23.926,-28.809,-14.648,0.000,0
157447.688,-30.273,-23.926,-31.738,-11.719,0.000,0
157447.692,-21.973,-25.391,-27.832,-29.785,0.000,0
157447.696,-14.648,-25.391,-25.391,-27.344,0.000,0
157447.700,-19.531,-24.414,-26.855,-13.184,0.000,0
157447.704,-20.996,-24.902,-26.367,-13.672,0.000,0
157447.707,-3.906,-23.926,-35.156,-1.953,0.000,0
157447.711,0.488,-23.926,-31.738,-17.578,0.000,0
157447.715,-11.719,-23.926,-21.484,-34.668,0.000,0
157447.719,-20.020,-20.508,-30.273,-16.113,0.000,0
157447.723,-16.602,-24.902,-35.645,-6.348,0.000,0
157447.727,-16.113,-28.320,-24.414,-19.043,0.000,0
157447.731,-25.391,-27.344,-20.020,-29.297,0.000,0
157447.735,-26.855,-23.926,-23.926,-31.250,0.000,0
157447.739,-23.926,-23.438,-23.926,-31.738,0.000,0
157447.743,-21.484,-29.297,-22.461,-32.227,0.000,0
157447.747,-28.320,-27.344,-20.996,-15.137,0.000,0
157447.750,-32.227,-31.250,-18.555,-22.949,0.000,0
157447.754,-22.949,-36.621,-34.668,-37.109,0.000,0
157447.758,-24.414,-31.250,-40.527,-17.090,0.000,0
157447.762,-30.273,-33.203,-32.227,-10.742,0.000,0
157447.766,-22.461,-28.320,-34.668,-9.766,0.000,0
157447.770,-17.090,-26.855,-23.438,-19.043,0.000,0
157447.774,-24.902,-30.273,-13.184,-32.715,0.000,0
157447.778,-21.484,-30.273,-28.320,-27.832,0.000,0
157447.782,-14.648,-33.203,-32.227,-24.902,0.000,0
157447.786,-13.672,-31.738,-27.344,-13.672,0.000,0
157447.790,-16.113,-31.738,-25.879,-15.137,0.000,0
157447.793,-21.973,-36.621,-19.043,-24.414,0.000,0
157447.797,-17.578,-31.250,-17.090,-11.719,0.000,0
157447.801,-13.672,-26.367,-35.156,-12.695,0.000,0
157447.805,-19.531,-31.738,-30.273,-18.066,0.000,0
157447.809,-22.461,-30.762,-16.602,-16.602,0.000,0
157447.813,-13.672,-33.691,-23.926,-24.414,0.000,0
157447.817,-19.531,-35.645,-23.926,-27.344,0.000,0
157447.821,-22.949,-32.227,-27.832,-26.855,0.000,0
157447.825,-18.555,-26.855,-27.832,-9.766,0.000,0
157447.829,-20.508,-29.785,-25.879,-20.020,0.000,0
157447.832,-21.973,-30.762,-26.367,-31.250,0.000,0
157447.836,-25.879,-34.668,-34.180,-9.277,0.000,0
157447.840,-37.109,-35.645,-36.621,-12.695,0.000,0
157447.844,-36.133,-29.785,-33.203,-20.020,0.000,0
157447.848,-30.762,-28.320,-31.738,-13.672,0.000,0
157447.852,-32.227,-27.344,-25.879,-19.043,0.000,0
157447.856,-23.438,-32.227,-25.879,-31.250,0.000,0
157447.860,-18.066,-32.715,-28.809,-20.020,0.000,0
157447.864,-25.879,-32.227,-28.320,-11.230,0.000,0
157447.868,-33.691,-28.809,-28.809,-20.020,0.000,0
157447.872,-23.926,-32.715,-30.762,-15.137,0.000,0
157447.875,-17.578,-36.133,-32.715,-6.836,0.000,0
157447.879,-26.855,-32.715,-32.715,-12.695,0.000,0
157447.883,-21.973,-25.879,-23.438,-19.043,0.000,0
157447.887,-4.395,-21.973,-19.043,-24.414,0.000,0
157447.891,-7.324,-25.879,-21.484,-37.109,0.000,0
157447.895,-23.926,-24.414,-21.484,-26.855,0.000,0
157447.899,-24.414,-26.855,-28.320,-17.578,0.000,0
157447.903,-20.996,-28.320,-30.273,-23.438,0.000,0
157447.907,-25.391,-27.344,-22.461,-25.391,0.000,0
157447.911,-13.672,-25.879,-16.602,-25.391,0.000,0
157447.915,-8.789,-20.020,-20.996,-14.160,0.000,0
157447.918,-16.602,-18.555,-19.531,-19.043,0.000,0
157447.922,-17.090,-21.484,-18.066,-24.414,0.000,0
157447.926,-18.555,-19.043,-16.602,-28.320,0.000,0
157447.930,-17.578,-20.020,-5.371,-44.434,0.000,0
157447.934,-19.531,-26.855,-21.973,-25.391,0.000,0
157447.938,-27.344,-30.273,-30.273,-14.160,0.000,0
157447.942,-26.855,-32.715,-23.926,-21.484,0.000,0
157447.946,-13.672,-29.297,-21.973,-32.227,0.000,0
157447.950,-14.160,-23.438,-16.113,-31.250,0.000,0
157447.954,-20.996,-31.250,-19.531,-20.508,0.000,0
157447.957,-9.766,-35.156,-19.531,-8.789,0.000,0
157447.961,-3.906,-20.508,-17.578,-5.859,0.000,0
157447.965,-18.066,-19.531,-14.648,-33.691,0.000,0
157447.969,-27.344,-27.344,-18.555,-38.574,0.000,0
157447.973,-29.297,-32.227,-24.414,-26.367,0.000,0
157447.977,-30.762,-29.297,-24.902,-28.320,0.000,0
157447.981,-31.738,-20.996,-23.438,-22.949,0.000,0
157447.985,-38.574,-25.879,-15.625,-27.344,0.000,0
157447.989,-29.785,-29.785,-23.438,-38.086,0.000,0
157447.993,-19.531,-24.902,-29.297,-42.969,0.000,0
157447.997,-26.855,-16.602,-18.555,-27.344,0.000,0
157448.000,-14.648,-9.766,-22.949,-7.812,0.000,0
157448.004,0.000,3.418,-4.883,-20.020,0.000,0
157448.008,9.766,10.254,3.418,-4.395,0.000,0
157448.012,4.883,-4.395,-28.809,11.719,0.000,0
157448.016,-31.738,-9.766,-30.273,-28.809,0.000,0
157448.020,-44.922,0.977,-17.578,-39.551,0.000,0
157448.024,-21.484,8.301,-9.766,-27.344,0.000,0
157448.028,-11.719,15.625,-11.230,-28.809,0.000,0
157448.032,-24.414,29.785,-13.184,-39.062,0.000,0
157448.036,-22.461,36.621,-10.254,-22.949,0.000,0
157448.040,-10.254,40.039,-11.230,5.371,0.000,0
157448.043,-13.672,47.852,4.883,-6.348,0.000,0
157448.047,-11.230,51.758,8.789,0.977,0.000,0
157448.051,-4.395,54.199,-4.883,20.508,0.000,0
157448.055,-18.066,58.105,-4.395,5.859,0.000,0
157448.059,-21.484,64.453,-1.465,9.277,0.000,0
157448.063,-0.977,69.336,0.488,2.441,0.000,0
157448.067,-12.207,66.895,-2.441,-27.344,0.000,0
157448.071,-27.344,63.477,-1.465,-15.137,0.000,0
157448.075,-22.461,54.199,0.977,-9.277,0.000,0
157448.079,-19.531,47.852,-11.719,-14.160,0.000,0
157448.082,-20.508,43.457,-14.160,-21.973,0.000,0
157448.086,-30.762,41.992,5.371,-34.668,0.000,0
157448.090,-17.578,38.574,-3.418,-26.367,0.000,0
157448.094,-5.859,28.320,-16.113,-22.949,0.000,0
157448.098,-16.113,22.461,-19.043,-20.020,0.000,0
157448.102,-24.902,16.113,-24.902,-26.367,0.000,0
157448.106,-24.414,9.766,-13.672,-41.504,0.000,0
157448.110,-24.902,0.977,-18.066,-39.062,0.000,0
157448.114,-33.203,0.488,-26.855,-24.414,0.000,0
157448.118,-42.480,-4.883,-25.391,-21.973,0.000,0
157448.122,-53.223,-14.648,-23.926,-37.598,0.000,0
157448.125,-44.922,-19.043,-20.508,-49.805,0.000,0
157448.129,-33.203,-21.973,-24.414,-42.480,0.000,0
157448.133,-36.621,-22.949,-17.578,-46.875,0.000,0
157448.137,-36.621,-26.367,-21.973,-43.457,0.000,0
157448.141,-27.344,-27.832,-36.621,-33.203,0.000,0
157448.145,-32.227,-33.203,-26.367,-52.734,0.000,0
157448.149,-37.598,-35.156,-25.391,-45.898,0.000,0
157448.153,-28.320,-41.016,-33.691,-29.297,0.000,0
157448.157,-19.531,-41.992,-26.367,-26.367,0.000,0
157448.161,-24.414,-35.156,-18.555,-27.344,0.000,0
157448.165,-33.691,-38.086,-18.066,-37.109,0.000,0
157448.168,-30.273,-41.016,-19.531,-33.691,0.000,0
157448.172,-17.578,-42.480,-25.879,-20.996,0.000,0
