timestamps,TP9,AF7,AF8,TP10,Right AUX,Marker0
157569.368,-21.973,-18.066,-19.043,-19.043,0.000,0
157569.372,-17.090,-19.043,-19.043,-26.367,0.000,0
157569.375,-21.484,-22.461,-24.414,-20.020,0.000,0
157569.379,-16.602,-21.973,-18.555,-17.578,0.000,0
157569.383,-24.414,-29.785,-15.625,-19.531,0.000,0
157569.387,-35.645,-30.273,-19.531,-7.812,0.000,0
157569.391,-30.273,-22.461,-18.555,-9.766,0.000,0
157569.395,-21.484,-19.043,-13.184,-18.555,0.000,0
157569.399,-13.672,-13.184,-8.301,-15.137,0.000,0
157569.403,-17.578,-15.625,-13.672,-8.301,0.000,0
157569.407,-21.484,-21.484,-20.508,-14.160,0.000,0
157569.411,-23.438,-20.508,-14.160,-20.996,0.000,0
157569.415,-27.344,-17.090,-14.160,-18.066,0.000,0
157569.418,-32.227,-21.484,-26.855,-11.230,0.000,0
157569.422,-20.020,-20.996,-25.879,-6.348,0.000,0
157569.426,-23.926,-19.043,-21.484,-2.930,0.000,0
157569.430,-28.320,-18.555,-18.066,-8.789,0.000,0
157569.434,-12.695,-13.184,-10.254,-11.719,0.000,0
157569.438,-17.578,-18.555,-19.531,-16.602,0.000,0
157569.442,-25.879,-24.414,-28.320,-11.230,0.000,0
157569.446,-26.855,-25.879,-25.391,-8.789,0.000,0
157569.450,-30.762,-23.926,-31.250,-15.625,0.000,0
157569.454,-38.574,-23.926,-38.086,-14.648,0.000,0
157569.457,-31.738,-20.508,-33.691,-12.207,0.000,0
157569.461,-27.344,-22.949,-28.320,-11.230,0.000,0
157569.465,-33.691,-37.598,-30.762,-19.531,0.000,0
157569.469,-31.250,-36.621,-26.367,-19.531,0.000,0
157569.473,-34.180,-28.320,-25.391,-24.414,0.000,0
157569.477,-33.691,-26.367,-27.344,-25.391,0.000,0
157569.481,-29.785,-28.320,-26.367,-16.602,0.000,0
157569.485,-29.297,-28.320,-27.832,-23.926,0.000,0
157569.489,-33.691,-26.855,-23.926,-33.691,0.000,0
157569.493,-36.133,-29.297,-25.879,-38.086,0.000,0
157569.497,-16.113,-29.297,-29.297,-38.574,0.000,0
157569.500,-18.066,-26.367,-21.973,-23.438,0.000,0
157569.504,-26.367,-21.484,-21.484,-12.695,0.000,0
157569.508,-21.973,-23.926,-25.391,-23.438,0.000,0
157569.512,-20.020,-24.902,-29.297,-25.391,0.000,0
157569.516,-18.066,-21.484,-26.367,-19.043,0.000,0
157569.520,-19.531,-22.461,-24.902,-16.602,0.000,0
157569.524,-17.578,-18.555,-26.855,-12.695,0.000,0
157569.528,-16.602,-14.160,-17.090,-26.367,0.000,0
157569.532,-26.855,-14.160,-13.184,-21.973,0.000,0
157569.536,-29.297,-15.625,-18.555,-22.461,0.000,0
157569.540,-21.484,-15.625,-24.414,-15.625,0.000,0
157569.543,-12.207,-13.184,-18.555,-7.812,0.000,0
157569.547,-19.043,-15.625,-11.230,-12.207,0.000,0
157569.551,-23.926,-18.066,-21.484,-7.812,0.000,0
157569.555,-16.113,-20.020,-26.855,-16.113,0.000,0
157569.559,-17.090,-17.578,-20.996,-18.555,0.000,0
157569.563,-24.902,-19.043,-22.949,-20.020,0.000,0
157569.567,-24.414,-22.461,-19.531,-35.645,0.000,0
157569.571,-13.672,-19.043,-17.090,-26.367,0.000,0
157569.575,-11.719,-22.461,-21.484,-20.020,0.000,0
157569.579,-26.367,-23.926,-21.973,-26.855,0.000,0
157569.582,-18.066,-19.043,-27.344,-14.160,0.000,0
157569.586,-14.160,-22.949,-21.484,-17.578,0.000,0
157569.590,-20.020,-22.461,-25.391,-20.020,0.000,0
157569.594,-13.672,-21.484,-35.645,-18.066,0.000,0
157569.598,-12.207,-20.508,-31.250,-27.344,0.000,0
157569.602,-13.672,-17.090,-20.996,-23.926,0.000,0
157569.606,-15.625,-22.949,-15.137,-25.879,0.000,0
157569.610,-20.020,-22.949,-18.555,-26.367,0.000,0
157569.614,-20.508,-24.902,-24.414,-17.578,0.000,0
157569.618,-20.996,-27.344,-21.973,-14.648,0.000,0
157569.622,-28.320,-24.902,-24.902,-1.953,0.000,0
157569.625,-26.855,-21.973,-30.273,-7.324,0.000,0
157569.629,-23.438,-20.020,-28.320,-27.832,0.000,0
157569.633,-23.438,-28.809,-31.250,-37.109,0.000,0
157569.637,-30.762,-30.273,-26.367,-40.527,0.000,0
157569.641,-31.250,-24.414,-21.973,-27.344,0.000,0
157569.645,-30.762,-29.297,-27.344,-41.992,0.000,0
157569.649,-40.039,-29.785,-32.715,-40.039,0.000,0
157569.653,-41.504,-30.762,-39.551,-20.996,0.000,0
157569.657,-40.039,-41.016,-44.922,-31.250,0.000,0
157569.661,-43.457,-44.434,-39.062,-37.109,0.000,0
157569.665,-38.086,-42.480,-29.785,-38.086,0.000,0
157569.668,-37.598,-39.062,-33.203,-32.715,0.000,0
157569.672,-29.785,-33.203,-35.156,-28.320,0.000,0
157569.676,-24.902,-34.668,-34.180,-30.273,0.000,0
157569.680,-26.855,-38.574,-30.273,-20.996,0.000,0
157569.684,-20.508,-33.691,-24.902,-28.320,0.000,0
157569.688,-21.973,-29.297,-30.762,-28.320,0.000,0
157569.692,-24.902,-24.902,-36.621,-18.555,0.000,0
157569.696,-29.297,-27.344,-34.180,-15.625,0.000,0
157569.700,-26.855,-32.715,-25.879,-11.230,0.000,0
157569.704,-28.320,-32.715,-22.461,-36.621,0.000,0
157569.707,-27.832,-31.250,-28.809,-49.805,0.000,0
157569.711,-20.508,-27.832,-25.391,-32.227,0.000,0
157569.715,-32.227,-28.809,-24.902,-27.344,0.000,0
157569.719,-41.016,-32.715,-34.668,-25.879,0.000,0
157569.723,-33.691,-30.273,-33.203,-27.832,0.000,0
157569.727,-30.762,-29.297,-26.855,-31.250,0.000,0
157569.731,-20.020,-24.902,-26.367,-27.832,0.000,0
157569.735,-13.184,-20.020,-25.879,-21.484,0.000,0
157569.739,-16.113,-22.949,-19.531,-19.043,0.000,0
157569.743,-21.484,-25.879,-11.719,-23.438,0.000,0
157569.747,-29.297,-24.414,-16.602,-27.344,0.000,0
157569.750,-25.391,-16.602,-23.926,-34.180,0.000,0
157569.754,-24.902,-20.508,-24.902,-28.320,0.000,0
157569.758,-26.367,-24.414,-23.926,-10.254,0.000,0
157569.762,-20.508,-18.555,-20.020,-18.066,0.000,0
157569.766,-26.855,-18.066,-21.484,-25.879,0.000,0
157569.770,-33.203,-18.555,-23.926,-9.277,0.000,0
157569.774,-33.691,-19.531,-17.578,-9.766,0.000,0
157569.778,-29.785,-20.020,-27.344,-19.043,0.000,0
157569.782,-25.879,-25.391,-30.762,-30.273,0.000,0
157569.786,-30.273,-27.832,-28.320,-42.969,0.000,0
157569.790,-42.480,-32.715,-34.668,-37.598,0.000,0
157569.793,-57.129,-38.086,-36.621,-36.621,0.000,0
157569.797,-49.316,-34.668,-34.668,-30.273,0.000,0
157569.801,-38.086,-38.086,-29.297,-34.180,0.000,0
157569.805,-38.086,-35.156,-26.855,-41.504,0.000,0
157569.809,-35.156,-26.855,-33.203,-18.555,0.000,0
157569.813,-26.855,-21.484,-31.250,-10.742,0.000,0
157569.817,-19.531,-12.207,-23.926,-9.766,0.000,0
157569.821,-10.254,-14.648,-16.113,-3.418,0.000,0
157569.825,-2.441,-16.602,-19.043,-12.695,0.000,0
157569.829,-10.742,-15.137,-28.320,-10.742,0.000,0
157569.832,-16.113,-20.020,-22.461,17.578,0.000,0
157569.836,-13.184,-20.996,-17.090,15.625,0.000,0
157569.840,-9.277,-16.113,-12.695,-3.418,0.000,0
157569.844,-12.695,-18.066,-7.812,-12.207,0.000,0
157569.848,-19.043,-17.090,-14.648,-19.043,0.000,0
157569.852,-10.742,-13.672,-10.742,-14.160,0.000,0
157569.856,-15.137,-18.066,-10.254,-2.930,0.000,0
157569.860,-17.578,-18.066,-16.602,-6.836,0.000,0
157569.864,-21.484,-18.555,-16.602,-24.414,0.000,0
157569.868,-21.484,-20.996,-29.297,-21.484,0.000,0
157569.872,6.348,-23.926,-37.598,-11.230,0.000,0
157569.875,5.371,-29.785,-35.156,-8.789,0.000,0
157569.879,-32.227,-25.391,-22.461,-35.156,0.000,0
157569.883,-39.062,-21.973,-19.043,-56.641,0.000,0
157569.887,-26.855,-22.461,-24.414,-36.133,0.000,0
157569.891,-26.367,-23.438,-23.926,-28.320,0.000,0
157569.895,-21.973,-24.902,-28.320,-35.156,0.000,0
157569.899,-22.461,-16.113,-23.926,-27.832,0.000,0
157569.903,-34.180,-15.625,-20.020,-35.156,0.000,0
157569.907,-25.391,-20.020,-28.320,-23.926,0.000,0
157569.911,-14.648,-20.508,-32.715,-8.301,0.000,0
157569.915,-12.695,-19.043,-30.273,-17.090,0.000,0
157569.918,-17.090,-20.020,-27.344,-19.531,0.000,0
157569.922,-20.508,-24.902,-18.555,-32.715,0.000,0
157569.926,-19.531,-21.484,-20.020,-26.855,0.000,0
157569.930,-23.438,-22.461,-30.762,-12.207,0.000,0
157569.934,-21.484,-27.344,-34.180,-13.184,0.000,0
157569.938,-21.973,-23.438,-24.414,-22.949,0.000,0
157569.942,-12.207,-21.973,-17.090,-34.668,0.000,0
157569.946,-11.719,-26.855,-24.414,-22.461,0.000,0
157569.950,-28.320,-30.762,-27.344,-15.137,0.000,0
157569.954,-32.227,-29.785,-22.949,-21.973,0.000,0
157569.957,-23.926,-21.973,-21.973,-14.648,0.000,0
157569.961,-22.949,-20.020,-20.996,-32.227,0.000,0
157569.965,-25.391,-24.414,-27.832,-41.992,0.000,0
157569.969,-21.973,-25.391,-31.738,-25.391,0.000,0
157569.973,-21.973,-25.391,-32.227,-12.207,0.000,0
157569.977,-16.113,-27.344,-33.691,-11.719,0.000,0
157569.981,-13.184,-24.414,-23.438,-20.508,0.000,0
157569.985,-21.484,-18.555,-21.973,-15.137,0.000,0
157569.989,-13.184,-18.555,-27.344,-8.789,0.000,0
157569.993,-12.207,-18.066,-25.391,-15.625,0.000,0
157569.997,-22.461,-21.973,-18.066,-14.648,0.000,0
157570.000,-15.625,-29.785,-15.625,-21.973,0.000,0
157570.004,-6.348,-18.555,-18.066,-22.461,0.000,0
157570.008,-6.836,-11.719,-17.090,-6.348,0.000,0
157570.012,-11.230,-16.113,-17.090,-11.230,0.000,0
157570.016,-4.883,-18.555,-20.996,-11.719,0.000,0
157570.020,-0.977,-16.113,-14.648,-18.555,0.000,0
157570.024,3.418,-10.742,-15.137,-28.809,0.000,0
157570.028,-6.348,-10.254,-19.043,-28.320,0.000,0
157570.032,-14.160,-15.625,-18.066,-13.184,0.000,0
157570.036,-5.371,-19.043,-25.391,-2.930,0.000,0
157570.040,-5.371,-18.555,-26.855,-19.531,0.000,0
157570.043,-21.484,-21.973,-33.691,-27.832,0.000,0
157570.047,-11.230,-20.996,-40.527,-6.348,0.000,0
157570.051,-1.465,-18.555,-29.785,3.906,0.000,0
157570.055,-36.133,-21.484,-27.832,-39.062,0.000,0
157570.059,-53.711,-29.297,-25.879,-59.082,0.000,0
157570.063,-37.109,-30.762,-35.156,-49.805,0.000,0
157570.067,-25.879,-28.809,-41.016,-32.227,0.000,0
157570.071,-24.414,-23.438,-31.250,-13.672,0.000,0
157570.075,-32.227,-22.461,-38.574,-20.020,0.000,0
157570.079,-43.457,-21.973,-39.551,-44.434,0.000,0
157570.082,-56.152,-18.066,-32.715,-55.664,0.000,0
157570.086,-48.828,-18.066,-36.621,-41.504,0.000,0
157570.090,-33.203,-20.020,-34.180,-24.902,0.000,0
157570.094,-25.879,-23.926,-36.133,-13.184,0.000,0
157570.098,-24.902,-20.508,-37.109,-24.902,0.000,0
157570.102,-26.367,-15.137,-28.809,-38.086,0.000,0
157570.106,-17.578,-17.090,-34.180,-29.785,0.000,0
157570.110,-23.926,-23.926,-44.922,-22.461,0.000,0
157570.114,-22.461,-17.090,-33.203,-19.531,0.000,0
157570.118,-25.879,-15.625,-19.531,-19.043,0.000,0
157570.122,-36.621,-26.367,-27.344,-23.438,0.000,0
157570.125,-30.273,-24.902,-37.109,-24.902,0.000,0
157570.129,-31.250,-27.344,-38.574,-39.062,0.000,0
157570.133,-35.645,-31.738,-36.621,-47.852,0.000,0
157570.137,-30.762,-24.902,-37.598,-22.461,0.000,0
157570.141,-23.926,-23.438,-36.133,-20.996,0.000,0
157570.145,-25.391,-31.738,-33.691,-22.949,0.000,0
157570.149,-31.250,-27.344,-24.902,-7.812,0.000,0
157570.153,-23.438,-22.461,-22.461,-4.883,0.000,0
157570.157,-22.949,-26.855,-23.926,-21.484,0.000,0
157570.161,-25.391,-27.344,-23.438,-30.762,0.000,0
157570.165,-26.855,-25.879,-30.762,-28.809,0.000,0
157570.168,-19.043,-24.414,-25.879,-23.926,0.000,0
157570.172,-12.207,-28.320,-19.531,-10.254,0.000,0
157570.176,-17.578,-26.855,-16.602,-5.371,0.000,0
157570.180,-23.438,-31.738,-12.207,-16.113,0.000,0
157570.184,-22.461,-30.762,-19.531,-9.277,0.000,0
157570.188,-24.902,-31.738,-23.926,-7.324,0.000,0
157570.192,-28.809,-38.574,-22.949,-10.254,0.000,0
157570.196,-31.250,-37.109,-25.391,-13.184,0.000,0
157570.200,-22.461,-40.527,-28.320,-24.414,0.000,0
157570.204,-22.949,-41.992,-32.715,-24.414,0.000,0
157570.207,-30.762,-40.527,-29.297,-28.809,0.000,0
157570.211,-29.297,-37.109,-29.785,-22.461,0.000,0
157570.215,-23.926,-32.715,-31.738,-17.578,0.000,0
157570.219,-34.180,-35.156,-24.902,-34.668,0.000,0
157570.223,-43.457,-33.203,-30.273,-26.855,0.000,0
157570.227,-31.738,-28.320,-34.180,-10.742,0.000,0
157570.231,-40.039,-29.297,-37.598,-12.695,0.000,0
157570.235,-41.992,-31.738,-28.320,-28.320,0.000,0
157570.239,-31.738,-27.344,-16.602,-25.391,0.000,0
157570.243,-21.484,-29.785,-27.832,-23.438,0.000,0
157570.247,-19.043,-31.738,-32.715,-29.297,0.000,0
157570.250,-21.973,-25.391,-31.738,-16.602,0.000,0
157570.254,-20.996,-25.391,-29.297,-17.090,0.000,0
157570.258,-24.414,-36.621,-26.367,-31.250,0.000,0
157570.262,-26.855,-32.715,-28.320,-27.832,0.000,0
157570.266,-23.926,-30.762,-32.715,-13.672,0.000,0
157570.270,-36.133,-36.133,-28.809,-21.484,0.000,0
157570.274,-29.785,-32.227,-20.996,-29.785,0.000,0
157570.278,-34.180,-30.762,-28.809,-36.621,0.000,0
157570.282,-36.621,-29.785,-31.738,-32.227,0.000,0
157570.286,-22.949,-31.250,-32.715,-26.367,0.000,0
157570.290,-25.391,-33.203,-38.574,-25.879,0.000,0
157570.293,-33.203,-34.180,-27.344,-29.297,0.000,0
157570.297,-36.621,-34.180,-22.949,-36.133,0.000,0
157570.301,-33.691,-27.832,-29.297,-14.648,0.000,0
157570.305,-30.762,-30.762,-26.367,-27.832,0.000,0
157570.309,-30.762,-30.273,-24.902,-34.668,0.000,0
157570.313,-34.180,-26.367,-27.832,-20.508,0.000,0
157570.317,-27.344,-28.320,-23.926,-33.691,0.000,0
157570.321,-24.414,-31.738,-23.438,-33.691,0.000,0
157570.325,-40.039,-37.109,-25.879,-24.414,0.000,0
157570.329,-44.922,-33.691,-34.668,-26.367,0.000,0
157570.332,-32.227,-34.180,-35.645,-37.109,0.000,0
157570.336,-30.762,-33.203,-26.855,-38.574,0.000,0
157570.340,-40.039,-27.344,-34.668,-34.668,0.000,0
157570.344,-33.203,-34.180,-40.527,-36.621,0.000,0
157570.348,-24.902,-34.668,-30.273,-35.645,0.000,0
157570.352,-34.668,-34.180,-28.809,-27.344,0.000,0
157570.356,-42.480,-40.039,-35.645,-31.250,0.000,0
157570.360,-34.180,-33.203,-34.180,-19.531,0.000,0
157570.364,-26.855,-31.250,-30.762,-3.906,0.000,0
157570.368,-28.320,-23.926,-21.973,-12.695,0.000,0
157570.372,-31.738,-17.090,-15.137,-8.789,0.000,0
157570.375,-25.879,-26.367,-23.438,-21.973,0.000,0
157570.379,-24.902,-28.809,-31.250,-34.668,0.000,0
157570.383,-23.438,-25.391,-20.020,-26.855,0.000,0
157570.387,-19.043,-26.367,-18.555,-17.578,0.000,0
157570.391,-21.973,-25.879,-32.227,-22.949,0.000,0
157570.395,-27.344,-26.367,-31.738,-36.621,0.000,0
157570.399,-27.344,-24.902,-28.320,-31.738,0.000,0
157570.403,-26.855,-33.203,-32.227,-29.297,0.000,0
157570.407,-26.855,-40.039,-33.203,-29.297,0.000,0
157570.411,-23.926,-32.227,-26.855,-27.344,0.000,0
157570.415,-20.996,-25.879,-19.531,-27.344,0.000,0
157570.418,-19.043,-18.555,-18.555,-8.789,0.000,0
157570.422,-18.066,-20.020,-20.996,-17.090,0.000,0
157570.426,-18.555,-21.973,-25.391,-28.809,0.000,0
157570.430,-32.715,-18.066,-21.484,-15.625,0.000,0
157570.434,-29.297,-23.438,-16.113,-29.785,0.000,0
157570.438,-16.602,-28.809,-24.414,-26.367,0.000,0
157570.442,-26.367,-22.461,-29.297,-24.902,0.000,0
157570.446,-21.484,-15.625,-26.855,-27.344,0.000,0
157570.450,-22.949,-16.602,-22.461,-13.184,0.000,0
157570.454,-26.367,-17.090,-10.742,-22.461,0.000,0
157570.457,-25.879,-15.137,-7.812,-34.180,0.000,0
157570.461,-25.391,-14.648,-12.695,-26.367,0.000,0
157570.465,-26.855,-22.949,-18.555,-22.461,0.000,0
157570.469,-14.160,-26.367,-23.926,-20.996,0.000,0
157570.473,-14.648,-18.555,-14.648,-26.367,0.000,0
157570.477,-33.203,-18.555,-15.137,-22.949,0.000,0
157570.481,-23.438,-17.578,-20.508,-19.531,0.000,0
157570.485,-18.066,-17.578,-17.578,-23.438,0.000,0
157570.489,-20.996,-25.879,-17.578,-16.602,0.000,0
157570.493,-18.066,-24.902,-16.602,-24.902,0.000,0
157570.497,-25.391,-25.879,-23.438,-41.016,0.000,0
157570.500,-29.297,-26.367,-25.879,-34.180,0.000,0
157570.504,-24.414,-21.484,-23.438,-15.137,0.000,0
157570.508,-27.832,-23.926,-25.879,-14.648,0.000,0
157570.512,-24.902,-24.902,-30.273,-32.227,0.000,0
157570.516,-20.508,-26.855,-30.273,-32.227,0.000,0
157570.520,-23.438,-25.879,-22.461,-27.832,0.000,0
157570.524,-29.785,-27.344,-27.832,-20.508,0.000,0
157570.528,-28.809,-24.414,-23.438,-20.020,0.000,0
157570.532,-25.879,-26.367,-16.602,-29.785,0.000,0
157570.536,-23.926,-31.738,-21.973,-27.832,0.000,0
157570.540,-19.531,-24.414,-21.973,-18.066,0.000,0
157570.543,-21.484,-23.438,-30.762,-19.531,0.000,0
157570.547,-31.250,-25.879,-24.902,-26.855,0.000,0
157570.551,-17.578,-22.949,-5.371,-24.902,0.000,0
157570.555,-7.812,-24.902,-13.672,-20.996,0.000,0
157570.559,-18.555,-30.762,-25.879,-23.926,0.000,0
157570.563,-15.625,-27.832,-23.438,-16.602,0.000,0
157570.567,-0.488,-25.879,-20.996,-11.719,0.000,0
157570.571,-16.602,-26.855,-20.508,-23.926,0.000,0
157570.575,-39.062,-28.809,-29.785,-20.508,0.000,0
157570.579,-39.551,-26.367,-32.715,-21.484,0.000,0
157570.582,-33.203,-25.391,-28.809,-25.391,0.000,0
157570.586,-28.320,-25.879,-26.367,-9.277,0.000,0
157570.590,-37.109,-17.090,-13.672,-30.762,0.000,0
157570.594,-40.527,-13.184,-14.648,-35.156,0.000,0
157570.598,-28.809,-16.602,-19.531,-21.973,0.000,0
157570.602,-23.438,-17.090,-25.879,-20.020,0.000,0
157570.606,-26.855,-16.602,-23.926,-8.789,0.000,0
157570.610,-24.902,-17.578,-11.230,-25.879,0.000,0
157570.614,-14.648,-20.508,-20.508,-17.090,0.000,0
157570.618,-4.883,-10.742,-20.996,-1.953,0.000,0
157570.622,-6.836,-3.418,-10.742,-10.742,0.000,0
157570.625,-8.789,-9.277,-7.812,-11.719,0.000,0
157570.629,-11.719,-12.695,-5.859,-20.508,0.000,0
157570.633,-16.602,-8.789,-9.277,-23.926,0.000,0
157570.637,-18.066,-14.648,-9.277,-18.066,0.000,0
157570.641,-20.508,-15.625,-12.207,-15.137,0.000,0
157570.645,-20.020,-17.578,-25.879,-14.648,0.000,0
157570.649,-26.855,-26.855,-25.391,-30.273,0.000,0
157570.653,-22.461,-25.879,-18.555,-20.996,0.000,0
157570.657,-11.719,-23.926,-24.902,-13.672,0.000,0
157570.661,-12.695,-25.391,-30.273,-17.090,0.000,0
157570.665,-13.184,-20.508,-20.508,-2.930,0.000,0
157570.668,-22.949,-19.531,-8.301,-15.137,0.000,0
157570.672,-18.555,-19.043,-8.301,-21.484,0.000,0
157570.676,-8.789,-20.996,-14.648,-10.742,0.000,0
157570.680,-23.438,-29.297,-20.508,-15.625,0.000,0
157570.684,-34.180,-31.250,-22.461,-15.625,0.000,0
157570.688,-34.180,-32.715,-20.508,-29.785,0.000,0
157570.692,-37.109,-26.367,-18.555,-31.738,0.000,0
157570.696,-30.762,-20.508,-21.973,-22.461,0.000,0
157570.700,-32.227,-24.414,-21.973,-34.180,0.000,0
157570.704,-32.715,-23.926,-23.438,-32.227,0.000,0
157570.707,-14.160,-22.949,-25.391,-25.879,0.000,0
157570.711,-17.578,-20.996,-19.043,-23.438,0.000,0
157570.715,-34.668,-14.160,-16.602,-14.160,0.000,0
157570.719,-17.090,-16.602,-20.020,-11.230,0.000,0
157570.723,-10.742,-18.066,-19.043,-20.996,0.000,0
157570.727,-20.508,-18.555,-14.648,-34.668,0.000,0
157570.731,-23.438,-21.484,-17.090,-38.574,0.000,0
157570.735,-26.367,-21.484,-24.414,-31.738,0.000,0
157570.739,-29.297,-22.461,-20.020,-31.250,0.000,0
157570.743,-32.227,-24.414,-21.973,-18.066,0.000,0
157570.747,-32.227,-29.297,-30.273,-22.461,0.000,0
157570.750,-26.367,-22.949,-26.855,-27.832,0.000,0
157570.754,-25.391,-22.949,-25.879,-7.812,0.000,0
157570.758,-34.668,-25.879,-23.926,-11.719,0.000,0
157570.762,-25.879,-26.367,-31.738,-16.602,0.000,0
157570.766,-16.113,-27.344,-32.715,-21.973,0.000,0
157570.770,-12.695,-21.973,-20.508,-27.832,0.000,0
157570.774,-20.508,-19.531,-20.996,-20.996,0.000,0
157570.778,-27.344,-23.438,-30.762,-18.066,0.000,0
157570.782,-20.996,-28.809,-30.273,-23.438,0.000,0
157570.786,-27.832,-28.809,-24.414,-27.344,0.000,0
157570.790,-31.738,-27.832,-26.855,-29.785,0.000,0
157570.793,-26.367,-29.785,-37.109,-21.973,0.000,0
157570.797,-17.090,-29.785,-40.039,-4.883,0.000,0
157570.801,-17.578,-23.926,-23.926,-12.207,0.000,0
157570.805,-23.926,-22.461,-11.719,-30.762,0.000,0
157570.809,-23.926,-27.344,-25.879,-34.668,0.000,0
157570.813,-20.020,-29.785,-34.180,-33.691,0.000,0
157570.817,-12.695,-28.320,-31.738,-23.926,0.000,0
157570.821,-12.695,-20.996,-23.438,-10.742,0.000,0
157570.825,-16.113,-17.578,-18.555,-16.113,0.000,0
157570.829,-10.742,-21.484,-17.090,-21.484,0.000,0
157570.832,-12.207,-18.066,-15.625,-18.555,0.000,0
157570.836,-20.508,-14.648,-20.020,-10.254,0.000,0
157570.840,-32.227,-19.531,-30.273,-5.859,0.000,0
157570.844,-28.809,-24.414,-33.203,-10.254,0.000,0
157570.848,-27.832,-24.414,-25.391,-21.484,0.000,0
157570.852,-20.996,-22.949,-24.414,-20.508,0.000,0
157570.856,-15.625,-27.344,-31.250,-9.277,0.000,0
157570.860,-25.879,-30.762,-33.203,-14.648,0.000,0
157570.864,-22.949,-27.344,-23.926,-18.066,0.000,0
157570.868,-15.137,-27.832,-18.555,-19.531,0.000,0
157570.872,-13.672,-28.809,-28.320,-18.555,0.000,0
157570.875,-15.625,-29.785,-30.273,-24.414,0.000,0
157570.879,-20.020,-26.367,-21.973,-12.695,0.000,0
157570.883,-10.742,-29.297,-23.926,-12.695,0.000,0
157570.887,-19.043,-40.039,-28.809,-41.504,0.000,0
157570.891,-32.227,-37.598,-33.203,-26.367,0.000,0
157570.895,-34.180,-36.133,-39.062,-14.648,0.000,0
157570.899,-28.320,-39.551,-40.039,-32.227,0.000,0
157570.903,-20.996,-38.574,-31.738,-35.156,0.000,0
157570.907,-26.855,-35.156,-20.996,-39.062,0.000,0
157570.911,-28.809,-34.180,-26.855,-37.109,0.000,0
157570.915,-21.973,-33.691,-33.203,-28.809,0.000,0
157570.918,-18.066,-29.785,-31.250,-21.484,0.000,0
157570.922,-21.484,-33.691,-28.809,-21.973,0.000,0
157570.926,-26.367,-31.738,-22.949,-31.738,0.000,0
157570.930,-25.879,-28.809,-25.879,-17.090,0.000,0
157570.934,-20.996,-32.715,-26.367,-11.230,0.000,0
157570.938,-22.461,-31.738,-23.926,-19.043,0.000,0
157570.942,-19.043,-21.484,-18.555,-23.438,0.000,0
157570.946,-14.648,-19.043,-16.602,-39.551,0.000,0
157570.950,-19.043,-17.090,-21.973,-40.039,0.000,0
157570.954,-21.973,-17.090,-20.996,-37.109,0.000,0
157570.957,-26.855,-24.414,-21.484,-29.297,0.000,0
157570.961,-34.668,-29.785,-33.691,-17.090,0.000,0
157570.965,-34.180,-34.180,-30.273,-40.527,0.000,0
157570.969,-39.551,-29.785,-30.762,-40.039,0.000,0
157570.973,-37.598,-27.832,-39.551,-24.902,0.000,0
157570.977,-34.180,-30.273,-40.527,-31.738,0.000,0
157570.981,-38.086,-33.691,-40.527,-33.203,0.000,0
157570.985,-37.598,-38.574,-30.273,-40.527,0.000,0
157570.989,-40.039,-41.016,-30.273,-47.363,0.000,0
157570.993,-32.227,-32.715,-38.086,-27.832,0.000,0
157570.997,-22.949,-28.320,-31.738,-14.648,0.000,0
157571.000,-27.832,-29.785,-21.484,-14.160,0.000,0
157571.004,-29.785,-32.227,-20.508,-14.648,0.000,0
157571.008,-27.832,-28.320,-30.273,-24.902,0.000,0
157571.012,-20.020,-23.438,-27.344,-17.090,0.000,0
157571.016,-15.137,-22.949,-19.531,-6.836,0.000,0
157571.020,-10.742,-14.160,-20.508,-1.465,0.000,0
157571.024,-12.695,-10.254,-13.184,-10.254,0.000,0
157571.028,-20.020,-9.766,-9.277,-14.160,0.000,0
157571.032,-20.020,-12.695,-16.602,-9.277,0.000,0
157571.036,-9.766,-22.461,-25.391,-13.184,0.000,0
157571.040,-14.648,-24.902,-24.902,-18.066,0.000,0
157571.043,-26.367,-26.367,-16.113,-21.973,0.000,0
157571.047,-24.414,-22.461,-15.137,-29.297,0.000,0
157571.051,-20.996,-24.414,-19.531,-47.363,0.000,0
157571.055,-24.414,-31.250,-29.297,-21.973,0.000,0
157571.059,-28.320,-25.879,-29.785,-9.766,0.000,0
157571.063,-29.297,-22.949,-24.902,-27.832,0.000,0
157571.067,-23.926,-27.344,-22.949,-28.809,0.000,0
157571.071,-21.973,-26.855,-20.020,-22.461,0.000,0
157571.075,-29.297,-22.461,-24.902,-27.344,0.000,0
157571.079,-28.320,-25.879,-35.156,-29.297,0.000,0
157571.082,-18.066,-36.133,-35.645,-23.438,0.000,0
157571.086,-22.949,-30.273,-26.367,-25.879,0.000,0
157571.090,-33.691,-23.438,-15.625,-25.879,0.000,0
157571.094,-18.555,-26.367,-25.391,-20.996,0.000,0
157571.098,-12.695,-24.902,-30.762,-12.695,0.000,0
157571.102,-27.344,-26.367,-24.414,-18.555,0.000,0
157571.106,-34.180,-27.832,-23.438,-27.344,0.000,0
157571.110,-20.996,-22.461,-27.832,-25.879,0.000,0
157571.114,-12.695,-22.949,-30.273,-10.254,0.000,0
157571.118,-24.902,-33.203,-20.020,-0.977,0.000,0
157571.122,-24.414,-31.738,-15.625,-12.695,0.000,0
157571.125,-15.137,-34.668,-24.414,-36.621,0.000,0
157571.129,-25.391,-38.574,-34.668,-36.133,0.000,0
157571.133,-28.809,-29.785,-23.926,-20.020,0.000,0
157571.137,-21.484,-28.809,-20.020,-13.672,0.000,0
157571.141,-19.531,-33.203,-24.414,-21.484,0.000,0
157571.145,-23.438,-33.691,-25.879,-24.902,0.000,0
157571.149,-27.344,-30.273,-26.367,-18.555,0.000,0
157571.153,-27.832,-25.391,-20.996,-29.785,0.000,0
157571.157,-29.785,-29.785,-31.250,-23.926,0.000,0
157571.161,-28.809,-40.527,-38.574,-20.996,0.000,0
157571.165,-35.645,-37.598,-28.809,-31.250,0.000,0
157571.168,-28.320,-37.598,-23.926,-31.250,0.000,0
157571.172,-15.137,-44.434,-27.344,-31.250,0.000,0
157571.176,-23.926,-32.715,-27.344,-29.785,0.000,0
157571.180,-35.156,-28.809,-24.414,-29.785,0.000,0
157571.184,-32.715,-30.273,-30.762,-39.062,0.000,0
157571.188,-26.367,-25.391,-32.715,-39.551,0.000,0
157571.192,-28.809,-28.320,-29.785,-42.480,0.000,0
157571.196,-39.062,-34.668,-37.109,-42.969,0.000,0
157571.200,-38.086,-37.598,-40.527,-38.574,0.000,0
157571.204,-26.367,-32.227,-29.297,-48.828,0.000,0
157571.207,-26.855,-24.902,-24.414,-37.109,0.000,0
157571.211,-31.738,-23.926,-31.250,-22.949,0.000,0
157571.215,-27.832,-20.996,-33.691,-28.809,0.000,0
157571.219,-26.855,-20.996,-30.273,-33.691,0.000,0
157571.223,-32.227,-24.414,-21.484,-41.016,0.000,0
157571.227,-25.879,-15.625,-23.438,-35.645,0.000,0
157571.231,-8.301,-13.184,-27.832,-32.715,0.000,0
157571.235,-14.648,-17.090,-22.949,-18.066,0.000,0
157571.239,-24.414,-13.184,-14.160,-9.277,0.000,0
157571.243,-21.484,-18.066,-11.719,-28.320,0.000,0
157571.247,-27.344,-23.438,-18.555,-31.738,0.000,0
157571.250,-34.668,-19.531,-20.996,-11.230,0.000,0
157571.254,-23.926,-23.438,-18.555,-17.578,0.000,0
157571.258,-21.484,-27.832,-25.879,-14.648,0.000,0
157571.262,-28.809,-25.879,-27.344,-36.133,0.000,0
157571.266,-33.203,-27.344,-21.484,-35.645,0.000,0
157571.270,-28.320,-26.367,-23.438,-19.531,0.000,0
157571.274,-26.367,-21.484,-27.832,-20.996,0.000,0
157571.278,-25.391,-24.414,-20.996,-25.879,0.000,0
157571.282,-24.902,-27.344,-17.090,-25.391,0.000,0
157571.286,-25.879,-20.020,-25.879,-17.578,0.000,0
157571.290,-24.902,-11.719,-26.855,-21.484,0.000,0
157571.293,-14.160,-6.836,-15.625,-13.184,0.000,0
157571.297,-6.348,-8.301,-11.230,-27.344,0.000,0
157571.301,-16.602,-8.789,-18.555,-40.039,0.000,0
157571.305,-17.090,-6.348,-24.414,-25.391,0.000,0
157571.309,-22.461,-7.324,-25.391,-14.648,0.000,0
157571.313,-31.250,-6.836,-28.320,-4.395,0.000,0
157571.317,-35.156,-5.371,-20.996,-18.066,0.000,0
157571.321,-29.297,-9.766,-16.602,-21.484,0.000,0
157571.325,-24.902,-13.184,-26.367,-8.301,0.000,0
157571.329,-33.691,-14.160,-27.344,-20.020,0.000,0
157571.332,-22.949,-13.672,-24.902,-26.855,0.000,0
157571.336,-15.625,-15.137,-22.461,-20.996,0.000,0
157571.340,-23.926,-18.555,-18.555,-25.879,0.000,0
157571.344,-27.344,-18.555,-24.902,-24.902,0.000,0
157571.348,-13.184,-21.973,-31.738,-6.348,0.000,0
157571.352,-12.207,-21.484,-29.297,-13.672,0.000,0
157571.356,-16.602,-13.672,-18.555,-25.879,0.000,0
157571.360,-10.742,-9.766,-17.578,-21.484,0.000,0
157571.364,-3.418,-12.695,-22.461,-17.578,0.000,0
157571.368,-5.371,-12.207,-14.648,-12.695,0.000,0
157571.372,-16.602,-14.648,-17.578,-1.953,0.000,0
157571.375,-12.695,-22.461,-26.367,-10.742,0.000,0
157571.379,-19.043,-26.367,-33.203,-29.785,0.000,0
157571.383,-28.320,-22.949,-34.668,-15.625,0.000,0
157571.387,-19.531,-19.531,-31.738,-9.766,0.000,0
157571.391,-18.555,-22.461,-30.273,-23.926,0.000,0
157571.395,-20.996,-22.949,-21.484,-25.879,0.000,0
157571.399,-16.602,-20.996,-16.602,-26.367,0.000,0
157571.403,-17.578,-21.973,-24.414,-20.020,0.000,0
157571.407,-15.137,-25.879,-33.203,-20.020,0.000,0
157571.411,-13.184,-29.785,-38.574,-24.902,0.000,0
157571.415,-18.555,-29.785,-24.414,-24.414,0.000,0
157571.418,-16.602,-24.902,-20.996,-21.973,0.000,0
157571.422,-13.184,-25.391,-31.250,-17.578,0.000,0
157571.426,-24.414,-28.809,-29.297,-20.020,0.000,0
157571.430,-28.320,-32.715,-27.832,-22.461,0.000,0
157571.434,-16.602,-28.320,-26.367,-30.762,0.000,0
157571.438,-23.438,-23.926,-26.367,-42.480,0.000,0
157571.442,-30.273,-21.973,-32.715,-32.227,0.000,0
157571.446,-36.621,-22.949,-29.297,-22.949,0.000,0
157571.450,-27.832,-21.484,-25.879,-18.555,0.000,0
157571.454,-19.043,-23.926,-29.785,-21.973,0.000,0
157571.457,-28.320,-28.809,-26.367,-33.203,0.000,0
157571.461,-29.785,-27.344,-20.996,-26.367,0.000,0
157571.465,-21.973,-20.508,-28.809,-19.043,0.000,0
157571.469,-10.254,-16.602,-24.414,-24.414,0.000,0
157571.473,-17.090,-18.555,-21.973,-20.996,0.000,0
157571.477,-26.367,-20.020,-23.926,-29.297,0.000,0
157571.481,-20.020,-18.555,-23.438,-24.902,0.000,0
157571.485,-25.391,-17.090,-22.461,-1.953,0.000,0
157571.489,-27.832,-17.090,-19.043,1.465,0.000,0
157571.493,-23.926,-20.508,-19.043,-28.809,0.000,0
157571.497,-24.414,-29.785,-19.043,-47.852,0.000,0
157571.500,-27.344,-30.273,-21.973,-32.715,0.000,0
157571.504,-30.273,-25.391,-20.508,-26.367,0.000,0
157571.508,-27.832,-23.438,-21.973,-23.438,0.000,1
157571.512,-22.461,-23.926,-23.926,-20.508,0.000,0
157571.516,-22.461,-23.438,-15.137,-32.227,0.000,0
157571.520,-18.066,-26.367,-19.043,-29.297,0.000,0
157571.524,-5.859,-28.320,-20.996,-16.602,0.000,0
157571.528,-9.277,-19.531,-17.090,-13.672,0.000,0
157571.532,-11.719,-17.090,-14.648,-21.973,0.000,0
157571.536,-13.184,-20.996,-12.207,-33.691,0.000,0
157571.540,-17.090,-21.484,-20.996,-15.625,0.000,0
157571.543,-12.207,-17.578,-20.020,-15.625,0.000,0
157571.547,-9.766,-20.996,-22.461,-3.906,0.000,0
157571.551,-16.602,-19.043,-12.207,9.277,0.000,0
157571.555,-21.973,-16.113,-8.301,-13.672,0.000,0
157571.559,-29.297,-17.090,-22.461,-27.832,0.000,0
157571.563,-45.410,-17.090,-19.531,-40.527,0.000,0
157571.567,-39.551,-15.625,-25.391,-25.879,0.000,0
157571.571,-29.297,-19.043,-27.832,-20.996,0.000,0
157571.575,-43.457,-24.414,-20.996,-42.480,0.000,0
157571.579,-45.898,-23.926,-22.461,-40.527,0.000,0
157571.582,-38.574,-20.020,-25.879,-32.715,0.000,0
157571.586,-37.109,-18.555,-29.785,-21.973,0.000,0
157571.590,-29.785,-26.367,-31.738,-25.391,0.000,0
157571.594,-30.273,-31.250,-26.367,-40.527,0.000,0
157571.598,-30.273,-27.344,-34.180,-21.973,0.000,0
157571.602,-23.438,-34.180,-43.945,-24.902,0.000,0
157571.606,-27.832,-45.898,-41.504,-36.133,0.000,0
157571.610,-41.504,-41.016,-36.621,-41.992,0.000,0
157571.614,-38.574,-34.668,-33.203,-54.688,0.000,0
157571.618,-28.809,-34.180,-34.180,-56.152,0.000,0
157571.622,-30.273,-31.250,-30.762,-43.457,0.000,0
157571.625,-35.156,-34.668,-36.621,-31.250,0.000,0
157571.629,-24.414,-31.250,-34.180,-34.180,0.000,0
157571.633,-37.109,-27.832,-25.879,-20.020,0.000,0
157571.637,-49.805,-35.645,-35.645,-10.254,0.000,0
157571.641,-38.574,-32.227,-44.434,-29.297,0.000,0
157571.645,-35.645,-28.320,-43.457,-28.320,0.000,0
157571.649,-28.809,-28.809,-34.668,-23.438,0.000,0
157571.653,-28.320,-34.180,-26.367,-41.504,0.000,0
157571.657,-41.504,-32.227,-22.461,-46.875,0.000,0
157571.661,-30.762,-26.855,-26.367,-39.551,0.000,0
157571.665,-24.414,-30.762,-27.832,-37.598,0.000,0
157571.668,-34.180,-25.879,-29.297,-26.855,0.000,0
157571.672,-28.320,-21.484,-22.949,-27.832,0.000,0
157571.676,-31.738,-24.902,-22.461,-36.621,0.000,0
157571.680,-23.926,-28.809,-29.297,-36.621,0.000,0
157571.684,-21.973,-25.391,-24.902,-27.832,0.000,0
157571.688,-32.227,-21.484,-26.367,-12.207,0.000,0
157571.692,-26.367,-23.926,-24.902,-21.484,0.000,0
157571.696,-20.020,-23.438,-19.531,-23.438,0.000,0
157571.700,-18.066,-17.090,-24.902,-13.672,0.000,0
157571.704,-16.113,-14.160,-28.809,-9.766,0.000,0
157571.707,-19.531,-19.531,-27.832,-8.789,0.000,0
157571.711,-20.996,-21.484,-20.508,-19.531,0.000,0
157571.715,-20.996,-23.438,-16.113,-32.715,0.000,0
157571.719,-24.414,-31.738,-23.926,-31.738,0.000,0
157571.723,-24.902,-30.762,-31.250,-20.996,0.000,0
157571.727,-23.438,-28.809,-32.715,-20.996,0.000,0
157571.731,-31.250,-31.738,-34.668,-31.250,0.000,0
157571.735,-31.738,-32.715,-36.133,-25.879,0.000,0
157571.739,-20.020,-31.250,-35.156,-13.672,0.000,0
157571.743,-21.484,-28.320,-31.250,-14.160,0.000,0
157571.747,-30.273,-23.926,-27.344,-24.414,0.000,0
157571.750,-18.555,-23.438,-21.973,-20.996,0.000,0
157571.754,-11.719,-20.996,-20.996,-19.043,0.000,0
157571.758,-24.414,-16.602,-28.809,-25.391,0.000,0
157571.762,-25.391,-19.531,-25.391,-18.066,0.000,0
157571.766,-24.902,-20.508,-21.484,-11.719,0.000,0
157571.770,-25.879,-17.578,-22.949,-13.672,0.000,0
157571.774,-22.461,-18.555,-24.902,-12.207,0.000,0
157571.778,-24.902,-20.996,-26.855,-9.277,0.000,0
157571.782,-22.949,-25.879,-34.668,-9.277,0.000,0
157571.786,-20.996,-32.715,-32.227,-12.207,0.000,0
157571.790,-32.715,-26.855,-22.949,-20.996,0.000,0
157571.793,-38.574,-29.297,-27.344,-35.156,0.000,0
157571.797,-28.320,-30.762,-30.273,-34.668,0.000,0
157571.801,-23.926,-25.391,-23.438,-16.113,0.000,0
157571.805,-21.484,-28.320,-26.855,-6.836,0.000,0
157571.809,-23.438,-29.785,-27.344,-15.137,0.000,0
157571.813,-27.344,-25.391,-22.949,-16.602,0.000,0
157571.817,-27.344,-25.879,-24.414,-8.789,0.000,0
157571.821,-26.367,-27.344,-28.320,-18.066,0.000,0
157571.825,-26.367,-26.367,-32.227,-19.043,0.000,0
157571.829,-25.391,-28.809,-32.227,-17.090,0.000,0
157571.832,-12.207,-31.250,-24.902,-16.602,0.000,0
157571.836,-14.648,-21.973,-17.578,-26.367,0.000,0
157571.840,-20.996,-22.461,-28.320,-23.438,0.000,0
157571.844,-20.996,-24.902,-32.715,-16.602,0.000,0
157571.848,-25.391,-19.043,-21.484,-20.020,0.000,0
157571.852,-13.184,-21.973,-15.137,-23.926,0.000,0
157571.856,-5.371,-23.926,-20.020,-20.020,0.000,0
157571.860,-11.719,-26.367,-25.879,-14.160,0.000,0
157571.864,-14.648,-20.996,-21.484,-7.324,0.000,0
157571.868,-12.695,-22.461,-16.113,-13.672,0.000,0
157571.872,-17.578,-32.227,-26.367,-31.250,0.000,0
157571.875,-22.461,-30.273,-30.762,-26.367,0.000,0
157571.879,-15.625,-23.438,-24.414,-11.230,0.000,0
157571.883,-13.184,-27.832,-26.367,-18.066,0.000,0
157571.887,-19.043,-35.156,-23.926,-32.227,0.000,0
157571.891,-22.949,-30.273,-18.555,-36.133,0.000,0
157571.895,-17.578,-22.461,-16.602,-28.809,0.000,0
157571.899,-18.555,-24.902,-19.043,-20.508,0.000,0
157571.903,-20.996,-28.320,-28.320,-5.371,0.000,0
157571.907,-23.926,-26.367,-17.578,-14.160,0.000,0
157571.911,-26.855,-27.832,-11.230,-19.043,0.000,0
157571.915,-24.902,-35.156,-19.531,-6.836,0.000,0
157571.918,-23.926,-29.785,-26.855,-14.648,0.000,0
157571.922,-28.320,-21.973,-24.902,-18.066,0.000,0
157571.926,-22.461,-26.855,-17.090,-21.484,0.000,0
157571.930,-17.578,-27.344,-20.996,-31.738,0.000,0
157571.934,-26.367,-22.949,-27.344,-26.367,0.000,0
157571.938,-24.902,-24.902,-31.738,-13.184,0.000,0
157571.942,-19.043,-30.273,-35.645,-17.090,0.000,0
157571.946,-16.113,-32.715,-25.391,-28.809,0.000,0
157571.950,-26.367,-33.203,-20.996,-31.738,0.000,0
157571.954,-32.715,-32.715,-27.344,-28.320,0.000,0
157571.957,-24.902,-33.203,-32.227,-28.320,0.000,0
157571.961,-22.949,-29.297,-36.621,-18.066,0.000,0
157571.965,-25.391,-30.273,-33.203,-16.113,0.000,0
157571.969,-26.855,-39.551,-29.297,-40.527,0.000,0
157571.973,-30.762,-37.598,-40.527,-34.668,0.000,0
157571.977,-27.832,-29.785,-43.457,-23.926,0.000,0
157571.981,-34.668,-29.297,-31.250,-24.414,0.000,0
157571.985,-30.273,-35.156,-28.320,-27.344,0.000,0
157571.989,-18.066,-34.180,-29.297,-26.855,0.000,0
157571.993,-28.320,-28.809,-34.180,-24.414,0.000,0
157571.997,-30.273,-34.180,-34.668,-20.020,0.000,0
157572.000,-27.832,-29.785,-28.320,-16.602,0.000,0
157572.004,-26.367,-24.902,-27.344,-10.254,0.000,0
157572.008,-25.879,-27.832,-24.902,-20.996,0.000,0
157572.012,-27.344,-23.438,-21.973,-31.250,0.000,0
157572.016,-29.297,-22.949,-31.250,-21.484,0.000,0
157572.020,-14.160,-26.367,-36.621,-23.926,0.000,0
157572.024,-13.672,-33.691,-33.203,-33.203,0.000,0
157572.028,-34.668,-38.086,-28.809,-47.363,0.000,0
157572.032,-27.832,-28.320,-27.344,-42.480,0.000,0
157572.036,-16.113,-22.461,-23.438,-28.809,0.000,0
157572.040,-21.484,-20.996,-19.043,-22.461,0.000,0
157572.043,-28.320,-19.043,-17.090,-16.113,0.000,0
157572.047,-26.855,-13.672,-13.184,-20.020,0.000,0
157572.051,-21.973,-21.484,-18.555,-22.461,0.000,0
157572.055,-18.555,-30.273,-24.902,-20.508,0.000,0
157572.059,-28.809,-22.461,-22.949,-14.648,0.000,0
157572.063,-24.414,-20.020,-22.949,-13.184,0.000,0
157572.067,-5.859,-23.438,-24.414,-17.578,0.000,0
157572.071,-6.836,-20.508,-15.625,-20.508,0.000,0
157572.075,-22.461,-19.043,-13.672,-19.531,0.000,0
157572.079,-20.508,-16.113,-27.344,-7.812,0.000,0
157572.082,-8.789,-20.996,-21.973,-3.418,0.000,0
157572.086,-18.066,-16.602,-10.742,-11.719,0.000,0
157572.090,-23.926,-6.836,-13.184,-9.277,0.000,0
157572.094,-15.625,-8.301,-12.695,-9.277,0.000,0
157572.098,-15.137,-9.277,-9.277,-24.414,0.000,0
157572.102,-21.484,-13.672,-17.090,-21.484,0.000,0
157572.106,-26.367,-16.602,-23.438,-24.414,0.000,0
157572.110,-25.879,-20.020,-20.996,-27.344,0.000,0
157572.114,-21.484,-25.391,-20.508,-18.066,0.000,0
157572.118,-22.949,-20.508,-17.090,-12.207,0.000,0
157572.122,-22.461,-18.066,-20.508,-17.090,0.000,0
157572.125,-13.672,-24.902,-26.367,-34.668,0.000,0
157572.129,-14.648,-24.414,-25.879,-29.785,0.000,0
157572.133,-19.531,-24.902,-28.809,-19.531,0.000,0
157572.137,-28.320,-27.344,-29.785,-25.391,0.000,0
157572.141,-30.273,-27.344,-29.297,-26.367,0.000,0
157572.145,-26.855,-24.414,-19.531,-27.344,0.000,0
157572.149,-27.344,-26.367,-21.973,-33.203,0.000,0
157572.153,-31.738,-32.715,-30.762,-28.809,0.000,0
157572.157,-26.367,-36.133,-38.574,-28.809,0.000,0
157572.161,-16.113,-35.156,-37.598,-28.320,0.000,0
157572.165,-33.691,-31.738,-26.855,-28.809,0.000,0
157572.168,-41.016,-33.691,-40.527,-20.020,0.000,0
157572.172,-26.855,-34.668,-43.945,-19.043,0.000,0
157572.176,-28.809,-32.715,-28.320,-29.297,0.000,0
157572.180,-35.156,-30.762,-30.273,-29.297,0.000,0
157572.184,-31.250,-34.180,-28.320,-34.668,0.000,0
157572.188,-32.715,-30.273,-22.949,-34.668,0.000,0
157572.192,-27.832,-25.391,-27.832,-32.227,0.000,0
157572.196,-20.508,-20.996,-25.879,-21.973,0.000,0
157572.200,-24.414,-14.648,-23.926,-15.625,0.000,0
157572.204,-21.484,-26.367,-28.320,-35.156,0.000,0
157572.207,-32.227,-32.227,-27.344,-36.621,0.000,0
157572.211,-38.086,-26.367,-27.832,-24.414,0.000,1
157572.215,-26.855,-24.902,-33.691,-31.250,0.000,0
157572.219,-31.738,-24.902,-34.668,-20.996,0.000,0
157572.223,-32.715,-33.203,-28.809,-32.227,0.000,0
157572.227,-24.414,-30.273,-20.020,-41.504,0.000,0
157572.231,-22.949,-23.438,-20.996,-21.484,0.000,0
157572.235,-20.020,-27.344,-26.367,-21.484,0.000,0
157572.239,-21.484,-26.855,-30.762,-27.832,0.000,0
157572.243,-24.902,-27.344,-28.320,-30.762,0.000,0
157572.247,-25.879,-28.320,-20.508,-41.016,0.000,0
157572.250,-22.461,-28.809,-20.996,-39.062,0.000,0
157572.254,-28.809,-26.367,-23.438,-20.020,0.000,0
157572.258,-28.320,-20.508,-28.809,-15.625,0.000,0
157572.262,-20.996,-22.949,-22.949,-29.297,0.000,0
157572.266,-24.902,-24.902,-18.066,-35.156,0.000,0
157572.270,-25.879,-22.461,-28.320,-23.438,0.000,0
157572.274,-21.484,-30.273,-35.645,-27.344,0.000,0
157572.278,-24.414,-34.180,-31.738,-27.344,0.000,0
157572.282,-41.504,-34.668,-25.391,-30.762,0.000,0
157572.286,-38.574,-27.832,-21.973,-34.180,0.000,0
157572.290,-20.996,-17.090,-25.391,-15.137,0.000,0
157572.293,-24.414,-22.949,-28.809,-25.391,0.000,0
157572.297,-35.645,-23.926,-25.391,-15.137,0.000,0
157572.301,-19.043,-28.809,-15.625,-2.441,0.000,0
157572.305,-15.625,-34.180,-21.484,-25.879,0.000,0
157572.309,-21.484,-24.414,-31.250,-22.949,0.000,0
157572.313,-21.484,-22.461,-21.973,-24.902,0.000,0
157572.317,-25.879,-28.320,-20.996,-29.785,0.000,0
157572.321,-29.297,-30.273,-24.414,-32.227,0.000,0
157572.325,-28.809,-28.320,-24.902,-45.410,0.000,0
157572.329,-28.320,-28.809,-33.203,-35.645,0.000,0
157572.332,-27.832,-30.273,-33.203,-28.809,0.000,0
157572.336,-19.531,-24.902,-26.367,-23.438,0.000,0
157572.340,-30.273,-23.926,-26.855,-15.137,0.000,0
157572.344,-41.016,-28.320,-22.949,-26.367,0.000,0
157572.348,-28.809,-24.414,-23.926,-32.227,0.000,0
157572.352,-20.996,-28.320,-26.855,-37.109,0.000,0
157572.356,-24.902,-29.785,-24.902,-29.297,0.000,0
157572.360,-31.738,-21.484,-19.531,-18.066,0.000,0
157572.364,-38.086,-21.973,-15.625,-39.062,0.000,0
157572.368,-39.062,-23.926,-20.508,-40.527,0.000,0
157572.372,-39.062,-25.879,-22.461,-28.809,0.000,0
157572.375,-41.504,-25.879,-20.020,-29.785,0.000,0
157572.379,-39.551,-31.250,-23.438,-27.344,0.000,0
157572.383,-38.574,-29.785,-30.762,-26.855,0.000,0
157572.387,-35.156,-20.508,-21.973,-30.762,0.000,0
157572.391,-24.902,-17.578,-16.602,-20.996,0.000,0
157572.395,-15.137,-16.602,-22.949,-6.348,0.000,0
157572.399,-20.996,-17.090,-20.508,-7.812,0.000,0
157572.403,-35.156,-18.066,-17.578,-11.719,0.000,0
157572.407,-41.016,-23.926,-30.273,-9.766,0.000,0
157572.411,-36.621,-34.180,-37.598,-9.766,0.000,0
157572.415,-30.273,-28.320,-26.367,-16.113,0.000,0
157572.418,-37.598,-24.902,-22.949,-23.926,0.000,0
157572.422,-43.457,-28.809,-25.879,-36.133,0.000,0
157572.426,-38.086,-25.391,-22.949,-36.621,0.000,0
157572.430,-40.527,-28.809,-21.973,-32.227,0.000,0
157572.434,-34.668,-28.809,-25.391,-26.855,0.000,0
157572.438,-22.461,-29.297,-27.344,-17.090,0.000,0
157572.442,-27.344,-36.133,-34.668,-31.250,0.000,0
157572.446,-35.156,-28.809,-28.320,-32.715,0.000,0
157572.450,-32.227,-25.391,-22.461,-16.602,0.000,0
157572.454,-33.203,-28.809,-39.551,-19.531,0.000,0
157572.457,-31.738,-27.344,-36.621,-29.785,0.000,0
157572.461,-27.832,-24.902,-26.855,-32.715,0.000,0
157572.465,-31.250,-28.320,-29.297,-34.668,0.000,0
157572.469,-27.832,-25.879,-35.645,-25.879,0.000,0
157572.473,-26.855,-24.902,-33.203,-35.645,0.000,0
157572.477,-28.320,-29.297,-22.461,-42.480,0.000,0
157572.481,-29.297,-26.367,-23.926,-26.367,0.000,0
157572.485,-36.621,-23.926,-30.762,-20.508,0.000,0
157572.489,-33.691,-26.855,-30.762,-17.578,0.000,0
157572.493,-28.320,-31.250,-22.949,-4.883,0.000,0
157572.497,-25.879,-38.086,-29.297,-11.230,0.000,0
157572.500,-19.531,-32.227,-26.855,-20.508,0.000,0
157572.504,-16.113,-24.902,-19.531,-11.230,0.000,0
157572.508,-18.555,-27.832,-24.414,-6.348,0.000,0
157572.512,-8.789,-31.250,-26.855,-6.348,0.000,0
157572.516,-8.301,-29.297,-17.578,-12.695,0.000,0
157572.520,-16.602,-29.297,-14.160,-21.973,0.000,0
157572.524,-23.926,-32.715,-23.926,-26.855,0.000,0
157572.528,-24.414,-26.855,-21.484,-30.762,0.000,0
157572.532,-24.902,-26.855,-29.297,-21.484,0.000,0
157572.536,-25.391,-32.715,-28.809,-17.090,0.000,0
157572.540,-20.508,-31.738,-18.555,-29.297,0.000,0
157572.543,-15.625,-31.250,-28.809,-24.902,0.000,0
157572.547,-18.066,-25.879,-30.273,-18.066,0.000,0
157572.551,-18.555,-21.973,-31.250,-18.066,0.000,0
157572.555,-11.719,-26.367,-29.785,-17.578,0.000,0
157572.559,-16.602,-25.391,-21.973,-29.785,0.000,0
157572.563,-21.484,-25.391,-27.344,-33.203,0.000,0
157572.567,-20.020,-33.203,-28.809,-34.180,0.000,0
157572.571,-21.973,-32.227,-27.344,-30.273,0.000,0
157572.575,-18.066,-21.973,-22.461,-22.461,0.000,0
157572.579,-9.766,-24.414,-19.531,-28.320,0.000,0
157572.582,-17.578,-26.367,-20.996,-19.531,0.000,0
157572.586,-29.297,-23.926,-24.902,-4.883,0.000,0
157572.590,-8.789,-17.090,-24.414,-10.742,0.000,0
157572.594,-0.488,-16.113,-12.207,-13.184,0.000,0
157572.598,-16.113,-24.902,-5.859,-24.414,0.000,0
157572.602,-16.113,-29.297,-20.996,-25.879,0.000,0
157572.606,-10.742,-23.438,-23.438,-16.602,0.000,0
157572.610,1.465,-18.066,-12.207,1.465,0.000,0
157572.614,2.441,-18.066,-13.672,8.301,0.000,0
157572.618,-20.020,-23.438,-14.648,-24.902,0.000,0
157572.622,-29.785,-17.578,-9.766,-22.461,0.000,0
157572.625,-33.691,-11.719,-5.859,-6.348,0.000,0
157572.629,-24.902,-20.508,-16.113,-11.719,0.000,0
157572.633,-15.137,-22.461,-20.996,-8.789,0.000,0
157572.637,-21.973,-11.230,-10.254,-26.855,0.000,0
157572.641,-28.809,-3.418,-8.789,-30.762,0.000,0
157572.645,-28.809,-5.859,-13.672,-22.461,0.000,0
157572.649,-17.578,-9.277,-16.113,-23.926,0.000,0
157572.653,-19.043,-8.301,-13.672,-7.324,0.000,0
157572.657,-26.367,-13.672,-3.906,6.348,0.000,0
157572.661,-16.602,-10.254,-4.883,13.672,0.000,0
157572.665,-17.090,-12.695,-10.742,-2.930,0.000,0
157572.668,-15.625,-14.160,-10.254,-10.254,0.000,0
157572.672,-6.836,-5.371,-4.395,2.441,0.000,0
157572.676,-7.324,-11.230,-4.883,-16.113,0.000,0
157572.680,-5.859,-13.672,-8.789,-23.438,0.000,0
157572.684,-7.324,-16.113,-8.301,-10.742,0.000,0
157572.688,-16.602,-16.602,-13.672,-12.695,0.000,0
157572.692,-14.160,-8.789,-22.461,-10.742,0.000,0
157572.696,-16.113,-12.695,-14.648,-14.648,0.000,0
157572.700,-26.855,-16.113,-8.789,-27.344,0.000,0
157572.704,-26.367,-19.531,-17.090,-27.832,0.000,0
157572.707,-16.602,-24.902,-19.043,-27.344,0.000,0
157572.711,-18.555,-22.949,-19.043,-17.090,0.000,0
157572.715,-24.902,-22.949,-11.719,-8.301,0.000,0
157572.719,-24.902,-25.391,-10.254,-20.508,0.000,0
157572.723,-26.855,-22.949,-26.367,-27.832,0.000,0
157572.727,-29.297,-31.250,-30.762,-25.391,0.000,0
157572.731,-31.250,-35.645,-22.949,-19.043,0.000,0
157572.735,-36.133,-33.691,-22.461,-27.832,0.000,0
157572.739,-28.320,-33.203,-25.879,-39.062,0.000,0
157572.743,-28.320,-35.645,-25.391,-35.156,0.000,0
157572.747,-30.762,-32.227,-21.484,-22.949,0.000,0
157572.750,-8.789,-30.762,-23.926,-7.324,0.000,0
157572.754,-12.207,-28.809,-24.902,-7.812,0.000,0
157572.758,-32.227,-33.203,-23.438,-22.949,0.000,0
157572.762,-31.250,-36.133,-24.902,-16.113,0.000,0
157572.766,-22.461,-28.320,-25.391,-6.836,0.000,0
157572.770,-15.137,-31.250,-30.273,-21.484,0.000,0
157572.774,-20.996,-28.809,-26.855,-32.715,0.000,0
157572.778,-26.855,-22.949,-14.648,-26.367,0.000,0
157572.782,-22.461,-23.926,-20.996,-25.879,0.000,0
157572.786,-23.926,-24.414,-25.391,-26.367,0.000,0
157572.790,-25.879,-24.414,-21.973,-15.137,0.000,0
157572.793,-21.973,-23.926,-22.461,-15.625,0.000,0
157572.797,-18.066,-24.414,-25.391,-19.531,0.000,0
157572.801,-20.508,-25.879,-22.461,-17.090,0.000,0
157572.805,-22.461,-29.785,-20.996,-17.578,0.000,0
157572.809,-27.344,-21.973,-18.555,-10.742,0.000,0
157572.813,-27.344,-19.531,-16.113,-12.695,0.000,0
157572.817,-27.832,-18.555,-18.066,-25.879,0.000,0
157572.821,-26.855,-13.184,-15.625,-26.367,0.000,0
157572.825,-24.414,-17.578,-19.531,-25.391,0.000,0
157572.829,-19.531,-28.320,-30.762,-21.484,0.000,0
157572.832,0.488,-30.762,-28.320,-9.766,0.000,0
157572.836,-4.395,-27.344,-21.973,-18.066,0.000,0
157572.840,-30.273,-31.738,-27.344,-43.945,0.000,0
157572.844,-23.926,-34.180,-26.855,-44.922,0.000,0
157572.848,-13.672,-33.203,-26.855,-45.410,0.000,0
157572.852,-14.648,-35.645,-30.273,-55.664,0.000,0
157572.856,-24.902,-38.086,-27.832,-47.363,0.000,0
157572.860,-50.293,-39.551,-35.645,-41.504,0.000,0
157572.864,-51.758,-36.621,-40.527,-41.992,0.000,0
157572.868,-43.457,-33.203,-30.273,-35.156,0.000,0
157572.872,-35.156,-30.273,-27.344,-37.109,0.000,0
157572.875,-26.367,-31.738,-25.879,-45.410,0.000,0
157572.879,-31.738,-32.227,-27.344,-35.645,0.000,0
157572.883,-43.945,-36.133,-35.645,-27.344,0.000,0
157572.887,-42.969,-41.016,-39.551,-14.160,0.000,0
157572.891,-34.180,-32.227,-32.227,-9.277,0.000,0
157572.895,-35.156,-28.320,-27.344,-15.625,0.000,0
157572.899,-37.598,-29.297,-29.785,-22.461,0.000,0
157572.903,-31.738,-29.297,-30.273,-20.020,0.000,0
157572.907,-26.367,-32.715,-35.156,-19.531,0.000,0
157572.911,-16.113,-35.645,-30.273,-16.602,0.000,0
157572.915,-17.578,-35.645,-21.973,-23.438,0.000,0
157572.918,-23.438,-29.297,-28.320,-31.738,0.000,1
157572.922,-20.020,-26.855,-23.926,-27.832,0.000,0
157572.926,-15.137,-25.391,-20.996,-23.438,0.000,0
157572.930,-14.648,-24.414,-29.297,-16.602,0.000,0
157572.934,-16.602,-23.926,-20.508,-22.949,0.000,0
157572.938,-23.438,-24.414,-18.555,-16.602,0.000,0
157572.942,-28.809,-29.785,-24.902,-18.066,0.000,0
157572.946,-19.531,-28.809,-21.484,-19.531,0.000,0
157572.950,-18.555,-29.785,-28.809,-14.648,0.000,0
157572.954,-34.180,-28.809,-29.785,-31.250,0.000,0
157572.957,-34.668,-27.832,-21.484,-36.133,0.000,0
157572.961,-19.531,-27.832,-25.391,-28.320,0.000,0
157572.965,-21.484,-21.973,-27.344,-14.648,0.000,0
157572.969,-16.113,-19.043,-21.973,-18.555,0.000,0
157572.973,-18.066,-27.832,-20.020,-28.320,0.000,0
157572.977,-21.973,-33.203,-23.926,-17.578,0.000,0
157572.981,-13.184,-25.879,-19.043,-28.320,0.000,0
157572.985,-18.066,-20.508,-16.602,-14.160,0.000,0
157572.989,-24.414,-25.391,-19.043,-7.812,0.000,0
157572.993,-21.973,-32.227,-21.973,-27.344,0.000,0
157572.997,-24.414,-28.809,-27.832,-18.555,0.000,0
157573.000,-30.273,-28.809,-31.250,-19.043,0.000,0
157573.004,-28.809,-32.227,-38.086,-22.461,0.000,0
157573.008,-18.555,-29.785,-31.250,-22.461,0.000,0
157573.012,-26.855,-26.855,-20.020,-18.555,0.000,0
157573.016,-31.738,-22.949,-20.508,-13.184,0.000,0
157573.020,-21.484,-26.855,-26.367,-22.461,0.000,0
157573.024,-26.367,-29.297,-25.391,-24.414,0.000,0
157573.028,-25.879,-23.926,-16.602,-24.902,0.000,0
157573.032,-18.555,-21.973,-11.230,-30.273,0.000,0
157573.036,-11.719,-23.438,-18.066,-16.602,0.000,0
157573.040,-15.625,-27.344,-24.902,-7.324,0.000,0
157573.043,-22.949,-28.809,-23.926,-17.090,0.000,0
157573.047,-15.137,-27.832,-25.879,-20.508,0.000,0
157573.051,-8.301,-29.297,-31.250,-28.809,0.000,0
157573.055,-13.672,-25.879,-29.785,-30.762,0.000,0
157573.059,-13.672,-22.949,-31.250,-35.645,0.000,0
157573.063,-5.859,-27.344,-29.297,-23.438,0.000,0
157573.067,-7.812,-28.809,-25.879,-1.953,0.000,0
157573.071,-19.043,-28.320,-26.367,-30.762,0.000,0
157573.075,-18.555,-28.320,-27.832,-35.645,0.000,0
157573.079,-13.184,-29.785,-29.297,-16.113,0.000,0
157573.082,-22.949,-28.320,-29.785,-24.902,0.000,0
157573.086,-29.297,-29.785,-26.367,-31.250,0.000,0
157573.090,-18.555,-33.203,-21.484,-28.320,0.000,0
157573.094,-15.137,-25.879,-19.043,-34.180,0.000,0
157573.098,-16.113,-23.438,-24.902,-30.762,0.000,0
157573.102,-23.926,-24.414,-29.785,-16.113,0.000,0
157573.106,-22.461,-20.996,-22.949,-11.230,0.000,0
157573.110,-17.578,-23.438,-22.949,-12.207,0.000,0
157573.114,-26.367,-28.809,-26.855,-23.438,0.000,0
157573.118,-32.227,-29.785,-27.832,-24.414,0.000,0
157573.122,-23.438,-29.785,-23.926,-21.973,0.000,0
157573.125,-20.020,-29.297,-22.461,-21.973,0.000,0
157573.129,-20.996,-25.879,-20.996,-23.438,0.000,0
157573.133,-21.973,-24.902,-17.090,-28.809,0.000,0
157573.137,-26.855,-28.320,-20.020,-32.715,0.000,0
157573.141,-26.367,-31.738,-29.785,-22.949,0.000,0
157573.145,-19.043,-33.691,-29.785,-18.555,0.000,0
157573.149,-26.367,-26.367,-15.137,-30.762,0.000,0
157573.153,-28.320,-23.438,-15.137,-25.391,0.000,0
157573.157,-12.695,-30.762,-22.461,-14.160,0.000,0
157573.161,-13.184,-31.738,-20.508,-18.066,0.000,0
157573.165,-13.672,-25.391,-21.484,-13.184,0.000,0
157573.168,-16.113,-19.043,-17.090,-17.578,0.000,0
157573.172,-24.902,-22.461,-20.508,-17.090,0.000,0
157573.176,-28.320,-20.996,-26.367,-0.488,0.000,0
157573.180,-33.691,-15.625,-28.320,-17.578,0.000,0
157573.184,-29.785,-20.508,-31.250,-20.508,0.000,0
157573.188,-35.645,-22.461,-29.785,-17.090,0.000,0
157573.192,-39.551,-20.508,-23.926,-32.227,0.000,0
157573.196,-25.391,-20.508,-17.090,-15.625,0.000,0
157573.200,-23.926,-26.367,-25.879,-19.043,0.000,0
157573.204,-23.926,-29.297,-41.504,-19.043,0.000,0
157573.207,-20.020,-31.738,-36.133,-14.648,0.000,0
157573.211,-15.137,-28.809,-30.273,-12.207,0.000,0
157573.215,-13.672,-22.461,-32.227,-2.441,0.000,0
157573.219,-19.043,-20.996,-29.297,-3.418,0.000,0
157573.223,-21.973,-22.949,-31.250,-15.137,0.000,0
157573.227,-21.973,-25.879,-30.762,-26.367,0.000,0
157573.231,-29.785,-23.438,-35.645,-28.809,0.000,0
157573.235,-39.551,-26.367,-47.852,-36.133,0.000,0
157573.239,-32.715,-28.809,-35.645,-35.645,0.000,0
157573.243,-29.297,-26.367,-28.809,-20.996,0.000,0
157573.247,-29.297,-26.855,-32.227,-35.645,0.000,0
157573.250,-27.344,-22.461,-21.973,-40.527,0.000,0
157573.254,-25.391,-24.902,-25.391,-21.484,0.000,0
157573.258,-16.602,-21.973,-28.809,-10.254,0.000,0
157573.262,-20.508,-19.531,-26.855,-25.879,0.000,0
157573.266,-30.762,-26.855,-24.414,-37.109,0.000,0
157573.270,-26.855,-25.879,-24.414,-30.762,0.000,0
157573.274,-22.461,-21.973,-28.320,-30.273,0.000,0
157573.278,-24.902,-24.902,-24.414,-22.949,0.000,0
157573.282,-30.273,-28.320,-26.367,-15.137,0.000,0
157573.286,-31.738,-24.902,-19.043,-24.414,0.000,0
157573.290,-31.250,-17.578,-17.578,-28.809,0.000,0
157573.293,-21.484,-22.461,-30.273,-15.137,0.000,0
157573.297,-21.973,-27.344,-31.738,-12.695,0.000,0
157573.301,-34.668,-19.043,-24.414,-16.602,0.000,0
157573.305,-38.574,-27.344,-27.832,-36.133,0.000,0
157573.309,-25.391,-34.180,-32.227,-45.898,0.000,0
157573.313,-25.879,-20.996,-21.484,-37.109,0.000,0
157573.317,-31.250,-25.391,-22.461,-26.367,0.000,0
157573.321,-23.926,-30.273,-32.715,-25.879,0.000,0
157573.325,-34.180,-30.273,-30.273,-32.715,0.000,0
157573.329,-38.574,-27.344,-23.926,-30.273,0.000,0
157573.332,-40.039,-30.762,-32.715,-33.203,0.000,0
157573.336,-38.574,-42.969,-44.434,-42.969,0.000,0
157573.340,-37.598,-42.969,-41.016,-39.062,0.000,0
157573.344,-33.691,-36.621,-33.203,-40.039,0.000,0
157573.348,-30.273,-31.250,-27.832,-46.387,0.000,0
157573.352,-32.227,-30.273,-34.668,-39.062,0.000,0
157573.356,-26.855,-31.250,-36.621,-35.645,0.000,0
157573.360,-28.809,-30.762,-33.203,-40.527,0.000,0
157573.364,-26.367,-35.645,-31.738,-37.109,0.000,0
157573.368,-30.273,-33.203,-29.785,-40.527,0.000,0
157573.372,-34.180,-30.762,-33.691,-38.086,0.000,0
157573.375,-24.902,-28.320,-24.902,-30.762,0.000,0
157573.379,-27.344,-26.855,-26.367,-26.855,0.000,0
157573.383,-31.738,-29.785,-32.227,-18.066,0.000,0
157573.387,-28.320,-26.367,-20.508,-36.133,0.000,0
157573.391,-30.762,-26.855,-22.461,-38.086,0.000,0
157573.395,-28.320,-32.715,-29.785,-28.809,0.000,0
157573.399,-22.461,-29.785,-24.902,-31.250,0.000,0
157573.403,-22.949,-23.438,-17.578,-30.762,0.000,0
157573.407,-26.367,-20.996,-20.508,-38.086,0.000,0
157573.411,-19.043,-17.578,-20.996,-28.320,0.000,0
157573.415,-9.277,-14.648,-18.066,-21.484,0.000,0
157573.418,-10.254,-14.160,-17.090,-21.484,0.000,0
157573.422,-7.812,-15.137,-15.625,-14.160,0.000,0
157573.426,-7.324,-19.043,-16.602,-22.461,0.000,0
157573.430,-16.113,-18.555,-20.020,-21.973,0.000,0
157573.434,-22.461,-22.461,-28.320,-13.184,0.000,0
157573.438,-24.902,-24.414,-30.762,-23.926,0.000,0
157573.442,-31.250,-21.973,-27.832,-20.020,0.000,0
157573.446,-33.203,-24.902,-24.902,-15.137,0.000,0
157573.450,-27.344,-28.320,-21.484,-23.926,0.000,0
157573.454,-31.738,-22.461,-27.344,-19.043,0.000,0
157573.457,-25.391,-18.066,-24.414,-2.930,0.000,0
157573.461,-19.531,-20.996,-20.508,-7.812,0.000,0
157573.465,-34.668,-27.344,-29.297,-35.645,0.000,0
157573.469,-41.504,-29.785,-35.156,-36.133,0.000,0
157573.473,-36.133,-26.367,-33.691,-30.762,0.000,0
157573.477,-37.598,-27.344,-27.344,-29.785,0.000,0
157573.481,-36.133,-20.508,-21.973,-27.344,0.000,0
157573.485,-27.344,-13.184,-21.973,-33.691,0.000,0
157573.489,-24.902,-17.090,-27.832,-41.016,0.000,0
157573.493,-26.855,-22.461,-32.227,-38.086,0.000,0
157573.497,-22.461,-22.949,-36.133,-21.484,0.000,0
157573.500,-22.461,-27.344,-29.297,-40.039,0.000,0
157573.504,-32.227,-29.297,-26.367,-38.086,0.000,0
157573.508,-29.785,-21.973,-28.320,-12.207,0.000,0
157573.512,-22.949,-24.902,-23.438,-18.555,0.000,0
157573.516,-31.250,-30.762,-31.250,-23.926,0.000,0
157573.520,-39.551,-28.320,-25.391,-32.227,0.000,0
157573.524,-35.645,-23.926,-21.484,-33.203,0.000,0
157573.528,-31.738,-24.414,-27.832,-21.973,0.000,0
157573.532,-36.133,-24.902,-23.438,-7.812,0.000,0
157573.536,-25.391,-28.320,-22.461,1.953,0.000,0
157573.540,-30.762,-28.320,-23.926,-17.090,0.000,0
157573.543,-32.715,-24.414,-25.391,-34.180,0.000,0
157573.547,-24.414,-24.902,-32.715,-23.926,0.000,0
157573.551,-39.062,-25.391,-30.762,-19.531,0.000,0
157573.555,-48.828,-29.297,-25.879,-27.344,0.000,0
157573.559,-39.551,-30.273,-24.414,-31.250,0.000,0
157573.563,-42.969,-25.879,-25.879,-27.344,0.000,0
157573.567,-45.410,-27.832,-34.668,-25.391,0.000,0
157573.571,-28.809,-29.785,-34.668,-20.508,0.000,0
157573.575,-20.020,-27.832,-30.762,-17.090,0.000,0
157573.579,-22.461,-39.551,-30.273,-25.391,0.000,0
157573.582,-28.320,-39.062,-27.344,-24.902,0.000,0
157573.586,-29.297,-34.180,-31.250,-31.738,0.000,0
157573.590,-23.438,-36.133,-31.250,-38.574,0.000,0
157573.594,-21.484,-33.203,-34.180,-20.020,0.000,0
157573.598,-28.320,-36.621,-39.551,-25.391,0.000,0
157573.602,-30.273,-42.480,-32.715,-47.363,0.000,0
157573.606,-24.902,-40.527,-30.762,-26.855,0.000,0
157573.610,-30.273,-37.598,-32.715,-9.766,0.000,0
157573.614,-32.227,-33.203,-31.738,-16.113,0.000,0
157573.618,-26.367,-29.297,-28.809,-18.066,0.000,0
157573.622,-22.949,-28.320,-18.555,-19.531,0.000,0
157573.625,-26.367,-24.414,-24.414,-15.625,0.000,0
157573.629,-23.926,-22.461,-33.691,-19.043,0.000,0
157573.633,-17.578,-23.926,-33.203,-16.113,0.000,0
157573.637,-16.602,-25.391,-19.043,-22.461,0.000,0
157573.641,-16.602,-18.555,-6.348,-18.555,0.000,0
157573.645,-10.742,-19.043,-15.625,-7.324,0.000,1
157573.649,-14.160,-20.508,-21.484,-14.160,0.000,0
157573.653,-26.367,-21.484,-17.090,-16.602,0.000,0
157573.657,-24.902,-21.973,-7.324,-20.020,0.000,0
157573.661,-12.695,-27.832,-12.207,-26.855,0.000,0
157573.665,2.441,-27.832,-19.531,-26.855,0.000,0
157573.668,-5.859,-19.043,-13.184,-25.879,0.000,0
157573.672,-12.695,-17.578,-11.719,-18.066,0.000,0
157573.676,-5.859,-18.066,-10.742,-13.184,0.000,0
157573.680,-6.836,-18.555,-9.766,-18.555,0.000,0
157573.684,-9.277,-17.578,-15.137,-11.719,0.000,0
157573.688,-5.859,-17.578,-13.672,-4.395,0.000,0
157573.692,-6.348,-18.555,-9.766,-15.137,0.000,0
157573.696,-8.301,-25.391,-11.719,-17.578,0.000,0
157573.700,-13.184,-27.344,-16.113,-34.180,0.000,0
157573.704,-22.461,-25.879,-29.785,-31.250,0.000,0
157573.707,-15.137,-28.320,-25.391,-13.672,0.000,0
157573.711,-14.648,-26.855,-22.949,-22.461,0.000,0
157573.715,-21.484,-24.414,-19.043,-13.184,0.000,0
157573.719,-16.113,-32.227,-14.648,-19.043,0.000,0
157573.723,-20.996,-28.809,-23.926,-35.645,0.000,0
157573.727,-29.297,-17.578,-20.996,-37.109,0.000,0
157573.731,-26.367,-15.137,-19.531,-25.391,0.000,0
157573.735,-30.273,-21.973,-29.785,-22.949,0.000,0
157573.739,-31.250,-24.902,-31.250,-25.391,0.000,0
157573.743,-33.203,-29.785,-26.855,-22.461,0.000,0
157573.747,-37.109,-32.715,-28.809,-18.555,0.000,0
157573.750,-30.762,-21.484,-25.879,-21.973,0.000,0
157573.754,-23.438,-21.973,-25.879,-18.066,0.000,0
157573.758,-22.949,-21.484,-22.949,-13.184,0.000,0
157573.762,-26.855,-19.531,-24.414,-15.625,0.000,0
157573.766,-30.273,-27.832,-31.250,-28.809,0.000,0
157573.770,-30.273,-32.227,-30.762,-25.391,0.000,0
157573.774,-24.414,-22.461,-23.926,-4.883,0.000,0
157573.778,-22.949,-18.555,-18.555,-9.277,0.000,0
157573.782,-21.484,-19.531,-20.508,-11.719,0.000,0
157573.786,-16.602,-17.578,-24.414,-4.395,0.000,0
157573.790,-26.367,-21.973,-23.438,-10.742,0.000,0
157573.793,-30.273,-25.391,-22.461,-16.602,0.000,0
157573.797,-23.926,-34.180,-32.715,-31.250,0.000,0
157573.801,-25.879,-30.273,-33.691,-41.504,0.000,0
157573.805,-28.320,-19.043,-20.020,-22.949,0.000,0
157573.809,-25.879,-26.367,-23.926,-17.578,0.000,0
157573.813,-29.297,-31.738,-34.180,-32.227,0.000,0
157573.817,-27.832,-28.320,-33.203,-35.645,0.000,0
157573.821,-25.879,-19.043,-31.250,-22.461,0.000,0
157573.825,-19.043,-14.648,-31.738,-10.254,0.000,0
157573.829,-14.160,-16.113,-20.020,-13.184,0.000,0
157573.832,-23.438,-11.230,-10.254,-14.160,0.000,0
157573.836,-16.602,-13.184,-8.789,-24.414,0.000,0
157573.840,-11.230,-18.555,-15.137,-23.926,0.000,0
157573.844,-27.344,-19.531,-28.809,-21.973,0.000,0
157573.848,-28.320,-24.414,-30.762,-27.344,0.000,0
157573.852,-30.762,-21.484,-21.484,-24.902,0.000,0
157573.856,-36.133,-20.020,-21.973,-33.691,0.000,0
157573.860,-33.203,-25.879,-27.832,-22.461,0.000,0
157573.864,-36.621,-25.391,-25.879,-18.555,0.000,0
157573.868,-37.598,-21.973,-22.949,-28.809,0.000,0
157573.872,-27.344,-26.855,-27.344,-23.926,0.000,0
157573.875,-28.320,-32.227,-26.367,-27.344,0.000,0
157573.879,-32.715,-26.367,-33.691,-38.574,0.000,0
157573.883,-25.879,-25.391,-40.527,-34.180,0.000,0
157573.887,-29.297,-29.297,-32.227,-33.203,0.000,0
157573.891,-30.762,-32.715,-35.645,-41.992,0.000,0
157573.895,-32.715,-28.809,-28.320,-46.875,0.000,0
157573.899,-27.344,-23.438,-29.297,-39.062,0.000,0
157573.903,-22.461,-30.273,-37.598,-33.203,0.000,0
157573.907,-19.043,-33.691,-32.715,-23.438,0.000,0
157573.911,-20.508,-25.879,-21.484,-19.043,0.000,0
157573.915,-27.832,-20.020,-18.066,-25.879,0.000,0
157573.918,-23.926,-19.043,-27.832,-25.391,0.000,0
157573.922,-18.066,-23.438,-26.855,-21.973,0.000,0
157573.926,-6.348,-27.832,-20.508,3.418,0.000,0
157573.930,0.000,-21.484,-13.672,11.230,0.000,0
157573.934,-22.949,-19.531,-16.113,-31.250,0.000,0
157573.938,-38.574,-17.090,-24.902,-41.992,0.000,0
157573.942,-20.508,-16.602,-30.273,-20.508,0.000,0
157573.946,-16.602,-20.020,-32.227,-15.137,0.000,0
157573.950,-34.668,-21.973,-21.973,-36.621,0.000,0
157573.954,-34.180,-20.020,-12.695,-37.109,0.000,0
157573.957,-28.320,-13.184,-19.043,-17.578,0.000,0
157573.961,-22.461,-15.137,-24.414,-15.137,0.000,0
157573.965,-21.484,-21.973,-30.762,-6.348,0.000,0
157573.969,-23.926,-16.113,-27.344,-10.742,0.000,0
157573.973,-16.602,-13.184,-19.043,-21.484,0.000,0
157573.977,-21.484,-14.648,-26.855,-24.902,0.000,0
157573.981,-30.762,-14.648,-28.320,-20.020,0.000,0
157573.985,-24.902,-15.137,-31.250,-10.742,0.000,0
157573.989,-19.531,-20.508,-36.133,-24.902,0.000,0
157573.993,-20.996,-19.043,-26.855,-22.949,0.000,0
157573.997,-19.531,-18.066,-28.809,-12.207,0.000,0
157574.000,-21.973,-25.391,-29.297,-22.461,0.000,0
157574.004,-15.625,-26.367,-21.484,-20.020,0.000,0
157574.008,-20.508,-25.879,-18.066,-24.414,0.000,0
157574.012,-35.156,-25.391,-27.832,-33.203,0.000,0
157574.016,-24.414,-27.832,-32.715,-22.461,0.000,0
157574.020,-15.625,-25.879,-27.344,-25.391,0.000,0
157574.024,-24.414,-21.973,-28.320,-12.207,0.000,0
157574.028,-27.344,-28.320,-31.738,-5.859,0.000,0
157574.032,-19.531,-32.715,-33.691,-15.625,0.000,0
157574.036,-17.578,-31.738,-33.203,-11.719,0.000,0
157574.040,-28.320,-34.668,-27.832,-6.836,0.000,0
157574.043,-29.297,-28.809,-29.785,3.906,0.000,0
157574.047,-14.648,-19.043,-24.414,-2.930,0.000,0
157574.051,-16.113,-14.160,-13.672,-6.836,0.000,0
157574.055,-19.043,-16.113,-18.555,-1.465,0.000,0
157574.059,-24.414,-20.020,-25.391,-17.578,0.000,0
157574.063,-29.785,-23.926,-25.391,-22.949,0.000,0
157574.067,-23.926,-33.691,-19.531,-19.043,0.000,0
157574.071,-22.461,-34.668,-21.484,-31.250,0.000,0
157574.075,-26.367,-30.273,-25.879,-37.109,0.000,0
157574.079,-20.020,-26.855,-26.367,-20.020,0.000,0
157574.082,-5.859,-18.066,-20.996,-2.930,0.000,0
157574.086,-15.137,-10.742,-4.883,0.000,0.000,0
157574.090,-16.113,-16.113,-15.137,-15.137,0.000,0
157574.094,-17.090,-17.090,-23.926,-16.602,0.000,0
157574.098,-27.344,-19.043,-20.508,-4.395,0.000,0
157574.102,-29.297,-22.461,-18.555,-8.301,0.000,0
157574.106,-29.297,-25.879,-18.066,-20.508,0.000,0
157574.110,-34.668,-27.344,-21.973,-36.133,0.000,0
157574.114,-40.039,-26.367,-20.508,-41.992,0.000,0
157574.118,-37.109,-30.273,-22.949,-21.484,0.000,0
157574.122,-37.598,-24.902,-24.414,-10.742,0.000,0
157574.125,-36.133,-19.043,-25.391,-22.461,0.000,0
157574.129,-37.109,-26.855,-23.926,-31.738,0.000,0
157574.133,-36.621,-29.785,-23.926,-20.508,0.000,0
157574.137,-19.043,-25.879,-27.832,-21.973,0.000,0
157574.141,-13.672,-30.273,-33.691,-10.254,0.000,0
157574.145,-16.113,-31.738,-26.367,-4.395,0.000,0
157574.149,-25.391,-23.926,-16.602,-38.574,0.000,0
157574.153,-39.551,-25.391,-28.809,-48.340,0.000,0
157574.157,-31.250,-24.902,-34.668,-29.785,0.000,0
157574.161,-30.273,-22.461,-33.203,-20.020,0.000,0
157574.165,-34.668,-26.367,-32.715,-29.785,0.000,0
157574.168,-35.645,-30.273,-33.203,-44.922,0.000,0
157574.172,-39.062,-22.461,-36.621,-52.246,0.000,0
157574.176,-43.457,-21.484,-33.691,-49.316,0.000,0
157574.180,-35.156,-32.227,-38.086,-42.480,0.000,0
157574.184,-16.602,-33.691,-44.922,-36.133,0.000,0
157574.188,-18.555,-35.156,-43.945,-40.039,0.000,0
157574.192,-27.344,-35.645,-40.039,-41.992,0.000,0
157574.196,-27.832,-33.203,-40.527,-45.898,0.000,0
157574.200,-26.367,-34.180,-40.527,-39.551,0.000,0
157574.204,-37.598,-38.574,-34.180,-32.715,0.000,0
157574.207,-35.645,-34.180,-32.715,-40.039,0.000,0
157574.211,-31.250,-30.762,-37.109,-40.039,0.000,0
157574.215,-40.039,-31.738,-34.668,-33.691,0.000,0
157574.219,-35.645,-29.297,-28.320,-27.832,0.000,0
157574.223,-25.391,-25.391,-29.297,-24.902,0.000,0
157574.227,-19.531,-27.832,-27.832,-44.922,0.000,0
157574.231,-24.414,-25.391,-31.738,-43.457,0.000,0
157574.235,-26.367,-24.902,-33.691,-30.273,0.000,0
157574.239,-18.555,-24.902,-34.180,-21.484,0.000,0
157574.243,-13.184,-20.996,-29.785,-22.461,0.000,0
157574.247,-20.996,-24.902,-20.020,-44.922,0.000,0
157574.250,-23.926,-22.949,-21.484,-36.133,0.000,0
157574.254,-20.508,-27.344,-24.902,-31.738,0.000,0
157574.258,-26.855,-29.297,-24.414,-33.691,0.000,0
157574.262,-32.715,-24.414,-27.344,-14.160,0.000,0
157574.266,-25.879,-24.902,-14.160,-25.391,0.000,0
157574.270,-15.625,-24.414,-16.602,-29.785,0.000,0
157574.274,-20.508,-25.879,-22.949,-19.043,0.000,0
157574.278,-32.715,-32.227,-22.461,-33.203,0.000,0
157574.282,-22.949,-34.668,-24.414,-36.621,0.000,0
157574.286,-19.043,-34.180,-20.508,-37.598,0.000,0
157574.290,-31.250,-30.762,-27.832,-39.551,0.000,0
157574.293,-29.297,-31.250,-33.691,-32.227,0.000,0
157574.297,-24.902,-30.273,-29.297,-16.113,0.000,0
157574.301,-25.879,-28.320,-26.855,-24.902,0.000,1
157574.305,-25.879,-26.855,-16.113,-37.109,0.000,0
157574.309,-33.203,-26.855,-17.090,-20.508,0.000,0
157574.313,-30.273,-33.691,-27.344,-16.113,0.000,0
157574.317,-22.461,-29.297,-28.320,-23.438,0.000,0
157574.321,-21.484,-25.391,-21.973,-35.156,0.000,0
157574.325,-26.367,-25.879,-18.066,-35.645,0.000,0
157574.329,-31.250,-26.855,-29.785,-41.504,0.000,0
157574.332,-15.137,-25.391,-29.297,-35.645,0.000,0
157574.336,-16.113,-26.855,-23.438,-19.043,0.000,0
157574.340,-30.762,-30.273,-19.043,-18.066,0.000,0
157574.344,-25.391,-27.344,-16.602,-28.809,0.000,0
157574.348,-24.414,-29.297,-30.762,-31.250,0.000,0
157574.352,-33.691,-30.762,-41.016,-31.738,0.000,0
157574.356,-39.062,-33.691,-41.992,-38.574,0.000,0
157574.360,-36.621,-37.109,-39.551,-37.109,0.000,0
157574.364,-25.391,-31.738,-30.273,-22.461,0.000,0
157574.368,-20.508,-25.391,-24.902,-23.438,0.000,0
157574.372,-31.738,-28.320,-18.066,-19.531,0.000,0
157574.375,-22.949,-31.250,-21.973,-18.066,0.000,0
157574.379,-16.602,-26.855,-27.832,-29.297,0.000,0
157574.383,-22.461,-25.391,-19.043,-28.809,0.000,0
157574.387,-17.090,-33.691,-17.090,-34.668,0.000,0
157574.391,-18.066,-28.809,-28.809,-37.109,0.000,0
157574.395,-24.902,-25.391,-28.809,-33.691,0.000,0
157574.399,-23.438,-30.273,-18.555,-28.809,0.000,0
157574.403,-29.297,-29.785,-22.461,-37.598,0.000,0
157574.407,-25.391,-24.414,-26.855,-41.016,0.000,0
157574.411,-21.484,-29.297,-24.902,-27.344,0.000,0
157574.415,-21.484,-33.203,-23.926,-22.949,0.000,0
157574.418,-14.648,-26.367,-23.926,-25.879,0.000,0
157574.422,-20.996,-25.391,-22.461,-36.133,0.000,0
157574.426,-30.273,-22.949,-22.461,-27.344,0.000,0
157574.430,-32.715,-25.391,-27.832,-23.438,0.000,0
157574.434,-27.832,-27.832,-27.832,-21.973,0.000,0
157574.438,-24.414,-29.785,-29.785,-16.602,0.000,0
157574.442,-32.227,-25.391,-24.902,-32.715,0.000,0
157574.446,-26.367,-25.391,-20.508,-25.879,0.000,0
157574.450,-36.621,-33.203,-27.344,-21.973,0.000,0
157574.454,-42.969,-37.109,-37.598,-27.344,0.000,0
157574.457,-38.574,-40.527,-37.598,-20.020,0.000,0
157574.461,-35.645,-36.621,-29.785,-25.879,0.000,0
157574.465,-26.855,-26.855,-28.320,-31.738,0.000,0
157574.469,-38.086,-26.367,-37.109,-24.414,0.000,0
157574.473,-43.945,-32.715,-39.062,-32.227,0.000,0
157574.477,-41.504,-36.133,-37.598,-32.715,0.000,0
157574.481,-35.645,-37.109,-32.227,-27.832,0.000,0
157574.485,-31.250,-33.691,-28.809,-29.785,0.000,0
157574.489,-34.668,-32.227,-35.156,-27.344,0.000,0
157574.493,-33.691,-35.156,-35.156,-35.645,0.000,0
157574.497,-31.250,-33.203,-26.855,-32.715,0.000,0
157574.500,-27.344,-26.855,-19.043,-34.668,0.000,0
157574.504,-25.879,-26.367,-15.625,-36.621,0.000,0
157574.508,-24.902,-32.227,-28.320,-26.367,0.000,0
157574.512,-18.066,-33.203,-28.809,-23.438,0.000,0
157574.516,-31.738,-27.832,-19.531,-31.250,0.000,0
157574.520,-40.039,-29.785,-18.555,-27.832,0.000,0
157574.524,-32.227,-23.926,-22.461,-21.484,0.000,0
157574.528,-36.133,-19.531,-24.414,-27.832,0.000,0
157574.532,-31.738,-21.484,-20.508,-22.461,0.000,0
157574.536,-20.508,-16.113,-20.020,-10.742,0.000,0
157574.540,-18.555,-17.090,-19.043,-13.672,0.000,0
157574.543,-19.043,-20.996,-18.555,-23.438,0.000,0
157574.547,-26.855,-23.438,-20.996,-14.160,0.000,0
157574.551,-22.461,-25.391,-18.066,-6.836,0.000,0
157574.555,-19.531,-20.020,-22.949,-11.719,0.000,0
157574.559,-30.273,-22.949,-20.508,-24.414,0.000,0
157574.563,-20.020,-23.438,-20.508,-15.625,0.000,0
157574.567,-17.578,-21.484,-26.367,-11.719,0.000,0
157574.571,-27.832,-27.344,-24.414,-28.320,0.000,0
157574.575,-26.367,-33.203,-29.297,-18.066,0.000,0
157574.579,-30.762,-37.598,-30.273,-26.855,0.000,0
157574.582,-34.668,-35.156,-31.738,-43.457,0.000,0
157574.586,-35.645,-33.691,-37.109,-31.738,0.000,0
157574.590,-40.039,-33.691,-33.691,-26.855,0.000,0
157574.594,-36.133,-31.738,-31.738,-23.926,0.000,0
157574.598,-32.227,-35.645,-26.367,-33.691,0.000,0
157574.602,-18.066,-30.762,-29.785,-41.992,0.000,0
157574.606,-21.973,-31.250,-35.156,-32.715,0.000,0
157574.610,-36.621,-36.621,-26.855,-30.762,0.000,0
157574.614,-30.762,-30.762,-29.297,-21.484,0.000,0
157574.618,-32.715,-29.785,-22.949,-33.203,0.000,0
157574.622,-44.434,-29.297,-19.043,-37.598,0.000,0
157574.625,-41.992,-30.273,-34.180,-18.555,0.000,0
157574.629,-34.180,-33.691,-33.691,-25.391,0.000,0
157574.633,-30.273,-27.832,-32.227,-15.625,0.000,0
157574.637,-18.066,-29.297,-30.273,4.883,0.000,0
157574.641,-26.367,-34.180,-25.879,-19.043,0.000,0
157574.645,-46.875,-30.762,-35.156,-60.059,0.000,0
157574.649,-46.875,-33.203,-37.109,-55.664,0.000,0
157574.653,-39.551,-31.250,-32.227,-33.203,0.000,0
157574.657,-37.598,-20.508,-25.879,-37.598,0.000,0
157574.661,-34.668,-19.531,-21.484,-36.621,0.000,0
157574.665,-44.434,-23.438,-29.297,-32.227,0.000,0
157574.668,-43.457,-23.926,-31.738,-24.414,0.000,0
157574.672,-16.113,-18.555,-21.973,-5.859,0.000,0
157574.676,-10.254,-22.461,-17.578,-14.648,0.000,0
157574.680,-12.695,-22.461,-19.531,-34.180,0.000,0
157574.684,-8.789,-14.648,-21.973,-32.227,0.000,0
157574.688,-20.996,-14.648,-26.855,-27.832,0.000,0
157574.692,-24.414,-17.578,-32.715,-32.715,0.000,0
157574.696,-21.973,-18.066,-26.367,-30.273,0.000,0
157574.700,-23.926,-16.113,-16.113,-29.297,0.000,0
157574.704,-13.672,-15.137,-19.531,-26.855,0.000,0
157574.707,-9.766,-21.484,-26.855,-32.227,0.000,0
157574.711,-14.648,-20.996,-22.949,-28.320,0.000,0
157574.715,-10.742,-19.531,-13.672,-12.207,0.000,0
157574.719,-11.230,-20.020,-13.184,-22.461,0.000,0
157574.723,-3.906,-17.090,-12.207,-23.438,0.000,0
157574.727,-3.418,-18.066,-16.113,-15.137,0.000,0
157574.731,-20.996,-21.973,-18.066,-23.926,0.000,0
157574.735,-24.902,-25.879,-14.160,-24.414,0.000,0
157574.739,-22.461,-20.996,-22.461,-31.250,0.000,0
157574.743,-30.762,-14.648,-23.438,-33.203,0.000,0
157574.747,-26.367,-16.602,-13.672,-26.855,0.000,0
157574.750,-12.695,-19.531,-16.113,-20.996,0.000,0
157574.754,-16.113,-17.090,-14.648,-8.789,0.000,0
157574.758,-20.020,-19.043,-14.648,-13.672,0.000,0
157574.762,-15.137,-13.184,-16.602,-11.230,0.000,0
157574.766,-11.230,-6.836,-20.996,-8.789,0.000,0
157574.770,-15.137,-12.207,-27.344,-12.207,0.000,0
157574.774,-19.043,-14.160,-17.578,-3.906,0.000,0
157574.778,-19.043,-14.648,-9.766,-1.953,0.000,0
157574.782,-18.555,-17.578,-13.672,-17.578,0.000,0
157574.786,-21.973,-25.879,-19.531,-29.785,0.000,0
157574.790,-31.250,-30.273,-21.484,-23.438,0.000,0
157574.793,-21.973,-25.879,-22.461,-27.832,0.000,0
157574.797,-17.090,-24.414,-22.461,-34.180,0.000,0
157574.801,-20.508,-20.508,-26.855,-15.625,0.000,0
157574.805,-18.555,-27.344,-25.879,-16.113,0.000,0
157574.809,-22.461,-33.691,-28.809,-20.508,0.000,0
157574.813,-31.250,-31.250,-34.180,-22.949,0.000,0
157574.817,-26.855,-22.949,-21.973,-29.785,0.000,0
157574.821,-22.461,-19.531,-20.508,-25.879,0.000,0
157574.825,-27.344,-22.949,-34.180,-25.391,0.000,0
157574.829,-24.414,-25.879,-38.574,-21.973,0.000,0
157574.832,-23.926,-21.973,-19.043,-20.508,0.000,0
157574.836,-28.320,-27.344,-16.113,-29.297,0.000,0
157574.840,-31.738,-33.691,-39.551,-14.160,0.000,0
157574.844,-35.645,-28.809,-36.133,-11.719,0.000,0
157574.848,-35.645,-28.320,-23.926,-17.578,0.000,0
157574.852,-30.273,-30.762,-27.344,-32.715,0.000,0
157574.856,-21.973,-32.227,-26.855,-42.480,0.000,0
157574.860,-28.320,-28.320,-25.391,-28.320,0.000,0
157574.864,-25.879,-24.414,-26.855,-16.113,0.000,0
157574.868,-20.996,-25.391,-22.461,-15.625,0.000,0
157574.872,-26.855,-29.785,-19.043,-19.531,0.000,0
157574.875,-25.879,-31.738,-18.555,-16.113,0.000,0
157574.879,-28.320,-29.297,-25.879,-12.207,0.000,0
157574.883,-17.578,-29.297,-31.738,-20.020,0.000,0
157574.887,-17.090,-27.832,-29.785,-17.578,0.000,0
157574.891,-36.621,-28.320,-26.855,-19.043,0.000,0
157574.895,-40.039,-33.691,-23.438,-32.715,0.000,0
157574.899,-37.109,-35.645,-26.367,-28.320,0.000,0
157574.903,-39.062,-28.320,-30.273,-21.973,0.000,0
157574.907,-35.156,-22.949,-27.832,-24.414,0.000,0
157574.911,-36.133,-31.738,-28.320,-21.973,0.000,0
157574.915,-37.598,-35.645,-27.344,-27.832,0.000,0
157574.918,-40.039,-33.691,-30.762,-34.180,0.000,0
157574.922,-48.828,-36.621,-32.715,-34.668,0.000,0
157574.926,-45.410,-35.645,-41.504,-31.738,0.000,0
157574.930,-32.715,-32.227,-42.480,-25.391,0.000,0
157574.934,-36.133,-36.133,-35.156,-39.551,0.000,0
157574.938,-48.828,-35.645,-36.133,-34.668,0.000,0
157574.942,-48.340,-33.691,-37.109,-16.113,0.000,0
157574.946,-34.180,-32.715,-39.062,-15.625,0.000,0
157574.950,-29.297,-34.668,-31.250,-15.625,0.000,0
157574.954,-30.762,-37.598,-26.367,-21.973,0.000,0
157574.957,-28.320,-36.621,-39.062,-33.203,0.000,0
157574.961,-24.902,-32.227,-33.203,-26.367,0.000,0
157574.965,-28.320,-29.297,-22.949,-18.066,0.000,0
157574.969,-19.043,-29.785,-26.367,-21.973,0.000,0
157574.973,-14.160,-28.320,-26.855,-37.109,0.000,0
157574.977,-21.973,-26.367,-26.855,-30.273,0.000,0
157574.981,-20.996,-33.691,-24.902,-19.043,0.000,0
157574.985,-12.207,-32.227,-28.809,-24.414,0.000,0
157574.989,-13.184,-27.832,-29.297,-22.461,0.000,1
157574.993,-20.020,-29.785,-24.414,-33.203,0.000,0
157574.997,-20.996,-29.297,-28.809,-35.645,0.000,0
157575.000,-19.531,-32.227,-33.203,-34.180,0.000,0
157575.004,-15.625,-32.227,-26.855,-35.156,0.000,0
157575.008,-9.277,-23.926,-18.066,-20.020,0.000,0
157575.012,-17.578,-17.090,-11.230,-22.461,0.000,0
157575.016,-24.902,-19.531,-18.066,-25.391,0.000,0
157575.020,-18.555,-22.949,-29.785,-20.996,0.000,0
157575.024,-19.531,-19.043,-20.508,-16.602,0.000,0
157575.028,-24.902,-14.648,-14.648,-15.625,0.000,0
157575.032,-12.695,-21.973,-23.438,-20.508,0.000,0
157575.036,-16.602,-23.438,-27.832,-25.391,0.000,0
157575.040,-22.461,-18.066,-24.414,-29.785,0.000,0
157575.043,-17.090,-22.949,-15.625,-24.902,0.000,0
157575.047,-19.531,-19.531,-24.902,-20.020,0.000,0
157575.051,-22.949,-13.184,-22.461,-19.043,0.000,0
157575.055,-25.391,-13.672,-15.137,-15.137,0.000,0
157575.059,-30.762,-19.043,-18.555,-18.066,0.000,0
157575.063,-28.320,-18.555,-28.320,-28.809,0.000,0
157575.067,-16.602,-20.020,-30.762,-16.602,0.000,0
157575.071,-17.578,-24.902,-19.043,-4.883,0.000,0
157575.075,-24.902,-24.902,-21.484,-25.391,0.000,0
157575.079,-21.484,-25.879,-29.297,-23.926,0.000,0
157575.082,-21.973,-29.297,-26.367,-6.836,0.000,0
157575.086,-30.273,-28.320,-23.926,-15.625,0.000,0
157575.090,-28.809,-23.438,-20.020,-22.949,0.000,0
157575.094,-23.926,-23.438,-21.484,-25.879,0.000,0
157575.098,-16.113,-23.438,-19.043,-17.090,0.000,0
157575.102,-13.672,-14.648,-14.160,-1.465,0.000,0
157575.106,-20.508,-12.695,-20.508,-6.836,0.000,0
157575.110,-20.508,-19.043,-15.137,-18.555,0.000,0
157575.114,-23.926,-16.113,-11.230,-18.066,0.000,0
157575.118,-32.715,-12.207,-13.184,-4.883,0.000,0
157575.122,-29.297,-21.973,-18.555,-11.230,0.000,0
157575.125,-25.391,-30.762,-30.273,-22.949,0.000,0
157575.129,-31.738,-26.367,-31.250,-29.297,0.000,0
157575.133,-36.133,-26.367,-26.367,-39.062,0.000,0
157575.137,-35.156,-27.832,-28.809,-45.898,0.000,0
157575.141,-29.297,-26.855,-25.879,-40.039,0.000,0
157575.145,-19.531,-21.973,-12.695,-30.273,0.000,0
157575.149,-20.508,-16.113,-14.648,-18.555,0.000,0
157575.153,-22.461,-17.090,-17.578,-15.137,0.000,0
157575.157,-19.043,-20.996,-18.555,-17.578,0.000,0
157575.161,-22.461,-16.113,-16.113,-18.066,0.000,0
157575.165,-25.391,-18.555,-21.973,-22.949,0.000,0
157575.168,-12.695,-26.855,-27.344,-26.367,0.000,0
157575.172,-19.043,-20.996,-20.020,-31.250,0.000,0
157575.176,-27.832,-14.648,-19.531,-27.832,0.000,0
157575.180,-19.043,-26.367,-25.391,-11.719,0.000,0
157575.184,-23.926,-30.762,-29.785,-10.254,0.000,0
157575.188,-27.832,-22.949,-23.438,-26.855,0.000,0
157575.192,-25.391,-26.367,-23.438,-36.621,0.000,0
157575.196,-21.973,-27.344,-28.809,-32.227,0.000,0
157575.200,-31.250,-29.785,-31.250,-32.715,0.000,0
157575.204,-41.992,-33.691,-35.645,-26.855,0.000,0
157575.207,-37.109,-29.785,-23.926,-23.438,0.000,0
157575.211,-20.508,-29.785,-20.020,-30.273,0.000,0
157575.215,-15.625,-26.855,-22.949,-20.020,0.000,0
157575.219,-24.414,-25.879,-25.391,-7.812,0.000,0
157575.223,-26.855,-24.414,-32.715,-10.742,0.000,0
157575.227,-27.832,-25.391,-34.668,-18.555,0.000,0
157575.231,-22.949,-27.832,-22.461,-21.484,0.000,0
157575.235,-12.695,-21.484,-19.531,-17.578,0.000,0
157575.239,-16.602,-23.438,-27.344,-27.344,0.000,0
157575.243,-22.949,-33.691,-33.203,-27.832,0.000,0
157575.247,-23.438,-27.832,-27.832,-13.184,0.000,0
157575.250,-24.902,-25.391,-15.625,-17.090,0.000,0
157575.254,-22.461,-28.320,-28.809,-19.531,0.000,0
157575.258,-21.484,-30.273,-35.645,-15.137,0.000,0
157575.262,-16.113,-26.855,-23.926,-13.184,0.000,0
157575.266,-20.996,-27.832,-28.320,-16.602,0.000,0
157575.270,-19.043,-35.645,-27.832,-30.273,0.000,0
157575.274,-25.391,-39.062,-28.809,-39.551,0.000,0
157575.278,-31.738,-31.250,-27.344,-35.645,0.000,0
157575.282,-23.438,-23.438,-24.414,-15.137,0.000,0
157575.286,-22.461,-24.902,-33.203,-12.207,0.000,0
157575.290,-30.273,-30.273,-31.738,-27.832,0.000,0
157575.293,-32.715,-26.855,-30.762,-17.090,0.000,0
157575.297,-28.809,-24.902,-33.691,-15.625,0.000,0
157575.301,-24.902,-29.297,-32.227,-22.949,0.000,0
157575.305,-20.996,-30.762,-35.156,-19.531,0.000,0
157575.309,-28.809,-29.785,-33.203,-37.109,0.000,0
157575.313,-23.438,-26.855,-26.367,-36.621,0.000,0
157575.317,-19.043,-23.438,-30.273,-27.344,0.000,0
157575.321,-22.949,-23.438,-32.227,-21.973,0.000,0
157575.325,-17.090,-17.090,-26.855,-15.625,0.000,0
157575.329,-14.648,-22.461,-24.414,-27.832,0.000,0
157575.332,-16.113,-32.715,-26.367,-26.367,0.000,0
157575.336,-23.926,-27.344,-26.367,-20.020,0.000,0
157575.340,-27.344,-26.855,-27.344,-27.832,0.000,0
157575.344,-16.113,-32.227,-30.762,-26.367,0.000,0
157575.348,-20.020,-26.367,-32.715,-32.227,0.000,0
157575.352,-33.203,-22.949,-23.438,-38.574,0.000,0
157575.356,-37.109,-25.391,-24.414,-27.832,0.000,0
157575.360,-29.297,-30.273,-35.645,-22.461,0.000,0
157575.364,-22.461,-29.297,-32.715,-28.320,0.000,0
157575.368,-18.066,-24.414,-23.438,-30.273,0.000,0
157575.372,-22.949,-25.391,-26.367,-30.762,0.000,0
157575.375,-29.297,-28.809,-36.133,-31.250,0.000,0
157575.379,-18.555,-32.227,-30.762,-28.320,0.000,0
157575.383,-15.137,-26.367,-22.949,-19.043,0.000,0
157575.387,-31.250,-27.344,-26.367,-24.902,0.000,0
157575.391,-34.668,-29.785,-27.344,-32.715,0.000,0
157575.395,-31.250,-21.484,-25.879,-20.996,0.000,0
157575.399,-28.809,-21.973,-23.438,-19.531,0.000,0
157575.403,-33.203,-23.438,-16.602,-25.391,0.000,0
157575.407,-31.738,-25.879,-20.996,-30.762,0.000,0
157575.411,-37.109,-27.832,-21.973,-35.645,0.000,0
157575.415,-37.598,-29.297,-23.438,-29.297,0.000,0
157575.418,-34.668,-31.250,-28.809,-24.414,0.000,0
157575.422,-27.832,-24.414,-29.297,-10.742,0.000,0
157575.426,-19.531,-22.949,-24.902,-11.230,0.000,0
157575.430,-30.273,-21.484,-17.090,-26.367,0.000,0
157575.434,-33.691,-18.555,-22.461,-21.973,0.000,0
157575.438,-14.160,-18.066,-25.879,-11.719,0.000,0
157575.442,-9.766,-18.555,-26.367,-3.418,0.000,0
157575.446,-28.320,-18.066,-18.066,-9.277,0.000,0
157575.450,-31.250,-17.578,-20.020,-24.902,0.000,0
157575.454,-27.832,-22.949,-29.297,-38.574,0.000,0
157575.457,-32.227,-26.367,-26.367,-43.945,0.000,0
157575.461,-31.738,-28.320,-34.180,-19.531,0.000,0
157575.465,-35.645,-28.809,-33.203,-14.160,0.000,0
157575.469,-33.691,-26.367,-23.438,-26.855,0.000,0
157575.473,-32.227,-23.926,-32.715,-19.531,0.000,0
157575.477,-26.367,-16.602,-31.250,-8.789,0.000,0
157575.481,-23.438,-17.578,-27.344,-4.883,0.000,0
157575.485,-22.461,-23.438,-30.762,-10.742,0.000,0
157575.489,-18.066,-25.391,-25.879,-24.414,0.000,0
157575.493,-28.320,-24.414,-23.926,-26.855,0.000,0
157575.497,-36.133,-22.461,-32.227,-19.531,0.000,0
157575.500,-25.391,-22.949,-28.320,-20.020,0.000,0
157575.504,-23.438,-21.484,-20.508,-26.855,0.000,0
157575.508,-39.551,-19.043,-20.020,-24.414,0.000,0
157575.512,-44.434,-21.973,-25.391,-29.297,0.000,0
157575.516,-39.551,-27.832,-23.926,-41.016,0.000,0
157575.520,-40.527,-32.715,-20.508,-28.320,0.000,0
157575.524,-38.574,-32.715,-22.461,-33.203,0.000,0
157575.528,-37.109,-27.344,-20.996,-46.387,0.000,0
157575.532,-38.574,-22.949,-22.461,-35.156,0.000,0
157575.536,-25.879,-26.855,-26.855,-20.020,0.000,0
157575.540,-25.391,-26.855,-29.785,-9.766,0.000,0
157575.543,-24.902,-21.973,-21.973,-16.113,0.000,0
157575.547,-18.066,-22.461,-11.230,-40.039,0.000,0
157575.551,-21.973,-24.414,-20.020,-37.598,0.000,0
157575.555,-18.555,-26.855,-26.855,-35.645,0.000,0
157575.559,-21.484,-30.762,-23.926,-36.133,0.000,0
157575.563,-29.785,-27.832,-28.320,-21.484,0.000,0
157575.567,-28.320,-25.391,-21.973,-38.574,0.000,0
157575.571,-24.902,-27.832,-22.461,-38.574,0.000,0
157575.575,-33.691,-29.297,-34.180,-27.832,0.000,1
157575.579,-37.109,-30.273,-34.668,-30.273,0.000,0
157575.582,-42.969,-35.645,-28.809,-30.273,0.000,0
157575.586,-44.922,-32.715,-32.227,-42.480,0.000,0
157575.590,-39.551,-24.902,-29.785,-42.480,0.000,0
157575.594,-31.250,-23.926,-28.320,-27.344,0.000,0
157575.598,-32.715,-25.879,-30.762,-9.766,0.000,0
157575.602,-30.273,-25.391,-30.273,-14.160,0.000,0
157575.606,-30.762,-22.949,-23.926,-31.738,0.000,0
157575.610,-34.668,-17.090,-23.926,-23.926,0.000,0
157575.614,-31.738,-14.648,-24.902,-16.602,0.000,0
157575.618,-29.297,-16.113,-30.273,-24.414,0.000,0
157575.622,-28.320,-17.578,-35.156,-23.438,0.000,0
157575.625,-24.414,-19.043,-25.391,-19.531,0.000,0
157575.629,-16.113,-17.578,-32.715,-16.113,0.000,0
157575.633,-19.043,-10.742,-40.039,-23.926,0.000,0
157575.637,-29.297,-4.395,-34.668,-29.785,0.000,0
157575.641,-22.949,2.930,-31.738,-19.531,0.000,0
157575.645,-17.578,7.812,-27.344,-16.113,0.000,0
157575.649,-19.531,6.348,-31.250,-8.301,0.000,0
157575.653,-9.277,14.648,-28.320,7.812,0.000,0
157575.657,-4.883,29.297,-21.973,4.883,0.000,0
157575.661,-15.137,21.973,-28.320,-8.789,0.000,0
157575.665,-28.809,16.113,-33.203,-22.461,0.000,0
157575.668,-20.996,20.996,-23.926,-19.043,0.000,0
157575.672,-20.020,19.531,-21.484,-5.371,0.000,0
157575.676,-26.367,17.578,-24.414,4.395,0.000,0
157575.680,-20.996,12.695,-25.879,3.906,0.000,0
157575.684,-20.020,3.418,-20.508,-16.113,0.000,0
157575.688,-26.855,8.789,-22.461,-27.344,0.000,0
157575.692,-19.531,13.672,-31.250,-22.949,0.000,0
157575.696,-13.184,9.766,-22.461,-15.137,0.000,0
157575.700,-14.160,9.766,-13.184,-8.301,0.000,0
157575.704,-12.695,4.883,-10.254,-15.137,0.000,0
157575.707,-20.020,-0.488,-11.230,-25.391,0.000,0
157575.711,-17.090,-3.906,-16.113,-15.625,0.000,0
157575.715,-10.254,-5.859,-15.137,-0.488,0.000,0
157575.719,-13.672,-4.395,-14.648,-0.488,0.000,0
157575.723,-18.066,-12.695,-19.043,-14.160,0.000,0
157575.727,-18.066,-10.254,-17.578,-18.066,0.000,0
157575.731,-18.066,-8.301,-16.602,-16.113,0.000,0
157575.735,-21.973,-15.625,-20.508,-22.949,0.000,0
157575.739,-15.137,-13.672,-22.461,-11.719,0.000,0
157575.743,-17.090,-19.043,-17.578,-3.906,0.000,0
157575.747,-20.508,-24.902,-17.090,-8.301,0.000,0
157575.750,-10.742,-19.531,-18.555,0.488,0.000,0
157575.754,-9.277,-21.973,-23.438,-2.441,0.000,0
157575.758,-15.137,-25.391,-28.320,-11.719,0.000,0
157575.762,-21.484,-30.273,-21.484,-14.160,0.000,0
157575.766,-23.926,-40.039,-27.344,-22.949,0.000,0
157575.770,-20.996,-43.457,-36.133,-29.785,0.000,0
157575.774,-24.414,-36.621,-29.297,-31.250,0.000,0
157575.778,-29.297,-32.715,-25.391,-1.953,0.000,0
157575.782,-15.137,-39.551,-29.785,-1.953,0.000,0
157575.786,-15.625,-39.062,-32.227,-25.879,0.000,0
157575.790,-21.973,-36.621,-31.738,-18.066,0.000,0
157575.793,-25.391,-35.645,-30.762,-11.230,0.000,0
157575.797,-22.949,-39.062,-29.297,-21.484,0.000,0
157575.801,-20.996,-45.898,-29.297,-27.344,0.000,0
157575.805,-32.227,-43.457,-28.809,-35.156,0.000,0
157575.809,-39.551,-39.551,-24.414,-36.133,0.000,0
157575.813,-22.949,-43.457,-30.762,-26.367,0.000,0
157575.817,-16.602,-45.898,-33.203,-20.508,0.000,0
157575.821,-32.227,-45.410,-25.391,-28.320,0.000,0
157575.825,-34.180,-43.945,-26.855,-33.691,0.000,0
157575.829,-24.902,-42.969,-38.574,-33.691,0.000,0
157575.832,-17.090,-42.969,-40.527,-34.180,0.000,0
157575.836,-17.090,-40.527,-30.762,-29.297,0.000,0
157575.840,-27.832,-39.551,-33.691,-37.598,0.000,0
157575.844,-34.180,-44.922,-35.156,-55.664,0.000,0
157575.848,-22.949,-43.945,-27.344,-45.410,0.000,0
157575.852,-29.785,-42.969,-27.344,-34.668,0.000,0
157575.856,-46.875,-41.504,-38.086,-30.762,0.000,0
157575.860,-41.504,-39.062,-39.551,-25.879,0.000,0
157575.864,-27.832,-45.410,-35.645,-29.785,0.000,0
157575.868,-33.691,-46.387,-33.691,-19.043,0.000,0
157575.872,-28.809,-38.574,-32.227,-31.738,0.000,0
157575.875,-29.297,-44.434,-32.227,-55.176,0.000,0
157575.879,-37.598,-45.898,-37.109,-36.621,0.000,0
157575.883,-30.762,-37.109,-30.273,-37.109,0.000,0
157575.887,-30.762,-32.715,-30.273,-45.410,0.000,0
157575.891,-31.250,-37.109,-34.668,-25.391,0.000,0
157575.895,-18.555,-46.875,-30.762,-17.090,0.000,0
157575.899,-22.949,-35.645,-19.043,-24.902,0.000,0
157575.903,-30.762,-29.785,-15.137,-36.133,0.000,0
157575.907,-24.414,-33.691,-25.391,-32.227,0.000,0
157575.911,-26.855,-33.691,-25.391,-28.320,0.000,0
157575.915,-31.738,-37.109,-26.855,-26.367,0.000,0
157575.918,-26.367,-35.645,-31.250,-19.043,0.000,0
157575.922,-27.832,-35.156,-23.438,-40.039,0.000,0
157575.926,-36.621,-35.645,-31.250,-43.457,0.000,0
157575.930,-44.922,-41.504,-39.062,-37.598,0.000,0
157575.934,-39.551,-44.922,-35.645,-47.363,0.000,0
157575.938,-29.785,-41.992,-32.227,-41.016,0.000,0
157575.942,-33.691,-39.551,-26.855,-40.527,0.000,0
157575.946,-35.156,-33.203,-35.156,-44.922,0.000,0
157575.950,-36.133,-41.992,-39.062,-42.969,0.000,0
157575.954,-35.156,-45.410,-34.180,-27.344,0.000,0
157575.957,-33.691,-35.645,-27.832,-16.602,0.000,0
157575.961,-39.062,-36.621,-25.879,-32.715,0.000,0
157575.965,-34.668,-41.016,-33.203,-31.250,0.000,0
157575.969,-33.203,-38.086,-34.180,-23.438,0.000,0
157575.973,-32.227,-38.086,-30.762,-31.250,0.000,0
157575.977,-23.438,-40.039,-24.902,-32.715,0.000,0
157575.981,-34.180,-42.480,-25.879,-40.527,0.000,0
157575.985,-32.227,-42.969,-30.273,-41.504,0.000,0
157575.989,-21.484,-33.691,-24.902,-28.320,0.000,0
157575.993,-24.414,-30.762,-25.391,-16.113,0.000,0
157575.997,-26.367,-34.180,-22.949,-18.066,0.000,0
157576.000,-26.855,-32.227,-13.672,-28.809,0.000,0
157576.004,-25.879,-33.691,-21.973,-19.043,0.000,0
157576.008,-27.832,-33.203,-32.715,-16.602,0.000,0
157576.012,-31.250,-29.297,-23.926,-24.902,0.000,0
157576.016,-25.391,-31.738,-17.090,-14.648,0.000,0
157576.020,-22.949,-38.574,-25.391,-23.438,0.000,0
157576.024,-21.973,-42.480,-37.598,-39.551,0.000,0
157576.028,-21.973,-39.062,-37.109,-20.508,0.000,0
157576.032,-33.203,-37.109,-36.133,-13.184,0.000,0
157576.036,-31.738,-35.645,-37.109,-24.414,0.000,0
157576.040,-24.414,-33.691,-27.344,-21.484,0.000,0
157576.043,-23.438,-31.738,-20.996,-25.391,0.000,0
157576.047,-28.809,-34.668,-20.996,-31.738,0.000,0
157576.051,-25.391,-45.410,-29.785,-37.598,0.000,0
157576.055,-21.973,-47.363,-36.621,-37.598,0.000,0
157576.059,-17.578,-41.504,-27.832,-31.250,0.000,0
157576.063,-14.160,-39.062,-20.020,-29.785,0.000,0
157576.067,-12.207,-34.180,-22.949,-30.762,0.000,0
157576.071,-0.977,-28.809,-26.855,-24.902,0.000,0
157576.075,-7.812,-26.367,-23.926,-22.461,0.000,0
157576.079,-21.484,-25.391,-21.973,-27.344,0.000,0
157576.082,-15.625,-26.367,-28.809,-21.484,0.000,0
157576.086,-6.348,-20.020,-29.297,-14.160,0.000,0
157576.090,-18.066,-19.043,-25.879,-10.254,0.000,0
157576.094,-21.484,-24.414,-30.273,-3.418,0.000,0
157576.098,-11.719,-18.555,-27.832,-10.742,0.000,0
157576.102,-16.602,-16.113,-23.438,-12.695,0.000,0
157576.106,-22.949,-24.902,-23.438,-6.348,0.000,0
157576.110,-17.578,-24.902,-28.320,-18.555,0.000,0
157576.114,-10.742,-19.531,-24.414,-22.461,0.000,0
157576.118,-20.996,-24.902,-18.555,-18.555,0.000,0
157576.122,-35.156,-23.926,-25.391,-21.973,0.000,0
157576.125,-26.855,-25.391,-31.738,-25.879,0.000,1
157576.129,-32.227,-35.645,-37.598,-20.508,0.000,0
157576.133,-35.645,-38.086,-39.062,-16.602,0.000,0
157576.137,-32.715,-40.527,-31.738,-41.992,0.000,0
157576.141,-32.227,-43.457,-35.156,-46.387,0.000,0
157576.145,-22.461,-35.645,-34.180,-23.438,0.000,0
157576.149,-24.902,-28.809,-15.137,-27.344,0.000,0
157576.153,-21.973,-22.949,-13.184,-28.320,0.000,0
157576.157,-16.113,-17.578,-23.438,-32.227,0.000,0
157576.161,-22.949,-15.137,-19.043,-33.691,0.000,0
157576.165,-22.949,-22.949,-18.066,-26.367,0.000,0
157576.168,-17.090,-22.949,-26.367,-20.020,0.000,0
157576.172,-11.230,-13.672,-28.320,-16.113,0.000,0
157576.176,-11.719,-16.113,-18.555,-26.855,0.000,0
157576.180,-14.648,-21.484,-19.043,-20.996,0.000,0
157576.184,-17.090,-17.578,-27.344,-2.930,0.000,0
157576.188,-18.066,-32.227,-30.762,-18.066,0.000,0
157576.192,-22.949,-35.156,-26.855,-30.273,0.000,0
157576.196,-27.832,-26.855,-20.996,-27.344,0.000,0
157576.200,-17.090,-33.203,-27.832,-33.203,0.000,0
157576.204,-6.348,-30.762,-29.785,-19.531,0.000,0
157576.207,-20.020,-28.320,-22.949,-9.277,0.000,0
157576.211,-24.414,-29.785,-23.926,-5.371,0.000,0
157576.215,-19.043,-33.691,-25.391,-13.184,0.000,0
157576.219,-23.926,-40.527,-32.227,-30.273,0.000,0
157576.223,-29.785,-34.180,-35.156,-25.879,0.000,0
157576.227,-22.461,-23.926,-22.949,-23.926,0.000,0
157576.231,-20.996,-25.391,-21.973,-18.066,0.000,0
157576.235,-25.879,-24.902,-23.926,-23.438,0.000,0
157576.239,-21.973,-20.020,-15.137,-24.414,0.000,0
157576.243,-29.785,-22.949,-20.020,-11.230,0.000,0
157576.247,-23.438,-24.414,-24.902,-17.578,0.000,0
157576.250,-16.602,-23.438,-22.949,-22.461,0.000,0
157576.254,-29.785,-29.297,-22.949,-28.809,0.000,0
157576.258,-26.855,-31.250,-21.973,-26.855,0.000,0
157576.262,-25.879,-24.414,-27.344,-14.648,0.000,0
157576.266,-32.715,-27.344,-22.461,-12.207,0.000,0
157576.270,-23.926,-32.227,-21.973,-10.254,0.000,0
157576.274,-26.367,-28.809,-23.438,-28.320,0.000,0
157576.278,-34.180,-26.367,-20.996,-41.992,0.000,0
157576.282,-33.691,-22.949,-24.902,-21.484,0.000,0
157576.286,-31.250,-23.438,-17.578,-9.277,0.000,0
157576.290,-19.531,-22.461,-15.137,-17.578,0.000,0
157576.293,-15.137,-20.508,-12.695,-26.367,0.000,0
157576.297,-13.184,-22.461,-10.742,-22.461,0.000,0
157576.301,-20.508,-21.973,-19.043,-21.973,0.000,0
157576.305,-36.133,-26.855,-30.273,-21.973,0.000,0
157576.309,-34.668,-26.855,-29.785,-16.113,0.000,0
157576.313,-34.668,-27.832,-19.531,-21.484,0.000,0
157576.317,-37.598,-29.297,-22.949,-33.691,0.000,0
157576.321,-33.691,-22.949,-34.668,-24.902,0.000,0
157576.325,-30.762,-27.344,-31.250,-20.996,0.000,0
157576.329,-28.809,-25.879,-22.461,-18.066,0.000,0
157576.332,-28.320,-19.043,-20.508,-17.090,0.000,0
157576.336,-20.508,-19.531,-19.043,-36.621,0.000,0
157576.340,-21.484,-25.879,-26.367,-38.086,0.000,0
157576.344,-32.715,-31.738,-29.785,-31.738,0.000,0
157576.348,-15.625,-29.785,-20.020,-16.113,0.000,0
157576.352,-2.441,-29.297,-20.020,-3.418,0.000,0
157576.356,-40.039,-40.527,-32.715,-41.504,0.000,0
157576.360,-56.641,-41.504,-36.133,-62.012,0.000,0
157576.364,-35.156,-34.668,-29.785,-48.828,0.000,0
157576.368,-40.527,-35.156,-30.273,-40.527,0.000,0
157576.372,-52.246,-34.180,-28.320,-38.086,0.000,0
157576.375,-47.852,-30.762,-23.926,-42.969,0.000,0
157576.379,-31.250,-25.391,-19.043,-38.086,0.000,0
157576.383,-18.066,-23.438,-21.484,-25.391,0.000,0
157576.387,-17.090,-20.996,-19.531,-13.672,0.000,0
157576.391,-19.531,-24.414,-13.184,-20.508,0.000,0
157576.395,-17.578,-24.414,-15.137,-25.879,0.000,0
157576.399,-31.738,-27.832,-24.902,-28.320,0.000,0
157576.403,-37.598,-36.133,-26.367,-34.668,0.000,0
157576.407,-19.531,-27.832,-24.902,-21.973,0.000,0
157576.411,-16.602,-25.391,-20.508,-23.926,0.000,0
157576.415,-25.879,-25.391,-17.578,-33.203,0.000,0
157576.418,-27.344,-22.461,-20.996,-17.578,0.000,0
157576.422,-18.066,-25.879,-25.879,-3.906,0.000,0
157576.426,-0.977,-32.227,-26.855,2.930,0.000,0
157576.430,4.883,-31.250,-16.602,-4.395,0.000,0
157576.434,-4.395,-22.949,-11.230,-10.742,0.000,0
157576.438,-2.441,-25.391,-15.137,-9.277,0.000,0
157576.442,-4.883,-23.926,-15.137,-9.277,0.000,0
157576.446,-8.789,-23.438,-18.066,-6.348,0.000,0
157576.450,0.977,-21.973,-17.090,-9.766,0.000,0
157576.454,-8.301,-23.926,-14.160,-13.672,0.000,0
157576.457,-20.996,-27.832,-15.625,-7.324,0.000,0
157576.461,-17.090,-20.508,-10.742,0.000,0.000,0
157576.465,-15.625,-12.695,0.488,7.812,0.000,0
157576.469,-15.625,-12.695,-0.488,-4.883,0.000,0
157576.473,-15.137,-20.508,-7.812,-19.531,0.000,0
157576.477,-13.672,-17.090,-0.977,-10.254,0.000,0
157576.481,-10.254,-15.625,-4.395,-3.418,0.000,0
157576.485,-3.418,-16.602,-11.230,5.371,0.000,0
157576.489,-0.977,-9.766,-5.859,-6.836,0.000,0
157576.493,-3.906,-11.719,-5.371,-14.648,0.000,0
157576.497,-5.859,-13.672,-10.254,0.000,0.000,0
157576.500,-8.301,-14.648,-15.625,-12.207,0.000,0
157576.504,2.930,-13.184,-10.742,-13.672,0.000,0
157576.508,0.488,-15.625,-9.277,-7.324,0.000,0
157576.512,-5.859,-22.461,-11.719,-17.578,0.000,0
157576.516,-3.418,-19.531,-14.648,-9.766,0.000,0
157576.520,-6.348,-15.137,-21.973,-5.371,0.000,0
157576.524,-17.578,-16.602,-20.020,-2.930,0.000,0
157576.528,-17.090,-15.625,-20.508,-13.672,0.000,0
157576.532,-15.625,-24.902,-23.438,-20.996,0.000,0
157576.536,-26.855,-30.273,-36.621,-12.207,0.000,0
157576.540,-27.344,-24.414,-38.086,-20.508,0.000,0
157576.543,-16.602,-21.973,-29.297,-12.207,0.000,0
157576.547,-12.695,-19.043,-24.414,-6.348,0.000,0
157576.551,-17.578,-16.602,-20.996,-22.461,0.000,0
157576.555,-20.020,-15.137,-25.879,-19.043,0.000,0
157576.559,-18.555,-20.020,-30.273,-11.719,0.000,0
157576.563,-15.137,-21.973,-36.133,-10.742,0.000,0
157576.567,-11.719,-18.555,-26.367,-8.789,0.000,0
157576.571,-17.090,-23.926,-20.508,-26.855,0.000,0
157576.575,-20.508,-27.344,-33.203,-30.762,0.000,0
157576.579,-21.973,-29.785,-29.297,-32.227,0.000,0
157576.582,-23.438,-32.227,-27.832,-27.344,0.000,0
157576.586,-18.066,-31.250,-25.879,-12.207,0.000,0
157576.590,-13.184,-27.832,-18.555,-32.715,0.000,0
157576.594,-18.066,-22.949,-21.484,-35.645,0.000,0
157576.598,-16.113,-24.902,-22.461,-17.090,0.000,0
157576.602,-13.672,-22.949,-27.832,-14.648,0.000,0
157576.606,-28.809,-31.250,-33.203,-15.625,0.000,0
157576.610,-33.691,-38.574,-32.227,-37.109,0.000,0
157576.614,-23.926,-36.133,-31.250,-49.316,0.000,0
157576.618,-15.137,-36.621,-32.227,-33.691,0.000,0
157576.622,-15.137,-30.273,-32.227,-30.273,0.000,0
157576.625,-17.090,-31.250,-30.273,-23.926,0.000,0
157576.629,-18.066,-38.574,-25.879,-37.598,0.000,0
157576.633,-17.578,-37.598,-28.320,-36.621,0.000,0
157576.637,-20.508,-33.203,-32.227,-15.137,0.000,0
157576.641,-26.855,-33.203,-31.250,-13.184,0.000,0
157576.645,-23.926,-38.086,-28.320,-13.184,0.000,0
157576.649,-19.531,-32.715,-20.996,-30.273,0.000,0
157576.653,-31.738,-29.297,-25.391,-37.109,0.000,0
157576.657,-25.879,-29.785,-32.227,-26.367,0.000,0
157576.661,-8.301,-27.344,-31.738,-17.578,0.000,0
157576.665,-9.766,-30.762,-35.156,-20.508,0.000,0
157576.668,-15.137,-31.738,-29.785,-35.156,0.000,0
157576.672,-19.043,-27.344,-23.438,-22.949,0.000,0
157576.676,-19.531,-33.691,-28.320,-8.301,0.000,0
157576.680,-18.066,-30.762,-32.715,-22.949,0.000,0
157576.684,-31.250,-24.414,-32.715,-20.020,0.000,0
157576.688,-40.527,-26.855,-33.203,-20.020,0.000,0
157576.692,-36.133,-29.785,-31.738,-24.902,0.000,0
157576.696,-32.227,-33.691,-34.180,-15.137,0.000,0
157576.700,-28.809,-32.227,-36.133,-7.812,0.000,0
157576.704,-30.273,-30.273,-25.879,-18.066,0.000,0
157576.707,-28.320,-27.344,-28.320,-21.973,0.000,0
157576.711,-24.414,-25.391,-27.344,-17.090,0.000,0
157576.715,-22.949,-20.020,-25.391,-20.020,0.000,0
157576.719,-21.973,-20.996,-26.855,-20.996,0.000,0
157576.723,-18.066,-25.879,-22.949,-20.508,0.000,0
157576.727,-13.184,-26.855,-20.996,-23.926,0.000,0
157576.731,-18.066,-22.461,-22.461,-40.527,0.000,0
157576.735,-21.484,-23.926,-28.320,-38.086,0.000,0
157576.739,-21.973,-29.785,-30.273,-26.855,0.000,0
157576.743,-28.809,-32.227,-29.785,-24.902,0.000,0
157576.747,-32.715,-26.855,-28.320,-21.973,0.000,0
157576.750,-23.926,-27.832,-26.855,-35.645,0.000,0
157576.754,-23.438,-33.691,-37.109,-45.898,0.000,0
157576.758,-39.062,-29.297,-40.039,-45.410,0.000,0
157576.762,-31.738,-26.367,-31.250,-29.785,0.000,0
157576.766,-25.879,-30.762,-32.227,-31.250,0.000,0
157576.770,-37.598,-30.762,-41.016,-40.527,0.000,0
157576.774,-39.062,-28.320,-41.504,-29.785,0.000,0
157576.778,-36.133,-37.598,-32.715,-32.715,0.000,0
157576.782,-38.574,-35.645,-30.273,-37.109,0.000,0
157576.786,-35.156,-27.344,-31.250,-37.109,0.000,0
157576.790,-35.645,-29.297,-31.250,-42.969,0.000,0
157576.793,-42.480,-28.809,-34.668,-32.715,0.000,0
157576.797,-19.531,-25.879,-36.621,-11.230,0.000,0
157576.801,-13.184,-29.785,-33.203,-9.277,0.000,0
157576.805,-47.852,-34.180,-23.926,-46.387,0.000,0
157576.809,-61.523,-30.273,-19.043,-55.664,0.000,0
157576.813,-44.922,-25.879,-24.902,-34.180,0.000,0
157576.817,-33.203,-24.902,-24.414,-22.461,0.000,0
157576.821,-41.016,-31.250,-27.832,-25.879,0.000,0
157576.825,-45.410,-35.156,-29.297,-29.297,0.000,0
157576.829,-38.574,-32.715,-25.391,-35.156,0.000,0
157576.832,-36.133,-35.645,-25.879,-27.832,0.000,1
157576.836,-28.320,-34.668,-30.273,-18.066,0.000,0
157576.840,-26.855,-25.879,-29.785,-15.625,0.000,0
157576.844,-33.203,-25.879,-29.297,-25.879,0.000,0
157576.848,-34.668,-26.855,-30.273,-35.156,0.000,0
157576.852,-32.715,-21.484,-21.484,-23.926,0.000,0
157576.856,-24.414,-21.484,-18.066,-16.602,0.000,0
157576.860,-17.090,-28.320,-29.297,-19.043,0.000,0
157576.864,-20.508,-29.785,-22.461,-27.344,0.000,0
157576.868,-25.391,-26.855,-12.695,-34.180,0.000,0
157576.872,-22.949,-22.949,-23.438,-39.062,0.000,0
157576.875,-17.090,-22.461,-26.367,-28.809,0.000,0
157576.879,-11.719,-19.043,-20.020,-15.625,0.000,0
157576.883,-13.672,-18.555,-14.160,-14.648,0.000,0
157576.887,-25.391,-24.414,-14.648,-29.785,0.000,0
157576.891,-27.832,-22.461,-16.602,-29.297,0.000,0
157576.895,-30.273,-21.973,-21.484,-24.902,0.000,0
157576.899,-39.551,-27.832,-27.344,-29.297,0.000,0
157576.903,-36.133,-25.391,-31.738,-21.973,0.000,0
157576.907,-32.715,-25.879,-25.879,-38.574,0.000,0
157576.911,-25.391,-26.855,-27.832,-41.016,0.000,0
157576.915,-21.484,-26.855,-30.762,-22.461,0.000,0
157576.918,-17.090,-25.391,-24.414,-19.043,0.000,0
157576.922,-22.949,-23.926,-26.855,-24.902,0.000,0
157576.926,-33.691,-25.391,-23.438,-38.086,0.000,0
157576.930,-31.250,-24.902,-24.902,-32.227,0.000,0
157576.934,-31.738,-24.414,-27.832,-23.926,0.000,0
157576.938,-38.574,-28.320,-34.668,-29.785,0.000,0
157576.942,-39.062,-26.367,-27.832,-30.762,0.000,0
157576.946,-26.367,-19.043,-13.672,-38.086,0.000,0
157576.950,-21.973,-16.602,-23.926,-31.738,0.000,0
157576.954,-17.578,-19.531,-31.738,-20.996,0.000,0
157576.957,-17.578,-21.973,-26.855,-23.926,0.000,0
157576.961,-23.926,-29.785,-27.832,-29.297,0.000,0
157576.965,-17.090,-26.367,-20.508,-34.180,0.000,0
157576.969,-10.742,-19.043,-17.578,-29.785,0.000,0
157576.973,-5.859,-18.066,-22.949,-27.832,0.000,0
157576.977,-14.648,-19.043,-26.367,-16.602,0.000,0
157576.981,-30.762,-21.484,-29.785,-7.812,0.000,0
157576.985,-31.250,-21.973,-28.320,-20.996,0.000,0
157576.989,-35.645,-24.414,-29.785,-30.762,0.000,0
157576.993,-42.480,-33.203,-37.598,-35.156,0.000,0
157576.997,-23.438,-23.926,-33.691,-32.227,0.000,0
157577.000,-14.160,-15.625,-24.902,-20.508,0.000,0
157577.004,-27.344,-22.461,-21.484,-23.438,0.000,0
157577.008,-21.973,-23.438,-27.344,-23.926,0.000,0
157577.012,-18.066,-23.926,-28.320,-33.691,0.000,0
157577.016,-25.879,-22.949,-28.809,-17.578,0.000,0
157577.020,-24.414,-23.438,-30.762,-7.812,0.000,0
157577.024,-25.391,-27.832,-28.320,-26.367,0.000,0
157577.028,-23.926,-21.484,-27.832,-20.020,0.000,0
157577.032,-23.438,-21.973,-29.785,-16.602,0.000,0
157577.036,-25.391,-20.020,-23.438,-25.879,0.000,0
157577.040,-29.297,-22.461,-24.414,-22.461,0.000,0
157577.043,-22.949,-27.832,-18.066,-26.367,0.000,0
157577.047,-20.996,-28.809,-19.043,-31.250,0.000,0
157577.051,-30.273,-34.180,-31.738,-28.320,0.000,0
157577.055,-23.926,-34.668,-31.250,-19.531,0.000,0
157577.059,-20.996,-33.691,-33.203,-19.531,0.000,0
157577.063,-23.926,-29.297,-31.738,-22.461,0.000,0
157577.067,-24.414,-22.949,-25.391,-19.531,0.000,0
157577.071,-21.484,-25.879,-36.621,-24.414,0.000,0
157577.075,-24.902,-27.832,-37.598,-36.621,0.000,0
157577.079,-28.320,-26.855,-26.855,-16.602,0.000,0
157577.082,-29.785,-27.832,-34.668,-14.160,0.000,0
157577.086,-23.926,-26.367,-37.109,-31.738,0.000,0
157577.090,-20.508,-25.879,-27.832,-18.066,0.000,0
157577.094,-20.996,-25.391,-27.344,-4.395,0.000,0
157577.098,-22.949,-27.832,-34.668,-11.719,0.000,0
157577.102,-23.926,-31.738,-35.156,-24.414,0.000,0
157577.106,-24.902,-30.273,-24.902,-30.273,0.000,0
157577.110,-17.578,-30.273,-25.879,-26.855,0.000,0
157577.114,-19.531,-29.297,-28.809,-35.645,0.000,0
157577.118,-25.879,-29.785,-30.273,-15.137,0.000,0
157577.122,-25.391,-31.738,-27.832,-3.418,0.000,0
157577.125,-22.461,-25.879,-20.508,-16.602,0.000,0
157577.129,-19.043,-21.973,-29.785,-22.461,0.000,0
157577.133,-26.855,-24.902,-30.273,-31.738,0.000,0
157577.137,-39.551,-27.344,-26.855,-34.180,0.000,0
157577.141,-39.551,-23.926,-23.926,-36.621,0.000,0
157577.145,-29.297,-19.531,-20.508,-39.062,0.000,0
157577.149,-18.066,-19.043,-22.949,-30.762,0.000,0
157577.153,-18.555,-19.043,-20.996,-14.160,0.000,0
157577.157,-23.438,-22.949,-29.785,-12.207,0.000,0
157577.161,-31.250,-27.832,-30.762,-30.762,0.000,0
157577.165,-36.133,-31.738,-25.879,-37.598,0.000,0
157577.168,-31.738,-27.832,-33.203,-22.461,0.000,0
157577.172,-24.902,-21.484,-30.762,-17.090,0.000,0
157577.176,-19.043,-21.484,-31.250,-23.926,0.000,0
157577.180,-23.926,-26.855,-27.344,-24.902,0.000,0
157577.184,-43.945,-29.785,-23.438,-25.391,0.000,0
157577.188,-38.086,-33.691,-40.527,-25.879,0.000,0
157577.192,-30.762,-36.133,-40.527,-31.738,0.000,0
157577.196,-39.062,-31.250,-32.715,-21.484,0.000,0
157577.200,-28.809,-25.391,-25.879,-18.066,0.000,0
157577.204,-22.949,-27.832,-22.461,-27.344,0.000,0
157577.207,-27.344,-28.809,-27.344,-21.973,0.000,0
157577.211,-22.949,-24.414,-19.531,-17.578,0.000,0
157577.215,-22.461,-31.250,-24.902,-22.461,0.000,0
157577.219,-24.902,-31.738,-31.738,-29.297,0.000,0
157577.223,-21.973,-27.344,-28.809,-39.062,0.000,0
157577.227,-20.508,-25.879,-24.414,-36.133,0.000,0
157577.231,-19.043,-21.973,-22.949,-24.902,0.000,0
157577.235,-10.254,-22.949,-31.738,-10.254,0.000,0
157577.239,-14.160,-28.809,-34.180,-5.859,0.000,0
157577.243,-22.949,-31.250,-24.902,-22.949,0.000,0
157577.247,-24.902,-29.785,-31.250,-26.367,0.000,0
157577.250,-17.090,-30.273,-40.527,-27.832,0.000,0
157577.254,-10.254,-28.809,-35.645,-18.066,0.000,0
157577.258,-20.020,-27.832,-28.809,-6.836,0.000,0
157577.262,-26.855,-24.414,-21.973,-21.973,0.000,0
157577.266,-27.344,-21.484,-31.250,-23.926,0.000,0
157577.270,-29.297,-22.461,-36.621,-18.555,0.000,0
157577.274,-39.062,-23.926,-22.461,-26.855,0.000,0
157577.278,-33.691,-26.855,-27.344,-31.738,0.000,0
157577.282,-22.461,-28.320,-27.344,-37.598,0.000,0
157577.286,-18.555,-30.273,-26.367,-31.738,0.000,0
157577.290,-10.742,-23.438,-25.391,-24.902,0.000,0
157577.293,-10.742,-13.672,-19.043,-17.578,0.000,0
157577.297,1.953,-16.602,-11.230,-7.324,0.000,0
157577.301,-10.254,-20.996,-9.277,-18.066,0.000,0
157577.305,-26.855,-21.973,-18.066,-15.625,0.000,0
157577.309,-17.090,-27.344,-27.344,-6.836,0.000,0
157577.313,-11.719,-31.250,-27.344,-3.418,0.000,0
157577.317,-14.648,-22.949,-24.902,0.000,0.000,0
157577.321,-20.508,-22.949,-16.113,-17.578,0.000,0
157577.325,-13.672,-25.879,-19.531,-22.461,0.000,0
157577.329,-3.418,-27.344,-26.855,-17.578,0.000,0
157577.332,-15.137,-25.879,-20.508,-13.672,0.000,0
157577.336,-27.832,-24.902,-25.879,-6.836,0.000,0
157577.340,-30.762,-30.762,-22.949,-18.066,0.000,0
157577.344,-32.227,-27.832,-18.066,-21.973,0.000,0
157577.348,-27.832,-28.809,-22.461,-13.184,0.000,0
157577.352,-25.879,-29.785,-27.832,-20.508,0.000,0
157577.356,-31.738,-24.902,-27.344,-23.926,0.000,0
157577.360,-27.832,-24.902,-18.066,-24.902,0.000,0
157577.364,-20.020,-20.996,-16.602,-22.461,0.000,0
157577.368,-19.043,-23.926,-22.461,-15.625,0.000,0
157577.372,-14.160,-22.949,-21.484,-4.395,0.000,0
157577.375,-8.301,-14.648,-14.160,-1.465,0.000,0
157577.379,-9.277,-17.578,-13.184,-14.160,0.000,0
157577.383,-6.836,-19.043,-16.113,-11.719,0.000,0
157577.387,0.977,-6.348,-9.277,1.465,0.000,0
157577.391,-1.953,-1.953,-5.859,-0.488,0.000,0
157577.395,-8.789,-12.695,-16.602,-2.441,0.000,0
157577.399,-17.090,-14.160,-20.996,-9.277,0.000,0
157577.403,-15.625,-14.160,-21.973,-23.438,0.000,0
157577.407,-10.742,-12.207,-20.020,-13.672,0.000,0
157577.411,-26.855,-18.555,-21.973,5.371,0.000,0
157577.415,-26.855,-23.438,-28.320,-2.930,0.000,0
157577.418,-17.578,-20.508,-28.809,-21.973,0.000,0
157577.422,-19.043,-25.879,-24.414,-33.691,0.000,0
157577.426,-13.184,-26.855,-20.508,-35.645,0.000,0
157577.430,-14.160,-21.484,-30.762,-26.367,0.000,0
157577.434,-17.090,-22.949,-30.273,-8.789,0.000,0
157577.438,-16.602,-20.508,-20.020,4.883,0.000,0
157577.442,-24.902,-17.090,-23.438,-16.113,0.000,0
157577.446,-25.391,-23.926,-28.320,-24.414,0.000,0
157577.450,-18.066,-31.250,-27.344,-16.113,0.000,0
157577.454,-24.414,-32.227,-32.227,-21.484,0.000,0
157577.457,-27.344,-27.832,-31.738,-27.832,0.000,0
157577.461,-21.973,-33.203,-29.297,-33.691,0.000,0
157577.465,-24.902,-33.203,-25.879,-43.945,0.000,0
157577.469,-26.367,-31.250,-19.043,-37.598,0.000,0
157577.473,-29.785,-26.855,-28.809,-9.766,0.000,0
157577.477,-30.273,-25.391,-28.809,-18.555,0.000,0
157577.481,-21.484,-28.809,-23.926,-30.762,0.000,0
157577.485,-24.902,-31.250,-38.574,-25.879,0.000,0
157577.489,-25.391,-26.367,-39.062,-24.902,0.000,0
157577.493,-26.855,-22.949,-30.762,-19.531,0.000,0
157577.497,-36.621,-26.367,-31.738,-22.949,0.000,0
157577.500,-29.297,-26.855,-28.809,-26.855,0.000,0
157577.504,-19.531,-31.738,-33.203,-25.391,0.000,0
157577.508,-22.461,-30.762,-32.227,-27.344,0.000,0
157577.512,-22.949,-21.484,-26.367,-19.531,0.000,0
157577.516,-14.648,-20.508,-28.320,-19.043,0.000,0
157577.520,-13.672,-21.973,-27.344,-21.484,0.000,0
157577.524,-23.438,-15.625,-22.461,-12.207,0.000,0
157577.528,-17.578,-16.113,-16.602,-17.090,0.000,0
157577.532,-11.719,-20.020,-25.879,-12.695,0.000,0
157577.536,-22.949,-20.508,-31.738,-10.254,0.000,0
157577.540,-27.832,-21.484,-26.367,-18.555,0.000,0
157577.543,-26.855,-18.555,-26.855,-9.277,0.000,0
157577.547,-29.297,-25.391,-29.785,-9.766,0.000,1
157577.551,-30.273,-30.273,-33.691,-11.230,0.000,0
157577.555,-32.227,-26.367,-28.809,-17.090,0.000,0
157577.559,-38.574,-25.391,-16.113,-29.785,0.000,0
157577.563,-31.250,-27.344,-27.832,-19.043,0.000,0
157577.567,-17.578,-33.203,-36.133,-26.855,0.000,0
157577.571,-20.020,-33.203,-35.156,-22.949,0.000,0
157577.575,-34.668,-27.832,-34.668,-27.832,0.000,0
157577.579,-34.668,-31.738,-27.832,-54.199,0.000,0
157577.582,-32.227,-27.344,-30.762,-51.270,0.000,0
157577.586,-40.527,-29.297,-38.086,-36.133,0.000,0
157577.590,-43.945,-36.133,-43.457,-26.855,0.000,0
157577.594,-34.668,-32.715,-42.480,-33.691,0.000,0
157577.598,-30.273,-30.273,-29.785,-45.410,0.000,0
157577.602,-36.133,-30.762,-28.320,-36.133,0.000,0
157577.606,-34.180,-30.273,-35.645,-39.062,0.000,0
157577.610,-31.250,-27.832,-36.133,-36.133,0.000,0
157577.614,-40.039,-28.809,-31.738,-29.297,0.000,0
157577.618,-48.828,-27.344,-23.438,-39.551,0.000,0
157577.622,-37.109,-21.973,-25.391,-28.809,0.000,0
157577.625,-24.902,-19.043,-24.902,-17.578,0.000,0
157577.629,-31.738,-21.484,-22.949,-36.133,0.000,0
157577.633,-37.598,-24.414,-33.691,-31.250,0.000,0
157577.637,-34.668,-27.344,-33.691,-19.531,0.000,0
157577.641,-31.250,-24.414,-28.809,-38.574,0.000,0
157577.645,-22.949,-21.973,-30.273,-47.363,0.000,0
157577.649,-34.668,-21.973,-23.438,-35.156,0.000,0
157577.653,-34.180,-29.785,-28.809,-33.203,0.000,0
157577.657,-22.949,-36.133,-26.367,-40.527,0.000,0
157577.661,-33.691,-31.738,-28.320,-33.691,0.000,0
157577.665,-30.762,-33.691,-40.039,-31.738,0.000,0
157577.668,-29.297,-35.156,-40.527,-41.016,0.000,0
157577.672,-33.203,-36.621,-35.645,-37.109,0.000,0
157577.676,-30.273,-36.621,-26.855,-35.645,0.000,0
157577.680,-31.250,-36.133,-25.391,-41.992,0.000,0
157577.684,-41.504,-40.527,-27.832,-38.574,0.000,0
157577.688,-44.434,-38.086,-33.203,-26.855,0.000,0
157577.692,-40.039,-34.668,-35.156,-15.137,0.000,0
157577.696,-36.133,-34.668,-25.879,-22.949,0.000,0
157577.700,-28.809,-32.715,-30.273,-31.738,0.000,0
157577.704,-22.461,-32.715,-32.227,-32.227,0.000,0
157577.707,-19.043,-35.156,-30.273,-32.227,0.000,0
157577.711,-23.438,-37.109,-34.668,-33.691,0.000,0
157577.715,-20.996,-35.645,-32.227,-32.227,0.000,0
157577.719,-14.160,-29.297,-26.367,-40.039,0.000,0
157577.723,-16.602,-25.391,-21.973,-46.875,0.000,0
157577.727,-11.719,-21.484,-21.973,-28.809,0.000,0
157577.731,-16.113,-19.531,-24.414,-20.020,0.000,0
157577.735,-29.297,-25.879,-22.949,-36.621,0.000,0
157577.739,-29.785,-24.414,-18.066,-32.715,0.000,0
157577.743,-24.414,-25.391,-20.508,-31.250,0.000,0
157577.747,-25.879,-31.250,-30.273,-31.738,0.000,0
157577.750,-30.273,-25.879,-34.668,-14.160,0.000,0
157577.754,-28.320,-16.602,-25.391,-15.625,0.000,0
157577.758,-16.113,-7.324,-16.113,-27.344,0.000,0
157577.762,-7.812,-6.348,-16.602,-10.742,0.000,0
157577.766,-20.508,-13.184,-19.043,7.324,0.000,0
157577.770,-24.902,-14.648,-20.996,-4.883,0.000,0
157577.774,-18.555,-17.090,-14.648,-17.578,0.000,0
157577.778,-12.207,-16.113,-13.184,-24.414,0.000,0
157577.782,-11.230,-9.277,-17.578,-21.484,0.000,0
157577.786,-21.484,-11.230,-19.043,-22.461,0.000,0
157577.790,-18.066,-15.625,-25.879,-20.996,0.000,0
157577.793,-14.648,-11.719,-17.578,-19.043,0.000,0
157577.797,-21.484,-12.695,-9.277,-17.578,0.000,0
157577.801,-15.137,-12.207,-6.836,-3.906,0.000,0
157577.805,-17.090,-10.742,-11.230,-6.836,0.000,0
157577.809,-20.996,-13.184,-21.973,-11.230,0.000,0
157577.813,-19.531,-14.160,-14.648,-15.625,0.000,0
157577.817,-8.301,-12.207,-16.602,-23.926,0.000,0
157577.821,-15.137,-15.137,-31.250,-28.809,0.000,0
157577.825,-32.227,-18.555,-32.227,-32.227,0.000,0
157577.829,-21.484,-20.996,-27.344,-6.836,0.000,0
157577.832,-15.625,-24.902,-28.320,-5.371,0.000,0
157577.836,-19.043,-27.344,-29.785,-26.367,0.000,0
157577.840,-24.414,-29.785,-27.344,-20.508,0.000,0
157577.844,-26.367,-29.297,-27.344,-14.648,0.000,0
157577.848,-17.578,-31.738,-34.668,-17.090,0.000,0
157577.852,-12.207,-33.203,-30.762,-21.484,0.000,0
157577.856,-20.996,-36.621,-31.250,-28.809,0.000,0
157577.860,-24.902,-36.133,-36.621,-26.367,0.000,0
157577.864,-21.973,-30.762,-30.762,-23.926,0.000,0
157577.868,-18.066,-26.855,-30.273,-25.879,0.000,0
157577.872,-17.578,-21.973,-20.508,-20.508,0.000,0
157577.875,-21.484,-20.020,-12.695,-22.949,0.000,0
157577.879,-23.926,-22.949,-26.367,-23.926,0.000,0
157577.883,-18.555,-25.879,-29.785,-20.996,0.000,0
157577.887,-21.484,-25.391,-24.414,-24.414,0.000,0
157577.891,-28.320,-27.832,-26.367,-35.156,0.000,0
157577.895,-27.344,-38.086,-23.926,-44.434,0.000,0
157577.899,-25.879,-35.156,-23.926,-32.227,0.000,0
157577.903,-24.414,-30.762,-28.809,-27.832,0.000,0
157577.907,-24.414,-32.715,-28.320,-24.902,0.000,0
157577.911,-27.832,-34.180,-31.250,-19.531,0.000,0
157577.915,-23.926,-32.227,-29.297,-30.273,0.000,0
157577.918,-29.785,-29.785,-35.645,-33.203,0.000,0
157577.922,-28.320,-32.715,-38.574,-27.832,0.000,0
157577.926,-20.020,-31.738,-35.645,-28.320,0.000,0
157577.930,-26.855,-29.297,-32.227,-29.297,0.000,0
157577.934,-43.945,-39.062,-27.832,-39.062,0.000,0
157577.938,-41.992,-39.551,-46.387,-37.598,0.000,0
157577.942,-31.250,-25.879,-40.527,-25.879,0.000,0
157577.946,-25.391,-22.461,-28.809,-16.113,0.000,0
157577.950,-20.020,-26.367,-37.598,-16.113,0.000,0
157577.954,-28.320,-27.832,-30.762,-35.156,0.000,0
157577.957,-30.273,-20.508,-32.227,-31.738,0.000,0
157577.961,-25.391,-19.043,-35.645,-24.414,0.000,0
157577.965,-25.879,-19.043,-27.344,-22.949,0.000,0
157577.969,-16.113,-21.484,-38.086,-20.996,0.000,0
157577.973,-18.555,-23.438,-32.227,-43.457,0.000,0
157577.977,-23.926,-17.578,-17.090,-33.691,0.000,0
157577.981,-16.602,-16.113,-23.926,-8.789,0.000,0
157577.985,-15.137,-20.996,-30.762,-11.719,0.000,0
157577.989,-20.996,-21.484,-27.832,-14.648,0.000,0
157577.993,-27.344,-20.996,-22.949,-35.156,0.000,0
157577.997,-28.809,-23.926,-27.832,-42.480,0.000,0
157578.000,-24.414,-27.832,-33.203,-30.273,0.000,0
157578.004,-29.785,-29.297,-32.715,-20.996,0.000,0
157578.008,-34.180,-32.715,-36.621,-20.508,0.000,0
157578.012,-38.574,-35.645,-37.598,-36.133,0.000,0
157578.016,-36.133,-33.691,-40.039,-37.109,0.000,0
157578.020,-30.762,-31.738,-43.457,-28.809,0.000,0
157578.024,-44.922,-28.320,-37.109,-37.109,0.000,0
157578.028,-42.969,-32.715,-37.598,-29.297,0.000,0
157578.032,-37.598,-34.180,-30.273,-27.344,0.000,0
157578.036,-41.016,-31.250,-28.809,-38.086,0.000,0
157578.040,-38.086,-32.715,-37.109,-32.715,0.000,0
157578.043,-32.715,-34.180,-33.691,-28.320,0.000,0
157578.047,-34.180,-34.180,-31.250,-26.855,0.000,0
157578.051,-34.668,-30.762,-28.809,-28.320,0.000,0
157578.055,-31.250,-29.785,-27.832,-25.879,0.000,0
157578.059,-30.762,-27.832,-27.832,-27.832,0.000,0
157578.063,-20.508,-23.926,-24.902,-28.809,0.000,0
157578.067,-22.949,-26.855,-22.461,-22.461,0.000,0
157578.071,-31.250,-30.273,-24.414,-29.297,0.000,0
157578.075,-25.879,-33.203,-32.227,-31.738,0.000,0
157578.079,-29.297,-39.551,-40.039,-20.996,0.000,0
157578.082,-31.738,-34.668,-41.016,-12.695,0.000,0
157578.086,-27.832,-31.738,-40.039,-9.766,0.000,0
157578.090,-38.086,-34.180,-41.016,-12.207,0.000,0
157578.094,-43.457,-29.297,-36.133,-33.203,0.000,0
157578.098,-32.715,-22.949,-27.832,-37.109,0.000,0
157578.102,-33.203,-30.273,-32.715,-42.480,0.000,0
157578.106,-41.992,-32.227,-42.969,-39.062,0.000,0
157578.110,-40.527,-31.738,-36.621,-29.785,0.000,0
157578.114,-42.480,-33.203,-28.809,-41.504,0.000,0
157578.118,-36.621,-31.738,-33.203,-35.156,0.000,0
157578.122,-26.855,-31.738,-43.457,-21.484,0.000,0
157578.125,-30.273,-33.691,-41.016,-26.855,0.000,0
157578.129,-34.180,-33.691,-33.203,-33.691,0.000,0
157578.133,-32.227,-31.738,-34.668,-34.668,0.000,0
157578.137,-29.785,-39.551,-47.363,-45.898,0.000,0
157578.141,-30.762,-42.969,-49.805,-46.875,0.000,0
157578.145,-29.297,-37.109,-41.016,-33.203,0.000,0
157578.149,-27.832,-38.574,-43.945,-44.922,0.000,0
157578.153,-30.273,-38.086,-48.340,-43.457,0.000,0
157578.157,-35.156,-37.598,-41.992,-32.227,0.000,0
157578.161,-31.738,-41.504,-36.133,-26.367,0.000,0
157578.165,-24.414,-40.527,-32.715,-26.367,0.000,0
157578.168,-27.832,-28.320,-27.344,-35.645,0.000,0
157578.172,-29.297,-26.367,-30.762,-33.203,0.000,0
157578.176,-32.715,-28.320,-37.598,-26.855,0.000,0
157578.180,-31.738,-29.785,-40.527,-17.578,0.000,0
157578.184,-28.320,-30.273,-39.062,-15.625,0.000,0
157578.188,-26.367,-27.832,-32.715,-24.414,0.000,0
157578.192,-22.949,-19.043,-28.809,-17.578,0.000,0
157578.196,-15.625,-19.043,-36.133,-19.043,0.000,0
157578.200,-22.461,-29.297,-36.133,-23.926,0.000,0
157578.204,-34.668,-27.344,-33.691,-20.996,0.000,0
157578.207,-28.320,-27.344,-32.715,-26.855,0.000,0
157578.211,-20.508,-26.367,-23.438,-25.391,0.000,0
157578.215,-17.578,-25.391,-22.461,-15.625,0.000,0
157578.219,-23.438,-27.832,-32.227,-15.137,0.000,0
157578.223,-20.996,-29.297,-34.668,-14.160,0.000,0
157578.227,-16.602,-30.762,-24.414,-17.578,0.000,0
157578.231,-19.531,-26.367,-19.043,-15.625,0.000,0
157578.235,-14.160,-27.832,-25.879,-13.672,0.000,0
157578.239,-13.672,-33.691,-29.297,-19.043,0.000,0
157578.243,-19.043,-35.156,-24.902,-14.648,0.000,0
157578.247,-22.461,-36.621,-20.508,-23.926,0.000,0
157578.250,-18.555,-30.762,-23.926,-30.762,0.000,0
157578.254,-20.508,-30.762,-25.391,-27.344,0.000,0
157578.258,-19.043,-28.809,-19.043,-17.578,0.000,1
157578.262,-14.648,-25.391,-20.996,-7.324,0.000,0
157578.266,-6.348,-23.926,-20.508,-14.160,0.000,0
157578.270,-2.930,-21.973,-17.578,-18.555,0.000,0
157578.274,-11.719,-23.926,-21.973,-20.996,0.000,0
157578.278,-15.137,-29.297,-20.508,-25.879,0.000,0
157578.282,-11.719,-26.367,-23.438,-13.184,0.000,0
157578.286,-17.090,-24.902,-28.320,-12.207,0.000,0
157578.290,-21.484,-31.738,-24.902,-25.391,0.000,0
157578.293,-20.020,-29.785,-24.902,-10.254,0.000,0
157578.297,-16.602,-28.809,-24.902,-5.859,0.000,0
157578.301,-15.625,-27.832,-31.250,-21.484,0.000,0
157578.305,-16.113,-23.438,-16.113,-22.949,0.000,0
157578.309,-15.625,-23.438,-9.277,-18.066,0.000,0
157578.313,-7.324,-32.227,-33.203,-22.461,0.000,0
157578.317,-10.254,-38.086,-36.621,-26.367,0.000,0
157578.321,-20.508,-30.273,-29.297,-13.184,0.000,0
157578.325,-12.695,-27.832,-20.996,-8.789,0.000,0
157578.329,-4.883,-31.250,-13.672,-16.113,0.000,0
157578.332,-5.859,-25.391,-13.672,-1.953,0.000,0
157578.336,-15.137,-23.926,-18.066,-2.441,0.000,0
157578.340,-25.391,-30.762,-29.785,-20.020,0.000,0
157578.344,-20.996,-33.203,-33.203,-22.461,0.000,0
157578.348,-20.508,-32.715,-28.809,-29.297,0.000,0
157578.352,-28.809,-28.809,-25.391,-30.273,0.000,0
157578.356,-23.438,-28.809,-23.926,-30.273,0.000,0
157578.360,-20.020,-31.738,-22.461,-14.160,0.000,0
157578.364,-13.184,-23.438,-16.113,0.488,0.000,0
157578.368,-16.602,-18.066,-5.859,-18.555,0.000,0
157578.372,-27.344,-24.902,-19.043,-12.695,0.000,0
157578.375,-16.602,-27.344,-24.902,-6.348,0.000,0
157578.379,-15.137,-23.438,-15.137,-16.602,0.000,0
157578.383,-25.879,-23.438,-18.555,-28.809,0.000,0
157578.387,-23.926,-27.344,-24.902,-35.645,0.000,0
157578.391,-23.438,-21.484,-28.320,-35.645,0.000,0
157578.395,-32.715,-19.531,-21.973,-27.344,0.000,0
157578.399,-34.180,-26.367,-21.484,-19.043,0.000,0
157578.403,-30.273,-24.414,-30.273,-19.043,0.000,0
157578.407,-28.809,-22.461,-28.320,-21.973,0.000,0
157578.411,-29.785,-27.832,-30.273,-22.949,0.000,0
157578.415,-32.227,-24.902,-28.320,-24.902,0.000,0
157578.418,-32.715,-26.855,-29.785,-32.227,0.000,0
157578.422,-29.297,-32.227,-28.320,-36.133,0.000,0
157578.426,-27.344,-26.855,-18.555,-34.668,0.000,0
157578.430,-31.738,-26.855,-21.484,-41.016,0.000,0
157578.434,-25.879,-32.227,-29.785,-31.250,0.000,0
157578.438,-23.926,-31.250,-32.227,-28.320,0.000,0
157578.442,-31.738,-26.367,-24.902,-33.691,0.000,0
157578.446,-30.762,-31.738,-28.320,-32.715,0.000,0
157578.450,-23.926,-32.715,-34.668,-38.086,0.000,0
157578.454,-21.973,-26.855,-25.879,-31.250,0.000,0
157578.457,-27.832,-28.809,-20.020,-24.902,0.000,0
157578.461,-26.855,-29.785,-15.625,-28.809,0.000,0
157578.465,-18.555,-23.926,-17.578,-24.902,0.000,0
157578.469,-11.719,-22.461,-16.113,-17.578,0.000,0
157578.473,-15.137,-23.438,-14.160,-11.230,0.000,0
157578.477,-17.090,-23.438,-22.949,-16.113,0.000,0
157578.481,-25.391,-20.508,-23.438,-20.996,0.000,0
157578.485,-29.297,-23.926,-20.020,-24.902,0.000,0
157578.489,-22.461,-24.414,-22.949,-29.297,0.000,0
157578.493,-21.973,-22.949,-24.902,-20.996,0.000,0
157578.497,-20.508,-24.414,-28.809,-12.695,0.000,0
157578.500,-18.066,-23.926,-31.738,-18.555,0.000,0
157578.504,-19.043,-22.949,-22.461,-30.273,0.000,0
157578.508,-17.578,-22.949,-20.508,-21.973,0.000,0
157578.512,-20.020,-24.414,-22.949,-6.348,0.000,0
157578.516,-21.484,-21.484,-18.066,-11.230,0.000,0
157578.520,-13.672,-19.531,-21.484,-10.742,0.000,0
157578.524,-17.090,-20.996,-24.414,-18.066,0.000,0
157578.528,-24.414,-20.020,-22.949,-37.109,0.000,0
157578.532,-24.902,-21.973,-22.461,-35.156,0.000,0
157578.536,-18.066,-20.508,-22.949,-21.973,0.000,0
157578.540,-9.766,-18.066,-22.949,-21.973,0.000,0
157578.543,-15.625,-21.484,-16.602,-30.273,0.000,0
157578.547,-26.367,-20.996,-21.973,-29.297,0.000,0
157578.551,-23.926,-22.949,-35.645,-22.949,0.000,0
157578.555,-12.207,-25.391,-33.691,-17.578,0.000,0
157578.559,-21.484,-23.926,-25.879,-10.254,0.000,0
157578.563,-27.344,-27.344,-23.438,-21.973,0.000,0
157578.567,-22.461,-33.203,-35.156,-37.109,0.000,0
157578.571,-31.250,-35.156,-41.016,-42.969,0.000,0
157578.575,-39.062,-28.320,-32.227,-29.785,0.000,0
157578.579,-37.109,-26.367,-31.250,-13.184,0.000,0
157578.582,-28.320,-31.738,-34.180,-20.996,0.000,0
157578.586,-30.273,-31.738,-35.156,-39.062,0.000,0
