timestamps,TP9,AF7,AF8,TP10,Right AUX,Marker0
157698.743,-23.926,-36.621,-31.250,-24.902,0.000,0
157698.747,-23.926,-40.527,-24.902,-16.602,0.000,0
157698.750,-33.691,-39.062,-20.020,-13.672,0.000,0
157698.754,-26.367,-28.809,-11.230,-33.691,0.000,0
157698.758,-22.461,-27.832,-15.137,-36.133,0.000,0
157698.762,-30.273,-35.645,-24.902,-29.785,0.000,0
157698.766,-31.250,-35.156,-27.344,-23.438,0.000,0
157698.770,-27.832,-36.621,-30.273,-17.090,0.000,0
157698.774,-35.156,-43.945,-28.809,-33.691,0.000,0
157698.778,-39.062,-35.156,-22.949,-35.156,0.000,0
157698.782,-33.691,-28.320,-20.020,-15.137,0.000,0
157698.786,-34.180,-31.738,-28.320,-17.578,0.000,0
157698.790,-36.621,-33.691,-23.926,-27.832,0.000,0
157698.793,-28.809,-31.738,-16.602,-23.926,0.000,0
157698.797,-35.645,-29.297,-30.273,-27.832,0.000,0
157698.801,-30.762,-28.809,-33.691,-39.062,0.000,0
157698.805,-21.484,-28.320,-32.227,-27.832,0.000,0
157698.809,-32.227,-29.297,-30.762,-20.020,0.000,0
157698.813,-31.250,-35.645,-20.996,-30.273,0.000,0
157698.817,-24.902,-32.715,-26.367,-37.598,0.000,0
157698.821,-30.273,-31.738,-37.109,-34.668,0.000,0
157698.825,-26.855,-31.250,-31.250,-33.203,0.000,0
157698.829,-20.996,-31.250,-23.438,-25.879,0.000,0
157698.833,-24.902,-27.832,-19.043,-26.367,0.000,0
157698.836,-19.531,-20.508,-19.043,-37.598,0.000,0
157698.840,-19.043,-24.414,-22.949,-36.621,0.000,0
157698.844,-34.180,-29.785,-25.391,-34.180,0.000,0
157698.848,-35.156,-27.832,-22.461,-28.809,0.000,0
157698.852,-27.344,-27.832,-21.973,-30.762,0.000,0
157698.856,-29.785,-24.414,-24.902,-29.297,0.000,0
157698.860,-22.461,-25.879,-28.320,-20.996,0.000,0
157698.864,-18.066,-28.809,-28.320,-24.902,0.000,0
157698.868,-20.996,-25.391,-25.879,-21.484,0.000,0
157698.872,-22.949,-30.273,-20.508,-27.344,0.000,0
157698.875,-20.020,-31.250,-20.508,-30.273,0.000,0
157698.879,-12.695,-26.367,-17.578,-20.508,0.000,0
157698.883,-14.160,-20.996,-11.230,-17.090,0.000,0
157698.887,-23.438,-21.484,-17.578,-11.230,0.000,0
157698.891,-27.832,-24.414,-20.996,-22.461,0.000,0
157698.895,-18.555,-19.043,-18.555,-18.555,0.000,0
157698.899,-12.695,-20.996,-21.973,-4.395,0.000,0
157698.903,-20.020,-25.391,-21.973,-10.742,0.000,0
157698.907,-20.508,-23.926,-24.902,-13.184,0.000,0
157698.911,-19.043,-27.344,-25.391,-12.695,0.000,0
157698.915,-17.090,-22.461,-17.578,-12.207,0.000,0
157698.918,-19.043,-20.996,-20.996,-13.184,0.000,0
157698.922,-18.066,-21.973,-28.809,-7.812,0.000,0
157698.926,-9.766,-16.602,-21.484,-5.859,0.000,0
157698.930,-9.766,-15.625,-12.207,-17.090,0.000,0
157698.934,-9.766,-15.137,-13.184,-16.113,0.000,0
157698.938,-5.859,-18.555,-17.090,-15.625,0.000,0
157698.942,-12.207,-23.438,-14.648,-18.066,0.000,0
157698.946,-17.090,-17.578,-7.812,-12.695,0.000,0
157698.950,-6.836,-13.184,-9.277,-13.184,0.000,0
157698.954,-7.812,-18.066,-20.508,-7.324,0.000,0
157698.958,-9.766,-17.090,-17.578,2.441,0.000,0
157698.961,-3.906,-19.531,-18.555,-1.953,0.000,0
157698.965,-7.812,-30.762,-23.438,-8.301,0.000,0
157698.969,-10.742,-29.785,-15.625,-18.066,0.000,0
157698.973,5.859,-25.879,-21.484,-1.465,0.000,0
157698.977,18.555,-26.855,-29.297,15.137,0.000,0
157698.981,-1.953,-26.855,-22.949,-7.812,0.000,0
157698.985,-37.598,-29.785,-20.508,-41.992,0.000,0
157698.989,-39.062,-38.086,-30.273,-47.852,0.000,0
157698.993,-25.391,-40.039,-34.668,-28.320,0.000,0
157698.997,-31.250,-37.598,-38.086,-29.297,0.000,0
157699.000,-40.039,-38.086,-41.504,-35.156,0.000,0
157699.004,-40.039,-41.016,-34.668,-37.109,0.000,0
157699.008,-27.344,-41.016,-30.762,-38.086,0.000,0
157699.012,-18.066,-36.133,-32.227,-28.320,0.000,0
157699.016,-27.832,-40.039,-34.180,-34.180,0.000,0
157699.020,-25.391,-42.969,-39.551,-24.902,0.000,0
157699.024,-24.902,-39.551,-38.086,-20.020,0.000,0
157699.028,-36.133,-31.738,-23.926,-36.621,0.000,0
157699.032,-35.156,-30.762,-25.879,-20.020,0.000,0
157699.036,-26.855,-32.715,-30.762,-7.324,0.000,0
157699.040,-20.020,-27.832,-22.461,-12.207,0.000,0
157699.043,-20.996,-26.855,-20.020,-17.090,0.000,0
157699.047,-18.555,-33.203,-22.461,-27.344,0.000,0
157699.051,-20.996,-33.203,-27.344,-24.414,0.000,0
157699.055,-19.043,-32.227,-33.691,-24.414,0.000,0
157699.059,-18.555,-31.738,-35.156,-20.508,0.000,0
157699.063,-20.996,-28.809,-26.855,-19.531,0.000,0
157699.067,-14.648,-27.832,-19.043,-25.391,0.000,0
157699.071,-18.555,-29.785,-19.531,-16.602,0.000,0
157699.075,-23.926,-27.344,-19.531,-19.043,0.000,0
157699.079,-20.996,-25.391,-16.602,-20.996,0.000,0
157699.083,-20.508,-22.461,-23.438,-23.926,0.000,0
157699.086,-22.461,-23.438,-24.902,-40.527,0.000,0
157699.090,-26.855,-28.320,-24.902,-31.738,0.000,0
157699.094,-38.574,-31.250,-30.762,-32.715,0.000,0
157699.098,-41.504,-37.109,-39.551,-44.922,0.000,0
157699.102,-32.715,-36.621,-45.410,-28.320,0.000,0
157699.106,-31.250,-36.133,-31.250,-21.973,0.000,0
157699.110,-36.133,-34.180,-27.832,-27.832,0.000,0
157699.114,-28.809,-37.598,-37.109,-28.320,0.000,0
157699.118,-24.902,-41.016,-37.109,-25.879,0.000,0
157699.122,-28.320,-32.227,-32.227,-19.043,0.000,0
157699.125,-26.367,-29.297,-23.438,-37.109,0.000,0
157699.129,-29.297,-33.203,-29.297,-46.387,0.000,0
157699.133,-36.621,-36.133,-36.133,-32.715,0.000,0
157699.137,-37.598,-34.668,-36.133,-30.762,0.000,0
157699.141,-33.691,-36.621,-38.086,-30.273,0.000,0
157699.145,-31.250,-34.180,-33.203,-38.086,0.000,0
157699.149,-30.762,-31.738,-34.668,-33.691,0.000,0
157699.153,-26.855,-28.320,-38.086,-29.785,0.000,0
157699.157,-30.273,-26.855,-40.039,-29.297,0.000,0
157699.161,-31.250,-31.250,-38.574,-13.672,0.000,0
157699.165,-23.438,-29.785,-28.320,-20.996,0.000,0
157699.168,-27.832,-27.832,-29.297,-31.738,0.000,0
157699.172,-35.156,-34.180,-39.062,-13.672,0.000,0
157699.176,-34.668,-36.133,-34.668,-5.859,0.000,0
157699.180,-32.227,-30.762,-32.715,-16.113,0.000,0
157699.184,-27.832,-31.738,-37.109,-23.926,0.000,0
157699.188,-31.738,-32.715,-35.156,-22.949,0.000,0
157699.192,-29.297,-29.297,-31.738,-15.137,0.000,0
157699.196,-30.273,-28.809,-30.762,-14.160,0.000,0
157699.200,-33.691,-29.785,-19.043,-17.090,0.000,0
157699.204,-31.738,-26.367,-30.273,-18.066,0.000,0
157699.208,-36.133,-24.902,-33.691,-16.113,0.000,0
157699.211,-33.691,-28.320,-26.367,-10.254,0.000,0
157699.215,-24.414,-31.250,-25.879,-18.066,0.000,0
157699.219,-21.973,-33.691,-26.855,-19.531,0.000,0
157699.223,-27.344,-42.480,-32.227,-25.879,0.000,0
157699.227,-30.273,-37.598,-30.273,-31.738,0.000,0
157699.231,-28.809,-30.762,-27.344,-24.414,0.000,0
157699.235,-27.344,-31.738,-35.156,-15.137,0.000,0
157699.239,-18.066,-29.297,-34.180,-21.973,0.000,0
157699.243,-25.391,-26.367,-20.996,-26.855,0.000,0
157699.247,-27.832,-28.809,-20.508,-18.555,0.000,0
157699.250,-25.391,-31.250,-30.762,-18.555,0.000,0
157699.254,-25.879,-27.344,-26.855,-16.602,0.000,0
157699.258,-18.555,-19.043,-19.043,-1.953,0.000,0
157699.262,-20.020,-19.531,-20.020,-16.113,0.000,0
157699.266,-21.484,-25.879,-20.508,-30.273,0.000,0
157699.270,-26.367,-27.832,-31.250,-18.066,0.000,0
157699.274,-31.250,-28.320,-30.273,-11.719,0.000,0
157699.278,-26.855,-31.738,-29.785,-8.789,0.000,0
157699.282,-26.367,-30.762,-34.180,-20.020,0.000,0
157699.286,-27.344,-25.391,-27.832,-32.715,0.000,0
157699.290,-26.855,-25.879,-26.855,-19.531,0.000,0
157699.293,-18.066,-29.297,-28.809,-17.578,0.000,0
157699.297,-11.230,-29.297,-29.297,-21.484,0.000,0
157699.301,-16.602,-31.250,-26.367,-30.762,0.000,0
157699.305,-19.043,-26.367,-25.879,-32.227,0.000,0
157699.309,-10.742,-20.020,-26.367,-14.648,0.000,0
157699.313,-11.719,-21.484,-20.996,-9.766,0.000,0
157699.317,-23.438,-23.438,-18.555,-18.555,0.000,0
157699.321,-21.973,-29.785,-22.949,-15.625,0.000,0
157699.325,-24.414,-36.133,-23.438,-21.973,0.000,0
157699.329,-29.297,-28.809,-21.484,-31.738,0.000,0
157699.333,-29.297,-26.367,-22.949,-24.414,0.000,0
157699.336,-34.668,-29.297,-30.762,-19.043,0.000,0
157699.340,-26.855,-31.738,-30.273,-20.020,0.000,0
157699.344,-22.949,-30.273,-17.090,-34.668,0.000,0
157699.348,-24.902,-20.508,-16.602,-31.738,0.000,0
157699.352,-18.066,-22.461,-20.020,-23.926,0.000,0
157699.356,-24.902,-29.297,-22.949,-27.832,0.000,0
157699.360,-30.762,-27.832,-20.020,-27.832,0.000,0
157699.364,-33.203,-30.762,-18.555,-40.527,0.000,0
157699.368,-40.039,-27.344,-25.879,-38.574,0.000,0
157699.372,-42.969,-20.020,-31.738,-29.785,0.000,0
157699.375,-34.180,-22.949,-25.391,-19.043,0.000,0
157699.379,-30.762,-29.785,-18.555,-14.648,0.000,0
157699.383,-28.809,-26.855,-25.879,-26.855,0.000,0
157699.387,-13.672,-22.949,-33.203,-23.926,0.000,0
157699.391,-14.648,-19.531,-32.715,-20.020,0.000,0
157699.395,-21.484,-13.184,-24.414,-18.555,0.000,0
157699.399,-17.090,-13.672,-20.508,-18.066,0.000,0
157699.403,-16.602,-17.578,-20.996,-24.414,0.000,0
157699.407,-15.137,-16.602,-22.461,-28.809,0.000,0
157699.411,-19.043,-19.043,-24.902,-29.297,0.000,0
157699.415,-24.902,-22.949,-27.832,-22.461,0.000,0
157699.418,-18.066,-20.996,-23.926,-20.020,0.000,0
157699.422,-16.602,-22.461,-15.625,-29.785,0.000,0
157699.426,-23.438,-24.414,-27.344,-27.832,0.000,0
157699.430,-21.484,-25.879,-29.785,-27.832,0.000,0
157699.434,-25.391,-24.414,-20.508,-29.297,0.000,0
157699.438,-29.297,-26.367,-21.973,-25.879,0.000,0
157699.442,-18.066,-26.367,-19.043,-34.180,0.000,0
157699.446,-18.555,-23.438,-18.555,-31.738,0.000,0
157699.450,-20.020,-24.902,-28.320,-14.160,0.000,0
157699.454,-18.555,-28.320,-31.250,-7.324,0.000,0
157699.458,-21.973,-34.668,-35.156,-7.324,0.000,0
157699.461,-24.902,-38.086,-26.855,-12.207,0.000,0
157699.465,-29.297,-26.367,-19.531,-20.996,0.000,0
157699.469,-34.668,-23.926,-23.926,-28.809,0.000,0
157699.473,-34.668,-28.809,-30.762,-38.574,0.000,0
157699.477,-28.320,-28.809,-30.273,-29.297,0.000,0
157699.481,-29.297,-28.320,-27.344,-33.691,0.000,0
157699.485,-26.367,-29.785,-25.879,-37.598,0.000,0
157699.489,-19.531,-29.785,-24.902,-26.367,0.000,0
157699.493,-25.391,-29.297,-25.391,-20.996,0.000,0
157699.497,-28.320,-26.855,-21.484,-17.578,0.000,0
157699.500,-24.902,-26.367,-19.043,-22.949,0.000,0
157699.504,-26.367,-21.484,-27.832,-26.855,0.000,0
157699.508,-26.855,-17.090,-29.297,-25.879,0.000,0
157699.512,-27.832,-19.531,-22.949,-9.766,0.000,0
157699.516,-29.297,-21.973,-22.461,-1.465,0.000,0
157699.520,-16.602,-19.043,-22.949,-15.137,0.000,0
157699.524,-16.113,-16.602,-21.484,-16.602,0.000,0
157699.528,-30.273,-20.996,-20.508,-10.254,0.000,0
157699.532,-21.973,-19.043,-23.926,-16.113,0.000,0
157699.536,-22.461,-15.625,-22.949,-15.625,0.000,0
157699.540,-27.344,-22.949,-25.391,-26.855,0.000,0
157699.543,-18.555,-26.855,-27.832,-36.621,0.000,0
157699.547,-20.508,-18.555,-23.926,-30.762,0.000,0
157699.551,-25.879,-20.508,-25.391,-25.879,0.000,0
157699.555,-25.879,-25.391,-31.738,-18.555,0.000,0
157699.559,-33.203,-25.879,-30.273,-22.949,0.000,0
157699.563,-33.203,-26.367,-28.809,-27.344,0.000,0
157699.567,-22.949,-37.598,-32.227,-18.066,0.000,0
157699.571,-22.949,-26.855,-26.367,-20.508,0.000,0
157699.575,-24.414,-14.648,-18.555,-22.461,0.000,0
157699.579,-19.043,-22.949,-27.344,-24.902,0.000,0
157699.583,-19.531,-25.391,-29.297,-34.180,0.000,0
157699.586,-25.391,-21.484,-25.879,-29.297,0.000,0
157699.590,-25.879,-16.602,-21.973,-14.648,0.000,0
157699.594,-16.602,-16.113,-22.949,-4.395,0.000,0
157699.598,-14.160,-21.484,-25.879,-8.789,0.000,0
157699.602,-14.648,-20.996,-20.508,-24.902,0.000,0
157699.606,-11.719,-15.137,-22.461,-17.090,0.000,0
157699.610,-8.789,-19.043,-25.879,-14.648,0.000,0
157699.614,-7.812,-19.043,-25.879,-19.043,0.000,0
157699.618,-24.414,-20.996,-29.297,-25.391,0.000,0
157699.622,-34.668,-24.414,-28.320,-42.480,0.000,0
157699.625,-31.250,-27.832,-34.668,-38.086,0.000,0
157699.629,-28.809,-25.879,-35.156,-31.738,0.000,0
157699.633,-30.762,-24.902,-32.715,-31.250,0.000,0
157699.637,-27.344,-25.391,-33.691,-32.227,0.000,0
157699.641,-13.184,-22.461,-30.273,-33.203,0.000,0
157699.645,-13.184,-23.926,-28.809,-24.902,0.000,0
157699.649,-26.855,-22.461,-26.855,-20.996,0.000,0
157699.653,-40.039,-20.996,-32.227,-16.113,0.000,0
157699.657,-36.133,-28.320,-38.574,-14.648,0.000,0
157699.661,-31.738,-34.180,-33.691,-28.320,0.000,0
157699.665,-33.203,-24.902,-27.832,-25.391,0.000,0
157699.668,-15.625,-23.438,-35.645,-14.648,0.000,0
157699.672,-10.254,-21.973,-34.668,-17.090,0.000,0
157699.676,-23.926,-19.043,-30.762,-23.438,0.000,0
157699.680,-25.879,-16.602,-24.902,-27.344,0.000,0
157699.684,-23.438,-18.066,-23.438,-26.367,0.000,0
157699.688,-12.695,-19.531,-28.809,-25.879,0.000,0
157699.692,-13.672,-18.555,-28.809,-13.184,0.000,0
157699.696,-23.926,-22.461,-23.926,-17.090,0.000,0
157699.700,-17.090,-22.949,-24.902,-34.668,0.000,0
157699.704,-20.508,-24.902,-31.250,-30.762,0.000,0
157699.708,-26.855,-26.855,-32.227,-29.297,0.000,0
157699.711,-15.137,-22.461,-30.273,-22.461,0.000,0
157699.715,-12.207,-24.414,-26.855,-14.160,0.000,0
157699.719,-21.484,-30.273,-27.344,-24.414,0.000,0
157699.723,-28.809,-32.227,-30.273,-34.668,0.000,0
157699.727,-29.785,-29.785,-30.273,-31.738,0.000,0
157699.731,-21.973,-26.367,-29.785,-13.184,0.000,0
157699.735,-12.207,-22.461,-26.855,-5.371,0.000,0
157699.739,-20.020,-20.508,-19.531,-19.043,0.000,0
157699.743,-25.391,-23.926,-23.926,-17.090,0.000,0
157699.747,-18.555,-23.926,-27.344,-11.230,0.000,0
157699.750,-22.461,-18.066,-28.320,-14.648,0.000,0
157699.754,-28.320,-13.672,-22.461,-15.625,0.000,0
157699.758,-18.066,-17.090,-21.484,-21.484,0.000,0
157699.762,-8.301,-18.555,-25.879,-23.926,0.000,0
157699.766,-15.625,-12.695,-19.043,-12.207,0.000,0
157699.770,-9.277,-11.230,-18.066,-2.441,0.000,0
157699.774,-5.859,-10.254,-17.578,-12.695,0.000,0
157699.778,-14.648,-8.789,-8.789,-24.902,0.000,0
157699.782,-19.043,-10.254,-15.625,-24.902,0.000,0
157699.786,-20.996,-15.137,-21.484,-27.344,0.000,0
157699.790,-20.996,-18.555,-17.578,-36.621,0.000,0
157699.793,-27.344,-18.555,-21.973,-31.250,0.000,0
157699.797,-26.367,-21.973,-20.996,-32.227,0.000,0
157699.801,-25.391,-23.926,-18.066,-35.156,0.000,0
157699.805,-22.461,-22.949,-30.273,-27.832,0.000,0
157699.809,-9.766,-17.090,-28.809,-18.066,0.000,0
157699.813,-12.207,-20.020,-22.461,-19.043,0.000,0
157699.817,-27.832,-24.414,-25.391,-31.250,0.000,0
157699.821,-21.484,-17.578,-25.879,-35.645,0.000,0
157699.825,-9.277,-16.113,-20.996,-30.273,0.000,0
157699.829,-13.672,-17.090,-15.625,-17.578,0.000,0
157699.833,-16.113,-20.508,-17.090,-7.324,0.000,0
157699.836,-15.137,-28.809,-20.508,-23.438,0.000,0
157699.840,-22.461,-26.855,-15.137,-33.203,0.000,0
157699.844,-20.020,-23.438,-12.207,-17.578,0.000,0
157699.848,-9.766,-28.809,-15.625,-8.789,0.000,0
157699.852,-25.879,-20.996,-20.020,-16.602,0.000,0
157699.856,-34.180,-17.090,-20.996,-30.762,0.000,0
157699.860,-21.484,-20.508,-18.555,-32.715,0.000,0
157699.864,-23.438,-24.902,-25.879,-33.203,0.000,0
157699.868,-31.738,-24.902,-28.320,-29.297,0.000,0
157699.872,-24.414,-19.043,-18.066,-16.602,0.000,0
157699.875,-25.879,-22.461,-14.648,-21.973,0.000,0
157699.879,-30.762,-25.879,-17.578,-29.785,0.000,0
157699.883,-25.391,-20.508,-16.602,-28.809,0.000,0
157699.887,-32.227,-22.949,-23.438,-24.414,0.000,0
157699.891,-35.156,-24.902,-23.438,-14.648,0.000,0
157699.895,-25.879,-21.973,-16.113,-13.184,0.000,0
157699.899,-27.832,-24.902,-16.113,-33.691,0.000,0
157699.903,-37.109,-23.438,-18.066,-34.180,0.000,0
157699.907,-33.203,-23.438,-16.113,-10.254,0.000,0
157699.911,-19.531,-20.508,-7.812,-6.348,0.000,0
157699.915,-29.785,-23.926,-9.766,-28.809,0.000,0
157699.918,-36.133,-19.531,-10.742,-30.762,0.000,0
157699.922,-29.785,-13.184,-14.648,-14.160,0.000,0
157699.926,-21.973,-19.531,-22.461,-18.555,0.000,0
157699.930,-21.484,-27.344,-20.020,-21.973,0.000,0
157699.934,-29.297,-32.715,-22.949,-26.367,0.000,0
157699.938,-25.391,-28.809,-27.832,-33.203,0.000,0
157699.942,-19.531,-22.949,-25.391,-25.391,0.000,0
157699.946,-22.949,-22.949,-20.996,-21.484,0.000,0
157699.950,-31.250,-20.508,-15.625,-18.555,0.000,0
157699.954,-26.855,-23.926,-15.625,-15.137,0.000,0
157699.958,-26.855,-27.832,-17.578,-25.391,0.000,0
157699.961,-26.367,-26.367,-21.973,-35.156,0.000,0
157699.965,-26.855,-27.344,-19.531,-28.809,0.000,0
157699.969,-23.438,-31.250,-22.461,-7.812,0.000,0
157699.973,-20.508,-30.762,-26.855,-18.555,0.000,0
157699.977,-21.973,-28.809,-22.461,-44.922,0.000,0
157699.981,-15.625,-28.320,-25.391,-35.156,0.000,0
157699.985,-19.531,-23.438,-32.715,-26.855,0.000,0
157699.989,-19.531,-22.461,-39.551,-23.438,0.000,0
157699.993,-29.297,-31.250,-34.180,-31.250,0.000,0
157699.997,-33.203,-33.203,-30.273,-40.527,0.000,0
157700.000,-22.461,-31.250,-33.691,-36.133,0.000,0
157700.004,-22.461,-27.832,-24.902,-31.738,0.000,0
157700.008,-22.461,-24.902,-20.508,-12.207,0.000,0
157700.012,-23.438,-27.832,-22.461,-19.043,0.000,0
157700.016,-22.461,-30.273,-22.461,-40.039,0.000,0
157700.020,-28.809,-28.320,-25.391,-29.785,0.000,0
157700.024,-33.691,-23.926,-27.832,-8.301,0.000,0
157700.028,-24.902,-27.344,-26.855,-3.418,0.000,0
157700.032,-22.949,-25.391,-28.320,-21.484,0.000,0
157700.036,-29.297,-23.926,-25.391,-35.156,0.000,0
157700.040,-28.320,-23.438,-20.508,-30.273,0.000,0
157700.043,-22.949,-23.438,-24.414,-18.066,0.000,0
157700.047,-21.484,-27.832,-26.855,-14.648,0.000,0
157700.051,-23.926,-28.809,-20.996,-17.578,0.000,0
157700.055,-34.668,-35.645,-22.461,-33.203,0.000,0
157700.059,-39.551,-34.180,-30.273,-25.879,0.000,0
157700.063,-35.645,-26.367,-28.320,-17.578,0.000,0
157700.067,-32.227,-25.879,-27.832,-21.484,0.000,0
157700.071,-25.391,-22.461,-28.320,-25.391,0.000,0
157700.075,-18.066,-20.508,-27.344,-42.480,0.000,0
157700.079,-18.066,-24.902,-29.785,-44.434,0.000,0
157700.083,-25.391,-25.391,-26.367,-34.180,0.000,0
157700.086,-29.297,-27.832,-29.785,-23.926,0.000,0
157700.090,-19.531,-28.809,-32.715,-21.973,0.000,0
157700.094,-17.578,-25.391,-20.020,-36.133,0.000,0
157700.098,-17.578,-27.344,-18.555,-26.367,0.000,0
157700.102,-13.184,-27.344,-27.344,-21.484,0.000,0
157700.106,-20.020,-26.855,-30.273,-30.273,0.000,0
157700.110,-21.973,-26.367,-25.391,-33.691,0.000,0
157700.114,-20.508,-29.785,-20.508,-39.062,0.000,0
157700.118,-16.602,-22.949,-22.461,-34.668,0.000,0
157700.122,-19.531,-20.996,-26.367,-22.461,0.000,0
157700.125,-20.996,-26.855,-30.273,-14.648,0.000,0
157700.129,-9.766,-23.438,-27.832,-1.465,0.000,0
157700.133,0.000,-27.344,-19.043,-10.254,0.000,0
157700.137,-18.066,-23.926,-27.344,-41.016,0.000,0
157700.141,-25.391,-22.461,-41.504,-35.645,0.000,0
157700.145,-20.508,-31.250,-41.016,-27.344,0.000,0
157700.149,-29.297,-33.691,-42.480,-29.785,0.000,0
157700.153,-29.785,-31.738,-37.109,-33.691,0.000,0
157700.157,-36.621,-31.738,-38.086,-42.480,0.000,0
157700.161,-35.156,-23.926,-37.109,-35.156,0.000,0
157700.165,-22.461,-20.020,-31.250,-27.344,0.000,0
157700.168,-20.996,-25.391,-37.109,-28.320,0.000,0
157700.172,-26.855,-23.438,-30.762,-26.855,0.000,0
157700.176,-26.855,-19.531,-28.809,-26.855,0.000,0
157700.180,-14.160,-24.414,-33.691,-30.273,0.000,0
157700.184,-3.418,-28.320,-28.809,-19.531,0.000,0
157700.188,-2.930,-20.020,-26.367,-11.230,0.000,0
157700.192,-11.719,-19.043,-29.785,-11.230,0.000,0
157700.196,-18.555,-29.785,-32.227,-20.508,0.000,0
157700.200,-19.531,-30.762,-34.668,-26.855,0.000,0
157700.204,-16.113,-24.414,-29.297,-18.555,0.000,0
157700.208,-20.996,-27.832,-31.250,-25.391,0.000,0
157700.211,-19.043,-33.691,-32.715,-18.555,0.000,0
157700.215,-21.484,-26.855,-25.391,-17.578,0.000,0
157700.219,-34.180,-18.066,-26.367,-26.367,0.000,0
157700.223,-23.926,-14.160,-32.715,-10.254,0.000,0
157700.227,-20.020,-17.578,-28.320,-1.465,0.000,0
157700.231,-28.809,-20.020,-24.902,-12.695,0.000,0
157700.235,-27.832,-23.926,-31.738,-22.461,0.000,0
157700.239,-31.250,-26.367,-35.156,-25.879,0.000,0
157700.243,-33.203,-30.762,-37.598,-18.555,0.000,0
157700.247,-33.203,-29.297,-30.273,-20.996,0.000,0
157700.250,-41.992,-29.297,-30.273,-41.016,0.000,0
157700.254,-36.133,-27.344,-35.156,-43.945,0.000,0
157700.258,-28.320,-20.020,-33.203,-39.062,0.000,0
157700.262,-36.621,-19.531,-30.762,-29.785,0.000,0
157700.266,-39.062,-19.531,-29.785,-18.555,0.000,0
157700.270,-34.180,-25.391,-31.250,-30.273,0.000,0
157700.274,-32.715,-22.949,-25.879,-38.574,0.000,0
157700.278,-29.785,-20.020,-26.855,-32.227,0.000,0
157700.282,-26.367,-26.855,-29.297,-28.320,0.000,0
157700.286,-26.367,-26.367,-28.809,-30.273,0.000,0
157700.290,-32.715,-26.367,-24.902,-38.574,0.000,0
157700.293,-33.203,-22.461,-20.020,-38.086,0.000,0
157700.297,-31.738,-23.438,-26.367,-27.832,0.000,0
157700.301,-26.367,-25.391,-31.250,-25.879,0.000,0
157700.305,-20.508,-20.996,-26.855,-23.926,0.000,0
157700.309,-25.879,-20.996,-21.484,-22.949,0.000,0
157700.313,-29.785,-21.973,-23.926,-37.598,0.000,0
157700.317,-26.855,-18.066,-28.320,-30.273,0.000,0
157700.321,-33.691,-20.020,-22.461,-23.438,0.000,0
157700.325,-42.480,-25.879,-21.973,-17.578,0.000,0
157700.329,-36.621,-26.367,-28.809,-24.414,0.000,0
157700.333,-37.109,-30.762,-26.367,-39.551,0.000,0
157700.336,-41.504,-31.250,-29.785,-31.738,0.000,0
157700.340,-29.297,-25.879,-35.156,-23.438,0.000,0
157700.344,-21.973,-26.855,-32.227,-20.996,0.000,0
157700.348,-26.367,-33.203,-29.297,-30.762,0.000,0
157700.352,-32.227,-26.855,-26.855,-35.156,0.000,0
157700.356,-34.668,-16.113,-27.344,-27.344,0.000,0
157700.360,-34.668,-21.973,-31.250,-34.668,0.000,0
157700.364,-24.414,-24.902,-29.785,-26.855,0.000,0
157700.368,-18.555,-17.090,-16.602,-18.555,0.000,0
157700.372,-21.973,-12.207,-11.230,-27.832,0.000,0
157700.375,-16.602,-13.672,-26.855,-16.602,0.000,0
157700.379,-18.066,-19.531,-33.203,-13.672,0.000,0
157700.383,-20.020,-18.066,-20.996,-19.043,0.000,0
157700.387,-16.602,-20.996,-20.020,-18.066,0.000,0
157700.391,-18.066,-28.809,-24.414,-28.320,0.000,0
157700.395,-14.648,-26.855,-24.902,-25.391,0.000,0
157700.399,-5.859,-23.438,-19.043,-15.137,0.000,0
157700.403,-18.066,-24.414,-23.926,-7.324,0.000,0
157700.407,-25.879,-23.926,-30.273,-12.695,0.000,0
157700.411,-22.949,-21.484,-20.508,-26.855,0.000,0
157700.415,-18.555,-20.996,-26.367,-8.301,0.000,0
157700.418,-18.555,-24.414,-35.156,-11.230,0.000,0
157700.422,-30.762,-30.273,-29.297,-33.203,0.000,0
157700.426,-26.367,-29.785,-23.438,-26.855,0.000,0
157700.430,-13.672,-27.832,-17.578,-32.227,0.000,0
157700.434,-16.113,-24.902,-19.531,-31.738,0.000,0
157700.438,-21.973,-24.414,-29.297,-19.531,0.000,0
157700.442,-17.578,-21.973,-28.809,-17.578,0.000,0
157700.446,-14.160,-20.996,-21.973,-17.090,0.000,0
157700.450,-16.602,-29.785,-28.320,-15.137,0.000,0
157700.454,-11.719,-26.367,-28.320,-19.531,0.000,0
157700.458,-14.648,-20.996,-20.996,-22.949,0.000,0
157700.461,-20.508,-23.926,-27.832,-15.625,0.000,0
157700.465,-21.484,-20.996,-29.785,-18.066,0.000,0
157700.469,-29.297,-25.391,-21.973,-30.273,0.000,0
157700.473,-32.715,-25.879,-30.762,-31.738,0.000,0
157700.477,-25.391,-22.461,-36.621,-20.508,0.000,0
157700.481,-25.391,-24.902,-34.668,-18.066,0.000,0
157700.485,-31.738,-25.391,-28.320,-18.555,0.000,0
157700.489,-30.273,-25.879,-23.926,-25.391,0.000,0
157700.493,-28.320,-26.855,-25.879,-26.367,0.000,0
157700.497,-27.344,-25.879,-28.320,-26.367,0.000,0
157700.500,-32.227,-26.855,-28.320,-27.344,0.000,0
157700.504,-33.203,-26.855,-27.832,-32.715,0.000,0
157700.508,-28.320,-27.832,-31.250,-43.945,0.000,0
157700.512,-31.250,-22.461,-32.227,-41.016,0.000,0
157700.516,-32.715,-26.367,-33.203,-37.109,0.000,0
157700.520,-27.832,-32.227,-31.250,-35.156,0.000,0
157700.524,-23.438,-28.320,-28.320,-22.949,0.000,0
157700.528,-23.438,-31.250,-25.879,-18.555,0.000,0
157700.532,-27.344,-30.273,-22.461,-40.527,0.000,0
157700.536,-31.250,-29.785,-30.762,-41.016,0.000,0
157700.540,-28.320,-27.344,-34.180,-12.207,0.000,0
157700.543,-22.949,-21.973,-21.484,-13.672,0.000,0
157700.547,-29.297,-26.855,-16.113,-35.645,0.000,0
157700.551,-34.180,-28.809,-20.020,-35.156,0.000,0
157700.555,-22.461,-24.414,-25.391,-23.438,0.000,0
157700.559,-25.391,-21.484,-21.484,-16.602,0.000,0
157700.563,-34.668,-20.996,-15.137,-19.043,0.000,0
157700.567,-37.598,-19.043,-20.508,-26.855,0.000,0
157700.571,-36.133,-19.531,-25.879,-25.879,0.000,0
157700.575,-37.109,-25.879,-29.785,-17.578,0.000,0
157700.579,-38.086,-25.879,-30.273,-11.230,0.000,0
157700.583,-28.320,-18.066,-27.832,-19.531,0.000,0
157700.586,-23.438,-19.043,-20.996,-24.414,0.000,0
157700.590,-27.344,-17.090,-15.625,-19.043,0.000,0
157700.594,-26.855,-15.137,-20.020,-19.531,0.000,0
157700.598,-20.996,-20.508,-25.391,-13.672,0.000,0
157700.602,-23.926,-26.367,-22.949,-21.484,0.000,0
157700.606,-27.832,-23.438,-19.531,-44.922,0.000,0
157700.610,-23.926,-23.438,-20.996,-39.551,0.000,0
157700.614,-16.602,-19.531,-23.926,-24.414,0.000,0
157700.618,-13.184,-15.137,-25.391,-16.602,0.000,0
157700.622,-20.996,-22.949,-25.879,-19.531,0.000,0
157700.625,-28.320,-29.297,-22.461,-34.668,0.000,0
157700.629,-29.785,-33.203,-27.344,-31.738,0.000,0
157700.633,-26.855,-32.715,-32.227,-29.297,0.000,0
157700.637,-27.344,-28.809,-31.250,-29.297,0.000,0
157700.641,-25.879,-32.227,-39.551,-6.348,0.000,0
157700.645,-23.926,-32.715,-37.598,-15.625,0.000,0
157700.649,-28.809,-23.438,-23.438,-27.344,0.000,0
157700.653,-28.809,-25.879,-20.996,-20.020,0.000,0
157700.657,-23.926,-26.855,-26.855,-16.602,0.000,0
157700.661,-21.484,-20.508,-24.414,-15.137,0.000,0
157700.665,-21.484,-21.973,-21.484,-23.438,0.000,0
157700.668,-21.484,-23.926,-21.484,-23.438,0.000,0
157700.672,-22.461,-24.902,-26.855,-22.949,0.000,0
157700.676,-20.020,-23.926,-21.973,-25.879,0.000,0
157700.680,-22.461,-26.855,-20.996,-17.090,0.000,0
157700.684,-18.555,-22.461,-17.090,-21.973,0.000,0
157700.688,-20.020,-20.996,-14.648,-27.344,0.000,0
157700.692,-23.438,-19.531,-20.996,-19.043,0.000,0
157700.696,-16.113,-18.066,-13.184,-25.879,0.000,0
157700.700,-23.926,-23.926,-13.184,-27.344,0.000,0
157700.704,-22.461,-24.902,-18.555,-28.809,0.000,0
157700.708,-20.020,-23.926,-17.578,-27.832,0.000,0
157700.711,-23.926,-19.043,-16.602,-26.367,0.000,0
157700.715,-12.207,-17.090,-18.555,-26.855,0.000,0
157700.719,-10.254,-24.902,-24.414,-19.531,0.000,0
157700.723,-23.438,-27.832,-16.602,-27.344,0.000,0
157700.727,-20.508,-24.414,-18.555,-22.949,0.000,0
157700.731,-17.578,-26.367,-31.250,-5.859,0.000,0
157700.735,-22.461,-26.367,-27.344,-20.020,0.000,0
157700.739,-27.832,-25.391,-28.809,-22.461,0.000,0
157700.743,-24.902,-25.879,-22.949,-20.020,0.000,0
157700.747,-18.066,-25.391,-20.996,-30.273,0.000,0
157700.750,-24.414,-29.297,-36.133,-30.273,0.000,0
157700.754,-24.414,-31.250,-33.691,-27.344,0.000,0
157700.758,-17.090,-29.297,-24.414,-23.926,0.000,0
157700.762,-15.625,-35.645,-24.414,-37.109,0.000,0
157700.766,-20.020,-30.762,-27.344,-32.227,0.000,0
157700.770,-25.391,-22.461,-23.926,-20.508,0.000,0
157700.774,-24.414,-29.785,-24.902,-28.320,0.000,0
157700.778,-23.926,-28.320,-30.762,-21.484,0.000,0
157700.782,-28.320,-33.203,-32.715,-28.809,0.000,0
157700.786,-36.621,-33.691,-27.832,-35.645,0.000,0
157700.790,-43.945,-22.949,-24.902,-21.484,0.000,0
157700.793,-37.109,-26.367,-28.809,-15.625,0.000,0
157700.797,-40.527,-29.297,-34.668,-27.344,0.000,0
157700.801,-38.574,-25.391,-28.320,-34.180,0.000,0
157700.805,-32.227,-17.578,-20.020,-32.227,0.000,0
157700.809,-32.227,-15.625,-22.461,-36.133,0.000,0
157700.813,-12.695,-23.438,-21.484,-23.438,0.000,0
157700.817,-11.719,-24.902,-23.438,-7.812,0.000,0
157700.821,-26.855,-20.020,-28.320,-19.043,0.000,0
157700.825,-20.020,-18.555,-22.949,-28.809,0.000,0
157700.829,-23.926,-21.484,-23.438,-28.320,0.000,0
157700.833,-37.598,-20.020,-26.855,-28.809,0.000,0
157700.836,-25.391,-20.996,-27.344,-24.902,0.000,0
157700.840,-20.020,-22.949,-20.020,-17.090,0.000,0
157700.844,-22.461,-17.578,-14.160,-26.855,0.000,0
157700.848,-19.043,-13.672,-14.648,-28.320,0.000,0
157700.852,-20.508,-13.184,-18.555,-22.949,0.000,0
157700.856,-17.578,-16.602,-24.902,-19.043,0.000,0
157700.860,-16.113,-16.602,-19.043,-14.160,0.000,0
157700.864,-14.160,-20.020,-16.113,-20.996,0.000,0
157700.868,2.441,-22.461,-21.484,-4.883,0.000,0
157700.872,-3.906,-18.066,-22.949,-1.465,0.000,0
157700.875,-29.785,-16.113,-8.301,-28.809,0.000,0
157700.879,-32.715,-14.648,-7.324,-38.086,0.000,0
157700.883,-27.344,-21.973,-21.973,-48.828,0.000,0
157700.887,-30.762,-25.879,-29.785,-37.598,0.000,0
157700.891,-38.574,-31.250,-40.039,-24.902,0.000,0
157700.895,-38.574,-31.738,-33.691,-30.762,0.000,0
157700.899,-20.508,-25.879,-24.902,-23.438,0.000,0
157700.903,-20.508,-25.879,-26.367,-26.367,0.000,0
157700.907,-24.414,-27.832,-27.344,-26.855,0.000,0
157700.911,-19.043,-32.715,-30.762,-30.273,0.000,0
157700.915,-18.555,-37.109,-32.715,-27.832,0.000,0
157700.918,-27.832,-37.109,-31.738,-25.391,0.000,0
157700.922,-25.391,-29.785,-24.414,-34.180,0.000,0
157700.926,-22.949,-35.156,-34.668,-41.016,0.000,0
157700.930,-19.531,-38.086,-41.016,-35.156,0.000,0
157700.934,-9.277,-25.879,-26.855,-24.902,0.000,0
157700.938,-10.742,-27.832,-23.438,-17.578,0.000,0
157700.942,-13.184,-27.344,-26.855,-22.461,0.000,0
157700.946,-6.348,-21.973,-25.391,-30.273,0.000,0
157700.950,-8.301,-24.902,-22.461,-23.438,0.000,0
157700.954,-10.742,-29.785,-27.832,-13.672,0.000,0
157700.958,-8.301,-32.227,-32.227,-5.859,0.000,0
157700.961,-14.160,-40.527,-31.738,-20.996,0.000,0
157700.965,-23.438,-36.621,-33.691,-25.391,0.000,0
157700.969,-14.648,-31.738,-34.180,-16.113,0.000,0
157700.973,-16.602,-32.715,-32.715,-17.090,0.000,0
157700.977,-22.949,-27.344,-29.297,-17.090,0.000,0
157700.981,-31.738,-27.344,-24.414,-21.973,0.000,0
157700.985,-30.762,-35.156,-34.180,-30.273,0.000,0
157700.989,-16.113,-43.945,-36.133,-31.738,0.000,0
157700.993,-13.672,-32.227,-31.250,-16.602,0.000,0
157700.997,-18.555,-26.367,-26.855,-12.207,0.000,0
157701.000,-22.461,-30.762,-24.902,-27.344,0.000,0
157701.004,-22.461,-30.273,-33.203,-20.508,0.000,0
157701.008,-17.578,-28.809,-28.809,-12.207,0.000,0
157701.012,-26.367,-24.902,-25.879,-24.902,0.000,0
157701.016,-26.855,-25.879,-30.273,-31.250,0.000,0
157701.020,-17.578,-30.273,-26.855,-34.180,0.000,0
157701.024,-20.020,-23.438,-16.113,-26.367,0.000,0
157701.028,-13.672,-22.949,-16.113,-18.066,0.000,0
157701.032,-8.301,-25.879,-26.855,-18.066,0.000,0
157701.036,-20.996,-24.902,-24.414,-20.508,0.000,0
157701.040,-36.621,-30.762,-28.809,-25.879,0.000,0
157701.043,-33.203,-31.738,-38.086,-16.113,0.000,0
157701.047,-28.320,-30.762,-41.016,-15.137,0.000,0
157701.051,-40.527,-27.344,-40.527,-26.855,0.000,0
157701.055,-40.527,-24.414,-26.367,-29.785,0.000,0
157701.059,-36.133,-28.320,-26.367,-32.227,0.000,0
157701.063,-32.715,-26.367,-29.785,-29.785,0.000,0
157701.067,-30.273,-25.391,-19.043,-20.996,0.000,0
157701.071,-34.668,-32.227,-20.020,-19.531,0.000,0
157701.075,-38.574,-36.133,-29.297,-36.621,0.000,0
157701.079,-31.738,-34.180,-28.809,-36.133,0.000,0
157701.083,-21.484,-25.879,-23.438,-14.648,0.000,0
157701.086,-24.414,-25.391,-24.902,-21.973,0.000,0
157701.090,-17.578,-32.715,-28.320,-18.066,0.000,0
157701.094,-12.695,-34.180,-18.555,-17.090,0.000,0
157701.098,-19.531,-28.809,-17.578,-31.250,0.000,0
157701.102,-28.320,-32.227,-34.180,-26.855,0.000,0
157701.106,-31.250,-32.227,-27.832,-21.484,0.000,0
157701.110,-24.902,-23.926,-21.484,-11.719,0.000,0
157701.114,-26.855,-25.391,-22.949,-14.648,0.000,0
157701.118,-29.297,-30.762,-27.344,-27.832,0.000,0
157701.122,-25.879,-29.297,-28.809,-26.855,0.000,0
157701.125,-26.367,-29.297,-17.090,-19.531,0.000,0
157701.129,-27.344,-24.902,-18.555,-20.020,0.000,0
157701.133,-24.414,-21.484,-20.020,-24.902,0.000,0
157701.137,-23.926,-26.367,-19.531,-20.996,0.000,0
157701.141,-25.391,-27.832,-23.926,-17.090,0.000,0
157701.145,-27.344,-28.320,-24.902,-11.230,0.000,0
157701.149,-31.738,-35.645,-32.715,-10.254,0.000,0
157701.153,-38.086,-42.480,-40.039,-20.508,0.000,0
157701.157,-40.039,-33.203,-35.645,-31.250,0.000,0
157701.161,-33.203,-25.879,-28.320,-22.949,0.000,0
157701.165,-21.484,-31.250,-33.203,-22.949,0.000,0
157701.168,-20.996,-30.273,-32.715,-23.438,0.000,0
157701.172,-28.320,-29.297,-28.809,-15.625,0.000,0
157701.176,-27.344,-30.273,-32.227,-26.367,0.000,0
157701.180,-25.879,-27.344,-32.715,-23.438,0.000,0
157701.184,-28.809,-26.367,-27.832,-22.461,0.000,0
157701.188,-20.020,-23.438,-20.020,-20.508,0.000,0
157701.192,-16.602,-20.020,-23.438,-20.508,0.000,0
157701.196,-21.973,-18.066,-20.996,-36.621,0.000,0
157701.200,-23.926,-20.020,-15.137,-31.738,0.000,0
157701.204,-28.809,-23.438,-21.484,-24.414,0.000,0
157701.208,-27.832,-25.391,-27.832,-23.926,0.000,0
157701.211,-22.949,-24.902,-28.809,-20.020,0.000,0
157701.215,-25.879,-25.879,-27.344,-20.020,0.000,0
157701.219,-29.297,-27.832,-30.273,-20.996,0.000,0
157701.223,-27.344,-28.809,-32.227,-17.090,0.000,0
157701.227,-22.461,-29.297,-27.344,-22.949,0.000,0
157701.231,-23.926,-23.926,-21.973,-26.367,0.000,0
157701.235,-31.250,-23.438,-25.879,-30.273,0.000,0
157701.239,-24.902,-24.414,-30.273,-32.715,0.000,0
157701.243,-17.090,-26.367,-27.344,-25.391,0.000,0
157701.247,-24.902,-31.738,-22.461,-32.715,0.000,0
157701.250,-29.785,-28.809,-23.438,-28.809,0.000,0
157701.254,-28.809,-29.297,-27.832,-14.648,0.000,0
157701.258,-29.785,-26.855,-26.367,-16.602,0.000,0
157701.262,-27.344,-24.902,-30.762,-15.625,0.000,0
157701.266,-29.297,-25.879,-31.738,-20.020,0.000,0
157701.270,-28.809,-29.297,-28.320,-13.672,0.000,0
157701.274,-28.320,-32.227,-25.879,-22.461,0.000,0
157701.278,-36.621,-23.438,-25.879,-30.762,0.000,0
157701.282,-32.715,-18.066,-29.785,-14.648,0.000,0
157701.286,-21.484,-21.484,-31.250,-10.742,0.000,0
157701.290,-17.090,-22.461,-28.809,-14.648,0.000,0
157701.293,-22.949,-19.043,-24.414,-21.973,0.000,0
157701.297,-33.691,-19.043,-29.785,-34.668,0.000,0
157701.301,-31.250,-23.438,-33.203,-28.809,0.000,0
157701.305,-31.250,-27.832,-25.879,-21.484,0.000,0
157701.309,-34.180,-23.926,-26.367,-17.090,0.000,0
157701.313,-29.297,-22.461,-29.785,-19.531,0.000,0
157701.317,-29.785,-21.973,-25.879,-27.344,0.000,0
157701.321,-31.250,-16.602,-23.926,-16.113,0.000,0
157701.325,-28.809,-20.996,-25.879,-4.883,0.000,0
157701.329,-26.855,-22.949,-30.762,-12.207,0.000,0
157701.333,-27.344,-20.020,-26.855,-25.879,0.000,0
157701.336,-35.156,-24.902,-32.227,-30.273,0.000,1
157701.340,-33.691,-27.344,-40.039,-23.926,0.000,0
157701.344,-22.949,-25.879,-31.250,-15.625,0.000,0
157701.348,-21.484,-25.391,-28.320,-13.184,0.000,0
157701.352,-29.297,-31.250,-24.414,-33.691,0.000,0
157701.356,-26.367,-25.879,-19.531,-31.250,0.000,0
157701.360,-23.926,-25.391,-32.227,-12.695,0.000,0
157701.364,-18.555,-24.902,-35.156,-17.578,0.000,0
157701.368,-19.043,-18.066,-24.414,-27.344,0.000,0
157701.372,-31.250,-25.391,-21.484,-33.203,0.000,0
157701.375,-27.832,-28.809,-27.832,-30.762,0.000,0
157701.379,-26.855,-28.320,-33.691,-24.902,0.000,0
157701.383,-31.738,-26.855,-34.668,-26.367,0.000,0
157701.387,-36.133,-20.508,-37.109,-25.879,0.000,0
157701.391,-26.367,-20.508,-31.250,-33.691,0.000,0
157701.395,-24.414,-22.461,-24.414,-31.738,0.000,0
157701.399,-38.086,-23.926,-22.949,-18.555,0.000,0
157701.403,-27.832,-21.484,-24.414,-14.648,0.000,0
157701.407,-22.949,-21.484,-23.926,-16.602,0.000,0
157701.411,-25.879,-22.461,-22.461,-29.297,0.000,0
157701.415,-24.414,-24.414,-29.297,-25.391,0.000,0
157701.418,-32.227,-30.273,-36.133,-23.438,0.000,0
157701.422,-31.738,-31.738,-33.203,-28.320,0.000,0
157701.426,-24.414,-25.879,-30.762,-23.926,0.000,0
157701.430,-26.855,-26.855,-24.902,-27.832,0.000,0
157701.434,-29.297,-28.809,-25.391,-36.133,0.000,0
157701.438,-30.762,-21.973,-27.344,-33.691,0.000,0
157701.442,-34.668,-20.020,-23.926,-26.855,0.000,0
157701.446,-37.598,-23.926,-33.691,-26.367,0.000,0
157701.450,-32.715,-24.414,-33.203,-31.250,0.000,0
157701.454,-26.367,-25.879,-21.973,-40.039,0.000,0
157701.458,-19.043,-23.438,-25.879,-22.461,0.000,0
157701.461,-10.254,-22.949,-26.855,-5.859,0.000,0
157701.465,-11.719,-18.066,-24.414,-8.789,0.000,0
157701.469,-18.555,-14.160,-20.020,-19.043,0.000,0
157701.473,-22.461,-20.508,-17.578,-32.227,0.000,0
157701.477,-17.578,-18.066,-21.973,-27.344,0.000,0
157701.481,-18.555,-17.090,-26.855,-15.625,0.000,0
157701.485,-26.367,-26.855,-25.391,-16.602,0.000,0
157701.489,-21.973,-25.879,-20.020,-15.625,0.000,0
157701.493,-19.043,-21.973,-27.832,-28.320,0.000,0
157701.497,-26.855,-29.297,-34.668,-27.344,0.000,0
157701.500,-24.414,-26.367,-29.297,-19.043,0.000,0
157701.504,-21.484,-20.020,-23.438,-19.531,0.000,0
157701.508,-16.602,-19.531,-14.648,-17.578,0.000,0
157701.512,-17.090,-22.949,-18.066,-23.926,0.000,0
157701.516,-26.855,-26.855,-28.809,-30.273,0.000,0
157701.520,-21.973,-29.785,-29.785,-35.645,0.000,0
157701.524,-19.043,-30.273,-33.203,-27.832,0.000,0
157701.528,-32.227,-31.738,-33.691,-28.320,0.000,0
157701.532,-33.203,-30.762,-26.367,-41.504,0.000,0
157701.536,-0.977,-26.855,-26.855,-19.043,0.000,0
157701.540,4.395,-28.320,-30.762,-1.953,0.000,0
157701.543,-39.551,-27.832,-28.320,-36.133,0.000,0
157701.547,-48.828,-22.949,-31.738,-45.410,0.000,0
157701.551,-38.574,-28.320,-38.574,-43.945,0.000,0
157701.555,-35.156,-28.320,-30.762,-41.992,0.000,0
157701.559,-29.297,-23.926,-29.785,-28.320,0.000,0
157701.563,-37.109,-20.508,-36.621,-23.926,0.000,0
157701.567,-29.785,-24.414,-27.344,-21.484,0.000,0
157701.571,-19.043,-23.926,-19.531,-20.020,0.000,0
157701.575,-29.785,-21.484,-24.414,-13.184,0.000,0
157701.579,-33.691,-21.973,-28.320,-18.066,0.000,0
157701.583,-29.297,-17.090,-27.344,-25.879,0.000,0
157701.586,-24.414,-22.949,-27.344,-20.508,0.000,0
157701.590,-25.879,-23.438,-23.438,-20.996,0.000,0
157701.594,-32.227,-18.066,-19.043,-30.762,0.000,0
157701.598,-24.902,-20.020,-21.973,-28.809,0.000,0
157701.602,-20.508,-16.602,-20.508,-10.254,0.000,0
157701.606,-18.555,-16.113,-16.602,-9.766,0.000,0
157701.610,-21.973,-20.020,-16.602,-23.926,0.000,0
157701.614,-25.879,-26.367,-26.367,-20.020,0.000,0
157701.618,-17.090,-29.297,-27.344,-11.230,0.000,0
157701.622,-22.461,-20.020,-16.113,-15.137,0.000,0
157701.625,-20.996,-16.602,-12.207,-17.090,0.000,0
157701.629,-14.160,-21.973,-13.672,-25.391,0.000,0
157701.633,-25.391,-21.973,-19.531,-33.203,0.000,0
157701.637,-24.414,-25.391,-26.367,-22.461,0.000,0
157701.641,-20.996,-27.344,-27.344,-13.672,0.000,0
157701.645,-26.367,-24.902,-30.273,-10.254,0.000,0
157701.649,-30.762,-25.879,-23.926,-18.555,0.000,0
157701.653,-18.555,-22.949,-18.555,-20.996,0.000,0
157701.657,-7.324,-20.996,-19.531,-24.902,0.000,0
157701.661,-18.555,-21.973,-23.438,-26.367,0.000,0
157701.665,-22.949,-22.461,-35.156,-15.625,0.000,0
157701.668,-20.508,-24.414,-31.738,-23.438,0.000,0
157701.672,-19.043,-21.973,-20.020,-21.484,0.000,0
157701.676,-17.090,-22.949,-20.996,-13.672,0.000,0
157701.680,-20.996,-29.785,-26.367,-17.090,0.000,0
157701.684,-23.438,-23.926,-20.508,-15.625,0.000,0
157701.688,-20.996,-25.879,-21.973,-20.508,0.000,0
157701.692,-28.809,-31.250,-26.367,-31.738,0.000,0
157701.696,-29.785,-27.832,-26.367,-33.203,0.000,0
157701.700,-22.949,-25.879,-20.996,-24.902,0.000,0
157701.704,-13.672,-21.973,-20.996,-15.625,0.000,0
157701.708,-11.719,-18.555,-18.555,-19.531,0.000,0
157701.711,-23.926,-13.672,-11.719,-22.461,0.000,0
157701.715,-34.668,-19.531,-22.461,-19.043,0.000,0
157701.719,-35.156,-26.367,-28.320,-27.832,0.000,0
157701.723,-23.926,-20.508,-26.367,-26.855,0.000,0
157701.727,-23.926,-22.949,-23.438,-25.879,0.000,0
157701.731,-24.414,-23.438,-24.902,-31.738,0.000,0
157701.735,-22.461,-25.391,-29.785,-28.809,0.000,0
157701.739,-25.879,-26.855,-20.996,-20.508,0.000,0
157701.743,-22.461,-20.020,-21.973,-8.301,0.000,0
157701.747,-22.949,-22.461,-22.949,-20.508,0.000,0
157701.750,-25.879,-22.461,-16.602,-28.809,0.000,0
157701.754,-27.344,-19.531,-23.438,-20.020,0.000,0
157701.758,-15.137,-22.949,-22.461,-29.297,0.000,0
157701.762,-12.695,-23.926,-25.391,-26.367,0.000,0
157701.766,-22.461,-20.996,-31.250,-23.438,0.000,0
157701.770,-24.902,-26.367,-26.855,-29.297,0.000,0
157701.774,-20.020,-20.020,-21.484,-12.695,0.000,0
157701.778,-12.207,-14.160,-19.043,-6.348,0.000,0
157701.782,0.488,-21.484,-21.484,-4.395,0.000,0
157701.786,-8.301,-17.578,-16.113,-11.719,0.000,0
157701.790,-16.602,-18.555,-16.113,-14.160,0.000,0
157701.793,-13.184,-31.250,-24.902,-1.465,0.000,0
157701.797,-23.438,-34.180,-27.832,-9.277,0.000,0
157701.801,-19.043,-24.902,-27.344,-12.695,0.000,0
157701.805,-12.695,-23.438,-26.855,-15.625,0.000,0
157701.809,-15.137,-24.902,-26.367,-25.391,0.000,0
157701.813,-17.578,-19.531,-22.461,-20.508,0.000,0
157701.817,-24.414,-22.461,-21.484,-12.207,0.000,0
157701.821,-20.508,-25.391,-25.391,-13.184,0.000,0
157701.825,-11.230,-18.066,-20.996,-13.672,0.000,0
157701.829,-17.578,-20.508,-21.484,-13.184,0.000,0
157701.833,-19.531,-22.949,-23.926,-15.137,0.000,0
157701.836,-18.555,-25.391,-19.531,-15.625,0.000,0
157701.840,-26.367,-31.250,-26.855,-13.184,0.000,0
157701.844,-35.156,-31.738,-30.273,-14.160,0.000,0
157701.848,-30.762,-24.414,-24.902,-19.043,0.000,0
157701.852,-23.926,-26.855,-34.180,-18.555,0.000,0
157701.856,-34.180,-31.250,-40.527,-22.949,0.000,0
157701.860,-41.992,-31.250,-32.715,-44.434,0.000,0
157701.864,-38.574,-33.691,-31.250,-43.945,0.000,0
157701.868,-31.250,-26.367,-36.621,-36.133,0.000,0
157701.872,-29.785,-22.949,-36.621,-41.016,0.000,0
157701.875,-30.273,-26.855,-36.621,-32.227,0.000,0
157701.879,-34.668,-24.902,-36.621,-20.020,0.000,0
157701.883,-37.109,-25.391,-38.574,-30.762,0.000,0
157701.887,-37.109,-31.250,-38.574,-41.992,0.000,0
157701.891,-32.715,-28.809,-34.668,-30.762,0.000,0
157701.895,-32.227,-22.461,-33.691,-24.414,0.000,0
157701.899,-37.598,-22.949,-37.109,-25.879,0.000,0
157701.903,-35.156,-26.367,-30.273,-27.832,0.000,0
157701.907,-30.762,-27.344,-23.438,-31.250,0.000,0
157701.911,-30.762,-27.344,-26.855,-28.809,0.000,0
157701.915,-24.902,-20.996,-25.391,-21.973,0.000,0
157701.918,-17.578,-16.602,-24.414,-20.020,0.000,0
157701.922,-15.625,-21.484,-22.949,-18.066,0.000,0
157701.926,-13.672,-21.973,-16.602,-21.484,0.000,0
157701.930,-16.113,-20.508,-26.855,-25.879,0.000,0
157701.934,-20.508,-21.973,-33.203,-23.438,0.000,0
157701.938,-22.461,-22.949,-26.855,-19.531,0.000,0
157701.942,-25.391,-28.320,-31.738,-17.578,0.000,0
157701.946,-25.391,-26.855,-28.809,-20.996,0.000,0
157701.950,-22.949,-18.555,-23.438,-27.832,0.000,0
157701.954,-31.250,-20.508,-26.367,-27.344,0.000,0
157701.958,-25.391,-17.578,-26.855,-13.672,0.000,0
157701.961,-13.184,-18.066,-21.484,-19.531,0.000,0
157701.965,-27.344,-23.926,-19.531,-32.715,0.000,0
157701.969,-32.227,-28.809,-30.273,-28.809,0.000,0
157701.973,-16.602,-25.391,-33.203,-23.926,0.000,0
157701.977,-18.555,-17.578,-20.020,-20.020,0.000,0
157701.981,-25.391,-21.484,-14.160,-9.766,0.000,0
157701.985,-28.320,-24.414,-18.555,-16.113,0.000,0
157701.989,-27.344,-24.902,-23.926,-21.484,0.000,0
157701.993,-19.531,-32.227,-30.273,-12.695,0.000,0
157701.997,-17.090,-36.133,-31.250,-10.254,0.000,0
157702.000,-15.625,-25.879,-24.414,-16.113,0.000,0
157702.004,-21.973,-24.414,-25.391,-35.645,0.000,0
157702.008,-36.133,-34.668,-36.133,-36.621,0.000,0
157702.012,-33.691,-31.250,-33.203,-25.391,0.000,0
157702.016,-31.738,-28.320,-26.855,-27.344,0.000,0
157702.020,-29.785,-32.715,-36.133,-16.602,0.000,0
157702.024,-27.832,-27.832,-28.809,-22.461,0.000,0
157702.028,-29.785,-27.344,-20.996,-34.668,0.000,0
157702.032,-32.227,-28.809,-30.762,-27.344,0.000,0
157702.036,-30.762,-30.762,-32.227,-21.484,0.000,0
157702.040,-28.809,-34.668,-26.367,-19.531,0.000,0
157702.043,-22.461,-36.133,-21.484,-23.438,0.000,0
157702.047,-20.508,-29.297,-28.320,-28.320,0.000,0
157702.051,-18.555,-20.508,-34.180,-27.832,0.000,0
157702.055,-19.043,-21.973,-28.809,-19.043,0.000,0
157702.059,-27.344,-23.438,-27.344,-6.348,0.000,0
157702.063,-19.531,-26.855,-22.949,-14.648,0.000,0
157702.067,-14.160,-25.879,-23.926,-23.926,0.000,2
157702.071,-17.578,-22.461,-33.691,-11.230,0.000,0
157702.075,-20.996,-28.320,-27.344,-12.207,0.000,0
157702.079,-23.438,-32.715,-21.973,-16.602,0.000,0
157702.083,-22.461,-32.227,-20.020,-20.020,0.000,0
157702.086,-21.484,-33.203,-16.602,-23.926,0.000,0
157702.090,-23.438,-29.785,-23.926,-27.344,0.000,0
157702.094,-16.602,-26.367,-30.273,-23.438,0.000,0
157702.098,-7.812,-25.391,-28.320,-11.230,0.000,0
157702.102,-17.578,-24.414,-15.137,-22.949,0.000,0
157702.106,-24.902,-29.785,-14.648,-23.926,0.000,0
157702.110,-20.508,-32.227,-32.715,-19.531,0.000,0
157702.114,-24.902,-30.273,-32.227,-31.738,0.000,0
157702.118,-21.973,-27.344,-26.855,-27.344,0.000,0
157702.122,-19.531,-20.996,-18.555,-25.879,0.000,0
157702.125,-17.090,-22.949,-14.648,-29.297,0.000,0
157702.129,-10.254,-22.949,-18.066,-17.578,0.000,0
157702.133,-9.766,-16.602,-18.555,-16.113,0.000,0
157702.137,-15.137,-16.113,-18.555,-21.484,0.000,0
157702.141,-23.926,-20.020,-20.996,-33.203,0.000,0
157702.145,-21.973,-25.391,-23.926,-40.039,0.000,0
157702.149,-19.531,-25.391,-21.484,-25.879,0.000,0
157702.153,-25.879,-25.391,-25.391,-22.461,0.000,0
157702.157,-24.414,-27.344,-31.250,-21.484,0.000,0
157702.161,-21.484,-31.738,-29.297,-14.648,0.000,0
157702.165,-24.414,-34.180,-26.367,-19.531,0.000,0
157702.168,-20.020,-27.832,-21.973,-20.508,0.000,0
157702.172,-13.184,-20.508,-20.508,-12.695,0.000,0
157702.176,-13.184,-21.484,-23.926,-0.977,0.000,0
157702.180,-9.277,-23.926,-21.484,-2.441,0.000,0
157702.184,-14.648,-25.391,-21.484,-8.301,0.000,0
157702.188,-19.043,-24.414,-24.902,-12.695,0.000,0
157702.192,-22.461,-20.996,-20.020,-9.277,0.000,0
157702.196,-27.832,-22.949,-12.695,-5.371,0.000,0
157702.200,-17.090,-23.438,-15.137,-5.371,0.000,0
157702.204,-16.602,-20.508,-17.578,-13.672,0.000,0
157702.208,-20.020,-19.043,-19.043,-13.672,0.000,0
157702.211,-19.043,-29.297,-23.438,-3.906,0.000,0
157702.215,-33.691,-36.133,-32.227,-11.719,0.000,0
157702.219,-39.551,-26.367,-31.250,-15.625,0.000,0
157702.223,-26.855,-23.926,-28.809,-16.602,0.000,0
157702.227,-30.762,-21.484,-32.227,-26.855,0.000,0
157702.231,-42.480,-21.484,-32.715,-21.484,0.000,0
157702.235,-36.621,-25.879,-32.227,-10.742,0.000,0
157702.239,-36.133,-21.484,-31.250,-20.508,0.000,0
157702.243,-32.715,-20.020,-28.320,-28.809,0.000,0
157702.247,-21.484,-22.461,-29.785,-17.578,0.000,0
157702.250,-22.949,-18.555,-32.227,-8.301,0.000,0
157702.254,-19.531,-16.113,-29.297,-4.395,0.000,0
157702.258,-10.742,-22.461,-24.414,-7.812,0.000,0
157702.262,-13.672,-25.879,-13.672,-32.715,0.000,0
157702.266,-13.184,-18.066,-23.926,-23.926,0.000,0
157702.270,-9.766,-17.578,-29.297,-11.719,0.000,0
157702.274,-19.531,-19.043,-31.738,-7.324,0.000,0
157702.278,-20.996,-22.949,-29.785,-4.883,0.000,0
157702.282,-19.043,-29.297,-26.367,-15.137,0.000,0
157702.286,-16.602,-24.414,-36.621,-18.066,0.000,0
157702.290,-1.953,-24.902,-34.668,-6.348,0.000,0
157702.293,-11.230,-29.297,-32.715,-8.301,0.000,0
157702.297,-25.879,-29.297,-27.344,-26.855,0.000,0
157702.301,-17.578,-27.832,-30.273,-35.156,0.000,0
157702.305,-15.137,-22.461,-31.738,-27.344,0.000,0
157702.309,-19.531,-18.555,-23.926,-20.508,0.000,0
157702.313,-27.344,-28.809,-32.715,-27.344,0.000,0
157702.317,-21.973,-36.621,-37.109,-24.902,0.000,0
157702.321,-16.113,-27.832,-27.832,-19.043,0.000,0
157702.325,-24.902,-24.414,-28.320,-25.879,0.000,0
157702.329,-31.250,-29.785,-31.738,-37.598,0.000,0
157702.333,-17.090,-30.273,-29.785,-29.785,0.000,0
157702.336,-14.160,-25.391,-22.461,-21.484,0.000,0
157702.340,-25.879,-25.391,-15.137,-34.668,0.000,0
157702.344,-23.438,-30.762,-24.414,-34.668,0.000,0
157702.348,-23.438,-24.414,-31.250,-33.691,0.000,0
157702.352,-27.344,-23.438,-22.949,-30.273,0.000,0
157702.356,-27.344,-26.855,-14.160,-21.484,0.000,0
157702.360,-35.156,-26.367,-17.090,-33.691,0.000,0
157702.364,-30.762,-26.367,-26.367,-37.598,0.000,0
157702.368,-16.113,-25.879,-22.461,-27.344,0.000,0
157702.372,-34.668,-23.926,-17.578,-16.602,0.000,0
157702.375,-35.156,-27.832,-22.949,-15.625,0.000,0
157702.379,-24.414,-27.832,-28.809,-33.203,0.000,0
157702.383,-28.809,-25.391,-29.785,-34.668,0.000,0
157702.387,-35.156,-30.273,-22.949,-23.438,0.000,0
157702.391,-33.691,-25.391,-22.461,-27.832,0.000,0
157702.395,-29.297,-21.973,-18.066,-32.715,0.000,0
157702.399,-27.832,-25.391,-13.672,-41.016,0.000,0
157702.403,-26.367,-23.438,-23.926,-41.016,0.000,0
157702.407,-26.855,-27.344,-29.785,-27.344,0.000,0
157702.411,-26.855,-27.832,-28.320,-11.230,0.000,0
157702.415,-29.297,-21.484,-23.438,-15.137,0.000,0
157702.418,-21.484,-24.902,-20.020,-13.672,0.000,0
157702.422,-8.301,-25.879,-24.414,-5.371,0.000,0
157702.426,-17.090,-20.996,-27.832,-24.414,0.000,0
157702.430,-19.531,-14.648,-19.043,-30.273,0.000,0
157702.434,-14.160,-15.137,-13.184,-39.062,0.000,0
157702.438,-18.555,-20.020,-18.066,-43.457,0.000,0
157702.442,-20.996,-16.113,-18.555,-28.809,0.000,0
157702.446,-21.484,-13.184,-15.137,-22.461,0.000,0
157702.450,-27.344,-18.066,-20.020,-16.113,0.000,0
157702.454,-23.926,-19.043,-17.578,-10.742,0.000,0
157702.458,-19.531,-11.719,-12.207,-7.324,0.000,0
157702.461,-18.555,-13.184,-23.438,-14.160,0.000,0
157702.465,-16.602,-21.973,-27.344,-18.555,0.000,0
157702.469,-24.414,-24.414,-27.832,-14.648,0.000,0
157702.473,-26.367,-28.320,-21.484,-24.414,0.000,0
157702.477,-28.320,-27.344,-20.020,-32.227,0.000,0
157702.481,-26.367,-26.367,-36.621,-29.297,0.000,0
157702.485,-29.785,-35.156,-41.992,-29.297,0.000,0
157702.489,-32.227,-34.180,-33.691,-29.297,0.000,0
157702.493,-22.461,-32.227,-24.902,-20.996,0.000,0
157702.497,-21.973,-33.691,-26.855,-23.926,0.000,0
157702.500,-25.391,-24.414,-27.344,-27.832,0.000,0
157702.504,-19.043,-24.902,-24.414,-23.438,0.000,0
157702.508,-25.391,-32.227,-30.762,-21.973,0.000,0
157702.512,-35.156,-31.250,-33.691,-12.207,0.000,0
157702.516,-27.832,-31.250,-32.715,-18.555,0.000,0
157702.520,-28.320,-28.809,-31.738,-29.297,0.000,0
157702.524,-31.250,-25.391,-34.668,-25.391,0.000,0
157702.528,-24.414,-24.902,-35.156,-18.555,0.000,0
157702.532,-31.250,-21.484,-30.762,-16.602,0.000,0
157702.536,-26.367,-22.949,-29.297,-27.344,0.000,0
157702.540,-16.602,-25.391,-33.691,-29.297,0.000,0
157702.543,-29.785,-25.879,-34.668,-31.250,0.000,0
157702.547,-35.645,-33.203,-32.715,-22.949,0.000,0
157702.551,-32.227,-30.273,-28.320,-15.137,0.000,0
157702.555,-30.762,-23.438,-25.879,-28.809,0.000,0
157702.559,-29.297,-25.391,-34.668,-22.461,0.000,0
157702.563,-31.738,-25.879,-39.062,-9.766,0.000,0
157702.567,-25.391,-26.367,-35.645,-16.113,0.000,0
157702.571,-17.090,-24.902,-35.156,-20.508,0.000,0
157702.575,-19.531,-22.949,-27.832,-25.391,0.000,0
157702.579,-18.555,-20.508,-25.391,-30.762,0.000,0
157702.583,-24.414,-29.297,-32.715,-25.879,0.000,0
157702.586,-20.020,-27.344,-29.785,-15.625,0.000,0
157702.590,-21.484,-23.438,-28.809,-15.625,0.000,0
157702.594,-30.273,-27.832,-29.785,-19.531,0.000,0
157702.598,-25.879,-32.227,-31.250,-10.742,0.000,0
157702.602,-29.785,-32.227,-34.180,-16.113,0.000,0
157702.606,-28.809,-30.273,-33.203,-30.273,0.000,0
157702.610,-20.508,-29.297,-29.785,-25.391,0.000,0
157702.614,-18.066,-25.879,-31.738,-23.926,0.000,0
157702.618,-3.906,-21.973,-28.809,-18.066,0.000,0
157702.622,0.977,-23.926,-28.320,-9.766,0.000,0
157702.625,-18.066,-29.297,-37.109,-18.555,0.000,0
157702.629,-18.066,-29.785,-37.598,-21.484,0.000,0
157702.633,-27.344,-29.297,-36.621,-25.879,0.000,0
157702.637,-36.133,-23.926,-34.180,-22.949,0.000,0
157702.641,-23.438,-17.578,-30.273,-14.160,0.000,0
157702.645,-18.555,-15.625,-29.297,-20.996,0.000,0
157702.649,-21.973,-16.602,-32.715,-24.414,0.000,0
157702.653,-30.273,-19.531,-22.949,-34.180,0.000,0
157702.657,-30.762,-20.996,-21.484,-38.574,0.000,0
157702.661,-24.902,-22.949,-31.250,-28.320,0.000,0
157702.665,-26.367,-19.531,-31.250,-27.832,0.000,0
157702.668,-26.367,-17.090,-28.809,-27.344,0.000,0
157702.672,-18.555,-16.602,-24.414,-27.344,0.000,0
157702.676,-20.020,-16.602,-25.879,-25.391,0.000,2
157702.680,-27.344,-19.043,-20.996,-27.832,0.000,0
157702.684,-26.367,-16.602,-16.602,-24.902,0.000,0
157702.688,-13.672,-15.625,-20.508,-2.441,0.000,0
157702.692,-10.742,-11.230,-10.742,-10.254,0.000,0
157702.696,-27.832,-13.184,-13.184,-28.809,0.000,0
157702.700,-32.715,-21.484,-25.391,-20.508,0.000,0
157702.704,-34.668,-25.391,-23.438,-22.461,0.000,0
157702.708,-29.297,-25.391,-23.926,-30.273,0.000,0
157702.711,-27.832,-23.926,-23.926,-37.109,0.000,0
157702.715,-37.598,-23.926,-18.555,-36.621,0.000,0
157702.719,-31.250,-21.973,-18.555,-30.273,0.000,0
157702.723,-33.203,-17.578,-24.414,-31.250,0.000,0
157702.727,-38.574,-17.578,-28.809,-25.879,0.000,0
157702.731,-32.227,-16.113,-22.461,-28.320,0.000,0
157702.735,-24.414,-21.484,-23.438,-31.250,0.000,0
157702.739,-16.113,-25.391,-26.367,-25.391,0.000,0
157702.743,-21.973,-23.438,-25.391,-26.855,0.000,0
157702.747,-33.203,-25.879,-33.691,-28.320,0.000,0
157702.750,-27.832,-25.391,-35.156,-29.297,0.000,0
157702.754,-23.926,-19.043,-23.438,-28.809,0.000,0
157702.758,-31.738,-18.066,-19.531,-24.902,0.000,0
157702.762,-29.785,-25.879,-26.367,-20.508,0.000,0
157702.766,-29.297,-25.879,-30.273,-20.508,0.000,0
157702.770,-32.715,-25.391,-24.902,-30.762,0.000,0
157702.774,-30.273,-24.902,-20.508,-25.391,0.000,0
157702.778,-30.762,-23.926,-26.855,-11.719,0.000,0
157702.782,-25.391,-24.902,-29.785,-24.414,0.000,0
157702.786,-28.809,-21.484,-29.785,-29.297,0.000,0
157702.790,-22.949,-19.043,-29.297,-26.367,0.000,0
157702.793,-17.090,-22.461,-30.273,-34.668,0.000,0
157702.797,-19.531,-26.367,-29.785,-24.414,0.000,0
157702.801,-23.926,-23.926,-20.508,-13.184,0.000,0
157702.805,-20.020,-21.973,-16.602,-10.742,0.000,0
157702.809,-18.555,-21.484,-26.367,-20.508,0.000,0
157702.813,-26.367,-22.461,-30.273,-19.043,0.000,0
157702.817,-22.949,-17.090,-22.461,-9.277,0.000,0
157702.821,-19.531,-17.090,-21.973,-12.207,0.000,0
157702.825,-23.438,-31.250,-31.250,-17.578,0.000,0
157702.829,-23.438,-31.250,-27.832,-26.367,0.000,0
157702.833,-28.809,-28.320,-27.344,-33.203,0.000,0
157702.836,-30.762,-29.297,-29.297,-19.531,0.000,0
157702.840,-21.973,-26.855,-27.832,-14.648,0.000,0
157702.844,-28.809,-26.855,-33.203,-13.184,0.000,0
157702.848,-40.527,-29.785,-25.879,-4.883,0.000,0
157702.852,-29.297,-26.855,-27.344,-16.602,0.000,0
157702.856,-20.020,-22.949,-34.180,-29.785,0.000,0
157702.860,-21.484,-16.602,-25.879,-23.438,0.000,0
157702.864,-20.020,-17.578,-28.320,-14.160,0.000,0
157702.868,-20.020,-23.926,-24.902,-16.602,0.000,0
157702.872,-22.461,-19.531,-20.020,-21.484,0.000,0
157702.875,-20.020,-15.137,-23.438,-9.277,0.000,0
157702.879,-20.020,-20.020,-27.344,-10.742,0.000,0
157702.883,-19.043,-30.762,-28.320,-20.020,0.000,0
157702.887,-12.207,-22.949,-29.785,-12.695,0.000,0
157702.891,-6.348,-17.090,-28.320,-9.766,0.000,0
157702.895,-12.695,-22.949,-29.785,-19.043,0.000,0
157702.899,-15.625,-22.949,-32.715,-24.414,0.000,0
157702.903,-18.066,-21.484,-29.785,-21.973,0.000,0
157702.907,-18.555,-25.879,-23.438,-23.438,0.000,0
157702.911,-17.090,-25.879,-27.832,-29.785,0.000,0
157702.915,-31.250,-27.832,-40.039,-29.297,0.000,0
157702.918,-35.645,-26.855,-37.598,-23.926,0.000,0
157702.922,-29.785,-21.484,-34.180,-21.484,0.000,0
157702.926,-40.039,-25.879,-37.109,-24.414,0.000,0
157702.930,-43.945,-34.668,-35.645,-33.203,0.000,0
157702.934,-40.039,-36.133,-34.180,-24.902,0.000,0
157702.938,-41.016,-35.645,-37.598,-17.578,0.000,0
157702.942,-28.809,-34.180,-38.086,-24.902,0.000,0
157702.946,-25.879,-35.645,-35.645,-30.762,0.000,0
157702.950,-24.414,-36.621,-38.574,-32.715,0.000,0
157702.954,-14.160,-34.180,-37.109,-23.438,0.000,0
157702.958,-15.137,-25.879,-33.691,-20.020,0.000,0
157702.961,-10.742,-26.855,-32.227,-20.996,0.000,0
157702.965,-12.695,-34.668,-28.320,-25.391,0.000,0
157702.969,-17.578,-29.297,-22.461,-34.668,0.000,0
157702.973,-12.695,-27.344,-22.949,-29.297,0.000,0
157702.977,-18.066,-29.297,-25.879,-24.902,0.000,0
157702.981,-25.391,-24.902,-20.508,-27.832,0.000,0
157702.985,-23.926,-21.484,-17.090,-29.785,0.000,0
157702.989,-16.113,-22.461,-23.926,-26.855,0.000,0
157702.993,-20.996,-21.973,-28.320,-23.438,0.000,0
157702.997,-22.461,-20.020,-23.438,-21.484,0.000,0
157703.000,-21.973,-23.438,-24.902,-17.090,0.000,0
157703.004,-23.926,-28.320,-25.879,-27.344,0.000,0
157703.008,-29.785,-29.785,-28.809,-21.484,0.000,0
157703.012,-38.574,-22.461,-28.809,-8.789,0.000,0
157703.016,-33.203,-20.996,-30.273,-20.020,0.000,0
157703.020,-29.297,-24.902,-36.621,-19.043,0.000,0
157703.024,-31.250,-29.297,-30.273,-12.695,0.000,0
157703.028,-29.297,-26.855,-27.344,-20.996,0.000,0
157703.032,-28.320,-17.578,-24.902,-26.367,0.000,0
157703.036,-25.391,-26.855,-26.367,-24.902,0.000,0
157703.040,-29.297,-28.320,-26.367,-18.066,0.000,0
157703.043,-32.227,-20.996,-17.578,-32.715,0.000,0
157703.047,-27.344,-23.926,-21.973,-35.156,0.000,0
157703.051,-23.926,-20.020,-24.414,-18.555,0.000,0
157703.055,-13.672,-18.555,-19.043,-14.160,0.000,0
157703.059,-3.418,-13.672,-11.230,-14.648,0.000,0
157703.063,-11.230,-21.484,-14.160,-24.902,0.000,0
157703.067,-23.926,-26.367,-26.367,-35.156,0.000,0
157703.071,-23.438,-17.090,-24.414,-32.227,0.000,0
157703.075,-25.391,-20.508,-20.508,-26.367,0.000,0
157703.079,-23.926,-21.973,-26.367,-20.020,0.000,0
157703.083,-25.879,-20.020,-23.438,-33.691,0.000,0
157703.086,-26.367,-22.461,-18.555,-34.668,0.000,0
157703.090,-20.020,-32.227,-29.785,-15.137,0.000,0
157703.094,-26.367,-35.645,-32.227,-26.855,0.000,0
157703.098,-27.832,-24.414,-18.066,-27.832,0.000,0
157703.102,-19.043,-20.508,-8.301,-25.879,0.000,0
157703.106,-20.508,-23.926,-12.695,-29.785,0.000,0
157703.110,-25.879,-23.926,-22.949,-30.762,0.000,0
157703.114,-16.602,-28.809,-21.973,-26.855,0.000,0
157703.118,-13.672,-36.133,-20.020,-20.996,0.000,0
157703.122,-27.832,-30.762,-24.902,-29.297,0.000,0
157703.125,-25.879,-23.438,-26.855,-38.086,0.000,0
157703.129,-21.484,-25.391,-20.020,-34.180,0.000,0
157703.133,-22.461,-34.668,-20.508,-29.297,0.000,0
157703.137,-23.438,-38.086,-33.691,-30.762,0.000,0
157703.141,-30.273,-37.109,-36.133,-27.832,0.000,0
157703.145,-29.785,-34.668,-30.762,-34.180,0.000,0
157703.149,-29.785,-32.715,-28.320,-28.320,0.000,0
157703.153,-28.320,-26.855,-27.344,-13.184,0.000,0
157703.157,-22.949,-20.508,-27.832,-9.277,0.000,0
157703.161,-24.414,-24.414,-26.367,-18.555,0.000,0
157703.165,-23.438,-21.484,-19.531,-20.508,0.000,0
157703.168,-24.414,-21.484,-26.855,-18.555,0.000,0
157703.172,-20.020,-28.320,-25.879,-20.020,0.000,0
157703.176,-14.648,-26.855,-22.461,-16.602,0.000,0
157703.180,-16.113,-23.438,-29.785,-20.508,0.000,0
157703.184,-17.578,-24.902,-25.391,-27.344,0.000,0
157703.188,-21.484,-25.879,-21.484,-10.254,0.000,0
157703.192,-20.996,-30.273,-30.762,-0.488,0.000,0
157703.196,-17.090,-28.809,-33.203,-12.207,0.000,0
157703.200,-13.672,-26.855,-26.367,-15.625,0.000,0
157703.204,-20.996,-35.156,-24.902,-29.785,0.000,0
157703.208,-24.414,-35.156,-26.855,-36.621,0.000,0
157703.211,-23.438,-32.715,-32.715,-30.762,0.000,0
157703.215,-18.555,-29.785,-28.809,-19.043,0.000,0
157703.219,-17.090,-27.832,-20.996,-10.742,0.000,0
157703.223,-20.508,-32.227,-25.879,-12.207,0.000,0
157703.227,-16.602,-28.809,-36.621,-13.672,0.000,0
157703.231,-6.836,-24.414,-33.203,-7.812,0.000,0
157703.235,3.418,-18.066,-23.926,-2.441,0.000,0
157703.239,-2.930,-12.695,-23.926,-6.836,0.000,0
157703.243,-6.836,-15.625,-24.414,-12.207,0.000,0
157703.247,-3.906,-20.020,-24.414,-15.137,0.000,0
157703.250,0.977,-16.602,-21.484,-8.301,0.000,0
157703.254,0.488,-16.113,-21.973,-7.324,0.000,0
157703.258,-13.672,-26.367,-35.645,-12.207,0.000,0
157703.262,-25.391,-27.344,-36.133,-20.996,0.000,0
157703.266,-28.320,-29.785,-31.250,-25.879,0.000,0
157703.270,-24.902,-31.250,-35.645,-23.438,0.000,0
157703.274,-15.137,-25.391,-38.086,-29.297,0.000,0
157703.278,-16.113,-21.484,-35.156,-25.879,0.000,0
157703.282,-22.949,-23.438,-25.391,-33.203,0.000,0
157703.286,-18.555,-24.902,-21.484,-39.062,0.000,0
157703.290,-12.695,-20.996,-22.949,-21.484,0.000,0
157703.293,-9.766,-20.996,-26.367,-12.207,0.000,0
157703.297,-14.648,-19.531,-25.391,-22.461,0.000,0
157703.301,-23.438,-24.902,-25.391,-20.020,0.000,0
157703.305,-22.949,-24.414,-30.762,-9.766,0.000,0
157703.309,-30.273,-27.344,-34.180,-18.066,0.000,0
157703.313,-17.578,-32.227,-29.785,-16.113,0.000,0
157703.317,-18.066,-26.855,-31.250,-24.902,0.000,0
157703.321,-36.133,-30.273,-36.133,-45.410,0.000,0
157703.325,-33.203,-31.250,-35.645,-38.086,0.000,0
157703.329,-28.809,-23.926,-36.621,-23.438,0.000,0
157703.333,-20.508,-20.020,-35.156,-20.508,0.000,0
157703.336,-26.367,-18.066,-32.227,-26.367,0.000,0
157703.340,-30.273,-14.160,-22.949,-35.645,0.000,0
157703.344,-25.879,-12.207,-13.672,-35.645,0.000,0
157703.348,-20.020,-12.207,-20.020,-25.391,0.000,0
157703.352,-16.113,-12.207,-26.367,-19.531,0.000,0
157703.356,-20.020,-16.113,-21.484,-10.254,0.000,0
157703.360,-22.949,-21.973,-20.996,-23.926,0.000,0
157703.364,-21.973,-12.695,-22.461,-37.598,0.000,0
157703.368,-29.785,-11.719,-25.391,-23.438,0.000,0
157703.372,-26.367,-19.043,-23.438,-17.578,0.000,0
157703.375,-17.090,-14.648,-24.902,-24.414,0.000,0
157703.379,-26.855,-16.113,-23.926,-33.203,0.000,0
157703.383,-22.949,-21.484,-18.066,-29.785,0.000,0
157703.387,-18.066,-17.090,-24.414,-26.855,0.000,0
157703.391,-28.320,-12.695,-30.762,-35.156,0.000,0
157703.395,-24.902,-20.508,-32.227,-20.020,0.000,1
157703.399,-19.043,-20.996,-27.832,-15.625,0.000,0
157703.403,-21.484,-17.090,-24.414,-23.438,0.000,0
157703.407,-14.160,-16.113,-30.273,-18.555,0.000,0
157703.411,-21.484,-20.996,-34.180,-17.578,0.000,0
157703.415,-32.227,-20.996,-29.785,-20.508,0.000,0
157703.418,-22.461,-20.508,-24.414,-32.227,0.000,0
157703.422,-18.066,-22.461,-31.738,-33.691,0.000,0
157703.426,-23.438,-27.344,-34.180,-34.180,0.000,0
157703.430,-22.949,-25.391,-31.250,-27.832,0.000,0
157703.434,-21.973,-18.066,-25.391,-21.484,0.000,0
157703.438,-23.438,-20.996,-17.578,-29.785,0.000,0
157703.442,-20.996,-22.949,-25.391,-24.902,0.000,0
157703.446,-17.090,-20.020,-30.273,-13.184,0.000,0
157703.450,-18.555,-15.137,-26.367,-9.766,0.000,0
157703.454,-15.625,-14.160,-26.367,-8.789,0.000,0
157703.458,-20.020,-20.996,-21.484,-16.113,0.000,0
157703.461,-28.809,-15.625,-20.996,-25.391,0.000,0
157703.465,-27.832,-17.578,-31.738,-23.926,0.000,0
157703.469,-33.691,-22.949,-34.668,-26.367,0.000,0
157703.473,-38.574,-24.414,-32.227,-33.203,0.000,0
157703.477,-38.086,-33.203,-40.527,-42.480,0.000,0
157703.481,-34.180,-34.668,-42.969,-42.969,0.000,0
157703.485,-31.250,-28.809,-38.086,-38.574,0.000,0
157703.489,-31.738,-28.320,-31.738,-32.715,0.000,0
157703.493,-36.621,-33.203,-30.273,-37.598,0.000,0
157703.497,-37.598,-35.645,-43.457,-45.410,0.000,0
157703.500,-38.086,-36.133,-42.480,-36.621,0.000,0
157703.504,-35.645,-35.645,-40.039,-33.691,0.000,0
157703.508,-28.320,-39.062,-44.922,-36.621,0.000,0
157703.512,-26.855,-37.598,-34.180,-28.809,0.000,0
157703.516,-38.086,-38.574,-35.156,-28.809,0.000,0
157703.520,-42.969,-41.016,-45.410,-32.227,0.000,0
157703.524,-37.598,-35.156,-43.457,-31.738,0.000,0
157703.528,-38.086,-35.156,-43.945,-23.926,0.000,0
157703.532,-33.203,-33.691,-42.480,-16.602,0.000,0
157703.536,-32.227,-35.156,-37.598,-29.297,0.000,0
157703.540,-34.668,-34.668,-34.668,-31.738,0.000,0
157703.543,-34.668,-29.785,-32.715,-21.484,0.000,0
157703.547,-36.621,-33.203,-38.086,-22.949,0.000,0
157703.551,-31.738,-30.273,-35.156,-23.438,0.000,0
157703.555,-26.367,-24.414,-27.344,-29.785,0.000,0
157703.559,-33.203,-25.391,-31.250,-37.109,0.000,0
157703.563,-33.203,-20.020,-30.762,-32.227,0.000,0
157703.567,-27.344,-20.996,-29.785,-28.809,0.000,0
157703.571,-20.508,-25.391,-29.297,-17.578,0.000,0
157703.575,-18.066,-19.531,-21.484,-19.043,0.000,0
157703.579,-30.273,-16.602,-24.902,-25.391,0.000,0
157703.583,-33.203,-22.461,-31.250,-18.555,0.000,0
157703.586,-26.367,-26.855,-32.715,-16.602,0.000,0
157703.590,-33.203,-27.344,-30.762,-16.602,0.000,0
157703.594,-37.109,-28.809,-20.996,-21.484,0.000,0
157703.598,-31.738,-31.250,-26.367,-26.855,0.000,0
157703.602,-35.156,-24.414,-27.344,-24.414,0.000,0
157703.606,-38.574,-17.578,-24.414,-15.625,0.000,0
157703.610,-38.086,-23.438,-30.762,-19.531,0.000,0
157703.614,-34.668,-27.344,-30.273,-23.438,0.000,0
157703.618,-35.645,-23.926,-26.855,-16.602,0.000,0
157703.622,-37.109,-25.391,-25.879,-5.859,0.000,0
157703.625,-27.344,-24.902,-22.461,-8.789,0.000,0
157703.629,-24.414,-23.438,-23.926,-8.789,0.000,0
157703.633,-29.297,-26.367,-24.414,-12.207,0.000,0
157703.637,-35.645,-28.809,-32.227,-41.504,0.000,0
157703.641,-39.062,-27.832,-38.574,-42.480,0.000,0
157703.645,-30.273,-25.391,-38.574,-28.809,0.000,0
157703.649,-20.508,-21.973,-34.180,-31.738,0.000,0
157703.653,-26.855,-27.832,-20.020,-32.715,0.000,0
157703.657,-28.809,-29.297,-21.484,-31.250,0.000,0
157703.661,-24.414,-28.320,-27.832,-32.227,0.000,0
157703.665,-22.949,-29.297,-23.926,-27.832,0.000,0
157703.668,-29.785,-29.297,-30.762,-28.320,0.000,0
157703.672,-32.227,-35.156,-34.668,-39.062,0.000,0
157703.676,-24.902,-32.715,-30.273,-41.992,0.000,0
157703.680,-30.762,-29.785,-30.273,-35.645,0.000,0
157703.684,-32.227,-30.273,-34.180,-29.297,0.000,0
157703.688,-27.832,-28.809,-36.133,-32.715,0.000,0
157703.692,-22.949,-30.273,-30.273,-38.086,0.000,0
157703.696,-21.484,-31.250,-26.855,-33.203,0.000,0
157703.700,-31.250,-32.715,-30.762,-28.809,0.000,0
157703.704,-30.273,-29.785,-33.691,-30.762,0.000,0
157703.708,-20.996,-27.344,-34.180,-16.113,0.000,0
157703.711,-28.809,-27.832,-27.344,-19.043,0.000,0
157703.715,-31.738,-22.949,-24.902,-16.602,0.000,0
157703.719,-22.461,-20.508,-32.715,-5.859,0.000,0
157703.723,-23.438,-23.926,-43.945,-19.531,0.000,0
157703.727,-26.855,-28.320,-45.898,-24.414,0.000,0
157703.731,-27.344,-20.508,-38.574,-30.273,0.000,0
157703.735,-28.809,-14.160,-39.551,-36.621,0.000,0
157703.739,-29.297,-23.438,-37.109,-35.645,0.000,0
157703.743,-27.832,-20.020,-34.668,-29.785,0.000,0
157703.747,-22.461,-18.555,-37.598,-22.949,0.000,0
157703.750,-17.090,-24.902,-27.832,-25.879,0.000,0
157703.754,-24.902,-22.461,-30.762,-21.484,0.000,0
157703.758,-36.133,-19.043,-47.363,-29.297,0.000,0
157703.762,-32.715,-21.973,-49.805,-32.227,0.000,0
157703.766,-35.156,-19.531,-40.527,-24.902,0.000,0
157703.770,-41.504,-21.973,-30.273,-34.668,0.000,0
157703.774,-34.180,-21.484,-29.785,-34.180,0.000,0
157703.778,-33.691,-24.414,-34.668,-26.855,0.000,0
157703.782,-35.645,-23.438,-38.086,-20.996,0.000,0
157703.786,-34.180,-18.066,-34.668,-19.043,0.000,0
157703.790,-27.344,-21.484,-33.203,-22.461,0.000,0
157703.793,-17.578,-19.531,-34.180,-13.184,0.000,0
157703.797,-16.602,-20.020,-34.668,-20.020,0.000,0
157703.801,-20.020,-27.344,-33.203,-21.973,0.000,0
157703.805,-11.719,-20.996,-35.645,-6.836,0.000,0
157703.809,-7.324,-20.508,-32.715,-22.461,0.000,0
157703.813,-24.414,-27.832,-27.832,-31.738,0.000,0
157703.817,-30.273,-27.832,-33.203,-25.391,0.000,0
157703.821,-25.879,-28.320,-38.086,-21.973,0.000,0
157703.825,-27.344,-24.414,-38.086,-22.461,0.000,0
157703.829,-24.414,-23.926,-31.738,-24.414,0.000,0
157703.833,-21.484,-20.996,-27.832,-23.926,0.000,0
157703.836,-21.484,-16.602,-29.297,-29.785,0.000,0
157703.840,-24.414,-23.926,-24.902,-40.039,0.000,0
157703.844,-28.809,-22.461,-25.879,-27.344,0.000,0
157703.848,-26.855,-18.555,-24.902,-22.461,0.000,0
157703.852,-25.391,-23.926,-24.902,-30.273,0.000,0
157703.856,-27.344,-29.785,-24.902,-23.926,0.000,0
157703.860,-30.762,-26.855,-22.461,-21.484,0.000,0
157703.864,-31.738,-28.809,-23.926,-25.391,0.000,0
157703.868,-27.832,-25.391,-19.531,-25.879,0.000,0
157703.872,-22.461,-18.066,-23.438,-20.996,0.000,0
157703.875,-24.414,-21.973,-29.785,-21.484,0.000,0
157703.879,-29.297,-26.367,-30.273,-30.762,0.000,0
157703.883,-28.809,-25.879,-32.715,-17.578,0.000,0
157703.887,-23.438,-25.879,-26.855,-19.043,0.000,0
157703.891,-25.391,-23.438,-20.996,-28.809,0.000,0
157703.895,-19.043,-20.996,-26.855,-16.602,0.000,0
157703.899,-8.301,-20.996,-20.996,-13.184,0.000,0
157703.903,3.418,-18.066,-16.602,-3.418,0.000,0
157703.907,-5.859,-21.484,-21.973,-6.836,0.000,0
157703.911,-35.645,-29.297,-30.273,-46.875,0.000,0
157703.915,-37.109,-23.926,-28.809,-44.922,0.000,0
157703.918,-28.320,-23.926,-15.625,-22.461,0.000,0
157703.922,-32.227,-29.297,-24.902,-29.297,0.000,0
157703.926,-30.273,-23.926,-26.855,-30.273,0.000,0
157703.930,-24.902,-21.484,-22.949,-21.484,0.000,0
157703.934,-29.297,-20.996,-26.367,-14.648,0.000,0
157703.938,-28.809,-21.973,-22.949,-4.395,0.000,0
157703.942,-25.391,-26.367,-19.531,-10.742,0.000,0
157703.946,-21.484,-26.367,-20.996,-21.484,0.000,0
157703.950,-21.484,-28.809,-22.461,-19.531,0.000,0
157703.954,-24.902,-30.762,-26.855,-23.926,0.000,0
157703.958,-24.902,-27.344,-25.391,-25.391,0.000,0
157703.961,-26.855,-23.438,-19.531,-10.742,0.000,0
157703.965,-37.598,-24.414,-14.648,-12.695,0.000,0
157703.969,-32.227,-29.297,-18.066,-22.461,0.000,0
157703.973,-20.020,-26.855,-26.855,-13.672,0.000,0
157703.977,-15.625,-26.367,-22.461,-18.555,0.000,0
157703.981,-18.066,-27.344,-17.578,-16.113,0.000,0
157703.985,-20.020,-27.344,-24.902,-20.020,0.000,0
157703.989,-21.973,-28.320,-23.926,-21.484,0.000,0
157703.993,-22.461,-25.879,-20.020,-16.113,0.000,0
157703.997,-22.461,-24.902,-18.555,-17.578,0.000,0
157704.000,-16.113,-24.902,-16.113,-12.207,0.000,0
157704.004,-16.113,-24.414,-13.672,-27.344,0.000,0
157704.008,-27.832,-24.902,-18.555,-35.156,0.000,0
157704.012,-30.273,-24.902,-24.414,-22.949,0.000,0
157704.016,-34.180,-25.879,-30.762,-30.273,0.000,0
157704.020,-31.738,-27.344,-35.156,-26.367,0.000,1
157704.024,-30.273,-23.438,-28.320,-19.531,0.000,0
157704.028,-28.809,-21.973,-24.902,-27.344,0.000,0
157704.032,-15.625,-26.367,-29.297,-17.090,0.000,0
157704.036,-20.996,-25.879,-27.832,-20.996,0.000,0
157704.040,-30.273,-22.949,-29.297,-23.926,0.000,0
157704.043,-24.902,-28.320,-29.297,-15.625,0.000,0
157704.047,-32.715,-28.320,-24.414,-24.414,0.000,0
157704.051,-41.992,-27.832,-31.250,-35.156,0.000,0
157704.055,-38.086,-28.320,-34.180,-32.715,0.000,0
157704.059,-38.086,-31.250,-33.691,-20.508,0.000,0
157704.063,-35.156,-29.785,-34.668,-23.926,0.000,0
157704.067,-35.156,-31.738,-35.645,-44.434,0.000,0
157704.071,-37.109,-32.227,-33.203,-33.203,0.000,0
157704.075,-28.320,-26.855,-32.227,-22.461,0.000,0
157704.079,-28.320,-23.926,-30.273,-21.973,0.000,0
157704.083,-23.926,-33.691,-28.320,-12.207,0.000,0
157704.086,-24.414,-35.645,-25.391,-25.391,0.000,0
157704.090,-27.832,-35.156,-31.738,-38.086,0.000,0
157704.094,-20.508,-31.738,-35.156,-26.367,0.000,0
157704.098,-20.020,-23.438,-31.250,-16.113,0.000,0
157704.102,-26.367,-29.297,-34.668,-20.508,0.000,0
157704.106,-23.926,-29.785,-30.273,-19.043,0.000,0
157704.110,-22.461,-27.832,-21.484,-9.766,0.000,0
157704.114,-28.809,-26.367,-16.113,-11.230,0.000,0
157704.118,-28.320,-23.438,-26.855,-7.324,0.000,0
157704.122,-20.508,-25.879,-34.668,-17.090,0.000,0
157704.125,-25.391,-22.461,-25.879,-31.738,0.000,0
157704.129,-32.227,-23.438,-24.414,-28.320,0.000,0
157704.133,-26.855,-29.297,-23.438,-22.949,0.000,0
157704.137,-19.043,-27.832,-23.926,-16.602,0.000,0
157704.141,-24.902,-26.855,-20.996,-19.043,0.000,0
157704.145,-28.320,-25.391,-20.508,-20.996,0.000,0
157704.149,-26.367,-16.602,-26.855,-10.742,0.000,0
157704.153,-28.320,-18.555,-28.320,-15.625,0.000,0
157704.157,-31.738,-22.461,-25.879,-23.926,0.000,0
157704.161,-32.227,-23.926,-27.832,-27.832,0.000,0
157704.165,-20.508,-23.438,-32.227,-27.344,0.000,0
157704.168,-21.484,-22.461,-29.785,-21.973,0.000,0
157704.172,-20.996,-25.879,-29.297,-21.484,0.000,0
157704.176,-13.184,-22.949,-30.762,-20.996,0.000,0
157704.180,-18.555,-29.297,-29.297,-20.996,0.000,0
157704.184,-25.879,-32.715,-25.879,-23.438,0.000,0
157704.188,-23.438,-31.738,-26.367,-31.250,0.000,0
157704.192,-17.578,-35.645,-28.320,-35.156,0.000,0
157704.196,-18.555,-34.180,-31.738,-29.297,0.000,0
157704.200,-25.879,-35.645,-35.645,-26.367,0.000,0
157704.204,-28.320,-32.715,-29.785,-31.738,0.000,0
157704.208,-20.508,-31.250,-29.297,-20.996,0.000,0
157704.211,-14.160,-31.250,-32.227,-9.277,0.000,0
157704.215,-30.273,-30.762,-35.156,-27.344,0.000,0
157704.219,-36.621,-35.645,-36.621,-30.273,0.000,0
157704.223,-26.367,-28.320,-23.438,-25.391,0.000,0
157704.227,-33.691,-26.367,-19.043,-30.762,0.000,0
157704.231,-29.785,-30.273,-21.973,-39.551,0.000,0
157704.235,-21.484,-32.227,-20.996,-24.902,0.000,0
157704.239,-22.461,-30.762,-20.996,-13.184,0.000,0
157704.243,-18.555,-24.902,-14.648,-29.297,0.000,0
157704.247,-29.785,-21.484,-15.625,-27.832,0.000,0
157704.250,-38.574,-29.785,-24.414,-29.297,0.000,0
157704.254,-26.367,-29.785,-30.273,-45.898,0.000,0
157704.258,-27.344,-27.832,-31.738,-45.898,0.000,0
157704.262,-33.691,-37.598,-31.738,-41.504,0.000,0
157704.266,-26.855,-40.527,-33.691,-41.504,0.000,0
157704.270,-17.578,-26.855,-25.879,-30.762,0.000,0
157704.274,-11.719,-19.531,-15.137,-15.625,0.000,0
157704.278,-22.461,-25.391,-20.508,-16.602,0.000,0
157704.282,-30.273,-29.297,-29.297,-24.414,0.000,0
157704.286,-33.203,-25.391,-30.273,-26.855,0.000,0
157704.290,-40.039,-29.785,-31.250,-30.762,0.000,0
157704.293,-40.527,-35.645,-30.762,-30.273,0.000,0
157704.297,-33.203,-30.762,-30.273,-26.855,0.000,0
157704.301,-33.691,-28.809,-24.414,-34.668,0.000,0
157704.305,-34.180,-29.297,-20.996,-36.133,0.000,0
157704.309,-24.902,-26.367,-22.461,-23.438,0.000,0
157704.313,-24.902,-26.367,-26.367,-20.020,0.000,0
157704.317,-25.879,-30.273,-28.809,-24.414,0.000,0
157704.321,-26.367,-29.785,-25.391,-20.996,0.000,0
157704.325,-21.484,-23.926,-21.484,-19.043,0.000,0
157704.329,-15.625,-21.973,-27.832,-16.602,0.000,0
157704.333,-21.973,-26.367,-34.180,-20.020,0.000,0
157704.336,-22.949,-26.367,-24.902,-24.414,0.000,0
157704.340,-18.555,-25.391,-19.531,-34.180,0.000,0
157704.344,-10.742,-26.367,-24.414,-34.180,0.000,0
157704.348,-17.578,-21.484,-28.809,-24.902,0.000,0
157704.352,-30.762,-21.484,-28.809,-21.973,0.000,0
157704.356,-18.066,-16.113,-27.344,-12.695,0.000,0
157704.360,-9.277,-18.066,-25.391,-22.461,0.000,0
157704.364,-19.531,-24.414,-22.949,-30.273,0.000,0
157704.368,-25.391,-23.438,-26.855,-23.926,0.000,0
157704.372,-16.113,-32.715,-26.367,-30.273,0.000,0
157704.375,-17.090,-35.156,-24.414,-23.926,0.000,0
157704.379,-36.133,-28.809,-25.879,-28.809,0.000,0
157704.383,-39.551,-26.367,-29.297,-33.203,0.000,0
157704.387,-36.621,-25.879,-33.691,-19.531,0.000,0
157704.391,-32.715,-37.598,-39.062,-21.484,0.000,0
157704.395,-32.227,-33.691,-36.133,-24.902,0.000,0
157704.399,-38.086,-26.367,-27.344,-28.809,0.000,0
157704.403,-35.645,-30.273,-30.762,-33.691,0.000,0
157704.407,-20.508,-25.879,-34.668,-32.715,0.000,0
157704.411,-2.441,-20.020,-27.832,-14.648,0.000,0
157704.415,5.371,-19.531,-23.438,4.883,0.000,0
157704.418,-15.137,-24.414,-28.320,-29.785,0.000,0
157704.422,-38.086,-21.973,-39.062,-54.688,0.000,0
157704.426,-27.832,-18.555,-35.156,-35.645,0.000,0
157704.430,-16.602,-18.066,-27.344,-28.320,0.000,0
157704.434,-23.926,-16.602,-29.785,-29.785,0.000,0
157704.438,-19.531,-17.090,-24.414,-35.645,0.000,0
157704.442,-15.137,-16.602,-19.043,-23.926,0.000,0
157704.446,-12.207,-20.020,-24.902,-14.648,0.000,0
157704.450,-15.625,-24.902,-31.738,-14.160,0.000,0
157704.454,-25.879,-24.414,-28.809,-14.160,0.000,0
157704.458,-25.391,-27.832,-20.020,-26.367,0.000,0
157704.461,-24.414,-32.715,-24.902,-20.020,0.000,0
157704.465,-13.672,-28.809,-27.344,-7.324,0.000,0
157704.469,-5.371,-22.949,-20.020,-7.324,0.000,0
157704.473,-9.766,-28.809,-22.461,-5.371,0.000,0
157704.477,-13.184,-32.227,-23.926,-10.742,0.000,0
157704.481,-20.020,-24.414,-24.902,-26.855,0.000,0
157704.485,-26.367,-24.414,-27.344,-24.902,0.000,0
157704.489,-22.949,-25.879,-22.949,-10.742,0.000,0
157704.493,-20.996,-25.879,-24.902,-18.066,0.000,0
157704.497,-19.531,-25.391,-21.484,-23.438,0.000,0
157704.500,-18.555,-23.438,-20.996,-19.531,0.000,0
157704.504,-22.949,-26.367,-24.414,-29.297,0.000,0
157704.508,-13.672,-33.203,-22.461,-31.738,0.000,0
157704.512,-13.184,-28.320,-20.020,-26.855,0.000,0
157704.516,-29.785,-23.926,-19.043,-32.715,0.000,0
157704.520,-22.461,-19.531,-17.578,-33.691,0.000,0
157704.524,-12.695,-19.531,-15.137,-36.133,0.000,0
157704.528,-26.367,-18.066,-20.020,-26.855,0.000,0
157704.532,-26.855,-14.160,-20.508,-20.020,0.000,0
157704.536,-20.508,-24.902,-23.926,-29.785,0.000,0
157704.540,-18.555,-33.691,-25.391,-30.762,0.000,0
157704.543,-15.137,-26.367,-24.902,-25.879,0.000,0
157704.547,-24.414,-21.484,-30.273,-30.762,0.000,0
157704.551,-24.414,-27.344,-30.762,-22.949,0.000,0
157704.555,-18.555,-29.785,-23.926,-19.531,0.000,1
157704.559,-23.438,-25.879,-18.555,-22.461,0.000,0
157704.563,-24.414,-25.391,-20.020,-15.625,0.000,0
157704.567,-23.926,-24.414,-21.484,-20.996,0.000,0
157704.571,-21.973,-24.414,-15.625,-21.484,0.000,0
157704.575,-20.020,-23.438,-12.207,-15.137,0.000,0
157704.579,-17.578,-22.461,-22.461,-20.508,0.000,0
157704.583,-16.602,-23.926,-32.227,-33.691,0.000,0
157704.586,-12.207,-22.949,-29.297,-32.715,0.000,0
157704.590,-12.207,-20.996,-20.996,-13.184,0.000,0
157704.594,-7.812,-20.996,-17.578,-13.672,0.000,0
157704.598,-7.324,-26.367,-20.020,-24.414,0.000,0
157704.602,-22.461,-32.227,-23.926,-24.902,0.000,0
157704.606,-22.461,-28.320,-20.020,-19.043,0.000,0
157704.610,-15.625,-21.973,-20.020,-12.207,0.000,0
157704.614,-14.160,-20.020,-19.043,-15.625,0.000,0
157704.618,-20.996,-22.461,-23.926,-30.273,0.000,0
157704.622,-25.391,-20.508,-23.926,-30.762,0.000,0
157704.625,-22.949,-20.020,-18.555,-22.461,0.000,0
157704.629,-23.438,-28.809,-27.832,-19.043,0.000,0
157704.633,-21.484,-27.344,-23.438,-16.113,0.000,0
157704.637,-28.809,-20.996,-12.207,-18.066,0.000,0
157704.641,-25.879,-20.508,-21.484,-9.766,0.000,0
157704.645,-15.137,-20.996,-23.926,-4.883,0.000,0
157704.649,-23.926,-18.555,-24.414,-13.672,0.000,0
157704.653,-27.344,-16.602,-20.996,-17.578,0.000,0
157704.657,-20.508,-21.973,-19.043,-27.344,0.000,0
157704.661,-25.391,-28.320,-32.227,-29.785,0.000,0
157704.665,-34.180,-32.715,-34.180,-17.090,0.000,0
157704.668,-36.621,-26.367,-30.762,-20.508,0.000,0
157704.672,-33.691,-25.879,-30.273,-30.273,0.000,0
157704.676,-29.785,-30.273,-25.879,-34.668,0.000,0
157704.680,-25.879,-29.785,-26.855,-31.738,0.000,0
157704.684,-25.391,-33.203,-30.273,-30.762,0.000,0
157704.688,-20.508,-34.180,-35.645,-24.414,0.000,0
157704.692,-7.812,-31.738,-31.738,-9.766,0.000,0
157704.696,-13.672,-26.855,-21.484,-21.973,0.000,0
157704.700,-23.438,-20.020,-23.926,-38.086,0.000,0
157704.704,-15.137,-23.926,-30.273,-29.297,0.000,0
157704.708,-18.066,-28.320,-29.785,-26.855,0.000,0
157704.711,-28.320,-31.738,-35.645,-31.250,0.000,0
157704.715,-27.832,-34.180,-42.480,-35.645,0.000,0
157704.719,-24.902,-37.598,-41.992,-38.086,0.000,0
157704.723,-27.344,-37.109,-36.133,-35.156,0.000,0
157704.727,-45.898,-29.297,-30.273,-26.855,0.000,0
157704.731,-45.410,-27.832,-28.809,-21.973,0.000,0
157704.735,-37.598,-25.391,-31.250,-39.551,0.000,0
157704.739,-38.086,-20.996,-30.762,-31.250,0.000,0
157704.743,-34.180,-22.949,-24.902,-13.184,0.000,0
157704.747,-35.156,-24.902,-23.438,-24.414,0.000,0
157704.750,-30.762,-27.344,-30.762,-28.809,0.000,0
157704.754,-24.414,-27.832,-25.391,-25.391,0.000,0
157704.758,-25.879,-23.438,-21.484,-23.438,0.000,0
157704.762,-28.809,-23.926,-32.227,-21.484,0.000,0
157704.766,-29.785,-26.855,-41.504,-17.578,0.000,0
157704.770,-38.086,-29.785,-34.180,-22.949,0.000,0
157704.774,-40.527,-31.250,-26.367,-31.738,0.000,0
157704.778,-26.855,-27.832,-36.133,-26.855,0.000,0
157704.782,-33.203,-27.832,-39.551,-22.461,0.000,0
157704.786,-39.062,-28.320,-35.645,-16.113,0.000,0
157704.790,-30.273,-26.367,-31.738,-11.719,0.000,0
157704.793,-27.344,-28.809,-24.902,-21.973,0.000,0
157704.797,-30.762,-25.879,-23.438,-26.855,0.000,0
157704.801,-29.785,-26.367,-24.902,-23.926,0.000,0
157704.805,-25.391,-23.926,-27.832,-24.414,0.000,0
157704.809,-30.273,-24.414,-31.250,-30.762,0.000,0
157704.813,-33.691,-26.855,-28.320,-31.738,0.000,0
157704.817,-33.203,-25.391,-27.832,-13.184,0.000,0
157704.821,-30.762,-28.809,-32.227,-20.020,0.000,0
157704.825,-29.297,-30.762,-33.203,-31.250,0.000,0
157704.829,-35.156,-28.320,-25.391,-22.461,0.000,0
157704.833,-38.086,-32.715,-24.414,-28.320,0.000,0
157704.836,-33.203,-36.621,-32.715,-38.086,0.000,0
157704.840,-28.320,-31.250,-34.180,-31.738,0.000,0
157704.844,-23.438,-28.320,-28.320,-21.484,0.000,0
157704.848,-25.879,-28.809,-25.391,-22.461,0.000,0
157704.852,-31.738,-27.344,-21.973,-31.250,0.000,0
157704.856,-34.180,-22.949,-20.020,-36.133,0.000,0
157704.860,-38.086,-22.949,-22.949,-35.645,0.000,0
157704.864,-38.574,-20.508,-20.508,-35.156,0.000,0
157704.868,-31.250,-20.020,-26.367,-26.855,0.000,0
157704.872,-26.367,-25.391,-28.320,-18.555,0.000,0
157704.875,-32.715,-26.367,-25.391,-29.785,0.000,0
157704.879,-24.414,-28.320,-29.297,-39.551,0.000,0
157704.883,-20.996,-25.391,-34.180,-23.926,0.000,0
157704.887,-36.133,-27.344,-31.250,-24.902,0.000,0
157704.891,-39.551,-32.227,-25.391,-24.902,0.000,0
157704.895,-26.855,-26.855,-24.902,-23.926,0.000,0
157704.899,-22.949,-21.973,-24.902,-31.250,0.000,0
157704.903,-30.762,-19.043,-21.484,-28.320,0.000,0
157704.907,-38.086,-19.531,-21.484,-17.090,0.000,0
157704.911,-25.879,-25.879,-26.367,-18.555,0.000,0
157704.915,-20.996,-27.344,-29.297,-31.738,0.000,0
157704.918,-26.367,-28.809,-26.855,-33.203,0.000,0
157704.922,-26.855,-26.367,-29.297,-33.691,0.000,0
157704.926,-29.297,-29.297,-29.785,-34.180,0.000,0
157704.930,-30.762,-32.227,-24.902,-37.598,0.000,0
157704.934,-30.273,-30.273,-26.367,-42.480,0.000,0
157704.938,-35.645,-28.320,-31.250,-30.762,0.000,0
157704.942,-33.203,-28.320,-27.344,-30.273,0.000,0
157704.946,-27.344,-32.227,-26.855,-27.344,0.000,0
157704.950,-28.809,-29.297,-23.438,-20.996,0.000,0
157704.954,-26.367,-19.531,-12.695,-21.973,0.000,0
157704.958,-20.996,-17.578,-19.043,-14.160,0.000,0
157704.961,-20.996,-23.438,-28.320,-16.602,0.000,0
157704.965,-22.461,-23.438,-30.762,-17.578,0.000,0
157704.969,-26.367,-22.461,-29.785,-21.484,0.000,0
157704.973,-28.320,-25.879,-29.785,-34.180,0.000,0
157704.977,-29.297,-23.926,-27.344,-32.715,0.000,0
157704.981,-35.156,-22.949,-27.832,-29.785,0.000,0
157704.985,-30.273,-25.391,-29.297,-22.949,0.000,0
157704.989,-28.809,-32.227,-24.902,-22.461,0.000,0
157704.993,-29.785,-22.949,-18.555,-29.785,0.000,0
157704.997,-24.414,-20.508,-21.973,-26.855,0.000,0
157705.000,-24.902,-27.344,-24.902,-25.879,0.000,0
157705.004,-25.391,-23.438,-27.344,-22.461,0.000,0
157705.008,-27.344,-22.461,-26.367,-29.785,0.000,0
157705.012,-30.762,-23.438,-21.484,-35.645,0.000,0
157705.016,-23.438,-21.973,-24.414,-30.273,0.000,0
157705.020,-16.602,-21.484,-25.391,-19.531,0.000,0
157705.024,-21.973,-20.508,-26.367,-13.184,0.000,0
157705.028,-22.461,-20.508,-24.414,-20.996,0.000,0
157705.032,-13.672,-20.996,-19.531,-36.621,0.000,0
157705.036,-20.020,-17.090,-23.438,-36.133,0.000,0
157705.040,-23.438,-20.996,-30.273,-18.555,0.000,0
157705.043,-20.508,-23.926,-30.273,-10.742,0.000,0
157705.047,-12.207,-21.973,-25.879,-11.230,0.000,0
157705.051,-6.836,-17.578,-24.414,-10.742,0.000,0
157705.055,-10.742,-14.160,-28.320,-6.348,0.000,0
157705.059,-13.672,-22.461,-31.250,-6.348,0.000,0
157705.063,-19.043,-29.785,-35.645,-5.371,0.000,0
157705.067,-26.855,-27.832,-28.809,-2.441,0.000,0
157705.071,-29.297,-26.367,-20.020,-20.020,0.000,0
157705.075,-23.926,-28.320,-27.344,-31.738,0.000,0
157705.079,-22.461,-22.461,-28.320,-20.996,0.000,0
157705.083,-27.344,-22.949,-30.273,-13.184,0.000,0
157705.086,-32.227,-22.949,-31.250,-15.137,0.000,0
157705.090,-28.809,-19.043,-25.391,-23.438,0.000,0
157705.094,-24.902,-21.973,-29.785,-30.762,0.000,0
157705.098,-21.484,-31.250,-34.668,-25.879,0.000,0
157705.102,-30.273,-30.762,-35.156,-28.809,0.000,0
157705.106,-32.227,-23.438,-31.738,-31.738,0.000,0
157705.110,-26.367,-26.855,-22.949,-30.762,0.000,0
157705.114,-30.273,-33.203,-34.180,-32.227,0.000,0
157705.118,-27.832,-36.133,-40.039,-35.156,0.000,0
157705.122,-27.344,-33.691,-37.598,-32.227,0.000,0
157705.125,-24.902,-23.926,-30.273,-21.973,0.000,0
157705.129,-28.320,-26.855,-24.414,-28.320,0.000,0
157705.133,-26.367,-27.832,-27.344,-24.902,0.000,0
157705.137,-23.438,-19.043,-29.297,-20.996,0.000,0
157705.141,-30.273,-20.508,-31.250,-29.785,0.000,0
157705.145,-26.367,-21.484,-30.273,-18.066,0.000,0
157705.149,-25.391,-27.344,-29.297,-29.297,0.000,0
157705.153,-18.066,-23.926,-29.785,-41.016,0.000,0
157705.157,-11.719,-19.043,-22.949,-28.320,0.000,0
157705.161,-18.555,-20.508,-22.949,-27.832,0.000,0
157705.165,-11.719,-21.973,-24.902,-20.508,0.000,0
157705.168,-8.789,-20.020,-17.578,-18.066,0.000,0
157705.172,-21.484,-19.043,-16.113,-22.461,0.000,0
157705.176,-20.996,-21.484,-26.367,-19.531,0.000,0
157705.180,-26.367,-26.855,-35.156,-21.484,0.000,0
157705.184,-31.738,-30.762,-36.621,-26.855,0.000,0
157705.188,-29.297,-30.273,-30.762,-36.621,0.000,0
157705.192,-37.109,-30.762,-22.949,-43.457,0.000,0
157705.196,-25.879,-31.250,-26.855,-35.156,0.000,0
157705.200,-10.742,-27.344,-32.715,-25.391,0.000,0
157705.204,-20.996,-27.344,-30.762,-31.250,0.000,0
157705.208,-21.973,-32.227,-25.879,-31.738,0.000,0
157705.211,-16.113,-30.762,-30.273,-29.297,0.000,0
157705.215,-21.973,-33.203,-34.668,-35.645,0.000,0
157705.219,-33.203,-35.156,-32.227,-40.039,0.000,0
157705.223,-25.879,-32.715,-34.668,-21.484,0.000,0
157705.227,-18.555,-30.273,-31.738,-16.602,0.000,0
157705.231,-26.855,-27.344,-30.762,-35.645,0.000,0
157705.235,-31.738,-25.391,-30.273,-30.273,0.000,0
157705.239,-23.438,-22.949,-25.879,-17.578,0.000,0
157705.243,-13.184,-23.926,-25.391,-18.066,0.000,0
157705.247,-6.836,-24.414,-24.414,-10.254,0.000,0
157705.250,0.977,-27.344,-26.855,-7.812,0.000,0
157705.254,-22.461,-30.273,-28.320,-36.133,0.000,0
157705.258,-41.016,-25.391,-23.926,-43.945,0.000,0
157705.262,-26.855,-30.273,-27.832,-16.113,0.000,1
157705.266,-30.762,-36.133,-30.762,-18.555,0.000,0
157705.270,-32.227,-32.715,-28.320,-41.504,0.000,0
157705.274,-27.344,-26.855,-30.273,-37.109,0.000,0
157705.278,-22.949,-23.438,-24.902,-28.809,0.000,0
157705.282,-20.996,-26.855,-18.066,-30.762,0.000,0
157705.286,-19.043,-30.273,-27.344,-35.156,0.000,0
157705.290,-11.230,-25.879,-23.926,-34.180,0.000,0
157705.293,-20.020,-28.809,-24.902,-34.180,0.000,0
157705.297,-21.484,-36.621,-39.551,-34.668,0.000,0
157705.301,-11.719,-35.645,-35.156,-25.879,0.000,0
157705.305,-17.578,-37.598,-29.297,-26.855,0.000,0
157705.309,-20.508,-40.527,-24.902,-29.297,0.000,0
157705.313,-17.578,-31.250,-20.996,-16.602,0.000,0
157705.317,-21.973,-30.273,-31.250,-14.648,0.000,0
157705.321,-26.855,-35.645,-33.203,-20.508,0.000,0
157705.325,-25.391,-34.180,-20.020,-22.949,0.000,0
157705.329,-23.438,-30.273,-20.020,-27.832,0.000,0
157705.333,-23.438,-31.738,-28.809,-27.832,0.000,0
157705.336,-21.973,-24.414,-26.367,-18.555,0.000,0
157705.340,-26.855,-16.602,-20.996,-2.930,0.000,0
157705.344,-30.273,-22.949,-26.855,-22.461,0.000,0
157705.348,-34.180,-24.902,-26.855,-40.527,0.000,0
157705.352,-38.086,-22.949,-28.320,-36.621,0.000,0
157705.356,-35.156,-26.855,-30.273,-40.039,0.000,0
157705.360,-25.391,-30.273,-25.879,-23.438,0.000,0
157705.364,-22.949,-27.344,-26.367,-17.578,0.000,0
157705.368,-24.902,-27.344,-24.902,-28.320,0.000,0
157705.372,-22.461,-25.391,-25.391,-19.043,0.000,0
157705.375,-17.578,-24.414,-31.250,-18.066,0.000,0
157705.379,-18.555,-21.973,-29.785,-21.484,0.000,0
157705.383,-33.691,-21.484,-27.832,-20.996,0.000,0
157705.387,-36.621,-25.391,-19.043,-28.320,0.000,0
157705.391,-26.855,-28.809,-26.855,-25.879,0.000,0
157705.395,-24.902,-23.926,-29.297,-22.461,0.000,0
157705.399,-24.414,-19.531,-21.973,-17.090,0.000,0
157705.403,-23.438,-23.438,-25.391,-16.113,0.000,0
157705.407,-30.762,-29.297,-23.926,-35.645,0.000,0
157705.411,-34.668,-30.273,-27.832,-32.227,0.000,0
157705.415,-23.926,-29.785,-31.250,-11.230,0.000,0
157705.418,-31.738,-27.832,-29.297,-12.695,0.000,0
157705.422,-36.133,-21.484,-23.926,-20.508,0.000,0
157705.426,-24.414,-24.414,-17.578,-23.438,0.000,0
157705.430,-22.461,-26.367,-20.020,-18.555,0.000,0
157705.434,-23.926,-26.855,-22.461,-19.531,0.000,0
157705.438,-20.020,-30.762,-27.832,-16.602,0.000,0
157705.442,-19.043,-28.320,-28.320,-10.254,0.000,0
157705.446,-31.738,-26.367,-18.066,-24.902,0.000,0
157705.450,-36.133,-26.855,-21.484,-27.344,0.000,0
157705.454,-28.320,-28.809,-35.645,-19.531,0.000,0
157705.458,-25.879,-35.156,-34.180,-21.484,0.000,0
157705.461,-27.832,-38.574,-28.320,-13.184,0.000,0
157705.465,-27.832,-34.668,-32.715,-21.973,0.000,0
157705.469,-34.668,-30.762,-37.598,-40.527,0.000,0
157705.473,-40.527,-33.691,-34.668,-41.504,0.000,0
157705.477,-36.621,-35.645,-30.762,-31.250,0.000,0
157705.481,-29.785,-30.762,-34.180,-28.809,0.000,0
157705.485,-31.738,-37.598,-39.062,-37.598,0.000,0
157705.489,-34.180,-41.992,-37.109,-42.480,0.000,0
157705.493,-26.855,-31.738,-31.250,-36.133,0.000,0
157705.497,-21.484,-33.691,-29.297,-36.133,0.000,0
157705.500,-30.762,-34.180,-29.785,-37.109,0.000,0
157705.504,-36.133,-30.762,-22.949,-41.016,0.000,0
157705.508,-30.762,-29.785,-21.484,-38.574,0.000,0
157705.512,-28.809,-29.785,-28.809,-23.926,0.000,0
157705.516,-23.438,-29.785,-33.691,-21.484,0.000,0
157705.520,-23.926,-26.855,-31.250,-25.879,0.000,0
157705.524,-32.715,-28.320,-20.508,-33.691,0.000,0
157705.528,-28.809,-23.926,-27.344,-39.062,0.000,0
157705.532,-20.508,-20.996,-34.180,-28.809,0.000,0
157705.536,-30.273,-22.949,-25.391,-27.344,0.000,0
157705.540,-28.809,-20.996,-23.926,-19.043,0.000,0
157705.543,-23.926,-27.344,-34.668,-14.648,0.000,0
157705.547,-34.180,-26.855,-29.297,-29.297,0.000,0
157705.551,-39.062,-30.762,-24.414,-34.180,0.000,0
157705.555,-29.785,-29.785,-33.203,-20.020,0.000,0
157705.559,-30.273,-21.973,-32.227,-11.230,0.000,0
157705.563,-33.203,-26.367,-22.461,-15.625,0.000,0
157705.567,-32.227,-27.832,-18.066,-24.902,0.000,0
157705.571,-27.344,-23.926,-23.926,-30.762,0.000,0
157705.575,-20.996,-26.855,-27.344,-35.156,0.000,0
157705.579,-21.973,-30.762,-30.273,-25.391,0.000,0
157705.583,-22.949,-31.738,-30.762,-26.855,0.000,0
157705.586,-22.461,-30.762,-25.391,-31.738,0.000,0
157705.590,-19.043,-27.344,-21.484,-13.184,0.000,0
157705.594,-17.090,-27.344,-26.367,-7.812,0.000,0
157705.598,-17.578,-24.902,-29.785,-14.648,0.000,0
157705.602,-17.090,-25.879,-28.809,-13.184,0.000,0
157705.606,-20.996,-26.855,-34.668,-22.461,0.000,0
157705.610,-26.367,-28.320,-41.016,-26.367,0.000,0
157705.614,-29.785,-33.691,-38.086,-26.367,0.000,0
157705.618,-36.621,-26.855,-39.062,-27.344,0.000,0
157705.622,-38.086,-26.367,-35.645,-29.297,0.000,0
157705.625,-35.156,-28.320,-27.344,-27.832,0.000,0
157705.629,-31.250,-26.367,-29.785,-18.555,0.000,0
157705.633,-27.832,-29.785,-34.668,-18.066,0.000,0
157705.637,-24.414,-28.809,-32.715,-17.578,0.000,0
157705.641,-20.508,-24.414,-22.461,-18.066,0.000,0
157705.645,-24.414,-21.973,-22.461,-27.344,0.000,0
157705.649,-23.926,-25.391,-33.691,-21.973,0.000,0
157705.653,-18.555,-25.391,-29.785,-8.301,0.000,0
157705.657,-17.578,-25.879,-25.879,-8.301,0.000,0
157705.661,-12.695,-24.414,-26.367,-16.113,0.000,0
157705.665,-11.719,-21.484,-24.414,-6.836,0.000,0
157705.668,-19.043,-21.484,-26.855,-12.207,0.000,0
157705.672,-18.066,-17.578,-24.902,-28.809,0.000,0
157705.676,-11.230,-20.996,-24.414,-23.438,0.000,0
157705.680,-11.719,-23.438,-22.949,-29.297,0.000,0
157705.684,-14.648,-20.508,-22.949,-36.133,0.000,0
157705.688,-12.695,-21.484,-25.391,-20.996,0.000,0
157705.692,-15.137,-22.461,-24.414,-16.602,0.000,0
157705.696,-22.461,-20.996,-29.297,-20.996,0.000,0
157705.700,-17.578,-19.531,-25.391,-19.043,0.000,0
157705.704,-20.508,-20.020,-20.508,-27.344,0.000,0
157705.708,-24.414,-25.879,-27.832,-26.367,0.000,0
157705.711,-24.902,-30.762,-29.297,-26.855,0.000,0
157705.715,-25.879,-24.414,-26.367,-16.602,0.000,0
157705.719,-14.648,-26.855,-23.926,-15.137,0.000,0
157705.723,-19.531,-29.785,-22.949,-34.180,0.000,0
157705.727,-26.367,-21.973,-22.461,-30.762,0.000,0
157705.731,-23.438,-20.508,-20.508,-20.020,0.000,0
157705.735,-23.438,-23.926,-26.367,-20.020,0.000,0
157705.739,-23.438,-31.250,-26.855,-27.344,0.000,0
157705.743,-27.344,-26.855,-22.461,-35.645,0.000,0
157705.747,-24.902,-17.090,-25.879,-30.273,0.000,0
157705.750,-20.020,-16.602,-29.297,-24.902,0.000,0
157705.754,-23.926,-20.508,-26.855,-30.762,0.000,0
157705.758,-23.438,-20.996,-11.230,-29.785,0.000,0
157705.762,-23.926,-17.578,-10.254,-20.996,0.000,0
157705.766,-23.926,-24.902,-32.715,-13.672,0.000,0
157705.770,-29.297,-29.785,-33.203,-17.578,0.000,0
157705.774,-30.273,-27.344,-29.297,-25.879,0.000,0
157705.778,-30.762,-25.391,-30.273,-30.762,0.000,0
157705.782,-31.250,-25.391,-31.738,-34.180,0.000,0
157705.786,-25.879,-24.414,-30.273,-26.367,0.000,0
157705.790,-26.367,-25.391,-24.902,-20.996,0.000,0
157705.793,-32.227,-30.273,-30.762,-16.602,0.000,0
157705.797,-33.691,-28.809,-36.133,-23.438,0.000,0
157705.801,-26.855,-24.414,-30.273,-30.273,0.000,0
157705.805,-28.809,-24.414,-27.344,-16.602,0.000,0
157705.809,-32.715,-18.555,-26.367,-14.160,0.000,0
157705.813,-28.809,-17.090,-27.344,-14.160,0.000,0
157705.817,-33.203,-22.949,-23.438,-22.461,0.000,0
157705.821,-32.715,-19.043,-23.438,-22.949,0.000,1
157705.825,-29.785,-20.020,-31.738,-26.855,0.000,0
157705.829,-27.344,-24.414,-31.738,-35.156,0.000,0
157705.833,-28.809,-22.461,-29.785,-29.297,0.000,0
157705.836,-25.391,-23.438,-26.855,-24.902,0.000,0
157705.840,-19.531,-20.996,-21.484,-22.461,0.000,0
157705.844,-13.672,-28.809,-26.367,-21.484,0.000,0
157705.848,-15.625,-25.879,-23.926,-18.555,0.000,0
157705.852,-28.809,-9.766,-20.508,-12.695,0.000,0
157705.856,-28.809,-17.090,-28.320,-14.160,0.000,0
157705.860,-31.250,-28.320,-28.320,-21.973,0.000,0
157705.864,-31.250,-32.227,-30.762,-18.555,0.000,0
157705.868,-29.297,-30.273,-32.227,-19.531,0.000,0
157705.872,-25.879,-27.344,-29.785,-18.555,0.000,0
157705.875,-23.926,-29.785,-20.508,-25.391,0.000,0
157705.879,-22.461,-27.344,-18.066,-30.273,0.000,0
157705.883,-18.555,-24.414,-27.344,-11.719,0.000,0
157705.887,-24.414,-21.973,-30.762,-9.277,0.000,0
157705.891,-28.809,-22.461,-27.832,-6.836,0.000,0
157705.895,-18.555,-31.250,-24.902,-8.789,0.000,0
157705.899,-19.531,-28.809,-35.645,-28.809,0.000,0
157705.903,-22.461,-27.344,-36.621,-27.344,0.000,0
157705.907,-17.090,-31.250,-27.832,-18.555,0.000,0
157705.911,-9.277,-28.320,-28.809,-19.043,0.000,0
157705.915,-13.184,-26.367,-29.297,-23.438,0.000,0
157705.918,-20.508,-26.367,-27.344,-29.785,0.000,0
157705.922,-24.902,-25.879,-30.762,-24.414,0.000,0
157705.926,-24.902,-24.414,-33.691,-20.020,0.000,0
157705.930,-25.391,-22.949,-31.250,-21.973,0.000,0
157705.934,-22.949,-25.391,-26.855,-24.902,0.000,0
157705.938,-28.809,-27.344,-28.809,-32.715,0.000,0
157705.942,-35.156,-30.273,-35.645,-30.273,0.000,0
157705.946,-25.879,-31.738,-30.273,-21.973,0.000,0
157705.950,-23.926,-24.902,-28.809,-21.484,0.000,0
157705.954,-21.484,-24.902,-28.809,-27.832,0.000,0
157705.958,-17.578,-27.344,-21.973,-32.715,0.000,0
157705.961,-22.461,-28.320,-27.344,-32.227,0.000,0
157705.965,-22.461,-30.273,-37.109,-27.344,0.000,0
157705.969,-18.066,-28.320,-35.156,-15.625,0.000,0
157705.973,-16.602,-21.484,-27.832,-21.484,0.000,0
157705.977,-20.996,-24.902,-27.344,-34.180,0.000,0
157705.981,-27.344,-24.414,-29.297,-26.855,0.000,0
157705.985,-21.484,-16.113,-20.508,-19.531,0.000,0
157705.989,-12.207,-16.113,-17.578,-20.508,0.000,0
157705.993,-14.648,-18.555,-17.090,-26.855,0.000,0
157705.997,-18.066,-22.461,-15.625,-32.715,0.000,0
157706.000,-17.090,-26.855,-24.414,-31.250,0.000,0
157706.004,-12.207,-20.020,-25.391,-24.902,0.000,0
157706.008,-10.254,-18.555,-21.973,-20.020,0.000,0
157706.012,-17.578,-20.020,-19.531,-21.973,0.000,0
157706.016,-20.508,-18.555,-19.043,-23.926,0.000,0
157706.020,-20.508,-19.531,-25.391,-31.250,0.000,0
157706.024,-24.902,-23.926,-27.832,-39.062,0.000,0
157706.028,-34.180,-23.926,-28.809,-34.668,0.000,0
157706.032,-29.785,-20.996,-34.180,-27.832,0.000,0
157706.036,-23.438,-24.414,-33.691,-31.738,0.000,0
157706.040,-21.973,-25.391,-23.438,-24.414,0.000,0
157706.043,-21.973,-22.949,-11.719,-10.742,0.000,0
157706.047,-21.973,-22.949,-20.508,-22.949,0.000,0
157706.051,-23.926,-24.414,-22.461,-30.273,0.000,0
157706.055,-29.785,-23.438,-19.043,-33.203,0.000,0
157706.059,-30.762,-16.602,-25.879,-34.668,0.000,0
157706.063,-30.273,-17.578,-28.809,-31.250,0.000,0
157706.067,-28.320,-22.949,-38.086,-24.902,0.000,0
157706.071,-20.996,-18.555,-30.273,-18.066,0.000,0
157706.075,-20.508,-15.625,-18.555,-27.344,0.000,0
157706.079,-21.484,-20.996,-27.832,-27.832,0.000,0
157706.083,-18.555,-21.973,-25.879,-20.508,0.000,0
157706.086,-21.973,-15.137,-14.648,-14.160,0.000,0
157706.090,-20.020,-20.996,-14.160,-15.625,0.000,0
157706.094,-18.066,-23.438,-17.090,-22.949,0.000,0
157706.098,-22.461,-19.531,-15.625,-25.391,0.000,0
157706.102,-9.766,-23.438,-19.043,-24.414,0.000,0
157706.106,-6.836,-26.367,-23.926,-7.324,0.000,0
157706.110,-17.578,-24.414,-16.602,-13.672,0.000,0
157706.114,-19.043,-20.020,-13.184,-23.926,0.000,0
157706.118,-18.555,-24.902,-25.391,-14.648,0.000,0
157706.122,-20.508,-29.785,-27.344,-22.461,0.000,0
157706.125,-20.996,-23.926,-26.855,-25.391,0.000,0
157706.129,-25.391,-20.996,-27.832,-21.973,0.000,0
157706.133,-29.785,-25.879,-22.949,-26.367,0.000,0
157706.137,-22.461,-26.367,-21.484,-21.973,0.000,0
157706.141,-22.949,-18.555,-20.996,-21.484,0.000,0
157706.145,-25.391,-20.508,-20.996,-11.719,0.000,0
157706.149,-23.438,-22.949,-20.508,-15.625,0.000,0
157706.153,-20.020,-24.902,-24.414,-27.344,0.000,0
157706.157,-16.602,-27.344,-28.809,-19.043,0.000,0
157706.161,-22.461,-24.902,-27.832,-27.344,0.000,0
157706.165,-29.785,-27.344,-28.809,-26.367,0.000,0
157706.168,-19.531,-26.855,-28.320,-19.531,0.000,0
157706.172,-24.414,-20.996,-24.414,-22.949,0.000,0
157706.176,-34.668,-22.949,-27.344,-21.484,0.000,0
157706.180,-30.762,-23.926,-29.297,-22.949,0.000,0
157706.184,-34.180,-24.414,-22.461,-21.973,0.000,0
157706.188,-35.645,-27.344,-17.578,-24.902,0.000,0
157706.192,-30.273,-36.133,-25.391,-24.902,0.000,0
157706.196,-32.227,-33.691,-30.762,-27.344,0.000,0
157706.200,-33.203,-29.297,-23.926,-32.227,0.000,0
157706.204,-37.109,-27.832,-24.414,-23.438,0.000,0
157706.208,-33.691,-29.297,-34.180,-24.414,0.000,0
157706.211,-21.484,-25.879,-27.832,-31.738,0.000,0
157706.215,-32.715,-22.949,-21.484,-24.414,0.000,0
157706.219,-40.527,-27.832,-22.949,-12.695,0.000,0
157706.223,-27.832,-24.414,-22.461,-8.301,0.000,0
157706.227,-30.762,-17.578,-21.484,-23.438,0.000,0
157706.231,-38.574,-16.602,-20.508,-30.273,0.000,0
157706.235,-38.086,-22.461,-21.973,-21.484,0.000,0
157706.239,-37.598,-31.250,-22.949,-20.996,0.000,0
157706.243,-38.086,-31.738,-20.020,-8.789,0.000,0
157706.247,-33.691,-28.809,-20.508,-8.301,0.000,0
157706.250,-34.180,-28.809,-26.367,-21.973,0.000,0
157706.254,-36.621,-23.926,-33.203,-22.461,0.000,0
157706.258,-32.715,-21.973,-33.691,-20.508,0.000,0
157706.262,-36.133,-26.367,-30.273,-24.902,0.000,0
157706.266,-38.086,-26.855,-28.320,-19.043,0.000,0
157706.270,-28.809,-29.297,-28.320,-20.996,0.000,0
157706.274,-33.691,-31.250,-28.809,-24.902,0.000,0
157706.278,-42.480,-32.715,-28.320,-21.484,0.000,0
157706.282,-36.133,-32.227,-29.785,-20.508,0.000,0
157706.286,-29.785,-31.250,-26.367,-25.879,0.000,0
157706.290,-31.250,-35.156,-28.320,-29.785,0.000,0
157706.293,-24.902,-36.133,-34.668,-20.508,0.000,0
157706.297,-13.672,-32.715,-30.273,-21.973,0.000,0
157706.301,-5.371,-26.367,-23.926,-14.648,0.000,0
157706.305,-0.488,-25.391,-19.531,-9.277,0.000,0
157706.309,-11.230,-19.531,-8.301,-15.625,0.000,0
157706.313,-19.043,-18.066,-12.695,-17.578,0.000,0
157706.317,-11.230,-20.996,-23.438,-11.230,0.000,0
157706.321,-11.719,-19.043,-20.020,-4.883,0.000,0
157706.325,-21.484,-21.484,-12.207,-15.137,0.000,0
157706.329,-19.531,-22.461,-15.625,-23.438,0.000,0
157706.333,-10.742,-25.391,-22.949,-15.625,0.000,0
157706.336,-7.812,-28.809,-20.996,-13.184,0.000,0
157706.340,-13.184,-23.926,-20.996,-20.996,0.000,0
157706.344,-13.672,-23.926,-18.555,-24.902,0.000,0
157706.348,-16.113,-25.391,-20.508,-36.621,0.000,0
157706.352,-28.320,-28.809,-34.668,-34.668,0.000,0
157706.356,-27.344,-29.297,-41.992,-20.020,0.000,0
157706.360,-17.578,-30.273,-40.527,-20.020,0.000,0
157706.364,-14.648,-29.785,-29.785,-24.414,0.000,0
157706.368,-17.090,-24.902,-16.113,-37.598,0.000,0
157706.372,-23.438,-21.973,-19.531,-29.297,0.000,0
157706.375,-23.438,-20.996,-25.879,-23.926,0.000,0
157706.379,-29.785,-21.973,-27.832,-30.762,0.000,0
157706.383,-30.273,-25.879,-28.809,-23.926,0.000,0
157706.387,-24.902,-29.297,-25.391,-34.668,0.000,0
157706.391,-20.508,-28.320,-25.879,-29.297,0.000,0
157706.395,-19.043,-23.438,-27.832,-14.160,0.000,0
157706.399,-22.949,-24.902,-27.344,-21.973,0.000,0
157706.403,-19.531,-21.973,-22.461,-25.879,0.000,0
157706.407,-15.625,-19.043,-24.902,-23.926,0.000,0
157706.411,-22.461,-20.996,-28.320,-26.855,0.000,0
157706.415,-31.738,-19.043,-22.949,-30.273,0.000,0
157706.418,-29.297,-23.438,-31.250,-26.855,0.000,0
157706.422,-20.508,-32.227,-32.227,-20.996,0.000,0
157706.426,-19.043,-29.297,-23.438,-36.621,0.000,0
157706.430,-14.160,-25.879,-27.832,-33.691,0.000,0
157706.434,-10.742,-24.902,-24.902,-12.695,0.000,0
157706.438,-17.578,-25.879,-25.879,-17.578,0.000,0
157706.442,-17.090,-26.855,-31.738,-20.020,0.000,0
157706.446,-16.113,-27.344,-24.902,-29.297,0.000,0
157706.450,-17.578,-31.250,-24.902,-32.227,0.000,0
157706.454,-21.973,-31.250,-33.203,-28.809,0.000,0
157706.458,-24.902,-32.715,-30.273,-30.762,0.000,0
157706.461,-23.926,-30.273,-25.879,-26.855,0.000,0
157706.465,-23.438,-28.809,-26.367,-32.715,0.000,0
157706.469,-22.949,-24.902,-27.344,-31.250,0.000,0
157706.473,-19.531,-24.902,-30.273,-27.344,0.000,0
157706.477,-13.184,-29.785,-30.273,-16.113,0.000,0
157706.481,-0.977,-26.855,-24.414,3.906,0.000,0
157706.485,-0.977,-22.949,-17.578,-1.953,0.000,0
157706.489,-18.066,-17.090,-18.066,-24.902,0.000,0
157706.493,-31.250,-14.648,-20.996,-28.320,0.000,0
157706.497,-20.508,-17.090,-20.508,-12.695,0.000,0
157706.500,-12.207,-16.113,-20.508,-12.207,0.000,0
157706.504,-21.484,-15.137,-14.648,-24.902,0.000,0
157706.508,-17.090,-14.648,-17.578,-16.113,0.000,0
157706.512,-13.672,-22.949,-26.855,-7.324,0.000,0
157706.516,-16.113,-24.414,-25.391,-11.719,0.000,0
157706.520,-13.672,-17.578,-19.531,-7.324,0.000,1
157706.524,-13.184,-16.113,-16.602,-10.742,0.000,0
157706.528,-17.578,-16.602,-16.602,-19.043,0.000,0
157706.532,-18.066,-14.648,-16.113,-14.160,0.000,0
157706.536,-19.531,-17.090,-17.578,-15.625,0.000,0
157706.540,-21.484,-18.555,-20.508,-17.090,0.000,0
157706.543,-24.414,-15.137,-23.438,-11.230,0.000,0
157706.547,-19.043,-16.113,-21.973,-5.371,0.000,0
157706.551,-13.184,-20.020,-22.461,-11.230,0.000,0
157706.555,-16.113,-19.531,-23.438,-22.949,0.000,0
157706.559,-20.996,-20.020,-27.832,-14.160,0.000,0
157706.563,-27.344,-22.461,-26.855,-15.137,0.000,0
157706.567,-24.414,-16.602,-21.484,-20.996,0.000,0
157706.571,-17.090,-15.625,-21.484,-12.207,0.000,0
157706.575,-26.367,-19.531,-23.438,-23.926,0.000,0
157706.579,-31.250,-16.602,-30.762,-20.020,0.000,0
157706.583,-29.297,-21.484,-29.785,-20.996,0.000,0
157706.586,-30.762,-26.367,-29.297,-34.180,0.000,0
157706.590,-24.902,-27.344,-29.297,-21.973,0.000,0
157706.594,-25.391,-31.250,-25.391,-18.066,0.000,0
157706.598,-26.367,-25.879,-28.809,-19.531,0.000,0
157706.602,-15.625,-21.973,-28.809,-12.695,0.000,0
157706.606,-13.672,-21.973,-26.855,-15.137,0.000,0
157706.610,-20.996,-28.809,-35.645,-14.648,0.000,0
157706.614,-20.996,-36.133,-37.109,-14.160,0.000,0
157706.618,-20.996,-30.762,-32.227,-12.695,0.000,0
157706.622,-15.625,-21.484,-21.484,-17.578,0.000,0
157706.625,-14.160,-20.508,-17.578,-27.832,0.000,0
157706.629,-29.785,-24.414,-29.785,-26.855,0.000,0
157706.633,-29.297,-30.762,-30.273,-20.508,0.000,0
157706.637,-28.320,-30.273,-25.879,-13.184,0.000,0
157706.641,-34.668,-26.367,-27.344,-24.414,0.000,0
157706.645,-24.414,-30.273,-26.367,-39.062,0.000,0
157706.649,-14.648,-32.715,-26.855,-19.531,0.000,0
157706.653,-9.766,-25.391,-20.508,-3.418,0.000,0
157706.657,-8.789,-22.461,-20.996,-5.859,0.000,0
157706.661,-9.277,-24.902,-20.020,0.000,0.000,0
157706.665,-12.695,-25.391,-16.602,-4.883,0.000,0
157706.668,-20.996,-23.926,-19.531,-16.602,0.000,0
157706.672,-18.555,-23.926,-23.438,-22.461,0.000,0
157706.676,-25.879,-29.785,-27.832,-25.879,0.000,0
157706.680,-39.062,-23.438,-26.367,-26.367,0.000,0
157706.684,-36.621,-16.113,-18.066,-33.203,0.000,0
157706.688,-30.273,-20.508,-17.578,-33.203,0.000,0
157706.692,-23.926,-21.484,-25.391,-30.273,0.000,0
157706.696,-27.344,-24.414,-28.809,-27.344,0.000,0
157706.700,-20.020,-30.762,-22.461,-4.883,0.000,0
157706.704,-20.020,-30.273,-17.090,-23.438,0.000,0
157706.708,-41.016,-29.785,-30.762,-51.270,0.000,0
157706.711,-37.109,-24.902,-40.039,-41.504,0.000,0
157706.715,-31.738,-29.297,-41.016,-33.203,0.000,0
157706.719,-30.762,-29.785,-38.574,-37.109,0.000,0
157706.723,-29.297,-29.785,-32.227,-51.758,0.000,0
157706.727,-39.062,-37.598,-39.551,-57.617,0.000,0
157706.731,-45.898,-33.203,-43.945,-52.246,0.000,0
157706.735,-36.133,-27.832,-41.016,-40.527,0.000,0
157706.739,-24.414,-32.227,-47.852,-35.645,0.000,0
157706.743,-20.996,-33.203,-37.598,-42.480,0.000,0
157706.747,-27.344,-28.809,-32.227,-36.621,0.000,0
157706.750,-24.414,-26.855,-36.133,-18.555,0.000,0
157706.754,-25.879,-28.320,-31.738,-20.020,0.000,0
157706.758,-37.598,-28.809,-25.879,-22.461,0.000,0
157706.762,-28.809,-34.668,-24.902,-24.902,0.000,0
157706.766,-23.438,-33.203,-33.203,-33.203,0.000,0
157706.770,-27.344,-29.785,-37.598,-32.715,0.000,0
157706.774,-21.484,-27.344,-34.668,-20.020,0.000,0
157706.778,-22.949,-22.949,-32.715,-22.461,0.000,0
157706.782,-19.531,-24.414,-32.715,-30.762,0.000,0
157706.786,-18.555,-29.785,-33.203,-16.113,0.000,0
157706.790,-20.020,-24.902,-29.785,-14.648,0.000,0
157706.793,-13.184,-21.973,-30.762,-15.625,0.000,0
157706.797,-5.859,-26.367,-29.785,-11.719,0.000,0
157706.801,-12.207,-28.320,-30.273,-23.438,0.000,0
157706.805,-17.090,-29.785,-34.180,-20.020,0.000,0
157706.809,-20.996,-32.715,-36.621,-14.648,0.000,0
157706.813,-28.809,-36.621,-34.668,-15.625,0.000,0
157706.817,-28.809,-36.621,-29.297,-20.508,0.000,0
157706.821,-27.832,-27.832,-26.855,-23.438,0.000,0
157706.825,-23.438,-20.508,-25.879,-11.230,0.000,0
157706.829,-26.367,-24.414,-24.902,-15.137,0.000,0
157706.833,-31.250,-29.297,-25.391,-15.625,0.000,0
157706.836,-20.508,-21.973,-23.438,-9.277,0.000,0
157706.840,-16.113,-25.391,-26.855,-31.738,0.000,0
157706.844,-21.484,-30.762,-22.461,-41.016,0.000,0
157706.848,-21.484,-22.949,-16.113,-24.414,0.000,0
157706.852,-19.043,-26.367,-27.832,-19.531,0.000,0
157706.856,-17.090,-26.367,-27.832,-21.973,0.000,0
157706.860,-19.043,-21.973,-25.879,-29.297,0.000,0
157706.864,-18.066,-27.832,-30.762,-26.855,0.000,0
157706.868,-25.391,-32.227,-31.738,-27.344,0.000,0
157706.872,-36.621,-27.344,-31.250,-29.297,0.000,0
157706.875,-36.133,-26.855,-29.785,-20.996,0.000,0
157706.879,-28.320,-32.715,-37.109,-18.066,0.000,0
157706.883,-27.344,-33.691,-43.945,-20.508,0.000,0
157706.887,-21.484,-30.762,-40.039,-19.531,0.000,0
157706.891,-17.578,-27.344,-39.551,-13.184,0.000,0
157706.895,-21.973,-34.668,-36.133,-17.578,0.000,0
157706.899,-19.043,-32.715,-33.691,-26.855,0.000,0
157706.903,-22.461,-28.320,-37.109,-36.621,0.000,0
157706.907,-26.855,-29.297,-34.668,-35.645,0.000,0
157706.911,-25.391,-29.785,-36.133,-29.785,0.000,0
157706.915,-22.949,-32.715,-42.480,-29.785,0.000,0
157706.918,-21.973,-34.668,-33.691,-35.156,0.000,0
157706.922,-25.879,-29.297,-27.832,-27.832,0.000,0
157706.926,-29.297,-25.879,-36.621,-17.578,0.000,0
157706.930,-22.949,-31.250,-31.250,-21.973,0.000,0
157706.934,-22.461,-33.203,-26.367,-18.555,0.000,0
157706.938,-23.926,-33.203,-25.391,-21.973,0.000,0
157706.942,-22.461,-29.297,-28.809,-34.668,0.000,0
157706.946,-22.949,-30.273,-37.598,-31.250,0.000,0
157706.950,-21.484,-30.762,-30.762,-16.602,0.000,0
157706.954,-22.461,-24.902,-24.414,-21.484,0.000,0
157706.958,-20.508,-29.297,-25.391,-34.180,0.000,0
157706.961,-24.902,-31.738,-26.367,-31.738,0.000,0
157706.965,-24.414,-31.738,-29.785,-30.273,0.000,0
157706.969,-22.949,-30.762,-25.391,-29.297,0.000,0
157706.973,-28.320,-32.715,-26.367,-22.949,0.000,0
157706.977,-28.320,-35.645,-27.344,-26.855,0.000,0
157706.981,-26.855,-31.250,-25.391,-30.762,0.000,0
157706.985,-25.879,-26.367,-24.902,-35.156,0.000,0
157706.989,-24.414,-29.297,-24.414,-34.180,0.000,0
157706.993,-22.949,-27.344,-27.344,-23.438,0.000,0
157706.997,-23.926,-21.973,-19.531,-31.738,0.000,0
157707.000,-28.320,-21.973,-21.484,-32.715,0.000,0
157707.004,-30.762,-26.855,-32.227,-29.297,0.000,0
157707.008,-30.273,-23.926,-30.273,-39.062,0.000,0
157707.012,-28.320,-20.996,-26.855,-31.250,0.000,0
157707.016,-30.273,-26.367,-26.855,-34.180,0.000,0
157707.020,-30.762,-30.273,-23.926,-46.387,0.000,0
157707.024,-30.762,-25.391,-25.879,-35.156,0.000,0
157707.028,-35.645,-31.738,-29.297,-30.762,0.000,0
157707.032,-33.203,-33.691,-29.297,-22.461,0.000,0
157707.036,-30.273,-23.926,-16.602,-20.508,0.000,0
157707.040,-34.180,-27.344,-15.625,-29.785,0.000,0
157707.043,-33.203,-28.809,-26.855,-25.391,0.000,0
157707.047,-29.785,-25.879,-26.855,-29.297,0.000,0
157707.051,-35.645,-31.250,-35.156,-24.414,0.000,0
157707.055,-34.180,-30.273,-30.273,-21.973,0.000,0
157707.059,-30.762,-18.555,-20.996,-28.809,0.000,0
157707.063,-22.949,-20.020,-26.367,-14.648,0.000,0
157707.067,-20.508,-23.438,-29.297,-13.184,0.000,0
157707.071,-30.273,-16.113,-21.484,-14.648,0.000,0
157707.075,-23.438,-16.113,-21.484,-27.832,0.000,0
157707.079,-18.066,-20.996,-27.832,-26.855,0.000,0
157707.083,-33.203,-22.949,-23.926,-24.902,0.000,0
157707.086,-41.016,-21.973,-22.949,-26.855,0.000,0
157707.090,-40.039,-27.344,-28.809,-24.414,0.000,0
157707.094,-40.527,-33.203,-28.809,-37.598,0.000,0
157707.098,-36.133,-28.320,-21.973,-30.273,0.000,0
157707.102,-33.691,-27.832,-25.879,-20.020,0.000,0
157707.106,-33.203,-27.344,-34.180,-15.137,0.000,0
157707.110,-21.484,-28.809,-39.062,-22.461,0.000,0
157707.114,-16.602,-28.320,-34.668,-36.621,0.000,0
157707.118,-25.391,-26.367,-36.133,-29.297,0.000,0
157707.122,-26.855,-28.809,-39.551,-28.809,0.000,0
157707.125,-21.484,-23.438,-31.250,-19.531,0.000,0
157707.129,-18.555,-21.973,-25.879,-13.184,0.000,0
157707.133,-11.719,-33.691,-24.414,-18.555,0.000,0
157707.137,-0.977,-33.691,-27.832,-8.789,0.000,0
157707.141,-17.578,-23.926,-29.297,-22.461,0.000,0
157707.145,-43.457,-25.391,-28.809,-45.410,0.000,0
157707.149,-36.133,-29.785,-29.297,-41.504,0.000,0
157707.153,-24.414,-28.809,-30.762,-32.715,0.000,0
157707.157,-34.180,-25.879,-29.785,-42.969,0.000,0
157707.161,-37.598,-30.762,-25.391,-40.527,0.000,0
157707.165,-25.879,-29.785,-29.297,-25.879,0.000,0
157707.168,-16.602,-20.996,-26.367,-18.066,0.000,0
157707.172,-23.926,-22.949,-22.949,-24.414,0.000,0
157707.176,-27.344,-24.902,-29.297,-18.066,0.000,0
157707.180,-24.414,-27.344,-34.180,-18.555,0.000,0
157707.184,-23.926,-27.344,-32.715,-33.691,0.000,0
157707.188,-22.461,-28.320,-26.367,-22.949,0.000,0
157707.192,-20.508,-27.344,-20.996,-20.020,0.000,0
157707.196,-14.648,-23.438,-27.832,-35.645,0.000,0
157707.200,-17.578,-21.973,-28.809,-34.668,0.000,0
157707.204,-19.531,-21.973,-29.297,-23.438,0.000,0
157707.208,-16.602,-22.949,-29.785,-22.949,0.000,0
157707.211,-20.508,-19.043,-22.461,-33.691,0.000,0
157707.215,-25.391,-15.625,-23.926,-33.203,0.000,0
157707.219,-28.320,-16.602,-24.902,-30.273,0.000,0
157707.223,-30.762,-17.578,-26.855,-41.016,0.000,0
157707.227,-20.020,-17.090,-28.809,-27.344,0.000,1
157707.231,-16.602,-22.461,-25.391,-22.461,0.000,0
157707.235,-25.879,-20.996,-28.320,-34.668,0.000,0
157707.239,-26.367,-16.113,-29.297,-28.809,0.000,0
157707.243,-23.438,-21.973,-25.879,-29.785,0.000,0
157707.247,-30.762,-26.855,-33.203,-12.695,0.000,0
157707.250,-39.551,-33.691,-32.715,-20.508,0.000,0
157707.254,-41.016,-34.668,-34.180,-51.270,0.000,0
157707.258,-39.551,-34.180,-37.109,-50.781,0.000,0
157707.262,-32.227,-33.691,-36.133,-31.738,0.000,0
157707.266,-31.250,-28.809,-33.203,-28.320,0.000,0
157707.270,-29.785,-26.855,-28.809,-38.086,0.000,0
157707.274,-27.344,-26.367,-23.438,-28.809,0.000,0
157707.278,-27.832,-23.926,-18.066,-16.113,0.000,0
157707.282,-29.297,-29.785,-25.391,-16.602,0.000,0
157707.286,-33.203,-39.551,-37.598,-22.461,0.000,0
157707.290,-35.645,-36.133,-31.738,-42.969,0.000,0
157707.293,-33.691,-33.203,-26.367,-47.363,0.000,0
157707.297,-27.832,-30.273,-25.879,-32.715,0.000,0
157707.301,-35.645,-31.250,-25.391,-25.391,0.000,0
157707.305,-37.598,-29.785,-32.227,-19.043,0.000,0
157707.309,-29.297,-33.691,-32.715,-25.391,0.000,0
157707.313,-23.926,-36.133,-34.180,-26.367,0.000,0
157707.317,-11.230,-27.344,-28.809,-16.113,0.000,0
157707.321,-10.742,-22.461,-25.879,-15.137,0.000,0
157707.325,-23.926,-25.391,-25.879,-21.484,0.000,0
157707.329,-30.273,-32.715,-18.555,-35.156,0.000,0
157707.333,-26.855,-38.086,-23.438,-39.062,0.000,0
157707.336,-23.438,-34.668,-33.203,-28.320,0.000,0
157707.340,-29.297,-32.715,-41.016,-23.438,0.000,0
157707.344,-34.180,-37.598,-45.898,-33.691,0.000,0
157707.348,-30.273,-38.574,-37.109,-44.434,0.000,0
157707.352,-30.762,-34.180,-28.809,-27.832,0.000,0
157707.356,-31.250,-29.297,-30.273,-22.461,0.000,0
157707.360,-23.438,-32.715,-32.227,-25.391,0.000,0
157707.364,-19.531,-34.180,-33.691,-10.254,0.000,0
157707.368,-30.762,-30.762,-33.691,-25.391,0.000,0
157707.372,-26.855,-28.809,-36.133,-41.016,0.000,0
157707.375,-21.973,-32.715,-39.062,-31.738,0.000,0
157707.379,-36.621,-33.691,-38.086,-30.273,0.000,0
157707.383,-31.250,-26.367,-31.738,-21.973,0.000,0
157707.387,-24.902,-26.367,-27.832,-25.391,0.000,0
157707.391,-32.227,-36.621,-30.273,-51.270,0.000,0
157707.395,-29.785,-35.156,-29.785,-40.527,0.000,0
157707.399,-32.227,-28.809,-30.273,-36.621,0.000,0
157707.403,-29.785,-27.832,-37.109,-41.016,0.000,0
157707.407,-20.996,-31.250,-36.621,-35.156,0.000,0
157707.411,-25.391,-31.738,-29.297,-36.133,0.000,0
157707.415,-18.555,-25.391,-36.133,-19.043,0.000,0
157707.418,-13.184,-28.809,-40.527,-5.859,0.000,0
157707.422,-24.414,-30.273,-39.062,-2.441,0.000,0
157707.426,-27.832,-30.273,-31.738,-13.672,0.000,0
157707.430,-26.855,-28.320,-29.785,-25.391,0.000,0
157707.434,-38.086,-26.367,-33.203,-23.926,0.000,0
157707.438,-42.480,-33.203,-38.574,-32.715,0.000,0
157707.442,-43.457,-33.691,-37.598,-25.879,0.000,0
157707.446,-30.762,-31.738,-27.832,-17.578,0.000,0
157707.450,-16.602,-29.785,-26.367,-32.715,0.000,0
157707.454,-20.996,-20.020,-26.855,-31.250,0.000,0
157707.458,-23.438,-16.602,-24.414,-28.320,0.000,0
157707.461,-19.531,-20.020,-22.949,-30.273,0.000,0
157707.465,-18.066,-20.996,-22.949,-26.367,0.000,0
157707.469,-25.879,-24.902,-23.438,-32.715,0.000,0
157707.473,-27.344,-23.438,-27.832,-38.574,0.000,0
157707.477,-21.484,-21.973,-22.461,-31.250,0.000,0
157707.481,-20.508,-16.602,-19.043,-17.090,0.000,0
157707.485,-20.020,-10.742,-21.484,-20.508,0.000,0
157707.489,-17.090,-9.277,-21.484,-20.996,0.000,0
157707.493,-17.578,-12.695,-17.090,-19.043,0.000,0
157707.497,-13.184,-22.461,-18.555,-23.438,0.000,0
157707.500,-14.160,-19.043,-25.391,-22.461,0.000,0
157707.504,-30.273,-15.625,-21.973,-28.320,0.000,0
157707.508,-26.855,-15.137,-16.113,-28.320,0.000,0
157707.512,-21.973,-13.184,-20.508,-31.250,0.000,0
157707.516,-31.738,-18.066,-25.391,-28.320,0.000,0
157707.520,-27.832,-20.508,-26.367,-20.020,0.000,0
157707.524,-20.020,-20.508,-26.855,-14.648,0.000,0
157707.528,-24.414,-20.020,-20.508,-17.090,0.000,0
157707.532,-22.461,-25.879,-20.020,-20.020,0.000,0
157707.536,-25.879,-24.414,-32.227,-25.879,0.000,0
157707.540,-30.273,-17.090,-36.621,-28.320,0.000,0
157707.543,-26.855,-21.973,-26.367,-20.020,0.000,0
157707.547,-28.809,-22.461,-18.555,-23.926,0.000,0
157707.551,-30.273,-20.508,-20.508,-31.250,0.000,0
157707.555,-29.297,-27.344,-23.926,-24.414,0.000,0
157707.559,-29.297,-27.832,-25.879,-20.508,0.000,0
157707.563,-33.691,-24.902,-28.809,-20.996,0.000,0
157707.567,-28.320,-23.926,-28.320,-24.902,0.000,0
157707.571,-19.043,-25.879,-28.320,-28.320,0.000,0
157707.575,-26.367,-23.926,-29.785,-28.809,0.000,0
157707.579,-29.785,-22.461,-28.809,-23.438,0.000,0
157707.583,-21.484,-29.297,-29.785,-6.836,0.000,0
157707.586,-22.461,-25.391,-28.320,-10.254,0.000,0
157707.590,-31.738,-20.996,-33.203,-26.367,0.000,0
157707.594,-24.414,-26.367,-30.273,-30.762,0.000,0
157707.598,-19.531,-23.438,-26.367,-26.367,0.000,0
157707.602,-18.066,-18.555,-36.133,-21.973,0.000,0
157707.606,-18.555,-24.414,-36.621,-29.785,0.000,0
157707.610,-17.578,-29.297,-36.133,-31.738,0.000,0
157707.614,-17.090,-27.832,-35.645,-28.320,0.000,0
157707.618,-26.855,-29.297,-34.180,-20.996,0.000,0
157707.622,-42.480,-25.391,-36.133,-21.484,0.000,0
157707.625,-40.039,-20.996,-34.180,-23.926,0.000,0
157707.629,-20.996,-18.555,-35.645,-9.766,0.000,0
157707.633,-24.414,-23.926,-37.109,-8.301,0.000,0
157707.637,-31.250,-23.438,-36.621,-20.020,0.000,0
157707.641,-25.879,-24.902,-35.645,-17.090,0.000,0
157707.645,-26.367,-30.273,-33.691,-28.320,0.000,0
157707.649,-27.832,-26.367,-38.086,-37.109,0.000,0
157707.653,-20.996,-20.020,-35.156,-32.715,0.000,0
157707.657,-20.020,-21.484,-34.668,-28.320,0.000,0
157707.661,-23.926,-25.391,-37.598,-15.625,0.000,0
157707.665,-29.785,-30.273,-31.250,-23.438,0.000,0
157707.668,-33.691,-29.785,-32.227,-27.832,0.000,0
157707.672,-27.832,-26.367,-34.668,-22.461,0.000,0
157707.676,-22.461,-35.156,-40.527,-29.297,0.000,0
157707.680,-23.438,-32.227,-36.133,-27.832,0.000,0
157707.684,-27.344,-27.832,-25.879,-32.715,0.000,0
157707.688,-27.344,-26.855,-26.855,-39.062,0.000,0
157707.692,-23.438,-24.414,-29.785,-22.949,0.000,0
157707.696,-27.344,-26.855,-28.809,-22.949,0.000,0
157707.700,-29.785,-26.855,-22.461,-22.461,0.000,0
157707.704,-28.320,-26.855,-25.879,-20.996,0.000,0
157707.708,-33.203,-20.996,-22.949,-35.156,0.000,0
157707.711,-23.438,-17.090,-20.020,-23.926,0.000,0
157707.715,-5.859,-22.949,-27.344,-5.371,0.000,0
157707.719,-2.930,-22.461,-34.668,-3.418,0.000,0
157707.723,-25.879,-21.973,-31.738,-40.527,0.000,0
157707.727,-46.875,-26.367,-26.855,-55.176,0.000,0
157707.731,-31.738,-23.438,-26.855,-21.973,0.000,0
157707.735,-22.461,-21.973,-29.297,-21.484,0.000,0
157707.739,-22.949,-20.020,-26.855,-26.367,0.000,0
157707.743,-23.438,-17.090,-18.555,-23.438,0.000,0
157707.747,-29.297,-22.949,-21.973,-27.344,0.000,0
157707.750,-26.367,-30.762,-33.203,-23.926,0.000,0
157707.754,-24.902,-32.715,-31.250,-32.227,0.000,0
157707.758,-22.461,-32.227,-26.367,-23.926,0.000,0
157707.762,-18.555,-26.855,-22.949,-5.859,0.000,0
157707.766,-22.949,-21.484,-23.438,-18.555,0.000,0
157707.770,-18.066,-23.438,-24.414,-19.531,0.000,0
157707.774,-15.625,-23.926,-20.508,-9.766,0.000,0
157707.778,-19.531,-20.020,-24.414,-16.602,0.000,0
157707.782,-18.555,-19.531,-22.949,-28.809,0.000,0
157707.786,-19.531,-22.461,-22.949,-35.645,0.000,0
157707.790,-15.137,-24.414,-26.367,-35.156,0.000,0
157707.793,-25.391,-31.738,-31.250,-36.621,0.000,0
157707.797,-34.668,-32.227,-36.133,-28.320,0.000,0
157707.801,-30.273,-23.438,-29.297,-29.785,0.000,0
157707.805,-32.715,-21.973,-25.879,-32.715,0.000,0
157707.809,-23.438,-22.461,-31.738,-18.066,0.000,0
157707.813,-8.789,-20.020,-36.621,-8.301,0.000,0
157707.817,-19.531,-19.043,-29.297,-9.766,0.000,0
157707.821,-30.762,-24.414,-23.926,-10.742,0.000,0
157707.825,-23.926,-25.879,-26.855,-20.020,0.000,0
157707.829,-25.879,-24.414,-31.250,-29.785,0.000,0
157707.833,-27.344,-24.902,-33.203,-17.090,0.000,0
157707.836,-21.973,-22.461,-29.297,-9.277,0.000,0
157707.840,-20.020,-27.344,-28.809,-18.066,0.000,0
157707.844,-20.508,-32.227,-30.762,-21.484,0.000,0
157707.848,-17.090,-28.809,-28.809,-17.578,0.000,0
157707.852,-6.348,-23.926,-27.344,-10.742,0.000,0
157707.856,-19.043,-26.367,-27.832,-14.160,0.000,0
157707.860,-32.715,-26.855,-29.297,-23.438,0.000,0
157707.864,-31.250,-26.367,-28.809,-31.738,0.000,0
157707.868,-34.668,-28.809,-31.250,-40.527,0.000,0
157707.872,-33.691,-31.250,-34.668,-39.062,0.000,0
157707.875,-34.180,-36.133,-33.691,-30.273,0.000,0
157707.879,-27.832,-35.645,-29.297,-21.484,0.000,0
157707.883,-26.367,-25.879,-28.809,-26.367,0.000,0
157707.887,-30.273,-24.414,-32.227,-31.738,0.000,0
157707.891,-21.973,-27.344,-25.391,-32.715,0.000,0
157707.895,-24.902,-30.762,-25.879,-28.320,0.000,1
157707.899,-36.133,-33.691,-29.297,-21.973,0.000,0
157707.903,-35.645,-34.668,-26.855,-24.902,0.000,0
157707.907,-34.180,-31.250,-22.949,-39.062,0.000,0
157707.911,-32.227,-24.902,-28.809,-32.227,0.000,0
157707.915,-22.461,-25.391,-36.133,-15.625,0.000,0
157707.918,-25.879,-29.297,-36.621,-21.484,0.000,0
157707.922,-22.949,-27.832,-29.297,-30.273,0.000,0
157707.926,-17.578,-26.855,-22.949,-30.273,0.000,0
157707.930,-18.066,-27.832,-26.367,-24.902,0.000,0
157707.934,-21.973,-21.484,-25.391,-19.531,0.000,0
157707.938,-30.762,-23.926,-28.809,-18.555,0.000,0
157707.942,-30.762,-25.879,-29.297,-28.320,0.000,0
157707.946,-27.344,-19.043,-26.855,-23.438,0.000,0
