timestamps,TP9,AF7,AF8,TP10,Right AUX,Marker0
158102.665,-21.973,-11.719,-11.230,-28.320,0.000,0
158102.668,-30.273,-17.090,-10.254,-31.250,0.000,0
158102.672,-36.133,-15.625,-13.184,-28.809,0.000,0
158102.676,-35.645,-10.742,-9.766,-20.996,0.000,0
158102.680,-29.297,-4.395,3.906,-28.320,0.000,0
158102.684,-27.832,-10.254,0.977,-31.250,0.000,0
158102.688,-33.691,-19.531,-17.578,-34.180,0.000,0
158102.692,-31.250,-18.066,-20.508,-41.016,0.000,0
158102.696,-25.879,-14.160,-14.648,-36.133,0.000,0
158102.700,-25.879,-12.695,-14.160,-26.367,0.000,0
158102.704,-21.973,-15.137,-15.625,-27.832,0.000,0
158102.707,-21.484,-15.625,-17.578,-33.691,0.000,0
158102.711,-22.949,-18.555,-19.531,-12.207,0.000,0
158102.715,-33.203,-16.113,-19.043,-16.113,0.000,0
158102.719,-33.203,-17.578,-22.949,-32.715,0.000,0
158102.723,-18.555,-15.625,-20.020,-21.973,0.000,0
158102.727,-17.090,-10.742,-13.672,-20.508,0.000,0
158102.731,-26.367,-14.648,-20.020,-23.926,0.000,0
158102.735,-27.832,-20.020,-20.996,-22.949,0.000,0
158102.739,-23.438,-26.367,-13.184,-22.949,0.000,0
158102.743,-24.902,-25.879,-10.742,-19.043,0.000,0
158102.747,-37.598,-23.438,-16.113,-20.020,0.000,0
158102.750,-37.109,-25.391,-21.484,-23.926,0.000,0
158102.754,-25.879,-20.508,-16.113,-17.578,0.000,0
158102.758,-20.996,-19.043,-9.277,-14.160,0.000,0
158102.762,-21.973,-17.090,-10.742,-12.695,0.000,0
158102.766,-26.855,-16.602,-11.230,-23.926,0.000,0
158102.770,-21.484,-24.902,-15.625,-39.062,0.000,0
158102.774,-15.625,-19.531,-16.113,-32.227,0.000,0
158102.778,-17.578,-13.184,-12.695,-17.090,0.000,0
158102.782,-17.090,-19.531,-17.578,-24.414,0.000,0
158102.786,-22.461,-19.043,-15.137,-37.598,0.000,0
158102.790,-25.879,-16.113,-17.578,-20.508,0.000,0
158102.793,-17.578,-18.555,-20.020,-6.836,0.000,0
158102.797,-15.625,-10.742,-16.602,-19.531,0.000,0
158102.801,-17.578,-9.766,-13.672,-25.879,0.000,0
158102.805,-15.137,-16.602,-13.184,-22.461,0.000,0
158102.809,-16.602,-15.137,-17.578,-25.391,0.000,0
158102.813,-14.648,-14.160,-14.648,-22.461,0.000,0
158102.817,-14.160,-18.066,-13.184,-19.531,0.000,0
158102.821,-21.484,-23.438,-18.066,-19.531,0.000,0
158102.825,-18.555,-22.949,-18.555,-30.762,0.000,0
158102.829,-12.207,-22.949,-19.043,-33.691,0.000,0
158102.832,-15.137,-18.555,-14.160,-28.809,0.000,0
158102.836,-19.043,-16.602,-12.207,-20.996,0.000,0
158102.840,-23.438,-20.508,-18.555,-28.320,0.000,0
158102.844,-24.902,-19.531,-23.926,-37.109,0.000,0
158102.848,-19.531,-18.555,-31.250,-20.020,0.000,0
158102.852,-18.066,-20.996,-28.809,-21.484,0.000,0
158102.856,-31.250,-28.320,-34.180,-28.809,0.000,0
158102.860,-28.320,-26.855,-30.762,-27.832,0.000,0
158102.864,-13.672,-18.066,-20.996,-28.320,0.000,0
158102.868,-22.949,-24.902,-27.344,-28.809,0.000,0
158102.872,-30.762,-30.273,-31.738,-20.020,0.000,0
158102.875,-23.438,-23.926,-28.809,-18.066,0.000,0
158102.879,-25.391,-20.996,-20.996,-34.180,0.000,0
158102.883,-23.926,-24.902,-27.832,-24.902,0.000,0
158102.887,-19.043,-26.855,-34.668,-12.207,0.000,0
158102.891,-19.531,-25.879,-30.762,-20.996,0.000,0
158102.895,-20.020,-29.297,-32.227,-24.902,0.000,0
158102.899,-26.855,-37.109,-30.273,-43.457,0.000,0
158102.903,-28.809,-32.227,-25.391,-41.016,0.000,0
158102.907,-22.949,-27.344,-24.902,-19.043,0.000,0
158102.911,-25.391,-27.832,-28.320,-25.391,0.000,0
158102.915,-20.508,-19.043,-26.367,-20.996,0.000,0
158102.918,-18.555,-18.066,-21.973,-21.484,0.000,0
158102.922,-26.855,-20.996,-23.926,-32.715,0.000,0
158102.926,-27.344,-22.949,-32.715,-20.508,0.000,0
158102.930,-24.902,-21.973,-36.133,-8.301,0.000,0
158102.934,-24.414,-22.949,-25.879,-1.953,0.000,0
158102.938,-14.648,-29.297,-18.555,-15.137,0.000,0
158102.942,-19.043,-25.879,-21.973,-25.879,0.000,0
158102.946,-28.809,-19.043,-25.391,-22.949,0.000,0
158102.950,-30.762,-20.508,-23.926,-21.973,0.000,0
158102.954,-28.320,-24.414,-21.973,-16.602,0.000,0
158102.957,-25.391,-22.949,-20.508,-16.602,0.000,0
158102.961,-28.809,-20.020,-21.484,-17.578,0.000,0
158102.965,-28.320,-27.832,-31.738,-5.859,0.000,0
158102.969,-23.438,-25.391,-27.344,-11.719,0.000,0
158102.973,-17.578,-16.113,-18.555,-10.742,0.000,0
158102.977,-16.602,-18.066,-21.484,-12.695,0.000,0
158102.981,-21.484,-20.996,-15.137,-20.020,0.000,0
158102.985,-15.137,-18.555,-17.090,-5.371,0.000,0
158102.989,-12.695,-14.160,-24.414,-6.836,0.000,0
158102.993,-22.949,-13.672,-24.414,-13.672,0.000,0
158102.997,-27.832,-21.484,-21.973,-15.137,0.000,0
158103.000,-34.180,-25.879,-25.391,-24.902,0.000,0
158103.004,-32.715,-20.020,-25.391,-26.855,0.000,0
158103.008,-24.414,-19.043,-14.160,-20.020,0.000,0
158103.012,-28.320,-20.020,-14.160,-17.090,0.000,0
158103.016,-26.855,-21.973,-19.043,-20.996,0.000,0
158103.020,-20.020,-26.367,-22.461,-24.414,0.000,0
158103.024,-17.578,-31.738,-29.297,-21.973,0.000,0
158103.028,-20.508,-31.738,-29.785,-21.973,0.000,0
158103.032,-29.297,-27.832,-29.785,-25.391,0.000,0
158103.036,-27.832,-28.809,-30.273,-33.691,0.000,0
158103.040,-28.809,-25.391,-27.832,-34.668,0.000,0
158103.043,-38.086,-28.809,-32.227,-37.109,0.000,0
158103.047,-36.133,-30.273,-29.297,-40.527,0.000,0
158103.051,-36.133,-33.691,-30.273,-22.461,0.000,0
158103.055,-38.086,-40.039,-35.156,-22.461,0.000,0
158103.059,-35.156,-30.762,-34.180,-28.809,0.000,0
158103.063,-34.668,-29.297,-35.156,-21.484,0.000,0
158103.067,-32.715,-32.227,-37.598,-16.602,0.000,0
158103.071,-34.180,-30.273,-37.109,-23.438,0.000,0
158103.075,-33.691,-25.391,-34.180,-22.461,0.000,0
158103.079,-26.855,-21.973,-31.250,-20.020,0.000,0
158103.082,-20.508,-27.832,-26.855,-22.461,0.000,0
158103.086,-18.555,-25.391,-20.996,-22.461,0.000,0
158103.090,-26.855,-20.508,-21.484,-15.137,0.000,0
158103.094,-25.391,-25.879,-30.762,-8.301,0.000,0
158103.098,-27.344,-27.344,-35.156,-24.902,0.000,0
158103.102,-27.344,-24.902,-32.715,-22.949,0.000,0
158103.106,-37.109,-32.227,-35.156,-17.578,0.000,0
158103.110,-41.504,-33.203,-40.039,-29.785,0.000,0
158103.114,-21.973,-25.879,-30.273,-11.230,0.000,0
158103.118,-21.484,-26.367,-20.996,0.488,0.000,0
158103.122,-27.344,-19.531,-25.391,-26.367,0.000,0
158103.125,-18.066,-21.973,-31.738,-33.691,0.000,0
158103.129,-19.531,-24.414,-35.645,-20.020,0.000,0
158103.133,-25.879,-21.973,-34.180,-16.602,0.000,0
158103.137,-27.832,-27.832,-27.832,-18.066,0.000,0
158103.141,-32.227,-33.203,-32.227,-24.414,0.000,0
158103.145,-34.668,-29.297,-33.203,-30.762,0.000,0
158103.149,-38.086,-28.809,-28.809,-41.504,0.000,0
158103.153,-36.621,-25.391,-28.320,-27.832,0.000,0
158103.157,-20.020,-18.066,-24.902,-11.230,0.000,0
158103.161,-15.137,-14.648,-23.926,-23.438,0.000,0
158103.165,-19.531,-11.230,-18.555,-18.066,0.000,0
158103.168,-12.695,-15.625,-18.066,-4.395,0.000,0
158103.172,-9.277,-17.090,-22.949,-4.395,0.000,0
158103.176,-15.625,-17.090,-20.508,-11.230,0.000,0
158103.180,-15.625,-20.508,-28.320,-24.414,0.000,0
158103.184,-6.836,-19.043,-28.809,-24.902,0.000,0
158103.188,-17.578,-16.602,-21.973,-23.438,0.000,0
158103.192,-28.809,-23.438,-30.762,-22.949,0.000,0
158103.196,-28.320,-22.461,-27.344,-26.367,0.000,0
158103.200,-37.598,-20.020,-26.855,-36.133,0.000,0
158103.204,-32.227,-16.113,-28.809,-25.391,0.000,0
158103.207,-30.273,-15.625,-22.461,-16.113,0.000,0
158103.211,-36.133,-20.996,-26.367,-23.926,0.000,0
158103.215,-33.203,-26.855,-30.762,-31.738,0.000,0
158103.219,-21.484,-26.855,-32.715,-23.438,0.000,0
158103.223,-20.508,-28.320,-38.086,-23.926,0.000,0
158103.227,-30.273,-30.273,-39.062,-27.832,0.000,0
158103.231,-30.273,-29.785,-40.039,-20.020,0.000,0
158103.235,-25.879,-30.762,-34.668,-23.926,0.000,0
158103.239,-31.738,-30.762,-32.715,-37.109,0.000,0
158103.243,-42.480,-29.297,-38.086,-32.227,0.000,0
158103.247,-37.598,-26.855,-31.738,-23.926,0.000,0
158103.250,-29.785,-26.367,-30.273,-14.160,0.000,0
158103.254,-35.156,-29.785,-36.133,-20.508,0.000,0
158103.258,-34.180,-30.762,-37.109,-48.340,0.000,0
158103.262,-21.973,-32.715,-34.668,-48.340,0.000,0
158103.266,-25.879,-35.156,-32.227,-36.621,0.000,0
158103.270,-30.762,-22.461,-27.832,-32.715,0.000,0
158103.274,-28.809,-20.508,-27.832,-35.156,0.000,0
158103.278,-36.621,-25.879,-29.297,-40.527,0.000,0
158103.282,-32.715,-26.367,-31.738,-31.250,0.000,0
158103.286,-24.902,-28.809,-36.133,-26.367,0.000,0
158103.290,-24.902,-30.273,-36.133,-25.879,0.000,0
158103.293,-22.949,-28.320,-29.785,-26.367,0.000,0
158103.297,-32.715,-25.879,-24.414,-37.109,0.000,0
158103.301,-35.156,-21.973,-26.367,-45.410,0.000,0
158103.305,-22.949,-19.043,-30.273,-36.621,0.000,0
158103.309,-27.832,-21.973,-29.785,-22.461,0.000,0
158103.313,-27.832,-24.902,-23.926,-23.926,0.000,0
158103.317,-21.973,-29.297,-25.391,-27.832,0.000,0
158103.321,-16.113,-20.508,-21.484,-17.090,0.000,0
158103.325,-13.672,-15.137,-20.020,-7.812,0.000,0
158103.329,-13.184,-16.602,-24.902,-17.578,0.000,0
158103.332,-16.113,-14.160,-15.625,-20.996,0.000,0
158103.336,-27.344,-16.602,-15.625,-26.367,0.000,0
158103.340,-21.973,-13.184,-19.531,-31.738,0.000,0
158103.344,-29.785,-20.020,-27.344,-28.809,0.000,0
158103.348,-39.062,-30.762,-37.598,-40.527,0.000,0
158103.352,-30.762,-34.668,-37.598,-44.434,0.000,0
158103.356,-38.086,-38.086,-38.574,-43.945,0.000,0
158103.360,-37.109,-37.598,-38.086,-42.480,0.000,0
158103.364,-41.016,-40.039,-40.527,-40.527,0.000,0
158103.368,-42.969,-43.457,-41.992,-26.367,0.000,0
158103.372,-41.016,-41.504,-36.133,-19.043,0.000,0
158103.375,-41.992,-35.156,-39.062,-29.785,0.000,0
158103.379,-40.527,-36.621,-46.387,-31.738,0.000,0
158103.383,-45.410,-38.086,-40.527,-19.531,0.000,0
158103.387,-51.270,-40.039,-38.086,-23.438,0.000,0
158103.391,-51.270,-45.410,-44.434,-48.340,0.000,0
158103.395,-50.293,-42.969,-45.898,-56.641,0.000,0
158103.399,-44.434,-35.645,-35.645,-39.062,0.000,0
158103.403,-49.316,-37.109,-33.203,-31.738,0.000,0
158103.407,-59.570,-42.969,-47.363,-39.551,0.000,0
158103.411,-53.223,-41.992,-47.363,-43.457,0.000,0
158103.415,-51.270,-42.969,-49.805,-49.316,0.000,0
158103.418,-50.293,-44.922,-54.199,-47.852,0.000,0
158103.422,-37.598,-45.410,-47.852,-37.598,0.000,0
158103.426,-30.273,-38.086,-42.969,-40.527,0.000,0
158103.430,-41.504,-29.785,-31.738,-49.316,0.000,0
158103.434,-46.387,-35.645,-32.715,-41.992,0.000,0
158103.438,-41.016,-38.086,-42.480,-41.016,0.000,0
158103.442,-49.805,-39.551,-47.363,-45.410,0.000,0
158103.446,-49.805,-39.062,-47.363,-37.598,0.000,0
158103.450,-36.133,-33.691,-42.969,-36.133,0.000,0
158103.454,-30.273,-29.785,-38.574,-31.738,0.000,0
158103.457,-29.297,-31.738,-41.016,-28.320,0.000,0
158103.461,-29.785,-37.598,-40.039,-29.785,0.000,0
158103.465,-29.785,-36.133,-40.527,-28.809,0.000,0
158103.469,-30.762,-38.086,-45.410,-38.574,0.000,0
158103.473,-37.598,-41.016,-43.945,-37.598,0.000,0
158103.477,-37.598,-39.062,-43.457,-31.250,0.000,0
158103.481,-30.762,-33.203,-36.133,-26.367,0.000,0
158103.485,-31.250,-28.320,-29.785,-33.691,0.000,0
158103.489,-35.156,-25.391,-23.926,-38.086,0.000,0
158103.493,-24.902,-19.531,-18.555,-24.414,0.000,0
158103.497,-15.625,-21.973,-23.438,-31.738,0.000,0
158103.500,-17.578,-27.344,-25.391,-40.527,0.000,0
158103.504,-28.809,-26.367,-31.250,-39.062,0.000,0
158103.508,-29.297,-26.367,-26.855,-41.992,0.000,0
158103.512,-15.625,-20.996,-21.973,-45.410,0.000,0
158103.516,-15.625,-21.484,-24.414,-34.668,0.000,0
158103.520,-19.043,-21.973,-21.973,-20.020,0.000,0
158103.524,-25.879,-26.855,-23.438,-25.391,0.000,0
158103.528,-26.367,-27.832,-23.926,-25.879,0.000,0
158103.532,-25.391,-21.484,-28.320,-20.020,0.000,0
158103.536,-25.391,-22.461,-32.715,-32.715,0.000,0
158103.540,-25.391,-23.438,-27.344,-43.457,0.000,0
158103.543,-30.762,-25.391,-30.273,-29.297,0.000,0
158103.547,-33.691,-27.344,-30.273,-29.785,0.000,0
158103.551,-34.180,-26.855,-27.832,-43.457,0.000,0
158103.555,-33.203,-28.809,-33.203,-30.762,0.000,0
158103.559,-22.949,-35.645,-34.668,-16.113,0.000,0
158103.563,-22.949,-32.715,-30.762,-17.090,0.000,0
158103.567,-34.180,-29.297,-28.809,-31.738,0.000,0
158103.571,-36.133,-32.715,-29.297,-43.457,0.000,0
158103.575,-38.086,-32.715,-35.645,-36.133,0.000,0
158103.579,-39.062,-33.203,-35.156,-25.391,0.000,0
158103.582,-42.480,-28.320,-28.320,-21.973,0.000,0
158103.586,-40.039,-36.133,-35.156,-36.133,0.000,0
158103.590,-35.645,-31.738,-33.203,-43.457,0.000,0
158103.594,-41.016,-30.273,-35.156,-35.645,0.000,0
158103.598,-38.086,-39.551,-40.039,-26.367,0.000,0
158103.602,-34.180,-44.434,-41.504,-44.922,0.000,0
158103.606,-39.551,-42.480,-41.016,-63.477,0.000,0
158103.610,-32.715,-34.668,-29.785,-52.246,0.000,0
158103.614,-29.297,-33.203,-27.344,-49.805,0.000,0
158103.618,-29.297,-33.691,-34.668,-43.945,0.000,0
158103.622,-35.645,-32.227,-37.109,-33.203,0.000,0
158103.625,-41.016,-32.227,-26.855,-35.645,0.000,0
158103.629,-43.457,-33.203,-32.715,-45.898,0.000,0
158103.633,-41.016,-27.344,-39.062,-41.992,0.000,0
158103.637,-32.227,-21.484,-28.320,-33.691,0.000,0
158103.641,-31.738,-27.344,-30.273,-31.250,0.000,0
158103.645,-30.762,-28.809,-24.414,-37.109,0.000,0
158103.649,-29.785,-24.902,-20.508,-41.016,0.000,0
158103.653,-27.344,-28.320,-35.645,-30.762,0.000,0
158103.657,-21.973,-27.344,-30.273,-34.180,0.000,0
158103.661,-20.508,-23.926,-23.438,-29.785,0.000,0
158103.665,-20.020,-23.926,-26.855,-15.625,0.000,0
158103.668,-15.137,-26.855,-26.367,-20.020,0.000,0
158103.672,-28.320,-22.461,-29.785,-23.926,0.000,0
158103.676,-42.480,-24.902,-31.738,-35.156,0.000,0
158103.680,-34.180,-31.738,-31.738,-37.109,0.000,0
158103.684,-33.691,-26.367,-31.738,-27.832,0.000,0
158103.688,-32.227,-20.508,-25.391,-31.738,0.000,0
158103.692,-21.484,-19.043,-23.438,-30.273,0.000,0
158103.696,-19.531,-21.973,-25.879,-20.508,0.000,0
158103.700,-28.320,-21.484,-24.414,-16.113,0.000,0
158103.704,-34.180,-22.461,-29.297,-22.461,0.000,0
158103.707,-30.762,-28.809,-36.133,-32.715,0.000,0
158103.711,-31.250,-23.926,-36.133,-33.203,0.000,0
158103.715,-32.227,-29.297,-34.668,-27.832,0.000,0
158103.719,-28.320,-34.668,-32.227,-21.973,0.000,0
158103.723,-23.926,-24.414,-29.785,-16.113,0.000,0
158103.727,-21.484,-22.949,-24.414,-28.809,0.000,0
158103.731,-17.578,-19.043,-18.066,-31.250,0.000,0
158103.735,-14.160,-18.555,-22.461,-25.391,0.000,0
158103.739,-23.926,-18.555,-21.484,-34.180,0.000,0
158103.743,-37.598,-27.832,-28.809,-35.156,0.000,0
158103.747,-41.992,-33.203,-36.621,-37.598,0.000,0
158103.750,-37.109,-30.762,-34.668,-41.504,0.000,0
158103.754,-25.391,-27.832,-33.203,-34.180,0.000,0
158103.758,-20.020,-28.320,-32.227,-24.902,0.000,0
158103.762,-28.809,-32.227,-35.645,-18.066,0.000,0
158103.766,-33.691,-29.297,-36.133,-27.344,0.000,0
158103.770,-25.879,-29.785,-35.645,-25.879,0.000,0
158103.774,-26.855,-26.855,-33.203,-17.090,0.000,0
158103.778,-29.297,-19.043,-24.902,-21.484,0.000,0
158103.782,-24.414,-25.391,-23.438,-18.066,0.000,0
158103.786,-22.949,-32.227,-26.367,-22.461,0.000,0
158103.790,-17.090,-27.832,-26.367,-30.762,0.000,0
158103.793,-27.344,-31.738,-29.785,-41.504,0.000,0
158103.797,-32.227,-33.203,-28.320,-30.273,0.000,0
158103.801,-20.020,-28.809,-21.973,-7.812,0.000,0
158103.805,-21.484,-29.297,-19.531,-22.949,0.000,0
158103.809,-23.438,-26.855,-30.273,-25.391,0.000,0
158103.813,-22.461,-22.949,-36.133,-17.578,0.000,0
158103.817,-18.555,-29.785,-30.273,-20.996,0.000,0
158103.821,-13.184,-27.832,-21.973,-8.301,0.000,0
158103.825,-15.625,-25.879,-18.066,-18.066,0.000,0
158103.829,-24.902,-31.738,-26.855,-38.574,0.000,0
158103.832,-22.949,-27.344,-22.461,-36.133,0.000,0
158103.836,-21.484,-30.762,-19.043,-18.066,0.000,0
158103.840,-23.438,-30.762,-27.832,-12.695,0.000,0
158103.844,-20.508,-33.691,-29.785,-17.578,0.000,0
158103.848,-19.531,-36.133,-32.715,-27.344,0.000,0
158103.852,-17.090,-34.668,-38.086,-37.109,0.000,0
158103.856,-20.020,-29.785,-32.227,-28.809,0.000,0
158103.860,-10.254,-27.344,-26.367,-13.672,0.000,0
158103.864,-10.254,-28.320,-21.484,-11.719,0.000,0
158103.868,-32.715,-25.879,-22.461,-23.926,0.000,0
158103.872,-28.320,-24.414,-30.762,-15.625,0.000,0
158103.875,-28.809,-16.602,-20.020,-4.395,0.000,0
158103.879,-34.180,-17.578,-18.066,-10.742,0.000,0
158103.883,-26.367,-16.602,-16.113,-12.695,0.000,0
158103.887,-28.809,-11.230,-7.324,-20.996,0.000,0
158103.891,-30.273,-17.090,-11.719,-24.414,0.000,0
158103.895,-26.855,-22.461,-17.578,-23.438,0.000,0
158103.899,-22.949,-18.066,-12.207,-8.301,0.000,0
158103.903,-19.043,-14.648,-7.812,-5.371,0.000,0
158103.907,-22.461,-20.020,-12.207,-22.461,0.000,0
158103.911,-21.484,-20.996,-13.672,-10.254,0.000,0
158103.915,-15.137,-19.531,-13.184,0.977,0.000,0
158103.918,-17.090,-20.996,-16.602,-2.930,0.000,0
158103.922,-18.555,-19.531,-15.625,-13.672,0.000,0
158103.926,-16.602,-16.113,-13.184,-17.090,0.000,0
158103.930,-12.207,-14.648,-15.625,-21.484,0.000,0
158103.934,-9.766,-17.578,-10.254,-15.625,0.000,0
158103.938,-7.324,-20.996,-13.184,-5.859,0.000,0
158103.942,-10.742,-23.926,-10.254,-17.090,0.000,0
158103.946,-15.625,-21.484,-8.789,-20.020,0.000,0
158103.950,-23.926,-20.996,-18.555,-16.602,0.000,0
158103.954,-27.344,-20.020,-17.090,-24.902,0.000,0
158103.957,-20.508,-17.090,-13.672,-20.996,0.000,0
158103.961,-28.320,-26.855,-18.555,-38.086,0.000,0
158103.965,-21.973,-33.203,-15.625,-36.621,0.000,0
158103.969,-12.207,-26.855,-11.230,-12.695,0.000,0
158103.973,-19.531,-26.367,-16.602,-13.184,0.000,0
158103.977,-27.832,-25.391,-19.531,-6.348,0.000,0
158103.981,-25.879,-25.391,-12.207,-17.578,0.000,0
158103.985,-20.020,-26.367,-12.207,-28.320,0.000,0
158103.989,-24.414,-26.855,-21.484,-23.438,0.000,0
158103.993,-24.902,-23.438,-18.555,-26.367,0.000,0
158103.997,-26.855,-20.020,-18.066,-23.926,0.000,0
158104.000,-29.297,-21.973,-19.531,-24.902,0.000,0
158104.004,-22.461,-17.090,-14.648,-24.414,0.000,0
158104.008,-21.973,-18.066,-20.508,-15.625,0.000,0
158104.012,-19.531,-24.414,-22.461,-14.160,0.000,0
158104.016,-15.137,-22.461,-19.531,-14.648,0.000,0
158104.020,-17.578,-21.973,-20.996,-17.578,0.000,0
158104.024,-18.066,-23.926,-21.484,-18.555,0.000,0
158104.028,-27.832,-28.809,-26.855,-17.090,0.000,0
158104.032,-32.227,-29.297,-29.785,-25.391,0.000,0
158104.036,-23.438,-21.973,-26.855,-20.508,0.000,0
158104.040,-26.367,-27.832,-28.320,-6.348,0.000,0
158104.043,-32.227,-22.949,-22.949,-17.090,0.000,0
158104.047,-32.715,-22.461,-25.879,-25.391,0.000,0
158104.051,-31.738,-30.762,-31.738,-28.809,0.000,0
158104.055,-30.273,-21.973,-21.484,-29.785,0.000,0
158104.059,-28.809,-18.555,-19.531,-20.508,0.000,0
158104.063,-22.949,-22.949,-20.508,-25.391,0.000,0
158104.067,-17.578,-18.555,-20.996,-36.133,0.000,0
158104.071,-12.207,-16.113,-23.926,-36.621,0.000,0
158104.075,-22.461,-18.066,-28.320,-15.625,0.000,0
158104.079,-23.438,-16.602,-23.926,-15.625,0.000,0
158104.082,-15.137,-19.531,-20.996,-30.273,0.000,0
158104.086,-23.926,-20.996,-20.020,-29.297,0.000,0
158104.090,-28.320,-20.508,-19.531,-26.855,0.000,0
158104.094,-21.484,-23.438,-26.855,-24.902,0.000,0
158104.098,-17.090,-23.438,-24.902,-22.461,0.000,0
158104.102,-20.508,-21.484,-23.926,-25.879,0.000,0
158104.106,-27.344,-23.926,-28.809,-28.809,0.000,0
158104.110,-20.020,-29.297,-28.809,-27.344,0.000,0
158104.114,-15.137,-27.832,-20.508,-20.996,0.000,0
158104.118,-16.602,-21.484,-14.648,-18.066,0.000,0
158104.122,-17.090,-15.625,-15.625,-23.926,0.000,0
158104.125,-20.508,-16.113,-17.090,-23.438,0.000,0
158104.129,-16.602,-21.484,-22.949,-17.090,0.000,0
158104.133,-23.438,-26.855,-19.043,-0.977,0.000,0
158104.137,-29.785,-19.531,-16.602,-5.859,0.000,0
158104.141,-16.113,-23.438,-23.438,-29.785,0.000,0
158104.145,-11.719,-27.344,-21.973,-32.227,0.000,0
158104.149,-16.113,-15.625,-16.113,-22.461,0.000,0
158104.153,-10.254,-16.113,-15.625,-17.090,0.000,0
158104.157,-17.090,-21.484,-22.949,-11.719,0.000,0
158104.161,-30.762,-19.531,-20.996,-21.973,0.000,0
158104.165,-20.996,-17.090,-19.043,-27.832,0.000,0
158104.168,-15.625,-22.461,-19.531,-22.949,0.000,0
158104.172,-26.855,-28.809,-20.508,-34.180,0.000,0
158104.176,-39.551,-29.297,-30.762,-41.016,0.000,0
158104.180,-31.738,-23.438,-21.973,-41.992,0.000,0
158104.184,-24.902,-19.531,-20.020,-41.016,0.000,0
158104.188,-26.367,-25.879,-27.344,-39.551,0.000,0
158104.192,-20.996,-27.344,-21.484,-30.273,0.000,0
158104.196,-22.461,-32.227,-28.320,-21.484,0.000,0
158104.200,-22.949,-35.156,-28.809,-26.367,0.000,0
158104.204,-10.254,-28.320,-21.484,-28.809,0.000,0
158104.207,-16.113,-23.438,-23.438,-37.109,0.000,0
158104.211,-22.949,-20.020,-22.461,-39.062,0.000,0
158104.215,-18.066,-22.461,-28.320,-20.020,0.000,0
158104.219,-19.043,-22.461,-31.250,-20.996,0.000,0
158104.223,-16.602,-21.973,-24.902,-27.832,0.000,0
158104.227,-8.789,-25.391,-20.996,-19.531,0.000,0
158104.231,-16.602,-24.414,-25.391,-15.625,0.000,0
158104.235,-22.461,-27.832,-37.598,-20.020,0.000,0
158104.239,-19.043,-33.203,-31.738,-27.344,0.000,0
158104.243,-29.297,-34.180,-29.297,-37.598,0.000,0
158104.247,-25.879,-38.574,-39.062,-37.598,0.000,0
158104.250,-14.160,-40.039,-32.227,-27.832,0.000,0
158104.254,-16.602,-28.809,-26.367,-17.090,0.000,0
158104.258,-19.531,-24.902,-23.926,-24.414,0.000,0
158104.262,-22.461,-25.391,-27.344,-26.367,0.000,0
158104.266,-25.391,-30.762,-34.180,-11.230,0.000,0
158104.270,-27.832,-29.297,-30.273,-17.090,0.000,0
158104.274,-42.969,-27.344,-27.832,-31.738,0.000,0
158104.278,-42.969,-32.227,-31.738,-20.508,0.000,0
158104.282,-25.879,-27.832,-29.785,-17.578,0.000,0
158104.286,-25.879,-22.949,-24.414,-23.926,0.000,0
158104.290,-28.320,-27.344,-27.832,-20.508,0.000,0
158104.293,-23.926,-29.785,-33.691,-10.742,0.000,0
158104.297,-31.738,-26.367,-21.484,-11.719,0.000,0
158104.301,-40.527,-25.391,-13.672,-14.160,0.000,0
158104.305,-38.574,-29.785,-32.715,-15.137,0.000,0
158104.309,-30.273,-28.320,-39.551,-18.555,0.000,0
158104.313,-28.320,-26.367,-29.785,-22.461,0.000,0
158104.317,-31.738,-30.273,-30.273,-30.762,0.000,0
158104.321,-31.738,-29.297,-35.156,-42.480,0.000,0
158104.325,-34.180,-23.926,-34.668,-37.109,0.000,0
158104.329,-35.645,-30.762,-31.738,-27.832,0.000,0
158104.332,-27.344,-31.250,-23.926,-27.344,0.000,0
158104.336,-25.391,-21.973,-23.438,-26.367,0.000,0
158104.340,-27.832,-23.438,-23.926,-15.625,0.000,0
158104.344,-27.344,-29.785,-30.273,-3.906,0.000,0
158104.348,-24.414,-25.391,-25.879,-8.789,0.000,0
158104.352,-19.531,-20.996,-20.020,-13.672,0.000,0
158104.356,-23.438,-24.902,-26.367,-20.020,0.000,0
158104.360,-35.156,-27.832,-31.250,-19.531,0.000,0
158104.364,-26.367,-21.484,-27.832,-4.395,0.000,0
158104.368,-20.996,-20.020,-25.879,-5.859,0.000,0
158104.372,-30.762,-26.367,-27.344,-8.301,0.000,0
158104.375,-26.367,-21.973,-23.926,1.465,0.000,0
158104.379,-20.508,-24.414,-32.227,-4.883,0.000,0
158104.383,-17.090,-30.273,-36.133,-20.996,0.000,0
158104.387,-18.555,-25.391,-25.391,-16.602,0.000,0
158104.391,-21.973,-24.902,-22.949,-18.066,0.000,0
158104.395,-17.090,-24.414,-25.391,-16.602,0.000,0
158104.399,-10.254,-20.508,-20.996,-18.555,0.000,0
158104.403,-10.742,-21.484,-19.043,-14.648,0.000,0
158104.407,-12.695,-24.902,-25.391,-16.602,0.000,0
158104.411,-10.254,-23.438,-29.297,-20.020,0.000,0
158104.415,-13.672,-21.973,-22.949,-13.672,0.000,0
158104.418,-20.508,-19.043,-20.020,-26.367,0.000,0
158104.422,-14.648,-18.555,-25.879,-35.645,0.000,0
158104.426,-13.672,-22.461,-32.227,-36.621,0.000,0
158104.430,-20.508,-27.832,-29.785,-28.809,0.000,0
158104.434,-14.648,-32.715,-24.414,-20.020,0.000,0
158104.438,-17.578,-28.320,-19.043,-27.344,0.000,0
158104.442,-22.949,-27.832,-18.555,-21.973,0.000,0
158104.446,-21.973,-34.668,-24.902,-15.625,0.000,0
158104.450,-17.090,-27.832,-26.367,-25.391,0.000,0
158104.454,-4.395,-20.996,-19.043,-21.973,0.000,0
158104.457,-11.230,-30.273,-20.508,-29.297,0.000,0
158104.461,-20.508,-26.855,-25.391,-27.832,0.000,0
158104.465,-16.602,-18.555,-19.043,-14.648,0.000,0
158104.469,-17.578,-26.367,-19.531,-18.066,0.000,0
158104.473,-22.949,-24.414,-24.414,-23.926,0.000,0
158104.477,-22.949,-20.508,-19.531,-25.879,0.000,0
158104.481,-22.949,-25.879,-22.461,-13.672,0.000,0
158104.485,-20.996,-23.438,-27.832,-3.418,0.000,0
158104.489,-19.531,-17.090,-25.391,-12.207,0.000,0
158104.493,-20.996,-21.973,-21.973,-11.719,0.000,0
158104.497,-18.555,-22.949,-14.648,-8.789,0.000,0
158104.500,-18.555,-17.090,-14.160,-10.254,0.000,0
158104.504,-12.695,-19.043,-23.438,-14.160,0.000,0
158104.508,-9.766,-19.531,-26.855,-19.043,0.000,0
158104.512,-16.113,-17.578,-24.414,-13.184,0.000,0
158104.516,-24.414,-22.949,-23.438,-21.973,0.000,0
158104.520,-30.762,-29.297,-31.738,-22.949,0.000,0
158104.524,-27.832,-25.879,-28.809,-7.812,0.000,0
158104.528,-20.996,-23.926,-19.043,-15.137,0.000,0
158104.532,-11.230,-23.438,-20.508,-12.207,0.000,0
158104.536,-5.371,-23.438,-21.484,-10.742,0.000,0
158104.540,-10.254,-24.414,-26.855,-20.996,0.000,0
158104.543,-17.578,-20.508,-28.809,-21.973,0.000,0
158104.547,-17.090,-20.508,-24.902,-14.160,0.000,0
158104.551,-15.137,-22.461,-22.949,-17.578,0.000,0
158104.555,-18.066,-27.832,-26.855,-25.879,0.000,0
158104.559,-18.555,-27.344,-27.832,-17.090,0.000,0
158104.563,-12.695,-24.902,-25.879,-11.719,0.000,0
158104.567,-16.113,-26.855,-28.320,-11.230,0.000,0
158104.571,-17.090,-30.762,-28.320,-12.695,0.000,0
158104.575,-15.625,-31.738,-23.438,-39.551,0.000,0
158104.579,-19.531,-28.320,-20.508,-37.598,0.000,0
158104.582,-17.578,-24.414,-21.484,-18.066,0.000,0
158104.586,-17.090,-24.414,-24.902,-20.996,0.000,0
158104.590,-20.020,-29.297,-31.250,-22.949,0.000,0
158104.594,-24.414,-22.949,-25.391,-35.156,0.000,0
158104.598,-24.414,-21.973,-28.320,-24.414,0.000,0
158104.602,-18.066,-28.320,-34.180,-6.836,0.000,0
158104.606,-21.973,-28.809,-30.762,-17.578,0.000,0
158104.610,-21.484,-28.320,-32.715,-29.785,0.000,0
158104.614,-27.832,-32.227,-32.715,-31.250,0.000,0
158104.618,-24.414,-32.715,-33.203,-21.484,0.000,0
158104.622,-17.578,-27.832,-34.180,-18.555,0.000,0
158104.625,-24.414,-25.879,-33.203,-19.531,0.000,0
158104.629,-27.832,-28.809,-29.785,-12.695,0.000,0
158104.633,-22.949,-26.367,-23.438,-18.555,0.000,0
158104.637,-19.043,-22.461,-24.414,-29.785,0.000,0
158104.641,-27.344,-26.855,-32.227,-39.551,0.000,0
158104.645,-36.133,-27.344,-36.621,-39.062,0.000,0
158104.649,-29.785,-21.484,-29.785,-27.344,0.000,0
158104.653,-31.738,-19.043,-27.832,-26.855,0.000,0
158104.657,-26.855,-19.043,-29.297,-22.461,0.000,0
158104.661,-21.484,-25.391,-24.414,-15.625,0.000,0
158104.665,-38.086,-28.809,-27.832,-22.949,0.000,0
158104.668,-35.645,-25.879,-29.297,-13.184,0.000,0
158104.672,-33.203,-27.832,-28.320,-20.020,0.000,0
158104.676,-39.062,-26.367,-26.367,-42.480,0.000,0
158104.680,-34.668,-25.879,-22.949,-36.621,0.000,0
158104.684,-34.180,-28.809,-27.344,-26.855,0.000,0
158104.688,-38.574,-28.320,-21.973,-25.391,0.000,0
158104.692,-45.410,-25.879,-23.926,-31.250,0.000,0
158104.696,-41.992,-28.809,-30.762,-30.762,0.000,0
158104.700,-34.668,-23.438,-27.344,-24.902,0.000,0
158104.704,-41.016,-19.531,-20.508,-30.273,0.000,0
158104.707,-37.109,-22.461,-24.902,-31.250,0.000,0
158104.711,-28.320,-22.949,-27.344,-30.273,0.000,0
158104.715,-24.414,-28.320,-23.926,-36.133,0.000,0
158104.719,-16.602,-31.250,-26.367,-27.344,0.000,0
158104.723,-18.066,-19.043,-23.926,-14.648,0.000,0
158104.727,-14.648,-15.137,-21.973,-8.789,0.000,0
158104.731,-11.719,-20.508,-24.902,-15.137,0.000,0
158104.735,-16.113,-23.438,-26.855,-23.926,0.000,0
158104.739,-12.207,-19.531,-30.273,-19.043,0.000,0
158104.743,-16.113,-16.602,-32.227,-13.672,0.000,0
158104.747,-33.691,-12.207,-28.320,-15.625,0.000,0
158104.750,-38.086,-14.160,-28.809,-17.090,0.000,0
158104.754,-27.344,-20.020,-29.297,-18.066,0.000,0
158104.758,-29.297,-20.996,-25.879,-21.484,0.000,0
158104.762,-27.832,-17.578,-19.531,-18.066,0.000,0
158104.766,-26.855,-19.531,-20.996,-20.508,0.000,0
158104.770,-33.203,-25.391,-27.344,-22.949,0.000,0
158104.774,-37.109,-18.555,-28.320,-30.762,0.000,0
158104.778,-38.574,-20.996,-31.250,-40.527,0.000,0
158104.782,-31.250,-24.414,-24.902,-46.387,0.000,0
158104.786,-22.461,-21.484,-22.949,-26.367,0.000,0
158104.790,-27.344,-24.414,-28.320,-17.090,0.000,0
158104.793,-37.109,-25.879,-23.438,-28.809,0.000,0
158104.797,-28.809,-21.973,-23.926,-21.973,0.000,0
158104.801,-19.043,-16.602,-25.391,-17.578,0.000,0
158104.805,-27.344,-25.391,-26.855,-23.926,0.000,0
158104.809,-30.762,-30.762,-25.391,-30.762,0.000,0
158104.813,-21.973,-26.367,-22.949,-37.109,0.000,0
158104.817,-18.555,-21.973,-19.043,-31.250,0.000,0
158104.821,-24.902,-24.414,-22.461,-21.973,0.000,0
158104.825,-27.344,-25.391,-27.832,-25.391,0.000,0
158104.829,-26.367,-24.902,-21.484,-22.461,0.000,0
158104.832,-31.250,-27.832,-19.531,-26.367,0.000,0
158104.836,-37.598,-26.855,-28.320,-26.855,0.000,0
158104.840,-35.645,-23.926,-29.785,-22.949,0.000,0
158104.844,-33.203,-27.344,-29.297,-36.621,0.000,0
158104.848,-37.109,-32.715,-34.668,-41.504,0.000,0
158104.852,-35.156,-30.273,-25.879,-37.598,0.000,0
158104.856,-33.203,-29.785,-22.949,-37.598,0.000,0
158104.860,-35.156,-28.809,-28.809,-34.668,0.000,0
158104.864,-27.344,-22.461,-24.414,-22.461,0.000,0
158104.868,-22.949,-18.066,-21.484,-21.484,0.000,0
158104.872,-33.691,-20.508,-28.320,-38.574,0.000,0
158104.875,-37.109,-20.508,-32.227,-37.598,0.000,0
158104.879,-28.809,-20.508,-21.973,-38.574,0.000,0
158104.883,-31.250,-22.949,-18.066,-45.410,0.000,0
158104.887,-38.086,-25.391,-28.320,-29.297,0.000,0
158104.891,-36.133,-24.414,-29.785,-34.180,0.000,0
158104.895,-35.645,-16.113,-23.438,-34.180,0.000,0
158104.899,-33.691,-17.090,-26.367,-24.414,0.000,0
158104.903,-20.996,-28.320,-30.273,-12.695,0.000,0
158104.907,-26.855,-27.344,-23.926,-7.812,0.000,0
158104.911,-37.598,-28.320,-19.531,-41.504,0.000,0
158104.915,-35.645,-33.691,-27.344,-37.598,0.000,0
158104.918,-30.762,-30.273,-24.902,-25.879,0.000,0
158104.922,-33.203,-26.367,-21.973,-38.086,0.000,0
158104.926,-37.109,-26.855,-24.414,-25.391,0.000,0
158104.930,-28.809,-25.879,-20.996,-29.785,0.000,0
158104.934,-21.973,-27.344,-26.855,-37.109,0.000,0
158104.938,-23.926,-33.691,-28.320,-30.762,0.000,0
158104.942,-27.832,-31.250,-21.484,-26.855,0.000,0
158104.946,-32.227,-25.391,-20.508,-23.438,0.000,0
158104.950,-25.879,-24.902,-23.926,-30.762,0.000,0
158104.954,-20.508,-22.461,-18.066,-28.809,0.000,0
158104.957,-12.695,-24.902,-18.555,-22.461,0.000,0
158104.961,-11.719,-31.738,-25.879,-21.973,0.000,0
158104.965,-20.020,-34.180,-29.297,-23.926,0.000,0
158104.969,-20.996,-29.297,-24.414,-25.879,0.000,0
158104.973,-15.625,-25.879,-21.484,-24.902,0.000,0
158104.977,-16.602,-24.902,-24.414,-22.949,0.000,0
158104.981,-25.391,-23.926,-26.855,-18.066,0.000,0
158104.985,-26.367,-19.531,-21.484,-20.996,0.000,0
158104.989,-27.344,-22.949,-22.949,-20.996,0.000,0
158104.993,-22.461,-22.461,-30.762,-10.742,0.000,0
158104.997,-13.672,-20.020,-25.879,-25.879,0.000,0
158105.000,-17.090,-21.973,-20.020,-33.691,0.000,0
158105.004,-23.926,-25.879,-16.113,-26.367,0.000,0
158105.008,-30.762,-26.367,-18.555,-32.715,0.000,0
158105.012,-32.715,-22.949,-20.020,-25.879,0.000,0
158105.016,-24.414,-26.855,-22.949,-15.137,0.000,0
158105.020,-24.414,-20.996,-20.996,-16.602,0.000,0
158105.024,-32.227,-18.555,-21.484,-20.020,0.000,0
158105.028,-32.227,-21.484,-27.832,-21.484,0.000,0
158105.032,-25.391,-20.020,-20.996,-23.926,0.000,0
158105.036,-21.484,-22.949,-18.066,-12.695,0.000,0
158105.040,-12.695,-30.762,-22.949,-4.883,0.000,0
158105.043,-13.672,-29.785,-20.996,-19.043,0.000,0
158105.047,-20.508,-26.855,-21.484,-27.344,0.000,0
158105.051,-23.926,-32.227,-27.344,-24.414,0.000,0
158105.055,-28.809,-31.738,-27.832,-31.738,0.000,0
158105.059,-35.156,-35.645,-34.668,-29.785,0.000,0
158105.063,-39.551,-40.039,-40.039,-10.742,0.000,0
158105.067,-29.785,-39.062,-30.762,-7.812,0.000,0
158105.071,-25.879,-33.691,-31.250,-15.625,0.000,0
158105.075,-26.855,-29.297,-38.086,-7.812,0.000,0
158105.079,-32.715,-27.344,-36.621,-15.137,0.000,0
158105.082,-36.133,-27.832,-38.086,-26.855,0.000,0
158105.086,-29.297,-25.391,-31.250,-28.809,0.000,0
158105.090,-29.297,-26.855,-32.227,-31.738,0.000,0
158105.094,-33.691,-35.156,-35.645,-30.273,0.000,0
158105.098,-30.273,-32.227,-29.785,-17.578,0.000,0
158105.102,-24.902,-24.414,-23.438,-10.742,0.000,0
158105.106,-22.949,-18.555,-20.508,-22.461,0.000,0
158105.110,-18.555,-18.555,-26.855,-21.484,0.000,0
158105.114,-13.184,-21.484,-23.438,-20.020,0.000,0
158105.118,-17.578,-19.043,-23.926,-27.832,0.000,0
158105.122,-23.438,-18.066,-29.297,-29.785,0.000,0
158105.125,-21.973,-20.996,-22.949,-28.320,0.000,0
158105.129,-16.602,-20.996,-22.461,-22.949,0.000,0
158105.133,-18.555,-19.043,-22.461,-28.320,0.000,0
158105.137,-21.484,-17.578,-22.949,-23.926,0.000,0
158105.141,-15.625,-18.066,-23.926,-11.230,0.000,0
158105.145,-13.184,-17.578,-18.555,-20.020,0.000,0
158105.149,-19.043,-19.531,-22.949,-19.531,0.000,0
158105.153,-23.438,-15.625,-26.367,-13.672,0.000,0
158105.157,-19.043,-16.113,-26.367,-19.043,0.000,0
158105.161,-18.066,-23.926,-24.414,-12.207,0.000,0
158105.165,-18.555,-20.020,-14.160,-16.113,0.000,0
158105.168,-16.113,-16.602,-19.531,-23.438,0.000,0
158105.172,-24.902,-18.066,-26.855,-4.883,0.000,0
158105.176,-22.949,-23.438,-21.484,-10.254,0.000,0
158105.180,-22.949,-25.879,-24.414,-34.180,0.000,0
158105.184,-29.785,-22.461,-22.461,-34.180,0.000,0
158105.188,-24.414,-20.020,-25.879,-31.250,0.000,0
158105.192,-21.973,-19.043,-31.738,-34.668,0.000,0
158105.196,-19.043,-26.367,-30.273,-32.227,0.000,0
158105.200,-18.066,-26.367,-29.785,-20.020,0.000,0
158105.204,-17.090,-22.949,-26.855,-18.066,0.000,0
158105.207,-11.719,-24.902,-26.367,-27.344,0.000,0
158105.211,-19.043,-21.484,-27.344,-26.367,0.000,0
158105.215,-23.926,-19.531,-24.902,-19.531,0.000,0
158105.219,-29.297,-26.367,-36.621,-28.320,0.000,0
158105.223,-30.762,-35.156,-37.598,-41.016,0.000,0
158105.227,-25.391,-23.438,-19.043,-28.809,0.000,0
158105.231,-20.996,-17.090,-19.043,-19.043,0.000,0
158105.235,-13.184,-23.926,-23.926,-19.531,0.000,0
158105.239,-16.602,-24.414,-24.414,-2.930,0.000,0
158105.243,-19.043,-24.902,-24.414,-10.742,0.000,0
158105.247,-13.184,-25.879,-20.996,-31.250,0.000,0
158105.250,-6.836,-24.414,-23.438,-26.367,0.000,0
158105.254,1.465,-21.484,-27.344,-17.578,0.000,0
158105.258,-14.648,-24.414,-31.738,-19.043,0.000,0
158105.262,-39.062,-26.855,-34.180,-30.762,0.000,0
158105.266,-32.715,-23.926,-31.250,-34.180,0.000,0
158105.270,-26.855,-26.855,-26.855,-28.809,0.000,0
158105.274,-32.227,-26.855,-27.344,-17.578,0.000,0
158105.278,-23.438,-24.902,-26.855,-6.348,0.000,0
158105.282,-21.973,-25.879,-17.578,-10.742,0.000,0
158105.286,-24.902,-20.996,-17.578,-9.766,0.000,0
158105.290,-18.066,-14.160,-16.113,-6.348,0.000,0
158105.293,-17.578,-10.254,-10.254,-23.438,0.000,0
158105.297,-23.926,-13.184,-14.648,-19.531,0.000,0
158105.301,-22.949,-20.508,-13.672,-13.672,0.000,0
158105.305,-30.762,-26.367,-19.531,-28.320,0.000,0
158105.309,-41.504,-31.738,-33.203,-29.297,0.000,0
158105.313,-43.945,-31.738,-33.691,-30.273,0.000,0
158105.317,-37.109,-25.879,-28.809,-27.832,0.000,0
158105.321,-29.785,-23.438,-27.344,-26.855,0.000,0
158105.325,-26.855,-20.996,-26.367,-26.855,0.000,0
158105.329,-23.926,-18.555,-25.391,-20.508,0.000,0
158105.332,-24.902,-18.555,-25.391,-24.414,0.000,0
158105.336,-24.902,-16.602,-28.320,-30.273,0.000,0
158105.340,-34.180,-19.531,-30.762,-36.133,0.000,0
158105.344,-36.133,-19.531,-21.484,-40.039,0.000,0
158105.348,-23.438,-19.043,-26.367,-37.109,0.000,0
158105.352,-25.879,-24.414,-30.762,-26.367,0.000,0
158105.356,-28.320,-24.902,-26.855,-21.973,0.000,0
158105.360,-34.668,-22.949,-28.809,-30.762,0.000,0
158105.364,-35.645,-25.391,-26.855,-31.250,0.000,0
158105.368,-24.414,-25.879,-32.715,-14.648,0.000,0
158105.372,-23.926,-21.973,-32.715,-17.090,0.000,0
158105.375,-29.785,-21.484,-24.414,-32.227,0.000,0
158105.379,-27.832,-23.926,-27.832,-28.809,0.000,0
158105.383,-26.367,-28.320,-30.762,-30.762,0.000,0
158105.387,-31.738,-24.902,-30.273,-20.508,0.000,0
158105.391,-23.438,-28.320,-33.203,-12.695,0.000,0
158105.395,-20.508,-32.227,-27.344,-28.320,0.000,0
158105.399,-24.414,-24.414,-24.902,-27.344,0.000,0
158105.403,-27.832,-24.414,-23.926,-24.902,0.000,0
158105.407,-31.738,-28.320,-23.438,-34.180,0.000,0
158105.411,-22.949,-26.855,-26.367,-29.297,0.000,0
158105.415,-15.625,-28.320,-29.297,-22.461,0.000,0
158105.418,-19.043,-30.273,-26.855,-12.207,0.000,0
158105.422,-22.461,-27.832,-22.461,-12.207,0.000,0
158105.426,-24.902,-25.879,-30.762,-10.742,0.000,0
158105.430,-20.996,-30.273,-32.227,-5.859,0.000,0
158105.434,-20.996,-28.320,-30.762,-3.418,0.000,0
158105.438,-30.273,-25.391,-31.738,0.000,0.000,0
158105.442,-34.180,-26.367,-28.320,-18.066,0.000,0
158105.446,-35.645,-26.367,-28.809,-37.598,0.000,0
158105.450,-47.363,-29.297,-37.109,-40.527,0.000,0
158105.454,-56.641,-30.273,-41.504,-29.297,0.000,0
158105.457,-42.969,-23.926,-37.109,-20.996,0.000,0
158105.461,-29.785,-20.996,-31.250,-27.832,0.000,0
158105.465,-25.391,-18.066,-22.949,-24.902,0.000,0
158105.469,-20.020,-17.578,-21.973,-17.090,0.000,0
158105.473,-20.996,-18.066,-27.344,-27.832,0.000,0
158105.477,-22.461,-20.508,-26.855,-33.691,0.000,0
158105.481,-17.578,-17.578,-25.391,-28.320,0.000,0
158105.485,-20.020,-6.836,-22.461,-22.949,0.000,0
158105.489,-20.020,-10.254,-20.508,-26.367,0.000,0
158105.493,-21.484,-19.043,-21.973,-28.320,0.000,0
158105.497,-22.461,-16.602,-18.066,-22.949,0.000,0
158105.500,-23.438,-17.090,-14.160,-29.297,0.000,0
158105.504,-19.531,-21.484,-17.090,-28.809,0.000,0
158105.508,-26.367,-28.320,-21.973,-21.484,0.000,0
158105.512,-35.645,-29.785,-23.438,-28.809,0.000,0
158105.516,-28.809,-22.949,-25.391,-32.227,0.000,0
158105.520,-27.344,-25.391,-23.926,-31.250,0.000,0
158105.524,-30.273,-26.855,-20.996,-33.203,0.000,0
158105.528,-34.180,-25.879,-20.020,-25.391,0.000,0
158105.532,-37.598,-27.344,-21.973,-25.391,0.000,0
158105.536,-46.875,-35.156,-28.320,-35.645,0.000,0
158105.540,-50.293,-41.992,-25.879,-46.875,0.000,0
158105.543,-44.922,-33.203,-29.785,-53.711,0.000,0
158105.547,-41.504,-28.320,-42.480,-48.340,0.000,0
158105.551,-32.227,-26.367,-37.598,-37.598,0.000,0
158105.555,-25.879,-20.508,-31.738,-26.367,0.000,0
158105.559,-26.367,-18.066,-21.973,-27.832,0.000,0
158105.563,-14.160,-19.043,-18.555,-33.691,0.000,0
158105.567,-9.277,-18.555,-20.020,-22.949,0.000,0
158105.571,-23.438,-23.438,-23.438,-13.672,0.000,0
158105.575,-28.320,-28.320,-29.785,-17.578,0.000,0
158105.579,-24.414,-20.508,-23.438,-26.367,0.000,0
158105.582,-25.879,-17.090,-17.578,-30.273,0.000,0
158105.586,-26.367,-19.043,-19.531,-20.020,0.000,0
158105.590,-20.996,-17.578,-17.578,-15.625,0.000,0
158105.594,-18.555,-22.461,-17.578,-14.160,0.000,0
158105.598,-22.461,-30.273,-23.438,-27.832,0.000,0
158105.602,-24.902,-23.438,-22.461,-42.969,0.000,0
158105.606,-18.066,-18.555,-20.508,-23.926,0.000,0
158105.610,-8.301,-17.578,-20.996,-9.766,0.000,0
158105.614,-7.324,-17.090,-17.578,-9.277,0.000,0
158105.618,-15.625,-24.414,-13.672,-8.301,0.000,0
158105.622,-16.113,-22.949,-15.137,-22.949,0.000,0
158105.625,-13.184,-16.113,-17.578,-19.043,0.000,0
158105.629,-18.555,-17.090,-18.066,-10.254,0.000,0
158105.633,-24.902,-12.695,-17.578,-0.977,0.000,0
158105.637,-25.391,-16.113,-18.555,-4.395,0.000,0
158105.641,-24.414,-19.043,-23.926,-9.766,0.000,0
158105.645,-26.855,-19.043,-21.973,-9.277,0.000,0
158105.649,-29.297,-23.926,-24.902,-27.344,0.000,0
158105.653,-33.203,-29.297,-27.832,-40.527,0.000,0
158105.657,-26.855,-28.809,-28.320,-35.156,0.000,0
158105.661,-20.996,-25.391,-26.367,-21.484,0.000,0
158105.665,-20.996,-23.438,-21.484,-10.742,0.000,0
158105.668,-20.996,-23.926,-24.414,-12.207,0.000,0
158105.672,-25.879,-27.344,-26.367,-17.090,0.000,0
158105.676,-26.855,-25.391,-21.973,-24.414,0.000,0
158105.680,-17.090,-23.926,-22.461,-22.949,0.000,0
158105.684,-17.578,-28.809,-26.855,-14.648,0.000,0
158105.688,-24.414,-33.691,-30.762,-16.113,0.000,0
158105.692,-22.461,-30.273,-29.297,-20.020,0.000,0
158105.696,-14.648,-31.250,-27.344,-18.555,0.000,0
158105.700,-11.230,-30.273,-27.344,-19.531,0.000,0
158105.704,-8.789,-29.785,-25.879,-18.066,0.000,0
158105.707,-13.184,-31.738,-28.320,-4.395,0.000,0
158105.711,-12.695,-29.297,-30.273,-6.348,0.000,0
158105.715,-10.742,-32.715,-29.297,-22.461,0.000,0
158105.719,-23.438,-33.203,-32.227,-27.832,0.000,0
158105.723,-20.508,-23.926,-28.809,-22.949,0.000,0
158105.727,-14.160,-28.320,-33.203,-22.949,0.000,0
158105.731,-22.461,-26.855,-35.156,-21.484,0.000,0
158105.735,-27.832,-27.344,-26.367,-20.508,0.000,0
158105.739,-21.973,-33.203,-27.832,-20.996,0.000,0
158105.743,-15.137,-34.180,-25.879,-10.742,0.000,0
158105.747,-15.137,-31.738,-20.020,-9.277,0.000,0
158105.750,-16.113,-27.344,-21.484,-7.812,0.000,0
158105.754,-17.090,-27.344,-24.414,-8.301,0.000,0
158105.758,-15.625,-32.715,-25.879,-20.996,0.000,0
158105.762,-19.043,-35.645,-26.855,-21.484,0.000,0
158105.766,-21.484,-41.504,-29.297,-20.996,0.000,0
158105.770,-28.809,-46.875,-31.250,-23.438,0.000,0
158105.774,-36.133,-38.086,-30.273,-13.184,0.000,0
158105.778,-27.344,-30.762,-29.297,-11.719,0.000,0
158105.782,-31.738,-30.762,-38.086,-18.066,0.000,0
158105.786,-30.762,-32.715,-41.992,-12.695,0.000,0
158105.790,-19.043,-28.320,-33.203,-9.277,0.000,0
158105.793,-23.926,-20.020,-16.113,-12.695,0.000,0
158105.797,-25.391,-20.996,-11.230,-26.855,0.000,0
158105.801,-27.832,-27.832,-21.973,-40.527,0.000,0
158105.805,-26.855,-30.273,-21.973,-33.691,0.000,0
158105.809,-22.461,-29.297,-20.996,-21.973,0.000,0
158105.813,-26.367,-30.273,-23.438,-22.461,0.000,0
158105.817,-26.855,-35.645,-22.949,-27.344,0.000,0
158105.821,-32.715,-32.227,-24.414,-33.203,0.000,0
158105.825,-36.621,-20.996,-21.973,-28.809,0.000,0
158105.829,-35.156,-24.414,-20.508,-21.484,0.000,0
158105.832,-34.180,-28.320,-23.438,-26.855,0.000,0
158105.836,-32.715,-30.762,-30.762,-46.387,0.000,0
158105.840,-32.715,-31.250,-34.668,-40.039,0.000,0
158105.844,-25.391,-31.738,-30.762,-20.020,0.000,0
158105.848,-25.879,-22.949,-22.949,-22.461,0.000,0
158105.852,-29.297,-18.066,-19.531,-32.227,0.000,0
158105.856,-23.926,-17.090,-14.160,-29.297,0.000,0
158105.860,-28.809,-20.508,-17.578,-22.949,0.000,0
158105.864,-26.367,-27.832,-19.531,-29.297,0.000,0
158105.868,-11.230,-25.879,-12.207,-21.484,0.000,0
158105.872,-19.043,-22.949,-16.602,-17.578,0.000,0
158105.875,-21.484,-24.902,-19.043,-29.297,0.000,0
158105.879,-17.578,-29.297,-19.531,-36.621,0.000,0
158105.883,-25.879,-31.250,-18.555,-28.809,0.000,0
158105.887,-28.809,-32.227,-22.949,-27.832,0.000,0
158105.891,-24.414,-35.645,-28.320,-35.645,0.000,0
158105.895,-29.297,-32.715,-24.902,-35.645,0.000,0
158105.899,-34.180,-24.414,-31.250,-24.414,0.000,0
158105.903,-25.391,-21.973,-36.133,-36.621,0.000,0
158105.907,-24.414,-29.297,-35.645,-37.598,0.000,0
158105.911,-23.926,-29.297,-33.691,-19.531,0.000,0
158105.915,-21.484,-30.273,-30.762,-26.855,0.000,0
158105.918,-22.949,-26.855,-30.762,-37.109,0.000,0
158105.922,-17.578,-24.902,-31.738,-35.156,0.000,0
158105.926,-12.207,-25.879,-31.250,-29.785,0.000,0
158105.930,-20.996,-22.461,-29.785,-24.902,0.000,0
158105.934,-23.438,-26.855,-32.715,-31.738,0.000,0
158105.938,-20.020,-26.367,-33.203,-29.297,0.000,0
158105.942,-21.973,-30.762,-31.250,-38.086,0.000,0
158105.946,-20.508,-32.227,-27.344,-31.738,0.000,0
158105.950,-19.531,-31.250,-25.391,-19.043,0.000,0
158105.954,-26.367,-31.738,-26.367,-37.598,0.000,0
158105.957,-26.367,-28.320,-32.715,-41.504,0.000,0
158105.961,-26.367,-31.250,-37.598,-35.645,0.000,0
158105.965,-29.297,-27.344,-30.762,-27.832,0.000,0
158105.969,-26.367,-26.855,-21.484,-14.160,0.000,0
158105.973,-28.320,-33.691,-21.484,-23.926,0.000,0
158105.977,-27.832,-32.715,-22.461,-37.598,0.000,0
158105.981,-9.277,-32.715,-28.320,-35.156,0.000,0
158105.985,-7.324,-28.320,-30.273,-20.508,0.000,0
158105.989,-26.367,-28.320,-30.762,-15.137,0.000,0
158105.993,-35.156,-26.855,-25.879,-33.691,0.000,0
158105.997,-27.832,-22.461,-20.996,-31.250,0.000,0
158106.000,-22.461,-25.391,-26.855,-18.555,0.000,0
158106.004,-20.020,-27.344,-27.344,-18.066,0.000,0
158106.008,-18.066,-31.738,-25.879,-7.812,0.000,0
158106.012,-23.438,-27.832,-26.367,-13.184,0.000,0
158106.016,-22.461,-21.484,-25.391,-34.668,0.000,0
158106.020,-10.742,-21.973,-18.555,-24.414,0.000,0
158106.024,-9.766,-24.414,-20.508,-26.855,0.000,0
158106.028,-19.531,-31.250,-28.809,-29.297,0.000,0
158106.032,-17.090,-33.691,-28.320,-19.531,0.000,0
158106.036,-10.742,-23.926,-18.066,-25.879,0.000,0
158106.040,-18.555,-21.973,-18.555,-25.391,0.000,0
158106.043,-23.926,-25.391,-20.508,-20.508,0.000,0
158106.047,-20.996,-22.461,-17.090,-11.719,0.000,0
158106.051,-22.461,-30.273,-20.508,-30.762,0.000,0
158106.055,-30.273,-30.273,-19.531,-29.785,0.000,0
158106.059,-34.180,-22.949,-22.461,-8.301,0.000,0
158106.063,-32.715,-23.926,-28.809,-14.160,0.000,0
158106.067,-24.414,-30.273,-36.133,-11.719,0.000,0
158106.071,-26.855,-30.762,-32.715,-27.344,0.000,0
158106.075,-40.527,-25.391,-29.785,-39.551,0.000,0
158106.079,-34.668,-24.414,-28.809,-27.344,0.000,0
158106.082,-28.320,-22.461,-26.855,-13.184,0.000,0
158106.086,-19.531,-28.809,-29.785,9.277,0.000,0
158106.090,-0.488,-25.391,-18.066,6.836,0.000,0
158106.094,-16.602,-18.066,-19.043,-19.043,0.000,0
158106.098,-35.645,-21.973,-32.227,-23.438,0.000,0
158106.102,-31.738,-20.020,-30.762,-15.625,0.000,0
158106.106,-32.227,-21.484,-30.762,-18.555,0.000,0
158106.110,-35.156,-24.414,-29.785,-34.180,0.000,0
158106.114,-30.762,-16.602,-24.414,-30.762,0.000,0
158106.118,-18.066,-10.742,-21.973,-20.020,0.000,0
158106.122,-13.184,-12.695,-21.484,-9.766,0.000,0
158106.125,-20.508,-12.695,-21.484,-1.465,0.000,0
158106.129,-22.461,-14.648,-15.137,-16.113,0.000,0
158106.133,-19.043,-19.531,-19.531,-21.973,0.000,0
158106.137,-26.367,-29.297,-27.344,-20.020,0.000,0
158106.141,-27.832,-27.832,-20.508,-17.578,0.000,0
158106.145,-16.602,-24.414,-20.020,-17.578,0.000,0
158106.149,-3.906,-22.949,-22.461,-13.672,0.000,0
158106.153,-11.230,-19.531,-26.367,-10.742,0.000,0
158106.157,-23.438,-21.484,-23.926,-19.531,0.000,0
158106.161,-9.277,-27.832,-21.484,-2.930,0.000,0
158106.165,-11.230,-30.273,-23.438,-3.906,0.000,0
158106.168,-27.344,-26.367,-18.555,-21.973,0.000,0
158106.172,-18.555,-26.855,-21.973,-12.695,0.000,0
158106.176,-8.301,-23.438,-25.391,-14.648,0.000,0
158106.180,-15.137,-21.484,-23.926,-22.461,0.000,0
158106.184,-14.160,-22.461,-24.414,-21.973,0.000,0
158106.188,-11.230,-23.926,-20.508,-28.809,0.000,0
158106.192,-15.625,-20.020,-15.137,-31.738,0.000,0
158106.196,-14.160,-16.113,-15.625,-24.902,0.000,0
158106.200,-16.113,-18.555,-21.973,-22.461,0.000,0
158106.204,-14.648,-16.113,-20.020,-20.508,0.000,0
158106.207,-2.930,-15.137,-13.184,-24.414,0.000,0
158106.211,-7.812,-13.672,-11.719,-25.391,0.000,0
158106.215,-12.207,-9.277,-8.301,-21.973,0.000,0
158106.219,-10.254,-10.742,-9.766,-23.438,0.000,0
158106.223,-19.531,-15.625,-13.672,-8.301,0.000,0
158106.227,-27.344,-20.020,-17.578,-7.812,0.000,0
158106.231,-29.785,-25.879,-25.391,-36.621,0.000,0
158106.235,-22.949,-29.785,-25.391,-36.133,0.000,0
158106.239,-15.625,-32.715,-26.855,-32.227,0.000,0
158106.243,-17.090,-36.621,-30.273,-29.785,0.000,0
158106.247,-16.602,-32.227,-23.926,-20.996,0.000,0
158106.250,-21.484,-32.715,-25.879,-30.762,0.000,0
158106.254,-29.785,-32.227,-32.715,-41.504,0.000,0
158106.258,-21.484,-30.273,-21.484,-25.879,0.000,0
158106.262,-10.742,-29.785,-20.508,-13.184,0.000,0
158106.266,-16.113,-27.832,-23.438,-27.344,0.000,0
158106.270,-15.137,-30.762,-14.160,-31.250,0.000,0
158106.274,-6.348,-27.344,-11.719,-16.602,0.000,0
158106.278,-5.859,-25.391,-13.672,-17.090,0.000,0
158106.282,-13.672,-37.109,-21.973,-20.508,0.000,0
158106.286,-25.879,-41.504,-23.926,-15.625,0.000,0
158106.290,-25.391,-34.180,-20.996,-18.066,0.000,0
158106.293,-22.461,-31.738,-27.832,-28.809,0.000,0
158106.297,-21.973,-23.438,-32.227,-21.484,0.000,0
158106.301,-19.531,-22.461,-26.855,-6.836,0.000,0
158106.305,-33.691,-25.879,-25.879,-12.695,0.000,0
158106.309,-39.062,-27.344,-30.762,-19.043,0.000,0
158106.313,-25.879,-27.832,-37.109,-16.602,0.000,0
158106.317,-23.438,-26.367,-36.621,-14.160,0.000,0
158106.321,-25.879,-26.855,-33.203,-17.090,0.000,0
158106.325,-19.531,-19.531,-30.762,-24.902,0.000,0
158106.329,-20.996,-13.672,-30.762,-22.949,0.000,0
158106.332,-17.578,-22.949,-34.180,-20.508,0.000,0
158106.336,-22.461,-28.809,-31.738,-15.625,0.000,0
158106.340,-33.691,-25.879,-30.273,-20.996,0.000,0
158106.344,-26.367,-26.855,-27.344,-16.602,0.000,0
158106.348,-19.043,-26.367,-20.020,-10.254,0.000,0
158106.352,-23.926,-24.414,-21.973,-15.137,0.000,0
158106.356,-12.695,-18.066,-19.531,-9.766,0.000,0
158106.360,-8.789,-16.602,-15.625,-7.324,0.000,0
158106.364,-20.996,-16.113,-19.531,-18.066,0.000,0
158106.368,-13.672,-12.207,-19.531,-22.949,0.000,0
158106.372,-10.254,-14.160,-18.555,-14.648,0.000,0
158106.375,-15.137,-16.113,-23.438,-9.277,0.000,0
158106.379,-16.113,-21.973,-34.180,-12.695,0.000,0
158106.383,-23.926,-28.320,-35.156,-12.695,0.000,0
158106.387,-20.020,-25.879,-28.320,-11.230,0.000,0
158106.391,-14.160,-21.484,-27.832,-10.742,0.000,0
158106.395,-16.113,-20.996,-24.414,-11.230,0.000,0
158106.399,-17.578,-26.855,-29.297,-6.348,0.000,0
158106.403,-18.066,-26.367,-31.250,0.488,0.000,0
158106.407,-21.973,-29.785,-29.297,-20.020,0.000,0
158106.411,-24.414,-32.227,-28.809,-29.297,0.000,0
158106.415,-25.391,-33.203,-30.273,-25.879,0.000,0
158106.418,-27.832,-35.156,-29.785,-28.320,0.000,0
158106.422,-28.320,-33.203,-27.832,-17.578,0.000,0
158106.426,-16.113,-33.691,-21.484,-22.949,0.000,0
158106.430,-4.883,-28.809,-23.926,-26.367,0.000,0
158106.434,-17.090,-26.367,-25.879,-17.090,0.000,0
158106.438,-27.832,-24.902,-17.578,-15.625,0.000,0
158106.442,-21.973,-22.461,-15.625,-17.090,0.000,0
158106.446,-21.484,-26.367,-19.043,-25.879,0.000,0
158106.450,-18.555,-31.250,-21.484,-26.367,0.000,0
158106.454,-18.066,-33.691,-17.090,-23.438,0.000,0
158106.457,-25.879,-27.344,-16.113,-20.508,0.000,0
158106.461,-20.020,-30.762,-17.578,-23.438,0.000,0
158106.465,-21.484,-35.645,-19.531,-27.832,0.000,0
158106.469,-35.156,-31.250,-26.855,-25.879,0.000,0
158106.473,-31.250,-29.297,-25.879,-31.250,0.000,0
158106.477,-20.508,-23.438,-18.066,-25.391,0.000,0
158106.481,-24.414,-23.926,-17.578,-21.484,0.000,0
158106.485,-26.367,-28.320,-20.020,-19.043,0.000,0
158106.489,-27.344,-26.367,-23.438,-20.996,0.000,0
158106.493,-24.414,-23.438,-25.391,-25.879,0.000,0
158106.497,-22.949,-20.508,-26.367,-20.508,0.000,0
158106.500,-24.414,-15.137,-29.297,-26.367,0.000,0
158106.504,-20.020,-18.555,-32.715,-40.527,0.000,0
158106.508,-23.926,-24.902,-31.738,-49.805,0.000,0
158106.512,-21.973,-24.414,-30.762,-39.062,0.000,0
158106.516,-21.484,-19.043,-24.902,-24.414,0.000,0
158106.520,-25.391,-17.090,-26.367,-13.184,0.000,0
158106.524,-28.320,-16.602,-24.414,-19.531,0.000,0
158106.528,-23.926,-12.695,-19.043,-28.809,0.000,0
158106.532,-20.020,-15.625,-17.090,-22.461,0.000,0
158106.536,-28.320,-15.625,-23.438,-27.344,0.000,0
158106.540,-21.484,-15.625,-35.156,-26.367,0.000,0
158106.543,-27.832,-19.531,-25.879,-28.320,0.000,0
158106.547,-35.645,-11.719,-18.066,-28.809,0.000,0
158106.551,-32.715,-9.277,-30.762,-27.344,0.000,0
158106.555,-33.203,-15.137,-32.227,-20.508,0.000,0
158106.559,-29.297,-14.160,-22.461,-20.020,0.000,0
158106.563,-29.297,-10.254,-18.066,-41.016,0.000,0
158106.567,-21.973,-10.254,-25.879,-35.645,0.000,0
158106.571,-14.160,-12.695,-39.062,-12.695,0.000,0
158106.575,-36.621,-6.836,-36.133,-24.414,0.000,0
158106.579,-45.410,4.395,-29.785,-34.180,0.000,0
158106.582,-19.531,13.184,-24.902,-18.066,0.000,0
158106.586,-13.184,20.508,-17.578,-22.461,0.000,0
158106.590,-18.066,31.250,-20.020,-2.441,0.000,0
158106.594,-19.531,24.414,-25.879,1.465,0.000,0
158106.598,-22.949,25.391,-22.949,-12.695,0.000,0
158106.602,-22.949,32.715,-24.902,-24.902,0.000,0
158106.606,-20.996,29.297,-36.133,-18.066,0.000,0
158106.610,-6.348,29.297,-38.086,-6.836,0.000,0
158106.614,-4.883,35.156,-30.273,-21.484,0.000,0
158106.618,-27.344,38.086,-25.879,-25.879,0.000,0
158106.622,-30.762,31.738,-32.227,-28.809,0.000,0
158106.625,-21.484,29.297,-41.016,-27.832,0.000,0
158106.629,-21.973,30.762,-38.574,-25.879,0.000,0
158106.633,-23.438,26.367,-28.320,-27.832,0.000,0
158106.637,-16.602,20.020,-35.645,-19.043,0.000,0
158106.641,-24.902,13.184,-41.992,-32.227,0.000,0
158106.645,-30.273,10.742,-31.738,-41.992,0.000,0
158106.649,-22.949,11.230,-28.809,-28.809,0.000,0
158106.653,-19.531,9.277,-29.785,-10.742,0.000,0
158106.657,-22.461,5.371,-28.320,-11.719,0.000,0
158106.661,-27.832,3.418,-23.926,-36.621,0.000,0
158106.665,-32.227,-1.953,-25.391,-32.227,0.000,0
158106.668,-27.832,0.488,-25.879,-15.137,0.000,0
158106.672,-23.926,2.930,-24.902,-20.020,0.000,0
158106.676,-31.738,-4.883,-23.438,-24.414,0.000,0
158106.680,-25.879,-8.301,-15.625,-31.738,0.000,0
158106.684,-22.461,-8.789,-20.996,-36.133,0.000,0
158106.688,-18.066,-4.883,-20.996,-25.391,0.000,0
158106.692,-15.625,-5.371,-18.555,-12.695,0.000,0
158106.696,-29.785,-15.137,-29.785,-10.742,0.000,0
158106.700,-30.762,-16.602,-27.344,-29.297,0.000,0
158106.704,-24.902,-18.066,-24.902,-39.551,0.000,0
158106.707,-20.996,-20.020,-24.902,-26.367,0.000,0
158106.711,-24.414,-22.949,-22.949,-24.902,0.000,0
158106.715,-31.250,-29.297,-30.273,-19.043,0.000,0
158106.719,-25.391,-30.762,-35.156,-15.625,0.000,0
158106.723,-24.902,-30.762,-29.297,-20.508,0.000,0
158106.727,-24.902,-33.203,-29.297,-23.926,0.000,0
158106.731,-14.160,-36.133,-28.320,-20.508,0.000,0
158106.735,-23.438,-29.785,-20.996,-23.438,0.000,0
158106.739,-23.438,-29.297,-16.602,-21.484,0.000,0
158106.743,-13.184,-30.762,-21.484,-22.461,0.000,0
158106.747,-16.602,-37.109,-28.809,-32.715,0.000,0
158106.750,-18.555,-45.898,-23.438,-27.344,0.000,0
158106.754,-15.625,-42.969,-21.484,-19.043,0.000,0
158106.758,-10.254,-38.086,-20.020,-16.602,0.000,0
158106.762,-15.625,-37.109,-20.508,-16.602,0.000,0
158106.766,-26.855,-38.086,-27.344,-18.555,0.000,0
158106.770,-22.949,-34.180,-25.391,-23.438,0.000,0
158106.774,-17.090,-34.668,-21.484,-24.902,0.000,0
158106.778,-22.461,-39.551,-20.996,-32.715,0.000,0
158106.782,-33.203,-36.621,-22.949,-37.109,0.000,0
158106.786,-36.133,-30.762,-23.438,-34.668,0.000,0
158106.790,-28.320,-32.227,-20.020,-34.668,0.000,0
158106.793,-19.043,-37.109,-21.484,-25.879,0.000,0
158106.797,-24.902,-41.504,-24.902,-30.273,0.000,2
158106.801,-33.691,-41.504,-25.391,-35.645,0.000,0
158106.805,-30.762,-40.039,-28.320,-20.996,0.000,0
158106.809,-33.203,-41.992,-21.973,-24.414,0.000,0
158106.813,-40.527,-37.598,-21.973,-40.527,0.000,0
158106.817,-35.645,-38.086,-27.832,-40.527,0.000,0
158106.821,-26.855,-41.016,-22.461,-38.086,0.000,0
158106.825,-28.320,-37.109,-21.973,-36.133,0.000,0
158106.829,-29.297,-34.180,-25.391,-29.297,0.000,0
158106.832,-21.484,-37.109,-23.926,-12.207,0.000,0
158106.836,-23.438,-35.645,-20.996,-18.066,0.000,0
158106.840,-25.879,-28.809,-17.090,-20.508,0.000,0
158106.844,-23.926,-30.273,-14.648,-18.555,0.000,0
158106.848,-24.902,-33.691,-17.090,-32.227,0.000,0
158106.852,-27.832,-31.250,-16.113,-27.344,0.000,0
158106.856,-31.250,-38.574,-18.066,-25.879,0.000,0
158106.860,-30.273,-38.574,-25.879,-33.203,0.000,0
158106.864,-26.367,-37.109,-29.297,-27.344,0.000,0
158106.868,-31.738,-42.969,-25.879,-14.160,0.000,0
158106.872,-27.344,-42.480,-26.367,-14.160,0.000,0
158106.875,-19.043,-37.109,-22.461,-27.832,0.000,0
158106.879,-24.902,-39.551,-22.949,-30.762,0.000,0
158106.883,-19.531,-37.598,-25.391,-27.832,0.000,0
158106.887,-18.555,-32.715,-23.926,-30.273,0.000,0
158106.891,-17.090,-32.227,-21.484,-18.555,0.000,0
158106.895,-18.555,-28.809,-14.160,-13.184,0.000,0
158106.899,-28.320,-36.133,-20.508,-21.484,0.000,0
158106.903,-27.832,-40.527,-30.762,-18.555,0.000,0
158106.907,-20.020,-40.039,-28.320,-11.719,0.000,0
158106.911,-13.184,-37.109,-24.414,-2.930,0.000,0
158106.915,-15.137,-30.762,-24.902,-13.672,0.000,0
158106.918,-15.137,-31.738,-29.297,-14.648,0.000,0
158106.922,-15.625,-38.086,-35.156,-1.465,0.000,0
158106.926,-17.578,-41.016,-30.762,-10.254,0.000,0
158106.930,-20.996,-38.086,-33.691,-8.789,0.000,0
158106.934,-24.414,-39.551,-38.086,-18.555,0.000,0
158106.938,-23.438,-43.457,-33.691,-30.762,0.000,0
158106.942,-33.203,-40.527,-32.227,-23.926,0.000,0
158106.946,-35.156,-33.691,-24.414,-17.090,0.000,0
158106.950,-32.227,-36.621,-23.438,-11.719,0.000,0
158106.954,-29.297,-39.062,-31.738,-12.695,0.000,0
158106.957,-20.020,-35.645,-32.227,-23.438,0.000,0
158106.961,-15.137,-28.809,-27.832,-26.367,0.000,0
158106.965,-15.137,-33.203,-26.855,-21.973,0.000,0
158106.969,-23.438,-39.062,-32.227,-19.043,0.000,0
158106.973,-27.344,-32.715,-25.391,-17.578,0.000,0
158106.977,-22.461,-31.250,-21.973,-23.926,0.000,0
158106.981,-11.230,-27.344,-24.902,-17.578,0.000,0
158106.985,-10.254,-26.367,-19.531,-12.207,0.000,0
158106.989,-19.043,-31.738,-17.090,-6.348,0.000,0
158106.993,-19.531,-29.297,-16.113,-7.812,0.000,0
158106.997,-21.973,-28.809,-20.020,-21.973,0.000,0
158107.000,-23.438,-31.738,-20.020,-15.137,0.000,0
158107.004,-25.879,-32.227,-16.113,-14.648,0.000,0
158107.008,-18.066,-27.832,-24.414,-20.996,0.000,0
158107.012,-15.625,-32.227,-25.391,-21.484,0.000,0
158107.016,-26.855,-35.645,-19.043,-23.926,0.000,0
158107.020,-26.367,-25.879,-18.555,-17.090,0.000,0
158107.024,-21.484,-25.879,-20.020,-20.508,0.000,0
158107.028,-20.508,-33.203,-21.973,-24.902,0.000,0
158107.032,-22.949,-35.645,-23.438,-27.344,0.000,0
158107.036,-27.344,-32.715,-26.855,-39.551,0.000,0
158107.040,-18.066,-34.668,-23.926,-28.809,0.000,0
158107.043,-17.090,-30.762,-21.484,-14.160,0.000,0
158107.047,-17.578,-21.973,-21.484,-10.742,0.000,0
158107.051,-26.855,-30.273,-17.578,-22.461,0.000,0
158107.055,-37.598,-41.504,-27.344,-30.762,0.000,0
158107.059,-29.785,-40.039,-34.180,-31.250,0.000,0
158107.063,-22.949,-33.203,-26.367,-41.504,0.000,0
158107.067,-19.531,-36.621,-27.344,-31.738,0.000,0
158107.071,-22.461,-35.156,-32.715,-20.020,0.000,0
158107.075,-33.691,-30.762,-37.109,-37.109,0.000,0
158107.079,-32.227,-33.203,-39.062,-38.574,0.000,0
158107.082,-27.832,-38.086,-41.992,-25.879,0.000,0
158107.086,-25.879,-35.645,-34.668,-23.438,0.000,0
158107.090,-26.855,-31.738,-23.926,-21.484,0.000,0
158107.094,-35.156,-36.133,-22.461,-25.391,0.000,0
158107.098,-26.367,-41.504,-25.391,-20.996,0.000,0
158107.102,-15.137,-35.645,-32.715,-15.137,0.000,0
158107.106,-17.578,-31.250,-37.598,-15.625,0.000,0
158107.110,-25.391,-34.180,-33.203,-5.371,0.000,0
158107.114,-28.809,-33.203,-32.715,-14.648,0.000,0
158107.118,-26.855,-28.809,-37.598,-21.973,0.000,0
158107.122,-21.973,-30.762,-29.297,-12.695,0.000,0
158107.125,-18.555,-24.414,-16.602,-12.695,0.000,0
158107.129,-18.066,-14.160,-12.695,-7.324,0.000,0
158107.133,-19.043,-17.090,-15.137,-11.719,0.000,0
158107.137,-18.066,-18.555,-17.578,-23.926,0.000,0
158107.141,-19.531,-20.996,-21.484,-23.438,0.000,0
158107.145,-21.973,-22.461,-25.391,-14.160,0.000,0
158107.149,-20.508,-27.344,-33.203,-15.625,0.000,0
158107.153,-28.320,-29.785,-30.762,-24.414,0.000,0
158107.157,-31.738,-27.832,-27.832,-19.531,0.000,0
158107.161,-30.762,-26.367,-35.156,-22.949,0.000,0
158107.165,-29.297,-26.855,-33.203,-29.785,0.000,0
158107.168,-24.414,-22.949,-23.438,-22.949,0.000,0
158107.172,-23.438,-20.996,-20.020,-29.785,0.000,0
158107.176,-16.113,-23.926,-21.484,-33.691,0.000,0
158107.180,-23.926,-27.344,-26.367,-26.367,0.000,0
158107.184,-31.250,-27.344,-23.926,-12.207,0.000,0
158107.188,-25.391,-21.973,-22.461,-18.555,0.000,0
158107.192,-25.879,-26.855,-24.902,-41.504,0.000,0
158107.196,-21.973,-25.391,-22.461,-30.762,0.000,0
158107.200,-23.926,-20.996,-20.508,-26.855,0.000,0
158107.204,-25.391,-20.508,-15.625,-39.062,0.000,0
158107.207,-19.043,-20.508,-16.113,-22.461,0.000,0
158107.211,-23.926,-27.344,-19.043,-28.809,0.000,0
158107.215,-31.250,-33.203,-21.973,-42.480,0.000,0
158107.219,-31.250,-31.738,-21.973,-30.273,0.000,0
158107.223,-28.809,-32.715,-21.484,-19.531,0.000,0
158107.227,-31.738,-31.250,-24.414,-15.137,0.000,0
158107.231,-33.203,-27.344,-27.344,-17.090,0.000,0
158107.235,-32.715,-31.738,-32.227,-31.250,0.000,0
158107.239,-28.809,-27.832,-28.809,-30.273,0.000,0
158107.243,-31.250,-24.414,-22.461,-24.902,0.000,0
158107.247,-39.062,-26.367,-22.949,-21.484,0.000,0
158107.250,-27.344,-27.832,-24.414,-20.508,0.000,0
158107.254,-23.926,-23.926,-23.926,-21.484,0.000,0
158107.258,-32.227,-22.949,-28.809,-7.812,0.000,0
158107.262,-23.438,-23.438,-26.367,-8.301,0.000,0
158107.266,-15.625,-23.926,-22.461,-19.043,0.000,0
158107.270,-25.391,-28.320,-19.043,-25.391,0.000,0
158107.274,-26.855,-29.297,-20.020,-36.133,0.000,0
158107.278,-38.574,-32.715,-32.715,-49.316,0.000,0
158107.282,-45.410,-34.668,-38.574,-41.504,0.000,0
158107.286,-30.273,-26.367,-30.762,-32.715,0.000,0
158107.290,-30.273,-23.926,-21.973,-31.250,0.000,0
158107.293,-27.344,-28.320,-24.414,-26.855,0.000,0
158107.297,-24.414,-26.367,-25.391,-27.832,0.000,0
158107.301,-37.109,-25.391,-18.066,-29.297,0.000,0
158107.305,-36.133,-28.809,-20.996,-35.645,0.000,0
158107.309,-24.902,-24.414,-21.484,-41.016,0.000,0
158107.313,-29.297,-20.996,-20.996,-41.992,0.000,0
158107.317,-32.227,-19.531,-25.879,-28.320,0.000,0
158107.321,-25.391,-21.973,-25.879,-22.461,0.000,0
158107.325,-24.414,-26.367,-28.320,-29.785,0.000,0
158107.329,-25.879,-33.203,-31.250,-30.762,0.000,0
158107.332,-38.086,-36.133,-30.273,-37.598,0.000,0
158107.336,-37.109,-30.273,-29.297,-38.086,0.000,0
158107.340,-25.391,-27.344,-31.738,-34.668,0.000,0
158107.344,-31.250,-28.320,-33.203,-37.109,0.000,0
158107.348,-38.086,-23.438,-26.855,-39.062,0.000,0
158107.352,-36.133,-25.879,-26.367,-35.645,0.000,0
158107.356,-36.621,-31.250,-32.715,-42.480,0.000,0
158107.360,-35.156,-29.297,-31.738,-35.645,0.000,0
158107.364,-36.133,-31.250,-31.250,-23.438,0.000,0
158107.368,-37.109,-30.273,-31.250,-29.785,0.000,0
158107.372,-33.203,-28.320,-27.832,-34.668,0.000,0
158107.375,-35.645,-27.344,-29.785,-33.691,0.000,1
158107.379,-36.621,-23.438,-29.297,-26.367,0.000,0
158107.383,-25.879,-31.738,-32.227,-25.391,0.000,0
158107.387,-22.949,-36.133,-33.203,-31.738,0.000,0
158107.391,-27.832,-26.367,-26.367,-40.039,0.000,0
158107.395,-28.809,-25.391,-21.484,-39.062,0.000,0
158107.399,-27.344,-24.902,-21.973,-22.949,0.000,0
158107.403,-16.113,-25.879,-25.391,-5.859,0.000,0
158107.407,-15.137,-26.855,-21.973,-16.113,0.000,0
158107.411,-25.391,-30.273,-22.949,-39.551,0.000,0
158107.415,-29.297,-31.738,-29.297,-38.574,0.000,0
158107.418,-22.949,-27.832,-26.855,-29.297,0.000,0
158107.422,-22.461,-26.367,-25.391,-20.508,0.000,0
158107.426,-25.391,-28.320,-21.484,-18.066,0.000,0
158107.430,-13.184,-30.762,-21.973,-31.738,0.000,0
158107.434,-12.695,-31.250,-28.320,-27.344,0.000,0
158107.438,-14.648,-28.320,-26.367,-16.113,0.000,0
158107.442,-15.137,-20.996,-24.414,-19.531,0.000,0
158107.446,-21.973,-21.484,-25.879,-25.391,0.000,0
158107.450,-32.715,-23.926,-22.949,-29.785,0.000,0
158107.454,-29.297,-21.973,-25.391,-20.996,0.000,0
158107.457,-20.508,-23.926,-27.832,-22.461,0.000,0
158107.461,-19.531,-25.391,-27.344,-18.555,0.000,0
158107.465,-26.367,-22.949,-21.484,-13.672,0.000,0
158107.469,-26.855,-19.531,-16.113,-28.320,0.000,0
158107.473,-20.996,-20.996,-21.484,-27.832,0.000,0
158107.477,-28.809,-20.996,-20.020,-18.066,0.000,0
158107.481,-31.250,-20.508,-18.555,-15.137,0.000,0
158107.485,-33.203,-27.832,-24.902,-20.020,0.000,0
158107.489,-35.645,-30.762,-26.855,-31.250,0.000,0
158107.493,-38.574,-28.320,-23.438,-36.133,0.000,0
158107.497,-41.016,-26.855,-20.996,-36.621,0.000,0
158107.500,-32.715,-21.973,-18.066,-23.926,0.000,0
158107.504,-16.113,-18.066,-9.277,-17.578,0.000,0
158107.508,-11.230,-14.160,-9.766,-24.902,0.000,0
158107.512,-14.160,-15.625,-22.949,-14.648,0.000,0
158107.516,-17.578,-20.996,-28.809,-19.043,0.000,0
158107.520,-23.926,-21.484,-24.414,-23.438,0.000,0
158107.524,-19.531,-22.949,-20.996,-29.785,0.000,0
158107.528,-20.020,-20.996,-17.090,-39.551,0.000,0
158107.532,-32.227,-20.996,-21.973,-35.156,0.000,0
158107.536,-24.902,-19.043,-19.531,-21.484,0.000,0
158107.540,-19.531,-17.578,-16.113,-15.625,0.000,0
158107.543,-21.484,-21.484,-19.531,-19.043,0.000,0
158107.547,-23.926,-23.926,-23.438,-22.461,0.000,0
158107.551,-25.879,-19.531,-21.973,-26.367,0.000,0
158107.555,-20.996,-20.020,-24.414,-22.949,0.000,0
158107.559,-23.926,-22.949,-27.832,-7.812,0.000,0
158107.563,-25.879,-24.414,-27.344,-7.324,0.000,0
158107.567,-18.555,-29.297,-27.832,-26.855,0.000,0
158107.571,-22.949,-26.367,-22.949,-25.879,0.000,0
158107.575,-30.762,-20.996,-23.438,-10.254,0.000,0
158107.579,-24.414,-23.438,-31.738,-14.160,0.000,0
158107.582,-29.297,-22.949,-27.344,-21.484,0.000,0
158107.586,-32.715,-18.066,-18.555,-17.578,0.000,0
158107.590,-22.461,-19.531,-28.320,-19.531,0.000,0
158107.594,-22.461,-20.508,-27.344,-28.809,0.000,0
158107.598,-27.344,-23.926,-20.508,-23.438,0.000,0
158107.602,-30.273,-24.414,-25.879,-9.277,0.000,0
158107.606,-27.832,-19.043,-28.809,-18.066,0.000,0
158107.610,-20.508,-16.602,-28.320,-29.297,0.000,0
158107.614,-22.461,-18.555,-29.785,-19.531,0.000,0
158107.618,-26.367,-23.926,-23.926,-17.090,0.000,0
158107.622,-21.484,-20.996,-20.508,-23.926,0.000,0
158107.625,-14.648,-19.043,-24.414,-22.949,0.000,0
158107.629,-14.160,-19.531,-27.344,-20.996,0.000,0
158107.633,-15.625,-20.508,-24.902,-21.973,0.000,0
158107.637,-13.672,-24.902,-23.438,-2.441,0.000,0
158107.641,-16.602,-28.320,-31.250,-1.953,0.000,0
158107.645,-23.438,-23.926,-29.785,-9.766,0.000,0
158107.649,-17.090,-20.020,-27.832,3.418,0.000,0
158107.653,-10.254,-22.949,-30.273,-10.742,0.000,0
158107.657,-13.672,-29.297,-26.855,-25.391,0.000,0
158107.661,-22.461,-30.762,-29.785,-8.789,0.000,0
158107.665,-27.832,-34.180,-33.203,-6.348,0.000,0
158107.668,-23.926,-29.785,-37.109,-17.578,0.000,0
158107.672,-16.602,-25.391,-37.109,-27.832,0.000,0
158107.676,-15.137,-28.320,-28.809,-23.438,0.000,0
158107.680,-25.879,-33.203,-29.785,-26.367,0.000,0
158107.684,-24.414,-27.832,-27.344,-32.715,0.000,0
158107.688,-9.277,-22.461,-19.043,-12.695,0.000,0
158107.692,-4.883,-25.391,-19.043,-8.301,0.000,0
158107.696,-7.812,-21.973,-22.461,-18.555,0.000,0
158107.700,-7.324,-18.066,-27.832,-11.719,0.000,0
158107.704,-4.883,-17.578,-27.344,-13.184,0.000,0
158107.707,-10.742,-15.625,-20.020,-13.184,0.000,0
158107.711,-8.301,-18.066,-23.438,-2.930,0.000,0
158107.715,-1.465,-15.625,-18.066,17.578,0.000,0
158107.719,-6.836,-15.137,-11.719,23.926,0.000,0
158107.723,-8.789,-19.531,-10.742,12.695,0.000,0
158107.727,-8.789,-17.578,-16.113,-6.348,0.000,0
158107.731,-10.254,-15.137,-20.996,-23.438,0.000,0
158107.735,-14.160,-14.160,-15.137,-28.809,0.000,0
158107.739,-22.949,-17.090,-13.184,-15.137,0.000,0
158107.743,-23.926,-21.484,-20.508,-20.508,0.000,0
158107.747,-29.297,-27.832,-28.809,-41.016,0.000,0
158107.750,-31.738,-30.273,-34.180,-31.250,0.000,0
158107.754,-22.949,-22.461,-28.320,-21.973,0.000,0
158107.758,-26.367,-21.484,-25.391,-30.762,0.000,0
158107.762,-35.645,-26.367,-31.250,-24.414,0.000,0
158107.766,-35.645,-25.879,-25.879,-21.484,0.000,0
158107.770,-29.785,-24.414,-22.461,-30.273,0.000,0
158107.774,-15.137,-21.973,-25.391,-20.996,0.000,0
158107.778,-14.648,-20.996,-20.508,-5.371,0.000,0
158107.782,-26.855,-15.137,-20.020,-6.348,0.000,0
158107.786,-29.297,-14.648,-27.344,-6.836,0.000,0
158107.790,-26.367,-17.578,-23.438,-5.859,0.000,0
158107.793,-23.926,-19.043,-15.137,-7.812,0.000,0
158107.797,-24.902,-14.160,-18.555,-3.906,0.000,0
158107.801,-29.785,-15.625,-23.438,-9.277,0.000,0
158107.805,-27.344,-25.879,-24.414,-12.207,0.000,0
158107.809,-23.438,-18.555,-23.438,-8.789,0.000,0
158107.813,-21.484,-10.742,-20.020,-20.996,0.000,0
158107.817,-19.043,-17.090,-17.578,-18.555,0.000,0
158107.821,-17.578,-17.090,-17.578,-7.324,0.000,0
158107.825,-13.672,-13.672,-20.508,-18.066,0.000,0
158107.829,-14.160,-18.066,-26.367,-14.648,0.000,0
158107.832,-9.277,-22.461,-27.832,-12.695,0.000,0
158107.836,-8.301,-20.508,-20.508,-18.066,0.000,0
158107.840,-11.719,-22.949,-15.137,-19.531,0.000,0
158107.844,-6.348,-21.484,-14.160,-25.391,0.000,0
158107.848,-6.348,-22.461,-20.020,-20.020,0.000,0
158107.852,-5.859,-26.367,-23.926,-9.277,0.000,0
158107.856,0.977,-21.484,-21.484,-12.207,0.000,0
158107.860,-8.301,-24.902,-19.531,-30.762,0.000,0
158107.864,-18.066,-26.367,-15.625,-38.086,0.000,0
158107.868,-20.020,-32.227,-20.996,-30.273,0.000,0
158107.872,-18.555,-36.621,-23.438,-27.832,0.000,0
158107.875,-10.254,-25.879,-18.555,-28.809,0.000,0
158107.879,-14.648,-25.391,-20.508,-17.090,0.000,0
158107.883,-21.484,-28.809,-17.578,-4.395,0.000,0
158107.887,-20.508,-26.855,-15.625,-4.883,0.000,0
158107.891,-15.625,-25.879,-17.090,-9.277,0.000,0
158107.895,-19.043,-34.180,-25.879,-15.137,0.000,0
158107.899,-19.531,-33.203,-23.438,-23.438,0.000,0
158107.903,-20.996,-24.414,-11.719,-30.273,0.000,0
158107.907,-21.973,-26.855,-21.484,-27.832,0.000,0
158107.911,-15.625,-29.785,-23.926,-30.762,0.000,0
158107.915,-10.254,-27.344,-20.020,-30.273,0.000,0
158107.918,-10.254,-27.344,-21.973,-19.043,0.000,0
158107.922,-9.277,-31.738,-18.555,-27.832,0.000,0
158107.926,-14.648,-28.809,-14.160,-29.297,0.000,0
158107.930,-21.973,-26.367,-12.695,-20.020,0.000,0
158107.934,-23.926,-29.297,-12.695,-25.879,0.000,0
158107.938,-23.926,-29.785,-17.578,-30.762,0.000,0
158107.942,-31.738,-29.785,-22.949,-40.039,0.000,0
158107.946,-39.062,-29.785,-27.344,-41.992,0.000,0
158107.950,-33.691,-25.879,-19.043,-26.855,0.000,0
158107.954,-22.949,-24.902,-16.602,-17.578,0.000,0
158107.957,-20.020,-26.855,-25.391,-13.672,0.000,0
158107.961,-23.438,-26.855,-24.902,-24.902,0.000,0
158107.965,-23.926,-31.738,-31.738,-23.926,0.000,0
158107.969,-23.438,-35.156,-36.621,-17.578,0.000,0
158107.973,-22.461,-36.133,-34.180,-29.785,0.000,0
158107.977,-24.902,-28.809,-27.344,-23.926,0.000,0
158107.981,-25.391,-22.949,-22.461,-20.020,0.000,0
158107.985,-24.414,-26.367,-23.926,-35.645,0.000,0
158107.989,-20.996,-28.809,-29.785,-35.156,0.000,0
158107.993,-20.020,-18.555,-20.996,-13.184,0.000,0
158107.997,-17.578,-11.230,-19.043,-5.859,0.000,0
158108.000,-8.789,-21.973,-21.973,-9.766,0.000,0
158108.004,-5.859,-21.484,-15.625,-9.277,0.000,0
158108.008,-10.254,-19.043,-14.648,-9.766,0.000,0
158108.012,-12.207,-19.531,-21.484,-12.695,0.000,1
158108.016,-15.137,-16.602,-18.066,-20.996,0.000,0
158108.020,-27.832,-22.949,-16.113,-29.297,0.000,0
158108.024,-34.180,-28.809,-22.461,-31.250,0.000,0
158108.028,-28.320,-24.414,-22.949,-15.137,0.000,0
158108.032,-29.785,-20.020,-25.391,-16.602,0.000,0
158108.036,-25.391,-21.973,-25.879,-29.785,0.000,0
158108.040,-26.855,-27.832,-24.902,-30.273,0.000,0
158108.043,-29.785,-28.320,-28.320,-30.762,0.000,0
158108.047,-25.879,-21.484,-27.344,-24.414,0.000,0
158108.051,-24.902,-20.508,-21.973,-25.391,0.000,0
158108.055,-24.902,-26.367,-27.344,-40.039,0.000,0
158108.059,-24.414,-26.367,-35.156,-40.527,0.000,0
158108.063,-26.367,-23.438,-28.320,-41.992,0.000,0
158108.067,-29.297,-24.414,-29.785,-37.598,0.000,0
158108.071,-23.926,-26.367,-31.250,-26.855,0.000,0
158108.075,-23.438,-27.344,-25.879,-26.367,0.000,0
158108.079,-22.949,-27.344,-31.250,-26.855,0.000,0
158108.082,-19.531,-27.344,-30.762,-33.691,0.000,0
158108.086,-15.137,-29.297,-27.832,-28.809,0.000,0
158108.090,-8.301,-27.832,-29.785,-18.066,0.000,0
158108.094,-19.043,-26.367,-24.902,-20.508,0.000,0
158108.098,-26.367,-24.414,-18.066,-26.855,0.000,0
158108.102,-20.020,-27.344,-23.438,-20.020,0.000,0
158108.106,-16.113,-27.344,-29.297,-6.348,0.000,0
158108.110,-17.090,-23.926,-26.855,-17.578,0.000,0
158108.114,-19.531,-24.414,-27.832,-22.949,0.000,0
158108.118,-18.066,-21.973,-26.855,-11.230,0.000,0
158108.122,-21.973,-21.973,-25.879,-23.438,0.000,0
158108.125,-28.320,-22.949,-25.391,-29.785,0.000,0
158108.129,-26.855,-25.391,-21.484,-17.090,0.000,0
158108.133,-31.738,-26.855,-28.809,-24.902,0.000,0
158108.137,-31.250,-25.879,-25.391,-30.273,0.000,0
158108.141,-25.879,-28.320,-17.090,-24.414,0.000,0
158108.145,-27.832,-26.855,-20.996,-17.090,0.000,0
158108.149,-28.809,-23.438,-21.973,-19.531,0.000,0
158108.153,-26.855,-30.273,-20.996,-14.160,0.000,0
158108.157,-19.043,-29.297,-15.625,-17.578,0.000,0
158108.161,-14.648,-26.367,-19.531,-28.809,0.000,0
158108.165,-22.461,-27.344,-26.855,-17.090,0.000,0
158108.168,-22.949,-28.809,-20.996,-9.277,0.000,0
158108.172,-12.207,-30.762,-19.043,-24.414,0.000,0
158108.176,-6.348,-34.668,-20.996,-24.414,0.000,0
158108.180,-14.648,-33.203,-16.602,-17.090,0.000,0
158108.184,-16.602,-21.973,-17.090,-13.672,0.000,0
158108.188,-8.301,-20.996,-19.043,-8.301,0.000,0
158108.192,-11.719,-20.996,-20.508,-10.254,0.000,0
158108.196,-19.531,-23.438,-22.461,-19.531,0.000,0
158108.200,-22.461,-26.367,-23.926,-27.832,0.000,0
158108.204,-20.996,-20.996,-24.902,-22.949,0.000,0
158108.207,-17.090,-22.461,-27.832,-10.742,0.000,0
158108.211,-9.766,-20.996,-27.344,-5.859,0.000,0
158108.215,-12.207,-18.555,-22.461,-13.184,0.000,0
158108.219,-12.207,-11.230,-15.137,-12.207,0.000,0
158108.223,1.953,-6.348,-17.578,-14.648,0.000,0
158108.227,-7.324,-20.020,-23.438,-26.855,0.000,0
158108.231,-12.207,-17.090,-17.090,-14.648,0.000,0
158108.235,-12.695,-11.719,-10.742,6.836,0.000,0
158108.239,-11.230,-20.020,-14.160,-4.883,0.000,0
158108.243,-7.812,-21.973,-19.043,-19.043,0.000,0
158108.247,-7.324,-18.555,-17.578,-6.836,0.000,0
158108.250,-8.301,-16.113,-20.020,0.000,0.000,0
158108.254,-15.625,-17.090,-21.484,-20.020,0.000,0
158108.258,-20.020,-20.020,-18.066,-34.668,0.000,0
158108.262,-24.902,-24.414,-17.578,-20.020,0.000,0
158108.266,-31.738,-32.227,-25.391,-27.344,0.000,0
158108.270,-32.715,-34.668,-29.785,-28.320,0.000,0
158108.274,-38.574,-31.738,-33.203,-24.414,0.000,0
158108.278,-43.945,-32.227,-31.738,-33.203,0.000,0
158108.282,-37.598,-34.180,-32.715,-28.320,0.000,0
158108.286,-29.297,-30.273,-33.203,-15.625,0.000,0
158108.290,-26.367,-21.484,-24.414,-22.461,0.000,0
158108.293,-29.785,-20.996,-25.879,-35.156,0.000,0
158108.297,-32.227,-27.832,-34.668,-35.156,0.000,0
158108.301,-32.227,-26.367,-34.180,-31.738,0.000,0
158108.305,-27.344,-23.438,-31.738,-37.598,0.000,0
158108.309,-23.926,-25.391,-31.738,-28.320,0.000,0
158108.313,-25.391,-23.926,-31.738,-24.414,0.000,0
158108.317,-18.555,-23.438,-29.785,-29.297,0.000,0
158108.321,-29.297,-24.902,-25.879,-20.020,0.000,0
158108.325,-42.969,-25.391,-23.926,-17.578,0.000,0
158108.329,-34.180,-19.531,-27.832,-17.090,0.000,0
158108.332,-29.785,-21.484,-31.250,-14.648,0.000,0
158108.336,-32.715,-29.785,-29.785,-26.855,0.000,0
158108.340,-30.273,-25.879,-30.273,-31.250,0.000,0
158108.344,-26.855,-23.926,-31.250,-30.273,0.000,0
158108.348,-28.809,-21.973,-25.391,-20.508,0.000,0
158108.352,-32.227,-18.555,-18.555,-15.137,0.000,0
158108.356,-29.297,-19.043,-20.508,-16.113,0.000,0
158108.360,-23.438,-24.414,-29.785,-10.254,0.000,0
158108.364,-28.320,-28.809,-36.133,-21.484,0.000,0
158108.368,-39.062,-28.320,-27.832,-25.391,0.000,0
158108.372,-34.668,-24.902,-24.902,-21.973,0.000,0
158108.375,-30.762,-24.902,-24.414,-28.809,0.000,0
158108.379,-35.645,-20.508,-25.391,-26.855,0.000,0
158108.383,-32.227,-20.020,-32.227,-34.668,0.000,0
158108.387,-24.902,-17.090,-32.715,-33.203,0.000,0
158108.391,-24.414,-18.555,-31.250,-20.996,0.000,0
158108.395,-30.762,-23.438,-31.250,-28.809,0.000,0
158108.399,-32.715,-20.508,-30.762,-29.785,0.000,0
158108.403,-27.832,-21.973,-33.203,-23.438,0.000,0
158108.407,-23.438,-19.531,-39.062,-24.902,0.000,0
158108.411,-30.273,-24.414,-35.645,-29.297,0.000,0
158108.415,-35.156,-27.344,-25.879,-35.156,0.000,0
158108.418,-20.508,-21.973,-20.996,-21.484,0.000,0
158108.422,-18.555,-28.320,-23.926,-12.207,0.000,0
158108.426,-29.785,-32.227,-29.297,-24.414,0.000,0
158108.430,-25.391,-25.879,-26.367,-22.949,0.000,0
158108.434,-15.137,-22.949,-24.414,-21.973,0.000,0
158108.438,-14.648,-19.531,-27.344,-16.113,0.000,0
158108.442,-9.277,-27.344,-28.320,-4.883,0.000,0
158108.446,-16.602,-35.156,-35.645,-8.789,0.000,0
158108.450,-34.668,-27.344,-38.574,-4.883,0.000,0
158108.454,-35.156,-26.855,-29.785,-13.184,0.000,0
158108.457,-36.621,-24.902,-27.344,-25.879,0.000,0
158108.461,-32.227,-21.973,-26.367,-20.996,0.000,0
158108.465,-27.832,-24.902,-20.996,-18.555,0.000,0
158108.469,-30.762,-30.762,-19.531,-16.113,0.000,0
158108.473,-29.297,-31.738,-22.461,-28.320,0.000,0
158108.477,-31.738,-25.879,-27.832,-41.992,0.000,0
158108.481,-35.156,-28.320,-32.715,-36.133,0.000,0
158108.485,-27.344,-32.715,-33.203,-25.391,0.000,0
158108.489,-27.344,-29.785,-30.762,-20.996,0.000,0
158108.493,-30.273,-27.832,-24.414,-34.668,0.000,0
158108.497,-26.855,-27.344,-25.391,-22.949,0.000,0
158108.500,-27.832,-29.297,-30.273,-12.207,0.000,0
158108.504,-24.902,-31.738,-33.691,-31.250,0.000,0
158108.508,-17.578,-29.785,-39.062,-21.484,0.000,0
158108.512,-14.160,-27.344,-29.297,-23.926,0.000,0
158108.516,-22.461,-27.344,-24.902,-39.062,0.000,0
158108.520,-27.832,-32.227,-34.668,-31.738,0.000,0
158108.524,-20.020,-30.762,-34.668,-26.855,0.000,0
158108.528,-14.160,-25.391,-27.344,-20.996,0.000,0
158108.532,-8.789,-23.926,-21.973,-25.391,0.000,0
158108.536,-11.719,-28.809,-24.414,-26.367,0.000,0
158108.540,-20.020,-28.320,-24.414,-21.484,0.000,0
158108.543,-15.137,-23.438,-25.879,-10.254,0.000,0
158108.547,-9.277,-27.344,-34.180,12.207,0.000,0
158108.551,-19.531,-25.879,-25.879,-17.090,0.000,0
158108.555,-30.273,-22.949,-27.344,-48.340,0.000,0
158108.559,-28.320,-27.344,-36.133,-32.227,0.000,0
158108.563,-26.367,-18.066,-31.738,-26.855,0.000,0
158108.567,-23.438,-18.066,-33.691,-30.273,0.000,0
158108.571,-35.645,-24.902,-30.762,-35.156,0.000,0
158108.575,-37.598,-20.996,-24.414,-36.133,0.000,0
158108.579,-31.250,-19.531,-32.715,-29.785,0.000,0
158108.582,-29.297,-23.926,-37.109,-24.902,0.000,0
158108.586,-20.996,-22.949,-30.762,-22.949,0.000,0
158108.590,-17.578,-20.996,-25.879,-20.020,0.000,0
158108.594,-24.902,-27.832,-29.785,-23.926,0.000,0
158108.598,-22.949,-24.414,-26.367,-23.926,0.000,0
158108.602,-20.020,-20.508,-19.531,-26.367,0.000,0
158108.606,-28.320,-24.414,-25.879,-24.902,0.000,0
158108.610,-28.320,-27.832,-29.785,-24.902,0.000,0
158108.614,-24.902,-22.461,-27.832,-28.809,0.000,0
158108.618,-24.902,-22.461,-29.297,-21.973,0.000,0
158108.622,-20.508,-27.832,-25.879,-20.508,0.000,0
158108.625,-15.137,-23.438,-26.367,-13.184,0.000,0
158108.629,-20.508,-23.926,-28.809,-24.414,0.000,0
158108.633,-20.996,-22.461,-24.414,-30.762,0.000,0
158108.637,-22.949,-22.949,-21.484,-9.277,0.000,0
158108.641,-21.973,-24.902,-23.926,-14.648,0.000,0
158108.645,-13.672,-22.461,-21.484,-20.996,0.000,0
158108.649,-19.531,-21.973,-13.184,-12.695,0.000,0
158108.653,-31.738,-18.066,-11.230,-26.367,0.000,0
158108.657,-21.973,-13.672,-15.137,-29.785,0.000,0
158108.661,-21.973,-17.578,-18.066,-23.926,0.000,2
158108.665,-31.738,-21.484,-24.414,-26.855,0.000,0
158108.668,-20.508,-23.926,-24.414,-28.809,0.000,0
158108.672,-12.207,-31.250,-26.367,-26.855,0.000,0
158108.676,-13.184,-27.832,-27.344,-18.555,0.000,0
158108.680,-10.742,-18.066,-24.414,-17.090,0.000,0
158108.684,-20.020,-17.090,-19.043,-13.672,0.000,0
158108.688,-22.949,-18.555,-20.508,-18.066,0.000,0
158108.692,-25.879,-23.926,-31.250,-34.180,0.000,0
158108.696,-34.668,-23.438,-30.762,-20.996,0.000,0
158108.700,-21.973,-18.555,-22.949,-12.695,0.000,0
158108.704,-10.742,-18.066,-20.020,-23.438,0.000,0
158108.707,-15.137,-25.391,-22.461,-27.832,0.000,0
158108.711,-16.602,-31.738,-26.367,-36.621,0.000,0
158108.715,-15.137,-22.461,-26.855,-33.691,0.000,0
158108.719,-20.996,-20.508,-23.926,-25.879,0.000,0
158108.723,-27.344,-26.855,-20.996,-32.715,0.000,0
158108.727,-26.367,-25.879,-20.020,-38.086,0.000,0
158108.731,-26.367,-22.461,-28.320,-46.875,0.000,0
158108.735,-25.879,-20.020,-23.926,-32.227,0.000,0
158108.739,-28.809,-18.555,-18.066,-17.578,0.000,0
158108.743,-27.832,-17.090,-23.926,-30.762,0.000,0
158108.747,-20.020,-25.391,-22.461,-32.715,0.000,0
158108.750,-15.625,-19.531,-13.672,-31.250,0.000,0
158108.754,-20.020,-14.160,-11.719,-29.785,0.000,0
158108.758,-14.160,-17.578,-13.672,-22.461,0.000,0
158108.762,-11.230,-17.090,-15.137,-9.277,0.000,0
158108.766,-21.973,-22.949,-20.508,-8.789,0.000,0
158108.770,-24.414,-22.949,-23.926,-22.949,0.000,0
158108.774,-24.414,-17.578,-20.996,-17.090,0.000,0
158108.778,-22.949,-15.137,-20.020,-4.883,0.000,0
158108.782,-16.602,-19.043,-17.090,-15.137,0.000,0
158108.786,-20.996,-18.555,-10.254,-17.578,0.000,0
158108.790,-19.531,-20.508,-16.602,-14.160,0.000,0
158108.793,-15.625,-26.367,-26.855,-24.902,0.000,0
158108.797,-24.902,-23.438,-21.973,-24.414,0.000,0
158108.801,-21.973,-20.020,-16.602,6.836,0.000,0
158108.805,-20.020,-20.508,-21.484,-4.395,0.000,0
158108.809,-27.832,-24.902,-22.949,-33.203,0.000,0
158108.813,-31.738,-27.344,-24.902,-27.832,0.000,0
158108.817,-32.715,-32.227,-29.297,-26.855,0.000,0
158108.821,-27.344,-35.645,-27.344,-27.832,0.000,0
158108.825,-29.785,-32.715,-25.879,-37.598,0.000,0
158108.829,-33.203,-29.785,-26.367,-43.945,0.000,0
158108.832,-33.203,-27.832,-27.344,-35.645,0.000,0
158108.836,-37.598,-31.250,-33.203,-38.574,0.000,0
158108.840,-33.203,-32.715,-33.691,-32.227,0.000,0
158108.844,-30.273,-37.598,-30.273,-33.691,0.000,0
158108.848,-41.992,-41.504,-33.203,-48.340,0.000,0
158108.852,-29.297,-35.645,-34.180,-27.344,0.000,0
158108.856,-15.137,-34.180,-30.762,-11.719,0.000,0
158108.860,-25.879,-39.062,-32.715,-23.926,0.000,0
158108.864,-20.508,-37.109,-34.668,-33.691,0.000,0
158108.868,-20.996,-37.598,-30.273,-37.598,0.000,0
158108.872,-35.156,-42.969,-33.691,-35.156,0.000,0
158108.875,-39.062,-37.598,-36.133,-32.715,0.000,0
158108.879,-32.227,-34.668,-38.574,-22.949,0.000,0
158108.883,-24.414,-34.180,-27.832,-16.602,0.000,0
158108.887,-23.438,-30.273,-19.531,-19.043,0.000,0
158108.891,-24.902,-30.762,-32.227,-17.090,0.000,0
158108.895,-33.203,-36.133,-36.133,-22.949,0.000,0
158108.899,-29.785,-32.715,-27.344,-25.391,0.000,0
158108.903,-29.297,-30.273,-28.809,-23.926,0.000,0
158108.907,-40.527,-37.109,-33.691,-41.504,0.000,0
158108.911,-36.621,-36.621,-34.668,-45.898,0.000,0
158108.915,-30.273,-28.320,-30.762,-29.785,0.000,0
158108.918,-27.344,-26.367,-26.367,-17.578,0.000,0
158108.922,-14.160,-33.203,-28.809,-16.113,0.000,0
158108.926,-11.719,-28.809,-24.902,-29.297,0.000,0
158108.930,-16.602,-21.484,-18.555,-28.320,0.000,0
158108.934,-23.438,-24.414,-20.020,-25.879,0.000,0
158108.938,-29.785,-29.297,-26.855,-23.926,0.000,0
158108.942,-33.203,-31.250,-28.809,-22.949,0.000,0
158108.946,-30.273,-32.227,-26.367,-22.949,0.000,0
158108.950,-16.602,-24.902,-23.438,-14.648,0.000,0
158108.954,-17.578,-23.438,-28.320,-14.160,0.000,0
158108.957,-15.625,-29.785,-27.832,-15.625,0.000,0
158108.961,-15.625,-24.902,-24.902,-16.113,0.000,0
158108.965,-34.180,-20.508,-25.879,-16.602,0.000,0
158108.969,-34.668,-20.996,-27.832,-21.973,0.000,0
158108.973,-26.855,-21.484,-26.855,-19.531,0.000,0
158108.977,-27.344,-25.391,-25.391,-11.230,0.000,0
158108.981,-20.508,-24.902,-20.020,-5.859,0.000,0
158108.985,-16.602,-23.438,-22.461,0.488,0.000,0
158108.989,-16.602,-22.949,-27.344,5.859,0.000,0
158108.993,-14.160,-21.973,-23.438,-7.324,0.000,0
158108.997,-8.301,-19.531,-12.207,-11.230,0.000,0
158109.000,-5.371,-22.461,-10.254,-6.348,0.000,0
158109.004,-10.254,-18.555,-12.207,-13.672,0.000,0
158109.008,-6.836,-14.160,-11.719,-8.301,0.000,0
158109.012,-6.348,-20.508,-11.719,1.465,0.000,0
158109.016,-14.648,-22.461,-17.090,-9.766,0.000,0
158109.020,-22.461,-20.508,-19.043,-21.484,0.000,0
158109.024,-28.809,-19.043,-20.020,-29.785,0.000,0
158109.028,-20.996,-22.461,-26.855,-32.715,0.000,0
158109.032,-5.859,-25.391,-16.602,-25.879,0.000,0
158109.036,-8.789,-21.973,-9.766,-20.996,0.000,0
158109.040,-10.742,-17.578,-11.230,-21.973,0.000,0
158109.043,-7.812,-21.484,-14.160,-28.320,0.000,0
158109.047,-16.602,-28.809,-17.090,-33.203,0.000,0
158109.051,-24.902,-24.414,-16.602,-27.344,0.000,0
158109.055,-30.273,-27.344,-24.902,-16.602,0.000,0
158109.059,-37.109,-29.785,-29.785,-20.508,0.000,0
158109.063,-38.086,-24.414,-22.461,-32.715,0.000,0
158109.067,-23.926,-27.832,-18.555,-22.461,0.000,0
158109.071,-9.277,-25.879,-21.484,-13.184,0.000,0
158109.075,-12.207,-22.461,-22.461,-26.855,0.000,0
158109.079,-18.555,-22.949,-17.578,-24.902,0.000,0
158109.082,-16.602,-24.902,-16.602,-17.090,0.000,0
158109.086,-11.230,-28.809,-22.949,-29.297,0.000,0
158109.090,-9.277,-25.879,-19.531,-8.789,0.000,0
158109.094,-18.066,-21.484,-17.578,3.906,0.000,0
158109.098,-23.926,-25.879,-21.973,-16.602,0.000,0
158109.102,-16.113,-25.879,-20.020,-17.090,0.000,0
158109.106,-20.996,-32.227,-25.391,-26.855,0.000,0
158109.110,-28.320,-38.574,-30.762,-42.480,0.000,0
158109.114,-25.391,-33.203,-29.785,-25.879,0.000,0
158109.118,-21.484,-28.809,-30.762,-8.301,0.000,0
158109.122,-27.832,-28.809,-25.391,-23.438,0.000,0
158109.125,-29.785,-30.762,-21.484,-26.367,0.000,0
158109.129,-24.414,-30.762,-23.438,-16.602,0.000,0
158109.133,-28.320,-28.320,-24.902,-15.625,0.000,0
158109.137,-33.691,-26.855,-25.391,-21.484,0.000,0
158109.141,-33.203,-31.250,-25.879,-32.227,0.000,0
158109.145,-30.273,-29.785,-27.832,-28.809,0.000,0
158109.149,-24.414,-28.320,-28.320,-28.320,0.000,0
158109.153,-27.344,-36.133,-32.227,-35.156,0.000,0
158109.157,-38.574,-39.551,-33.691,-28.320,0.000,0
158109.161,-34.668,-34.668,-29.785,-33.691,0.000,0
158109.165,-18.066,-27.832,-32.715,-37.109,0.000,0
158109.168,-20.508,-30.273,-33.203,-20.020,0.000,0
158109.172,-30.762,-27.344,-37.109,-18.066,0.000,0
158109.176,-26.855,-22.461,-34.180,-24.902,0.000,0
158109.180,-31.250,-28.320,-27.832,-30.762,0.000,0
158109.184,-40.039,-35.156,-32.715,-34.668,0.000,0
158109.188,-36.133,-31.250,-28.809,-42.480,0.000,0
158109.192,-34.180,-31.250,-24.414,-39.551,0.000,0
158109.196,-38.086,-31.738,-31.250,-30.273,0.000,0
158109.200,-34.668,-24.902,-29.785,-29.297,0.000,0
158109.204,-37.109,-25.391,-28.320,-25.391,0.000,0
158109.207,-42.480,-29.785,-30.273,-29.785,0.000,0
158109.211,-39.062,-25.879,-26.855,-33.691,0.000,0
158109.215,-32.715,-22.461,-23.438,-31.250,0.000,0
158109.219,-31.738,-28.320,-20.508,-22.461,0.000,0
158109.223,-37.598,-30.762,-20.996,-31.738,0.000,0
158109.227,-35.645,-26.855,-23.926,-25.879,0.000,0
158109.231,-32.715,-24.902,-22.949,-13.672,0.000,0
158109.235,-30.762,-25.879,-28.320,-30.762,0.000,0
158109.239,-30.273,-27.832,-27.832,-33.691,0.000,0
158109.243,-36.621,-30.273,-26.855,-36.133,0.000,0
158109.247,-36.621,-26.367,-31.738,-38.086,0.000,0
158109.250,-35.645,-20.508,-26.367,-32.715,0.000,0
158109.254,-33.203,-20.996,-23.438,-23.926,0.000,0
158109.258,-27.832,-31.250,-29.297,-26.855,0.000,0
158109.262,-38.574,-30.273,-27.832,-38.086,0.000,0
158109.266,-34.180,-28.809,-26.855,-33.203,0.000,0
158109.270,-19.531,-25.879,-23.438,-15.625,0.000,0
158109.274,-28.320,-21.484,-22.461,-7.324,0.000,0
158109.278,-27.832,-24.902,-21.484,-30.273,0.000,0
158109.282,-27.344,-27.344,-18.066,-43.457,0.000,0
158109.286,-34.180,-25.879,-20.996,-34.668,0.000,0
158109.290,-35.645,-29.785,-28.809,-34.180,0.000,0
158109.293,-29.785,-24.902,-32.715,-22.461,0.000,0
158109.297,-34.180,-22.949,-32.227,-19.531,0.000,0
158109.301,-28.320,-28.320,-31.250,-29.785,0.000,0
158109.305,-24.902,-26.367,-24.414,-28.320,0.000,0
158109.309,-34.668,-24.414,-18.066,-29.297,0.000,0
158109.313,-28.320,-23.438,-23.926,-29.297,0.000,0
158109.317,-28.320,-26.855,-27.832,-24.414,0.000,0
158109.321,-21.484,-25.879,-22.461,-30.762,0.000,0
158109.325,-14.648,-27.344,-20.020,-29.297,0.000,0
158109.329,-28.809,-25.879,-23.926,-21.973,0.000,0
158109.332,-29.785,-18.066,-25.391,-20.020,0.000,0
158109.336,-26.367,-22.461,-21.484,-27.344,0.000,0
158109.340,-33.203,-32.715,-28.809,-27.832,0.000,0
158109.344,-29.785,-33.203,-35.156,-25.391,0.000,0
158109.348,-26.367,-29.297,-34.180,-30.273,0.000,0
158109.352,-19.531,-24.414,-32.715,-26.367,0.000,1
158109.356,-18.066,-25.391,-30.273,-20.020,0.000,0
158109.360,-23.438,-28.809,-30.762,-23.926,0.000,0
158109.364,-29.297,-26.367,-25.391,-22.461,0.000,0
158109.368,-28.809,-28.320,-20.508,-25.879,0.000,0
158109.372,-20.996,-35.156,-22.461,-32.227,0.000,0
158109.375,-19.043,-21.973,-17.578,-27.832,0.000,0
158109.379,-16.602,-14.648,-23.438,-23.926,0.000,0
158109.383,-16.113,-18.555,-25.879,-25.879,0.000,0
158109.387,-23.438,-19.043,-20.020,-17.578,0.000,0
158109.391,-30.762,-23.438,-26.855,-20.508,0.000,0
158109.395,-26.855,-22.949,-25.391,-28.809,0.000,0
158109.399,-15.137,-13.672,-20.996,-20.996,0.000,0
158109.403,-8.301,-9.766,-22.949,-3.418,0.000,0
158109.407,-14.160,-11.230,-26.367,-8.301,0.000,0
158109.411,-15.137,-15.137,-23.438,-25.391,0.000,0
158109.415,-9.277,-20.996,-20.996,-26.367,0.000,0
158109.418,-20.020,-20.508,-23.438,-22.949,0.000,0
158109.422,-28.320,-25.879,-26.855,-24.902,0.000,0
158109.426,-19.531,-31.250,-30.273,-21.484,0.000,0
158109.430,-15.137,-24.414,-31.250,-4.883,0.000,0
158109.434,-17.578,-22.461,-24.902,-8.789,0.000,0
158109.438,-25.391,-28.320,-28.320,-20.996,0.000,0
158109.442,-25.879,-24.414,-32.715,-26.367,0.000,0
158109.446,-21.973,-22.949,-20.996,-26.855,0.000,0
158109.450,-31.250,-27.344,-21.484,-31.250,0.000,0
158109.454,-33.691,-27.344,-25.879,-39.062,0.000,0
158109.457,-26.367,-25.391,-25.391,-35.156,0.000,0
158109.461,-25.879,-25.391,-28.320,-26.367,0.000,0
158109.465,-27.832,-25.879,-29.297,-15.625,0.000,0
158109.469,-27.344,-22.949,-25.879,-16.602,0.000,0
158109.473,-30.273,-26.367,-33.203,-36.133,0.000,0
158109.477,-30.273,-33.203,-36.621,-35.156,0.000,0
158109.481,-38.086,-32.715,-33.203,-26.367,0.000,0
158109.485,-45.410,-31.738,-36.133,-31.738,0.000,0
158109.489,-34.180,-30.273,-36.621,-24.414,0.000,0
158109.493,-28.809,-28.320,-30.273,-23.926,0.000,0
158109.497,-32.227,-29.297,-26.367,-35.645,0.000,0
158109.500,-26.855,-31.250,-26.855,-31.250,0.000,0
158109.504,-25.879,-24.414,-28.320,-22.949,0.000,0
158109.508,-31.738,-20.996,-26.367,-21.973,0.000,0
158109.512,-26.855,-21.973,-22.949,-10.742,0.000,0
158109.516,-18.066,-19.043,-22.949,-19.531,0.000,0
158109.520,-16.602,-20.020,-23.926,-28.320,0.000,0
158109.524,-25.391,-22.949,-28.320,-20.508,0.000,0
158109.528,-34.180,-26.367,-30.762,-22.949,0.000,0
158109.532,-26.855,-26.367,-23.926,-33.203,0.000,0
158109.536,-15.625,-21.484,-19.043,-26.855,0.000,0
158109.540,-17.090,-19.531,-16.602,-14.160,0.000,0
158109.543,-23.926,-22.949,-19.531,-15.625,0.000,0
158109.547,-27.832,-28.320,-25.879,-17.578,0.000,0
158109.551,-26.367,-29.785,-20.020,-27.832,0.000,0
158109.555,-23.926,-34.668,-18.066,-29.297,0.000,0
158109.559,-25.879,-41.992,-25.879,-21.973,0.000,0
158109.563,-28.809,-36.621,-25.879,-27.832,0.000,0
158109.567,-26.855,-30.762,-21.484,-27.344,0.000,0
158109.571,-20.996,-29.297,-18.555,-24.414,0.000,0
158109.575,-30.273,-24.414,-19.531,-25.879,0.000,0
158109.579,-25.391,-27.344,-20.996,-10.742,0.000,0
158109.582,-15.137,-37.598,-25.879,-0.977,0.000,0
158109.586,-24.414,-25.391,-20.020,-24.414,0.000,0
158109.590,-27.832,-19.531,-17.578,-42.480,0.000,0
158109.594,-14.648,-22.461,-21.973,-27.832,0.000,0
158109.598,-18.066,-19.531,-20.996,-31.250,0.000,0
158109.602,-22.461,-23.926,-25.879,-32.227,0.000,0
158109.606,-8.301,-27.832,-30.762,-10.254,0.000,0
158109.610,-15.137,-30.762,-22.949,-17.578,0.000,0
158109.614,-28.809,-25.879,-23.926,-26.855,0.000,0
158109.618,-24.902,-21.484,-23.926,-19.531,0.000,0
158109.622,-27.832,-26.367,-23.926,-25.391,0.000,0
158109.625,-28.320,-30.273,-30.273,-31.250,0.000,0
158109.629,-16.602,-26.855,-24.414,-31.738,0.000,0
158109.633,-17.578,-22.949,-20.020,-36.621,0.000,0
158109.637,-21.484,-26.855,-28.320,-31.738,0.000,0
158109.641,-21.973,-32.227,-28.320,-17.578,0.000,0
158109.645,-18.555,-22.461,-17.578,-5.859,0.000,0
158109.649,-18.555,-20.020,-13.672,-17.578,0.000,0
158109.653,-22.461,-20.996,-18.066,-25.391,0.000,0
158109.657,-18.066,-20.508,-15.137,-8.789,0.000,0
158109.661,-13.672,-23.926,-16.602,-13.672,0.000,0
158109.665,-10.254,-26.367,-22.949,-28.320,0.000,0
158109.668,-14.648,-28.809,-20.508,-23.438,0.000,0
158109.672,-22.949,-23.926,-18.555,-22.461,0.000,0
158109.676,-15.625,-16.113,-13.672,-20.996,0.000,0
158109.680,-9.277,-19.531,-20.020,-17.578,0.000,0
158109.684,-16.113,-26.367,-26.855,-11.230,0.000,0
158109.688,-9.277,-25.879,-16.113,-5.859,0.000,0
158109.692,-10.742,-26.855,-19.043,-21.973,0.000,0
158109.696,-13.672,-31.250,-31.738,-25.879,0.000,0
158109.700,-22.461,-28.809,-28.809,-21.973,0.000,0
158109.704,-41.504,-27.344,-29.297,-31.738,0.000,0
158109.707,-37.109,-26.367,-24.414,-31.250,0.000,0
158109.711,-27.832,-34.668,-23.926,-25.391,0.000,0
158109.715,-33.691,-34.668,-29.297,-29.297,0.000,0
158109.719,-23.926,-23.926,-25.391,-20.020,0.000,0
158109.723,-15.625,-25.879,-21.973,-8.301,0.000,0
158109.727,-17.090,-26.855,-24.414,-22.949,0.000,0
158109.731,-17.578,-27.344,-26.855,-32.227,0.000,0
158109.735,-20.996,-31.738,-31.250,-31.250,0.000,0
158109.739,-31.250,-29.785,-36.133,-39.551,0.000,0
158109.743,-39.062,-28.809,-35.645,-34.180,0.000,0
158109.747,-32.715,-30.273,-32.715,-16.113,0.000,0
158109.750,-31.250,-28.320,-32.227,-19.531,0.000,0
158109.754,-27.832,-22.949,-27.832,-25.391,0.000,0
158109.758,-17.578,-28.320,-25.879,-17.090,0.000,0
158109.762,-27.344,-21.484,-30.273,-12.207,0.000,0
158109.766,-38.086,-18.555,-29.785,-16.602,0.000,0
158109.770,-26.367,-25.879,-34.180,-23.926,0.000,0
158109.774,-25.879,-26.855,-39.551,-23.438,0.000,0
158109.778,-26.855,-25.391,-34.180,-22.949,0.000,0
158109.782,-24.902,-25.391,-32.227,-24.414,0.000,0
158109.786,-28.320,-19.531,-30.762,-30.762,0.000,0
158109.790,-29.785,-17.578,-31.738,-33.203,0.000,0
158109.793,-31.738,-19.531,-30.273,-22.949,0.000,0
158109.797,-20.996,-15.625,-21.484,-18.066,0.000,0
158109.801,-20.020,-18.066,-21.973,-17.578,0.000,0
158109.805,-32.227,-22.461,-20.996,-13.184,0.000,0
158109.809,-30.273,-27.832,-19.043,-20.020,0.000,0
158109.813,-26.855,-24.902,-23.438,-14.648,0.000,0
158109.817,-25.391,-23.438,-29.785,-11.719,0.000,0
158109.821,-30.273,-27.832,-26.855,-32.227,0.000,0
158109.825,-35.156,-27.832,-22.461,-42.480,0.000,0
158109.829,-28.320,-30.762,-21.973,-37.109,0.000,0
158109.832,-21.484,-23.926,-25.391,-26.367,0.000,0
158109.836,-20.020,-20.996,-27.344,-17.090,0.000,0
158109.840,-20.996,-21.973,-19.043,-15.137,0.000,0
158109.844,-24.902,-19.043,-19.531,-24.414,0.000,0
158109.848,-28.320,-23.438,-28.809,-41.504,0.000,0
158109.852,-37.109,-23.438,-35.645,-43.457,0.000,0
158109.856,-42.969,-21.484,-38.086,-31.738,0.000,0
158109.860,-29.785,-22.949,-29.785,-17.090,0.000,0
158109.864,-30.273,-29.297,-33.691,-25.879,0.000,0
158109.868,-30.762,-27.344,-35.645,-35.645,0.000,0
158109.872,-28.320,-21.484,-29.785,-20.996,0.000,0
158109.875,-34.668,-25.879,-34.668,-27.832,0.000,0
158109.879,-31.738,-26.367,-31.738,-37.109,0.000,0
158109.883,-30.273,-23.926,-22.461,-27.832,0.000,0
158109.887,-35.645,-32.227,-24.902,-41.992,0.000,0
158109.891,-32.227,-29.785,-26.855,-45.410,0.000,0
158109.895,-32.715,-22.949,-26.367,-34.668,0.000,0
158109.899,-35.156,-22.949,-32.715,-34.668,0.000,0
158109.903,-30.762,-22.461,-32.715,-36.133,0.000,0
158109.907,-24.902,-25.391,-32.227,-44.922,0.000,0
158109.911,-16.602,-25.879,-33.691,-41.016,0.000,0
158109.915,-17.578,-20.996,-25.391,-28.320,0.000,0
158109.918,-25.391,-21.484,-28.809,-22.461,0.000,0
158109.922,-23.926,-26.855,-29.785,-20.508,0.000,0
158109.926,-26.855,-27.832,-25.879,-26.855,0.000,0
158109.930,-34.668,-32.715,-41.016,-22.461,0.000,0
158109.934,-33.203,-38.086,-46.387,-19.043,0.000,0
158109.938,-33.691,-42.480,-40.527,-26.367,0.000,0
158109.942,-39.062,-39.062,-32.715,-32.715,0.000,0
158109.946,-38.086,-34.668,-35.645,-37.109,0.000,0
158109.950,-39.062,-37.598,-41.992,-44.434,0.000,0
158109.954,-32.227,-34.668,-36.621,-45.898,0.000,0
158109.957,-30.762,-33.691,-32.715,-27.832,0.000,0
158109.961,-43.457,-36.621,-36.133,-31.738,0.000,0
158109.965,-41.504,-31.250,-36.133,-33.203,0.000,1
158109.969,-37.109,-31.250,-36.621,-28.320,0.000,0
158109.973,-36.133,-33.691,-41.992,-35.645,0.000,0
158109.977,-34.180,-34.180,-42.969,-36.133,0.000,0
158109.981,-38.574,-35.645,-39.062,-42.480,0.000,0
158109.985,-40.527,-38.086,-30.273,-36.621,0.000,0
158109.989,-37.598,-33.203,-28.320,-32.715,0.000,0
158109.993,-41.504,-27.344,-31.738,-41.016,0.000,0
158109.997,-41.992,-34.668,-39.062,-26.855,0.000,0
158110.000,-37.598,-27.832,-39.551,-27.832,0.000,0
158110.004,-42.480,-26.367,-31.738,-50.781,0.000,0
158110.008,-43.457,-33.691,-31.250,-42.969,0.000,0
158110.012,-35.156,-28.809,-32.227,-24.414,0.000,0
158110.016,-28.809,-28.320,-28.320,-19.043,0.000,0
158110.020,-22.949,-22.461,-20.020,-22.461,0.000,0
158110.024,-22.461,-19.531,-19.043,-32.227,0.000,0
158110.028,-17.578,-27.344,-27.344,-31.250,0.000,0
158110.032,-21.484,-30.273,-30.762,-25.391,0.000,0
158110.036,-25.879,-26.367,-28.320,-31.250,0.000,0
158110.040,-22.949,-28.809,-26.367,-41.504,0.000,0
158110.043,-19.043,-20.996,-18.555,-31.250,0.000,0
158110.047,-7.324,-16.113,-17.090,-29.297,0.000,0
158110.051,-11.719,-21.973,-22.461,-33.203,0.000,0
158110.055,-19.043,-30.273,-28.320,-24.414,0.000,0
158110.059,-17.578,-31.250,-28.809,-23.926,0.000,0
158110.063,-11.719,-33.691,-29.785,-37.109,0.000,0
158110.067,10.254,-34.668,-28.320,-34.180,0.000,0
158110.071,22.949,-27.344,-29.785,-25.391,0.000,0
158110.075,10.254,-24.414,-33.691,-23.926,0.000,0
158110.079,-25.879,-29.785,-32.227,-15.625,0.000,0
158110.082,-59.082,-34.180,-31.250,-33.203,0.000,0
158110.086,-58.594,-32.227,-30.273,-34.668,0.000,0
158110.090,-49.805,-36.621,-30.273,-20.508,0.000,0
158110.094,-48.340,-34.180,-28.809,-20.508,0.000,0
158110.098,-41.016,-23.926,-29.297,-9.766,0.000,0
158110.102,-36.133,-24.902,-29.785,-3.418,0.000,0
158110.106,-37.109,-25.879,-30.762,-23.438,0.000,0
158110.110,-33.203,-26.367,-28.809,-28.809,0.000,0
158110.114,-24.414,-31.738,-30.273,-14.648,0.000,0
158110.118,-20.508,-31.738,-31.250,-20.508,0.000,0
158110.122,-26.367,-26.367,-25.879,-25.879,0.000,0
158110.125,-24.414,-29.297,-27.344,-28.809,0.000,0
158110.129,-19.043,-30.762,-32.715,-34.180,0.000,0
158110.133,-18.066,-32.227,-32.227,-29.785,0.000,0
158110.137,-21.973,-31.738,-21.973,-20.996,0.000,0
158110.141,-23.438,-30.762,-15.625,-16.113,0.000,0
158110.145,-20.020,-28.320,-21.484,-16.602,0.000,0
158110.149,-17.578,-24.414,-24.414,-24.902,0.000,0
158110.153,-14.160,-26.855,-20.996,-23.926,0.000,0
158110.157,-16.113,-27.832,-17.090,-20.020,0.000,0
158110.161,-19.531,-27.344,-14.160,-26.367,0.000,0
158110.165,-13.672,-28.320,-16.113,-26.367,0.000,0
158110.168,-17.090,-26.855,-22.949,-32.227,0.000,0
158110.172,-26.367,-25.391,-22.949,-35.156,0.000,0
158110.176,-22.461,-25.879,-25.391,-22.949,0.000,0
158110.180,-22.949,-24.902,-21.484,-28.320,0.000,0
158110.184,-19.043,-23.438,-14.648,-21.973,0.000,0
158110.188,-31.250,-27.832,-24.414,-14.648,0.000,0
158110.192,-40.527,-33.691,-33.691,-22.461,0.000,0
158110.196,-28.320,-29.297,-29.297,-27.344,0.000,0
158110.200,-26.855,-23.438,-20.508,-26.367,0.000,0
158110.204,-31.250,-24.414,-18.555,-29.785,0.000,0
158110.207,-31.250,-27.832,-25.391,-35.645,0.000,0
158110.211,-32.715,-38.086,-31.738,-27.832,0.000,0
158110.215,-20.020,-34.668,-26.855,-13.672,0.000,0
158110.219,-12.695,-28.809,-19.531,-27.344,0.000,0
158110.223,-14.648,-32.227,-23.926,-31.738,0.000,0
158110.227,-11.230,-24.902,-20.020,-18.066,0.000,0
158110.231,-9.277,-17.090,-17.578,-22.949,0.000,0
158110.235,-12.695,-22.949,-29.297,-28.320,0.000,0
158110.239,-23.926,-33.691,-32.227,-36.621,0.000,0
158110.243,-30.273,-26.855,-22.461,-32.715,0.000,0
158110.247,-29.297,-19.043,-18.555,-25.391,0.000,0
158110.250,-25.391,-22.949,-25.879,-25.879,0.000,0
158110.254,-20.020,-20.996,-24.414,-19.531,0.000,0
158110.258,-18.066,-21.484,-20.020,-21.484,0.000,0
158110.262,-23.926,-20.508,-26.855,-37.109,0.000,0
158110.266,-20.020,-20.020,-32.227,-31.738,0.000,0
158110.270,-8.301,-23.926,-24.902,-21.484,0.000,0
158110.274,-20.020,-25.879,-20.508,-18.066,0.000,0
158110.278,-26.855,-29.297,-26.367,-18.555,0.000,0
158110.282,-23.438,-28.320,-27.832,-23.926,0.000,0
158110.286,-26.367,-35.156,-27.832,-25.879,0.000,0
158110.290,-20.508,-29.785,-20.020,-19.043,0.000,0
158110.293,-10.254,-15.137,-8.301,-7.812,0.000,0
158110.297,-8.301,-18.555,-8.301,-18.066,0.000,0
158110.301,-13.184,-22.461,-16.113,-18.066,0.000,0
158110.305,-16.113,-26.855,-27.832,-15.625,0.000,0
158110.309,-14.648,-25.391,-24.414,-25.391,0.000,0
158110.313,-13.184,-22.949,-28.809,-19.043,0.000,0
158110.317,-14.648,-22.949,-28.320,-20.020,0.000,0
158110.321,-20.508,-22.461,-23.926,-30.762,0.000,0
158110.325,-24.902,-22.461,-25.879,-27.832,0.000,0
158110.329,-17.090,-20.020,-23.926,-15.137,0.000,0
158110.332,-13.184,-13.184,-13.672,-9.277,0.000,0
158110.336,-17.090,-14.648,-10.742,-9.766,0.000,0
158110.340,-13.672,-18.555,-18.066,-19.043,0.000,0
158110.344,-6.836,-15.137,-14.648,-18.555,0.000,0
158110.348,-18.066,-18.555,-17.090,-13.184,0.000,0
158110.352,-25.879,-20.508,-23.438,-15.625,0.000,0
158110.356,-13.184,-17.090,-19.531,-7.812,0.000,0
158110.360,-16.113,-18.555,-15.137,0.000,0.000,0
158110.364,-23.926,-21.973,-20.508,-10.742,0.000,0
158110.368,-14.648,-18.066,-22.949,-21.484,0.000,0
158110.372,-19.043,-23.926,-24.414,-18.555,0.000,0
158110.375,-28.320,-25.391,-30.273,-22.461,0.000,0
158110.379,-18.555,-18.555,-27.344,-21.484,0.000,0
158110.383,-19.043,-19.531,-30.762,-18.555,0.000,0
158110.387,-32.227,-28.809,-36.133,-25.391,0.000,0
158110.391,-35.156,-25.879,-32.227,-27.832,0.000,0
158110.395,-28.320,-20.020,-30.762,-15.625,0.000,0
158110.399,-22.949,-23.438,-27.832,-25.391,0.000,0
158110.403,-28.809,-27.344,-31.250,-46.875,0.000,0
158110.407,-26.367,-30.273,-35.645,-37.109,0.000,0
158110.411,-21.484,-27.832,-31.738,-28.320,0.000,0
158110.415,-20.996,-31.250,-26.367,-21.484,0.000,0
158110.418,-24.902,-28.320,-21.973,-23.438,0.000,0
158110.422,-35.645,-24.414,-17.578,-22.949,0.000,0
158110.426,-26.367,-21.973,-21.484,-17.090,0.000,0
158110.430,-18.066,-24.414,-24.414,-19.531,0.000,0
158110.434,-19.043,-29.785,-20.996,-20.996,0.000,0
158110.438,-20.996,-31.738,-28.320,-20.508,0.000,0
158110.442,-23.438,-35.645,-34.668,-23.438,0.000,0
158110.446,-4.395,-24.414,-25.879,-17.578,0.000,0
158110.450,-1.953,-20.020,-24.902,-0.488,0.000,0
158110.454,-24.902,-15.625,-24.414,-19.531,0.000,0
158110.457,-21.973,-11.719,-20.508,-28.809,0.000,0
158110.461,-19.531,-13.672,-20.508,-17.090,0.000,0
158110.465,-23.926,-14.160,-18.066,-16.602,0.000,0
158110.469,-24.414,-16.602,-21.973,-20.996,0.000,0
158110.473,-25.879,-11.230,-21.484,-24.902,0.000,0
158110.477,-25.391,-8.301,-20.020,-30.273,0.000,0
158110.481,-26.367,-8.789,-16.602,-27.344,0.000,0
158110.485,-17.578,-10.742,-18.066,-17.090,0.000,0
158110.489,-14.160,-16.113,-22.949,-11.230,0.000,0
158110.493,-22.461,-16.113,-17.578,-12.695,0.000,0
158110.497,-18.555,-13.672,-14.160,-13.672,0.000,0
158110.500,-16.602,-11.719,-26.367,-20.508,0.000,0
158110.504,-13.672,-14.648,-28.809,-21.484,0.000,0
158110.508,-10.742,-12.207,-22.949,-4.395,0.000,0
158110.512,-8.301,-6.836,-19.531,-5.859,0.000,0
158110.516,-0.977,-12.207,-15.625,-29.297,0.000,0
158110.520,0.488,-11.230,-14.160,-15.137,0.000,0
158110.524,-10.254,-16.113,-21.973,-15.625,0.000,0
158110.528,-20.020,-18.555,-23.926,-13.672,0.000,0
158110.532,-12.207,-18.555,-27.832,-5.859,0.000,0
158110.536,-19.043,-21.973,-25.391,-18.555,0.000,0
158110.540,-28.320,-19.531,-25.879,-16.602,0.000,0
158110.543,-22.949,-18.066,-34.668,-10.254,0.000,0
158110.547,-22.461,-20.020,-35.156,-5.859,0.000,0
158110.551,-33.691,-24.414,-34.668,-17.090,0.000,0
158110.555,-37.109,-28.320,-31.738,-35.645,0.000,0
158110.559,-32.227,-25.879,-33.203,-34.668,0.000,0
158110.563,-30.762,-28.320,-38.086,-26.367,0.000,0
158110.567,-26.367,-29.785,-38.574,-15.625,0.000,0
158110.571,-26.367,-25.879,-33.203,-25.879,0.000,0
158110.575,-24.414,-24.414,-23.926,-32.715,0.000,0
158110.579,-18.066,-23.438,-31.250,-28.320,0.000,0
158110.582,-29.297,-19.531,-30.762,-30.762,0.000,0
158110.586,-30.273,-16.113,-20.996,-21.484,0.000,0
158110.590,-25.391,-18.555,-22.461,-17.090,0.000,0
158110.594,-27.344,-22.461,-22.949,-25.391,0.000,0
158110.598,-28.320,-26.855,-24.902,-22.461,0.000,0
158110.602,-23.926,-20.508,-23.438,-21.973,0.000,0
158110.606,-19.043,-17.090,-24.414,-13.184,0.000,0
158110.610,-24.414,-26.367,-30.762,-17.090,0.000,0
158110.614,-25.879,-29.785,-29.785,-42.969,0.000,0
158110.618,-23.926,-33.203,-30.273,-39.551,0.000,1
158110.622,-27.832,-34.180,-39.551,-36.621,0.000,0
158110.625,-30.273,-31.738,-41.504,-40.527,0.000,0
158110.629,-19.531,-30.273,-31.250,-28.809,0.000,0
158110.633,-24.902,-26.367,-26.855,-28.320,0.000,0
158110.637,-31.738,-28.320,-35.156,-31.738,0.000,0
158110.641,-23.926,-28.809,-33.203,-21.973,0.000,0
158110.645,-19.531,-32.227,-24.902,-9.766,0.000,0
158110.649,-22.461,-37.109,-24.902,-13.184,0.000,0
158110.653,-25.879,-37.598,-24.414,-26.367,0.000,0
158110.657,-21.484,-31.738,-25.879,-23.926,0.000,0
158110.661,-29.785,-29.785,-30.762,-20.020,0.000,0
158110.665,-33.203,-25.391,-26.855,-11.230,0.000,0
158110.668,-25.391,-24.902,-27.832,-8.789,0.000,0
158110.672,-23.438,-26.367,-24.414,-18.066,0.000,0
158110.676,-28.809,-27.344,-24.902,-17.578,0.000,0
158110.680,-30.762,-34.668,-30.273,-22.949,0.000,0
158110.684,-29.297,-32.227,-31.250,-36.621,0.000,0
158110.688,-28.809,-29.297,-28.809,-38.574,0.000,0
158110.692,-26.367,-25.391,-15.625,-28.809,0.000,0
158110.696,-28.320,-22.949,-17.578,-22.461,0.000,0
158110.700,-24.414,-27.832,-29.297,-34.180,0.000,0
158110.704,-20.020,-28.809,-30.273,-34.668,0.000,0
158110.707,-32.715,-27.344,-28.809,-29.785,0.000,0
158110.711,-34.668,-31.738,-32.715,-37.598,0.000,0
158110.715,-22.461,-32.227,-34.180,-34.180,0.000,0
158110.719,-17.090,-26.855,-28.809,-22.949,0.000,0
158110.723,-22.461,-25.391,-23.438,-18.066,0.000,0
158110.727,-35.156,-29.785,-29.785,-36.621,0.000,0
158110.731,-39.062,-35.156,-32.715,-42.969,0.000,0
158110.735,-41.504,-36.621,-32.227,-41.992,0.000,0
158110.739,-41.992,-34.180,-36.621,-40.527,0.000,0
158110.743,-45.410,-34.668,-37.109,-38.574,0.000,0
158110.747,-47.852,-43.457,-39.062,-37.109,0.000,0
158110.750,-50.293,-40.527,-41.504,-34.668,0.000,0
158110.754,-47.852,-29.297,-34.668,-40.527,0.000,0
158110.758,-27.832,-20.996,-22.949,-40.527,0.000,0
158110.762,-21.973,-23.438,-17.578,-41.504,0.000,0
158110.766,-31.250,-33.203,-32.715,-41.016,0.000,0
158110.770,-40.039,-36.133,-36.621,-42.969,0.000,0
158110.774,-38.086,-41.504,-33.691,-45.410,0.000,0
158110.778,-29.785,-44.434,-36.621,-31.738,0.000,0
158110.782,-27.344,-35.156,-33.203,-32.715,0.000,0
158110.786,-27.832,-33.203,-34.668,-32.227,0.000,0
158110.790,-31.738,-32.227,-32.715,-25.391,0.000,0
158110.793,-34.668,-29.297,-24.902,-33.203,0.000,0
158110.797,-41.016,-32.227,-28.809,-30.762,0.000,0
158110.801,-39.062,-32.715,-34.668,-21.973,0.000,0
158110.805,-25.879,-36.621,-35.156,-16.602,0.000,0
158110.809,-20.996,-32.227,-28.320,-37.109,0.000,0
158110.813,-23.926,-20.508,-18.555,-47.363,0.000,0
158110.817,-24.902,-18.066,-25.391,-27.832,0.000,0
158110.821,-21.973,-19.531,-28.320,-23.438,0.000,0
158110.825,-27.344,-22.461,-20.508,-23.438,0.000,0
158110.829,-31.250,-24.414,-20.020,-11.230,0.000,0
158110.832,-26.367,-24.414,-22.949,-27.832,0.000,0
158110.836,-23.438,-27.832,-24.902,-31.738,0.000,0
158110.840,-19.043,-24.414,-15.625,-17.090,0.000,0
158110.844,-16.602,-22.949,-19.531,-16.113,0.000,0
158110.848,-20.020,-29.785,-29.785,-27.832,0.000,0
158110.852,-27.344,-32.227,-26.855,-32.227,0.000,0
158110.856,-29.297,-31.250,-31.250,-25.879,0.000,0
158110.860,-28.320,-29.297,-33.203,-25.879,0.000,0
158110.864,-29.297,-29.297,-32.227,-20.020,0.000,0
158110.868,-25.879,-30.762,-33.203,-23.438,0.000,0
158110.872,-21.973,-27.832,-29.785,-42.480,0.000,0
158110.875,-9.766,-29.297,-26.855,-29.297,0.000,0
158110.879,-7.324,-35.156,-31.738,-12.695,0.000,0
158110.883,-18.555,-30.273,-39.551,-24.414,0.000,0
158110.887,-14.160,-27.344,-35.645,-34.668,0.000,0
158110.891,-10.742,-31.738,-28.809,-39.551,0.000,0
158110.895,-18.066,-31.738,-33.691,-27.344,0.000,0
158110.899,-20.996,-28.809,-30.273,-23.926,0.000,0
158110.903,-25.391,-26.367,-30.762,-25.879,0.000,0
158110.907,-29.785,-28.320,-38.574,-23.926,0.000,0
158110.911,-30.762,-30.762,-30.762,-31.250,0.000,0
158110.915,-28.320,-36.133,-32.227,-32.715,0.000,0
158110.918,-29.297,-30.762,-32.715,-30.273,0.000,0
158110.922,-26.855,-23.926,-24.902,-28.809,0.000,0
158110.926,-21.484,-29.297,-24.414,-29.785,0.000,0
158110.930,-22.461,-26.855,-20.508,-29.297,0.000,0
158110.934,-20.996,-23.438,-24.902,-18.555,0.000,0
158110.938,-13.184,-32.227,-34.180,-8.301,0.000,0
158110.942,-19.043,-34.668,-41.016,-19.043,0.000,0
158110.946,-36.133,-31.250,-34.180,-22.949,0.000,0
158110.950,-37.598,-33.691,-23.438,-30.273,0.000,0
158110.954,-31.738,-31.738,-26.367,-41.504,0.000,0
158110.957,-34.180,-28.809,-28.320,-35.156,0.000,0
158110.961,-33.203,-35.645,-33.203,-28.809,0.000,0
158110.965,-30.273,-43.945,-38.574,-34.668,0.000,0
158110.969,-34.668,-41.016,-31.738,-39.062,0.000,0
158110.973,-30.273,-30.762,-28.320,-19.043,0.000,0
158110.977,-24.414,-27.832,-28.809,-18.555,0.000,0
158110.981,-29.785,-26.367,-27.344,-24.414,0.000,0
158110.985,-33.691,-33.203,-38.574,-20.020,0.000,0
158110.989,-35.645,-35.645,-34.668,-28.809,0.000,0
158110.993,-45.898,-32.227,-25.879,-33.691,0.000,0
158110.997,-40.527,-34.180,-32.227,-28.809,0.000,0
158111.000,-29.785,-31.738,-30.762,-20.020,0.000,0
158111.004,-32.715,-34.668,-31.738,-14.648,0.000,0
158111.008,-33.691,-34.180,-32.227,-36.133,0.000,0
158111.012,-22.461,-24.902,-26.367,-43.945,0.000,0
158111.016,-15.625,-23.438,-24.414,-37.598,0.000,0
158111.020,-34.180,-27.344,-26.855,-36.621,0.000,0
158111.024,-46.875,-28.320,-27.832,-31.250,0.000,0
158111.028,-41.992,-25.391,-26.367,-37.109,0.000,0
158111.032,-31.250,-23.926,-29.297,-34.668,0.000,0
158111.036,-27.344,-26.367,-26.855,-20.020,0.000,0
158111.040,-28.809,-32.227,-22.949,-20.996,0.000,0
158111.043,-27.832,-29.297,-26.367,-23.926,0.000,0
158111.047,-37.598,-31.250,-25.879,-28.320,0.000,0
158111.051,-38.574,-28.809,-20.508,-38.086,0.000,0
158111.055,-35.156,-28.809,-23.926,-31.738,0.000,0
158111.059,-32.227,-31.738,-24.902,-22.461,0.000,0
158111.063,-27.344,-27.344,-17.090,-19.043,0.000,0
158111.067,-29.297,-29.785,-16.113,-10.254,0.000,0
158111.071,-34.180,-34.180,-23.438,-10.742,0.000,0
158111.075,-36.133,-32.715,-28.320,-22.461,0.000,0
158111.079,-36.133,-30.762,-30.273,-24.902,0.000,0
158111.082,-34.180,-32.715,-29.785,-19.531,0.000,0
158111.086,-28.320,-39.062,-29.297,-12.207,0.000,0
158111.090,-23.926,-37.598,-26.367,-17.090,0.000,0
158111.094,-20.508,-35.156,-27.832,-22.461,0.000,0
158111.098,-34.668,-33.691,-34.180,-24.414,0.000,0
158111.102,-40.039,-29.785,-31.250,-30.762,0.000,0
158111.106,-23.438,-25.879,-24.902,-20.020,0.000,0
158111.110,-18.555,-25.879,-28.320,-13.184,0.000,0
158111.114,-22.461,-25.391,-38.574,-21.484,0.000,0
158111.118,-24.902,-25.391,-35.156,-20.020,0.000,0
158111.122,-26.367,-31.738,-32.227,-13.184,0.000,0
158111.125,-30.273,-27.344,-29.785,-20.020,0.000,0
158111.129,-32.715,-26.855,-27.832,-18.555,0.000,0
158111.133,-25.879,-27.344,-30.762,-20.508,0.000,0
158111.137,-26.367,-29.297,-29.785,-36.133,0.000,0
158111.141,-34.668,-29.785,-32.227,-26.855,0.000,0
158111.145,-33.691,-22.461,-34.668,-20.020,0.000,0
158111.149,-31.738,-21.484,-37.109,-29.297,0.000,0
158111.153,-32.227,-21.973,-33.691,-33.203,0.000,0
158111.157,-29.297,-25.879,-34.180,-32.715,0.000,0
158111.161,-32.227,-26.367,-34.668,-21.973,0.000,0
158111.165,-35.156,-29.297,-30.273,-23.926,0.000,0
158111.168,-38.086,-35.645,-27.344,-35.645,0.000,0
158111.172,-44.434,-27.344,-31.250,-34.180,0.000,0
158111.176,-45.410,-26.367,-31.250,-38.086,0.000,1
158111.180,-43.457,-33.691,-31.738,-44.434,0.000,0
158111.184,-42.480,-29.297,-31.738,-39.062,0.000,0
158111.188,-33.203,-25.391,-25.879,-42.480,0.000,0
158111.192,-28.809,-28.809,-30.273,-39.062,0.000,0
158111.196,-32.227,-38.086,-35.156,-27.344,0.000,0
158111.200,-36.133,-35.645,-34.668,-31.738,0.000,0
158111.204,-31.738,-31.250,-27.344,-30.762,0.000,0
158111.207,-30.762,-27.344,-20.020,-30.273,0.000,0
158111.211,-32.715,-25.879,-27.344,-32.227,0.000,0
158111.215,-34.180,-29.297,-36.621,-41.504,0.000,0
158111.219,-30.762,-25.879,-34.180,-42.969,0.000,0
158111.223,-25.391,-26.367,-24.902,-40.527,0.000,0
158111.227,-27.344,-32.227,-22.949,-41.016,0.000,0
158111.231,-31.250,-30.762,-29.785,-40.527,0.000,0
158111.235,-38.574,-30.762,-34.180,-42.480,0.000,0
158111.239,-27.344,-31.250,-33.203,-35.156,0.000,0
158111.243,-8.301,-27.832,-20.996,-22.461,0.000,0
158111.247,-23.926,-29.297,-17.090,-27.832,0.000,0
158111.250,-42.480,-27.832,-32.715,-40.039,0.000,0
158111.254,-35.156,-26.855,-37.598,-37.598,0.000,0
158111.258,-24.902,-24.414,-28.320,-19.531,0.000,0
158111.262,-25.879,-26.367,-26.855,-10.254,0.000,0
158111.266,-25.391,-28.320,-25.391,-29.297,0.000,0
158111.270,-26.367,-29.297,-26.855,-39.551,0.000,0
158111.274,-34.668,-37.598,-32.227,-32.227,0.000,0
158111.278,-32.715,-33.203,-29.297,-35.645,0.000,0
158111.282,-33.691,-27.832,-31.250,-41.992,0.000,0
158111.286,-40.039,-36.133,-35.156,-47.852,0.000,0
158111.290,-35.645,-39.062,-36.133,-40.039,0.000,0
158111.293,-33.203,-39.062,-34.668,-32.715,0.000,0
158111.297,-30.762,-39.551,-30.273,-28.320,0.000,0
158111.301,-27.832,-34.180,-28.809,-20.508,0.000,0
158111.305,-34.180,-35.156,-33.691,-37.598,0.000,0
158111.309,-43.457,-43.945,-45.410,-41.992,0.000,0
158111.313,-38.086,-40.039,-40.527,-28.320,0.000,0
158111.317,-35.645,-32.227,-33.691,-27.344,0.000,0
158111.321,-35.156,-31.250,-33.691,-27.832,0.000,0
158111.325,-33.203,-35.156,-36.133,-32.227,0.000,0
158111.329,-36.133,-34.180,-41.992,-37.598,0.000,0
158111.332,-35.645,-36.133,-43.457,-32.715,0.000,0
158111.336,-27.344,-40.527,-43.457,-14.160,0.000,0
158111.340,-25.391,-39.062,-38.574,-17.090,0.000,0
158111.344,-27.344,-40.039,-30.273,-30.273,0.000,0
158111.348,-30.762,-39.551,-36.133,-15.137,0.000,0
158111.352,-33.203,-39.551,-35.156,-1.953,0.000,0
158111.356,-32.227,-30.762,-27.344,1.953,0.000,0
158111.360,-28.809,-22.461,-26.367,-7.324,0.000,0
158111.364,-29.297,-25.879,-26.367,-19.531,0.000,0
158111.368,-38.086,-26.367,-23.438,-17.090,0.000,0
158111.372,-38.574,-28.809,-26.367,-16.113,0.000,0
158111.375,-34.668,-24.902,-27.832,-14.160,0.000,0
158111.379,-29.785,-22.461,-33.203,-16.113,0.000,0
158111.383,-31.738,-30.273,-34.668,-20.020,0.000,0
158111.387,-38.086,-30.762,-33.203,-26.855,0.000,0
158111.391,-28.809,-26.855,-31.250,-22.949,0.000,0
158111.395,-21.973,-26.855,-25.879,-9.277,0.000,0
158111.399,-25.879,-28.809,-27.832,-20.996,0.000,0
158111.403,-23.438,-25.879,-27.832,-32.227,0.000,0
158111.407,-22.949,-28.809,-30.273,-27.832,0.000,0
158111.411,-25.879,-28.320,-28.809,-9.766,0.000,0
158111.415,-23.926,-28.320,-27.344,-7.812,0.000,0
158111.418,-24.414,-30.762,-33.203,-22.461,0.000,0
158111.422,-18.066,-29.297,-31.250,-28.809,0.000,0
158111.426,-19.043,-35.156,-33.203,-31.738,0.000,0
158111.430,-30.273,-36.133,-38.574,-41.016,0.000,0
158111.434,-34.180,-30.762,-33.691,-41.016,0.000,0
158111.438,-30.273,-28.320,-33.203,-26.855,0.000,0
158111.442,-27.832,-31.738,-37.109,-24.902,0.000,0
158111.446,-32.715,-33.203,-38.086,-30.762,0.000,0
158111.450,-32.715,-36.621,-40.527,-38.086,0.000,0
158111.454,-38.086,-38.086,-38.574,-42.969,0.000,0
158111.457,-34.180,-28.809,-30.273,-27.344,0.000,0
158111.461,-20.020,-25.391,-24.414,-14.648,0.000,0
158111.465,-26.367,-25.879,-24.902,-34.668,0.000,0
158111.469,-31.250,-28.320,-24.414,-43.945,0.000,0
158111.473,-26.367,-27.832,-21.484,-31.250,0.000,0
158111.477,-20.996,-25.879,-23.926,-20.020,0.000,0
158111.481,-20.996,-26.855,-20.020,-25.879,0.000,0
158111.485,-22.949,-25.879,-23.926,-26.855,0.000,0
158111.489,-21.973,-21.484,-29.297,-20.508,0.000,0
158111.493,-21.973,-20.508,-23.438,-24.902,0.000,0
158111.497,-24.414,-17.090,-25.879,-18.066,0.000,0
158111.500,-28.320,-19.531,-28.809,-22.949,0.000,0
158111.504,-23.438,-23.926,-26.855,-29.785,0.000,0
158111.508,-14.648,-23.926,-24.902,-28.320,0.000,0
158111.512,-18.555,-22.949,-20.508,-26.855,0.000,0
158111.516,-15.625,-20.996,-17.578,-13.184,0.000,0
158111.520,-9.766,-17.578,-16.602,-21.973,0.000,0
158111.524,-13.672,-20.020,-21.484,-24.902,0.000,0
158111.528,-23.438,-27.344,-28.320,-9.766,0.000,0
158111.532,-22.949,-26.367,-19.531,-12.207,0.000,0
158111.536,-19.043,-23.926,-18.555,-12.695,0.000,0
158111.540,-24.414,-27.832,-19.531,-22.949,0.000,0
158111.543,-26.367,-24.414,-22.461,-39.062,0.000,0
158111.547,-29.297,-24.902,-35.156,-38.574,0.000,0
158111.551,-25.391,-29.785,-39.551,-28.809,0.000,0
158111.555,-22.461,-37.598,-36.621,-30.273,0.000,0
158111.559,-28.809,-39.062,-32.227,-36.133,0.000,0
158111.563,-35.645,-30.762,-36.621,-25.879,0.000,0
158111.567,-31.738,-27.832,-37.109,-25.391,0.000,0
158111.571,-26.855,-28.320,-34.180,-33.691,0.000,0
158111.575,-32.715,-32.227,-35.156,-37.598,0.000,0
158111.579,-29.785,-30.762,-29.297,-32.715,0.000,0
158111.582,-21.973,-31.738,-34.180,-20.508,0.000,0
158111.586,-24.414,-33.691,-35.156,-24.902,0.000,0
158111.590,-38.086,-33.203,-33.203,-28.320,0.000,0
158111.594,-43.457,-36.133,-39.551,-32.227,0.000,0
158111.598,-33.203,-33.203,-35.645,-35.156,0.000,0
158111.602,-31.738,-26.367,-25.879,-32.227,0.000,0
158111.606,-29.785,-20.996,-24.902,-22.461,0.000,0
158111.610,-24.414,-19.531,-28.320,-20.020,0.000,0
158111.614,-21.973,-25.879,-29.297,-11.230,0.000,0
158111.618,-21.973,-33.203,-27.832,-13.184,0.000,0
158111.622,-31.250,-29.785,-25.879,-30.273,0.000,0
158111.625,-30.273,-26.855,-33.203,-22.949,0.000,0
158111.629,-26.855,-32.715,-35.645,-23.438,0.000,0
158111.633,-32.715,-31.738,-30.273,-38.574,0.000,0
158111.637,-37.109,-31.250,-30.273,-31.738,0.000,0
158111.641,-34.668,-34.180,-33.691,-25.391,0.000,0
158111.645,-35.645,-31.250,-36.621,-27.832,0.000,0
158111.649,-40.039,-26.855,-31.738,-27.344,0.000,0
158111.653,-37.598,-28.320,-32.715,-26.855,0.000,0
158111.657,-31.738,-30.273,-35.156,-39.551,0.000,0
158111.661,-31.738,-32.715,-31.250,-34.180,0.000,0
158111.665,-35.645,-37.598,-39.062,-19.043,0.000,0
158111.668,-35.156,-33.203,-41.992,-23.926,0.000,0
158111.672,-25.391,-29.785,-34.668,-20.020,0.000,0
158111.676,-25.879,-29.785,-31.738,-17.578,0.000,0
158111.680,-30.762,-29.297,-32.227,-23.438,0.000,0
158111.684,-28.320,-30.762,-36.621,-25.391,0.000,0
158111.688,-25.391,-30.273,-39.062,-26.855,0.000,0
158111.692,-18.066,-26.367,-39.062,-17.578,0.000,0
158111.696,-25.879,-30.762,-39.062,-18.066,0.000,0
158111.700,-38.086,-31.738,-37.598,-26.855,0.000,0
158111.704,-32.715,-24.902,-33.691,-19.043,0.000,0
158111.707,-32.715,-21.973,-27.832,-22.949,0.000,0
158111.711,-31.250,-22.461,-28.320,-23.926,0.000,0
158111.715,-29.297,-23.438,-23.926,-24.902,0.000,0
158111.719,-27.344,-19.043,-16.602,-27.344,0.000,0
158111.723,-27.832,-17.090,-18.555,-29.297,0.000,0
158111.727,-26.855,-21.973,-21.484,-33.203,0.000,0
158111.731,-25.391,-25.879,-26.855,-27.344,0.000,0
158111.735,-25.879,-28.320,-28.320,-23.438,0.000,0
158111.739,-25.391,-27.344,-23.438,-24.414,0.000,0
158111.743,-18.555,-22.461,-24.414,-19.043,0.000,0
158111.747,-11.719,-22.461,-26.855,-26.367,0.000,0
158111.750,-23.926,-28.320,-29.297,-31.738,0.000,0
158111.754,-27.344,-33.203,-33.203,-21.484,0.000,0
158111.758,-26.855,-36.133,-28.809,-39.062,0.000,0
158111.762,-23.438,-35.156,-22.949,-37.598,0.000,0
158111.766,-16.113,-28.320,-20.996,-15.137,0.000,0
158111.770,-17.090,-20.508,-14.648,-9.277,0.000,0
158111.774,-14.160,-20.020,-16.113,-7.812,0.000,0
158111.778,-20.508,-20.996,-26.367,-23.438,0.000,0
158111.782,-30.273,-23.926,-28.320,-33.691,0.000,0
158111.786,-25.879,-24.414,-20.020,-21.973,0.000,0
158111.790,-26.855,-25.391,-22.461,-19.043,0.000,0
158111.793,-32.227,-34.180,-25.879,-29.297,0.000,0
158111.797,-29.785,-31.250,-21.484,-35.156,0.000,0
158111.801,-29.785,-28.320,-21.484,-27.832,0.000,0
158111.805,-28.809,-31.250,-26.367,-27.344,0.000,0
158111.809,-22.461,-28.320,-25.391,-26.367,0.000,0
158111.813,-25.391,-27.832,-24.902,-25.391,0.000,0
158111.817,-28.809,-28.320,-21.973,-26.855,0.000,0
158111.821,-27.344,-26.367,-20.996,-24.902,0.000,1
158111.825,-32.715,-25.391,-24.902,-30.762,0.000,0
158111.829,-36.133,-24.414,-25.391,-18.066,0.000,0
158111.832,-32.227,-24.902,-25.879,-20.996,0.000,0
158111.836,-34.180,-28.809,-26.367,-40.039,0.000,0
158111.840,-38.574,-33.691,-31.738,-31.250,0.000,0
158111.844,-33.691,-31.738,-33.691,-23.926,0.000,0
158111.848,-27.344,-27.832,-26.855,-19.043,0.000,0
158111.852,-29.297,-29.785,-23.926,-22.949,0.000,0
158111.856,-32.715,-30.762,-27.344,-35.156,0.000,0
158111.860,-30.762,-30.762,-29.785,-37.598,0.000,0
158111.864,-30.273,-29.297,-33.691,-40.527,0.000,0
158111.868,-33.691,-30.762,-39.551,-28.320,0.000,0
158111.872,-30.762,-32.715,-24.902,-26.855,0.000,0
158111.875,-22.461,-26.855,-10.254,-29.297,0.000,0
