timestamps,TP9,AF7,AF8,TP10,Right AUX,Marker0
33448.575,-32.227,-35.156,26.855,-35.645,0.000,0
33448.579,-11.719,-36.621,135.742,-12.695,0.000,0
33448.583,-32.715,-35.156,-41.992,-20.508,0.000,0
33448.586,-63.477,-31.250,-215.820,-48.340,0.000,0
33448.590,-32.715,-28.809,-41.016,-25.879,0.000,0
33448.594,-6.836,-39.062,142.578,-2.441,0.000,0
33448.598,-19.531,-41.504,34.668,-10.742,0.000,0
33448.602,-45.898,-33.691,-189.453,-31.738,0.000,0
33448.606,-45.898,-35.156,-116.699,-44.434,0.000,0
33448.610,-15.137,-46.387,127.441,-22.949,0.000,0
33448.614,-8.301,-49.316,92.285,-0.977,0.000,0
33448.618,-33.691,-36.621,-145.996,-9.766,0.000,0
33448.622,-46.387,-29.785,-190.430,-37.598,0.000,0
33448.626,-12.695,-37.109,73.730,-27.344,0.000,0
33448.629,4.395,-36.621,135.742,0.000,0.000,0
33448.633,-6.836,-30.273,-83.496,-13.184,0.000,0
33448.637,-29.297,-24.414,-226.074,-43.945,0.000,0
33448.641,-12.695,-28.809,2.930,-23.438,0.000,0
33448.645,4.395,-42.480,155.762,-6.348,0.000,0
33448.649,-8.789,-40.527,-7.812,-19.043,0.000,0
33448.653,-49.805,-26.855,-228.027,-33.203,0.000,0
33448.657,-36.621,-25.879,-77.637,-16.113,0.000,0
33448.661,0.000,-38.574,135.742,2.930,0.000,0
33448.665,-6.348,-41.992,46.875,-7.324,0.000,0
33448.668,-41.016,-28.320,-180.664,-37.109,0.000,0
33448.672,-39.062,-18.066,-143.066,-40.527,0.000,0
33448.676,-2.930,-29.297,115.234,-15.137,0.000,0
33448.680,-4.395,-36.621,110.352,-8.789,0.000,0
33448.684,-35.156,-33.203,-127.441,-29.785,0.000,0
33448.688,-50.781,-27.344,-202.148,-39.062,0.000,0
33448.692,-5.371,-30.762,50.293,-7.324,0.000,0
33448.696,17.090,-35.156,133.789,-2.930,0.000,0
33448.700,-8.789,-30.762,-72.754,-13.672,0.000,0
33448.704,-45.898,-22.949,-228.027,-35.156,0.000,0
33448.708,-17.578,-23.926,-14.648,-21.973,0.000,0
33448.711,15.625,-35.645,145.020,0.000,0.000,0
33448.715,-4.395,-38.574,4.883,-9.277,0.000,0
33448.719,-55.176,-28.809,-219.727,-43.945,0.000,0
33448.723,-46.875,-26.367,-92.285,-39.062,0.000,0
33448.727,-6.348,-34.180,136.719,-3.418,0.000,0
33448.731,-11.230,-32.715,62.012,-8.789,0.000,0
33448.735,-42.969,-24.414,-176.758,-35.156,0.000,0
33448.739,-49.805,-22.949,-170.898,-47.363,0.000,0
33448.743,-9.766,-32.227,97.656,-25.391,0.000,0
33448.747,-0.977,-36.133,125.488,-14.648,0.000,0
33448.751,-34.668,-25.879,-104.980,-40.039,0.000,0
33448.754,-55.664,-20.020,-211.426,-62.012,0.000,0
33448.758,-23.926,-27.344,33.203,-32.715,0.000,0
33448.762,-10.254,-37.109,148.926,-24.902,0.000,0
33448.766,-26.855,-30.273,-46.387,-29.297,0.000,0
33448.770,-57.129,-19.531,-239.746,-40.527,0.000,0
33448.774,-33.203,-26.855,-43.457,-30.273,0.000,0
33448.778,-5.859,-36.133,154.785,-4.395,0.000,0
33448.782,-18.555,-33.203,31.738,-20.020,0.000,0
33448.786,-53.711,-21.484,-206.543,-59.570,0.000,0
33448.790,-44.434,-20.508,-109.375,-46.875,0.000,0
33448.793,-8.789,-28.809,138.672,-12.207,0.000,0
33448.797,-4.395,-27.832,93.262,-8.301,0.000,0
33448.801,-31.250,-22.949,-151.855,-32.227,0.000,0
33448.805,-53.711,-18.066,-166.016,-55.176,0.000,0
33448.809,-10.254,-24.414,98.145,-25.879,0.000,0
33448.813,9.277,-37.109,134.277,-11.230,0.000,0
33448.817,-31.738,-34.180,-99.609,-33.203,0.000,0
33448.821,-64.941,-26.367,-216.309,-58.594,0.000,0
33448.825,-37.598,-33.203,24.902,-28.320,0.000,0
33448.829,-15.137,-36.621,143.066,-12.207,0.000,0
33448.833,-35.645,-34.668,-41.016,-34.668,0.000,0
33448.836,-74.707,-25.391,-238.770,-51.270,0.000,0
33448.840,-42.969,-25.391,-55.176,-38.574,0.000,0
33448.844,-1.465,-33.203,149.414,-14.648,0.000,0
33448.848,-10.742,-29.297,40.527,-15.137,0.000,0
33448.852,-52.734,-24.414,-197.754,-46.875,0.000,0
33448.856,-49.316,-20.508,-127.930,-46.875,0.000,0
33448.860,-3.418,-27.344,129.395,-23.926,0.000,0
33448.864,-11.719,-36.621,102.539,-22.461,0.000,0
33448.868,-54.688,-30.762,-155.762,-35.156,0.000,0
33448.872,-68.848,-24.902,-204.590,-49.316,0.000,0
33448.876,-27.832,-39.062,62.500,-31.250,0.000,0
33448.879,-3.418,-47.852,131.348,-21.973,0.000,0
33448.883,-35.156,-36.621,-82.520,-38.086,0.000,0
33448.887,-72.266,-24.902,-242.676,-62.012,0.000,0
33448.891,-37.109,-31.250,-17.578,-47.852,0.000,0
33448.895,-3.418,-37.109,146.973,-17.090,0.000,0
33448.899,-27.832,-34.180,-17.578,-23.438,0.000,0
33448.903,-68.359,-24.414,-234.863,-60.547,0.000,0
33448.907,-41.016,-20.508,-83.984,-42.969,0.000,0
33448.911,-5.859,-31.250,142.090,-2.930,0.000,0
33448.915,-14.648,-34.668,51.758,3.418,0.000,0
33448.918,-45.898,-23.926,-178.711,-29.297,0.000,0
33448.922,-50.781,-22.461,-130.371,-46.875,0.000,0
33448.926,-16.602,-30.273,109.863,-19.531,0.000,0
33448.930,-1.953,-34.668,118.652,0.977,0.000,0
33448.934,-35.645,-28.320,-130.859,-24.414,0.000,0
33448.938,-58.105,-19.531,-217.285,-48.340,0.000,0
33448.942,-6.836,-29.785,51.270,-23.438,0.000,0
33448.946,12.207,-39.551,145.508,-2.930,0.000,0
33448.950,-11.230,-33.203,-71.777,-11.719,0.000,0
33448.954,-48.340,-19.043,-248.535,-42.969,0.000,0
33448.958,-27.344,-25.391,-29.297,-31.250,0.000,0
33448.961,6.348,-38.574,155.762,-2.930,0.000,0
33448.965,-4.395,-26.367,14.648,5.859,0.000,0
33448.969,-52.246,-14.648,-224.121,-23.926,0.000,0
33448.973,-48.340,-20.996,-100.586,-27.344,0.000,0
33448.977,-2.441,-30.762,149.414,-3.906,0.000,0
33448.981,0.977,-28.809,81.055,0.488,0.000,0
33448.985,-34.180,-13.184,-178.223,-18.555,0.000,0
33448.989,-38.086,-10.742,-166.992,-34.668,0.000,0
33448.993,-3.906,-27.344,107.422,-13.184,0.000,0
33448.997,-0.488,-31.738,137.207,3.906,0.000,0
33449.001,-23.438,-21.973,-102.539,-13.184,0.000,0
33449.004,-54.688,-12.695,-211.914,-41.504,0.000,0
33449.008,-18.066,-20.508,41.992,-18.555,0.000,0
33449.012,9.277,-32.715,156.738,1.465,0.000,0
33449.016,-21.484,-29.297,-41.992,-5.371,0.000,0
33449.020,-56.641,-15.137,-236.328,-34.668,0.000,0
33449.024,-31.250,-12.695,-42.969,-37.109,0.000,0
33449.028,3.906,-23.438,150.879,-14.648,0.000,0
33449.032,5.371,-22.949,31.250,-0.488,0.000,0
33449.036,-32.227,-14.160,-209.473,-19.531,0.000,0
33449.040,-22.461,-15.137,-116.211,-18.555,0.000,0
33449.043,12.207,-23.926,137.207,8.301,0.000,0
33449.047,-16.113,-27.344,98.145,-2.930,0.000,0
33449.051,-57.129,-18.555,-155.273,-36.133,0.000,0
33449.055,-61.035,-16.602,-178.711,-50.781,0.000,0
33449.059,-16.113,-29.297,97.656,-22.949,0.000,0
33449.063,-3.418,-31.250,134.277,-10.742,0.000,0
33449.067,-36.133,-25.391,-111.816,-39.551,0.000,0
33449.071,-56.641,-18.066,-238.281,-55.664,0.000,0
33449.075,-20.020,-24.414,10.742,-17.090,0.000,0
33449.079,0.488,-36.621,150.391,-0.977,0.000,0
33449.083,-17.578,-31.250,-36.133,-18.066,0.000,0
33449.086,-56.641,-15.625,-253.906,-43.945,0.000,0
33449.090,-34.180,-17.578,-76.172,-35.645,0.000,0
33449.094,6.836,-30.762,140.137,-10.742,0.000,0
33449.098,-1.953,-33.203,38.086,-15.625,0.000,0
33449.102,-44.922,-21.484,-207.520,-43.945,0.000,0
33449.106,-41.504,-18.066,-130.859,-46.387,0.000,0
33449.110,-2.441,-35.156,123.535,-15.137,0.000,0
33449.114,-3.418,-31.738,83.008,-9.277,0.000,0
33449.118,-30.273,-15.137,-151.855,-33.691,0.000,0
33449.122,-39.062,-10.254,-168.457,-37.598,0.000,0
33449.126,-15.137,-23.926,87.402,-15.625,0.000,0
33449.129,-6.836,-34.668,125.488,-12.207,0.000,0
33449.133,-22.461,-26.855,-107.910,-18.066,0.000,0
33449.137,-37.598,-22.461,-152.344,-39.062,0.000,0
33449.141,-12.207,-31.250,103.027,-25.391,0.000,0
33449.145,-9.277,-37.109,73.242,-10.742,0.000,0
33449.149,-39.062,-26.855,-175.293,-36.133,0.000,0
33449.153,-47.363,-21.973,-181.152,-45.410,0.000,0
33449.157,-13.672,-32.715,83.008,-23.438,0.000,0
33449.161,-18.066,-35.156,46.875,-24.902,0.000,0
33449.165,-54.688,-23.438,-187.500,-41.016,0.000,0
33449.168,-39.062,-18.066,-110.840,-29.297,0.000,0
33449.172,-5.859,-29.785,111.328,-16.602,0.000,0
33449.176,-12.695,-37.598,81.055,-24.902,0.000,0
33449.180,-38.086,-19.043,-136.230,-31.738,0.000,0
33449.184,-42.480,-6.836,-170.898,-40.039,0.000,0
33449.188,-7.324,-15.625,69.336,-18.066,0.000,0
33449.192,-6.836,-26.367,117.188,-16.602,0.000,0
33449.196,-38.086,-22.949,-80.566,-39.062,0.000,0
33449.200,-52.734,-3.418,-204.590,-43.945,0.000,0
33449.204,-15.137,-5.859,11.230,-23.438,0.000,0
33449.208,3.418,-18.555,139.648,-13.184,0.000,0
33449.211,-16.113,-17.090,-15.137,-23.926,0.000,0
33449.215,-42.480,-12.207,-210.449,-52.246,0.000,0
33449.219,-23.438,-18.066,-70.312,-41.504,0.000,0
33449.223,3.906,-28.809,137.695,-14.648,0.000,0
33449.227,-9.277,-31.250,49.316,-10.742,0.000,0
33449.231,-42.480,-21.973,-182.617,-30.273,0.000,0
33449.235,-45.410,-18.555,-141.602,-48.828,0.000,0
33449.239,-1.465,-22.461,111.328,-14.160,0.000,0
33449.243,2.441,-22.461,106.934,4.395,0.000,0
33449.247,-37.109,-20.996,-132.324,-22.461,0.000,0
33449.251,-53.223,-15.625,-215.820,-48.340,0.000,0
33449.254,-20.508,-23.438,46.387,-32.715,0.000,0
33449.258,-7.324,-33.203,141.113,-13.184,0.000,0
33449.262,-27.832,-28.320,-64.941,-22.461,0.000,0
33449.266,-63.477,-20.020,-235.840,-50.781,0.000,0
33449.270,-35.645,-20.996,-23.926,-36.621,0.000,0
33449.274,4.395,-31.738,158.203,-21.973,0.000,0
33449.278,2.441,-26.367,24.414,-22.461,0.000,0
33449.282,-33.203,-11.719,-205.078,-36.621,0.000,0
33449.286,-33.203,-14.648,-105.469,-25.879,0.000,0
33449.290,0.488,-28.320,126.465,-7.812,0.000,0
33449.293,0.000,-33.203,70.801,-8.789,0.000,0
33449.297,-36.621,-23.926,-174.316,-17.578,0.000,0
33449.301,-51.758,-15.137,-176.270,-33.203,0.000,0
33449.305,-12.207,-19.531,93.750,-16.602,0.000,0
33449.309,3.906,-21.973,128.418,-0.977,0.000,0
33449.313,-19.043,-14.648,-96.680,-18.066,0.000,0
33449.317,-44.434,-7.324,-211.914,-49.805,0.000,0
33449.321,-18.555,-15.625,25.391,-30.762,0.000,0
33449.325,2.441,-29.785,147.461,-8.301,0.000,0
33449.329,-24.902,-29.785,-29.785,-6.348,0.000,0
33449.333,-67.383,-13.672,-227.051,-24.902,0.000,0
33449.336,-36.133,-16.602,-51.758,-44.434,0.000,0
33449.340,0.488,-30.762,154.297,-33.691,0.000,0
33449.344,-15.625,-29.785,46.875,-12.695,0.000,0
33449.348,-57.129,-24.414,-202.148,-35.645,0.000,0
33449.352,-47.363,-20.020,-129.883,-50.781,0.000,0
33449.356,-6.836,-27.832,133.301,-26.855,0.000,0
33449.360,-3.418,-31.738,102.539,-8.789,0.000,0
33449.364,-37.109,-23.926,-153.809,-27.344,0.000,0
33449.368,-50.293,-17.090,-195.801,-49.316,0.000,0
33449.372,-7.812,-24.414,77.637,-26.367,0.000,0
33449.376,-0.977,-34.180,141.113,-13.184,0.000,0
33449.379,-23.438,-27.344,-86.914,-24.414,0.000,0
33449.383,-43.457,-18.066,-233.887,-41.504,0.000,0
33449.387,-20.508,-22.949,-0.488,-19.531,0.000,0
33449.391,10.254,-27.832,158.691,-3.418,0.000,0
33449.395,2.930,-25.879,-8.789,-11.719,0.000,0
33449.399,-43.945,-19.043,-236.328,-35.156,0.000,0
33449.403,-39.062,-21.973,-72.266,-33.203,0.000,0
33449.407,-0.977,-30.273,159.180,-12.207,0.000,0
33449.411,-1.465,-33.691,63.477,-17.090,0.000,0
33449.415,-41.504,-23.438,-190.430,-44.434,0.000,0
33449.418,-49.805,-15.625,-141.602,-55.176,0.000,0
33449.422,-10.254,-29.297,120.117,-24.902,0.000,0
33449.426,-1.953,-36.621,104.492,-4.395,0.000,0
33449.430,-43.945,-28.809,-140.137,-28.320,0.000,0
33449.434,-62.988,-20.020,-206.543,-50.293,0.000,0
33449.438,-14.648,-25.879,55.176,-22.949,0.000,0
33449.442,6.348,-31.738,144.531,-10.742,0.000,0
33449.446,-17.578,-24.902,-71.289,-21.484,0.000,0
33449.450,-58.105,-15.625,-233.398,-47.852,0.000,0
33449.454,-27.344,-20.508,-11.230,-43.945,0.000,0
33449.458,16.602,-28.320,153.809,-11.230,0.000,0
33449.461,-4.883,-30.273,5.371,-1.465,0.000,0
33449.465,-49.316,-25.391,-225.586,-27.344,0.000,0
33449.469,-36.621,-30.273,-89.355,-35.645,0.000,0
33449.473,0.977,-43.945,145.996,-12.695,0.000,0
33449.477,4.883,-39.062,76.660,0.977,0.000,0
33449.481,-30.762,-24.414,-175.293,-21.973,0.000,0
33449.485,-38.574,-23.438,-163.574,-41.992,0.000,0
33449.489,1.953,-33.203,108.398,-20.996,0.000,0
33449.493,2.441,-38.086,121.582,-17.090,0.000,0
33449.497,-27.344,-26.367,-124.023,-26.855,0.000,0
33449.501,-43.945,-16.602,-222.168,-43.945,0.000,0
33449.504,-7.324,-19.531,40.039,-23.438,0.000,0
33449.508,17.578,-24.414,159.180,-1.953,0.000,0
33449.512,-10.254,-20.996,-43.457,-16.602,0.000,0
33449.516,-47.852,-8.789,-241.699,-38.574,0.000,0
33449.520,-18.066,-12.207,-37.598,-28.809,0.000,0
33449.524,8.301,-25.391,159.668,-10.254,0.000,0
33449.528,-11.719,-25.879,14.160,-15.137,0.000,0
33449.532,-43.457,-15.625,-216.797,-43.457,0.000,0
33449.536,-34.180,-17.578,-96.680,-44.434,0.000,0
33449.540,-0.488,-31.250,136.230,-14.160,0.000,0
33449.543,7.324,-26.855,90.820,-0.977,0.000,0
33449.547,-32.227,-14.160,-167.480,-29.297,0.000,0
33449.551,-55.664,-14.648,-184.570,-50.293,0.000,0
33449.555,-18.066,-23.438,91.797,-23.926,0.000,0
33449.559,-0.977,-27.832,132.324,-5.371,0.000,0
33449.563,-30.762,-25.391,-110.840,-18.555,0.000,0
33449.567,-60.059,-19.043,-228.027,-47.363,0.000,0
33449.571,-25.391,-22.949,31.250,-36.621,0.000,0
33449.575,4.883,-30.762,156.738,-8.301,0.000,0
33449.579,-12.695,-28.320,-32.715,-6.836,0.000,0
33449.583,-58.594,-19.531,-230.469,-31.250,0.000,0
33449.586,-42.480,-21.484,-43.945,-27.344,0.000,0
33449.590,0.977,-29.297,161.621,-18.066,0.000,0
33449.594,-2.930,-29.297,41.504,-23.438,0.000,0
33449.598,-38.086,-18.066,-208.496,-42.969,0.000,0
33449.602,-35.645,-14.160,-125.977,-39.551,0.000,0
33449.606,1.465,-22.461,128.906,-21.484,0.000,0
33449.610,3.418,-25.879,103.027,-17.090,0.000,0
33449.614,-41.504,-19.043,-151.855,-34.180,0.000,0
33449.618,-61.035,-13.184,-194.336,-56.641,0.000,0
33449.622,-13.184,-24.414,85.938,-30.762,0.000,0
33449.626,-1.465,-31.250,146.973,-9.277,0.000,0
33449.629,-31.250,-22.949,-79.102,-22.461,0.000,0
33449.633,-59.570,-16.602,-229.492,-54.199,0.000,0
33449.637,-27.344,-23.926,1.465,-41.016,0.000,0
33449.641,8.789,-27.832,172.363,-1.465,0.000,0
33449.645,-25.391,-21.973,-29.297,-9.766,0.000,0
33449.649,-55.176,-16.113,-185.059,-41.016,0.000,0
33449.653,-9.766,-21.973,57.617,-25.879,0.000,0
33449.657,5.859,-30.273,148.926,-10.742,0.000,0
33449.661,-26.367,-27.832,-76.660,-18.555,0.000,0
33449.665,-58.105,-13.184,-229.980,-46.875,0.000,0
33449.668,-25.879,-16.602,4.395,-35.156,0.000,0
33449.672,12.695,-27.832,165.039,1.465,0.000,0
33449.676,-6.836,-28.320,-2.930,-1.953,0.000,0
33449.680,-50.781,-18.555,-236.816,-41.992,0.000,0
33449.684,-35.156,-17.090,-80.078,-34.668,0.000,0
33449.688,0.488,-30.273,162.598,-12.207,0.000,0
33449.692,3.906,-29.785,70.312,-17.578,0.000,0
33449.696,-29.297,-18.066,-193.848,-44.434,0.000,0
33449.700,-44.922,-19.043,-157.227,-49.316,0.000,0
33449.704,-9.277,-27.832,114.258,-21.973,0.000,0
33449.708,12.207,-25.879,120.117,-8.789,0.000,0
33449.711,-28.809,-20.508,-131.348,-21.973,0.000,0
33449.715,-61.035,-20.020,-209.473,-51.758,0.000,0
33449.719,-16.602,-25.391,57.617,-26.367,0.000,0
33449.723,8.789,-30.273,149.902,-1.465,0.000,0
33449.727,-24.414,-22.949,-54.688,-22.949,0.000,0
33449.731,-73.730,-14.648,-226.562,-56.641,0.000,0
33449.735,-39.551,-16.602,-8.301,-30.762,0.000,0
33449.739,6.836,-25.391,161.621,10.254,0.000,0
33449.743,0.000,-24.414,18.555,5.371,0.000,0
33449.747,-48.340,-15.625,-208.008,-43.457,0.000,0
33449.751,-31.738,-11.230,-83.984,-27.832,0.000,0
33449.754,29.785,-17.578,150.879,11.230,0.000,0
33449.758,24.414,-22.949,74.707,7.324,0.000,0
33449.762,-46.387,-13.184,-175.293,-34.668,0.000,0
33449.766,-67.383,-9.277,-151.855,-63.965,0.000,0
33449.770,-1.465,-19.531,111.816,-20.020,0.000,0
33449.774,6.348,-23.926,128.906,-10.254,0.000,0
33449.778,-49.805,-20.020,-105.957,-36.133,0.000,0
33449.782,-63.477,-14.648,-199.707,-45.410,0.000,0
33449.786,-19.531,-21.973,56.152,-37.109,0.000,0
33449.790,-0.977,-27.832,152.832,-17.090,0.000,0
33449.793,-16.113,-22.949,-40.527,-10.742,0.000,0
33449.797,-56.152,-18.555,-218.262,-35.645,0.000,0
33449.801,-28.320,-21.973,-19.531,-27.832,0.000,0
33449.805,5.371,-29.297,164.551,-11.719,0.000,0
33449.809,-18.066,-29.785,22.949,-16.113,0.000,0
33449.813,-58.594,-18.555,-213.379,-33.203,0.000,0
33449.817,-47.363,-17.578,-107.910,-31.738,0.000,0
33449.821,-9.277,-27.344,132.324,-19.043,0.000,0
33449.825,-10.742,-29.785,82.520,-27.832,0.000,0
33449.829,-46.875,-20.508,-177.246,-48.340,0.000,0
33449.833,-55.664,-12.207,-181.641,-50.293,0.000,0
33449.836,-15.625,-24.902,90.332,-20.020,0.000,0
33449.840,-7.812,-28.809,117.676,-10.254,0.000,0
33449.844,-34.668,-15.625,-106.445,-32.227,0.000,0
33449.848,-64.453,-10.742,-211.914,-61.523,0.000,0
33449.852,-26.367,-20.020,30.273,-31.738,0.000,0
33449.856,3.418,-29.297,130.859,-8.301,0.000,0
33449.860,-20.996,-23.926,-50.293,-12.695,0.000,0
33449.864,-51.270,-11.719,-223.145,-37.109,0.000,0
33449.868,-21.973,-14.160,-37.109,-28.809,0.000,0
33449.872,10.742,-24.902,141.602,-0.977,0.000,0
33449.876,0.488,-26.367,16.113,-1.953,0.000,0
33449.879,-35.645,-16.602,-208.984,-20.020,0.000,0
33449.883,-35.156,-18.066,-109.863,-29.297,0.000,0
33449.887,-0.488,-28.320,130.859,-10.254,0.000,0
33449.891,-1.465,-33.691,81.055,6.348,0.000,0
33449.895,-45.898,-32.715,-157.715,-15.625,0.000,0
33449.899,-56.641,-25.879,-174.805,-34.668,0.000,0
33449.903,-12.695,-31.738,88.379,-16.113,0.000,0
33449.907,-4.395,-38.086,132.324,-8.301,0.000,0
33449.911,-36.133,-29.785,-83.496,-20.996,0.000,0
33449.915,-65.918,-26.367,-202.148,-39.551,0.000,0
33449.918,-28.320,-28.809,25.879,-23.926,0.000,0
33449.922,-6.836,-33.203,150.879,-18.066,0.000,0
33449.926,-34.668,-37.109,-20.508,-31.250,0.000,0
33449.930,-70.312,-26.855,-221.680,-56.641,0.000,0
33449.934,-48.828,-29.297,-54.688,-48.828,0.000,0
33449.938,-15.137,-40.527,141.113,-21.484,0.000,0
33449.942,-33.691,-42.969,30.762,-27.344,0.000,0
33449.946,-63.965,-35.156,-199.219,-49.316,0.000,0
33449.950,-47.363,-26.367,-130.859,-47.852,0.000,0
33449.954,-19.043,-32.227,110.840,-33.691,0.000,0
33449.958,-21.484,-37.109,83.008,-29.297,0.000,0
33449.961,-53.223,-32.715,-154.785,-39.551,0.000,0
33449.965,-58.594,-23.438,-184.570,-47.363,0.000,0
33449.969,-16.113,-29.297,72.266,-21.484,0.000,0
33449.973,-15.625,-40.527,122.559,-18.066,0.000,0
33449.977,-35.645,-30.762,-80.566,-25.391,0.000,0
33449.981,-53.223,-18.555,-213.867,-49.316,0.000,0
33449.985,-25.879,-25.391,7.324,-46.387,0.000,0
33449.989,-1.953,-35.645,144.043,-22.949,0.000,0
33449.993,-10.742,-29.785,-12.695,-19.531,0.000,0
33449.997,-47.363,-19.531,-209.473,-40.039,0.000,0
33450.001,-37.109,-18.066,-56.641,-37.598,0.000,0
33450.004,0.000,-25.391,143.555,-23.438,0.000,0
33450.008,-4.395,-30.273,35.156,-30.762,0.000,0
33450.012,-36.621,-26.855,-188.965,-48.828,0.000,0
33450.016,-32.715,-23.926,-132.324,-38.086,0.000,0
33450.020,7.324,-26.367,117.676,-8.789,0.000,0
33450.024,14.160,-27.832,103.027,-5.371,0.000,0
33450.028,-21.973,-25.879,-133.789,-18.555,0.000,0
33450.032,-40.039,-20.508,-184.570,-37.598,0.000,0
33450.036,4.395,-26.367,70.312,-13.672,0.000,0
33450.040,8.301,-35.645,132.812,-12.695,0.000,0
33450.043,-18.555,-29.785,-59.570,-29.785,0.000,0
33450.047,-41.016,-24.414,-203.125,-38.086,0.000,0
33450.051,-8.789,-28.809,1.953,-22.461,0.000,0
33450.055,11.719,-34.668,140.137,-10.254,0.000,0
33450.059,-3.418,-34.668,-5.371,-17.578,0.000,0
33450.063,-34.180,-18.555,-200.684,-30.273,0.000,0
33450.067,-22.949,-16.113,-79.590,-15.137,0.000,0
33450.071,13.184,-27.344,133.789,-3.906,0.000,0
33450.075,6.836,-25.391,56.152,-11.719,0.000,0
33450.079,-32.227,-17.090,-175.781,-31.738,0.000,0
33450.083,-41.992,-14.648,-144.531,-36.621,0.000,0
33450.086,-7.812,-23.438,101.074,-5.859,0.000,0
33450.090,3.418,-27.344,96.191,-10.254,0.000,0
33450.094,-31.738,-19.531,-117.676,-29.297,0.000,0
33450.098,-50.781,-11.230,-185.547,-45.410,0.000,0
33450.102,-4.395,-15.137,60.059,-26.367,0.000,0
33450.106,4.883,-24.414,139.648,-6.836,0.000,0
33450.110,-22.949,-25.391,-42.480,-20.996,0.000,0
33450.114,-41.016,-12.695,-206.055,-40.527,0.000,0
33450.118,-11.230,-13.184,-12.695,-22.949,0.000,0
33450.122,13.672,-23.438,171.875,-4.883,0.000,0
33450.126,-5.371,-25.879,34.180,-9.277,0.000,0
33450.129,-50.781,-20.996,-210.938,-28.320,0.000,0
33450.133,-44.434,-18.066,-119.141,-25.391,0.000,0
33450.137,-0.488,-28.320,130.371,-6.836,0.000,0
33450.141,-3.418,-30.762,78.613,-12.207,0.000,0
33450.145,-41.504,-20.508,-168.457,-29.785,0.000,0
33450.149,-50.781,-14.648,-188.477,-41.504,0.000,0
33450.153,-2.930,-23.926,98.145,-15.137,0.000,0
33450.157,14.160,-32.715,127.441,-1.953,0.000,0
33450.161,-40.039,-22.461,-173.340,-38.574,0.000,0
33450.165,-39.062,-16.113,-136.719,-37.109,0.000,0
33450.168,12.207,-26.367,131.348,-3.418,0.000,0
33450.172,11.719,-31.250,97.168,2.441,0.000,0
33450.176,-27.344,-23.926,-147.949,-21.484,0.000,0
33450.180,-45.898,-18.066,-184.082,-41.504,0.000,0
33450.184,-4.395,-24.902,81.055,-16.602,0.000,0
33450.188,8.789,-24.902,140.625,1.953,0.000,0
33450.192,-20.020,-20.996,-88.379,-12.207,0.000,0
33450.196,-47.852,-17.578,-231.934,-49.316,0.000,0
33450.200,-17.090,-19.531,8.789,-39.062,0.000,0
33450.204,13.184,-26.855,154.297,-12.207,0.000,0
33450.208,-9.766,-23.438,-20.020,-18.066,0.000,0
33450.211,-60.059,-14.160,-234.375,-43.945,0.000,0
33450.215,-42.480,-19.043,-73.730,-39.062,0.000,0
33450.219,-0.488,-31.250,150.879,-22.949,0.000,0
33450.223,-13.184,-33.691,59.082,-19.043,0.000,0
33450.227,-53.223,-21.484,-195.801,-49.805,0.000,0
33450.231,-52.246,-18.066,-159.668,-55.664,0.000,0
33450.235,-8.301,-32.715,109.863,-17.090,0.000,0
33450.239,0.977,-39.062,120.605,-6.348,0.000,0
33450.243,-37.109,-33.691,-128.418,-21.484,0.000,0
33450.247,-57.617,-29.297,-218.750,-36.621,0.000,0
33450.251,-16.113,-34.180,46.387,-8.301,0.000,0
33450.254,5.371,-37.598,145.020,3.906,0.000,0
33450.258,-27.832,-34.180,-66.406,-24.414,0.000,0
33450.262,-68.359,-27.832,-249.512,-59.082,0.000,0
33450.266,-31.738,-32.715,-33.691,-39.551,0.000,0
33450.270,-0.488,-42.480,143.066,0.977,0.000,0
33450.274,-17.578,-40.039,-3.906,-4.395,0.000,0
33450.278,-59.570,-30.762,-232.910,-45.898,0.000,0
33450.282,-45.898,-30.273,-107.910,-37.598,0.000,0
33450.286,-8.789,-37.109,140.137,-7.812,0.000,0
33450.290,-12.207,-36.621,78.125,-9.766,0.000,0
33450.293,-41.016,-24.902,-185.547,-23.926,0.000,0
33450.297,-48.340,-17.578,-166.992,-38.086,0.000,0
33450.301,-6.348,-25.391,111.816,-24.902,0.000,0
33450.305,8.789,-33.203,127.930,-5.371,0.000,0
33450.309,-15.137,-24.902,-122.559,-16.602,0.000,0
33450.313,-43.945,-17.578,-217.285,-50.781,0.000,0
33450.317,-17.090,-24.902,52.246,-27.344,0.000,0
33450.321,10.254,-26.855,158.691,4.395,0.000,0
33450.325,-8.301,-25.879,-44.922,-4.395,0.000,0
33450.329,-50.293,-19.043,-233.887,-40.039,0.000,0
33450.333,-33.203,-22.461,-29.785,-35.156,0.000,0
33450.336,5.371,-30.762,160.156,-10.742,0.000,0
33450.340,-2.930,-28.809,28.320,-13.184,0.000,0
33450.344,-49.316,-18.555,-213.867,-38.086,0.000,0
33450.348,-43.457,-16.113,-115.234,-44.434,0.000,0
33450.352,-3.906,-28.809,137.207,-23.926,0.000,0
33450.356,-2.441,-34.180,95.703,-18.066,0.000,0
33450.360,-37.598,-21.484,-161.621,-39.062,0.000,0
33450.364,-53.711,-12.207,-180.176,-65.430,0.000,0
33450.368,-12.695,-21.484,99.121,-39.062,0.000,0
33450.372,-0.488,-23.926,126.465,-3.906,0.000,0
33450.376,-34.668,-25.391,-111.816,-20.996,0.000,0
33450.379,-62.012,-24.414,-227.051,-50.781,0.000,0
33450.383,-22.461,-26.367,16.602,-26.367,0.000,0
33450.387,11.230,-33.203,151.367,-0.977,0.000,0
33450.391,-8.789,-28.320,-25.391,-1.953,0.000,0
33450.395,-48.340,-18.066,-228.516,-34.668,0.000,0
33450.399,-25.879,-19.531,-51.270,-35.156,0.000,0
33450.403,17.578,-28.809,164.551,-7.324,0.000,0
33450.407,8.301,-29.297,48.340,-6.348,0.000,0
33450.411,-39.551,-20.020,-210.449,-24.414,0.000,0
33450.415,-42.480,-20.508,-131.348,-42.480,0.000,0
33450.418,-1.465,-29.297,135.742,-29.297,0.000,0
33450.422,0.977,-29.785,104.492,-11.230,0.000,0
33450.426,-38.574,-27.344,-157.715,-27.832,0.000,0
33450.430,-53.711,-24.902,-202.148,-42.969,0.000,0
33450.434,-6.348,-28.809,87.891,-17.090,0.000,0
33450.438,21.973,-32.715,162.109,9.277,0.000,0
33450.442,-27.344,-30.273,-88.867,-25.879,0.000,0
33450.446,-72.754,-16.113,-243.652,-66.895,0.000,0
33450.450,-21.973,-15.137,2.441,-26.367,0.000,0
33450.454,0.977,-28.320,158.691,-15.625,0.000,0
33450.458,-3.906,-22.949,-10.742,-15.625,0.000,0
33450.461,-40.039,-9.766,-236.816,-36.133,0.000,0
33450.465,-46.875,-7.812,-75.684,-50.781,0.000,0
33450.469,2.441,-18.066,176.270,-11.230,0.000,0
33450.473,-11.230,-22.949,-6.836,-20.508,0.000,0
33450.477,-62.012,-14.160,-229.492,-54.688,0.000,0
33450.481,-30.273,-15.625,1.953,-28.320,0.000,0
33450.485,14.648,-29.785,161.621,0.977,0.000,0
33450.489,-1.953,-29.297,-0.977,-1.465,0.000,0
33450.493,-54.688,-13.184,-216.797,-38.574,0.000,0
33450.497,-35.645,-11.719,-75.195,-41.992,0.000,0
33450.501,7.812,-24.414,152.344,-12.207,0.000,0
33450.504,-6.348,-28.320,69.824,3.906,0.000,0
33450.508,-48.828,-21.484,-195.312,-20.020,0.000,0
33450.512,-48.828,-14.648,-157.715,-43.945,0.000,0
33450.516,-9.766,-19.531,116.699,-16.113,0.000,0
33450.520,-3.906,-25.879,113.770,-7.812,0.000,0
33450.524,-41.504,-21.484,-135.254,-30.762,0.000,0
33450.528,-61.523,-16.113,-217.285,-54.199,0.000,0
33450.532,-21.484,-23.438,51.758,-32.227,0.000,0
33450.536,6.348,-28.320,152.832,-0.977,0.000,0
33450.540,-12.207,-20.020,-52.734,-1.465,0.000,0
33450.543,-48.828,-9.277,-233.398,-29.297,0.000,0
33450.547,-18.066,-13.672,-21.484,-19.531,0.000,0
33450.551,8.789,-25.391,163.086,-2.930,0.000,0
33450.555,-16.113,-24.414,20.508,-4.395,0.000,0
33450.559,-59.570,-15.137,-231.445,-41.992,0.000,0
33450.563,-40.527,-16.602,-107.910,-47.852,0.000,0
33450.567,-1.953,-24.414,148.438,-14.648,0.000,0
33450.571,-8.301,-27.832,86.914,-20.020,0.000,0
33450.575,-43.945,-19.531,-179.688,-48.828,0.000,0
33450.579,-46.387,-7.812,-181.152,-53.223,0.000,0
33450.583,1.953,-16.113,95.703,-20.996,0.000,0
33450.586,12.695,-26.367,125.488,-0.977,0.000,0
33450.590,-27.832,-20.020,-118.164,-23.926,0.000,0
33450.594,-58.594,-15.625,-224.121,-56.641,0.000,0
33450.598,-17.090,-23.926,37.598,-36.133,0.000,0
33450.602,12.207,-29.785,156.250,-9.277,0.000,0
33450.606,-15.137,-25.391,-38.086,-13.184,0.000,0
33450.610,-58.105,-11.719,-234.375,-42.480,0.000,0
33450.614,-33.203,-11.719,-34.668,-28.320,0.000,0
33450.618,6.836,-20.020,165.527,-9.766,0.000,0
33450.622,0.488,-20.508,35.645,-15.625,0.000,0
33450.626,-41.016,-13.672,-214.355,-40.039,0.000,0
33450.629,-39.062,-15.625,-104.492,-46.387,0.000,0
33450.633,0.000,-25.879,145.020,-16.113,0.000,0
33450.637,7.324,-29.785,82.520,-4.883,0.000,0
33450.641,-32.715,-27.832,-184.082,-40.527,0.000,0
33450.645,-53.711,-19.531,-198.730,-56.152,0.000,0
33450.649,-6.348,-19.043,88.379,-25.879,0.000,0
33450.653,10.742,-25.879,143.066,-19.531,0.000,0
33450.657,-25.391,-24.414,-94.238,-30.762,0.000,0
33450.661,-59.082,-10.742,-227.539,-46.875,0.000,0
33450.665,-20.020,-18.066,23.926,-25.879,0.000,0
33450.668,12.695,-28.320,165.039,0.488,0.000,0
33450.672,-6.836,-19.043,-14.160,-7.324,0.000,0
33450.676,-52.734,-9.766,-230.469,-49.316,0.000,0
33450.680,-36.621,-14.160,-62.500,-34.668,0.000,0
33450.684,2.930,-27.344,152.344,5.859,0.000,0
33450.688,0.000,-29.785,55.176,1.953,0.000,0
33450.692,-38.086,-17.578,-204.590,-43.457,0.000,0
33450.696,-43.457,-14.160,-146.484,-45.898,0.000,0
33450.700,-1.953,-26.855,124.023,-10.742,0.000,0
33450.704,5.859,-29.297,106.445,-3.906,0.000,0
33450.708,-31.250,-23.926,-155.273,-26.855,0.000,0
33450.711,-40.527,-16.602,-208.008,-48.340,0.000,0
33450.715,4.395,-22.461,71.289,-18.555,0.000,0
33450.719,12.695,-33.203,154.297,0.977,0.000,0
33450.723,-13.184,-27.832,-68.848,-3.906,0.000,0
33450.727,-41.504,-13.184,-223.633,-31.738,0.000,0
33450.731,-17.578,-20.020,22.461,-20.996,0.000,0
33450.735,6.836,-33.691,175.781,8.789,0.000,0
33450.739,-9.766,-34.668,0.488,2.441,0.000,0
33450.743,-51.270,-22.949,-230.957,-36.133,0.000,0
33450.747,-38.086,-20.020,-77.148,-37.109,0.000,0
33450.751,6.348,-25.879,163.574,-15.137,0.000,0
33450.754,11.719,-20.020,65.918,-6.836,0.000,0
33450.758,-31.250,-13.184,-214.844,-31.738,0.000,0
33450.762,-35.645,-8.301,-168.457,-34.668,0.000,0
33450.766,24.414,-2.441,133.301,15.137,0.000,0
33450.770,24.414,-9.277,126.465,18.555,0.000,0
33450.774,-37.109,-9.277,-155.762,-16.113,0.000,0
33450.778,-48.340,6.348,-225.098,-44.922,0.000,0
33450.782,8.301,10.254,51.758,-8.789,0.000,0
33450.786,19.043,10.742,139.160,4.395,0.000,0
33450.790,-19.531,19.531,-62.988,-25.879,0.000,0
33450.793,-51.270,30.273,-243.652,-50.293,0.000,0
33450.797,-22.461,36.621,-26.855,-23.926,0.000,0
33450.801,2.930,42.969,149.902,10.254,0.000,0
33450.805,-8.301,45.410,-4.883,-0.977,0.000,0
33450.809,-57.129,54.688,-238.281,-36.621,0.000,0
33450.813,-50.781,64.453,-113.281,-30.762,0.000,0
33450.817,2.930,57.617,129.395,-8.301,0.000,0
33450.821,6.348,54.688,60.059,-3.418,0.000,0
33450.825,-44.434,68.359,-205.078,-27.832,0.000,0
33450.829,-52.246,76.172,-186.523,-49.316,0.000,0
33450.833,-4.883,69.336,91.797,-18.066,0.000,0
33450.836,10.254,66.895,111.816,13.672,0.000,0
33450.840,-16.113,75.684,-135.742,6.836,0.000,0
33450.844,-52.734,83.984,-235.840,-29.297,0.000,0
33450.848,-20.020,69.824,35.156,-27.344,0.000,0
33450.852,9.766,58.105,154.785,-5.859,0.000,0
33450.856,-15.137,60.547,-40.527,-7.324,0.000,0
33450.860,-50.781,64.453,-241.211,-39.062,0.000,0
33450.864,-22.949,57.129,-37.598,-29.297,0.000,0
33450.868,7.812,37.109,171.387,-17.090,0.000,0
33450.872,-6.836,31.250,30.762,-14.160,0.000,0
33450.876,-50.293,40.527,-233.398,-35.645,0.000,0
33450.879,-50.781,39.551,-110.840,-47.363,0.000,0
33450.883,-13.184,26.855,145.996,-24.902,0.000,0
33450.887,3.906,18.555,85.449,-14.160,0.000,0
33450.891,-30.762,24.902,-178.711,-35.645,0.000,0
33450.895,-58.594,30.762,-200.684,-54.688,0.000,0
33450.899,-20.996,14.648,99.121,-18.555,0.000,0
33450.903,0.000,0.000,123.535,-2.441,0.000,0
33450.907,-44.922,5.859,-183.594,-43.945,0.000,0
33450.911,-49.805,6.836,-129.395,-42.480,0.000,0
33450.915,-9.277,-3.418,145.996,-19.531,0.000,0
33450.918,-6.836,-9.277,104.004,-19.043,0.000,0
33450.922,-45.898,-0.977,-151.855,-40.527,0.000,0
33450.926,-65.918,5.859,-176.758,-61.035,0.000,0
33450.930,-14.160,-6.348,101.074,-26.855,0.000,0
33450.934,3.418,-18.066,149.902,-10.742,0.000,0
33450.938,-42.969,-13.184,-89.844,-32.227,0.000,0
33450.942,-71.777,-10.254,-229.980,-57.617,0.000,0
33450.946,-23.926,-21.973,15.137,-36.133,0.000,0
33450.950,3.906,-34.180,157.715,-15.625,0.000,0
33450.954,-25.391,-33.203,-20.996,-25.879,0.000,0
33450.958,-62.500,-20.996,-238.770,-54.688,0.000,0
33450.961,-34.180,-24.414,-62.500,-47.852,0.000,0
33450.965,2.930,-37.109,166.992,-23.438,0.000,0
33450.969,-6.348,-40.039,72.266,-25.391,0.000,0
33450.973,-50.781,-28.320,-188.965,-47.852,0.000,0
33450.977,-51.270,-28.320,-129.883,-54.688,0.000,0
33450.981,-2.441,-42.969,142.578,-28.320,0.000,0
33450.985,-7.324,-48.828,86.914,-18.555,0.000,0
33450.989,-49.805,-40.527,-164.551,-41.504,0.000,0
33450.993,-64.453,-33.203,-192.383,-56.641,0.000,0
33450.997,-20.508,-43.945,80.566,-29.297,0.000,0
33451.001,-1.465,-54.199,159.668,-3.418,0.000,0
33451.004,-33.203,-53.223,-64.453,-21.973,0.000,0
33451.008,-68.848,-40.039,-228.516,-58.594,0.000,0
33451.012,-31.250,-43.457,3.418,-36.621,0.000,0
33451.016,4.395,-57.129,169.434,-4.883,0.000,0
33451.020,-7.324,-48.828,10.254,-8.789,0.000,0
33451.024,-51.758,-41.992,-219.727,-51.270,0.000,0
33451.028,-40.527,-47.852,-73.730,-54.688,0.000,0
33451.032,2.441,-54.688,161.133,-13.672,0.000,0
33451.036,-1.953,-57.129,74.707,2.930,0.000,0
33451.040,-43.457,-51.758,-191.895,-28.809,0.000,0
33451.043,-52.734,-52.246,-153.320,-52.734,0.000,0
33451.047,-13.184,-62.500,128.418,-22.949,0.000,0
33451.051,-1.953,-65.430,129.395,-1.953,0.000,0
33451.055,-30.273,-56.641,-128.418,-24.414,0.000,0
33451.059,-55.176,-49.316,-217.773,-56.152,0.000,0
33451.063,-21.484,-57.129,60.059,-37.598,0.000,0
33451.067,0.488,-68.848,157.227,-16.602,0.000,0
33451.071,-26.855,-61.035,-59.082,-28.320,0.000,0
33451.075,-67.383,-45.898,-240.234,-43.945,0.000,0
33451.079,-41.016,-46.875,-24.414,-16.602,0.000,0
33451.083,1.953,-57.129,166.992,-7.324,0.000,0
33451.086,-6.348,-59.570,20.020,-13.672,0.000,0
33451.090,-57.129,-51.758,-226.562,-31.250,0.000,0
33451.094,-43.945,-51.270,-99.609,-41.016,0.000,0
33451.098,8.301,-59.082,146.973,-15.137,0.000,0
33451.102,3.418,-64.941,83.984,-8.301,0.000,0
33451.106,-45.410,-56.641,-170.410,-34.668,0.000,0
33451.110,-53.711,-44.922,-166.504,-40.527,0.000,0
33451.114,-5.859,-54.688,105.957,-19.531,0.000,0
33451.118,2.441,-65.430,130.371,-17.090,0.000,0
33451.122,-31.250,-59.570,-111.328,-34.180,0.000,0
33451.126,-60.059,-52.246,-227.051,-50.781,0.000,0
33451.129,-20.508,-57.617,27.344,-21.484,0.000,0
33451.133,13.184,-59.570,154.785,10.742,0.000,0
33451.137,-15.625,-48.828,-35.645,-0.977,0.000,0
33451.141,-62.988,-46.875,-238.770,-50.781,0.000,0
33451.145,-30.762,-52.734,-42.480,-48.828,0.000,0
33451.149,4.395,-55.176,159.180,-7.812,0.000,1
33451.153,-11.230,-54.688,30.273,-3.906,0.000,0
33451.157,-44.922,-42.969,-212.891,-35.645,0.000,0
33451.161,-40.039,-40.527,-110.840,-46.387,0.000,0
33451.165,0.000,-51.758,150.879,-20.020,0.000,0
33451.168,6.348,-50.293,107.422,-5.371,0.000,0
33451.172,-31.738,-41.992,-157.715,-26.367,0.000,0
33451.176,-52.734,-41.016,-196.777,-38.086,0.000,0
33451.180,-3.906,-50.293,87.891,-15.137,0.000,0
33451.184,10.742,-55.176,151.367,-12.695,0.000,0
33451.188,-21.484,-43.457,-99.121,-14.160,0.000,0
33451.192,-40.527,-30.762,-235.352,-29.785,0.000,0
33451.196,-0.488,-40.527,23.438,-11.230,0.000,0
33451.200,24.414,-52.246,173.340,2.930,0.000,0
33451.204,-3.418,-48.340,-5.371,-14.648,0.000,0
33451.208,-50.781,-40.039,-228.027,-40.039,0.000,0
33451.211,-29.297,-43.457,-59.082,-35.156,0.000,0
33451.215,10.254,-48.828,164.551,2.441,0.000,0
33451.219,-0.488,-45.898,56.152,0.977,0.000,0
33451.223,-46.387,-36.133,-204.102,-44.434,0.000,0
33451.227,-42.480,-29.297,-126.953,-44.922,0.000,0
33451.231,3.418,-39.062,139.648,-15.137,0.000,0
33451.235,7.324,-47.363,110.840,-5.371,0.000,0
33451.239,-34.668,-39.551,-145.020,-25.879,0.000,0
33451.243,-53.711,-29.297,-194.336,-51.758,0.000,0
33451.247,-8.789,-34.668,77.637,-24.902,0.000,0
33451.251,1.953,-47.363,142.090,-0.488,0.000,0
33451.254,-27.832,-43.457,-94.727,-13.672,0.000,0
33451.258,-54.688,-31.250,-234.375,-49.805,0.000,0
33451.262,-20.996,-37.109,13.672,-34.668,0.000,0
33451.266,11.230,-44.922,157.227,-1.465,0.000,0
33451.270,-2.930,-35.645,-11.230,-9.277,0.000,0
33451.274,-47.852,-26.367,-235.352,-45.410,0.000,0
33451.278,-27.832,-32.227,-83.496,-40.039,0.000,0
33451.282,12.695,-37.109,150.391,-12.695,0.000,0
33451.286,6.836,-34.180,74.219,-6.348,0.000,0
33451.290,-27.344,-26.855,-186.523,-25.391,0.000,0
33451.293,-34.668,-18.555,-152.344,-35.156,0.000,0
33451.297,7.812,-25.391,124.512,-13.672,0.000,0
33451.301,11.719,-34.180,125.000,-2.441,0.000,0
33451.305,-31.250,-28.809,-130.371,-22.949,0.000,0
33451.309,-61.035,-20.996,-214.355,-41.504,0.000,0
33451.313,-13.184,-27.344,64.941,-5.371,0.000,0
33451.317,5.859,-34.668,138.184,1.465,0.000,0
33451.321,-32.227,-33.691,-91.309,-33.203,0.000,0
33451.325,-62.988,-28.320,-244.629,-65.430,0.000,0
33451.329,-37.109,-30.273,-25.391,-40.527,0.000,0
33451.333,0.488,-37.109,156.738,-4.395,0.000,0
33451.336,-4.395,-35.156,9.766,-4.883,0.000,0
33451.340,-45.898,-20.508,-221.680,-37.109,0.000,0
33451.344,-29.785,-17.090,-88.867,-30.762,0.000,0
33451.348,16.602,-25.879,162.109,-0.488,0.000,0
33451.352,15.137,-25.879,78.613,4.395,0.000,0
33451.356,-19.531,-20.508,-156.738,-8.789,0.000,0
33451.360,-32.715,-20.996,-124.023,-29.785,0.000,0
33451.364,-0.977,-30.273,105.957,-8.789,0.000,0
33451.368,11.719,-36.621,126.465,13.184,0.000,0
33451.372,-26.855,-29.785,-113.281,-10.742,0.000,0
33451.376,-59.570,-18.066,-210.938,-42.969,0.000,0
33451.379,-21.973,-31.250,50.293,-27.344,0.000,0
33451.383,-2.441,-46.387,147.949,-12.695,0.000,0
33451.387,-28.809,-40.039,-62.500,-26.367,0.000,0
33451.391,-63.965,-30.273,-257.324,-47.852,0.000,0
33451.395,-37.598,-32.227,-55.176,-29.297,0.000,0
33451.399,1.953,-43.457,148.438,-14.160,0.000,0
33451.403,-9.277,-39.062,24.902,-5.371,0.000,0
33451.407,-54.199,-24.902,-220.215,-18.555,0.000,0
33451.411,-41.992,-25.391,-122.559,-35.645,0.000,0
33451.415,1.953,-33.691,131.836,-20.508,0.000,0
33451.418,5.371,-34.180,90.820,-6.836,0.000,0
33451.422,-35.645,-26.367,-163.086,-21.973,0.000,0
33451.426,-55.176,-20.996,-182.129,-37.598,0.000,0
33451.430,-6.348,-37.598,91.797,-9.277,0.000,0
33451.434,9.766,-41.504,137.207,5.371,0.000,0
33451.438,-24.902,-30.273,-93.262,-20.508,0.000,0
33451.442,-58.594,-22.461,-227.539,-52.734,0.000,0
33451.446,-24.414,-27.832,9.277,-33.691,0.000,0
33451.450,3.418,-40.527,145.996,-8.789,0.000,0
33451.454,-20.996,-38.086,-39.551,-10.742,0.000,0
33451.458,-53.223,-23.926,-247.070,-43.945,0.000,0
33451.461,-30.273,-22.461,-62.988,-42.969,0.000,0
33451.465,4.883,-30.273,158.691,-7.324,0.000,0
33451.469,1.465,-35.645,49.316,-1.953,0.000,0
33451.473,-42.969,-27.832,-209.961,-28.320,0.000,0
33451.477,-45.410,-25.391,-129.883,-49.316,0.000,0
33451.481,-2.930,-39.062,133.301,-30.273,0.000,0
33451.485,5.371,-36.621,106.445,-2.441,0.000,0
33451.489,-32.715,-26.367,-149.902,-38.574,0.000,0
33451.493,-57.617,-20.508,-199.219,-59.570,0.000,0
33451.497,-9.277,-26.855,89.844,-24.902,0.000,0
33451.501,-1.465,-34.668,74.219,-12.695,0.000,0
33451.504,-49.805,-23.926,-217.285,-26.855,0.000,0
33451.508,-45.410,-21.973,-147.949,-38.086,0.000,0
33451.512,-5.371,-38.574,124.512,-14.648,0.000,0
33451.516,5.371,-46.387,107.422,-6.348,0.000,0
33451.520,-32.227,-34.180,-153.809,-35.645,0.000,0
33451.524,-61.523,-24.414,-207.520,-62.012,0.000,0
33451.528,-17.578,-30.273,74.219,-27.832,0.000,0
33451.532,3.418,-36.133,145.508,-4.883,0.000,0
33451.536,-24.414,-33.691,-68.359,-38.574,0.000,0
33451.540,-62.012,-21.484,-220.703,-64.453,0.000,0
33451.543,-31.738,-27.344,0.488,-36.621,0.000,0
33451.547,7.812,-41.504,154.785,-7.324,0.000,0
33451.551,-9.766,-37.109,-7.324,-7.812,0.000,0
33451.555,-56.152,-27.832,-231.934,-47.852,0.000,0
33451.559,-39.551,-23.438,-80.566,-44.922,0.000,0
33451.563,2.441,-28.320,148.438,-10.254,0.000,0
33451.567,-2.930,-35.645,56.641,-4.883,0.000,0
33451.571,-49.805,-28.320,-196.289,-27.832,0.000,0
33451.575,-50.293,-20.996,-158.691,-40.527,0.000,0
33451.579,3.418,-30.273,111.816,-4.395,0.000,0
33451.583,16.113,-32.715,116.211,7.812,0.000,0
33451.586,-20.508,-27.832,-135.742,-19.531,0.000,0
33451.590,-43.945,-22.949,-207.031,-44.922,0.000,0
33451.594,-2.930,-23.438,66.895,-24.414,0.000,0
33451.598,12.695,-27.344,155.762,-15.625,0.000,0
33451.602,-17.578,-24.414,-48.340,-22.949,0.000,0
33451.606,-49.805,-19.043,-228.516,-35.645,0.000,0
33451.610,-21.484,-24.902,-13.184,-30.273,0.000,0
33451.614,7.324,-31.250,174.316,-16.113,0.000,0
33451.618,-4.395,-31.738,22.949,-17.090,0.000,0
33451.622,-42.480,-23.926,-229.492,-40.039,0.000,0
33451.626,-32.227,-20.996,-109.375,-42.480,0.000,0
33451.629,10.742,-31.738,146.484,-14.648,0.000,0
33451.633,4.883,-32.227,86.426,-11.719,0.000,0
33451.637,-39.062,-21.973,-184.082,-40.039,0.000,0
33451.641,-51.270,-16.113,-177.734,-50.781,0.000,0
33451.645,-11.230,-27.832,105.957,-20.020,0.000,0
33451.649,11.230,-34.180,135.254,-7.812,0.000,0
33451.653,-19.043,-25.879,-110.352,-21.484,0.000,0
33451.657,-58.105,-17.090,-214.355,-49.316,0.000,0
33451.661,-14.648,-21.973,45.410,-30.762,0.000,0
33451.665,12.207,-32.227,164.551,-8.301,0.000,0
33451.668,-20.996,-29.297,-34.668,-24.902,0.000,0
33451.672,-62.988,-16.602,-232.422,-52.734,0.000,0
33451.676,-36.133,-15.625,-26.367,-43.457,0.000,0
33451.680,-8.789,-33.691,157.227,-21.484,0.000,0
33451.684,-14.160,-31.738,18.555,-16.113,0.000,0
33451.688,-55.176,-11.230,-233.398,-42.969,0.000,0
33451.692,-49.316,-16.113,-64.453,-46.387,0.000,0
33451.696,9.766,-32.715,163.086,-5.859,0.000,0
33451.700,9.277,-25.879,-43.945,7.812,0.000,0
33451.704,-63.965,-10.254,-235.840,-45.898,0.000,0
33451.708,-69.824,-18.066,-47.363,-68.848,0.000,0
33451.711,-6.836,-40.527,158.203,-39.062,0.000,0
33451.715,-1.953,-34.668,53.711,-9.277,0.000,0
33451.719,-60.059,-23.926,-208.496,-42.480,0.000,0
33451.723,-64.453,-28.809,-137.695,-72.266,0.000,0
33451.727,-6.836,-34.180,130.859,-29.297,0.000,0
33451.731,3.906,-38.086,105.957,-13.672,0.000,0
33451.735,-38.086,-31.250,-153.320,-26.855,0.000,0
33451.739,-66.895,-33.691,-204.102,-48.828,0.000,0
33451.743,-27.344,-43.457,67.383,-34.180,0.000,0
33451.747,-1.465,-41.016,133.301,-12.207,0.000,0
33451.751,-34.180,-37.598,-92.773,-35.645,0.000,0
33451.754,-61.035,-29.297,-243.652,-64.941,0.000,0
33451.758,-19.043,-36.621,-8.301,-41.504,0.000,0
33451.762,8.301,-44.922,147.949,-14.160,0.000,0
33451.766,-18.066,-43.945,-23.926,-13.672,0.000,0
33451.770,-61.523,-35.645,-243.164,-43.945,0.000,0
33451.774,-38.574,-29.785,-75.684,-48.340,0.000,0
33451.778,-6.836,-42.480,144.043,-27.832,0.000,0
33451.782,-19.043,-41.992,49.316,-8.789,0.000,0
33451.786,-53.223,-27.344,-206.543,-19.531,0.000,0
33451.790,-53.223,-24.414,-149.414,-41.504,0.000,0
33451.793,-15.625,-41.016,127.930,-33.203,0.000,0
33451.797,-8.301,-50.293,107.910,-18.066,0.000,0
33451.801,-36.621,-37.109,-157.227,-25.879,0.000,0
33451.805,-56.152,-27.344,-215.820,-44.434,0.000,0
33451.809,-15.625,-42.480,62.012,-23.438,0.000,0
33451.813,1.465,-48.828,145.508,-6.348,0.000,0
33451.817,-27.344,-38.086,-79.102,-16.602,0.000,0
33451.821,-55.664,-23.438,-248.047,-40.527,0.000,0
33451.825,-24.902,-27.344,-22.949,-34.180,0.000,0
33451.829,8.301,-39.551,152.344,-21.484,0.000,0
33451.833,-4.883,-34.668,-1.953,-20.508,0.000,0
33451.836,-46.387,-27.344,-237.793,-54.199,0.000,0
33451.840,-31.738,-28.809,-87.891,-50.293,0.000,0
33451.844,17.578,-33.691,148.926,-8.301,0.000,0
33451.848,14.160,-41.016,70.312,2.930,0.000,0
33451.852,-31.250,-38.574,-186.035,-32.715,0.000,0
33451.856,-44.434,-29.785,-165.039,-50.781,0.000,0
33451.860,-4.883,-33.203,107.910,-20.508,0.000,0
33451.864,5.859,-36.621,118.164,1.953,0.000,0
33451.868,-34.180,-33.691,-125.000,-21.484,0.000,0
33451.872,-61.523,-28.320,-211.914,-55.664,0.000,0
33451.876,-23.438,-33.691,50.293,-29.785,0.000,1
33451.879,-0.977,-33.691,155.762,-11.719,0.000,0
33451.883,-27.344,-26.855,-50.293,-18.555,0.000,0
33451.887,-59.570,-23.438,-237.305,-43.457,0.000,0
33451.891,-33.691,-30.273,-32.227,-46.387,0.000,0
33451.895,1.465,-37.598,154.785,-21.973,0.000,0
33451.899,-8.301,-33.203,20.508,-13.184,0.000,0
33451.903,-56.152,-20.508,-227.051,-43.945,0.000,0
33451.907,-48.340,-20.020,-114.746,-39.551,0.000,0
33451.911,-3.906,-28.809,149.902,-12.207,0.000,0
33451.915,5.371,-30.273,96.191,-6.836,0.000,0
33451.918,-28.320,-22.949,-170.410,-25.391,0.000,0
33451.922,-37.598,-17.090,-171.387,-33.203,0.000,0
33451.926,6.836,-27.832,108.887,-4.395,0.000,0
33451.930,14.160,-34.180,140.625,-0.488,0.000,0
33451.934,-15.137,-22.949,-105.469,-7.812,0.000,0
33451.938,-41.992,-13.672,-217.773,-31.738,0.000,0
33451.942,-8.301,-19.531,41.016,-25.391,0.000,0
33451.946,15.137,-21.484,167.480,-2.441,0.000,0
33451.950,-7.324,-18.066,-23.926,-11.719,0.000,0
33451.954,-43.457,-17.090,-226.074,-45.898,0.000,0
33451.958,-28.320,-26.367,-40.527,-36.133,0.000,0
33451.961,19.531,-32.227,173.828,7.324,0.000,0
33451.965,8.789,-24.414,41.992,11.230,0.000,0
33451.969,-53.223,-15.137,-224.609,-31.738,0.000,0
33451.973,-44.922,-11.230,-112.793,-24.902,0.000,0
33451.977,4.395,-17.578,156.250,-1.465,0.000,0
33451.981,8.789,-20.508,112.305,1.465,0.000,0
33451.985,-27.344,-14.648,-153.320,-16.113,0.000,0
33451.989,-51.270,-14.648,-184.082,-50.293,0.000,0
33451.993,-12.207,-23.926,89.844,-25.391,0.000,0
33451.997,15.137,-31.250,139.160,5.859,0.000,0
33452.001,-14.648,-28.320,-92.285,-5.859,0.000,0
33452.004,-48.340,-15.625,-229.980,-27.344,0.000,0
33452.008,-8.789,-15.625,19.531,-5.371,0.000,0
33452.012,20.020,-25.391,170.410,8.301,0.000,0
33452.016,-7.812,-33.203,-12.695,-10.742,0.000,0
33452.020,-47.363,-23.926,-231.445,-41.504,0.000,0
33452.024,-28.809,-21.484,-67.871,-37.598,0.000,0
33452.028,9.766,-34.668,157.227,-12.207,0.000,0
33452.032,4.395,-26.367,64.453,-8.301,0.000,0
33452.036,-41.504,-15.137,-194.336,-31.250,0.000,0
33452.040,-42.480,-19.531,-136.719,-31.738,0.000,0
33452.043,4.395,-29.785,132.812,-14.160,0.000,0
33452.047,6.348,-31.738,120.605,-17.578,0.000,0
33452.051,-32.227,-27.832,-137.695,-37.109,0.000,0
33452.055,-50.781,-27.344,-205.566,-56.152,0.000,0
33452.059,-11.719,-34.180,66.406,-27.832,0.000,0
33452.063,-0.977,-41.992,143.066,-2.441,0.000,0
33452.067,-28.809,-41.992,-87.891,-26.855,0.000,0
33452.071,-56.641,-31.250,-250.488,-58.105,0.000,0
33452.075,-22.949,-32.715,-13.672,-32.227,0.000,0
33452.079,11.230,-43.945,155.762,-13.184,0.000,0
33452.083,-12.207,-36.621,-7.812,-24.902,0.000,0
33452.086,-61.523,-31.738,-237.305,-64.453,0.000,0
33452.090,-42.480,-32.715,-87.891,-60.059,0.000,0
33452.094,1.953,-33.203,142.578,-21.973,0.000,0
33452.098,1.953,-31.738,63.477,-13.184,0.000,0
33452.102,-41.504,-26.855,-191.895,-33.691,0.000,0
33452.106,-55.176,-23.926,-157.715,-37.109,0.000,0
33452.110,-15.625,-33.691,116.211,-20.020,0.000,0
33452.114,-8.789,-38.086,112.305,-10.742,0.000,0
33452.118,-38.086,-23.926,-143.066,-26.367,0.000,0
33452.122,-60.059,-12.695,-217.773,-45.410,0.000,0
33452.126,-23.438,-24.414,64.453,-24.902,0.000,0
33452.129,4.395,-37.598,153.320,-17.090,0.000,0
33452.133,-20.996,-29.785,-67.383,-20.020,0.000,0
33452.137,-67.871,-20.508,-246.582,-40.039,0.000,0
33452.141,-43.457,-24.902,-31.250,-34.180,0.000,0
33452.145,-1.953,-31.250,150.879,-9.766,0.000,0
33452.149,-19.043,-24.414,8.789,-7.324,0.000,0
33452.153,-54.199,-11.719,-224.121,-34.668,0.000,0
33452.157,-33.203,-10.254,-103.516,-35.156,0.000,0
33452.161,7.324,-24.902,137.695,-6.836,0.000,0
33452.165,3.906,-27.832,77.637,-1.465,0.000,0
33452.168,-36.621,-11.719,-165.039,-23.926,0.000,0
33452.172,-46.387,-5.371,-161.621,-32.715,0.000,0
33452.176,-7.324,-17.578,106.445,-8.301,0.000,0
33452.180,4.395,-24.414,136.719,7.324,0.000,0
33452.184,-31.738,-19.531,-104.004,-15.625,0.000,0
33452.188,-67.383,-13.184,-213.379,-51.270,0.000,0
33452.192,-22.949,-18.555,42.969,-28.320,0.000,0
33452.196,5.859,-30.762,162.598,-6.348,0.000,0
33452.200,-14.648,-29.785,-36.133,-8.301,0.000,0
33452.204,-52.734,-20.508,-239.746,-35.156,0.000,0
33452.208,-36.133,-22.461,-49.316,-32.715,0.000,0
33452.211,4.395,-28.320,160.645,-11.719,0.000,0
33452.215,-4.883,-29.297,41.016,-14.160,0.000,0
33452.219,-47.852,-17.090,-214.844,-41.016,0.000,0
33452.223,-42.480,-16.602,-113.770,-42.480,0.000,0
33452.227,5.859,-24.902,152.832,-15.137,0.000,0
33452.231,4.883,-25.879,106.445,-18.066,0.000,0
33452.235,-36.133,-17.090,-154.297,-41.992,0.000,0
33452.239,-42.969,-11.230,-183.594,-46.875,0.000,0
33452.243,-5.859,-27.344,88.379,-26.367,0.000,0
33452.247,7.812,-37.598,144.043,-12.695,0.000,0
33452.251,-17.090,-27.832,-94.727,-13.672,0.000,0
33452.254,-53.711,-20.020,-241.699,-49.805,0.000,0
33452.258,-28.809,-23.926,17.578,-43.457,0.000,0
33452.262,-4.883,-34.180,155.273,-20.996,0.000,0
33452.266,-14.648,-34.180,-38.086,-31.250,0.000,0
33452.270,-52.734,-19.043,-238.770,-53.711,0.000,0
33452.274,-34.668,-23.926,-65.918,-41.992,0.000,0
33452.278,4.883,-38.086,147.949,-13.672,0.000,0
33452.282,-0.488,-39.551,46.875,-10.254,0.000,0
33452.286,-35.156,-27.344,-202.148,-40.039,0.000,0
33452.290,-35.645,-17.090,-132.812,-40.527,0.000,0
33452.293,8.301,-26.855,135.742,-3.906,0.000,0
33452.297,5.371,-38.574,115.723,2.930,0.000,0
33452.301,-38.574,-30.273,-143.066,-22.949,0.000,0
33452.305,-55.176,-18.066,-192.871,-33.203,0.000,0
33452.309,-15.625,-29.297,79.102,-19.531,0.000,0
33452.313,5.371,-39.062,147.949,-12.207,0.000,0
33452.317,-24.414,-30.273,-77.637,-17.578,0.000,0
33452.321,-62.012,-17.090,-237.793,-41.504,0.000,0
33452.325,-27.832,-20.508,2.441,-27.344,0.000,0
33452.329,2.930,-27.832,168.457,-9.277,0.000,0
33452.333,-13.672,-25.391,0.000,-18.066,0.000,0
33452.336,-49.805,-12.695,-228.516,-41.016,0.000,0
33452.340,-35.156,-10.254,-64.941,-33.691,0.000,0
33452.344,9.277,-26.367,161.133,-9.766,0.000,0
33452.348,-15.137,-24.902,-47.363,-9.766,0.000,0
33452.352,-50.293,-16.602,-230.957,-34.668,0.000,0
33452.356,-16.113,-22.461,-2.441,-29.785,0.000,0
33452.360,9.277,-33.691,165.039,-7.812,0.000,0
33452.364,-6.836,-26.367,11.719,-9.766,0.000,0
33452.368,-46.875,-10.742,-225.586,-37.109,0.000,0
33452.372,-34.180,-14.160,-87.402,-35.645,0.000,0
33452.376,0.488,-26.855,152.832,-3.906,0.000,0
33452.379,0.000,-33.691,73.242,3.418,0.000,0
33452.383,-44.434,-29.297,-190.918,-30.273,0.000,0
33452.387,-56.641,-23.438,-167.480,-41.992,0.000,0
33452.391,-8.789,-32.715,107.910,-3.418,0.000,0
33452.395,5.859,-40.527,116.211,8.301,0.000,0
33452.399,-33.691,-33.691,-134.766,-24.414,0.000,0
33452.403,-63.477,-25.391,-220.215,-52.734,0.000,0
33452.407,-19.043,-33.203,48.340,-29.297,0.000,0
33452.411,3.906,-37.598,149.902,-10.254,0.000,0
33452.415,-22.461,-25.879,-63.965,-19.531,0.000,1
33452.418,-52.246,-13.672,-237.305,-40.039,0.000,0
33452.422,-18.555,-21.484,-19.531,-29.785,0.000,0
33452.426,16.113,-32.715,156.738,-7.812,0.000,0
33452.430,1.953,-32.715,18.555,-8.789,0.000,0
33452.434,-49.316,-21.484,-222.656,-41.992,0.000,0
33452.438,-43.945,-21.484,-113.281,-41.504,0.000,0
33452.442,0.488,-34.668,132.812,-15.137,0.000,0
33452.446,-2.930,-35.156,73.730,-6.348,0.000,0
33452.450,-41.504,-28.320,-185.059,-23.926,0.000,0
33452.454,-56.152,-20.508,-182.617,-41.992,0.000,0
33452.458,-9.766,-24.902,94.238,-17.090,0.000,0
33452.461,4.395,-31.250,133.301,1.465,0.000,0
33452.465,-27.832,-19.531,-107.910,-8.789,0.000,0
33452.469,-53.223,-9.277,-225.098,-35.156,0.000,0
33452.473,-19.043,-21.973,32.715,-18.555,0.000,0
33452.477,8.301,-30.762,158.691,-7.812,0.000,0
33452.481,-15.625,-32.227,-24.902,-22.461,0.000,0
33452.485,-69.336,-25.879,-233.887,-45.898,0.000,0
33452.489,-41.504,-22.461,-50.781,-30.762,0.000,0
33452.493,7.812,-34.180,153.809,-7.812,0.000,0
33452.497,-8.789,-34.668,43.457,-5.371,0.000,0
33452.501,-53.223,-20.020,-200.684,-41.016,0.000,0
33452.504,-50.293,-20.508,-125.977,-50.781,0.000,0
33452.508,-8.789,-34.180,128.906,-19.531,0.000,0
33452.512,-3.906,-35.645,104.004,-11.719,0.000,0
33452.516,-48.828,-27.344,-167.969,-33.203,0.000,0
33452.520,-66.895,-20.020,-200.684,-51.270,0.000,0
33452.524,-18.555,-29.297,77.637,-18.066,0.000,0
33452.528,-1.465,-39.062,131.348,9.766,0.000,0
33452.532,-34.668,-30.273,-92.773,-7.812,0.000,0
33452.536,-62.500,-22.461,-230.469,-38.086,0.000,0
33452.540,-21.484,-29.785,22.949,-26.367,0.000,0
33452.543,2.441,-33.203,173.340,-2.441,0.000,0
33452.547,-18.555,-30.273,-8.789,-12.207,0.000,0
33452.551,-57.617,-22.461,-230.469,-42.480,0.000,0
33452.555,-41.992,-25.879,-61.035,-32.715,0.000,0
33452.559,-5.371,-41.016,159.180,-14.648,0.000,0
33452.563,-6.836,-35.156,58.594,-13.672,0.000,0
33452.567,-45.898,-21.484,-209.473,-34.668,0.000,0
33452.571,-48.828,-23.438,-153.809,-46.875,0.000,0
33452.575,-3.418,-32.715,121.582,-19.531,0.000,0
33452.579,-3.906,-35.156,69.824,-14.160,0.000,0
33452.583,-49.805,-29.785,-169.434,-36.621,0.000,0
33452.586,-65.430,-22.461,-198.730,-52.246,0.000,0
33452.590,-16.113,-27.832,66.406,-19.043,0.000,0
33452.594,4.395,-35.156,143.555,9.766,0.000,0
33452.598,-25.391,-29.297,-66.895,-7.812,0.000,0
33452.602,-53.223,-17.090,-222.656,-47.852,0.000,0
33452.606,-19.043,-23.926,-0.977,-34.668,0.000,0
33452.610,15.137,-29.785,165.527,-9.766,0.000,0
33452.614,0.488,-25.879,7.812,-0.977,0.000,0
33452.618,-47.363,-20.020,-229.980,-36.133,0.000,0
33452.622,-32.715,-19.043,-83.496,-41.992,0.000,0
33452.626,8.301,-22.949,154.785,-3.418,0.000,0
33452.629,1.465,-22.949,64.941,4.883,0.000,0
33452.633,-44.922,-17.090,-193.848,-25.391,0.000,0
33452.637,-46.387,-11.230,-156.250,-42.969,0.000,0
33452.641,-2.930,-20.996,114.258,-17.090,0.000,0
33452.645,-1.465,-29.785,117.188,0.488,0.000,0
33452.649,-34.180,-18.066,-134.277,-19.043,0.000,0
33452.653,-57.129,-7.324,-220.215,-54.199,0.000,0
33452.657,-22.949,-18.555,48.828,-39.551,0.000,0
33452.661,-3.418,-33.691,152.832,-23.438,0.000,0
33452.665,-29.297,-33.203,-56.152,-41.504,0.000,0
33452.668,-59.082,-20.020,-236.816,-60.547,0.000,0
33452.672,-32.715,-22.949,-22.461,-43.457,0.000,0
33452.676,-2.930,-29.785,168.945,-12.695,0.000,0
33452.680,-3.906,-25.879,32.227,-11.230,0.000,0
33452.684,-40.527,-14.160,-220.703,-55.176,0.000,0
33452.688,-32.227,-15.137,-105.469,-58.594,0.000,0
33452.692,5.859,-33.203,139.160,-16.602,0.000,0
33452.696,1.465,-38.574,74.219,-13.672,0.000,0
33452.700,-41.016,-23.438,-188.477,-47.852,0.000,0
33452.704,-52.734,-15.625,-183.105,-56.152,0.000,0
33452.708,-5.859,-22.461,102.051,-21.973,0.000,0
33452.711,4.883,-25.879,132.812,1.465,0.000,0
33452.715,-33.203,-19.043,-109.375,-21.973,0.000,0
33452.719,-62.012,-10.742,-216.309,-62.012,0.000,0
33452.723,-24.902,-21.484,42.969,-41.992,0.000,0
33452.727,10.742,-32.715,162.109,-10.742,0.000,0
33452.731,-6.836,-30.273,-37.598,-10.742,0.000,0
33452.735,-55.176,-23.926,-234.375,-44.434,0.000,0
33452.739,-34.180,-23.438,-34.668,-37.109,0.000,0
33452.743,-3.906,-35.156,160.645,-8.789,0.000,0
33452.747,-13.184,-37.109,27.344,-15.625,0.000,0
33452.751,-52.734,-23.926,-225.586,-42.480,0.000,0
33452.754,-54.199,-23.926,-129.883,-45.410,0.000,0
33452.758,-2.441,-38.086,129.883,-29.297,0.000,0
33452.762,-1.953,-41.504,86.426,-29.297,0.000,0
33452.766,-59.082,-32.227,-174.805,-53.711,0.000,0
33452.770,-70.312,-23.926,-200.684,-59.570,0.000,0
33452.774,-16.602,-33.691,76.172,-32.227,0.000,0
33452.778,0.000,-39.062,133.301,-22.461,0.000,0
33452.782,-35.156,-28.320,-101.074,-25.391,0.000,0
33452.786,-64.453,-17.578,-238.281,-44.434,0.000,0
33452.790,-27.832,-24.414,12.695,-31.250,0.000,0
33452.793,3.418,-38.574,157.715,-14.160,0.000,0
33452.797,-13.672,-35.156,-13.672,-27.344,0.000,0
33452.801,-54.199,-20.020,-227.051,-50.781,0.000,0
33452.805,-31.738,-21.484,-64.941,-35.156,0.000,0
33452.809,5.859,-33.691,155.273,4.395,0.000,0
33452.813,-4.395,-30.762,61.523,3.418,0.000,0
33452.817,-51.270,-25.391,-200.195,-48.340,0.000,0
33452.821,-46.875,-27.832,-145.020,-60.059,0.000,0
33452.825,-2.441,-33.691,125.977,-35.156,0.000,0
33452.829,-4.883,-35.645,110.352,-25.391,0.000,0
33452.833,-40.039,-32.227,-158.203,-32.715,0.000,0
33452.836,-54.199,-23.926,-201.660,-57.129,0.000,0
33452.840,-9.277,-28.809,79.102,-32.715,0.000,0
33452.844,11.230,-36.621,142.578,-1.465,0.000,0
33452.848,-22.461,-32.715,-82.031,-12.207,0.000,0
33452.852,-57.617,-22.949,-225.098,-39.062,0.000,0
33452.856,-30.762,-29.297,18.066,-38.574,0.000,0
33452.860,-3.418,-40.527,168.945,-21.973,0.000,0
33452.864,-17.090,-37.598,-6.348,-23.438,0.000,0
33452.868,-59.570,-25.879,-236.328,-46.875,0.000,0
33452.872,-45.410,-20.508,-78.613,-37.109,0.000,0
33452.876,-6.836,-31.738,155.273,-24.414,0.000,0
33452.879,-12.695,-35.645,60.059,-20.508,0.000,0
33452.883,-58.105,-23.438,-209.961,-36.133,0.000,0
33452.887,-59.082,-19.531,-170.410,-47.363,0.000,0
33452.891,-7.812,-26.367,110.352,-18.555,0.000,0
33452.895,6.836,-28.809,117.676,-7.324,0.000,0
33452.899,-24.414,-20.508,-134.766,-24.414,0.000,0
33452.903,-50.293,-9.766,-211.914,-40.039,0.000,0
33452.907,-16.113,-20.996,52.246,-17.090,0.000,0
33452.911,6.836,-29.297,136.719,4.395,0.000,0
33452.915,-15.625,-25.879,-66.895,-6.348,0.000,0
33452.918,-56.641,-20.508,-232.422,-41.992,0.000,0
33452.922,-37.598,-26.855,-27.344,-38.086,0.000,0
33452.926,-10.742,-35.645,134.277,-16.113,0.000,0
33452.930,-26.855,-33.691,4.395,-19.531,0.000,0
33452.934,-71.777,-21.484,-225.098,-52.246,0.000,0
33452.938,-52.246,-16.602,-104.980,-59.082,0.000,0
33452.942,-0.488,-26.367,146.484,-27.832,0.000,0
33452.946,0.977,-24.414,77.148,-6.836,0.000,0
33452.950,-44.434,-12.207,-192.871,-25.391,0.000,0
33452.954,-49.805,-10.254,-138.672,-38.086,0.000,0
33452.958,-4.395,-20.020,122.559,-11.230,0.000,0
33452.961,7.812,-25.391,121.094,0.488,0.000,0
33452.965,-27.832,-21.973,-115.723,-18.555,0.000,0
33452.969,-56.152,-10.742,-223.633,-44.434,0.000,0
33452.973,-20.020,-22.461,42.969,-22.461,0.000,0
33452.977,-4.395,-33.691,156.738,-11.230,0.000,0
33452.981,-17.090,-25.391,-34.668,-26.855,0.000,0
33452.985,-47.852,-13.184,-232.422,-38.086,0.000,0
33452.989,-31.250,-16.113,-41.016,-20.508,0.000,0
33452.993,1.953,-27.832,165.527,-0.488,0.000,0
33452.997,-11.230,-28.809,37.598,-9.766,0.000,0
33453.001,-50.293,-16.602,-222.168,-33.203,0.000,0
33453.004,-41.016,-11.719,-122.559,-40.527,0.000,0
33453.008,0.977,-20.020,140.137,-17.578,0.000,0
33453.012,9.277,-23.438,88.867,-11.719,0.000,0
33453.016,-34.180,-17.090,-174.805,-35.645,0.000,0
33453.020,-55.176,-17.090,-192.383,-48.828,0.000,0
33453.024,-1.465,-24.902,85.449,-19.043,0.000,0
33453.028,8.789,-33.691,133.301,-9.766,0.000,0
33453.032,-32.227,-36.621,-99.121,-37.598,0.000,0
33453.036,-61.035,-20.996,-227.051,-56.152,0.000,0
33453.040,-21.973,-20.020,20.020,-29.785,0.000,0
33453.043,0.977,-32.715,152.832,-13.184,0.000,0
33453.047,-25.391,-32.715,-23.926,-4.395,0.000,0
33453.051,-59.082,-22.461,-229.492,-27.832,0.000,0
33453.055,-39.551,-20.020,-51.270,-38.574,0.000,0
33453.059,1.465,-26.855,157.715,-6.836,0.000,0
33453.063,2.930,-21.973,48.828,8.301,0.000,0
33453.067,-40.527,-13.184,-207.031,-24.414,0.000,0
33453.071,-43.457,-13.672,-133.789,-35.156,0.000,0
33453.075,0.977,-20.996,137.207,-11.719,0.000,0
33453.079,12.207,-23.926,109.375,-5.859,0.000,0
33453.083,-34.180,-20.020,-159.668,-29.297,0.000,1
33453.086,-59.082,-17.578,-209.473,-49.805,0.000,0
33453.090,-10.254,-25.391,71.289,-30.762,0.000,0
33453.094,13.672,-30.273,147.461,-12.695,0.000,0
33453.098,-20.996,-21.484,-80.078,-10.254,0.000,0
33453.102,-61.523,-11.719,-236.328,-49.316,0.000,0
33453.106,-26.855,-21.973,4.395,-39.062,0.000,0
33453.110,-0.977,-37.109,162.109,-12.207,0.000,0
33453.114,-21.973,-35.645,1.465,-25.879,0.000,0
33453.118,-60.059,-25.391,-232.910,-55.176,0.000,0
33453.122,-43.457,-26.367,-87.402,-44.434,0.000,0
33453.126,5.859,-33.691,159.180,-4.883,0.000,0
33453.129,-0.977,-31.250,41.992,-6.836,0.000,0
33453.133,-45.898,-18.066,-186.523,-40.039,0.000,0
33453.137,-23.926,-20.508,-20.020,-33.203,0.000,0
33453.141,8.789,-36.133,169.922,-12.695,0.000,0
33453.145,-6.348,-32.715,-0.488,-12.207,0.000,0
33453.149,-41.504,-19.043,-235.840,-41.016,0.000,0
33453.153,-30.273,-17.578,-83.984,-51.758,0.000,0
33453.157,8.301,-23.438,154.785,-11.230,0.000,0
33453.161,2.441,-28.320,77.637,5.859,0.000,0
33453.165,-46.387,-24.902,-182.129,-33.691,0.000,0
33453.168,-53.711,-21.973,-153.809,-58.105,0.000,0
33453.172,-7.812,-30.762,127.441,-32.227,0.000,0
33453.176,11.719,-30.762,133.789,-8.789,0.000,0
33453.180,-20.996,-21.973,-122.559,-20.508,0.000,0
33453.184,-53.223,-20.020,-212.402,-39.062,0.000,0
33453.188,-15.625,-26.367,56.152,-15.137,0.000,0
33453.192,12.207,-31.250,154.297,-7.812,0.000,0
33453.196,-9.766,-25.879,-63.477,-15.137,0.000,0
33453.200,-53.711,-22.949,-241.211,-38.574,0.000,0
33453.204,-28.320,-27.344,-22.461,-31.250,0.000,0
33453.208,9.277,-31.250,163.086,-9.766,0.000,0
33453.211,-4.883,-28.320,25.391,-13.184,0.000,0
33453.215,-42.480,-19.531,-221.191,-32.227,0.000,0
33453.219,-25.879,-18.066,-100.098,-22.949,0.000,0
33453.223,12.695,-30.762,151.855,5.859,0.000,0
33453.227,9.766,-36.621,89.355,11.719,0.000,0
33453.231,-24.414,-23.926,-158.203,-17.578,0.000,0
33453.235,-34.668,-12.695,-162.109,-32.227,0.000,0
33453.239,3.906,-20.020,100.098,6.836,0.000,0
33453.243,13.672,-27.832,134.766,13.672,0.000,0
33453.247,-24.414,-20.508,-105.469,-15.137,0.000,0
33453.251,-46.875,-15.137,-225.586,-39.062,0.000,0
33453.254,-2.930,-21.973,36.621,-20.020,0.000,0
33453.258,19.043,-26.367,167.969,0.488,0.000,0
33453.262,-7.812,-20.996,-36.133,-7.812,0.000,0
33453.266,-51.270,-12.207,-242.676,-37.598,0.000,0
33453.270,-34.180,-19.043,-44.922,-29.785,0.000,0
33453.274,-0.977,-29.785,160.156,0.488,0.000,0
33453.278,-10.742,-29.785,33.203,0.000,0.000,0
33453.282,-58.105,-18.066,-219.727,-41.504,0.000,0
33453.286,-50.781,-13.184,-128.906,-49.805,0.000,0
33453.290,-3.906,-24.902,139.648,-20.996,0.000,0
33453.293,-2.441,-25.879,101.074,-19.043,0.000,0
33453.297,-38.574,-11.719,-165.527,-30.273,0.000,0
33453.301,-56.152,-0.488,-189.941,-38.574,0.000,0
33453.305,-7.324,-9.766,79.590,-11.719,0.000,0
33453.309,23.926,-12.207,140.137,18.555,0.000,0
33453.313,-10.254,-3.418,-94.238,1.465,0.000,0
33453.317,-54.688,7.812,-246.094,-41.504,0.000,0
33453.321,-3.418,17.090,8.301,-7.324,0.000,0
33453.325,38.086,4.395,151.855,24.902,0.000,0
33453.329,-10.742,5.859,-36.621,-21.484,0.000,0
33453.333,-70.801,27.832,-256.836,-68.359,0.000,0
33453.336,-40.527,36.133,-80.078,-34.668,0.000,0
33453.340,7.812,32.715,131.348,4.395,0.000,0
33453.344,8.789,42.480,20.508,3.906,0.000,0
33453.348,-35.645,54.199,-230.469,-36.133,0.000,0
33453.352,-46.875,64.941,-167.969,-58.105,0.000,0
33453.356,2.441,62.012,98.145,-26.367,0.000,0
33453.360,11.230,63.965,82.520,-10.254,0.000,0
33453.364,-31.738,80.566,-172.363,-20.508,0.000,0
33453.368,-48.340,86.914,-231.934,-43.945,0.000,0
33453.372,-16.602,82.031,39.062,-35.645,0.000,0
33453.376,-4.395,74.707,107.910,-11.230,0.000,0
33453.379,-23.438,73.730,-121.582,0.000,0.000,0
33453.383,-55.664,81.543,-278.809,-28.809,0.000,0
33453.387,-18.555,80.078,-32.227,-39.062,0.000,0
33453.391,13.184,71.289,138.672,-25.391,0.000,0
33453.395,-2.930,69.336,-35.156,-16.113,0.000,0
33453.399,-39.551,74.219,-259.766,-36.621,0.000,0
33453.403,-36.133,66.895,-104.492,-41.992,0.000,0
33453.407,-1.953,47.363,139.160,-29.785,0.000,0
33453.411,-0.488,42.480,59.082,-13.672,0.000,0
33453.415,-45.410,47.852,-201.660,-30.273,0.000,0
33453.418,-50.293,50.293,-160.645,-41.016,0.000,0
33453.422,4.883,39.551,119.141,-2.441,0.000,0
33453.426,10.742,20.020,130.859,-6.348,0.000,0
33453.430,-44.922,18.555,-128.418,-52.734,0.000,0
33453.434,-64.941,30.273,-209.961,-71.289,0.000,0
33453.438,-19.531,13.672,69.336,-38.574,0.000,0
33453.442,-4.883,-1.953,157.715,-17.578,0.000,0
33453.446,-29.297,4.395,-58.594,-26.855,0.000,0
33453.450,-70.801,11.230,-230.957,-53.711,0.000,0
33453.454,-48.340,0.977,-19.043,-45.898,0.000,0
33453.458,-10.742,-10.742,169.922,-28.809,0.000,0
33453.461,-22.461,-9.766,24.414,-23.438,0.000,0
33453.465,-54.199,-10.254,-213.379,-54.199,0.000,0
33453.469,-40.527,-12.695,-76.660,-58.105,0.000,0
33453.473,-4.395,-21.973,163.574,-26.855,0.000,0
33453.477,0.488,-30.273,90.820,-20.508,0.000,0
33453.481,-41.504,-20.996,-165.527,-36.133,0.000,0
33453.485,-61.035,-17.578,-145.996,-55.176,0.000,0
33453.489,-16.602,-30.762,132.812,-39.551,0.000,0
33453.493,0.000,-39.551,145.508,-14.160,0.000,0
33453.497,-32.715,-37.598,-105.469,-27.344,0.000,0
33453.501,-59.082,-33.203,-209.473,-51.758,0.000,0
33453.504,-18.066,-40.527,59.570,-27.344,0.000,0
33453.508,3.906,-52.246,178.711,-13.184,0.000,0
33453.512,-24.414,-51.758,-31.250,-17.090,0.000,0
33453.516,-66.895,-38.086,-234.863,-43.457,0.000,0
33453.520,-36.133,-43.457,-37.598,-36.133,0.000,0
33453.524,12.207,-55.664,164.062,-12.207,0.000,0
33453.528,-3.906,-56.641,45.410,-17.090,0.000,0
33453.532,-49.805,-47.852,-200.684,-49.805,0.000,0
33453.536,-41.992,-47.363,-106.934,-49.316,0.000,0
33453.540,-1.953,-63.965,154.297,-13.184,0.000,0
33453.543,1.465,-62.012,114.258,-0.488,0.000,0
33453.547,-39.551,-49.316,-143.066,-33.691,0.000,0
33453.551,-56.152,-45.410,-167.480,-53.223,0.000,0
33453.555,-6.348,-49.316,110.840,-14.160,0.000,0
33453.559,0.977,-54.688,154.297,-3.906,0.000,0
33453.563,-30.762,-44.922,-84.961,-21.484,0.000,0
33453.567,-52.734,-35.156,-213.379,-46.387,0.000,0
33453.571,-8.301,-43.457,30.273,-30.273,0.000,0
33453.575,22.461,-56.152,170.898,-0.488,0.000,0
33453.579,-9.766,-57.617,-21.973,-4.395,0.000,0
33453.583,-48.828,-50.293,-238.770,-40.527,0.000,0
33453.586,-25.391,-54.688,-52.246,-38.086,0.000,0
33453.590,10.254,-63.965,165.039,-9.766,0.000,0
33453.594,-1.953,-62.988,51.758,-9.277,0.000,0
33453.598,-45.898,-51.758,-199.707,-36.621,0.000,0
33453.602,-43.945,-50.293,-121.582,-40.039,0.000,0
33453.606,-6.348,-63.477,145.020,-18.555,0.000,0
33453.610,-0.977,-66.895,117.188,-8.301,0.000,0
33453.614,-42.480,-56.152,-149.414,-30.273,0.000,0
33453.618,-69.336,-49.805,-200.195,-48.340,0.000,0
33453.622,-21.973,-58.105,77.637,-27.832,0.000,0
33453.626,3.418,-65.430,144.043,-20.020,0.000,0
33453.629,-29.297,-57.129,-87.402,-33.203,0.000,0
33453.633,-59.082,-44.922,-241.699,-55.664,0.000,0
33453.637,-21.973,-49.316,2.930,-28.809,0.000,0
33453.641,7.812,-61.523,166.992,-13.184,0.000,0
33453.645,-8.301,-60.059,-0.977,-26.367,0.000,0
33453.649,-54.688,-41.992,-231.445,-48.828,0.000,0
33453.653,-42.969,-41.992,-73.730,-40.039,0.000,0
33453.657,-1.465,-62.988,160.645,-5.859,0.000,0
33453.661,-6.836,-61.523,68.848,-6.348,0.000,0
33453.665,-54.199,-44.922,-185.059,-41.992,0.000,0
33453.668,-57.617,-40.527,-137.695,-48.828,0.000,0
33453.672,-5.371,-47.363,128.418,-23.438,0.000,0
33453.676,5.371,-50.293,125.488,-8.789,0.000,0
33453.680,-32.715,-46.387,-130.859,-18.066,0.000,0
33453.684,-59.082,-40.527,-207.031,-50.781,0.000,0
33453.688,-20.020,-48.340,63.477,-38.574,0.000,0
33453.692,2.930,-60.547,142.578,-9.277,0.000,0
33453.696,-21.484,-52.734,-73.242,-7.812,0.000,0
33453.700,-57.617,-34.668,-237.305,-37.598,0.000,0
33453.704,-28.320,-41.504,-14.160,-32.715,0.000,0
33453.708,10.742,-54.688,159.668,-2.441,0.000,0
33453.711,-14.648,-55.176,7.812,-13.672,0.000,0
33453.715,-67.383,-46.387,-229.004,-56.152,0.000,0
33453.719,-50.293,-45.410,-98.633,-46.875,0.000,0
33453.723,-5.859,-62.500,151.367,-18.066,0.000,0
33453.727,-2.930,-63.477,85.938,-10.254,0.000,0
33453.731,-45.410,-50.781,-185.547,-35.645,0.000,0
33453.735,-63.477,-46.387,-174.805,-54.199,0.000,0
33453.739,-15.137,-51.270,122.070,-30.273,0.000,0
33453.743,-15.625,-59.570,41.504,-29.785,0.000,0
33453.747,-63.965,-45.410,-241.211,-53.223,0.000,0
33453.751,-56.152,-36.133,-113.281,-56.641,0.000,1
33453.754,-12.207,-47.363,143.555,-21.484,0.000,0
33453.758,-5.859,-50.293,78.613,-12.695,0.000,0
33453.762,-42.969,-37.109,-184.570,-49.316,0.000,0
33453.766,-52.246,-29.785,-183.105,-55.176,0.000,0
33453.770,-5.859,-34.668,99.121,-24.414,0.000,0
33453.774,0.977,-43.457,127.441,-10.742,0.000,0
33453.778,-31.250,-39.062,-115.723,-22.949,0.000,0
33453.782,-61.523,-30.762,-216.309,-41.992,0.000,0
33453.786,-32.715,-36.621,41.504,-20.020,0.000,0
33453.790,3.906,-42.480,159.180,0.000,0.000,0
33453.793,-8.789,-40.527,-34.180,-5.371,0.000,0
33453.797,-56.641,-27.832,-229.980,-48.340,0.000,0
33453.801,-29.297,-30.273,-29.785,-48.828,0.000,0
33453.805,13.672,-36.621,159.668,-13.184,0.000,0
33453.809,-0.977,-36.621,30.762,-17.090,0.000,0
33453.813,-52.246,-27.832,-217.285,-47.363,0.000,0
33453.817,-52.734,-24.414,-127.441,-41.016,0.000,0
33453.821,-7.812,-40.527,137.207,-32.227,0.000,0
33453.825,-4.883,-45.410,97.656,-24.414,0.000,0
33453.829,-44.922,-27.344,-163.086,-30.273,0.000,0
33453.833,-50.781,-19.531,-190.918,-47.363,0.000,0
33453.836,0.000,-30.273,84.473,-17.578,0.000,0
33453.840,7.812,-36.133,142.578,-7.812,0.000,0
33453.844,-21.973,-36.133,-90.332,-29.785,0.000,0
33453.848,-47.363,-27.344,-224.609,-59.570,0.000,0
33453.852,-14.160,-22.949,20.508,-35.156,0.000,0
33453.856,18.555,-29.785,164.551,18.555,0.000,0
33453.860,-11.230,-30.273,0.977,2.441,0.000,0
33453.864,-58.594,-16.602,-227.051,-52.246,0.000,0
33453.868,-33.203,-17.578,-64.453,-30.762,0.000,0
33453.872,6.348,-31.738,160.156,2.441,0.000,0
33453.876,-0.488,-31.738,58.105,-2.930,0.000,0
33453.879,-44.922,-21.484,-202.148,-37.598,0.000,0
33453.883,-44.922,-17.090,-139.160,-54.688,0.000,0
33453.887,7.812,-23.926,139.160,-20.996,0.000,0
33453.891,17.578,-29.785,124.512,4.883,0.000,0
33453.895,-20.508,-25.391,-145.508,-11.230,0.000,0
33453.899,-37.109,-17.090,-196.777,-37.109,0.000,0
33453.903,19.531,-21.973,91.797,10.254,0.000,0
33453.907,44.922,-32.227,153.320,34.668,0.000,0
33453.911,-16.602,-29.297,-78.125,-23.438,0.000,0
33453.915,-66.895,-20.996,-218.262,-66.406,0.000,0
33453.918,-32.227,-28.809,18.555,-38.574,0.000,0
33453.922,-6.836,-40.527,170.898,-27.832,0.000,0
33453.926,-14.648,-37.598,1.953,-24.902,0.000,0
33453.930,-50.293,-24.902,-226.074,-35.645,0.000,0
33453.934,-34.668,-22.461,-72.754,-25.391,0.000,0
33453.938,4.395,-35.645,159.668,0.488,0.000,0
33453.942,-1.465,-44.434,65.918,6.836,0.000,0
33453.946,-48.340,-34.668,-203.125,-26.855,0.000,0
33453.950,-49.805,-27.344,-151.367,-50.293,0.000,0
33453.954,-5.859,-39.062,119.141,-11.230,0.000,0
33453.958,-2.441,-46.387,108.398,-5.859,0.000,0
33453.961,-35.156,-36.133,-137.207,-37.598,0.000,0
33453.965,-51.758,-23.438,-209.961,-48.828,0.000,0
33453.969,-3.418,-27.832,61.035,-19.043,0.000,0
33453.973,14.648,-37.598,153.320,-5.859,0.000,0
33453.977,-12.207,-36.133,-48.340,-20.508,0.000,0
33453.981,-42.969,-23.926,-219.238,-46.875,0.000,0
33453.985,-22.461,-25.879,-14.648,-29.297,0.000,0
33453.989,12.207,-37.598,165.527,-5.859,0.000,0
33453.993,1.465,-39.062,14.160,-0.488,0.000,0
33453.997,-43.457,-24.902,-237.305,-30.762,0.000,0
33454.001,-31.250,-23.926,-108.398,-34.668,0.000,0
33454.004,5.371,-37.109,143.066,0.488,0.000,0
33454.008,1.953,-35.156,84.473,2.930,0.000,0
33454.012,-35.645,-19.043,-176.758,-27.832,0.000,0
33454.016,-46.387,-12.695,-169.434,-46.875,0.000,0
33454.020,-1.953,-23.438,113.770,-20.508,0.000,0
33454.024,10.742,-32.227,137.207,-10.254,0.000,0
33454.028,-29.785,-29.785,-115.234,-36.621,0.000,0
33454.032,-59.082,-21.484,-215.820,-43.457,0.000,0
33454.036,-10.742,-31.738,55.664,-17.090,0.000,0
33454.040,13.184,-37.598,174.316,-9.277,0.000,0
33454.043,-10.742,-30.762,-33.203,-12.695,0.000,0
33454.047,-46.875,-19.531,-234.863,-33.203,0.000,0
33454.051,-25.391,-18.555,-25.391,-20.508,0.000,0
33454.055,6.836,-30.273,182.617,-0.488,0.000,0
33454.059,-1.953,-34.668,43.457,-10.254,0.000,0
33454.063,-40.527,-22.949,-212.402,-40.039,0.000,0
33454.067,-37.109,-19.043,-108.887,-44.434,0.000,0
33454.071,7.812,-27.832,148.926,-8.301,0.000,0
33454.075,6.836,-32.715,99.121,1.953,0.000,0
33454.079,-40.527,-20.996,-165.527,-26.367,0.000,0
33454.083,-52.734,-13.184,-182.129,-41.504,0.000,0
33454.086,-4.883,-31.250,96.680,-19.043,0.000,0
33454.090,8.301,-37.598,137.695,-2.930,0.000,0
33454.094,-23.926,-29.785,-94.238,-22.461,0.000,0
33454.098,-51.758,-19.043,-212.402,-60.059,0.000,0
33454.102,-16.602,-22.461,29.297,-42.969,0.000,0
33454.106,13.184,-33.203,157.715,-16.113,0.000,0
33454.110,-17.578,-28.809,-21.973,-16.113,0.000,0
33454.114,-56.152,-16.113,-230.469,-48.828,0.000,0
33454.118,-32.227,-21.484,-53.223,-54.199,0.000,0
33454.122,0.977,-35.645,157.227,-18.555,0.000,0
33454.126,-5.859,-29.785,48.828,-3.906,0.000,0
33454.129,-49.805,-17.578,-210.449,-20.508,0.000,0
33454.133,-54.688,-18.555,-145.508,-35.645,0.000,0
33454.137,-6.348,-29.785,131.348,-23.438,0.000,0
33454.141,5.371,-31.250,114.746,-8.789,0.000,0
33454.145,-42.480,-25.391,-156.250,-29.785,0.000,0
33454.149,-64.941,-22.949,-204.102,-46.875,0.000,0
33454.153,-11.230,-29.297,83.496,-17.090,0.000,0
33454.157,10.742,-33.691,150.879,5.371,0.000,0
33454.161,-25.391,-27.832,-80.566,-10.742,0.000,0
33454.165,-59.570,-20.508,-235.840,-50.781,0.000,0
33454.168,-26.367,-27.344,5.371,-35.156,0.000,0
33454.172,-3.418,-34.668,172.363,-2.441,0.000,0
33454.176,-25.391,-32.715,9.766,-8.789,0.000,0
33454.180,-66.895,-25.879,-231.934,-44.922,0.000,0
33454.184,-46.387,-26.367,-82.031,-42.480,0.000,0
33454.188,-1.953,-35.156,158.203,-9.277,0.000,0
33454.192,2.441,-30.762,66.406,5.371,0.000,0
33454.196,-34.180,-20.508,-196.777,-34.180,0.000,0
33454.200,-41.504,-18.555,-148.438,-52.734,0.000,0
33454.204,-0.977,-29.785,129.395,-23.926,0.000,0
33454.208,0.977,-36.621,121.582,-12.207,0.000,0
33454.211,-40.527,-26.855,-142.090,-30.273,0.000,0
33454.215,-54.688,-17.090,-208.496,-62.500,0.000,0
33454.219,-10.742,-27.832,68.359,-38.086,0.000,0
33454.223,9.277,-35.156,150.879,-9.766,0.000,0
33454.227,-17.578,-25.391,-65.918,-9.766,0.000,0
33454.231,-57.617,-20.508,-232.910,-29.297,0.000,0
33454.235,-30.762,-28.320,-0.977,-25.391,0.000,0
33454.239,-0.977,-36.133,172.363,-18.555,0.000,0
33454.243,-21.973,-31.250,12.695,-20.996,0.000,0
33454.247,-69.336,-22.461,-230.469,-45.410,0.000,0
33454.251,-56.641,-20.996,-104.492,-50.781,0.000,0
33454.254,-11.230,-30.762,148.438,-26.367,0.000,0
33454.258,-6.836,-34.180,83.008,-12.695,0.000,0
33454.262,-51.758,-24.414,-193.359,-25.879,0.000,0
33454.266,-61.035,-14.648,-171.387,-41.504,0.000,0
33454.270,-15.137,-23.438,108.398,-20.020,0.000,0
33454.274,0.977,-32.227,117.188,-7.812,0.000,0
33454.278,-32.715,-20.996,-117.188,-29.297,0.000,0
33454.282,-56.641,-11.230,-215.332,-52.246,0.000,0
33454.286,-10.742,-20.020,43.945,-19.043,0.000,0
33454.290,12.207,-32.227,156.250,2.930,0.000,0
33454.293,-11.719,-28.320,-40.039,-15.137,0.000,0
33454.297,-47.363,-15.625,-228.516,-45.898,0.000,1
33454.301,-22.461,-18.066,-26.367,-34.668,0.000,0
33454.305,9.277,-32.227,164.062,-16.602,0.000,0
33454.309,-9.766,-36.621,27.344,-14.648,0.000,0
33454.313,-58.594,-24.414,-220.215,-32.227,0.000,0
33454.317,-50.293,-16.602,-118.164,-43.945,0.000,0
33454.321,-3.418,-26.367,133.789,-24.414,0.000,0
33454.325,-4.883,-31.250,88.379,-11.719,0.000,0
33454.329,-42.480,-14.648,-180.176,-39.551,0.000,0
33454.333,-51.758,-3.906,-187.988,-55.664,0.000,0
33454.336,-8.301,-20.020,94.238,-27.344,0.000,0
33454.340,5.859,-25.879,133.301,-12.207,0.000,0
33454.344,-31.738,-16.113,-101.562,-24.902,0.000,0
33454.348,-60.059,-6.836,-229.004,-42.969,0.000,0
33454.352,-22.949,-11.719,33.691,-22.949,0.000,0
33454.356,4.883,-22.461,172.852,-7.812,0.000,0
33454.360,-9.277,-20.020,-19.531,-13.184,0.000,0
33454.364,-49.805,-11.230,-220.703,-33.691,0.000,0
33454.368,-33.203,-11.719,-46.387,-21.484,0.000,0
33454.372,-0.488,-23.926,161.621,-1.953,0.000,0
33454.376,-6.836,-31.250,47.363,-13.672,0.000,0
33454.379,-49.316,-16.602,-215.820,-47.852,0.000,0
33454.383,-58.105,-12.695,-138.184,-54.199,0.000,0
33454.387,-8.789,-25.879,123.535,-19.043,0.000,0
33454.391,-1.953,-29.785,96.191,-2.930,0.000,0
33454.395,-47.852,-22.949,-161.133,-21.484,0.000,0
33454.399,-53.711,-13.184,-202.637,-36.133,0.000,0
33454.403,-2.930,-22.949,82.520,-16.113,0.000,0
33454.407,9.766,-35.156,141.602,0.000,0.000,0
33454.411,-21.973,-24.902,-83.496,-14.648,0.000,0
33454.415,-57.129,-18.066,-218.262,-41.992,0.000,0
33454.418,-21.973,-26.367,12.695,-18.066,0.000,0
33454.422,0.000,-37.109,159.180,-6.836,0.000,0
33454.426,-25.879,-30.762,-8.789,-16.113,0.000,0
33454.430,-68.359,-20.996,-233.887,-44.922,0.000,0
33454.434,-42.969,-20.996,-68.848,-48.340,0.000,0
33454.438,3.418,-25.879,159.180,-6.836,0.000,0
33454.442,-4.883,-29.297,58.105,4.883,0.000,0
33454.446,-50.293,-23.926,-213.379,-39.062,0.000,0
33454.450,-50.293,-20.508,-155.762,-43.945,0.000,0
33454.454,-3.906,-34.180,133.789,-15.625,0.000,0
33454.458,-15.625,-35.156,8.789,-21.973,0.000,0
33454.461,-50.293,-20.020,-210.449,-34.668,0.000,0
33454.465,-30.762,-21.484,-35.156,-20.996,0.000,0
33454.469,3.906,-33.691,154.297,-9.766,0.000,0
33454.473,6.836,-30.762,77.637,-11.230,0.000,0
33454.477,-38.574,-21.484,-188.965,-40.527,0.000,0
33454.481,-52.246,-21.973,-161.621,-58.105,0.000,0
33454.485,-8.301,-28.809,118.652,-21.973,0.000,0
33454.489,2.930,-33.203,133.301,-15.137,0.000,0
33454.493,-28.320,-26.855,-120.605,-43.457,0.000,0
33454.497,-50.781,-22.461,-210.449,-56.641,0.000,0
33454.501,-12.207,-30.762,61.035,-23.926,0.000,0
33454.504,7.324,-39.062,152.344,0.000,0.000,0
33454.508,-21.484,-34.180,-63.477,-9.766,0.000,0
33454.512,-60.059,-24.902,-236.328,-51.270,0.000,0
33454.516,-30.762,-27.832,-19.531,-44.434,0.000,0
33454.520,-0.488,-39.062,163.086,-18.555,0.000,0
33454.524,-17.090,-36.621,9.277,-20.020,0.000,0
33454.528,-44.922,-26.855,-225.098,-37.598,0.000,0
33454.532,-34.180,-27.832,-85.938,-44.434,0.000,0
33454.536,9.766,-35.645,156.250,-22.949,0.000,0
33454.540,16.602,-35.156,84.961,6.836,0.000,0
33454.543,-30.273,-26.367,-176.758,-15.625,0.000,0
33454.547,-45.410,-19.531,-163.574,-35.156,0.000,0
33454.551,-2.930,-23.438,114.258,0.488,0.000,0
33454.555,7.324,-28.809,128.418,0.488,0.000,0
33454.559,-29.297,-25.879,-114.258,-29.785,0.000,0
33454.563,-67.383,-18.066,-215.820,-50.781,0.000,0
33454.567,-24.902,-23.926,37.598,-29.785,0.000,0
33454.571,11.230,-31.250,155.273,-7.324,0.000,0
33454.575,-19.531,-25.391,-41.992,-15.625,0.000,0
33454.579,-59.570,-18.066,-244.629,-50.781,0.000,0
33454.583,-26.367,-24.902,-46.387,-40.039,0.000,0
33454.586,9.766,-31.738,159.668,-8.301,0.000,0
33454.590,-5.371,-23.926,37.109,-13.672,0.000,0
33454.594,-49.805,-12.207,-213.867,-39.551,0.000,0
33454.598,-35.645,-12.695,-114.746,-26.855,0.000,0
33454.602,12.207,-21.484,141.113,-3.418,0.000,0
33454.606,11.230,-22.461,102.051,-5.371,0.000,0
33454.610,-29.785,-13.672,-148.438,-27.344,0.000,0
33454.614,-35.156,-8.301,-176.758,-38.086,0.000,0
33454.618,6.836,-25.391,97.656,-15.625,0.000,0
33454.622,10.254,-30.273,141.113,0.488,0.000,0
33454.626,-27.832,-23.438,-91.797,-18.555,0.000,0
33454.629,-63.477,-18.555,-215.332,-57.617,0.000,0
33454.633,-22.949,-17.578,32.715,-33.691,0.000,0
33454.637,12.207,-30.762,161.133,-4.395,0.000,0
33454.641,-13.672,-30.273,-33.203,-11.230,0.000,0
33454.645,-51.270,-17.090,-239.258,-39.062,0.000,0
33454.649,-26.367,-20.996,-53.711,-29.297,0.000,0
33454.653,6.348,-31.250,161.621,-8.301,0.000,0
33454.657,-4.883,-30.762,47.852,-15.625,0.000,0
33454.661,-53.223,-21.484,-207.520,-53.223,0.000,0
33454.665,-50.293,-20.508,-131.348,-56.152,0.000,0
33454.668,-1.465,-32.227,145.020,-22.949,0.000,0
33454.672,4.395,-33.203,112.305,-7.324,0.000,0
33454.676,-30.762,-23.926,-160.156,-22.461,0.000,0
33454.680,-57.617,-23.926,-216.797,-50.781,0.000,0
33454.684,-17.578,-32.715,80.566,-27.344,0.000,0
33454.688,-4.395,-28.809,76.660,-11.230,0.000,0
33454.692,-50.781,-7.324,-206.543,-38.574,0.000,0
33454.696,-53.711,-3.418,-143.066,-50.293,0.000,0
33454.700,-5.859,-22.461,122.070,-14.648,0.000,0
33454.704,2.930,-28.809,101.562,1.465,0.000,0
33454.708,-38.086,-21.484,-148.926,-25.391,0.000,0
33454.711,-61.523,-17.578,-204.590,-45.898,0.000,0
33454.715,-16.113,-30.273,65.918,-19.043,0.000,0
33454.719,6.348,-37.598,140.625,-5.859,0.000,0
33454.723,-18.066,-27.832,-74.219,-19.043,0.000,0
33454.727,-49.316,-18.066,-227.539,-46.387,0.000,0
33454.731,-18.066,-22.461,0.000,-25.879,0.000,0
33454.735,14.648,-30.273,165.527,9.277,0.000,0
33454.739,-7.812,-27.832,9.277,4.395,0.000,0
33454.743,-57.617,-19.043,-230.957,-39.551,0.000,0
33454.747,-41.016,-23.438,-94.727,-49.316,0.000,0
33454.751,0.977,-30.762,141.113,-14.160,0.000,0
33454.754,3.418,-27.832,63.965,0.488,0.000,0
33454.758,-30.762,-16.602,-196.777,-22.949,0.000,0
33454.762,-43.457,-17.090,-171.387,-46.387,0.000,0
33454.766,-4.883,-29.297,115.234,-26.855,0.000,0
33454.770,10.254,-28.809,133.301,-2.441,0.000,0
33454.774,-18.555,-25.391,-134.766,-21.484,0.000,0
33454.778,-47.363,-18.066,-225.098,-49.805,0.000,0
33454.782,-11.230,-19.531,58.594,-29.297,0.000,0
33454.786,18.555,-28.320,168.945,-12.695,0.000,0
33454.790,-7.324,-20.508,-47.852,-16.113,0.000,0
33454.793,-53.711,-8.789,-240.723,-47.363,0.000,0
33454.797,-22.461,-12.207,-17.090,-35.645,0.000,0
33454.801,15.137,-24.902,175.293,-3.418,0.000,0
33454.805,-10.254,-24.902,7.324,-13.672,0.000,0
33454.809,-48.340,-13.672,-223.633,-37.598,0.000,0
33454.813,-33.203,-16.113,-101.562,-32.227,0.000,0
33454.817,4.395,-27.344,136.230,-15.625,0.000,0
33454.821,11.230,-29.785,77.637,-7.324,0.000,0
33454.825,-31.738,-18.066,-182.129,-41.016,0.000,0
33454.829,-50.781,-11.719,-181.641,-55.664,0.000,0
33454.833,-4.395,-25.391,94.727,-24.414,0.000,0
33454.836,7.324,-32.227,124.023,-12.695,0.000,0
33454.840,-26.855,-26.367,-121.582,-20.508,0.000,0
33454.844,-54.688,-20.020,-228.027,-52.246,0.000,0
33454.848,-16.602,-27.344,28.809,-37.109,0.000,0
33454.852,11.719,-34.180,149.414,2.930,0.000,0
33454.856,-10.742,-31.250,-41.504,0.977,0.000,0
33454.860,-55.664,-26.367,-237.793,-34.668,0.000,0
33454.864,-32.715,-27.344,-36.133,-41.016,0.000,0
33454.868,7.812,-35.156,173.340,-26.855,0.000,0
33454.872,-10.254,-32.715,45.898,-26.855,0.000,0
33454.876,-54.688,-15.625,-216.797,-46.387,0.000,0
33454.879,-39.062,-6.836,-127.930,-35.156,0.000,0
33454.883,0.977,-19.043,133.301,-12.695,0.000,0
33454.887,-0.488,-28.809,95.215,-6.348,0.000,0
33454.891,-46.387,-21.484,-168.457,-20.508,0.000,0
33454.895,-57.129,-15.137,-194.824,-43.457,0.000,0
33454.899,-10.742,-22.949,87.402,-18.555,0.000,0
33454.903,-8.789,-33.691,144.043,-6.836,0.000,0
33454.907,-40.039,-28.809,-88.867,-35.645,0.000,0
33454.911,-70.801,-20.508,-229.004,-56.152,0.000,0
33454.915,-31.738,-26.855,22.949,-29.297,0.000,0
33454.918,9.766,-35.156,169.434,-8.789,0.000,0
33454.922,-22.949,-28.320,-24.414,-19.043,0.000,0
33454.926,-66.406,-13.672,-233.398,-52.246,0.000,0
33454.930,-39.062,-16.602,-58.594,-39.062,0.000,0
33454.934,-6.348,-35.645,156.250,-11.230,0.000,0
33454.938,-12.207,-36.133,54.688,-2.441,0.000,0
33454.942,-48.828,-22.461,-209.473,-26.367,0.000,0
33454.946,-50.293,-23.438,-147.949,-48.340,0.000,0
33454.950,-7.324,-32.715,123.535,-26.367,0.000,0
33454.954,0.488,-29.297,107.422,-2.930,0.000,1
33454.958,-34.668,-20.508,-150.879,-20.508,0.000,0
33454.961,-54.199,-21.973,-209.473,-49.316,0.000,0
33454.965,-22.949,-31.738,67.871,-24.902,0.000,0
33454.969,-2.930,-37.598,144.531,-6.836,0.000,0
33454.973,-33.203,-34.668,-79.102,-29.297,0.000,0
33454.977,-67.383,-23.926,-231.445,-51.758,0.000,0
33454.981,-32.227,-24.414,5.859,-24.414,0.000,0
33454.985,-1.465,-32.715,161.133,-4.883,0.000,0
33454.989,-19.531,-27.832,-6.348,-16.113,0.000,0
33454.993,-61.035,-21.973,-241.211,-36.621,0.000,0
33454.997,-49.316,-25.879,-90.820,-34.668,0.000,0
33455.001,-4.395,-29.297,152.832,-13.184,0.000,0
33455.004,-9.766,-30.273,67.383,-13.672,0.000,0
33455.008,-60.547,-18.555,-195.801,-45.898,0.000,0
33455.012,-65.430,-15.137,-158.203,-55.664,0.000,0
33455.016,-21.973,-25.391,109.375,-17.090,0.000,0
33455.020,-3.906,-26.367,115.234,4.395,0.000,0
33455.024,-30.273,-18.555,-125.000,-22.461,0.000,0
33455.028,-54.199,-12.207,-212.402,-49.316,0.000,0
33455.032,-16.113,-24.902,51.270,-18.555,0.000,0
33455.036,8.301,-31.738,156.738,8.301,0.000,0
33455.040,-25.391,-31.250,-51.758,-21.484,0.000,0
33455.043,-68.848,-27.832,-237.305,-66.406,0.000,0
33455.047,-36.621,-29.297,-23.926,-45.410,0.000,0
33455.051,4.395,-34.668,165.039,-5.859,0.000,0
33455.055,-1.953,-31.250,27.344,9.766,0.000,0
33455.059,-45.898,-24.902,-221.191,-27.832,0.000,0
33455.063,-42.480,-24.902,-99.121,-53.223,0.000,0
33455.067,-4.395,-29.785,149.902,-17.578,0.000,0
33455.071,-10.742,-28.320,84.961,-3.418,0.000,0
33455.075,-45.898,-22.461,-183.105,-39.551,0.000,0
33455.079,-57.129,-15.625,-173.340,-53.223,0.000,0
33455.083,-13.672,-24.902,104.492,-24.414,0.000,0
33455.086,9.766,-31.738,126.953,-6.348,0.000,0
33455.090,-24.414,-23.926,-112.793,-17.578,0.000,0
33455.094,-54.688,-17.090,-218.750,-42.969,0.000,0
33455.098,-17.578,-21.484,46.387,-29.297,0.000,0
33455.102,1.953,-27.832,170.410,-9.277,0.000,0
33455.106,-28.809,-21.484,-33.203,-9.766,0.000,0
33455.110,-76.172,-17.578,-239.258,-50.781,0.000,0
33455.114,-40.039,-22.461,-40.039,-45.898,0.000,0
33455.118,10.742,-26.367,167.480,-14.648,0.000,0
33455.122,2.930,-25.391,40.039,-20.020,0.000,0
33455.126,-35.645,-11.719,-214.844,-41.504,0.000,0
33455.129,-37.598,-8.789,-121.094,-38.574,0.000,0
33455.133,-1.465,-25.391,138.184,-11.230,0.000,0
33455.137,-1.953,-25.879,99.609,-2.441,0.000,0
33455.141,-49.805,-16.602,-161.133,-32.715,0.000,0
33455.145,-73.730,-20.508,-192.383,-45.898,0.000,0
33455.149,-20.996,-30.762,79.590,-17.578,0.000,0
33455.153,-2.441,-27.344,128.906,-12.207,0.000,0
33455.157,-34.668,-19.531,-105.957,-27.344,0.000,0
33455.161,-62.500,-15.137,-226.074,-59.082,0.000,0
33455.165,-29.297,-25.391,18.066,-47.852,0.000,0
33455.168,8.789,-29.297,149.902,-15.137,0.000,0
33455.172,0.000,-22.949,-22.949,-18.066,0.000,0
33455.176,-47.363,-19.531,-221.191,-50.781,0.000,0
33455.180,-35.156,-17.578,-47.852,-40.527,0.000,0
33455.184,6.836,-23.926,155.762,-19.531,0.000,0
33455.188,0.000,-25.391,46.875,-23.438,0.000,0
33455.192,-44.434,-12.695,-205.566,-42.969,0.000,0
33455.196,-39.062,-12.207,-138.184,-35.156,0.000,0
33455.200,6.348,-28.809,130.859,-9.277,0.000,0
33455.204,-2.930,-32.715,101.074,-8.789,0.000,0
33455.208,-49.316,-23.438,-167.480,-36.621,0.000,0
33455.211,-66.895,-18.066,-209.473,-57.617,0.000,0
33455.215,-25.391,-28.809,69.336,-29.297,0.000,0
33455.219,-2.930,-34.668,145.020,-17.578,0.000,0
33455.223,-33.203,-30.762,-83.496,-39.551,0.000,0
33455.227,-65.430,-23.926,-243.652,-63.477,0.000,0
33455.231,-23.926,-23.438,-1.953,-36.621,0.000,0
33455.235,6.348,-34.180,161.621,-5.371,0.000,0
33455.239,-4.883,-29.297,-0.488,-10.742,0.000,0
33455.243,-45.898,-15.137,-228.516,-36.621,0.000,0
33455.247,-34.668,-14.160,-74.219,-30.273,0.000,0
33455.251,3.418,-29.785,158.203,-11.230,0.000,0
33455.254,-6.836,-31.738,58.594,-14.160,0.000,0
33455.258,-50.293,-19.531,-206.543,-49.316,0.000,0
33455.262,-51.758,-14.648,-157.715,-58.105,0.000,0
33455.266,-4.883,-24.902,122.070,-24.902,0.000,0
33455.270,5.371,-32.227,120.117,-3.906,0.000,0
33455.274,-35.645,-27.344,-140.137,-18.555,0.000,0
33455.278,-59.082,-20.996,-208.496,-48.828,0.000,0
33455.282,-18.555,-28.809,75.195,-17.578,0.000,0
33455.286,-2.930,-36.133,152.344,0.000,0.000,0
33455.290,-24.414,-31.250,-66.406,-12.695,0.000,0
33455.293,-57.617,-20.020,-232.910,-36.621,0.000,0
33455.297,-39.062,-22.949,-11.230,-50.293,0.000,0
33455.301,-0.977,-31.250,166.016,-33.203,0.000,0
33455.305,-1.953,-36.133,11.719,-15.625,0.000,0
33455.309,-57.617,-23.438,-226.562,-48.828,0.000,0
33455.313,-53.711,-18.066,-96.680,-56.152,0.000,0
33455.317,6.348,-28.809,153.320,-15.137,0.000,0
33455.321,6.348,-27.344,84.961,-11.230,0.000,0
33455.325,-46.387,-17.090,-190.918,-45.410,0.000,0
33455.329,-48.340,-11.230,-174.805,-56.152,0.000,0
33455.333,2.930,-19.043,111.328,-20.508,0.000,0
33455.336,1.953,-25.879,129.883,-8.301,0.000,0
33455.340,-37.598,-20.996,-118.164,-33.203,0.000,0
33455.344,-63.477,-13.184,-219.727,-57.129,0.000,0
33455.348,-23.926,-21.973,41.016,-33.691,0.000,0
33455.352,4.395,-25.879,155.762,-7.324,0.000,0
33455.356,-20.020,-18.555,-34.180,-19.043,0.000,0
33455.360,-53.711,-14.160,-231.934,-55.664,0.000,0
33455.364,-20.508,-21.973,-35.156,-40.039,0.000,0
33455.368,14.648,-26.855,167.969,-12.695,0.000,0
33455.372,5.859,-20.020,34.180,0.488,0.000,0
33455.376,-35.156,-15.625,-222.168,-19.043,0.000,0
33455.379,-33.203,-19.531,-114.746,-38.574,0.000,0
33455.383,6.836,-29.297,145.996,-9.766,0.000,0
33455.387,3.418,-33.691,83.496,12.207,0.000,0
33455.391,-44.434,-24.414,-181.641,-12.695,0.000,0
33455.395,-55.176,-13.672,-194.336,-39.062,0.000,0
33455.399,-12.695,-27.832,94.727,-22.949,0.000,0
33455.403,-0.977,-39.062,144.531,-10.742,0.000,0
33455.407,-27.832,-29.297,-99.609,-25.391,0.000,0
33455.411,-64.453,-22.949,-228.027,-49.805,0.000,0
33455.415,-34.668,-34.180,27.344,-38.574,0.000,0
33455.418,1.465,-44.922,164.062,-12.207,0.000,0
33455.422,-15.625,-34.668,-26.367,-4.883,0.000,0
33455.426,-61.523,-19.531,-238.770,-41.016,0.000,0
33455.430,-41.992,-18.555,-50.293,-35.156,0.000,0
33455.434,-8.789,-30.762,161.133,-6.836,0.000,0
33455.438,-15.137,-31.738,29.785,-10.254,0.000,0
33455.442,-55.664,-18.066,-218.262,-38.086,0.000,0
33455.446,-52.734,-17.578,-129.395,-40.527,0.000,0
33455.450,0.000,-30.273,129.395,-12.695,0.000,0
33455.454,7.812,-25.879,103.516,-10.254,0.000,0
33455.458,-39.062,-14.648,-151.855,-40.039,0.000,0
33455.461,-62.500,-6.348,-197.266,-55.176,0.000,0
33455.465,-16.602,-16.602,76.172,-25.391,0.000,0
33455.469,0.488,-33.691,138.184,-8.789,0.000,0
33455.473,-26.855,-27.344,-83.984,-17.090,0.000,0
33455.477,-51.758,-14.160,-221.680,-49.805,0.000,0
33455.481,-19.043,-20.020,20.020,-35.156,0.000,0
33455.485,11.230,-34.180,170.410,-16.113,0.000,0
33455.489,-7.812,-29.297,0.000,-17.090,0.000,0
33455.493,-51.270,-19.043,-226.074,-31.738,0.000,0
33455.497,-33.203,-19.531,-65.918,-36.133,0.000,0
33455.501,11.719,-25.391,164.062,-8.301,0.000,0
33455.504,4.395,-27.344,62.500,-10.254,0.000,0
33455.508,-41.016,-13.672,-202.637,-38.574,0.000,0
33455.512,-42.480,-9.277,-153.320,-37.598,0.000,0
33455.516,1.465,-23.438,129.395,-12.695,0.000,0
33455.520,-0.488,-30.273,115.234,-0.977,0.000,1
33455.524,-40.039,-25.391,-157.227,-15.137,0.000,0
33455.528,-45.898,-25.391,-220.703,-38.574,0.000,0
33455.532,-2.930,-25.879,65.918,-17.090,0.000,0
33455.536,12.207,-27.832,161.133,-1.953,0.000,0
33455.540,-13.672,-24.902,-65.918,-16.113,0.000,0
33455.543,-52.246,-14.160,-239.258,-45.898,0.000,0
33455.547,-25.391,-18.066,-5.371,-27.344,0.000,0
33455.551,12.207,-27.344,171.387,2.930,0.000,0
33455.555,-5.371,-21.484,19.043,-9.277,0.000,0
33455.559,-51.758,-15.625,-224.121,-43.945,0.000,0
33455.563,-28.809,-14.160,-91.797,-36.621,0.000,0
33455.567,11.719,-20.996,153.320,-2.441,0.000,0
33455.571,1.953,-27.344,73.242,-1.465,0.000,0
33455.575,-40.039,-19.043,-190.918,-35.156,0.000,0
33455.579,-46.875,-14.160,-169.434,-46.387,0.000,0
33455.583,-3.418,-26.367,107.910,-11.719,0.000,0
33455.586,8.789,-30.273,122.070,1.465,0.000,0
33455.590,-33.691,-20.996,-143.066,-22.949,0.000,0
33455.594,-57.617,-13.184,-217.773,-38.086,0.000,0
33455.598,-6.836,-13.672,62.012,-11.230,0.000,0
33455.602,14.160,-25.879,154.297,0.977,0.000,0
33455.606,-15.625,-26.367,-48.828,-7.812,0.000,0
33455.610,-52.246,-17.090,-233.398,-37.598,0.000,0
33455.614,-25.879,-19.043,-27.832,-37.598,0.000,0
33455.618,10.742,-21.484,168.457,-10.742,0.000,0
33455.622,0.000,-11.719,34.180,-3.906,0.000,0
33455.626,-41.504,-2.441,-219.238,-22.461,0.000,0
33455.629,-35.156,-4.883,-114.258,-25.391,0.000,0
33455.633,5.859,-20.996,129.883,-8.301,0.000,0
33455.637,-3.418,-28.809,79.102,0.000,0.000,0
33455.641,-50.293,-15.137,-176.270,-20.996,0.000,0
33455.645,-48.340,-7.324,-184.082,-35.156,0.000,0
33455.649,-7.812,-17.578,92.773,-8.789,0.000,0
33455.653,0.488,-26.367,135.254,1.465,0.000,0
33455.657,-31.250,-20.996,-104.492,-21.484,0.000,0
33455.661,-54.688,-10.254,-229.492,-36.133,0.000,0
33455.665,-9.277,-20.020,33.691,-9.766,0.000,0
33455.668,10.742,-31.250,162.598,1.465,0.000,0
33455.672,-16.602,-28.320,-31.738,-6.836,0.000,0
33455.676,-54.199,-18.555,-242.188,-44.434,0.000,0
33455.680,-35.645,-23.926,-60.059,-46.875,0.000,0
33455.684,-1.953,-35.156,163.086,-15.137,0.000,0
33455.688,-0.977,-30.273,44.434,0.000,0.000,0
33455.692,-43.457,-20.020,-219.238,-24.902,0.000,0
33455.696,-51.270,-18.555,-130.859,-40.527,0.000,0
33455.700,-3.906,-26.367,129.395,-5.859,0.000,0
33455.704,6.348,-21.973,95.703,5.859,0.000,0
33455.708,-36.621,-17.090,-170.410,-26.367,0.000,0
33455.711,-60.547,-16.602,-200.684,-45.898,0.000,0
33455.715,-15.625,-21.484,93.262,-17.090,0.000,0
33455.719,4.883,-35.645,146.973,-2.930,0.000,0
33455.723,-31.250,-32.715,-97.168,-19.043,0.000,0
33455.727,-53.223,-18.066,-239.258,-35.645,0.000,0
33455.731,-15.137,-20.508,18.555,-15.137,0.000,0
33455.735,3.906,-34.668,164.551,-3.906,0.000,0
33455.739,-15.625,-37.109,-20.020,-6.348,0.000,0
33455.743,-58.594,-20.508,-238.770,-30.273,0.000,0
33455.747,-42.969,-20.508,-70.312,-29.297,0.000,0
33455.751,0.977,-27.832,161.133,-12.207,0.000,0
33455.754,-1.465,-20.996,65.430,-17.578,0.000,0
33455.758,-50.781,-11.719,-205.566,-38.574,0.000,0
33455.762,-58.594,-16.602,-151.855,-47.363,0.000,0
33455.766,-17.578,-32.715,119.141,-14.160,0.000,0
33455.770,-4.883,-36.133,104.980,-0.977,0.000,0
33455.774,-41.016,-29.297,-142.578,-29.297,0.000,0
33455.778,-64.941,-24.414,-204.590,-44.922,0.000,0
33455.782,-20.508,-30.762,65.918,-21.973,0.000,0
33455.786,3.906,-34.180,157.715,9.277,0.000,0
33455.790,-25.391,-27.344,-59.082,0.977,0.000,0
33455.793,-59.082,-18.066,-226.562,-61.523,0.000,0
33455.797,-26.367,-20.508,0.000,-50.293,0.000,0
33455.801,-0.977,-33.203,159.180,-12.207,0.000,0
33455.805,-13.672,-36.133,-0.488,-15.625,0.000,0
33455.809,-55.664,-22.949,-231.934,-45.898,0.000,0
33455.813,-41.992,-25.879,-71.289,-46.875,0.000,0
33455.817,-7.812,-38.086,151.367,-16.113,0.000,0
33455.821,-16.113,-37.598,62.988,-9.277,0.000,0
33455.825,-46.875,-25.879,-196.289,-38.086,0.000,0
33455.829,-47.363,-15.625,-172.363,-43.945,0.000,0
33455.833,-1.465,-20.508,114.746,-26.367,0.000,0
33455.836,8.789,-26.855,123.047,-16.113,0.000,0
33455.840,-30.273,-22.461,-133.301,-20.020,0.000,0
33455.844,-51.758,-14.160,-218.262,-44.922,0.000,0
33455.848,-12.207,-22.949,53.223,-30.273,0.000,0
33455.852,1.953,-36.621,162.109,-20.020,0.000,0
33455.856,-19.043,-35.156,-43.945,-31.250,0.000,0
33455.860,-51.270,-27.344,-236.328,-50.293,0.000,0
33455.864,-24.414,-25.879,-19.043,-38.086,0.000,0
33455.868,13.184,-33.203,169.434,-5.371,0.000,0
33455.872,1.465,-38.086,25.391,1.465,0.000,0
33455.876,-53.711,-24.414,-219.727,-30.762,0.000,0
33455.879,-43.945,-19.043,-109.863,-44.434,0.000,0
33455.883,11.719,-34.668,142.090,-15.137,0.000,0
33455.887,3.418,-36.133,81.055,-5.371,0.000,0
33455.891,-48.828,-24.902,-182.129,-40.527,0.000,0
33455.895,-54.688,-14.648,-175.293,-60.547,0.000,0
33455.899,-5.859,-20.020,105.957,-28.809,0.000,0
33455.903,7.812,-27.832,130.859,-2.930,0.000,0
33455.907,-27.832,-15.625,-106.445,-15.137,0.000,0
33455.911,-60.059,-10.742,-217.773,-47.363,0.000,0
33455.915,-21.484,-19.531,34.668,-24.902,0.000,0
33455.918,5.371,-30.273,155.762,2.441,0.000,0
33455.922,-8.789,-25.391,-32.227,-20.020,0.000,0
33455.926,-43.457,-12.207,-226.562,-52.246,0.000,0
33455.930,-25.391,-18.066,-27.832,-34.668,0.000,0
33455.934,6.348,-25.879,173.340,-6.348,0.000,0
33455.938,-3.418,-28.320,46.875,-0.488,0.000,0
33455.942,-47.363,-18.555,-212.402,-33.203,0.000,0
33455.946,-46.387,-14.160,-129.395,-47.852,0.000,0
33455.950,-4.395,-25.879,140.625,-18.555,0.000,0
33455.954,-3.418,-25.879,110.352,-13.672,0.000,0
33455.958,-45.898,-17.578,-168.457,-39.062,0.000,0
33455.961,-56.152,-15.625,-208.984,-49.805,0.000,0
33455.965,-7.324,-25.879,75.195,-11.230,0.000,0
33455.969,3.906,-28.809,141.113,8.789,0.000,0
33455.973,-25.391,-20.996,-83.496,-6.836,0.000,0
33455.977,-54.199,-10.742,-225.098,-37.109,0.000,0
33455.981,-24.902,-18.555,22.461,-32.715,0.000,0
33455.985,-6.348,-29.785,163.086,-10.742,0.000,0
33455.989,-27.344,-30.273,-13.184,-11.719,0.000,0
33455.993,-59.570,-19.531,-231.445,-44.922,0.000,0
33455.997,-43.945,-18.066,-70.801,-45.898,0.000,0
33456.001,-6.836,-28.809,151.855,-19.043,0.000,0
33456.004,-8.789,-30.762,48.828,-0.977,0.000,0
33456.008,-45.898,-25.879,-218.750,-33.203,0.000,0
33456.012,-43.945,-25.879,-151.367,-50.781,0.000,0
33456.016,-0.977,-29.297,128.906,-10.742,0.000,0
33456.020,6.836,-25.879,108.887,-1.953,0.000,0
33456.024,-33.203,-20.508,-151.367,-29.785,0.000,0
33456.028,-56.641,-11.719,-198.242,-41.992,0.000,0
33456.032,-10.254,-22.461,83.008,-9.766,0.000,0
33456.036,9.766,-34.668,152.832,7.812,0.000,0
33456.040,-17.578,-23.926,-69.824,-14.160,0.000,0
33456.043,-50.293,-14.648,-227.051,-46.875,0.000,0
33456.047,-12.695,-20.508,9.277,-30.273,0.000,0
33456.051,21.484,-26.367,168.457,-10.742,0.000,0
33456.055,0.977,-17.578,7.812,-7.812,0.000,0
33456.059,-45.410,-7.812,-225.586,-37.109,0.000,0
33456.063,-37.598,-11.719,-81.543,-38.086,0.000,0
33456.067,6.348,-29.785,156.250,-12.695,0.000,0
33456.071,3.906,-35.645,73.730,-14.160,0.000,0
33456.075,-47.363,-26.367,-196.289,-40.039,0.000,0
33456.079,-51.758,-24.414,-170.898,-49.805,0.000,0
33456.083,-5.859,-32.227,104.492,-0.488,0.000,0
33456.086,3.418,-34.180,116.699,12.695,0.000,0
33456.090,-32.715,-26.367,-127.441,-33.691,0.000,0
33456.094,-67.383,-15.137,-222.656,-57.617,0.000,0
33456.098,-27.344,-26.855,37.109,-30.273,0.000,0
33456.102,5.371,-42.969,140.137,-12.207,0.000,0
33456.106,-19.531,-33.691,-44.922,-17.578,0.000,0
33456.110,-56.152,-19.531,-225.098,-51.270,0.000,0
33456.114,-18.555,-24.414,-20.996,-34.180,0.000,0
33456.118,18.066,-29.785,169.434,1.465,0.000,0
33456.122,3.418,-21.973,25.879,0.000,0.000,0
33456.126,-50.781,-19.531,-228.516,-36.621,0.000,0
33456.129,-44.922,-21.973,-108.887,-33.691,0.000,0
33456.133,1.465,-24.414,148.926,-0.488,0.000,0
33456.137,1.953,-25.391,84.473,2.441,0.000,0
33456.141,-44.434,-15.625,-182.129,-21.973,0.000,0
33456.145,-62.012,-10.254,-179.688,-41.504,0.000,0
33456.149,-11.230,-18.555,113.281,-25.391,0.000,0
33456.153,4.883,-23.438,143.555,-12.207,0.000,0
33456.157,-32.715,-21.973,-117.676,-20.508,0.000,0
33456.161,-56.152,-15.137,-228.027,-39.062,0.000,0
33456.165,-13.672,-19.043,42.969,-16.113,0.000,0
33456.168,4.395,-32.227,162.598,-10.254,0.000,0
33456.172,-17.578,-25.879,-33.691,-17.578,0.000,0
33456.176,-51.270,-7.324,-239.258,-37.598,0.000,0
33456.180,-33.691,-15.625,-39.551,-23.438,0.000,0
33456.184,14.648,-28.320,182.617,18.066,0.000,0
33456.188,-10.254,-20.996,-71.289,-1.953,0.000,0
33456.192,-51.270,-14.160,-232.422,-32.715,0.000,0
33456.196,-15.625,-24.414,32.227,-4.395,0.000,0
33456.200,9.766,-35.156,158.203,9.766,0.000,0
33456.204,-17.578,-34.668,-31.250,-11.719,0.000,0
33456.208,-60.059,-22.461,-241.699,-42.480,0.000,0
33456.211,-37.109,-20.020,-55.176,-37.109,0.000,0
33456.215,-2.441,-31.738,157.715,-3.906,0.000,0
33456.219,-15.625,-30.762,39.551,1.465,0.000,0
33456.223,-46.875,-12.695,-203.613,-28.320,0.000,0
33456.227,-42.969,-9.277,-118.164,-44.922,0.000,0
33456.231,-3.418,-21.973,142.090,-17.090,0.000,0
33456.235,3.906,-23.926,109.863,0.488,0.000,1
33456.239,-32.715,-18.066,-148.926,-30.273,0.000,0
33456.243,-46.875,-14.648,-187.012,-50.781,0.000,0
33456.247,-4.395,-22.461,87.891,-30.762,0.000,0
33456.251,6.348,-28.809,148.438,-14.648,0.000,0
33456.254,-29.297,-24.902,-86.426,-24.414,0.000,0
33456.258,-66.895,-19.531,-240.723,-51.758,0.000,0
33456.262,-31.738,-25.879,6.348,-30.273,0.000,0
33456.266,0.000,-30.273,168.457,-12.695,0.000,0
33456.270,-18.555,-30.273,-14.160,-16.602,0.000,0
33456.274,-54.688,-20.508,-244.629,-42.480,0.000,0
33456.278,-38.574,-16.113,-77.148,-35.645,0.000,0
33456.282,-0.977,-23.438,144.531,-9.277,0.000,0
33456.286,-5.371,-21.973,55.176,-15.625,0.000,0
33456.290,-46.387,-14.160,-191.895,-45.410,0.000,0
33456.293,-56.641,-14.160,-148.926,-56.641,0.000,0
33456.297,-16.602,-34.180,120.605,-27.344,0.000,0
33456.301,-6.348,-39.062,112.793,-12.207,0.000,0
33456.305,-37.109,-23.438,-140.137,-33.691,0.000,0
33456.309,-54.199,-16.113,-209.961,-56.641,0.000,0
33456.313,-19.531,-22.461,58.105,-38.086,0.000,0
33456.317,2.441,-26.855,148.926,-16.113,0.000,0
33456.321,-18.066,-20.020,-74.219,-13.184,0.000,0
33456.325,-57.129,-11.719,-240.723,-47.852,0.000,0
33456.329,-37.109,-14.648,-10.742,-41.504,0.000,0
33456.333,0.977,-24.902,155.273,-5.859,0.000,0
33456.336,-11.230,-26.367,-11.230,-11.719,0.000,0
33456.340,-56.641,-13.184,-241.699,-44.922,0.000,0
33456.344,-34.180,-11.719,-85.449,-31.738,0.000,0
33456.348,15.137,-24.902,152.832,-1.953,0.000,0
33456.352,5.371,-26.855,66.406,-13.672,0.000,0
33456.356,-46.387,-15.625,-186.523,-42.969,0.000,0
33456.360,-49.316,-10.742,-161.133,-43.457,0.000,0
33456.364,-3.906,-19.531,118.652,-22.461,0.000,0
33456.368,7.324,-28.320,128.906,-11.230,0.000,0
33456.372,-24.902,-21.484,-129.395,-21.484,0.000,0
33456.376,-57.617,-13.184,-221.191,-44.922,0.000,0
33456.379,-22.461,-20.996,40.527,-25.879,0.000,0
33456.383,9.277,-27.344,150.391,-12.207,0.000,0
33456.387,-21.484,-21.973,-53.711,-27.344,0.000,0
33456.391,-65.918,-15.137,-247.070,-51.270,0.000,0
33456.395,-31.738,-17.578,-36.621,-32.715,0.000,0
33456.399,2.930,-25.391,152.344,0.000,0.000,0
33456.403,-7.324,-24.902,23.438,-8.789,0.000,0
33456.407,-45.898,-13.184,-212.891,-45.898,0.000,0
33456.411,-34.668,-12.695,-111.816,-42.480,0.000,0
33456.415,11.230,-23.438,139.648,-10.742,0.000,0
33456.418,10.742,-25.391,84.961,0.000,0.000,0
33456.422,-28.320,-15.625,-161.621,-23.438,0.000,0
33456.426,-37.109,-8.789,-166.016,-35.645,0.000,0
33456.430,0.000,-20.996,98.145,-14.648,0.000,0
33456.434,3.418,-39.062,134.277,-9.277,0.000,0
33456.438,-35.645,-30.273,-114.746,-24.414,0.000,0
33456.442,-66.895,-14.648,-230.469,-51.758,0.000,0
33456.446,-26.367,-24.414,34.668,-24.902,0.000,0
33456.450,4.883,-29.297,159.180,5.371,0.000,0
33456.454,-13.184,-23.926,-40.039,-12.207,0.000,0
33456.458,-53.223,-16.113,-245.117,-46.875,0.000,0
33456.461,-32.715,-21.973,-47.363,-40.527,0.000,0
33456.465,7.812,-32.227,160.645,-14.648,0.000,0
33456.469,-0.488,-26.855,35.645,-14.648,0.000,0
33456.473,-38.086,-10.742,-210.938,-38.574,0.000,0
33456.477,-35.645,-5.859,-116.211,-38.086,0.000,0
33456.481,0.000,-21.973,141.602,-16.113,0.000,0
33456.485,5.859,-30.273,95.215,-9.277,0.000,0
33456.489,-32.227,-19.043,-166.504,-25.391,0.000,0
33456.493,-49.805,-15.137,-196.777,-46.387,0.000,0
33456.497,-7.324,-21.973,83.496,-17.578,0.000,0
33456.501,8.789,-27.832,145.020,-5.859,0.000,0
33456.504,-26.367,-30.273,-87.402,-31.738,0.000,0
33456.508,-61.523,-23.438,-244.141,-49.805,0.000,0
33456.512,-31.738,-35.156,-5.859,-32.227,0.000,0
33456.516,0.977,-47.852,145.020,-3.906,0.000,0
33456.520,-21.484,-37.109,-30.762,-9.277,0.000,0
33456.524,-71.777,-25.879,-243.164,-48.340,0.000,0
33456.528,-47.363,-24.414,-76.660,-42.480,0.000,0
33456.532,-5.859,-36.133,146.484,-17.090,0.000,0
33456.536,-17.090,-39.062,47.363,-13.672,0.000,0
33456.540,-61.035,-26.367,-209.961,-42.480,0.000,0
33456.543,-61.523,-25.879,-149.902,-54.688,0.000,0
33456.547,-15.625,-33.203,122.070,-11.719,0.000,0
33456.551,-1.465,-31.738,116.211,4.883,0.000,0
33456.555,-34.668,-24.902,-142.090,-25.391,0.000,0
33456.559,-54.199,-18.066,-198.242,-49.805,0.000,0
33456.563,-8.301,-17.578,82.031,-23.926,0.000,0
33456.567,10.254,-23.438,149.902,-5.859,0.000,0
33456.571,-13.184,-23.438,-75.195,-17.578,0.000,0
33456.575,-40.527,-16.113,-243.652,-34.668,0.000,0
33456.579,-17.578,-20.996,-4.395,-27.344,0.000,0
33456.583,-4.883,-29.785,171.387,-22.461,0.000,0
33456.586,-23.438,-28.320,2.441,-20.996,0.000,0
33456.590,-57.617,-19.531,-243.164,-50.781,0.000,0
33456.594,-37.598,-20.508,-97.168,-47.363,0.000,0
33456.598,-2.930,-31.250,149.902,-16.113,0.000,0
33456.602,-12.207,-28.320,73.730,-15.625,0.000,0
33456.606,-48.340,-17.090,-188.477,-38.574,0.000,0
33456.610,-49.805,-14.160,-167.969,-41.504,0.000,0
33456.614,-4.883,-23.438,113.281,-13.184,0.000,0
33456.618,1.953,-33.203,120.117,-7.812,0.000,0
33456.622,-35.645,-27.832,-140.625,-20.996,0.000,0
33456.626,-63.477,-18.066,-223.633,-42.480,0.000,0
33456.629,-23.438,-29.785,49.805,-24.414,0.000,0
33456.633,9.766,-40.039,151.367,-9.277,0.000,0
33456.637,-18.066,-32.715,-62.012,-29.297,0.000,0
33456.641,-58.594,-20.996,-239.746,-58.594,0.000,0
33456.645,-30.273,-27.832,-27.344,-36.621,0.000,0
33456.649,6.348,-36.621,151.855,-13.184,0.000,0
33456.653,-6.836,-32.715,10.254,-22.461,0.000,0
33456.657,-51.758,-23.438,-222.168,-45.410,0.000,0
33456.661,-43.457,-23.926,-95.215,-49.316,0.000,0
33456.665,0.977,-36.621,151.855,-23.438,0.000,0
33456.668,0.000,-38.574,83.496,-6.836,0.000,0
33456.672,-39.062,-26.855,-179.688,-27.344,0.000,0
33456.676,-52.734,-15.625,-180.664,-41.504,0.000,0
33456.680,-9.277,-24.414,97.168,-18.555,0.000,0
33456.684,4.395,-30.273,134.766,-5.859,0.000,0
33456.688,-35.645,-22.949,-109.863,-19.531,0.000,0
33456.692,-61.523,-12.695,-229.004,-39.062,0.000,0
33456.696,-17.090,-17.578,34.668,-18.555,0.000,0
33456.700,8.789,-30.273,163.086,-3.418,0.000,0
33456.704,-20.508,-26.367,-39.062,-11.230,0.000,0
33456.708,-64.941,-15.625,-251.953,-40.527,0.000,0
33456.711,-36.621,-20.508,-36.133,-36.133,0.000,0
33456.715,3.906,-32.715,149.414,-3.906,0.000,0
33456.719,-28.320,-26.367,-104.492,-26.855,0.000,0
33456.723,-56.641,-14.648,-240.234,-46.875,0.000,0
33456.727,-17.578,-20.996,22.949,-21.973,0.000,0
33456.731,5.371,-33.203,158.203,-7.324,0.000,0
33456.735,-18.555,-29.297,-24.902,-17.578,0.000,0
33456.739,-62.500,-18.066,-231.934,-59.570,0.000,0
33456.743,-47.852,-20.508,-48.828,-49.316,0.000,0
33456.747,-3.418,-34.668,163.086,-9.277,0.000,0
33456.751,-10.254,-30.762,43.457,-2.930,0.000,0
33456.754,-54.688,-19.043,-216.309,-43.457,0.000,0
33456.758,-51.758,-27.344,-139.160,-64.941,0.000,0
33456.762,-23.438,-37.109,129.395,-36.621,0.000,0
33456.766,-23.438,-41.992,96.680,-26.855,0.000,0
33456.770,-57.129,-33.691,-165.527,-40.527,0.000,0
33456.774,-70.801,-22.949,-199.707,-58.105,0.000,0
33456.778,-25.391,-36.133,82.031,-41.992,0.000,0
33456.782,6.836,-38.574,150.391,-15.137,0.000,0
33456.786,-16.602,-23.926,-75.195,-20.020,0.000,0
33456.790,-60.547,-13.184,-226.074,-51.758,0.000,0
33456.793,-22.461,-19.043,28.320,-33.691,0.000,0
33456.797,5.371,-28.320,142.578,-15.137,0.000,1
33456.801,-38.086,-17.090,-141.113,-42.480,0.000,0
33456.805,-55.176,-9.766,-197.754,-60.059,0.000,0
33456.809,-10.742,-21.973,79.102,-29.785,0.000,0
33456.813,5.859,-28.809,139.648,-11.719,0.000,0
33456.817,-26.367,-27.344,-87.891,-30.762,0.000,0
33456.821,-62.500,-17.090,-234.375,-42.969,0.000,0
33456.825,-32.227,-16.602,-0.977,-19.043,0.000,0
33456.829,8.301,-26.367,161.133,-5.371,0.000,0
33456.833,-10.254,-27.344,0.000,-12.207,0.000,0
33456.836,-52.734,-19.531,-225.098,-41.504,0.000,0
33456.840,-35.645,-19.531,-77.148,-44.922,0.000,0
33456.844,-0.488,-30.273,156.738,-19.531,0.000,0
33456.848,-8.301,-26.367,70.801,-5.859,0.000,0
33456.852,-48.828,-14.648,-184.570,-29.297,0.000,0
33456.856,-52.734,-15.137,-146.484,-44.922,0.000,0
33456.860,-8.301,-30.273,122.070,-12.695,0.000,0
33456.864,0.488,-38.086,117.676,-1.953,0.000,0
33456.868,-32.715,-25.879,-136.230,-21.484,0.000,0
33456.872,-54.688,-15.137,-211.426,-46.387,0.000,0
33456.876,-15.625,-20.996,64.453,-27.344,0.000,0
33456.879,1.953,-26.367,153.809,-16.113,0.000,0
33456.883,-35.156,-22.461,-67.383,-38.086,0.000,0
33456.887,-72.754,-12.207,-249.512,-62.012,0.000,0
33456.891,-44.922,-17.090,-32.715,-41.504,0.000,0
33456.895,-20.508,-28.320,157.715,-24.414,0.000,0
33456.899,-25.391,-20.996,6.836,-27.832,0.000,0
33456.903,-58.594,-7.812,-233.398,-47.852,0.000,0
33456.907,-56.641,-13.184,-95.703,-55.176,0.000,0
33456.911,-14.160,-29.785,147.461,-32.227,0.000,0
33456.915,-6.348,-32.715,75.195,-25.879,0.000,0
33456.918,-53.711,-21.484,-185.547,-51.758,0.000,0
33456.922,-69.336,-18.555,-181.641,-49.316,0.000,0
33456.926,-18.066,-28.320,104.980,-9.766,0.000,0
33456.930,-2.930,-31.738,123.535,-5.859,0.000,0
33456.934,-35.645,-25.879,-123.047,-24.902,0.000,0
33456.938,-63.477,-14.648,-219.727,-41.504,0.000,0
33456.942,-28.320,-21.484,38.574,-23.926,0.000,0
33456.946,-0.488,-33.691,151.855,-7.324,0.000,0
33456.950,-20.508,-26.855,-56.641,-19.043,0.000,0
33456.954,-62.500,-17.090,-241.211,-52.734,0.000,0
33456.958,-42.969,-24.414,-33.691,-51.758,0.000,0
33456.961,-0.488,-35.156,155.273,-27.832,0.000,0
33456.965,-2.441,-32.227,23.438,-17.090,0.000,0
33456.969,-45.410,-18.555,-212.402,-37.109,0.000,0
33456.973,-40.527,-17.090,-112.793,-41.016,0.000,0
33456.977,-1.953,-26.855,139.160,-25.391,0.000,0
33456.981,-10.254,-30.762,88.379,-17.578,0.000,0
33456.985,-51.758,-19.531,-168.945,-27.832,0.000,0
33456.989,-58.594,-8.789,-187.988,-41.504,0.000,0
33456.993,-5.371,-20.996,87.891,-23.438,0.000,0
33456.997,7.324,-28.809,143.066,-8.789,0.000,0
33457.001,-29.785,-21.973,-99.609,-14.648,0.000,0
33457.004,-58.105,-16.602,-235.352,-38.086,0.000,0
33457.008,-22.949,-21.484,18.555,-24.414,0.000,0
33457.012,1.465,-27.344,166.992,-12.695,0.000,0
33457.016,-21.973,-21.973,-12.207,-30.273,0.000,0
33457.020,-58.105,-10.254,-233.398,-58.594,0.000,0
33457.024,-27.344,-17.578,-62.500,-38.086,0.000,0
33457.028,4.883,-35.645,153.809,-10.742,0.000,0
33457.032,-4.395,-31.738,48.828,-12.207,0.000,0
33457.036,-39.551,-21.484,-203.613,-33.203,0.000,0
33457.040,-38.086,-20.508,-136.230,-39.062,0.000,0
33457.043,1.465,-29.785,135.254,-1.953,0.000,0
33457.047,-0.488,-33.691,111.816,7.812,0.000,0
33457.051,-33.691,-26.367,-151.855,-26.367,0.000,0
33457.055,-50.781,-15.137,-202.148,-46.387,0.000,0
33457.059,-10.742,-27.344,73.242,-21.484,0.000,0
33457.063,10.254,-37.598,145.508,5.859,0.000,0
33457.067,-25.391,-32.227,-87.402,-5.859,0.000,0
33457.071,-62.988,-27.344,-238.281,-44.922,0.000,0
33457.075,-27.344,-28.809,6.348,-27.832,0.000,0
33457.079,-0.977,-37.109,155.762,-6.836,0.000,0
33457.083,-16.602,-34.180,-18.555,-18.066,0.000,0
33457.086,-47.852,-24.414,-238.281,-42.480,0.000,0
33457.090,-37.109,-28.320,-66.895,-44.434,0.000,0
33457.094,0.977,-41.016,162.109,-24.902,0.000,0
33457.098,5.371,-39.062,67.383,-15.137,0.000,0
33457.102,-40.527,-30.273,-190.430,-39.062,0.000,0
33457.106,-43.457,-24.414,-148.926,-34.668,0.000,0
33457.110,7.812,-29.785,132.324,-11.719,0.000,0
33457.114,9.766,-40.527,117.188,-16.602,0.000,0
33457.118,-34.180,-33.203,-143.066,-23.926,0.000,0
33457.122,-56.641,-21.973,-206.543,-43.457,0.000,0
33457.126,-13.184,-28.809,60.059,-23.438,0.000,0
33457.129,11.230,-41.992,152.832,-16.113,0.000,0
33457.133,-17.090,-33.203,-54.688,-29.297,0.000,0
33457.137,-49.805,-15.137,-232.910,-48.340,0.000,0
33457.141,-13.184,-18.555,-22.461,-33.203,0.000,0
33457.145,22.461,-21.973,163.086,3.906,0.000,0
33457.149,0.977,-22.949,18.555,0.000,0.000,0
33457.153,-50.781,-22.461,-221.191,-51.270,0.000,0
33457.157,-39.062,-20.996,-91.797,-54.199,0.000,0
33457.161,1.953,-29.785,157.227,-24.414,0.000,0
33457.165,0.000,-30.762,82.520,-14.160,0.000,0
33457.168,-42.969,-25.391,-174.805,-32.715,0.000,0
33457.172,-51.758,-23.438,-153.809,-54.688,0.000,0
33457.176,-6.836,-30.762,106.445,-21.484,0.000,0
33457.180,5.859,-37.598,120.117,3.418,0.000,0
33457.184,-27.344,-28.320,-128.418,-19.531,0.000,0
33457.188,-60.547,-19.531,-228.027,-45.898,0.000,0
33457.192,-23.438,-27.832,41.016,-22.461,0.000,0
33457.196,10.742,-34.180,151.855,0.977,0.000,0
33457.200,-16.602,-26.367,-56.641,-12.207,0.000,0
33457.204,-61.035,-15.625,-252.441,-32.715,0.000,0
33457.208,-38.574,-25.391,-44.434,-24.902,0.000,0
33457.211,-7.812,-41.016,153.320,-16.113,0.000,0
33457.215,-17.090,-36.133,18.555,-9.766,0.000,0
33457.219,-62.012,-28.320,-231.445,-43.945,0.000,0
33457.223,-57.617,-30.273,-125.488,-60.059,0.000,0
33457.227,-12.207,-38.086,136.719,-20.020,0.000,0
33457.231,-6.836,-37.598,90.820,-8.789,0.000,0
33457.235,-51.270,-25.879,-174.316,-41.016,0.000,0
33457.239,-68.359,-18.066,-187.988,-53.223,0.000,0
33457.243,-17.578,-23.438,93.262,-15.137,0.000,0
33457.247,-1.953,-30.273,130.371,1.465,0.000,0
33457.251,-34.180,-23.926,-109.863,-23.926,0.000,0
33457.254,-58.105,-15.625,-235.352,-50.293,0.000,0
33457.258,-18.066,-22.949,21.484,-31.738,0.000,0
33457.262,6.836,-34.668,159.180,-11.719,0.000,0
33457.266,-22.461,-33.691,-36.133,-14.648,0.000,0
33457.270,-66.895,-18.066,-242.676,-48.828,0.000,0
33457.274,-42.480,-20.508,-59.570,-51.270,0.000,0
33457.278,0.977,-32.715,152.832,-19.043,0.000,0
33457.282,-11.719,-28.809,32.715,-9.766,0.000,0
33457.286,-48.828,-20.508,-186.035,-32.715,0.000,0
33457.290,-42.480,-16.113,-83.008,-34.180,0.000,0
33457.293,-4.883,-20.996,137.695,-11.719,0.000,0
33457.297,2.441,-30.273,106.445,-4.883,0.000,0
33457.301,-37.109,-22.461,-151.855,-24.414,0.000,0
33457.305,-47.852,-3.906,-186.523,-38.086,0.000,0
33457.309,-6.348,-12.695,90.820,-23.926,0.000,0
33457.313,5.371,-22.461,150.879,-16.113,0.000,0
33457.317,-26.855,-14.648,-80.566,-20.508,0.000,0
33457.321,-56.641,-16.113,-239.258,-51.758,0.000,0
33457.325,-22.461,-25.879,2.441,-36.621,0.000,0
33457.329,0.977,-23.438,167.969,-6.348,0.000,0
33457.333,-17.090,-18.066,-10.742,-15.625,0.000,0
33457.336,-52.734,-12.207,-237.793,-47.852,0.000,0
33457.340,-33.691,-11.230,-70.312,-35.645,0.000,0
33457.344,5.371,-21.484,159.668,0.977,0.000,0
33457.348,-2.441,-23.438,70.312,6.348,0.000,0
33457.352,-43.457,-10.254,-189.941,-29.785,0.000,0
33457.356,-39.551,-9.277,-148.438,-46.875,0.000,0
33457.360,7.324,-22.949,123.535,-17.090,0.000,0
33457.364,13.672,-30.762,112.305,-3.418,0.000,0
33457.368,-23.926,-26.367,-143.555,-26.367,0.000,0
33457.372,-51.758,-15.625,-210.449,-52.246,0.000,0
33457.376,-10.742,-17.090,65.430,-29.785,0.000,0
33457.379,15.137,-30.762,150.879,-4.395,0.000,0
33457.383,-16.602,-30.762,-74.219,-13.184,0.000,0
33457.387,-56.641,-22.949,-241.699,-54.199,0.000,0
33457.391,-23.438,-28.320,-13.672,-39.062,0.000,0
33457.395,13.184,-35.645,150.879,-6.348,0.000,0
33457.399,-6.348,-35.156,-4.395,-9.766,0.000,0
33457.403,-56.152,-21.973,-234.375,-33.203,0.000,0
33457.407,-39.551,-20.020,-89.355,-37.109,0.000,0
33457.411,0.977,-32.227,154.785,-21.484,0.000,0
33457.415,-2.930,-35.156,71.289,-16.113,0.000,0
33457.418,-39.551,-21.973,-183.594,-25.391,0.000,0
33457.422,-45.410,-16.602,-155.273,-34.180,0.000,1
33457.426,7.812,-30.762,127.441,-8.789,0.000,0
33457.430,-5.859,-35.645,33.203,3.906,0.000,0
33457.434,-59.082,-25.879,-239.258,-32.227,0.000,0
33457.438,-46.387,-19.531,-107.422,-35.156,0.000,0
33457.442,-8.301,-29.297,145.020,-12.207,0.000,0
33457.446,-3.906,-32.715,86.914,-12.695,0.000,0
33457.450,-44.434,-21.484,-188.965,-33.691,0.000,0
33457.454,-60.547,-22.461,-186.035,-47.363,0.000,0
33457.458,-8.301,-30.762,95.215,-21.973,0.000,0
33457.461,8.789,-34.180,124.512,-1.953,0.000,0
33457.465,-27.344,-31.250,-119.629,-21.973,0.000,0
33457.469,-54.688,-24.902,-233.398,-38.086,0.000,0
33457.473,-18.066,-23.926,34.180,-19.043,0.000,0
33457.477,-1.953,-30.762,156.250,-0.977,0.000,0
33457.481,-23.926,-28.320,-38.086,-12.695,0.000,0
33457.485,-60.059,-22.461,-235.840,-65.918,0.000,0
33457.489,-43.457,-31.738,-42.480,-60.059,0.000,0
33457.493,-3.906,-39.062,160.645,-15.137,0.000,0
33457.497,-10.254,-35.156,25.879,-8.301,0.000,0
33457.501,-59.570,-27.344,-231.445,-36.133,0.000,0
33457.504,-58.105,-23.926,-124.512,-45.898,0.000,0
33457.508,-13.672,-30.273,145.020,-20.508,0.000,0
33457.512,-3.906,-36.621,89.844,-11.230,0.000,0
33457.516,-45.410,-26.367,-183.105,-26.855,0.000,0
33457.520,-64.941,-23.438,-203.125,-40.039,0.000,0
33457.524,-15.137,-32.227,84.473,-27.344,0.000,0
33457.528,-1.465,-33.203,135.254,-20.020,0.000,0
33457.532,-36.133,-37.109,-105.957,-32.715,0.000,0
33457.536,-67.871,-27.344,-237.305,-50.781,0.000,0
33457.540,-32.227,-25.879,21.973,-27.344,0.000,0
33457.543,4.395,-39.551,164.062,-5.859,0.000,0
33457.547,-11.230,-36.621,-19.043,-13.184,0.000,0
33457.551,-47.363,-15.625,-227.051,-44.922,0.000,0
33457.555,-26.367,-16.602,-49.805,-41.992,0.000,0
33457.559,6.836,-31.250,152.832,-13.184,0.000,0
33457.563,0.000,-35.156,40.527,-16.113,0.000,0
33457.567,-41.992,-23.438,-213.379,-46.875,0.000,0
33457.571,-42.480,-18.555,-145.996,-38.574,0.000,0
33457.575,1.953,-23.438,125.488,-11.230,0.000,0
33457.579,10.742,-23.438,104.004,-3.906,0.000,0
33457.583,-30.762,-15.625,-148.926,-28.809,0.000,0
33457.586,-56.641,-4.395,-189.941,-59.570,0.000,0
33457.590,-12.207,-18.066,78.613,-35.645,0.000,0
33457.594,0.000,-32.715,144.531,-9.277,0.000,0
33457.598,-40.039,-20.020,-74.707,-18.555,0.000,0
33457.602,-67.871,-10.254,-224.609,-49.316,0.000,0
33457.606,-32.715,-19.043,10.254,-32.715,0.000,0
33457.610,-4.395,-25.391,168.945,-8.789,0.000,0
33457.614,-15.137,-19.043,3.906,-9.766,0.000,0
33457.618,-51.270,-6.836,-225.098,-32.227,0.000,0
33457.622,-33.691,-17.090,-72.754,-36.621,0.000,0
33457.626,0.488,-32.227,158.203,-19.043,0.000,0
33457.629,-12.207,-32.715,60.059,-21.484,0.000,0
33457.633,-47.852,-24.414,-201.172,-52.246,0.000,0
33457.637,-45.898,-13.184,-155.762,-50.781,0.000,0
33457.641,-6.836,-25.391,121.094,-24.902,0.000,0
33457.645,1.465,-29.297,124.512,-15.625,0.000,0
33457.649,-28.320,-20.508,-141.113,-27.344,0.000,0
33457.653,-50.781,-16.602,-213.379,-54.688,0.000,0
33457.657,-16.113,-22.949,68.359,-21.973,0.000,0
33457.661,-0.488,-33.203,154.785,0.000,0.000,0
33457.665,-25.879,-29.785,-56.641,-26.367,0.000,0
33457.668,-62.012,-20.020,-224.121,-45.898,0.000,0
33457.672,-41.992,-24.902,-5.859,-28.809,0.000,0
33457.676,-4.883,-34.180,165.527,-12.207,0.000,0
33457.680,-14.160,-34.668,14.648,-6.836,0.000,0
33457.684,-62.500,-15.625,-223.145,-34.668,0.000,0
33457.688,-53.223,-13.672,-98.145,-53.711,0.000,0
33457.692,-1.465,-25.879,145.508,-27.832,0.000,0
33457.696,2.930,-30.273,73.242,-11.230,0.000,0
33457.700,-42.480,-22.949,-187.500,-38.574,0.000,0
33457.704,-56.641,-12.695,-159.180,-44.922,0.000,0
33457.708,-10.254,-18.555,116.211,-16.113,0.000,0
33457.711,17.090,-24.902,129.395,-1.465,0.000,0
33457.715,-20.508,-19.531,-119.629,-18.066,0.000,0
33457.719,-52.246,-9.277,-213.867,-42.969,0.000,0
33457.723,-13.672,-17.578,53.223,-27.344,0.000,0
33457.727,6.348,-23.438,163.086,-16.113,0.000,0
33457.731,-21.484,-21.973,-34.668,-26.367,0.000,0
33457.735,-61.035,-21.484,-229.492,-38.574,0.000,0
33457.739,-41.016,-22.461,-26.855,-36.621,0.000,0
33457.743,-4.883,-28.809,167.969,-25.391,0.000,0
33457.747,-7.812,-23.438,30.762,-5.371,0.000,0
33457.751,-61.523,-17.578,-225.586,-34.180,0.000,0
33457.754,-57.617,-21.484,-129.883,-41.992,0.000,0
33457.758,-2.441,-33.203,133.301,-14.160,0.000,0
33457.762,-2.441,-36.133,93.750,-15.137,0.000,0
33457.766,-41.992,-13.184,-171.875,-37.109,0.000,0
33457.770,-52.734,-3.906,-198.242,-48.828,0.000,0
33457.774,-12.695,-23.438,91.797,-19.043,0.000,0
33457.778,-0.488,-31.738,126.465,-7.812,0.000,0
33457.782,-37.598,-19.531,-176.758,-41.992,0.000,0
33457.786,-31.250,-16.113,-134.277,-51.270,0.000,0
33457.790,15.625,-23.438,148.926,-22.949,0.000,0
33457.793,10.742,-26.367,109.863,-0.488,0.000,0
33457.797,-33.203,-18.066,-156.738,-21.484,0.000,0
33457.801,-43.945,-13.184,-178.223,-49.805,0.000,0
33457.805,-4.883,-21.484,99.121,-7.324,0.000,0
33457.809,13.672,-21.484,152.344,22.461,0.000,0
33457.813,-21.973,-23.438,-88.867,-19.531,0.000,0
33457.817,-62.500,-23.438,-229.004,-59.570,0.000,0
33457.821,-21.973,-20.020,27.832,-35.156,0.000,0
33457.825,5.371,-29.297,165.527,-12.695,0.000,0
33457.829,-16.113,-27.832,-15.137,-20.996,0.000,0
33457.833,-53.223,-13.184,-227.051,-42.969,0.000,0
33457.836,-40.039,-18.066,-52.246,-34.668,0.000,0
33457.840,4.395,-28.320,164.551,-9.766,0.000,0
33457.844,8.301,-26.855,54.688,2.441,0.000,0
33457.848,-39.551,-14.648,-195.312,-25.391,0.000,0
33457.852,-41.016,-12.207,-132.324,-35.645,0.000,0
33457.856,5.859,-28.320,135.742,-8.789,0.000,0
33457.860,14.648,-33.203,122.559,-5.371,0.000,0
33457.864,-19.043,-22.949,-139.160,-30.273,0.000,0
33457.868,-41.016,-17.090,-201.172,-48.828,0.000,0
33457.872,-1.953,-24.902,71.777,-14.160,0.000,0
33457.876,9.277,-34.180,146.973,5.371,0.000,0
33457.879,-24.902,-32.227,-83.008,-28.809,0.000,0
33457.883,-54.688,-20.996,-251.465,-60.547,0.000,0
33457.887,-14.160,-22.949,-20.020,-38.086,0.000,0
33457.891,20.508,-29.785,151.855,-12.207,0.000,0
33457.895,-0.488,-27.832,-1.953,-10.742,0.000,0
33457.899,-41.016,-19.531,-222.168,-43.457,0.000,0
33457.903,-27.344,-17.578,-74.219,-50.781,0.000,0
33457.907,8.789,-25.879,159.180,-21.973,0.000,0
33457.911,2.441,-33.691,69.824,-6.348,0.000,0
33457.915,-37.598,-27.344,-190.918,-34.668,0.000,0
33457.918,-34.668,-20.996,-153.320,-47.852,0.000,0
33457.922,5.859,-25.879,120.117,-13.184,0.000,0
33457.926,8.301,-24.414,118.652,-4.883,0.000,0
33457.930,-24.902,-19.531,-136.719,-20.020,0.000,0
33457.934,-49.316,-20.020,-223.633,-36.133,0.000,0
33457.938,-12.695,-24.902,56.641,-30.273,0.000,0
33457.942,-4.395,-30.762,160.645,-14.648,0.000,0
33457.946,-35.156,-28.809,-67.383,-21.484,0.000,0
33457.950,-64.453,-19.043,-250.977,-48.340,0.000,0
33457.954,-36.621,-20.020,-26.855,-43.457,0.000,0
33457.958,-6.348,-31.738,163.574,-24.414,0.000,0
33457.961,-18.555,-32.715,13.672,-19.531,0.000,0
33457.965,-60.059,-19.043,-234.375,-52.246,0.000,0
33457.969,-56.641,-16.113,-101.562,-55.664,0.000,0
33457.973,-5.371,-30.762,157.715,-14.160,0.000,0
33457.977,-6.836,-25.879,-26.367,-20.508,0.000,0
33457.981,-54.199,-10.254,-249.023,-51.758,0.000,0
33457.985,-33.691,-20.020,-30.762,-36.621,0.000,0
33457.989,9.277,-31.738,169.434,-4.883,0.000,0
33457.993,-4.883,-27.832,33.203,0.488,0.000,0
33457.997,-56.152,-15.625,-220.703,-43.945,0.000,0
33458.001,-46.875,-11.230,-122.559,-50.781,0.000,0
33458.004,9.277,-20.020,145.020,-12.207,0.000,0
33458.008,6.348,-26.367,81.543,-1.465,0.000,0
33458.012,-41.016,-20.020,-167.969,-41.992,0.000,0
33458.016,-27.832,-20.508,-54.688,-41.504,0.000,0
33458.020,13.184,-29.297,162.109,3.418,0.000,0
33458.024,0.000,-21.973,36.621,0.000,0.000,0
33458.028,-47.852,-12.207,-211.426,-29.297,0.000,0
33458.032,-41.016,-17.578,-121.582,-41.016,0.000,0
33458.036,5.371,-30.762,140.137,-23.438,0.000,0
33458.040,7.812,-32.227,97.168,-7.812,0.000,0
33458.043,-37.109,-21.484,-165.527,-23.926,0.000,0
33458.047,-48.340,-12.207,-185.547,-41.016,0.000,0
33458.051,11.719,-22.461,96.191,-14.648,0.000,0
33458.055,12.695,-34.180,136.719,-2.930,0.000,0
33458.059,-41.016,-20.996,-106.445,-27.344,0.000,0
33458.063,-70.312,-10.254,-235.840,-53.711,0.000,0
33458.067,-31.250,-21.973,0.977,-29.297,0.000,0
33458.071,3.906,-25.879,151.367,-7.324,0.000,0
33458.075,-9.277,-15.625,-25.391,-5.371,0.000,0
