timestamps,TP9,AF7,AF8,TP10,Right AUX,Marker0
33197.981,-41.992,-36.621,53.223,-28.809,0.000,0
33197.985,-24.902,-34.180,-32.227,-17.578,0.000,0
33197.989,-22.461,-32.227,-125.977,-20.020,0.000,0
33197.993,-30.762,-30.762,-35.645,-19.531,0.000,0
33197.997,-31.250,-30.762,46.387,-35.156,0.000,0
33198.001,-23.926,-36.621,-0.488,-35.645,0.000,0
33198.004,-29.785,-31.250,-102.539,-13.672,0.000,0
33198.008,-30.273,-26.855,-70.801,-22.461,0.000,0
33198.012,-31.738,-27.832,47.363,-39.551,0.000,0
33198.016,-29.785,-24.414,27.832,-18.555,0.000,0
33198.020,-14.648,-21.484,-78.613,-13.672,0.000,0
33198.024,-19.531,-19.531,-90.332,-28.809,0.000,0
33198.028,-20.508,-23.926,29.785,-29.785,0.000,0
33198.032,-23.926,-31.250,39.551,-30.762,0.000,0
33198.036,-20.996,-30.273,-55.176,-16.602,0.000,0
33198.040,-23.926,-29.785,-114.258,-21.484,0.000,0
33198.043,-23.926,-39.551,-5.859,-19.043,0.000,0
33198.047,-31.738,-34.180,41.992,-22.461,0.000,0
33198.051,-24.902,-26.855,-26.855,-19.043,0.000,0
33198.055,-20.996,-27.344,-118.164,-11.230,0.000,0
33198.059,-30.273,-30.762,-48.828,-30.762,0.000,0
33198.063,-31.250,-35.645,41.992,-51.270,0.000,0
33198.067,-20.996,-35.645,1.465,-32.227,0.000,0
33198.071,-25.879,-34.668,-106.934,-11.719,0.000,0
33198.075,-24.414,-31.738,-83.496,-19.043,0.000,0
33198.079,-28.320,-29.297,36.621,-32.715,0.000,0
33198.083,-37.598,-28.320,31.738,-24.414,0.000,0
33198.086,-33.203,-28.320,-79.102,-13.184,0.000,0
33198.090,-36.133,-29.785,-115.234,-23.926,0.000,0
33198.094,-37.109,-34.668,9.277,-22.949,0.000,0
33198.098,-44.922,-41.016,37.598,-46.387,0.000,0
33198.102,-38.574,-39.551,-51.758,-44.434,0.000,0
33198.106,-28.809,-30.273,-128.906,-20.020,0.000,0
33198.110,-13.672,-27.832,-27.344,-20.508,0.000,0
33198.114,-24.414,-32.227,45.898,-32.715,0.000,0
33198.118,-27.344,-35.156,-9.766,-28.320,0.000,0
33198.122,-29.785,-35.645,-120.117,-21.484,0.000,0
33198.126,-27.832,-33.203,-61.035,-27.832,0.000,0
33198.129,-28.809,-32.227,46.387,-41.016,0.000,0
33198.133,-23.438,-34.180,12.207,-30.762,0.000,0
33198.137,-15.137,-33.691,-93.262,-26.367,0.000,0
33198.141,-21.973,-27.344,-84.961,-30.762,0.000,0
33198.145,-24.414,-27.832,37.598,-33.691,0.000,0
33198.149,-22.949,-31.250,29.785,-32.715,0.000,0
33198.153,-12.207,-33.691,-84.473,-18.066,0.000,0
33198.157,-16.602,-31.738,-111.328,-30.762,0.000,0
33198.161,-18.555,-28.320,5.859,-40.039,0.000,0
33198.165,-20.508,-24.902,42.969,-44.434,0.000,0
33198.168,-15.137,-25.391,-40.039,-26.367,0.000,0
33198.172,-18.066,-23.438,-131.348,-3.418,0.000,0
33198.176,-18.066,-25.391,-26.367,-28.320,0.000,0
33198.180,-30.762,-29.297,54.688,-54.688,0.000,0
33198.184,-23.926,-29.297,-12.207,-31.738,0.000,0
33198.188,-18.066,-33.203,-116.699,-16.602,0.000,0
33198.192,-9.277,-30.762,-62.012,-16.602,0.000,0
33198.196,-9.277,-24.902,57.129,-41.016,0.000,0
33198.200,-21.973,-28.320,34.180,-41.504,0.000,0
33198.204,-22.461,-23.926,-82.031,-10.742,0.000,0
33198.208,-23.926,-19.531,-82.520,0.000,0.000,0
33198.211,-19.043,-27.344,28.320,-18.555,0.000,0
33198.215,-21.484,-31.250,38.574,-49.805,0.000,0
33198.219,-24.414,-27.832,-49.805,-31.738,0.000,0
33198.223,-21.484,-20.508,-112.793,-5.859,0.000,0
33198.227,-14.160,-18.066,2.930,-17.578,0.000,0
33198.231,-14.648,-19.531,52.734,-37.598,0.000,0
33198.235,-16.113,-21.484,-24.414,-12.207,0.000,0
33198.239,-29.297,-22.461,-113.770,-13.184,0.000,0
33198.243,-27.832,-28.320,-38.086,-34.668,0.000,0
33198.247,-34.668,-29.297,43.457,-39.551,0.000,0
33198.251,-33.691,-25.391,3.418,-22.949,0.000,0
33198.254,-30.762,-28.809,-97.168,-9.766,0.000,0
33198.258,-24.414,-28.320,-64.453,-9.766,0.000,0
33198.262,-21.973,-26.855,38.086,-31.738,0.000,0
33198.266,-24.902,-26.367,31.738,-44.922,0.000,0
33198.270,-21.484,-24.414,-67.871,-6.348,0.000,0
33198.274,-26.367,-20.508,-93.750,-6.836,0.000,0
33198.278,-26.367,-24.902,28.809,-45.898,0.000,0
33198.282,-37.598,-32.227,46.875,-44.434,0.000,0
33198.286,-38.086,-28.320,-47.852,-20.996,0.000,0
33198.290,-30.762,-19.531,-117.676,-19.531,0.000,0
33198.293,-26.855,-19.531,-7.324,-26.367,0.000,0
33198.297,-30.762,-27.832,59.082,-35.645,0.000,0
33198.301,-30.762,-27.344,-13.672,-31.738,0.000,0
33198.305,-38.086,-25.391,-120.117,-30.762,0.000,0
33198.309,-24.414,-22.461,-47.852,-29.297,0.000,0
33198.313,-32.227,-30.273,44.434,-52.246,0.000,0
33198.317,-40.527,-37.109,5.371,-52.734,0.000,0
33198.321,-30.762,-31.738,-104.492,-13.184,0.000,0
33198.325,-24.414,-27.832,-84.961,-9.766,0.000,0
33198.329,-23.926,-26.367,39.551,-37.109,0.000,0
33198.333,-24.414,-28.320,27.344,-40.527,0.000,0
33198.336,-21.484,-29.297,-76.172,-21.973,0.000,0
33198.340,-30.762,-24.902,-100.586,-19.531,0.000,0
33198.344,-26.855,-25.391,10.742,-32.715,0.000,0
33198.348,-31.250,-32.715,34.180,-41.992,0.000,0
33198.352,-31.250,-30.762,-56.152,-24.414,0.000,0
33198.356,-32.715,-30.762,-122.070,-32.227,0.000,0
33198.360,-24.902,-29.297,-20.020,-34.668,0.000,0
33198.364,-25.879,-23.926,42.969,-30.762,0.000,0
33198.368,-35.645,-25.879,-19.531,-26.855,0.000,0
33198.372,-51.270,-30.762,-104.980,-26.855,0.000,0
33198.376,-36.621,-31.250,-25.879,-38.086,0.000,0
33198.379,-34.180,-31.250,49.805,-57.129,0.000,0
33198.383,-41.992,-29.297,9.277,-47.363,0.000,0
33198.387,-35.156,-27.344,-97.656,-15.137,0.000,0
33198.391,-23.926,-23.438,-83.496,-23.926,0.000,0
33198.395,-23.926,-25.879,41.016,-43.457,0.000,0
33198.399,-37.109,-32.227,38.086,-39.062,0.000,0
33198.403,-35.156,-33.203,-67.871,-20.508,0.000,0
33198.407,-35.645,-30.273,-117.188,-17.090,0.000,0
33198.411,-29.785,-32.227,0.977,-25.879,0.000,0
33198.415,-37.598,-37.598,46.387,-59.570,0.000,0
33198.418,-26.855,-33.691,-30.762,-44.922,0.000,0
33198.422,-37.598,-33.203,-126.465,-33.203,0.000,0
33198.426,-39.551,-33.203,-40.527,-51.270,0.000,0
33198.430,-30.273,-32.227,49.316,-35.156,0.000,0
33198.434,-37.109,-37.598,5.371,-27.344,0.000,0
33198.438,-39.551,-35.156,-111.816,-32.715,0.000,0
33198.442,-34.180,-36.621,-67.383,-41.504,0.000,0
33198.446,-38.086,-42.480,44.922,-43.457,0.000,0
33198.450,-42.969,-38.574,19.043,-20.020,0.000,0
33198.454,-32.227,-29.785,-81.055,-39.551,0.000,0
33198.458,-34.668,-23.438,-88.867,-57.617,0.000,0
33198.461,-45.898,-29.785,22.949,-46.875,0.000,0
33198.465,-52.734,-37.109,36.621,-47.852,0.000,0
33198.469,-48.340,-29.785,-59.570,-32.227,0.000,0
33198.473,-52.734,-25.879,-121.582,-41.992,0.000,0
33198.477,-46.387,-31.738,-1.953,-62.500,0.000,0
33198.481,-53.223,-38.574,48.340,-76.172,0.000,0
33198.485,-46.387,-35.156,-35.645,-57.129,0.000,0
33198.489,-59.082,-29.297,-128.906,-45.410,0.000,0
33198.493,-57.129,-33.203,-36.621,-54.199,0.000,0
33198.497,-41.504,-37.109,51.758,-55.176,0.000,0
33198.501,-31.250,-36.133,0.000,-36.621,0.000,0
33198.504,-32.715,-34.668,-105.469,-17.578,0.000,0
33198.508,-36.133,-34.180,-70.312,-19.531,0.000,0
33198.512,-40.039,-36.621,44.434,-62.012,0.000,0
33198.516,-38.574,-34.668,36.621,-66.406,0.000,0
33198.520,-13.184,-26.367,-72.754,-27.832,0.000,0
33198.524,-12.695,-22.949,-100.098,-28.320,0.000,0
33198.528,-11.719,-23.926,16.602,-23.926,0.000,0
33198.532,-14.160,-33.203,44.434,-28.809,0.000,0
33198.536,-17.578,-32.715,-40.039,-15.625,0.000,0
33198.540,-9.766,-21.973,-119.629,0.488,0.000,0
33198.543,-20.020,-23.926,-16.602,-23.438,0.000,0
33198.547,-39.062,-31.250,49.805,-45.410,0.000,0
33198.551,-20.020,-26.367,-14.160,-16.113,0.000,0
33198.555,-27.344,-21.484,-114.746,-11.719,0.000,0
33198.559,-23.438,-20.996,-41.992,-24.902,0.000,0
33198.563,-26.367,-22.461,51.758,-19.531,0.000,0
33198.567,-26.367,-24.902,18.066,-8.789,0.000,0
33198.571,-14.648,-23.926,-91.309,-9.766,0.000,0
33198.575,-15.625,-23.438,-83.984,-16.113,0.000,0
33198.579,-8.301,-20.020,29.297,-23.438,0.000,0
33198.583,-17.090,-24.414,27.344,-37.109,0.000,0
33198.586,-22.461,-26.367,-69.336,-20.996,0.000,0
33198.590,-22.949,-22.949,-109.863,-24.902,0.000,0
33198.594,-17.578,-22.461,12.695,-33.203,0.000,0
33198.598,-23.926,-22.949,48.828,-27.344,0.000,0
33198.602,-22.949,-30.273,-43.945,-21.973,0.000,0
33198.606,-20.020,-32.715,-131.348,-21.973,0.000,0
33198.610,-7.324,-26.367,-26.855,-19.043,0.000,0
33198.614,-20.508,-26.855,51.758,-35.156,0.000,0
33198.618,-26.367,-32.227,-23.438,-39.062,0.000,0
33198.622,-27.832,-27.344,-127.930,-18.555,0.000,0
33198.626,-45.410,-28.809,-63.477,-5.859,0.000,0
33198.629,-32.227,-29.785,33.691,-26.367,0.000,0
33198.633,-18.555,-28.320,15.625,-28.809,0.000,0
33198.637,-24.414,-29.785,-93.750,-3.418,0.000,0
33198.641,-32.227,-33.203,-102.051,-8.301,0.000,0
33198.645,-31.738,-36.621,20.020,-21.484,0.000,0
33198.649,-21.484,-34.668,31.738,-20.508,0.000,0
33198.653,-20.020,-33.203,-65.918,-6.836,0.000,0
33198.657,-28.320,-25.879,-116.699,-10.742,0.000,0
33198.661,-37.598,-25.391,0.000,-35.645,0.000,0
33198.665,-44.434,-33.203,33.691,-32.715,0.000,0
33198.668,-13.184,-32.715,-45.410,-17.578,0.000,0
33198.672,-9.766,-24.414,-114.746,-27.832,0.000,0
33198.676,-15.625,-23.438,-26.367,-24.902,0.000,0
33198.680,-20.996,-28.809,43.945,-26.367,0.000,0
33198.684,-29.297,-26.367,-3.906,-0.488,0.000,0
33198.688,-29.297,-28.809,-104.004,7.324,0.000,0
33198.692,-11.230,-30.273,-57.617,-9.277,0.000,0
33198.696,-9.766,-23.438,40.527,-29.785,0.000,0
33198.700,-20.020,-25.391,16.113,-17.090,0.000,0
33198.704,-25.879,-24.414,-86.426,16.113,0.000,0
33198.708,-33.203,-23.926,-101.074,-1.465,0.000,0
33198.711,-24.902,-30.762,13.184,-26.855,0.000,0
33198.715,-25.391,-33.691,33.691,-35.156,0.000,0
33198.719,-15.625,-27.832,-52.734,-16.113,0.000,0
33198.723,-16.602,-26.367,-118.164,-16.602,0.000,0
33198.727,-27.344,-29.785,-3.418,-27.832,0.000,0
33198.731,-54.688,-35.156,52.734,-42.969,0.000,0
33198.735,-41.504,-33.203,-22.461,-24.902,0.000,0
33198.739,-21.484,-28.320,-118.164,-9.766,0.000,0
33198.743,-18.555,-31.250,-40.039,-23.438,0.000,0
33198.747,-26.855,-30.762,52.734,-40.039,0.000,0
33198.751,-31.738,-29.785,12.695,-41.992,0.000,0
33198.754,-40.039,-34.180,-106.934,-33.203,0.000,0
33198.758,-34.180,-32.227,-76.660,-26.855,0.000,0
33198.762,-34.668,-34.180,43.457,-35.156,0.000,0
33198.766,-32.715,-37.598,27.832,-29.297,0.000,0
33198.770,-20.508,-34.668,-78.125,-20.996,0.000,0
33198.774,-28.809,-23.438,-99.121,-31.250,0.000,0
33198.778,-26.855,-18.555,13.672,-26.855,0.000,0
33198.782,-21.973,-25.391,33.203,-21.973,0.000,0
33198.786,-17.090,-25.391,-50.293,-1.953,0.000,0
33198.790,-29.297,-23.438,-109.375,-18.066,0.000,0
33198.793,-20.996,-21.973,-2.930,-34.668,0.000,0
33198.797,-18.555,-24.414,52.734,-39.062,0.000,0
33198.801,-18.555,-27.832,-21.484,-32.715,0.000,0
33198.805,-27.832,-26.855,-129.395,-24.902,0.000,0
33198.809,-26.367,-32.715,-43.457,-26.367,0.000,0
33198.813,-20.996,-31.250,53.223,-34.180,0.000,0
33198.817,-2.441,-22.461,6.348,-4.883,0.000,0
33198.821,8.789,-20.508,-93.750,1.953,0.000,0
33198.825,-9.277,-30.762,-70.801,-32.715,0.000,0
33198.829,-31.250,-38.086,42.969,-54.199,0.000,0
33198.833,-11.719,-34.180,38.574,-46.875,0.000,0
33198.836,9.277,-29.297,-65.918,-23.926,0.000,0
33198.840,-16.113,-27.832,-111.816,-8.301,0.000,0
33198.844,-35.156,-36.133,0.488,-13.672,0.000,0
33198.848,-52.734,-43.457,38.086,-44.922,0.000,0
33198.852,-27.344,-32.715,-35.645,-25.879,0.000,0
33198.856,-5.371,-24.902,-118.164,-8.301,0.000,0
33198.860,-3.906,-26.367,-28.320,-15.137,0.000,0
33198.864,-14.648,-26.367,50.293,-27.832,0.000,0
33198.868,-16.602,-28.809,0.000,-32.227,0.000,0
33198.872,-18.555,-22.949,-107.910,-24.902,0.000,0
33198.876,-23.926,-23.438,-58.594,-27.832,0.000,0
33198.879,-31.738,-33.691,41.016,-36.133,0.000,0
33198.883,-15.625,-28.320,8.789,-20.508,0.000,0
33198.887,-4.883,-27.344,-85.938,-10.254,0.000,0
33198.891,-9.277,-32.715,-77.637,-16.602,0.000,0
33198.895,-18.555,-35.156,26.855,-41.016,0.000,0
33198.899,-34.668,-39.062,34.668,-56.641,0.000,0
33198.903,-19.531,-32.715,-66.895,-17.090,0.000,0
33198.907,-18.555,-27.344,-115.234,-0.977,0.000,0
33198.911,-10.742,-27.344,7.812,-22.461,0.000,0
33198.915,-3.418,-26.855,46.875,-29.297,0.000,0
33198.918,-5.371,-29.297,-36.133,-14.648,0.000,0
33198.922,-23.926,-28.809,-128.906,-26.367,0.000,0
33198.926,-20.996,-25.391,-32.715,-32.227,0.000,0
33198.930,-18.555,-21.484,55.176,-39.062,0.000,0
33198.934,-15.137,-18.555,-7.324,-27.344,0.000,0
33198.938,-17.578,-20.020,-119.141,-20.020,0.000,0
33198.942,-10.254,-18.066,-73.730,-13.672,0.000,0
33198.946,-10.742,-20.020,35.645,-20.996,0.000,0
33198.950,-20.996,-25.391,23.438,-29.297,0.000,0
33198.954,-8.301,-19.531,-89.355,2.930,0.000,0
33198.958,-10.742,-17.090,-94.727,6.836,0.000,0
33198.961,-23.438,-20.508,29.297,-20.996,0.000,0
33198.965,-27.344,-24.414,37.598,-34.180,0.000,0
33198.969,-19.531,-30.762,-52.246,-24.902,0.000,0
33198.973,-25.879,-24.414,-113.770,-26.855,0.000,0
33198.977,-17.578,-20.020,6.836,-41.016,0.000,0
33198.981,-9.277,-18.066,51.758,-36.621,0.000,0
33198.985,3.906,-15.137,-28.809,-12.207,0.000,0
33198.989,-20.508,-21.973,-116.699,-20.508,0.000,0
33198.993,-20.020,-19.531,-41.504,-26.855,0.000,0
33198.997,-23.438,-19.043,39.551,-35.645,0.000,0
33199.001,-24.902,-22.949,-0.488,-16.113,0.000,0
33199.004,-8.789,-20.020,-96.680,0.000,0.000,0
33199.008,1.465,-18.066,-57.129,-25.879,0.000,0
33199.012,-16.602,-30.762,57.617,-44.922,0.000,0
33199.016,-29.297,-35.156,36.133,-25.391,0.000,0
33199.020,-3.418,-26.855,-82.520,14.648,0.000,0
33199.024,-6.348,-26.855,-107.910,5.859,0.000,0
33199.028,-21.973,-27.832,20.020,-36.133,0.000,0
33199.032,-36.621,-24.902,43.945,-31.250,0.000,0
33199.036,-29.297,-22.461,-52.246,-2.441,0.000,0
33199.040,-19.531,-20.020,-125.000,-8.301,0.000,0
33199.043,-14.160,-22.949,-15.137,-20.508,0.000,0
33199.047,-30.762,-25.879,53.711,-39.551,0.000,0
33199.051,-23.926,-18.555,-13.672,-35.645,0.000,0
33199.055,-8.301,-15.137,-126.465,-23.438,0.000,0
33199.059,-1.465,-18.066,-58.105,-13.672,0.000,0
33199.063,-7.812,-16.602,54.199,-15.625,0.000,0
33199.067,-16.602,-18.066,25.879,-17.090,0.000,0
33199.071,-25.391,-23.438,-90.332,-16.113,0.000,0
33199.075,-18.555,-19.531,-76.172,-25.391,0.000,0
33199.079,-13.184,-14.648,48.340,-33.691,0.000,0
33199.083,-27.344,-19.043,43.457,-38.086,0.000,0
33199.086,-32.715,-21.484,-70.801,-32.715,0.000,0
33199.090,-32.227,-18.555,-114.258,-34.668,0.000,0
33199.094,-16.602,-20.020,8.301,-18.066,0.000,0
33199.098,-20.020,-25.391,36.621,-24.414,0.000,0
33199.102,-18.555,-28.809,-50.293,-22.949,0.000,0
33199.106,-26.855,-32.227,-124.023,-16.602,0.000,0
33199.110,-33.691,-29.297,-24.414,-28.320,0.000,0
33199.114,-28.320,-26.367,50.293,-35.156,0.000,0
33199.118,-22.949,-23.438,-20.996,-16.602,0.000,0
33199.122,-30.762,-19.043,-98.633,0.488,0.000,0
33199.126,-29.785,-21.484,-1.953,-22.461,0.000,0
33199.129,-19.531,-21.484,41.504,-18.555,0.000,0
33199.133,-13.184,-25.391,-39.062,14.648,0.000,0
33199.137,-32.227,-22.949,-109.863,1.953,0.000,0
33199.141,-23.438,-21.973,-23.926,-31.738,0.000,0
33199.145,-26.367,-29.785,51.270,-56.152,0.000,0
33199.149,-29.297,-28.320,-1.465,-35.156,0.000,0
33199.153,-29.297,-23.926,-114.746,-13.184,0.000,0
33199.157,-23.438,-25.879,-72.266,-9.277,0.000,0
33199.161,-19.531,-28.320,36.133,-22.461,0.000,0
33199.165,-27.344,-25.879,22.461,-24.902,0.000,0
33199.168,-28.320,-28.809,-92.285,-9.277,0.000,0
33199.172,-32.227,-32.715,-104.492,-19.043,0.000,0
33199.176,-42.480,-28.809,15.625,-20.996,0.000,0
33199.180,-44.922,-25.879,32.227,-23.438,0.000,0
33199.184,-28.809,-26.367,-49.805,-34.668,0.000,0
33199.188,-33.691,-19.531,-110.840,-36.621,0.000,0
33199.192,-26.367,-20.996,-4.883,-35.156,0.000,0
33199.196,-34.180,-27.832,46.387,-30.273,0.000,0
33199.200,-22.949,-26.367,-20.996,-10.254,0.000,0
33199.204,-21.484,-26.855,-109.375,-17.578,0.000,0
33199.208,-20.508,-25.391,-34.668,-26.855,0.000,0
33199.211,-23.926,-24.902,50.781,-39.062,0.000,0
33199.215,-19.043,-29.297,9.766,-31.738,0.000,0
33199.219,-22.949,-34.668,-110.352,-21.484,0.000,0
33199.223,-29.297,-35.156,-80.566,-26.367,0.000,0
33199.227,-22.461,-23.926,46.387,-31.738,0.000,0
33199.231,-21.484,-22.949,28.809,-23.926,0.000,0
33199.235,-17.578,-22.461,-83.984,-6.348,0.000,0
33199.239,-13.184,-16.602,-101.074,-13.672,0.000,0
33199.243,-9.277,-23.926,23.926,-37.598,0.000,0
33199.247,-18.555,-28.320,43.457,-36.621,0.000,0
33199.251,-17.090,-28.320,-44.434,-12.207,0.000,0
33199.254,-21.973,-22.949,-104.980,-10.254,0.000,0
33199.258,-19.043,-24.902,-0.488,-20.020,0.000,0
33199.262,-27.344,-29.785,59.570,-44.434,0.000,0
33199.266,-27.344,-29.297,-11.719,-26.367,0.000,0
33199.270,-26.367,-29.785,-110.352,-13.184,0.000,0
33199.274,-24.414,-23.926,-42.480,-22.949,0.000,0
33199.278,-37.109,-21.484,36.621,-30.762,0.000,0
33199.282,-38.086,-32.715,2.441,-41.016,0.000,0
33199.286,-33.691,-32.227,-109.863,-34.180,0.000,0
33199.290,-36.133,-26.367,-94.238,-23.926,0.000,0
33199.293,-38.086,-24.902,25.879,-48.340,0.000,0
33199.297,-40.039,-25.879,24.414,-48.340,0.000,0
33199.301,-36.621,-27.832,-73.242,-21.484,0.000,0
33199.305,-34.180,-23.438,-107.910,-31.250,0.000,0
33199.309,-27.832,-24.902,9.766,-42.969,0.000,0
33199.313,-41.504,-28.809,43.457,-48.828,0.000,0
33199.317,-41.016,-29.297,-34.668,-29.785,0.000,0
33199.321,-27.832,-28.320,-112.305,-23.438,0.000,0
33199.325,-21.484,-23.926,-11.719,-35.156,0.000,0
33199.329,-39.551,-28.320,50.781,-47.363,0.000,0
33199.333,-34.180,-27.344,-9.766,-29.297,0.000,0
33199.336,-24.414,-20.996,-110.352,-5.371,0.000,0
33199.340,-24.414,-21.484,-49.316,-13.184,0.000,0
33199.344,-33.691,-19.531,55.664,-44.922,0.000,0
33199.348,-28.809,-16.602,19.043,-33.203,0.000,0
33199.352,-20.996,-21.484,-100.586,-17.090,0.000,0
33199.356,-24.414,-22.461,-96.191,-19.531,0.000,0
33199.360,-33.691,-27.832,25.879,-36.133,0.000,0
33199.364,-35.156,-25.391,34.180,-52.246,0.000,0
33199.368,-15.625,-21.973,-70.312,-26.367,0.000,0
33199.372,-24.414,-23.926,-114.746,-22.461,0.000,0
33199.376,-35.156,-23.438,9.277,-23.438,0.000,0
33199.379,-35.156,-20.996,53.223,-25.391,0.000,0
33199.383,-31.250,-19.531,-24.902,-27.344,0.000,0
33199.387,-29.297,-19.043,-108.398,-10.254,0.000,0
33199.391,-12.695,-15.625,-8.789,-17.090,0.000,0
33199.395,-17.578,-15.625,58.105,-48.340,0.000,0
33199.399,-13.672,-19.531,2.441,-33.203,0.000,0
33199.403,-16.113,-15.137,-102.051,-20.020,0.000,0
33199.407,-18.555,-13.184,-59.570,-26.855,0.000,0
33199.411,-20.508,-17.090,45.410,-25.879,0.000,0
33199.415,-21.973,-18.066,14.648,-18.555,0.000,0
33199.418,-25.391,-20.508,-98.145,-8.301,0.000,0
33199.422,-34.668,-21.484,-90.332,-11.719,0.000,0
33199.426,-27.832,-22.949,28.809,-20.020,0.000,0
33199.430,-34.180,-21.484,41.016,-23.438,0.000,0
33199.434,-31.738,-18.066,-42.480,-10.742,0.000,0
33199.438,-28.809,-15.625,-105.957,-13.184,0.000,0
33199.442,-27.344,-20.508,5.371,-37.598,0.000,0
33199.446,-37.598,-26.855,56.641,-53.711,0.000,0
33199.450,-35.645,-31.738,-20.508,-30.273,0.000,0
33199.454,-30.273,-29.785,-114.746,-10.742,0.000,0
33199.458,-17.090,-27.344,-36.621,-25.391,0.000,0
33199.461,-23.438,-29.297,51.270,-58.594,0.000,0
33199.465,-25.879,-25.879,13.184,-41.504,0.000,0
33199.469,-15.137,-24.414,-101.562,-12.207,0.000,0
33199.473,-10.254,-30.273,-79.590,-14.160,0.000,0
33199.477,-20.996,-28.320,39.551,-36.133,0.000,0
33199.481,-36.621,-27.344,32.715,-42.480,0.000,0
33199.485,-25.391,-26.367,-84.961,-15.137,0.000,0
33199.489,-15.137,-25.879,-105.957,-11.719,0.000,0
33199.493,-23.926,-29.297,23.926,-18.066,0.000,0
33199.497,-42.969,-29.297,38.574,-21.973,0.000,0
33199.501,-41.016,-24.414,-58.105,-20.020,0.000,0
33199.504,-32.715,-18.066,-122.070,-9.766,0.000,0
33199.508,-16.113,-21.484,-6.348,-14.160,0.000,0
33199.512,-31.250,-27.344,54.688,-19.043,0.000,0
33199.516,-27.832,-29.297,-14.648,-17.090,0.000,1
33199.520,-16.602,-28.320,-104.492,-32.227,0.000,0
33199.524,-22.949,-29.297,-40.039,-26.855,0.000,0
33199.528,-32.227,-31.738,44.922,-37.109,0.000,0
33199.532,-27.832,-27.832,9.277,-34.668,0.000,0
33199.536,-28.809,-26.367,-105.469,-14.648,0.000,0
33199.540,-25.879,-24.414,-81.055,-25.391,0.000,0
33199.543,-23.438,-26.855,40.527,-43.945,0.000,0
33199.547,-27.832,-29.297,32.227,-39.062,0.000,0
33199.551,-19.043,-24.414,-76.172,-15.137,0.000,0
33199.555,-31.250,-24.902,-105.957,-18.555,0.000,0
33199.559,-33.691,-42.480,19.531,-34.180,0.000,0
33199.563,-27.832,-38.086,48.340,-38.574,0.000,0
33199.567,-13.184,-28.320,-30.762,-26.367,0.000,0
33199.571,-13.184,-25.391,-102.539,-18.555,0.000,0
33199.575,-11.719,-26.367,-8.301,-25.879,0.000,0
33199.579,-27.832,-31.250,56.152,-51.270,0.000,0
33199.583,-27.832,-24.902,2.441,-37.598,0.000,0
33199.586,-21.973,-21.973,-104.492,-16.602,0.000,0
33199.590,-15.625,-22.461,-55.664,-8.789,0.000,0
33199.594,-17.090,-27.832,41.016,-30.762,0.000,0
33199.598,-22.949,-30.273,22.949,-44.922,0.000,0
33199.602,-18.555,-24.902,-86.426,-22.461,0.000,0
33199.606,-8.789,-22.461,-91.797,-23.438,0.000,0
33199.610,-5.859,-22.461,36.621,-32.715,0.000,0
33199.614,-17.090,-23.926,43.457,-30.762,0.000,0
33199.618,-7.324,-22.461,-59.570,-15.137,0.000,0
33199.622,-4.395,-17.090,-109.375,-15.137,0.000,0
33199.626,-16.113,-17.578,10.254,-25.391,0.000,0
33199.629,-23.438,-22.949,57.617,-32.715,0.000,0
33199.633,-17.578,-24.414,-19.531,-17.578,0.000,0
33199.637,-23.926,-21.973,-105.957,-23.438,0.000,0
33199.641,-20.996,-20.508,-25.391,-35.645,0.000,0
33199.645,-26.855,-23.438,44.434,-41.992,0.000,0
33199.649,-20.020,-23.926,-0.977,-23.438,0.000,0
33199.653,-16.113,-21.484,-118.652,-19.531,0.000,0
33199.657,-25.879,-26.855,-76.172,-42.969,0.000,0
33199.661,-34.668,-33.691,46.875,-39.551,0.000,0
33199.665,-29.297,-34.180,18.066,-29.297,0.000,0
33199.668,-19.531,-27.344,-98.145,-19.043,0.000,0
33199.672,-20.020,-21.484,-101.074,-20.020,0.000,0
33199.676,-22.949,-31.250,27.344,-36.133,0.000,0
33199.680,-32.715,-33.691,41.992,-50.781,0.000,0
33199.684,-20.508,-25.879,-47.363,-34.180,0.000,0
33199.688,-22.949,-21.973,-105.469,-22.461,0.000,0
33199.692,-27.344,-25.391,-0.488,-25.879,0.000,0
33199.696,-24.414,-30.762,45.410,-43.945,0.000,0
33199.700,-17.578,-28.809,-21.484,-33.691,0.000,0
33199.704,-27.832,-27.344,-114.746,-20.508,0.000,0
33199.708,-21.973,-27.832,-40.527,-20.996,0.000,0
33199.711,-23.438,-26.855,48.340,-31.250,0.000,0
33199.715,-30.762,-30.762,10.254,-24.414,0.000,0
33199.719,-24.902,-34.180,-101.074,-10.742,0.000,0
33199.723,-26.855,-29.785,-74.707,-20.996,0.000,0
33199.727,-33.691,-29.785,37.109,-34.668,0.000,0
33199.731,-25.391,-29.785,27.344,-20.508,0.000,0
33199.735,-29.297,-28.809,-77.148,-20.508,0.000,0
33199.739,-34.668,-35.156,-98.633,-31.738,0.000,0
33199.743,-20.996,-36.133,16.602,-31.738,0.000,0
33199.747,-34.180,-33.691,36.133,-38.086,0.000,0
33199.751,-35.156,-27.832,-41.992,-12.695,0.000,0
33199.754,-27.832,-24.902,-109.375,-11.230,0.000,0
33199.758,-24.414,-31.738,-8.789,-29.785,0.000,0
33199.762,-40.039,-37.109,45.410,-48.828,0.000,0
33199.766,-27.832,-32.715,-22.461,-31.738,0.000,0
33199.770,-26.855,-32.227,-126.465,-10.742,0.000,0
33199.774,-38.574,-34.180,-53.223,-21.484,0.000,0
33199.778,-43.457,-36.133,40.527,-39.551,0.000,0
33199.782,-48.340,-39.062,0.488,-26.855,0.000,0
33199.786,-39.551,-39.062,-106.934,-20.508,0.000,0
33199.790,-27.344,-37.598,-95.215,-25.879,0.000,0
33199.793,-34.180,-38.086,24.902,-32.715,0.000,0
33199.797,-43.457,-36.133,35.645,-43.945,0.000,0
33199.801,-32.227,-34.668,-78.613,-34.180,0.000,0
33199.805,-25.879,-40.527,-115.234,-29.785,0.000,0
33199.809,-25.879,-39.551,9.277,-27.832,0.000,0
33199.813,-32.715,-35.645,40.039,-39.062,0.000,0
33199.817,-19.531,-35.156,-34.668,-26.855,0.000,0
33199.821,-16.113,-31.738,-116.211,-14.648,0.000,0
33199.825,-15.137,-33.203,-17.578,-21.973,0.000,0
33199.829,-21.973,-34.668,45.898,-14.648,0.000,0
33199.833,-12.207,-32.227,-12.207,-3.906,0.000,0
33199.836,-6.836,-31.738,-113.770,-11.719,0.000,0
33199.840,-13.184,-26.367,-57.129,-0.977,0.000,0
33199.844,-9.766,-28.809,43.457,-14.648,0.000,0
33199.848,-8.789,-37.109,9.277,-20.996,0.000,0
33199.852,-13.672,-30.273,-95.215,-10.742,0.000,0
33199.856,-10.742,-21.973,-85.449,-23.926,0.000,0
33199.860,-20.508,-25.391,31.250,-33.691,0.000,0
33199.864,-31.738,-25.879,36.621,-36.621,0.000,0
33199.868,-27.344,-23.438,-68.848,-11.230,0.000,0
33199.872,-32.715,-22.949,-109.863,-5.371,0.000,0
33199.876,-33.203,-22.949,16.113,-35.156,0.000,0
33199.879,-28.320,-23.438,28.320,-25.879,0.000,0
33199.883,-34.180,-24.902,-97.656,1.465,0.000,0
33199.887,-35.645,-22.461,-94.238,-15.137,0.000,0
33199.891,-35.156,-27.344,23.926,-49.805,0.000,0
33199.895,-45.410,-33.203,35.645,-58.105,0.000,0
33199.899,-33.203,-31.250,-61.523,-27.344,0.000,0
33199.903,-29.785,-29.297,-113.770,-15.625,0.000,0
33199.907,-37.109,-32.227,-4.883,-13.672,0.000,0
33199.911,-35.645,-33.203,39.551,-24.414,0.000,0
33199.915,-9.277,-30.762,-25.391,-10.742,0.000,0
33199.918,-1.953,-24.414,-121.582,0.000,0.000,0
33199.922,-19.043,-26.855,-41.992,-21.484,0.000,0
33199.926,-38.574,-32.227,46.387,-26.855,0.000,0
33199.930,-33.203,-33.691,1.465,-21.973,0.000,0
33199.934,-28.809,-27.344,-113.281,-25.391,0.000,0
33199.938,-20.020,-22.461,-76.172,-13.672,0.000,0
33199.942,-20.020,-24.902,41.504,-20.020,0.000,0
33199.946,-24.414,-25.391,24.902,-32.227,0.000,0
33199.950,-15.137,-23.926,-82.520,-13.672,0.000,0
33199.954,-24.414,-24.414,-96.680,-22.949,0.000,0
33199.958,-27.832,-30.273,20.508,-32.227,0.000,0
33199.961,-34.668,-33.691,36.133,-29.785,0.000,0
33199.965,-29.785,-28.809,-57.617,-16.113,0.000,0
33199.969,-21.973,-24.414,-127.930,-4.395,0.000,0
33199.973,-18.555,-30.762,-10.742,-24.414,0.000,0
33199.977,-29.785,-30.762,47.363,-43.945,0.000,0
33199.981,-21.973,-27.832,-31.250,-20.020,0.000,0
33199.985,-14.648,-27.832,-128.418,-16.602,0.000,0
33199.989,-14.648,-25.879,-48.340,-21.484,0.000,0
33199.993,-27.832,-26.367,52.734,-38.086,0.000,0
33199.997,-31.250,-24.414,7.324,-37.598,0.000,0
33200.001,-21.973,-24.902,-110.352,-21.973,0.000,0
33200.004,-20.996,-25.879,-80.078,-25.879,0.000,0
33200.008,-35.645,-33.691,35.156,-45.410,0.000,0
33200.012,-37.109,-35.645,22.461,-54.688,0.000,0
33200.016,-22.949,-26.367,-73.730,-26.855,0.000,0
33200.020,-25.391,-21.973,-103.027,-20.508,0.000,0
33200.024,-28.320,-26.367,5.371,-38.086,0.000,0
33200.028,-32.227,-30.273,35.156,-39.551,0.000,0
33200.032,-25.879,-33.203,-41.504,-35.645,0.000,0
33200.036,-24.414,-28.809,-123.535,-42.480,0.000,0
33200.040,-21.973,-21.973,-29.297,-42.480,0.000,0
33200.043,-29.785,-28.320,35.156,-44.922,0.000,0
33200.047,-22.461,-33.203,-27.832,-30.762,0.000,0
33200.051,-27.344,-30.273,-124.023,-27.344,0.000,0
33200.055,-29.297,-28.320,-58.594,-37.598,0.000,0
33200.059,-32.227,-33.203,35.645,-63.965,0.000,0
33200.063,-31.738,-32.715,11.230,-56.641,0.000,0
33200.067,-30.273,-26.855,-90.332,-23.926,0.000,0
33200.071,-30.762,-24.414,-84.961,-26.855,0.000,0
33200.075,-24.902,-25.391,28.809,-46.387,0.000,0
33200.079,-29.297,-30.762,37.598,-41.016,0.000,0
33200.083,-19.531,-28.809,-61.523,-11.719,0.000,0
33200.086,-15.625,-20.020,-115.234,-14.648,0.000,0
33200.090,-27.344,-23.438,7.324,-18.555,0.000,0
33200.094,-35.156,-19.531,50.781,-19.531,0.000,0
33200.098,-21.484,-17.578,-33.203,-20.508,0.000,1
33200.102,-31.738,-22.461,-124.512,-28.320,0.000,0
33200.106,-38.086,-23.438,-30.762,-36.133,0.000,0
33200.110,-42.480,-24.902,53.711,-57.129,0.000,0
33200.114,-40.527,-30.762,-2.441,-57.617,0.000,0
33200.118,-47.852,-27.832,-117.188,-36.621,0.000,0
33200.122,-45.898,-20.508,-59.082,-36.133,0.000,0
33200.126,-34.668,-15.625,55.176,-41.504,0.000,0
33200.129,-27.344,-15.137,29.297,-30.762,0.000,0
33200.133,-24.414,-19.531,-81.543,-21.484,0.000,0
33200.137,-33.691,-17.578,-89.355,-29.297,0.000,0
33200.141,-38.086,-19.043,31.738,-32.227,0.000,0
33200.145,-40.527,-25.391,35.156,-37.598,0.000,0
33200.149,-33.203,-26.855,-57.129,-33.203,0.000,0
33200.153,-36.621,-22.949,-110.840,-28.809,0.000,0
33200.157,-42.969,-25.391,-4.883,-32.715,0.000,0
33200.161,-45.410,-25.879,41.504,-35.645,0.000,0
33200.165,-25.391,-25.391,-37.109,-23.438,0.000,0
33200.168,-26.855,-30.273,-120.117,-28.320,0.000,0
33200.172,-31.250,-26.367,-28.809,-44.434,0.000,0
33200.176,-35.645,-22.461,47.852,-49.316,0.000,0
33200.180,-26.367,-20.508,0.488,-24.902,0.000,0
33200.184,-19.043,-21.973,-108.398,-15.137,0.000,0
33200.188,-20.020,-20.020,-61.523,-33.203,0.000,0
33200.192,-28.809,-19.531,50.293,-46.875,0.000,0
33200.196,-33.691,-25.879,22.949,-41.016,0.000,0
33200.200,-27.832,-26.855,-77.148,-22.949,0.000,0
33200.204,-31.738,-19.043,-93.750,-25.391,0.000,0
33200.208,-25.391,-20.508,28.320,-41.504,0.000,0
33200.211,-32.227,-30.273,46.387,-50.781,0.000,0
33200.215,-24.414,-27.344,-39.551,-29.297,0.000,0
33200.219,-15.625,-14.648,-115.723,-14.160,0.000,0
33200.223,-19.531,-10.742,-17.578,-14.648,0.000,0
33200.227,-24.414,-20.020,54.199,-37.598,0.000,0
33200.231,-20.996,-22.949,-14.160,-25.879,0.000,0
33200.235,-30.762,-18.066,-129.395,-8.789,0.000,0
33200.239,-26.855,-22.461,-54.688,-21.484,0.000,0
33200.243,-26.367,-25.879,55.664,-35.645,0.000,0
33200.247,-7.812,-28.320,17.578,-10.742,0.000,0
33200.251,-2.441,-29.785,-100.098,-2.441,0.000,0
33200.254,-39.551,-20.508,-78.125,-41.016,0.000,0
33200.258,-50.781,-15.137,44.434,-57.129,0.000,0
33200.262,-26.855,-20.020,35.156,-34.180,0.000,0
33200.266,-8.789,-23.438,-75.684,-11.230,0.000,0
33200.270,-28.320,-16.602,-101.074,-41.016,0.000,0
33200.274,-34.668,-14.648,22.461,-49.805,0.000,0
33200.278,-35.156,-19.043,47.852,-46.387,0.000,0
33200.282,-29.785,-17.578,-41.016,-6.836,0.000,0
33200.286,-27.344,-17.578,-118.164,3.418,0.000,0
33200.290,-19.043,-18.555,-20.020,-45.898,0.000,0
33200.293,-22.461,-17.578,43.457,-53.711,0.000,0
33200.297,-29.297,-19.043,-26.367,-27.832,0.000,0
33200.301,-26.367,-15.137,-125.000,-12.695,0.000,0
33200.305,-20.508,-12.695,-45.410,-16.602,0.000,0
33200.309,-23.926,-19.531,52.734,-36.621,0.000,0
33200.313,-17.578,-20.996,17.578,-29.785,0.000,0
33200.317,-21.973,-24.414,-88.379,-15.625,0.000,0
33200.321,-25.391,-28.809,-90.820,-17.578,0.000,0
33200.325,-18.555,-26.367,30.273,-16.113,0.000,0
33200.329,-20.020,-21.484,44.434,-15.137,0.000,0
33200.333,-12.695,-21.973,-59.570,-7.812,0.000,0
33200.336,-17.578,-22.949,-116.211,-0.488,0.000,0
33200.340,-16.602,-26.367,-2.441,-11.719,0.000,0
33200.344,-29.785,-35.645,42.969,-34.668,0.000,0
33200.348,-31.738,-35.156,-34.180,-20.020,0.000,0
33200.352,-21.484,-25.391,-126.465,-13.672,0.000,0
33200.356,-16.602,-27.344,-37.109,-22.949,0.000,0
33200.360,-14.648,-30.273,46.387,-27.832,0.000,0
33200.364,-7.812,-26.855,5.371,-8.301,0.000,0
33200.368,-16.602,-26.367,-98.633,0.488,0.000,0
33200.372,-13.184,-23.926,-58.594,-5.859,0.000,0
33200.376,-15.137,-26.855,50.293,-14.648,0.000,0
33200.379,-21.973,-31.250,28.809,-26.855,0.000,0
33200.383,-17.578,-28.809,-82.031,-15.625,0.000,0
33200.387,-19.043,-27.832,-93.750,-19.043,0.000,0
33200.391,-23.926,-31.250,24.902,-40.527,0.000,0
33200.395,-35.156,-29.297,41.992,-40.039,0.000,0
33200.399,-26.855,-32.227,-57.129,-19.043,0.000,0
33200.403,-19.531,-36.133,-125.488,-20.020,0.000,0
33200.407,-16.113,-32.715,-3.418,-30.762,0.000,0
33200.411,-34.180,-35.156,44.434,-45.898,0.000,0
33200.415,-32.227,-33.691,-42.480,-43.457,0.000,0
33200.418,-27.832,-29.785,-138.672,-34.668,0.000,0
33200.422,-26.367,-31.738,-48.340,-36.133,0.000,0
33200.426,-24.414,-33.691,57.129,-48.340,0.000,0
33200.430,-17.578,-30.762,13.672,-37.109,0.000,0
33200.434,-26.855,-27.344,-108.887,-17.090,0.000,0
33200.438,-32.227,-23.926,-69.336,-16.113,0.000,0
33200.442,-30.273,-29.785,43.457,-37.598,0.000,0
33200.446,-30.273,-36.621,22.461,-48.828,0.000,0
33200.450,-18.555,-27.344,-77.148,-23.438,0.000,0
33200.454,-13.184,-23.438,-96.191,-8.301,0.000,0
33200.458,-16.113,-29.785,20.996,-19.531,0.000,0
33200.461,-22.949,-32.715,37.109,-37.109,0.000,0
33200.465,-10.254,-27.832,-51.758,-29.297,0.000,0
33200.469,-16.113,-18.066,-115.723,-18.066,0.000,0
33200.473,-14.648,-16.113,-13.672,-21.484,0.000,0
33200.477,-8.789,-25.391,42.969,-37.598,0.000,0
33200.481,-7.324,-25.879,-20.508,-19.531,0.000,0
33200.485,-20.020,-23.438,-112.793,-20.020,0.000,0
33200.489,-30.273,-25.391,-41.992,-35.156,0.000,0
33200.493,-23.926,-32.715,44.434,-36.621,0.000,0
33200.497,-26.855,-39.551,12.207,-35.645,0.000,0
33200.501,-29.297,-28.809,-93.262,-19.043,0.000,0
33200.504,-22.949,-27.344,-81.543,-24.902,0.000,0
33200.508,-27.344,-29.785,34.668,-30.273,0.000,0
33200.512,-25.391,-28.320,33.691,-21.973,0.000,0
33200.516,-11.230,-26.367,-62.012,-16.113,0.000,0
33200.520,-7.324,-20.508,-103.027,-16.113,0.000,0
33200.524,-15.137,-25.391,19.043,-32.227,0.000,0
33200.528,-32.227,-28.809,54.199,-50.781,0.000,0
33200.532,-35.156,-27.832,-41.016,-33.691,0.000,0
33200.536,-36.133,-29.785,-123.535,-26.855,0.000,0
33200.540,-26.855,-27.344,-26.855,-33.203,0.000,0
33200.543,-30.273,-30.273,54.688,-45.898,0.000,0
33200.547,-19.043,-31.250,-0.977,-29.785,0.000,0
33200.551,-15.625,-24.414,-123.047,-9.766,0.000,0
33200.555,-18.066,-25.391,-55.664,-18.066,0.000,0
33200.559,-30.762,-26.855,54.199,-33.691,0.000,0
33200.563,-34.180,-29.785,22.461,-44.434,0.000,0
33200.567,-18.555,-27.344,-83.008,-35.156,0.000,0
33200.571,-18.555,-23.438,-80.566,-30.762,0.000,0
33200.575,-26.855,-26.855,35.156,-41.504,0.000,0
33200.579,-33.691,-24.414,42.969,-34.668,0.000,0
33200.583,-19.043,-26.855,-51.270,-25.391,0.000,0
33200.586,-17.090,-29.785,-106.934,-29.297,0.000,0
33200.590,-17.090,-22.461,6.836,-17.090,0.000,0
33200.594,-23.438,-22.461,53.711,-22.461,0.000,0
33200.598,-22.949,-21.973,-32.227,-14.160,0.000,0
33200.602,-27.832,-20.020,-116.699,-15.625,0.000,0
33200.606,-23.438,-21.484,-20.508,-35.156,0.000,0
33200.610,-22.461,-23.438,50.781,-46.875,0.000,0
33200.614,-29.297,-27.832,-8.301,-36.621,0.000,0
33200.618,-26.855,-29.785,-113.770,-23.926,0.000,0
33200.622,-10.254,-26.367,-58.594,-28.320,0.000,0
33200.626,-17.578,-30.762,49.805,-46.387,0.000,0
33200.629,-26.367,-34.668,24.902,-35.645,0.000,0
33200.633,-21.484,-29.785,-80.078,-5.371,0.000,0
33200.637,-21.484,-27.344,-88.379,-15.137,0.000,0
33200.641,-17.578,-28.320,27.832,-26.855,0.000,0
33200.645,-23.926,-32.227,40.527,-19.043,0.000,0
33200.649,-23.926,-34.668,-54.688,0.977,0.000,0
33200.653,-25.391,-30.273,-120.117,-3.906,0.000,0
33200.657,-9.277,-28.320,-9.766,-28.809,0.000,0
33200.661,-21.484,-31.738,46.387,-40.039,0.000,0
33200.665,-24.414,-28.320,-23.438,-25.391,0.000,0
33200.668,-27.832,-24.414,-123.535,-26.367,0.000,0
33200.672,-31.250,-24.414,-42.969,-39.551,0.000,0
33200.676,-37.598,-25.391,45.898,-43.457,0.000,0
33200.680,-33.691,-26.855,1.465,-24.414,0.000,0
33200.684,-6.348,-24.414,-99.609,-6.836,0.000,0
33200.688,4.395,-18.555,-62.500,-7.812,0.000,0
33200.692,-19.531,-20.996,47.363,-28.809,0.000,0
33200.696,-23.926,-21.973,31.250,-31.250,0.000,0
33200.700,-6.348,-24.414,-71.777,-4.395,0.000,0
33200.704,-20.508,-31.738,-100.098,-18.066,0.000,0
33200.708,-28.320,-37.598,12.695,-34.668,0.000,0
33200.711,-26.367,-39.551,34.180,-23.438,0.000,0
33200.715,-19.531,-35.156,-59.570,-12.695,0.000,0
33200.719,-22.949,-24.414,-129.395,-20.020,0.000,0
33200.723,-26.367,-22.949,-14.160,-33.203,0.000,0
33200.727,-33.203,-30.762,43.945,-46.387,0.000,0
33200.731,-20.508,-32.227,-32.227,-23.926,0.000,0
33200.735,-16.602,-27.344,-121.582,-7.812,0.000,0
33200.739,-21.484,-28.809,-48.828,-25.391,0.000,0
33200.743,-19.531,-32.715,44.434,-33.691,0.000,0
33200.747,-17.578,-32.227,-48.340,-17.090,0.000,0
33200.751,-23.926,-23.438,-123.535,-12.695,0.000,0
33200.754,-17.578,-20.020,-16.113,-20.020,0.000,0
33200.758,-25.879,-26.367,48.828,-29.297,0.000,0
33200.762,-31.250,-27.832,-8.789,-24.414,0.000,0
33200.766,-31.250,-21.484,-113.770,-13.184,0.000,0
33200.770,-26.855,-20.508,-51.758,-11.719,0.000,0
33200.774,-27.344,-24.902,43.945,-22.461,0.000,0
33200.778,-19.043,-22.949,15.137,-24.414,0.000,0
33200.782,-19.531,-16.113,-88.379,-15.625,0.000,0
33200.786,-15.137,-14.160,-83.984,-13.184,0.000,1
33200.790,0.488,-18.066,29.785,-19.531,0.000,0
33200.793,17.090,-17.578,35.645,2.441,0.000,0
33200.797,47.363,-16.113,-57.617,39.551,0.000,0
33200.801,4.395,-21.484,-99.609,0.000,0.000,0
33200.805,-40.527,-25.879,19.043,-50.293,0.000,0
33200.809,-40.527,-26.855,58.594,-48.828,0.000,0
33200.813,-26.367,-26.367,-26.367,-1.953,0.000,0
33200.817,-15.625,-21.973,-110.840,8.789,0.000,0
33200.821,-25.879,-19.043,-8.301,-31.250,0.000,0
33200.825,-54.688,-30.273,65.430,-56.152,0.000,0
33200.829,-51.758,-35.156,9.766,-38.086,0.000,0
33200.833,-39.551,-27.344,-103.027,-29.297,0.000,0
33200.836,-28.809,-25.879,-51.270,-29.785,0.000,0
33200.840,-41.504,-29.297,68.848,-50.293,0.000,0
33200.844,-44.922,-33.203,36.621,-51.270,0.000,0
33200.848,-24.902,-29.297,-92.773,-20.996,0.000,0
33200.852,-19.043,-22.949,-97.168,-12.695,0.000,0
33200.856,-24.902,-24.414,33.691,-34.668,0.000,0
33200.860,-31.250,-30.762,49.805,-48.340,0.000,0
33200.864,-16.602,-26.367,-49.316,-2.441,0.000,0
33200.868,-14.160,-19.043,-104.980,11.230,0.000,0
33200.872,-6.836,-20.020,22.949,-19.531,0.000,0
33200.876,-3.906,-25.879,77.148,-27.832,0.000,0
33200.879,-10.254,-28.809,-3.418,-13.672,0.000,0
33200.883,-23.438,-26.855,-98.145,-7.324,0.000,0
33200.887,-23.438,-25.879,-14.160,-11.230,0.000,0
33200.891,-27.832,-30.762,59.570,-22.949,0.000,0
33200.895,-21.973,-32.227,6.348,-18.555,0.000,0
33200.899,-18.555,-32.227,-97.656,-11.719,0.000,0
33200.903,-14.160,-30.273,-64.941,-14.648,0.000,0
33200.907,-19.531,-30.273,44.434,-16.113,0.000,0
33200.911,-20.996,-26.855,30.273,-9.766,0.000,0
33200.915,-15.625,-24.902,-76.172,-1.953,0.000,0
33200.918,-17.090,-26.367,-78.613,-11.719,0.000,0
33200.922,-8.301,-27.344,31.250,-26.367,0.000,0
33200.926,-20.020,-31.738,40.039,-38.574,0.000,0
33200.930,-22.461,-27.344,-42.969,-15.137,0.000,0
33200.934,-20.020,-23.926,-106.934,-8.789,0.000,0
33200.938,-11.719,-28.320,5.859,-22.461,0.000,0
33200.942,-19.531,-26.855,63.477,-20.996,0.000,0
33200.946,-14.648,-34.180,-4.395,-11.230,0.000,0
33200.950,-11.719,-32.227,-105.957,-11.719,0.000,0
33200.954,-18.555,-27.832,-41.992,-8.789,0.000,0
33200.958,-35.156,-33.691,43.457,-20.508,0.000,0
33200.961,-30.273,-34.180,11.719,-19.043,0.000,0
33200.965,-22.949,-33.691,-100.586,-9.277,0.000,0
33200.969,-16.602,-29.785,-83.008,-13.184,0.000,0
33200.973,-11.719,-27.832,39.062,-19.531,0.000,0
33200.977,-21.484,-33.203,37.109,-33.203,0.000,0
33200.981,-21.484,-35.156,-72.266,-27.832,0.000,0
33200.985,-25.391,-31.250,-108.887,-18.555,0.000,0
33200.989,-25.391,-33.691,20.508,-30.273,0.000,0
33200.993,-30.273,-28.809,49.805,-29.297,0.000,0
33200.997,-25.391,-22.949,-44.434,-14.648,0.000,0
33201.001,-26.855,-18.555,-112.305,-19.043,0.000,0
33201.004,-21.484,-17.578,-5.371,-10.742,0.000,0
33201.008,-27.832,-21.484,61.035,-18.066,0.000,0
33201.012,-17.578,-23.926,-1.953,-27.832,0.000,0
33201.016,-3.418,-22.461,-112.305,-23.926,0.000,0
33201.020,-17.578,-17.578,-55.664,-29.785,0.000,0
33201.024,-33.691,-19.043,53.711,-46.387,0.000,0
33201.028,-26.367,-27.832,20.996,-28.809,0.000,0
33201.032,-14.160,-28.809,-97.168,-8.301,0.000,0
33201.036,-8.301,-22.949,-81.055,-14.160,0.000,0
33201.040,-20.020,-24.902,39.551,-39.551,0.000,0
33201.043,-34.180,-27.344,31.250,-43.945,0.000,0
33201.047,-28.809,-26.367,-70.801,-15.137,0.000,0
33201.051,-29.785,-30.762,-104.492,-18.066,0.000,0
33201.055,-29.297,-28.809,16.602,-28.320,0.000,0
33201.059,-31.250,-27.344,52.246,-39.551,0.000,0
33201.063,-24.414,-28.809,-30.273,-27.344,0.000,0
33201.067,-31.250,-24.414,-119.629,-3.906,0.000,0
33201.071,-32.715,-30.273,-33.691,-11.719,0.000,0
33201.075,-35.156,-36.621,44.922,-43.457,0.000,0
33201.079,-29.785,-30.273,0.000,-32.227,0.000,0
33201.083,-25.391,-25.391,-113.281,-7.324,0.000,0
33201.086,-19.531,-24.902,-66.895,-19.531,0.000,0
33201.090,-26.855,-27.344,37.598,-36.133,0.000,0
33201.094,-32.715,-25.879,0.488,-34.180,0.000,0
33201.098,-24.414,-19.043,-92.773,-26.855,0.000,0
33201.102,-19.531,-16.602,-91.797,-28.320,0.000,0
33201.106,-23.438,-24.902,20.996,-39.062,0.000,0
33201.110,-29.785,-21.973,36.621,-36.621,0.000,0
33201.114,-17.090,-21.973,-58.105,-18.555,0.000,0
33201.118,-26.855,-20.508,-112.793,-27.344,0.000,0
33201.122,-32.227,-17.578,-1.953,-32.227,0.000,0
33201.126,-31.738,-22.949,39.551,-50.293,0.000,0
33201.129,-20.020,-25.879,-32.227,-29.297,0.000,0
33201.133,-19.043,-25.391,-121.582,-16.113,0.000,0
33201.137,-26.855,-31.250,-36.133,-34.180,0.000,0
33201.141,-30.762,-29.785,49.805,-39.551,0.000,0
33201.145,-20.508,-27.344,2.930,-23.438,0.000,0
33201.149,-22.461,-26.367,-112.793,-19.531,0.000,0
33201.153,-29.297,-25.391,-72.266,-20.996,0.000,0
33201.157,-31.250,-27.344,44.922,-29.785,0.000,0
33201.161,-22.949,-20.508,23.926,-39.551,0.000,0
33201.165,-20.508,-20.996,-91.309,-27.832,0.000,0
33201.168,-27.832,-21.973,-107.422,-17.578,0.000,0
33201.172,-20.020,-24.414,22.461,-23.926,0.000,0
33201.176,-21.973,-29.785,49.316,-41.016,0.000,0
33201.180,-17.090,-27.344,-49.316,-13.184,0.000,0
33201.184,-13.184,-25.391,-124.023,-11.719,0.000,0
33201.188,-15.137,-28.320,-13.672,-28.320,0.000,0
33201.192,-27.344,-23.926,47.363,-32.715,0.000,0
33201.196,-15.625,-21.973,-12.695,-26.367,0.000,0
33201.200,-11.719,-25.391,-110.840,-14.648,0.000,0
33201.204,-21.973,-21.973,-41.504,-21.973,0.000,0
33201.208,-22.949,-21.484,37.109,-32.227,0.000,0
33201.211,-4.883,-24.902,1.953,-16.113,0.000,0
33201.215,0.977,-24.902,-93.750,-7.324,0.000,0
33201.219,-15.625,-29.785,-86.426,-5.859,0.000,0
33201.223,-20.508,-33.203,26.855,-15.625,0.000,0
33201.227,-23.438,-33.691,26.367,-25.879,0.000,0
33201.231,-28.809,-27.832,-75.684,-13.184,0.000,0
33201.235,-25.391,-19.531,-107.422,-21.973,0.000,0
33201.239,-16.602,-21.973,10.254,-43.457,0.000,0
33201.243,-31.250,-26.855,41.016,-43.457,0.000,0
33201.247,-29.297,-32.227,-41.992,-19.043,0.000,0
33201.251,-23.926,-27.832,-115.234,-19.043,0.000,0
33201.254,-21.973,-30.273,-12.207,-36.133,0.000,0
33201.258,-23.926,-33.203,52.246,-32.227,0.000,0
33201.262,-16.602,-32.715,-12.207,-13.184,0.000,0
33201.266,-18.555,-33.203,-123.047,-14.160,0.000,0
33201.270,-8.301,-28.320,-65.430,-20.508,0.000,0
33201.274,-17.578,-27.832,44.922,-39.062,0.000,0
33201.278,-23.438,-24.414,18.066,-36.133,0.000,0
33201.282,-15.625,-23.438,-98.633,-13.672,0.000,0
33201.286,-10.742,-25.879,-98.145,-10.254,0.000,0
33201.290,-23.438,-26.855,16.602,-23.438,0.000,0
33201.293,-42.969,-25.391,31.250,-38.574,0.000,0
33201.297,-25.879,-17.578,-69.824,-17.578,0.000,0
33201.301,-15.625,-7.812,-124.023,-15.625,0.000,0
33201.305,-5.371,-5.859,-1.465,-25.879,0.000,0
33201.309,1.953,-6.836,32.715,-10.254,0.000,0
33201.313,19.043,-3.418,-35.645,11.230,0.000,0
33201.317,-5.371,6.836,-115.723,-12.207,0.000,0
33201.321,-31.738,16.113,-34.180,-36.133,0.000,0
33201.325,-26.855,16.113,33.203,-36.133,0.000,0
33201.329,-12.695,20.508,-17.578,-8.301,0.000,0
33201.333,-16.602,26.367,-130.371,-3.418,0.000,0
33201.336,-12.207,34.668,-85.938,-21.484,0.000,0
33201.340,-12.695,43.457,32.227,-33.691,0.000,0
33201.344,-10.742,48.340,5.859,-20.996,0.000,0
33201.348,-11.230,48.828,-119.141,-4.883,0.000,0
33201.352,-22.949,52.734,-123.047,-22.949,0.000,0
33201.356,-33.203,51.270,6.836,-43.945,0.000,0
33201.360,-42.480,48.828,12.207,-43.945,0.000,0
33201.364,-27.832,61.035,-85.449,-11.230,0.000,0
33201.368,-19.531,66.406,-134.277,-2.930,0.000,0
33201.372,-28.320,63.477,-21.484,-37.598,0.000,0
33201.376,-33.691,67.383,29.297,-59.570,0.000,0
33201.379,-20.020,71.289,-34.668,-29.297,0.000,0
33201.383,-30.273,74.219,-125.000,-20.508,0.000,1
33201.387,-30.762,70.801,-56.641,-40.527,0.000,0
33201.391,-31.738,55.176,24.902,-47.852,0.000,0
33201.395,-31.250,52.734,-3.906,-29.785,0.000,0
33201.399,-33.203,56.152,-117.676,-24.414,0.000,0
33201.403,-23.438,49.805,-89.844,-21.973,0.000,0
33201.407,-25.391,45.410,26.855,-28.320,0.000,0
33201.411,-39.551,38.086,11.230,-46.387,0.000,0
33201.415,-38.574,30.273,-90.332,-36.133,0.000,0
33201.418,-41.016,30.273,-111.328,-25.879,0.000,0
33201.422,-25.391,26.367,9.766,-25.879,0.000,0
33201.426,-33.203,15.625,37.598,-41.016,0.000,0
33201.430,-39.062,5.859,-51.758,-40.039,0.000,0
33201.434,-35.156,9.766,-118.164,-33.203,0.000,0
33201.438,-24.902,8.789,-11.719,-30.273,0.000,0
33201.442,-43.457,-1.465,46.875,-49.805,0.000,0
33201.446,-38.086,-10.742,-22.949,-37.109,0.000,0
33201.450,-24.414,-11.719,-123.047,-17.578,0.000,0
33201.454,-26.855,-4.395,-40.039,-34.668,0.000,0
33201.458,-33.203,-7.812,58.594,-51.270,0.000,0
33201.461,-32.227,-19.531,11.230,-37.109,0.000,0
33201.465,-29.785,-16.113,-110.352,-14.160,0.000,0
33201.469,-27.832,-20.996,-68.359,-26.367,0.000,0
33201.473,-32.715,-28.809,50.781,-44.922,0.000,0
33201.477,-33.203,-21.973,29.785,-44.434,0.000,0
33201.481,-20.996,-20.996,-78.125,-31.738,0.000,0
33201.485,-19.531,-27.344,-109.863,-11.719,0.000,0
33201.489,-16.113,-36.621,23.926,-23.926,0.000,0
33201.493,-33.203,-41.016,57.129,-49.805,0.000,0
33201.497,-30.273,-38.574,-36.133,-16.113,0.000,0
33201.501,-24.902,-39.551,-109.863,5.859,0.000,0
33201.504,-24.414,-41.504,-8.301,-10.254,0.000,0
33201.508,-30.762,-45.410,56.152,-39.551,0.000,0
33201.512,-32.715,-46.875,0.977,-38.574,0.000,0
33201.516,-31.250,-44.434,-104.492,-21.484,0.000,0
33201.520,-26.855,-45.898,-56.152,-22.461,0.000,0
33201.524,-24.414,-49.805,35.156,-31.250,0.000,0
33201.528,-11.230,-53.711,15.625,-25.879,0.000,0
33201.532,-13.184,-51.270,-85.449,-30.762,0.000,0
33201.536,-23.438,-50.293,-92.285,-30.762,0.000,0
33201.540,-9.766,-52.246,20.020,-27.832,0.000,0
33201.543,-9.766,-50.781,31.250,-23.926,0.000,0
33201.547,-16.113,-48.828,-64.453,-3.418,0.000,0
33201.551,-15.137,-46.387,-101.074,-11.230,0.000,0
33201.555,-19.531,-48.828,17.090,-22.949,0.000,0
33201.559,-38.574,-57.617,46.875,-35.156,0.000,0
33201.563,-32.227,-50.293,-29.785,-11.719,0.000,0
33201.567,-27.344,-42.480,-102.051,19.531,0.000,0
33201.571,-24.902,-49.805,-18.066,-8.301,0.000,0
33201.575,-25.879,-48.828,45.898,-48.340,0.000,0
33201.579,-18.066,-45.898,8.301,-32.715,0.000,0
33201.583,-14.160,-46.387,-100.586,-20.508,0.000,0
33201.586,-11.719,-48.340,-63.477,-28.809,0.000,0
33201.590,-21.973,-49.316,52.246,-49.316,0.000,0
33201.594,-31.250,-46.875,25.391,-40.527,0.000,0
33201.598,-24.902,-45.898,-94.727,-11.719,0.000,0
33201.602,-25.879,-45.898,-102.539,-10.742,0.000,0
33201.606,-25.879,-52.734,25.879,-23.438,0.000,0
33201.610,-29.785,-55.664,37.598,-37.598,0.000,0
33201.614,-27.832,-54.199,-61.523,-18.555,0.000,0
33201.618,-27.832,-51.270,-120.117,-1.953,0.000,0
33201.622,-18.555,-52.734,1.953,-19.531,0.000,0
33201.626,-26.367,-53.711,49.316,-48.828,0.000,0
33201.629,-19.043,-50.293,-25.391,-38.086,0.000,0
33201.633,-18.555,-48.340,-111.328,-25.391,0.000,0
33201.637,-23.926,-46.387,-31.250,-32.715,0.000,0
33201.641,-29.785,-49.805,50.781,-43.457,0.000,0
33201.645,-18.066,-54.199,2.930,-21.484,0.000,0
33201.649,-21.973,-53.711,-105.469,-10.742,0.000,0
33201.653,-32.715,-51.270,-76.660,-26.367,0.000,0
33201.657,-33.691,-52.246,34.180,-38.574,0.000,0
33201.661,-33.203,-50.781,24.902,-30.273,0.000,0
33201.665,-21.973,-44.434,-88.379,0.488,0.000,0
33201.668,-22.461,-40.527,-93.262,-3.418,0.000,0
33201.672,-13.184,-39.551,35.156,-32.715,0.000,0
33201.676,-15.137,-36.133,39.062,-26.855,0.000,0
33201.680,-16.113,-40.527,-50.293,-2.930,0.000,0
33201.684,-25.879,-40.527,-113.770,-14.160,0.000,0
33201.688,-27.344,-40.039,-2.441,-27.832,0.000,0
33201.692,-34.668,-40.039,54.199,-47.363,0.000,0
33201.696,-26.855,-36.133,-13.184,-34.180,0.000,0
33201.700,-17.578,-34.668,-109.375,-11.719,0.000,0
33201.704,-18.066,-34.668,-39.551,-9.277,0.000,0
33201.708,-26.367,-39.062,47.852,-25.879,0.000,0
33201.711,-26.367,-41.992,12.207,-22.949,0.000,0
33201.715,-30.273,-39.062,-100.586,-11.230,0.000,0
33201.719,-30.273,-39.062,-91.309,-15.137,0.000,0
33201.723,-25.391,-41.016,33.203,-25.391,0.000,0
33201.727,-20.020,-41.016,38.574,-34.668,0.000,0
33201.731,-12.695,-34.180,-70.312,-17.578,0.000,0
33201.735,-19.531,-29.785,-106.934,-9.766,0.000,0
33201.739,-16.113,-30.273,23.438,-16.113,0.000,0
33201.743,-23.438,-27.832,55.176,-15.137,0.000,0
33201.747,-12.207,-30.762,-28.320,2.930,0.000,0
33201.751,-10.254,-33.203,-103.516,-11.719,0.000,0
33201.754,-11.230,-29.785,-6.836,-18.066,0.000,0
33201.758,-27.832,-33.691,62.500,-28.320,0.000,0
33201.762,-23.438,-32.715,-1.465,-23.926,0.000,0
33201.766,-21.484,-30.762,-108.887,-7.812,0.000,0
33201.770,-26.855,-37.109,-55.176,-22.949,0.000,0
33201.774,-23.926,-39.551,43.945,-43.945,0.000,0
33201.778,-19.531,-40.039,11.719,-20.996,0.000,0
33201.782,-20.508,-41.504,-106.445,-4.395,0.000,0
33201.786,-19.043,-36.621,-91.797,-18.555,0.000,0
33201.790,-21.484,-42.969,38.574,-36.133,0.000,0
33201.793,-32.715,-42.480,36.621,-40.039,0.000,0
33201.797,-21.484,-32.227,-62.988,-17.578,0.000,0
33201.801,-14.648,-32.227,-106.934,-12.695,0.000,0
33201.805,-19.043,-37.598,6.836,-23.926,0.000,0
33201.809,-30.762,-40.039,42.969,-31.738,0.000,0
33201.813,-14.648,-38.574,-34.180,-8.789,0.000,0
33201.817,-6.836,-35.645,-113.770,-2.930,0.000,0
33201.821,-15.137,-35.156,-24.902,-12.695,0.000,0
33201.825,-27.832,-43.457,50.781,-26.367,0.000,0
33201.829,-29.785,-46.387,5.859,-30.273,0.000,0
33201.833,-25.879,-37.109,-100.586,-23.926,0.000,0
33201.836,-12.207,-38.086,-64.941,-28.809,0.000,0
33201.840,-14.648,-35.645,39.551,-33.691,0.000,0
33201.844,-26.855,-31.738,22.461,-29.297,0.000,0
33201.848,-17.090,-31.738,-83.496,-19.531,0.000,0
33201.852,-7.324,-24.414,-92.773,-2.930,0.000,0
33201.856,-8.789,-26.367,27.344,-14.648,0.000,0
33201.860,-22.461,-31.738,42.969,-31.738,0.000,0
33201.864,-23.926,-30.762,-42.969,-14.160,0.000,0
33201.868,-16.113,-27.344,-98.145,-21.484,0.000,0
33201.872,-18.066,-29.785,4.395,-39.062,0.000,0
33201.876,-38.574,-38.574,54.688,-37.598,0.000,0
33201.879,-20.508,-33.691,-15.137,5.859,0.000,0
33201.883,-8.301,-24.414,-110.840,4.395,0.000,0
33201.887,-8.301,-28.809,-25.391,-22.461,0.000,0
33201.891,-20.996,-26.367,57.129,-26.367,0.000,0
33201.895,-23.438,-23.438,12.207,-20.020,0.000,0
33201.899,-19.043,-22.461,-102.539,-10.254,0.000,0
33201.903,-17.090,-22.461,-78.125,-8.789,0.000,0
33201.907,-22.949,-28.320,50.293,-34.180,0.000,0
33201.911,-23.926,-30.762,33.203,-37.598,0.000,0
33201.915,-12.207,-26.855,-82.520,-15.625,0.000,0
33201.918,-18.555,-20.508,-98.145,-13.184,0.000,0
33201.922,-15.625,-23.926,26.855,-25.879,0.000,0
33201.926,-16.113,-31.250,50.781,-43.457,0.000,0
33201.930,-21.973,-29.297,-43.457,-14.648,0.000,0
33201.934,-33.691,-27.832,-114.258,-5.371,0.000,0
33201.938,-20.508,-24.902,0.488,-23.438,0.000,0
33201.942,-14.648,-29.785,56.641,-29.785,0.000,0
33201.946,-10.254,-35.645,-11.230,-26.367,0.000,0
33201.950,-10.742,-28.320,-104.004,-28.809,0.000,0
33201.954,-14.160,-26.855,-34.668,-21.973,0.000,0
33201.958,-21.973,-29.297,50.781,-35.645,0.000,0
33201.961,-17.090,-31.250,12.695,-30.762,0.000,0
33201.965,-20.996,-39.062,-94.727,-25.879,0.000,0
33201.969,-32.227,-41.992,-81.055,-34.668,0.000,0
33201.973,-27.832,-41.504,32.715,-38.086,0.000,0
33201.977,-26.367,-37.598,34.180,-43.457,0.000,0
33201.981,-25.391,-32.227,-74.219,-6.836,0.000,0
33201.985,-37.598,-32.715,-117.188,-14.160,0.000,0
33201.989,-33.691,-29.297,5.371,-41.992,0.000,0
33201.993,-30.273,-25.879,38.574,-39.551,0.000,0
33201.997,-28.809,-25.879,-30.762,-16.602,0.000,0
33202.001,-26.855,-20.020,-101.074,-11.719,0.000,0
33202.004,-12.207,-22.949,-7.324,-17.090,0.000,0
33202.008,-23.438,-28.809,59.570,-35.645,0.000,0
33202.012,-2.930,-19.043,12.207,-14.160,0.000,0
33202.016,15.137,-20.508,-90.820,15.137,0.000,0
33202.020,-10.254,-21.484,-55.176,-5.371,0.000,0
33202.024,-37.598,-21.484,50.781,-42.969,0.000,0
33202.028,-41.016,-21.973,39.062,-35.645,0.000,0
33202.032,-30.273,-18.066,-72.754,-2.441,0.000,0
33202.036,-16.113,-12.695,-74.219,-6.836,0.000,0
33202.040,-17.578,-17.578,45.410,-26.855,0.000,0
33202.043,-30.762,-24.414,62.012,-25.391,0.000,0
33202.047,-20.996,-14.648,-37.598,-15.137,0.000,0
33202.051,-30.273,-6.836,-84.473,-31.738,0.000,0
33202.055,-24.902,-12.207,37.109,-31.738,0.000,0
33202.059,-19.043,-14.160,69.336,-20.020,0.000,0
33202.063,-12.207,-11.230,0.977,0.000,0.000,1
33202.067,-20.020,-7.324,-77.148,3.418,0.000,0
33202.071,-18.555,-10.742,2.930,-1.953,0.000,0
33202.075,-15.137,-16.602,72.754,-4.883,0.000,0
33202.079,-11.719,-14.160,21.484,4.395,0.000,0
33202.083,-16.113,-16.113,-79.102,0.488,0.000,0
33202.086,-11.719,-19.043,-37.598,-9.766,0.000,0
33202.090,-14.160,-25.391,54.688,-16.113,0.000,0
33202.094,-22.949,-26.855,29.297,-14.160,0.000,0
33202.098,-19.043,-21.484,-73.730,1.953,0.000,0
33202.102,-18.066,-25.391,-84.961,-5.859,0.000,0
33202.106,-18.555,-26.367,30.273,-30.762,0.000,0
33202.110,-23.926,-21.973,41.992,-28.320,0.000,0
33202.114,-20.020,-23.926,-46.875,-0.977,0.000,0
33202.118,-11.230,-21.484,-95.703,9.277,0.000,0
33202.122,-5.371,-18.555,19.043,3.906,0.000,0
33202.126,-14.160,-31.250,63.477,-35.156,0.000,0
33202.129,-13.184,-34.180,-7.324,-28.809,0.000,0
33202.133,-14.648,-27.832,-105.469,2.441,0.000,0
33202.137,-11.719,-25.879,-36.621,7.812,0.000,0
33202.141,-17.090,-25.879,52.734,-23.926,0.000,0
33202.145,-8.789,-22.949,19.043,-26.855,0.000,0
33202.149,-18.066,-26.855,-96.191,-9.766,0.000,0
33202.153,-18.555,-27.344,-75.195,-20.508,0.000,0
33202.157,-6.836,-21.484,39.062,-12.207,0.000,0
33202.161,-16.602,-25.391,33.691,0.977,0.000,0
33202.165,-27.832,-28.809,-71.289,-15.137,0.000,0
33202.168,-33.691,-26.367,-104.004,-21.973,0.000,0
33202.172,-28.809,-27.344,14.648,-25.391,0.000,0
33202.176,-41.016,-29.785,40.039,-41.016,0.000,0
33202.180,-36.133,-32.715,-50.293,-20.996,0.000,0
33202.184,-23.926,-32.227,-114.258,-17.090,0.000,0
33202.188,-22.461,-29.785,-5.371,-10.254,0.000,0
33202.192,-32.227,-32.227,51.270,-19.043,0.000,0
33202.196,-23.438,-32.227,-12.207,-15.137,0.000,0
33202.200,-21.484,-33.203,-112.305,-5.859,0.000,0
33202.204,-14.160,-39.551,-44.434,-26.367,0.000,0
33202.208,-16.602,-37.109,44.922,-29.297,0.000,0
33202.211,-20.508,-32.715,-0.977,-19.531,0.000,0
33202.215,-17.578,-31.738,-115.723,-6.836,0.000,0
33202.219,-26.367,-28.320,-90.332,-10.742,0.000,0
33202.223,-39.062,-34.180,38.574,-44.922,0.000,0
33202.227,-37.598,-36.621,27.832,-50.293,0.000,0
33202.231,-26.367,-31.250,-89.844,-16.113,0.000,0
33202.235,-15.625,-27.344,-58.105,-16.602,0.000,0
33202.239,-18.555,-26.367,59.570,-41.992,0.000,0
33202.243,-32.715,-28.809,17.578,-26.855,0.000,0
33202.247,-27.344,-26.367,-100.098,-12.695,0.000,0
33202.251,-18.555,-28.320,-87.891,-32.227,0.000,0
33202.254,-25.391,-35.156,34.180,-45.410,0.000,0
33202.258,-32.227,-30.762,37.598,-44.922,0.000,0
33202.262,-10.742,-26.367,-59.082,-19.531,0.000,0
33202.266,-12.207,-21.973,-109.863,-9.277,0.000,0
33202.270,-17.578,-23.438,-6.348,-17.578,0.000,0
33202.274,-17.090,-35.156,26.367,-26.855,0.000,0
33202.278,-16.602,-36.133,-46.875,-8.301,0.000,0
33202.282,-31.250,-31.738,-117.188,-0.977,0.000,0
33202.286,-19.531,-29.297,-17.090,-18.555,0.000,0
33202.290,-10.254,-27.832,53.711,-36.133,0.000,0
33202.293,-16.113,-29.785,-7.812,-22.461,0.000,0
33202.297,-21.973,-25.391,-106.934,-10.742,0.000,0
33202.301,-16.602,-27.344,-48.828,-29.297,0.000,0
33202.305,-13.672,-24.414,53.223,-42.480,0.000,0
33202.309,-26.855,-25.391,23.926,-32.227,0.000,0
33202.313,-35.645,-26.367,-84.961,-17.578,0.000,0
33202.317,-20.020,-26.367,-93.750,-21.973,0.000,0
33202.321,-18.066,-34.180,25.879,-41.016,0.000,0
33202.325,-32.227,-35.156,43.457,-45.898,0.000,0
33202.329,-20.996,-33.203,-52.246,-22.949,0.000,0
33202.333,-17.578,-24.414,-121.582,-13.672,0.000,0
33202.336,-19.531,-23.926,-7.324,-25.391,0.000,0
33202.340,-30.273,-25.391,49.316,-47.363,0.000,0
33202.344,-23.438,-23.926,-28.809,-27.832,0.000,0
33202.348,-24.902,-25.391,-131.348,-7.324,0.000,0
33202.352,-18.066,-25.879,-40.039,-22.461,0.000,0
33202.356,-25.391,-29.297,52.734,-45.898,0.000,0
33202.360,-29.785,-22.949,4.883,-32.715,0.000,0
33202.364,-24.414,-20.020,-107.910,-15.625,0.000,0
33202.368,-23.926,-26.855,-75.195,-25.391,0.000,0
33202.372,-25.879,-27.832,36.133,-43.457,0.000,0
33202.376,-25.879,-25.391,22.949,-28.320,0.000,0
33202.379,-16.113,-27.832,-77.637,-15.137,0.000,0
33202.383,-22.461,-27.832,-103.516,-35.156,0.000,0
33202.387,-25.391,-21.973,20.020,-36.133,0.000,0
33202.391,-23.438,-25.391,41.504,-31.738,0.000,0
33202.395,-19.043,-28.809,-62.012,-22.949,0.000,0
33202.399,-22.461,-21.973,-124.512,-24.414,0.000,0
33202.403,-18.066,-22.949,-9.277,-31.738,0.000,0
33202.407,-30.762,-31.738,45.898,-36.621,0.000,0
33202.411,-28.809,-25.879,-23.926,-17.090,0.000,0
33202.415,-26.855,-18.066,-118.652,-10.254,0.000,0
33202.418,-26.367,-23.438,-40.039,-21.484,0.000,0
33202.422,-39.551,-26.367,42.969,-27.832,0.000,0
33202.426,-40.039,-26.367,-5.859,-20.020,0.000,0
33202.430,-25.879,-20.996,-103.027,-6.836,0.000,0
33202.434,-17.090,-18.555,-71.777,-10.254,0.000,0
33202.438,-18.555,-20.508,46.387,-34.180,0.000,0
33202.442,-21.973,-23.438,41.504,-31.738,0.000,0
33202.446,-23.926,-20.508,-62.012,-18.555,0.000,0
33202.450,-27.344,-16.113,-97.656,-25.879,0.000,0
33202.454,-31.738,-23.926,15.137,-38.574,0.000,0
33202.458,-55.176,-30.762,48.340,-53.711,0.000,0
33202.461,-39.551,-29.297,-33.203,-35.645,0.000,0
33202.465,-21.973,-27.832,-119.141,-24.414,0.000,0
33202.469,-18.066,-31.250,-19.531,-29.785,0.000,0
33202.473,-37.598,-31.738,48.828,-36.621,0.000,0
33202.477,-33.691,-28.320,-2.441,-28.320,0.000,0
33202.481,-22.949,-24.902,-101.562,-6.836,0.000,0
33202.485,-22.461,-20.508,-53.223,-14.648,0.000,0
33202.489,-21.484,-20.020,53.223,-36.133,0.000,0
33202.493,-17.090,-25.391,22.949,-32.715,0.000,0
33202.497,-19.043,-28.320,-89.844,-34.180,0.000,0
33202.501,-20.508,-26.855,-79.102,-37.109,0.000,0
33202.504,-16.602,-26.367,34.668,-39.551,0.000,0
33202.508,-21.973,-27.344,37.598,-40.527,0.000,0
33202.512,-17.090,-25.391,-64.453,-17.578,0.000,0
33202.516,-14.648,-27.344,-103.516,-17.578,0.000,0
33202.520,-14.160,-27.344,25.879,-26.855,0.000,0
33202.524,-29.785,-22.949,61.523,-35.156,0.000,0
33202.528,-22.949,-22.461,-25.879,-22.949,0.000,0
33202.532,-20.020,-22.949,-114.746,-8.301,0.000,0
33202.536,-20.020,-21.484,-14.648,-26.855,0.000,0
33202.540,-21.484,-22.949,60.547,-40.039,0.000,0
33202.543,-19.043,-23.926,-5.859,-18.066,0.000,0
33202.547,-30.273,-23.926,-109.375,-9.277,0.000,0
33202.551,-31.250,-26.855,-62.988,-20.020,0.000,0
33202.555,-23.438,-31.250,45.410,-43.457,0.000,0
33202.559,-23.926,-33.203,24.414,-40.527,0.000,0
33202.563,-26.855,-26.855,-82.520,-11.719,0.000,0
33202.567,-28.809,-22.949,-83.008,-18.066,0.000,0
33202.571,-24.902,-24.902,25.879,-34.668,0.000,0
33202.575,-27.344,-31.250,30.762,-38.574,0.000,0
33202.579,-36.133,-38.574,-58.594,-33.203,0.000,0
33202.583,-49.805,-35.156,-119.629,-38.574,0.000,0
33202.586,-39.062,-37.109,-11.230,-37.598,0.000,0
33202.590,-38.086,-36.621,47.363,-40.527,0.000,0
33202.594,-35.645,-28.320,-50.781,-27.832,0.000,1
33202.598,-29.785,-23.926,-99.121,-28.320,0.000,0
33202.602,-31.738,-26.367,8.301,-53.711,0.000,0
33202.606,-33.691,-27.832,31.250,-39.062,0.000,0
33202.610,-32.227,-23.438,-53.711,-1.953,0.000,0
33202.614,-22.949,-23.438,-109.863,-15.137,0.000,0
33202.618,-11.719,-23.438,5.859,-38.086,0.000,0
33202.622,-27.344,-21.484,59.082,-40.527,0.000,0
33202.626,-20.996,-25.879,-16.602,-21.484,0.000,0
33202.629,-14.648,-17.578,-118.652,-14.648,0.000,0
33202.633,-29.297,-16.113,-40.527,-22.461,0.000,0
33202.637,-41.016,-20.508,52.246,-41.992,0.000,0
33202.641,-33.203,-20.996,8.789,-30.762,0.000,0
33202.645,-28.320,-20.508,-109.375,-14.160,0.000,0
33202.649,-19.043,-21.484,-84.473,-13.184,0.000,0
33202.653,-32.227,-25.391,43.945,-29.297,0.000,0
33202.657,-42.480,-25.879,28.809,-25.391,0.000,0
33202.661,-16.113,-19.531,-85.938,7.812,0.000,0
33202.665,-39.551,-13.672,-104.980,-26.367,0.000,0
33202.668,-63.477,-20.020,15.137,-61.035,0.000,0
33202.672,-51.758,-27.344,32.715,-48.340,0.000,0
33202.676,-33.691,-29.297,-58.594,-26.855,0.000,0
33202.680,-39.551,-22.949,-125.000,-29.297,0.000,0
33202.684,-32.715,-21.484,-17.578,-29.297,0.000,0
33202.688,-45.410,-27.832,32.227,-40.527,0.000,0
33202.692,-48.340,-30.273,-36.133,-45.410,0.000,0
33202.696,-46.387,-27.832,-132.812,-38.574,0.000,0
33202.700,-41.016,-31.250,-66.406,-19.531,0.000,0
33202.704,-33.203,-34.180,27.832,-36.133,0.000,0
33202.708,-25.391,-32.227,-7.812,-45.898,0.000,0
33202.711,-23.438,-27.344,-115.723,-30.273,0.000,0
33202.715,-27.344,-27.344,-103.516,-41.016,0.000,0
33202.719,-29.785,-34.668,9.277,-47.363,0.000,0
33202.723,-28.320,-34.180,10.254,-35.156,0.000,0
33202.727,-12.207,-27.344,-80.078,-14.648,0.000,0
33202.731,-23.926,-25.879,-115.234,-20.996,0.000,0
33202.735,-26.855,-28.809,1.953,-38.086,0.000,0
33202.739,-21.484,-28.809,35.156,-41.504,0.000,0
33202.743,-24.902,-26.367,-41.504,-32.715,0.000,0
33202.747,-30.273,-18.066,-120.117,-27.832,0.000,0
33202.751,-17.090,-21.484,-30.762,-21.973,0.000,0
33202.754,-28.809,-30.762,43.945,-45.410,0.000,0
33202.758,-30.273,-28.320,-3.906,-39.062,0.000,0
33202.762,-36.133,-28.809,-116.699,-19.531,0.000,0
33202.766,-37.109,-32.227,-75.195,-24.414,0.000,0
33202.770,-37.598,-34.668,35.156,-36.133,0.000,0
33202.774,-40.039,-36.621,19.043,-28.320,0.000,0
33202.778,-35.156,-28.320,-104.492,-16.113,0.000,0
33202.782,-30.273,-25.391,-107.422,-32.227,0.000,0
33202.786,-26.855,-27.832,20.996,-41.504,0.000,0
33202.790,-31.738,-32.715,36.133,-34.668,0.000,0
33202.793,-20.508,-34.180,-52.246,-28.320,0.000,0
33202.797,-28.809,-27.344,-115.234,-20.996,0.000,0
33202.801,-20.996,-26.855,-2.930,-20.020,0.000,0
33202.805,-18.066,-32.227,46.875,-33.203,0.000,0
33202.809,-32.715,-35.645,-36.621,-25.391,0.000,0
33202.813,-25.391,-33.691,-120.117,-22.461,0.000,0
33202.817,-15.625,-32.227,-37.598,-36.133,0.000,0
33202.821,-31.738,-34.668,40.527,-48.828,0.000,0
33202.825,-22.461,-36.621,-1.465,-23.926,0.000,0
33202.829,-21.484,-34.668,-112.305,1.465,0.000,0
33202.833,-22.461,-33.203,-68.848,-10.742,0.000,0
33202.836,-25.391,-30.762,45.898,-34.668,0.000,0
33202.840,-25.391,-33.691,17.578,-29.785,0.000,0
33202.844,-12.695,-31.250,-94.238,-9.766,0.000,0
33202.848,-4.883,-24.902,-100.586,-20.508,0.000,0
33202.852,-10.254,-32.227,23.926,-42.969,0.000,0
33202.856,-25.879,-34.180,34.668,-40.527,0.000,0
33202.860,-14.648,-27.344,-55.176,-17.578,0.000,0
33202.864,-10.742,-25.391,-114.258,-3.906,0.000,0
33202.868,-21.484,-26.367,-8.301,-18.555,0.000,0
33202.872,-32.227,-23.926,54.199,-45.410,0.000,0
33202.876,-19.043,-22.949,-13.184,-18.066,0.000,0
33202.879,-17.578,-20.508,-110.840,-5.859,0.000,0
33202.883,-12.695,-18.066,-38.086,-21.973,0.000,0
33202.887,-20.508,-26.367,48.828,-34.668,0.000,0
33202.891,-22.461,-35.645,13.672,-46.875,0.000,0
33202.895,-21.484,-25.391,-96.191,-39.551,0.000,0
33202.899,-18.555,-18.555,-75.195,-26.367,0.000,0
33202.903,-15.625,-25.879,25.879,-27.344,0.000,0
33202.907,-27.832,-28.320,25.879,-27.832,0.000,0
33202.911,-30.273,-26.855,-68.848,-12.207,0.000,0
33202.915,-21.484,-26.367,-110.352,-12.695,0.000,0
33202.918,-19.043,-24.414,14.160,-35.156,0.000,0
33202.922,-40.527,-25.879,43.945,-44.922,0.000,0
33202.926,-32.715,-23.438,-45.898,-17.090,0.000,0
33202.930,-27.832,-18.555,-117.188,-32.227,0.000,0
33202.934,-27.832,-19.531,-12.695,-49.805,0.000,0
33202.938,-36.133,-25.879,56.152,-42.480,0.000,0
33202.942,-28.809,-24.414,-4.395,-24.902,0.000,0
33202.946,-24.414,-22.949,-110.840,-11.230,0.000,0
33202.950,-26.367,-26.855,-49.316,-20.020,0.000,0
33202.954,-29.785,-22.461,47.852,-40.039,0.000,0
33202.958,-23.438,-21.484,7.812,-30.273,0.000,0
33202.961,-16.602,-26.855,-109.863,-18.066,0.000,0
33202.965,-19.043,-25.391,-95.215,-16.602,0.000,0
33202.969,-26.367,-22.461,32.715,-21.484,0.000,0
33202.973,-30.273,-19.043,37.598,-29.297,0.000,0
33202.977,-24.902,-21.973,-74.219,-22.461,0.000,0
33202.981,-29.785,-21.973,-112.793,-23.926,0.000,0
33202.985,-28.320,-20.508,19.043,-29.785,0.000,0
33202.989,-23.438,-26.855,52.246,-34.180,0.000,0
33202.993,-16.113,-25.879,-30.762,-16.602,0.000,0
33202.997,-24.902,-21.973,-114.746,-29.785,0.000,0
33203.001,-19.043,-19.531,-12.695,-35.645,0.000,0
33203.004,-18.066,-25.391,47.852,-22.949,0.000,0
33203.008,-20.996,-32.227,-17.090,-24.902,0.000,0
33203.012,-24.902,-28.320,-115.723,-24.902,0.000,0
33203.016,-15.625,-28.320,-65.430,-25.879,0.000,0
33203.020,-24.414,-31.738,41.016,-49.316,0.000,0
33203.024,-33.691,-30.273,8.301,-31.738,0.000,0
33203.028,-25.391,-22.461,-98.145,-4.395,0.000,0
33203.032,-28.320,-19.531,-89.844,-16.602,0.000,0
33203.036,-23.926,-24.414,27.832,-28.320,0.000,0
33203.040,-34.668,-25.391,34.668,-35.156,0.000,0
33203.043,-25.391,-21.484,-62.012,-15.137,0.000,0
33203.047,-6.348,-17.090,-105.957,-3.418,0.000,0
33203.051,0.000,-19.043,11.719,-23.438,0.000,0
33203.055,-19.043,-25.879,53.711,-44.922,0.000,0
33203.059,-20.020,-26.855,-17.090,-29.297,0.000,0
33203.063,-24.414,-23.926,-115.723,-20.020,0.000,0
33203.067,-20.996,-21.484,-39.551,-25.879,0.000,0
33203.071,-19.043,-25.879,43.945,-37.598,0.000,0
33203.075,-7.812,-23.926,0.977,-20.020,0.000,0
33203.079,-11.230,-20.508,-113.770,-2.441,0.000,0
33203.083,-31.738,-18.066,-82.031,-21.973,0.000,0
33203.086,-38.574,-23.438,37.109,-41.992,0.000,0
33203.090,-39.062,-29.785,27.832,-38.086,0.000,0
33203.094,-38.574,-26.855,-94.238,-9.766,0.000,0
33203.098,-35.645,-28.320,-111.816,-21.484,0.000,0
33203.102,-28.320,-25.879,26.855,-48.828,0.000,0
33203.106,-29.785,-20.020,39.062,-42.969,0.000,0
33203.110,-25.879,-27.832,-64.453,-34.668,0.000,0
33203.114,-24.902,-27.832,-117.676,-38.086,0.000,0
33203.118,-19.043,-25.879,-0.488,-32.715,0.000,0
33203.122,-26.367,-25.879,46.387,-39.551,0.000,0
33203.126,-14.648,-24.414,-22.461,-25.391,0.000,0
33203.129,-19.531,-26.367,-111.328,-12.695,0.000,0
33203.133,-30.273,-21.484,-43.945,-26.367,0.000,0
33203.137,-30.273,-21.973,43.945,-46.387,0.000,0
33203.141,-37.109,-21.973,6.348,-34.668,0.000,1
33203.145,-40.039,-20.508,-104.492,-23.926,0.000,0
33203.149,-29.297,-18.555,-74.219,-35.156,0.000,0
33203.153,-23.926,-18.555,36.621,-40.527,0.000,0
33203.157,-30.273,-21.484,22.461,-32.715,0.000,0
33203.161,-27.832,-15.137,-78.125,-17.090,0.000,0
33203.165,-32.227,-16.113,-94.727,-22.949,0.000,0
33203.168,-20.996,-23.926,25.879,-42.969,0.000,0
33203.172,-15.137,-20.996,46.875,-40.527,0.000,0
33203.176,-13.672,-17.578,-37.109,-27.344,0.000,0
33203.180,-9.277,-19.043,-115.234,-18.066,0.000,0
33203.184,4.883,-23.438,-16.602,-23.438,0.000,0
33203.188,-16.113,-22.461,58.594,-42.969,0.000,0
33203.192,-23.926,-23.926,-7.812,-21.973,0.000,0
33203.196,-10.254,-24.902,-121.094,-12.695,0.000,0
33203.200,-18.066,-21.973,-60.547,-14.648,0.000,0
33203.204,-36.621,-23.438,40.527,-21.484,0.000,0
33203.208,-33.203,-26.855,21.973,-26.855,0.000,0
33203.211,-26.367,-28.809,-97.656,-18.066,0.000,0
33203.215,-22.461,-23.438,-98.633,-18.555,0.000,0
33203.219,-24.414,-19.531,29.785,-26.855,0.000,0
33203.223,-26.855,-20.508,37.598,-26.367,0.000,0
33203.227,-14.160,-21.484,-59.082,-9.766,0.000,0
33203.231,-15.625,-18.555,-108.398,-11.230,0.000,0
33203.235,-12.207,-21.973,7.812,-20.996,0.000,0
33203.239,-19.043,-30.273,46.387,-35.645,0.000,0
33203.243,-12.207,-29.297,-37.109,-24.414,0.000,0
33203.247,-11.719,-24.414,-113.281,-13.672,0.000,0
33203.251,-13.672,-27.344,-17.090,-24.902,0.000,0
33203.254,-29.785,-27.832,54.688,-42.480,0.000,0
33203.258,-26.855,-26.367,-5.371,-19.531,0.000,0
33203.262,-12.695,-22.461,-118.652,-9.277,0.000,0
33203.266,-10.254,-21.484,-61.035,-23.926,0.000,0
33203.270,-22.949,-25.879,44.922,-28.320,0.000,0
33203.274,-16.113,-29.297,16.602,-20.996,0.000,0
33203.278,-11.230,-31.250,-97.168,-15.137,0.000,0
33203.282,-17.090,-31.250,-102.539,-21.973,0.000,0
33203.286,-10.254,-24.902,30.762,-33.691,0.000,0
33203.290,-18.555,-20.020,44.434,-36.621,0.000,0
33203.293,-20.508,-20.508,-56.641,-14.648,0.000,0
33203.297,-23.438,-17.578,-110.840,-6.348,0.000,0
33203.301,-12.207,-19.043,7.812,-11.719,0.000,0
33203.305,-4.395,-21.484,56.641,-28.320,0.000,0
33203.309,-1.465,-20.996,-13.672,-22.461,0.000,0
33203.313,-15.625,-19.531,-103.516,-22.949,0.000,0
33203.317,-15.137,-19.043,-26.855,-26.855,0.000,0
33203.321,-13.672,-21.484,50.293,-27.832,0.000,0
33203.325,-9.766,-26.855,4.395,-25.391,0.000,0
33203.329,-6.836,-26.367,-100.098,-4.395,0.000,0
33203.333,-4.883,-19.531,-65.918,-1.465,0.000,0
33203.336,-10.742,-26.367,40.527,-33.203,0.000,0
33203.340,-14.648,-36.133,18.555,-39.062,0.000,0
33203.344,-12.207,-26.855,-79.102,-20.996,0.000,0
33203.348,-19.043,-19.531,-90.332,-25.391,0.000,0
33203.352,-14.160,-23.438,24.414,-42.480,0.000,0
33203.356,-23.438,-25.879,46.387,-45.898,0.000,0
33203.360,-13.184,-25.391,-40.527,-16.602,0.000,0
33203.364,-3.418,-21.484,-103.516,-19.531,0.000,0
33203.368,-21.973,-20.020,4.395,-23.438,0.000,0
33203.372,-41.504,-28.320,51.758,-25.879,0.000,0
33203.376,-29.785,-31.738,-15.625,-14.160,0.000,0
33203.379,-23.926,-25.391,-114.746,0.977,0.000,0
33203.383,-19.043,-25.879,-42.969,-17.578,0.000,0
33203.387,-21.484,-26.855,57.617,-36.621,0.000,0
33203.391,-22.461,-24.902,20.508,-28.809,0.000,0
33203.395,-15.625,-25.391,-100.098,-14.160,0.000,0
33203.399,-11.719,-29.297,-83.008,-14.160,0.000,0
33203.403,-25.391,-30.762,42.969,-34.668,0.000,0
33203.407,-30.273,-32.715,38.086,-36.621,0.000,0
33203.411,-14.160,-32.227,-80.566,-4.883,0.000,0
33203.415,-12.207,-29.297,-107.422,-10.742,0.000,0
33203.418,-10.254,-25.879,12.207,-17.090,0.000,0
33203.422,-25.879,-23.438,43.457,-20.508,0.000,0
33203.426,-19.043,-22.949,-33.691,-13.672,0.000,0
33203.430,-15.137,-19.531,-113.281,-7.324,0.000,0
33203.434,-16.602,-18.555,-10.254,-9.277,0.000,0
33203.438,-29.785,-22.461,51.758,-19.043,0.000,0
33203.442,-25.879,-24.902,-12.695,-14.648,0.000,0
33203.446,-20.020,-22.949,-114.258,-12.207,0.000,0
33203.450,-23.438,-20.020,-48.340,-24.902,0.000,0
33203.454,-29.297,-21.484,50.293,-49.805,0.000,0
33203.458,-26.367,-25.879,16.113,-31.250,0.000,0
33203.461,-20.508,-21.484,-90.820,2.441,0.000,0
33203.465,-20.508,-15.625,-82.031,-17.090,0.000,0
33203.469,-19.531,-20.996,23.926,-42.969,0.000,0
33203.473,-31.738,-25.879,28.320,-43.945,0.000,0
33203.477,-25.391,-21.484,-67.383,-24.414,0.000,0
33203.481,-11.230,-19.531,-107.910,-20.020,0.000,0
33203.485,-18.555,-27.344,12.695,-36.621,0.000,0
33203.489,-36.621,-23.926,43.945,-40.527,0.000,0
33203.493,-28.809,-19.043,-26.367,-19.531,0.000,0
33203.497,-25.391,-19.043,-115.234,-14.648,0.000,0
33203.501,-22.949,-21.973,-32.715,-29.297,0.000,0
33203.504,-28.320,-29.785,51.270,-51.758,0.000,0
33203.508,-21.973,-31.738,6.348,-23.438,0.000,0
33203.512,-19.043,-28.809,-104.004,-16.602,0.000,0
33203.516,-18.555,-28.809,-61.035,-25.391,0.000,0
33203.520,-29.785,-33.691,39.551,-25.879,0.000,0
33203.524,-28.320,-31.738,18.555,-41.504,0.000,0
33203.528,-25.879,-28.809,-99.121,-36.621,0.000,0
33203.532,-30.762,-28.320,-104.492,-35.156,0.000,0
33203.536,-24.414,-26.855,23.926,-36.621,0.000,0
33203.540,-29.297,-24.902,41.016,-33.691,0.000,0
33203.543,-16.113,-21.973,-55.664,-21.484,0.000,0
33203.547,-14.160,-16.602,-111.816,-15.625,0.000,0
33203.551,-4.395,-16.602,3.906,-23.438,0.000,0
33203.555,-9.766,-20.996,53.223,-27.344,0.000,0
33203.559,-26.367,-27.832,-20.020,-11.719,0.000,0
33203.563,-33.203,-29.297,-113.281,-23.926,0.000,0
33203.567,-27.832,-23.926,-28.320,-34.668,0.000,0
33203.571,-30.273,-27.832,57.617,-37.598,0.000,0
33203.575,-30.273,-29.297,9.766,-19.531,0.000,0
33203.579,-35.156,-24.902,-107.422,-5.371,0.000,0
33203.583,-35.156,-24.902,-74.219,-20.020,0.000,0
33203.586,-30.273,-23.926,41.504,-26.367,0.000,0
33203.590,-31.250,-20.508,20.020,-29.297,0.000,0
33203.594,-25.879,-23.926,-83.496,-20.508,0.000,0
33203.598,-16.113,-21.484,-90.820,-10.254,0.000,0
33203.602,-22.949,-21.484,35.156,-35.156,0.000,0
33203.606,-42.480,-27.344,47.363,-50.781,0.000,0
33203.610,-35.156,-25.879,-49.316,-24.902,0.000,0
33203.614,-37.109,-22.461,-117.676,-21.973,0.000,0
33203.618,-32.715,-31.250,-13.672,-40.039,0.000,0
33203.622,-44.922,-32.227,40.527,-53.711,0.000,0
33203.626,-45.898,-27.832,-25.391,-45.410,0.000,0
33203.629,-45.898,-31.738,-119.141,-34.180,0.000,0
33203.633,-45.410,-33.203,-50.781,-37.109,0.000,0
33203.637,-47.363,-31.738,39.062,-42.969,0.000,0
33203.641,-47.363,-38.574,2.441,-31.738,0.000,0
33203.645,-41.992,-41.504,-107.910,-27.832,0.000,0
33203.649,-40.527,-32.227,-91.797,-34.668,0.000,0
33203.653,-33.691,-28.320,28.809,-44.434,0.000,0
33203.657,-34.180,-27.832,35.156,-44.434,0.000,0
33203.661,-32.715,-21.973,-63.477,-23.438,0.000,0
33203.665,-24.414,-17.578,-99.121,-19.043,0.000,0
33203.668,-23.926,-21.973,17.090,-28.809,0.000,0
33203.672,-46.875,-31.738,41.504,-44.922,0.000,0
33203.676,-41.016,-32.715,-43.457,-15.137,0.000,0
33203.680,-27.832,-24.414,-116.211,-9.766,0.000,0
33203.684,-27.344,-25.391,-15.137,-36.621,0.000,0
33203.688,-33.691,-34.180,46.875,-38.086,0.000,0
33203.692,-20.508,-38.086,-12.695,-12.207,0.000,0
33203.696,-20.020,-29.297,-111.328,-9.766,0.000,0
33203.700,-23.926,-22.461,-49.805,-28.320,0.000,0
33203.704,-31.738,-27.344,50.781,-41.016,0.000,1
33203.708,-24.902,-33.691,15.137,-29.785,0.000,0
33203.711,-11.719,-32.227,-96.680,-12.695,0.000,0
33203.715,-20.020,-33.203,-90.820,-23.438,0.000,0
33203.719,-26.367,-29.297,32.227,-37.109,0.000,0
33203.723,-27.832,-27.832,32.715,-32.715,0.000,0
33203.727,-24.414,-28.320,-69.824,-4.883,0.000,0
33203.731,-25.879,-26.367,-107.910,-17.578,0.000,0
33203.735,-20.020,-24.902,17.090,-28.320,0.000,0
33203.739,-25.391,-24.414,52.246,-34.180,0.000,0
33203.743,-21.973,-26.855,-29.297,-28.320,0.000,0
33203.747,-12.695,-24.902,-110.840,-20.020,0.000,0
33203.751,3.418,-24.902,-21.973,-18.066,0.000,0
33203.754,-8.301,-33.203,47.363,-22.461,0.000,0
33203.758,-24.414,-31.738,6.836,-16.113,0.000,0
33203.762,-30.762,-19.043,-94.238,-10.742,0.000,0
33203.766,-11.719,-14.648,-57.617,0.977,0.000,0
33203.770,7.324,-17.090,44.922,-6.836,0.000,0
33203.774,-17.578,-13.184,17.090,-21.973,0.000,0
33203.778,-34.668,-10.254,-87.402,-7.812,0.000,0
33203.782,-20.508,-8.301,-79.590,-9.277,0.000,0
33203.786,-9.277,-10.254,35.645,-15.625,0.000,0
33203.790,-25.391,-12.207,35.156,-29.297,0.000,0
33203.793,-23.926,-9.766,-58.105,-27.832,0.000,0
33203.797,-20.508,-7.812,-109.863,-25.879,0.000,0
33203.801,-23.438,-9.277,9.766,-43.945,0.000,0
33203.805,-22.949,-11.719,60.547,-49.316,0.000,0
33203.809,-9.766,-12.695,-17.090,-16.602,0.000,0
33203.813,-15.625,-9.277,-112.793,8.301,0.000,0
33203.817,-8.301,-10.254,-34.180,-1.953,0.000,0
33203.821,-12.207,-17.090,53.223,-37.109,0.000,0
33203.825,-14.648,-17.090,16.113,-19.043,0.000,0
33203.829,0.000,-14.648,-103.027,2.930,0.000,0
33203.833,-19.531,-17.090,-67.871,-15.625,0.000,0
33203.836,-33.203,-23.926,47.852,-31.250,0.000,0
33203.840,-23.926,-30.273,29.785,-42.480,0.000,0
33203.844,-21.484,-22.461,-87.402,-27.344,0.000,0
33203.848,-20.020,-15.625,-114.746,-20.508,0.000,0
33203.852,-15.137,-20.020,15.137,-20.508,0.000,0
33203.856,-20.508,-23.438,42.480,-16.602,0.000,0
33203.860,-19.531,-22.949,-42.969,-8.301,0.000,0
33203.864,-23.438,-18.066,-112.305,-3.418,0.000,0
33203.868,-9.766,-13.184,-3.418,-7.324,0.000,0
33203.872,-15.625,-14.648,53.223,-16.113,0.000,0
33203.876,-18.555,-17.090,-16.113,7.812,0.000,0
33203.879,-15.625,-15.137,-103.027,9.766,0.000,0
33203.883,-21.484,-21.484,-39.551,-25.391,0.000,0
33203.887,-30.273,-26.855,48.340,-46.387,0.000,0
33203.891,-17.090,-19.531,17.090,-22.461,0.000,0
33203.895,-4.883,-18.066,-93.262,-6.836,0.000,0
33203.899,-17.578,-19.043,-69.824,-27.832,0.000,0
33203.903,-18.555,-16.602,39.551,-30.273,0.000,0
33203.907,-13.672,-18.555,20.996,-19.043,0.000,0
33203.911,-9.766,-23.926,-85.449,2.441,0.000,0
33203.915,-8.301,-21.973,-104.492,1.953,0.000,0
33203.918,-0.488,-20.508,25.391,-18.555,0.000,0
33203.922,-1.953,-23.438,51.758,-26.855,0.000,0
33203.926,-2.930,-24.414,-34.180,-10.742,0.000,0
33203.930,-23.926,-24.414,-117.676,-13.184,0.000,0
33203.934,-31.738,-23.926,-14.648,-23.926,0.000,0
33203.938,-36.621,-25.391,59.570,-36.133,0.000,0
33203.942,-27.344,-28.320,-8.301,-37.109,0.000,0
33203.946,-21.973,-25.879,-111.816,-32.715,0.000,0
33203.950,-11.719,-25.879,-48.828,-36.133,0.000,0
33203.954,-24.902,-25.879,48.828,-39.551,0.000,0
33203.958,-27.832,-22.461,27.344,-36.621,0.000,0
33203.961,-19.531,-21.973,-87.891,-22.949,0.000,0
33203.965,-16.602,-19.531,-99.121,-17.090,0.000,0
33203.969,-11.719,-17.090,27.344,-24.414,0.000,0
33203.973,-17.578,-18.555,41.504,-24.902,0.000,0
33203.977,-5.371,-20.996,-55.664,-13.184,0.000,0
33203.981,-11.719,-21.973,-104.492,-25.879,0.000,0
33203.985,-24.902,-25.391,9.766,-29.785,0.000,0
33203.989,-31.250,-28.809,48.340,-29.297,0.000,0
33203.993,-16.113,-24.414,-32.715,-10.742,0.000,0
33203.997,-18.066,-20.508,-104.004,-19.043,0.000,0
33204.001,-20.508,-19.531,-9.277,-40.527,0.000,0
33204.004,-21.484,-24.414,52.246,-46.875,0.000,0
33204.008,-14.648,-32.715,-2.441,-37.109,0.000,0
33204.012,-23.438,-32.715,-115.234,-26.855,0.000,0
33204.016,-30.762,-28.320,-72.754,-34.180,0.000,0
33204.020,-33.691,-22.461,43.457,-56.641,0.000,0
33204.024,-25.391,-22.461,27.832,-48.340,0.000,0
33204.028,-13.184,-18.555,-86.914,-12.207,0.000,0
33204.032,-12.207,-20.020,-98.633,-3.906,0.000,0
33204.036,-11.230,-30.762,31.250,-27.832,0.000,0
33204.040,-24.902,-31.250,51.758,-41.016,0.000,0
33204.043,-29.785,-25.391,-59.082,-6.836,0.000,0
33204.047,-30.762,-21.484,-114.258,-13.184,0.000,0
33204.051,-29.785,-20.996,8.301,-30.273,0.000,0
33204.055,-31.250,-25.391,51.758,-36.133,0.000,0
33204.059,-24.902,-29.297,-20.508,-32.715,0.000,0
33204.063,-33.691,-29.297,-110.840,-25.391,0.000,0
33204.067,-29.297,-30.762,-34.180,-21.484,0.000,0
33204.071,-28.320,-26.367,50.781,-29.785,0.000,0
33204.075,-27.344,-23.926,13.672,-24.414,0.000,0
33204.079,-30.273,-28.809,-102.051,-21.484,0.000,0
33204.083,-25.879,-24.414,-87.402,-18.555,0.000,0
33204.086,-22.461,-25.391,26.855,-22.461,0.000,0
33204.090,-33.691,-32.227,21.973,-33.203,0.000,0
33204.094,-30.762,-31.738,-86.426,-33.691,0.000,0
33204.098,-23.438,-24.902,-109.863,-42.969,0.000,0
33204.102,-22.949,-24.414,13.672,-43.945,0.000,0
33204.106,-42.480,-33.691,36.133,-48.828,0.000,0
33204.110,-38.574,-32.227,-45.898,-22.461,0.000,0
33204.114,-33.203,-21.973,-111.816,-5.371,0.000,0
33204.118,-25.879,-20.996,-0.488,-24.414,0.000,0
33204.122,-27.832,-26.855,50.781,-38.086,0.000,0
33204.126,-21.973,-23.926,-13.672,-22.949,0.000,0
33204.129,-24.902,-18.066,-107.910,-21.973,0.000,0
33204.133,-23.438,-26.367,-48.340,-28.809,0.000,0
33204.137,-25.879,-36.133,43.945,-39.062,0.000,0
33204.141,-32.227,-33.203,4.883,-32.715,0.000,0
33204.145,-29.785,-29.297,-105.469,-10.742,0.000,0
33204.149,-19.531,-27.344,-87.891,-22.949,0.000,0
33204.153,-13.672,-25.879,35.645,-34.180,0.000,0
33204.157,-26.855,-27.832,38.086,-39.062,0.000,0
33204.161,-32.715,-29.297,-83.008,-34.180,0.000,0
33204.165,-29.785,-25.879,-117.676,-26.367,0.000,0
33204.168,-28.809,-28.320,8.301,-30.762,0.000,0
33204.172,-31.738,-26.855,40.039,-34.668,0.000,0
33204.176,-14.160,-26.855,-35.645,-19.043,0.000,0
33204.180,-15.625,-26.855,-110.352,-4.395,0.000,0
33204.184,-21.484,-26.367,-8.789,-11.719,0.000,0
33204.188,-31.738,-22.949,63.477,-33.203,0.000,0
33204.192,-24.902,-21.484,-0.488,-19.531,0.000,0
33204.196,-16.602,-23.926,-104.004,-26.367,0.000,0
33204.200,-18.555,-20.508,-40.039,-44.922,0.000,0
33204.204,-24.414,-24.414,48.340,-58.594,0.000,0
33204.208,-21.973,-32.227,4.883,-37.598,0.000,0
33204.211,-26.855,-31.738,-108.398,-18.066,0.000,0
33204.215,-16.113,-24.414,-89.844,-26.367,0.000,0
33204.219,-9.277,-17.578,37.598,-30.762,0.000,0
33204.223,-37.598,-26.367,35.156,-43.945,0.000,0
33204.227,-37.109,-32.227,-63.477,-29.785,0.000,0
33204.231,-29.297,-27.344,-111.328,-26.855,0.000,0
33204.235,-26.367,-24.902,5.859,-43.457,0.000,0
33204.239,-34.180,-28.809,45.410,-52.734,0.000,0
33204.243,-23.438,-33.203,-29.297,-26.855,0.000,0
33204.247,-17.090,-30.273,-115.723,-3.418,0.000,0
33204.251,-14.648,-25.391,-24.902,-17.090,0.000,0
33204.254,-33.203,-26.367,62.012,-44.434,0.000,0
33204.258,-36.621,-26.855,3.906,-17.578,0.000,0
33204.262,-34.668,-24.902,-115.723,-2.930,0.000,0
33204.266,-33.691,-24.414,-78.613,-20.020,0.000,0
33204.270,-38.086,-26.367,31.738,-34.180,0.000,0
33204.274,-35.645,-26.367,30.273,-31.250,0.000,0
33204.278,-21.973,-20.996,-81.055,-17.090,0.000,0
33204.282,-25.391,-16.602,-96.191,-22.461,0.000,0
33204.286,-28.809,-17.578,28.809,-25.391,0.000,0
33204.290,-33.691,-19.043,43.945,-23.438,0.000,0
33204.293,-22.461,-22.461,-49.805,-21.484,0.000,0
33204.297,-16.113,-23.438,-108.398,-21.484,0.000,0
33204.301,-15.137,-21.484,3.906,-20.020,0.000,0
33204.305,-27.344,-21.484,54.688,-33.691,0.000,0
33204.309,-21.484,-26.855,-19.043,-23.926,0.000,0
33204.313,-29.297,-28.320,-110.352,-18.066,0.000,0
33204.317,-37.598,-26.367,-31.738,-29.785,0.000,0
33204.321,-39.551,-34.180,45.898,-41.504,0.000,0
33204.325,-29.297,-36.133,-0.488,-31.250,0.000,0
33204.329,-22.461,-21.973,-109.375,-15.625,0.000,0
33204.333,-28.809,-16.602,-74.707,-25.879,0.000,0
33204.336,-34.180,-22.949,42.969,-46.875,0.000,0
33204.340,-28.320,-23.438,32.227,-44.434,0.000,0
33204.344,-23.926,-21.973,-76.660,-22.949,0.000,1
33204.348,-34.180,-27.344,-110.840,-23.438,0.000,0
33204.352,-39.062,-33.203,16.602,-35.156,0.000,0
33204.356,-35.645,-29.297,16.602,-12.695,0.000,0
33204.360,-29.297,-20.996,-106.934,6.836,0.000,0
33204.364,-24.902,-17.578,-64.941,-1.953,0.000,0
33204.368,-32.715,-20.020,43.457,-22.949,0.000,0
33204.372,-38.574,-20.996,42.969,-28.320,0.000,0
33204.376,-31.738,-19.531,-62.500,-19.043,0.000,0
33204.379,-33.691,-27.344,-110.352,-23.926,0.000,0
33204.383,-24.414,-31.250,7.324,-17.578,0.000,0
33204.387,-26.855,-27.344,36.621,-23.438,0.000,0
33204.391,-28.809,-27.832,-34.180,-20.508,0.000,0
33204.395,-23.926,-27.832,-102.051,-4.883,0.000,0
33204.399,-3.906,-28.809,-8.301,-0.977,0.000,0
33204.403,-12.207,-31.738,60.059,-25.879,0.000,0
33204.407,-26.855,-35.645,-6.836,-26.855,0.000,0
33204.411,-20.996,-29.297,-111.816,-23.926,0.000,0
33204.415,-10.254,-28.809,-51.758,-39.062,0.000,0
33204.418,-31.738,-40.039,39.062,-53.711,0.000,0
33204.422,-37.598,-35.156,10.742,-36.621,0.000,0
33204.426,-16.113,-26.855,-94.727,-12.695,0.000,0
33204.430,-18.066,-31.250,-84.961,-19.043,0.000,0
33204.434,-27.832,-33.203,32.715,-27.344,0.000,0
33204.438,-35.645,-24.902,33.203,-27.344,0.000,0
33204.442,-27.832,-22.949,-67.871,-18.066,0.000,0
33204.446,-22.949,-21.973,-112.305,-22.949,0.000,0
33204.450,-26.855,-26.367,12.695,-35.156,0.000,0
33204.454,-34.180,-29.297,57.617,-37.598,0.000,0
33204.458,-21.973,-25.391,-34.668,-17.578,0.000,0
33204.461,-20.508,-24.414,-129.395,-6.348,0.000,0
33204.465,-18.066,-27.344,-25.391,-12.695,0.000,0
33204.469,-33.691,-32.227,62.012,-41.504,0.000,0
33204.473,-30.762,-26.367,4.883,-37.598,0.000,0
33204.477,-21.484,-22.949,-112.305,-19.043,0.000,0
33204.481,-29.785,-26.367,-61.523,-22.461,0.000,0
33204.485,-25.879,-24.414,48.828,-23.926,0.000,0
33204.489,-23.926,-27.344,25.391,-33.691,0.000,0
33204.493,-31.738,-29.785,-80.078,-31.250,0.000,0
33204.497,-28.809,-29.297,-94.238,-23.438,0.000,0
33204.501,-19.043,-29.785,25.879,-31.738,0.000,0
33204.504,-22.461,-26.855,38.086,-30.273,0.000,0
33204.508,-21.973,-22.949,-55.176,-21.973,0.000,0
33204.512,-23.926,-17.090,-112.305,-31.250,0.000,0
33204.516,-24.414,-16.602,-0.977,-32.227,0.000,0
33204.520,-37.598,-26.855,40.527,-23.438,0.000,0
33204.524,-26.367,-23.926,-35.645,-1.465,0.000,0
33204.528,-30.273,-14.648,-106.934,-20.508,0.000,0
33204.532,-31.250,-17.090,-28.809,-34.180,0.000,0
33204.536,-31.738,-21.484,36.621,-38.574,0.000,0
33204.540,-38.086,-21.484,-6.836,-29.297,0.000,0
33204.543,-36.133,-15.625,-113.281,-14.648,0.000,0
33204.547,-27.344,-20.996,-78.613,-34.668,0.000,0
33204.551,-25.879,-24.902,40.039,-46.387,0.000,0
33204.555,-24.414,-20.020,31.250,-30.273,0.000,0
33204.559,-16.113,-19.043,-75.684,-8.789,0.000,0
33204.563,-23.438,-16.113,-100.586,-2.930,0.000,0
33204.567,-20.508,-19.531,21.973,-10.742,0.000,0
33204.571,-19.531,-25.391,50.781,-29.785,0.000,0
33204.575,-20.020,-22.949,-44.922,-18.066,0.000,0
33204.579,-23.438,-21.484,-118.652,-10.254,0.000,0
33204.583,-7.812,-19.531,-12.695,-23.438,0.000,0
33204.586,-19.531,-21.484,50.781,-40.039,0.000,0
33204.590,-29.785,-23.926,-15.625,-32.715,0.000,0
33204.594,-18.555,-20.020,-117.188,-15.625,0.000,0
33204.598,-17.090,-21.973,-41.504,-15.625,0.000,0
33204.602,-24.414,-24.414,53.223,-32.227,0.000,0
33204.606,-22.461,-30.762,1.465,-20.508,0.000,0
33204.610,-22.949,-32.227,-112.793,-6.348,0.000,0
33204.614,-25.879,-27.832,-80.078,-11.719,0.000,0
33204.618,-34.180,-29.785,34.180,-35.645,0.000,0
33204.622,-30.273,-27.832,26.367,-23.926,0.000,0
33204.626,-9.766,-22.949,-72.266,27.344,0.000,0
33204.629,-20.996,-21.484,-96.680,-0.488,0.000,0
33204.633,-22.949,-24.414,20.508,-34.180,0.000,0
33204.637,-14.648,-23.926,46.387,-22.949,0.000,0
33204.641,-4.883,-23.438,-42.480,0.000,0.000,0
33204.645,-20.508,-28.320,-119.629,-6.836,0.000,0
33204.649,-25.391,-31.738,-17.090,-29.785,0.000,0
33204.653,-27.832,-28.320,52.734,-41.992,0.000,0
33204.657,-25.879,-24.902,-6.348,-24.414,0.000,0
33204.661,-28.809,-27.832,-111.328,-7.324,0.000,0
33204.665,-22.949,-24.414,-52.246,-4.883,0.000,0
33204.668,-22.949,-22.949,42.969,-30.273,0.000,0
33204.672,-26.367,-29.785,7.324,-24.414,0.000,0
33204.676,-20.020,-26.855,-102.539,6.348,0.000,0
33204.680,-21.973,-18.555,-88.379,-3.906,0.000,0
33204.684,-24.902,-20.996,27.832,-28.809,0.000,0
33204.688,-28.809,-33.691,30.273,-28.320,0.000,0
33204.692,-10.254,-32.715,-64.453,-17.578,0.000,0
33204.696,-2.930,-24.414,-103.027,-24.414,0.000,0
33204.700,-16.113,-24.414,12.207,-28.320,0.000,0
33204.704,-35.645,-31.250,42.480,-40.527,0.000,0
33204.708,-28.809,-29.297,-33.691,-26.855,0.000,0
33204.711,-24.902,-22.461,-120.605,-21.484,0.000,0
33204.715,-23.926,-21.973,-34.668,-32.227,0.000,0
33204.719,-35.645,-27.832,43.457,-44.922,0.000,0
33204.723,-33.203,-31.738,-12.695,-33.691,0.000,0
33204.727,-25.879,-28.320,-117.676,-20.996,0.000,0
33204.731,-14.160,-26.855,-65.918,-20.996,0.000,0
33204.735,-9.766,-34.180,37.598,-34.180,0.000,0
33204.739,-18.066,-36.621,15.625,-28.320,0.000,0
33204.743,-17.578,-30.273,-94.727,-3.418,0.000,0
33204.747,-9.766,-28.809,-97.656,-9.766,0.000,0
33204.751,-11.230,-24.902,28.809,-27.344,0.000,0
33204.754,-21.973,-21.973,40.039,-27.344,0.000,0
33204.758,-20.996,-23.926,-62.500,-1.953,0.000,0
33204.762,-29.297,-20.996,-113.281,1.465,0.000,0
33204.766,-26.367,-18.066,2.930,-23.926,0.000,0
33204.770,-37.109,-18.066,50.293,-44.922,0.000,0
33204.774,-32.227,-19.043,-23.438,-17.090,0.000,0
33204.778,-32.227,-19.531,-123.535,-4.883,0.000,0
33204.782,-26.855,-20.020,-37.598,-25.879,0.000,0
33204.786,-29.297,-22.461,51.270,-49.805,0.000,0
33204.790,-25.879,-28.320,4.883,-46.875,0.000,0
33204.793,-23.926,-26.855,-104.004,-30.273,0.000,0
33204.797,-26.367,-16.113,-65.430,-32.715,0.000,0
33204.801,-27.832,-14.160,40.039,-31.738,0.000,0
33204.805,-29.785,-24.414,23.438,-26.367,0.000,0
33204.809,-18.066,-20.508,-69.824,-16.602,0.000,0
33204.813,-18.555,-14.160,-88.867,-26.855,0.000,0
33204.817,-24.414,-20.996,22.461,-35.645,0.000,0
33204.821,-30.273,-22.461,45.410,-35.156,0.000,0
33204.825,-26.367,-15.625,-33.203,-30.273,0.000,0
33204.829,-26.855,-14.160,-108.887,-31.250,0.000,0
33204.833,-16.113,-19.043,-18.555,-32.715,0.000,0
33204.836,-25.879,-21.973,43.945,-35.645,0.000,0
33204.840,-28.320,-24.902,-25.391,-17.578,0.000,0
33204.844,-22.949,-18.555,-119.141,-18.066,0.000,0
33204.848,-11.719,-11.719,-39.062,-24.414,0.000,0
33204.852,-18.555,-13.184,43.457,-38.086,0.000,0
33204.856,-22.949,-12.207,2.930,-31.738,0.000,0
33204.860,-10.742,3.906,-99.121,-3.906,0.000,0
33204.864,-12.207,9.766,-71.289,-20.508,0.000,0
33204.868,-16.602,8.301,37.598,-42.480,0.000,0
33204.872,-0.977,16.602,23.438,-8.789,0.000,0
33204.876,14.160,23.438,-79.590,24.902,0.000,0
33204.879,-18.066,32.227,-122.070,-8.301,0.000,0
33204.883,-45.410,35.645,0.000,-46.387,0.000,0
33204.887,-39.062,41.992,33.691,-41.992,0.000,0
33204.891,-25.879,57.617,-62.500,-2.930,0.000,0
33204.895,-26.855,77.637,-138.672,6.348,0.000,0
33204.899,-13.184,88.379,-35.645,0.000,0.000,0
33204.903,-25.391,84.961,35.156,-26.855,0.000,0
33204.907,-27.344,84.473,-26.367,-31.738,0.000,0
33204.911,-14.160,95.703,-139.160,-12.695,0.000,0
33204.915,-18.066,98.145,-79.590,-15.137,0.000,1
33204.918,-34.180,95.703,24.414,-30.273,0.000,0
33204.922,-17.578,96.191,-2.441,-29.785,0.000,0
33204.926,1.953,97.168,-107.910,-4.395,0.000,0
33204.930,-11.719,102.539,-100.098,-4.395,0.000,0
33204.934,-25.391,99.609,21.973,-16.113,0.000,0
33204.938,-33.203,89.355,17.578,-17.578,0.000,0
33204.942,-26.855,83.008,-91.309,-17.578,0.000,0
33204.946,-32.227,81.055,-132.812,-21.973,0.000,0
33204.950,-37.598,77.148,-9.766,-30.273,0.000,0
33204.954,-32.227,71.777,28.809,-39.551,0.000,0
33204.958,-21.484,65.430,-52.246,-11.230,0.000,0
33204.961,-23.438,57.129,-126.953,-4.395,0.000,0
33204.965,-22.949,48.828,-33.691,-29.297,0.000,0
33204.969,-31.738,41.504,37.598,-53.223,0.000,0
33204.973,-26.367,37.598,-15.137,-33.691,0.000,0
33204.977,-23.438,38.574,-120.117,-10.742,0.000,0
33204.981,-28.320,31.250,-64.941,-24.414,0.000,0
33204.985,-33.203,19.531,47.363,-47.363,0.000,0
33204.989,-26.367,12.207,23.438,-33.691,0.000,0
33204.993,-20.020,5.371,-80.566,-8.789,0.000,0
33204.997,-23.926,6.348,-84.961,-26.367,0.000,0
33205.001,-19.043,0.977,32.715,-31.738,0.000,0
33205.004,-28.809,-9.766,48.340,-21.973,0.000,0
33205.008,-29.297,-11.230,-46.875,-12.207,0.000,0
33205.012,-38.086,-13.184,-113.281,-32.227,0.000,0
33205.016,-44.434,-24.414,0.977,-43.457,0.000,0
33205.020,-48.828,-35.645,41.992,-46.875,0.000,0
33205.024,-40.527,-38.574,-84.961,-33.203,0.000,0
33205.028,-41.992,-39.062,-106.934,-20.996,0.000,0
33205.032,-42.969,-47.852,20.508,-34.180,0.000,0
33205.036,-46.387,-53.711,43.945,-41.504,0.000,0
33205.040,-35.156,-56.152,-49.316,-21.973,0.000,0
33205.043,-33.203,-55.176,-112.793,-23.926,0.000,0
33205.047,-37.598,-61.523,-3.906,-39.551,0.000,0
33205.051,-45.410,-63.477,52.246,-40.527,0.000,0
33205.055,-30.762,-61.035,-15.625,-18.066,0.000,0
33205.059,-25.391,-53.711,-100.586,-18.555,0.000,0
33205.063,-28.809,-51.758,-20.508,-30.762,0.000,0
33205.067,-35.156,-63.477,62.500,-42.480,0.000,0
33205.071,-30.273,-66.895,24.902,-34.668,0.000,0
33205.075,-25.391,-61.523,-96.191,-20.508,0.000,0
33205.079,-31.250,-61.523,-67.871,-28.809,0.000,0
33205.083,-40.039,-68.359,48.340,-45.410,0.000,0
33205.086,-34.668,-75.195,28.809,-44.434,0.000,0
33205.090,-28.320,-77.637,-82.520,-33.691,0.000,0
33205.094,-30.273,-82.520,-104.492,-32.715,0.000,0
33205.098,-24.414,-89.355,28.809,-33.691,0.000,0
33205.102,-33.203,-84.961,54.199,-49.805,0.000,0
33205.106,-28.320,-82.520,-45.898,-34.180,0.000,0
33205.110,-28.320,-79.590,-114.746,-27.832,0.000,0
33205.114,-23.926,-75.684,-7.812,-36.133,0.000,0
33205.118,-24.902,-80.566,51.270,-39.062,0.000,0
33205.122,-22.461,-85.938,-4.883,-33.691,0.000,0
33205.126,-38.574,-82.031,-111.328,-33.203,0.000,0
33205.129,-33.691,-75.684,-59.570,-31.250,0.000,0
33205.133,-21.484,-74.219,37.109,-30.762,0.000,0
33205.137,-29.297,-75.684,8.301,-28.320,0.000,0
33205.141,-32.227,-69.336,-89.844,-15.625,0.000,0
33205.145,-23.438,-62.988,-78.125,-17.578,0.000,0
33205.149,-22.461,-61.523,33.203,-21.973,0.000,0
33205.153,-31.738,-68.359,30.273,-20.020,0.000,0
33205.157,-23.926,-77.148,-68.848,-20.996,0.000,0
33205.161,-18.066,-74.219,-99.121,-32.227,0.000,0
33205.165,-14.648,-65.918,17.578,-39.551,0.000,0
33205.168,-27.832,-64.941,46.875,-45.898,0.000,0
33205.172,-29.297,-64.941,-29.785,-32.715,0.000,0
33205.176,-22.949,-66.406,-100.586,-30.273,0.000,0
33205.180,-12.207,-64.941,-9.766,-20.996,0.000,0
33205.184,-21.973,-64.941,56.152,-27.832,0.000,0
33205.188,-28.809,-63.965,10.742,-20.996,0.000,0
33205.192,-28.809,-62.012,-108.398,-1.465,0.000,0
33205.196,-27.832,-57.617,-63.965,-9.277,0.000,0
33205.200,-31.250,-61.035,56.152,-31.738,0.000,0
33205.204,-35.156,-65.430,23.926,-24.902,0.000,0
33205.208,-31.738,-58.594,-98.633,-8.301,0.000,0
33205.211,-24.414,-52.246,-96.680,-15.137,0.000,0
33205.215,-23.926,-51.270,34.668,-22.949,0.000,0
33205.219,-24.414,-55.664,41.016,-32.227,0.000,0
33205.223,-14.160,-55.176,-60.059,-20.020,0.000,0
33205.227,-24.414,-48.340,-109.863,-18.066,0.000,0
33205.231,-24.414,-50.293,12.695,-19.043,0.000,0
33205.235,-20.508,-52.246,46.875,-24.414,0.000,0
33205.239,-17.090,-52.246,-24.414,-19.531,0.000,0
33205.243,-22.949,-46.387,-102.539,-14.648,0.000,0
33205.247,-17.578,-42.480,-26.367,-24.414,0.000,0
33205.251,-27.344,-48.340,46.875,-51.270,0.000,0
33205.254,-27.344,-48.828,3.906,-42.969,0.000,0
33205.258,-22.461,-40.527,-98.633,-28.320,0.000,0
33205.262,-19.531,-38.574,-65.918,-32.715,0.000,0
33205.266,-17.578,-37.598,45.410,-39.062,0.000,0
33205.270,-23.438,-44.434,19.531,-23.926,0.000,0
33205.274,-31.250,-52.734,-91.797,-16.602,0.000,0
33205.278,-28.809,-52.246,-46.387,-46.875,0.000,0
33205.282,-24.902,-48.828,34.668,-58.594,0.000,0
33205.286,-30.273,-52.734,-10.742,-47.363,0.000,0
33205.290,-32.227,-56.152,-111.816,-26.855,0.000,0
33205.293,-26.367,-55.176,-76.172,-24.414,0.000,0
33205.297,-26.855,-51.758,38.086,-47.363,0.000,0
33205.301,-22.461,-47.363,28.809,-33.203,0.000,0
33205.305,-14.160,-47.852,-79.590,-7.324,0.000,0
33205.309,-27.832,-55.176,-111.816,-17.578,0.000,0
33205.313,-34.668,-55.664,12.207,-28.809,0.000,0
33205.317,-37.598,-53.711,39.062,-36.621,0.000,0
33205.321,-30.273,-53.223,-57.617,-22.949,0.000,0
33205.325,-20.020,-41.992,-132.812,-20.508,0.000,0
33205.329,-8.301,-46.387,-22.461,-26.367,0.000,0
33205.333,-19.043,-50.293,49.805,-34.668,0.000,0
33205.336,-19.531,-45.898,-18.555,-29.297,0.000,0
33205.340,-19.531,-41.504,-130.371,-19.531,0.000,0
33205.344,-20.020,-41.016,-51.758,-27.832,0.000,0
33205.348,-20.996,-43.457,49.805,-41.016,0.000,0
33205.352,-15.137,-38.086,15.137,-21.973,0.000,0
33205.356,-17.090,-33.203,-90.820,-21.973,0.000,0
33205.360,-13.184,-27.344,-70.312,-37.598,0.000,0
33205.364,-23.926,-30.762,43.457,-45.410,0.000,0
33205.368,-29.297,-41.016,30.273,-28.809,0.000,0
33205.372,-12.695,-36.621,-62.988,-9.277,0.000,0
33205.376,-22.949,-28.320,-93.750,-23.438,0.000,0
33205.379,-25.391,-33.691,13.184,-36.621,0.000,0
33205.383,-35.156,-39.062,40.039,-45.898,0.000,0
33205.387,-31.738,-35.156,-55.664,-25.879,0.000,0
33205.391,-32.227,-32.715,-128.418,-19.043,0.000,0
33205.395,-21.973,-30.762,-13.672,-30.273,0.000,0
33205.399,-19.531,-26.855,56.641,-43.457,0.000,0
33205.403,-25.391,-29.297,-7.324,-11.719,0.000,0
33205.407,-23.926,-27.344,-109.863,2.441,0.000,0
33205.411,-11.230,-20.508,-48.340,-19.531,0.000,0
33205.415,-3.906,-27.344,53.711,-39.062,0.000,0
33205.418,8.789,-36.621,19.043,-28.320,0.000,0
33205.422,24.902,-30.273,-85.449,-3.906,0.000,0
33205.426,36.133,-22.461,-78.613,-15.137,0.000,0
33205.430,15.625,-28.320,27.832,-36.133,0.000,0
33205.434,-32.715,-30.273,38.086,-42.480,0.000,0
33205.438,-41.504,-27.832,-57.129,-17.090,0.000,0
33205.442,-42.480,-22.949,-122.559,-14.160,0.000,0
33205.446,-45.410,-20.996,-2.441,-28.320,0.000,0
33205.450,-50.293,-28.809,28.809,-38.086,0.000,0
33205.454,-53.223,-36.133,-101.074,-24.902,0.000,0
33205.458,-39.551,-33.691,-101.562,0.000,0.000,0
33205.461,-22.949,-30.762,24.902,-21.973,0.000,0
33205.465,-19.043,-31.250,40.039,-32.227,0.000,0
33205.469,-31.250,-33.691,-56.152,0.977,0.000,0
33205.473,-36.133,-30.762,-109.863,-8.301,0.000,0
33205.477,-25.879,-30.273,1.953,-23.438,0.000,0
33205.481,-38.574,-44.434,48.828,-37.598,0.000,0
33205.485,-33.691,-46.875,-24.414,-20.508,0.000,0
33205.489,-24.902,-35.645,-121.094,-13.672,0.000,0
33205.493,-16.602,-35.156,-28.809,-32.715,0.000,0
33205.497,-25.879,-36.133,51.270,-44.922,0.000,0
33205.501,-34.180,-34.180,-4.395,-31.250,0.000,0
33205.504,-31.250,-32.715,-122.070,-13.184,0.000,0
33205.508,-25.391,-32.715,-83.496,-10.742,0.000,0
33205.512,-36.621,-36.133,46.387,-34.668,0.000,0
33205.516,-33.203,-30.273,23.438,-35.156,0.000,1
33205.520,-12.695,-26.367,-93.750,-13.672,0.000,0
33205.524,-12.695,-22.949,-103.027,-21.484,0.000,0
33205.528,-22.461,-24.414,21.484,-39.062,0.000,0
33205.532,-23.926,-29.785,42.969,-47.363,0.000,0
33205.536,-12.207,-24.902,-53.711,-23.926,0.000,0
33205.540,-20.508,-11.230,-119.629,-19.043,0.000,0
33205.543,-23.926,-12.695,-8.789,-22.461,0.000,0
33205.547,-31.738,-21.973,47.852,-31.738,0.000,0
33205.551,-24.414,-19.043,-19.043,-24.902,0.000,0
33205.555,-20.020,-18.555,-120.605,-10.254,0.000,0
33205.559,-7.812,-16.113,-37.109,1.465,0.000,0
33205.563,-4.395,-11.719,60.059,-7.324,0.000,0
33205.567,-3.906,-13.184,20.996,-9.766,0.000,0
33205.571,-13.672,-13.184,-83.496,-5.371,0.000,0
33205.575,-22.461,-13.184,-64.453,-20.020,0.000,0
33205.579,-31.738,-20.020,42.480,-35.156,0.000,0
33205.583,-34.668,-25.391,21.484,-30.273,0.000,0
33205.586,-28.320,-22.949,-83.008,-15.137,0.000,0
33205.590,-29.785,-23.926,-107.422,-21.484,0.000,0
33205.594,-29.297,-25.879,11.719,-29.297,0.000,0
33205.598,-37.109,-27.832,38.086,-28.320,0.000,0
33205.602,-33.203,-29.785,-36.133,1.465,0.000,0
33205.606,-30.762,-24.902,-115.723,-4.395,0.000,0
33205.610,-23.438,-26.855,-14.648,-42.480,0.000,0
33205.614,-22.949,-29.785,51.270,-47.852,0.000,0
33205.618,-0.977,-27.832,-13.184,-20.020,0.000,0
33205.622,-4.883,-27.832,-114.258,-20.020,0.000,0
33205.626,-16.602,-29.785,-54.688,-26.367,0.000,0
33205.629,-26.367,-31.738,44.434,-49.805,0.000,0
33205.633,-32.227,-32.715,9.766,-48.828,0.000,0
33205.637,-25.879,-27.832,-108.398,-17.090,0.000,0
33205.641,-27.832,-24.414,-97.656,-24.414,0.000,0
33205.645,-31.738,-28.320,24.902,-35.645,0.000,0
33205.649,-38.086,-34.180,31.250,-31.250,0.000,0
33205.653,-28.320,-35.645,-78.613,-20.996,0.000,0
33205.657,-23.926,-28.320,-117.188,-13.184,0.000,0
33205.661,-21.973,-22.461,16.602,-25.391,0.000,0
33205.665,-19.043,-27.832,44.434,-39.062,0.000,0
33205.668,-5.371,-25.391,-37.109,-17.578,0.000,0
33205.672,-16.113,-23.438,-107.910,-17.578,0.000,0
33205.676,-20.020,-27.344,-18.066,-35.156,0.000,0
33205.680,-28.320,-31.738,48.828,-50.781,0.000,0
33205.684,-18.066,-24.414,-22.461,-28.809,0.000,0
33205.688,-1.465,-13.184,-109.863,-7.324,0.000,0
33205.692,-11.230,-11.719,-45.410,-17.090,0.000,0
33205.696,-26.367,-19.531,44.434,-33.691,0.000,0
33205.700,-26.855,-28.320,12.695,-31.738,0.000,0
33205.704,-30.762,-31.250,-101.562,-18.555,0.000,0
33205.708,-35.645,-27.832,-97.168,-19.043,0.000,0
33205.711,-21.973,-24.414,25.391,-20.996,0.000,0
33205.715,-20.996,-24.902,34.180,-30.762,0.000,0
33205.719,-26.855,-31.250,-64.453,-17.090,0.000,0
33205.723,-31.250,-26.855,-122.559,-0.488,0.000,0
33205.727,-23.438,-19.043,-3.906,-10.254,0.000,0
33205.731,-31.738,-28.320,47.852,-30.762,0.000,0
33205.735,-22.949,-29.785,-26.855,-16.113,0.000,0
33205.739,-17.578,-18.066,-125.000,-9.766,0.000,0
33205.743,-11.719,-20.508,-42.969,-20.508,0.000,0
33205.747,-17.090,-20.508,48.340,-33.691,0.000,0
33205.751,-18.555,-20.020,10.742,-26.855,0.000,0
33205.754,-23.438,-21.484,-102.051,-19.043,0.000,0
33205.758,-24.414,-19.531,-68.848,-9.277,0.000,0
33205.762,-11.230,-20.508,43.945,-11.719,0.000,0
33205.766,-22.461,-22.461,28.809,-23.926,0.000,0
33205.770,-26.367,-22.949,-80.566,-5.859,0.000,0
33205.774,-19.531,-18.066,-100.098,-19.531,0.000,0
33205.778,-20.996,-18.066,25.879,-42.480,0.000,0
33205.782,-27.344,-17.578,46.875,-33.691,0.000,0
33205.786,-24.902,-19.043,-50.293,-15.137,0.000,0
33205.790,-26.855,-19.043,-102.539,-24.414,0.000,0
33205.793,-17.090,-20.020,6.836,-27.832,0.000,0
33205.797,-29.297,-28.320,57.617,-29.297,0.000,0
33205.801,-31.250,-33.691,-17.578,-14.648,0.000,0
33205.805,-25.391,-31.738,-120.117,-16.602,0.000,0
33205.809,-20.020,-26.855,-35.645,-41.504,0.000,0
33205.813,-26.855,-26.367,51.270,-58.105,0.000,0
33205.817,-27.832,-30.273,10.742,-34.180,0.000,0
33205.821,-20.020,-28.809,-102.051,-10.254,0.000,0
33205.825,-13.672,-31.738,-80.078,-24.902,0.000,0
33205.829,-20.020,-29.785,43.457,-42.969,0.000,0
33205.833,-26.367,-25.879,33.203,-20.020,0.000,0
33205.836,-16.113,-33.203,-85.938,1.465,0.000,0
33205.840,-20.996,-34.180,-112.793,-19.531,0.000,0
33205.844,-16.602,-29.297,20.996,-32.715,0.000,0
33205.848,-21.484,-31.250,52.246,-42.969,0.000,0
33205.852,-19.043,-31.250,-39.062,-15.625,0.000,0
33205.856,-20.996,-18.066,-107.910,-13.184,0.000,0
33205.860,-16.602,-22.461,-13.184,-26.855,0.000,0
33205.864,-21.973,-32.715,37.109,-41.992,0.000,0
33205.868,-20.508,-30.762,-7.812,-39.062,0.000,0
33205.872,-15.625,-23.926,-106.445,-17.578,0.000,0
33205.876,-14.648,-23.438,-54.199,-17.578,0.000,0
33205.879,-26.855,-24.902,43.457,-32.227,0.000,0
33205.883,-26.367,-29.785,15.137,-23.438,0.000,0
33205.887,-25.879,-29.297,-87.891,-22.461,0.000,0
33205.891,-30.762,-24.414,-82.031,-36.133,0.000,0
33205.895,-26.855,-22.949,28.320,-32.227,0.000,0
33205.899,-38.574,-25.391,30.273,-21.973,0.000,0
33205.903,-36.621,-22.949,-62.500,-5.859,0.000,0
33205.907,-21.484,-16.602,-98.633,-21.973,0.000,0
33205.911,-14.160,-24.414,12.695,-29.297,0.000,0
33205.915,-23.926,-32.715,42.480,-35.156,0.000,0
33205.918,-15.137,-30.762,-32.715,-20.020,0.000,0
33205.922,-8.301,-22.461,-106.934,0.977,0.000,0
33205.926,-9.277,-21.973,-17.090,-24.414,0.000,0
33205.930,-33.203,-25.391,49.805,-45.898,0.000,0
33205.934,-30.762,-25.391,1.465,-21.973,0.000,0
33205.938,-19.043,-20.996,-117.188,-7.324,0.000,0
33205.942,-14.160,-23.926,-73.730,-17.578,0.000,0
33205.946,-9.277,-30.273,40.527,-37.109,0.000,0
33205.950,-10.742,-28.809,9.766,-27.832,0.000,0
33205.954,-23.926,-26.855,-103.027,-5.371,0.000,0
33205.958,-26.855,-21.973,-95.215,-17.578,0.000,0
33205.961,-20.996,-23.926,34.668,-25.391,0.000,0
33205.965,-21.484,-24.902,49.316,-25.879,0.000,0
33205.969,-19.531,-20.996,-57.129,-19.043,0.000,0
33205.973,-30.273,-26.855,-121.094,-12.207,0.000,0
33205.977,-19.531,-25.391,6.836,-18.555,0.000,0
33205.981,-20.508,-27.344,45.898,-39.062,0.000,0
33205.985,-24.414,-31.250,-29.785,-25.879,0.000,0
33205.989,-20.020,-24.902,-109.863,-19.531,0.000,0
33205.993,-11.719,-28.809,-20.996,-31.250,0.000,0
33205.997,-19.043,-29.297,53.223,-45.410,0.000,0
33206.001,-9.277,-26.367,-0.977,-19.043,0.000,0
33206.004,-5.371,-25.391,-101.562,-2.930,0.000,0
33206.008,-13.184,-27.344,-63.965,-26.855,0.000,0
33206.012,-13.184,-29.785,41.016,-30.762,0.000,0
33206.016,-17.090,-27.344,19.043,-23.926,0.000,0
33206.020,-23.438,-26.855,-85.938,-22.949,0.000,0
33206.024,-27.832,-24.414,-92.285,-21.484,0.000,0
33206.028,-22.461,-20.996,23.926,-30.762,0.000,0
33206.032,-24.414,-21.973,37.598,-41.992,0.000,0
33206.036,-9.766,-20.020,-51.270,-15.137,0.000,0
33206.040,-5.859,-19.043,-118.164,-2.930,0.000,0
33206.043,-13.672,-32.715,-14.160,-22.949,0.000,0
33206.047,-25.879,-40.527,48.828,-25.391,0.000,0
33206.051,-24.414,-31.738,-12.695,-14.160,0.000,0
33206.055,-23.438,-21.484,-118.164,-18.555,0.000,0
33206.059,-23.438,-21.484,-51.270,-26.855,0.000,0
33206.063,-30.762,-23.926,48.340,-43.945,0.000,0
33206.067,-27.344,-18.555,20.020,-41.016,0.000,0
33206.071,-20.996,-15.625,-99.609,-26.855,0.000,0
33206.075,-16.602,-22.461,-83.984,-18.066,0.000,0
33206.079,-18.555,-22.461,32.227,-32.227,0.000,0
33206.083,-33.203,-19.531,34.180,-37.109,0.000,0
33206.086,-29.297,-19.531,-69.824,-9.277,0.000,0
33206.090,-22.949,-20.996,-107.422,-13.672,0.000,0
33206.094,-17.578,-23.438,23.438,-36.621,0.000,0
33206.098,-20.996,-21.484,50.781,-32.227,0.000,0
33206.102,-24.902,-20.996,-37.109,-7.324,0.000,0
33206.106,-28.320,-18.066,-106.934,-4.395,0.000,0
33206.110,-28.320,-19.531,-7.324,-30.762,0.000,0
33206.114,-44.434,-29.297,54.199,-52.246,0.000,0
33206.118,-35.156,-39.551,-16.113,-35.645,0.000,0
33206.122,-26.855,-35.645,-113.770,-27.344,0.000,0
33206.126,-25.879,-25.391,-41.992,-27.832,0.000,0
33206.129,-26.855,-25.879,49.316,-36.621,0.000,0
33206.133,-21.973,-25.879,15.137,-42.480,0.000,0
33206.137,-20.996,-22.949,-94.238,-23.926,0.000,0
33206.141,-30.273,-24.902,-88.379,-25.391,0.000,0
33206.145,-22.949,-30.273,32.715,-45.410,0.000,0
33206.149,-25.879,-24.902,34.180,-41.504,0.000,0
33206.153,-31.250,-24.902,-73.730,-25.391,0.000,0
33206.157,-30.273,-27.832,-115.723,-19.043,0.000,0
33206.161,-28.320,-27.344,10.254,-25.391,0.000,0
33206.165,-40.039,-30.762,45.898,-45.410,0.000,0
33206.168,-34.668,-33.691,-39.062,-20.996,0.000,0
33206.172,-30.762,-26.855,-108.887,-6.836,0.000,0
33206.176,-23.438,-20.508,-16.113,-22.949,0.000,0
33206.180,-25.391,-28.320,47.363,-38.574,0.000,0
33206.184,-20.996,-33.691,-4.883,-26.855,0.000,0
33206.188,-24.902,-26.367,-120.117,-15.137,0.000,0
33206.192,-25.391,-24.414,-79.590,-27.344,0.000,0
33206.196,-27.832,-30.762,40.039,-37.598,0.000,0
33206.200,-28.809,-25.391,5.859,-21.484,0.000,0
33206.204,-25.879,-18.555,-104.980,-16.602,0.000,0
33206.208,-29.785,-22.461,-48.340,-33.691,0.000,0
33206.211,-30.273,-30.762,39.062,-39.062,0.000,0
33206.215,-32.227,-28.809,-4.883,-15.625,0.000,1
33206.219,-30.762,-23.438,-101.074,-9.766,0.000,0
33206.223,-19.531,-21.484,-54.688,-17.578,0.000,0
33206.227,-22.949,-22.949,51.270,-24.414,0.000,0
33206.231,-26.855,-25.391,31.738,-31.250,0.000,0
33206.235,-23.926,-25.879,-77.148,-18.555,0.000,0
33206.239,-27.344,-23.926,-85.449,-27.832,0.000,0
33206.243,-25.391,-22.461,37.109,-45.410,0.000,0
33206.247,-29.785,-20.996,42.969,-41.992,0.000,0
33206.251,-35.156,-22.461,-54.199,-17.090,0.000,0
33206.254,-33.203,-20.020,-118.164,-8.301,0.000,0
33206.258,-26.367,-20.996,0.977,-30.273,0.000,0
33206.262,-33.203,-25.391,59.082,-47.852,0.000,0
33206.266,-23.926,-23.926,-28.320,-18.555,0.000,0
33206.270,-26.855,-20.020,-122.559,-16.602,0.000,0
33206.274,-20.996,-15.625,-31.738,-20.508,0.000,0
33206.278,-30.273,-16.602,62.012,-30.273,0.000,0
33206.282,-26.367,-20.020,16.113,-35.156,0.000,0
33206.286,-19.043,-18.066,-97.656,-12.207,0.000,0
33206.290,-20.020,-15.137,-72.754,-3.418,0.000,0
33206.293,-23.926,-24.902,51.758,-21.973,0.000,0
33206.297,-31.738,-29.297,5.371,-29.785,0.000,0
33206.301,-25.391,-15.625,-98.145,-12.207,0.000,0
33206.305,-25.879,-10.742,-30.273,-19.531,0.000,0
33206.309,-32.227,-20.508,48.340,-35.645,0.000,0
33206.313,-24.414,-24.902,7.324,-2.930,0.000,0
33206.317,-20.996,-26.855,-100.098,0.488,0.000,0
33206.321,-31.738,-31.250,-74.219,-24.902,0.000,0
33206.325,-31.250,-32.715,36.133,-28.809,0.000,0
33206.329,-27.344,-29.785,24.902,-29.785,0.000,0
33206.333,-25.879,-26.855,-79.102,-19.043,0.000,0
33206.336,-23.438,-20.996,-103.516,-23.926,0.000,0
33206.340,-17.578,-18.555,23.926,-34.180,0.000,0
33206.344,-28.809,-20.996,47.852,-38.574,0.000,0
33206.348,-22.949,-20.020,-34.668,-11.719,0.000,0
33206.352,-18.066,-22.461,-109.863,0.977,0.000,0
33206.356,-13.672,-27.344,-5.859,-13.672,0.000,0
33206.360,-20.020,-25.879,66.406,-31.250,0.000,0
33206.364,-10.254,-23.926,3.418,-6.348,0.000,0
33206.368,0.488,-20.996,-108.398,-7.812,0.000,0
33206.372,-5.371,-20.508,-55.176,-20.508,0.000,0
33206.376,-20.020,-20.020,47.363,-24.414,0.000,0
33206.379,-29.785,-20.020,25.879,-29.785,0.000,0
33206.383,-31.738,-26.367,-93.262,-25.879,0.000,0
33206.387,-24.902,-21.484,-93.750,-23.926,0.000,0
33206.391,-25.391,-22.461,31.738,-25.879,0.000,0
33206.395,-30.762,-25.879,40.527,-23.438,0.000,0
33206.399,-23.926,-22.461,-58.105,-3.906,0.000,0
33206.403,-23.926,-20.508,-98.633,-19.043,0.000,0
33206.407,-22.949,-15.625,25.879,-27.832,0.000,0
33206.411,-30.273,-17.578,56.641,-36.133,0.000,0
33206.415,-18.555,-24.414,-27.344,-25.391,0.000,0
33206.418,-13.184,-19.043,-104.980,-22.949,0.000,0
33206.422,0.000,-13.184,-6.348,-28.809,0.000,0
33206.426,-1.465,-16.602,60.059,-26.855,0.000,0
33206.430,-4.395,-15.137,0.977,-3.906,0.000,0
33206.434,-12.695,-11.719,-99.121,12.695,0.000,0
33206.438,-19.043,-17.578,-41.016,-3.418,0.000,0
33206.442,-18.555,-21.484,51.270,-26.367,0.000,0
33206.446,-22.949,-24.414,18.555,-26.855,0.000,0
33206.450,-20.020,-22.949,-89.844,-5.371,0.000,0
33206.454,-16.113,-18.066,-85.938,12.695,0.000,0
33206.458,-17.090,-20.508,39.551,-7.324,0.000,0
33206.461,-22.949,-21.973,41.016,-34.180,0.000,0
33206.465,-16.602,-20.996,-58.594,-11.719,0.000,0
33206.469,-0.977,-16.602,-109.375,-5.859,0.000,0
33206.473,-4.395,-15.137,8.789,-22.461,0.000,0
33206.477,-22.949,-18.555,62.988,-36.133,0.000,0
33206.481,-16.113,-18.066,-11.719,-22.461,0.000,0
33206.485,-20.508,-12.207,-110.352,-15.625,0.000,0
33206.489,-17.578,-13.672,-34.668,-20.508,0.000,0
33206.493,-18.066,-25.391,44.922,-40.039,0.000,0
33206.497,-10.254,-23.438,14.648,-37.598,0.000,0
33206.501,-8.301,-19.531,-96.680,-12.695,0.000,0
33206.504,-17.578,-22.949,-71.289,-22.949,0.000,0
33206.508,-22.461,-22.949,44.434,-37.109,0.000,0
33206.512,-26.367,-21.484,30.273,-28.320,0.000,0
33206.516,-20.996,-26.855,-81.543,-34.180,0.000,0
33206.520,-12.695,-20.996,-105.469,-37.598,0.000,0
33206.524,-27.344,-20.508,20.996,-35.156,0.000,0
33206.528,-49.316,-26.855,45.410,-33.203,0.000,0
33206.532,-32.227,-21.484,-45.410,-19.043,0.000,0
33206.536,-23.438,-23.926,-108.887,-22.949,0.000,0
33206.540,-19.531,-29.297,-5.371,-24.902,0.000,0
33206.543,-30.762,-27.832,54.688,-37.598,0.000,0
33206.547,-19.531,-22.949,-12.695,-28.320,0.000,0
33206.551,-17.578,-21.484,-111.328,-11.719,0.000,0
33206.555,-28.320,-32.715,-38.086,-39.062,0.000,0
33206.559,-32.715,-33.691,52.734,-59.570,0.000,0
33206.563,-32.715,-28.320,13.672,-37.109,0.000,0
33206.567,-32.227,-24.902,-103.027,-15.625,0.000,0
33206.571,-31.250,-18.555,-84.473,-19.531,0.000,0
33206.575,-27.344,-20.020,41.504,-33.203,0.000,0
33206.579,-30.273,-23.438,29.297,-28.320,0.000,0
33206.583,-30.762,-24.902,-80.078,-7.324,0.000,0
33206.586,-35.156,-24.414,-102.539,-16.113,0.000,0
33206.590,-35.645,-26.855,26.855,-33.691,0.000,0
33206.594,-27.832,-31.250,52.246,-47.363,0.000,0
33206.598,-17.090,-22.461,-39.062,-33.691,0.000,0
33206.602,-18.066,-16.113,-109.375,-22.949,0.000,0
33206.606,-11.719,-22.949,-5.371,-28.809,0.000,0
33206.610,-22.949,-21.973,54.199,-37.109,0.000,0
33206.614,-22.461,-21.973,-2.441,-34.180,0.000,0
33206.618,-20.996,-21.973,-98.145,-19.531,0.000,0
33206.622,-10.742,-15.137,-44.434,-19.531,0.000,0
33206.626,-11.719,-20.020,50.293,-36.621,0.000,0
33206.629,-20.020,-21.484,20.020,-18.066,0.000,0
33206.633,-17.090,-20.508,-82.520,-7.812,0.000,0
33206.637,-7.812,-19.531,-77.637,-26.855,0.000,0
33206.641,-12.207,-23.438,34.668,-34.668,0.000,0
33206.645,-21.484,-21.484,42.969,-30.762,0.000,0
33206.649,-6.836,-10.254,-53.223,-12.207,0.000,0
33206.653,-5.859,-1.953,-93.750,-13.672,0.000,0
33206.657,-11.719,-4.395,22.461,-25.391,0.000,0
33206.661,-25.391,-11.719,51.758,-37.109,0.000,0
33206.665,-18.066,-15.625,-23.926,-22.461,0.000,0
33206.668,-18.066,-19.531,-109.375,-0.488,0.000,0
33206.672,-17.090,-16.602,-18.555,-10.742,0.000,0
33206.676,-20.508,-14.648,58.105,-35.645,0.000,0
33206.680,-21.973,-18.066,-2.441,-23.926,0.000,0
33206.684,-15.625,-14.160,-114.746,-20.020,0.000,0
33206.688,-9.277,-15.137,-65.918,-20.508,0.000,0
33206.692,-17.578,-21.973,47.363,-30.762,0.000,0
33206.696,-29.785,-18.066,24.902,-46.387,0.000,0
33206.700,-23.438,-17.578,-94.727,-31.738,0.000,0
33206.704,-21.973,-24.414,-102.539,-23.926,0.000,0
33206.708,-30.273,-21.973,28.320,-36.133,0.000,0
33206.711,-34.180,-23.926,37.598,-39.551,0.000,0
33206.715,-29.297,-29.785,-68.359,-23.926,0.000,0
33206.719,-35.645,-27.832,-122.070,-19.043,0.000,0
33206.723,-28.809,-29.297,0.488,-22.461,0.000,0
33206.727,-24.902,-27.344,49.316,-26.855,0.000,0
33206.731,-16.602,-25.391,-21.484,-16.113,0.000,0
33206.735,-24.414,-29.297,-109.375,-24.902,0.000,0
33206.739,-19.531,-27.832,-33.203,-29.785,0.000,0
33206.743,-20.996,-31.250,45.410,-40.039,0.000,0
33206.747,-27.344,-35.645,-0.977,-33.203,0.000,0
33206.751,-27.832,-33.203,-107.422,-17.578,0.000,0
33206.754,-25.391,-28.320,-75.195,-20.020,0.000,0
33206.758,-32.715,-27.344,32.715,-30.273,0.000,0
33206.762,-37.598,-34.668,20.020,-34.180,0.000,0
33206.766,-30.762,-28.809,-84.961,-18.066,0.000,0
33206.770,-36.621,-22.949,-97.168,-17.578,0.000,0
33206.774,-33.691,-35.645,18.066,-31.738,0.000,0
33206.778,-39.062,-37.109,30.273,-50.781,0.000,0
33206.782,-30.273,-33.203,-54.688,-28.320,0.000,0
33206.786,-22.461,-26.855,-119.141,-9.766,0.000,0
33206.790,-19.531,-22.949,-7.324,-38.086,0.000,0
33206.793,-32.227,-29.785,53.711,-51.758,0.000,0
33206.797,-35.645,-20.508,-11.719,-21.973,0.000,0
33206.801,-29.785,-13.184,-111.328,-32.715,0.000,0
33206.805,-20.508,-19.531,-47.363,-43.457,0.000,0
33206.809,-41.016,-23.438,40.039,-46.387,0.000,0
33206.813,-48.828,-26.367,11.230,-44.434,0.000,0
33206.817,-38.086,-27.344,-106.445,-21.973,0.000,1
33206.821,-39.551,-25.391,-98.633,-17.090,0.000,0
33206.825,-41.016,-23.438,19.043,-22.949,0.000,0
33206.829,-42.480,-27.344,27.344,-28.320,0.000,0
33206.833,-30.273,-25.391,-73.242,-26.855,0.000,0
33206.836,-29.297,-15.625,-112.305,-23.926,0.000,0
33206.840,-28.320,-18.066,17.090,-36.133,0.000,0
33206.844,-39.062,-24.414,50.781,-43.945,0.000,0
33206.848,-31.738,-23.438,-36.133,-26.367,0.000,0
33206.852,-30.762,-17.578,-100.098,-26.855,0.000,0
33206.856,-29.785,-19.043,-7.324,-15.625,0.000,0
33206.860,-30.762,-23.438,48.340,-34.180,0.000,0
33206.864,-25.391,-18.555,-9.766,-33.691,0.000,0
33206.868,-33.203,-13.672,-114.258,-20.508,0.000,0
33206.872,-34.668,-18.066,-49.316,-42.480,0.000,0
33206.876,-29.785,-16.113,56.641,-48.828,0.000,0
33206.879,-33.203,-16.113,19.531,-34.668,0.000,0
33206.883,-35.156,-20.996,-104.004,-14.648,0.000,0
33206.887,-23.926,-17.090,-92.285,-11.719,0.000,0
33206.891,-15.137,-25.879,39.551,-35.156,0.000,0
33206.895,-28.320,-29.785,34.668,-38.086,0.000,0
33206.899,-29.297,-25.391,-65.918,-11.719,0.000,0
33206.903,-33.203,-23.926,-107.422,-2.930,0.000,0
33206.907,-39.551,-25.391,8.301,-19.531,0.000,0
33206.911,-40.527,-22.949,55.664,-49.316,0.000,0
33206.915,-18.066,-16.602,-17.090,-22.949,0.000,0
33206.918,-19.043,-13.184,-101.562,-5.859,0.000,0
33206.922,-17.578,-19.531,-14.648,-15.137,0.000,0
33206.926,-26.367,-20.508,44.434,-29.297,0.000,0
33206.930,-29.785,-22.949,-8.301,-29.785,0.000,0
33206.934,-22.949,-19.043,-103.516,-11.719,0.000,0
33206.938,-22.461,-18.555,-66.406,-13.672,0.000,0
33206.942,-30.762,-28.320,37.109,-35.156,0.000,0
33206.946,-25.391,-24.414,22.949,-29.297,0.000,0
33206.950,-20.996,-20.020,-86.914,-12.207,0.000,0
33206.954,-34.180,-21.973,-98.633,-19.531,0.000,0
33206.958,-25.391,-22.949,19.531,-29.785,0.000,0
33206.961,-21.973,-23.438,29.785,-28.320,0.000,0
33206.965,-19.531,-21.484,-62.988,-3.906,0.000,0
33206.969,-8.301,-15.137,-107.422,-1.953,0.000,0
33206.973,-6.836,-18.066,10.254,-25.391,0.000,0
33206.977,-23.926,-19.043,57.129,-44.434,0.000,0
33206.981,-21.484,-22.949,-17.090,-25.879,0.000,0
33206.985,-25.391,-23.926,-119.629,-18.555,0.000,0
33206.989,-27.344,-23.926,-39.062,-30.273,0.000,0
33206.993,-32.715,-26.367,48.828,-43.945,0.000,0
33206.997,-27.344,-28.320,0.000,-18.066,0.000,0
33207.001,-29.785,-28.809,-111.816,-0.977,0.000,0
33207.004,-29.785,-24.414,-76.660,-9.277,0.000,0
33207.008,-32.227,-27.832,45.410,-29.785,0.000,0
33207.012,-30.762,-31.250,26.367,-38.574,0.000,0
33207.016,-20.020,-24.414,-87.402,-16.602,0.000,0
33207.020,-15.625,-17.090,-102.051,-20.508,0.000,0
33207.024,-14.648,-23.438,22.461,-23.926,0.000,0
33207.028,-30.762,-29.297,35.156,-16.113,0.000,0
33207.032,-23.438,-28.320,-52.246,-10.742,0.000,0
33207.036,-25.391,-23.438,-118.164,-18.555,0.000,0
33207.040,-19.531,-28.320,-8.789,-17.090,0.000,0
33207.043,-18.555,-27.832,46.875,-19.531,0.000,0
33207.047,-19.043,-25.879,-32.715,-16.602,0.000,0
33207.051,-21.973,-24.414,-119.141,-20.020,0.000,0
33207.055,-20.996,-23.926,-46.875,-23.438,0.000,0
33207.059,-30.273,-30.273,39.551,-29.785,0.000,0
33207.063,-28.809,-29.785,4.395,-23.438,0.000,0
33207.067,-25.879,-23.926,-97.656,-8.789,0.000,0
33207.071,-27.832,-21.973,-77.148,-20.996,0.000,0
33207.075,-27.344,-25.391,30.273,-40.039,0.000,0
33207.079,-32.715,-31.738,21.973,-37.598,0.000,0
33207.083,-33.691,-31.250,-77.637,-15.625,0.000,0
33207.086,-36.621,-25.879,-105.469,-16.113,0.000,0
33207.090,-22.461,-28.320,19.043,-33.203,0.000,0
33207.094,-19.043,-27.344,48.828,-41.992,0.000,0
33207.098,-21.973,-23.438,-33.203,-21.973,0.000,0
33207.102,-16.113,-18.555,-110.352,-17.090,0.000,0
33207.106,-9.277,-20.996,-16.113,-33.691,0.000,0
33207.110,-19.531,-27.344,56.152,-41.504,0.000,0
33207.114,-14.648,-23.438,0.000,-17.090,0.000,0
33207.118,-20.020,-21.973,-115.723,-12.207,0.000,0
33207.122,-21.484,-27.344,-62.988,-11.719,0.000,0
33207.126,-25.391,-31.738,47.852,-42.969,0.000,0
33207.129,-27.344,-32.227,21.484,-53.223,0.000,0
33207.133,-20.508,-25.879,-102.051,-19.043,0.000,0
33207.137,-23.926,-22.949,-96.191,-14.648,0.000,0
33207.141,-28.809,-29.297,34.668,-23.926,0.000,0
33207.145,-39.062,-32.715,47.363,-31.738,0.000,0
33207.149,-25.391,-29.297,-55.176,-26.367,0.000,0
33207.153,-12.695,-19.531,-107.422,-12.695,0.000,0
33207.157,-14.648,-17.578,7.812,-30.762,0.000,0
33207.161,-22.949,-21.484,49.316,-45.410,0.000,0
33207.165,-12.695,-18.555,-25.391,-21.484,0.000,0
33207.168,-14.160,-20.508,-105.469,-22.461,0.000,0
33207.172,-13.184,-23.926,-14.160,-23.926,0.000,0
33207.176,-29.785,-36.621,52.246,-34.180,0.000,0
33207.180,-29.297,-40.527,-2.930,-25.879,0.000,0
33207.184,-25.391,-29.297,-105.469,-22.461,0.000,0
33207.188,-25.879,-26.367,-52.246,-35.645,0.000,0
33207.192,-19.531,-23.926,52.246,-34.668,0.000,0
33207.196,-15.137,-23.438,23.926,-39.062,0.000,0
33207.200,-9.277,-19.531,-86.426,-20.996,0.000,0
33207.204,5.371,-18.066,-89.844,6.836,0.000,0
33207.208,-0.488,-23.438,37.109,-17.090,0.000,0
33207.211,-45.898,-22.949,43.945,-47.852,0.000,0
33207.215,-49.316,-20.996,-61.523,-28.320,0.000,0
33207.219,-23.926,-16.113,-113.281,-7.812,0.000,0
33207.223,-14.648,-15.137,8.789,-16.113,0.000,0
33207.227,-35.645,-20.020,55.664,-51.270,0.000,0
33207.231,-21.484,-22.949,-73.242,-30.273,0.000,0
33207.235,-11.230,-19.043,-95.215,-2.930,0.000,0
33207.239,-35.156,-19.531,13.184,-30.273,0.000,0
33207.243,-37.109,-20.996,27.832,-39.062,0.000,0
33207.247,-25.391,-17.090,-49.316,-16.602,0.000,0
33207.251,-25.879,-20.508,-118.652,-13.672,0.000,0
33207.254,-17.090,-25.391,-17.090,-24.902,0.000,0
33207.258,-23.438,-29.785,44.434,-34.668,0.000,0
33207.262,-25.879,-36.133,-24.414,-27.832,0.000,0
33207.266,-21.973,-34.668,-126.953,-26.855,0.000,0
33207.270,-20.020,-26.367,-45.410,-27.344,0.000,0
33207.274,-35.645,-30.762,41.992,-23.926,0.000,0
33207.278,-36.133,-33.203,-1.953,-13.672,0.000,0
33207.282,-23.926,-20.996,-100.098,-0.977,0.000,0
33207.286,-25.879,-20.020,-76.660,-25.391,0.000,0
33207.290,-25.879,-25.879,39.551,-56.152,0.000,0
33207.293,-17.090,-27.344,35.156,-49.805,0.000,0
33207.297,-6.836,-20.508,-74.707,-20.020,0.000,0
33207.301,-10.254,-14.160,-102.539,-7.812,0.000,0
33207.305,-7.812,-13.672,26.367,-22.949,0.000,0
33207.309,-21.973,-19.531,45.898,-33.691,0.000,0
33207.313,-25.391,-24.902,-53.711,-17.090,0.000,0
33207.317,-25.879,-19.043,-123.047,-17.578,0.000,0
33207.321,-16.602,-11.230,-8.301,-22.461,0.000,0
33207.325,-20.508,-17.090,56.641,-35.156,0.000,0
33207.329,-13.672,-22.949,-19.043,-22.949,0.000,0
33207.333,-4.883,-18.066,-118.164,-13.672,0.000,0
33207.336,-12.207,-16.113,-46.387,-14.160,0.000,0
33207.340,-26.367,-23.926,42.969,-13.672,0.000,0
33207.344,-21.484,-32.715,6.836,-15.137,0.000,0
33207.348,-20.996,-21.973,-93.262,1.953,0.000,1
33207.352,-22.949,-17.578,-79.102,-15.137,0.000,0
33207.356,-25.391,-21.484,28.320,-45.898,0.000,0
33207.360,-30.273,-24.414,25.391,-45.898,0.000,0
33207.364,-17.090,-23.926,-64.453,-35.156,0.000,0
33207.368,-18.555,-20.508,-104.492,-35.645,0.000,0
33207.372,-27.344,-24.902,11.230,-41.016,0.000,0
33207.376,-42.969,-28.809,43.945,-41.016,0.000,0
33207.379,-40.039,-28.320,-36.621,-18.066,0.000,0
33207.383,-34.668,-27.344,-116.699,-26.367,0.000,0
33207.387,-23.926,-26.367,-35.645,-39.551,0.000,0
33207.391,-24.414,-25.879,34.180,-44.922,0.000,0
33207.395,-24.414,-25.879,-12.695,-26.367,0.000,0
33207.399,-24.414,-24.414,-110.840,-7.324,0.000,0
33207.403,-18.066,-22.461,-49.805,-20.508,0.000,0
33207.407,-19.531,-26.367,54.199,-27.832,0.000,0
33207.411,-25.391,-29.785,19.531,-18.066,0.000,0
33207.415,-22.461,-20.996,-91.309,-4.395,0.000,0
33207.418,-23.926,-19.531,-85.938,-16.113,0.000,0
33207.422,-28.809,-30.762,42.480,-39.062,0.000,0
33207.426,-36.621,-28.320,45.898,-32.227,0.000,0
33207.430,-20.996,-18.555,-64.453,-2.930,0.000,0
33207.434,-13.184,-18.066,-110.840,-12.695,0.000,0
33207.438,-8.301,-26.855,15.137,-30.762,0.000,0
33207.442,-16.113,-32.715,51.270,-40.039,0.000,0
33207.446,-23.926,-27.344,-32.227,-28.320,0.000,0
33207.450,-26.855,-20.508,-125.000,-5.859,0.000,0
33207.454,-17.090,-22.949,-34.668,-7.812,0.000,0
33207.458,-22.461,-23.438,50.781,-29.785,0.000,0
