timestamps,TP9,AF7,AF8,TP10,Right AUX,Marker0
33323.278,-24.902,-18.066,-101.562,-1.465,0.000,0
33323.282,-28.320,-21.973,-34.668,-2.930,0.000,0
33323.286,-41.504,-26.367,36.133,-43.457,0.000,0
33323.290,-40.527,-23.438,-0.977,-48.340,0.000,0
33323.293,-33.203,-21.973,-101.074,-22.461,0.000,0
33323.297,-33.691,-24.414,-84.473,-25.879,0.000,0
33323.301,-28.809,-29.785,26.367,-42.969,0.000,0
33323.305,-23.438,-30.273,20.508,-43.457,0.000,0
33323.309,-27.832,-24.902,-66.406,-30.762,0.000,0
33323.313,-34.180,-21.484,-82.520,-32.227,0.000,0
33323.317,-33.691,-28.320,14.160,-34.180,0.000,0
33323.321,-41.992,-28.809,35.156,-45.410,0.000,0
33323.325,-28.320,-26.855,-30.273,-33.203,0.000,0
33323.329,-22.949,-23.438,-108.887,-5.859,0.000,0
33323.333,-28.809,-24.414,-22.949,-17.578,0.000,0
33323.336,-43.945,-32.227,43.457,-41.504,0.000,0
33323.340,-33.203,-30.762,-6.348,-29.297,0.000,0
33323.344,-28.320,-28.809,-96.191,-29.297,0.000,0
33323.348,-29.785,-27.344,-55.664,-33.203,0.000,0
33323.352,-29.785,-30.273,30.273,-44.434,0.000,0
33323.356,-30.762,-34.668,5.371,-31.250,0.000,0
33323.360,-30.762,-32.227,-95.215,-23.438,0.000,0
33323.364,-27.832,-30.273,-93.262,-41.504,0.000,0
33323.368,-18.066,-32.715,17.090,-39.551,0.000,0
33323.372,-30.273,-32.715,22.949,-41.016,0.000,0
33323.376,-26.367,-26.367,-62.012,-22.461,0.000,0
33323.379,-17.090,-26.367,-101.074,-12.207,0.000,0
33323.383,-20.020,-32.227,3.906,-34.180,0.000,0
33323.387,-37.598,-34.668,32.227,-52.246,0.000,0
33323.391,-35.156,-27.344,-31.250,-24.902,0.000,0
33323.395,-22.949,-23.438,-104.980,-8.789,0.000,0
33323.399,-19.043,-27.344,-30.762,-29.785,0.000,0
33323.403,-34.180,-31.250,48.828,-52.734,0.000,0
33323.407,-28.809,-27.344,-0.977,-31.250,0.000,0
33323.411,-32.227,-24.902,-104.980,-13.184,0.000,0
33323.415,-35.156,-27.344,-63.965,-19.531,0.000,0
33323.418,-36.133,-30.762,31.738,-30.762,0.000,0
33323.422,-30.762,-26.855,20.508,-33.691,0.000,0
33323.426,-26.367,-19.531,-76.660,-21.973,0.000,0
33323.430,-38.086,-21.484,-92.773,-12.695,0.000,0
33323.434,-35.645,-23.438,25.391,-31.250,0.000,0
33323.438,-36.133,-25.391,34.180,-44.434,0.000,0
33323.442,-26.855,-31.738,-78.613,-22.461,0.000,0
33323.446,-23.926,-28.809,-55.176,-25.391,0.000,0
33323.450,-20.020,-26.367,41.992,-45.898,0.000,0
33323.454,-14.160,-30.762,19.531,-28.809,0.000,0
33323.458,-24.414,-30.762,-72.266,-7.812,0.000,0
33323.461,-26.855,-27.832,-82.031,-22.461,0.000,0
33323.465,-24.414,-27.832,13.184,-33.691,0.000,0
33323.469,-25.879,-28.809,28.809,-39.062,0.000,0
33323.473,-15.137,-29.785,-44.922,-19.043,0.000,0
33323.477,-20.996,-25.879,-103.027,-23.926,0.000,0
33323.481,-30.273,-23.438,-4.395,-45.410,0.000,0
33323.485,-38.086,-28.320,44.434,-43.945,0.000,0
33323.489,-30.273,-27.344,-12.695,-23.438,0.000,0
33323.493,-21.484,-23.438,-107.422,-8.301,0.000,0
33323.497,-17.090,-26.855,-45.898,-26.367,0.000,0
33323.501,-30.762,-35.156,41.504,-52.246,0.000,0
33323.504,-28.320,-33.203,3.418,-30.273,0.000,0
33323.508,-25.391,-25.879,-95.215,-19.043,0.000,0
33323.512,-28.320,-25.879,-79.102,-25.879,0.000,0
33323.516,-30.273,-32.227,27.832,-31.738,0.000,0
33323.520,-30.762,-37.109,26.367,-36.133,0.000,0
33323.524,-19.043,-36.133,-72.754,-20.996,0.000,0
33323.528,-16.113,-31.738,-103.027,-21.973,0.000,0
33323.532,-20.996,-34.668,7.324,-22.949,0.000,0
33323.536,-29.785,-36.621,38.574,-23.926,0.000,0
33323.540,-17.578,-30.762,-35.156,-16.602,0.000,0
33323.543,-9.766,-27.344,-108.398,-16.113,0.000,0
33323.547,-14.160,-30.273,-15.625,-18.066,0.000,0
33323.551,-27.344,-32.715,43.457,-23.926,0.000,0
33323.555,-22.461,-24.902,-15.625,-25.391,0.000,0
33323.559,-20.020,-19.531,-107.422,-25.391,0.000,0
33323.563,-15.137,-23.926,-42.969,-30.273,0.000,0
33323.567,-30.273,-30.273,45.410,-36.133,0.000,0
33323.571,-36.133,-32.227,8.789,-32.715,0.000,0
33323.575,-23.926,-23.438,-83.984,-12.695,0.000,0
33323.579,-25.879,-23.926,-71.777,-6.836,0.000,0
33323.583,-25.879,-32.715,27.832,-19.043,0.000,0
33323.586,-16.113,-31.250,27.344,-23.926,0.000,0
33323.590,-9.766,-32.715,-59.570,-13.672,0.000,0
33323.594,-14.648,-24.414,-91.797,-14.648,0.000,0
33323.598,-11.230,-19.531,13.672,-22.949,0.000,0
33323.602,-16.113,-27.344,41.504,-29.785,0.000,0
33323.606,-16.113,-26.367,-31.738,-8.789,0.000,0
33323.610,-16.113,-23.438,-111.328,2.441,0.000,0
33323.614,-6.348,-19.043,-21.484,-4.883,0.000,0
33323.618,-12.695,-23.926,53.223,-23.926,0.000,0
33323.622,-14.160,-20.996,1.465,-15.137,0.000,0
33323.626,-16.113,-14.648,-96.680,-2.930,0.000,0
33323.629,-19.043,-17.578,-55.176,-9.277,0.000,0
33323.633,-18.555,-17.578,34.180,-20.996,0.000,0
33323.637,-18.555,-22.949,16.602,-27.344,0.000,0
33323.641,-15.625,-25.391,-75.684,-11.230,0.000,0
33323.645,-20.508,-29.785,-90.332,-7.812,0.000,0
33323.649,-20.508,-41.016,16.602,-26.855,0.000,0
33323.653,-15.625,-36.621,36.621,-20.508,0.000,0
33323.657,-8.301,-26.367,-48.340,-2.930,0.000,0
33323.661,-9.277,-23.926,-112.793,-6.836,0.000,0
33323.665,-17.578,-25.391,-16.602,-23.438,0.000,0
33323.668,-34.180,-28.809,30.273,-28.320,0.000,0
33323.672,-23.926,-28.809,-35.645,3.906,0.000,0
33323.676,-27.344,-30.273,-120.117,0.488,0.000,0
33323.680,-27.832,-26.367,-42.480,-18.555,0.000,0
33323.684,-23.926,-25.879,42.969,-29.785,0.000,0
33323.688,-34.668,-28.809,6.348,-9.766,0.000,0
33323.692,-37.598,-24.414,-92.773,-1.465,0.000,0
33323.696,-31.250,-27.344,-59.082,-31.738,0.000,0
33323.700,-38.574,-36.133,33.203,-47.852,0.000,0
33323.704,-38.574,-32.227,13.184,-34.668,0.000,0
33323.708,-26.367,-26.855,-77.148,-5.859,0.000,0
33323.711,-26.367,-27.344,-96.680,-6.836,0.000,0
33323.715,-29.297,-30.273,20.020,-36.133,0.000,0
33323.719,-29.785,-34.668,37.598,-40.039,0.000,0
33323.723,-24.902,-32.715,-57.617,-13.184,0.000,0
33323.727,-27.344,-24.902,-111.816,-7.812,0.000,0
33323.731,-28.320,-29.785,-4.883,-17.090,0.000,0
33323.735,-41.016,-37.598,41.504,-39.551,0.000,0
33323.739,-29.785,-35.156,-23.438,-26.367,0.000,0
33323.743,-21.484,-28.320,-104.492,-4.883,0.000,0
33323.747,-20.020,-27.832,-39.551,-14.160,0.000,0
33323.751,-31.738,-31.738,40.039,-28.809,0.000,0
33323.754,-38.086,-34.668,11.230,-33.691,0.000,0
33323.758,-29.297,-26.855,-83.496,-28.320,0.000,0
33323.762,-23.438,-25.879,-69.336,-25.391,0.000,0
33323.766,-28.809,-32.715,30.273,-40.039,0.000,0
33323.770,-27.832,-25.879,20.508,-30.273,0.000,0
33323.774,-27.832,-23.926,-67.383,-13.672,0.000,0
33323.778,-33.691,-28.320,-93.750,-23.926,0.000,0
33323.782,-18.555,-27.832,-0.488,-27.832,0.000,0
33323.786,-23.438,-31.250,27.832,-30.273,0.000,0
33323.790,-21.484,-34.180,-47.852,-15.137,0.000,0
33323.793,-14.648,-27.344,-114.258,-15.137,0.000,0
33323.797,-13.672,-26.855,-18.066,-28.809,0.000,0
33323.801,-20.508,-29.785,41.992,-43.945,0.000,0
33323.805,-21.484,-31.738,-11.230,-35.645,0.000,0
33323.809,-28.320,-25.879,-105.957,-16.113,0.000,0
33323.813,-25.879,-25.391,-53.223,-21.973,0.000,0
33323.817,-33.203,-33.203,41.992,-38.574,0.000,0
33323.821,-36.133,-34.180,17.578,-30.273,0.000,0
33323.825,-26.855,-27.344,-85.938,-12.207,0.000,0
33323.829,-17.578,-22.949,-81.055,-11.719,0.000,0
33323.833,-10.254,-22.461,34.668,-23.438,0.000,0
33323.836,-15.137,-26.367,37.598,-19.531,0.000,0
33323.840,-20.020,-26.367,-61.035,-15.137,0.000,0
33323.844,-21.484,-17.578,-102.539,-21.484,0.000,0
33323.848,-16.602,-21.484,7.812,-11.719,0.000,0
33323.852,-16.602,-23.926,40.527,-26.367,0.000,0
33323.856,-9.766,-15.625,-80.078,-16.113,0.000,0
33323.860,-4.395,-19.043,-91.797,-11.719,0.000,0
33323.864,-18.555,-24.414,28.320,-32.715,0.000,0
33323.868,-25.391,-19.043,33.203,-32.227,0.000,0
33323.872,-12.207,-21.484,-60.547,-11.719,0.000,0
33323.876,-19.531,-25.391,-103.516,-10.254,0.000,0
33323.879,-14.160,-23.926,6.836,-29.297,0.000,0
33323.883,-14.648,-24.414,44.434,-39.551,0.000,0
33323.887,-15.137,-24.414,-30.762,-16.113,0.000,0
33323.891,-16.602,-22.461,-104.980,-1.465,0.000,0
33323.895,-14.648,-20.996,-26.367,-14.160,0.000,0
33323.899,-21.973,-29.785,36.133,-40.527,0.000,0
33323.903,-22.949,-31.738,-4.883,-27.832,0.000,0
33323.907,-27.344,-23.926,-102.051,-11.719,0.000,0
33323.911,-25.879,-25.879,-64.941,-21.484,0.000,0
33323.915,-21.484,-29.785,35.156,-34.180,0.000,0
33323.918,-30.762,-32.227,13.184,-35.645,0.000,0
33323.922,-32.227,-29.785,-87.891,-21.484,0.000,0
33323.926,-24.902,-20.996,-91.309,-22.949,0.000,0
33323.930,-22.949,-27.344,23.438,-35.645,0.000,0
33323.934,-37.109,-34.180,39.062,-41.992,0.000,0
33323.938,-39.551,-33.203,-51.270,-32.715,0.000,0
33323.942,-37.109,-33.203,-108.887,-31.738,0.000,0
33323.946,-25.879,-32.227,-6.348,-33.691,0.000,0
33323.950,-24.414,-27.832,40.527,-36.133,0.000,0
33323.954,-22.949,-28.809,-17.578,-19.531,0.000,0
33323.958,-27.832,-29.785,-109.863,1.953,0.000,0
33323.961,-9.277,-26.367,-42.969,10.742,0.000,0
33323.965,-13.672,-28.320,35.156,-20.020,0.000,0
33323.969,-47.363,-29.785,10.742,-41.016,0.000,0
33323.973,-52.734,-27.832,-87.402,-40.039,0.000,0
33323.977,-44.434,-29.785,-75.684,-52.734,0.000,0
33323.981,-42.969,-30.273,28.809,-57.617,0.000,0
33323.985,-44.922,-26.855,16.602,-49.316,0.000,0
33323.989,-32.715,-26.367,-82.031,-29.297,0.000,0
33323.993,-28.320,-20.020,-92.773,-16.113,0.000,0
33323.997,-25.391,-21.484,16.113,-18.066,0.000,0
33324.001,-26.855,-25.391,36.621,-26.855,0.000,0
33324.004,-13.672,-21.973,-40.039,-8.789,0.000,0
33324.008,-8.789,-24.902,-105.469,-8.789,0.000,0
33324.012,-27.832,-30.273,-3.906,-31.738,0.000,0
33324.016,-37.109,-29.297,45.898,-39.062,0.000,0
33324.020,-19.043,-30.273,-16.602,-17.090,0.000,0
33324.024,-16.602,-28.320,-108.398,0.488,0.000,0
33324.028,-19.531,-25.391,-46.875,-15.137,0.000,0
33324.032,-27.344,-29.297,41.992,-41.992,0.000,0
33324.036,-22.461,-26.367,11.719,-26.367,0.000,0
33324.040,-19.043,-18.066,-92.285,-9.766,0.000,0
33324.043,-24.902,-23.438,-87.891,-21.973,0.000,0
33324.047,-26.367,-29.785,28.809,-36.133,0.000,0
33324.051,-26.367,-26.855,34.668,-40.039,0.000,0
33324.055,-20.020,-24.414,-64.453,-29.297,0.000,0
33324.059,-15.625,-22.949,-90.820,-15.137,0.000,0
33324.063,-13.672,-28.809,9.277,-20.996,0.000,0
33324.067,-29.785,-32.227,23.926,-36.133,0.000,0
33324.071,-19.043,-27.832,-28.320,-15.625,0.000,0
33324.075,-16.602,-21.973,-93.750,2.930,0.000,0
33324.079,-17.578,-20.020,-15.137,-14.648,0.000,0
33324.083,-26.367,-21.484,44.922,-44.922,0.000,0
33324.086,-28.320,-27.344,-0.977,-44.922,0.000,0
33324.090,-14.648,-30.273,-89.844,-34.180,0.000,0
33324.094,-17.578,-22.949,-52.734,-30.762,0.000,0
33324.098,-26.367,-23.926,34.668,-36.133,0.000,0
33324.102,-21.973,-30.762,12.695,-32.227,0.000,0
33324.106,-21.973,-31.250,-81.543,-20.020,0.000,0
33324.110,-26.367,-29.785,-73.242,-22.949,0.000,0
33324.114,-25.879,-33.203,18.555,-38.574,0.000,0
33324.118,-39.062,-37.109,21.973,-50.293,0.000,0
33324.122,-35.645,-29.297,-59.082,-20.996,0.000,0
33324.126,-23.926,-20.020,-104.980,-9.277,0.000,0
33324.129,-10.254,-24.414,10.742,-40.527,0.000,0
33324.133,-19.043,-32.715,46.387,-46.875,0.000,0
33324.137,-21.973,-34.180,-24.902,-11.719,0.000,0
33324.141,-25.391,-28.809,-104.004,-12.207,0.000,0
33324.145,-32.715,-35.645,-32.227,-23.926,0.000,0
33324.149,-45.898,-40.039,41.016,-38.574,0.000,0
33324.153,-36.133,-31.250,-5.859,-36.133,0.000,0
33324.157,-27.344,-29.297,-104.980,-15.137,0.000,0
33324.161,-31.738,-34.180,-66.895,-20.020,0.000,0
33324.165,-36.621,-34.180,29.785,-37.109,0.000,0
33324.168,-38.574,-35.156,7.324,-40.039,0.000,0
33324.172,-37.598,-38.574,-100.098,-28.320,0.000,0
33324.176,-41.016,-38.574,-112.793,-18.066,0.000,0
33324.180,-38.086,-33.691,7.812,-22.949,0.000,0
33324.184,-34.180,-28.320,17.578,-29.297,0.000,0
33324.188,-30.273,-25.391,-91.797,-12.695,0.000,0
33324.192,-28.320,-23.438,-65.430,-13.672,0.000,0
33324.196,-36.621,-29.785,26.855,-34.668,0.000,0
33324.200,-39.062,-36.621,8.789,-30.762,0.000,0
33324.204,-29.785,-32.715,-74.707,-15.137,0.000,0
33324.208,-25.391,-20.508,-85.938,-16.602,0.000,0
33324.211,-23.926,-16.113,17.578,-24.414,0.000,0
33324.215,-25.391,-23.926,33.691,-41.016,0.000,0
33324.219,-22.461,-27.344,-47.363,-29.297,0.000,0
33324.223,-32.227,-28.809,-115.234,-19.531,0.000,0
33324.227,-31.738,-36.133,-16.602,-39.551,0.000,0
33324.231,-21.484,-32.715,40.527,-52.246,0.000,0
33324.235,-15.625,-24.414,-23.438,-25.391,0.000,0
33324.239,-23.438,-18.555,-111.816,-15.625,0.000,0
33324.243,-10.742,-15.625,-38.086,-22.461,0.000,0
33324.247,-10.254,-16.602,50.293,-28.809,0.000,0
33324.251,-22.461,-19.531,10.254,-19.531,0.000,0
33324.254,-27.832,-20.020,-88.867,-17.090,0.000,0
33324.258,-22.461,-21.484,-70.312,-19.043,0.000,0
33324.262,-23.926,-23.438,37.109,-16.602,0.000,0
33324.266,-27.832,-25.879,32.715,-24.902,0.000,0
33324.270,-18.555,-23.926,-63.965,-23.926,0.000,0
33324.274,-17.090,-20.508,-97.168,-12.695,0.000,0
33324.278,-13.672,-29.297,11.230,-20.996,0.000,0
33324.282,-18.555,-35.156,38.574,-40.527,0.000,0
33324.286,-19.531,-33.203,-37.598,-24.902,0.000,0
33324.290,-24.414,-26.367,-110.352,-24.414,0.000,0
33324.293,-20.020,-30.762,-22.461,-28.320,0.000,0
33324.297,-20.020,-34.180,40.039,-32.227,0.000,0
33324.301,-15.625,-28.320,-17.578,-19.043,0.000,0
33324.305,-19.043,-28.809,-110.352,-5.371,0.000,0
33324.309,-21.484,-24.902,-48.340,-8.789,0.000,0
33324.313,-29.785,-24.414,41.992,-32.715,0.000,0
33324.317,-34.668,-33.203,4.395,-39.062,0.000,0
33324.321,-27.832,-33.203,-94.727,-19.043,0.000,0
33324.325,-27.344,-26.367,-78.613,-25.879,0.000,0
33324.329,-35.645,-28.809,29.785,-44.434,0.000,0
33324.333,-39.551,-27.344,25.391,-45.410,0.000,0
33324.336,-26.367,-23.438,-70.312,-25.391,0.000,0
33324.340,-33.203,-24.902,-109.863,-14.160,0.000,0
33324.344,-41.992,-34.180,5.859,-34.180,0.000,0
33324.348,-41.992,-32.715,32.715,-55.664,0.000,0
33324.352,-36.621,-28.320,-48.828,-32.715,0.000,0
33324.356,-35.156,-27.344,-121.094,-12.207,0.000,0
33324.360,-27.344,-20.508,-28.320,-34.180,0.000,0
33324.364,-34.668,-28.809,51.758,-65.430,0.000,0
33324.368,-40.527,-35.645,-54.199,-44.922,0.000,0
33324.372,-32.715,-29.297,-109.863,-24.902,0.000,0
33324.376,-25.391,-27.832,4.883,-25.391,0.000,0
33324.379,-28.320,-34.668,40.527,-36.621,0.000,0
33324.383,-23.926,-33.203,-17.090,-23.926,0.000,0
33324.387,-25.879,-28.320,-100.586,-17.090,0.000,0
33324.391,-21.973,-29.785,-27.832,-30.273,0.000,0
33324.395,-29.785,-36.133,46.387,-45.410,0.000,0
33324.399,-18.555,-32.227,5.859,-28.809,0.000,0
33324.403,-13.672,-23.438,-92.285,-21.484,0.000,0
33324.407,-22.461,-21.484,-65.918,-27.344,0.000,0
33324.411,-25.391,-30.762,28.320,-28.320,0.000,0
33324.415,-32.715,-35.156,10.742,-23.926,0.000,0
33324.418,-20.508,-31.250,-81.543,-17.090,0.000,0
33324.422,-16.113,-27.832,-44.922,-31.250,0.000,0
33324.426,-22.949,-24.902,49.805,-35.156,0.000,0
33324.430,-20.020,-26.367,7.324,-25.391,0.000,0
33324.434,-15.137,-24.414,-101.562,-13.672,0.000,0
33324.438,-6.836,-22.461,-59.082,-10.254,0.000,0
33324.442,-16.113,-24.902,46.387,-32.227,0.000,0
33324.446,-26.367,-24.902,23.926,-38.086,0.000,0
33324.450,-9.766,-21.973,-65.430,0.000,0.000,0
33324.454,-0.488,-16.602,-82.031,8.789,0.000,0
33324.458,0.488,-22.949,25.391,-20.996,0.000,0
33324.461,-9.277,-26.367,40.039,-27.344,0.000,0
33324.465,-10.742,-23.438,-48.340,-1.953,0.000,0
33324.469,-14.160,-24.414,-115.723,11.230,0.000,0
33324.473,-26.855,-24.902,-19.531,5.371,0.000,0
33324.477,-32.227,-25.879,37.598,-32.227,0.000,0
33324.481,-27.344,-25.879,-19.043,-29.297,0.000,0
33324.485,-39.551,-20.020,-110.840,-9.277,0.000,0
33324.489,-40.527,-18.066,-46.875,-26.367,0.000,0
33324.493,-40.527,-24.902,27.344,-39.062,0.000,0
33324.497,-34.668,-30.762,-2.930,-30.273,0.000,0
33324.501,-30.762,-31.738,-86.426,-17.090,0.000,0
33324.504,-28.809,-27.832,-69.824,-18.555,0.000,0
33324.508,-27.344,-26.367,34.180,-36.621,0.000,0
33324.512,-22.949,-29.297,30.273,-30.762,0.000,0
33324.516,-19.531,-28.809,-64.453,-9.766,0.000,0
33324.520,-32.715,-22.949,-97.168,-14.160,0.000,0
33324.524,-30.273,-22.949,3.418,-22.461,0.000,0
33324.528,-28.809,-32.227,20.020,-31.250,0.000,0
33324.532,-28.320,-32.715,-51.758,-23.926,0.000,0
33324.536,-31.250,-27.832,-111.816,-3.418,0.000,0
33324.540,-19.043,-28.809,-16.602,-20.996,0.000,0
33324.543,-21.484,-25.879,47.852,-57.617,0.000,0
33324.547,-28.809,-24.414,-11.230,-38.086,0.000,0
33324.551,-32.227,-24.902,-106.934,-14.648,0.000,0
33324.555,-29.297,-24.902,-49.805,-23.438,0.000,0
33324.559,-26.855,-30.273,42.480,-31.738,0.000,0
33324.563,-29.297,-29.297,14.160,-18.555,0.000,0
33324.567,-26.367,-27.344,-78.125,-16.113,0.000,0
33324.571,-18.555,-23.438,-73.730,-20.996,0.000,0
33324.575,-17.090,-25.391,26.367,-27.832,0.000,0
33324.579,-21.484,-32.227,33.691,-38.086,0.000,0
33324.583,-15.625,-28.809,-62.500,-26.367,0.000,0
33324.586,-18.066,-26.855,-112.793,-24.414,0.000,0
33324.590,-21.484,-28.320,-2.930,-25.879,0.000,0
33324.594,-25.391,-30.762,41.016,-23.926,0.000,0
33324.598,-14.648,-27.832,-27.832,-13.184,0.000,0
33324.602,-25.391,-19.531,-108.398,-15.137,0.000,0
33324.606,-28.320,-20.996,-23.438,-25.879,0.000,0
33324.610,-35.156,-24.414,44.434,-42.480,0.000,0
33324.614,-34.180,-25.879,-7.812,-28.320,0.000,0
33324.618,-21.484,-26.367,-104.980,-15.137,0.000,0
33324.622,-20.996,-26.855,-53.223,-23.926,0.000,0
33324.626,-30.762,-29.297,42.969,-34.180,0.000,0
33324.629,-32.715,-33.691,11.719,-32.715,0.000,0
33324.633,-27.832,-35.156,-84.473,-19.531,0.000,0
33324.637,-23.438,-23.926,-85.449,-25.391,0.000,0
33324.641,-24.414,-19.531,28.809,-42.480,0.000,0
33324.645,-28.809,-25.391,36.621,-44.434,0.000,0
33324.649,-17.578,-28.809,-47.852,-10.742,0.000,0
33324.653,-20.996,-23.926,-102.539,-8.301,0.000,0
33324.657,-20.020,-29.785,-0.488,-24.902,0.000,0
33324.661,-30.273,-35.156,40.527,-36.621,0.000,0
33324.665,-33.203,-26.367,-36.621,-21.484,0.000,0
33324.668,-30.273,-22.461,-107.422,-3.418,0.000,0
33324.672,-21.973,-21.484,-26.367,-6.836,0.000,0
33324.676,-28.809,-30.762,37.598,-36.133,0.000,0
33324.680,-26.855,-31.250,1.465,-26.855,0.000,0
33324.684,-25.391,-28.320,-90.332,-4.395,0.000,0
33324.688,-24.414,-34.668,-67.383,-3.906,0.000,0
33324.692,-18.066,-29.297,30.762,-10.742,0.000,0
33324.696,-19.531,-27.832,27.344,-31.738,0.000,0
33324.700,-14.160,-28.320,-68.359,-15.137,0.000,0
33324.704,-16.602,-20.508,-100.098,-2.930,0.000,0
33324.708,-18.066,-21.973,11.230,-16.113,0.000,0
33324.711,-22.949,-25.391,32.715,-21.484,0.000,0
33324.715,-13.672,-24.414,-42.969,-4.883,0.000,0
33324.719,-20.508,-26.367,-110.352,-5.859,0.000,0
33324.723,-24.902,-30.762,-16.602,-23.926,0.000,0
33324.727,-30.762,-34.668,41.992,-26.367,0.000,0
33324.731,-34.180,-26.367,-28.809,-8.789,0.000,0
33324.735,-31.250,-21.484,-116.699,-15.137,0.000,0
33324.739,-23.926,-20.996,-43.945,-23.926,0.000,0
33324.743,-23.438,-17.090,39.551,-21.973,0.000,0
33324.747,-22.461,-20.508,8.301,-10.742,0.000,0
33324.751,-17.578,-20.020,-84.473,-0.488,0.000,0
33324.754,-17.090,-24.414,-65.430,-13.672,0.000,0
33324.758,-31.250,-32.715,38.086,-34.668,0.000,0
33324.762,-37.109,-29.785,27.832,-34.668,0.000,0
33324.766,-21.973,-26.367,-67.383,-9.766,0.000,0
33324.770,-24.902,-21.484,-94.238,-13.672,0.000,0
33324.774,-29.297,-21.973,17.578,-37.598,0.000,0
33324.778,-28.809,-28.320,35.645,-35.156,0.000,0
33324.782,-28.320,-27.344,-45.410,-21.973,0.000,0
33324.786,-37.598,-31.738,-116.211,-34.180,0.000,0
33324.790,-36.621,-35.645,-26.367,-43.457,0.000,0
33324.793,-39.062,-36.133,34.668,-45.898,0.000,0
33324.797,-32.227,-32.227,-18.066,-36.133,0.000,0
33324.801,-30.762,-26.367,-104.980,-23.438,0.000,0
33324.805,-28.320,-29.785,-53.223,-23.926,0.000,0
33324.809,-38.574,-35.645,28.320,-43.945,0.000,0
33324.813,-38.574,-34.668,6.348,-44.434,0.000,0
33324.817,-24.414,-28.320,-77.148,-10.742,0.000,0
33324.821,-28.809,-20.996,-83.008,-1.953,0.000,0
33324.825,-31.250,-29.297,13.184,-37.598,0.000,0
33324.829,-29.785,-40.527,15.625,-50.293,0.000,0
33324.833,-17.090,-34.180,-61.035,-35.156,0.000,0
33324.836,-18.066,-26.367,-101.074,-40.527,0.000,0
33324.840,-26.855,-25.879,-4.883,-40.039,0.000,0
33324.844,-39.062,-34.180,31.738,-40.039,0.000,0
33324.848,-29.297,-33.691,-32.715,-16.602,0.000,0
33324.852,-31.250,-27.832,-110.352,-18.555,0.000,0
33324.856,-28.809,-31.738,-31.738,-42.969,0.000,0
33324.860,-32.227,-29.297,41.016,-51.758,0.000,0
33324.864,-33.203,-27.832,-13.184,-35.645,0.000,2
33324.868,-19.043,-27.832,-121.582,-15.137,0.000,0
33324.872,-21.484,-27.832,-72.754,-26.855,0.000,0
33324.876,-38.086,-28.809,39.062,-40.039,0.000,0
33324.879,-32.227,-22.461,17.578,-19.531,0.000,0
33324.883,-19.043,-19.531,-83.496,-7.812,0.000,0
33324.887,-11.719,-22.461,-87.891,-20.508,0.000,0
33324.891,-20.996,-24.902,29.297,-34.180,0.000,0
33324.895,-32.715,-26.855,38.086,-47.363,0.000,0
33324.899,-10.254,-29.297,-53.223,-26.855,0.000,0
33324.903,-11.719,-25.879,-110.840,-8.789,0.000,0
33324.907,-26.855,-23.926,-9.277,-17.090,0.000,0
33324.911,-34.668,-28.320,42.480,-41.016,0.000,0
33324.915,-23.438,-25.391,-26.855,-31.250,0.000,0
33324.918,-20.020,-20.020,-117.188,-16.113,0.000,0
33324.922,-19.531,-20.996,-35.156,-10.742,0.000,0
33324.926,-26.855,-26.855,43.457,-33.203,0.000,0
33324.930,-32.715,-31.738,-8.789,-41.992,0.000,0
33324.934,-36.621,-31.250,-104.492,-22.949,0.000,0
33324.938,-36.133,-30.273,-63.965,-27.344,0.000,0
33324.942,-43.457,-26.855,34.180,-39.062,0.000,0
33324.946,-44.922,-25.879,15.137,-39.551,0.000,0
33324.950,-27.832,-30.273,-73.730,-15.625,0.000,0
33324.954,-28.320,-27.832,-85.449,-16.602,0.000,0
33324.958,-22.461,-31.250,16.113,-37.109,0.000,0
33324.961,-28.320,-34.180,34.180,-32.227,0.000,0
33324.965,-39.062,-32.227,-43.945,-14.648,0.000,0
33324.969,-36.133,-25.879,-107.910,-12.695,0.000,0
33324.973,-27.832,-24.414,-10.742,-26.855,0.000,0
33324.977,-45.410,-33.691,35.645,-41.016,0.000,0
33324.981,-45.898,-35.645,-30.273,-24.902,0.000,0
33324.985,-34.668,-28.320,-118.652,-26.855,0.000,0
33324.989,-27.344,-30.762,-56.641,-32.227,0.000,0
33324.993,-32.715,-31.738,38.086,-36.133,0.000,0
33324.997,-32.227,-21.973,19.531,-20.996,0.000,0
33325.001,-19.043,-21.484,-74.219,-8.789,0.000,0
33325.004,-14.160,-24.414,-71.777,-25.391,0.000,0
33325.008,-22.949,-27.832,26.855,-37.598,0.000,0
33325.012,-30.273,-24.902,33.691,-46.875,0.000,0
33325.016,-17.578,-16.602,-58.105,-21.973,0.000,0
33325.020,-20.996,-19.043,-100.586,-4.883,0.000,0
33325.024,-21.973,-24.902,22.949,-11.719,0.000,0
33325.028,-24.902,-22.949,43.457,-20.508,0.000,0
33325.032,-26.367,-20.020,-80.566,-21.484,0.000,0
33325.036,-19.531,-17.578,-72.754,-27.832,0.000,0
33325.040,-28.320,-23.926,31.738,-32.227,0.000,0
33325.043,-37.598,-27.344,23.926,-32.227,0.000,0
33325.047,-25.879,-21.973,-65.430,-26.367,0.000,0
33325.051,-18.066,-15.625,-85.449,-18.555,0.000,0
33325.055,-17.090,-10.742,13.672,-14.648,0.000,0
33325.059,-20.020,-16.113,34.668,-28.809,0.000,0
33325.063,-14.160,-18.555,-30.762,-6.348,0.000,0
33325.067,-26.367,-18.066,-104.004,-4.395,0.000,0
33325.071,-24.902,-21.484,-19.043,-35.645,0.000,0
33325.075,-20.508,-20.996,41.504,-37.598,0.000,0
33325.079,-17.090,-20.508,-10.254,-14.160,0.000,0
33325.083,-22.949,-19.043,-110.352,-4.883,0.000,0
33325.086,-24.902,-22.949,-62.012,-10.254,0.000,0
33325.090,-23.438,-31.250,33.691,-40.039,0.000,0
33325.094,-24.414,-27.832,9.766,-43.945,0.000,0
33325.098,-24.414,-23.438,-88.867,-21.973,0.000,0
33325.102,-28.809,-29.297,-97.656,-24.902,0.000,0
33325.106,-34.180,-33.691,10.254,-33.691,0.000,0
33325.110,-33.691,-34.180,33.691,-37.598,0.000,0
33325.114,-22.949,-31.738,-49.805,-5.859,0.000,0
33325.118,-17.090,-22.461,-105.469,7.812,0.000,0
33325.122,-19.531,-29.785,-5.371,-22.949,0.000,0
33325.126,-38.574,-33.691,37.109,-49.316,0.000,0
33325.129,-30.762,-29.785,-20.996,-36.133,0.000,0
33325.133,-23.926,-23.438,-103.027,-26.367,0.000,0
33325.137,-27.832,-25.879,-38.086,-34.668,0.000,0
33325.141,-31.738,-32.227,36.621,-32.715,0.000,0
33325.145,-23.438,-31.250,1.953,-10.742,0.000,0
33325.149,-25.391,-28.809,-99.609,-14.648,0.000,0
33325.153,-22.461,-27.832,-69.824,-22.949,0.000,0
33325.157,-22.461,-30.273,27.832,-24.414,0.000,0
33325.161,-31.250,-33.203,12.695,-22.461,0.000,0
33325.165,-27.832,-33.203,-81.543,-9.766,0.000,0
33325.168,-24.414,-27.344,-83.008,-26.367,0.000,0
33325.172,-20.508,-20.508,31.738,-36.621,0.000,0
33325.176,-4.883,-23.438,41.992,-18.555,0.000,0
33325.180,-1.465,-31.250,-42.480,-2.930,0.000,0
33325.184,-41.992,-20.508,-114.258,-28.809,0.000,0
33325.188,-48.340,-18.555,-9.277,-50.293,0.000,0
33325.192,-40.527,-23.926,58.105,-43.457,0.000,0
33325.196,-31.250,-20.020,-8.301,-21.484,0.000,0
33325.200,-24.902,-16.113,-96.680,-8.789,0.000,0
33325.204,-16.602,-13.184,-26.855,-16.602,0.000,0
33325.208,-30.273,-21.484,47.363,-45.898,0.000,0
33325.211,-27.344,-27.832,8.301,-29.297,0.000,0
33325.215,-20.996,-20.996,-90.820,2.441,0.000,0
33325.219,-30.273,-17.578,-74.219,-22.461,0.000,0
33325.223,-25.879,-16.113,29.297,-42.969,0.000,0
33325.227,-27.344,-16.602,20.996,-39.062,0.000,0
33325.231,-35.645,-18.555,-72.266,-23.438,0.000,0
33325.235,-28.320,-20.996,-91.797,-8.789,0.000,0
33325.239,-26.855,-22.461,17.578,-21.484,0.000,0
33325.243,-37.598,-19.043,37.109,-41.992,0.000,0
33325.247,-24.414,-17.090,-36.133,-20.996,0.000,0
33325.251,-20.508,-16.602,-95.215,-16.113,0.000,0
33325.254,-19.043,-19.531,-7.324,-35.645,0.000,0
33325.258,-29.785,-27.344,41.992,-43.945,0.000,0
33325.262,-28.809,-26.855,-10.254,-22.461,0.000,0
33325.266,-32.227,-20.020,-97.656,-20.508,0.000,0
33325.270,-34.668,-22.949,-49.316,-46.875,0.000,0
33325.274,-35.645,-28.809,30.273,-55.664,0.000,0
33325.278,-35.156,-24.902,7.324,-48.828,0.000,0
33325.282,-29.785,-17.578,-87.402,-29.297,0.000,0
33325.286,-18.555,-13.184,-85.938,-20.996,0.000,0
33325.290,-15.625,-14.160,28.320,-31.250,0.000,0
33325.293,-14.648,-15.625,33.203,-20.508,0.000,0
33325.297,-9.766,-21.973,-64.941,5.371,0.000,0
33325.301,-14.160,-29.297,-105.469,10.254,0.000,0
33325.305,-11.230,-27.832,9.766,-4.883,0.000,0
33325.309,-29.297,-30.273,43.945,-42.480,0.000,0
33325.313,-32.227,-30.273,-36.621,-31.738,0.000,0
33325.317,-26.855,-26.367,-115.234,-17.578,0.000,0
33325.321,-22.461,-27.344,-30.273,-24.414,0.000,0
33325.325,-32.227,-31.738,47.363,-42.480,0.000,0
33325.329,-31.738,-27.832,0.977,-37.598,0.000,0
33325.333,-20.020,-24.414,-106.934,-23.438,0.000,0
33325.336,-19.043,-23.926,-61.035,-34.180,0.000,0
33325.340,-35.645,-30.273,33.203,-48.340,0.000,0
33325.344,-32.227,-30.273,12.695,-41.016,0.000,0
33325.348,-23.438,-23.438,-79.102,-19.531,0.000,0
33325.352,-18.555,-21.973,-80.078,-9.766,0.000,0
33325.356,-13.672,-22.949,32.715,-25.391,0.000,0
33325.360,-30.273,-30.762,32.227,-39.062,0.000,0
33325.364,-29.785,-36.621,-63.477,-24.414,0.000,0
33325.368,-31.250,-26.855,-105.957,-25.879,0.000,0
33325.372,-23.438,-20.508,8.789,-25.879,0.000,0
33325.376,-23.926,-27.344,40.527,-37.598,0.000,0
33325.379,-19.043,-32.227,-29.297,-26.367,0.000,0
33325.383,-17.578,-28.809,-95.703,-17.578,0.000,0
33325.387,-16.602,-22.461,-27.344,-33.691,0.000,0
33325.391,-23.926,-31.738,33.203,-52.246,0.000,0
33325.395,-24.414,-37.109,-5.859,-36.621,0.000,0
33325.399,-31.250,-30.273,-103.027,-20.508,0.000,0
33325.403,-32.715,-26.855,-68.848,-24.414,0.000,0
33325.407,-34.180,-27.344,32.227,-47.363,0.000,0
33325.411,-34.180,-22.461,14.648,-51.270,0.000,0
33325.415,-20.508,-18.555,-83.496,-24.902,0.000,0
33325.418,-20.996,-20.508,-96.191,-19.531,0.000,0
33325.422,-18.555,-22.949,14.160,-28.320,0.000,0
33325.426,-28.320,-28.809,32.715,-44.434,0.000,0
33325.430,-22.461,-24.902,-43.945,-25.391,0.000,0
33325.434,-20.020,-24.902,-102.539,-8.301,0.000,0
33325.438,-20.508,-30.762,-9.277,-22.461,0.000,0
33325.442,-24.414,-25.879,47.363,-35.645,0.000,0
33325.446,-16.602,-23.926,0.977,-23.438,0.000,0
33325.450,-16.113,-26.367,-97.656,-9.277,0.000,0
33325.454,-23.926,-22.461,-42.969,-11.719,0.000,0
33325.458,-29.785,-23.438,41.992,-21.973,0.000,0
33325.461,-36.621,-23.438,12.207,-17.090,0.000,0
33325.465,-28.320,-14.648,-88.867,-9.766,0.000,0
33325.469,-13.184,-13.184,-73.730,-7.812,0.000,0
33325.473,-23.926,-20.996,27.344,-26.367,0.000,0
33325.477,-36.133,-20.996,22.461,-31.250,0.000,0
33325.481,-25.391,-19.531,-66.895,-15.137,0.000,0
33325.485,-25.879,-22.949,-82.031,-21.484,0.000,0
33325.489,-21.973,-19.043,21.484,-27.344,0.000,0
33325.493,-20.996,-17.090,40.527,-25.879,0.000,0
33325.497,-20.996,-17.090,-28.320,0.488,0.000,0
33325.501,-26.367,-14.648,-99.609,-3.418,0.000,0
33325.504,-20.996,-20.020,-5.859,-28.320,0.000,0
33325.508,-30.762,-24.902,54.199,-33.691,0.000,0
33325.512,-27.344,-26.367,-7.812,-16.602,0.000,0
33325.516,-21.973,-21.484,-103.027,-8.789,0.000,0
33325.520,-22.461,-19.531,-44.434,-9.766,0.000,0
33325.524,-28.320,-25.879,45.898,-20.996,0.000,0
33325.528,-26.367,-24.414,13.672,-22.461,0.000,0
33325.532,-9.766,-18.555,-83.984,-6.836,0.000,0
33325.536,-13.672,-22.949,-74.707,-8.301,0.000,0
33325.540,-22.461,-23.926,30.273,-22.461,0.000,0
33325.543,-24.902,-23.926,34.180,-30.762,0.000,0
33325.547,-25.391,-24.414,-55.664,-9.766,0.000,0
33325.551,-23.438,-22.461,-95.215,-5.859,0.000,2
33325.555,-19.531,-22.461,9.766,-22.949,0.000,0
33325.559,-27.344,-25.391,37.109,-30.273,0.000,0
33325.563,-22.949,-29.785,-31.738,-16.113,0.000,0
33325.567,-18.555,-22.949,-98.633,-7.812,0.000,0
33325.571,-16.602,-17.578,-21.973,-16.602,0.000,0
33325.575,-26.855,-19.043,39.062,-19.531,0.000,0
33325.579,-21.973,-16.602,1.465,-4.395,0.000,0
33325.583,-20.996,-17.090,-94.727,-6.348,0.000,0
33325.586,-22.461,-14.160,-57.129,-9.766,0.000,0
33325.590,-11.230,-18.555,40.527,-16.113,0.000,0
33325.594,-1.953,-25.879,16.602,3.418,0.000,0
33325.598,-10.742,-22.461,-95.215,2.930,0.000,0
33325.602,-24.902,-16.113,-95.703,-33.203,0.000,0
33325.606,-34.668,-18.066,23.926,-44.434,0.000,0
33325.610,-41.504,-21.484,38.086,-40.527,0.000,0
33325.614,-37.109,-25.391,-47.852,-29.785,0.000,0
33325.618,-32.227,-20.508,-104.004,-28.809,0.000,0
33325.622,-12.695,-21.973,2.930,-18.066,0.000,0
33325.626,-16.602,-20.508,55.664,-24.414,0.000,0
33325.629,-10.254,-12.695,-13.672,-18.066,0.000,0
33325.633,0.000,-12.207,-98.633,-4.883,0.000,0
33325.637,-13.672,-16.602,-26.855,-8.301,0.000,0
33325.641,-30.273,-27.832,42.480,-26.367,0.000,0
33325.645,-23.926,-36.133,0.000,-31.738,0.000,0
33325.649,-21.973,-27.344,-102.539,-12.207,0.000,0
33325.653,-20.996,-17.090,-73.730,-10.742,0.000,0
33325.657,-20.996,-25.879,31.250,-26.367,0.000,0
33325.661,-30.762,-30.273,22.949,-30.762,0.000,0
33325.665,-34.668,-26.855,-75.195,-20.996,0.000,0
33325.668,-28.809,-20.508,-91.309,-15.625,0.000,0
33325.672,-22.949,-23.926,21.973,-34.668,0.000,0
33325.676,-33.691,-33.203,32.227,-38.574,0.000,0
33325.680,-20.508,-27.344,-47.363,-9.766,0.000,0
33325.684,-20.508,-19.531,-99.121,-7.812,0.000,0
33325.688,-24.902,-24.902,-9.277,-15.137,0.000,0
33325.692,-26.855,-29.297,40.039,-31.738,0.000,0
33325.696,-28.809,-27.832,-16.113,-12.695,0.000,0
33325.700,-35.156,-27.344,-103.516,-5.371,0.000,0
33325.704,-30.762,-25.391,-32.715,-21.484,0.000,0
33325.708,-37.109,-28.320,42.969,-36.133,0.000,0
33325.711,-36.621,-27.344,7.812,-32.715,0.000,0
33325.715,-25.879,-22.461,-82.520,-1.953,0.000,0
33325.719,-26.367,-22.949,-65.918,-22.461,0.000,0
33325.723,-34.180,-22.461,35.645,-52.734,0.000,0
33325.727,-34.668,-25.879,19.531,-38.086,0.000,0
33325.731,-26.855,-25.879,-75.195,-11.230,0.000,0
33325.735,-20.996,-17.578,-96.680,-7.812,0.000,0
33325.739,-21.484,-20.996,11.230,-34.180,0.000,0
33325.743,-31.738,-25.879,43.945,-53.711,0.000,0
33325.747,-28.320,-29.297,-25.879,-28.809,0.000,0
33325.751,-26.855,-21.973,-91.797,-7.324,0.000,0
33325.754,-17.578,-19.531,-10.254,-21.484,0.000,0
33325.758,-28.320,-22.461,43.457,-49.316,0.000,0
33325.762,-33.203,-25.879,2.930,-40.039,0.000,0
33325.766,-33.203,-25.879,-103.027,-23.926,0.000,0
33325.770,-36.133,-26.367,-59.570,-29.297,0.000,0
33325.774,-38.086,-26.855,39.062,-49.316,0.000,0
33325.778,-27.344,-27.344,14.648,-37.109,0.000,0
33325.782,-20.996,-21.484,-76.660,-20.996,0.000,0
33325.786,-26.367,-20.996,-76.660,-24.414,0.000,0
33325.790,-29.297,-29.297,21.973,-27.832,0.000,0
33325.793,-26.855,-29.297,26.855,-20.508,0.000,0
33325.797,-14.648,-26.855,-61.035,0.977,0.000,0
33325.801,-17.578,-21.973,-96.191,-16.602,0.000,0
33325.805,-15.625,-23.438,12.207,-31.250,0.000,0
33325.809,-15.137,-28.809,41.504,-43.945,0.000,0
33325.813,-6.836,-28.320,-27.832,-29.297,0.000,0
33325.817,-1.953,-21.484,-104.004,-7.812,0.000,0
33325.821,-13.672,-25.391,-19.531,-30.273,0.000,0
33325.825,-35.645,-30.273,43.945,-52.734,0.000,0
33325.829,-25.391,-27.344,-6.348,-28.320,0.000,0
33325.833,-20.996,-25.879,-94.238,-2.441,0.000,0
33325.836,-20.508,-20.508,-51.270,-9.277,0.000,0
33325.840,-26.855,-24.414,34.668,-46.387,0.000,0
33325.844,-37.598,-29.297,12.207,-53.223,0.000,0
33325.848,-31.738,-24.414,-83.008,-27.344,0.000,0
33325.852,-33.691,-21.484,-91.309,-22.949,0.000,0
33325.856,-34.668,-26.367,18.555,-33.203,0.000,0
33325.860,-28.809,-28.809,40.039,-38.086,0.000,0
33325.864,-26.855,-28.320,-49.805,-20.508,0.000,0
33325.868,-32.715,-27.344,-104.980,-14.160,0.000,0
33325.872,-31.250,-24.902,-0.488,-20.996,0.000,0
33325.876,-33.691,-23.926,38.086,-33.203,0.000,0
33325.879,-30.762,-22.949,-20.020,-14.648,0.000,0
33325.883,-23.926,-17.578,-98.145,0.000,0.000,0
33325.887,-18.066,-18.066,-31.738,-19.531,0.000,0
33325.891,-33.203,-26.855,40.527,-42.969,0.000,0
33325.895,-31.250,-27.832,11.719,-41.016,0.000,0
33325.899,-15.137,-19.531,-89.355,-26.367,0.000,0
33325.903,-21.973,-19.043,-81.055,-32.715,0.000,0
33325.907,-42.480,-28.320,18.555,-49.805,0.000,0
33325.911,-40.527,-26.855,24.414,-41.016,0.000,0
33325.915,-19.531,-18.066,-67.383,-17.578,0.000,0
33325.918,-14.648,-17.090,-75.195,-22.949,0.000,0
33325.922,-29.785,-25.391,29.297,-38.086,0.000,0
33325.926,-44.434,-28.320,38.574,-33.203,0.000,0
33325.930,-29.785,-27.344,-50.293,-9.766,0.000,0
33325.934,-27.344,-28.320,-113.281,-21.484,0.000,0
33325.938,-27.832,-28.809,-6.348,-36.133,0.000,0
33325.942,-34.180,-22.949,49.316,-37.598,0.000,0
33325.946,-29.297,-20.508,-13.672,-28.320,0.000,0
33325.950,-20.996,-23.438,-104.492,-29.297,0.000,0
33325.954,-18.555,-18.555,-39.062,-20.508,0.000,0
33325.958,-24.414,-20.020,47.363,-27.344,0.000,0
33325.961,-20.020,-23.438,16.113,-35.156,0.000,0
33325.965,-17.578,-19.043,-88.867,-12.207,0.000,0
33325.969,-23.926,-16.113,-71.289,-9.277,0.000,0
33325.973,-25.879,-14.160,39.551,-23.926,0.000,0
33325.977,-26.367,-15.137,34.668,-22.949,0.000,0
33325.981,-19.531,-14.648,-62.988,-16.602,0.000,0
33325.985,-20.020,-11.230,-96.191,-26.367,0.000,0
33325.989,-25.879,-17.578,11.719,-37.598,0.000,0
33325.993,-30.762,-21.973,39.551,-34.668,0.000,0
33325.997,-27.832,-22.949,-28.809,-22.461,0.000,0
33326.001,-23.926,-24.902,-79.590,-22.461,0.000,0
33326.004,-12.207,-19.531,-7.812,-15.137,0.000,0
33326.008,-27.832,-21.484,34.668,-35.645,0.000,0
33326.012,-28.320,-20.996,-16.113,-22.461,0.000,0
33326.016,-25.879,-15.137,-99.609,-0.977,0.000,0
33326.020,-25.391,-17.090,-47.852,-30.273,0.000,0
33326.024,-26.855,-23.438,31.738,-46.875,0.000,0
33326.028,-38.574,-24.902,9.277,-29.785,0.000,0
33326.032,-35.156,-23.926,-88.867,-4.883,0.000,0
33326.036,-27.344,-26.855,-83.984,-2.441,0.000,0
33326.040,-22.949,-27.832,27.344,-34.668,0.000,0
33326.043,-22.461,-24.902,20.996,-37.109,0.000,0
33326.047,-20.020,-18.066,-62.500,-1.953,0.000,0
33326.051,-13.672,-12.695,-96.680,-3.418,0.000,0
33326.055,-13.672,-18.066,7.324,-18.555,0.000,0
33326.059,-24.414,-25.391,46.387,-29.785,0.000,0
33326.063,-11.719,-21.484,-24.902,-21.973,0.000,0
33326.067,-13.672,-18.066,-103.516,-13.672,0.000,0
33326.071,-22.949,-24.414,-31.250,-22.949,0.000,0
33326.075,-35.645,-32.227,35.156,-44.922,0.000,0
33326.079,-28.320,-32.715,2.930,-34.668,0.000,0
33326.083,-19.043,-22.461,-97.656,-18.066,0.000,0
33326.086,-26.855,-20.020,-59.570,-28.320,0.000,0
33326.090,-36.133,-24.414,38.574,-39.062,0.000,0
33326.094,-33.691,-23.926,19.043,-29.785,0.000,0
33326.098,-25.879,-23.438,-75.684,-28.320,0.000,1
33326.102,-23.926,-21.973,-79.590,-22.461,0.000,0
33326.106,-14.648,-21.484,27.344,-20.508,0.000,0
33326.110,-11.719,-22.949,31.738,-22.949,0.000,0
33326.114,-4.883,-20.996,-57.617,-1.953,0.000,0
33326.118,-3.906,-19.043,-98.145,-8.789,0.000,0
33326.122,-15.625,-23.438,12.695,-18.555,0.000,0
33326.126,-24.902,-26.367,46.875,-30.762,0.000,0
33326.129,-7.812,-23.438,-24.414,-3.906,0.000,0
33326.133,-18.555,-23.438,-106.934,10.742,0.000,0
33326.137,-32.227,-28.320,-25.879,-25.879,0.000,0
33326.141,-33.691,-29.297,47.363,-36.621,0.000,0
33326.145,-32.227,-30.762,-1.953,-23.926,0.000,0
33326.149,-25.879,-30.273,-100.098,-19.043,0.000,0
33326.153,-29.297,-27.832,-70.312,-27.832,0.000,0
33326.157,-31.250,-29.785,35.156,-51.270,0.000,0
33326.161,-23.438,-29.297,-23.438,-40.039,0.000,0
33326.165,-26.855,-27.832,-113.281,-19.043,0.000,0
33326.168,-26.367,-28.320,-39.062,-18.555,0.000,0
33326.172,-31.738,-29.297,32.715,-37.598,0.000,0
33326.176,-27.344,-27.344,3.418,-30.762,0.000,0
33326.180,-13.672,-20.996,-95.215,-7.324,0.000,0
33326.184,-5.371,-18.555,-70.312,-19.531,0.000,0
33326.188,-18.066,-15.625,39.062,-31.738,0.000,0
33326.192,-36.133,-20.996,30.273,-19.043,0.000,0
33326.196,-24.414,-22.949,-58.105,-18.555,0.000,0
33326.200,-17.090,-18.555,-77.637,-34.180,0.000,0
33326.204,-26.855,-22.949,17.090,-26.855,0.000,0
33326.208,-32.715,-23.438,30.762,-25.879,0.000,0
33326.211,-20.508,-20.508,-41.016,-17.090,0.000,0
33326.215,-17.090,-19.043,-106.445,-7.324,0.000,0
33326.219,-18.066,-26.367,-15.137,-13.184,0.000,0
33326.223,-24.414,-30.273,42.480,-28.809,0.000,0
33326.227,-20.996,-23.438,-13.672,-23.926,0.000,0
33326.231,-21.973,-23.926,-103.516,-2.930,0.000,0
33326.235,-22.461,-30.762,-43.945,-18.555,0.000,0
33326.239,-23.438,-29.297,32.227,-55.664,0.000,0
33326.243,-23.926,-28.320,0.488,-40.039,0.000,0
33326.247,-25.391,-25.879,-90.332,-10.742,0.000,0
33326.251,-29.785,-22.949,-72.754,-14.648,0.000,0
33326.254,-37.598,-27.832,34.668,-29.297,0.000,0
33326.258,-39.551,-35.645,25.391,-27.344,0.000,0
33326.262,-26.855,-32.715,-74.219,-12.695,0.000,0
33326.266,-26.855,-20.996,-101.562,-7.324,0.000,0
33326.270,-20.508,-22.461,10.742,-16.113,0.000,0
33326.274,-20.020,-20.996,45.410,-32.715,0.000,0
33326.278,-22.949,-20.020,-28.320,-23.438,0.000,0
33326.282,-29.785,-21.973,-105.957,-21.484,0.000,0
33326.286,-25.391,-21.484,-23.438,-31.738,0.000,0
33326.290,-20.996,-25.391,34.668,-48.828,0.000,0
33326.293,-23.438,-30.273,-7.324,-37.109,0.000,0
33326.297,-33.691,-28.809,-103.027,-22.949,0.000,0
33326.301,-31.250,-25.879,-55.176,-37.109,0.000,0
33326.305,-21.973,-26.855,45.898,-40.527,0.000,0
33326.309,-21.973,-24.902,12.695,-24.414,0.000,0
33326.313,-27.832,-22.949,-76.172,-18.066,0.000,0
33326.317,-23.926,-20.508,-68.848,-13.672,0.000,0
33326.321,-21.484,-25.391,29.297,-23.438,0.000,0
33326.325,-25.879,-25.879,29.297,-42.480,0.000,0
33326.329,-15.625,-19.531,-52.734,-25.879,0.000,0
33326.333,-14.648,-19.531,-97.168,-18.555,0.000,0
33326.336,-24.414,-22.949,-4.395,-30.762,0.000,0
33326.340,-38.574,-26.367,32.715,-43.457,0.000,0
33326.344,-25.879,-26.855,-38.086,-25.879,0.000,0
33326.348,-31.250,-30.762,-123.535,-4.883,0.000,0
33326.352,-37.598,-34.180,-42.969,-33.691,0.000,0
33326.356,-31.250,-28.320,32.715,-50.781,0.000,0
33326.360,-27.832,-23.926,-9.277,-20.508,0.000,0
33326.364,-21.484,-14.160,-98.633,-5.371,0.000,0
33326.368,-9.277,-17.090,-63.965,-4.883,0.000,0
33326.372,-16.113,-24.414,41.016,-26.855,0.000,0
33326.376,-34.180,-28.809,24.902,-42.480,0.000,0
33326.379,-30.273,-33.691,-79.102,-23.438,0.000,0
33326.383,-26.367,-27.832,-94.727,-18.066,0.000,0
33326.387,-30.762,-27.832,13.672,-29.297,0.000,0
33326.391,-35.645,-34.180,33.203,-38.574,0.000,0
33326.395,-22.949,-27.832,-48.828,-28.809,0.000,0
33326.399,-17.090,-17.578,-113.770,-15.137,0.000,0
33326.403,-23.926,-19.043,-8.301,-23.438,0.000,0
33326.407,-35.156,-18.555,48.340,-36.133,0.000,0
33326.411,-22.461,-14.648,-27.832,-25.879,0.000,0
33326.415,-23.438,-19.043,-116.211,-27.832,0.000,0
33326.418,-31.250,-27.832,-47.363,-29.785,0.000,0
33326.422,-30.273,-28.320,35.156,-35.156,0.000,0
33326.426,-22.949,-25.391,-1.953,-28.809,0.000,0
33326.430,-15.137,-26.855,-88.867,-21.973,0.000,0
33326.434,-10.254,-25.879,-54.199,-23.438,0.000,0
33326.438,-21.973,-25.391,35.156,-28.809,0.000,0
33326.442,-27.832,-23.438,20.996,-31.738,0.000,0
33326.446,-11.719,-20.996,-65.430,8.789,0.000,0
33326.450,-16.602,-18.555,-83.984,-4.395,0.000,0
33326.454,-20.996,-20.020,20.996,-47.852,0.000,0
33326.458,-24.414,-24.414,38.574,-31.738,0.000,0
33326.461,-18.555,-23.926,-31.738,-8.301,0.000,0
33326.465,-21.484,-18.066,-97.168,-10.742,0.000,0
33326.469,-22.461,-22.461,-9.766,-31.250,0.000,0
33326.473,-26.855,-28.320,48.828,-44.922,0.000,0
33326.477,-25.391,-29.785,-15.625,-23.926,0.000,0
33326.481,-25.391,-27.832,-107.422,-13.672,0.000,0
33326.485,-20.508,-27.344,-49.805,-18.555,0.000,0
33326.489,-32.715,-32.715,33.691,-36.621,0.000,0
33326.493,-32.227,-37.109,11.230,-33.691,0.000,0
33326.497,-22.461,-37.109,-83.496,1.465,0.000,0
33326.501,-21.484,-31.738,-79.102,7.324,0.000,0
33326.504,-21.484,-30.762,27.832,-23.926,0.000,0
33326.508,-32.227,-34.668,29.297,-41.504,0.000,0
33326.512,-28.320,-36.133,-57.617,-22.461,0.000,0
33326.516,-24.902,-32.227,-98.145,-20.508,0.000,0
33326.520,-30.762,-32.715,2.441,-34.668,0.000,0
33326.524,-43.457,-36.133,32.715,-42.969,0.000,0
33326.528,-37.109,-34.180,-37.598,-26.367,0.000,0
33326.532,-32.227,-28.809,-111.328,-16.113,0.000,0
33326.536,-30.273,-28.809,-32.715,-21.484,0.000,0
33326.540,-46.387,-31.250,32.227,-20.020,0.000,0
33326.543,-38.086,-24.902,-14.648,2.930,0.000,0
33326.547,-22.461,-20.508,-105.957,0.000,0.000,0
33326.551,-16.113,-19.531,-49.316,-26.855,0.000,0
33326.555,-20.996,-20.996,42.480,-46.387,0.000,0
33326.559,-30.273,-25.879,10.254,-40.039,0.000,0
33326.563,-27.832,-24.414,-85.938,-11.230,0.000,0
33326.567,-35.645,-21.973,-87.402,-14.160,0.000,0
33326.571,-33.691,-28.320,23.926,-35.156,0.000,0
33326.575,-27.344,-27.832,31.250,-31.250,0.000,0
33326.579,-19.043,-20.508,-58.594,0.000,0.000,0
33326.583,-24.414,-19.531,-103.027,-0.488,0.000,0
33326.586,-22.949,-23.926,-0.977,-17.578,0.000,0
33326.590,-30.762,-29.785,36.133,-44.434,0.000,0
33326.594,-27.832,-31.738,-32.715,-43.457,0.000,0
33326.598,-22.949,-24.902,-115.234,-19.043,0.000,0
33326.602,-21.973,-24.414,-41.504,-23.438,0.000,0
33326.606,-19.043,-29.785,35.645,-34.668,0.000,0
33326.610,-14.160,-23.926,-47.363,-4.395,0.000,0
33326.614,-10.254,-19.043,-104.004,2.930,0.000,0
33326.618,-20.508,-22.949,-0.977,-34.668,0.000,0
33326.622,-46.875,-26.855,37.598,-49.805,0.000,0
33326.626,-44.922,-25.879,-24.902,-30.762,0.000,0
33326.629,-26.367,-17.578,-99.609,-11.230,0.000,0
33326.633,-8.789,-19.043,-34.668,6.836,0.000,0
33326.637,-32.715,-25.391,34.180,-30.273,0.000,0
33326.641,-42.969,-17.578,7.324,-35.156,0.000,0
33326.645,-28.809,-9.766,-81.543,-19.531,0.000,0
33326.649,-36.621,-14.160,-51.758,-40.039,0.000,0
33326.653,-39.551,-20.508,40.527,-52.734,0.000,0
33326.657,-29.297,-21.484,25.391,-38.574,0.000,0
33326.661,-19.531,-15.625,-70.312,-13.184,0.000,0
33326.665,-15.625,-14.648,-86.426,-16.113,0.000,0
33326.668,-5.371,-20.996,24.414,-31.250,0.000,0
33326.672,-26.855,-22.949,39.551,-36.621,0.000,0
33326.676,-30.762,-18.066,-32.227,-10.742,0.000,0
33326.680,-18.066,-19.531,-95.703,-2.930,0.000,0
33326.684,-14.648,-26.855,-3.418,-16.602,0.000,0
33326.688,-23.438,-25.391,58.594,-36.133,0.000,0
33326.692,-17.090,-23.926,-6.348,-31.738,0.000,0
33326.696,-11.230,-21.973,-98.145,-19.531,0.000,0
33326.700,-16.113,-14.648,-38.574,-16.602,0.000,0
33326.704,-25.391,-19.043,39.551,-38.086,0.000,0
33326.708,-20.996,-24.414,16.113,-29.785,0.000,0
33326.711,-17.090,-15.625,-85.938,-11.719,0.000,0
33326.715,-24.902,-18.066,-77.148,-22.461,0.000,0
33326.719,-30.762,-21.973,21.973,-33.203,0.000,1
33326.723,-28.809,-20.020,16.113,-41.504,0.000,0
33326.727,-27.344,-24.414,-72.754,-31.738,0.000,0
33326.731,-50.781,-30.762,-102.051,-25.391,0.000,0
33326.735,-46.875,-26.855,14.648,-26.367,0.000,0
33326.739,-35.645,-19.043,36.133,-33.203,0.000,0
33326.743,-26.367,-18.066,-36.133,-12.695,0.000,0
33326.747,-26.367,-20.020,-92.773,4.883,0.000,0
33326.751,-17.578,-15.137,-7.812,1.953,0.000,0
33326.754,-13.672,-11.230,52.734,-22.949,0.000,0
33326.758,-7.812,-16.113,4.395,-20.020,0.000,0
33326.762,-5.859,-20.020,-93.750,-14.160,0.000,0
33326.766,-13.672,-20.996,-35.645,-26.855,0.000,0
33326.770,-16.113,-20.020,47.852,-25.391,0.000,0
33326.774,-13.672,-16.113,12.207,-12.207,0.000,0
33326.778,-11.230,-18.066,-82.031,-12.207,0.000,0
33326.782,-8.301,-19.531,-83.984,-19.531,0.000,0
33326.786,-18.066,-20.020,29.297,-37.109,0.000,0
33326.790,-27.344,-22.461,32.715,-38.086,0.000,0
33326.793,-11.230,-21.973,-60.547,-19.531,0.000,0
33326.797,-8.789,-21.484,-100.586,-17.578,0.000,0
33326.801,-12.695,-22.461,7.812,-13.184,0.000,0
33326.805,-21.484,-22.461,48.828,-27.344,0.000,0
33326.809,-22.461,-25.391,-26.367,-16.113,0.000,0
33326.813,-28.320,-23.438,-111.328,6.348,0.000,0
33326.817,-27.832,-25.391,-26.367,-9.766,0.000,0
33326.821,-37.109,-33.691,39.551,-31.738,0.000,0
33326.825,-36.133,-37.109,-4.883,-17.090,0.000,0
33326.829,-18.555,-25.391,-96.191,-2.441,0.000,0
33326.833,-22.461,-20.996,-62.988,-20.020,0.000,0
33326.836,-41.504,-34.180,28.320,-31.738,0.000,0
33326.840,-33.203,-38.086,13.184,-17.578,0.000,0
33326.844,-24.414,-27.344,-76.172,-7.812,0.000,0
33326.848,-25.391,-23.926,-83.496,-15.137,0.000,0
33326.852,-20.020,-29.785,18.555,-27.832,0.000,0
33326.856,-28.809,-32.227,27.832,-26.855,0.000,0
33326.860,-22.461,-21.973,-51.270,-8.301,0.000,0
33326.864,-16.113,-15.137,-95.215,-16.113,0.000,0
33326.868,-14.648,-22.461,6.348,-27.344,0.000,0
33326.872,-21.973,-26.367,39.551,-32.715,0.000,0
33326.876,-15.625,-26.855,-24.902,-6.836,0.000,0
33326.879,-17.578,-24.414,-101.562,7.812,0.000,0
33326.883,-20.508,-23.926,-27.344,-8.301,0.000,0
33326.887,-16.113,-24.414,48.340,-23.438,0.000,0
33326.891,-18.066,-22.949,3.418,-8.789,0.000,0
33326.895,-26.855,-21.484,-104.004,11.719,0.000,0
33326.899,-31.738,-18.066,-71.777,5.371,0.000,0
33326.903,-25.391,-23.926,37.598,-23.926,0.000,0
33326.907,-20.996,-25.391,27.344,-26.367,0.000,0
33326.911,-27.344,-16.602,-66.406,3.418,0.000,0
33326.915,-32.227,-18.066,-90.332,-7.812,0.000,0
33326.918,-30.762,-24.902,12.207,-35.156,0.000,0
33326.922,-35.645,-27.344,35.645,-36.621,0.000,0
33326.926,-23.926,-21.973,-40.527,-9.766,0.000,0
33326.930,-10.742,-15.137,-97.168,-7.812,0.000,0
33326.934,-8.301,-20.508,-6.348,-19.531,0.000,0
33326.938,-18.066,-28.809,41.504,-17.090,0.000,0
33326.942,-14.160,-29.785,-10.742,3.906,0.000,0
33326.946,-6.836,-26.367,-101.562,4.395,0.000,0
33326.950,-6.836,-21.484,-56.152,-19.531,0.000,0
33326.954,-30.273,-20.996,23.438,-33.691,0.000,0
33326.958,-33.691,-25.879,-3.418,-20.996,0.000,0
33326.961,-20.508,-22.461,-94.727,-7.324,0.000,0
33326.965,-23.926,-13.672,-71.289,-21.973,0.000,0
33326.969,-41.016,-19.531,28.320,-42.480,0.000,0
33326.973,-38.574,-23.926,28.809,-33.203,0.000,0
33326.977,-25.391,-20.020,-69.824,-14.160,0.000,0
33326.981,-33.691,-20.020,-105.469,-19.043,0.000,0
33326.985,-31.738,-25.391,6.836,-25.879,0.000,0
33326.989,-38.086,-23.438,31.738,-36.621,0.000,0
33326.993,-31.250,-23.438,-40.527,-21.973,0.000,0
33326.997,-30.273,-26.855,-112.793,-10.254,0.000,0
33327.001,-27.832,-30.762,-24.414,-20.996,0.000,0
33327.004,-31.738,-34.668,39.062,-46.387,0.000,0
33327.008,-30.762,-33.691,-19.043,-35.645,0.000,0
33327.012,-22.949,-29.785,-99.609,-7.812,0.000,0
33327.016,-19.043,-19.043,-43.945,2.930,0.000,0
33327.020,-24.902,-20.020,42.969,-31.738,0.000,0
33327.024,-26.367,-29.297,20.996,-45.898,0.000,0
33327.028,-15.625,-27.344,-83.984,-9.277,0.000,0
33327.032,-14.160,-24.902,-83.496,2.930,0.000,0
33327.036,-16.113,-33.691,30.762,-21.973,0.000,0
33327.040,-22.949,-37.598,28.320,-37.109,0.000,0
33327.043,-21.484,-26.367,-61.035,-23.438,0.000,0
33327.047,-19.531,-17.090,-97.656,-27.832,0.000,0
33327.051,-19.531,-26.855,-3.906,-35.645,0.000,0
33327.055,-24.414,-31.250,27.832,-28.320,0.000,0
33327.059,-12.207,-23.438,-23.438,-19.043,0.000,0
33327.063,-10.742,-22.949,-90.332,-14.648,0.000,0
33327.067,-12.695,-24.414,-24.414,-7.324,0.000,0
33327.071,-17.090,-28.809,34.180,-27.832,0.000,0
33327.075,-23.438,-36.133,-13.184,-27.344,0.000,0
33327.079,-24.902,-26.367,-105.469,-8.301,0.000,0
33327.083,-28.320,-26.855,-62.012,-27.344,0.000,0
33327.086,-37.109,-26.855,27.832,-48.340,0.000,0
33327.090,-35.645,-26.367,8.789,-38.574,0.000,0
33327.094,-28.809,-25.879,-89.355,-13.184,0.000,0
33327.098,-21.484,-15.137,-96.191,-8.789,0.000,0
33327.102,-16.602,-18.066,23.926,-32.715,0.000,0
33327.106,-16.113,-25.391,36.621,-39.062,0.000,0
33327.110,-17.090,-22.949,-50.293,-16.113,0.000,0
33327.114,-16.113,-12.695,-100.586,-6.836,0.000,0
33327.118,-6.836,-16.113,0.977,-18.555,0.000,0
33327.122,-14.160,-25.879,51.758,-44.434,0.000,0
33327.126,-17.578,-25.391,-14.648,-31.250,0.000,0
33327.129,-16.602,-23.926,-110.352,-6.348,0.000,0
33327.133,-13.184,-22.949,-44.922,-10.254,0.000,0
33327.137,-25.391,-29.785,50.293,-35.645,0.000,0
33327.141,-24.902,-33.691,-47.852,-31.738,0.000,0
33327.145,-18.066,-25.879,-126.465,-15.137,0.000,0
33327.149,-25.879,-24.902,-16.602,-27.832,0.000,0
33327.153,-30.762,-32.715,40.039,-35.156,0.000,0
33327.157,-26.855,-33.691,-26.367,-27.832,0.000,0
33327.161,-30.273,-27.832,-113.770,-34.180,0.000,0
33327.165,-26.855,-28.320,-47.363,-29.785,0.000,0
33327.168,-25.879,-30.273,33.203,-43.945,0.000,0
33327.172,-17.090,-31.738,-0.977,-34.668,0.000,0
33327.176,-16.602,-28.809,-90.332,-10.254,0.000,0
33327.180,-17.578,-22.949,-62.500,-21.973,0.000,0
33327.184,-18.066,-23.926,38.086,-37.109,0.000,0
33327.188,-24.902,-26.367,33.691,-30.273,0.000,0
33327.192,-19.531,-24.414,-59.082,-3.418,0.000,0
33327.196,-21.484,-21.973,-89.844,-11.719,0.000,0
33327.200,-22.461,-26.367,13.672,-40.527,0.000,0
33327.204,-25.391,-29.785,31.250,-38.086,0.000,0
33327.208,-16.602,-26.855,-46.387,-12.207,0.000,0
33327.211,-19.043,-30.762,-114.746,-19.043,0.000,0
33327.215,-23.438,-38.574,-25.879,-40.527,0.000,0
33327.219,-30.762,-39.062,42.969,-50.781,0.000,0
33327.223,-22.949,-35.156,-8.789,-32.715,0.000,0
33327.227,-22.949,-33.203,-105.469,-11.719,0.000,0
33327.231,-15.137,-32.715,-57.129,-20.996,0.000,0
33327.235,-19.531,-32.227,30.273,-47.363,0.000,0
33327.239,-39.062,-33.691,9.277,-44.434,0.000,0
33327.243,-39.551,-35.156,-89.844,-22.461,0.000,0
33327.247,-35.156,-33.691,-84.961,-21.484,0.000,0
33327.251,-34.180,-35.156,26.855,-40.527,0.000,0
33327.254,-41.016,-39.062,28.809,-39.062,0.000,0
33327.258,-34.180,-39.062,-63.965,-22.461,0.000,0
33327.262,-29.785,-31.250,-107.910,-35.645,0.000,0
33327.266,-25.391,-22.949,2.441,-36.621,0.000,0
33327.270,-31.250,-27.344,40.527,-38.574,0.000,0
33327.274,-25.391,-30.762,-33.203,-24.414,0.000,0
33327.278,-12.695,-18.066,-101.074,-18.555,0.000,0
33327.282,-7.324,-18.066,-20.996,-39.062,0.000,0
33327.286,-21.484,-26.367,41.504,-53.711,0.000,0
33327.290,-24.414,-28.809,-10.742,-33.691,0.000,0
33327.293,-16.113,-26.367,-117.676,-6.348,0.000,0
33327.297,-20.508,-26.367,-67.871,-23.926,0.000,0
33327.301,-39.551,-26.855,33.691,-47.852,0.000,0
33327.305,-33.691,-22.461,11.719,-36.621,0.000,0
33327.309,-18.066,-10.254,-81.543,-29.785,0.000,0
33327.313,-26.855,-13.184,-84.473,-31.250,0.000,0
33327.317,-35.156,-28.320,30.762,-35.156,0.000,0
33327.321,-38.086,-26.367,35.645,-38.574,0.000,0
33327.325,-35.645,-25.391,-59.082,-31.738,0.000,0
33327.329,-42.969,-27.344,-108.398,-37.598,0.000,0
33327.333,-34.668,-25.879,-7.812,-38.086,0.000,0
33327.336,-28.809,-30.762,33.203,-43.945,0.000,2
33327.340,-24.902,-30.762,-35.156,-32.227,0.000,0
33327.344,-18.066,-21.973,-114.746,-15.625,0.000,0
33327.348,-14.648,-20.996,-35.156,-17.090,0.000,0
33327.352,-24.414,-26.367,40.527,-26.855,0.000,0
33327.356,-31.250,-29.297,0.488,-30.762,0.000,0
33327.360,-35.645,-32.715,-101.074,-23.438,0.000,0
33327.364,-26.367,-25.391,-67.383,-16.113,0.000,0
33327.368,-22.949,-18.066,28.809,-27.344,0.000,0
33327.372,-28.320,-21.484,13.672,-25.391,0.000,0
33327.376,-22.461,-21.484,-67.383,-5.371,0.000,0
33327.379,-16.113,-17.578,-85.449,-13.184,0.000,0
33327.383,-22.949,-22.949,16.602,-27.832,0.000,0
33327.387,-31.738,-30.273,37.109,-23.926,0.000,0
33327.391,-20.020,-21.973,-42.969,6.836,0.000,0
33327.395,-23.438,-17.578,-106.934,5.859,0.000,0
33327.399,-30.273,-23.926,-13.184,-24.414,0.000,0
33327.403,-41.016,-30.762,43.945,-49.316,0.000,0
33327.407,-32.715,-28.809,-18.555,-34.668,0.000,0
33327.411,-29.297,-27.344,-121.094,-19.043,0.000,0
33327.415,-31.250,-28.320,-43.457,-27.344,0.000,0
33327.418,-31.250,-27.832,44.434,-39.551,0.000,0
33327.422,-35.645,-30.762,0.000,-27.832,0.000,0
33327.426,-33.203,-26.367,-93.750,-14.160,0.000,0
33327.430,-26.367,-23.438,-77.148,-18.066,0.000,0
33327.434,-33.203,-29.297,36.133,-35.645,0.000,0
33327.438,-32.715,-31.250,37.109,-35.156,0.000,0
33327.442,-18.555,-23.926,-63.965,-10.742,0.000,0
33327.446,-23.926,-15.137,-95.703,-0.488,0.000,0
33327.450,-26.367,-18.066,12.207,-9.766,0.000,0
33327.454,-25.879,-21.484,45.410,-35.156,0.000,0
33327.458,-18.555,-24.414,-32.715,-38.086,0.000,0
33327.461,-18.066,-23.926,-108.398,-31.250,0.000,0
33327.465,-20.996,-22.949,-15.137,-36.133,0.000,0
33327.469,-27.832,-21.484,45.410,-35.645,0.000,0
33327.473,-14.648,-17.578,-13.672,-20.508,0.000,0
33327.477,-11.230,-21.484,-102.051,-22.949,0.000,0
33327.481,-13.184,-21.973,-41.016,-20.996,0.000,0
33327.485,-19.531,-26.855,41.992,-23.926,0.000,0
33327.489,-27.344,-34.180,3.418,-31.738,0.000,0
33327.493,-22.949,-30.273,-82.520,-20.996,0.000,0
33327.497,-21.484,-27.832,-66.406,-14.648,0.000,0
33327.501,-29.297,-37.598,23.438,-29.785,0.000,0
33327.504,-41.992,-39.062,24.902,-43.457,0.000,0
33327.508,-34.180,-29.785,-59.570,-19.531,0.000,0
33327.512,-30.762,-28.320,-96.191,-15.625,0.000,0
33327.516,-29.297,-31.250,9.277,-32.227,0.000,0
33327.520,-30.273,-34.180,35.156,-35.645,0.000,0
33327.524,-28.320,-31.250,-35.645,-10.742,0.000,0
33327.528,-34.668,-27.832,-111.328,-4.395,0.000,0
33327.532,-40.039,-31.250,-22.949,-37.598,0.000,0
33327.536,-39.062,-28.809,44.434,-50.781,0.000,0
33327.540,-31.250,-27.344,-64.453,-26.855,0.000,0
33327.543,-29.785,-30.273,-115.723,-6.836,0.000,0
33327.547,-28.809,-26.855,-6.836,-13.184,0.000,0
33327.551,-36.133,-30.762,38.086,-47.852,0.000,0
33327.555,-27.344,-38.574,-23.438,-26.855,0.000,0
33327.559,-20.996,-23.926,-102.051,4.883,0.000,0
33327.563,-24.902,-18.066,-23.438,-15.625,0.000,0
33327.567,-35.156,-26.367,43.945,-42.969,0.000,0
33327.571,-22.949,-22.949,4.395,-30.762,0.000,0
33327.575,-9.277,-13.672,-93.262,-13.184,0.000,0
33327.579,-16.602,-21.973,-70.801,-24.902,0.000,0
33327.583,-28.320,-34.180,25.391,-35.645,0.000,0
33327.586,-26.367,-26.855,16.113,-24.414,0.000,0
33327.590,-22.949,-21.973,-76.172,-15.137,0.000,0
33327.594,-32.715,-26.855,-85.449,-20.996,0.000,0
33327.598,-34.668,-30.762,19.043,-30.273,0.000,0
33327.602,-35.156,-31.250,26.367,-41.504,0.000,0
33327.606,-23.438,-28.320,-54.688,-19.043,0.000,0
33327.610,-24.902,-23.438,-106.445,-3.418,0.000,0
33327.614,-32.227,-24.902,-1.465,-26.855,0.000,0
33327.618,-33.203,-27.832,42.480,-49.805,0.000,0
33327.622,-24.414,-33.203,-25.391,-35.645,0.000,0
33327.626,-21.973,-30.273,-103.516,-21.973,0.000,0
33327.629,-17.578,-20.508,-26.855,-30.273,0.000,0
33327.633,-24.414,-26.855,48.340,-56.152,0.000,0
33327.637,-20.508,-33.691,4.883,-41.504,0.000,0
33327.641,-5.371,-23.438,-98.633,-4.883,0.000,0
33327.645,-23.438,-22.461,-76.660,-10.742,0.000,0
33327.649,-59.570,-30.762,23.438,-54.199,0.000,0
33327.653,-57.129,-31.738,13.672,-61.035,0.000,0
33327.657,-40.039,-28.809,-82.520,-20.996,0.000,0
33327.661,-43.457,-25.391,-101.074,-25.391,0.000,0
33327.665,-38.086,-27.832,5.371,-38.086,0.000,0
33327.668,-44.434,-33.203,26.855,-52.246,0.000,0
33327.672,-39.551,-29.297,-39.551,-45.410,0.000,0
33327.676,-36.621,-20.996,-98.145,-25.391,0.000,0
33327.680,-30.273,-22.949,-7.812,-23.926,0.000,0
33327.684,-35.645,-24.902,41.504,-30.273,0.000,0
33327.688,-34.180,-23.926,-11.719,-19.531,0.000,0
33327.692,-23.438,-25.391,-97.656,-5.859,0.000,0
33327.696,-19.043,-26.367,-44.922,-17.578,0.000,0
33327.700,-25.879,-27.832,38.086,-41.504,0.000,0
33327.704,-29.785,-28.320,5.859,-23.926,0.000,0
33327.708,-26.855,-26.367,-97.168,-10.254,0.000,0
33327.711,-31.738,-22.949,-82.031,-37.109,0.000,0
33327.715,-40.527,-26.855,31.738,-50.293,0.000,0
33327.719,-40.039,-23.926,38.086,-35.645,0.000,0
33327.723,-25.879,-20.508,-66.406,-8.301,0.000,0
33327.727,-27.832,-20.508,-100.098,-13.672,0.000,0
33327.731,-30.273,-21.484,21.484,-26.367,0.000,0
33327.735,-32.227,-28.320,38.574,-21.484,0.000,0
33327.739,-18.066,-27.344,-25.391,-13.672,0.000,0
33327.743,-29.297,-19.531,-95.703,-8.789,0.000,0
33327.747,-30.762,-21.484,-21.973,-15.625,0.000,0
33327.751,-30.762,-25.391,44.434,-41.504,0.000,0
33327.754,-24.414,-22.949,0.000,-18.555,0.000,0
33327.758,-22.461,-18.066,-99.609,-2.441,0.000,0
33327.762,-33.691,-19.043,-52.246,-27.832,0.000,0
33327.766,-39.062,-22.949,43.945,-39.062,0.000,0
33327.770,-23.926,-25.879,5.371,-35.645,0.000,0
33327.774,-18.555,-18.066,-96.680,-27.344,0.000,0
33327.778,-14.648,-16.113,-84.473,-23.926,0.000,0
33327.782,-9.277,-20.508,23.438,-22.949,0.000,0
33327.786,-15.137,-17.090,26.855,-17.090,0.000,0
33327.790,-5.859,-17.578,-54.688,-18.066,0.000,0
33327.793,-9.766,-18.555,-98.633,-14.648,0.000,0
33327.797,-16.602,-20.996,4.883,-1.465,0.000,0
33327.801,-20.508,-24.414,39.551,-16.113,0.000,0
33327.805,-11.230,-25.391,-30.273,-11.230,0.000,0
33327.809,-21.973,-23.926,-92.285,-14.648,0.000,0
33327.813,-24.902,-22.461,-20.508,-35.156,0.000,0
33327.817,-23.926,-27.832,37.109,-44.922,0.000,0
33327.821,-20.508,-30.273,-2.930,-23.926,0.000,0
33327.825,-12.695,-24.414,-97.168,-13.672,0.000,0
33327.829,-14.648,-28.809,-60.059,-34.180,0.000,0
33327.833,-30.273,-35.156,31.738,-49.316,0.000,0
33327.836,-22.949,-29.297,15.137,-33.691,0.000,0
33327.840,-6.348,-25.391,-75.195,-20.508,0.000,0
33327.844,-5.859,-28.809,-94.238,-6.836,0.000,0
33327.848,-11.719,-30.273,10.254,-4.395,0.000,0
33327.852,-27.832,-31.738,27.344,-34.668,0.000,0
33327.856,-24.902,-27.344,-45.410,-28.809,0.000,0
33327.860,-20.508,-24.414,-104.980,-19.531,0.000,0
33327.864,-26.855,-28.809,-9.766,-24.414,0.000,0
33327.868,-41.016,-30.762,48.340,-39.551,0.000,0
33327.872,-33.203,-39.551,-17.090,-24.414,0.000,0
33327.876,-24.902,-39.062,-118.652,-7.324,0.000,0
33327.879,-16.602,-33.691,-41.992,-8.301,0.000,0
33327.883,-27.344,-33.691,42.480,-16.602,0.000,0
33327.887,-31.250,-33.691,-1.465,-26.367,0.000,0
33327.891,-19.531,-23.926,-87.891,-26.855,0.000,0
33327.895,-15.625,-19.043,-66.406,-27.832,0.000,0
33327.899,-28.809,-24.414,27.344,-33.691,0.000,0
33327.903,-31.738,-29.785,15.137,-40.527,0.000,0
33327.907,-20.996,-34.180,-83.008,-28.809,0.000,0
33327.911,-21.973,-25.879,-94.727,-24.414,0.000,0
33327.915,-23.926,-23.438,16.602,-30.762,0.000,0
33327.918,-25.879,-28.809,31.250,-32.715,0.000,0
33327.922,-15.625,-30.762,-47.363,-7.812,0.000,0
33327.926,-15.625,-21.973,-104.004,-8.301,0.000,0
33327.930,-20.020,-22.949,-10.254,-34.668,0.000,0
33327.934,-24.414,-28.809,36.133,-42.969,0.000,0
33327.938,-20.020,-29.297,-22.461,-25.391,0.000,0
33327.942,-20.996,-30.762,-109.863,-13.672,0.000,0
33327.946,-18.555,-29.785,-52.246,-5.371,0.000,0
33327.950,-19.043,-30.762,35.156,-29.297,0.000,0
33327.954,-6.348,-30.273,6.348,-31.738,0.000,0
33327.958,-3.906,-25.391,-89.844,-14.648,0.000,0
33327.961,-23.438,-25.391,-79.102,-12.695,0.000,0
33327.965,-24.902,-32.715,20.996,-31.250,0.000,0
33327.969,-21.484,-36.621,21.973,-35.156,0.000,0
33327.973,-16.113,-24.902,-60.547,-1.953,0.000,0
33327.977,-7.324,-21.973,-91.797,-5.859,0.000,0
33327.981,-5.859,-29.297,5.371,-30.273,0.000,0
33327.985,-22.949,-28.320,37.109,-39.062,0.000,0
33327.989,-24.902,-25.391,-18.066,-29.297,0.000,0
33327.993,-21.973,-26.855,-95.703,-23.926,0.000,0
33327.997,-19.043,-28.809,-19.531,-30.273,0.000,0
33328.001,-22.949,-21.484,45.410,-37.109,0.000,0
33328.004,-10.742,-21.484,-2.441,-5.859,0.000,0
33328.008,-4.883,-20.996,-94.238,0.000,0.000,0
33328.012,-12.207,-17.090,-55.176,-23.438,0.000,0
33328.016,-23.926,-19.531,29.297,-39.551,0.000,0
33328.020,-19.043,-22.461,7.324,-27.344,0.000,0
33328.024,-20.508,-21.973,-88.379,-11.719,0.000,0
33328.028,-29.297,-21.973,-84.473,-24.414,0.000,0
33328.032,-32.715,-20.996,21.973,-41.016,0.000,0
33328.036,-30.273,-24.414,24.414,-41.016,0.000,0
33328.040,-10.742,-15.137,-72.754,0.000,0.000,0
33328.043,-3.906,-1.953,-95.215,10.742,0.000,1
33328.047,-4.883,-3.906,11.719,-5.371,0.000,0
33328.051,0.000,0.488,33.203,-11.719,0.000,0
33328.055,12.207,1.953,-29.297,5.859,0.000,0
33328.059,-13.672,0.488,-113.770,-10.254,0.000,0
33328.063,-38.086,4.395,-38.574,-40.527,0.000,0
33328.067,-34.668,14.648,40.527,-47.852,0.000,0
33328.071,-15.137,25.391,-11.719,-16.602,0.000,0
33328.075,-17.090,37.109,-116.699,-5.371,0.000,0
33328.079,-24.414,45.898,-75.195,-10.742,0.000,0
33328.083,-15.137,45.410,21.973,-23.926,0.000,0
33328.086,-15.625,47.363,-0.977,-26.855,0.000,0
33328.090,-16.113,57.129,-101.562,1.953,0.000,0
33328.094,-16.602,60.059,-108.887,-2.930,0.000,0
33328.098,-14.648,63.965,2.441,-20.508,0.000,0
33328.102,-21.973,68.848,15.137,-16.602,0.000,0
33328.106,-21.973,69.336,-62.500,-7.324,0.000,0
33328.110,-29.785,77.148,-115.234,-9.766,0.000,0
33328.114,-29.785,78.613,-20.508,-13.672,0.000,0
33328.118,-36.133,62.500,18.066,-38.086,0.000,0
33328.122,-21.484,59.570,-34.668,-17.578,0.000,0
33328.126,-14.648,66.406,-104.492,-12.207,0.000,0
33328.129,-29.297,53.711,-56.152,-41.504,0.000,0
33328.133,-37.598,47.852,20.996,-43.457,0.000,0
33328.137,-33.203,47.363,0.977,-24.902,0.000,0
33328.141,-27.832,42.969,-102.051,-14.160,0.000,0
33328.145,-19.531,35.645,-60.059,-26.367,0.000,0
33328.149,-20.020,27.344,38.086,-37.598,0.000,0
33328.153,-18.555,20.020,14.648,-23.926,0.000,0
33328.157,-18.066,21.484,-73.730,-3.418,0.000,0
33328.161,-27.832,19.043,-99.609,-6.348,0.000,0
33328.165,-21.484,7.324,12.207,-29.297,0.000,0
33328.168,-25.391,1.953,40.039,-51.758,0.000,0
33328.172,-32.227,-0.488,-39.062,-47.363,0.000,0
33328.176,-25.879,-5.859,-108.887,-33.203,0.000,0
33328.180,-11.230,-5.859,-10.254,-31.738,0.000,0
33328.184,-28.809,-11.719,58.105,-52.734,0.000,0
33328.188,-31.250,-18.555,-1.953,-34.180,0.000,0
33328.192,-20.996,-11.230,-98.145,-8.301,0.000,0
33328.196,-23.926,-17.578,-45.898,-25.879,0.000,0
33328.200,-31.738,-26.855,42.969,-42.969,0.000,0
33328.204,-20.508,-27.832,19.043,-34.668,0.000,0
33328.208,-18.066,-30.273,-77.637,-33.691,0.000,0
33328.211,-34.668,-30.762,-67.871,-45.410,0.000,0
33328.215,-39.062,-37.598,32.715,-49.316,0.000,0
33328.219,-32.715,-41.016,25.391,-35.645,0.000,0
33328.223,-20.996,-38.574,-64.941,-13.672,0.000,0
33328.227,-26.855,-38.574,-92.285,-11.719,0.000,0
33328.231,-35.156,-44.922,15.625,-24.902,0.000,0
33328.235,-27.832,-52.246,41.504,-34.180,0.000,0
33328.239,-20.996,-51.270,-25.879,-21.484,0.000,0
33328.243,-28.320,-44.922,-83.984,-25.391,0.000,0
33328.247,-29.297,-46.875,-2.441,-41.992,0.000,0
33328.251,-32.715,-57.129,53.223,-53.711,0.000,0
33328.254,-20.996,-55.664,0.488,-11.719,0.000,0
33328.258,-8.301,-47.363,-95.703,10.254,0.000,0
33328.262,-6.836,-52.246,-49.316,-23.926,0.000,0
33328.266,-30.273,-56.152,41.992,-56.152,0.000,0
33328.270,-30.762,-49.316,19.531,-44.922,0.000,0
33328.274,-21.484,-51.270,-79.102,-20.996,0.000,0
33328.278,-23.438,-53.223,-84.473,-28.809,0.000,0
33328.282,-15.137,-53.711,23.438,-46.387,0.000,0
33328.286,-21.484,-53.711,33.691,-52.734,0.000,0
33328.290,-24.902,-48.828,-57.617,-26.367,0.000,0
33328.293,-27.832,-48.340,-105.957,-18.066,0.000,0
33328.297,-25.391,-55.176,1.465,-22.461,0.000,0
33328.301,-34.668,-56.152,45.410,-28.809,0.000,0
33328.305,-25.391,-52.734,-14.160,-16.113,0.000,0
33328.309,-18.555,-44.922,-99.121,-17.578,0.000,0
33328.313,-20.020,-43.457,-26.367,-36.621,0.000,0
33328.317,-31.250,-47.852,41.992,-42.480,0.000,0
33328.321,-22.461,-48.340,2.441,-25.391,0.000,0
33328.325,-24.414,-48.828,-94.238,-21.973,0.000,0
33328.329,-35.156,-49.316,-67.383,-25.879,0.000,0
33328.333,-31.250,-55.176,32.715,-29.785,0.000,0
33328.336,-27.832,-50.293,19.043,-27.832,0.000,0
33328.340,-21.973,-38.086,-73.730,-20.996,0.000,0
33328.344,-26.367,-35.645,-83.008,-32.227,0.000,0
33328.348,-27.344,-37.109,27.344,-34.180,0.000,0
33328.352,-21.973,-39.551,47.852,-38.574,0.000,0
33328.356,-20.996,-40.527,-45.410,-16.602,0.000,0
33328.360,-30.273,-38.086,-107.910,-13.184,0.000,0
33328.364,-29.297,-46.875,1.953,-35.156,0.000,0
33328.368,-43.457,-53.711,39.062,-39.062,0.000,0
33328.372,-43.457,-53.223,-30.762,-19.043,0.000,0
33328.376,-34.668,-51.270,-112.305,-22.949,0.000,0
33328.379,-33.203,-50.781,-35.645,-35.156,0.000,0
33328.383,-33.691,-45.898,44.922,-51.758,0.000,0
33328.387,-29.785,-44.434,0.977,-40.039,0.000,0
33328.391,-28.809,-44.922,-102.539,-18.555,0.000,0
33328.395,-29.297,-38.574,-78.613,-13.672,0.000,0
33328.399,-33.203,-44.434,26.367,-30.762,0.000,0
33328.403,-39.062,-47.363,21.973,-31.250,0.000,0
33328.407,-30.762,-41.992,-68.848,-3.906,0.000,0
33328.411,-22.461,-41.992,-95.215,-18.555,0.000,0
33328.415,-19.531,-43.945,4.883,-32.227,0.000,0
33328.418,-32.227,-45.898,25.879,-33.691,0.000,0
33328.422,-34.668,-46.387,-42.480,-30.273,0.000,0
33328.426,-35.645,-39.551,-105.957,-23.926,0.000,0
33328.430,-26.367,-38.574,-16.602,-31.250,0.000,0
33328.434,-31.250,-43.945,35.645,-45.410,0.000,0
33328.438,-29.297,-38.086,-12.207,-23.926,0.000,0
33328.442,-27.832,-35.156,-93.262,-25.879,0.000,0
33328.446,-33.203,-37.109,-43.457,-41.016,0.000,0
33328.450,-32.715,-41.504,40.039,-46.875,0.000,0
33328.454,-35.156,-41.504,18.066,-39.062,0.000,0
33328.458,-31.250,-36.133,-83.008,-2.441,0.000,0
33328.461,-23.438,-38.086,-73.242,-11.719,0.000,0
33328.465,-27.832,-43.945,29.785,-56.152,0.000,0
33328.469,-28.809,-45.898,28.809,-37.109,0.000,0
33328.473,-17.578,-38.574,-62.988,-7.324,0.000,0
33328.477,-16.113,-33.203,-101.562,-14.160,0.000,0
33328.481,-17.090,-37.598,9.766,-29.297,0.000,0
33328.485,-32.227,-45.898,30.762,-43.945,0.000,0
33328.489,-23.438,-45.898,-46.875,-32.227,0.000,0
33328.493,-15.137,-36.133,-111.328,-11.719,0.000,0
33328.497,-13.672,-37.598,-24.902,8.301,0.000,0
33328.501,-24.902,-40.527,39.551,-11.230,0.000,0
33328.504,-24.902,-39.551,-7.324,-23.438,0.000,0
33328.508,-21.484,-36.133,-109.375,-15.625,0.000,0
33328.512,-28.320,-38.086,-71.289,-26.855,0.000,0
33328.516,-41.504,-42.480,23.926,-29.297,0.000,0
33328.520,-42.969,-39.551,4.883,-30.762,0.000,0
33328.524,-29.297,-35.156,-94.727,-19.043,0.000,0
33328.528,-29.297,-31.250,-89.844,-10.742,0.000,0
33328.532,-35.645,-31.250,21.973,-29.297,0.000,0
33328.536,-39.551,-33.203,18.066,-36.621,0.000,0
33328.540,-27.832,-37.598,-69.336,-14.648,0.000,0
33328.543,-20.996,-41.504,-104.004,-3.418,0.000,0
33328.547,-22.949,-36.133,-1.465,-16.113,0.000,0
33328.551,-27.344,-36.621,31.250,-32.715,0.000,0
33328.555,-16.113,-36.621,-28.809,-22.949,0.000,0
33328.559,-18.066,-28.809,-96.191,-20.508,0.000,0
33328.563,-23.438,-30.762,-29.785,-25.391,0.000,0
33328.567,-26.367,-37.598,34.180,-38.574,0.000,0
33328.571,-28.320,-35.645,-3.906,-16.113,0.000,0
33328.575,-22.949,-32.715,-99.121,0.977,0.000,0
33328.579,-17.578,-31.738,-57.617,-13.672,0.000,0
33328.583,-23.926,-29.297,39.062,-28.320,0.000,0
33328.586,-27.832,-34.180,18.066,-26.367,0.000,0
33328.590,-22.461,-31.738,-73.730,-9.277,0.000,0
33328.594,-24.414,-27.344,-91.309,1.465,0.000,0
33328.598,-25.879,-35.156,3.906,-25.879,0.000,0
33328.602,-26.367,-34.668,31.250,-45.898,0.000,0
33328.606,-14.648,-24.902,-40.039,-20.020,0.000,0
33328.610,0.000,-24.902,-105.469,0.488,0.000,0
33328.614,5.859,-21.973,-5.371,7.324,0.000,0
33328.618,-9.277,-21.973,48.340,-13.672,0.000,0
33328.622,-10.254,-23.438,-8.789,-28.320,0.000,0
33328.626,-8.789,-19.043,-97.656,-21.484,0.000,0
33328.629,-10.742,-25.391,-36.621,-23.926,0.000,0
33328.633,-33.203,-30.273,39.062,-32.227,0.000,0
33328.637,-35.645,-28.320,-0.977,-19.531,0.000,1
33328.641,-24.902,-25.879,-99.121,-12.207,0.000,0
33328.645,-25.879,-25.879,-78.613,-18.066,0.000,0
33328.649,-30.273,-36.133,26.367,-32.715,0.000,0
33328.653,-29.785,-37.598,12.207,-21.973,0.000,0
33328.657,0.977,-32.227,-79.102,0.488,0.000,0
33328.661,17.090,-32.227,-92.285,-18.066,0.000,0
33328.665,-28.809,-38.086,4.395,-44.434,0.000,0
33328.668,-64.941,-38.574,26.855,-60.059,0.000,0
33328.672,-41.504,-26.855,-43.457,-24.902,0.000,0
33328.676,-39.551,-22.461,-106.934,-23.926,0.000,0
33328.680,-44.922,-27.344,-2.441,-49.805,0.000,0
33328.684,-49.316,-30.273,48.340,-52.246,0.000,0
33328.688,-36.621,-25.879,-13.184,-30.762,0.000,0
33328.692,-28.320,-22.461,-98.633,-15.625,0.000,0
33328.696,-32.715,-28.320,-41.992,-16.113,0.000,0
33328.700,-37.109,-36.133,38.574,-25.879,0.000,0
33328.704,-35.645,-39.551,0.977,-48.340,0.000,0
33328.708,-30.762,-34.668,-89.844,-41.992,0.000,0
33328.711,-20.508,-27.832,-78.125,-13.672,0.000,0
33328.715,-14.648,-24.902,31.738,-27.344,0.000,0
33328.719,-19.531,-27.832,44.434,-35.645,0.000,0
33328.723,-10.254,-23.438,-46.387,-6.836,0.000,0
33328.727,-11.230,-25.879,-88.379,-10.254,0.000,0
33328.731,-29.785,-39.062,11.719,-35.645,0.000,0
33328.735,-35.645,-40.527,47.363,-39.551,0.000,0
33328.739,-14.160,-33.691,-13.672,-21.973,0.000,0
33328.743,-21.973,-28.320,-97.168,-29.785,0.000,0
33328.747,-20.996,-31.250,-17.578,-16.602,0.000,0
33328.751,-20.996,-27.832,50.781,-33.203,0.000,0
33328.754,-21.973,-21.973,4.883,-37.109,0.000,0
33328.758,-20.508,-21.973,-85.449,-23.926,0.000,0
33328.762,-20.996,-22.461,-46.875,-40.527,0.000,0
33328.766,-23.438,-20.508,39.062,-37.598,0.000,0
33328.770,-24.414,-23.438,14.160,-15.625,0.000,0
33328.774,-24.902,-25.391,-78.613,-18.066,0.000,0
33328.778,-30.762,-23.926,-71.777,-43.457,0.000,0
33328.782,-26.367,-30.273,34.668,-31.250,0.000,0
33328.786,-25.879,-29.297,31.250,-33.203,0.000,0
33328.790,-13.672,-27.832,-60.059,-31.738,0.000,0
33328.793,-15.625,-24.902,-107.910,-19.043,0.000,0
33328.797,-25.391,-25.879,6.348,-39.062,0.000,0
33328.801,-37.109,-31.250,47.363,-47.852,0.000,0
33328.805,-26.855,-32.227,-22.949,-18.555,0.000,0
33328.809,-16.602,-24.902,-95.215,-17.578,0.000,0
33328.813,-13.184,-20.996,-20.508,-13.184,0.000,0
33328.817,-20.508,-25.879,51.270,-17.578,0.000,0
33328.821,-16.113,-25.391,8.789,-17.090,0.000,0
33328.825,-16.602,-20.996,-95.703,-10.742,0.000,0
33328.829,-24.902,-21.973,-71.289,-26.367,0.000,0
33328.833,-23.926,-27.344,24.902,-34.180,0.000,0
33328.836,-21.484,-30.762,19.043,-39.551,0.000,0
33328.840,-13.184,-24.414,-69.336,-16.113,0.000,0
33328.844,-4.395,-17.090,-74.219,1.465,0.000,0
33328.848,-8.301,-20.020,29.297,-36.133,0.000,0
33328.852,-16.113,-23.438,34.668,-30.762,0.000,0
33328.856,-15.137,-24.414,-39.551,1.465,0.000,0
33328.860,-22.949,-20.508,-93.262,-24.902,0.000,0
33328.864,-23.926,-26.367,-1.953,-40.039,0.000,0
33328.868,-38.574,-23.926,37.598,-39.551,0.000,0
33328.872,-38.574,-19.531,-24.902,-27.832,0.000,0
33328.876,-31.738,-20.020,-95.215,-20.996,0.000,0
33328.879,-24.414,-12.207,-32.227,-28.809,0.000,0
33328.883,-27.344,-20.020,38.086,-33.203,0.000,0
33328.887,-27.344,-30.273,10.254,-15.137,0.000,0
33328.891,-34.180,-26.367,-89.355,-12.695,0.000,0
33328.895,-32.227,-22.461,-65.918,-20.020,0.000,0
33328.899,-30.762,-28.320,33.203,-18.066,0.000,0
33328.903,-31.250,-31.738,15.625,-38.574,0.000,0
33328.907,-16.113,-20.508,-73.242,-31.250,0.000,0
33328.911,-22.949,-20.020,-98.145,-19.043,0.000,0
33328.915,-21.973,-22.461,13.672,-33.691,0.000,0
33328.918,-24.414,-24.902,41.504,-46.387,0.000,0
33328.922,-24.414,-25.391,-36.621,-29.297,0.000,0
33328.926,-20.020,-20.020,-105.957,-15.625,0.000,0
33328.930,-6.836,-19.043,-18.066,-20.508,0.000,0
33328.934,-16.113,-26.855,53.223,-28.320,0.000,0
33328.938,-23.926,-21.484,4.883,-38.574,0.000,0
33328.942,-25.391,-19.531,-99.609,-25.391,0.000,0
33328.946,-22.461,-23.926,-47.363,-14.648,0.000,0
33328.950,-26.367,-26.367,37.598,-23.438,0.000,0
33328.954,-27.832,-26.367,6.836,-30.273,0.000,0
33328.958,-20.508,-18.555,-83.496,-33.203,0.000,0
33328.961,-12.695,-13.672,-78.613,-14.160,0.000,0
33328.965,-20.508,-16.113,19.043,-29.297,0.000,0
33328.969,-33.691,-21.484,17.090,-36.621,0.000,0
33328.973,-32.227,-27.832,-76.660,-9.766,0.000,0
33328.977,-28.809,-26.855,-101.562,-29.785,0.000,0
33328.981,-25.391,-22.461,4.883,-44.922,0.000,0
33328.985,-29.785,-28.320,29.297,-38.574,0.000,0
33328.989,-24.902,-32.715,-41.992,-18.555,0.000,0
33328.993,-23.926,-21.973,-109.863,-18.066,0.000,0
33328.997,-20.020,-17.578,-23.438,-17.090,0.000,0
33329.001,-34.180,-24.414,30.762,-16.113,0.000,0
33329.004,-29.297,-22.461,-14.160,-15.625,0.000,0
33329.008,-25.391,-23.438,-103.027,-15.625,0.000,0
33329.012,-28.320,-28.809,-64.453,-20.996,0.000,0
33329.016,-28.320,-31.738,28.320,-34.180,0.000,0
33329.020,-30.273,-33.203,7.812,-41.504,0.000,0
33329.024,-34.668,-28.809,-89.355,-30.762,0.000,0
33329.028,-21.973,-22.949,-93.262,-13.672,0.000,0
33329.032,-16.113,-24.902,20.508,-22.461,0.000,0
33329.036,-28.320,-26.367,38.086,-55.176,0.000,0
33329.040,-23.438,-23.926,-53.711,-27.832,0.000,0
33329.043,-19.531,-20.020,-108.887,-17.090,0.000,0
33329.047,-16.602,-26.855,-6.836,-27.344,0.000,0
33329.051,-38.574,-32.715,35.645,-41.504,0.000,0
33329.055,-32.715,-27.344,-18.066,-26.855,0.000,0
33329.059,-22.461,-23.438,-99.609,-8.301,0.000,0
33329.063,-32.715,-25.391,-34.180,-23.926,0.000,0
33329.067,-36.621,-25.879,40.039,-38.086,0.000,0
33329.071,-21.484,-28.320,2.930,-22.949,0.000,0
33329.075,-13.672,-20.996,-96.680,-18.066,0.000,0
33329.079,-8.789,-14.160,-75.684,-7.812,0.000,0
33329.083,-14.648,-17.578,28.320,-22.461,0.000,0
33329.086,-24.414,-21.973,26.855,-29.297,0.000,0
33329.090,-25.391,-22.949,-76.172,-5.859,0.000,0
33329.094,-22.949,-20.996,-83.496,-33.691,0.000,0
33329.098,-20.020,-25.391,30.762,-34.668,0.000,0
33329.102,-23.926,-23.438,39.551,-30.273,0.000,0
33329.106,-6.836,-15.137,-42.480,-8.301,0.000,0
33329.110,-4.883,-10.254,-101.074,1.953,0.000,0
33329.114,-14.648,-16.113,8.301,-20.508,0.000,0
33329.118,-19.531,-20.508,55.176,-35.645,0.000,0
33329.122,-15.625,-23.438,-17.578,-20.020,0.000,0
33329.126,-15.137,-22.461,-99.121,-13.184,0.000,0
33329.129,-17.578,-19.043,-34.668,-7.812,0.000,0
33329.133,-22.461,-22.461,41.504,-23.926,0.000,0
33329.137,-21.484,-20.996,6.836,-19.043,0.000,0
33329.141,-28.809,-22.949,-101.562,-4.883,0.000,0
33329.145,-27.832,-23.438,-82.520,-12.207,0.000,0
33329.149,-26.367,-21.973,28.809,-27.832,0.000,0
33329.153,-30.762,-30.273,25.391,-45.898,0.000,0
33329.157,-24.902,-28.809,-62.988,-24.414,0.000,0
33329.161,-29.297,-21.484,-91.797,-12.207,0.000,0
33329.165,-28.320,-25.391,4.395,-21.484,0.000,0
33329.168,-28.809,-28.320,26.367,-40.039,0.000,0
33329.172,-22.949,-29.785,-41.992,-31.738,0.000,0
33329.176,-19.043,-28.320,-107.910,-21.484,0.000,0
33329.180,-13.672,-28.809,-22.949,-30.762,0.000,0
33329.184,-21.484,-29.785,38.086,-38.086,0.000,0
33329.188,-27.832,-28.320,-7.812,-22.949,0.000,0
33329.192,-25.879,-24.414,-94.238,-27.344,0.000,0
33329.196,-24.414,-26.367,-47.363,-33.691,0.000,0
33329.200,-34.668,-32.715,31.738,-45.410,0.000,0
33329.204,-37.109,-27.344,6.348,-29.297,0.000,0
33329.208,-24.414,-23.438,-100.098,-11.230,0.000,0
33329.211,-20.508,-21.484,-89.355,-21.484,0.000,0
33329.215,-21.973,-20.508,29.297,-14.160,0.000,0
33329.219,-29.297,-27.832,35.645,-20.508,0.000,0
33329.223,-23.438,-28.809,-59.570,-21.973,0.000,0
33329.227,-23.438,-26.367,-103.516,-30.762,0.000,0
33329.231,-20.996,-27.344,8.301,-44.922,0.000,0
33329.235,-22.949,-27.832,42.969,-36.133,0.000,0
33329.239,-19.531,-24.414,-27.832,-13.672,0.000,0
33329.243,-20.996,-21.484,-100.586,-14.160,0.000,1
33329.247,-21.973,-21.484,-18.555,-28.809,0.000,0
33329.251,-17.090,-23.926,45.410,-39.062,0.000,0
33329.254,-9.766,-27.832,-1.465,-23.926,0.000,0
33329.258,-21.973,-30.762,-100.098,-13.184,0.000,0
33329.262,-25.391,-36.621,-62.988,-21.484,0.000,0
33329.266,-28.809,-38.574,29.297,-36.621,0.000,0
33329.270,-25.391,-38.574,3.906,-41.992,0.000,0
33329.274,-20.020,-40.039,-86.914,-35.156,0.000,0
33329.278,-18.066,-31.250,-97.168,-22.461,0.000,0
33329.282,-13.672,-28.809,11.719,-11.230,0.000,0
33329.286,-20.508,-37.109,23.438,-27.344,0.000,0
33329.290,-19.043,-40.527,-60.059,-32.715,0.000,0
33329.293,-18.066,-32.227,-99.121,-23.438,0.000,0
33329.297,-17.090,-24.414,4.883,-23.438,0.000,0
33329.301,-27.832,-29.785,41.016,-39.551,0.000,0
33329.305,-19.043,-35.156,-26.855,-21.973,0.000,0
33329.309,-6.348,-31.250,-96.680,-8.301,0.000,0
33329.313,-7.324,-25.391,-21.973,-18.555,0.000,0
33329.317,-25.391,-29.785,38.574,-36.621,0.000,0
33329.321,-23.926,-39.062,-5.371,-34.668,0.000,0
33329.325,-21.484,-28.809,-99.121,-23.438,0.000,0
33329.329,-24.414,-28.320,-69.336,-32.227,0.000,0
33329.333,-32.715,-38.574,32.227,-39.062,0.000,0
33329.336,-30.273,-34.668,19.043,-43.457,0.000,0
33329.340,-10.254,-28.320,-73.242,-18.555,0.000,0
33329.344,-16.602,-23.926,-92.285,6.348,0.000,0
33329.348,-27.832,-28.809,11.719,-22.461,0.000,0
33329.352,-23.926,-34.180,38.574,-41.504,0.000,0
33329.356,-9.766,-32.715,-42.480,-18.555,0.000,0
33329.360,-18.555,-29.785,-111.816,-13.672,0.000,0
33329.364,-27.344,-33.203,-12.695,-21.973,0.000,0
33329.368,-40.527,-36.621,43.457,-39.551,0.000,0
33329.372,-35.645,-32.715,-17.090,-38.086,0.000,0
33329.376,-30.273,-24.414,-109.863,-23.438,0.000,0
33329.379,-31.250,-31.250,-46.875,-30.762,0.000,0
33329.383,-38.086,-35.156,30.273,-32.227,0.000,0
33329.387,-35.645,-32.227,-3.906,-25.879,0.000,0
33329.391,-20.508,-30.273,-96.191,-12.695,0.000,0
33329.395,-22.949,-27.344,-83.984,-9.277,0.000,0
33329.399,-24.414,-36.133,20.508,-38.574,0.000,0
33329.403,-22.949,-38.574,16.602,-41.992,0.000,0
33329.407,-22.949,-30.273,-79.102,-22.949,0.000,0
33329.411,-18.555,-28.320,-102.051,-32.227,0.000,0
33329.415,-11.719,-27.832,8.301,-40.039,0.000,0
33329.418,-13.672,-32.227,29.785,-35.645,0.000,0
33329.422,-7.324,-29.785,-47.363,-4.883,0.000,0
33329.426,-16.113,-26.855,-112.305,25.879,0.000,0
33329.430,-27.344,-38.086,-19.043,-14.160,0.000,0
33329.434,-33.203,-35.156,37.109,-43.457,0.000,0
33329.438,-20.020,-26.855,-14.648,-23.926,0.000,0
33329.442,-22.461,-25.391,-105.469,-33.691,0.000,0
33329.446,-34.668,-26.855,-50.293,-38.574,0.000,0
33329.450,-33.691,-31.250,39.551,-44.434,0.000,0
33329.454,-28.320,-25.879,11.230,-40.527,0.000,0
33329.458,-23.926,-23.926,-84.473,-18.555,0.000,0
33329.461,-17.090,-30.273,-81.543,-16.113,0.000,0
33329.465,-10.742,-28.809,23.438,-28.809,0.000,0
33329.469,-22.949,-28.809,36.133,-41.504,0.000,0
33329.473,-22.461,-27.832,-48.828,-25.879,0.000,0
33329.477,-21.484,-29.785,-100.098,-23.438,0.000,0
33329.481,-30.762,-37.109,-3.906,-33.203,0.000,0
33329.485,-35.645,-34.180,25.879,-29.297,0.000,0
33329.489,-23.438,-29.297,-25.879,-9.277,0.000,0
33329.493,-27.344,-26.855,-102.051,-12.207,0.000,0
33329.497,-25.879,-24.414,-31.250,-21.973,0.000,0
33329.501,-24.414,-29.297,41.016,-24.902,0.000,0
33329.504,-20.020,-37.598,-5.371,-13.184,0.000,0
33329.508,-23.926,-32.227,-103.516,-20.508,0.000,0
33329.512,-25.391,-25.879,-62.500,-26.855,0.000,0
33329.516,-32.227,-30.273,35.645,-32.715,0.000,0
33329.520,-34.668,-25.391,19.043,-41.504,0.000,0
33329.524,-10.742,-19.531,-82.520,-10.742,0.000,0
33329.528,-10.254,-23.926,-78.613,0.488,0.000,0
33329.532,-29.785,-30.273,28.320,-31.738,0.000,0
33329.536,-27.832,-29.297,27.832,-39.062,0.000,0
33329.540,-11.719,-24.902,-55.176,-11.230,0.000,0
33329.543,-14.648,-21.973,-104.004,-4.395,0.000,0
33329.547,-14.648,-20.996,12.207,-14.160,0.000,0
33329.551,-32.715,-23.438,55.176,-35.156,0.000,0
33329.555,-34.180,-23.438,-21.973,-20.020,0.000,0
33329.559,-27.832,-22.949,-100.586,-12.207,0.000,0
33329.563,-30.273,-27.344,-29.297,-33.691,0.000,0
33329.567,-41.016,-37.109,39.551,-42.969,0.000,0
33329.571,-33.203,-31.738,1.953,-24.902,0.000,0
33329.575,-26.855,-23.926,-94.727,3.418,0.000,0
33329.579,-35.645,-24.414,-66.406,-24.902,0.000,0
33329.583,-20.020,-27.344,34.668,-33.203,0.000,0
33329.586,-6.836,-28.320,23.438,-4.395,0.000,0
33329.590,-19.043,-20.996,-71.289,-17.090,0.000,0
33329.594,-28.320,-16.602,-86.426,-32.715,0.000,0
33329.598,-30.762,-28.809,16.602,-50.293,0.000,0
33329.602,-40.527,-26.855,30.762,-54.199,0.000,0
33329.606,-25.391,-20.020,-44.434,-18.555,0.000,0
33329.610,-27.344,-20.020,-100.098,-25.391,0.000,0
33329.614,-27.344,-23.438,-12.207,-41.504,0.000,0
33329.618,-23.926,-26.855,37.109,-38.574,0.000,0
33329.622,-19.043,-25.879,-16.602,-18.066,0.000,0
33329.626,-21.484,-20.996,-100.586,4.395,0.000,0
33329.629,-20.996,-31.250,-45.410,-13.672,0.000,0
33329.633,-21.484,-33.203,25.391,-38.086,0.000,0
33329.637,-18.555,-29.297,-2.930,-17.090,0.000,0
33329.641,-18.555,-29.785,-94.238,-1.953,0.000,0
33329.645,-21.973,-24.902,-80.078,-20.996,0.000,0
33329.649,-23.438,-25.391,21.484,-34.668,0.000,0
33329.653,-18.555,-27.344,21.973,-32.715,0.000,0
33329.657,-10.742,-26.367,-67.871,-20.020,0.000,0
33329.661,-19.043,-21.484,-106.934,-7.324,0.000,0
33329.665,-21.484,-21.484,0.977,-23.926,0.000,0
33329.668,-25.391,-19.531,43.945,-38.086,0.000,0
33329.672,-14.648,-18.066,-31.250,2.441,0.000,0
33329.676,-15.625,-18.066,-108.887,3.418,0.000,0
33329.680,-14.648,-20.996,-18.066,-18.066,0.000,0
33329.684,-19.531,-18.555,60.059,-23.926,0.000,0
33329.688,-7.324,-17.578,7.812,-11.719,0.000,0
33329.692,-7.324,-16.113,-106.934,0.977,0.000,0
33329.696,-19.531,-16.113,-58.105,-9.766,0.000,0
33329.700,-22.949,-21.973,31.738,-31.738,0.000,0
33329.704,-20.020,-21.973,4.883,-27.832,0.000,0
33329.708,-12.695,-19.043,-92.773,-7.812,0.000,0
33329.711,-16.113,-19.531,-92.773,-6.348,0.000,0
33329.715,-22.949,-20.996,21.973,-26.367,0.000,0
33329.719,-20.996,-17.578,35.645,-27.344,0.000,0
33329.723,-6.836,-18.066,-61.035,-5.371,0.000,0
33329.727,-12.695,-22.949,-101.074,-11.230,0.000,0
33329.731,-24.902,-27.344,5.371,-34.668,0.000,0
33329.735,-31.738,-29.297,29.785,-36.621,0.000,0
33329.739,-25.391,-31.738,-41.992,0.488,0.000,0
33329.743,-22.949,-25.879,-109.863,-8.789,0.000,0
33329.747,-20.508,-20.508,-20.508,-26.855,0.000,0
33329.751,-24.902,-23.438,39.551,-34.180,0.000,0
33329.754,-22.461,-29.297,-3.906,-23.926,0.000,0
33329.758,-19.531,-27.832,-94.238,-5.859,0.000,0
33329.762,-19.043,-21.484,-59.570,-8.789,0.000,0
33329.766,-23.438,-28.809,36.133,-29.297,0.000,0
33329.770,-24.902,-31.250,21.973,-36.621,0.000,0
33329.774,-21.484,-19.531,-73.730,-6.836,0.000,0
33329.778,-17.578,-13.672,-83.984,-7.812,0.000,0
33329.782,-12.207,-17.578,21.973,-25.391,0.000,0
33329.786,-15.625,-21.973,43.945,-39.062,0.000,0
33329.790,-21.484,-23.438,-42.969,-23.926,0.000,0
33329.793,-25.879,-25.879,-103.516,-19.531,0.000,0
33329.797,-20.020,-21.973,-2.930,-33.691,0.000,0
33329.801,-27.344,-20.020,33.203,-28.320,0.000,0
33329.805,-20.020,-23.438,-22.461,-8.789,0.000,0
33329.809,-27.832,-20.508,-101.074,-12.695,0.000,0
33329.813,-31.250,-19.043,-37.109,-20.020,0.000,0
33329.817,-30.762,-24.414,35.156,-20.508,0.000,0
33329.821,-27.344,-27.344,-1.465,-7.812,0.000,0
33329.825,-20.020,-23.438,-94.238,-19.531,0.000,0
33329.829,-24.902,-24.902,-70.801,-40.527,0.000,0
33329.833,-29.785,-25.391,28.809,-46.387,0.000,0
33329.836,-28.809,-23.926,19.531,-32.715,0.000,0
33329.840,-28.320,-26.855,-86.426,-1.465,0.000,0
33329.844,-25.391,-28.320,-104.980,-8.301,0.000,0
33329.848,-23.926,-28.320,11.230,-33.691,0.000,0
33329.852,-29.785,-31.738,24.414,-35.645,0.000,0
33329.856,-15.625,-30.762,-47.852,-3.418,0.000,0
33329.860,-21.484,-20.508,-97.168,1.465,0.000,0
33329.864,-25.879,-27.344,-5.859,-37.109,0.000,0
33329.868,-27.344,-30.273,41.992,-47.363,0.000,0
33329.872,-23.438,-24.902,-19.043,-23.926,0.000,0
33329.876,-24.414,-29.297,-110.840,-19.531,0.000,1
33329.879,-24.902,-25.391,-43.457,-19.043,0.000,0
33329.883,-23.438,-28.320,41.016,-27.832,0.000,0
33329.887,-17.578,-26.855,-3.418,-16.113,0.000,0
33329.891,-15.137,-21.973,-100.098,-0.977,0.000,0
33329.895,-19.043,-25.391,-81.543,-12.207,0.000,0
33329.899,-16.602,-26.367,26.367,-21.973,0.000,0
33329.903,-23.926,-34.180,17.578,-27.832,0.000,0
33329.907,-26.367,-39.551,-73.242,-28.320,0.000,0
33329.911,-21.973,-27.344,-87.891,-26.855,0.000,0
33329.915,-13.184,-26.855,17.090,-33.691,0.000,0
33329.918,-17.090,-34.668,31.738,-36.621,0.000,0
33329.922,-7.324,-28.320,-29.297,-11.230,0.000,0
33329.926,-11.719,-23.926,-95.703,-4.883,0.000,0
33329.930,-22.461,-30.273,-22.461,-15.625,0.000,0
33329.934,-39.062,-35.645,35.156,-27.344,0.000,0
33329.938,-38.574,-34.668,-10.254,-20.996,0.000,0
33329.942,-34.180,-21.973,-101.074,-19.043,0.000,0
33329.946,-35.645,-20.508,-55.664,-44.922,0.000,0
33329.950,-39.062,-29.297,31.738,-46.387,0.000,0
33329.954,-38.086,-27.344,12.695,-22.461,0.000,0
33329.958,-30.762,-21.973,-91.309,-22.461,0.000,0
33329.961,-23.926,-23.438,-91.309,-20.508,0.000,0
33329.965,-22.949,-22.461,25.391,-23.926,0.000,0
33329.969,-26.367,-24.902,33.203,-33.203,0.000,0
33329.973,-24.902,-25.391,-59.082,-25.391,0.000,0
33329.977,-34.180,-24.414,-108.398,-20.508,0.000,0
33329.981,-34.180,-34.180,-6.836,-24.414,0.000,0
33329.985,-34.668,-35.156,42.480,-27.344,0.000,0
33329.989,-18.555,-33.691,-24.414,-10.254,0.000,0
33329.993,-18.555,-24.902,-109.375,-15.625,0.000,0
33329.997,-25.879,-11.230,-30.273,-10.254,0.000,0
33330.001,-35.645,-16.602,42.969,-10.254,0.000,0
33330.004,-24.414,-25.391,3.418,-11.230,0.000,0
33330.008,-16.602,-19.043,-95.703,-16.113,0.000,0
33330.012,-22.949,-16.602,-56.152,-28.809,0.000,0
33330.016,-20.996,-17.090,47.363,-27.832,0.000,0
33330.020,-15.625,-19.043,19.531,-23.438,0.000,0
33330.024,-20.020,-21.973,-83.008,-24.902,0.000,0
33330.028,-34.180,-18.555,-96.680,-20.996,0.000,0
33330.032,-34.180,-26.367,4.883,-24.414,0.000,0
33330.036,-39.062,-31.250,15.137,-44.434,0.000,0
33330.040,-33.203,-32.715,-60.059,-23.438,0.000,0
33330.043,-32.715,-31.250,-102.051,-13.184,0.000,0
33330.047,-29.785,-25.879,-6.836,-21.973,0.000,0
33330.051,-29.785,-27.832,30.273,-28.320,0.000,0
33330.055,-36.621,-29.297,-32.227,-17.090,0.000,0
33330.059,-35.645,-24.902,-103.516,-20.996,0.000,0
33330.063,-20.996,-25.391,-24.902,-42.969,0.000,0
33330.067,-33.691,-25.879,36.133,-47.852,0.000,0
33330.071,-37.109,-21.973,-8.789,-40.039,0.000,0
33330.075,-31.250,-20.508,-105.469,-27.832,0.000,0
33330.079,-32.227,-21.484,-77.637,-25.391,0.000,0
33330.083,-32.227,-28.320,32.227,-42.480,0.000,0
33330.086,-30.273,-31.738,22.949,-43.945,0.000,0
33330.090,-27.344,-26.855,-82.520,-30.762,0.000,0
33330.094,-26.855,-24.902,-102.539,-21.973,0.000,0
33330.098,-20.996,-34.668,13.672,-28.809,0.000,0
33330.102,-26.367,-37.598,36.621,-42.969,0.000,0
33330.106,-26.367,-30.273,-44.434,-35.156,0.000,0
33330.110,-23.438,-28.320,-112.305,-29.785,0.000,0
33330.114,-16.113,-25.391,-12.695,-25.391,0.000,0
33330.118,-26.855,-28.809,42.969,-31.250,0.000,0
33330.122,-25.879,-32.715,-8.789,-39.062,0.000,0
33330.126,-25.391,-29.785,-102.051,-31.250,0.000,0
33330.129,-24.414,-28.809,-52.246,-18.066,0.000,0
33330.133,-24.414,-32.715,37.109,-27.344,0.000,0
33330.137,-17.578,-31.738,6.348,-21.973,0.000,0
33330.141,-20.996,-32.715,-93.262,-26.367,0.000,0
33330.145,-35.645,-32.227,-84.473,-41.016,0.000,0
33330.149,-44.922,-31.250,20.508,-45.898,0.000,0
33330.153,-41.992,-29.785,19.531,-53.711,0.000,0
33330.157,-27.344,-31.738,-80.078,-30.273,0.000,0
33330.161,-20.996,-28.809,-101.074,-8.301,0.000,0
33330.165,-22.461,-26.367,14.160,-23.438,0.000,0
33330.168,-24.414,-28.809,31.250,-31.250,0.000,0
33330.172,-12.695,-24.902,-40.039,-16.602,0.000,0
33330.176,-20.508,-26.367,-108.887,-20.508,0.000,0
33330.180,-31.250,-32.715,-18.555,-24.414,0.000,0
33330.184,-35.645,-32.227,43.945,-35.156,0.000,0
33330.188,-33.691,-29.297,-11.719,-32.715,0.000,0
33330.192,-30.273,-27.832,-101.074,-8.301,0.000,0
33330.196,-26.855,-29.297,-53.223,-14.648,0.000,0
33330.200,-32.715,-35.645,30.273,-47.852,0.000,0
33330.204,-30.762,-30.273,10.254,-36.621,0.000,0
33330.208,-20.020,-20.020,-88.867,-4.395,0.000,0
33330.211,-20.508,-21.973,-88.867,-15.625,0.000,0
33330.215,-26.855,-27.832,22.949,-35.645,0.000,0
33330.219,-32.715,-27.832,28.320,-40.039,0.000,0
33330.223,-24.414,-26.367,-55.664,-9.766,0.000,0
33330.227,-23.438,-25.879,-102.051,-14.160,0.000,0
33330.231,-20.020,-30.273,-2.441,-30.273,0.000,0
33330.235,-21.973,-25.879,41.016,-30.273,0.000,0
33330.239,-25.391,-20.020,-17.090,-31.250,0.000,0
33330.243,-29.785,-22.949,-103.027,-29.785,0.000,0
33330.247,-26.855,-22.461,-33.691,-22.461,0.000,0
33330.251,-34.180,-28.320,38.086,-35.645,0.000,0
33330.254,-27.832,-32.715,-3.906,-23.438,0.000,0
33330.258,-18.066,-20.508,-92.285,-20.508,0.000,0
33330.262,-18.066,-16.113,-53.223,-38.574,0.000,0
33330.266,-19.531,-20.508,37.598,-31.250,0.000,0
33330.270,-17.578,-20.996,20.020,-18.066,0.000,0
33330.274,-9.766,-20.508,-81.055,-10.254,0.000,0
33330.278,-20.996,-21.484,-92.773,-21.973,0.000,0
33330.282,-29.297,-26.367,20.996,-36.621,0.000,0
33330.286,-34.180,-33.691,30.273,-38.086,0.000,0
33330.290,-29.785,-33.691,-58.105,-27.832,0.000,0
33330.293,-27.344,-22.949,-107.910,-15.625,0.000,0
33330.297,-19.531,-19.531,-1.953,-15.625,0.000,0
33330.301,-20.020,-25.879,47.852,-31.250,0.000,0
33330.305,-18.066,-26.855,-14.648,-11.230,0.000,0
33330.309,-37.109,-23.926,-106.934,-20.996,0.000,0
33330.313,-43.457,-24.902,-39.551,-46.387,0.000,0
33330.317,-38.574,-24.414,35.156,-55.176,0.000,0
33330.321,-35.645,-26.855,-2.441,-58.594,0.000,0
33330.325,-37.598,-21.973,-100.586,-44.922,0.000,0
33330.329,-30.762,-15.625,-77.637,-37.598,0.000,0
33330.333,-22.461,-14.648,29.785,-39.551,0.000,0
33330.336,-24.902,-20.996,20.996,-36.621,0.000,0
33330.340,-16.113,-25.879,-71.777,-28.809,0.000,0
33330.344,-13.184,-20.996,-96.191,-22.949,0.000,0
33330.348,-20.996,-25.391,6.348,-31.738,0.000,0
33330.352,-27.344,-28.320,28.809,-40.039,0.000,0
33330.356,-17.578,-22.949,-40.527,-20.996,0.000,0
33330.360,-25.391,-20.508,-95.215,-11.719,0.000,0
33330.364,-26.855,-24.414,-9.277,-27.344,0.000,0
33330.368,-30.762,-30.762,37.109,-46.387,0.000,0
33330.372,-22.949,-25.879,-13.184,-21.973,0.000,0
33330.376,-18.555,-19.043,-94.727,-10.254,0.000,0
33330.379,-17.090,-28.320,-31.738,-22.461,0.000,0
33330.383,-28.320,-31.738,42.969,-36.133,0.000,0
33330.387,-28.320,-27.832,15.625,-32.715,0.000,0
33330.391,-18.066,-26.855,-80.566,-7.324,0.000,0
33330.395,-15.137,-22.461,-77.637,-15.625,0.000,0
33330.399,-14.160,-18.066,33.691,-32.227,0.000,0
33330.403,-22.949,-17.578,34.180,-38.086,0.000,0
33330.407,-14.160,-24.414,-60.059,-21.973,0.000,0
33330.411,-9.277,-21.973,-98.633,-13.184,0.000,0
33330.415,-8.789,-23.926,7.812,-22.461,0.000,0
33330.418,-17.578,-27.344,44.922,-24.902,0.000,0
33330.422,-16.602,-21.973,-25.879,3.418,0.000,0
33330.426,-10.742,-17.090,-99.609,2.441,0.000,0
33330.430,-7.812,-18.066,-11.719,-16.113,0.000,0
33330.434,-31.250,-25.391,55.176,-33.203,0.000,0
33330.438,-23.926,-27.832,7.812,-36.133,0.000,0
33330.442,-14.160,-13.672,-88.379,-8.789,0.000,0
33330.446,-16.113,-12.207,-48.340,-4.883,0.000,0
33330.450,-15.625,-22.461,43.945,-20.020,0.000,0
33330.454,-14.648,-22.949,17.090,-13.672,0.000,0
33330.458,-14.648,-20.020,-81.543,-12.207,0.000,0
33330.461,-13.672,-16.113,-80.566,-16.113,0.000,0
33330.465,-15.137,-16.602,28.320,-21.973,0.000,0
33330.469,-23.438,-25.391,36.133,-22.461,0.000,0
33330.473,-19.531,-24.414,-62.012,-13.672,0.000,0
33330.477,-14.160,-18.066,-98.633,-20.020,0.000,0
33330.481,-10.742,-21.484,12.695,-16.113,0.000,0
33330.485,-18.066,-24.902,32.715,-24.414,0.000,0
33330.489,-12.695,-22.949,-34.668,-22.949,0.000,0
33330.493,-9.766,-21.973,-102.051,-7.812,0.000,0
33330.497,-16.113,-26.855,-23.438,-26.855,0.000,0
33330.501,-28.320,-25.391,41.504,-61.523,0.000,0
33330.504,-23.926,-25.879,-7.812,-41.992,0.000,0
33330.508,-9.766,-22.461,-100.586,-9.766,0.000,0
33330.512,-9.277,-20.996,-66.895,-8.789,0.000,1
33330.516,-13.672,-29.785,29.785,-25.391,0.000,0
33330.520,-5.859,-30.762,-23.926,-7.324,0.000,0
33330.524,-15.625,-22.949,-111.328,-2.441,0.000,0
33330.528,-19.531,-22.461,-39.551,-13.672,0.000,0
33330.532,-16.602,-29.297,39.551,-26.855,0.000,0
33330.536,-13.672,-27.832,5.371,-21.484,0.000,0
33330.540,-7.324,-24.414,-95.703,-11.719,0.000,0
33330.543,-7.812,-26.367,-68.359,-10.742,0.000,0
33330.547,-18.066,-30.273,33.203,-15.137,0.000,0
33330.551,-18.066,-29.297,28.320,-16.113,0.000,0
33330.555,-18.066,-30.273,-62.500,-7.812,0.000,0
33330.559,-21.484,-27.832,-90.820,-19.531,0.000,0
33330.563,-21.484,-26.367,11.230,-24.902,0.000,0
33330.567,-40.527,-30.273,33.203,-22.949,0.000,0
33330.571,-34.180,-30.273,-45.898,-8.789,0.000,0
33330.575,-25.391,-31.250,-111.328,-13.184,0.000,0
33330.579,-27.344,-32.715,-17.090,-31.250,0.000,0
33330.583,-33.203,-34.668,33.203,-41.504,0.000,0
33330.586,-25.391,-37.109,-25.879,-31.250,0.000,0
33330.590,-24.902,-33.203,-111.816,-26.855,0.000,0
33330.594,-21.973,-26.855,-42.480,-22.461,0.000,0
33330.598,-31.738,-28.320,41.016,-34.180,0.000,0
33330.602,-34.180,-32.715,2.441,-23.926,0.000,0
33330.606,-23.926,-32.227,-85.449,10.742,0.000,0
33330.610,-27.344,-27.832,-70.312,-7.324,0.000,0
33330.614,-35.156,-32.715,32.715,-45.898,0.000,0
33330.618,-25.391,-31.738,-7.812,-28.320,0.000,0
33330.622,-19.043,-20.508,-109.863,-1.953,0.000,0
33330.626,-18.555,-22.461,-48.828,-3.418,0.000,0
33330.629,-18.555,-28.809,40.039,-20.996,0.000,0
33330.633,-27.344,-26.855,12.695,-37.109,0.000,0
33330.637,-34.668,-21.973,-87.891,-25.879,0.000,0
33330.641,-31.250,-25.879,-75.195,-19.531,0.000,0
33330.645,-28.809,-27.344,24.414,-37.109,0.000,0
33330.649,-28.809,-23.926,21.973,-39.062,0.000,0
33330.653,-24.902,-23.438,-63.477,-17.090,0.000,0
33330.657,-32.227,-21.484,-96.680,-19.531,0.000,0
33330.661,-27.832,-23.926,10.742,-26.367,0.000,0
33330.665,-27.832,-26.855,32.227,-20.508,0.000,0
33330.668,-18.555,-22.949,-31.250,-5.371,0.000,0
33330.672,-25.879,-23.926,-90.332,-23.926,0.000,0
33330.676,-25.391,-25.879,-18.555,-32.715,0.000,0
33330.680,-27.832,-25.879,41.992,-39.062,0.000,0
33330.684,-21.973,-27.832,-6.348,-28.320,0.000,0
33330.688,-25.879,-26.367,-106.445,-24.902,0.000,0
33330.692,-27.832,-22.949,-54.199,-45.898,0.000,0
33330.696,-17.578,-21.484,40.527,-26.855,0.000,0
33330.700,-15.137,-19.531,17.090,-16.602,0.000,0
33330.704,-25.391,-21.973,-88.867,-10.254,0.000,0
33330.708,-22.949,-22.949,-90.332,-3.906,0.000,0
33330.711,-20.020,-28.320,22.461,-31.738,0.000,0
33330.715,-34.668,-30.762,27.344,-56.152,0.000,0
33330.719,-20.996,-26.855,-59.082,-34.180,0.000,0
33330.723,-15.137,-24.414,-108.887,-21.484,0.000,0
33330.727,-17.578,-23.438,6.836,-34.668,0.000,0
33330.731,-24.414,-23.438,58.594,-43.457,0.000,0
33330.735,-25.391,-26.367,-19.531,-27.344,0.000,0
33330.739,-18.066,-25.391,-104.492,-23.926,0.000,0
33330.743,-15.137,-20.508,-24.902,-16.602,0.000,0
33330.747,-25.391,-20.996,50.293,-30.273,0.000,0
33330.751,-18.555,-28.809,-5.859,-46.875,0.000,0
33330.754,-13.184,-25.391,-100.098,-36.621,0.000,0
33330.758,-20.996,-24.414,-62.988,-23.438,0.000,0
33330.762,-29.297,-29.297,30.273,-33.203,0.000,0
33330.766,-28.320,-29.297,14.160,-38.574,0.000,0
33330.770,-31.738,-35.645,-80.566,-39.551,0.000,0
33330.774,-40.039,-35.645,-96.680,-42.969,0.000,0
33330.778,-34.668,-37.109,8.789,-49.316,0.000,0
33330.782,-40.039,-36.133,28.320,-49.805,0.000,0
33330.786,-31.738,-33.691,-51.270,-28.320,0.000,0
33330.790,-26.367,-32.227,-96.680,-25.879,0.000,0
33330.793,-26.367,-26.855,0.000,-22.949,0.000,0
33330.797,-31.738,-25.391,32.227,-37.598,0.000,0
33330.801,-25.391,-28.320,-28.809,-29.297,0.000,0
33330.805,-26.367,-22.949,-105.469,-13.184,0.000,0
33330.809,-40.527,-22.949,-32.227,-47.852,0.000,0
33330.813,-49.316,-26.855,34.668,-68.848,0.000,0
33330.817,-37.598,-33.691,-8.301,-43.457,0.000,0
33330.821,-29.297,-36.133,-99.121,-32.227,0.000,0
33330.825,-23.438,-29.297,-80.078,-31.250,0.000,0
33330.829,-16.602,-31.250,21.484,-25.391,0.000,0
33330.833,-27.344,-35.645,12.207,-31.250,0.000,0
33330.836,-29.785,-34.180,-85.938,-18.066,0.000,0
33330.840,-25.879,-30.273,-103.516,-16.113,0.000,0
33330.844,-35.645,-38.086,1.465,-32.227,0.000,0
33330.848,-51.758,-38.086,25.391,-42.969,0.000,0
33330.852,-39.062,-32.715,-43.945,-30.273,0.000,0
33330.856,-25.879,-30.273,-114.258,-9.766,0.000,0
33330.860,-23.438,-29.785,-18.066,-18.066,0.000,0
33330.864,-30.273,-30.273,40.527,-25.879,0.000,0
33330.868,-21.484,-29.785,-12.207,-16.113,0.000,0
33330.872,-24.414,-26.855,-110.352,-21.484,0.000,0
33330.876,-25.391,-23.438,-56.641,-18.555,0.000,0
33330.879,-25.879,-24.414,33.691,-26.855,0.000,0
33330.883,-25.879,-24.414,-0.488,-23.438,0.000,0
33330.887,-20.508,-23.438,-95.703,-3.906,0.000,0
33330.891,-21.484,-22.949,-87.891,-25.879,0.000,0
33330.895,-20.508,-28.809,20.508,-42.480,0.000,0
33330.899,-25.391,-35.156,17.578,-27.344,0.000,0
33330.903,-25.391,-30.762,-82.031,-4.883,0.000,0
33330.907,-23.926,-20.020,-106.934,-8.301,0.000,0
33330.911,-21.973,-23.926,6.348,-29.785,0.000,0
33330.915,-36.133,-29.785,36.621,-52.246,0.000,0
33330.918,-31.738,-20.508,-29.785,-27.344,0.000,0
33330.922,-27.344,-19.043,-104.492,3.418,0.000,0
33330.926,-21.484,-24.414,-19.043,-11.230,0.000,0
33330.930,-15.137,-26.367,41.992,-37.598,0.000,0
33330.934,-12.695,-26.855,-13.184,-23.438,0.000,0
33330.938,-16.602,-21.973,-104.004,3.418,0.000,0
33330.942,-21.973,-21.973,-57.617,-8.301,0.000,0
33330.946,-24.414,-28.809,33.203,-42.969,0.000,0
33330.950,-20.508,-23.926,20.020,-32.227,0.000,0
33330.954,-16.602,-13.184,-76.172,-4.395,0.000,0
33330.958,-26.855,-12.207,-81.543,-9.766,0.000,0
33330.961,-36.133,-21.484,18.066,-34.668,0.000,0
33330.965,-36.133,-25.391,23.438,-42.480,0.000,0
33330.969,-29.297,-25.391,-57.617,-24.414,0.000,0
33330.973,-33.203,-24.414,-108.887,-25.391,0.000,0
33330.977,-26.367,-21.973,-7.812,-40.527,0.000,0
33330.981,-32.715,-22.949,34.180,-30.762,0.000,0
33330.985,-30.762,-23.926,-19.531,-13.184,0.000,0
33330.989,-25.391,-20.020,-94.727,-21.484,0.000,0
33330.993,-20.996,-19.043,-30.762,-31.250,0.000,0
33330.997,-26.855,-20.020,38.086,-47.363,0.000,0
33331.001,-23.926,-19.043,2.930,-29.785,0.000,0
33331.004,-14.648,-21.973,-99.609,-18.066,0.000,0
33331.008,-22.461,-28.320,-68.359,-22.461,0.000,0
33331.012,-30.273,-28.809,37.109,-15.625,0.000,0
33331.016,-26.855,-27.344,31.250,-12.207,0.000,0
33331.020,-19.043,-21.973,-73.730,-4.395,0.000,0
33331.024,-25.391,-21.973,-99.121,-16.113,0.000,0
33331.028,-30.762,-23.438,20.996,-31.250,0.000,0
33331.032,-35.156,-27.344,37.598,-34.180,0.000,0
33331.036,-27.832,-29.785,-53.223,-26.855,0.000,0
33331.040,-25.879,-21.484,-112.305,-15.137,0.000,0
33331.043,-26.367,-25.391,-14.160,-26.367,0.000,0
33331.047,-32.715,-34.180,41.992,-39.551,0.000,0
33331.051,-21.484,-30.762,-24.902,-13.184,0.000,0
33331.055,-20.996,-24.414,-111.328,-15.137,0.000,0
33331.059,-23.438,-23.926,-37.598,-37.109,0.000,0
33331.063,-31.250,-25.391,38.574,-42.480,0.000,0
33331.067,-35.156,-25.391,4.883,-35.156,0.000,0
33331.071,-25.391,-25.391,-98.145,-25.879,0.000,0
33331.075,-20.020,-24.902,-77.637,-25.391,0.000,0
33331.079,-33.203,-26.855,24.902,-32.227,0.000,0
33331.083,-31.738,-28.320,14.648,-30.762,0.000,0
33331.086,-19.531,-28.809,-73.242,-16.602,0.000,0
33331.090,-31.250,-24.414,-97.656,-11.719,0.000,0
33331.094,-36.621,-24.414,7.812,-32.227,0.000,0
33331.098,-40.039,-30.762,25.391,-45.898,0.000,0
33331.102,-28.320,-25.391,-51.758,-22.949,0.000,0
33331.106,-24.414,-18.066,-108.887,-27.832,0.000,0
33331.110,-24.902,-21.973,-23.438,-42.969,0.000,0
33331.114,-32.227,-25.879,30.273,-46.875,0.000,0
33331.118,-28.809,-21.973,-12.695,-11.719,0.000,0
33331.122,-21.484,-17.578,-105.469,0.488,0.000,0
33331.126,-21.484,-19.531,-46.387,-29.297,0.000,0
33331.129,-31.250,-20.020,44.434,-46.387,0.000,0
33331.133,-34.668,-15.625,6.348,-42.969,0.000,0
33331.137,-25.879,-15.137,-90.820,-28.320,0.000,0
33331.141,-12.695,-19.531,-85.938,-19.531,0.000,0
33331.145,-12.207,-27.344,20.996,-40.039,0.000,0
33331.149,-31.250,-26.855,21.973,-46.387,0.000,0
33331.153,-28.809,-27.344,-68.359,-18.066,0.000,0
33331.157,-17.578,-28.320,-104.492,-13.184,0.000,1
33331.161,-27.344,-32.227,0.000,-30.273,0.000,0
33331.165,-42.969,-34.668,39.062,-49.805,0.000,0
33331.168,-31.738,-31.738,-34.180,-41.992,0.000,0
33331.172,-29.785,-25.879,-107.910,-33.203,0.000,0
33331.176,-30.273,-25.391,-24.902,-35.156,0.000,0
33331.180,-36.133,-30.273,40.527,-35.645,0.000,0
33331.184,-26.855,-30.762,2.930,-24.902,0.000,0
33331.188,-20.996,-23.926,-95.215,-29.297,0.000,0
33331.192,-18.555,-18.555,-60.547,-31.738,0.000,0
33331.196,-24.902,-28.320,34.668,-43.457,0.000,0
33331.200,-26.855,-27.832,9.277,-41.504,0.000,0
33331.204,-24.414,-23.926,-86.914,-26.855,0.000,0
33331.208,-31.250,-27.832,-83.984,-19.531,0.000,0
33331.211,-30.762,-26.855,21.973,-21.484,0.000,0
33331.215,-30.273,-25.879,28.809,-31.250,0.000,0
33331.219,-20.996,-22.461,-52.734,-16.113,0.000,0
33331.223,-15.625,-18.066,-86.426,-20.508,0.000,0
33331.227,-13.672,-21.973,15.625,-26.855,0.000,0
33331.231,-25.391,-29.785,38.086,-33.691,0.000,0
33331.235,-20.508,-26.855,-19.043,-16.113,0.000,0
33331.239,-27.832,-20.996,-94.727,-21.484,0.000,0
33331.243,-22.949,-22.949,-29.297,-23.438,0.000,0
33331.247,-17.578,-20.508,45.410,-30.762,0.000,0
33331.251,-28.320,-18.066,8.789,-25.879,0.000,0
33331.254,-34.180,-21.973,-89.844,-6.348,0.000,0
33331.258,-26.855,-23.438,-71.777,-16.602,0.000,0
33331.262,-20.508,-21.484,24.414,-27.832,0.000,0
33331.266,-25.879,-28.320,17.090,-42.969,0.000,0
33331.270,-30.762,-22.949,-80.566,-29.785,0.000,0
33331.274,-33.203,-14.648,-94.238,-23.926,0.000,0
33331.278,-30.762,-18.555,8.789,-43.457,0.000,0
33331.282,-31.738,-21.484,22.949,-40.039,0.000,0
33331.286,-25.391,-21.973,-49.316,-33.691,0.000,0
33331.290,-21.484,-20.996,-107.422,-30.762,0.000,0
33331.293,-13.184,-23.926,-14.160,-14.648,0.000,0
33331.297,-18.555,-24.902,34.180,-20.020,0.000,0
33331.301,-16.602,-23.926,-17.578,-19.531,0.000,0
33331.305,-14.648,-23.926,-103.516,-30.762,0.000,0
33331.309,-11.719,-23.926,-49.316,-34.668,0.000,0
33331.313,-28.320,-30.762,29.785,-43.945,0.000,0
33331.317,-37.109,-31.250,-0.977,-34.668,0.000,0
33331.321,-23.926,-23.438,-101.074,-2.930,0.000,0
33331.325,-20.508,-21.484,-79.102,-7.812,0.000,0
33331.329,-19.531,-24.414,27.344,-32.227,0.000,0
33331.333,-14.648,-21.973,11.230,-40.527,0.000,0
33331.336,-6.348,-10.742,-83.984,-15.625,0.000,0
33331.340,-8.301,-12.207,-103.027,-8.789,0.000,0
33331.344,-11.719,-24.414,12.207,-30.762,0.000,0
33331.348,-24.902,-28.320,33.691,-27.832,0.000,0
33331.352,-21.484,-24.414,-41.992,-4.883,0.000,0
33331.356,-18.555,-20.020,-103.027,-9.766,0.000,0
33331.360,-23.438,-22.461,-12.695,-27.344,0.000,0
33331.364,-34.180,-25.391,41.504,-54.199,0.000,0
33331.368,-19.531,-18.555,-14.648,-11.230,0.000,0
33331.372,-13.184,-11.719,-99.609,15.625,0.000,0
33331.376,-24.414,-20.996,-42.480,-13.184,0.000,0
33331.379,-34.668,-27.832,40.039,-36.621,0.000,0
33331.383,-36.621,-21.484,16.602,-40.039,0.000,0
33331.387,-33.691,-22.461,-88.379,-26.855,0.000,0
33331.391,-22.949,-25.391,-84.961,-36.621,0.000,0
33331.395,-20.996,-22.949,21.973,-30.273,0.000,0
33331.399,-22.461,-28.320,22.949,-12.695,0.000,0
33331.403,-12.695,-32.227,-62.988,-23.438,0.000,0
33331.407,-24.414,-30.762,-111.328,-28.320,0.000,0
33331.411,-24.414,-32.715,-9.766,-33.203,0.000,0
33331.415,-27.832,-31.250,23.438,-29.297,0.000,0
33331.418,-27.832,-33.691,-38.574,-21.484,0.000,0
33331.422,-25.391,-30.762,-97.168,-39.551,0.000,0
33331.426,-17.090,-32.227,-24.902,-46.875,0.000,0
33331.430,-22.461,-42.480,35.645,-56.152,0.000,0
33331.434,-25.391,-37.598,-3.418,-26.855,0.000,0
33331.438,-16.113,-33.203,-99.609,-2.441,0.000,0
33331.442,-10.254,-30.762,-54.199,-20.996,0.000,0
33331.446,-25.879,-31.738,36.133,-43.457,0.000,0
33331.450,-30.273,-36.621,10.254,-36.621,0.000,0
33331.454,-25.391,-33.691,-89.844,-24.414,0.000,0
33331.458,-28.809,-30.762,-100.098,-20.996,0.000,0
33331.461,-23.926,-30.762,14.160,-41.992,0.000,0
33331.465,-32.227,-36.133,32.715,-57.129,0.000,0
33331.469,-33.203,-39.062,-60.059,-19.531,0.000,0
33331.473,-26.367,-29.297,-112.305,-10.254,0.000,0
33331.477,-23.438,-27.832,-3.906,-14.160,0.000,0
33331.481,-38.086,-34.180,35.645,-25.391,0.000,0
33331.485,-23.438,-32.715,-28.809,-35.645,0.000,0
33331.489,-19.531,-29.297,-103.516,-41.504,0.000,0
33331.493,-25.879,-26.367,-32.227,-48.340,0.000,0
33331.497,-21.973,-23.438,44.434,-42.969,0.000,0
33331.501,-20.996,-20.508,-46.875,-30.273,0.000,0
33331.504,-26.855,-25.391,-114.746,-16.113,0.000,0
33331.508,-25.391,-33.691,-15.137,-33.203,0.000,0
33331.512,-26.855,-30.762,35.645,-44.434,0.000,0
33331.516,-19.531,-22.949,-28.320,-15.625,0.000,0
33331.520,-11.230,-17.090,-107.422,-8.789,0.000,0
33331.524,-19.043,-16.602,-34.668,-31.738,0.000,0
33331.528,-30.762,-20.508,46.387,-40.527,0.000,0
33331.532,-24.902,-23.926,14.160,-31.250,0.000,0
33331.536,-19.531,-14.648,-78.613,-19.043,0.000,0
33331.540,-20.020,-19.043,-56.152,-25.879,0.000,0
33331.543,-23.438,-24.902,40.039,-35.645,0.000,0
33331.547,-27.832,-19.531,28.320,-29.785,0.000,0
33331.551,-15.625,-16.113,-62.500,-3.418,0.000,0
33331.555,-4.883,-8.789,-78.125,-1.953,0.000,0
33331.559,-13.672,-16.113,21.484,-34.668,0.000,0
33331.563,-30.273,-25.391,36.133,-41.504,0.000,0
33331.567,-19.043,-26.367,-40.039,-12.695,0.000,0
33331.571,-14.648,-22.461,-105.957,-4.395,0.000,0
33331.575,-18.066,-20.508,-12.207,-17.090,0.000,0
33331.579,-22.949,-22.461,43.457,-42.969,0.000,0
33331.583,-15.625,-18.555,-16.602,-21.484,0.000,0
33331.586,-22.949,-13.672,-104.980,-9.277,0.000,0
33331.590,-32.227,-19.531,-46.387,-30.273,0.000,0
33331.594,-33.203,-25.391,43.457,-26.855,0.000,0
33331.598,-25.391,-28.320,15.137,-31.738,0.000,0
33331.602,-16.113,-26.367,-83.984,-25.879,0.000,0
33331.606,-14.160,-16.113,-70.801,-14.160,0.000,0
33331.610,-21.484,-17.578,33.203,-36.133,0.000,0
33331.614,-31.250,-22.461,33.203,-34.668,0.000,0
33331.618,-21.973,-21.484,-53.223,-8.789,0.000,0
33331.622,-33.203,-22.949,-102.539,-28.320,0.000,0
33331.626,-37.598,-32.227,-8.301,-38.086,0.000,0
33331.629,-38.574,-37.598,28.809,-41.016,0.000,0
33331.633,-34.180,-35.645,-37.109,-29.297,0.000,0
33331.637,-20.996,-33.203,-106.445,-12.695,0.000,0
33331.641,-12.695,-34.668,-22.461,-23.926,0.000,0
33331.645,-29.297,-31.738,43.945,-31.250,0.000,0
33331.649,-21.484,-30.273,-6.836,-3.906,0.000,0
33331.653,-19.531,-31.738,-107.910,-1.953,0.000,0
33331.657,-22.461,-32.715,-51.758,-34.668,0.000,0
33331.661,-24.414,-31.738,44.434,-34.668,0.000,0
33331.665,-26.855,-29.297,8.301,-20.508,0.000,0
33331.668,-20.508,-28.320,-85.449,-10.254,0.000,0
33331.672,-19.043,-24.414,-82.520,-15.625,0.000,0
33331.676,-12.695,-28.809,27.344,-39.551,0.000,0
33331.680,-23.926,-31.250,29.297,-42.969,0.000,0
33331.684,-28.809,-22.949,-61.035,-10.742,0.000,0
33331.688,-36.621,-21.973,-99.121,2.930,0.000,0
33331.692,-29.785,-21.973,4.395,-18.066,0.000,0
33331.696,-13.672,-23.926,46.875,-31.250,0.000,0
33331.700,-2.930,-20.020,-14.648,-13.672,0.000,0
33331.704,-4.883,-4.883,-94.727,-4.395,0.000,1
33331.708,-11.230,-13.672,-23.926,-12.695,0.000,0
33331.711,-22.949,-23.926,36.621,-36.621,0.000,0
33331.715,-17.090,-23.926,-0.977,-23.926,0.000,0
33331.719,-13.184,-28.320,-92.773,-13.672,0.000,0
33331.723,-12.695,-26.367,-62.988,-21.973,0.000,0
33331.727,-20.996,-22.461,38.086,-27.344,0.000,0
33331.731,-24.902,-21.973,23.926,-25.879,0.000,0
33331.735,-19.531,-23.926,-62.988,-12.695,0.000,0
33331.739,-19.531,-28.320,-83.496,-21.484,0.000,0
33331.743,-26.367,-32.227,6.836,-41.992,0.000,0
33331.747,-40.039,-34.180,26.367,-39.551,0.000,0
33331.751,-33.691,-28.320,-57.617,-18.066,0.000,0
33331.754,-29.785,-20.508,-108.398,-27.344,0.000,0
33331.758,-28.809,-25.391,-11.230,-26.855,0.000,0
33331.762,-32.227,-28.809,32.715,-36.133,0.000,0
33331.766,-20.508,-20.020,-19.531,-27.344,0.000,0
33331.770,-18.066,-14.648,-107.910,-14.648,0.000,0
33331.774,-19.531,-18.555,-36.621,-23.438,0.000,0
33331.778,-27.832,-28.320,45.410,-33.203,0.000,0
33331.782,-26.367,-29.297,-0.977,-33.203,0.000,0
33331.786,-21.484,-22.949,-101.074,-27.344,0.000,0
33331.790,-23.926,-19.043,-81.543,-34.668,0.000,0
33331.793,-34.180,-28.320,29.297,-58.105,0.000,0
33331.797,-38.574,-35.156,31.738,-49.316,0.000,0
33331.801,-22.949,-26.367,-69.824,-18.066,0.000,0
33331.805,-23.438,-28.809,-101.074,-24.902,0.000,0
33331.809,-19.043,-29.297,10.254,-32.227,0.000,0
33331.813,-19.531,-24.902,40.039,-29.785,0.000,0
33331.817,-24.902,-23.926,-37.598,-33.691,0.000,0
33331.821,-27.832,-18.555,-104.980,-18.066,0.000,0
33331.825,-18.555,-21.973,-8.789,-6.836,0.000,0
33331.829,-25.879,-26.855,43.457,-33.203,0.000,0
33331.833,-27.832,-29.785,-19.531,-34.180,0.000,0
33331.836,-21.484,-29.297,-104.492,-30.762,0.000,0
33331.840,-19.531,-29.785,-40.039,-35.645,0.000,0
33331.844,-29.785,-34.668,40.039,-48.828,0.000,0
33331.848,-26.367,-26.367,9.277,-26.855,0.000,0
33331.852,-8.789,-17.090,-76.660,-13.184,0.000,0
33331.856,-13.184,-17.578,-61.035,-23.926,0.000,0
33331.860,-26.855,-25.879,27.344,-23.438,0.000,0
33331.864,-33.691,-31.738,16.113,-27.344,0.000,0
33331.868,-19.531,-27.832,-62.012,-11.230,0.000,0
33331.872,-20.996,-26.855,-93.262,-18.066,0.000,0
33331.876,-34.668,-29.297,3.906,-37.598,0.000,0
33331.879,-43.457,-31.738,29.785,-48.340,0.000,0
33331.883,-39.062,-31.738,-38.086,-32.227,0.000,0
33331.887,-32.715,-27.344,-115.723,-11.719,0.000,0
33331.891,-23.926,-29.297,-34.668,-21.484,0.000,0
33331.895,-33.691,-34.180,35.156,-51.758,0.000,0
33331.899,-31.738,-26.367,-12.695,-28.320,0.000,0
33331.903,-27.344,-23.926,-107.422,-2.930,0.000,0
33331.907,-27.832,-27.832,-55.664,-19.531,0.000,0
33331.911,-32.227,-29.785,38.086,-38.574,0.000,0
33331.915,-40.527,-33.203,17.090,-48.340,0.000,0
33331.918,-24.414,-25.879,-78.125,-38.086,0.000,0
33331.922,-25.879,-23.438,-88.867,-32.715,0.000,0
33331.926,-39.062,-30.273,16.113,-38.574,0.000,0
33331.930,-43.457,-32.227,20.508,-48.340,0.000,0
33331.934,-35.156,-29.785,-61.523,-18.555,0.000,0
33331.938,-24.902,-20.508,-103.516,2.441,0.000,0
33331.942,-20.996,-18.555,4.395,-14.648,0.000,0
33331.946,-33.691,-24.902,34.180,-27.832,0.000,0
33331.950,-33.203,-27.832,-39.551,-18.066,0.000,0
33331.954,-30.762,-24.414,-107.422,-20.996,0.000,0
33331.958,-30.762,-24.414,-34.180,-22.949,0.000,0
33331.961,-38.574,-29.785,38.086,-27.344,0.000,0
33331.965,-35.645,-33.203,-7.812,-25.879,0.000,0
33331.969,-25.879,-30.273,-104.980,-7.812,0.000,0
33331.973,-20.996,-26.367,-60.059,-12.207,0.000,0
33331.977,-24.902,-28.809,35.645,-25.879,0.000,0
33331.981,-24.902,-33.203,8.789,-28.809,0.000,0
33331.985,-12.207,-34.180,-84.473,-13.672,0.000,0
33331.989,-19.043,-31.250,-104.004,-14.648,0.000,0
33331.993,-31.738,-31.738,12.207,-35.156,0.000,0
33331.997,-23.926,-27.344,37.109,-27.832,0.000,0
33332.001,-7.812,-23.438,-51.758,8.301,0.000,0
33332.004,-9.766,-20.996,-102.539,2.930,0.000,0
33332.008,-8.301,-25.391,5.859,-22.949,0.000,0
33332.012,-17.090,-32.715,42.969,-24.414,0.000,0
33332.016,-22.461,-31.250,-32.227,-10.254,0.000,0
33332.020,-29.297,-20.508,-116.211,-9.766,0.000,0
33332.024,-33.203,-23.438,-50.781,-29.297,0.000,0
33332.028,-30.273,-29.297,31.250,-30.273,0.000,0
33332.032,-21.973,-32.715,6.836,-14.648,0.000,0
33332.036,-18.555,-31.250,-91.797,-9.766,0.000,0
33332.040,-22.949,-25.391,-74.707,-16.113,0.000,0
33332.043,-24.414,-28.320,20.508,-34.668,0.000,0
33332.047,-20.508,-32.227,14.160,-29.297,0.000,0
33332.051,-20.508,-29.297,-62.012,-16.113,0.000,0
33332.055,-23.926,-20.996,-93.262,-29.785,0.000,0
33332.059,-28.809,-23.438,2.441,-41.504,0.000,0
33332.063,-43.945,-25.391,28.809,-33.691,0.000,0
33332.067,-30.762,-20.508,-46.387,-14.160,0.000,0
33332.071,-23.438,-21.973,-106.934,-9.277,0.000,0
33332.075,-21.973,-20.996,-12.695,-10.254,0.000,0
33332.079,-18.555,-18.066,45.410,-1.465,0.000,0
33332.083,-12.207,-16.602,-5.371,3.906,0.000,0
33332.086,-22.461,-18.066,-101.074,-11.719,0.000,0
33332.090,-18.555,-19.043,-44.922,-38.574,0.000,0
33332.094,-24.414,-19.531,47.363,-50.781,0.000,0
33332.098,-26.367,-22.949,13.672,-32.715,0.000,0
33332.102,-9.766,-20.508,-85.938,-10.254,0.000,0
33332.106,-14.160,-20.996,-79.102,-12.695,0.000,0
33332.110,-23.438,-30.762,35.645,-24.902,0.000,0
33332.114,-25.879,-33.691,-4.395,-27.344,0.000,0
33332.118,-24.414,-29.297,-110.352,-26.367,0.000,0
33332.122,-24.902,-25.391,-48.340,-29.297,0.000,0
33332.126,-33.203,-26.855,38.574,-41.016,0.000,0
33332.129,-36.621,-24.902,14.160,-45.410,0.000,0
33332.133,-25.391,-19.043,-81.543,-22.461,0.000,0
33332.137,-12.695,-15.625,-79.590,-10.742,0.000,0
33332.141,-8.789,-26.855,27.344,-26.855,0.000,0
33332.145,-21.484,-29.785,30.273,-34.180,0.000,0
33332.149,-17.090,-22.461,-51.270,-16.602,0.000,0
33332.153,-20.020,-21.973,-91.797,-15.137,0.000,0
33332.157,-28.809,-25.391,1.953,-36.133,0.000,0
33332.161,-39.551,-34.180,29.297,-45.898,0.000,0
33332.165,-31.738,-30.762,-32.227,-22.949,0.000,0
33332.168,-27.344,-19.043,-95.703,-25.391,0.000,0
33332.172,-21.484,-25.879,-23.438,-44.434,0.000,0
33332.176,-27.344,-34.180,36.133,-42.480,0.000,0
33332.180,-19.531,-26.367,-0.977,-21.484,0.000,0
33332.184,-6.836,-20.020,-94.727,-7.324,0.000,0
33332.188,-14.160,-23.926,-62.500,-16.113,0.000,0
33332.192,-23.926,-32.227,32.715,-31.250,0.000,0
33332.196,-27.344,-31.738,22.461,-21.484,0.000,0
33332.200,-16.602,-27.344,-75.684,2.441,0.000,0
33332.204,-19.531,-26.367,-91.797,-5.859,0.000,0
33332.208,-29.785,-23.926,24.414,-29.785,0.000,0
33332.211,-29.297,-28.320,43.457,-28.809,0.000,0
33332.215,-19.531,-30.762,-47.363,-1.953,0.000,0
33332.219,-13.184,-25.391,-103.027,-8.789,0.000,0
33332.223,-9.277,-28.320,1.953,-25.391,0.000,0
33332.227,-24.414,-32.715,46.875,-42.969,0.000,0
33332.231,-9.766,-30.273,-11.230,-23.438,0.000,0
33332.235,-4.395,-26.367,-98.145,-13.672,0.000,0
33332.239,-17.578,-28.320,-31.250,-23.438,0.000,0
33332.243,-30.273,-32.227,42.480,-28.320,0.000,0
33332.247,-24.902,-34.668,-4.395,-19.043,0.000,0
33332.251,-21.973,-31.250,-95.703,-11.719,0.000,0
33332.254,-28.320,-29.297,-70.801,-34.180,0.000,0
33332.258,-29.785,-34.668,26.367,-58.594,0.000,0
33332.262,-25.391,-33.203,15.137,-39.551,0.000,0
33332.266,-31.250,-29.297,-78.613,-15.137,0.000,0
33332.270,-36.133,-29.785,-100.586,-29.297,0.000,0
33332.274,-27.832,-33.203,12.207,-42.480,0.000,0
33332.278,-37.598,-36.621,31.738,-46.875,0.000,0
33332.282,-28.809,-34.668,-44.434,-16.113,0.000,0
33332.286,-14.648,-25.391,-93.750,3.906,0.000,0
33332.290,-8.789,-24.902,1.465,-23.438,0.000,0
33332.293,-20.508,-27.832,45.410,-41.992,0.000,0
33332.297,-25.879,-29.297,-9.277,-11.719,0.000,0
33332.301,-19.531,-21.484,-91.797,3.418,0.000,0
33332.305,-18.066,-23.438,-40.039,-20.020,0.000,0
33332.309,-25.879,-32.227,43.457,-35.156,0.000,0
33332.313,-15.137,-28.320,19.043,-17.578,0.000,0
33332.317,-13.672,-26.367,-83.496,-2.441,0.000,0
33332.321,-19.043,-24.414,-78.613,-5.859,0.000,0
33332.325,-26.367,-21.973,25.391,-19.531,0.000,0
33332.329,-39.062,-24.902,32.715,-34.668,0.000,0
33332.333,-35.645,-26.367,-58.594,-23.926,0.000,0
33332.336,-40.527,-27.832,-103.516,-29.785,0.000,0
33332.340,-39.062,-35.156,-4.883,-22.949,0.000,0
33332.344,-38.574,-29.785,27.832,-31.738,0.000,0
33332.348,-25.879,-25.391,-28.320,-20.996,0.000,0
33332.352,-24.902,-22.461,-102.539,0.488,0.000,0
33332.356,-30.273,-21.484,-26.367,-23.926,0.000,0
33332.360,-40.527,-21.973,35.156,-44.434,0.000,0
33332.364,-33.691,-25.879,-14.648,-25.879,0.000,0
33332.368,-27.832,-27.344,-102.051,-15.625,0.000,0
33332.372,-22.461,-19.531,-67.383,-28.320,0.000,0
33332.376,-20.020,-17.090,18.555,-33.203,0.000,0
33332.379,-20.508,-11.719,3.906,-17.578,0.000,0
33332.383,-13.672,-5.371,-101.562,-11.719,0.000,0
33332.387,-19.043,-11.230,-100.586,-25.391,0.000,0
33332.391,-15.625,-3.906,16.602,-18.555,0.000,0
33332.395,1.953,11.230,29.297,5.371,0.000,1
33332.399,-4.883,11.230,-65.430,-3.906,0.000,0
33332.403,-26.367,15.625,-110.840,-24.902,0.000,0
33332.407,-15.137,20.996,6.348,-21.484,0.000,0
33332.411,-20.020,23.926,30.762,-25.391,0.000,0
33332.415,-21.484,34.668,-46.875,-6.836,0.000,0
33332.418,-5.859,46.875,-118.652,23.926,0.000,0
33332.422,3.906,52.246,-39.062,18.555,0.000,0
33332.426,-22.949,50.293,32.715,-32.227,0.000,0
33332.430,-23.926,50.781,-16.113,-42.969,0.000,0
33332.434,-14.160,61.035,-115.723,-10.742,0.000,0
33332.438,-22.461,65.918,-76.660,-1.953,0.000,0
33332.442,-26.367,65.918,17.578,-22.949,0.000,0
33332.446,-20.508,67.383,1.465,-42.480,0.000,0
33332.450,-13.184,63.965,-90.332,-25.879,0.000,0
33332.454,-7.812,60.547,-96.191,-4.883,0.000,0
33332.458,-4.883,58.594,11.719,-17.090,0.000,0
33332.461,-16.113,44.922,23.438,-34.668,0.000,0
33332.465,-20.020,32.227,-48.340,-31.250,0.000,0
33332.469,-19.531,36.621,-104.980,-23.438,0.000,0
33332.473,-6.836,35.156,-15.625,-20.508,0.000,0
33332.477,-12.207,28.809,40.527,-41.016,0.000,0
33332.481,-26.855,18.066,-19.043,-33.691,0.000,0
33332.485,-20.508,14.160,-92.773,-19.043,0.000,0
33332.489,-10.254,11.719,-25.391,-27.344,0.000,0
33332.493,-24.414,7.324,41.504,-48.828,0.000,0
33332.497,-18.066,4.883,17.578,-33.691,0.000,0
33332.501,-5.859,4.883,-80.566,15.625,0.000,0
33332.504,-7.324,0.000,-59.082,-0.488,0.000,0
33332.508,-18.555,-10.742,40.527,-43.945,0.000,0
33332.512,-28.320,-15.625,27.344,-41.016,0.000,0
33332.516,-22.461,-20.508,-72.266,-24.902,0.000,0
33332.520,-20.508,-21.484,-99.121,-23.438,0.000,0
33332.524,-20.508,-29.297,19.043,-28.809,0.000,0
33332.528,-28.320,-33.203,47.363,-44.922,0.000,0
33332.532,-30.762,-34.668,-39.062,-17.578,0.000,0
33332.536,-34.668,-40.039,-110.840,-9.766,0.000,0
33332.540,-33.203,-40.527,-12.695,-25.391,0.000,0
33332.543,-38.086,-41.504,51.758,-21.973,0.000,0
33332.547,-21.484,-41.504,-7.324,-9.277,0.000,0
33332.551,-14.160,-37.109,-98.145,-17.090,0.000,0
33332.555,-7.324,-34.180,-34.180,-24.902,0.000,0
33332.559,-7.812,-43.457,44.434,-41.992,0.000,0
33332.563,-17.090,-45.410,6.836,-29.297,0.000,0
33332.567,-18.066,-40.039,-81.543,3.906,0.000,0
33332.571,-17.578,-44.922,-71.777,-7.812,0.000,0
33332.575,-23.926,-45.410,24.902,-31.738,0.000,0
33332.579,-31.738,-47.852,23.926,-27.344,0.000,0
33332.583,-36.133,-51.758,-68.848,-17.090,0.000,0
33332.586,-34.668,-49.316,-97.168,-36.621,0.000,0
33332.590,-27.832,-54.199,7.324,-41.016,0.000,0
33332.594,-39.062,-57.617,28.320,-54.199,0.000,0
33332.598,-30.273,-57.617,-38.574,-24.902,0.000,0
33332.602,-25.879,-59.082,-108.398,-1.953,0.000,0
33332.606,-17.578,-51.270,-20.508,-27.344,0.000,0
33332.610,-16.113,-47.852,40.527,-41.992,0.000,0
33332.614,-16.602,-46.875,-8.789,-31.250,0.000,0
33332.618,-16.602,-42.480,-98.145,-8.789,0.000,0
33332.622,-15.137,-41.992,-53.711,-21.484,0.000,0
33332.626,-25.391,-45.898,42.480,-45.898,0.000,0
33332.629,-26.855,-48.828,21.973,-33.203,0.000,0
33332.633,-19.043,-45.898,-80.566,-6.836,0.000,0
33332.637,-22.949,-40.527,-84.473,-14.648,0.000,0
33332.641,-24.414,-47.363,26.855,-31.250,0.000,0
33332.645,-31.250,-57.129,32.715,-39.551,0.000,0
33332.649,-27.344,-48.340,-54.688,-22.949,0.000,0
33332.653,-20.020,-40.527,-97.168,-20.020,0.000,0
33332.657,-16.113,-45.898,3.418,-16.602,0.000,0
33332.661,-27.344,-54.199,43.945,-25.879,0.000,0
33332.665,-20.508,-49.316,-13.184,-26.855,0.000,0
33332.668,-18.555,-37.598,-97.168,-4.395,0.000,0
33332.672,-24.414,-37.598,-26.367,-8.301,0.000,0
33332.676,-33.203,-41.016,49.316,-31.250,0.000,0
33332.680,-27.832,-43.457,4.883,-29.785,0.000,0
33332.684,-23.926,-43.457,-92.773,-26.855,0.000,0
33332.688,-20.020,-33.691,-53.711,-25.391,0.000,0
33332.692,-18.555,-40.527,41.504,-50.293,0.000,0
33332.696,-19.043,-52.734,13.672,-35.645,0.000,0
33332.700,-16.602,-48.340,-81.543,-7.324,0.000,0
33332.704,-23.438,-46.387,-84.473,-29.297,0.000,0
33332.708,-26.855,-53.223,16.602,-33.691,0.000,0
33332.711,-29.297,-50.781,24.902,-26.855,0.000,0
33332.715,-19.043,-44.434,-49.316,-13.672,0.000,0
33332.719,-21.484,-41.504,-92.773,-17.578,0.000,0
33332.723,-30.273,-42.480,12.207,-47.363,0.000,0
33332.727,-30.762,-39.551,49.805,-67.871,0.000,0
33332.731,-15.137,-44.434,-12.207,-37.109,0.000,0
33332.735,-16.113,-41.992,-93.750,-10.742,0.000,0
33332.739,-19.043,-38.574,-28.809,-22.949,0.000,0
33332.743,-20.996,-41.016,54.688,-42.480,0.000,0
33332.747,-22.461,-38.574,16.602,-13.672,0.000,0
33332.751,-17.578,-35.645,-92.285,0.000,0.000,0
33332.754,-15.625,-32.715,-74.707,-14.648,0.000,0
33332.758,-19.043,-36.621,28.320,-42.969,0.000,0
33332.762,-24.414,-35.645,35.645,-52.734,0.000,0
33332.766,-26.855,-31.250,-58.105,-18.555,0.000,0
33332.770,-27.344,-33.203,-95.703,-9.766,0.000,0
