timestamps,TP9,AF7,AF8,TP10,Right AUX,Marker0
39703.151,-16.113,-133.789,-9.277,117.676,0.000,0
39703.155,2.441,-127.441,-3.418,125.977,0.000,0
39703.159,14.648,-127.930,-16.602,129.883,0.000,0
39703.163,-12.695,-129.395,-19.043,136.719,0.000,0
39703.167,-24.902,-121.582,-14.160,139.648,0.000,0
39703.171,-16.113,-114.746,-14.648,137.207,0.000,0
39703.175,-35.156,-109.863,-6.836,151.855,0.000,0
39703.179,-28.809,-110.352,-7.324,156.250,0.000,0
39703.182,-2.441,-110.840,-7.812,136.230,0.000,0
39703.186,6.348,-104.492,-8.789,130.371,0.000,0
39703.190,2.441,-103.027,-13.184,130.371,0.000,0
39703.194,-19.043,-101.074,-17.578,110.840,0.000,0
39703.198,-56.641,-95.703,-20.508,97.656,0.000,0
39703.202,-31.250,-90.820,-19.043,99.121,0.000,0
39703.206,-3.906,-89.844,-20.996,96.191,0.000,0
39703.210,-17.578,-89.355,-12.207,72.754,0.000,0
39703.214,-16.113,-84.961,-6.836,51.758,0.000,0
39703.218,-17.578,-79.590,-11.719,42.480,0.000,0
39703.222,-33.691,-79.102,-11.719,29.785,0.000,0
39703.225,-4.883,-75.684,-7.812,20.996,0.000,0
39703.229,19.531,-74.219,-8.789,6.836,0.000,0
39703.233,-25.879,-71.777,-4.395,17.578,0.000,0
39703.237,-40.039,-68.359,-5.371,35.645,0.000,0
39703.241,-16.602,-67.383,-9.277,-8.789,0.000,0
39703.245,3.906,-62.988,-5.371,-31.738,0.000,0
39703.249,-0.977,-61.035,-3.906,-26.367,0.000,0
39703.253,-29.297,-59.570,2.441,-43.457,0.000,0
39703.257,-26.367,-62.500,-7.324,-39.551,0.000,0
39703.261,1.465,-55.664,-3.418,-21.484,0.000,0
39703.264,-27.344,-55.664,1.465,-20.508,0.000,0
39703.268,-45.410,-62.988,-4.395,-18.066,0.000,0
39703.272,8.301,-60.059,0.000,-29.297,0.000,0
39703.276,-2.930,-59.570,-3.418,-18.555,0.000,0
39703.280,-21.973,-53.711,-1.465,2.930,0.000,0
39703.284,-8.301,-54.688,2.441,-7.324,0.000,0
39703.288,12.207,-54.199,1.953,13.672,0.000,0
39703.292,20.020,-50.781,3.906,3.418,0.000,0
39703.296,7.324,-52.246,2.930,-20.996,0.000,0
39703.300,34.180,-46.875,3.906,-13.672,0.000,0
39703.304,41.992,-50.781,0.977,-15.137,0.000,0
39703.307,11.719,-58.594,-7.324,-15.625,0.000,0
39703.311,17.578,-53.711,-1.953,-14.160,0.000,0
39703.315,-11.719,-52.246,-2.441,-3.906,0.000,0
39703.319,-11.719,-54.199,-6.836,-3.906,0.000,0
39703.323,15.625,-53.711,0.977,-1.465,0.000,0
39703.327,-1.953,-59.082,-5.859,3.906,0.000,0
39703.331,29.297,-58.594,-14.648,-9.766,0.000,0
39703.335,26.855,-55.176,-11.719,1.465,0.000,0
39703.339,1.953,-57.129,-8.789,29.785,0.000,0
39703.343,14.648,-53.223,-4.883,61.523,0.000,0
39703.347,25.391,-49.805,-6.348,39.551,0.000,0
39703.350,0.000,-52.246,-6.348,-3.906,0.000,0
39703.354,-8.789,-51.270,-1.953,1.953,0.000,0
39703.358,3.906,-51.270,-3.906,20.508,0.000,0
39703.362,19.043,-55.176,-8.301,6.348,0.000,0
39703.366,23.438,-50.781,-8.301,4.883,0.000,0
39703.370,-12.207,-52.734,-10.254,9.277,0.000,0
39703.374,-41.016,-56.641,-6.836,3.418,0.000,0
39703.378,3.418,-47.852,-6.348,15.625,0.000,0
39703.382,19.531,-44.922,-6.348,26.855,0.000,0
39703.386,15.137,-48.828,-3.906,42.480,0.000,0
39703.389,-10.254,-52.246,-4.395,35.156,0.000,0
39703.393,-22.461,-52.734,-7.324,7.324,0.000,0
39703.397,5.371,-51.758,-12.207,11.719,0.000,0
39703.401,0.488,-48.828,-16.113,19.043,0.000,0
39703.405,-1.953,-48.340,-19.531,23.438,0.000,0
39703.409,25.391,-45.898,-12.207,31.250,0.000,0
39703.413,40.527,-40.527,-11.230,36.621,0.000,0
39703.417,4.395,-45.410,-19.043,32.227,0.000,0
39703.421,5.371,-43.945,-16.113,21.484,0.000,0
39703.425,43.945,-27.832,-9.766,20.020,0.000,0
39703.429,47.363,-22.461,-10.254,29.297,0.000,0
39703.432,-5.371,-26.855,-13.672,36.621,0.000,0
39703.436,-15.625,-29.297,-15.625,35.645,0.000,0
39703.440,30.762,-30.273,-19.531,24.414,0.000,0
39703.444,-3.418,-34.668,-25.391,35.156,0.000,0
39703.448,-17.090,-33.203,-23.926,33.203,0.000,0
39703.452,-5.371,-29.297,-26.367,27.832,0.000,0
39703.456,4.395,-27.832,-30.273,41.992,0.000,0
39703.460,3.906,-27.344,-24.414,40.039,0.000,0
39703.464,6.836,-31.250,-24.414,33.203,0.000,0
39703.468,31.738,-30.762,-19.043,29.785,0.000,0
39703.472,33.203,-30.273,-20.020,20.996,0.000,0
39703.475,-15.137,-38.086,-34.668,14.648,0.000,0
39703.479,-29.785,-37.598,-34.180,28.809,0.000,0
39703.483,1.465,-35.156,-25.879,36.621,0.000,0
39703.487,0.488,-37.109,-29.785,29.785,0.000,0
39703.491,-12.695,-44.922,-56.641,26.367,0.000,0
39703.495,10.254,-51.270,-71.777,32.715,0.000,0
39703.499,7.812,-45.410,-63.477,21.973,0.000,0
39703.503,-16.113,-41.016,-64.941,22.949,0.000,0
39703.507,-28.809,-40.039,-64.941,23.438,0.000,0
39703.511,15.137,-38.086,-59.082,14.160,0.000,0
39703.514,21.484,-40.039,-59.082,19.043,0.000,0
39703.518,-16.113,-40.039,-60.059,38.086,0.000,0
39703.522,0.000,-41.016,-56.641,41.992,0.000,0
39703.526,-0.977,-40.527,-58.594,36.133,0.000,0
39703.530,-17.090,-44.434,-86.914,43.457,0.000,0
39703.534,-28.809,-46.387,-106.934,46.387,0.000,0
39703.538,-30.273,-42.480,-99.121,42.969,0.000,0
39703.542,-31.250,-43.945,-97.168,41.992,0.000,0
39703.546,-35.156,-39.551,-95.215,31.250,0.000,0
39703.550,-34.180,-39.062,-95.215,12.207,0.000,0
39703.554,-21.973,-38.086,-95.703,30.762,0.000,0
39703.557,23.438,-31.738,-96.191,42.969,0.000,0
39703.561,2.930,-37.598,-96.191,24.414,0.000,0
39703.565,-53.711,-44.922,-89.844,17.090,0.000,0
39703.569,-22.949,-38.574,-85.449,24.902,0.000,0
39703.573,13.672,-23.926,-87.402,41.016,0.000,0
39703.577,7.812,-20.020,-86.914,47.852,0.000,0
39703.581,-6.836,-20.020,-81.055,54.688,0.000,0
39703.585,-0.977,-26.367,-81.055,35.156,0.000,0
39703.589,7.324,-27.344,-81.543,20.020,0.000,0
39703.593,-19.043,-26.367,-84.961,29.297,0.000,0
39703.597,-23.926,-30.762,-87.891,20.996,0.000,0
39703.600,20.996,-20.996,-85.449,28.809,0.000,0
39703.604,5.371,-21.484,-80.078,32.715,0.000,0
39703.608,-31.738,-29.785,-78.613,8.789,0.000,0
39703.612,-33.691,-29.297,-83.984,4.395,0.000,0
39703.616,-0.977,-27.344,-82.520,17.578,0.000,0
39703.620,9.277,-20.508,-83.008,19.531,0.000,0
39703.624,-35.156,-17.578,-78.613,16.602,0.000,0
39703.628,-25.391,-6.348,-54.199,42.480,0.000,0
39703.632,29.785,5.371,-44.922,55.176,0.000,0
39703.636,7.812,0.488,-54.688,42.480,0.000,0
39703.639,-37.109,-3.906,-55.664,46.387,0.000,0
39703.643,-10.254,-5.859,-55.176,44.922,0.000,0
39703.647,6.836,-8.789,-62.012,13.184,0.000,0
39703.651,-19.531,-9.277,-64.453,7.324,0.000,0
39703.655,-37.598,-19.043,-63.965,6.836,0.000,0
39703.659,-35.156,-27.832,-68.848,2.930,0.000,0
39703.663,-29.785,-24.902,-69.824,2.441,0.000,0
39703.667,-16.602,-17.578,-61.035,9.277,0.000,0
39703.671,-25.879,-21.973,-61.523,25.391,0.000,0
39703.675,-1.953,-20.020,-67.383,13.672,0.000,0
39703.679,41.016,-5.371,-62.500,10.742,0.000,0
39703.682,19.531,0.977,-57.129,19.043,0.000,0
39703.686,-30.273,-2.930,-58.594,6.836,0.000,0
39703.690,-40.527,-3.906,-60.547,-4.883,0.000,0
39703.694,-8.301,1.953,-59.082,11.230,0.000,0
39703.698,-7.812,2.930,-55.664,8.301,0.000,0
39703.702,-37.598,-15.137,-72.754,-20.020,0.000,0
39703.706,-32.715,-33.203,-90.820,-47.363,0.000,0
39703.710,-26.855,-31.250,-87.402,-52.734,0.000,0
39703.714,-37.109,-23.926,-82.520,-41.504,0.000,0
39703.718,-25.391,-19.043,-89.355,-26.855,0.000,0
39703.722,-24.414,-13.672,-90.332,-15.625,0.000,0
39703.725,-64.453,-21.484,-88.379,-35.645,0.000,0
39703.729,-84.473,-31.738,-95.215,-34.668,0.000,0
39703.733,-59.082,-27.832,-98.145,-20.020,0.000,0
39703.737,-40.527,-23.926,-92.285,-28.809,0.000,0
39703.741,-61.523,-27.344,-88.379,-34.668,0.000,0
39703.745,-80.078,-25.391,-84.473,-41.016,0.000,0
39703.749,-40.527,-17.090,-83.496,-34.180,0.000,0
39703.753,-18.066,-16.113,-83.496,-26.367,0.000,0
39703.757,-43.457,-18.066,-78.613,-33.203,0.000,0
39703.761,-36.133,-14.648,-74.707,-35.156,0.000,0
39703.764,-40.039,-19.531,-74.707,-51.758,0.000,0
39703.768,-54.199,-22.949,-74.219,-46.875,0.000,0
39703.772,-57.617,-20.996,-71.289,-27.832,0.000,0
39703.776,-64.941,-23.926,-75.684,-39.062,0.000,0
39703.780,-70.801,-22.949,-75.684,-30.762,0.000,0
39703.784,-55.176,-18.555,-76.172,-19.531,0.000,0
39703.788,-57.617,-15.137,-78.613,-21.484,0.000,0
39703.792,-65.430,-13.184,-75.684,-13.184,0.000,0
39703.796,-46.875,-15.625,-71.777,-10.254,0.000,0
39703.800,-62.012,-25.391,-71.289,-18.066,0.000,0
39703.804,-72.754,-33.203,-71.777,-25.391,0.000,0
39703.807,-62.500,-32.227,-74.707,-23.926,0.000,0
39703.811,-47.852,-23.926,-78.613,-17.090,0.000,0
39703.815,-49.316,-21.484,-78.125,-26.855,0.000,0
39703.819,-70.312,-20.996,-75.195,-35.645,0.000,0
39703.823,-77.148,-29.297,-77.148,-39.062,0.000,0
39703.827,-56.641,-36.133,-83.984,-45.410,0.000,0
39703.831,-80.078,-31.738,-86.426,-39.551,0.000,0
39703.835,-92.773,-25.391,-79.590,-24.902,0.000,0
39703.839,-42.480,-28.320,-73.730,-24.902,0.000,0
39703.843,-45.410,-37.109,-75.684,-32.715,0.000,0
39703.847,-67.871,-33.203,-79.102,-32.715,0.000,0
39703.850,-55.664,-25.391,-76.660,-29.785,0.000,0
39703.854,-38.086,-26.855,-76.172,-33.691,0.000,0
39703.858,-20.996,-22.461,-71.777,-30.273,0.000,0
39703.862,-61.523,-22.461,-68.359,-30.762,0.000,0
39703.866,-85.449,-26.367,-68.359,-49.805,0.000,0
39703.870,-54.199,-20.020,-61.035,-53.223,0.000,0
39703.874,-60.059,-19.043,-60.059,-42.969,0.000,0
39703.878,-67.383,-22.949,-62.988,-45.898,0.000,0
39703.882,-67.383,-23.926,-58.105,-51.758,0.000,0
39703.886,-41.504,-18.555,-55.176,-53.711,0.000,0
39703.889,-33.691,-9.277,-48.828,-34.668,0.000,0
39703.893,-55.176,-6.836,-49.316,-32.715,0.000,0
39703.897,-62.012,-12.207,-62.500,-45.410,0.000,0
39703.901,-63.965,-9.766,-62.988,-53.223,0.000,0
39703.905,-83.008,-10.742,-60.547,-59.570,0.000,0
39703.909,-95.703,-8.301,-62.012,-41.504,0.000,0
39703.913,-64.941,-4.395,-61.523,-34.668,0.000,0
39703.917,-58.594,-7.324,-57.617,-36.133,0.000,0
39703.921,-90.332,-19.043,-59.570,-45.898,0.000,0
39703.925,-98.145,-25.879,-58.594,-54.688,0.000,0
39703.929,-62.500,-24.414,-60.059,-35.645,0.000,0
39703.932,-65.918,-28.809,-69.824,-32.715,0.000,0
39703.936,-97.656,-29.297,-66.406,-24.902,0.000,0
39703.940,-86.914,-24.414,-58.105,-24.902,0.000,0
39703.944,-73.242,-25.391,-61.035,-22.461,0.000,0
39703.948,-66.406,-25.879,-64.453,-18.066,0.000,0
39703.952,-76.172,-22.949,-61.523,-36.133,0.000,0
39703.956,-88.867,-22.461,-61.035,-40.039,0.000,0
39703.960,-82.520,-21.484,-57.129,-42.969,0.000,0
39703.964,-63.965,-17.090,-54.199,-32.715,0.000,0
39703.968,-83.984,-14.160,-52.734,-14.648,0.000,0
39703.972,-88.867,-19.531,-51.758,-20.020,0.000,0
39703.975,-43.457,-20.996,-45.410,-30.273,0.000,0
39703.979,-47.363,-18.555,-38.086,-47.852,0.000,0
39703.983,-73.242,-11.719,-34.668,-41.992,0.000,0
39703.987,-45.898,-6.348,-35.645,-23.438,0.000,0
39703.991,-42.480,-13.672,-41.992,-23.926,0.000,0
39703.995,-74.707,-10.254,-45.410,-27.832,0.000,0
39703.999,-92.285,-9.277,-44.922,-44.434,0.000,0
39704.003,-65.430,-8.789,-42.480,-43.945,0.000,0
39704.007,-71.289,-8.301,-47.363,-36.621,0.000,0
39704.011,-95.703,-10.254,-54.688,-42.480,0.000,0
39704.014,-75.684,-3.906,-51.758,-29.785,0.000,0
39704.018,-75.195,-4.883,-45.898,-42.480,0.000,0
39704.022,-110.840,-13.672,-51.270,-53.711,0.000,0
39704.026,-115.723,-12.695,-53.223,-35.156,0.000,0
39704.030,-77.148,-10.254,-51.758,-33.203,0.000,0
39704.034,-52.246,-17.090,-59.082,-35.156,0.000,0
39704.038,-58.105,-19.043,-59.570,-39.551,0.000,0
39704.042,-74.707,-15.137,-54.199,-45.898,0.000,0
39704.046,-82.520,-11.719,-58.594,-38.574,0.000,0
39704.050,-65.918,-6.348,-57.129,-28.809,0.000,0
39704.054,-62.988,0.000,-51.270,-27.344,0.000,0
39704.057,-77.148,0.000,-54.688,-29.785,0.000,0
39704.061,-97.656,-6.348,-53.223,-39.551,0.000,0
39704.065,-74.219,-5.859,-50.781,-39.062,0.000,0
39704.069,-68.359,-3.418,-55.176,-26.855,0.000,0
39704.073,-118.164,-3.906,-56.641,-20.508,0.000,0
39704.077,-88.867,-7.324,-57.617,-28.320,0.000,0
39704.081,-56.152,-9.277,-61.523,-46.387,0.000,0
39704.085,-75.684,-2.441,-54.688,-34.668,0.000,0
39704.089,-62.012,8.789,-45.410,-24.414,0.000,0
39704.093,-48.828,7.812,-50.781,-41.504,0.000,0
39704.097,-80.078,3.906,-52.734,-46.387,0.000,0
39704.100,-98.145,2.930,-55.176,-44.434,0.000,0
39704.104,-76.172,0.488,-61.523,-47.852,0.000,0
39704.108,-100.586,1.953,-67.871,-52.246,0.000,0
39704.112,-110.840,6.836,-71.777,-44.434,0.000,0
39704.116,-100.586,5.859,-64.941,-50.293,0.000,0
39704.120,-110.840,0.488,-60.059,-65.918,0.000,0
39704.124,-66.406,-1.465,-68.848,-58.594,0.000,0
39704.128,-57.617,-1.953,-71.289,-41.504,0.000,0
39704.132,-77.148,-5.371,-67.383,-37.598,0.000,0
39704.136,-90.332,-9.766,-63.477,-34.180,0.000,0
39704.139,-93.262,-7.324,-58.594,-34.180,0.000,0
39704.143,-98.633,-5.859,-60.547,-50.293,0.000,0
39704.147,-82.031,-5.859,-60.059,-43.457,0.000,0
39704.151,-56.152,-3.418,-61.035,-24.414,0.000,0
39704.155,-88.379,-7.324,-59.570,-31.250,0.000,0
39704.159,-103.516,-12.207,-52.734,-38.574,0.000,0
39704.163,-99.121,-9.766,-54.199,-31.250,0.000,0
39704.167,-82.520,-4.883,-61.035,-23.438,0.000,0
39704.171,-63.965,-7.812,-61.035,-33.691,0.000,0
39704.175,-82.031,-7.324,-57.617,-33.203,0.000,0
39704.179,-67.871,-5.859,-54.688,-32.227,0.000,0
39704.182,-52.246,-3.418,-55.176,-29.297,0.000,0
39704.186,-86.914,-3.906,-62.012,-14.160,0.000,0
39704.190,-102.539,-10.254,-60.547,-5.859,0.000,0
39704.194,-99.121,-9.766,-55.664,-15.625,0.000,0
39704.198,-92.285,-3.418,-51.758,-23.438,0.000,0
39704.202,-95.215,-6.348,-58.105,-26.855,0.000,0
39704.206,-101.074,-8.789,-60.059,-39.551,0.000,0
39704.210,-104.004,-4.395,-60.547,-45.898,0.000,0
39704.214,-65.918,-1.465,-62.500,-41.016,0.000,0
39704.218,-63.477,-3.906,-56.641,-41.992,0.000,0
39704.222,-95.703,-5.859,-52.734,-37.598,0.000,0
39704.225,-93.750,-4.883,-55.664,-21.973,0.000,0
39704.229,-83.984,-6.836,-58.594,-25.879,0.000,0
39704.233,-85.449,-6.836,-56.641,-28.809,0.000,0
39704.237,-93.262,-6.348,-61.035,-45.898,0.000,0
39704.241,-92.773,-0.488,-67.383,-64.941,0.000,0
39704.245,-95.215,1.953,-71.289,-48.340,0.000,0
39704.249,-89.355,-1.953,-65.918,-41.992,0.000,0
39704.253,-98.633,1.953,-61.035,-28.809,0.000,0
39704.257,-92.285,3.418,-60.547,-28.320,0.000,0
39704.261,-68.848,5.371,-58.105,-38.574,0.000,0
39704.264,-69.336,0.977,-63.477,-26.367,0.000,0
39704.268,-56.152,-1.953,-61.035,-21.973,0.000,0
39704.272,-39.551,0.977,-55.664,-28.320,0.000,0
39704.276,-57.617,-2.930,-62.988,-47.852,0.000,0
39704.280,-79.590,-4.395,-64.453,-41.016,0.000,0
39704.284,-80.566,-2.930,-60.547,-38.086,0.000,0
39704.288,-62.012,5.371,-60.059,-38.574,0.000,0
39704.292,-50.781,10.254,-63.477,-18.555,0.000,0
39704.296,-83.496,2.930,-66.406,-27.832,0.000,0
39704.300,-94.727,-3.906,-68.359,-25.879,0.000,0
39704.304,-65.430,-3.906,-73.242,-25.391,0.000,0
39704.307,-51.270,0.000,-70.312,-30.273,0.000,0
39704.311,-77.148,1.953,-67.871,-13.184,0.000,0
39704.315,-75.195,-2.930,-67.871,-31.250,0.000,0
39704.319,-54.688,-2.930,-61.035,-24.902,0.000,0
39704.323,-39.551,2.441,-55.176,-0.488,0.000,0
39704.327,-38.574,0.000,-59.082,-13.184,0.000,0
39704.331,-59.570,-2.930,-62.988,-16.602,0.000,0
39704.335,-58.105,-7.812,-65.918,-30.762,0.000,0
39704.339,-69.824,-8.301,-67.871,-32.227,0.000,0
39704.343,-72.266,-4.883,-64.453,-9.277,0.000,0
39704.347,-57.617,-4.395,-65.918,-9.277,0.000,0
39704.350,-53.711,-0.488,-60.059,-12.695,0.000,0
39704.354,-70.312,0.000,-54.199,-15.625,0.000,0
39704.358,-61.035,1.465,-58.105,-9.277,0.000,0
39704.362,-39.062,-1.465,-60.547,0.488,0.000,0
39704.366,-45.410,-4.395,-57.617,-5.371,0.000,0
39704.370,-38.086,0.977,-52.734,-8.789,0.000,0
39704.374,-52.734,3.906,-54.199,-19.531,0.000,0
39704.378,-78.125,3.418,-60.059,-32.715,0.000,0
39704.382,-62.012,7.324,-59.570,-17.578,0.000,0
39704.386,-54.199,9.766,-53.223,-0.977,0.000,0
39704.389,-75.195,7.324,-57.129,1.953,0.000,0
39704.393,-64.453,8.301,-57.617,2.930,0.000,0
39704.397,-44.434,6.836,-53.711,-11.719,0.000,0
39704.401,-76.660,9.766,-52.734,-8.789,0.000,0
39704.405,-84.473,9.766,-51.758,7.812,0.000,0
39704.409,-27.344,6.836,-54.199,-0.488,0.000,0
39704.413,-59.570,6.836,-53.223,-2.930,0.000,0
39704.417,-80.078,1.465,-49.316,-1.953,0.000,0
39704.421,-48.340,5.371,-46.875,10.254,0.000,0
39704.425,-44.434,6.348,-45.898,0.977,0.000,0
39704.429,-45.410,2.441,-47.852,-0.977,0.000,0
39704.432,-42.969,3.906,-48.340,2.930,0.000,0
39704.436,-41.992,1.953,-49.805,-4.883,0.000,0
39704.440,-53.711,-0.977,-58.105,2.930,0.000,0
39704.444,-66.895,-3.906,-62.500,7.324,0.000,0
39704.448,-69.824,-6.836,-55.664,4.883,0.000,0
39704.452,-49.316,-4.883,-51.270,1.953,0.000,0
39704.456,-34.180,-5.859,-52.734,-1.465,0.000,0
39704.460,-58.105,-10.742,-58.594,8.301,0.000,0
39704.464,-64.453,-9.766,-59.082,-1.953,0.000,0
39704.468,-44.922,-4.883,-57.129,-1.953,0.000,0
39704.472,-36.621,-2.930,-59.570,8.789,0.000,0
39704.475,-49.805,-1.465,-58.594,12.695,0.000,0
39704.479,-63.477,0.488,-54.688,19.531,0.000,0
39704.483,-63.477,0.488,-51.758,16.113,0.000,0
39704.487,-28.809,3.906,-46.875,18.066,0.000,0
39704.491,-44.434,2.930,-44.434,19.043,0.000,0
39704.495,-70.312,-2.441,-43.457,18.066,0.000,0
39704.499,-28.809,-6.348,-47.852,20.020,0.000,0
39704.503,-5.371,-5.859,-46.875,16.113,0.000,0
39704.507,-19.531,-4.883,-39.551,23.438,0.000,0
39704.511,-27.344,-11.719,-41.016,16.113,0.000,0
39704.514,-42.480,-13.672,-43.945,13.672,0.000,0
39704.518,-44.922,-10.254,-38.574,34.180,0.000,0
39704.522,-19.043,-14.160,-42.480,24.902,0.000,0
39704.526,-36.133,-12.695,-42.480,12.695,0.000,0
39704.530,-56.641,-9.277,-36.621,23.926,0.000,0
39704.534,-24.414,-15.137,-38.574,20.020,0.000,0
39704.538,-39.551,-17.090,-38.574,17.090,0.000,0
39704.542,-45.898,-12.207,-38.086,21.484,0.000,0
39704.546,-12.695,-12.207,-42.969,27.344,0.000,0
39704.550,-28.809,-10.742,-41.504,28.809,0.000,0
39704.554,-56.641,-9.277,-31.738,20.996,0.000,0
39704.557,-57.129,-13.672,-36.133,31.738,0.000,0
39704.561,-33.691,-8.789,-39.551,38.086,0.000,0
39704.565,-32.715,-7.324,-37.109,29.785,0.000,0
39704.569,-36.133,-8.301,-38.086,30.762,0.000,0
39704.573,-21.973,-4.883,-30.273,27.832,0.000,0
39704.577,-21.484,-6.836,-28.320,31.738,0.000,0
39704.581,-50.781,-7.812,-30.762,34.180,0.000,0
39704.585,-49.316,-9.766,-30.273,35.645,0.000,0
39704.589,-15.137,-11.719,-35.156,24.902,0.000,0
39704.593,-37.598,-17.578,-36.621,3.418,0.000,0
39704.597,-58.594,-25.391,-36.621,5.371,0.000,0
39704.600,-35.645,-23.926,-35.156,20.508,0.000,0
39704.604,-25.879,-18.555,-34.180,29.785,0.000,0
39704.608,-38.086,-17.090,-32.227,29.785,0.000,0
39704.612,-43.945,-19.043,-28.320,23.926,0.000,0
39704.616,-49.316,-20.020,-32.227,33.203,0.000,0
39704.620,-39.062,-16.113,-37.109,31.250,0.000,0
39704.624,-36.133,-16.113,-35.156,11.719,0.000,0
39704.628,-67.383,-20.020,-40.527,0.977,0.000,0
39704.632,-46.875,-22.461,-41.016,-6.836,0.000,0
39704.636,-17.578,-25.391,-40.039,-5.371,0.000,0
39704.639,-41.992,-21.484,-40.527,0.488,0.000,0
39704.643,-56.152,-6.836,-36.133,4.395,0.000,0
39704.647,-56.641,5.371,-40.527,12.695,0.000,0
39704.651,-48.828,6.836,-37.109,12.207,0.000,0
39704.655,-43.457,5.859,-33.203,20.508,0.000,0
39704.659,-43.457,5.371,-34.180,36.621,0.000,0
39704.663,-39.062,5.859,-28.809,36.133,0.000,0
39704.667,-38.574,5.859,-29.297,36.133,0.000,0
39704.671,-41.016,4.395,-35.156,22.461,0.000,0
39704.675,-42.480,5.371,-41.016,20.020,0.000,0
39704.679,-40.039,4.883,-35.645,42.480,0.000,0
39704.682,-32.715,1.953,-23.438,44.922,0.000,0
39704.686,-46.387,-0.488,-20.508,40.039,0.000,0
39704.690,-49.805,-4.883,-24.414,35.645,0.000,0
39704.694,-21.973,-3.418,-20.996,37.109,0.000,0
39704.698,-9.766,-0.977,-23.926,51.758,0.000,0
39704.702,-8.301,-4.883,-27.832,43.945,0.000,0
39704.706,-13.184,-5.371,-27.344,36.621,0.000,0
39704.710,-23.438,-6.836,-29.297,24.414,0.000,0
39704.714,-29.297,-3.418,-31.738,14.648,0.000,0
39704.718,-42.969,-2.441,-35.156,32.227,0.000,0
39704.722,-13.184,-2.930,-27.832,45.898,0.000,0
39704.725,2.930,-0.977,-20.508,44.434,0.000,0
39704.729,-23.438,-10.254,-21.973,38.574,0.000,0
39704.733,-41.504,-15.137,-22.461,34.180,0.000,0
39704.737,-19.043,-16.113,-30.273,38.086,0.000,0
39704.741,-4.395,-17.090,-33.203,36.621,0.000,0
39704.745,-19.043,-11.230,-24.414,38.574,0.000,0
39704.749,-11.230,-7.812,-23.926,33.691,0.000,0
39704.753,0.000,-9.766,-28.320,25.391,0.000,0
39704.757,-10.254,-11.719,-29.297,47.363,0.000,0
39704.761,-23.438,-11.719,-29.785,50.293,0.000,0
39704.764,-26.367,-11.230,-24.414,44.434,0.000,0
39704.768,-18.555,-18.066,-21.484,48.828,0.000,0
39704.772,5.371,-25.879,-29.297,44.434,0.000,0
39704.776,-2.441,-26.367,-27.832,50.781,0.000,0
39704.780,-23.438,-27.344,-20.996,50.293,0.000,0
39704.784,20.508,-23.438,-17.578,49.316,0.000,0
39704.788,21.484,-24.902,-19.531,40.527,0.000,0
39704.792,-7.324,-27.344,-27.344,27.832,0.000,0
39704.796,-5.371,-24.414,-30.762,33.691,0.000,0
39704.800,10.254,-28.320,-24.414,44.922,0.000,0
39704.804,-0.977,-30.762,-20.020,49.805,0.000,0
39704.807,-26.367,-31.250,-20.996,51.270,0.000,0
39704.811,-33.691,-35.156,-20.996,46.875,0.000,0
39704.815,-5.859,-36.621,-20.996,44.434,0.000,0
39704.819,16.113,-34.180,-16.602,57.617,0.000,0
39704.823,-20.996,-38.574,-14.648,70.801,0.000,0
39704.827,-22.461,-46.387,-17.578,58.594,0.000,0
39704.831,1.465,-47.852,-18.555,41.992,0.000,0
39704.835,-12.207,-45.898,-21.973,47.852,0.000,0
39704.839,-28.809,-47.852,-27.344,43.457,0.000,0
39704.843,-27.344,-55.176,-25.879,38.086,0.000,0
39704.847,-26.367,-60.547,-29.785,41.504,0.000,0
39704.850,-18.555,-56.641,-27.344,54.199,0.000,0
39704.854,-17.090,-46.875,-19.531,54.688,0.000,0
39704.858,-27.344,-43.457,-13.672,48.340,0.000,0
39704.862,-7.324,-44.922,-12.207,63.477,0.000,0
39704.866,-8.789,-45.898,-13.184,60.547,0.000,0
39704.870,-25.879,-49.805,-9.277,50.781,0.000,0
39704.874,15.625,-47.363,-12.207,61.523,0.000,0
39704.878,10.254,-47.363,-20.996,56.641,0.000,0
39704.882,-18.555,-48.340,-19.531,56.641,0.000,0
39704.886,-9.766,-47.852,-14.160,51.270,0.000,0
39704.889,-6.348,-52.246,-16.602,39.551,0.000,0
39704.893,-21.973,-53.223,-20.996,51.270,0.000,0
39704.897,-22.461,-52.734,-16.602,46.387,0.000,0
39704.901,-18.555,-52.246,-13.184,37.598,0.000,0
39704.905,-31.250,-53.223,-13.672,36.133,0.000,0
39704.909,-37.598,-58.105,-12.207,35.156,0.000,0
39704.913,-33.691,-55.664,-11.719,44.922,0.000,0
39704.917,2.441,-56.641,-12.695,44.922,0.000,0
39704.921,7.812,-60.059,-15.137,47.363,0.000,0
39704.925,6.348,-59.082,-15.625,47.363,0.000,0
39704.929,-3.418,-55.664,-11.230,43.945,0.000,0
39704.932,-7.812,-51.758,-12.207,43.945,0.000,0
39704.936,0.977,-46.387,-11.230,43.945,0.000,0
39704.940,-9.277,-42.969,-7.812,62.012,0.000,0
39704.944,7.324,-46.875,-3.906,60.059,0.000,0
39704.948,26.367,-47.363,0.000,51.270,0.000,0
39704.952,-7.812,-42.480,-2.441,70.312,0.000,0
39704.956,-3.418,-45.898,-2.930,80.078,0.000,0
39704.960,32.227,-55.664,-3.418,85.449,0.000,0
39704.964,35.645,-55.664,-6.836,66.895,0.000,1
39704.968,0.000,-50.781,-4.395,37.598,0.000,0
39704.972,-26.855,-48.340,-5.371,41.992,0.000,0
39704.975,11.230,-46.387,-7.324,62.500,0.000,0
39704.979,26.367,-47.363,-10.742,62.988,0.000,0
39704.983,-12.207,-48.340,-9.277,51.758,0.000,0
39704.987,-20.020,-50.781,-6.348,44.434,0.000,0
39704.991,-0.977,-53.223,-10.254,56.641,0.000,0
39704.995,-3.906,-58.105,-10.742,62.988,0.000,0
39704.999,-11.230,-59.570,-17.090,61.523,0.000,0
39705.003,-2.930,-56.152,-18.066,59.570,0.000,0
39705.007,16.602,-56.152,-13.184,46.387,0.000,0
39705.011,15.137,-53.223,-12.207,58.105,0.000,0
39705.014,0.488,-48.828,-10.254,65.430,0.000,0
39705.018,7.812,-50.781,-8.301,68.359,0.000,0
39705.022,24.414,-53.711,-2.930,68.359,0.000,0
39705.026,20.020,-53.711,-2.441,48.828,0.000,0
39705.030,17.090,-53.223,-5.371,62.012,0.000,0
39705.034,12.207,-54.199,-10.254,80.566,0.000,0
39705.038,7.812,-55.176,-14.160,65.430,0.000,0
39705.042,7.324,-57.617,-17.090,54.199,0.000,0
39705.046,-29.785,-60.547,-20.996,49.316,0.000,0
39705.050,-14.160,-60.059,-21.973,46.875,0.000,0
39705.054,14.160,-58.594,-17.090,50.293,0.000,0
39705.057,0.977,-50.781,-9.277,55.176,0.000,0
39705.061,-7.324,-50.293,-12.695,57.617,0.000,0
39705.065,14.160,-54.199,-15.137,43.945,0.000,0
39705.069,17.090,-52.734,-13.672,49.316,0.000,0
39705.073,1.953,-56.152,-12.695,62.012,0.000,0
39705.077,-7.812,-61.035,-16.113,67.383,0.000,0
39705.081,19.531,-61.035,-17.090,72.266,0.000,0
39705.085,6.836,-62.500,-11.230,61.523,0.000,0
39705.089,-17.578,-63.965,-13.672,58.594,0.000,0
39705.093,-5.859,-65.918,-17.090,63.965,0.000,0
39705.097,10.254,-61.035,-14.648,57.617,0.000,0
39705.100,33.691,-56.641,-12.695,55.664,0.000,0
39705.104,-5.371,-61.035,-13.672,58.594,0.000,0
39705.108,-45.898,-59.570,-12.207,70.312,0.000,0
39705.112,0.977,-58.594,-14.160,73.730,0.000,0
39705.116,25.391,-56.152,-10.254,56.641,0.000,0
39705.120,3.418,-56.641,-9.277,51.270,0.000,0
39705.124,-1.465,-60.059,-18.066,52.246,0.000,0
39705.128,9.766,-57.129,-21.484,53.711,0.000,0
39705.132,7.812,-55.176,-15.137,59.082,0.000,0
39705.136,-20.996,-59.082,-16.602,67.383,0.000,0
39705.139,-3.906,-61.523,-20.508,68.848,0.000,0
39705.143,4.395,-58.594,-20.020,50.781,0.000,0
39705.147,-24.414,-60.547,-21.484,41.504,0.000,0
39705.151,-19.043,-62.500,-17.090,49.316,0.000,0
39705.155,3.906,-63.965,-19.531,43.457,0.000,0
39705.159,2.441,-66.895,-25.879,36.133,0.000,0
39705.163,-19.531,-66.406,-17.090,42.969,0.000,0
39705.167,-11.719,-63.477,-12.695,45.898,0.000,0
39705.171,-0.977,-60.547,-14.648,41.992,0.000,0
39705.175,-9.277,-58.594,-15.137,49.316,0.000,0
39705.179,-20.996,-63.965,-20.020,55.176,0.000,0
39705.182,-12.695,-61.035,-18.555,47.363,0.000,0
39705.186,-4.395,-58.105,-19.531,37.598,0.000,0
39705.190,-2.930,-63.477,-21.973,42.480,0.000,0
39705.194,-4.883,-62.500,-13.184,45.898,0.000,0
39705.198,-41.016,-63.965,-12.695,41.016,0.000,0
39705.202,-17.578,-69.824,-18.066,34.668,0.000,0
39705.206,-7.812,-63.965,-18.066,33.203,0.000,0
39705.210,-19.531,-64.941,-26.367,41.504,0.000,0
39705.214,-15.137,-72.266,-29.785,38.086,0.000,0
39705.218,-11.230,-78.125,-30.762,33.203,0.000,0
39705.222,-22.949,-78.613,-29.297,24.414,0.000,0
39705.225,-38.574,-71.289,-23.438,21.973,0.000,0
39705.229,-28.320,-63.965,-19.531,22.949,0.000,0
39705.233,-28.320,-64.453,-18.066,20.020,0.000,0
39705.237,-21.484,-68.848,-22.461,26.855,0.000,0
39705.241,-28.809,-70.312,-25.391,21.484,0.000,0
39705.245,-19.043,-69.824,-21.973,10.742,0.000,0
39705.249,-2.930,-63.477,-19.531,31.250,0.000,0
39705.253,-19.531,-61.523,-18.066,39.062,0.000,0
39705.257,-28.320,-65.918,-23.926,29.785,0.000,0
39705.261,-18.066,-67.871,-28.320,23.926,0.000,0
39705.264,-21.973,-61.035,-27.344,15.137,0.000,0
39705.268,-30.273,-54.688,-30.762,0.977,0.000,0
39705.272,-28.320,-54.199,-30.762,9.277,0.000,0
39705.276,-23.926,-51.270,-29.297,56.641,0.000,0
39705.280,-20.508,-44.922,-24.414,50.781,0.000,0
39705.284,-27.832,-39.551,-22.949,22.461,0.000,0
39705.288,-47.852,-41.504,-30.762,34.668,0.000,0
39705.292,-20.020,-44.434,-27.344,36.133,0.000,0
39705.296,-3.906,-42.480,-21.484,23.926,0.000,0
39705.300,-28.809,-37.109,-21.973,22.949,0.000,0
39705.304,-11.230,-37.109,-20.508,19.043,0.000,0
39705.307,11.719,-29.785,-17.090,44.434,0.000,0
39705.311,6.836,-26.367,-15.625,43.945,0.000,0
39705.315,-20.996,-31.738,-17.090,32.227,0.000,0
39705.319,-11.719,-35.156,-23.926,35.156,0.000,0
39705.323,0.488,-37.109,-20.508,35.645,0.000,0
39705.327,-25.879,-32.715,-12.695,43.945,0.000,0
39705.331,-33.691,-34.668,-16.602,27.832,0.000,0
39705.335,-17.578,-41.504,-20.508,17.578,0.000,0
39705.339,-6.348,-39.062,-10.742,19.531,0.000,0
39705.343,-13.184,-35.156,-8.789,4.883,0.000,0
39705.347,-15.625,-32.227,-15.137,4.395,0.000,0
39705.350,-17.578,-31.250,-15.137,12.207,0.000,0
39705.354,-10.742,-32.227,-16.113,25.879,0.000,0
39705.358,-8.789,-31.738,-16.602,26.367,0.000,0
39705.362,-20.020,-30.273,-14.648,22.949,0.000,0
39705.366,-9.277,-29.297,-18.555,40.527,0.000,0
39705.370,-8.301,-33.691,-22.949,33.691,0.000,0
39705.374,-37.598,-35.156,-24.414,21.484,0.000,0
39705.378,-58.105,-36.133,-21.973,18.066,0.000,0
39705.382,-10.742,-38.574,-22.461,20.020,0.000,0
39705.386,-5.859,-36.133,-25.879,21.973,0.000,0
39705.389,-41.016,-35.156,-26.367,27.344,0.000,0
39705.393,-16.113,-36.621,-22.461,30.762,0.000,0
39705.397,3.906,-34.668,-20.508,17.090,0.000,0
39705.401,-17.090,-35.156,-22.461,18.066,0.000,0
39705.405,-22.461,-36.621,-25.879,23.926,0.000,0
39705.409,-14.648,-34.180,-28.320,23.438,0.000,0
39705.413,6.836,-33.691,-25.391,31.738,0.000,0
39705.417,-6.836,-35.645,-26.367,39.062,0.000,0
39705.421,-36.621,-35.645,-28.320,26.855,0.000,0
39705.425,-20.508,-33.203,-26.855,21.484,0.000,0
39705.429,-10.254,-33.203,-25.391,33.203,0.000,0
39705.432,-13.672,-33.203,-20.996,27.344,0.000,0
39705.436,-41.504,-34.668,-20.996,27.344,0.000,0
39705.440,-37.598,-32.227,-21.973,30.273,0.000,0
39705.444,-20.020,-26.855,-19.531,27.832,0.000,0
39705.448,0.977,-23.926,-15.625,35.156,0.000,0
39705.452,-2.930,-30.762,-19.531,33.203,0.000,0
39705.456,-8.301,-34.180,-23.438,32.715,0.000,0
39705.460,-0.977,-29.297,-19.531,31.250,0.000,0
39705.464,-18.066,-32.715,-21.484,21.973,0.000,0
39705.468,-43.945,-35.156,-29.297,24.902,0.000,0
39705.472,-30.762,-31.250,-29.785,20.996,0.000,0
39705.475,2.930,-29.297,-27.832,25.879,0.000,0
39705.479,-20.996,-29.785,-28.809,31.250,0.000,0
39705.483,-52.734,-34.180,-34.668,20.996,0.000,0
39705.487,-24.902,-37.109,-39.062,24.414,0.000,0
39705.491,-33.203,-39.062,-38.086,26.367,0.000,0
39705.495,-49.316,-36.621,-38.574,20.020,0.000,0
39705.499,-29.785,-37.598,-35.156,6.836,0.000,0
39705.503,-32.227,-37.109,-31.738,1.465,0.000,0
39705.507,-39.062,-36.133,-35.645,2.930,0.000,0
39705.511,-43.945,-32.715,-29.297,2.930,0.000,0
39705.514,-52.734,-32.227,-30.762,0.000,0.000,0
39705.518,-33.691,-39.062,-38.574,-8.301,0.000,0
39705.522,-20.020,-37.598,-32.715,-12.207,0.000,0
39705.526,-65.430,-37.598,-29.297,-17.090,0.000,0
39705.530,-57.129,-34.668,-28.320,-1.953,0.000,0
39705.534,-25.391,-29.297,-26.367,-2.930,0.000,0
39705.538,-43.457,-28.809,-25.391,-16.602,0.000,0
39705.542,-39.551,-32.227,-27.344,0.000,0.000,0
39705.546,-20.020,-35.645,-31.738,0.000,0.000,0
39705.550,-30.273,-32.227,-28.320,-20.996,0.000,0
39705.554,-36.133,-28.809,-29.297,-15.625,0.000,0
39705.557,-30.762,-37.598,-34.180,-12.207,0.000,0
39705.561,-29.785,-39.062,-25.879,-16.602,0.000,1
39705.565,-38.086,-34.180,-28.320,1.465,0.000,0
39705.569,-43.945,-35.645,-33.203,6.348,0.000,0
39705.573,-50.293,-39.062,-32.227,-0.488,0.000,0
39705.577,-24.902,-38.086,-36.133,-4.883,0.000,0
39705.581,-14.160,-34.668,-30.762,-5.859,0.000,0
39705.585,-21.973,-29.785,-25.391,-3.906,0.000,0
39705.589,-25.391,-27.344,-30.762,9.277,0.000,0
39705.593,-16.602,-25.391,-31.738,19.531,0.000,0
39705.597,-10.254,-23.438,-30.273,11.230,0.000,0
39705.600,-42.969,-29.297,-33.691,-1.465,0.000,0
39705.604,-39.062,-34.180,-36.133,0.000,0.000,0
39705.608,-44.434,-34.180,-36.621,0.000,0.000,0
39705.612,-35.156,-32.715,-36.133,6.836,0.000,0
39705.616,-40.039,-33.691,-32.227,7.812,0.000,0
39705.620,-37.109,-36.621,-35.645,0.977,0.000,0
39705.624,-13.672,-34.180,-43.457,11.719,0.000,0
39705.628,-11.230,-28.809,-36.621,11.719,0.000,0
39705.632,-28.320,-27.832,-32.715,24.902,0.000,0
39705.636,-27.344,-33.691,-39.062,29.297,0.000,0
39705.639,-35.645,-35.645,-42.969,-12.207,0.000,0
39705.643,-54.199,-27.344,-42.480,1.953,0.000,0
39705.647,-27.344,-21.973,-40.527,19.531,0.000,0
39705.651,-15.625,-19.531,-39.062,10.742,0.000,0
39705.655,-47.363,-18.066,-38.086,5.859,0.000,0
39705.659,-48.340,-23.438,-41.504,-20.020,0.000,0
39705.663,-36.621,-24.902,-41.992,-21.973,0.000,0
39705.667,-12.207,-20.508,-41.504,-11.230,0.000,0
39705.671,-9.766,-15.625,-40.039,-4.395,0.000,0
39705.675,-26.855,-15.625,-42.480,-9.766,0.000,0
39705.679,-38.574,-19.043,-41.016,-13.184,0.000,0
39705.682,-31.250,-12.695,-38.574,6.348,0.000,0
39705.686,-3.906,-8.301,-38.574,-5.371,0.000,0
39705.690,-31.250,-9.277,-39.551,-0.977,0.000,0
39705.694,-35.156,-14.160,-42.969,4.395,0.000,0
39705.698,-11.230,-16.602,-42.480,-17.090,0.000,0
39705.702,-16.602,-9.277,-40.527,-5.859,0.000,0
39705.706,-35.645,-9.766,-41.016,3.906,0.000,0
39705.710,-25.879,-15.625,-41.504,5.859,0.000,0
39705.714,3.906,-8.789,-35.645,20.508,0.000,0
39705.718,-11.719,-12.207,-37.109,8.301,0.000,0
39705.722,-22.461,-24.414,-43.457,5.371,0.000,0
39705.725,-7.324,-23.926,-45.898,5.859,0.000,0
39705.729,2.441,-16.113,-40.527,-5.371,0.000,0
39705.733,3.418,-12.695,-38.574,8.301,0.000,0
39705.737,-11.230,-20.508,-47.363,0.000,0.000,0
39705.741,-23.438,-21.973,-48.828,-2.441,0.000,0
39705.745,-14.648,-18.555,-49.316,17.090,0.000,0
39705.749,-23.926,-20.508,-49.316,19.043,0.000,0
39705.753,-47.363,-27.344,-47.363,9.277,0.000,0
39705.757,-18.066,-30.762,-46.875,8.301,0.000,0
39705.761,-3.906,-24.902,-46.875,9.766,0.000,0
39705.764,-16.602,-19.043,-43.457,8.301,0.000,0
39705.768,-18.555,-22.949,-39.551,5.371,0.000,0
39705.772,-25.879,-30.273,-42.969,3.418,0.000,0
39705.776,-30.762,-28.320,-44.434,1.465,0.000,0
39705.780,-36.621,-22.461,-42.969,2.930,0.000,0
39705.784,-31.250,-20.508,-39.551,13.184,0.000,0
39705.788,-23.438,-19.531,-42.480,0.000,0.000,0
39705.792,-24.414,-20.508,-47.852,-1.953,0.000,0
39705.796,-40.039,-20.996,-48.340,6.348,0.000,0
39705.800,-44.434,-21.973,-49.805,5.859,0.000,0
39705.804,-38.574,-23.438,-50.293,4.883,0.000,0
39705.807,-37.109,-18.555,-46.387,9.766,0.000,0
39705.811,-49.316,-14.648,-44.434,11.230,0.000,0
39705.815,-32.227,-14.160,-41.992,13.184,0.000,0
39705.819,-24.414,-16.113,-43.457,6.348,0.000,0
39705.823,-28.320,-15.625,-45.410,11.719,0.000,0
39705.827,-39.062,-12.695,-43.945,18.066,0.000,0
39705.831,-46.387,-10.742,-40.527,13.672,0.000,0
39705.835,-41.504,-9.277,-41.992,4.395,0.000,0
39705.839,-51.270,-10.254,-47.363,-3.418,0.000,0
39705.843,-63.477,-13.672,-51.758,2.930,0.000,0
39705.847,-62.012,-13.672,-49.805,8.301,0.000,0
39705.850,-21.973,-7.324,-45.410,-0.488,0.000,0
39705.854,-38.086,-8.301,-49.805,-9.766,0.000,0
39705.858,-95.703,-11.719,-52.246,-7.812,0.000,0
39705.862,-46.387,-9.766,-55.176,-3.418,0.000,0
39705.866,-15.137,-7.812,-57.129,0.000,0.000,0
39705.870,-49.805,-6.348,-50.781,7.324,0.000,0
39705.874,-53.223,-3.418,-43.457,-1.465,0.000,0
39705.878,-43.457,-6.836,-45.410,-11.719,0.000,0
39705.882,-53.711,-9.766,-49.316,-8.301,0.000,0
39705.886,-63.965,-8.789,-49.805,14.648,0.000,0
39705.889,-59.082,-9.766,-48.828,17.578,0.000,0
39705.893,-50.293,-16.602,-49.316,-1.953,0.000,0
39705.897,-52.246,-19.043,-50.293,-7.324,0.000,0
39705.901,-84.473,-14.160,-48.340,-1.465,0.000,0
39705.905,-62.500,-15.137,-47.852,-2.930,0.000,0
39705.909,-42.969,-16.113,-50.781,-4.883,0.000,0
39705.913,-70.801,-12.207,-54.199,-9.766,0.000,0
39705.917,-78.125,-8.789,-53.711,-20.996,0.000,0
39705.921,-59.570,-7.324,-53.711,-13.184,0.000,0
39705.925,-40.039,-1.465,-46.387,-8.789,0.000,0
39705.929,-59.570,-3.906,-50.781,-14.160,0.000,0
39705.932,-74.707,-3.418,-55.176,-11.230,0.000,0
39705.936,-63.477,0.000,-47.363,-12.207,0.000,0
39705.940,-43.457,2.441,-47.363,-16.602,0.000,0
39705.944,-48.340,1.465,-52.246,-28.809,0.000,0
39705.948,-83.984,-4.883,-54.688,-22.461,0.000,0
39705.952,-48.828,1.953,-54.199,-21.484,0.000,0
39705.956,-39.551,9.766,-47.363,-31.250,0.000,0
39705.960,-74.219,7.812,-47.852,-11.719,0.000,0
39705.964,-66.895,2.441,-49.805,-16.602,0.000,0
39705.968,-39.551,5.371,-46.875,-20.996,0.000,0
39705.972,-40.527,8.789,-47.363,-21.973,0.000,0
39705.975,-62.988,7.812,-47.852,-40.039,0.000,0
39705.979,-63.477,5.371,-52.246,-31.250,0.000,0
39705.983,-50.293,5.371,-55.176,-16.602,0.000,0
39705.987,-34.668,10.254,-55.176,-1.953,0.000,0
39705.991,-52.246,10.254,-49.805,1.465,0.000,0
39705.995,-65.918,3.906,-52.246,-17.578,0.000,0
39705.999,-40.039,2.441,-56.641,-7.812,0.000,0
39706.003,-20.508,6.348,-51.270,0.488,0.000,0
39706.007,-47.363,5.371,-49.805,-4.395,0.000,0
39706.011,-46.387,3.418,-49.805,-5.371,0.000,0
39706.014,-22.461,8.789,-42.480,-6.348,0.000,0
39706.018,-44.922,10.254,-42.480,-3.418,0.000,0
39706.022,-64.941,0.000,-51.758,-9.766,0.000,0
39706.026,-56.152,-5.859,-50.781,-11.230,0.000,0
39706.030,-65.430,-2.441,-43.457,-12.695,0.000,0
39706.034,-59.082,5.371,-42.969,-19.043,0.000,0
39706.038,-43.457,6.836,-48.340,-10.742,0.000,0
39706.042,-31.738,-0.488,-47.363,-10.254,0.000,0
39706.046,-27.344,1.465,-44.434,-9.766,0.000,0
39706.050,-55.664,0.977,-47.852,-10.254,0.000,0
39706.054,-87.891,-2.930,-48.340,-14.160,0.000,0
39706.057,-42.480,0.977,-51.270,-0.488,0.000,0
39706.061,-26.367,0.000,-54.688,3.906,0.000,0
39706.065,-51.270,-2.930,-55.176,-6.348,0.000,0
39706.069,-48.340,-2.441,-53.223,-7.324,0.000,0
39706.073,-49.316,-4.395,-54.199,-15.625,0.000,0
39706.077,-70.312,-6.836,-61.035,-16.602,0.000,0
39706.081,-64.941,-7.324,-54.688,-5.371,0.000,0
39706.085,-53.711,-3.418,-48.340,-6.836,0.000,0
39706.089,-51.270,-1.465,-50.293,5.371,0.000,0
39706.093,-52.246,-6.348,-49.316,-6.348,0.000,0
39706.097,-65.918,-3.418,-49.805,-21.484,0.000,0
39706.100,-59.570,-2.930,-50.781,-6.836,0.000,0
39706.104,-28.320,-1.465,-51.758,5.859,0.000,0
39706.108,-36.621,2.930,-51.758,6.836,0.000,0
39706.112,-79.102,-6.348,-52.246,-6.348,0.000,0
39706.116,-62.012,-7.324,-52.246,-13.672,0.000,0
39706.120,-50.293,-7.812,-52.246,-8.301,0.000,0
39706.124,-76.660,-11.719,-56.641,-4.883,0.000,0
39706.128,-71.777,-12.207,-60.059,1.953,0.000,0
39706.132,-14.648,-7.812,-55.176,-1.465,0.000,0
39706.136,-22.949,-3.906,-54.688,5.859,0.000,0
39706.139,-52.734,-7.324,-57.617,20.020,0.000,0
39706.143,-49.805,-9.277,-47.363,10.254,0.000,0
39706.147,-24.902,-1.953,-42.480,14.648,0.000,0
39706.151,-27.832,0.000,-38.574,21.484,0.000,0
39706.155,-48.828,-3.418,-37.109,18.555,0.000,0
39706.159,-32.715,-0.977,-40.527,19.043,0.000,0
39706.163,-18.555,1.953,-41.016,23.438,0.000,2
39706.167,-31.250,1.953,-41.016,24.902,0.000,0
39706.171,-62.500,1.465,-38.574,14.160,0.000,0
39706.175,-56.641,2.930,-38.574,10.254,0.000,0
39706.179,-30.273,0.977,-47.363,15.625,0.000,0
39706.182,-42.480,-4.395,-51.758,13.184,0.000,0
39706.186,-62.500,-7.812,-55.664,23.926,0.000,0
39706.190,-29.297,-4.883,-50.781,19.531,0.000,0
39706.194,-40.527,3.418,-47.852,-6.836,0.000,0
39706.198,-68.848,1.953,-51.270,-8.789,0.000,0
39706.202,-73.242,0.488,-50.781,5.371,0.000,0
39706.206,-50.293,3.906,-49.316,20.508,0.000,0
39706.210,-26.367,3.418,-47.363,12.207,0.000,0
39706.214,-45.410,5.371,-49.805,20.020,0.000,0
39706.218,-58.594,3.418,-48.828,22.949,0.000,0
39706.222,-51.270,4.395,-43.457,6.836,0.000,0
39706.225,-22.949,4.395,-49.805,1.465,0.000,0
39706.229,-32.715,-0.488,-49.316,-2.441,0.000,0
39706.233,-63.477,0.000,-47.363,-3.906,0.000,0
39706.237,-35.645,2.441,-49.805,5.371,0.000,0
39706.241,-32.715,-1.953,-48.828,13.672,0.000,0
39706.245,-43.457,-1.465,-45.410,3.418,0.000,0
39706.249,-44.922,0.488,-45.410,-11.719,0.000,0
39706.253,-49.805,-3.418,-43.945,-20.508,0.000,0
39706.257,-51.758,-1.953,-44.434,-21.484,0.000,0
39706.261,-64.941,-2.930,-48.828,-15.137,0.000,0
39706.264,-77.148,-0.977,-50.781,-11.719,0.000,0
39706.268,-46.387,4.883,-48.828,-18.066,0.000,0
39706.272,-56.641,2.930,-44.922,-30.762,0.000,0
39706.276,-94.238,0.488,-39.551,-19.531,0.000,0
39706.280,-58.105,-1.953,-44.434,-7.812,0.000,0
39706.284,-24.414,-5.371,-52.246,-14.160,0.000,0
39706.288,-45.410,-3.418,-54.688,-28.320,0.000,0
39706.292,-69.336,-2.930,-51.270,-43.457,0.000,0
39706.296,-62.988,-5.371,-52.734,-38.086,0.000,0
39706.300,-50.293,0.000,-50.781,-28.320,0.000,0
39706.304,-59.570,3.418,-48.340,-15.137,0.000,0
39706.307,-74.707,-0.488,-48.828,-13.672,0.000,0
39706.311,-66.406,1.465,-45.898,-17.578,0.000,0
39706.315,-43.457,2.930,-49.316,-7.812,0.000,0
39706.319,-63.965,1.953,-47.852,-11.719,0.000,0
39706.323,-61.035,8.301,-46.875,-11.719,0.000,0
39706.327,-25.879,6.836,-49.316,-26.855,0.000,0
39706.331,-51.270,7.324,-50.781,-29.297,0.000,0
39706.335,-62.988,13.184,-53.711,-12.695,0.000,0
39706.339,-51.758,12.207,-51.270,-12.207,0.000,0
39706.343,-46.387,16.602,-50.293,-7.324,0.000,0
39706.347,-50.293,18.066,-44.434,-20.996,0.000,0
39706.350,-51.270,15.137,-40.527,-23.926,0.000,0
39706.354,-54.199,11.719,-51.758,-6.348,0.000,0
39706.358,-41.016,10.742,-52.246,-10.254,0.000,0
39706.362,-40.039,16.602,-43.945,-11.719,0.000,0
39706.366,-58.105,12.207,-47.363,-25.879,0.000,0
39706.370,-30.273,5.859,-53.711,-40.527,0.000,0
39706.374,-40.039,5.859,-61.035,-28.320,0.000,0
39706.378,-71.289,3.418,-62.012,-21.484,0.000,0
39706.382,-62.500,3.906,-58.594,-17.090,0.000,0
39706.386,-46.875,3.906,-54.688,-25.391,0.000,0
39706.389,-57.617,1.953,-56.641,-27.344,0.000,0
39706.393,-49.805,3.906,-61.523,-18.555,0.000,0
39706.397,-33.203,5.859,-56.152,-24.902,0.000,0
39706.401,-44.434,3.906,-53.223,-22.949,0.000,0
39706.405,-50.293,2.441,-54.688,-17.578,0.000,0
39706.409,-63.965,-1.465,-48.828,-30.762,0.000,0
39706.413,-64.453,-1.953,-50.293,-18.555,0.000,0
39706.417,-30.762,-0.488,-57.617,-7.324,0.000,0
39706.421,-48.340,-2.441,-59.570,-18.066,0.000,0
39706.425,-83.496,-1.465,-60.059,-6.348,0.000,0
39706.429,-72.266,-0.977,-56.641,-10.742,0.000,0
39706.432,-50.781,1.465,-55.664,-17.578,0.000,0
39706.436,-63.965,6.348,-54.199,-16.602,0.000,0
39706.440,-64.941,9.277,-51.758,-8.301,0.000,0
39706.444,-61.035,6.836,-50.781,-14.160,0.000,0
39706.448,-67.383,5.371,-47.363,-23.926,0.000,0
39706.452,-67.871,5.859,-52.246,-14.648,0.000,0
39706.456,-51.758,5.859,-54.199,-7.812,0.000,0
39706.460,-27.344,8.789,-50.293,-7.324,0.000,0
39706.464,-35.645,5.371,-51.270,-14.648,0.000,0
39706.468,-69.336,0.000,-50.781,-23.926,0.000,0
39706.472,-75.195,-0.488,-51.758,-14.648,0.000,0
39706.475,-31.738,-2.441,-49.805,-9.766,0.000,0
39706.479,-32.227,0.000,-49.805,-3.418,0.000,0
39706.483,-59.570,4.395,-51.758,-3.418,0.000,0
39706.487,-59.082,2.930,-50.781,-19.531,0.000,0
39706.491,-47.363,-2.441,-53.223,-15.625,0.000,0
39706.495,-49.316,-5.859,-50.293,-11.230,0.000,0
39706.499,-76.660,-5.371,-47.852,-5.371,0.000,0
39706.503,-57.617,-5.371,-51.270,-4.883,0.000,0
39706.507,-39.551,-7.324,-50.293,-17.578,0.000,0
39706.511,-62.500,-3.906,-46.387,-24.414,0.000,0
39706.514,-61.035,-1.953,-49.805,-14.648,0.000,0
39706.518,-52.246,-3.906,-56.152,-2.441,0.000,0
39706.522,-45.898,0.000,-53.223,-9.277,0.000,0
39706.526,-63.965,2.441,-54.688,-13.184,0.000,0
39706.530,-63.477,-1.953,-58.105,-9.277,0.000,0
39706.534,-38.086,-0.488,-55.664,-8.789,0.000,0
39706.538,-35.156,-4.395,-56.152,-18.066,0.000,0
39706.542,-70.801,-7.812,-59.570,-8.789,0.000,0
39706.546,-71.289,-6.836,-59.570,-20.996,0.000,0
39706.550,-51.270,-1.953,-59.570,-30.273,0.000,0
39706.554,-45.410,1.953,-60.059,-19.531,0.000,0
39706.557,-59.570,-3.418,-58.594,-21.973,0.000,0
39706.561,-81.055,-6.836,-59.082,-11.230,0.000,0
39706.565,-43.457,-8.789,-57.129,-8.789,0.000,0
39706.569,-45.898,-6.836,-51.758,-20.508,0.000,0
39706.573,-51.270,-4.395,-54.199,-20.020,0.000,0
39706.577,-33.691,-9.277,-54.199,-20.020,0.000,0
39706.581,-35.156,-9.277,-48.340,-17.578,0.000,0
39706.585,-40.039,-4.883,-46.387,-30.273,0.000,0
39706.589,-46.387,-5.859,-48.828,-26.855,0.000,0
39706.593,-58.594,-3.418,-49.316,-13.672,0.000,0
39706.597,-39.551,-2.930,-50.293,-13.672,0.000,0
39706.600,-21.973,-5.859,-54.199,-12.695,0.000,0
39706.604,-66.406,-3.906,-50.781,-20.996,0.000,0
39706.608,-65.430,0.000,-47.363,-16.113,0.000,0
39706.612,-28.809,-4.395,-50.293,-7.812,0.000,0
39706.616,-49.805,-4.395,-48.340,4.883,0.000,0
39706.620,-51.758,1.953,-46.875,12.207,0.000,0
39706.624,-23.926,-1.953,-51.270,-18.066,0.000,0
39706.628,-47.852,-0.977,-53.223,-14.160,0.000,0
39706.632,-61.523,1.953,-53.223,3.418,0.000,0
39706.636,-46.387,-3.906,-54.199,-2.930,0.000,0
39706.639,-58.594,-7.324,-58.594,0.977,0.000,0
39706.643,-35.645,-8.789,-59.082,-8.789,0.000,0
39706.647,-39.062,-9.766,-58.594,-12.695,0.000,0
39706.651,-73.730,-9.766,-59.082,-2.930,0.000,0
39706.655,-39.551,-3.906,-52.246,-0.977,0.000,0
39706.659,-25.391,-0.977,-48.340,5.371,0.000,0
39706.663,-47.852,-5.859,-51.270,-14.160,0.000,0
39706.667,-49.316,-1.465,-49.316,-11.719,0.000,0
39706.671,-33.691,1.465,-54.199,16.602,0.000,0
39706.675,-41.016,-4.883,-60.547,4.883,0.000,0
39706.679,-52.734,-4.395,-58.105,-10.742,0.000,0
39706.682,-50.293,-0.977,-56.152,-0.488,0.000,0
39706.686,-51.758,-3.418,-59.082,4.395,0.000,0
39706.690,-47.852,-4.883,-59.570,9.277,0.000,0
39706.694,-55.664,-3.418,-62.988,14.648,0.000,0
39706.698,-56.152,-4.883,-65.430,12.207,0.000,0
39706.702,-38.574,-7.812,-60.059,0.488,0.000,0
39706.706,-48.340,-12.207,-54.199,-6.348,0.000,0
39706.710,-62.988,-12.695,-58.105,-1.953,0.000,0
39706.714,-52.734,-14.160,-62.012,-6.836,0.000,0
39706.718,-50.293,-15.625,-60.547,4.395,0.000,0
39706.722,-58.105,-13.672,-52.734,2.930,0.000,0
39706.725,-45.898,-18.066,-49.805,-13.672,0.000,0
39706.729,-47.363,-20.508,-52.734,-3.418,0.000,0
39706.733,-61.523,-18.066,-53.711,6.348,0.000,0
39706.737,-51.270,-10.742,-55.664,-0.488,0.000,0
39706.741,-46.387,-10.254,-54.199,-13.184,0.000,0
39706.745,-35.645,-5.859,-53.711,-12.207,0.000,0
39706.749,-36.133,-5.371,-57.617,-4.395,0.000,0
39706.753,-44.922,-14.648,-57.617,-9.766,0.000,0
39706.757,-57.129,-15.137,-52.734,-3.906,0.000,0
39706.761,-34.668,-14.648,-46.875,4.883,0.000,0
39706.764,-32.715,-18.066,-47.363,-2.441,0.000,0
39706.768,-49.805,-14.648,-46.875,6.836,0.000,0
39706.772,-38.086,-13.672,-41.992,2.441,0.000,0
39706.776,-47.852,-16.113,-46.387,-5.371,0.000,0
39706.780,-75.195,-16.113,-49.316,-2.441,0.000,0
39706.784,-82.031,-17.578,-45.898,-9.277,0.000,1
39706.788,-63.965,-18.066,-46.875,-17.578,0.000,0
39706.792,-36.621,-13.672,-44.434,-10.254,0.000,0
39706.796,-43.945,-11.230,-41.992,4.883,0.000,0
39706.800,-55.664,-12.695,-45.898,-1.465,0.000,0
39706.804,-53.711,-10.742,-50.781,-8.301,0.000,0
39706.807,-40.527,-7.812,-50.293,-0.488,0.000,0
39706.811,-37.598,-5.859,-51.758,10.742,0.000,0
39706.815,-55.664,-10.254,-56.152,1.953,0.000,0
39706.819,-63.477,-6.836,-46.387,-4.883,0.000,0
39706.823,-77.148,-2.930,-47.852,-1.953,0.000,0
39706.827,-77.148,-6.348,-49.805,-9.766,0.000,0
39706.831,-73.242,-4.883,-44.434,-6.348,0.000,0
39706.835,-45.898,-5.859,-48.340,5.371,0.000,0
39706.839,-29.785,-10.254,-46.387,6.348,0.000,0
39706.843,-46.875,-7.324,-41.016,1.953,0.000,0
39706.847,-36.133,-4.395,-39.551,1.465,0.000,0
39706.850,-34.180,-6.348,-43.945,0.977,0.000,0
39706.854,-48.828,-5.859,-48.340,0.488,0.000,0
39706.858,-62.012,-2.930,-46.387,-4.395,0.000,0
39706.862,-74.707,-2.441,-41.016,-15.137,0.000,0
39706.866,-64.453,-4.883,-45.898,-13.672,0.000,0
39706.870,-56.641,-7.324,-49.805,-8.789,0.000,0
39706.874,-73.730,-10.254,-48.828,-7.324,0.000,0
39706.878,-67.383,-9.277,-48.828,-14.160,0.000,0
39706.882,-48.340,-6.836,-43.945,-16.113,0.000,0
39706.886,-48.828,-5.859,-45.410,0.000,0.000,0
39706.889,-65.430,-3.418,-45.898,0.488,0.000,0
39706.893,-74.219,-3.906,-45.898,1.953,0.000,0
39706.897,-62.012,-3.906,-46.875,-1.953,0.000,0
39706.901,-73.242,-2.930,-43.457,-25.879,0.000,0
39706.905,-69.336,-5.371,-41.504,-22.949,0.000,0
39706.909,-52.734,-0.488,-40.039,-6.348,0.000,0
39706.913,-50.293,12.207,-36.621,2.441,0.000,0
39706.917,-61.035,12.207,-40.527,-2.441,0.000,0
39706.921,-74.219,7.324,-43.945,-16.602,0.000,0
39706.925,-55.176,14.160,-43.457,-19.531,0.000,0
39706.929,-51.270,14.160,-49.805,-14.160,0.000,0
39706.932,-66.406,8.789,-49.805,-7.812,0.000,0
39706.936,-66.406,6.348,-45.410,11.719,0.000,0
39706.940,-32.227,10.742,-41.992,0.977,0.000,0
39706.944,-32.227,1.465,-47.852,-20.508,0.000,0
39706.948,-55.176,-5.371,-53.223,-9.277,0.000,0
39706.952,-52.246,-3.418,-51.758,-10.742,0.000,0
39706.956,-45.410,-4.883,-49.805,-8.301,0.000,0
39706.960,-54.199,-0.977,-49.805,-13.672,0.000,0
39706.964,-59.082,0.488,-51.758,-20.020,0.000,0
39706.968,-59.082,0.488,-51.758,-13.672,0.000,0
39706.972,-38.086,5.859,-46.875,-3.418,0.000,0
39706.975,-12.695,5.859,-47.363,12.207,0.000,0
39706.979,-46.387,0.000,-45.898,-3.418,0.000,0
39706.983,-68.848,-0.977,-45.898,-7.324,0.000,0
39706.987,-33.203,-7.324,-54.688,1.953,0.000,0
39706.991,-17.090,-10.742,-55.176,-0.488,0.000,0
39706.995,-41.016,-5.859,-52.246,11.230,0.000,0
39706.999,-49.805,-4.883,-50.781,-3.906,0.000,0
39707.003,-40.039,-12.695,-55.664,-17.090,0.000,0
39707.007,-45.410,-13.672,-56.152,1.953,0.000,0
39707.011,-62.500,-6.348,-54.199,14.160,0.000,0
39707.014,-63.965,-11.230,-57.129,18.066,0.000,0
39707.018,-34.180,-14.648,-51.270,-5.859,0.000,0
39707.022,-40.527,-13.184,-53.223,-13.672,0.000,0
39707.026,-82.520,-10.742,-56.641,0.000,0.000,0
39707.030,-47.363,-4.395,-47.852,-0.977,0.000,0
39707.034,-41.016,-7.812,-43.457,-0.977,0.000,0
39707.038,-57.617,-9.766,-48.340,-4.883,0.000,0
39707.042,-45.410,-6.348,-54.688,-12.207,0.000,0
39707.046,-28.320,-2.930,-52.734,-5.859,0.000,0
39707.050,-20.020,-4.883,-47.363,-0.977,0.000,0
39707.054,-31.250,-8.789,-44.434,3.418,0.000,0
39707.057,-38.086,-6.836,-43.457,9.766,0.000,0
39707.061,-42.480,-6.836,-48.340,0.488,0.000,0
39707.065,-34.668,-12.207,-54.199,-5.859,0.000,0
39707.069,-50.781,-10.254,-44.434,-3.418,0.000,0
39707.073,-56.152,-7.324,-39.551,-1.953,0.000,0
39707.077,-23.926,-4.395,-42.969,4.395,0.000,0
39707.081,-29.785,-2.441,-39.062,-2.930,0.000,0
39707.085,-45.410,-6.348,-42.969,4.395,0.000,0
39707.089,-48.828,-4.883,-47.852,-0.977,0.000,0
39707.093,-41.016,-0.488,-48.828,-2.441,0.000,0
39707.097,-46.875,0.977,-45.410,2.441,0.000,0
39707.100,-72.754,-0.977,-46.875,-12.207,0.000,0
39707.104,-54.199,-0.977,-47.852,-8.789,0.000,0
39707.108,-40.527,-0.977,-48.340,-4.883,0.000,0
39707.112,-59.082,-7.812,-58.105,-8.301,0.000,0
39707.116,-71.777,-9.277,-55.664,-2.930,0.000,0
39707.120,-38.574,-7.812,-51.270,-15.625,0.000,0
39707.124,-24.902,-10.742,-55.176,-18.555,0.000,0
39707.128,-58.594,-7.812,-56.152,-14.160,0.000,0
39707.132,-59.570,-7.324,-59.570,-14.160,0.000,0
39707.136,-44.434,-8.789,-57.617,-17.578,0.000,0
39707.139,-40.039,-8.301,-51.270,-15.137,0.000,0
39707.143,-31.250,-10.742,-52.734,-2.930,0.000,0
39707.147,-32.227,-18.066,-56.641,-0.488,0.000,0
39707.151,-45.898,-22.949,-56.641,3.906,0.000,0
39707.155,-62.988,-20.508,-57.129,-4.395,0.000,0
39707.159,-68.848,-13.672,-57.129,-9.766,0.000,0
39707.163,-50.293,-8.789,-52.734,1.465,0.000,0
39707.167,-22.949,-7.324,-57.617,-4.395,0.000,0
39707.171,-28.320,-5.859,-58.105,-5.859,0.000,0
39707.175,-41.016,-2.930,-50.293,1.953,0.000,0
39707.179,-26.367,-5.859,-47.852,-2.441,0.000,0
39707.182,-15.137,-4.395,-50.293,-9.277,0.000,0
39707.186,-38.574,-2.441,-59.082,-8.301,0.000,0
39707.190,-40.527,-3.418,-59.570,-8.789,0.000,0
39707.194,-38.086,-4.395,-55.664,-12.695,0.000,0
39707.198,-44.922,-6.348,-50.781,-14.648,0.000,0
39707.202,-52.246,-9.766,-55.176,-21.973,0.000,0
39707.206,-55.664,-4.883,-60.547,-16.602,0.000,0
39707.210,-24.414,0.977,-55.176,-14.160,0.000,0
39707.214,-24.902,2.930,-55.664,-5.859,0.000,0
39707.218,-55.176,-0.488,-54.688,-11.230,0.000,0
39707.222,-57.129,-5.859,-53.711,-16.602,0.000,0
39707.225,-32.715,-0.977,-53.223,-9.277,0.000,0
39707.229,-28.320,3.906,-55.664,0.488,0.000,0
39707.233,-42.480,3.418,-49.316,-6.348,0.000,0
39707.237,-45.898,-1.953,-43.945,-21.484,0.000,0
39707.241,-25.391,5.859,-45.898,-0.488,0.000,0
39707.245,-38.574,7.812,-50.781,-6.836,0.000,0
39707.249,-64.941,1.953,-54.199,-17.090,0.000,0
39707.253,-54.688,0.000,-54.688,-10.742,0.000,0
39707.257,-25.391,-3.418,-56.152,-18.066,0.000,0
39707.261,-41.504,0.488,-57.617,-5.371,0.000,0
39707.264,-82.031,2.930,-57.129,5.371,0.000,0
39707.268,-44.434,3.418,-59.570,0.488,0.000,0
39707.272,-25.879,3.906,-59.570,-5.371,0.000,0
39707.276,-55.664,3.418,-53.223,-23.438,0.000,0
39707.280,-56.152,0.488,-58.594,-32.227,0.000,0
39707.284,-17.578,-0.977,-60.059,-28.320,0.000,0
39707.288,-28.809,-2.930,-60.059,-12.207,0.000,0
39707.292,-60.059,-3.418,-62.500,-8.301,0.000,0
39707.296,-62.988,-2.930,-57.617,-23.926,0.000,0
39707.300,-38.574,-3.418,-63.477,-13.672,0.000,0
39707.304,-42.480,-3.906,-66.406,-11.230,0.000,0
39707.307,-80.078,-4.883,-58.594,-19.043,0.000,0
39707.311,-61.035,0.977,-58.105,-13.672,0.000,0
39707.315,-40.527,3.906,-60.059,-23.926,0.000,0
39707.319,-41.504,1.465,-59.082,-19.043,0.000,0
39707.323,-46.875,2.930,-61.035,-13.184,0.000,0
39707.327,-39.551,9.766,-59.082,-7.324,0.000,0
39707.331,-30.762,9.766,-53.223,-7.324,0.000,0
39707.335,-46.875,3.906,-49.805,-18.555,0.000,0
39707.339,-62.500,4.395,-44.434,1.465,0.000,0
39707.343,-51.758,5.859,-43.945,6.836,0.000,0
39707.347,-35.156,-0.977,-49.316,-12.695,0.000,0
39707.350,-44.434,-0.977,-47.852,-1.465,0.000,0
39707.354,-70.312,1.953,-41.992,-8.301,0.000,0
39707.358,-36.621,1.465,-48.828,-11.230,0.000,0
39707.362,-22.949,-0.977,-54.688,-9.766,0.000,0
39707.366,-42.969,0.977,-52.246,-8.789,0.000,0
39707.370,-40.527,1.953,-52.246,-9.766,0.000,0
39707.374,-35.645,-5.371,-50.781,-20.996,0.000,0
39707.378,-37.598,-9.766,-49.316,-10.254,0.000,0
39707.382,-42.480,-11.230,-50.293,-5.859,0.000,0
39707.386,-29.785,-14.160,-49.805,-11.719,0.000,0
39707.389,-49.805,-15.625,-53.711,-12.695,0.000,0
39707.393,-51.758,-14.160,-52.734,-25.391,0.000,0
39707.397,-55.664,-13.184,-54.199,-21.484,0.000,0
39707.401,-47.852,-16.113,-55.664,-13.184,0.000,0
39707.405,-13.184,-6.348,-53.711,-14.648,0.000,0
39707.409,-33.691,-1.953,-55.664,-6.348,0.000,0
39707.413,-48.828,-3.418,-49.805,-6.348,0.000,0
39707.417,-27.832,-2.441,-48.340,-16.602,0.000,0
39707.421,-27.344,-5.859,-50.293,-15.625,0.000,0
39707.425,-44.434,-4.395,-47.363,-17.090,0.000,0
39707.429,-54.199,-2.930,-43.457,-1.953,0.000,0
39707.432,-43.945,-3.418,-41.504,-7.324,0.000,0
39707.436,-57.129,-4.395,-52.246,-20.020,0.000,0
39707.440,-70.801,-1.953,-55.664,5.859,0.000,0
39707.444,-72.266,-0.977,-55.176,0.000,0.000,0
39707.448,-52.246,-2.441,-56.152,-19.043,0.000,0
39707.452,-44.434,-4.883,-56.641,-14.160,0.000,0
39707.456,-46.875,-9.277,-60.059,-18.066,0.000,0
39707.460,-29.297,-8.789,-54.199,-21.973,0.000,0
39707.464,-25.879,-4.883,-51.270,-20.508,0.000,0
39707.468,-33.691,-2.930,-52.734,-7.324,0.000,0
39707.472,-47.363,-7.324,-49.805,-11.719,0.000,0
39707.475,-47.363,-8.789,-47.852,-16.602,0.000,1
39707.479,-30.273,-3.906,-48.340,-2.441,0.000,0
39707.483,-34.668,-4.395,-51.758,-8.301,0.000,0
39707.487,-62.988,-7.812,-53.223,-19.531,0.000,0
39707.491,-45.898,-12.207,-55.664,-22.949,0.000,0
39707.495,4.883,-11.230,-55.176,-22.949,0.000,0
39707.499,-16.113,-8.789,-52.246,-17.578,0.000,0
39707.503,-44.922,-10.742,-51.758,-7.812,0.000,0
39707.507,-34.180,-7.324,-54.688,-2.930,0.000,0
39707.511,-43.457,-9.277,-60.059,-26.367,0.000,0
39707.514,-71.777,-10.254,-59.570,-34.180,0.000,0
39707.518,-61.035,-8.301,-61.523,-13.672,0.000,0
39707.522,-40.527,-11.230,-62.500,-13.672,0.000,0
39707.526,-37.109,-11.719,-63.965,-27.344,0.000,0
39707.530,-62.500,-10.254,-61.523,-29.297,0.000,0
39707.534,-62.500,-4.883,-54.199,-26.855,0.000,0
39707.538,-32.227,-2.441,-52.246,-12.207,0.000,0
39707.542,-40.039,-6.836,-48.340,1.953,0.000,0
39707.546,-53.223,-7.324,-48.340,-12.695,0.000,0
39707.550,-57.617,-6.836,-47.363,-28.320,0.000,0
39707.554,-49.805,-7.324,-43.457,-22.461,0.000,0
39707.557,-36.133,-6.836,-54.199,-5.859,0.000,0
39707.561,-62.012,-8.301,-57.617,-8.301,0.000,0
39707.565,-79.102,-10.742,-62.012,-23.438,0.000,0
39707.569,-64.941,-11.719,-61.523,-21.973,0.000,0
39707.573,-61.035,-6.836,-49.805,-24.902,0.000,0
39707.577,-67.383,-3.418,-53.223,-23.926,0.000,0
39707.581,-64.941,-1.953,-60.059,-22.461,0.000,0
39707.585,-37.598,1.465,-59.082,-19.043,0.000,0
39707.589,-24.414,-5.859,-54.688,-26.367,0.000,0
39707.593,-67.871,-14.160,-55.176,-39.062,0.000,0
39707.597,-53.223,-10.254,-56.152,-22.949,0.000,0
39707.600,-28.809,-3.906,-52.734,-15.625,0.000,0
39707.604,-45.410,-2.930,-49.316,-13.184,0.000,0
39707.608,-47.363,-4.883,-45.898,-11.719,0.000,0
39707.612,-40.527,-3.906,-44.434,-21.484,0.000,0
39707.616,-49.316,-2.441,-47.363,-22.461,0.000,0
39707.620,-57.617,-3.418,-49.316,-27.344,0.000,0
39707.624,-61.523,-2.441,-51.758,-33.691,0.000,0
39707.628,-34.668,-5.371,-53.711,-43.945,0.000,0
39707.632,-35.645,-8.789,-52.734,-49.805,0.000,0
39707.636,-48.828,-5.859,-52.246,-26.855,0.000,0
39707.639,-15.625,1.465,-50.781,-17.090,0.000,0
39707.643,-21.973,4.883,-49.805,-20.508,0.000,0
39707.647,-35.645,6.836,-48.828,-22.949,0.000,0
39707.651,-38.574,7.812,-43.457,-33.691,0.000,0
39707.655,-44.434,8.301,-41.992,-8.789,0.000,0
39707.659,-23.438,4.883,-43.945,-1.465,0.000,0
39707.663,-25.391,1.953,-41.016,-11.230,0.000,0
39707.667,-62.500,0.000,-43.945,-18.555,0.000,0
39707.671,-69.336,2.441,-46.875,-23.438,0.000,0
39707.675,-31.738,3.418,-43.457,-18.066,0.000,0
39707.679,-51.758,-1.465,-41.504,-22.461,0.000,0
39707.682,-81.055,-1.465,-44.434,-16.602,0.000,0
39707.686,-44.922,4.395,-42.480,-26.855,0.000,0
39707.690,-44.434,8.301,-36.133,-24.414,0.000,0
39707.694,-62.012,8.301,-41.016,-5.859,0.000,0
39707.698,-49.316,9.277,-47.852,-14.160,0.000,0
39707.702,-41.016,8.789,-44.434,-15.625,0.000,0
39707.706,-43.457,4.395,-44.434,-21.484,0.000,0
39707.710,-37.598,4.883,-44.922,-19.531,0.000,0
39707.714,-36.621,12.695,-40.039,-9.766,0.000,0
39707.718,-43.945,17.578,-38.086,-4.395,0.000,0
39707.722,-23.438,13.184,-44.922,6.348,0.000,0
39707.725,-42.480,6.348,-43.945,3.906,0.000,0
39707.729,-43.457,3.418,-41.504,1.953,0.000,0
39707.733,-5.859,2.930,-43.945,4.395,0.000,0
39707.737,-21.973,3.418,-42.969,-4.883,0.000,0
39707.741,-29.785,0.488,-42.480,0.000,0.000,0
39707.745,-24.902,-2.441,-43.945,0.977,0.000,0
39707.749,-45.898,-4.395,-50.293,-9.766,0.000,0
39707.753,-69.824,-9.766,-50.293,-21.973,0.000,0
39707.757,-47.852,-12.695,-50.781,-18.066,0.000,0
39707.761,-30.273,-5.371,-52.246,-11.230,0.000,0
39707.764,-57.617,-4.883,-46.387,-20.508,0.000,0
39707.768,-70.801,-8.789,-46.387,-21.484,0.000,0
39707.772,-57.129,-2.930,-45.898,-13.672,0.000,0
39707.776,-42.480,1.465,-43.457,-9.277,0.000,0
39707.780,-37.109,1.465,-41.016,-4.883,0.000,0
39707.784,-64.941,-2.930,-37.598,0.488,0.000,0
39707.788,-75.195,-10.254,-41.992,-20.508,0.000,0
39707.792,-25.391,-4.395,-46.387,-13.672,0.000,0
39707.796,-19.531,5.371,-44.922,-5.859,0.000,0
39707.800,-43.457,3.418,-50.293,-20.508,0.000,0
39707.804,-50.293,0.977,-50.293,-21.484,0.000,0
39707.807,-47.363,4.883,-45.410,-20.020,0.000,0
39707.811,-51.758,4.395,-47.363,-12.207,0.000,0
39707.815,-67.383,7.812,-51.270,0.000,0.000,0
39707.819,-50.293,9.766,-48.340,3.906,0.000,0
39707.823,-18.555,9.766,-43.945,-6.348,0.000,0
39707.827,-31.250,12.207,-40.527,-13.672,0.000,0
39707.831,-36.133,11.719,-38.574,-6.836,0.000,0
39707.835,-24.902,7.324,-45.410,-10.742,0.000,0
39707.839,-32.227,0.977,-42.969,-13.184,0.000,0
39707.843,-43.945,0.488,-41.016,-6.836,0.000,0
39707.847,-52.246,2.930,-42.480,-8.301,0.000,0
39707.850,-47.363,-0.488,-45.410,-10.742,0.000,0
39707.854,-62.988,-5.859,-49.805,-3.418,0.000,0
39707.858,-76.660,-7.324,-49.316,-1.465,0.000,0
39707.862,-57.129,-3.418,-42.969,-7.812,0.000,0
39707.866,-43.945,-0.488,-39.551,-5.859,0.000,0
39707.870,-56.152,-5.859,-45.898,-12.695,0.000,0
39707.874,-62.988,-9.766,-51.758,-18.555,0.000,0
39707.878,-54.199,-5.859,-52.246,-26.367,0.000,0
39707.882,-51.758,-6.836,-54.688,-34.668,0.000,0
39707.886,-61.035,-8.789,-52.246,-36.133,0.000,0
39707.889,-64.453,-9.277,-47.363,-34.180,0.000,0
39707.893,-61.523,-8.301,-48.340,-19.043,0.000,0
39707.897,-41.992,-10.254,-49.316,-10.742,0.000,0
39707.901,-57.129,-3.906,-46.875,-21.973,0.000,0
39707.905,-93.262,-1.465,-49.805,-20.020,0.000,0
39707.909,-49.316,-4.395,-51.758,-18.555,0.000,0
39707.913,-35.645,-2.930,-46.387,-27.344,0.000,0
39707.917,-65.430,0.000,-43.945,-18.555,0.000,0
39707.921,-55.664,3.418,-39.062,-8.301,0.000,0
39707.925,-54.199,-2.441,-38.574,-30.762,0.000,0
39707.929,-75.195,-7.324,-48.828,-36.621,0.000,0
39707.932,-59.082,-4.395,-51.758,-21.973,0.000,0
39707.936,-46.875,-2.441,-48.340,-16.602,0.000,0
39707.940,-49.316,-4.883,-49.316,-18.555,0.000,0
39707.944,-45.410,-1.953,-48.340,-33.203,0.000,0
39707.948,-61.035,4.883,-48.340,-30.273,0.000,0
39707.952,-73.242,6.836,-45.898,-24.902,0.000,0
39707.956,-49.316,2.930,-49.316,-15.625,0.000,0
39707.960,-38.086,6.836,-50.293,-16.113,0.000,0
39707.964,-62.988,9.277,-41.016,-23.926,0.000,0
39707.968,-52.246,8.301,-37.598,-11.719,0.000,0
39707.972,-34.180,7.324,-38.086,-2.441,0.000,0
39707.975,-48.340,6.836,-38.574,-11.230,0.000,0
39707.979,-61.035,9.277,-38.086,-18.555,0.000,0
39707.983,-54.688,6.348,-36.621,-30.273,0.000,0
39707.987,-48.828,10.742,-39.062,-21.973,0.000,0
39707.991,-24.902,15.625,-41.504,-7.812,0.000,0
39707.995,-43.457,8.789,-42.969,-5.371,0.000,0
39707.999,-61.523,9.277,-41.504,-7.812,0.000,0
39708.003,-51.758,11.230,-41.992,-18.066,0.000,0
39708.007,-36.621,8.789,-41.992,-14.160,0.000,0
39708.011,-45.898,12.695,-36.133,-1.953,0.000,0
39708.014,-20.020,14.648,-37.598,-0.488,0.000,0
39708.018,-16.113,6.348,-42.480,-2.930,0.000,0
39708.022,-35.645,1.465,-41.016,-16.602,0.000,0
39708.026,-23.438,6.836,-39.062,-15.137,0.000,0
39708.030,-20.996,11.719,-40.039,-2.930,0.000,0
39708.034,-24.414,10.742,-35.645,-0.488,0.000,0
39708.038,-24.414,8.301,-34.180,-3.906,0.000,0
39708.042,-25.879,11.230,-30.273,-6.836,0.000,0
39708.046,-29.297,16.113,-33.691,-6.348,0.000,0
39708.050,-35.645,17.090,-47.852,-16.602,0.000,0
39708.054,-68.848,15.625,-43.945,-12.207,0.000,1
39708.057,-52.246,14.648,-36.133,4.883,0.000,0
39708.061,-29.297,15.137,-39.062,-5.371,0.000,0
39708.065,-51.270,15.137,-40.527,-9.766,0.000,0
39708.069,-35.645,13.672,-36.621,-13.184,0.000,0
39708.073,-18.555,10.742,-39.062,-21.973,0.000,0
39708.077,-35.645,12.207,-44.922,-22.949,0.000,0
39708.081,-65.918,12.207,-42.480,-21.973,0.000,0
39708.085,-47.363,11.719,-35.156,-20.996,0.000,0
39708.089,-33.203,9.766,-35.645,-18.555,0.000,0
39708.093,-39.551,6.836,-39.062,-6.836,0.000,0
39708.097,-61.523,6.836,-40.039,-1.953,0.000,0
39708.100,-66.895,10.254,-41.016,-11.230,0.000,0
39708.104,-31.738,13.184,-38.574,-4.395,0.000,0
39708.108,-22.949,6.348,-40.527,-6.348,0.000,0
39708.112,-36.133,6.836,-43.457,-11.230,0.000,0
39708.116,-33.691,4.883,-45.898,-6.836,0.000,0
39708.120,-34.668,-6.836,-50.293,-15.625,0.000,0
39708.124,-36.621,-3.906,-50.781,-14.648,0.000,0
39708.128,-33.691,1.953,-47.363,-5.859,0.000,0
39708.132,-30.273,2.930,-46.387,4.395,0.000,0
39708.136,-39.551,4.883,-46.387,-1.953,0.000,0
39708.139,-57.617,3.906,-44.922,-22.461,0.000,0
39708.143,-60.059,-1.465,-44.434,-16.602,0.000,0
39708.147,-26.855,0.977,-44.922,-2.930,0.000,0
39708.151,-23.438,8.301,-41.992,-3.418,0.000,0
39708.155,-45.898,5.371,-41.992,-18.555,0.000,0
39708.159,-41.016,1.465,-45.898,-21.973,0.000,0
39708.163,-32.715,4.883,-39.062,-18.555,0.000,0
39708.167,-28.809,7.812,-37.598,-20.996,0.000,0
39708.171,-39.551,8.301,-46.387,-6.348,0.000,0
39708.175,-53.711,9.277,-47.852,-8.301,0.000,0
39708.179,-43.945,13.184,-43.457,-10.742,0.000,0
39708.182,-42.480,9.766,-41.504,-4.395,0.000,0
39708.186,-72.266,0.977,-46.387,-13.672,0.000,0
39708.190,-46.387,-3.418,-49.316,-18.555,0.000,0
39708.194,-20.508,-4.883,-51.758,-9.277,0.000,0
39708.198,-42.969,-5.859,-51.270,-15.625,0.000,0
39708.202,-47.852,-4.883,-56.641,-24.414,0.000,0
39708.206,-48.828,1.465,-56.641,-19.531,0.000,0
39708.210,-42.480,7.324,-49.316,-14.160,0.000,0
39708.214,-39.551,8.789,-47.363,-15.625,0.000,0
39708.218,-48.340,5.371,-41.016,-24.414,0.000,0
39708.222,-52.246,6.836,-40.039,-11.719,0.000,0
39708.225,-39.551,7.324,-45.898,-7.812,0.000,0
39708.229,-44.434,3.418,-48.828,-14.160,0.000,0
39708.233,-73.242,3.906,-48.828,-3.418,0.000,0
39708.237,-56.641,3.906,-48.340,-3.418,0.000,0
39708.241,-17.090,3.906,-48.340,-0.488,0.000,0
39708.245,-36.133,6.836,-42.969,8.301,0.000,0
39708.249,-52.734,5.371,-36.621,3.418,0.000,0
39708.253,-21.973,4.883,-42.480,-4.395,0.000,0
39708.257,-13.672,5.371,-47.852,-23.438,0.000,0
39708.261,-46.387,8.789,-49.316,-20.996,0.000,0
39708.264,-57.617,11.230,-51.758,-16.113,0.000,0
39708.268,-42.969,12.695,-47.363,-16.113,0.000,0
39708.272,-38.086,14.648,-44.922,8.301,0.000,0
39708.276,-44.922,10.254,-45.410,-10.742,0.000,0
39708.280,-62.500,9.277,-51.758,-23.438,0.000,0
39708.284,-62.500,12.695,-53.223,-4.395,0.000,0
39708.288,-54.688,15.625,-48.340,1.465,0.000,0
39708.292,-66.895,11.719,-47.363,-1.953,0.000,0
39708.296,-63.965,8.301,-43.457,-17.090,0.000,0
39708.300,-32.715,12.207,-49.316,-16.602,0.000,0
39708.304,-43.945,13.672,-52.734,-2.441,0.000,0
39708.307,-54.199,7.812,-48.828,-4.883,0.000,0
39708.311,-42.480,11.230,-48.340,-2.930,0.000,0
39708.315,-27.832,16.602,-45.410,-19.043,0.000,0
39708.319,-45.898,12.695,-48.340,-19.043,0.000,0
39708.323,-66.406,9.277,-51.270,0.977,0.000,0
39708.327,-63.477,9.277,-51.270,-4.395,0.000,0
39708.331,-55.664,7.812,-57.129,-9.277,0.000,0
39708.335,-58.594,7.812,-52.734,-22.949,0.000,0
39708.339,-78.613,5.859,-45.410,-26.367,0.000,0
39708.343,-47.852,2.930,-51.758,-13.184,0.000,0
39708.347,-32.227,8.301,-53.223,-18.066,0.000,0
39708.350,-57.129,8.301,-52.246,-5.371,0.000,0
39708.354,-60.547,0.488,-52.734,-2.930,0.000,0
39708.358,-50.781,-1.953,-50.293,-9.766,0.000,0
39708.362,-50.781,-0.977,-47.852,-1.465,0.000,0
39708.366,-50.293,0.977,-43.457,-4.883,0.000,0
39708.370,-52.246,11.719,-40.527,0.977,0.000,0
39708.374,-50.293,12.207,-42.969,2.930,0.000,0
39708.378,-30.762,7.324,-42.480,-7.324,0.000,0
39708.382,-44.434,12.695,-36.133,0.000,0.000,0
39708.386,-42.969,15.625,-29.785,6.836,0.000,0
39708.389,-14.648,9.766,-37.598,5.371,0.000,0
39708.393,-23.926,4.883,-39.551,0.977,0.000,0
39708.397,-32.715,4.395,-37.109,-3.906,0.000,0
39708.401,-41.992,-0.488,-41.504,5.859,0.000,0
39708.405,-26.855,-1.465,-43.945,1.465,0.000,0
39708.409,-37.109,1.953,-41.016,2.441,0.000,0
39708.413,-44.922,-2.441,-39.062,3.418,0.000,0
39708.417,-30.273,0.488,-39.551,6.348,0.000,0
39708.421,-44.434,0.977,-39.062,19.043,0.000,0
39708.425,-47.852,-5.859,-45.410,9.766,0.000,0
39708.429,-48.828,-11.230,-53.223,14.160,0.000,0
39708.432,-21.484,-9.766,-48.828,5.371,0.000,0
39708.436,-20.020,-2.930,-42.480,-17.090,0.000,0
39708.440,-42.969,0.977,-35.156,-3.418,0.000,0
39708.444,-43.457,-3.906,-34.180,9.277,0.000,0
39708.448,-31.738,-7.812,-39.062,1.465,0.000,0
39708.452,-32.227,-4.883,-43.945,-14.160,0.000,0
39708.456,-45.898,-2.930,-47.363,-30.762,0.000,0
39708.460,-43.945,-2.930,-47.852,-29.297,0.000,0
39708.464,-41.016,-1.953,-49.316,-17.578,0.000,0
39708.468,-52.246,-4.883,-51.758,-12.695,0.000,0
39708.472,-61.523,-3.906,-47.363,-1.953,0.000,0
39708.475,-35.156,-2.930,-46.875,-4.395,0.000,0
39708.479,-0.488,-1.465,-49.805,-14.648,0.000,0
39708.483,-21.973,0.977,-48.828,-3.418,0.000,0
39708.487,-25.391,-4.883,-51.758,9.277,0.000,0
39708.491,-22.949,-8.789,-56.641,3.906,0.000,0
39708.495,-31.250,-5.859,-52.246,-6.836,0.000,0
39708.499,-37.598,-0.977,-46.875,4.883,0.000,0
39708.503,-35.645,0.488,-43.457,11.230,0.000,0
39708.507,-21.484,-2.441,-42.969,-3.906,0.000,0
39708.511,-46.387,-5.859,-44.434,-4.883,0.000,0
39708.514,-70.312,-9.277,-46.875,-17.090,0.000,0
39708.518,-61.523,-4.395,-46.387,-16.602,0.000,0
39708.522,-38.574,1.465,-44.922,2.441,0.000,0
39708.526,-12.695,-2.441,-47.852,6.348,0.000,0
39708.530,-37.109,-9.766,-45.898,-1.953,0.000,0
39708.534,-56.152,-10.254,-41.992,-6.836,0.000,0
39708.538,-33.691,-9.277,-45.410,7.812,0.000,0
39708.542,-24.414,-9.766,-44.922,17.578,0.000,0
39708.546,-39.551,-4.883,-40.527,14.160,0.000,0
39708.550,-44.922,-2.441,-42.480,10.254,0.000,0
39708.554,-33.203,-9.277,-43.945,13.672,0.000,0
39708.557,-39.551,-14.160,-41.992,16.113,0.000,0
39708.561,-76.172,-15.625,-44.434,5.371,0.000,0
39708.565,-63.965,-13.672,-47.363,0.977,0.000,0
39708.569,-26.367,-10.254,-50.781,3.906,0.000,0
39708.573,-35.645,-11.719,-48.828,1.953,0.000,0
39708.577,-57.129,-7.812,-49.316,7.324,0.000,0
39708.581,-51.270,-1.953,-49.316,12.695,0.000,0
39708.585,-36.621,-4.883,-43.457,7.812,0.000,1
39708.589,-58.594,-2.930,-45.410,7.324,0.000,0
39708.593,-69.824,-4.883,-49.316,-6.348,0.000,0
39708.597,-60.059,-6.348,-46.387,-9.277,0.000,0
39708.600,-52.734,-8.301,-46.387,-2.441,0.000,0
39708.604,-49.316,-12.207,-46.875,-2.930,0.000,0
39708.608,-60.547,-5.371,-42.969,-1.953,0.000,0
39708.612,-55.664,-2.930,-43.457,-20.020,0.000,0
39708.616,-21.484,-4.395,-45.898,-27.344,0.000,0
39708.620,-37.598,-2.441,-46.387,-10.254,0.000,0
39708.624,-75.684,-1.953,-45.898,-5.371,0.000,0
39708.628,-43.945,-5.859,-49.805,-10.742,0.000,0
39708.632,-32.715,-9.277,-48.828,-34.668,0.000,0
39708.636,-57.617,-9.277,-50.781,-41.504,0.000,0
39708.639,-50.781,-7.812,-54.199,-25.879,0.000,0
39708.643,-35.645,-3.418,-46.387,-29.785,0.000,0
39708.647,-47.852,-0.977,-45.898,-29.297,0.000,0
39708.651,-61.035,-2.441,-45.898,-30.273,0.000,0
39708.655,-58.105,-3.906,-43.945,-26.855,0.000,0
39708.659,-41.992,-6.348,-46.387,-26.367,0.000,0
39708.663,-28.320,-10.254,-50.293,-29.297,0.000,0
39708.667,-62.988,-6.348,-49.805,-23.438,0.000,0
39708.671,-64.453,-1.465,-43.457,-32.715,0.000,0
39708.675,-33.691,-1.465,-45.898,-44.922,0.000,0
39708.679,-33.691,-3.418,-51.270,-21.973,0.000,0
39708.682,-44.434,-6.348,-54.688,-14.160,0.000,0
39708.686,-48.340,0.488,-49.805,-18.555,0.000,0
39708.690,-45.898,4.883,-44.922,-27.832,0.000,0
39708.694,-55.176,4.883,-43.457,-37.598,0.000,0
39708.698,-61.035,1.465,-46.387,-20.508,0.000,0
39708.702,-47.363,-5.859,-50.781,-4.395,0.000,0
39708.706,-21.484,-2.930,-47.363,-7.324,0.000,0
39708.710,-40.039,-0.977,-45.898,-33.203,0.000,0
39708.714,-70.312,-5.859,-48.340,-30.273,0.000,0
39708.718,-37.109,-8.301,-49.805,-5.859,0.000,0
39708.722,-27.832,-10.254,-44.434,-3.418,0.000,0
39708.725,-46.387,-11.719,-40.039,-4.395,0.000,0
39708.729,-41.504,-9.277,-39.551,-11.719,0.000,0
39708.733,-20.020,-2.930,-36.621,-18.066,0.000,0
39708.737,-35.645,-1.465,-41.992,-13.184,0.000,0
39708.741,-50.293,-1.465,-48.828,-7.812,0.000,0
39708.745,-39.551,0.488,-51.270,-11.719,0.000,0
39708.749,-58.594,0.000,-53.223,-19.043,0.000,0
39708.753,-60.547,-1.465,-47.852,-20.996,0.000,0
39708.757,-64.941,0.977,-45.898,-17.578,0.000,0
39708.761,-54.688,0.000,-46.387,-12.207,0.000,0
39708.764,-17.578,-7.324,-42.480,9.766,0.000,0
39708.768,-32.227,-12.207,-42.969,5.371,0.000,0
39708.772,-35.156,-10.254,-44.922,-15.137,0.000,0
39708.776,-16.113,-5.859,-41.016,-3.418,0.000,0
39708.780,-18.555,-5.859,-43.457,5.371,0.000,0
39708.784,-24.902,-5.371,-49.805,0.977,0.000,0
39708.788,-45.410,-8.301,-47.363,-2.441,0.000,0
39708.792,-51.758,-7.812,-44.922,-7.812,0.000,0
39708.796,-50.293,-6.348,-49.316,-8.789,0.000,0
39708.800,-49.805,-7.812,-49.805,-5.859,0.000,0
39708.804,-36.621,-0.977,-45.410,1.953,0.000,0
39708.807,-5.859,3.418,-40.527,18.555,0.000,0
39708.811,-21.973,1.465,-37.109,11.230,0.000,0
39708.815,-51.758,-3.418,-43.945,7.324,0.000,0
39708.819,-22.949,0.000,-41.016,11.719,0.000,0
39708.823,-9.766,-4.395,-41.992,-1.465,0.000,0
39708.827,-45.898,-14.648,-51.270,-11.719,0.000,0
39708.831,-59.082,-15.137,-49.805,-5.859,0.000,0
39708.835,-44.434,-13.184,-51.270,-4.883,0.000,0
39708.839,-50.293,-13.184,-50.781,-12.695,0.000,0
39708.843,-57.129,-14.160,-53.223,-2.441,0.000,0
39708.847,-58.594,-7.812,-48.828,8.789,0.000,0
39708.850,-49.316,-4.395,-41.992,-6.348,0.000,0
39708.854,-30.273,-3.906,-42.480,-4.883,0.000,0
39708.858,-35.645,-2.930,-44.434,12.695,0.000,0
39708.862,-36.621,-2.930,-43.457,-2.441,0.000,0
39708.866,-39.551,-7.812,-41.504,-17.090,0.000,0
39708.870,-43.945,-10.742,-41.016,-17.578,0.000,0
39708.874,-53.711,-6.348,-43.945,-15.625,0.000,0
39708.878,-47.363,-6.836,-47.363,-10.254,0.000,0
39708.882,-42.480,-7.812,-49.805,-11.719,0.000,0
39708.886,-44.434,-8.789,-55.664,-2.930,0.000,0
39708.889,-52.734,-9.766,-54.199,-13.184,0.000,0
39708.893,-57.617,-3.418,-50.293,-18.555,0.000,0
39708.897,-36.133,-3.418,-49.805,-10.254,0.000,0
39708.901,-31.250,-5.859,-47.363,-15.137,0.000,0
39708.905,-57.129,-4.883,-46.875,-16.602,0.000,0
39708.909,-60.059,-6.836,-48.340,-20.020,0.000,0
39708.913,-28.809,-7.812,-50.293,-20.508,0.000,0
39708.917,-32.227,-8.301,-52.246,-6.836,0.000,0
39708.921,-54.199,-7.812,-49.316,0.000,0.000,0
39708.925,-49.316,-9.277,-47.363,-12.695,0.000,0
39708.929,-44.434,-11.719,-47.363,-29.785,0.000,0
39708.932,-65.918,-13.672,-53.223,-29.785,0.000,0
39708.936,-61.523,-10.254,-52.734,-19.043,0.000,0
39708.940,-44.922,-5.859,-51.758,-10.254,0.000,0
39708.944,-41.016,-5.371,-52.734,2.441,0.000,0
39708.948,-41.992,-12.207,-49.316,-17.090,0.000,0
39708.952,-69.824,-17.578,-46.387,-25.879,0.000,0
39708.956,-60.059,-13.672,-44.922,-0.977,0.000,0
39708.960,-21.484,-9.277,-41.992,4.395,0.000,0
39708.964,-33.691,-5.371,-37.109,8.301,0.000,0
39708.968,-48.828,-5.859,-41.016,0.000,0.000,0
39708.972,-33.203,-8.301,-46.875,-17.090,0.000,0
39708.975,-20.020,-6.836,-44.922,-18.555,0.000,0
39708.979,-46.387,-7.812,-41.504,-15.137,0.000,0
39708.983,-63.965,-7.324,-44.434,-7.812,0.000,0
39708.987,-44.922,-5.859,-43.457,-16.602,0.000,0
39708.991,-48.828,-6.836,-43.945,0.488,0.000,0
39708.995,-65.430,-7.324,-48.828,1.953,0.000,0
39708.999,-46.875,-7.324,-47.852,-6.836,0.000,0
39709.003,-35.156,-4.883,-44.922,-7.812,0.000,0
39709.007,-52.734,-8.301,-44.434,-18.555,0.000,0
39709.011,-58.105,-13.672,-44.922,-1.953,0.000,0
39709.014,-48.828,-13.184,-49.316,2.930,0.000,0
39709.018,-42.480,-12.207,-50.293,1.465,0.000,0
39709.022,-43.457,-10.742,-44.922,-4.883,0.000,0
39709.026,-56.152,-8.789,-42.969,-17.090,0.000,0
39709.030,-62.988,-7.812,-46.387,7.324,0.000,0
39709.034,-38.086,-0.977,-34.668,10.742,0.000,0
39709.038,-26.855,-2.441,-32.715,-4.395,0.000,0
39709.042,-61.035,-7.324,-41.504,-6.836,0.000,0
39709.046,-28.809,-8.789,-39.551,-23.926,0.000,0
39709.050,-31.738,-8.301,-40.039,-22.461,0.000,0
39709.054,-55.176,-9.277,-44.434,-19.043,0.000,0
39709.057,-36.133,-11.230,-49.805,-13.672,0.000,0
39709.061,-40.527,-11.719,-48.828,-4.883,0.000,0
39709.065,-57.129,-7.812,-45.898,-9.766,0.000,0
39709.069,-60.547,-1.465,-47.852,-10.254,0.000,0
39709.073,-56.152,-0.977,-50.293,-19.043,0.000,0
39709.077,-56.152,-5.371,-48.340,-28.320,0.000,0
39709.081,-43.457,-0.977,-44.922,-12.207,0.000,0
39709.085,-51.270,-2.441,-43.945,-6.348,0.000,0
39709.089,-47.363,-5.371,-43.457,-4.883,0.000,0
39709.093,-10.742,-2.930,-42.480,5.859,0.000,0
39709.097,-32.227,-9.766,-47.852,-9.277,0.000,0
39709.100,-48.340,-11.719,-46.387,-15.137,0.000,0
39709.104,-30.273,-8.301,-38.086,-12.695,0.000,0
39709.108,-27.344,-5.859,-41.016,-13.672,0.000,0
39709.112,-23.438,-3.906,-41.016,-5.371,0.000,0
39709.116,-27.344,-0.977,-38.086,2.441,0.000,0
39709.120,-28.809,-1.465,-41.504,6.836,0.000,0
39709.124,-39.551,-2.441,-41.992,-3.418,0.000,0
39709.128,-58.105,0.000,-41.992,-11.719,0.000,0
39709.132,-68.848,-1.465,-41.504,-2.930,0.000,0
39709.136,-24.902,-2.441,-40.527,-4.883,0.000,0
39709.139,-15.625,0.000,-40.039,1.953,0.000,0
39709.143,-41.992,0.000,-38.574,6.348,0.000,0
39709.147,-30.273,2.441,-38.574,-6.836,0.000,0
39709.151,-29.297,2.441,-44.922,1.953,0.000,0
39709.155,-38.086,6.348,-45.410,11.230,0.000,0
39709.159,-32.227,13.184,-40.527,0.977,0.000,0
39709.163,-15.137,4.395,-42.480,-17.090,0.000,0
39709.167,-30.273,5.859,-41.016,-15.137,0.000,0
39709.171,-43.457,7.812,-43.457,3.906,0.000,0
39709.175,-41.992,0.000,-46.875,-4.395,0.000,0
39709.179,-27.832,1.465,-42.480,-10.742,0.000,0
39709.182,-20.508,-1.465,-43.457,-8.301,0.000,0
39709.186,-24.902,-4.883,-42.480,-17.578,0.000,0
39709.190,-26.855,-3.418,-38.086,-7.324,0.000,0
39709.194,-45.898,0.488,-36.621,7.812,0.000,0
39709.198,-43.945,-1.465,-44.434,-8.301,0.000,0
39709.202,-51.758,-5.371,-44.922,-19.531,0.000,0
39709.206,-70.312,-4.395,-40.039,-14.648,0.000,0
39709.210,-59.570,-5.371,-43.457,-9.766,0.000,0
39709.214,-53.711,-7.812,-43.457,-19.043,0.000,0
39709.218,-70.801,-12.207,-46.875,-7.812,0.000,0
39709.222,-71.289,-12.207,-44.922,6.348,0.000,0
39709.225,-38.574,-10.742,-46.387,0.488,0.000,0
39709.229,-41.992,-7.324,-45.898,2.930,0.000,0
39709.233,-44.434,-7.324,-45.410,1.465,0.000,0
39709.237,-38.574,-9.277,-42.969,2.441,0.000,0
39709.241,-34.668,-4.883,-38.086,-0.488,0.000,0
39709.245,-28.809,-1.465,-40.039,-4.883,0.000,1
39709.249,-27.832,3.418,-40.039,-4.395,0.000,0
39709.253,-23.438,8.301,-39.062,-11.230,0.000,0
39709.257,-20.508,7.812,-39.062,-12.207,0.000,0
39709.261,-26.367,0.977,-44.922,-6.348,0.000,0
39709.264,-26.855,-5.371,-42.969,-18.555,0.000,0
39709.268,-30.762,-4.395,-44.922,-19.531,0.000,0
39709.272,-44.434,-0.488,-47.852,-10.742,0.000,0
39709.276,-38.574,-2.930,-47.363,-6.348,0.000,0
39709.280,-55.176,-4.883,-48.828,-12.207,0.000,0
39709.284,-53.223,-4.883,-47.852,-22.461,0.000,0
39709.288,-33.203,-11.230,-47.363,-21.484,0.000,0
39709.292,-25.391,-14.648,-48.828,-22.461,0.000,0
39709.296,-28.320,-8.789,-46.875,1.953,0.000,0
39709.300,-21.484,-4.883,-38.574,4.395,0.000,0
39709.304,-18.555,-1.953,-40.039,-14.648,0.000,0
39709.307,-42.969,-2.441,-44.922,0.488,0.000,0
39709.311,-56.641,-6.348,-48.828,14.160,0.000,0
39709.315,-23.926,-2.441,-50.293,6.348,0.000,0
39709.319,-12.695,-2.930,-46.875,-2.441,0.000,0
39709.323,-26.367,-4.395,-39.062,-10.742,0.000,0
39709.327,-33.691,0.977,-37.598,-3.906,0.000,0
39709.331,-24.414,-0.977,-44.922,-5.859,0.000,0
39709.335,-28.809,0.000,-40.039,4.395,0.000,0
39709.339,-37.109,-0.977,-31.738,8.301,0.000,0
39709.343,-45.898,-1.465,-31.738,-8.301,0.000,0
39709.347,-58.105,-1.465,-41.016,-2.930,0.000,0
39709.350,-32.715,-5.371,-46.875,-2.930,0.000,0
39709.354,-36.621,-5.859,-43.945,-8.789,0.000,0
39709.358,-62.012,-1.465,-41.016,0.977,0.000,0
39709.362,-40.527,-5.859,-51.758,-17.578,0.000,0
39709.366,-37.109,-9.766,-55.664,-22.461,0.000,0
39709.370,-77.637,-8.789,-49.316,-2.930,0.000,0
39709.374,-54.199,-6.836,-47.363,0.000,0.000,0
39709.378,-21.973,-6.348,-46.387,-8.301,0.000,0
39709.382,-48.828,-11.719,-43.945,-21.484,0.000,0
39709.386,-53.711,-8.301,-41.504,-3.906,0.000,0
39709.389,-23.438,-3.906,-46.387,-4.395,0.000,0
39709.393,-23.438,-5.371,-42.969,-22.949,0.000,0
39709.397,-20.996,-7.812,-38.574,-3.906,0.000,0
39709.401,-14.648,-10.254,-45.898,-9.277,0.000,0
39709.405,-30.762,-1.465,-46.875,-12.207,0.000,0
39709.409,-36.621,-1.465,-47.363,-4.395,0.000,0
39709.413,-56.641,-8.301,-50.293,-3.418,0.000,0
39709.417,-47.852,-5.371,-49.316,-8.301,0.000,0
39709.421,-19.043,-4.395,-46.875,-13.672,0.000,0
39709.425,-27.832,-4.395,-43.457,-8.301,0.000,0
39709.429,-39.062,-5.371,-43.945,-5.371,0.000,0
39709.432,-41.992,-10.742,-43.945,-2.930,0.000,0
39709.436,-34.180,-15.625,-47.852,-3.418,0.000,0
39709.440,-36.133,-15.137,-45.898,-2.441,0.000,0
39709.444,-30.762,-9.277,-41.992,6.836,0.000,0
39709.448,-28.320,-2.930,-42.969,4.395,0.000,0
39709.452,-41.992,-5.371,-42.969,3.418,0.000,0
39709.456,-50.781,-12.207,-41.992,2.441,0.000,0
39709.460,-69.336,-12.207,-45.898,-5.371,0.000,0
39709.464,-37.109,-10.742,-51.758,-7.324,0.000,0
39709.468,-6.348,-6.836,-48.828,-10.742,0.000,0
39709.472,-40.039,-7.812,-48.828,-15.137,0.000,0
39709.475,-49.316,-7.812,-47.363,-13.184,0.000,0
39709.479,-33.203,-7.324,-45.898,-21.973,0.000,0
39709.483,-39.062,-6.836,-47.363,-17.090,0.000,0
39709.487,-47.363,-4.395,-44.434,0.000,0.000,0
39709.491,-26.855,-7.324,-42.969,-4.883,0.000,0
39709.495,-38.086,-9.766,-41.992,-11.230,0.000,0
39709.499,-50.781,-5.371,-40.039,-21.484,0.000,0
39709.503,-43.457,-2.930,-39.551,-29.785,0.000,0
39709.507,-40.039,-0.488,-40.039,-20.020,0.000,0
39709.511,-24.902,-2.930,-46.387,-12.695,0.000,0
39709.514,-27.344,-3.906,-49.805,-3.906,0.000,0
39709.518,-20.996,2.441,-40.527,-8.789,0.000,0
39709.522,-43.945,1.465,-45.410,1.465,0.000,0
39709.526,-43.945,-2.930,-54.199,2.441,0.000,0
39709.530,-32.715,0.000,-50.293,-8.789,0.000,0
39709.534,-54.688,2.441,-42.480,-5.371,0.000,0
39709.538,-35.156,0.488,-40.039,-7.812,0.000,0
39709.542,-23.438,-2.930,-43.457,-15.137,0.000,0
39709.546,-59.082,-5.371,-48.340,-14.648,0.000,0
39709.550,-61.523,-8.301,-51.270,1.953,0.000,0
39709.554,-19.531,-9.277,-44.434,-3.418,0.000,0
39709.557,-20.996,-7.324,-39.551,-14.648,0.000,0
39709.561,-38.574,-8.301,-38.086,-0.977,0.000,0
39709.565,-38.574,-7.324,-41.016,-6.836,0.000,0
39709.569,-39.551,-5.371,-41.016,-10.254,0.000,0
39709.573,-37.598,-10.254,-44.922,-7.324,0.000,0
39709.577,-49.316,-11.719,-46.387,-15.625,0.000,0
39709.581,-60.059,-5.371,-45.410,-8.789,0.000,0
39709.585,-26.367,-2.441,-46.387,5.371,0.000,0
39709.589,-9.277,-1.465,-41.992,10.742,0.000,0
39709.593,-48.828,-1.953,-39.062,4.883,0.000,0
39709.597,-61.035,-7.324,-36.621,-4.395,0.000,0
39709.600,-28.320,-9.766,-42.480,1.465,0.000,0
39709.604,-26.367,-11.719,-46.387,0.488,0.000,0
39709.608,-56.641,-15.137,-47.363,-15.625,0.000,0
39709.612,-63.965,-18.066,-53.223,-8.789,0.000,0
39709.616,-53.711,-20.508,-52.246,-20.020,0.000,0
39709.620,-64.453,-20.996,-48.340,-20.508,0.000,0
39709.624,-66.895,-13.184,-44.434,-5.371,0.000,0
39709.628,-57.617,-8.301,-43.945,-10.742,0.000,0
39709.632,-48.828,-7.812,-42.480,-14.160,0.000,0
39709.636,-65.430,-12.207,-41.016,-34.668,0.000,0
39709.639,-79.590,-10.742,-44.434,-32.715,0.000,0
39709.643,-62.500,0.977,-45.410,-2.930,0.000,0
39709.647,-42.969,2.930,-45.898,-3.418,0.000,0
39709.651,-44.922,3.906,-46.387,2.930,0.000,0
39709.655,-73.730,-3.418,-46.387,-8.789,0.000,0
39709.659,-43.457,-3.906,-41.504,-15.137,0.000,0
39709.663,-37.598,-0.488,-44.922,-2.930,0.000,0
39709.667,-62.012,-6.836,-47.363,-7.324,0.000,0
39709.671,-52.734,-7.324,-49.316,4.395,0.000,0
39709.675,-38.086,-3.418,-44.434,-0.488,0.000,0
39709.679,-34.668,2.930,-38.086,-11.230,0.000,0
39709.682,-50.781,0.977,-43.945,-14.648,0.000,0
39709.686,-52.246,-4.395,-43.457,-13.184,0.000,0
39709.690,-20.508,-2.930,-38.086,-1.465,0.000,0
39709.694,-28.320,-7.812,-40.527,-23.926,0.000,0
39709.698,-72.754,-10.254,-43.457,-19.043,0.000,0
39709.702,-68.359,-5.859,-48.340,5.859,0.000,0
39709.706,-29.297,-3.418,-51.758,-10.742,0.000,0
39709.710,-45.410,-6.836,-51.270,-11.719,0.000,0
39709.714,-60.547,-10.742,-51.758,-19.043,0.000,0
39709.718,-52.246,-13.672,-55.664,-37.598,0.000,0
39709.722,-47.363,-17.578,-58.105,-24.902,0.000,0
39709.725,-48.340,-12.207,-53.711,-2.441,0.000,0
39709.729,-58.105,-11.719,-53.711,1.465,0.000,0
39709.733,-66.895,-9.277,-53.223,5.859,0.000,0
39709.737,-49.316,-8.301,-51.270,13.184,0.000,0
39709.741,-52.734,-15.137,-53.223,0.000,0.000,0
39709.745,-78.125,-15.625,-51.270,-10.254,0.000,0
39709.749,-43.945,-7.324,-48.340,-4.883,0.000,0
39709.753,-46.875,-6.836,-49.316,-2.930,0.000,0
39709.757,-70.312,-7.812,-48.340,-11.719,0.000,0
39709.761,-54.199,-0.488,-42.969,-2.441,0.000,0
39709.764,-24.902,2.441,-42.969,8.301,0.000,0
39709.768,-22.461,-3.418,-48.828,-7.324,0.000,0
39709.772,-45.898,-5.371,-46.387,-15.137,0.000,0
39709.776,-55.664,-6.348,-42.969,-14.648,0.000,0
39709.780,-38.574,-1.953,-43.457,-14.160,0.000,0
39709.784,-19.043,2.441,-45.898,-11.719,0.000,0
39709.788,-57.617,-7.812,-49.316,-6.348,0.000,1
39709.792,-65.430,-12.695,-49.805,-4.883,0.000,0
39709.796,-20.508,-4.883,-45.410,-4.395,0.000,0
39709.800,-44.434,-0.977,-37.109,-2.930,0.000,0
39709.804,-53.711,-1.465,-39.062,-4.883,0.000,0
39709.807,-39.062,-0.488,-42.480,-9.766,0.000,0
39709.811,-41.992,-0.488,-41.016,-14.160,0.000,0
39709.815,-66.895,-2.441,-41.016,-24.902,0.000,0
39709.819,-57.129,-6.348,-47.363,-20.996,0.000,0
39709.823,-35.156,-8.789,-50.293,-8.301,0.000,0
39709.827,-48.340,-8.789,-41.992,1.953,0.000,0
39709.831,-44.434,-10.254,-38.086,0.000,0.000,0
39709.835,-46.875,-12.207,-39.062,-7.324,0.000,0
39709.839,-35.156,-11.719,-45.898,-7.324,0.000,0
39709.843,-26.855,-7.324,-47.363,-5.859,0.000,0
39709.847,-49.805,-5.859,-41.504,-8.301,0.000,0
39709.850,-44.434,-5.371,-40.527,-7.324,0.000,0
39709.854,-13.672,-5.859,-38.086,-8.301,0.000,0
39709.858,-11.230,-3.418,-42.969,-5.859,0.000,0
39709.862,-41.504,-6.836,-44.434,0.488,0.000,0
39709.866,-43.945,-12.207,-41.016,5.859,0.000,0
39709.870,-31.738,-10.742,-39.551,5.859,0.000,0
39709.874,-34.668,-8.301,-37.109,-1.465,0.000,0
39709.878,-42.480,2.441,-32.227,2.930,0.000,0
39709.882,-41.992,2.441,-43.457,-1.465,0.000,0
39709.886,-7.324,-1.953,-46.875,-4.395,0.000,0
39709.889,-24.414,3.418,-33.203,6.348,0.000,0
39709.893,-46.875,2.441,-35.645,-5.859,0.000,0
39709.897,-26.855,-3.418,-41.504,-11.719,0.000,0
39709.901,-35.156,-1.953,-39.062,-1.953,0.000,0
39709.905,-62.500,-2.930,-41.504,7.324,0.000,0
39709.909,-49.805,-5.859,-45.898,-0.488,0.000,0
39709.913,-43.945,-7.812,-46.387,-11.719,0.000,0
39709.917,-50.781,-6.348,-51.270,-4.883,0.000,0
39709.921,-58.594,-3.906,-53.223,7.324,0.000,0
39709.925,-58.594,-3.418,-49.316,0.488,0.000,0
39709.929,-34.180,0.488,-45.410,-5.859,0.000,0
39709.932,-34.668,-4.395,-47.363,-21.973,0.000,0
39709.936,-54.688,-4.395,-53.223,-23.926,0.000,0
39709.940,-36.621,-0.488,-52.734,3.418,0.000,0
39709.944,-19.043,-3.418,-49.316,1.953,0.000,0
39709.948,-28.320,-0.488,-44.922,-9.766,0.000,0
39709.952,-45.898,0.977,-42.969,-13.184,0.000,0
39709.956,-38.086,0.488,-44.434,-10.742,0.000,0
39709.960,-25.391,1.953,-44.434,-9.766,0.000,0
39709.964,-41.504,1.465,-46.387,-6.836,0.000,0
39709.968,-62.988,0.488,-45.410,8.301,0.000,0
39709.972,-53.711,-2.441,-41.016,-5.371,0.000,0
39709.975,-20.996,-3.418,-46.875,-15.625,0.000,0
39709.979,-26.855,-0.488,-46.875,4.395,0.000,0
39709.983,-38.086,-8.789,-42.480,0.977,0.000,0
39709.987,-30.273,-12.695,-48.340,-3.418,0.000,0
39709.991,-40.039,-5.859,-44.434,-11.719,0.000,0
39709.995,-50.781,-0.977,-33.691,-11.719,0.000,0
39709.999,-22.949,0.488,-36.621,-3.418,0.000,0
39710.003,-19.531,-1.953,-41.992,-11.230,0.000,0
39710.007,-19.531,5.371,-35.156,16.602,0.000,0
39710.011,-11.719,3.906,-35.645,16.602,0.000,0
39710.014,-45.410,-3.418,-35.645,-1.465,0.000,0
39710.018,-35.645,-2.441,-36.621,5.371,0.000,0
39710.022,-6.348,-4.883,-45.410,-2.930,0.000,0
39710.026,-33.203,-9.766,-46.875,5.371,0.000,0
39710.030,-62.012,-11.230,-40.527,-1.953,0.000,0
39710.034,-15.625,-7.324,-37.598,0.488,0.000,0
39710.038,8.301,-8.789,-39.551,17.578,0.000,0
39710.042,-32.227,-12.207,-40.039,1.953,0.000,0
39710.046,-38.086,-9.766,-44.922,0.488,0.000,0
39710.050,-22.949,-9.277,-46.875,-17.090,0.000,0
39710.054,-41.504,-7.324,-48.828,-20.996,0.000,0
39710.057,-43.945,-0.977,-51.270,-6.836,0.000,0
39710.061,-40.039,-5.371,-49.316,-20.996,0.000,0
39710.065,-34.180,-11.719,-55.176,-20.996,0.000,0
39710.069,-37.109,-14.648,-53.223,-13.672,0.000,0
39710.073,-66.895,-11.230,-46.387,-11.230,0.000,0
39710.077,-64.941,-11.719,-49.316,-0.977,0.000,0
39710.081,-32.227,-12.695,-47.363,-3.906,0.000,0
39710.085,-33.691,-14.160,-47.363,-9.277,0.000,0
39710.089,-46.875,-19.531,-56.152,-14.160,0.000,0
39710.093,-41.504,-17.090,-53.223,-9.766,0.000,0
39710.097,-29.785,-16.602,-46.875,0.488,0.000,0
39710.100,-41.504,-21.484,-50.781,-8.789,0.000,0
39710.104,-53.223,-21.973,-51.758,-19.043,0.000,0
39710.108,-37.109,-19.043,-48.828,-10.742,0.000,0
39710.112,-32.227,-19.043,-54.199,-14.160,0.000,0
39710.116,-41.992,-21.484,-55.176,-5.371,0.000,0
39710.120,-23.926,-23.438,-51.758,-3.418,0.000,0
39710.124,-17.578,-21.484,-51.270,-7.812,0.000,0
39710.128,-39.551,-20.996,-45.898,0.977,0.000,0
39710.132,-72.754,-20.996,-41.016,-0.488,0.000,0
39710.136,-47.852,-18.555,-45.410,-4.395,0.000,0
39710.139,-20.508,-25.879,-51.758,-13.184,0.000,0
39710.143,-36.621,-25.391,-53.711,-3.418,0.000,0
39710.147,-45.410,-13.184,-43.945,-1.465,0.000,0
39710.151,-38.086,-7.812,-40.039,-3.418,0.000,0
39710.155,-32.227,-10.742,-40.039,6.348,0.000,0
39710.159,-30.273,-10.254,-37.109,1.465,0.000,0
39710.163,-56.641,-7.812,-37.109,-7.812,0.000,0
39710.167,-36.133,-6.836,-37.109,-1.465,0.000,0
39710.171,-33.203,-7.812,-41.504,-3.418,0.000,0
39710.175,-47.363,-11.230,-44.922,-15.625,0.000,0
39710.179,-31.250,-13.672,-44.434,-17.090,0.000,0
39710.182,-32.715,-12.207,-44.922,-15.625,0.000,0
39710.186,-38.574,-20.508,-44.922,-22.949,0.000,0
39710.190,-54.199,-22.949,-49.316,-30.762,0.000,0
39710.194,-59.082,-21.484,-57.129,-30.273,0.000,0
39710.198,-51.758,-19.043,-51.758,-22.949,0.000,0
39710.202,-52.246,-18.555,-49.316,-18.066,0.000,0
39710.206,-60.059,-18.066,-52.734,-34.180,0.000,0
39710.210,-45.898,-7.324,-47.363,-20.020,0.000,0
39710.214,-24.902,-0.977,-42.480,-2.441,0.000,0
39710.218,-39.551,-6.348,-43.945,-8.789,0.000,0
39710.222,-57.129,-8.789,-43.457,-11.719,0.000,0
39710.225,-38.086,-11.230,-42.480,-20.996,0.000,0
39710.229,-38.574,-15.625,-49.316,-22.949,0.000,0
39710.233,-43.945,-11.719,-53.711,-8.301,0.000,0
39710.237,-33.203,-9.766,-53.223,-8.301,0.000,0
39710.241,-22.461,-10.254,-52.246,-21.484,0.000,0
39710.245,-24.414,-13.184,-46.387,-33.691,0.000,0
39710.249,-34.668,-13.184,-44.434,-38.574,0.000,0
39710.253,-54.199,-10.742,-53.223,-27.344,0.000,0
39710.257,-35.156,-7.324,-52.246,-14.648,0.000,0
39710.261,-13.672,-6.836,-45.410,-22.949,0.000,0
39710.264,-25.391,-7.812,-40.039,-26.855,0.000,0
39710.268,-29.785,-7.324,-41.504,-16.113,0.000,0
39710.272,-33.203,-10.254,-48.828,-16.602,0.000,0
39710.276,-31.738,-9.766,-53.711,-15.625,0.000,0
39710.280,-38.086,-10.254,-54.199,-8.789,0.000,0
39710.284,-32.715,-16.602,-54.199,-2.930,0.000,0
39710.288,-25.391,-20.020,-50.781,-14.648,0.000,0
39710.292,-51.758,-21.973,-55.664,-15.137,0.000,0
39710.296,-56.641,-13.672,-57.617,-9.766,0.000,0
39710.300,-39.062,-6.348,-50.293,-6.348,0.000,0
39710.304,-22.461,-9.766,-48.340,-23.926,0.000,0
39710.307,-41.992,-10.254,-47.852,-41.992,0.000,0
39710.311,-48.828,-4.883,-46.387,-9.766,0.000,0
39710.315,-41.992,-6.348,-51.758,-4.883,0.000,0
39710.319,-48.340,-10.742,-57.129,-15.625,0.000,0
39710.323,-43.457,-14.160,-55.664,-9.766,0.000,0
39710.327,-59.570,-17.090,-52.734,-28.320,0.000,0
39710.331,-53.223,-14.160,-52.246,-17.090,0.000,0
39710.335,-35.645,-10.742,-51.758,-2.441,0.000,0
39710.339,-58.105,-8.301,-51.270,-9.277,0.000,0
39710.343,-68.359,-3.906,-49.805,-7.812,0.000,0
39710.347,-47.852,-6.348,-47.852,-26.855,0.000,0
39710.350,-49.805,-8.789,-48.340,-24.902,0.000,0
39710.354,-51.270,-5.371,-49.805,-16.602,0.000,0
39710.358,-77.637,-3.418,-50.293,-13.672,0.000,0
39710.362,-63.965,-12.695,-58.105,-20.996,0.000,0
39710.366,-40.527,-16.602,-62.012,-34.668,0.000,0
39710.370,-38.574,-5.859,-49.316,-7.324,0.000,0
39710.374,-47.363,-7.812,-47.852,-5.859,0.000,0
39710.378,-59.082,-13.672,-48.828,-22.461,0.000,0
39710.382,-66.895,-14.648,-47.852,-13.672,0.000,0
39710.386,-74.219,-17.578,-49.316,-28.809,0.000,0
39710.389,-77.148,-8.301,-44.434,-22.461,0.000,0
39710.393,-58.594,-2.930,-47.363,-3.418,0.000,0
39710.397,-33.691,-4.395,-46.875,-4.395,0.000,0
39710.401,-55.664,-2.930,-42.480,-1.465,0.000,0
39710.405,-68.359,-1.953,-46.875,-5.859,0.000,0
39710.409,-57.617,-7.324,-52.246,-17.578,0.000,0
39710.413,-35.156,-5.371,-51.270,-20.020,0.000,0
39710.417,-35.156,-5.371,-49.316,-11.719,0.000,0
39710.421,-50.781,-8.301,-47.852,-12.695,0.000,0
39710.425,-54.688,-8.789,-47.852,-15.625,0.000,0
39710.429,-51.270,-8.789,-47.363,-7.812,0.000,0
39710.432,-47.363,-4.395,-41.992,3.906,0.000,0
39710.436,-55.176,-4.395,-42.480,2.930,0.000,0
39710.440,-46.875,-8.301,-48.340,-3.418,0.000,0
39710.444,-30.762,-3.906,-41.992,-11.719,0.000,0
39710.448,-52.734,0.000,-36.621,-17.578,0.000,0
39710.452,-27.344,4.395,-40.527,-10.742,0.000,0
39710.456,-20.996,1.465,-47.363,-11.230,0.000,0
39710.460,-32.227,-6.348,-48.828,8.789,0.000,0
39710.464,-30.762,-3.418,-45.410,5.859,0.000,0
39710.468,-49.805,-2.441,-49.805,-9.277,0.000,0
39710.472,-42.969,-2.441,-48.340,7.812,0.000,0
39710.475,-28.809,0.000,-44.434,1.465,0.000,0
39710.479,-40.527,-2.441,-47.363,-15.625,0.000,0
39710.483,-55.176,-3.418,-46.875,-18.066,0.000,0
39710.487,-48.828,-3.906,-48.340,-19.531,0.000,1
39710.491,-44.922,-5.859,-46.387,-21.484,0.000,0
39710.495,-38.086,-5.859,-44.434,-18.066,0.000,0
39710.499,-9.277,-1.953,-44.922,-8.789,0.000,0
39710.503,-11.719,-1.953,-44.434,-14.160,0.000,0
39710.507,-43.945,0.488,-44.434,-19.531,0.000,0
39710.511,-33.203,2.441,-43.457,-14.648,0.000,0
39710.514,-24.414,-3.906,-40.039,-18.555,0.000,0
39710.518,-42.480,-1.465,-39.551,1.465,0.000,0
39710.522,-53.711,1.465,-42.480,3.906,0.000,0
39710.526,-42.969,1.953,-42.969,-5.859,0.000,0
39710.530,-42.969,1.465,-51.270,-11.230,0.000,0
39710.534,-50.781,-2.441,-54.199,-12.207,0.000,0
39710.538,-51.758,-6.348,-46.387,-4.395,0.000,0
39710.542,-24.902,-3.418,-44.434,-9.766,0.000,0
39710.546,-18.066,1.953,-38.574,0.000,0.000,0
39710.550,-26.855,2.930,-34.668,3.418,0.000,0
39710.554,-32.227,-2.441,-40.527,-14.160,0.000,0
39710.557,-31.738,-3.418,-39.062,-14.648,0.000,0
39710.561,-33.691,-1.953,-31.738,-9.277,0.000,0
39710.565,-37.598,-4.883,-34.180,-11.719,0.000,0
39710.569,-30.273,-1.465,-41.992,-15.625,0.000,0
39710.573,-44.434,3.418,-41.504,-9.277,0.000,0
39710.577,-49.316,5.859,-38.574,-3.418,0.000,0
39710.581,-52.246,1.953,-40.527,-11.230,0.000,0
39710.585,-57.617,0.000,-34.180,-10.254,0.000,0
39710.589,-31.738,5.859,-31.738,2.930,0.000,0
39710.593,-12.695,2.930,-36.621,11.230,0.000,0
39710.597,-33.203,-4.883,-39.062,15.137,0.000,0
39710.600,-18.555,-1.465,-35.156,-5.859,0.000,0
39710.604,-9.277,0.488,-33.203,-21.484,0.000,0
39710.608,-30.762,-3.906,-36.621,-2.441,0.000,0
39710.612,-37.109,-4.395,-37.598,3.418,0.000,0
39710.616,-39.062,-4.395,-39.551,-11.230,0.000,0
39710.620,-41.016,-5.859,-45.410,-3.906,0.000,0
39710.624,-46.875,-7.324,-47.363,-4.883,0.000,0
39710.628,-46.387,-5.859,-41.504,-0.977,0.000,0
39710.632,-5.371,-3.906,-38.574,18.066,0.000,0
39710.636,-5.859,-6.348,-43.457,9.766,0.000,0
39710.639,-19.043,-7.812,-44.922,3.906,0.000,0
39710.643,-16.113,-7.812,-43.457,-9.277,0.000,0
39710.647,-23.438,-5.859,-47.852,0.488,0.000,0
39710.651,-8.301,-5.371,-43.945,6.348,0.000,0
39710.655,-6.348,-4.883,-43.457,-3.418,0.000,0
39710.659,-24.902,-2.441,-48.828,-7.812,0.000,0
39710.663,-31.738,-1.953,-45.898,-20.996,0.000,0
39710.667,-22.949,-3.418,-39.551,-9.277,0.000,0
39710.671,-31.250,0.977,-33.691,3.418,0.000,0
39710.675,-34.668,0.488,-33.203,7.324,0.000,0
39710.679,-9.277,-7.812,-38.086,4.395,0.000,0
39710.682,-16.602,-12.207,-36.621,-0.488,0.000,0
39710.686,-24.902,-9.277,-36.133,23.438,0.000,0
39710.690,-6.836,-7.812,-34.668,20.020,0.000,0
39710.694,-1.465,-7.324,-34.180,-5.859,0.000,0
39710.698,-7.324,-4.883,-31.738,-4.395,0.000,0
39710.702,-20.996,-4.883,-26.367,4.395,0.000,0
39710.706,-4.395,-4.883,-28.809,7.324,0.000,0
39710.710,30.762,-3.906,-29.297,13.672,0.000,0
39710.714,11.230,-5.859,-31.738,18.555,0.000,0
39710.718,-15.625,-4.883,-34.180,12.207,0.000,0
39710.722,1.953,-3.906,-31.738,2.930,0.000,0
39710.725,27.344,-2.930,-27.832,14.160,0.000,0
39710.729,32.227,0.000,-27.832,20.508,0.000,0
39710.733,0.977,-7.324,-30.273,8.301,0.000,0
39710.737,16.113,-10.742,-37.598,7.324,0.000,0
39710.741,27.344,-10.254,-44.434,-1.465,0.000,0
39710.745,26.367,-4.883,-41.992,-2.930,0.000,0
39710.749,32.715,2.930,-37.109,1.953,0.000,0
39710.753,14.160,0.977,-37.109,1.465,0.000,0
39710.757,3.418,-0.488,-38.574,-5.859,0.000,0
39710.761,-7.812,-1.953,-37.109,-14.160,0.000,0
39710.764,-11.230,-6.836,-41.504,-5.371,0.000,0
39710.768,0.000,-4.883,-42.969,13.184,0.000,0
39710.772,7.324,-0.977,-39.062,11.719,0.000,0
39710.776,3.418,0.000,-34.180,8.301,0.000,0
39710.780,2.441,1.953,-34.180,1.465,0.000,0
39710.784,17.578,3.418,-37.598,-7.324,0.000,0
39710.788,22.949,1.953,-37.598,-1.465,0.000,0
39710.792,-1.465,0.000,-41.504,-3.906,0.000,0
39710.796,-1.465,-0.488,-41.992,-5.371,0.000,0
39710.800,18.066,1.953,-38.574,-0.488,0.000,0
39710.804,12.207,1.953,-34.180,7.324,0.000,0
39710.807,2.930,-5.859,-40.039,5.371,0.000,0
39710.811,9.766,-3.418,-39.551,6.836,0.000,0
39710.815,27.344,0.000,-36.621,18.066,0.000,0
39710.819,19.531,-4.395,-42.969,16.602,0.000,0
39710.823,-22.949,0.000,-37.598,17.578,0.000,0
39710.827,-4.395,3.906,-34.668,28.320,0.000,0
39710.831,38.574,3.906,-35.645,30.273,0.000,0
39710.835,32.715,5.859,-32.227,18.066,0.000,0
39710.839,11.719,7.324,-30.273,7.812,0.000,0
39710.843,18.066,4.883,-31.738,5.371,0.000,0
39710.847,10.742,0.977,-29.785,2.441,0.000,0
39710.850,-12.695,0.488,-28.320,1.465,0.000,0
39710.854,-34.180,0.977,-30.762,18.555,0.000,0
39710.858,-48.340,-1.953,-34.180,3.906,0.000,0
39710.862,-26.367,-1.465,-34.668,-15.625,0.000,0
39710.866,-42.480,0.000,-33.203,7.812,0.000,0
39710.870,-62.988,0.977,-28.809,8.789,0.000,0
39710.874,-37.598,0.977,-34.668,-12.207,0.000,0
39710.878,-41.504,-0.977,-40.039,-23.438,0.000,0
39710.882,-75.195,-0.977,-37.109,-27.344,0.000,0
39710.886,-68.359,-1.465,-38.574,-17.090,0.000,0
39710.889,-50.293,-2.930,-43.457,-9.277,0.000,0
39710.893,-68.359,-6.836,-43.945,-2.930,0.000,0
39710.897,-107.910,-9.277,-41.016,-9.766,0.000,0
39710.901,-110.840,-15.137,-39.551,-20.508,0.000,0
39710.905,-101.562,-20.508,-45.898,-13.672,0.000,0
39710.909,-120.117,-20.996,-49.805,-12.695,0.000,0
39710.913,-144.043,-20.996,-43.945,-4.395,0.000,0
39710.917,-114.746,-20.508,-40.039,-9.277,0.000,0
39710.921,-98.145,-19.531,-39.551,-12.695,0.000,0
39710.925,-118.164,-15.137,-40.527,6.348,0.000,0
39710.929,-141.602,-15.137,-44.922,0.000,0.000,0
39710.932,-137.695,-14.160,-49.805,-4.883,0.000,0
39710.936,-138.184,-14.160,-48.828,-8.789,0.000,0
39710.940,-164.062,-12.695,-43.945,-13.184,0.000,0
39710.944,-168.945,-6.348,-39.062,-1.465,0.000,0
39710.948,-149.414,-6.348,-39.062,-3.906,0.000,0
39710.952,-169.434,-11.230,-43.945,-4.883,0.000,0
39710.956,-191.406,-19.531,-47.363,-5.371,0.000,0
39710.960,-173.340,-19.531,-44.922,-18.555,0.000,0
39710.964,-145.020,-12.695,-43.945,-9.277,0.000,0
39710.968,-155.273,-13.672,-37.598,10.742,0.000,0
39710.972,-155.762,-12.695,-36.133,5.859,0.000,0
39710.975,-137.207,-11.719,-37.109,-9.277,0.000,0
39710.979,-127.930,-11.230,-40.527,-33.691,0.000,0
39710.983,-126.953,-6.836,-41.992,-25.879,0.000,0
39710.987,-133.789,-12.695,-40.039,-13.184,0.000,0
39710.991,-111.328,-7.324,-32.715,-8.301,0.000,0
39710.995,-104.980,-5.371,-35.156,-2.441,0.000,0
39710.999,-105.957,-13.184,-40.039,-9.277,0.000,0
39711.003,-120.117,-11.230,-34.668,-2.930,0.000,0
39711.007,-97.656,-7.812,-38.574,-0.488,0.000,0
39711.011,-63.477,-6.836,-38.574,-5.859,0.000,0
39711.014,-66.895,-6.836,-36.133,-16.602,0.000,0
39711.018,-74.707,-8.301,-31.738,-30.273,0.000,0
39711.022,-54.199,-9.277,-30.273,-13.184,0.000,0
39711.026,-44.922,-6.348,-30.273,-14.648,0.000,0
39711.030,-61.035,-10.254,-28.809,-28.809,0.000,0
39711.034,-40.039,-11.230,-36.621,-17.090,0.000,0
39711.038,-7.812,-8.789,-38.574,-26.367,0.000,0
39711.042,-29.785,-6.348,-38.086,-19.043,0.000,0
39711.046,-69.336,-8.789,-40.039,-8.301,0.000,0
39711.050,-51.758,-10.254,-38.574,-12.207,0.000,0
39711.054,-13.672,-8.789,-40.039,-6.348,0.000,0
39711.057,-23.926,-6.836,-38.086,-8.789,0.000,0
39711.061,-41.992,-2.441,-35.156,-11.719,0.000,0
39711.065,-10.254,5.859,-29.297,-7.812,0.000,0
39711.069,13.184,10.254,-29.785,-3.906,0.000,0
39711.073,5.371,5.371,-32.227,-9.277,0.000,0
39711.077,-16.602,5.371,-25.391,-2.930,0.000,0
39711.081,2.930,4.883,-21.484,18.066,0.000,0
39711.085,10.742,-1.465,-24.414,10.254,0.000,0
39711.089,-12.207,-8.789,-25.879,9.277,0.000,0
39711.093,-24.414,-4.883,-25.879,11.719,0.000,0
39711.097,0.000,-2.930,-31.738,-3.418,0.000,0
39711.100,14.160,-6.836,-34.668,-4.883,0.000,0
39711.104,-10.254,-5.859,-33.691,6.348,0.000,0
39711.108,-37.598,-1.465,-29.297,13.672,0.000,0
39711.112,-5.859,0.000,-27.832,14.648,0.000,0
39711.116,1.465,-3.418,-27.344,6.836,0.000,0
39711.120,-8.789,-5.859,-24.902,3.418,0.000,0
39711.124,14.648,-3.906,-27.344,11.719,0.000,0
39711.128,33.691,-2.441,-27.344,4.883,0.000,0
39711.132,22.949,-9.766,-31.738,12.695,0.000,0
39711.136,9.277,-4.883,-25.879,25.391,0.000,0
39711.139,7.324,1.953,-20.996,16.113,0.000,0
39711.143,29.297,-6.836,-32.715,12.207,0.000,0
39711.147,19.531,-8.789,-33.691,0.488,0.000,0
39711.151,-9.766,-5.859,-28.320,-4.395,0.000,0
39711.155,33.691,-3.418,-23.926,8.789,0.000,0
39711.159,61.035,-1.465,-24.414,9.277,0.000,0
39711.163,16.113,-9.277,-27.832,-0.488,0.000,0
39711.167,-7.324,-15.625,-26.855,16.113,0.000,0
39711.171,18.555,-17.090,-28.809,9.277,0.000,0
39711.175,8.301,-18.066,-28.809,-2.930,0.000,0
39711.179,-1.465,-18.066,-29.297,10.254,0.000,1
39711.182,15.625,-16.602,-33.691,9.277,0.000,0
39711.186,2.930,-14.160,-34.180,-0.488,0.000,0
39711.190,16.113,-11.719,-30.273,11.719,0.000,0
39711.194,8.789,-12.207,-24.902,9.277,0.000,0
39711.198,5.859,-14.160,-24.414,1.465,0.000,0
39711.202,27.344,-14.160,-29.297,12.695,0.000,0
39711.206,16.602,-15.137,-29.297,17.578,0.000,0
39711.210,32.227,-8.301,-27.832,20.996,0.000,0
39711.214,28.320,-9.277,-33.203,20.508,0.000,0
39711.218,5.859,-15.625,-34.180,21.484,0.000,0
39711.222,8.789,-14.160,-30.273,23.438,0.000,0
39711.225,7.324,-15.137,-36.133,14.648,0.000,0
39711.229,-5.371,-15.137,-30.762,7.324,0.000,0
39711.233,2.441,-15.137,-23.926,1.953,0.000,0
39711.237,9.766,-16.113,-26.855,13.184,0.000,0
39711.241,-2.441,-18.555,-28.809,26.367,0.000,0
39711.245,33.691,-19.043,-31.738,36.621,0.000,0
39711.249,65.918,-17.578,-30.273,30.273,0.000,0
39711.253,21.973,-15.625,-24.902,4.883,0.000,0
39711.257,3.906,-15.137,-25.879,10.742,0.000,0
39711.261,20.508,-17.578,-33.203,22.949,0.000,0
39711.264,21.973,-16.113,-30.762,19.043,0.000,0
39711.268,5.371,-18.066,-26.367,25.879,0.000,0
39711.272,7.812,-22.461,-28.809,12.695,0.000,0
39711.276,4.883,-25.391,-34.180,4.395,0.000,0
39711.280,-20.508,-25.391,-36.621,9.277,0.000,0
39711.284,-20.020,-17.578,-30.762,4.395,0.000,0
39711.288,-1.465,-14.160,-26.855,8.301,0.000,0
39711.292,16.113,-11.719,-25.391,3.418,0.000,0
39711.296,-4.395,-5.859,-22.461,11.230,0.000,0
39711.300,3.906,-1.465,-19.043,29.297,0.000,0
39711.304,14.160,-5.371,-17.090,17.090,0.000,0
39711.307,12.695,-8.789,-20.996,21.484,0.000,0
39711.311,7.324,-10.254,-24.414,2.441,0.000,0
39711.315,-8.789,-10.254,-28.320,-11.719,0.000,0
39711.319,3.418,-5.859,-25.391,18.555,0.000,0
39711.323,-2.441,-4.883,-19.043,14.648,0.000,0
39711.327,-12.695,-5.371,-18.555,10.254,0.000,0
39711.331,-21.484,-11.719,-18.066,-1.953,0.000,0
39711.335,-6.348,-11.719,-20.996,-15.137,0.000,0
39711.339,16.113,-4.395,-20.508,1.953,0.000,0
39711.343,-18.555,-6.348,-18.555,3.418,0.000,0
39711.347,-20.020,-7.324,-25.879,19.043,0.000,0
39711.350,7.812,-3.418,-19.531,12.695,0.000,0
39711.354,-0.488,-4.883,-20.020,8.301,0.000,0
39711.358,-22.949,-9.766,-29.785,16.602,0.000,0
39711.362,-11.230,-13.184,-31.250,1.953,0.000,0
39711.366,-0.488,-12.695,-29.297,1.953,0.000,0
39711.370,-23.438,-13.672,-26.855,7.324,0.000,0
39711.374,-41.992,-17.578,-32.227,-2.441,0.000,0
39711.378,-32.715,-18.066,-34.180,0.000,0.000,0
39711.382,-10.254,-15.625,-31.250,12.207,0.000,0
39711.386,-2.441,-19.531,-35.645,18.066,0.000,0
39711.389,-32.227,-24.902,-30.273,8.301,0.000,0
39711.393,-35.156,-28.320,-29.297,6.348,0.000,0
39711.397,-11.230,-26.855,-33.691,21.484,0.000,0
39711.401,-38.086,-22.949,-29.297,19.043,0.000,0
39711.405,-48.828,-20.508,-29.297,15.625,0.000,0
39711.409,-33.203,-20.996,-23.438,15.625,0.000,0
39711.413,-37.109,-20.996,-27.832,9.766,0.000,0
39711.417,-39.062,-21.484,-39.551,9.766,0.000,0
39711.421,-45.898,-22.949,-34.180,7.324,0.000,0
39711.425,-30.273,-21.484,-30.273,4.883,0.000,0
39711.429,-13.184,-20.020,-27.832,9.277,0.000,0
39711.432,-37.598,-21.484,-25.879,14.648,0.000,0
39711.436,-57.129,-19.531,-28.320,17.578,0.000,0
39711.440,-30.762,-15.625,-28.320,19.043,0.000,0
39711.444,-19.043,-17.578,-22.461,22.461,0.000,0
39711.448,-32.227,-25.391,-24.902,27.344,0.000,0
39711.452,-29.297,-25.391,-34.180,18.066,0.000,0
39711.456,-27.832,-19.043,-27.832,7.324,0.000,0
39711.460,-28.809,-17.090,-19.043,20.996,0.000,0
39711.464,-31.738,-15.625,-23.926,22.949,0.000,0
39711.468,-44.434,-20.996,-30.762,15.625,0.000,0
39711.472,-47.852,-24.902,-36.621,10.742,0.000,0
39711.475,-28.809,-26.367,-40.039,17.090,0.000,0
39711.479,-46.875,-30.762,-34.180,20.020,0.000,0
39711.483,-56.641,-34.180,-29.297,25.391,0.000,0
39711.487,-13.184,-34.180,-31.738,33.203,0.000,0
39711.491,-17.578,-32.715,-33.203,17.578,0.000,0
39711.495,-22.461,-29.785,-28.809,16.113,0.000,0
39711.499,-7.812,-29.297,-23.926,23.438,0.000,0
39711.503,15.137,-28.320,-23.438,11.719,0.000,0
39711.507,13.184,-31.250,-20.996,15.137,0.000,0
39711.511,-10.742,-36.621,-20.508,21.973,0.000,0
39711.514,-1.953,-31.250,-25.391,20.996,0.000,0
39711.518,35.156,-27.344,-23.438,19.043,0.000,0
39711.522,37.109,-29.785,-22.461,24.902,0.000,0
39711.526,-10.254,-35.645,-26.367,34.180,0.000,0
39711.530,-2.441,-40.039,-30.273,28.320,0.000,0
39711.534,11.719,-37.598,-32.227,23.926,0.000,0
39711.538,15.137,-34.180,-24.414,31.250,0.000,0
39711.542,29.297,-35.156,-21.484,27.832,0.000,0
39711.546,28.809,-37.109,-23.438,14.160,0.000,0
39711.550,38.574,-37.598,-18.555,5.859,0.000,0
39711.554,47.852,-41.016,-23.926,14.160,0.000,0
39711.557,17.090,-48.828,-30.762,15.625,0.000,0
39711.561,1.465,-50.781,-32.227,20.996,0.000,0
39711.565,36.621,-44.434,-30.273,31.738,0.000,0
39711.569,11.719,-44.922,-21.484,20.020,0.000,0
39711.573,-10.254,-44.434,-26.367,19.043,0.000,0
39711.577,35.156,-40.039,-31.738,27.832,0.000,0
39711.581,34.180,-38.086,-26.855,22.461,0.000,0
39711.585,13.672,-45.410,-27.344,18.066,0.000,0
39711.589,11.719,-48.828,-23.926,9.766,0.000,0
39711.593,-1.953,-48.340,-22.461,3.906,0.000,0
39711.597,-1.953,-50.781,-27.832,14.160,0.000,0
39711.600,20.020,-49.316,-24.414,20.020,0.000,0
39711.604,4.883,-51.758,-20.020,16.602,0.000,0
39711.608,-1.953,-53.711,-20.996,3.906,0.000,0
39711.612,14.160,-47.363,-18.555,3.418,0.000,0
39711.616,11.230,-41.016,-15.625,5.859,0.000,0
39711.620,33.203,-44.434,-21.484,-0.977,0.000,0
39711.624,46.875,-47.852,-20.996,20.508,0.000,0
39711.628,30.762,-50.781,-16.113,10.742,0.000,0
39711.632,36.621,-51.758,-18.066,-6.836,0.000,0
39711.636,53.223,-51.758,-22.949,5.371,0.000,0
39711.639,52.734,-52.734,-22.949,5.859,0.000,0
39711.643,20.020,-56.641,-20.020,2.930,0.000,0
39711.647,15.625,-61.035,-23.438,-11.719,0.000,0
39711.651,28.320,-63.477,-23.438,-3.418,0.000,0
39711.655,21.484,-61.523,-23.438,12.695,0.000,0
39711.659,18.066,-61.035,-23.438,-11.230,0.000,0
39711.663,31.250,-63.965,-23.438,-10.742,0.000,0
39711.667,55.664,-66.895,-25.391,-12.695,0.000,0
39711.671,43.945,-64.453,-19.531,-21.484,0.000,0
39711.675,27.832,-63.477,-18.066,-2.930,0.000,0
39711.679,51.758,-66.895,-20.996,1.953,0.000,0
39711.682,67.871,-65.430,-22.949,4.883,0.000,0
39711.686,41.992,-66.406,-19.043,-0.488,0.000,0
39711.690,30.273,-67.871,-18.066,-9.766,0.000,0
39711.694,32.715,-67.383,-23.926,-3.418,0.000,0
39711.698,22.461,-66.895,-25.879,4.883,0.000,0
39711.702,7.812,-66.895,-21.973,16.113,0.000,0
39711.706,4.883,-68.359,-20.996,6.836,0.000,0
39711.710,6.348,-68.359,-24.414,1.465,0.000,0
39711.714,23.926,-67.383,-22.949,20.020,0.000,0
39711.718,27.344,-72.266,-22.461,10.254,0.000,0
39711.722,-3.906,-79.102,-28.809,-0.977,0.000,0
39711.725,-0.977,-75.195,-24.902,0.488,0.000,0
39711.729,18.555,-72.266,-19.531,-10.254,0.000,0
39711.733,3.906,-74.707,-23.438,-14.648,0.000,0
39711.737,-14.160,-70.801,-23.438,-8.789,0.000,0
39711.741,-7.324,-71.289,-27.832,-7.812,0.000,0
39711.745,-11.719,-76.172,-25.391,-12.207,0.000,0
39711.749,-28.809,-73.242,-19.531,5.859,0.000,0
39711.753,-22.461,-71.777,-23.926,23.438,0.000,0
39711.757,8.301,-78.125,-28.809,21.484,0.000,0
39711.761,20.508,-82.520,-28.320,10.742,0.000,0
39711.764,-6.836,-82.520,-23.438,4.883,0.000,0
39711.768,-27.344,-88.867,-24.902,-5.371,0.000,0
39711.772,-9.766,-89.844,-23.438,-1.953,0.000,0
39711.776,7.324,-86.426,-25.879,9.277,0.000,0
39711.780,-10.254,-84.961,-27.344,6.348,0.000,0
39711.784,-24.902,-86.914,-24.902,-6.348,0.000,0
39711.788,-13.672,-92.285,-28.320,-7.812,0.000,0
39711.792,-6.348,-92.773,-26.855,1.465,0.000,0
39711.796,-25.391,-91.797,-26.367,-2.930,0.000,0
39711.800,-16.602,-91.309,-26.855,1.465,0.000,0
39711.804,8.301,-87.891,-20.996,12.695,0.000,0
39711.807,-8.789,-87.891,-21.973,12.207,0.000,0
39711.811,-33.691,-92.285,-25.391,19.531,0.000,0
39711.815,-5.859,-89.844,-20.508,31.250,0.000,0
39711.819,14.648,-85.449,-19.043,24.902,0.000,0
39711.823,-3.906,-86.426,-20.996,15.137,0.000,0
39711.827,-25.391,-91.309,-20.996,15.625,0.000,0
39711.831,-8.301,-92.285,-23.438,23.926,0.000,0
39711.835,11.719,-91.797,-27.344,17.090,0.000,0
39711.839,-12.207,-93.750,-27.832,15.625,0.000,0
39711.843,-31.250,-92.773,-23.926,28.320,0.000,0
39711.847,-9.766,-90.820,-20.508,16.602,0.000,0
39711.850,5.859,-89.844,-24.414,18.066,0.000,0
39711.854,-15.625,-93.262,-22.461,28.320,0.000,0
39711.858,0.977,-92.773,-17.578,31.738,0.000,0
39711.862,13.672,-87.891,-17.090,15.625,0.000,0
39711.866,7.812,-89.844,-18.066,10.254,0.000,0
39711.870,-7.812,-89.355,-20.020,23.438,0.000,0
39711.874,-20.508,-87.402,-22.461,17.090,0.000,0
39711.878,8.789,-90.332,-26.367,20.020,0.000,0
39711.882,5.859,-93.262,-22.949,22.461,0.000,0
39711.886,-11.719,-98.145,-25.879,10.254,0.000,0
39711.889,-15.625,-96.680,-28.320,21.973,0.000,0
39711.893,-8.789,-97.168,-27.832,32.715,0.000,0
39711.897,-17.578,-101.074,-29.785,26.367,0.000,0
39711.901,-54.199,-100.098,-29.785,16.113,0.000,0
39711.905,-28.320,-97.168,-23.438,4.883,0.000,1
39711.909,2.930,-99.121,-20.508,3.906,0.000,0
39711.913,-35.645,-100.586,-25.391,11.230,0.000,0
39711.917,-42.480,-96.191,-26.855,17.578,0.000,0
39711.921,-13.672,-97.168,-25.879,22.949,0.000,0
39711.925,-11.230,-97.168,-20.508,16.113,0.000,0
39711.929,-20.508,-95.215,-20.508,17.090,0.000,0
39711.932,-16.113,-98.145,-27.832,18.555,0.000,0
39711.936,-18.066,-99.609,-30.273,5.859,0.000,0
39711.940,-5.859,-95.215,-28.809,9.766,0.000,0
39711.944,-24.414,-93.750,-22.461,5.859,0.000,0
39711.948,-19.531,-88.867,-17.578,5.859,0.000,0
39711.952,22.949,-84.473,-20.508,15.137,0.000,0
39711.956,-6.836,-87.891,-20.020,9.277,0.000,0
39711.960,-14.160,-83.496,-17.578,20.508,0.000,0
39711.964,-6.348,-81.055,-16.602,20.020,0.000,0
39711.968,-4.883,-78.613,-13.184,16.113,0.000,0
39711.972,3.906,-77.148,-14.648,17.090,0.000,0
39711.975,7.324,-75.684,-14.648,12.207,0.000,0
39711.979,-2.441,-76.660,-20.020,17.578,0.000,0
39711.983,-1.465,-80.566,-26.367,12.695,0.000,0
39711.987,-0.977,-79.102,-23.438,10.254,0.000,0
39711.991,0.000,-79.590,-20.508,25.391,0.000,0
39711.995,25.391,-80.566,-20.508,25.391,0.000,0
39711.999,20.996,-78.613,-14.648,22.461,0.000,0
39712.003,-15.625,-82.031,-12.207,7.812,0.000,0
39712.007,-10.254,-82.520,-20.508,12.695,0.000,0
39712.011,10.254,-80.078,-23.926,17.578,0.000,0
39712.014,-4.395,-80.566,-19.531,13.184,0.000,0
39712.018,-14.648,-75.684,-15.625,20.508,0.000,0
39712.022,0.000,-75.195,-18.066,5.371,0.000,0
39712.026,8.789,-76.660,-15.137,13.672,0.000,0
39712.030,-16.113,-78.125,-17.090,22.461,0.000,0
39712.034,-33.691,-81.055,-21.484,13.184,0.000,0
39712.038,0.977,-79.590,-20.020,11.719,0.000,0
39712.042,13.672,-77.637,-17.090,8.789,0.000,0
39712.046,1.953,-82.031,-17.090,14.160,0.000,0
39712.050,-6.348,-85.938,-20.508,21.484,0.000,0
39712.054,-2.930,-80.078,-24.414,25.879,0.000,0
39712.057,-17.578,-84.961,-30.762,9.766,0.000,0
39712.061,-39.551,-86.426,-32.715,-0.488,0.000,0
39712.065,-57.129,-75.195,-29.297,16.602,0.000,0
39712.069,-28.320,-72.754,-27.832,25.879,0.000,0
39712.073,-20.996,-75.684,-27.832,9.766,0.000,0
39712.077,-65.918,-77.637,-25.879,2.441,0.000,0
39712.081,-65.430,-75.195,-25.879,6.836,0.000,0
39712.085,-34.668,-77.637,-32.715,15.137,0.000,0
39712.089,-38.086,-77.148,-36.133,9.277,0.000,0
39712.093,-63.965,-76.172,-31.738,-7.324,0.000,0
39712.097,-58.105,-80.566,-28.320,-10.742,0.000,0
39712.100,-42.480,-76.172,-28.320,-8.789,0.000,0
39712.104,-53.223,-69.824,-30.273,7.812,0.000,0
39712.108,-67.871,-70.312,-29.297,11.230,0.000,0
39712.112,-52.734,-72.266,-28.320,7.812,0.000,0
39712.116,-46.875,-74.219,-31.738,7.324,0.000,0
39712.120,-58.594,-74.707,-30.273,0.977,0.000,0
39712.124,-73.730,-75.195,-22.949,-0.977,0.000,0
39712.128,-77.637,-73.242,-29.297,12.695,0.000,0
39712.132,-57.129,-68.359,-28.320,14.160,0.000,0
39712.136,-38.086,-62.012,-21.484,8.789,0.000,0
39712.139,-68.848,-64.453,-21.484,4.395,0.000,0
39712.143,-53.223,-64.941,-24.414,-2.930,0.000,0
39712.147,-28.320,-62.500,-26.367,-1.953,0.000,0
39712.151,-45.898,-63.477,-23.438,7.812,0.000,0
39712.155,-51.758,-66.406,-25.391,12.695,0.000,0
39712.159,-49.805,-72.754,-29.785,3.906,0.000,0
39712.163,-28.320,-70.312,-26.855,13.184,0.000,0
39712.167,-33.203,-62.500,-23.926,29.785,0.000,0
39712.171,-62.500,-66.406,-31.738,25.391,0.000,0
39712.175,-43.945,-73.730,-33.691,19.043,0.000,0
39712.179,-42.969,-71.289,-28.809,14.160,0.000,0
39712.182,-72.754,-71.777,-37.109,9.277,0.000,0
39712.186,-64.453,-74.707,-41.504,13.184,0.000,0
39712.190,-27.832,-67.871,-37.109,13.672,0.000,0
39712.194,-45.898,-67.871,-35.645,14.160,0.000,0
39712.198,-74.707,-70.312,-36.621,5.371,0.000,0
39712.202,-72.266,-64.941,-33.691,1.953,0.000,0
39712.206,-68.848,-65.430,-35.156,15.625,0.000,0
39712.210,-64.453,-67.871,-35.156,16.113,0.000,0
39712.214,-71.289,-66.406,-33.203,8.789,0.000,0
39712.218,-89.844,-69.336,-42.480,3.418,0.000,0
39712.222,-68.359,-71.289,-43.945,-11.230,0.000,0
39712.225,-55.664,-66.895,-41.016,0.000,0.000,0
39712.229,-94.238,-68.359,-36.621,18.555,0.000,0
39712.233,-59.082,-68.848,-35.645,15.625,0.000,0
39712.237,-30.273,-64.941,-33.203,3.906,0.000,0
39712.241,-71.289,-64.941,-30.762,1.465,0.000,0
39712.245,-80.566,-68.359,-38.086,20.508,0.000,0
39712.249,-50.781,-66.406,-39.551,17.090,0.000,0
39712.253,-44.922,-67.383,-39.062,1.953,0.000,0
39712.257,-62.500,-73.730,-42.480,-1.465,0.000,0
39712.261,-67.871,-72.754,-41.016,-1.465,0.000,0
39712.264,-55.176,-71.289,-32.715,8.301,0.000,0
39712.268,-49.316,-72.266,-34.668,5.859,0.000,0
39712.272,-62.500,-67.383,-39.062,24.902,0.000,0
39712.276,-60.059,-62.988,-31.250,20.508,0.000,0
39712.280,-23.438,-65.918,-30.762,1.465,0.000,0
39712.284,-32.227,-64.941,-32.715,22.949,0.000,0
39712.288,-54.199,-63.965,-32.227,13.672,0.000,0
39712.292,-41.016,-63.965,-34.180,4.883,0.000,0
39712.296,-31.738,-62.012,-33.203,9.766,0.000,0
39712.300,-52.734,-57.617,-33.203,2.930,0.000,0
39712.304,-56.152,-58.105,-35.645,4.395,0.000,0
39712.307,-27.344,-61.035,-34.668,12.695,0.000,0
39712.311,-44.922,-60.059,-35.645,13.672,0.000,0
39712.315,-59.082,-59.082,-31.738,13.184,0.000,0
39712.319,-68.359,-55.664,-25.879,3.418,0.000,0
39712.323,-41.504,-56.152,-32.227,3.906,0.000,0
39712.327,-17.090,-56.641,-28.809,6.836,0.000,0
39712.331,-32.227,-54.199,-20.508,15.137,0.000,0
39712.335,-39.062,-52.246,-23.926,18.555,0.000,0
39712.339,-44.434,-52.246,-22.949,2.441,0.000,0
39712.343,-43.945,-52.734,-21.484,18.555,0.000,0
39712.347,-52.734,-55.664,-27.344,28.320,0.000,0
39712.350,-74.219,-61.035,-30.273,8.789,0.000,0
39712.354,-73.730,-62.500,-31.738,4.883,0.000,0
39712.358,-78.125,-66.895,-35.156,-0.488,0.000,0
39712.362,-88.867,-67.383,-29.785,-0.488,0.000,0
39712.366,-84.473,-62.500,-25.391,11.719,0.000,0
39712.370,-60.547,-65.918,-31.738,15.625,0.000,0
39712.374,-61.035,-63.477,-25.879,20.508,0.000,0
39712.378,-72.266,-63.477,-18.066,14.160,0.000,0
39712.382,-65.918,-73.242,-26.855,13.184,0.000,0
39712.386,-45.898,-70.801,-34.668,14.648,0.000,0
39712.389,-57.129,-71.777,-31.738,5.371,0.000,0
39712.393,-90.332,-75.684,-28.320,10.742,0.000,0
39712.397,-68.359,-71.777,-26.855,5.859,0.000,0
39712.401,-42.969,-65.918,-29.297,10.742,0.000,0
39712.405,-56.152,-62.012,-33.203,21.973,0.000,0
39712.409,-76.660,-66.406,-36.621,20.996,0.000,0
39712.413,-32.227,-64.941,-32.227,20.508,0.000,0
39712.417,-16.602,-61.035,-31.250,17.090,0.000,0
39712.421,-46.387,-62.500,-33.203,24.902,0.000,0
39712.425,-36.621,-60.059,-33.691,27.832,0.000,0
39712.429,-18.066,-58.105,-30.273,21.484,0.000,0
39712.432,-13.672,-60.059,-27.832,15.137,0.000,0
39712.436,-20.508,-62.500,-25.391,7.812,0.000,0
39712.440,-20.020,-62.500,-22.461,5.859,0.000,0
39712.444,-28.809,-66.895,-29.785,11.719,0.000,0
39712.448,-29.297,-66.895,-30.762,19.531,0.000,0
39712.452,-41.992,-64.941,-31.250,18.066,0.000,1
39712.456,-46.387,-69.336,-35.645,20.020,0.000,0
39712.460,-11.719,-68.359,-29.297,23.926,0.000,0
39712.464,-8.301,-69.336,-30.762,13.184,0.000,0
39712.468,-32.227,-64.941,-29.297,24.414,0.000,0
39712.472,-22.949,-61.035,-21.484,35.156,0.000,0
39712.475,-19.531,-65.918,-30.273,6.348,0.000,0
39712.479,-41.504,-65.918,-34.180,11.719,0.000,0
39712.483,-19.531,-58.105,-27.832,28.320,0.000,0
39712.487,-13.672,-50.781,-22.949,23.438,0.000,0
39712.491,-27.344,-57.129,-25.879,15.625,0.000,0
39712.495,-35.645,-63.965,-27.832,8.789,0.000,0
39712.499,-55.664,-62.012,-28.809,20.996,0.000,0
39712.503,-35.156,-60.547,-21.973,21.484,0.000,0
39712.507,3.418,-58.105,-19.043,17.578,0.000,0
39712.511,-27.344,-53.711,-17.090,29.297,0.000,0
39712.514,-28.320,-59.570,-16.113,15.625,0.000,0
39712.518,10.254,-64.453,-21.484,12.695,0.000,0
39712.522,-15.137,-64.453,-22.461,22.949,0.000,0
39712.526,-14.648,-62.012,-21.973,15.137,0.000,0
39712.530,-1.953,-58.594,-19.531,14.160,0.000,0
39712.534,-18.066,-67.383,-19.043,10.742,0.000,0
39712.538,-27.344,-65.918,-15.625,12.207,0.000,0
39712.542,-11.719,-60.059,-15.625,17.090,0.000,0
39712.546,-16.113,-61.035,-20.508,23.438,0.000,0
39712.550,1.953,-53.711,-20.996,24.902,0.000,0
39712.554,12.695,-55.176,-18.555,7.324,0.000,0
39712.557,-18.555,-63.965,-12.695,15.625,0.000,0
39712.561,12.207,-59.570,-11.719,28.809,0.000,0
39712.565,41.504,-57.129,-13.672,26.855,0.000,0
39712.569,15.625,-59.082,-8.301,15.137,0.000,0
39712.573,0.977,-57.129,-6.348,-2.441,0.000,0
39712.577,14.160,-55.664,-10.254,20.020,0.000,0
39712.581,7.324,-58.594,-12.695,27.344,0.000,0
39712.585,-18.555,-58.105,-10.742,20.020,0.000,0
39712.589,-22.461,-56.152,-13.184,25.879,0.000,0
39712.593,-25.391,-56.152,-12.695,27.344,0.000,0
39712.597,-44.922,-56.152,-15.137,28.320,0.000,0
39712.600,-54.688,-60.059,-16.113,26.367,0.000,0
39712.604,-25.391,-59.082,-12.207,24.414,0.000,0
39712.608,-11.719,-51.758,-7.324,22.949,0.000,0
39712.612,-22.949,-52.246,-3.906,12.207,0.000,0
39712.616,-33.203,-60.547,-8.301,18.066,0.000,0
39712.620,-40.039,-61.523,-16.113,23.926,0.000,0
39712.624,-31.250,-58.105,-16.113,21.484,0.000,0
39712.628,-39.551,-64.941,-13.184,16.602,0.000,0
39712.632,-47.363,-63.477,-3.906,12.207,0.000,0
39712.636,-34.668,-59.570,-2.441,28.320,0.000,0
39712.639,-42.969,-69.336,-13.184,23.926,0.000,0
39712.643,-52.246,-67.871,-11.230,20.996,0.000,0
39712.647,-37.598,-63.965,-5.859,29.297,0.000,0
39712.651,-7.324,-64.453,-3.418,14.160,0.000,0
39712.655,-17.578,-62.012,-8.301,22.949,0.000,0
39712.659,-23.926,-55.176,-13.672,37.109,0.000,0
39712.663,-1.953,-53.711,-11.719,41.992,0.000,0
39712.667,-13.672,-59.082,-9.766,39.062,0.000,0
39712.671,-30.273,-59.570,-8.789,20.020,0.000,0
39712.675,-35.156,-63.477,-11.719,19.531,0.000,0
39712.679,-7.812,-61.523,-9.766,44.922,0.000,0
39712.682,-11.719,-57.129,-14.160,45.898,0.000,0
39712.686,-31.250,-56.641,-16.113,38.086,0.000,0
39712.690,-36.133,-60.059,-11.719,41.504,0.000,0
39712.694,-0.488,-62.012,-16.113,48.828,0.000,0
39712.698,27.344,-60.547,-15.137,42.969,0.000,0
39712.702,16.113,-55.664,-9.766,40.527,0.000,0
39712.706,6.348,-56.641,-10.254,41.016,0.000,0
39712.710,5.859,-56.152,-6.348,39.551,0.000,0
39712.714,0.000,-52.246,-3.906,49.316,0.000,0
39712.718,-0.488,-54.199,-3.906,56.152,0.000,0
39712.722,12.695,-51.758,-2.441,58.594,0.000,0
39712.725,18.555,-51.270,-9.277,59.570,0.000,0
39712.729,14.160,-52.246,-8.789,40.527,0.000,0
39712.733,-5.371,-53.711,-3.906,38.574,0.000,0
39712.737,-1.953,-54.688,-7.812,47.852,0.000,0
39712.741,23.438,-53.223,-1.953,35.156,0.000,0
39712.745,10.254,-50.781,0.000,28.320,0.000,0
39712.749,-0.977,-52.246,-4.395,25.879,0.000,0
39712.753,20.508,-54.199,-2.441,37.109,0.000,0
39712.757,16.113,-55.176,-2.441,50.781,0.000,0
39712.761,9.766,-56.152,-0.488,54.688,0.000,0
39712.764,11.719,-55.664,4.395,52.246,0.000,0
39712.768,18.066,-53.711,7.324,54.688,0.000,0
39712.772,13.672,-57.129,6.348,57.617,0.000,0
39712.776,21.973,-57.617,7.324,46.387,0.000,0
39712.780,18.066,-53.711,7.324,63.965,0.000,0
39712.784,7.324,-55.664,5.371,66.895,0.000,0
39712.788,41.504,-55.664,6.836,46.875,0.000,0
39712.792,37.598,-51.270,4.883,45.410,0.000,0
39712.796,-2.441,-52.734,1.953,49.316,0.000,0
39712.800,37.109,-48.828,8.301,55.664,0.000,0
39712.804,39.551,-43.945,11.230,56.152,0.000,0
39712.807,13.184,-49.316,8.789,52.734,0.000,0
39712.811,15.137,-48.340,15.625,57.617,0.000,0
39712.815,29.785,-44.922,18.066,57.129,0.000,0
39712.819,31.738,-42.969,18.066,59.570,0.000,0
39712.823,15.625,-40.527,17.090,71.289,0.000,0
39712.827,22.461,-40.527,15.625,62.500,0.000,0
39712.831,28.320,-38.086,19.043,48.828,0.000,0
39712.835,16.113,-37.598,18.066,66.895,0.000,0
39712.839,11.719,-42.969,15.137,65.918,0.000,0
39712.843,22.949,-42.480,15.625,55.664,0.000,0
39712.847,44.434,-36.133,15.625,50.781,0.000,0
39712.850,33.203,-35.645,19.043,48.340,0.000,0
39712.854,17.090,-30.762,23.926,53.711,0.000,0
39712.858,31.250,-27.832,23.926,54.688,0.000,0
39712.862,34.668,-27.832,20.996,58.105,0.000,0
39712.866,36.133,-29.785,21.484,54.688,0.000,0
39712.870,29.297,-38.574,20.508,64.941,0.000,0
