timestamps,TP9,AF7,AF8,TP10,Right AUX,Marker0
161093.111,-30.273,-6.836,8.301,-38.086,0.000,0
161093.115,-33.203,-6.836,6.348,-6.836,0.000,0
161093.119,-25.879,-1.953,17.090,5.371,0.000,0
161093.123,-31.250,-0.488,18.555,-20.996,0.000,0
161093.127,-31.250,-6.348,30.762,-33.691,0.000,0
161093.131,-17.578,-6.348,24.902,-18.066,0.000,0
161093.135,-22.949,0.000,8.789,-5.859,0.000,0
161093.138,-32.227,-3.906,-6.348,-20.508,0.000,0
161093.142,-32.715,-10.254,-4.883,-11.230,0.000,0
161093.146,-25.879,-11.719,20.508,-20.020,0.000,0
161093.150,-16.602,-10.254,16.602,-29.297,0.000,0
161093.154,-22.461,-10.254,-6.836,-16.113,0.000,0
161093.158,-29.297,-15.137,-8.789,-14.648,0.000,0
161093.162,-32.715,-16.602,6.348,-22.461,0.000,0
161093.166,-38.574,-17.090,12.207,-32.227,0.000,0
161093.170,-33.203,-16.602,-0.977,-25.879,0.000,0
161093.174,-26.855,-17.578,-7.324,-9.277,0.000,0
161093.178,-28.320,-21.973,-1.953,-10.742,0.000,0
161093.181,-23.926,-25.391,-17.090,-7.324,0.000,0
161093.185,-31.738,-25.391,-14.648,-21.484,0.000,0
161093.189,-32.715,-24.902,-1.465,-33.203,0.000,0
161093.193,-25.879,-24.902,-1.953,-15.137,0.000,0
161093.197,-9.277,-25.391,-9.277,-3.418,0.000,0
161093.201,0.488,-22.949,-13.672,-7.812,0.000,0
161093.205,-14.160,-20.508,-3.906,-12.695,0.000,0
161093.209,-15.625,-20.996,-6.836,-10.254,0.000,0
161093.213,-13.184,-22.461,-9.277,2.930,0.000,0
161093.217,-2.930,-22.461,-4.883,9.766,0.000,0
161093.221,-6.836,-22.949,-16.113,-3.906,0.000,0
161093.224,-14.648,-23.438,-14.648,-23.438,0.000,0
161093.228,-2.930,-20.996,-8.301,-27.832,0.000,0
161093.232,-5.859,-17.090,-18.555,-15.625,0.000,0
161093.236,-14.160,-16.602,-9.277,-4.883,0.000,0
161093.240,-13.184,-22.949,-8.301,-4.395,0.000,0
161093.244,-11.230,-21.973,-13.672,-13.672,0.000,0
161093.248,-9.766,-17.090,-7.812,-20.996,0.000,0
161093.252,-13.672,-21.973,-27.832,-17.090,0.000,0
161093.256,-20.020,-23.926,-37.598,-2.441,0.000,0
161093.260,-11.719,-22.461,-30.273,-2.930,0.000,0
161093.263,-5.371,-27.832,-16.602,-2.930,0.000,0
161093.267,-20.996,-27.832,-19.531,-0.977,0.000,0
161093.271,-31.250,-27.832,-31.738,-21.484,0.000,0
161093.275,-28.320,-34.180,-36.621,-30.762,0.000,0
161093.279,-26.367,-33.691,-21.484,-21.973,0.000,0
161093.283,-27.344,-31.738,-9.277,-22.949,0.000,0
161093.287,-30.273,-31.250,-34.668,-26.367,0.000,0
161093.291,-30.273,-31.738,-39.062,-15.137,0.000,0
161093.295,-26.855,-33.691,-29.785,-3.906,0.000,0
161093.299,-21.484,-31.250,-34.180,-14.160,0.000,0
161093.303,-24.414,-33.203,-30.273,-33.203,0.000,0
161093.306,-29.297,-28.320,-28.320,-28.809,0.000,0
161093.310,-30.273,-29.297,-39.551,-34.180,0.000,0
161093.314,-37.109,-36.133,-38.574,-35.156,0.000,0
161093.318,-35.645,-37.109,-38.086,-24.414,0.000,0
161093.322,-13.672,-29.297,-28.320,-27.832,0.000,0
161093.326,-16.602,-27.832,-19.531,-26.855,0.000,0
161093.330,-23.438,-28.320,-32.227,-28.320,0.000,0
161093.334,-21.484,-24.902,-36.133,-29.297,0.000,0
161093.338,-30.762,-28.809,-32.715,-25.879,0.000,0
161093.342,-37.109,-27.832,-16.602,-38.574,0.000,0
161093.346,-31.250,-24.902,-12.207,-39.062,0.000,0
161093.349,-29.785,-30.762,-41.504,-33.691,0.000,0
161093.353,-40.527,-32.227,-41.992,-35.645,0.000,0
161093.357,-28.809,-23.926,-22.949,-5.859,0.000,0
161093.361,-20.020,-22.461,-16.113,-9.277,0.000,0
161093.365,-29.297,-28.320,-19.043,-16.113,0.000,0
161093.369,-35.156,-30.762,-33.691,-12.207,0.000,0
161093.373,-43.457,-29.785,-34.180,-30.762,0.000,0
161093.377,-37.109,-22.461,-36.133,-24.414,0.000,0
161093.381,-34.668,-25.391,-25.879,-31.250,0.000,0
161093.385,-28.809,-29.785,-21.973,-39.062,0.000,0
161093.388,-29.297,-30.273,-34.180,-41.992,0.000,0
161093.392,-42.480,-32.715,-33.691,-41.016,0.000,0
161093.396,-32.715,-31.738,-35.156,-25.391,0.000,0
161093.400,-26.855,-32.227,-22.461,-20.996,0.000,0
161093.404,-43.457,-33.691,-20.996,-27.832,0.000,0
161093.408,-41.016,-32.715,-38.086,-12.695,0.000,0
161093.412,-25.879,-30.273,-33.203,-16.602,0.000,0
161093.416,-35.645,-29.297,-23.438,-19.531,0.000,0
161093.420,-39.551,-24.902,-23.926,-9.277,0.000,0
161093.424,-41.504,-27.832,-24.414,-29.297,0.000,0
161093.428,-35.156,-30.762,-25.391,-38.574,0.000,0
161093.431,-34.668,-31.738,-30.762,-38.574,0.000,0
161093.435,-32.227,-34.180,-42.480,-48.828,0.000,0
161093.439,-29.785,-32.227,-33.203,-49.316,0.000,0
161093.443,-40.039,-29.785,-16.602,-38.086,0.000,0
161093.447,-38.574,-33.691,-23.438,-35.156,0.000,0
161093.451,-31.738,-36.133,-37.109,-32.715,0.000,0
161093.455,-25.879,-27.344,-39.551,-24.902,0.000,0
161093.459,-30.762,-22.461,-12.207,-38.574,0.000,0
161093.463,-30.273,-25.879,-3.418,-50.293,0.000,0
161093.467,-23.926,-28.320,-21.973,-39.062,0.000,0
161093.471,-18.555,-34.180,-25.879,-34.668,0.000,0
161093.474,-26.367,-38.574,-29.297,-34.668,0.000,0
161093.478,-37.109,-40.527,-28.809,-21.484,0.000,0
161093.482,-40.039,-37.598,-19.043,-35.156,0.000,0
161093.486,-31.250,-34.180,-32.715,-41.504,0.000,0
161093.490,-21.484,-31.738,-30.762,-42.480,0.000,0
161093.494,-21.973,-29.297,-18.555,-26.855,0.000,0
161093.498,-22.949,-26.855,-21.973,-17.578,0.000,0
161093.502,-17.578,-26.367,-13.184,-28.320,0.000,0
161093.506,-24.902,-30.273,-23.926,-32.715,0.000,0
161093.510,-33.691,-32.227,-40.527,-29.785,0.000,0
161093.513,-23.926,-36.133,-40.527,-23.926,0.000,0
161093.517,-18.066,-37.109,-26.367,-22.461,0.000,0
161093.521,-27.344,-32.715,-10.254,-37.109,0.000,0
161093.525,-31.738,-31.250,-23.926,-43.945,0.000,0
161093.529,-31.738,-32.715,-28.809,-35.645,0.000,0
161093.533,-28.320,-28.809,-14.648,-15.137,0.000,0
161093.537,-23.438,-25.879,-17.578,-13.184,0.000,0
161093.541,-24.902,-25.879,-16.602,-27.832,0.000,0
161093.545,-11.230,-24.414,-21.484,-20.508,0.000,0
161093.549,-15.625,-27.832,-28.320,-30.273,0.000,0
161093.553,-25.391,-31.738,-25.391,-31.738,0.000,0
161093.556,-22.461,-33.691,-29.297,-22.949,0.000,0
161093.560,-24.902,-33.691,-33.691,-32.715,0.000,0
161093.564,-30.762,-28.809,-18.555,-33.691,0.000,0
161093.568,-33.203,-23.926,-6.348,-25.879,0.000,0
161093.572,-26.855,-25.391,-24.414,-24.414,0.000,0
161093.576,-35.156,-28.809,-25.879,-26.855,0.000,0
161093.580,-29.297,-32.715,-19.043,-13.184,0.000,0
161093.584,-18.066,-30.762,-23.438,-8.789,0.000,0
161093.588,-18.555,-31.738,-28.320,-28.320,0.000,0
161093.592,-20.996,-29.785,-19.531,-22.949,0.000,0
161093.596,-37.109,-28.320,-12.207,-17.578,0.000,0
161093.599,-33.691,-36.621,-15.625,-35.645,0.000,0
161093.603,-30.273,-32.227,-24.414,-38.574,0.000,0
161093.607,-39.551,-33.691,-28.320,-28.320,0.000,0
161093.611,-36.621,-40.039,-32.227,-18.555,0.000,0
161093.615,-30.762,-38.574,-36.133,-19.043,0.000,0
161093.619,-36.621,-33.203,-32.227,-22.949,0.000,0
161093.623,-32.715,-28.320,-31.250,-28.320,0.000,0
161093.627,-25.391,-29.785,-29.785,-38.574,0.000,0
161093.631,-30.273,-29.785,-32.715,-26.855,0.000,0
161093.635,-27.344,-22.461,-23.438,-20.996,0.000,0
161093.638,-22.461,-20.996,-12.695,-36.621,0.000,0
161093.642,-20.508,-25.879,-22.461,-32.227,0.000,0
161093.646,-15.137,-26.367,-28.320,-22.949,0.000,0
161093.650,-13.184,-28.809,-24.902,-30.762,0.000,0
161093.654,-25.879,-32.715,-18.066,-32.227,0.000,0
161093.658,-34.180,-33.691,-17.090,-35.645,0.000,0
161093.662,-25.391,-33.203,-28.320,-33.691,0.000,0
161093.666,-18.555,-26.855,-33.203,-21.484,0.000,0
161093.670,-20.996,-26.367,-27.832,-25.879,0.000,0
161093.674,-20.996,-29.297,-24.902,-28.320,0.000,0
161093.678,-22.949,-31.250,-21.484,-33.691,0.000,0
161093.681,-33.203,-30.762,-29.297,-34.668,0.000,0
161093.685,-29.785,-32.715,-33.203,-20.996,0.000,0
161093.689,-26.367,-33.203,-30.762,-27.344,0.000,0
161093.693,-32.227,-29.785,-23.926,-35.645,0.000,0
161093.697,-27.344,-22.949,-11.719,-33.691,0.000,0
161093.701,-20.996,-24.902,-20.508,-23.438,0.000,0
161093.705,-14.648,-28.809,-33.691,-17.578,0.000,0
161093.709,-32.715,-23.438,-31.738,-4.883,0.000,0
161093.713,-46.387,-25.391,-26.367,-3.418,0.000,0
161093.717,-33.691,-22.949,-13.184,-22.949,0.000,0
161093.721,-25.879,-20.996,-26.855,-20.508,0.000,0
161093.724,-28.809,-27.344,-41.992,-16.602,0.000,0
161093.728,-26.855,-24.902,-20.020,-19.043,0.000,0
161093.732,-24.414,-21.973,-12.695,-19.531,0.000,0
161093.736,-28.320,-25.879,-15.625,-30.273,0.000,0
161093.740,-32.715,-24.414,-23.438,-31.250,0.000,0
161093.744,-38.574,-25.879,-21.484,-25.391,0.000,0
161093.748,-31.250,-29.785,-33.691,-26.367,0.000,0
161093.752,-20.996,-26.855,-36.621,-21.484,0.000,0
161093.756,-12.695,-26.367,-25.391,-23.438,0.000,0
161093.760,-4.395,-24.414,-31.738,-20.020,0.000,0
161093.763,-12.695,-21.973,-33.203,-17.578,0.000,0
161093.767,-19.531,-23.926,-31.250,-25.391,0.000,0
161093.771,-21.973,-22.949,-29.785,-20.020,0.000,0
161093.775,-20.508,-22.461,-12.207,-19.043,0.000,0
161093.779,-16.113,-25.391,-12.207,-26.367,0.000,0
161093.783,-20.508,-23.926,-30.762,-34.180,0.000,0
161093.787,-33.691,-18.066,-25.879,-26.367,0.000,0
161093.791,-39.551,-18.066,-9.766,-18.066,0.000,0
161093.795,-24.414,-29.785,-6.836,-36.133,0.000,0
161093.799,-17.578,-26.855,-15.625,-37.109,0.000,0
161093.803,-27.832,-19.043,-18.066,-24.902,0.000,0
161093.806,-36.621,-24.414,-17.578,-23.438,0.000,0
161093.810,-30.762,-22.461,-19.043,-30.273,0.000,0
161093.814,-26.855,-18.555,-4.883,-41.016,0.000,0
161093.818,-36.133,-17.578,-4.883,-33.203,0.000,0
161093.822,-22.949,-15.625,-22.461,-16.602,0.000,0
161093.826,-13.184,-16.602,-21.484,-17.578,0.000,0
161093.830,-27.832,-20.020,-17.578,-16.113,0.000,0
161093.834,-33.203,-20.020,-15.625,-7.324,0.000,0
161093.838,-30.273,-18.066,-14.648,-21.973,0.000,0
161093.842,-31.738,-25.391,-20.020,-44.922,0.000,0
161093.846,-27.832,-27.344,-22.461,-37.598,0.000,0
161093.849,-21.973,-18.555,-7.324,-7.324,0.000,0
161093.853,-21.973,-12.207,-1.465,-25.391,0.000,0
161093.857,-21.973,-12.695,-9.766,-41.992,0.000,0
161093.861,-30.762,-18.066,-32.227,-15.137,0.000,0
161093.865,-30.762,-14.160,-25.391,-10.742,0.000,0
161093.869,-24.902,-15.137,-34.668,-23.926,0.000,0
161093.873,-40.527,-16.113,-33.691,-37.109,0.000,0
161093.877,-45.410,-11.719,-13.672,-44.434,0.000,0
161093.881,-42.969,-19.531,-16.113,-40.527,0.000,0
161093.885,-41.016,-20.996,-31.250,-33.691,0.000,0
161093.888,-27.344,-17.578,-39.551,-17.090,0.000,0
161093.892,-21.484,-19.043,-19.531,-5.371,0.000,0
161093.896,-27.832,-22.461,-14.160,-14.648,0.000,0
161093.900,-34.668,-26.367,-41.992,-15.625,0.000,0
161093.904,-25.879,-31.738,-37.109,-15.625,0.000,0
161093.908,-16.602,-30.273,-20.020,-21.973,0.000,0
161093.912,-22.461,-26.855,-23.438,-26.367,0.000,0
161093.916,-20.020,-32.227,-30.273,-28.809,0.000,0
161093.920,-16.113,-26.367,-29.297,-28.809,0.000,0
161093.924,-16.113,-22.949,-24.414,-24.902,0.000,0
161093.928,-23.926,-28.320,-33.691,-9.766,0.000,0
161093.931,-26.367,-27.832,-37.598,-21.484,0.000,0
161093.935,-36.133,-24.414,-30.762,-19.531,0.000,0
161093.939,-35.156,-24.414,-27.832,-10.742,0.000,0
161093.943,-17.578,-30.273,-39.551,-22.949,0.000,0
161093.947,-20.996,-34.668,-38.574,-29.297,0.000,0
161093.951,-30.762,-27.832,-31.738,-37.598,0.000,0
161093.955,-38.574,-24.414,-27.344,-45.410,0.000,0
161093.959,-38.086,-25.879,-37.598,-35.645,0.000,0
161093.963,-30.762,-26.855,-49.805,-25.879,0.000,0
161093.967,-31.250,-30.273,-36.133,-25.391,0.000,0
161093.971,-24.902,-23.926,-15.625,-27.344,0.000,0
161093.974,-14.160,-16.113,-9.277,-26.367,0.000,0
161093.978,-18.555,-17.090,-18.555,-24.902,0.000,0
161093.982,-16.113,-20.020,-16.602,-26.367,0.000,0
161093.986,-8.789,-18.555,-31.738,-16.113,0.000,0
161093.990,-14.648,-17.578,-22.949,-16.602,0.000,0
161093.994,-27.344,-22.949,5.371,-41.504,0.000,0
161093.998,-20.020,-16.602,-19.531,-18.066,0.000,0
161094.002,-7.324,-14.648,-29.785,7.324,0.000,0
161094.006,-16.602,-23.438,-18.066,-14.648,0.000,0
161094.010,-23.438,-19.531,-0.977,-44.434,0.000,0
161094.013,-21.484,-18.066,-20.508,-42.480,0.000,0
161094.017,-22.461,-20.996,-37.109,-35.156,0.000,0
161094.021,-19.531,-15.625,-27.344,-33.691,0.000,0
161094.025,-23.926,-15.137,-13.672,-23.926,0.000,0
161094.029,-26.855,-15.137,-6.836,-22.949,0.000,0
161094.033,-19.531,-7.812,-22.949,-19.043,0.000,0
161094.037,-23.438,-12.695,-26.855,-12.695,0.000,0
161094.041,-24.902,-18.066,-24.414,-19.043,0.000,0
161094.045,-10.254,-5.371,-18.066,-21.973,0.000,0
161094.049,-16.602,-7.324,-16.602,-28.809,0.000,0
161094.053,-7.324,-5.371,-23.926,-8.789,0.000,0
161094.056,3.418,-1.465,-6.836,-9.766,0.000,0
161094.060,-38.574,-3.418,-23.926,-40.039,0.000,0
161094.064,-44.922,3.906,-39.551,-29.297,0.000,0
161094.068,-29.785,-2.441,-17.578,-26.855,0.000,0
161094.072,-39.062,-4.883,-27.344,-40.039,0.000,0
161094.076,-36.133,0.488,-43.945,-36.133,0.000,0
161094.080,-36.621,3.906,-51.758,-36.133,0.000,0
161094.084,-38.086,10.742,-40.527,-41.992,0.000,0
161094.088,-20.020,9.766,-23.926,-49.316,0.000,0
161094.092,-16.113,19.531,-31.250,-44.922,0.000,0
161094.096,-27.344,25.879,-32.227,-41.992,0.000,0
161094.099,-23.438,20.020,-28.809,-31.250,0.000,0
161094.103,-21.484,20.508,-33.203,-34.180,0.000,0
161094.107,-24.414,20.508,-20.020,-45.898,0.000,0
161094.111,-24.902,16.602,-22.461,-35.645,0.000,0
161094.115,-29.297,12.207,-31.738,-32.715,0.000,0
161094.119,-26.855,10.742,-30.273,-30.762,0.000,0
161094.123,-17.578,9.766,-28.809,-26.855,0.000,0
161094.127,-23.926,7.324,-12.207,-44.922,0.000,0
161094.131,-40.039,0.488,-7.324,-45.898,0.000,0
161094.135,-29.297,-9.277,-30.762,-36.621,0.000,0
161094.138,-18.555,-13.672,-31.250,-26.855,0.000,0
161094.142,-24.414,-14.160,-22.461,-14.160,0.000,0
161094.146,-33.203,-15.625,-8.789,-40.039,0.000,0
161094.150,-38.574,-20.508,-13.672,-54.199,0.000,0
161094.154,-41.016,-24.902,-20.996,-48.828,0.000,0
161094.158,-49.805,-33.203,-13.184,-56.152,0.000,0
161094.162,-38.086,-29.785,-22.461,-31.738,0.000,0
161094.166,-31.250,-26.855,-26.367,-21.973,0.000,0
161094.170,-42.969,-34.668,-26.855,-32.227,0.000,0
161094.174,-42.480,-36.133,-28.809,-23.926,0.000,0
161094.178,-34.668,-34.668,-18.066,-16.113,0.000,0
161094.181,-27.344,-29.785,-24.902,-12.207,0.000,0
161094.185,-20.508,-27.344,-14.160,-28.809,0.000,0
161094.189,-21.973,-30.273,-13.184,-40.039,0.000,0
161094.193,-22.949,-34.668,-26.855,-34.668,0.000,0
161094.197,-10.742,-34.668,-29.297,-25.391,0.000,0
161094.201,-9.277,-32.227,-26.855,-10.742,0.000,0
161094.205,-14.160,-33.691,-5.859,-13.672,0.000,0
161094.209,-7.324,-27.832,2.441,-19.043,0.000,0
161094.213,-10.254,-26.367,-18.555,-10.254,0.000,0
161094.217,-14.160,-36.133,-29.297,-8.789,0.000,0
161094.221,-17.090,-34.668,-4.395,-15.137,0.000,0
161094.224,-22.461,-38.574,-5.859,-24.902,0.000,0
161094.228,-21.973,-43.457,-18.555,-23.438,0.000,0
161094.232,-24.414,-43.945,-16.113,-32.227,0.000,0
161094.236,-21.973,-42.969,-13.672,-26.367,0.000,0
161094.240,-23.438,-44.922,-21.973,-15.137,0.000,0
161094.244,-27.344,-43.457,-20.996,-27.832,0.000,0
161094.248,-28.320,-42.969,-17.090,-31.250,0.000,0
161094.252,-35.645,-49.805,-33.203,-11.719,0.000,0
161094.256,-36.133,-45.410,-24.414,-2.930,0.000,0
161094.260,-32.715,-39.062,-21.484,-20.996,0.000,0
161094.263,-40.527,-36.133,-16.113,-22.949,0.000,0
161094.267,-35.156,-36.621,-10.742,-20.996,0.000,0
161094.271,-24.414,-38.574,-23.926,-21.973,0.000,0
161094.275,-21.973,-36.621,-22.461,-14.648,0.000,0
161094.279,-15.137,-38.086,-20.508,-17.578,0.000,0
161094.283,-15.625,-39.062,-21.973,-21.973,0.000,0
161094.287,-22.461,-34.180,-14.648,-11.719,0.000,0
161094.291,-16.113,-34.668,-25.879,-1.465,0.000,0
161094.295,-17.578,-35.156,-13.672,-16.113,0.000,0
161094.299,-14.648,-33.203,-10.742,-23.438,0.000,0
161094.303,-16.113,-37.109,-22.949,-12.695,0.000,0
161094.306,-20.508,-37.109,-10.742,-11.719,0.000,0
161094.310,-16.113,-32.227,-5.371,-21.484,0.000,0
161094.314,-17.090,-34.180,-22.461,-21.973,0.000,0
161094.318,-15.137,-40.039,-28.320,-17.090,0.000,0
161094.322,-16.113,-39.551,-11.719,-13.672,0.000,0
161094.326,-28.809,-34.180,-4.883,-27.832,0.000,0
161094.330,-23.926,-31.738,-17.578,-27.344,0.000,0
161094.334,-23.438,-36.133,-17.578,-30.273,0.000,0
161094.338,-26.855,-37.598,-16.602,-31.738,0.000,0
161094.342,-18.066,-38.086,-21.484,-16.602,0.000,0
161094.346,-9.277,-35.645,-12.695,-30.762,0.000,0
161094.349,-11.719,-34.668,-20.996,-28.809,0.000,0
161094.353,-17.578,-32.227,-22.949,-1.465,0.000,0
161094.357,-24.414,-25.391,-12.695,0.977,0.000,0
161094.361,-24.414,-22.461,-17.578,-4.883,0.000,0
161094.365,-25.391,-24.414,-9.766,-0.977,0.000,0
161094.369,-30.762,-23.926,-15.625,-2.930,0.000,0
161094.373,-25.391,-25.879,-17.578,-9.277,0.000,0
161094.377,-28.320,-31.738,-24.414,-6.348,0.000,0
161094.381,-30.273,-30.762,-22.949,-6.836,0.000,0
161094.385,-22.949,-30.273,-1.953,-28.809,0.000,0
161094.388,-24.902,-26.855,-20.020,-27.832,0.000,0
161094.392,-25.391,-25.391,-32.227,-16.602,0.000,0
161094.396,-22.949,-27.832,-25.879,-9.766,0.000,0
161094.400,-19.043,-23.926,-10.254,-9.766,0.000,0
161094.404,-1.953,-21.973,-1.465,-22.949,0.000,0
161094.408,0.977,-20.508,-16.602,-23.926,0.000,0
161094.412,-6.836,-20.020,-18.066,-21.973,0.000,0
161094.416,-13.184,-23.438,-25.879,-19.043,0.000,0
161094.420,-17.090,-25.879,-23.438,0.000,0.000,0
161094.424,-24.414,-26.855,-2.930,-16.113,0.000,0
161094.428,-18.066,-23.926,-12.695,-26.855,0.000,0
161094.431,-0.488,-23.926,-28.320,-22.461,0.000,0
161094.435,-10.742,-26.367,-24.414,-31.738,0.000,0
161094.439,-20.996,-26.855,-18.066,-29.785,0.000,0
161094.443,-21.973,-28.809,-13.184,-24.414,0.000,0
161094.447,-27.344,-26.855,-13.672,-29.297,0.000,0
161094.451,-26.367,-29.785,-20.996,-26.367,0.000,0
161094.455,-25.391,-30.273,-25.391,-14.648,0.000,0
161094.459,-32.715,-26.855,-22.461,-22.949,0.000,0
161094.463,-32.227,-31.738,-11.719,-38.086,0.000,0
161094.467,-21.973,-29.785,-23.438,-28.320,0.000,0
161094.471,-19.531,-27.832,-37.598,-1.953,0.000,0
161094.474,-14.648,-34.668,-15.625,-15.137,0.000,0
161094.478,-17.578,-25.879,-10.254,-32.227,0.000,0
161094.482,-16.113,-20.020,-12.695,-37.109,0.000,0
161094.486,-13.672,-22.949,-3.906,-36.621,0.000,0
161094.490,-21.973,-21.484,-7.324,-27.344,0.000,0
161094.494,-15.625,-27.832,-24.414,-23.438,0.000,0
161094.498,-16.113,-30.273,-25.391,-15.137,0.000,0
161094.502,-22.461,-30.762,-10.254,-25.879,0.000,0
161094.506,-19.531,-33.203,-4.883,-26.367,0.000,0
161094.510,-15.137,-29.785,-20.508,-20.020,0.000,0
161094.513,-23.926,-30.762,-26.855,-31.250,0.000,0
161094.517,-28.320,-31.738,-30.273,-16.602,0.000,0
161094.521,-20.508,-25.879,-20.996,-16.602,0.000,0
161094.525,-27.344,-28.320,-15.625,-34.668,0.000,0
161094.529,-21.484,-29.297,-25.879,-23.438,0.000,0
161094.533,-13.184,-24.414,-23.438,-22.461,0.000,0
161094.537,-23.926,-25.879,-15.137,-22.949,0.000,0
161094.541,-23.438,-31.250,-20.508,-27.344,0.000,0
161094.545,-17.090,-31.738,-22.949,-31.738,0.000,0
161094.549,-29.785,-27.344,-16.602,-27.344,0.000,0
161094.553,-31.250,-26.855,-18.555,-26.855,0.000,0
161094.556,-23.438,-29.297,-36.621,-24.902,0.000,0
161094.560,-27.832,-27.344,-24.414,-22.949,0.000,0
161094.564,-19.531,-24.414,-1.465,-27.344,0.000,0
161094.568,-13.184,-23.438,-8.789,-24.414,0.000,0
161094.572,-18.066,-24.414,-35.156,-4.395,0.000,0
161094.576,-14.648,-23.438,-27.832,12.207,0.000,0
161094.580,-14.648,-21.973,-6.348,2.930,0.000,0
161094.584,-17.090,-19.531,-8.301,-26.367,0.000,0
161094.588,-11.719,-25.879,-20.996,-40.527,0.000,0
161094.592,-5.371,-29.785,-28.809,-30.762,0.000,0
161094.596,-32.227,-23.926,-13.184,-17.578,0.000,0
161094.599,-33.691,-25.879,-19.043,-18.066,0.000,0
161094.603,-19.043,-25.879,-28.320,-17.090,0.000,0
161094.607,-21.484,-21.973,-32.227,-28.320,0.000,0
161094.611,-19.531,-24.902,-34.668,-35.645,0.000,0
161094.615,-22.949,-30.273,-36.133,-34.180,0.000,0
161094.619,-18.555,-22.461,-28.320,-33.203,0.000,0
161094.623,-17.578,-19.531,-16.113,-43.457,0.000,0
161094.627,-21.484,-25.879,-24.414,-39.062,0.000,0
161094.631,-23.926,-27.344,-29.297,-18.555,0.000,0
161094.635,-20.508,-31.738,-38.574,-15.625,0.000,0
161094.638,-29.297,-34.180,-26.855,-26.855,0.000,0
161094.642,-29.297,-27.832,-8.789,-33.203,0.000,0
161094.646,-14.648,-29.297,-37.598,-25.879,0.000,0
161094.650,-22.949,-31.250,-39.062,-21.973,0.000,0
161094.654,-31.738,-24.902,-22.461,-29.297,0.000,0
161094.658,-29.297,-33.203,-24.414,-40.527,0.000,0
161094.662,-33.691,-38.574,-29.785,-37.109,0.000,0
161094.666,-27.832,-31.250,-35.645,-22.461,0.000,0
161094.670,-16.602,-27.832,-24.902,-30.762,0.000,0
161094.674,-20.020,-31.250,-41.016,-26.367,0.000,0
161094.678,-23.438,-35.156,-39.062,-22.461,0.000,0
161094.681,-20.020,-32.715,-23.926,-35.156,0.000,0
161094.685,-19.531,-25.879,-22.949,-35.645,0.000,0
161094.689,-20.996,-28.809,-31.738,-34.668,0.000,0
161094.693,-23.926,-30.273,-35.156,-17.090,0.000,0
161094.697,-17.090,-27.832,-23.926,-14.648,0.000,0
161094.701,-16.602,-25.391,-10.742,-35.156,0.000,0
161094.705,-20.508,-32.715,-22.949,-36.133,0.000,0
161094.709,-17.578,-35.156,-32.715,-24.414,0.000,0
161094.713,-20.508,-30.273,-31.250,-13.672,0.000,0
161094.717,-16.602,-25.391,-20.996,-10.742,0.000,0
161094.721,-19.531,-17.090,-8.301,-26.855,0.000,0
161094.724,-30.762,-23.926,-18.066,-26.367,0.000,0
161094.728,-26.855,-27.344,-21.973,-24.414,0.000,0
161094.732,-21.484,-19.043,-19.531,-20.508,0.000,0
161094.736,-11.230,-21.484,-27.344,-6.348,0.000,0
161094.740,-12.207,-24.414,-14.648,-25.391,0.000,0
161094.744,-16.602,-20.508,-12.207,-30.762,0.000,0
161094.748,-25.879,-25.391,-29.297,-15.625,0.000,0
161094.752,-27.832,-35.156,-34.668,-6.348,0.000,0
161094.756,-22.949,-33.691,-22.949,-15.625,0.000,0
161094.760,-26.367,-32.227,-5.371,-30.273,0.000,0
161094.763,-23.926,-33.691,-22.461,-29.785,0.000,0
161094.767,-27.344,-37.598,-39.551,-32.227,0.000,0
161094.771,-22.461,-36.621,-27.344,-23.438,0.000,0
161094.775,-25.391,-31.738,-15.625,-14.648,0.000,0
161094.779,-29.297,-29.785,-24.414,-24.902,0.000,0
161094.783,-22.949,-24.414,-35.156,-29.297,0.000,0
161094.787,-25.879,-22.949,-35.645,-17.578,0.000,0
161094.791,-29.297,-23.926,-27.344,-16.113,0.000,0
161094.795,-26.855,-25.879,-34.668,-20.996,0.000,0
161094.799,-27.832,-25.879,-29.785,-30.273,0.000,0
161094.803,-23.438,-21.973,-23.926,-37.598,0.000,0
161094.806,-27.832,-24.902,-26.367,-38.086,0.000,0
161094.810,-40.039,-29.785,-37.598,-38.574,0.000,0
161094.814,-41.016,-32.715,-38.086,-39.062,0.000,0
161094.818,-38.086,-31.250,-20.996,-42.969,0.000,0
161094.822,-44.922,-29.785,-32.715,-47.363,0.000,0
161094.826,-31.738,-25.391,-38.086,-40.527,0.000,0
161094.830,-28.809,-23.926,-32.715,-32.227,0.000,0
161094.834,-43.945,-31.250,-36.621,-32.227,0.000,0
161094.838,-36.621,-34.668,-25.391,-33.203,0.000,0
161094.842,-32.715,-30.273,-30.273,-31.250,0.000,0
161094.846,-25.879,-33.203,-40.039,-25.879,0.000,0
161094.849,-24.414,-31.250,-31.738,-19.043,0.000,0
161094.853,-34.180,-24.902,-25.391,-20.508,0.000,0
161094.857,-33.691,-30.762,-22.949,-32.227,0.000,0
161094.861,-32.227,-32.715,-26.367,-41.016,0.000,0
161094.865,-31.250,-26.367,-25.391,-26.367,0.000,0
161094.869,-27.344,-21.973,-34.668,-15.625,0.000,0
161094.873,-21.484,-22.949,-32.715,-28.809,0.000,0
161094.877,-17.578,-25.879,-8.789,-20.996,0.000,0
161094.881,-21.484,-20.508,-19.043,-20.020,0.000,0
161094.885,-31.250,-18.555,-38.086,-26.367,0.000,0
161094.888,-30.762,-24.902,-30.273,-31.738,0.000,0
161094.892,-23.926,-27.344,-21.484,-29.785,0.000,0
161094.896,-27.832,-23.926,-11.719,-24.414,0.000,0
161094.900,-32.715,-21.973,-20.020,-33.691,0.000,0
161094.904,-30.273,-22.949,-34.180,-32.227,0.000,0
161094.908,-31.738,-24.414,-29.297,-8.301,0.000,0
161094.912,-40.527,-24.414,-24.414,-13.184,0.000,0
161094.916,-34.668,-19.043,-31.738,-36.621,0.000,0
161094.920,-18.066,-18.066,-30.762,-26.855,0.000,0
161094.924,-29.785,-18.555,-20.508,-16.602,0.000,0
161094.928,-35.156,-21.973,-19.531,-21.484,0.000,0
161094.931,-33.203,-24.902,-35.156,-29.785,0.000,0
161094.935,-33.203,-27.832,-36.621,-44.922,0.000,0
161094.939,-21.484,-27.832,-22.949,-38.086,0.000,0
161094.943,-26.367,-22.461,-28.809,-29.297,0.000,0
161094.947,-25.879,-22.949,-34.180,-36.133,0.000,0
161094.951,-23.926,-20.020,-30.762,-27.832,0.000,0
161094.955,-30.762,-20.020,-21.484,-31.738,0.000,0
161094.959,-30.762,-20.996,-31.250,-29.297,0.000,0
161094.963,-34.668,-16.602,-41.992,-21.973,0.000,0
161094.967,-34.180,-19.043,-36.621,-17.090,0.000,0
161094.971,-32.715,-16.113,-22.949,-16.602,0.000,0
161094.974,-35.645,-10.254,-14.648,-47.363,0.000,0
161094.978,-31.738,-14.160,-36.133,-43.945,0.000,0
161094.982,-26.367,-16.113,-37.109,-15.137,0.000,0
161094.986,-22.949,-14.160,-27.344,-11.230,0.000,0
161094.990,-28.320,-19.043,-30.762,-28.809,0.000,0
161094.994,-34.668,-27.344,-24.414,-31.250,0.000,0
161094.998,-31.250,-23.438,-30.762,-18.555,0.000,0
161095.002,-14.648,-18.066,-25.391,-24.414,0.000,0
161095.006,-13.672,-14.160,-20.508,-21.484,0.000,0
161095.010,-19.531,-12.695,-18.555,-0.977,0.000,0
161095.013,-2.441,-17.578,-5.859,-7.324,0.000,0
161095.017,2.441,-17.578,-26.367,-13.672,0.000,0
161095.021,-6.348,-27.344,-45.898,-4.883,0.000,0
161095.025,-6.836,-26.367,-28.809,-8.789,0.000,0
161095.029,-1.465,-15.137,-15.625,-14.648,0.000,0
161095.033,-11.230,-19.531,-8.301,-28.809,0.000,0
161095.037,-27.832,-22.949,-14.648,-32.715,0.000,0
161095.041,-28.320,-22.461,-14.648,-28.809,0.000,0
161095.045,-21.484,-20.996,-16.602,-11.719,0.000,0
161095.049,-18.555,-22.949,-27.344,1.953,0.000,0
161095.053,-17.578,-24.414,-16.602,-14.160,0.000,0
161095.056,-16.602,-20.020,-1.465,-10.742,0.000,0
161095.060,-7.812,-19.531,-19.531,-0.488,0.000,0
161095.064,-4.395,-20.508,-26.855,-16.602,0.000,0
161095.068,-14.160,-16.602,-12.207,-22.949,0.000,0
161095.072,-20.996,-23.926,-5.371,-21.484,0.000,0
161095.076,-24.414,-26.855,-17.578,-26.855,0.000,0
161095.080,-25.391,-26.367,-26.855,-26.855,0.000,0
161095.084,-23.926,-23.438,-32.227,-20.020,0.000,0
161095.088,-23.438,-17.090,-20.508,-21.484,0.000,0
161095.092,-25.879,-17.090,-7.812,-30.273,0.000,0
161095.096,-25.391,-17.090,-24.414,-30.273,0.000,0
161095.099,-29.297,-19.043,-25.879,-24.414,0.000,0
161095.103,-29.297,-23.438,-20.996,-27.832,0.000,0
161095.107,-22.949,-23.438,-30.273,-31.250,0.000,0
161095.111,-28.809,-27.344,-18.555,-38.086,0.000,0
161095.115,-31.738,-28.320,-14.160,-37.598,0.000,0
161095.119,-23.438,-27.832,-21.973,-35.645,0.000,0
161095.123,-26.367,-23.438,-29.297,-29.297,0.000,0
161095.127,-29.785,-21.484,-28.809,-23.926,0.000,0
161095.131,-33.691,-25.879,-17.578,-39.062,0.000,0
161095.135,-35.645,-26.367,-12.695,-49.805,0.000,0
161095.138,-26.855,-28.809,-27.832,-50.293,0.000,0
161095.142,-24.414,-30.273,-29.785,-49.805,0.000,0
161095.146,-28.320,-27.344,-14.160,-30.273,0.000,0
161095.150,-26.855,-23.926,-12.207,-35.156,0.000,0
161095.154,-16.602,-20.020,-18.555,-34.180,0.000,0
161095.158,-10.254,-22.949,-17.578,-8.301,0.000,0
161095.162,-24.414,-23.438,-7.324,-15.137,0.000,0
161095.166,-27.344,-22.949,-19.043,-18.066,0.000,0
161095.170,-14.160,-24.414,-16.602,-23.438,0.000,0
161095.174,-19.043,-23.926,-13.672,-22.949,0.000,0
161095.178,-11.719,-20.020,-13.672,-7.812,0.000,0
161095.181,-7.812,-20.996,-8.789,-24.414,0.000,0
161095.185,-11.230,-20.996,-35.645,-19.043,0.000,0
161095.189,-5.371,-17.578,-23.926,-12.207,0.000,0
161095.193,-19.043,-20.508,-4.883,-19.043,0.000,0
161095.197,-29.297,-23.926,-22.461,-18.066,0.000,0
161095.201,-19.043,-21.973,-27.344,-14.160,0.000,0
161095.205,-13.672,-17.578,-20.996,-16.602,0.000,0
161095.209,-7.324,-13.672,-5.371,-18.066,0.000,0
161095.213,5.859,-15.625,-15.625,-20.996,0.000,0
161095.217,-0.977,-13.184,-21.484,-23.438,0.000,0
161095.221,-14.160,-13.672,-10.742,-16.602,0.000,0
161095.224,-16.602,-15.137,-17.090,11.230,0.000,0
161095.228,-11.230,-18.555,-19.531,-3.418,0.000,0
161095.232,-9.277,-19.531,-12.695,-28.320,0.000,0
161095.236,-10.742,-24.414,-17.578,-17.090,0.000,0
161095.240,-9.766,-29.785,-26.367,-18.066,0.000,0
161095.244,-18.555,-26.367,-36.133,-20.996,0.000,0
161095.248,-16.602,-28.320,-37.109,-25.879,0.000,0
161095.252,-14.160,-25.391,-11.230,-32.715,0.000,0
161095.256,-8.789,-19.043,-14.160,-25.391,0.000,0
161095.260,0.000,-15.137,-25.879,-10.254,0.000,0
161095.263,-10.254,-21.484,-32.715,-13.184,0.000,0
161095.267,-16.602,-26.855,-31.738,-13.672,0.000,0
161095.271,-9.766,-24.902,-25.391,-21.973,0.000,0
161095.275,-11.230,-27.344,-36.133,-20.020,0.000,0
161095.279,-20.996,-32.715,-36.133,-13.672,0.000,0
161095.283,-26.855,-26.855,-16.602,-24.414,0.000,0
161095.287,-22.949,-20.020,-24.902,-34.668,0.000,0
161095.291,-17.090,-24.414,-33.203,-49.316,0.000,0
161095.295,-18.555,-20.508,-29.297,-45.898,0.000,0
161095.299,-39.551,-21.973,-32.715,-31.738,0.000,0
161095.303,-26.855,-26.855,-40.039,-30.273,0.000,0
161095.306,-18.555,-19.531,-32.715,-37.598,0.000,0
161095.310,-30.762,-17.090,-20.020,-39.551,0.000,0
161095.314,-34.180,-16.113,-27.832,-26.367,0.000,0
161095.318,-32.715,-18.555,-40.039,-22.461,0.000,0
161095.322,-33.203,-17.578,-32.227,-34.180,0.000,0
161095.326,-39.062,-21.484,-14.648,-48.340,0.000,0
161095.330,-31.738,-21.973,-12.695,-54.199,0.000,0
161095.334,-34.668,-20.020,-22.461,-43.945,0.000,0
161095.338,-44.434,-26.855,-29.785,-28.320,0.000,0
161095.342,-42.969,-23.926,-21.484,-23.438,0.000,0
161095.346,-33.203,-24.902,-24.414,-21.973,0.000,0
161095.349,-25.391,-23.926,-21.484,-27.832,0.000,0
161095.353,-29.785,-23.438,-21.484,-45.410,0.000,0
161095.357,-24.902,-27.832,-24.902,-52.246,0.000,0
161095.361,-23.438,-24.902,-26.855,-27.344,0.000,0
161095.365,-34.180,-32.715,-32.715,-22.461,0.000,0
161095.369,-41.992,-38.574,-15.137,-35.156,0.000,0
161095.373,-35.645,-30.762,-20.020,-17.090,0.000,0
161095.377,-20.996,-27.832,-40.039,-20.020,0.000,0
161095.381,-29.785,-24.414,-31.738,-44.922,0.000,0
161095.385,-37.109,-25.391,-5.859,-58.594,0.000,0
161095.388,-28.809,-29.785,-3.906,-51.758,0.000,0
161095.392,-29.297,-35.645,-33.203,-39.551,0.000,0
161095.396,-35.156,-34.668,-34.668,-40.527,0.000,0
161095.400,-33.203,-27.344,-25.391,-24.902,0.000,0
161095.404,-29.785,-25.879,-27.832,-18.066,0.000,0
161095.408,-19.531,-28.809,-21.973,-34.668,0.000,0
161095.412,-18.066,-29.297,-23.926,-32.715,0.000,0
161095.416,-25.879,-24.902,-26.367,-21.973,0.000,0
161095.420,-18.066,-25.391,-25.879,-27.832,0.000,0
161095.424,-17.090,-28.320,-23.438,-20.508,0.000,0
161095.428,-22.949,-22.461,-15.137,-15.625,0.000,0
161095.431,-25.391,-17.090,-6.836,-36.621,0.000,0
161095.435,-29.785,-20.996,-19.043,-36.621,0.000,0
161095.439,-28.809,-23.926,-31.250,-17.578,0.000,0
161095.443,-28.809,-19.043,-25.879,-19.043,0.000,0
161095.447,-28.320,-18.066,-13.672,-27.832,0.000,0
161095.451,-11.719,-16.113,-17.090,-13.672,0.000,0
161095.455,-12.207,-20.508,-22.949,-8.789,0.000,0
161095.459,-27.344,-20.020,-20.996,-16.113,0.000,0
161095.463,-20.508,-17.090,-23.438,-22.461,0.000,0
161095.467,-27.344,-22.949,-20.996,-34.668,0.000,0
161095.471,-30.762,-23.926,-22.949,-26.855,0.000,0
161095.474,-23.438,-22.949,-26.855,-16.113,0.000,0
161095.478,-28.320,-24.902,-23.438,-17.090,0.000,0
161095.482,-24.414,-24.414,-28.809,-23.438,0.000,0
161095.486,-24.414,-25.391,-15.625,-28.809,0.000,0
161095.490,-30.273,-25.391,-17.090,-17.090,0.000,0
161095.494,-32.227,-23.438,-32.715,-17.090,0.000,0
161095.498,-31.250,-21.973,-40.527,-14.648,0.000,0
161095.502,-33.691,-25.391,-42.480,-5.859,0.000,0
161095.506,-29.297,-30.273,-19.531,-22.461,0.000,0
161095.510,-26.855,-29.297,-20.508,-38.574,0.000,0
161095.513,-26.367,-27.344,-35.156,-28.809,0.000,0
161095.517,-20.508,-27.832,-29.785,-14.648,0.000,0
161095.521,-23.926,-20.508,-25.879,-19.043,0.000,0
161095.525,-33.691,-22.461,-31.738,-17.090,0.000,0
161095.529,-35.645,-33.203,-41.016,-15.625,0.000,0
161095.533,-26.855,-34.180,-29.297,-30.273,0.000,0
161095.537,-24.414,-25.879,-1.465,-31.738,0.000,0
161095.541,-24.902,-27.344,-22.949,-17.578,0.000,0
161095.545,-24.902,-28.809,-32.227,-22.461,0.000,0
161095.549,-27.832,-29.297,-20.996,-30.762,0.000,0
161095.553,-23.438,-27.344,-27.344,-13.672,0.000,0
161095.556,-20.508,-27.832,-38.574,-18.555,0.000,0
161095.560,-22.949,-33.691,-41.504,-27.832,0.000,0
161095.564,-26.855,-31.250,-21.973,-35.645,0.000,0
161095.568,-29.297,-24.902,-14.648,-37.598,0.000,0
161095.572,-35.645,-25.879,-37.598,-32.715,0.000,0
161095.576,-32.715,-29.297,-44.922,-27.832,0.000,0
161095.580,-19.531,-20.996,-20.996,-15.625,0.000,0
161095.584,-24.414,-20.020,-14.160,-29.297,0.000,0
161095.588,-28.320,-28.809,-28.809,-40.039,0.000,0
161095.592,-27.344,-29.785,-43.457,-29.785,0.000,0
161095.596,-35.156,-24.902,-36.133,-37.109,0.000,0
161095.599,-36.621,-21.484,-30.273,-31.250,0.000,0
161095.603,-31.250,-23.438,-21.484,-30.762,0.000,0
161095.607,-35.645,-23.438,-21.484,-35.645,0.000,0
161095.611,-33.203,-23.438,-31.738,-17.090,0.000,0
161095.615,-30.762,-21.973,-28.320,-7.812,0.000,0
161095.619,-22.461,-17.578,-32.227,-20.508,0.000,0
161095.623,-18.066,-22.461,-18.066,-32.715,0.000,0
161095.627,-32.715,-22.461,-14.160,-30.273,0.000,0
161095.631,-26.855,-14.648,-29.297,-13.184,0.000,0
161095.635,-20.020,-16.113,-18.555,-5.859,0.000,0
161095.638,-23.438,-21.484,-18.555,-17.578,0.000,0
161095.642,-21.973,-24.414,-16.113,-33.691,0.000,0
161095.646,-29.297,-26.855,-20.996,-35.156,0.000,0
161095.650,-22.461,-22.461,-24.902,-19.531,0.000,0
161095.654,-8.789,-19.531,-22.949,-12.207,0.000,0
161095.658,-17.090,-21.973,-30.273,-14.648,0.000,0
161095.662,-25.391,-21.484,-21.484,-21.484,0.000,0
161095.666,-25.879,-20.508,-11.230,-26.855,0.000,0
161095.670,-23.438,-17.578,-7.812,-19.531,0.000,0
161095.674,-16.113,-20.508,-15.625,-16.602,0.000,0
161095.678,-15.137,-19.531,-32.227,-20.508,0.000,0
161095.681,-18.066,-18.555,-12.207,-14.648,0.000,0
161095.685,-27.832,-28.809,-7.324,-19.531,0.000,0
161095.689,-25.879,-30.273,-22.461,-21.484,0.000,0
161095.693,-14.648,-27.344,-37.598,-14.648,0.000,0
161095.697,-21.484,-28.320,-36.621,-21.973,0.000,0
161095.701,-20.020,-28.809,-10.254,-31.738,0.000,0
161095.705,-20.508,-29.785,-16.602,-36.621,0.000,0
161095.709,-36.621,-31.738,-37.598,-41.504,0.000,0
161095.713,-40.039,-33.691,-38.086,-41.016,0.000,0
161095.717,-37.598,-33.203,-38.086,-27.344,0.000,0
161095.721,-32.227,-34.668,-38.574,-36.133,0.000,0
161095.724,-20.996,-29.297,-24.414,-33.203,0.000,0
161095.728,-22.949,-29.785,-31.250,-9.277,0.000,0
161095.732,-27.832,-27.344,-32.227,-14.160,0.000,0
161095.736,-20.996,-26.367,-36.621,-6.348,0.000,0
161095.740,-32.227,-31.738,-33.691,-17.090,0.000,0
161095.744,-42.480,-30.273,-32.715,-42.969,0.000,0
161095.748,-33.203,-25.391,-39.062,-32.227,0.000,0
161095.752,-34.180,-26.367,-31.738,-21.973,0.000,0
161095.756,-29.785,-24.902,-35.156,-16.602,0.000,0
161095.760,-25.879,-23.926,-21.484,-13.184,0.000,0
161095.763,-27.832,-29.297,-21.484,-35.156,0.000,0
161095.767,-18.555,-32.715,-46.387,-36.621,0.000,0
161095.771,-25.391,-24.902,-30.273,-30.273,0.000,0
161095.775,-27.832,-20.508,-14.648,-35.645,0.000,0
161095.779,-15.137,-22.461,-12.695,-29.785,0.000,0
161095.783,-16.602,-22.461,-4.395,-31.250,0.000,0
161095.787,-10.742,-20.020,-5.371,-33.691,0.000,0
161095.791,-8.789,-19.531,-11.719,-27.344,0.000,0
161095.795,-13.184,-19.531,-31.738,-0.488,0.000,0
161095.799,-13.184,-21.484,-28.320,-7.324,0.000,0
161095.803,-17.578,-24.414,-5.371,-25.879,0.000,0
161095.806,-20.508,-18.555,-14.160,-18.555,0.000,0
161095.810,-22.949,-13.184,-22.949,-15.625,0.000,0
161095.814,-14.648,-15.137,-20.996,-18.066,0.000,0
161095.818,-17.578,-21.973,-13.184,-24.414,0.000,0
161095.822,-25.879,-27.344,-12.207,-31.738,0.000,0
161095.826,-21.973,-31.738,-24.902,-29.785,0.000,0
161095.830,-16.602,-27.344,-20.020,-12.207,0.000,0
161095.834,-14.160,-17.578,-13.672,3.906,0.000,0
161095.838,-19.043,-20.508,-14.160,-3.418,0.000,0
161095.842,-28.809,-23.438,-14.160,-16.113,0.000,0
161095.846,-34.668,-20.996,-21.484,-20.996,0.000,0
161095.849,-29.297,-22.949,-16.602,-25.879,0.000,0
161095.853,-13.672,-22.949,-22.949,-18.066,0.000,0
161095.857,-4.883,-22.949,-39.551,-12.695,0.000,0
161095.861,-13.672,-23.438,-30.273,-26.367,0.000,0
161095.865,-24.414,-20.020,-27.344,-28.809,0.000,0
161095.869,-22.461,-26.367,-35.156,-16.602,0.000,0
161095.873,-18.555,-28.809,-35.645,-14.160,0.000,0
161095.877,-34.180,-29.297,-26.367,-17.578,0.000,0
161095.881,-33.203,-25.879,-14.648,-25.879,0.000,0
161095.885,-20.020,-25.391,-20.996,-29.785,0.000,0
161095.888,-25.879,-34.180,-32.715,-29.297,0.000,0
161095.892,-27.344,-36.133,-25.879,-13.184,0.000,0
161095.896,-24.414,-27.344,-24.414,0.488,0.000,0
161095.900,-18.555,-25.391,-28.320,-17.090,0.000,0
161095.904,-18.555,-30.273,-33.203,-22.461,0.000,0
161095.908,-38.086,-27.832,-33.691,-16.602,0.000,0
161095.912,-40.527,-27.832,-32.715,-25.879,0.000,0
161095.916,-27.344,-27.832,-39.062,-35.156,0.000,0
161095.920,-27.832,-27.832,-27.344,-34.668,0.000,0
161095.924,-27.344,-28.320,-25.391,-32.227,0.000,0
161095.928,-27.344,-23.438,-21.484,-42.480,0.000,0
161095.931,-25.391,-22.949,-33.203,-26.367,0.000,0
161095.935,-26.855,-21.484,-45.898,-6.348,0.000,0
161095.939,-30.273,-22.461,-22.461,-7.812,0.000,0
161095.943,-35.156,-26.367,-18.555,-15.137,0.000,0
161095.947,-25.879,-26.855,-34.180,-16.113,0.000,0
161095.951,-11.230,-22.461,-26.855,-16.602,0.000,0
161095.955,-13.672,-20.508,-6.836,-17.090,0.000,0
161095.959,-17.578,-20.020,-10.254,-31.250,0.000,0
161095.963,-18.555,-18.066,-16.602,-31.250,0.000,0
161095.967,-20.508,-19.043,-19.043,-25.391,0.000,0
161095.971,-20.020,-19.043,-17.578,-18.555,0.000,0
161095.974,-14.648,-17.090,-20.996,-5.859,0.000,0
161095.978,-5.371,-20.508,-19.531,-14.160,0.000,0
161095.982,-15.137,-21.973,-7.812,-13.184,0.000,0
161095.986,-18.555,-23.438,-8.301,-9.277,0.000,0
161095.990,-16.113,-17.090,-14.648,-14.648,0.000,0
161095.994,-16.602,-19.531,-15.137,-25.879,0.000,0
161095.998,-20.996,-23.438,-7.324,-34.668,0.000,0
161096.002,-40.039,-21.484,-14.160,-34.180,0.000,0
161096.006,-36.133,-27.344,-33.203,-28.320,0.000,0
161096.010,-23.438,-25.391,-36.621,-20.996,0.000,0
161096.013,-19.531,-21.973,-32.227,-14.160,0.000,0
161096.017,-17.090,-23.926,-14.648,-20.020,0.000,0
161096.021,-21.973,-23.438,-12.695,-30.273,0.000,0
161096.025,-29.297,-24.902,-33.203,-25.879,0.000,0
161096.029,-32.227,-23.926,-34.668,-20.020,0.000,0
161096.033,-19.531,-16.113,-23.438,-9.277,0.000,0
161096.037,-18.555,-13.184,-16.602,-13.184,0.000,0
161096.041,-24.414,-15.137,-18.066,-19.043,0.000,0
161096.045,-24.414,-13.672,-19.531,-2.441,0.000,0
161096.049,-23.438,-13.184,-26.855,-12.695,0.000,0
161096.053,-23.926,-15.137,-32.715,-27.344,0.000,0
161096.056,-27.344,-19.043,-13.672,-33.203,0.000,0
161096.060,-24.902,-18.555,-10.742,-33.203,0.000,0
161096.064,-21.484,-22.949,-26.367,-18.555,0.000,0
161096.068,-26.855,-22.949,-22.949,-28.320,0.000,0
161096.072,-22.949,-19.531,-18.066,-19.531,0.000,0
161096.076,-28.809,-24.902,-11.719,-19.531,0.000,0
161096.080,-33.691,-25.879,-12.207,-28.320,0.000,0
161096.084,-23.438,-22.949,-25.391,-9.277,0.000,0
161096.088,-20.996,-19.043,-21.973,-6.836,0.000,0
161096.092,-26.367,-21.484,-18.555,-10.254,0.000,0
161096.096,-22.461,-26.855,-21.484,-26.367,0.000,0
161096.099,-8.301,-23.438,-28.320,-25.391,0.000,0
161096.103,-10.254,-18.555,-29.297,-18.555,0.000,0
161096.107,-19.531,-22.949,-30.762,-17.090,0.000,0
161096.111,-22.949,-21.484,-38.086,-15.137,0.000,0
161096.115,-27.832,-15.137,-15.625,-27.344,0.000,0
161096.119,-24.414,-15.137,-20.020,-14.648,0.000,0
161096.123,-21.484,-18.555,-37.109,-14.160,0.000,0
161096.127,-16.602,-20.996,-31.250,-32.715,0.000,0
161096.131,-21.973,-21.484,-29.785,-27.344,0.000,0
161096.135,-30.762,-23.926,-18.066,-29.297,0.000,0
161096.138,-28.809,-26.855,-37.109,-44.922,0.000,0
161096.142,-32.227,-24.414,-53.223,-42.969,0.000,0
161096.146,-37.598,-25.879,-35.645,-20.508,0.000,0
161096.150,-40.527,-27.832,-34.668,-4.883,0.000,0
161096.154,-29.785,-21.484,-25.879,-0.977,0.000,0
161096.158,-22.949,-16.602,-20.020,-9.277,0.000,0
161096.162,-18.555,-15.137,-20.508,-14.160,0.000,0
161096.166,-21.484,-19.043,-20.996,-15.625,0.000,0
161096.170,-37.598,-23.926,-31.250,-24.902,0.000,0
161096.174,-31.250,-20.508,-20.508,-29.297,0.000,0
161096.178,-17.090,-21.973,-10.254,-26.855,0.000,0
161096.181,-10.254,-22.461,-18.555,-9.766,0.000,0
161096.185,-14.648,-21.484,-27.832,-8.789,0.000,0
161096.189,-16.602,-25.879,-32.227,-16.602,0.000,0
161096.193,-16.113,-23.926,-10.742,-9.277,0.000,0
161096.197,-16.113,-21.973,-13.672,-18.066,0.000,0
161096.201,-14.648,-27.832,-29.297,-30.273,0.000,0
161096.205,-8.301,-23.926,-38.086,-18.066,0.000,0
161096.209,-11.230,-21.973,-41.992,-7.324,0.000,0
161096.213,-14.648,-21.484,-29.785,-17.090,0.000,0
161096.217,-10.254,-19.043,-19.531,-26.855,0.000,0
161096.221,-15.137,-15.625,-20.508,-24.414,0.000,0
161096.224,-17.578,-18.066,-26.367,-17.578,0.000,0
161096.228,-20.508,-21.484,-38.086,-20.996,0.000,0
161096.232,-27.344,-20.020,-33.691,-28.809,0.000,0
161096.236,-16.602,-19.531,-12.695,-39.062,0.000,0
161096.240,-17.090,-20.508,-11.719,-32.715,0.000,0
161096.244,-18.066,-21.973,-30.762,-29.785,0.000,0
161096.248,-13.672,-26.855,-36.133,-32.227,0.000,0
161096.252,-14.648,-23.438,-19.043,-25.879,0.000,0
161096.256,-3.418,-18.066,-11.719,-28.320,0.000,0
161096.260,-13.184,-23.438,-39.062,-22.949,0.000,0
161096.263,-21.484,-21.484,-40.527,-21.484,0.000,0
161096.267,-18.555,-17.090,-12.695,-27.344,0.000,0
161096.271,-24.414,-19.043,-12.695,-37.598,0.000,0
161096.275,-19.043,-23.926,-24.902,-50.781,0.000,0
161096.279,-13.184,-23.926,-33.203,-46.875,0.000,0
161096.283,-22.949,-23.438,-14.160,-32.227,0.000,0
161096.287,-21.973,-25.391,-25.391,-22.949,0.000,0
161096.291,-13.672,-22.949,-38.086,-24.414,0.000,0
161096.295,-18.066,-20.508,-21.973,-23.926,0.000,0
161096.299,-25.391,-24.902,-26.367,-24.902,0.000,0
161096.303,-35.156,-28.320,-21.484,-31.250,0.000,0
161096.306,-29.785,-22.949,-33.203,-10.742,0.000,0
161096.310,-32.227,-26.855,-36.133,-15.137,0.000,0
161096.314,-33.691,-27.344,-11.230,-30.762,0.000,0
161096.318,-8.789,-26.367,-15.625,-17.578,0.000,0
161096.322,2.930,-24.414,-28.320,-7.812,0.000,0
161096.326,-32.715,-20.996,-32.715,-21.484,0.000,0
161096.330,-44.434,-16.602,-15.625,-32.227,0.000,0
161096.334,-20.996,-13.672,-7.324,-26.855,0.000,0
161096.338,-19.043,-12.207,-20.996,-23.438,0.000,0
161096.342,-24.902,-9.766,-15.137,-22.949,0.000,0
161096.346,-35.645,-10.254,-11.719,-13.672,0.000,0
161096.349,-27.832,-16.602,-18.066,-16.113,0.000,0
161096.353,-21.973,-14.160,-5.371,-30.762,0.000,0
161096.357,-27.832,-8.301,-6.836,-31.738,0.000,0
161096.361,-29.785,-7.812,-21.484,-18.066,0.000,0
161096.365,-30.273,-4.395,-20.996,-5.859,0.000,0
161096.369,-29.785,-6.836,-20.020,-20.020,0.000,0
161096.373,-32.715,-12.695,-3.906,-36.621,0.000,0
161096.377,-29.785,-18.066,-24.902,-32.227,0.000,0
161096.381,-21.973,-22.461,-36.621,-32.715,0.000,0
161096.385,-20.020,-11.719,-20.508,-19.531,0.000,0
161096.388,-20.508,-11.230,-19.043,-4.395,0.000,0
161096.392,-29.297,-20.020,-13.184,-28.809,0.000,0
161096.396,-39.551,-20.996,-20.020,-38.086,0.000,0
161096.400,-28.809,-24.902,-30.273,-25.391,0.000,0
161096.404,-15.625,-20.996,-11.719,-29.785,0.000,0
161096.408,-30.273,-21.484,-23.926,-29.785,0.000,0
161096.412,-34.668,-31.738,-26.855,-33.691,0.000,0
161096.416,-30.762,-27.344,-14.648,-33.203,0.000,0
161096.420,-28.320,-20.996,-24.902,-24.902,0.000,0
161096.424,-18.555,-20.996,-36.133,-11.230,0.000,0
161096.428,-17.578,-26.367,-22.949,-7.812,0.000,0
161096.431,-25.391,-23.926,-3.418,-20.508,0.000,0
161096.435,-29.785,-16.113,-22.949,-13.184,0.000,0
161096.439,-20.508,-20.996,-42.480,-2.930,0.000,0
161096.443,-24.414,-20.996,-27.344,-13.672,0.000,0
161096.447,-31.250,-24.414,-8.789,-24.414,0.000,0
161096.451,-21.973,-26.367,-10.254,-25.879,0.000,0
161096.455,-26.367,-30.273,-24.414,-38.574,0.000,0
161096.459,-37.109,-26.855,-21.484,-34.668,0.000,0
161096.463,-32.227,-21.973,-19.043,-23.438,0.000,0
161096.467,-31.738,-32.227,-33.691,-41.504,0.000,0
161096.471,-32.715,-29.785,-29.785,-45.898,0.000,0
161096.474,-29.785,-27.344,-30.762,-31.250,0.000,0
161096.478,-30.762,-30.762,-33.691,-31.738,0.000,0
161096.482,-27.344,-30.762,-31.250,-20.996,0.000,0
161096.486,-27.344,-28.320,-21.484,-21.484,0.000,0
161096.490,-28.809,-28.809,-21.484,-51.758,0.000,0
161096.494,-31.250,-31.738,-34.180,-46.875,0.000,0
161096.498,-41.504,-34.180,-39.551,-30.762,0.000,0
161096.502,-35.645,-37.109,-40.039,-30.762,0.000,0
161096.506,-28.320,-35.156,-28.809,-28.809,0.000,0
161096.510,-28.809,-31.738,-14.160,-37.598,0.000,0
161096.513,-32.227,-33.691,-27.344,-34.668,0.000,0
161096.517,-26.367,-34.180,-34.668,-33.203,0.000,0
161096.521,-20.020,-31.250,-17.578,-33.203,0.000,0
161096.525,-24.414,-32.715,-28.809,-19.531,0.000,0
161096.529,-26.367,-30.762,-24.902,-33.691,0.000,0
161096.533,-20.020,-26.367,-8.789,-45.410,0.000,0
161096.537,-21.484,-30.762,-18.555,-33.203,0.000,0
161096.541,-28.320,-32.227,-35.645,-31.250,0.000,0
161096.545,-32.715,-27.832,-29.297,-31.250,0.000,0
161096.549,-26.855,-26.367,-16.113,-39.551,0.000,0
161096.553,-29.785,-24.414,-23.438,-34.180,0.000,0
161096.556,-29.785,-27.832,-26.367,-24.902,0.000,0
161096.560,-24.902,-26.855,-28.809,-33.691,0.000,0
161096.564,-30.762,-20.508,-20.996,-19.531,0.000,0
161096.568,-22.949,-25.879,-1.953,-13.672,0.000,0
161096.572,-17.578,-27.344,-24.414,-30.762,0.000,0
161096.576,-23.926,-26.367,-37.598,-29.785,0.000,0
161096.580,-12.695,-28.809,-24.902,-15.625,0.000,0
161096.584,-19.043,-24.414,-22.461,-17.090,0.000,0
161096.588,-25.391,-22.461,-22.461,-22.461,0.000,0
161096.592,-26.367,-27.832,-30.762,-27.832,0.000,0
161096.596,-28.320,-35.156,-31.250,-30.273,0.000,0
161096.599,-27.344,-30.762,-25.879,-18.066,0.000,0
161096.603,-35.156,-29.785,-46.387,-16.113,0.000,0
161096.607,-37.598,-33.203,-36.133,-29.297,0.000,0
161096.611,-29.785,-29.785,-5.859,-34.668,0.000,0
161096.615,-20.996,-32.227,-28.320,-31.250,0.000,0
161096.619,-15.137,-34.180,-53.223,-26.855,0.000,0
161096.623,-20.020,-34.180,-41.504,-17.578,0.000,0
161096.627,-29.785,-38.574,-21.484,-23.926,0.000,0
161096.631,-30.273,-35.645,-25.391,-30.762,0.000,0
161096.635,-24.414,-33.203,-29.297,-25.391,0.000,0
161096.638,-18.066,-32.715,-22.949,-8.301,0.000,0
161096.642,-21.484,-33.203,-21.973,-7.812,0.000,0
161096.646,-21.973,-33.203,-18.555,-29.297,0.000,0
161096.650,-22.461,-34.668,-32.715,-18.555,0.000,0
161096.654,-31.738,-42.480,-26.367,-13.672,0.000,0
161096.658,-31.738,-35.156,-28.809,-25.391,0.000,0
161096.662,-26.855,-28.809,-32.227,-40.527,0.000,0
161096.666,-31.738,-33.691,-17.578,-54.199,0.000,0
161096.670,-39.551,-27.832,-28.809,-43.945,0.000,0
161096.674,-35.645,-24.414,-36.133,-23.438,0.000,0
161096.678,-25.391,-25.879,-35.156,-21.973,0.000,0
161096.681,-26.367,-21.484,-26.855,-22.949,0.000,0
161096.685,-24.414,-21.484,-13.672,-20.020,0.000,0
161096.689,-24.414,-27.344,-24.902,-31.250,0.000,0
161096.693,-25.879,-26.367,-26.367,-35.156,0.000,0
161096.697,-19.531,-24.414,-23.438,-26.367,0.000,0
161096.701,-25.879,-24.902,-18.066,-10.254,0.000,0
161096.705,-32.715,-29.297,-20.996,-10.742,0.000,0
161096.709,-24.414,-30.273,-33.203,-19.531,0.000,0
161096.713,-22.949,-27.832,-16.113,-36.133,0.000,0
161096.717,-19.531,-27.344,-24.414,-30.273,0.000,0
161096.721,-17.578,-29.785,-46.387,-25.879,0.000,0
161096.724,-28.809,-26.367,-21.484,-40.527,0.000,0
161096.728,-26.855,-21.484,-11.719,-33.203,0.000,0
161096.732,-23.438,-19.531,-20.996,-27.832,0.000,0
161096.736,-36.133,-20.996,-28.809,-21.484,0.000,0
161096.740,-35.156,-24.902,-32.227,-15.137,0.000,0
161096.744,-29.297,-26.367,-14.160,-21.484,0.000,0
161096.748,-31.738,-25.391,-22.949,-20.020,0.000,0
161096.752,-32.227,-25.879,-38.574,-20.020,0.000,0
161096.756,-36.133,-26.367,-38.086,-19.531,0.000,0
161096.760,-41.992,-26.855,-37.109,-19.531,0.000,0
161096.763,-46.387,-29.297,-31.738,-38.086,0.000,0
161096.767,-44.434,-27.832,-40.039,-53.711,0.000,0
161096.771,-41.992,-25.391,-40.527,-34.668,0.000,0
161096.775,-42.969,-26.855,-41.016,-21.484,0.000,0
161096.779,-24.414,-32.715,-41.992,-22.949,0.000,0
161096.783,-15.625,-34.668,-27.344,-36.133,0.000,0
161096.787,-27.832,-34.180,-34.180,-33.203,0.000,0
161096.791,-26.367,-29.785,-37.598,-20.996,0.000,0
161096.795,-14.648,-31.738,-37.109,-23.926,0.000,0
161096.799,-7.812,-31.250,-40.527,-26.367,0.000,0
161096.803,-22.949,-27.832,-18.066,-30.273,0.000,0
161096.806,-30.273,-23.926,-13.672,-28.320,0.000,0
161096.810,-29.297,-27.832,-30.762,-27.832,0.000,0
161096.814,-26.855,-33.203,-21.484,-36.133,0.000,0
161096.818,-28.320,-24.902,-19.043,-32.227,0.000,0
161096.822,-28.809,-18.555,-24.414,-29.785,0.000,0
161096.826,-23.926,-21.484,-25.879,-34.668,0.000,0
161096.830,-19.043,-26.367,-22.949,-27.344,0.000,0
161096.834,-20.508,-24.414,-7.324,-15.625,0.000,0
161096.838,-14.648,-23.926,-26.367,-18.066,0.000,0
161096.842,-6.348,-27.344,-27.832,-26.367,0.000,0
161096.846,-14.648,-27.832,-7.324,-29.785,0.000,0
161096.849,-13.184,-22.949,-5.859,-23.438,0.000,0
161096.853,-8.301,-23.926,-23.926,-20.020,0.000,0
161096.857,-11.719,-25.391,-30.762,-20.996,0.000,0
161096.861,-14.648,-26.367,-16.602,-34.668,0.000,0
161096.865,-21.973,-26.855,-18.555,-38.086,0.000,0
161096.869,-25.391,-23.438,-28.320,-30.762,0.000,0
161096.873,-27.344,-26.367,-29.297,-29.785,0.000,0
161096.877,-34.668,-23.926,-31.738,-27.832,0.000,0
161096.881,-34.180,-20.996,-23.926,-25.391,0.000,0
161096.885,-30.762,-21.973,-24.902,-27.344,0.000,0
161096.888,-21.484,-23.926,-41.504,-15.137,0.000,0
161096.892,-17.090,-22.949,-27.832,-2.441,0.000,0
161096.896,-21.973,-20.508,-18.066,-13.672,0.000,0
161096.900,-18.066,-26.367,-25.391,-23.438,0.000,0
161096.904,-21.973,-30.762,-24.414,-26.855,0.000,0
161096.908,-34.180,-27.832,-31.738,-31.738,0.000,0
161096.912,-32.227,-32.227,-38.574,-32.227,0.000,0
161096.916,-32.227,-32.227,-38.574,-24.414,0.000,0
161096.920,-27.832,-27.832,-32.227,-16.113,0.000,0
161096.924,-26.367,-27.832,-25.391,-23.926,0.000,0
161096.928,-27.832,-28.320,-29.297,-19.531,0.000,0
161096.931,-24.902,-21.973,-36.133,-17.090,0.000,0
161096.935,-29.297,-17.578,-32.715,-14.160,0.000,0
161096.939,-27.344,-19.531,-15.137,-18.555,0.000,0
161096.943,-17.578,-23.926,-20.508,-42.480,0.000,0
161096.947,-21.484,-21.484,-33.691,-36.133,0.000,0
161096.951,-25.391,-21.484,-26.367,-21.973,0.000,0
161096.955,-20.508,-26.367,-32.227,-17.578,0.000,0
161096.959,-24.414,-25.879,-32.715,-24.902,0.000,0
161096.963,-34.180,-27.344,-24.414,-33.203,0.000,0
161096.967,-33.691,-23.438,-30.762,-16.602,0.000,0
161096.971,-23.438,-19.043,-27.832,-5.371,0.000,0
161096.974,-23.438,-24.414,-24.414,-15.137,0.000,0
161096.978,-23.926,-25.391,-24.414,-26.367,0.000,0
161096.982,-15.137,-29.785,-17.090,-38.086,0.000,0
161096.986,-17.578,-28.320,-16.113,-37.598,0.000,0
161096.990,-17.578,-21.973,-30.762,-33.691,0.000,0
161096.994,-14.648,-14.648,-25.879,-22.461,0.000,0
161096.998,-15.625,-17.090,-10.254,-12.207,0.000,0
161097.002,-13.184,-21.484,-6.348,-23.438,0.000,0
161097.006,-13.672,-23.438,-20.020,-20.996,0.000,0
161097.010,-13.672,-26.855,-17.090,-17.578,0.000,0
161097.013,-15.625,-23.926,-11.230,-30.762,0.000,0
161097.017,-11.230,-23.926,-13.184,-33.203,0.000,0
161097.021,-4.883,-18.066,-3.906,-38.086,0.000,0
161097.025,-15.625,-13.672,-13.184,-33.691,0.000,0
161097.029,-21.973,-18.066,-16.602,-14.648,0.000,0
161097.033,-19.043,-20.508,-26.367,-11.230,0.000,0
161097.037,-12.695,-23.926,-26.367,-15.625,0.000,0
161097.041,-16.602,-26.367,-6.348,-27.832,0.000,0
161097.045,-25.391,-20.020,-4.883,-22.949,0.000,0
161097.049,-19.531,-16.602,-7.812,-17.090,0.000,0
161097.053,-26.855,-24.414,-19.531,-29.297,0.000,0
161097.056,-32.715,-29.785,-26.367,-24.414,0.000,0
161097.060,-28.809,-34.668,-17.578,-34.180,0.000,0
161097.064,-37.598,-37.109,-24.414,-41.504,0.000,0
161097.068,-50.293,-30.762,-32.715,-24.902,0.000,0
161097.072,-53.223,-25.879,-32.227,-22.461,0.000,0
161097.076,-54.688,-31.250,-31.738,-16.602,0.000,0
161097.080,-47.852,-37.109,-30.273,-24.902,0.000,0
161097.084,-39.062,-35.645,-38.574,-50.293,0.000,0
161097.088,-35.645,-34.668,-46.875,-46.387,0.000,0
161097.092,-20.020,-38.574,-47.852,-8.301,0.000,0
161097.096,-20.020,-40.527,-42.969,-11.230,0.000,0
161097.099,-41.504,-31.250,-19.531,-56.641,0.000,0
161097.103,-45.898,-33.691,-22.461,-57.129,0.000,0
161097.107,-34.180,-39.551,-37.598,-42.969,0.000,0
161097.111,-25.391,-30.273,-32.715,-35.645,0.000,0
161097.115,-40.527,-24.414,-27.832,-35.645,0.000,0
161097.119,-46.387,-30.273,-7.812,-48.340,0.000,0
161097.123,-17.578,-27.344,-17.090,-37.598,0.000,0
161097.127,-5.859,-21.973,-44.922,-19.043,0.000,0
161097.131,-5.371,-22.461,-35.156,-4.395,0.000,0
161097.135,-8.789,-26.367,-22.949,0.000,0.000,0
161097.138,-16.113,-28.809,-16.602,-16.602,0.000,0
161097.142,-18.555,-21.973,-15.625,-18.555,0.000,0
161097.146,-23.926,-20.996,-27.344,-17.090,0.000,0
161097.150,-33.203,-20.508,-23.438,-24.902,0.000,0
161097.154,-34.180,-21.973,-25.879,-22.461,0.000,0
161097.158,-22.949,-21.973,-21.484,-15.625,0.000,0
161097.162,-9.277,-17.578,-9.766,-17.578,0.000,0
161097.166,-12.695,-18.555,-14.648,-31.250,0.000,0
161097.170,-26.855,-22.461,-25.879,-26.855,0.000,0
161097.174,-32.715,-29.297,-28.809,-14.160,0.000,0
161097.178,-34.180,-30.762,-11.230,-27.832,0.000,0
161097.181,-34.668,-22.461,-14.648,-29.785,0.000,0
161097.185,-24.902,-23.438,-34.180,-24.414,0.000,0
161097.189,-20.996,-21.484,-24.414,-25.879,0.000,0
161097.193,-20.508,-19.531,-9.277,-18.066,0.000,0
161097.197,-29.785,-23.438,-18.555,-29.785,0.000,0
161097.201,-40.527,-26.855,-22.949,-44.922,0.000,0
161097.205,-32.715,-29.785,-27.832,-39.062,0.000,0
161097.209,-30.762,-26.855,-26.855,-29.297,0.000,0
161097.213,-35.156,-24.414,-29.785,-33.691,0.000,0
161097.217,-40.527,-25.879,-36.133,-35.645,0.000,0
161097.221,-28.809,-24.902,-17.578,-31.250,0.000,0
161097.224,-29.785,-26.855,-3.418,-34.180,0.000,0
161097.228,-41.504,-31.738,-25.879,-28.809,0.000,0
161097.232,-32.715,-32.227,-34.668,-20.996,0.000,0
161097.236,-18.555,-27.832,-27.344,-19.043,0.000,0
161097.240,-21.973,-27.344,-26.367,-33.691,0.000,0
161097.244,-24.902,-26.367,-41.016,-28.809,0.000,0
161097.248,-21.484,-27.344,-43.945,-13.672,0.000,0
161097.252,-16.602,-26.855,-36.621,-20.020,0.000,0
161097.256,-32.715,-31.250,-31.250,-41.016,0.000,0
161097.260,-28.320,-38.086,-20.508,-55.664,0.000,0
161097.263,-17.090,-30.762,-20.996,-43.945,0.000,0
161097.267,-26.367,-29.297,-23.926,-36.621,0.000,0
161097.271,-28.809,-29.785,-27.832,-31.250,0.000,0
161097.275,-29.297,-35.156,-39.551,-41.504,0.000,0
161097.279,-25.879,-32.715,-25.391,-46.875,0.000,0
161097.283,-22.949,-25.879,-18.555,-25.391,0.000,0
161097.287,-20.508,-25.879,-28.320,-18.555,0.000,0
161097.291,-25.391,-23.926,-33.203,-30.762,0.000,0
161097.295,-26.367,-28.320,-16.602,-31.738,0.000,0
161097.299,-20.508,-27.832,-3.418,-31.738,0.000,0
161097.303,-24.902,-20.508,-8.789,-25.879,0.000,0
161097.306,-24.414,-20.996,-20.508,-19.043,0.000,0
161097.310,-23.926,-30.762,-40.039,-19.043,0.000,0
161097.314,-27.344,-35.645,-13.672,-20.020,0.000,0
161097.318,-25.391,-24.414,-4.395,-22.949,0.000,0
161097.322,-20.996,-21.973,-37.109,-27.832,0.000,0
161097.326,-16.113,-31.738,-31.738,-33.203,0.000,0
161097.330,-17.578,-28.809,-25.879,-32.227,0.000,0
161097.334,-11.230,-20.996,-22.949,-28.809,0.000,0
161097.338,-4.395,-21.484,-11.719,-27.344,0.000,0
161097.342,-10.254,-24.902,-18.555,-23.926,0.000,0
161097.346,-11.230,-25.391,-18.066,-20.020,0.000,0
161097.349,-9.766,-24.414,-25.879,-13.672,0.000,0
161097.353,-14.648,-22.949,-40.527,-18.066,0.000,0
161097.357,-19.043,-26.855,-26.367,-25.879,0.000,0
161097.361,-11.230,-21.973,-16.602,-22.461,0.000,0
161097.365,-7.324,-25.879,-31.738,-15.137,0.000,0
161097.369,-22.461,-32.227,-35.645,-15.625,0.000,0
161097.373,-13.672,-26.855,-28.809,-12.207,0.000,0
161097.377,-7.324,-25.391,-16.602,-18.555,0.000,0
161097.381,-22.949,-25.879,-31.738,-37.109,0.000,0
161097.385,-30.762,-25.879,-50.781,-24.902,0.000,0
161097.388,-20.996,-21.973,-36.621,-15.137,0.000,0
161097.392,-12.207,-18.555,-22.949,-14.160,0.000,0
161097.396,-21.973,-25.391,-23.926,-18.555,0.000,0
161097.400,-21.973,-24.902,-18.555,-0.977,0.000,0
161097.404,-11.719,-20.020,-13.184,5.859,0.000,0
161097.408,-12.695,-19.531,-30.273,-15.625,0.000,0
161097.412,-21.484,-19.531,-25.879,-26.367,0.000,0
161097.416,-21.973,-17.090,-11.719,-28.320,0.000,0
161097.420,-23.438,-18.555,-33.203,-10.254,0.000,0
161097.424,-29.785,-24.902,-33.203,-12.207,0.000,0
161097.428,-27.832,-23.926,-24.414,-17.090,0.000,0
161097.431,-21.973,-23.926,-27.344,-21.973,0.000,0
161097.435,-23.438,-29.297,-22.461,-20.508,0.000,0
161097.439,-25.391,-28.809,-32.715,-16.602,0.000,0
161097.443,-28.320,-30.762,-32.227,-21.484,0.000,0
161097.447,-34.668,-23.926,-25.879,-16.113,0.000,0
161097.451,-22.461,-20.508,-28.320,-22.461,0.000,0
161097.455,-14.160,-27.832,-41.992,-32.227,0.000,0
161097.459,-23.926,-21.484,-42.480,-26.367,0.000,0
161097.463,-26.367,-23.438,-29.785,-25.391,0.000,0
161097.467,-20.996,-22.949,-38.086,-27.344,0.000,0
161097.471,-22.949,-19.531,-46.387,-36.621,0.000,0
161097.474,-22.461,-21.484,-22.461,-48.340,0.000,0
161097.478,-26.855,-23.926,-19.043,-35.156,0.000,0
161097.482,-32.715,-25.391,-33.203,-29.785,0.000,0
161097.486,-38.574,-27.832,-44.434,-31.738,0.000,0
161097.490,-40.039,-27.832,-26.367,-35.156,0.000,0
161097.494,-27.344,-21.973,-4.395,-30.273,0.000,0
161097.498,-18.066,-20.996,-32.227,-15.137,0.000,0
161097.502,-21.484,-27.344,-46.387,-26.367,0.000,0
161097.506,-30.273,-32.715,-32.227,-35.156,0.000,0
161097.510,-29.297,-22.461,-20.508,-27.344,0.000,0
161097.513,-31.250,-21.484,-20.996,-36.621,0.000,0
161097.517,-32.715,-22.461,-22.949,-41.504,0.000,0
161097.521,-25.879,-19.531,-23.438,-33.203,0.000,0
161097.525,-24.414,-21.484,-24.902,-37.598,0.000,0
161097.529,-33.203,-25.879,-28.320,-39.551,0.000,0
161097.533,-24.414,-26.367,-36.133,-25.391,0.000,0
161097.537,-20.996,-20.508,-30.273,-22.461,0.000,0
161097.541,-33.691,-22.949,-39.551,-28.809,0.000,0
161097.545,-24.902,-29.785,-43.457,-24.902,0.000,0
161097.549,-27.832,-30.762,-27.832,-17.578,0.000,0
161097.553,-36.621,-23.926,-11.230,-20.508,0.000,0
161097.556,-30.273,-23.438,-21.973,-30.273,0.000,0
161097.560,-24.414,-26.367,-43.457,-29.297,0.000,0
161097.564,-18.066,-22.461,-29.785,-29.297,0.000,0
161097.568,-20.020,-20.508,-15.137,-27.344,0.000,0
161097.572,-21.484,-22.461,-17.578,-26.367,0.000,0
161097.576,-22.949,-25.391,-23.926,-18.555,0.000,0
161097.580,-16.113,-24.902,-18.066,2.930,0.000,0
161097.584,-17.090,-28.809,-19.531,-5.371,0.000,0
161097.588,-22.949,-34.668,-41.016,-12.207,0.000,0
161097.592,-22.461,-28.809,-36.133,-31.250,0.000,0
161097.596,-21.484,-21.973,-6.836,-31.250,0.000,0
161097.599,-15.137,-23.438,-7.812,-9.277,0.000,0
161097.603,-17.090,-26.367,-35.156,-13.672,0.000,0
161097.607,-25.879,-30.273,-34.180,-25.879,0.000,0
161097.611,-30.273,-30.273,-18.555,-36.133,0.000,0
161097.615,-24.902,-30.273,-23.926,-37.109,0.000,0
161097.619,-24.902,-30.762,-44.922,-39.062,0.000,0
161097.623,-28.320,-28.320,-42.969,-33.203,0.000,0
161097.627,-21.973,-25.391,-30.762,-19.043,0.000,0
161097.631,-31.250,-26.367,-20.508,-29.297,0.000,0
161097.635,-34.180,-30.273,-21.484,-44.434,0.000,0
161097.638,-27.832,-29.785,-33.691,-29.785,0.000,0
161097.642,-31.738,-25.391,-23.438,-22.949,0.000,0
161097.646,-34.668,-29.785,-25.391,-28.320,0.000,0
161097.650,-33.203,-39.551,-29.785,-44.434,0.000,0
161097.654,-34.180,-32.715,-21.484,-40.527,0.000,0
161097.658,-42.969,-24.902,-19.043,-25.879,0.000,0
161097.662,-34.668,-24.414,-24.414,-35.156,0.000,0
161097.666,-16.602,-21.973,-38.086,-26.367,0.000,0
161097.670,-30.273,-20.508,-18.555,-20.996,0.000,0
161097.674,-33.691,-20.020,-11.230,-27.344,0.000,0
161097.678,-21.973,-18.066,-25.879,-27.832,0.000,0
161097.681,-26.367,-18.066,-30.762,-26.855,0.000,0
161097.685,-26.855,-18.555,-29.297,-24.902,0.000,0
161097.689,-30.273,-24.414,-16.602,-36.621,0.000,0
161097.693,-30.273,-24.414,-29.297,-38.574,0.000,0
161097.697,-21.484,-23.438,-37.598,-30.273,0.000,0
161097.701,-18.066,-22.949,-32.227,-29.297,0.000,0
161097.705,-19.043,-19.531,-36.621,-23.438,0.000,0
161097.709,-13.184,-20.508,-24.902,-37.598,0.000,0
161097.713,-3.418,-18.066,-16.113,-22.949,0.000,0
161097.717,-2.441,-21.484,-34.180,-6.348,0.000,0
161097.721,-20.996,-26.855,-34.668,-33.691,0.000,0
161097.724,-38.086,-27.832,-24.902,-35.156,0.000,0
161097.728,-26.367,-30.273,-20.508,-34.180,0.000,0
161097.732,-33.691,-29.297,-18.066,-49.805,0.000,0
161097.736,-41.504,-22.949,-20.020,-41.992,0.000,0
161097.740,-18.555,-17.090,-33.203,-19.043,0.000,0
161097.744,-22.461,-16.113,-41.504,-23.438,0.000,0
161097.748,-30.762,-21.484,-12.207,-31.738,0.000,0
161097.752,-9.766,-24.414,-9.766,-28.809,0.000,0
161097.756,-2.441,-23.926,-29.297,-24.902,0.000,0
161097.760,-9.766,-23.438,-19.043,-29.785,0.000,0
161097.763,-16.113,-20.020,-20.020,-6.348,0.000,0
161097.767,-24.902,-26.367,-31.250,-4.395,0.000,0
161097.771,-19.043,-27.344,-27.344,-45.898,0.000,0
161097.775,-20.508,-25.879,-21.973,-35.645,0.000,0
161097.779,-18.555,-31.738,-22.949,-12.207,0.000,0
161097.783,-14.648,-31.250,-32.715,-19.531,0.000,0
161097.787,-14.648,-25.879,-21.973,-25.879,0.000,0
161097.791,-13.184,-24.902,-9.277,-33.203,0.000,0
161097.795,-19.043,-21.973,-24.414,-30.762,0.000,0
161097.799,-21.973,-21.484,-33.691,-18.555,0.000,0
161097.803,-23.926,-25.879,-37.598,-17.578,0.000,0
161097.806,-24.902,-22.461,-24.414,-22.461,0.000,0
161097.810,-26.367,-17.090,-4.395,-19.531,0.000,0
161097.814,-33.203,-14.160,-14.648,-15.625,0.000,0
161097.818,-34.668,-19.531,-30.273,-21.484,0.000,0
161097.822,-40.039,-20.996,-24.902,-25.391,0.000,0
161097.826,-33.203,-14.648,-14.648,-21.973,0.000,0
161097.830,-11.719,-14.648,-15.137,-34.668,0.000,0
161097.834,-12.207,-15.625,-19.531,-32.227,0.000,0
161097.838,-20.508,-15.137,-11.230,-27.832,0.000,0
161097.842,-19.531,-14.648,-15.137,-26.855,0.000,0
161097.846,-18.555,-14.648,-26.855,-26.855,0.000,0
161097.849,-25.391,-16.113,-13.672,-27.832,0.000,0
161097.853,-42.480,-19.043,-20.508,-20.508,0.000,0
161097.857,-38.574,-19.531,-37.109,-26.855,0.000,0
161097.861,-22.461,-20.996,-30.273,-18.555,0.000,0
161097.865,-25.879,-19.531,-16.113,-14.648,0.000,0
161097.869,-32.227,-20.508,-17.090,-33.203,0.000,0
161097.873,-27.344,-26.367,-34.180,-30.273,0.000,0
161097.877,-23.926,-24.902,-42.480,-18.066,0.000,0
161097.881,-26.855,-24.902,-30.273,-11.719,0.000,0
161097.885,-30.273,-26.855,-25.391,-18.066,0.000,0
161097.888,-33.203,-25.391,-28.809,-30.762,0.000,0
161097.892,-28.809,-27.832,-30.273,-20.020,0.000,0
161097.896,-20.996,-25.879,-22.461,-20.020,0.000,0
161097.900,-24.414,-24.414,-22.949,-24.902,0.000,0
161097.904,-19.043,-26.367,-34.668,-20.508,0.000,0
161097.908,-19.043,-25.879,-26.367,-26.367,0.000,0
161097.912,-23.438,-27.344,-25.391,-24.902,0.000,0
161097.916,-19.043,-25.391,-26.855,-11.230,0.000,0
161097.920,-26.855,-31.250,-43.457,-13.672,0.000,0
161097.924,-31.250,-38.574,-47.363,-30.762,0.000,0
161097.928,-25.879,-32.715,-9.766,-37.598,0.000,0
161097.931,-31.250,-29.785,-23.926,-34.668,0.000,0
161097.935,-36.133,-31.738,-48.828,-37.109,0.000,0
161097.939,-24.902,-30.762,-33.203,-37.109,0.000,0
161097.943,-17.090,-30.762,-29.785,-16.113,0.000,0
161097.947,-18.066,-29.297,-39.062,-10.254,0.000,0
161097.951,-27.832,-25.879,-41.504,-38.574,0.000,0
161097.955,-40.527,-28.320,-41.992,-34.180,0.000,0
161097.959,-47.852,-26.367,-25.879,-25.879,0.000,0
161097.963,-43.457,-21.973,-34.668,-29.297,0.000,0
161097.967,-36.621,-27.344,-36.133,-30.762,0.000,0
161097.971,-44.434,-30.762,-22.461,-36.133,0.000,0
161097.974,-41.992,-27.832,-21.484,-26.367,0.000,0
161097.978,-31.250,-22.461,-33.691,-28.809,0.000,0
161097.982,-27.344,-23.926,-36.621,-28.320,0.000,0
161097.986,-29.785,-27.832,-22.461,-24.414,0.000,0
161097.990,-26.855,-29.297,-28.320,-26.367,0.000,0
161097.994,-24.902,-30.273,-35.645,-23.926,0.000,0
161097.998,-24.902,-31.250,-28.809,-23.926,0.000,0
161098.002,-20.020,-26.367,-19.531,-22.461,0.000,0
161098.006,-25.879,-22.949,-15.625,-28.809,0.000,0
161098.010,-20.020,-16.602,-27.344,-19.531,0.000,0
161098.013,-14.648,-21.484,-24.414,-19.043,0.000,0
161098.017,-21.973,-25.391,-20.508,-22.949,0.000,0
161098.021,-17.090,-22.949,-29.785,-27.832,0.000,0
161098.025,-16.113,-24.902,-15.625,-34.180,0.000,0
161098.029,-22.949,-24.902,-22.461,-31.250,0.000,0
161098.033,-16.602,-23.438,-29.297,-29.297,0.000,0
161098.037,-28.809,-28.320,-32.227,-22.461,0.000,0
161098.041,-39.551,-32.227,-29.297,-34.180,0.000,0
161098.045,-31.250,-29.297,-16.113,-34.668,0.000,0
161098.049,-19.531,-23.926,-22.949,-33.203,0.000,0
161098.053,-30.273,-33.203,-34.668,-40.039,0.000,0
161098.056,-40.527,-32.227,-32.227,-27.344,0.000,0
161098.060,-29.297,-21.973,-15.625,-22.949,0.000,0
161098.064,-20.020,-26.855,-14.648,-18.066,0.000,0
161098.068,-25.879,-27.832,-29.785,-18.066,0.000,0
161098.072,-32.227,-26.855,-24.414,-39.062,0.000,0
161098.076,-25.879,-34.180,-16.113,-35.156,0.000,0
161098.080,-24.902,-32.715,-28.809,-21.973,0.000,0
161098.084,-32.227,-20.996,-27.832,-35.156,0.000,0
161098.088,-34.668,-15.137,-22.949,-38.574,0.000,0
161098.092,-23.926,-22.461,-30.273,-21.973,0.000,0
161098.096,-23.926,-28.320,-32.227,-25.879,0.000,0
161098.099,-30.762,-30.762,-34.668,-32.715,0.000,0
161098.103,-28.320,-32.227,-16.602,-29.785,0.000,0
161098.107,-26.367,-23.438,-10.254,-31.250,0.000,0
161098.111,-30.273,-23.926,-29.785,-40.039,0.000,0
161098.115,-25.879,-28.320,-32.227,-33.203,0.000,0
161098.119,-28.809,-27.832,-31.250,-29.297,0.000,0
161098.123,-34.668,-23.926,-17.578,-43.457,0.000,0
161098.127,-34.668,-25.391,-24.414,-34.180,0.000,0
161098.131,-28.320,-25.391,-34.180,-15.137,0.000,0
161098.135,-30.273,-25.879,-28.320,-29.297,0.000,0
161098.138,-27.832,-30.273,-31.250,-26.855,0.000,0
161098.142,-18.066,-30.762,-18.066,-25.391,0.000,0
161098.146,-36.621,-26.367,-19.531,-43.945,0.000,0
161098.150,-49.316,-29.785,-32.715,-45.898,0.000,0
161098.154,-37.598,-32.227,-48.828,-35.645,0.000,0
161098.158,-20.996,-31.738,-54.688,-31.738,0.000,0
161098.162,-28.809,-33.691,-27.832,-28.320,0.000,0
161098.166,-32.227,-26.855,-29.785,-20.508,0.000,0
161098.170,-29.785,-25.879,-52.246,-23.926,0.000,0
161098.174,-22.949,-29.297,-44.434,-26.367,0.000,0
161098.178,-15.137,-26.367,-34.668,-17.090,0.000,0
161098.181,-23.438,-24.902,-36.621,-14.648,0.000,0
161098.185,-31.738,-27.832,-46.387,-34.668,0.000,0
161098.189,-31.738,-26.367,-46.875,-42.969,0.000,0
161098.193,-31.250,-27.344,-41.016,-34.668,0.000,0
161098.197,-30.273,-28.320,-45.898,-36.133,0.000,0
161098.201,-32.715,-30.273,-44.434,-37.598,0.000,0
161098.205,-34.180,-31.738,-38.086,-20.508,0.000,0
161098.209,-35.156,-35.156,-37.598,-25.879,0.000,0
161098.213,-33.691,-29.785,-35.645,-30.273,0.000,0
161098.217,-35.645,-27.344,-45.410,-28.320,0.000,0
161098.221,-36.133,-31.250,-37.598,-46.875,0.000,0
161098.224,-28.809,-27.344,-21.484,-44.922,0.000,0
161098.228,-26.367,-26.367,-29.785,-21.973,0.000,0
161098.232,-22.461,-25.391,-35.156,-13.184,0.000,0
161098.236,-24.902,-24.414,-31.738,-26.855,0.000,0
161098.240,-33.203,-28.320,-23.926,-42.480,0.000,0
161098.244,-29.785,-28.809,-17.090,-50.781,0.000,0
161098.248,-33.203,-30.273,-33.691,-42.969,0.000,0
161098.252,-39.551,-29.297,-32.227,-36.133,0.000,0
161098.256,-30.762,-24.414,-17.578,-31.250,0.000,0
161098.260,-22.949,-20.508,-21.973,-33.691,0.000,0
161098.263,-26.367,-18.555,-22.461,-29.297,0.000,0
161098.267,-31.738,-22.461,-32.227,-19.043,0.000,0
161098.271,-35.156,-22.949,-29.297,-23.926,0.000,0
161098.275,-24.902,-20.020,-22.949,-13.672,0.000,0
161098.279,-13.184,-16.602,-15.625,-9.277,0.000,0
161098.283,-21.973,-18.066,-19.531,-33.203,0.000,0
161098.287,-28.809,-24.902,-23.926,-36.133,0.000,0
161098.291,-30.273,-29.297,-37.109,-20.508,0.000,0
161098.295,-31.250,-29.297,-39.062,-20.020,0.000,0
161098.299,-27.344,-25.879,-7.324,-29.297,0.000,0
161098.303,-21.973,-24.902,-17.090,-20.996,0.000,0
161098.306,-16.113,-25.879,-30.762,-18.066,0.000,0
161098.310,-23.438,-23.438,-20.996,-27.344,0.000,0
161098.314,-26.855,-20.508,-19.531,-19.531,0.000,0
161098.318,-17.578,-14.648,-11.230,-20.996,0.000,0
161098.322,-19.043,-19.531,-17.578,-35.645,0.000,0
161098.326,-29.785,-22.949,-22.461,-30.762,0.000,0
161098.330,-25.391,-21.484,-23.926,-21.973,0.000,0
161098.334,-28.320,-26.367,-33.691,-31.250,0.000,0
161098.338,-30.273,-26.855,-26.367,-42.969,0.000,0
161098.342,-31.738,-24.414,-23.438,-28.809,0.000,0
161098.346,-40.527,-25.879,-12.207,-33.691,0.000,0
161098.349,-34.180,-31.250,-29.297,-42.969,0.000,0
161098.353,-26.367,-28.320,-51.270,-33.691,0.000,0
161098.357,-29.297,-28.320,-22.461,-40.527,0.000,0
161098.361,-27.344,-29.785,-13.672,-36.133,0.000,0
161098.365,-25.879,-30.762,-29.297,-35.156,0.000,0
161098.369,-27.832,-24.902,-29.297,-36.621,0.000,0
161098.373,-33.203,-27.832,-27.832,-28.809,0.000,0
161098.377,-46.875,-35.156,-20.508,-37.598,0.000,0
161098.381,-41.016,-27.832,-20.020,-39.062,0.000,0
161098.385,-35.156,-31.250,-32.227,-34.180,0.000,0
161098.388,-32.227,-28.809,-14.648,-30.762,0.000,0
161098.392,-25.391,-21.973,-15.137,-17.090,0.000,0
161098.396,-20.508,-25.879,-25.879,-23.438,0.000,0
161098.400,-30.762,-23.926,-19.043,-35.645,0.000,0
161098.404,-27.832,-23.438,-24.414,-23.926,0.000,0
161098.408,-21.484,-25.391,-25.879,-31.738,0.000,0
161098.412,-19.531,-18.555,-24.902,-36.133,0.000,0
161098.416,-17.578,-15.625,-9.766,-30.273,0.000,0
161098.420,-29.785,-23.926,-6.836,-43.457,0.000,0
161098.424,-32.227,-26.855,-26.855,-42.480,0.000,0
161098.428,-33.691,-25.391,-26.855,-46.875,0.000,0
161098.431,-34.180,-26.855,-27.344,-34.180,0.000,0
161098.435,-17.578,-28.809,-24.414,-17.578,0.000,0
161098.439,-17.090,-23.438,-19.043,-39.062,0.000,0
161098.443,-22.949,-21.484,-33.203,-41.504,0.000,0
161098.447,-21.484,-25.879,-25.391,-38.086,0.000,0
161098.451,-33.691,-23.926,-20.020,-35.156,0.000,0
161098.455,-35.156,-25.391,-34.180,-26.367,0.000,0
161098.459,-41.016,-30.273,-24.414,-37.109,0.000,0
161098.463,-36.621,-28.809,-23.438,-35.645,0.000,0
161098.467,-4.883,-28.809,-26.367,-20.996,0.000,0
161098.471,-10.254,-22.949,-26.367,-24.414,0.000,0
161098.474,-49.805,-23.926,-25.391,-56.152,0.000,0
161098.478,-50.293,-30.762,-16.602,-53.711,0.000,0
161098.482,-32.715,-30.273,-18.555,-32.227,0.000,0
161098.486,-36.621,-30.273,-39.062,-43.457,0.000,0
161098.490,-37.598,-36.621,-43.457,-47.852,0.000,0
161098.494,-39.062,-35.645,-34.668,-34.180,0.000,0
161098.498,-34.180,-27.344,-27.832,-37.598,0.000,0
161098.502,-24.902,-25.879,-35.156,-29.785,0.000,0
161098.506,-26.367,-30.273,-34.668,-21.484,0.000,0
161098.510,-17.090,-25.879,-29.297,-16.113,0.000,0
161098.513,-23.926,-22.949,-34.180,-12.695,0.000,0
161098.517,-27.344,-31.738,-36.133,-32.715,0.000,0
161098.521,-23.926,-29.297,-35.645,-33.691,0.000,0
161098.525,-37.598,-27.344,-34.180,-15.625,0.000,0
161098.529,-18.555,-26.367,-37.598,-26.855,0.000,0
161098.533,-17.578,-24.414,-36.621,-34.668,0.000,0
161098.537,-41.992,-26.367,-26.855,-34.668,0.000,0
161098.541,-37.109,-28.809,-30.273,-48.828,0.000,0
161098.545,-37.109,-34.668,-41.016,-38.086,0.000,0
161098.549,-33.691,-32.715,-36.621,-32.227,0.000,0
161098.553,-39.551,-31.250,-34.668,-42.480,0.000,0
161098.556,-40.039,-31.250,-38.086,-31.738,0.000,0
161098.560,-35.156,-37.109,-40.039,-30.762,0.000,0
161098.564,-40.527,-43.457,-44.922,-37.598,0.000,0
161098.568,-39.062,-32.715,-26.367,-34.180,0.000,0
161098.572,-29.785,-33.691,-28.320,-35.156,0.000,0
161098.576,-23.926,-41.992,-36.133,-41.992,0.000,0
161098.580,-18.555,-33.691,-27.344,-37.598,0.000,0
161098.584,-17.578,-28.809,-20.020,-17.578,0.000,0
161098.588,-24.414,-30.273,-26.855,-15.625,0.000,0
161098.592,-25.391,-29.297,-25.879,-28.320,0.000,0
161098.596,-20.020,-31.738,-11.719,-32.715,0.000,0
161098.599,-20.020,-32.227,-16.602,-37.598,0.000,0
161098.603,-14.160,-24.902,-19.531,-38.574,0.000,0
161098.607,-10.742,-17.578,-11.719,-32.715,0.000,0
161098.611,-22.461,-23.438,-18.555,-10.254,0.000,0
161098.615,-26.367,-29.297,-15.625,-7.812,0.000,0
161098.619,-20.996,-30.762,-14.648,-27.832,0.000,0
161098.623,-20.508,-35.645,-28.320,-24.414,0.000,0
161098.627,-14.160,-35.156,-20.996,-16.113,0.000,0
161098.631,-18.066,-30.273,-11.230,-20.508,0.000,0
161098.635,-21.973,-28.809,-17.090,-31.250,0.000,0
161098.638,-17.090,-27.832,-13.672,-29.785,0.000,0
161098.642,-22.461,-25.391,-9.766,-26.367,0.000,0
161098.646,-19.043,-27.344,-15.137,-16.602,0.000,0
161098.650,-14.160,-28.809,-24.414,-12.695,0.000,0
161098.654,-17.578,-23.926,-15.137,-11.230,0.000,0
161098.658,-20.996,-21.973,-15.137,5.859,0.000,0
161098.662,-20.996,-25.879,-21.973,0.977,0.000,0
161098.666,-15.137,-22.949,-26.367,-18.555,0.000,0
161098.670,-15.137,-20.508,-32.227,-18.555,0.000,0
161098.674,-24.902,-24.902,-3.418,-16.602,0.000,0
161098.678,-34.180,-28.320,-4.883,-29.297,0.000,0
161098.681,-31.738,-31.738,-35.156,-36.133,0.000,0
161098.685,-38.574,-31.738,-32.227,-27.832,0.000,0
161098.689,-38.574,-36.133,-22.949,-20.020,0.000,0
161098.693,-24.414,-34.668,-10.742,-40.527,0.000,0
161098.697,-31.738,-27.344,-10.742,-42.480,0.000,0
161098.701,-36.621,-24.902,-18.555,-25.879,0.000,0
161098.705,-20.508,-26.367,-6.836,-22.461,0.000,0
161098.709,-15.625,-24.414,-9.766,-11.719,0.000,0
161098.713,-11.230,-26.855,-18.066,-28.320,0.000,0
161098.717,-10.254,-25.391,-12.695,-45.898,0.000,0
161098.721,-25.391,-24.414,-15.137,-36.621,0.000,0
161098.724,-36.621,-25.391,-30.273,-22.461,0.000,0
161098.728,-40.039,-26.367,-31.250,-22.461,0.000,0
161098.732,-39.062,-29.297,-15.625,-44.434,0.000,0
161098.736,-36.621,-21.484,-11.230,-40.039,0.000,0
161098.740,-38.574,-18.066,-33.691,-33.203,0.000,0
161098.744,-29.785,-21.484,-32.227,-41.016,0.000,0
161098.748,-20.508,-22.949,-19.531,-31.738,0.000,0
161098.752,-10.742,-20.020,-14.160,-23.926,0.000,0
161098.756,-8.301,-15.137,-6.348,-21.484,0.000,0
161098.760,-20.996,-16.602,-6.836,-21.973,0.000,0
161098.763,-28.320,-19.531,-3.906,-33.203,0.000,0
161098.767,-29.785,-20.996,-18.555,-27.344,0.000,0
161098.771,-26.855,-25.879,-23.926,-28.320,0.000,0
161098.775,-24.902,-26.367,-11.230,-39.062,0.000,0
161098.779,-33.203,-23.926,-20.020,-34.180,0.000,0
161098.783,-37.109,-31.250,-31.250,-32.227,0.000,0
161098.787,-36.133,-30.762,-32.715,-16.602,0.000,0
161098.791,-29.297,-24.414,-14.648,-0.977,0.000,0
161098.795,-28.320,-29.785,-3.906,-13.184,0.000,0
161098.799,-31.738,-32.715,-21.973,-21.484,0.000,0
161098.803,-24.414,-33.203,-34.180,-20.020,0.000,0
161098.806,-26.855,-27.832,-26.367,-19.043,0.000,0
161098.810,-30.273,-24.902,-12.207,-22.949,0.000,0
161098.814,-20.996,-20.020,-18.066,-27.832,0.000,0
161098.818,-19.531,-15.625,-25.391,-27.344,0.000,0
161098.822,-22.461,-19.043,-20.508,-25.391,0.000,0
161098.826,-23.438,-18.555,-26.855,-23.438,0.000,0
161098.830,-21.973,-20.508,-28.320,-26.855,0.000,0
161098.834,-23.926,-21.973,-23.926,-34.668,0.000,0
161098.838,-29.785,-23.438,-28.809,-20.508,0.000,0
161098.842,-25.879,-23.438,-28.320,-15.137,0.000,0
161098.846,-14.648,-16.113,-20.996,-18.066,0.000,0
161098.849,-19.043,-16.602,-18.066,-16.113,0.000,0
161098.853,-25.391,-20.508,-14.160,-30.273,0.000,0
161098.857,-15.137,-19.531,-15.625,-20.020,0.000,0
161098.861,-10.742,-21.973,-22.949,-14.648,0.000,0
161098.865,-18.066,-23.926,-20.508,-6.836,0.000,0
161098.869,-11.719,-18.555,-20.020,1.465,0.000,0
161098.873,-10.254,-18.555,-10.254,-16.113,0.000,0
161098.877,-11.230,-24.414,-19.531,-19.043,0.000,0
161098.881,0.488,-24.414,-19.531,-16.113,0.000,0
161098.885,-8.301,-22.949,-14.160,-6.348,0.000,0
161098.888,-23.438,-19.043,-16.602,-13.672,0.000,0
161098.892,-20.020,-22.461,-13.672,-32.227,0.000,0
161098.896,-20.020,-23.926,-11.230,-33.691,0.000,0
161098.900,-25.879,-15.625,-10.742,-25.391,0.000,0
161098.904,-17.578,-16.113,-22.461,-29.785,0.000,0
161098.908,-3.418,-17.578,-19.531,-32.715,0.000,0
161098.912,-14.160,-22.949,-10.742,-43.945,0.000,0
161098.916,-31.738,-28.320,-22.461,-44.434,0.000,0
161098.920,-32.227,-25.391,-40.527,-34.180,0.000,0
161098.924,-25.391,-24.414,-21.484,-41.504,0.000,0
161098.928,-21.973,-27.344,-16.602,-30.762,0.000,0
161098.931,-27.832,-24.902,-33.691,-29.785,0.000,0
161098.935,-32.227,-29.297,-39.062,-42.480,0.000,0
161098.939,-23.438,-29.785,-34.668,-23.926,0.000,0
161098.943,-25.879,-23.926,-17.090,-20.020,0.000,0
161098.947,-36.133,-24.414,-28.809,-33.691,0.000,0
161098.951,-33.203,-28.809,-32.227,-35.645,0.000,0
161098.955,-33.691,-35.156,-25.879,-36.621,0.000,0
161098.959,-36.133,-31.738,-23.926,-41.016,0.000,0
161098.963,-29.785,-26.855,-19.531,-42.480,0.000,0
161098.967,-35.645,-27.832,-26.367,-34.180,0.000,0
161098.971,-31.738,-26.367,-34.180,-33.691,0.000,0
161098.974,-25.879,-24.902,-24.414,-33.203,0.000,0
161098.978,-28.320,-30.273,-35.156,-14.648,0.000,0
161098.982,-28.809,-27.344,-29.297,-23.926,0.000,0
161098.986,-34.180,-22.461,-11.230,-42.480,0.000,0
161098.990,-35.156,-23.926,-30.273,-41.504,0.000,0
161098.994,-31.738,-23.438,-44.922,-34.180,0.000,0
161098.998,-34.668,-28.320,-31.738,-28.809,0.000,0
161099.002,-34.180,-25.879,-24.902,-25.879,0.000,0
161099.006,-21.484,-24.902,-26.367,-38.574,0.000,0
161099.010,-12.695,-24.414,-28.320,-33.203,0.000,0
161099.013,-25.879,-25.391,-38.086,-22.949,0.000,0
161099.017,-29.297,-26.855,-32.715,-29.297,0.000,0
161099.021,-28.320,-27.832,-36.133,-27.344,0.000,0
161099.025,-34.180,-32.715,-28.809,-38.574,0.000,0
161099.029,-23.438,-33.203,-34.180,-41.504,0.000,0
161099.033,-24.902,-27.344,-45.410,-25.391,0.000,0
161099.037,-38.086,-25.879,-31.250,-21.973,0.000,0
161099.041,-33.691,-30.273,-41.504,-29.297,0.000,0
161099.045,-32.715,-30.273,-24.902,-39.062,0.000,0
161099.049,-38.086,-25.879,-22.461,-36.621,0.000,0
161099.053,-39.062,-27.344,-42.480,-31.738,0.000,0
161099.056,-41.504,-30.273,-30.273,-42.480,0.000,0
161099.060,-39.062,-27.344,-29.297,-43.945,0.000,0
161099.064,-25.879,-28.809,-26.855,-44.434,0.000,0
161099.068,-23.926,-34.180,-37.598,-57.129,0.000,0
161099.072,-33.203,-35.645,-40.527,-52.734,0.000,0
161099.076,-38.086,-34.180,-33.691,-30.273,0.000,0
161099.080,-31.738,-30.762,-43.457,-22.949,0.000,0
161099.084,-30.273,-36.133,-36.621,-27.832,0.000,0
161099.088,-38.086,-40.039,-27.344,-38.086,0.000,0
161099.092,-36.621,-38.574,-28.809,-37.109,0.000,0
161099.096,-23.926,-37.598,-32.715,-20.508,0.000,0
161099.099,-20.996,-34.668,-40.039,-18.066,0.000,0
161099.103,-20.508,-31.250,-27.832,-23.438,0.000,0
161099.107,-9.766,-28.809,-12.695,-22.949,0.000,0
161099.111,-6.836,-28.320,-28.320,-10.742,0.000,0
161099.115,-14.160,-26.855,-32.715,-4.395,0.000,0
161099.119,-20.020,-28.809,-24.414,-3.906,0.000,0
161099.123,-18.066,-32.715,-18.066,-21.484,0.000,0
161099.127,-7.812,-32.715,-17.578,-27.832,0.000,0
161099.131,-14.160,-30.273,-30.273,-13.184,0.000,0
161099.135,-26.855,-30.762,-18.066,-8.789,0.000,0
161099.138,-20.508,-27.832,-23.438,-5.859,0.000,0
161099.142,-15.137,-30.762,-41.992,4.883,0.000,0
161099.146,-29.785,-32.715,-20.020,-18.066,0.000,0
161099.150,-36.133,-25.879,-21.484,-28.320,0.000,0
161099.154,-30.762,-22.949,-31.250,-12.695,0.000,0
161099.158,-34.180,-21.973,-30.273,-18.555,0.000,0
161099.162,-24.902,-24.902,-15.137,-25.391,0.000,0
161099.166,-19.531,-22.949,-13.184,-25.391,0.000,0
161099.170,-25.391,-20.020,-41.504,-20.020,0.000,0
161099.174,-28.320,-19.531,-39.551,-20.020,0.000,0
161099.178,-36.621,-17.090,-28.320,-20.996,0.000,0
161099.181,-27.344,-18.066,-31.250,-20.508,0.000,0
161099.185,-24.902,-24.902,-31.738,-22.461,0.000,0
161099.189,-33.203,-27.344,-29.297,-21.484,0.000,0
161099.193,-26.855,-23.438,-18.066,-19.043,0.000,0
161099.197,-23.926,-20.508,-25.879,-20.996,0.000,0
161099.201,-26.367,-22.949,-21.973,-19.531,0.000,0
161099.205,-29.297,-29.785,-18.066,-23.438,0.000,0
161099.209,-33.203,-23.438,-26.367,-24.414,0.000,0
161099.213,-32.227,-21.484,-36.621,-16.602,0.000,0
161099.217,-33.203,-20.508,-32.227,-12.695,0.000,0
161099.221,-35.156,-21.484,-18.066,-26.367,0.000,0
161099.224,-29.785,-16.602,-18.555,-30.762,0.000,0
161099.228,-22.461,-9.277,-29.297,-16.602,0.000,0
161099.232,-17.578,-10.742,-27.832,-9.766,0.000,0
161099.236,-21.973,-14.160,-15.625,-8.301,0.000,0
161099.240,-21.484,-18.066,-19.043,-17.090,0.000,0
161099.244,-20.996,-19.043,-27.344,-23.926,0.000,0
161099.248,-27.344,-18.066,-25.391,-19.531,0.000,0
161099.252,-29.785,-20.996,-23.438,-20.996,0.000,0
161099.256,-34.180,-24.414,-28.320,-20.508,0.000,0
161099.260,-21.973,-19.043,-23.926,-3.418,0.000,0
161099.263,-12.695,-19.531,-13.672,-15.625,0.000,0
161099.267,-8.301,-22.949,-13.184,-26.367,0.000,0
161099.271,-21.973,-16.113,-28.320,-14.648,0.000,0
161099.275,-35.156,-19.043,-44.434,-23.926,0.000,0
161099.279,-27.344,-25.391,-25.879,-31.250,0.000,0
161099.283,-28.809,-15.625,-7.324,-29.297,0.000,0
161099.287,-33.203,-16.602,-31.250,-31.250,0.000,0
161099.291,-15.137,-25.879,-34.668,-33.203,0.000,0
161099.295,-13.184,-31.250,-26.367,-25.879,0.000,0
161099.299,-32.227,-35.645,-23.438,-41.016,0.000,0
161099.303,-27.344,-33.691,-27.832,-46.387,0.000,0
161099.306,-21.973,-29.297,-26.855,-39.551,0.000,0
161099.310,-33.691,-32.227,-36.621,-39.062,0.000,0
161099.314,-40.039,-36.621,-48.340,-27.832,0.000,0
161099.318,-36.621,-38.086,-32.227,-44.922,0.000,0
161099.322,-36.621,-37.598,-32.227,-53.711,0.000,0
161099.326,-44.922,-35.645,-39.551,-20.996,0.000,0
161099.330,-39.551,-34.668,-39.551,-26.367,0.000,0
161099.334,-26.367,-33.203,-39.551,-28.809,0.000,0
161099.338,-22.949,-32.227,-21.484,-20.020,0.000,0
161099.342,-19.043,-30.273,-22.949,-25.879,0.000,0
161099.346,-21.973,-30.762,-34.668,-31.250,0.000,0
161099.349,-32.227,-31.250,-35.645,-35.156,0.000,0
161099.353,-35.156,-24.902,-37.109,-29.297,0.000,0
161099.357,-39.062,-26.855,-19.043,-33.691,0.000,0
161099.361,-33.203,-28.320,-20.508,-34.668,0.000,0
161099.365,-31.250,-27.344,-26.855,-22.949,0.000,0
161099.369,-33.203,-30.762,-12.207,-25.391,0.000,0
161099.373,-30.762,-30.273,-19.531,-20.996,0.000,0
161099.377,-23.926,-27.344,-26.367,-31.250,0.000,0
161099.381,-24.414,-27.832,-17.090,-36.621,0.000,0
161099.385,-27.344,-25.879,-21.484,-28.809,0.000,0
161099.388,-26.855,-25.391,-27.344,-28.320,0.000,0
161099.392,-18.555,-27.344,-39.062,-23.926,0.000,0
161099.396,-14.160,-27.344,-24.414,-28.809,0.000,0
161099.400,-20.508,-21.484,-10.254,-3.906,0.000,0
161099.404,-16.602,-29.297,-28.320,13.184,0.000,0
161099.408,-14.648,-29.785,-25.879,-9.766,0.000,0
161099.412,-20.508,-23.438,-30.762,-20.020,0.000,0
161099.416,-26.855,-30.273,-17.578,-23.926,0.000,0
161099.420,-33.691,-31.738,-16.602,-38.574,0.000,0
161099.424,-29.785,-26.367,-42.480,-32.715,0.000,0
161099.428,-39.551,-30.762,-36.621,-15.625,0.000,0
161099.431,-38.574,-28.809,-28.809,-31.250,0.000,0
161099.435,-20.508,-25.879,-24.414,-51.758,0.000,0
161099.439,-33.203,-25.391,-20.508,-43.457,0.000,0
161099.443,-41.016,-25.879,-33.203,-36.621,0.000,0
161099.447,-35.156,-28.809,-33.203,-41.504,0.000,0
161099.451,-26.367,-24.902,-34.180,-32.227,0.000,0
161099.455,-32.227,-27.832,-37.109,-25.879,0.000,0
161099.459,-31.250,-31.250,-21.973,-27.832,0.000,0
161099.463,-22.949,-25.391,-20.996,-28.809,0.000,0
161099.467,-20.996,-23.438,-34.180,-29.297,0.000,0
161099.471,-16.113,-24.902,-26.855,-28.809,0.000,0
161099.474,-21.484,-24.414,-22.949,-30.273,0.000,0
161099.478,-29.297,-25.391,-26.855,-43.457,0.000,0
161099.482,-37.598,-25.391,-31.250,-43.457,0.000,0
161099.486,-40.039,-31.738,-26.367,-24.414,0.000,0
161099.490,-44.922,-26.855,-26.367,-17.578,0.000,0
161099.494,-43.457,-22.949,-34.668,-30.762,0.000,0
161099.498,-25.391,-24.902,-24.414,-35.645,0.000,0
161099.502,-20.996,-20.508,-22.949,-12.207,0.000,0
161099.506,-24.902,-19.531,-31.738,-1.953,0.000,0
161099.510,-20.020,-22.949,-37.109,-20.996,0.000,0
161099.513,-25.391,-22.461,-29.297,-27.832,0.000,0
161099.517,-22.461,-28.320,-18.066,-25.879,0.000,0
161099.521,-8.789,-26.855,-14.648,-16.602,0.000,0
161099.525,-33.203,-25.391,-33.691,-20.996,0.000,0
161099.529,-51.758,-26.367,-45.410,-41.016,0.000,0
161099.533,-39.062,-20.020,-23.438,-44.434,0.000,0
161099.537,-32.227,-24.902,-15.625,-35.156,0.000,0
161099.541,-26.855,-28.320,-29.785,-16.113,0.000,0
161099.545,-28.320,-25.879,-36.621,-27.832,0.000,0
161099.549,-31.250,-22.949,-23.926,-41.016,0.000,0
161099.553,-41.504,-24.902,-20.508,-33.203,0.000,0
161099.556,-39.062,-24.414,-24.414,-24.414,0.000,0
161099.560,-32.227,-20.020,-20.996,-25.879,0.000,0
161099.564,-34.180,-20.020,-15.625,-15.137,0.000,0
161099.568,-27.832,-22.461,-20.020,-0.488,0.000,0
161099.572,-19.531,-35.645,-26.855,-26.367,0.000,0
161099.576,-28.320,-38.086,-27.344,-30.273,0.000,0
161099.580,-26.367,-27.344,-33.203,-22.949,0.000,0
161099.584,-20.508,-27.344,-26.367,-30.273,0.000,0
161099.588,-28.809,-33.203,-30.273,-30.762,0.000,0
161099.592,-28.320,-34.668,-40.527,-21.973,0.000,0
161099.596,-33.203,-32.715,-32.227,-27.832,0.000,0
161099.599,-35.645,-34.180,-24.414,-32.715,0.000,0
161099.603,-23.438,-37.598,-38.574,-25.391,0.000,0
161099.607,-22.461,-28.320,-42.480,-24.902,0.000,0
161099.611,-28.320,-21.973,-23.926,-20.020,0.000,0
161099.615,-25.879,-23.438,-17.578,-23.926,0.000,0
161099.619,-26.855,-23.926,-32.715,-32.715,0.000,0
161099.623,-36.133,-25.879,-41.504,-37.598,0.000,0
161099.627,-32.715,-29.297,-40.039,-18.555,0.000,0
161099.631,-27.344,-29.297,-41.016,-1.953,0.000,0
161099.635,-31.250,-25.879,-25.879,-34.180,0.000,0
161099.638,-34.180,-29.297,-20.996,-39.551,0.000,0
161099.642,-23.438,-31.738,-39.062,-13.672,0.000,0
161099.646,-17.578,-26.855,-42.969,-14.160,0.000,0
161099.650,-26.855,-26.855,-39.551,-23.926,0.000,0
161099.654,-30.273,-26.855,-19.531,-27.832,0.000,0
161099.658,-26.855,-26.367,-12.695,-29.297,0.000,0
161099.662,-23.926,-30.273,-31.738,-37.109,0.000,0
161099.666,-28.809,-26.855,-31.250,-33.691,0.000,0
161099.670,-30.762,-26.367,-26.855,-25.879,0.000,0
161099.674,-29.785,-29.785,-15.625,-49.316,0.000,0
161099.678,-27.344,-24.414,-30.762,-30.762,0.000,0
161099.681,-20.996,-22.461,-38.574,-15.625,0.000,0
161099.685,-17.578,-24.414,-32.715,-27.832,0.000,0
161099.689,-14.160,-28.320,-27.832,-13.184,0.000,0
161099.693,-19.531,-34.668,-26.855,-29.785,0.000,0
161099.697,-21.484,-30.762,-27.344,-48.828,0.000,0
161099.701,-29.297,-24.902,-19.531,-32.715,0.000,0
161099.705,-32.227,-29.297,-36.133,-18.066,0.000,0
161099.709,-23.926,-30.762,-35.645,-24.414,0.000,0
161099.713,-21.973,-25.879,-14.648,-39.062,0.000,0
161099.717,-27.344,-23.926,-34.180,-34.180,0.000,0
161099.721,-37.109,-28.809,-43.457,-30.273,0.000,0
161099.724,-32.227,-31.738,-37.109,-26.367,0.000,0
161099.728,-26.855,-28.809,-28.320,-27.832,0.000,0
161099.732,-29.785,-30.762,-24.902,-36.133,0.000,0
161099.736,-28.320,-25.391,-31.738,-33.203,0.000,0
161099.740,-33.691,-21.484,-34.180,-29.785,0.000,0
161099.744,-40.527,-21.973,-29.297,-25.391,0.000,0
161099.748,-34.180,-20.508,-28.809,-31.250,0.000,0
161099.752,-19.531,-19.531,-19.531,-39.551,0.000,0
161099.756,-20.996,-16.113,-17.090,-31.738,0.000,0
161099.760,-30.273,-20.508,-25.391,-37.598,0.000,0
161099.763,-28.320,-19.043,-26.855,-42.480,0.000,0
161099.767,-32.227,-16.602,-30.273,-35.645,0.000,0
161099.771,-30.762,-18.066,-22.949,-32.715,0.000,0
161099.775,-24.414,-21.484,-15.137,-45.898,0.000,0
161099.779,-23.438,-20.508,-36.133,-31.250,0.000,0
161099.783,-20.020,-17.090,-38.574,-5.371,0.000,0
161099.787,-30.762,-19.531,-19.043,-18.066,0.000,0
161099.791,-36.133,-14.648,-3.906,-41.016,0.000,0
161099.795,-25.879,-12.207,-19.531,-36.621,0.000,0
161099.799,-28.320,-21.484,-41.992,-29.297,0.000,0
161099.803,-32.227,-20.020,-25.391,-22.949,0.000,0
161099.806,-34.180,-20.508,-26.367,-11.230,0.000,0
161099.810,-19.531,-26.855,-28.320,-13.672,0.000,0
161099.814,-22.461,-22.461,-23.926,-17.090,0.000,0
161099.818,-34.180,-19.531,-23.438,-6.836,0.000,0
161099.822,-30.273,-20.508,-26.855,-4.395,0.000,0
161099.826,-25.879,-19.531,-36.133,-11.719,0.000,0
161099.830,-22.461,-20.020,-21.484,-18.555,0.000,0
161099.834,-20.508,-15.137,-10.742,-17.090,0.000,0
161099.838,-28.320,-18.066,-24.902,-20.020,0.000,0
161099.842,-19.531,-22.461,-43.457,-23.926,0.000,0
161099.846,-5.859,-22.461,-41.992,-8.301,0.000,0
161099.849,-21.973,-18.555,-7.812,-5.859,0.000,0
161099.853,-24.902,-17.090,-9.766,-9.766,0.000,0
161099.857,-15.625,-22.461,-47.363,-6.348,0.000,0
161099.861,-15.137,-26.367,-49.316,-19.531,0.000,0
161099.865,-9.766,-20.996,-25.391,-22.461,0.000,0
161099.869,-12.207,-17.578,-20.020,-21.484,0.000,0
161099.873,-21.484,-23.926,-28.809,-20.508,0.000,0
161099.877,-14.160,-25.879,-22.949,-20.996,0.000,0
161099.881,-22.949,-23.926,-21.973,-22.461,0.000,0
161099.885,-23.926,-21.484,-37.109,-16.113,0.000,0
161099.888,-13.672,-20.020,-39.551,-26.855,0.000,0
161099.892,-18.066,-19.531,-27.832,-35.156,0.000,0
161099.896,-18.555,-16.113,-16.602,-21.973,0.000,0
161099.900,-12.695,-15.137,-22.461,-22.461,0.000,0
161099.904,-14.160,-20.020,-29.297,-19.531,0.000,0
161099.908,-23.438,-27.344,-22.949,-22.461,0.000,0
161099.912,-26.855,-22.461,-17.090,-38.574,0.000,0
161099.916,-22.461,-13.184,-24.902,-37.598,0.000,0
161099.920,-19.043,-19.531,-21.484,-22.949,0.000,0
161099.924,-13.672,-24.414,-26.855,-2.441,0.000,0
161099.928,-12.695,-23.438,-31.738,-13.184,0.000,0
161099.931,-20.508,-23.926,-25.391,-27.344,0.000,0
161099.935,-26.855,-27.832,-33.691,-17.090,0.000,0
161099.939,-34.668,-20.508,-14.648,-23.438,0.000,0
161099.943,-35.645,-18.555,-23.926,-23.438,0.000,0
161099.947,-38.086,-28.320,-41.992,-14.648,0.000,0
161099.951,-35.156,-23.926,-23.438,-24.902,0.000,0
161099.955,-27.832,-19.043,-24.902,-26.367,0.000,0
161099.959,-24.902,-22.461,-31.738,-17.090,0.000,0
161099.963,-29.297,-27.832,-29.297,-20.996,0.000,0
161099.967,-29.297,-23.926,-15.625,-28.320,0.000,0
161099.971,-28.320,-25.879,-7.812,-27.344,0.000,0
161099.974,-29.297,-30.273,-23.926,-29.297,0.000,0
161099.978,-32.715,-28.809,-25.391,-29.297,0.000,0
161099.982,-34.668,-30.273,-18.066,-28.320,0.000,0
161099.986,-20.996,-27.832,-20.020,-21.484,0.000,0
161099.990,-17.090,-27.832,-28.809,-21.973,0.000,0
161099.994,-18.066,-31.250,-36.133,-24.902,0.000,0
161099.998,-9.277,-26.855,-32.715,-20.996,0.000,0
161100.002,-15.137,-22.461,-34.668,-21.973,0.000,0
161100.006,-20.020,-23.438,-39.062,-22.949,0.000,0
161100.010,-22.461,-24.902,-30.273,-40.039,0.000,0
161100.013,-25.879,-30.762,-26.855,-41.504,0.000,0
161100.017,-28.320,-29.785,-29.297,-31.250,0.000,0
161100.021,-34.668,-25.879,-40.039,-20.996,0.000,0
161100.025,-25.391,-25.879,-44.922,-23.438,0.000,0
161100.029,-24.902,-22.949,-16.113,-32.227,0.000,0
161100.033,-30.762,-24.902,-25.391,-24.414,0.000,0
161100.037,-27.344,-27.344,-41.992,-21.484,0.000,0
161100.041,-32.227,-31.738,-40.039,-24.902,0.000,0
161100.045,-32.227,-31.250,-33.691,-36.133,0.000,0
161100.049,-20.508,-22.461,-18.066,-36.621,0.000,0
161100.053,-20.020,-21.973,-25.391,-25.879,0.000,0
161100.056,-17.090,-22.949,-31.250,-26.367,0.000,0
161100.060,-5.859,-20.508,-34.180,-32.227,0.000,0
161100.064,-15.625,-18.066,-27.344,-33.203,0.000,0
161100.068,-27.344,-28.809,-19.531,-35.645,0.000,0
161100.072,-33.203,-27.832,-19.531,-37.598,0.000,0
161100.076,-35.156,-22.461,-22.949,-39.062,0.000,0
161100.080,-38.574,-30.762,-35.156,-37.109,0.000,0
161100.084,-41.016,-30.273,-22.949,-38.086,0.000,0
161100.088,-34.668,-29.297,-20.996,-37.109,0.000,0
161100.092,-29.297,-31.250,-45.410,-33.203,0.000,0
161100.096,-35.156,-39.062,-53.223,-38.086,0.000,0
161100.099,-29.297,-37.598,-39.551,-23.926,0.000,0
161100.103,-22.949,-28.809,-20.020,-22.949,0.000,0
161100.107,-39.062,-31.250,-21.973,-41.504,0.000,0
161100.111,-41.016,-30.762,-33.691,-29.297,0.000,0
161100.115,-38.574,-33.203,-29.785,-29.785,0.000,0
161100.119,-45.410,-37.598,-34.668,-25.879,0.000,0
161100.123,-40.527,-32.227,-39.551,-22.461,0.000,0
161100.127,-38.574,-28.320,-31.738,-40.039,0.000,0
161100.131,-39.062,-31.250,-30.273,-36.133,0.000,0
161100.135,-39.551,-28.809,-33.691,-34.668,0.000,0
161100.138,-30.273,-27.832,-38.086,-24.902,0.000,0
161100.142,-26.367,-24.902,-29.297,-15.137,0.000,0
161100.146,-34.668,-28.320,-15.625,-31.738,0.000,0
161100.150,-30.273,-29.297,-22.461,-34.668,0.000,0
161100.154,-29.297,-24.902,-36.133,-22.949,0.000,0
161100.158,-23.926,-26.855,-34.668,-7.812,0.000,0
161100.162,-6.348,-24.414,-17.090,-4.883,0.000,0
161100.166,-13.672,-23.438,-16.602,-14.160,0.000,0
161100.170,-23.438,-22.949,-32.227,-6.348,0.000,0
161100.174,-11.230,-21.973,-29.785,2.441,0.000,0
161100.178,-19.531,-20.508,-8.301,-2.441,0.000,0
161100.181,-31.250,-19.043,-13.184,-9.277,0.000,0
161100.185,-29.297,-22.461,-14.160,-33.691,0.000,0
161100.189,-29.785,-23.926,-17.578,-33.203,0.000,0
161100.193,-32.227,-23.926,-30.273,-21.484,0.000,0
161100.197,-27.344,-23.438,-38.086,-25.879,0.000,0
161100.201,-25.879,-24.414,-33.691,-24.414,0.000,0
161100.205,-31.250,-27.344,-18.066,-33.203,0.000,0
161100.209,-32.715,-23.438,-18.555,-29.785,0.000,0
161100.213,-18.555,-21.973,-27.832,-11.719,0.000,0
161100.217,-12.207,-23.438,-34.668,-5.371,0.000,0
161100.221,-14.648,-20.020,-24.414,-16.113,0.000,0
161100.224,-14.160,-21.973,-17.090,-23.438,0.000,0
161100.228,-12.695,-20.996,-32.715,-19.043,0.000,0
161100.232,-13.672,-26.367,-34.180,-13.672,0.000,0
161100.236,-18.066,-26.367,-36.621,-20.996,0.000,0
161100.240,-20.996,-21.973,-36.621,-36.133,0.000,0
161100.244,-27.344,-24.414,-26.855,-43.457,0.000,0
161100.248,-27.344,-26.367,-29.297,-37.598,0.000,0
161100.252,-22.461,-30.273,-33.203,-30.273,0.000,0
161100.256,-33.203,-28.320,-32.227,-31.250,0.000,0
161100.260,-31.250,-28.809,-38.574,-28.809,0.000,0
161100.263,-18.555,-22.949,-25.879,-30.273,0.000,0
161100.267,-18.066,-17.090,-10.742,-38.574,0.000,0
161100.271,-17.578,-20.996,-23.438,-28.809,0.000,0
161100.275,-16.602,-21.973,-33.203,-18.555,0.000,0
161100.279,-20.508,-25.391,-22.461,-11.230,0.000,0
161100.283,-27.344,-26.855,-15.625,-28.320,0.000,0
161100.287,-34.180,-24.902,-17.090,-48.828,0.000,0
161100.291,-26.367,-27.832,-27.344,-37.598,0.000,0
161100.295,-22.949,-29.785,-30.273,-29.785,0.000,0
161100.299,-29.297,-32.227,-18.066,-32.227,0.000,0
161100.303,-25.391,-32.227,-22.949,-39.551,0.000,0
161100.306,-23.438,-31.738,-28.320,-31.250,0.000,0
161100.310,-26.855,-29.297,-14.648,-18.555,0.000,0
161100.314,-21.973,-29.785,-24.902,-16.602,0.000,0
161100.318,-19.043,-28.809,-31.738,-16.113,0.000,0
161100.322,-35.645,-23.438,-15.625,-29.297,0.000,0
161100.326,-34.180,-21.484,-21.973,-31.250,0.000,0
161100.330,-33.203,-28.320,-30.273,-35.156,0.000,0
161100.334,-32.715,-29.297,-36.621,-22.461,0.000,0
161100.338,-23.438,-27.344,-33.203,-8.789,0.000,0
161100.342,-24.902,-32.715,-22.461,-34.180,0.000,0
161100.346,-26.367,-34.668,-32.227,-27.344,0.000,0
161100.349,-25.391,-34.180,-36.133,-21.484,0.000,0
161100.353,-27.344,-23.926,-32.227,-33.203,0.000,0
161100.357,-26.855,-22.461,-21.973,-28.320,0.000,0
161100.361,-17.090,-26.367,-22.949,-37.598,0.000,0
161100.365,-11.230,-23.438,-32.715,-39.062,0.000,0
161100.369,-14.160,-20.020,-25.879,-21.484,0.000,0
161100.373,-22.461,-21.973,-32.227,-14.648,0.000,0
161100.377,-27.344,-30.762,-31.738,-28.320,0.000,0
161100.381,-30.762,-32.227,-14.648,-30.762,0.000,0
161100.385,-32.715,-22.949,-18.555,-31.250,0.000,0
161100.388,-29.297,-28.320,-20.020,-41.504,0.000,0
161100.392,-35.645,-35.645,-38.574,-37.109,0.000,0
161100.396,-34.668,-28.809,-31.738,-34.668,0.000,0
161100.400,-40.039,-33.203,-10.254,-51.270,0.000,0
161100.404,-40.527,-38.574,-31.738,-56.641,0.000,0
161100.408,-25.391,-25.879,-45.410,-44.922,0.000,0
161100.412,-27.344,-24.414,-43.457,-34.180,0.000,0
161100.416,-35.645,-31.738,-34.668,-31.250,0.000,0
161100.420,-32.227,-29.297,-19.531,-39.551,0.000,0
161100.424,-26.367,-22.461,-25.391,-27.832,0.000,0
161100.428,-25.879,-25.391,-29.297,-20.996,0.000,0
161100.431,-22.461,-31.738,-23.926,-26.367,0.000,0
161100.435,-17.578,-30.273,-30.273,-26.367,0.000,0
161100.439,-18.066,-27.832,-22.461,-43.457,0.000,0
161100.443,-22.461,-28.809,-23.438,-40.527,0.000,0
161100.447,-19.531,-32.715,-36.621,-25.391,0.000,0
161100.451,-28.320,-34.668,-46.387,-26.855,0.000,0
161100.455,-29.785,-34.180,-49.805,-22.949,0.000,0
161100.459,-16.113,-27.832,-19.531,-22.949,0.000,0
161100.463,-17.578,-24.902,-13.184,-30.273,0.000,0
161100.467,-20.020,-29.785,-41.992,-35.156,0.000,0
161100.471,-24.902,-29.297,-38.574,-26.855,0.000,0
161100.474,-29.785,-28.320,-31.250,-8.789,0.000,0
161100.478,-19.043,-24.414,-22.949,-26.855,0.000,0
161100.482,-19.531,-28.809,-24.414,-27.832,0.000,0
161100.486,-23.926,-33.691,-34.180,-9.277,0.000,0
161100.490,-35.645,-30.762,-26.855,-26.367,0.000,0
161100.494,-38.086,-34.180,-35.156,-27.832,0.000,0
161100.498,-34.180,-31.738,-41.016,-22.461,0.000,0
161100.502,-40.039,-26.367,-24.902,-41.504,0.000,0
161100.506,-36.133,-25.391,-30.273,-40.039,0.000,0
161100.510,-35.156,-27.832,-39.062,-29.785,0.000,0
161100.513,-32.715,-27.344,-41.992,-21.484,0.000,0
161100.517,-33.203,-26.855,-35.156,-27.344,0.000,0
161100.521,-32.227,-21.484,-27.832,-39.062,0.000,0
161100.525,-22.949,-18.555,-36.133,-23.926,0.000,0
161100.529,-19.531,-22.461,-30.273,-20.020,0.000,0
161100.533,-13.672,-18.555,-22.949,-18.555,0.000,0
161100.537,-16.602,-20.996,-27.832,-13.184,0.000,0
161100.541,-18.066,-25.391,-31.738,-21.484,0.000,0
161100.545,-17.090,-21.484,-37.109,-17.090,0.000,0
161100.549,-24.902,-23.926,-32.715,-9.277,0.000,0
161100.553,-16.113,-27.832,-30.762,-18.066,0.000,0
161100.556,-17.578,-26.855,-33.203,-29.297,0.000,0
161100.560,-20.508,-28.809,-24.414,-28.809,0.000,0
161100.564,-10.254,-28.320,-29.785,-18.066,0.000,0
161100.568,-18.066,-23.438,-32.715,-12.695,0.000,0
161100.572,-25.391,-26.855,-38.574,-26.367,0.000,0
161100.576,-33.691,-31.250,-35.156,-38.574,0.000,0
161100.580,-40.039,-27.832,-25.879,-31.738,0.000,0
161100.584,-36.621,-24.902,-32.227,-21.484,0.000,0
161100.588,-25.391,-25.879,-43.457,-25.879,0.000,0
161100.592,-15.137,-27.832,-38.086,-28.320,0.000,0
161100.596,-20.508,-22.461,-1.465,-23.926,0.000,0
161100.599,-18.555,-18.066,-18.066,-22.949,0.000,0
161100.603,-20.020,-24.902,-43.457,-20.508,0.000,0
161100.607,-24.414,-25.879,-29.785,-24.902,0.000,0
161100.611,-25.391,-21.484,-17.578,-30.273,0.000,0
161100.615,-26.855,-23.926,-20.020,-29.297,0.000,0
161100.619,-26.367,-29.785,-31.738,-26.855,0.000,0
161100.623,-17.090,-23.438,-31.738,-7.324,0.000,0
161100.627,-17.090,-11.230,-22.461,-15.625,0.000,0
161100.631,-40.039,-11.719,-29.297,-48.340,0.000,0
161100.635,-34.180,-14.648,-31.738,-43.945,0.000,0
161100.638,-18.066,-8.301,-18.066,-20.020,0.000,0
161100.642,-21.484,-10.742,-22.461,-28.320,0.000,0
161100.646,-16.602,-15.625,-31.738,-24.414,0.000,0
161100.650,-23.926,-12.695,-28.809,-9.766,0.000,0
161100.654,-24.414,-11.230,-17.090,-19.531,0.000,0
161100.658,-21.484,-9.277,-14.160,-21.973,0.000,0
161100.662,-19.531,-8.789,-25.391,-11.230,0.000,0
161100.666,-7.812,-7.812,-17.578,-13.672,0.000,0
161100.670,-10.254,-16.113,-20.020,-19.043,0.000,0
161100.674,-17.578,-21.484,-15.137,-15.137,0.000,0
161100.678,-19.531,-12.695,-9.277,-32.715,0.000,0
161100.681,-20.996,-6.348,-15.625,-35.156,0.000,0
161100.685,-16.602,-7.812,-12.695,-22.949,0.000,0
161100.689,-8.789,-11.230,-27.832,-22.949,0.000,0
161100.693,-16.113,-20.020,-13.184,-36.621,0.000,0
161100.697,-19.043,-20.020,-5.371,-30.762,0.000,0
161100.701,-22.461,-18.555,-39.551,-16.113,0.000,0
161100.705,-19.531,-26.367,-40.039,-22.949,0.000,0
161100.709,-17.578,-22.949,-28.320,-17.090,0.000,0
161100.713,-21.973,-20.996,-13.672,-25.879,0.000,0
161100.717,-23.926,-23.926,-14.648,-30.273,0.000,0
161100.721,-31.738,-26.855,-25.391,-18.555,0.000,0
161100.724,-35.156,-26.367,-22.461,-21.484,0.000,0
161100.728,-38.086,-27.832,-25.391,-12.207,0.000,0
161100.732,-33.691,-32.227,-23.438,-14.648,0.000,0
161100.736,-31.250,-26.367,-27.344,-31.738,0.000,0
161100.740,-21.484,-20.996,-32.715,-22.461,0.000,0
161100.744,-19.043,-22.949,-25.879,-20.020,0.000,0
161100.748,-25.391,-26.855,-25.879,-22.461,0.000,0
161100.752,-19.531,-27.832,-23.438,-28.809,0.000,0
161100.756,-25.879,-22.461,-15.625,-34.180,0.000,0
161100.760,-31.738,-22.461,-21.973,-33.203,0.000,0
161100.763,-31.250,-24.414,-31.738,-13.672,0.000,0
161100.767,-25.879,-28.809,-37.109,-15.137,0.000,0
161100.771,-23.438,-29.297,-30.762,-38.086,0.000,0
161100.775,-31.250,-23.926,-25.879,-38.574,0.000,0
161100.779,-35.156,-26.855,-37.109,-37.598,0.000,0
161100.783,-29.785,-27.344,-40.039,-30.762,0.000,0
161100.787,-27.832,-23.926,-38.086,-11.230,0.000,0
161100.791,-21.973,-24.414,-27.832,-10.742,0.000,0
161100.795,-19.043,-29.297,-15.137,-26.367,0.000,0
161100.799,-29.785,-29.785,-18.066,-23.926,0.000,0
161100.803,-34.668,-24.902,-28.809,-16.113,0.000,0
161100.806,-29.297,-27.344,-38.574,-21.484,0.000,0
161100.810,-30.273,-29.785,-28.320,-33.691,0.000,0
161100.814,-33.691,-27.832,-23.438,-34.668,0.000,0
161100.818,-36.621,-23.438,-30.762,-17.578,0.000,0
161100.822,-33.691,-24.414,-32.227,-29.297,0.000,0
161100.826,-34.668,-29.785,-33.203,-41.016,0.000,0
161100.830,-29.297,-26.367,-28.320,-29.785,0.000,0
161100.834,-24.902,-23.926,-15.137,-34.180,0.000,0
161100.838,-20.508,-21.973,-19.043,-25.879,0.000,0
161100.842,-10.254,-20.020,-21.484,-13.184,0.000,0
161100.846,-17.090,-22.949,-17.090,-14.648,0.000,0
161100.849,-23.926,-24.414,-22.949,-19.531,0.000,0
161100.853,-19.043,-26.367,-22.949,-35.156,0.000,0
161100.857,-23.926,-21.484,-29.785,-30.273,0.000,0
161100.861,-24.902,-20.020,-36.621,-21.973,0.000,0
161100.865,-18.066,-22.949,-27.344,-24.414,0.000,0
161100.869,-16.602,-21.484,-37.598,-18.555,0.000,0
161100.873,-25.391,-21.484,-39.062,-32.715,0.000,0
161100.877,-24.414,-24.902,-18.555,-35.645,0.000,0
161100.881,-18.555,-21.484,-9.766,-20.996,0.000,0
161100.885,-22.461,-20.996,-26.855,-21.484,0.000,0
161100.888,-25.391,-25.879,-31.738,-23.438,0.000,0
161100.892,-27.344,-25.391,-20.996,-31.738,0.000,0
161100.896,-34.180,-25.879,-23.438,-31.250,0.000,0
161100.900,-37.109,-29.785,-22.949,-38.574,0.000,0
161100.904,-31.250,-27.832,-31.250,-22.949,0.000,0
161100.908,-29.297,-25.879,-34.180,-7.324,0.000,0
161100.912,-41.504,-30.762,-15.625,-34.668,0.000,0
161100.916,-40.039,-26.367,-25.879,-35.156,0.000,0
161100.920,-26.367,-25.879,-13.184,-46.387,0.000,0
161100.924,-29.785,-28.809,-16.113,-44.434,0.000,0
161100.928,-22.949,-30.762,-41.992,-36.133,0.000,0
161100.931,-17.090,-29.297,-34.668,-36.133,0.000,0
161100.935,-23.438,-28.320,-30.273,-29.297,0.000,0
161100.939,-17.578,-26.367,-34.180,-16.602,0.000,0
161100.943,-14.160,-22.461,-34.668,-4.395,0.000,0
161100.947,-16.113,-22.461,-22.461,-0.488,0.000,0
161100.951,-25.879,-22.949,-12.695,-16.113,0.000,0
161100.955,-32.227,-22.461,-24.902,-22.949,0.000,0
161100.959,-28.809,-25.391,-17.578,-11.230,0.000,0
161100.963,-23.926,-27.344,-17.578,2.930,0.000,0
161100.967,-26.855,-22.461,-17.090,11.719,0.000,0
161100.971,-27.832,-23.926,-15.137,-6.348,0.000,0
161100.974,-34.180,-27.832,-34.180,-14.648,0.000,0
161100.978,-29.297,-27.832,-42.969,-8.301,0.000,0
161100.982,-27.832,-23.926,-32.227,-27.344,0.000,0
161100.986,-39.551,-26.367,-23.438,-36.621,0.000,0
161100.990,-38.086,-30.762,-16.602,-40.527,0.000,0
161100.994,-27.344,-24.414,-19.531,-34.668,0.000,0
161100.998,-15.625,-23.438,-21.484,-31.738,0.000,0
161101.002,-11.719,-22.949,-10.742,-32.715,0.000,0
161101.006,-23.926,-23.926,-19.531,-20.996,0.000,0
161101.010,-23.438,-26.367,-16.113,-23.926,0.000,0
161101.013,-20.020,-23.438,-15.137,-16.113,0.000,0
161101.017,-10.742,-21.484,-32.227,-16.113,0.000,0
161101.021,1.953,-21.973,-25.879,-18.066,0.000,0
161101.025,1.465,-23.438,-9.766,-11.230,0.000,0
161101.029,-4.883,-26.367,-1.953,-16.602,0.000,0
161101.033,-9.766,-30.762,-27.832,-19.043,0.000,0
161101.037,-8.301,-30.273,-37.598,-14.160,0.000,0
161101.041,-8.789,-27.832,-26.367,-8.789,0.000,0
161101.045,-10.742,-27.344,-26.367,-11.719,0.000,0
161101.049,-6.836,-24.902,-16.113,-22.461,0.000,0
161101.053,-10.254,-20.996,-25.391,-16.113,0.000,0
161101.056,-10.254,-23.438,-22.949,-7.324,0.000,0
161101.060,-12.207,-25.879,-24.902,-8.301,0.000,0
161101.064,-14.648,-26.367,-32.715,-14.648,0.000,0
161101.068,-12.695,-33.203,-18.555,-33.691,0.000,0
161101.072,-26.855,-33.203,-31.250,-36.133,0.000,0
161101.076,-30.273,-29.297,-39.551,-23.926,0.000,0
161101.080,-20.996,-27.832,-35.156,-18.555,0.000,0
161101.084,-27.832,-29.785,-35.156,-24.414,0.000,0
161101.088,-31.250,-31.738,-20.996,-35.156,0.000,0
161101.092,-25.879,-27.832,-26.367,-24.902,0.000,0
161101.096,-16.113,-31.250,-44.434,-10.742,0.000,0
161101.099,-10.254,-30.762,-28.809,-2.441,0.000,0
161101.103,-10.742,-25.879,-7.324,-18.555,0.000,2
161101.107,-9.766,-28.809,-20.020,-26.367,0.000,0
161101.111,-9.766,-26.367,-33.203,-28.320,0.000,0
161101.115,-17.578,-24.902,-19.531,-31.250,0.000,0
161101.119,-24.902,-22.949,-20.508,-28.809,0.000,0
161101.123,-20.996,-25.879,-29.297,-27.344,0.000,0
161101.127,-23.926,-36.133,-20.508,-37.109,0.000,0
161101.131,-24.414,-23.926,-16.113,-49.805,0.000,0
161101.135,-22.949,-20.996,-28.809,-41.016,0.000,0
161101.138,-24.902,-28.320,-32.227,-31.250,0.000,0
161101.142,-26.855,-31.250,-32.715,-26.367,0.000,0
161101.146,-27.344,-34.668,-30.762,-14.160,0.000,0
161101.150,-36.621,-29.297,-33.203,-4.883,0.000,0
161101.154,-43.945,-27.344,-45.410,-19.043,0.000,0
161101.158,-30.273,-33.691,-45.410,-35.645,0.000,0
161101.162,-19.531,-34.668,-20.996,-27.344,0.000,0
161101.166,-18.066,-30.762,-20.020,-31.738,0.000,0
161101.170,-20.020,-28.320,-33.691,-39.062,0.000,0
161101.174,-20.996,-27.344,-28.320,-33.203,0.000,0
161101.178,-20.508,-28.320,-23.438,-18.066,0.000,0
161101.181,-19.531,-28.809,-38.086,0.000,0.000,0
161101.185,-15.137,-27.832,-40.527,-9.766,0.000,0
161101.189,-12.207,-37.109,-37.598,-24.414,0.000,0
161101.193,-27.832,-32.227,-37.109,-15.137,0.000,0
161101.197,-25.879,-25.391,-48.828,-19.043,0.000,0
161101.201,-23.438,-34.668,-63.965,-23.438,0.000,0
161101.205,-33.203,-32.715,-27.832,-18.066,0.000,0
161101.209,-28.320,-21.973,-6.836,-35.645,0.000,0
161101.213,-23.438,-22.949,-34.668,-35.645,0.000,0
161101.217,-29.785,-22.461,-43.457,-26.367,0.000,0
161101.221,-24.902,-19.043,-32.715,-17.578,0.000,0
161101.224,-15.137,-21.973,-25.391,-18.555,0.000,0
161101.228,-20.020,-21.484,-29.297,-26.367,0.000,0
161101.232,-21.973,-20.020,-32.227,-21.484,0.000,0
161101.236,-25.391,-19.043,-27.344,-35.156,0.000,0
161101.240,-30.273,-23.926,-26.367,-30.273,0.000,0
161101.244,-26.367,-25.391,-31.250,-22.461,0.000,0
161101.248,-25.879,-19.531,-27.344,-31.250,0.000,0
161101.252,-29.297,-18.555,-17.578,-26.855,0.000,0
161101.256,-28.320,-19.531,-31.738,-20.508,0.000,0
161101.260,-20.996,-26.367,-44.922,-14.160,0.000,0
161101.263,-25.391,-30.273,-35.645,-26.367,0.000,0
161101.267,-28.320,-24.902,-25.391,-35.156,0.000,0
161101.271,-26.855,-23.926,-38.574,-37.598,0.000,0
161101.275,-34.180,-33.691,-47.363,-47.363,0.000,0
161101.279,-30.762,-28.320,-31.738,-31.738,0.000,0
161101.283,-33.203,-21.973,-24.902,-27.344,0.000,0
161101.287,-40.527,-22.461,-20.996,-45.410,0.000,0
161101.291,-34.668,-17.578,-20.996,-34.668,0.000,0
161101.295,-27.344,-24.902,-30.762,-24.902,0.000,0
161101.299,-24.414,-33.203,-26.367,-28.320,0.000,0
161101.303,-29.785,-26.855,-28.809,-29.785,0.000,0
161101.306,-35.156,-28.320,-20.996,-35.645,0.000,0
161101.310,-28.809,-30.762,-22.461,-29.785,0.000,0
161101.314,-25.879,-26.367,-29.785,-31.250,0.000,0
161101.318,-29.785,-25.879,-34.668,-41.992,0.000,0
161101.322,-30.273,-25.879,-26.855,-37.109,0.000,0
161101.326,-38.574,-26.367,-8.789,-42.480,0.000,0
161101.330,-33.203,-24.414,-18.555,-31.250,0.000,0
161101.334,-26.367,-25.391,-35.156,-25.391,0.000,0
161101.338,-33.691,-23.926,-39.551,-40.039,0.000,0
161101.342,-25.879,-20.508,-13.184,-39.062,0.000,0
161101.346,-22.461,-20.508,-4.395,-46.387,0.000,0
161101.349,-15.625,-14.160,-22.949,-44.434,0.000,0
161101.353,-14.160,-14.160,-18.555,-36.621,0.000,0
161101.357,-24.414,-20.996,-18.555,-25.391,0.000,0
161101.361,-23.926,-17.578,-22.949,-26.855,0.000,0
161101.365,-26.367,-13.184,-14.160,-31.738,0.000,0
161101.369,-30.762,-13.184,-25.391,-17.090,0.000,0
161101.373,-28.320,-18.066,-29.297,-22.461,0.000,0
161101.377,-27.832,-24.414,-25.391,-25.391,0.000,0
161101.381,-32.715,-25.391,-25.879,-20.020,0.000,0
161101.385,-43.457,-25.391,-18.555,-26.367,0.000,0
161101.388,-32.715,-23.926,-23.926,-26.367,0.000,0
161101.392,-24.902,-20.996,-31.738,-21.973,0.000,0
161101.396,-34.668,-17.090,-34.180,-20.996,0.000,0
161101.400,-36.621,-20.996,-29.785,-27.344,0.000,0
161101.404,-30.762,-25.879,-19.043,-33.691,0.000,0
161101.408,-20.508,-21.973,-27.832,-31.738,0.000,0
161101.412,-22.461,-29.785,-32.227,-25.879,0.000,0
161101.416,-32.227,-26.855,-33.203,-21.973,0.000,0
161101.420,-40.039,-26.367,-39.062,-26.367,0.000,0
161101.424,-34.668,-27.832,-25.391,-38.574,0.000,0
161101.428,-33.203,-25.879,-24.414,-24.414,0.000,0
161101.431,-31.250,-24.902,-25.391,-13.672,0.000,0
161101.435,-24.902,-22.461,-30.762,-24.414,0.000,0
161101.439,-25.879,-26.367,-39.551,-29.297,0.000,0
161101.443,-21.484,-29.785,-19.043,-28.809,0.000,0
161101.447,-17.090,-22.949,-24.902,-25.879,0.000,0
161101.451,-25.879,-20.020,-42.969,-27.344,0.000,0
161101.455,-26.367,-20.508,-34.180,-21.484,0.000,0
161101.459,-25.879,-20.508,-21.973,-13.184,0.000,0
161101.463,-19.043,-25.879,-11.719,-22.461,0.000,0
161101.467,-12.695,-29.297,-21.484,-16.602,0.000,0
161101.471,-25.391,-31.738,-38.086,-18.066,0.000,0
161101.474,-34.668,-32.227,-30.762,-27.344,0.000,0
161101.478,-33.691,-25.879,-22.461,-8.301,0.000,0
161101.482,-35.645,-24.902,-25.391,-24.902,0.000,0
161101.486,-37.598,-32.227,-29.785,-37.109,0.000,0
161101.490,-31.250,-31.250,-20.020,-14.160,0.000,0
161101.494,-33.203,-23.926,-15.137,-37.109,0.000,0
161101.498,-21.973,-25.391,-32.715,-32.227,0.000,0
161101.502,-20.020,-26.367,-27.344,-29.785,0.000,0
161101.506,-29.785,-20.508,-25.391,-43.457,0.000,0
161101.510,-24.902,-25.391,-41.504,-34.180,0.000,0
161101.513,-19.043,-32.715,-40.039,-31.738,0.000,0
161101.517,-25.879,-31.738,-48.828,-18.066,0.000,0
161101.521,-29.785,-33.203,-35.156,-23.926,0.000,0
161101.525,-34.180,-35.645,-27.832,-35.156,0.000,0
161101.529,-42.480,-29.297,-43.945,-30.762,0.000,0
161101.533,-32.227,-25.391,-40.527,-28.320,0.000,0
161101.537,-29.297,-21.973,-25.879,-12.695,0.000,0
161101.541,-25.391,-20.020,-22.949,-4.395,0.000,0
161101.545,-23.438,-21.484,-28.809,-19.043,0.000,0
161101.549,-33.203,-21.484,-32.715,-20.020,0.000,0
161101.553,-40.039,-24.902,-28.809,-17.090,0.000,0
161101.556,-32.715,-20.508,-29.785,-26.855,0.000,0
161101.560,-31.250,-21.484,-26.367,-27.344,0.000,0
161101.564,-35.156,-26.855,-25.879,-25.879,0.000,0
161101.568,-26.855,-20.996,-30.762,-18.066,0.000,0
161101.572,-17.578,-17.578,-27.344,-15.137,0.000,0
161101.576,-21.973,-23.926,-40.039,-23.926,0.000,0
161101.580,-24.902,-25.879,-30.762,-25.879,0.000,0
161101.584,-22.949,-25.391,-16.113,-20.996,0.000,0
161101.588,-24.414,-28.320,-40.039,-25.391,0.000,0
161101.592,-25.391,-29.785,-44.922,-26.367,0.000,0
161101.596,-25.391,-23.926,-32.715,-19.043,0.000,0
161101.599,-29.297,-28.320,-33.691,-14.160,0.000,0
161101.603,-24.414,-28.320,-31.738,-28.320,0.000,0
161101.607,-26.855,-30.273,-29.297,-34.180,0.000,0
161101.611,-24.414,-36.621,-31.250,-12.207,0.000,0
161101.615,-29.785,-31.738,-38.574,-21.973,0.000,0
161101.619,-25.879,-31.738,-27.344,-41.016,0.000,0
161101.623,-25.391,-26.367,-21.484,-39.551,0.000,0
161101.627,-33.691,-20.996,-27.832,-37.598,0.000,0
161101.631,-33.203,-25.391,-35.156,-31.250,0.000,0
161101.635,-35.645,-20.508,-34.668,-19.531,0.000,0
161101.638,-20.996,-24.414,-24.414,-9.277,0.000,0
161101.642,-15.625,-24.902,-25.391,-19.043,0.000,0
161101.646,-26.855,-19.531,-32.227,-24.414,0.000,0
161101.650,-26.855,-19.531,-31.738,-13.184,0.000,0
161101.654,-23.926,-19.531,-30.273,-27.344,0.000,0
161101.658,-32.715,-24.414,-20.996,-38.574,0.000,0
161101.662,-35.645,-24.414,-21.973,-23.926,0.000,0
161101.666,-33.691,-21.484,-35.156,-24.902,0.000,0
161101.670,-46.875,-22.949,-30.273,-34.668,0.000,0
161101.674,-39.062,-25.391,-39.551,-30.762,0.000,0
161101.678,-24.414,-29.297,-41.992,-38.574,0.000,0
161101.681,-35.645,-29.785,-31.250,-32.715,0.000,0
161101.685,-38.086,-24.414,-42.969,-21.484,0.000,0
161101.689,-23.438,-22.461,-41.992,-22.949,0.000,0
161101.693,-19.043,-22.461,-38.086,-17.090,0.000,0
161101.697,-25.879,-20.996,-25.879,-25.879,0.000,0
161101.701,-20.996,-14.160,-18.066,-38.086,0.000,0
161101.705,-22.461,-14.648,-24.902,-38.086,0.000,0
161101.709,-31.738,-20.508,-19.043,-34.180,0.000,0
161101.713,-27.344,-18.555,-20.996,-24.902,0.000,0
161101.717,-18.555,-21.973,-20.020,-38.574,0.000,0
161101.721,-11.230,-23.926,-19.043,-31.250,0.000,0
161101.724,-9.766,-20.020,-35.645,-5.859,0.000,0
161101.728,-20.508,-21.484,-24.414,-24.902,0.000,0
161101.732,-16.113,-19.043,-13.184,-28.809,0.000,0
161101.736,-3.906,-17.090,-13.184,-28.809,0.000,0
161101.740,-8.301,-21.484,-4.883,-32.227,0.000,1
161101.744,-19.531,-20.996,-18.555,-28.320,0.000,0
161101.748,-19.043,-18.555,-30.762,-22.949,0.000,0
161101.752,-17.578,-25.391,-36.133,-18.066,0.000,0
161101.756,-25.879,-24.902,-24.414,-22.461,0.000,0
161101.760,-31.738,-22.461,-10.254,-26.367,0.000,0
161101.763,-33.691,-24.902,-27.344,-30.762,0.000,0
161101.767,-28.320,-23.926,-37.598,-38.086,0.000,0
161101.771,-25.879,-23.926,-28.320,-34.180,0.000,0
161101.775,-33.691,-30.762,-20.020,-32.227,0.000,0
161101.779,-29.785,-29.785,-24.902,-28.809,0.000,0
161101.783,-25.879,-19.531,-34.180,-28.809,0.000,0
161101.787,-28.320,-19.531,-24.414,-31.250,0.000,0
161101.791,-22.949,-24.902,-21.973,-25.391,0.000,0
161101.795,-25.391,-25.391,-22.949,-32.227,0.000,0
161101.799,-24.902,-24.414,-16.113,-32.227,0.000,0
161101.803,-17.090,-20.996,-20.996,-24.414,0.000,0
161101.806,-20.020,-14.160,-20.996,-26.855,0.000,0
161101.810,-22.461,-15.137,-32.227,-22.461,0.000,0
161101.814,-20.020,-19.531,-33.691,-19.531,0.000,0
161101.818,-12.695,-19.043,-5.859,-24.902,0.000,0
161101.822,-7.812,-16.113,2.441,-9.766,0.000,0
161101.826,-10.254,-19.531,-29.297,-6.348,0.000,0
161101.830,-20.020,-24.414,-41.016,-6.836,0.000,0
161101.834,-21.973,-19.043,-22.949,-7.812,0.000,0
161101.838,-8.301,-12.695,-2.930,-13.672,0.000,0
161101.842,-8.789,-16.602,-12.207,-19.043,0.000,0
161101.846,-20.508,-20.508,-17.090,-33.691,0.000,0
161101.849,-23.438,-19.043,-15.137,-25.391,0.000,0
161101.853,-17.578,-23.438,-30.762,-16.602,0.000,0
161101.857,-13.184,-20.996,-21.973,-28.320,0.000,0
161101.861,-18.555,-8.789,-11.719,-26.855,0.000,0
161101.865,-19.531,-10.742,-24.902,-21.484,0.000,0
161101.869,-12.695,-15.625,-27.344,-20.508,0.000,0
161101.873,-12.695,-13.184,-19.531,-21.973,0.000,0
161101.877,-21.484,-13.672,-8.301,-31.250,0.000,0
161101.881,-25.879,-15.137,-13.184,-28.809,0.000,0
161101.885,-23.926,-18.066,-22.949,-29.297,0.000,0
161101.888,-19.043,-17.578,-23.926,-21.484,0.000,0
161101.892,-23.438,-20.508,-25.391,-23.926,0.000,0
161101.896,-25.879,-21.484,-25.391,-28.809,0.000,0
161101.900,-25.391,-22.949,-46.387,-18.066,0.000,0
161101.904,-26.367,-29.297,-49.316,-25.879,0.000,0
161101.908,-28.809,-25.391,-16.602,-20.020,0.000,0
161101.912,-33.691,-23.926,-18.555,-29.297,0.000,0
161101.916,-24.414,-32.227,-39.062,-41.016,0.000,0
161101.920,-13.672,-28.320,-22.461,-39.062,0.000,0
161101.924,-16.602,-23.438,-18.066,-22.461,0.000,0
161101.928,-20.508,-29.297,-50.293,-2.930,0.000,0
161101.931,-22.461,-29.785,-45.898,-18.066,0.000,0
161101.935,-25.879,-26.855,-24.414,-24.902,0.000,0
161101.939,-10.254,-28.320,-21.973,-12.207,0.000,0
161101.943,-9.766,-26.367,-26.855,-13.184,0.000,0
161101.947,-22.949,-24.902,-46.875,-13.672,0.000,0
161101.951,-18.555,-27.832,-35.645,-20.020,0.000,0
161101.955,-24.414,-28.809,-9.766,-22.949,0.000,0
161101.959,-29.785,-26.855,-25.879,-17.578,0.000,0
161101.963,-24.414,-29.297,-33.203,-7.812,0.000,0
161101.967,-26.367,-34.180,-31.738,-16.602,0.000,0
161101.971,-25.391,-33.203,-25.391,-31.250,0.000,0
161101.974,-24.902,-27.344,-19.043,-33.691,0.000,0
161101.978,-30.273,-23.926,-33.691,-32.227,0.000,0
161101.982,-26.367,-19.531,-29.785,-34.180,0.000,0
161101.986,-18.066,-20.508,-20.996,-22.461,0.000,0
161101.990,-24.902,-24.902,-32.227,-20.020,0.000,0
161101.994,-25.879,-26.367,-29.297,-32.715,0.000,0
161101.998,-21.484,-29.785,-21.484,-18.555,0.000,0
161102.002,-27.344,-26.855,-32.715,-4.883,0.000,0
161102.006,-19.531,-18.066,-32.227,-12.207,0.000,0
161102.010,-16.602,-17.578,-19.531,-20.508,0.000,0
161102.013,-13.672,-23.926,-15.625,-31.250,0.000,0
161102.017,-3.906,-20.020,-25.879,-15.625,0.000,0
161102.021,-13.184,-29.297,-36.621,-11.719,0.000,0
161102.025,-34.668,-32.227,-30.762,-38.574,0.000,0
161102.029,-44.922,-22.461,-39.062,-46.387,0.000,0
161102.033,-39.551,-23.926,-29.297,-45.898,0.000,0
161102.037,-38.086,-24.414,-26.367,-35.645,0.000,0
161102.041,-29.785,-22.461,-40.039,-22.949,0.000,0
161102.045,-22.949,-15.625,-31.738,-17.090,0.000,0
161102.049,-28.809,-19.043,-41.016,-22.949,0.000,0
161102.053,-23.926,-25.879,-31.250,-26.855,0.000,0
161102.056,-20.996,-24.414,-27.344,-26.855,0.000,0
161102.060,-35.156,-22.461,-37.598,-29.297,0.000,0
161102.064,-44.922,-24.902,-42.969,-20.996,0.000,0
161102.068,-34.180,-25.879,-34.180,-23.438,0.000,0
161102.072,-30.273,-22.949,-12.695,-34.668,0.000,0
161102.076,-25.391,-25.879,-28.809,-19.531,0.000,0
161102.080,-18.555,-23.438,-41.504,-13.184,0.000,0
161102.084,-28.320,-18.555,-28.320,-18.066,0.000,0
161102.088,-32.227,-23.438,-19.043,-19.043,0.000,0
161102.092,-36.133,-25.879,-26.855,-39.062,0.000,0
161102.096,-34.668,-25.879,-45.410,-43.457,0.000,0
161102.099,-30.273,-29.785,-41.016,-25.391,0.000,0
161102.103,-29.297,-24.902,-30.762,-12.207,0.000,0
161102.107,-27.832,-24.414,-24.414,-19.043,0.000,0
161102.111,-27.344,-26.855,-19.531,-34.668,0.000,0
161102.115,-29.785,-26.855,-28.809,-30.273,0.000,0
161102.119,-25.879,-29.297,-30.273,-33.691,0.000,0
161102.123,-22.461,-24.414,-21.973,-46.387,0.000,0
161102.127,-33.203,-28.809,-21.973,-46.875,0.000,0
161102.131,-34.180,-25.879,-31.738,-37.598,0.000,0
161102.135,-35.156,-23.438,-38.086,-35.645,0.000,0
161102.138,-38.574,-27.344,-47.852,-31.250,0.000,0
161102.142,-29.785,-23.926,-38.574,-25.391,0.000,0
161102.146,-23.926,-21.484,-16.602,-27.832,0.000,0
161102.150,-14.160,-20.508,-13.672,-29.785,0.000,0
161102.154,-9.766,-25.879,-29.785,-20.020,0.000,0
161102.158,-12.695,-26.367,-30.273,-26.855,0.000,0
161102.162,-14.648,-17.090,-21.973,-28.809,0.000,0
161102.166,-13.184,-17.578,-25.391,-15.625,0.000,0
161102.170,-24.414,-25.391,-21.973,-10.254,0.000,0
161102.174,-19.531,-25.391,-18.555,-8.301,0.000,0
161102.178,-9.277,-19.043,-24.902,-5.859,0.000,0
161102.181,-13.672,-24.414,-33.691,-7.324,0.000,0
161102.185,-15.137,-28.320,-31.738,-15.137,0.000,0
161102.189,-13.672,-23.438,-3.418,-24.414,0.000,0
161102.193,-18.555,-22.949,-3.906,-27.832,0.000,0
161102.197,-18.555,-16.602,-27.344,-23.926,0.000,0
161102.201,-17.090,-15.625,-22.949,-21.973,0.000,0
161102.205,-20.508,-15.625,-20.020,-23.438,0.000,0
161102.209,-24.414,-14.160,-15.625,-28.809,0.000,0
161102.213,-18.555,-13.672,-24.414,-15.625,0.000,0
161102.217,-18.066,-11.230,-41.504,-3.906,0.000,0
161102.221,-27.344,-13.184,-30.762,-7.324,0.000,0
161102.224,-31.250,-12.207,-19.043,-8.301,0.000,0
161102.228,-28.809,-14.648,-16.602,-38.086,0.000,0
161102.232,-20.996,-16.602,-24.902,-47.852,0.000,0
161102.236,-16.602,-14.648,-16.113,-26.855,0.000,0
161102.240,-25.879,-13.184,-14.648,-22.949,0.000,0
161102.244,-31.738,-18.555,-34.668,-20.020,0.000,0
161102.248,-33.203,-22.949,-22.461,-34.668,0.000,0
161102.252,-32.715,-25.391,-21.484,-33.691,0.000,0
161102.256,-34.668,-25.879,-37.109,-27.344,0.000,0
161102.260,-31.250,-26.367,-38.574,-27.344,0.000,0
161102.263,-29.297,-30.762,-29.785,-17.578,0.000,0
161102.267,-23.926,-30.762,-16.602,-27.344,0.000,0
161102.271,-11.230,-26.367,-20.996,-38.574,0.000,0
161102.275,-26.367,-20.020,-29.785,-24.902,0.000,0
161102.279,-37.598,-22.949,-33.203,-15.625,0.000,0
161102.283,-19.531,-21.973,-24.414,-17.578,0.000,0
161102.287,-11.719,-19.043,-16.602,-33.203,0.000,0
161102.291,-12.207,-25.879,-25.391,-36.133,0.000,0
161102.295,-13.672,-22.949,-30.762,-20.996,0.000,0
161102.299,-22.949,-22.949,-22.949,-21.484,0.000,0
161102.303,-22.461,-25.879,-26.367,-29.297,0.000,0
161102.306,-16.113,-25.879,-26.367,-32.227,0.000,0
161102.310,-10.254,-25.391,-19.531,-34.180,0.000,0
161102.314,-18.066,-27.832,-22.461,-31.738,0.000,0
161102.318,-22.949,-30.762,-24.902,-18.555,0.000,0
161102.322,-12.207,-28.320,-35.156,-16.113,0.000,0
161102.326,-13.672,-27.344,-13.672,-34.668,0.000,0
161102.330,-18.066,-28.320,-4.395,-45.898,0.000,0
161102.334,-8.301,-27.832,-30.762,-33.203,0.000,0
