timestamps,TP9,AF7,AF8,TP10,Right AUX,Marker0
160957.408,-19.531,-40.039,-18.555,-52.246,0.000,0
160957.412,-18.555,-37.109,-1.953,-22.949,0.000,0
160957.416,-32.227,-37.109,-24.902,-23.438,0.000,0
160957.420,-22.949,-35.156,-29.297,-37.109,0.000,0
160957.424,-18.066,-32.715,-15.137,-31.250,0.000,0
160957.428,-29.785,-32.715,-10.254,-30.273,0.000,0
160957.431,-16.113,-33.203,-10.254,-45.898,0.000,0
160957.435,-21.484,-36.621,-30.273,-33.203,0.000,0
160957.439,-35.645,-43.457,-36.133,-39.551,0.000,0
160957.443,-37.598,-45.410,-25.391,-45.410,0.000,0
160957.447,-13.672,-39.062,-26.855,-31.738,0.000,0
160957.451,-1.465,-38.574,-25.391,-25.391,0.000,0
160957.455,-20.996,-43.945,-29.785,-17.578,0.000,0
160957.459,-25.391,-46.875,-31.250,-10.254,0.000,0
160957.463,-28.320,-48.340,-33.203,-26.367,0.000,0
160957.467,-26.855,-40.527,-25.391,-36.621,0.000,0
160957.471,-24.414,-41.016,-7.324,-28.809,0.000,0
160957.474,-22.949,-44.922,-16.113,-31.250,0.000,0
160957.478,-16.113,-40.527,-39.062,-16.602,0.000,0
160957.482,-17.578,-42.969,-44.434,-15.625,0.000,0
160957.486,-31.738,-43.945,-14.648,-41.504,0.000,0
160957.490,-36.133,-42.480,-5.371,-35.645,0.000,0
160957.494,-34.668,-42.480,-37.598,-8.789,0.000,0
160957.498,-15.625,-43.457,-51.758,-3.418,0.000,0
160957.502,-15.137,-39.551,-35.645,-8.301,0.000,0
160957.506,-21.973,-37.109,-27.832,-19.043,0.000,0
160957.510,-15.137,-39.551,-17.090,-38.574,0.000,0
160957.513,-29.785,-41.504,-18.066,-39.062,0.000,0
160957.517,-36.133,-38.086,-26.855,-20.508,0.000,0
160957.521,-9.766,-33.691,-27.344,-20.020,0.000,0
160957.525,-17.090,-37.598,-33.203,-25.391,0.000,0
160957.529,-35.156,-35.156,-23.926,-26.367,0.000,0
160957.533,-24.902,-33.203,-17.090,-27.832,0.000,0
160957.537,-14.160,-36.133,-35.645,-48.828,0.000,0
160957.541,-21.973,-32.715,-32.715,-32.227,0.000,0
160957.545,-26.367,-31.250,-28.809,-4.883,0.000,0
160957.549,-30.273,-37.598,-29.785,-20.996,0.000,0
160957.553,-33.691,-34.668,-38.574,-42.969,0.000,0
160957.556,-15.625,-28.320,-31.250,-30.273,0.000,0
160957.560,-9.766,-34.668,-34.668,-12.695,0.000,0
160957.564,-38.574,-38.574,-43.945,-23.438,0.000,0
160957.568,-41.504,-35.156,-34.180,-29.785,0.000,0
160957.572,-13.672,-29.785,-23.438,-29.297,0.000,0
160957.576,-15.625,-29.785,-21.973,-36.621,0.000,0
160957.580,-17.090,-26.855,-38.574,-30.762,0.000,0
160957.584,-11.230,-25.879,-39.551,-24.902,0.000,0
160957.588,-20.508,-27.344,-21.484,-31.738,0.000,0
160957.592,-18.066,-28.809,-31.738,-12.207,0.000,0
160957.596,-13.184,-30.762,-44.434,-17.578,0.000,0
160957.599,-22.949,-31.738,-31.738,-47.363,0.000,0
160957.603,-37.109,-33.203,-26.367,-37.598,0.000,0
160957.607,-28.320,-32.715,-16.602,-36.133,0.000,0
160957.611,-19.531,-33.203,-18.555,-18.066,0.000,0
160957.615,-32.227,-35.156,-38.086,-2.930,0.000,0
160957.619,-21.973,-29.297,-29.785,-13.672,0.000,0
160957.623,-12.695,-24.414,-19.531,-13.672,0.000,0
160957.627,-18.555,-29.297,-26.855,-16.602,0.000,0
160957.631,-20.020,-30.762,-34.180,-13.184,0.000,0
160957.635,-18.066,-31.250,-36.133,-12.207,0.000,0
160957.638,-10.254,-27.832,-29.785,-17.578,0.000,0
160957.642,-5.859,-23.438,-24.902,-18.555,0.000,0
160957.646,-6.836,-31.250,-19.531,-17.090,0.000,0
160957.650,-21.484,-36.621,-15.625,-37.598,0.000,0
160957.654,-25.879,-35.645,-37.109,-24.902,0.000,0
160957.658,-25.879,-36.133,-47.363,-0.488,0.000,0
160957.662,-27.832,-31.250,-20.020,-16.113,0.000,0
160957.666,-23.438,-33.203,-8.301,-32.227,0.000,0
160957.670,-20.020,-35.156,-30.273,-25.879,0.000,0
160957.674,-14.160,-30.762,-43.457,-12.207,0.000,0
160957.678,-19.043,-32.715,-20.508,-14.160,0.000,0
160957.681,-20.508,-33.691,-13.672,-15.137,0.000,0
160957.685,-3.906,-27.832,-15.137,-20.508,0.000,0
160957.689,-6.836,-26.855,-15.137,-20.020,0.000,0
160957.693,-9.277,-27.344,-24.902,2.441,0.000,0
160957.697,5.859,-22.949,-28.320,-11.230,0.000,0
160957.701,-4.883,-26.367,-31.738,-23.438,0.000,0
160957.705,-23.438,-29.297,-19.043,-22.949,0.000,0
160957.709,-25.391,-28.809,-19.531,-30.762,0.000,0
160957.713,-18.555,-28.320,-35.645,-31.738,0.000,0
160957.717,-25.879,-32.227,-52.246,-25.879,0.000,0
160957.721,-27.832,-35.645,-47.363,-7.812,0.000,0
160957.724,-18.555,-32.227,-14.648,-13.184,0.000,0
160957.728,-14.648,-28.809,-18.066,-15.625,0.000,0
160957.732,-7.324,-29.297,-41.504,-1.465,0.000,0
160957.736,-7.812,-33.691,-27.832,1.953,0.000,0
160957.740,-17.578,-32.715,-15.137,-3.418,0.000,0
160957.744,-20.996,-35.645,-20.996,-26.367,0.000,0
160957.748,-18.066,-39.062,-28.809,-36.621,0.000,0
160957.752,-12.207,-37.598,-18.066,-36.621,0.000,0
160957.756,-12.695,-35.156,-17.578,-30.273,0.000,0
160957.760,-15.137,-39.062,-45.410,-11.230,0.000,0
160957.763,-17.578,-41.504,-40.039,-7.812,0.000,0
160957.767,-25.879,-38.086,-16.602,-11.719,0.000,0
160957.771,-21.973,-33.203,-16.113,-9.277,0.000,0
160957.775,-17.090,-34.668,-33.203,-22.949,0.000,0
160957.779,-20.508,-39.062,-40.039,-25.879,0.000,0
160957.783,-19.043,-38.574,-24.902,-19.531,0.000,0
160957.787,-27.832,-38.574,-23.438,-37.598,0.000,0
160957.791,-37.109,-41.992,-49.805,-59.570,0.000,0
160957.795,-32.227,-41.016,-51.758,-41.504,0.000,0
160957.799,-25.391,-39.551,-39.062,-19.531,0.000,0
160957.803,-23.926,-37.109,-26.855,-16.602,0.000,0
160957.806,-27.832,-32.715,-21.973,-23.926,0.000,0
160957.810,-37.109,-34.668,-26.367,-29.297,0.000,0
160957.814,-43.945,-35.156,-22.949,-28.320,0.000,0
160957.818,-49.805,-32.715,-37.598,-21.973,0.000,0
160957.822,-48.828,-34.668,-38.086,-32.715,0.000,0
160957.826,-40.527,-35.156,-20.020,-44.922,0.000,0
160957.830,-40.527,-33.203,-24.414,-37.109,0.000,0
160957.834,-42.969,-35.156,-33.691,-26.367,0.000,0
160957.838,-32.715,-39.062,-41.016,-12.695,0.000,0
160957.842,-40.039,-41.016,-20.996,-21.484,0.000,0
160957.846,-57.129,-41.992,-13.672,-41.504,0.000,0
160957.849,-46.875,-39.551,-37.598,-38.086,0.000,0
160957.853,-40.527,-39.062,-31.250,-29.297,0.000,0
160957.857,-46.875,-40.039,-21.973,-21.973,0.000,0
160957.861,-40.039,-40.527,-26.367,-27.832,0.000,0
160957.865,-39.062,-42.480,-35.156,-57.129,0.000,0
160957.869,-43.457,-45.410,-33.691,-55.176,0.000,0
160957.873,-38.574,-42.969,-24.902,-40.527,0.000,0
160957.877,-34.180,-36.133,-30.273,-41.504,0.000,0
160957.881,-32.227,-35.156,-20.996,-43.945,0.000,0
160957.885,-33.203,-39.062,-9.766,-33.203,0.000,0
160957.888,-32.715,-37.109,-19.531,-29.785,0.000,0
160957.892,-35.156,-35.156,-15.625,-40.039,0.000,0
160957.896,-39.062,-34.668,-20.508,-21.484,0.000,0
160957.900,-39.062,-32.715,-29.785,-20.020,0.000,0
160957.904,-34.180,-32.227,-3.418,-32.715,0.000,0
160957.908,-32.715,-31.250,-13.672,-7.812,0.000,0
160957.912,-30.762,-30.762,-29.297,-22.461,0.000,0
160957.916,-28.320,-28.809,-17.090,-42.969,0.000,0
160957.920,-48.340,-29.297,-20.508,-39.062,0.000,0
160957.924,-56.641,-31.738,-19.531,-39.062,0.000,0
160957.928,-46.387,-29.297,-25.879,-36.133,0.000,0
160957.931,-51.758,-28.809,-21.484,-39.062,0.000,0
160957.935,-43.945,-26.855,-18.066,-29.297,0.000,0
160957.939,-37.598,-25.391,-21.973,-23.438,0.000,0
160957.943,-47.363,-25.879,-15.137,-17.090,0.000,0
160957.947,-41.992,-24.902,-14.160,-13.184,0.000,0
160957.951,-41.016,-26.367,-24.414,-28.809,0.000,0
160957.955,-45.898,-29.297,-28.809,-41.016,0.000,0
160957.959,-50.293,-35.156,-27.832,-48.340,0.000,0
160957.963,-36.621,-31.738,-30.762,-43.945,0.000,0
160957.967,-31.250,-30.762,-33.203,-38.086,0.000,0
160957.971,-35.645,-37.598,-50.293,-31.738,0.000,0
160957.974,-12.695,-34.180,-50.781,11.719,0.000,0
160957.978,-20.996,-23.438,-23.438,-8.789,0.000,0
160957.982,-50.781,-23.926,-16.602,-73.730,0.000,0
160957.986,-36.621,-31.738,-32.227,-56.641,0.000,0
160957.990,-39.551,-34.668,-36.621,-45.898,0.000,0
160957.994,-51.758,-35.156,-27.344,-55.176,0.000,0
160957.998,-29.785,-39.062,-32.227,-56.641,0.000,0
160958.002,-31.738,-39.062,-41.504,-61.035,0.000,0
160958.006,-30.762,-36.133,-30.273,-57.129,0.000,0
160958.010,-20.508,-37.598,-30.762,-44.922,0.000,0
160958.013,-34.668,-39.551,-41.992,-35.156,0.000,0
160958.017,-40.039,-40.527,-44.922,-31.738,0.000,0
160958.021,-40.527,-41.016,-21.484,-37.598,0.000,0
160958.025,-38.574,-38.086,-15.625,-31.250,0.000,0
160958.029,-39.551,-40.039,-47.363,-39.551,0.000,0
160958.033,-36.133,-44.922,-50.293,-56.152,0.000,0
160958.037,-33.203,-40.527,-32.227,-42.969,0.000,0
160958.041,-49.805,-36.133,-19.043,-45.898,0.000,0
160958.045,-54.199,-37.109,-34.668,-51.758,0.000,0
160958.049,-42.969,-35.156,-47.363,-41.016,0.000,0
160958.053,-50.293,-32.715,-39.551,-56.641,0.000,0
160958.056,-46.387,-30.273,-30.273,-53.223,0.000,0
160958.060,-39.551,-27.832,-19.531,-31.250,0.000,0
160958.064,-46.387,-31.250,-34.180,-48.340,0.000,0
160958.068,-42.480,-36.621,-40.527,-48.828,0.000,0
160958.072,-37.109,-37.109,-26.855,-22.949,0.000,0
160958.076,-24.414,-36.133,-34.668,-9.766,0.000,0
160958.080,-22.949,-35.156,-25.391,-35.645,0.000,0
160958.084,-40.527,-34.668,-18.555,-33.203,0.000,0
160958.088,-48.828,-39.551,-31.738,-12.695,0.000,0
160958.092,-44.434,-47.852,-31.250,-27.832,0.000,0
160958.096,-28.320,-46.387,-37.109,-36.133,0.000,0
160958.099,-30.762,-46.387,-19.531,-42.969,0.000,0
160958.103,-30.273,-41.504,-12.695,-37.598,0.000,0
160958.107,-18.066,-36.621,-33.691,-31.738,0.000,0
160958.111,-10.254,-34.180,-26.367,-45.410,0.000,0
160958.115,-14.648,-27.832,-24.414,-35.645,0.000,0
160958.119,-28.809,-32.227,-20.020,-39.062,0.000,0
160958.123,-24.414,-30.273,-14.160,-31.738,0.000,0
160958.127,-18.555,-28.320,-20.508,-13.672,0.000,0
160958.131,-32.227,-33.691,-20.996,-28.809,0.000,0
160958.135,-38.086,-33.203,-37.109,-38.574,0.000,0
160958.138,-35.645,-37.109,-34.180,-58.105,0.000,0
160958.142,-35.156,-35.645,-5.371,-63.965,0.000,0
160958.146,-26.367,-28.320,-9.277,-40.527,0.000,0
160958.150,-22.461,-26.855,-31.738,-31.250,0.000,0
160958.154,-28.320,-27.344,-33.203,-29.297,0.000,0
160958.158,-27.832,-32.715,-14.160,-41.504,0.000,0
160958.162,-11.230,-30.273,0.000,-30.273,0.000,0
160958.166,-7.324,-26.855,-27.832,-12.207,0.000,0
160958.170,-20.508,-29.297,-34.180,-14.648,0.000,0
160958.174,-28.320,-27.832,-13.184,-6.348,0.000,0
160958.178,-30.273,-31.250,-14.160,-14.160,0.000,0
160958.181,-30.762,-34.668,-29.785,-34.668,0.000,0
160958.185,-26.855,-37.109,-32.715,-40.039,0.000,0
160958.189,-16.113,-36.621,-11.230,-27.344,0.000,0
160958.193,-18.066,-28.320,-12.695,-17.578,0.000,0
160958.197,-23.438,-24.414,-20.508,-11.230,0.000,0
160958.201,-21.973,-22.949,-3.906,-16.602,0.000,0
160958.205,-30.273,-22.461,-20.020,-31.250,0.000,0
160958.209,-34.180,-26.367,-29.297,-35.645,0.000,0
160958.213,-34.180,-28.320,-27.832,-21.484,0.000,0
160958.217,-30.762,-28.320,-20.996,-17.090,0.000,0
160958.221,-28.320,-22.949,1.953,-14.648,0.000,0
160958.224,-26.367,-18.555,-5.859,-7.324,0.000,0
160958.228,-22.949,-20.508,-26.367,-8.789,0.000,0
160958.232,-27.344,-25.391,-29.297,-17.090,0.000,0
160958.236,-21.973,-22.949,-7.812,-12.695,0.000,0
160958.240,-9.277,-24.414,-7.812,-14.160,0.000,0
160958.244,-18.066,-29.785,-23.438,-24.902,0.000,0
160958.248,-19.531,-29.297,-16.113,-18.066,0.000,0
160958.252,-21.973,-27.832,-17.578,-16.602,0.000,0
160958.256,-24.414,-29.785,-25.879,-22.949,0.000,0
160958.260,-21.484,-24.902,-8.301,-38.086,0.000,0
160958.263,-29.297,-20.020,-4.883,-35.645,0.000,0
160958.267,-34.180,-24.902,-25.391,-15.625,0.000,0
160958.271,-31.738,-25.391,-30.762,-12.207,0.000,0
160958.275,-30.273,-26.367,-31.250,-20.996,0.000,0
160958.279,-27.344,-25.879,-13.672,-46.875,0.000,0
160958.283,-21.973,-25.391,-19.043,-51.270,0.000,0
160958.287,-21.973,-30.273,-33.691,-30.273,0.000,0
160958.291,-24.414,-30.273,-21.973,-28.809,0.000,0
160958.295,-8.789,-26.855,-17.090,-25.391,0.000,0
160958.299,-9.277,-24.902,-20.996,-29.785,0.000,0
160958.303,-23.926,-26.367,-30.762,-36.621,0.000,0
160958.306,-17.578,-26.367,-23.438,-23.926,0.000,0
160958.310,-14.160,-25.879,-13.672,-20.020,0.000,0
160958.314,-23.438,-29.785,-25.391,-16.113,0.000,0
160958.318,-23.926,-31.250,-23.438,-24.414,0.000,0
160958.322,-16.602,-23.926,-7.812,-35.645,0.000,0
160958.326,-15.137,-20.508,-15.137,-18.066,0.000,0
160958.330,-5.859,-24.902,-36.133,-2.930,0.000,0
160958.334,-10.742,-29.297,-35.156,-8.301,0.000,0
160958.338,-23.926,-30.762,-11.719,-13.184,0.000,0
160958.342,-21.973,-26.855,-8.789,-10.742,0.000,0
160958.346,-10.254,-27.344,-23.926,-1.465,0.000,0
160958.349,-17.090,-29.297,-25.391,-11.230,0.000,0
160958.353,-30.273,-30.762,-28.320,-27.344,0.000,0
160958.357,-39.062,-33.203,-20.508,-37.109,0.000,0
160958.361,-41.016,-35.645,-19.531,-32.227,0.000,0
160958.365,-33.691,-38.086,-33.691,-23.438,0.000,0
160958.369,-36.133,-36.133,-23.438,-22.949,0.000,0
160958.373,-32.715,-33.203,-22.949,-14.160,0.000,0
160958.377,-24.902,-36.133,-27.832,-19.043,0.000,0
160958.381,-27.344,-34.668,-25.391,-24.414,0.000,0
160958.385,-25.391,-34.668,-35.156,-27.832,0.000,0
160958.388,-19.043,-33.203,-31.250,-20.020,0.000,0
160958.392,-25.391,-31.250,-30.273,-15.625,0.000,0
160958.396,-36.133,-33.691,-21.973,-40.039,0.000,0
160958.400,-37.109,-31.738,-19.531,-42.969,0.000,0
160958.404,-32.227,-29.785,-37.109,-34.668,0.000,0
160958.408,-33.203,-32.227,-34.180,-38.574,0.000,0
160958.412,-35.645,-27.832,-18.555,-35.156,0.000,0
160958.416,-30.762,-29.297,-11.230,-37.598,0.000,0
160958.420,-22.461,-31.738,-26.855,-48.828,0.000,0
160958.424,-18.066,-29.785,-35.156,-42.480,0.000,0
160958.428,-22.949,-32.715,-25.391,-33.203,0.000,0
160958.431,-28.320,-32.227,-33.203,-22.461,0.000,0
160958.435,-27.832,-31.250,-20.508,-33.203,0.000,0
160958.439,-19.531,-25.391,-5.371,-28.809,0.000,0
160958.443,-22.949,-22.949,-21.484,-17.578,0.000,0
160958.447,-19.531,-26.367,-26.367,-33.691,0.000,0
160958.451,-21.484,-26.367,-27.344,-40.527,0.000,0
160958.455,-35.156,-26.855,-22.949,-34.668,0.000,0
160958.459,-22.461,-23.438,-11.719,-32.227,0.000,0
160958.463,-20.508,-19.531,-25.879,-32.715,0.000,0
160958.467,-29.297,-24.414,-49.316,-23.926,0.000,0
160958.471,-33.691,-25.879,-37.598,-0.488,0.000,0
160958.474,-39.062,-23.438,-15.137,-9.277,0.000,0
160958.478,-35.645,-23.438,-25.879,-20.508,0.000,0
160958.482,-32.227,-25.391,-47.363,-13.184,0.000,0
160958.486,-34.668,-29.297,-28.320,-21.973,0.000,0
160958.490,-40.039,-29.785,-19.531,-27.832,0.000,0
160958.494,-36.133,-31.738,-24.902,-41.016,0.000,0
160958.498,-27.832,-35.156,-26.367,-43.945,0.000,0
160958.502,-31.738,-35.156,-28.320,-27.832,0.000,0
160958.506,-34.180,-33.203,-28.809,-20.508,0.000,0
160958.510,-21.973,-32.715,-49.316,-18.066,0.000,0
160958.513,-20.508,-36.621,-45.410,-21.484,0.000,0
160958.517,-27.344,-34.180,-17.090,-26.855,0.000,0
160958.521,-21.484,-31.250,-17.578,-15.625,0.000,0
160958.525,-11.230,-34.668,-28.320,-5.859,0.000,0
160958.529,-19.531,-34.180,-29.297,-2.930,0.000,0
160958.533,-32.715,-33.691,-13.184,-21.973,0.000,0
160958.537,-26.367,-31.250,-3.418,-41.992,0.000,0
160958.541,-17.090,-31.738,-21.973,-37.109,0.000,0
160958.545,-19.043,-34.668,-24.902,-29.297,0.000,0
160958.549,-18.555,-35.156,-23.438,-27.344,0.000,0
160958.553,-21.484,-33.691,-25.391,-23.926,0.000,0
160958.556,-31.250,-26.367,-19.043,-31.738,0.000,0
160958.560,-27.832,-27.832,-15.137,-32.715,0.000,0
160958.564,-26.855,-30.762,-14.648,-29.297,0.000,0
160958.568,-34.668,-28.809,-23.438,-26.367,0.000,0
160958.572,-34.180,-30.762,-22.461,-23.926,0.000,0
160958.576,-38.086,-36.133,-20.508,-38.086,0.000,0
160958.580,-38.574,-35.156,-31.738,-27.344,0.000,0
160958.584,-36.133,-37.109,-38.574,-18.555,0.000,0
160958.588,-36.621,-36.133,-32.715,-39.551,0.000,0
160958.592,-32.227,-31.250,-15.137,-37.109,0.000,0
160958.596,-22.461,-31.738,-7.812,-35.156,0.000,0
160958.599,-24.414,-32.715,-21.973,-38.086,0.000,0
160958.603,-30.273,-38.574,-38.086,-35.645,0.000,0
160958.607,-23.438,-37.598,-29.785,-21.973,0.000,0
160958.611,-22.461,-31.250,-15.625,-17.578,0.000,0
160958.615,-31.250,-28.320,-16.602,-37.109,0.000,0
160958.619,-31.250,-27.832,-20.020,-34.668,0.000,0
160958.623,-26.367,-31.738,-29.785,-20.020,0.000,0
160958.627,-31.250,-32.227,-26.367,-18.555,0.000,0
160958.631,-35.156,-35.156,-28.809,-20.996,0.000,0
160958.635,-37.598,-38.086,-25.391,-34.668,0.000,0
160958.638,-38.574,-34.668,-20.508,-46.875,0.000,0
160958.642,-31.250,-36.133,-24.414,-32.715,0.000,0
160958.646,-28.320,-34.668,-32.227,-19.043,0.000,0
160958.650,-21.973,-36.621,-43.945,-29.297,0.000,0
160958.654,-14.160,-37.109,-22.461,-37.109,0.000,0
160958.658,-8.301,-29.297,-20.020,-28.320,0.000,0
160958.662,-11.230,-31.250,-38.086,-23.438,0.000,0
160958.666,-26.367,-36.133,-33.691,-28.320,0.000,0
160958.670,-25.391,-35.156,-29.785,-25.879,0.000,0
160958.674,-15.137,-36.621,-16.602,-41.992,0.000,0
160958.678,-20.508,-39.062,-18.066,-31.738,0.000,0
160958.681,-30.762,-34.668,-34.668,-13.184,0.000,0
160958.685,-22.461,-30.273,-37.598,-17.578,0.000,0
160958.689,-23.438,-33.691,-33.203,-20.996,0.000,0
160958.693,-34.668,-35.645,-25.879,-39.062,0.000,0
160958.697,-29.297,-29.785,-23.438,-30.762,0.000,0
160958.701,-24.902,-28.320,-23.926,-18.066,0.000,0
160958.705,-30.762,-31.250,-30.273,-20.020,0.000,0
160958.709,-30.273,-30.273,-27.832,-10.742,0.000,0
160958.713,-25.879,-28.320,-18.066,-22.461,0.000,0
160958.717,-19.531,-28.809,-29.785,-32.227,0.000,0
160958.721,-15.137,-31.738,-32.227,-12.207,0.000,0
160958.724,-21.484,-28.320,-26.855,-13.184,0.000,0
160958.728,-28.320,-27.832,-26.855,-27.344,0.000,0
160958.732,-33.203,-32.227,-20.508,-43.945,0.000,0
160958.736,-38.574,-27.832,-25.879,-48.340,0.000,0
160958.740,-29.297,-20.020,-20.996,-34.180,0.000,0
160958.744,-24.414,-23.438,-17.578,-21.484,0.000,0
160958.748,-18.555,-29.785,-36.133,-19.043,0.000,0
160958.752,-18.555,-30.273,-21.484,-23.926,0.000,0
160958.756,-29.785,-25.879,-15.625,-18.066,0.000,0
160958.760,-30.762,-27.344,-25.879,-18.066,0.000,0
160958.763,-28.320,-25.879,-28.320,-19.531,0.000,0
160958.767,-24.902,-21.973,-17.578,-22.949,0.000,0
160958.771,-19.043,-21.484,4.883,-32.227,0.000,0
160958.775,-30.762,-26.367,-2.441,-35.645,0.000,0
160958.779,-37.598,-30.762,-32.227,-42.480,0.000,0
160958.783,-36.133,-30.273,-42.969,-38.086,0.000,0
160958.787,-34.180,-30.273,-21.484,-23.438,0.000,0
160958.791,-30.762,-37.598,-15.137,-34.668,0.000,0
160958.795,-30.273,-35.645,-30.273,-28.809,0.000,0
160958.799,-30.762,-30.762,-44.922,-19.043,0.000,0
160958.803,-27.832,-32.227,-23.438,-18.066,0.000,0
160958.806,-22.949,-32.227,-23.926,-15.137,0.000,0
160958.810,-36.133,-39.062,-27.832,-41.016,0.000,0
160958.814,-38.086,-42.480,-33.203,-53.711,0.000,0
160958.818,-32.227,-39.062,-35.645,-33.203,0.000,0
160958.822,-29.297,-42.480,-40.527,-26.855,0.000,0
160958.826,-26.855,-43.945,-42.969,-35.645,0.000,0
160958.830,-20.508,-40.039,-22.949,-32.715,0.000,0
160958.834,-14.160,-31.738,-23.438,-10.254,0.000,0
160958.838,-12.207,-29.785,-35.645,-19.531,0.000,0
160958.842,2.441,-31.250,-36.621,-11.230,0.000,0
160958.846,10.254,-30.762,-27.832,8.789,0.000,0
160958.849,-28.320,-30.762,-10.254,-28.320,0.000,0
160958.853,-51.758,-28.320,-22.461,-52.734,0.000,0
160958.857,-42.480,-29.297,-42.480,-48.340,0.000,0
160958.861,-28.809,-33.203,-37.598,-29.297,0.000,0
160958.865,-29.297,-30.273,-27.344,-16.113,0.000,0
160958.869,-33.691,-27.344,-23.926,-47.363,0.000,0
160958.873,-22.461,-23.926,-19.043,-46.387,0.000,0
160958.877,-20.020,-22.949,-1.953,-24.902,0.000,0
160958.881,-20.508,-24.902,-8.789,-22.461,0.000,0
160958.885,-18.555,-26.367,-28.320,-11.230,0.000,0
160958.888,-24.414,-27.344,-24.414,-15.137,0.000,0
160958.892,-31.738,-29.785,-12.695,-18.066,0.000,0
160958.896,-30.273,-33.691,-31.250,-13.184,0.000,0
160958.900,-21.484,-30.273,-36.133,-16.113,0.000,0
160958.904,-14.160,-28.809,-18.066,-11.719,0.000,0
160958.908,-18.066,-27.344,-9.277,-20.020,0.000,0
160958.912,-32.227,-28.320,-14.648,-40.039,0.000,0
160958.916,-30.762,-33.691,-20.996,-47.852,0.000,0
160958.920,-22.949,-32.227,-32.227,-19.043,0.000,0
160958.924,-19.531,-30.762,-31.250,3.906,0.000,0
160958.928,-16.113,-32.715,-17.090,-10.254,0.000,0
160958.931,-32.227,-34.180,-28.809,-24.414,0.000,0
160958.935,-42.480,-28.320,-36.133,-16.113,0.000,0
160958.939,-36.133,-28.809,-14.160,-7.812,0.000,0
160958.943,-39.062,-39.062,-29.297,-23.438,0.000,0
160958.947,-35.156,-41.992,-30.273,-24.902,0.000,0
160958.951,-31.250,-39.062,-17.578,-25.879,0.000,0
160958.955,-28.320,-37.109,-20.508,-30.273,0.000,0
160958.959,-31.738,-40.039,-23.438,-21.484,0.000,0
160958.963,-36.133,-38.574,-29.297,-8.301,0.000,0
160958.967,-34.668,-37.109,-18.066,-9.766,0.000,0
160958.971,-33.203,-38.086,-11.230,-22.461,0.000,0
160958.974,-32.715,-38.086,-29.785,-22.461,0.000,0
160958.978,-33.203,-37.109,-28.320,-27.832,0.000,0
160958.982,-34.180,-38.574,-15.137,-27.832,0.000,0
160958.986,-33.691,-41.992,-24.414,-36.133,0.000,0
160958.990,-29.297,-38.574,-30.762,-50.781,0.000,0
160958.994,-29.297,-35.645,-33.203,-34.180,0.000,0
160958.998,-34.668,-35.156,-30.762,-18.555,0.000,0
160959.002,-35.645,-35.156,-33.203,-18.555,0.000,0
160959.006,-34.180,-38.086,-26.855,-23.926,0.000,0
160959.010,-32.715,-43.457,-20.996,-22.461,0.000,0
160959.013,-29.785,-41.504,-33.203,-15.137,0.000,0
160959.017,-21.484,-33.691,-30.273,-18.555,0.000,0
160959.021,-27.832,-32.715,-32.227,-27.344,0.000,0
160959.025,-35.645,-36.621,-28.809,-33.203,0.000,0
160959.029,-24.902,-34.668,-20.020,-42.969,0.000,0
160959.033,-16.113,-36.133,-42.969,-44.922,0.000,0
160959.037,-10.742,-35.156,-40.527,-34.180,0.000,0
160959.041,-12.695,-34.180,-26.367,-16.113,0.000,0
160959.045,-24.414,-35.645,-21.973,-27.344,0.000,0
160959.049,-22.949,-31.738,-18.066,-47.852,0.000,0
160959.053,-9.766,-29.785,-20.508,-26.855,0.000,0
160959.056,-9.277,-28.809,-8.301,-11.719,0.000,0
160959.060,-11.719,-22.461,-13.184,-13.184,0.000,0
160959.064,-14.648,-17.090,-20.508,-14.160,0.000,0
160959.068,-17.090,-20.996,-9.277,-27.832,0.000,0
160959.072,-18.555,-21.973,-8.789,-21.484,0.000,0
160959.076,-20.020,-19.531,-20.020,-8.301,0.000,0
160959.080,-21.484,-27.344,-39.551,-16.602,0.000,0
160959.084,-32.227,-32.715,-17.090,-26.855,0.000,0
160959.088,-31.738,-31.250,2.441,-29.785,0.000,0
160959.092,-38.086,-35.156,-26.367,-37.109,0.000,0
160959.096,-49.805,-41.504,-47.363,-49.805,0.000,0
160959.099,-50.293,-41.992,-42.969,-51.270,0.000,0
160959.103,-41.992,-42.969,-24.414,-43.945,0.000,0
160959.107,-25.391,-41.504,-8.789,-38.574,0.000,0
160959.111,-32.715,-41.016,-28.320,-34.668,0.000,0
160959.115,-37.109,-35.645,-35.156,-20.996,0.000,0
160959.119,-26.367,-28.320,-20.020,-18.066,0.000,0
160959.123,-23.926,-30.273,-26.855,-33.691,0.000,0
160959.127,-15.137,-31.250,-18.066,-41.504,0.000,0
160959.131,-11.719,-26.855,-18.066,-44.434,0.000,0
160959.135,-20.020,-27.832,-20.508,-40.527,0.000,0
160959.138,-21.484,-29.785,-25.879,-24.902,0.000,0
160959.142,-14.648,-26.367,-29.785,-33.203,0.000,0
160959.146,-7.812,-28.320,-11.230,-48.340,0.000,0
160959.150,-20.508,-27.832,-25.879,-28.809,0.000,0
160959.154,-23.438,-23.438,-33.691,-24.902,0.000,0
160959.158,-19.531,-28.320,-26.367,-34.180,0.000,0
160959.162,-21.484,-30.762,-24.414,-31.738,0.000,0
160959.166,-20.996,-31.250,-26.367,-46.875,0.000,0
160959.170,-18.066,-33.203,-38.086,-47.363,0.000,0
160959.174,-22.461,-33.203,-33.691,-32.715,0.000,0
160959.178,-23.926,-31.250,-17.578,-20.996,0.000,0
160959.181,-14.648,-24.414,-20.508,-20.020,0.000,0
160959.185,-23.438,-30.273,-18.066,-33.691,0.000,0
160959.189,-27.344,-30.273,-24.902,-33.203,0.000,0
160959.193,-22.461,-23.926,-28.320,-39.551,0.000,0
160959.197,-26.855,-29.297,-34.668,-41.992,0.000,0
160959.201,-29.785,-33.203,-35.156,-31.738,0.000,0
160959.205,-33.691,-31.738,-20.996,-42.480,0.000,0
160959.209,-41.504,-30.762,-28.320,-45.898,0.000,0
160959.213,-35.156,-28.320,-34.180,-30.762,0.000,0
160959.217,-25.391,-29.785,-44.922,-29.785,0.000,0
160959.221,-26.855,-25.879,-23.926,-27.832,0.000,0
160959.224,-24.414,-27.344,-10.742,-37.598,0.000,0
160959.228,-16.113,-33.203,-37.109,-33.691,0.000,0
160959.232,-19.043,-30.762,-28.809,-22.461,0.000,0
160959.236,-26.367,-30.273,-23.438,-27.832,0.000,0
160959.240,-27.832,-33.691,-32.227,-19.043,0.000,0
160959.244,-29.297,-39.062,-29.785,-27.344,0.000,0
160959.248,-25.391,-37.598,-28.320,-22.461,0.000,0
160959.252,-22.949,-36.621,-26.367,-13.672,0.000,0
160959.256,-28.320,-35.645,-31.738,-20.996,0.000,0
160959.260,-16.113,-28.809,-37.109,-5.859,0.000,0
160959.263,-8.789,-30.762,-23.438,-19.043,0.000,0
160959.267,-24.414,-29.785,-17.578,-35.645,0.000,0
160959.271,-19.043,-32.715,-30.762,-28.320,0.000,0
160959.275,-18.066,-31.250,-20.508,-25.879,0.000,0
160959.279,-19.043,-23.926,-23.438,-20.508,0.000,0
160959.283,-7.324,-22.461,-19.043,-25.391,0.000,0
160959.287,-9.277,-22.461,-29.297,-13.672,0.000,0
160959.291,-13.672,-27.344,-44.922,-19.531,0.000,0
160959.295,-12.207,-30.273,-31.738,-27.344,0.000,0
160959.299,-10.742,-29.785,-25.391,-24.902,0.000,0
160959.303,-11.719,-32.227,-19.043,-29.785,0.000,0
160959.306,-18.555,-30.762,-20.996,-19.531,0.000,0
160959.310,-9.277,-20.996,-15.625,2.930,0.000,0
160959.314,0.000,-20.508,-27.344,4.395,0.000,0
160959.318,-7.812,-23.926,-20.996,-6.836,0.000,0
160959.322,-13.184,-21.484,-8.789,-7.812,0.000,0
160959.326,-19.531,-23.438,-31.738,3.906,0.000,0
160959.330,-19.531,-26.367,-36.133,0.977,0.000,0
160959.334,-15.625,-24.902,-25.879,-18.066,0.000,0
160959.338,-19.531,-20.996,-4.395,-17.090,0.000,0
160959.342,-26.367,-21.973,-8.789,-16.602,0.000,0
160959.346,-28.320,-24.902,-27.344,-21.973,0.000,0
160959.349,-20.508,-21.484,-26.855,-14.160,0.000,0
160959.353,-22.461,-20.996,-18.066,0.977,0.000,0
160959.357,-33.691,-24.902,-18.555,-6.348,0.000,0
160959.361,-39.551,-27.832,-31.738,-24.414,0.000,0
160959.365,-43.457,-27.344,-32.227,-26.367,0.000,0
160959.369,-41.016,-29.785,-24.902,-26.855,0.000,0
160959.373,-34.180,-29.297,-24.902,-23.926,0.000,0
160959.377,-27.832,-26.367,-21.973,-20.508,0.000,0
160959.381,-34.668,-32.227,-16.602,-35.156,0.000,0
160959.385,-39.551,-31.250,-20.508,-41.992,0.000,0
160959.388,-32.227,-26.855,-37.109,-25.879,0.000,0
160959.392,-33.691,-30.273,-52.734,-12.695,0.000,0
160959.396,-27.344,-31.250,-33.203,-6.348,0.000,0
160959.400,-15.137,-26.367,-11.719,-1.953,0.000,0
160959.404,-39.551,-27.344,-32.715,-25.879,0.000,0
160959.408,-53.711,-31.738,-43.945,-47.363,0.000,0
160959.412,-40.527,-29.297,-41.992,-32.227,0.000,0
160959.416,-36.133,-31.738,-41.504,-26.855,0.000,0
160959.420,-41.992,-40.039,-32.227,-48.340,0.000,0
160959.424,-55.176,-32.715,-38.086,-56.152,0.000,0
160959.428,-55.176,-26.855,-38.086,-38.574,0.000,0
160959.431,-43.945,-34.668,-36.133,-37.109,0.000,0
160959.435,-41.992,-38.086,-31.738,-46.387,0.000,0
160959.439,-41.504,-39.062,-20.996,-45.410,0.000,0
160959.443,-38.574,-38.574,-36.133,-46.387,0.000,0
160959.447,-39.062,-37.598,-38.574,-41.992,0.000,0
160959.451,-40.039,-39.062,-45.898,-31.250,0.000,0
160959.455,-33.203,-43.945,-44.922,-36.621,0.000,0
160959.459,-30.273,-39.551,-3.418,-43.945,0.000,0
160959.463,-35.645,-35.645,-22.949,-27.832,0.000,0
160959.467,-35.645,-39.062,-41.016,-17.090,0.000,0
160959.471,-34.668,-35.645,-25.391,-20.508,0.000,0
160959.474,-35.645,-30.762,-20.996,-18.555,0.000,0
160959.478,-36.621,-32.227,-15.625,-32.227,0.000,0
160959.482,-28.809,-35.645,-29.297,-27.344,0.000,0
160959.486,-26.367,-30.273,-21.973,-14.648,0.000,0
160959.490,-21.973,-24.902,-24.414,-19.043,0.000,0
160959.494,-13.672,-25.879,-35.156,-10.254,0.000,0
160959.498,-23.926,-26.855,-20.508,-13.672,0.000,0
160959.502,-24.902,-25.879,-16.113,-8.789,0.000,0
160959.506,-13.672,-25.879,-23.926,3.906,0.000,0
160959.510,-20.996,-30.762,-29.785,-15.137,0.000,0
160959.513,-21.973,-27.344,-12.207,-21.973,0.000,0
160959.517,-18.066,-23.438,-7.324,-29.785,0.000,0
160959.521,-20.020,-22.949,-20.508,-39.062,0.000,0
160959.525,-24.414,-19.531,-30.273,-27.344,0.000,0
160959.529,-33.203,-19.531,-23.438,-22.949,0.000,0
160959.533,-28.809,-21.484,-9.766,-19.043,0.000,0
160959.537,-21.484,-23.926,-11.719,-23.926,0.000,0
160959.541,-23.438,-28.320,-23.438,-34.180,0.000,0
160959.545,-26.367,-27.832,-17.090,-33.203,0.000,0
160959.549,-27.832,-20.996,-4.395,-16.602,0.000,0
160959.553,-23.926,-23.438,-24.902,-12.207,0.000,0
160959.556,-19.531,-28.320,-20.020,-31.250,0.000,0
160959.560,-24.414,-33.691,-25.391,-26.855,0.000,0
160959.564,-27.344,-35.156,-34.180,-25.879,0.000,0
160959.568,-27.832,-34.668,-28.809,-35.645,0.000,0
160959.572,-37.598,-34.668,-28.809,-33.691,0.000,0
160959.576,-31.738,-29.785,-24.902,-34.180,0.000,0
160959.580,-30.273,-31.738,-26.367,-45.898,0.000,0
160959.584,-42.969,-30.762,-28.320,-47.363,0.000,0
160959.588,-37.109,-29.297,-33.691,-37.598,0.000,0
160959.592,-39.551,-28.809,-29.297,-37.598,0.000,0
160959.596,-40.527,-26.367,-27.344,-41.504,0.000,0
160959.599,-33.203,-23.926,-41.016,-23.926,0.000,0
160959.603,-37.598,-27.344,-37.109,-20.020,0.000,0
160959.607,-40.039,-32.715,-33.203,-28.320,0.000,0
160959.611,-41.992,-27.344,-29.297,-18.555,0.000,0
160959.615,-40.527,-26.367,-20.020,-17.578,0.000,0
160959.619,-42.480,-23.438,-19.531,-33.203,0.000,0
160959.623,-44.434,-22.461,-22.949,-33.203,0.000,0
160959.627,-34.668,-25.391,-26.855,-11.230,0.000,0
160959.631,-32.715,-24.902,-23.438,-17.090,0.000,0
160959.635,-35.156,-24.902,-3.906,-41.504,0.000,0
160959.638,-33.691,-23.926,-9.766,-37.598,0.000,0
160959.642,-33.203,-24.902,-38.574,-19.043,0.000,0
160959.646,-27.344,-25.391,-35.645,-15.625,0.000,0
160959.650,-12.695,-26.855,-20.020,-27.344,0.000,0
160959.654,-16.113,-27.344,-14.160,-42.969,0.000,0
160959.658,-29.297,-33.203,-30.273,-45.410,0.000,0
160959.662,-20.508,-37.598,-34.180,-36.133,0.000,0
160959.666,-10.742,-25.879,-19.531,-19.043,0.000,0
160959.670,-9.766,-19.043,-19.043,-18.066,0.000,0
160959.674,-9.277,-21.973,-15.137,-27.832,0.000,0
160959.678,-12.207,-20.020,-16.602,-15.625,0.000,0
160959.681,-5.371,-17.578,-21.484,-5.371,0.000,0
160959.685,-3.906,-20.508,-25.391,-11.719,0.000,0
160959.689,-20.508,-21.484,-27.832,-14.648,0.000,0
160959.693,-21.973,-20.020,-14.160,-24.902,0.000,0
160959.697,-20.996,-21.484,-11.230,-35.156,0.000,0
160959.701,-12.695,-17.090,-19.043,-14.648,0.000,0
160959.705,-2.441,-20.508,-28.320,-13.184,0.000,0
160959.709,-5.371,-20.508,-18.555,-13.184,0.000,0
160959.713,-1.465,-12.695,0.977,-6.836,0.000,0
160959.717,-3.906,-12.695,-9.277,-19.531,0.000,0
160959.721,-7.812,-18.066,-18.555,-18.555,0.000,0
160959.724,-14.160,-19.531,-9.766,-11.230,0.000,0
160959.728,-20.020,-20.020,-19.531,-13.672,0.000,0
160959.732,-9.766,-24.902,-19.531,-21.973,0.000,0
160959.736,-13.184,-26.367,-9.277,-26.367,0.000,0
160959.740,-30.273,-27.344,-27.344,-16.113,0.000,0
160959.744,-30.273,-30.273,-39.062,-15.625,0.000,0
160959.748,-20.996,-32.715,-35.156,-22.949,0.000,0
160959.752,-19.043,-34.180,-19.531,-20.508,0.000,0
160959.756,-11.719,-24.414,-12.695,-26.367,0.000,0
160959.760,-1.953,-15.625,-23.438,-29.785,0.000,0
160959.763,-15.137,-18.066,-29.785,-12.207,0.000,0
160959.767,-25.391,-23.438,-34.668,0.488,0.000,0
160959.771,-30.762,-28.320,-14.648,-19.043,0.000,0
160959.775,-24.414,-27.344,-19.531,-23.438,0.000,0
160959.779,-22.461,-29.297,-44.922,-24.902,0.000,0
160959.783,-34.180,-32.715,-36.133,-29.297,0.000,0
160959.787,-26.855,-31.250,-18.555,-18.555,0.000,0
160959.791,-22.949,-29.785,-10.254,-27.832,0.000,0
160959.795,-31.250,-25.391,-15.137,-28.320,0.000,0
160959.799,-28.809,-26.855,-19.531,-19.043,0.000,0
160959.803,-21.484,-26.855,-27.832,-3.418,0.000,0
160959.806,-19.531,-22.461,-25.879,-1.953,0.000,0
160959.810,-14.648,-21.484,-4.883,-19.531,0.000,0
160959.814,-6.348,-20.996,-5.859,-6.348,0.000,0
160959.818,-2.930,-20.996,-19.531,3.418,0.000,0
160959.822,-6.836,-23.926,-39.062,-6.348,0.000,0
160959.826,-11.719,-22.461,-37.109,-6.836,0.000,0
160959.830,-8.301,-22.949,4.395,-15.625,0.000,0
160959.834,-15.137,-30.273,-10.742,-28.809,0.000,0
160959.838,-20.996,-35.156,-33.691,-23.438,0.000,0
160959.842,-23.438,-32.715,-30.273,-13.672,0.000,0
160959.846,-20.508,-27.832,-25.879,-14.648,0.000,0
160959.849,-16.113,-26.367,-10.254,-25.391,0.000,0
160959.853,-21.484,-23.926,-20.508,-24.902,0.000,0
160959.857,-14.160,-20.996,-37.598,-24.902,0.000,0
160959.861,-17.090,-24.902,-24.902,-29.297,0.000,0
160959.865,-21.973,-25.879,-16.602,-27.344,0.000,0
160959.869,-12.695,-23.438,-27.344,-37.598,0.000,0
160959.873,-20.020,-24.414,-25.879,-47.852,0.000,0
160959.877,-16.602,-23.926,-15.625,-15.137,0.000,0
160959.881,-13.184,-25.391,-30.762,-6.836,0.000,0
160959.885,-37.598,-23.926,-29.785,-41.016,0.000,0
160959.888,-41.992,-22.461,-10.254,-51.270,0.000,0
160959.892,-28.320,-20.508,-4.883,-36.621,0.000,0
160959.896,-15.625,-19.043,-35.645,-22.461,0.000,0
160959.900,-15.625,-27.832,-47.852,-22.949,0.000,0
160959.904,-39.551,-22.949,-30.273,-9.766,0.000,0
160959.908,-50.293,-20.020,-26.367,-27.832,0.000,0
160959.912,-46.387,-29.297,-32.227,-51.270,0.000,0
160959.916,-36.621,-26.855,-38.086,-33.203,0.000,0
160959.920,-37.109,-26.855,-35.645,-33.691,0.000,0
160959.924,-36.133,-26.367,-41.504,-37.598,0.000,0
160959.928,-20.996,-26.855,-50.293,-29.785,0.000,0
160959.931,-20.996,-27.344,-37.598,-35.645,0.000,0
160959.935,-25.391,-23.926,-25.391,-35.645,0.000,0
160959.939,-23.926,-24.902,-27.832,-27.832,0.000,0
160959.943,-26.367,-26.855,-35.645,-19.043,0.000,0
160959.947,-26.855,-30.762,-23.438,-9.766,0.000,0
160959.951,-31.250,-30.273,-21.484,-20.508,0.000,0
160959.955,-33.691,-30.273,-36.133,-35.645,0.000,0
160959.959,-29.785,-29.297,-36.133,-31.250,0.000,0
160959.963,-25.391,-25.391,-27.344,-27.344,0.000,0
160959.967,-22.461,-27.344,-18.555,-32.715,0.000,0
160959.971,-16.602,-24.902,-22.461,-39.551,0.000,0
160959.974,-16.113,-24.902,-40.039,-36.621,0.000,0
160959.978,-18.066,-23.926,-35.645,-21.484,0.000,0
160959.982,-17.090,-21.484,-26.855,-17.090,0.000,0
160959.986,-23.926,-21.973,-30.762,-22.461,0.000,0
160959.990,-20.508,-24.902,-25.879,-23.926,0.000,0
160959.994,-16.113,-22.949,-11.230,-29.297,0.000,0
160959.998,-17.090,-19.531,-31.738,-15.137,0.000,0
160960.002,-18.555,-24.414,-50.781,-13.184,0.000,0
160960.006,-27.832,-20.020,-20.996,-23.438,0.000,0
160960.010,-26.367,-13.184,-6.836,-25.391,0.000,0
160960.013,-22.461,-15.137,-27.344,-20.508,0.000,0
160960.017,-17.578,-18.066,-37.598,-11.719,0.000,0
160960.021,-23.926,-21.484,-40.039,-4.883,0.000,0
160960.025,-30.762,-26.367,-34.668,-11.719,0.000,0
160960.029,-26.367,-24.414,-25.391,-27.832,0.000,0
160960.033,-16.602,-21.973,-37.109,-23.926,0.000,0
160960.037,-9.766,-25.879,-50.293,-17.090,0.000,0
160960.041,-30.273,-30.273,-40.527,-24.902,0.000,0
160960.045,-53.711,-34.668,-34.668,-43.945,0.000,0
160960.049,-52.246,-34.180,-34.668,-64.453,0.000,0
160960.053,-45.410,-24.414,-31.250,-52.734,0.000,0
160960.056,-44.434,-22.461,-24.414,-41.992,0.000,0
160960.060,-41.992,-33.203,-43.457,-47.363,0.000,0
160960.064,-55.176,-37.598,-42.969,-51.758,0.000,0
160960.068,-55.176,-30.762,-17.578,-57.617,0.000,0
160960.072,-44.434,-25.879,-25.391,-52.246,0.000,0
160960.076,-31.250,-23.926,-28.320,-43.945,0.000,0
160960.080,-25.391,-27.344,-25.391,-29.297,0.000,0
160960.084,-30.273,-31.250,-20.996,-22.949,0.000,0
160960.088,-23.438,-30.762,-6.836,-31.738,0.000,0
160960.092,-14.648,-30.762,-23.926,-24.902,0.000,0
160960.096,-11.230,-27.344,-26.855,-15.137,0.000,0
160960.099,-10.742,-26.367,-22.949,-4.395,0.000,0
160960.103,-9.277,-28.320,-29.297,-15.137,0.000,0
160960.107,-8.789,-31.738,-31.250,-28.809,0.000,0
160960.111,-11.230,-31.250,-33.203,-18.066,0.000,0
160960.115,-22.461,-25.391,-9.766,-23.438,0.000,0
160960.119,-21.484,-23.438,-28.809,-20.020,0.000,0
160960.123,-17.090,-23.926,-42.480,-11.719,0.000,0
160960.127,-13.672,-22.949,-11.719,-38.086,0.000,0
160960.131,-5.371,-22.461,-22.949,-32.227,0.000,0
160960.135,-15.137,-22.461,-39.062,-17.090,0.000,0
160960.138,-22.949,-22.461,-31.738,-15.625,0.000,0
160960.142,-20.996,-24.902,-24.902,-13.672,0.000,0
160960.146,-22.461,-27.344,-26.367,-39.551,0.000,0
160960.150,-23.926,-25.879,-30.762,-46.875,0.000,0
160960.154,-28.320,-29.785,-33.691,-34.180,0.000,0
160960.158,-24.902,-33.203,-36.133,-19.531,0.000,0
160960.162,-27.832,-33.203,-31.250,-26.367,0.000,0
160960.166,-30.273,-29.785,-32.715,-29.297,0.000,0
160960.170,-23.438,-28.320,-41.504,-21.484,0.000,0
160960.174,-20.020,-27.344,-35.156,-31.250,0.000,0
160960.178,-19.531,-31.250,-31.250,-19.043,0.000,0
160960.181,-24.414,-34.180,-28.320,-7.812,0.000,0
160960.185,-26.367,-29.785,-22.461,-25.879,0.000,0
160960.189,-26.855,-30.273,-28.320,-36.621,0.000,0
160960.193,-31.738,-31.250,-33.203,-33.691,0.000,0
160960.197,-29.297,-26.367,-33.691,-38.574,0.000,0
160960.201,-26.855,-26.855,-18.555,-32.227,0.000,0
160960.205,-26.367,-28.320,-12.695,-25.391,0.000,0
160960.209,-27.832,-29.297,-40.039,-24.414,0.000,0
160960.213,-29.785,-30.762,-41.504,-27.344,0.000,0
160960.217,-27.832,-29.785,-25.879,-23.438,0.000,0
160960.221,-22.461,-28.320,-18.555,-18.066,0.000,0
160960.224,-32.715,-28.320,-20.020,-33.691,0.000,0
160960.228,-45.898,-33.203,-31.738,-37.109,0.000,0
160960.232,-36.133,-30.762,-34.180,-25.391,0.000,0
160960.236,-32.715,-30.273,-36.133,-27.832,0.000,0
160960.240,-35.645,-35.156,-30.273,-26.367,0.000,0
160960.244,-31.738,-31.738,-18.555,-18.066,0.000,0
160960.248,-28.320,-29.297,-13.672,-23.438,0.000,0
160960.252,-19.043,-32.227,-21.973,-33.203,0.000,0
160960.256,-19.043,-32.715,-34.180,-32.715,0.000,0
160960.260,-31.738,-35.156,-30.762,-20.508,0.000,0
160960.263,-20.996,-41.504,-16.602,-9.766,0.000,0
160960.267,-14.160,-42.480,-32.227,-15.137,0.000,0
160960.271,-24.414,-40.527,-57.129,-24.902,0.000,0
160960.275,-24.902,-41.992,-38.086,-14.648,0.000,0
160960.279,-13.184,-39.551,-14.648,-6.836,0.000,0
160960.283,-10.254,-33.691,-14.160,-20.508,0.000,0
160960.287,-28.320,-32.715,-28.809,-23.438,0.000,0
160960.291,-34.668,-32.715,-29.785,-20.020,0.000,0
160960.295,-27.344,-33.691,-29.785,-14.160,0.000,0
160960.299,-19.531,-32.227,-29.297,-11.230,0.000,0
160960.303,-19.043,-31.738,-16.113,-30.762,0.000,0
160960.306,-21.973,-31.738,-32.715,-33.203,0.000,0
160960.310,-18.555,-29.785,-32.715,-25.879,0.000,0
160960.314,-18.066,-29.785,-26.367,-25.391,0.000,0
160960.318,-25.391,-30.273,-25.391,-24.414,0.000,0
160960.322,-33.691,-27.344,-18.066,-29.785,0.000,0
160960.326,-37.109,-24.902,-25.879,-39.062,0.000,0
160960.330,-32.227,-25.391,-31.738,-40.527,0.000,0
160960.334,-28.809,-29.297,-29.785,-24.902,0.000,0
160960.338,-27.832,-29.297,-21.484,-25.391,0.000,0
160960.342,-27.344,-31.250,-12.207,-37.598,0.000,0
160960.346,-33.203,-41.016,-41.992,-40.527,0.000,0
160960.349,-32.715,-38.086,-44.434,-35.645,0.000,0
160960.353,-29.297,-36.133,-24.902,-25.879,0.000,0
160960.357,-35.156,-37.598,-32.715,-17.090,0.000,0
160960.361,-33.203,-39.062,-30.762,-34.180,0.000,0
160960.365,-22.949,-31.250,-22.949,-38.086,0.000,0
160960.369,-21.484,-23.438,-28.320,-19.531,0.000,0
160960.373,-19.531,-26.367,-41.016,-6.348,0.000,0
160960.377,-21.973,-27.344,-28.320,-12.695,0.000,0
160960.381,-30.762,-28.809,-8.789,-25.879,0.000,0
160960.385,-30.273,-29.785,-30.762,-31.250,0.000,0
160960.388,-22.949,-31.250,-44.922,-24.902,0.000,0
160960.392,-19.043,-30.762,-37.109,-13.184,0.000,0
160960.396,-22.461,-34.668,-6.348,-9.766,0.000,0
160960.400,-26.367,-36.621,-11.719,-31.250,0.000,0
160960.404,-27.832,-32.715,-45.898,-32.715,0.000,0
160960.408,-29.785,-33.203,-30.273,-6.836,0.000,0
160960.412,-33.203,-34.180,-23.438,-11.719,0.000,0
160960.416,-31.738,-36.133,-21.484,-42.480,0.000,0
160960.420,-28.809,-35.645,-24.902,-46.387,0.000,0
160960.424,-26.367,-31.738,-29.297,-31.250,0.000,0
160960.428,-29.297,-31.250,-22.949,-22.461,0.000,0
160960.431,-27.344,-30.762,-42.480,-20.020,0.000,0
160960.435,-24.414,-28.809,-35.156,-33.203,0.000,0
160960.439,-34.668,-24.902,-9.277,-28.320,0.000,0
160960.443,-33.203,-20.020,-29.785,-10.254,0.000,0
160960.447,-21.484,-20.020,-41.016,-15.625,0.000,0
160960.451,-25.391,-22.949,-29.297,-9.277,0.000,0
160960.455,-26.855,-27.832,-6.348,-11.719,0.000,0
160960.459,-25.391,-26.855,-9.277,-30.273,0.000,0
160960.463,-20.996,-24.902,-25.391,-30.762,0.000,0
160960.467,-21.973,-29.785,-23.926,-19.531,0.000,0
160960.471,-25.391,-29.297,-25.879,-13.672,0.000,0
160960.474,-23.926,-26.855,-24.902,-17.578,0.000,0
160960.478,-33.691,-28.809,-30.273,-21.973,0.000,0
160960.482,-36.621,-27.832,-32.715,-25.879,0.000,0
160960.486,-30.762,-32.715,-30.762,-20.996,0.000,0
160960.490,-22.949,-36.621,-43.457,-16.113,0.000,0
160960.494,-14.648,-29.785,-27.832,-19.043,0.000,0
160960.498,-23.926,-31.250,-21.484,-35.156,0.000,0
160960.502,-29.297,-34.180,-26.855,-53.711,0.000,0
160960.506,-28.320,-31.738,-37.109,-45.898,0.000,0
160960.510,-32.715,-32.227,-56.152,-26.855,0.000,0
160960.513,-27.344,-33.203,-32.227,-15.625,0.000,0
160960.517,-26.367,-36.133,-22.949,-27.832,0.000,0
160960.521,-37.598,-36.621,-39.551,-36.133,0.000,0
160960.525,-37.598,-32.715,-32.715,-25.391,0.000,0
160960.529,-36.133,-31.738,-25.391,-23.438,0.000,0
160960.533,-37.598,-38.574,-40.039,-36.621,0.000,0
160960.537,-31.738,-38.086,-40.039,-41.016,0.000,0
160960.541,-29.785,-28.809,-28.809,-34.668,0.000,0
160960.545,-24.414,-22.461,-26.367,-21.973,0.000,0
160960.549,-20.996,-23.438,-33.691,-18.555,0.000,0
160960.553,-28.809,-32.715,-40.039,-26.367,0.000,0
160960.556,-30.762,-34.668,-26.855,-41.992,0.000,0
160960.560,-21.973,-29.297,-28.320,-41.992,0.000,0
160960.564,-20.508,-28.809,-40.039,-34.180,0.000,0
160960.568,-17.578,-26.855,-38.086,-21.973,0.000,0
160960.572,-23.926,-23.438,-27.344,-19.531,0.000,0
160960.576,-35.645,-23.926,-12.695,-34.668,0.000,0
160960.580,-20.508,-23.438,-27.344,-31.250,0.000,0
160960.584,-19.531,-26.855,-35.156,-29.297,0.000,0
160960.588,-25.879,-25.879,-27.344,-31.738,0.000,0
160960.592,-17.090,-22.949,-22.949,-31.250,0.000,0
160960.596,-19.531,-27.344,-20.996,-31.250,0.000,0
160960.599,-32.715,-29.297,-34.180,-23.438,0.000,0
160960.603,-39.062,-25.879,-23.438,-32.715,0.000,0
160960.607,-34.668,-27.832,-29.785,-35.156,0.000,0
160960.611,-31.738,-31.738,-51.270,-30.762,0.000,0
160960.615,-36.133,-28.320,-20.020,-37.109,0.000,0
160960.619,-35.156,-25.879,-20.508,-18.555,0.000,0
160960.623,-29.297,-25.391,-43.457,-17.578,0.000,0
160960.627,-32.715,-28.809,-44.922,-20.020,0.000,0
160960.631,-22.461,-28.809,-25.879,-31.250,0.000,0
160960.635,-20.996,-23.438,-17.090,-46.387,0.000,0
160960.638,-24.902,-28.809,-26.855,-36.621,0.000,0
160960.642,-20.020,-33.691,-28.809,-21.484,0.000,0
160960.646,-24.414,-28.320,-24.414,-14.648,0.000,0
160960.650,-22.461,-28.320,-26.367,-17.578,0.000,0
160960.654,-13.672,-26.367,-19.043,-11.719,0.000,0
160960.658,-16.113,-26.367,-20.020,-15.625,0.000,0
160960.662,-16.602,-29.785,-22.461,-22.461,0.000,0
160960.666,-20.996,-28.320,-35.156,-9.277,0.000,0
160960.670,-29.297,-26.855,-31.738,-15.137,0.000,0
160960.674,-29.297,-26.367,-12.207,-29.297,0.000,0
160960.678,-25.879,-25.391,-9.766,-31.738,0.000,0
160960.681,-22.949,-24.414,-20.020,-23.438,0.000,0
160960.685,-23.438,-24.902,-28.320,-8.789,0.000,0
160960.689,-25.879,-23.926,-22.949,-27.832,0.000,0
160960.693,-33.203,-24.902,-21.484,-45.898,0.000,0
160960.697,-27.344,-20.996,-35.645,-28.320,0.000,0
160960.701,-13.672,-15.625,-32.715,-24.414,0.000,0
160960.705,-13.672,-22.949,-15.137,-23.438,0.000,0
160960.709,-17.090,-24.902,-12.695,-14.648,0.000,0
160960.713,-22.949,-20.020,-25.391,-23.926,0.000,0
160960.717,-22.461,-18.066,-36.133,-13.672,0.000,0
160960.721,-20.020,-19.043,-15.137,5.859,0.000,0
160960.724,-25.391,-19.043,-17.578,-0.977,0.000,0
160960.728,-20.020,-18.066,-16.113,-15.625,0.000,0
160960.732,1.465,-20.996,-12.207,0.000,0.000,0
160960.736,12.207,-18.555,-18.555,12.695,0.000,0
160960.740,-28.320,-13.672,-7.324,-26.855,0.000,0
160960.744,-39.062,-16.602,-24.414,-32.715,0.000,0
160960.748,-17.578,-19.531,-15.137,-24.902,0.000,0
160960.752,-31.738,-21.973,-2.441,-37.109,0.000,0
160960.756,-41.016,-23.926,-15.137,-25.391,0.000,0
160960.760,-32.715,-27.832,-26.855,-20.020,0.000,0
160960.763,-35.156,-32.227,-27.344,-18.555,0.000,0
160960.767,-36.133,-31.738,-2.930,-26.367,0.000,0
160960.771,-32.227,-34.668,-19.043,-37.598,0.000,0
160960.775,-29.785,-28.809,-31.738,-22.461,0.000,0
160960.779,-21.484,-26.855,-22.461,-7.324,0.000,0
160960.783,-20.508,-30.762,-36.133,-3.906,0.000,0
160960.787,-23.438,-28.809,-25.879,-10.254,0.000,0
160960.791,-24.414,-27.344,-14.160,-20.996,0.000,0
160960.795,-16.602,-25.391,-34.668,-18.555,0.000,0
160960.799,-9.766,-23.926,-32.227,-19.531,0.000,0
160960.803,-16.113,-28.320,-27.832,-13.184,0.000,0
160960.806,-11.230,-27.344,-25.391,-2.930,0.000,0
160960.810,-11.230,-23.926,-9.277,-17.578,0.000,0
160960.814,-11.230,-33.203,-18.066,-26.855,0.000,0
160960.818,-7.324,-32.715,-31.738,-13.184,0.000,0
160960.822,-12.695,-29.297,-28.809,-10.254,0.000,0
160960.826,-18.066,-29.297,-14.648,-23.926,0.000,0
160960.830,-17.090,-23.926,-15.625,-18.066,0.000,0
160960.834,-6.836,-17.578,-25.391,0.488,0.000,0
160960.838,-2.441,-19.531,-16.113,-6.836,0.000,0
160960.842,-3.418,-20.508,-12.695,-23.926,0.000,0
160960.846,-5.371,-19.531,-17.578,-23.438,0.000,0
160960.849,-12.207,-22.949,-19.531,-28.809,0.000,0
160960.853,-15.137,-24.414,-18.555,-31.250,0.000,0
160960.857,-12.695,-20.996,-22.949,-18.066,0.000,0
160960.861,-9.766,-23.926,-41.016,-14.160,0.000,0
160960.865,-5.371,-29.297,-34.668,-13.184,0.000,0
160960.869,-12.207,-30.762,-18.066,-18.066,0.000,0
160960.873,-13.184,-34.180,-26.367,-4.883,0.000,0
160960.877,-13.672,-36.133,-36.621,-5.859,0.000,0
160960.881,-28.320,-36.621,-38.574,-30.273,0.000,0
160960.885,-33.203,-41.992,-32.715,-33.691,0.000,0
160960.888,-38.574,-42.480,-30.762,-39.062,0.000,0
160960.892,-36.621,-39.062,-34.180,-33.203,0.000,0
160960.896,-33.203,-33.203,-33.203,-27.832,0.000,0
160960.900,-43.945,-31.738,-35.645,-32.227,0.000,0
160960.904,-44.922,-37.109,-40.527,-30.273,0.000,0
160960.908,-40.527,-35.156,-33.691,-47.363,0.000,0
160960.912,-48.828,-34.180,-41.992,-46.875,0.000,0
160960.916,-39.062,-31.250,-42.480,-41.016,0.000,0
160960.920,-26.367,-32.227,-46.387,-25.391,0.000,0
160960.924,-30.273,-36.133,-53.223,-10.742,0.000,0
160960.928,-33.203,-28.320,-26.855,-32.715,0.000,0
160960.931,-38.086,-24.902,-24.902,-40.527,0.000,0
160960.935,-38.574,-27.344,-39.551,-34.180,0.000,0
160960.939,-31.738,-25.391,-31.738,-31.738,0.000,0
160960.943,-40.039,-24.902,-19.531,-28.320,0.000,0
160960.947,-45.898,-25.879,-20.996,-37.109,0.000,0
160960.951,-35.645,-24.902,-35.645,-41.016,0.000,0
160960.955,-31.250,-26.855,-32.715,-34.668,0.000,0
160960.959,-34.180,-28.809,-31.250,-22.461,0.000,0
160960.963,-35.156,-30.273,-40.039,-15.137,0.000,0
160960.967,-33.691,-30.762,-29.297,-25.391,0.000,0
160960.971,-31.250,-28.320,-31.738,-23.926,0.000,0
160960.974,-24.902,-27.344,-47.363,-11.230,0.000,0
160960.978,-12.207,-24.902,-43.457,-16.113,0.000,0
160960.982,-7.324,-19.531,-38.086,-19.043,0.000,0
160960.986,-15.137,-20.996,-20.508,-20.996,0.000,0
160960.990,-23.926,-21.484,-8.789,-19.531,0.000,0
160960.994,-29.297,-23.926,-26.367,-8.789,0.000,0
160960.998,-29.297,-29.785,-41.992,-6.348,0.000,0
160961.002,-28.809,-28.809,-33.691,-7.324,0.000,0
160961.006,-25.391,-26.367,-4.395,-10.254,0.000,0
160961.010,-23.926,-23.926,-7.324,-20.996,0.000,0
160961.013,-33.203,-23.438,-40.039,-21.973,0.000,0
160961.017,-29.297,-19.531,-36.133,-17.090,0.000,0
160961.021,-23.438,-17.578,-13.672,-9.766,0.000,0
160961.025,-25.879,-19.531,-9.277,-15.137,0.000,0
160961.029,-24.902,-22.949,-14.648,-23.926,0.000,0
160961.033,-28.809,-25.391,-23.926,-23.926,0.000,0
160961.037,-28.809,-22.461,-23.926,-7.812,0.000,0
160961.041,-18.066,-18.555,-33.203,-10.742,0.000,0
160961.045,-11.719,-23.926,-36.621,-36.621,0.000,0
160961.049,-12.207,-19.043,-13.672,-17.090,0.000,0
160961.053,-17.090,-15.625,-3.906,-1.465,0.000,0
160961.056,-17.090,-23.438,-20.020,-20.508,0.000,0
160961.060,-15.625,-27.832,-25.391,-26.855,0.000,0
160961.064,-22.461,-30.273,-16.113,-35.645,0.000,0
160961.068,-27.832,-30.762,-13.672,-37.109,0.000,0
160961.072,-32.227,-30.762,-29.297,-27.344,0.000,0
160961.076,-30.762,-31.250,-34.180,-25.879,0.000,0
160961.080,-21.973,-30.273,-24.902,-17.578,0.000,0
160961.084,-21.484,-29.297,-15.137,-21.973,0.000,0
160961.088,-26.367,-29.297,-18.555,-36.133,0.000,0
160961.092,-28.809,-26.367,-17.578,-30.273,0.000,0
160961.096,-37.598,-26.855,-8.789,-24.902,0.000,0
160961.099,-38.086,-32.715,-31.738,-22.949,0.000,0
160961.103,-33.203,-30.273,-30.273,-35.645,0.000,0
160961.107,-39.551,-27.832,-14.648,-41.504,0.000,0
160961.111,-41.504,-29.297,-22.949,-30.762,0.000,0
160961.115,-36.133,-24.414,-37.109,-17.090,0.000,0
160961.119,-35.156,-25.391,-50.781,-17.578,0.000,0
160961.123,-31.250,-24.902,-18.066,-26.855,0.000,0
160961.127,-27.832,-19.531,-1.465,-40.039,0.000,0
160961.131,-27.344,-18.555,-20.020,-35.645,0.000,0
160961.135,-13.672,-21.484,-31.738,-19.043,0.000,0
160961.138,-12.695,-20.508,-27.344,-15.137,0.000,0
160961.142,-24.902,-20.020,-5.371,-34.180,0.000,0
160961.146,-23.438,-19.043,-15.137,-33.691,0.000,0
160961.150,-20.020,-18.555,-34.668,-8.301,0.000,0
160961.154,-18.555,-21.484,-34.668,-23.926,0.000,0
160961.158,-12.695,-20.996,-28.809,-33.203,0.000,0
160961.162,-15.137,-24.902,-26.367,-32.227,0.000,0
160961.166,-37.598,-28.809,-23.926,-51.270,0.000,0
160961.170,-32.715,-23.926,-28.809,-47.852,0.000,0
160961.174,-29.297,-25.879,-35.156,-26.855,0.000,0
160961.178,-42.969,-25.391,-42.480,-26.855,0.000,0
160961.181,-29.297,-24.902,-37.598,-33.691,0.000,0
160961.185,-29.785,-30.762,-17.578,-31.738,0.000,0
160961.189,-32.227,-27.344,-26.367,-22.461,0.000,0
160961.193,-20.508,-24.414,-38.086,-27.832,0.000,0
160961.197,-19.531,-24.414,-29.785,-20.508,0.000,0
160961.201,-28.809,-29.297,-27.832,-28.809,0.000,0
160961.205,-30.273,-28.320,-21.484,-56.641,0.000,0
160961.209,-19.531,-25.879,-38.086,-45.410,0.000,0
160961.213,-18.066,-31.250,-36.621,-36.621,0.000,0
160961.217,-20.020,-31.250,-24.414,-27.832,0.000,0
160961.221,-28.320,-27.832,-36.621,-17.090,0.000,0
160961.224,-39.551,-24.902,-27.344,-23.926,0.000,0
160961.228,-41.504,-23.926,-24.414,-38.086,0.000,0
160961.232,-36.621,-25.879,-22.461,-48.828,0.000,0
160961.236,-23.926,-26.855,-37.598,-33.691,0.000,0
160961.240,-26.367,-27.344,-42.480,-19.531,0.000,0
160961.244,-40.527,-29.297,-28.809,-31.250,0.000,0
160961.248,-43.945,-26.367,-32.227,-36.133,0.000,0
160961.252,-37.598,-27.344,-42.969,-24.414,0.000,0
160961.256,-35.645,-30.762,-40.039,-27.832,0.000,0
160961.260,-44.434,-35.156,-30.273,-37.598,0.000,0
160961.263,-48.828,-37.598,-29.297,-42.480,0.000,0
160961.267,-43.945,-34.668,-35.156,-36.133,0.000,0
160961.271,-40.039,-31.250,-34.668,-34.668,0.000,0
160961.275,-41.016,-28.809,-30.762,-32.715,0.000,0
160961.279,-38.086,-26.855,-41.016,-25.391,0.000,0
160961.283,-33.691,-32.227,-43.457,-26.855,0.000,0
160961.287,-29.297,-35.156,-33.203,-27.832,0.000,0
160961.291,-34.668,-36.133,-39.062,-30.273,0.000,0
160961.295,-34.668,-41.504,-46.387,-24.414,0.000,0
160961.299,-19.043,-33.203,-28.809,-15.625,0.000,0
160961.303,-33.203,-27.832,-15.137,-35.156,0.000,0
160961.306,-46.875,-27.344,-17.578,-49.805,0.000,0
160961.310,-29.297,-20.020,-20.020,-45.410,0.000,0
160961.314,-24.414,-23.926,-34.180,-32.715,0.000,0
160961.318,-27.344,-26.367,-23.926,-29.785,0.000,0
160961.322,-19.043,-23.926,-8.789,-38.086,0.000,0
160961.326,-20.020,-26.367,-35.156,-20.508,0.000,0
160961.330,-22.461,-28.320,-40.039,-17.578,0.000,0
160961.334,-18.066,-27.832,-19.531,-36.133,0.000,0
160961.338,-9.277,-24.414,-12.207,-44.922,0.000,0
160961.342,-14.648,-18.555,-10.742,-42.969,0.000,0
160961.346,-21.973,-20.020,-18.555,-36.133,0.000,0
160961.349,-26.855,-26.367,-22.461,-39.551,0.000,0
160961.353,-36.621,-27.344,-21.973,-30.273,0.000,0
160961.357,-41.992,-24.902,-15.625,-28.809,0.000,0
160961.361,-39.551,-28.809,-17.090,-41.504,0.000,0
160961.365,-36.133,-31.250,-30.762,-37.109,0.000,0
160961.369,-31.738,-33.691,-40.039,-35.156,0.000,0
160961.373,-22.461,-32.715,-41.016,-29.785,0.000,0
160961.377,-27.344,-34.668,-25.391,-29.297,0.000,0
160961.381,-36.621,-33.691,-9.766,-42.480,0.000,0
160961.385,-32.227,-34.668,-40.039,-45.410,0.000,0
160961.388,-25.391,-37.598,-50.781,-36.621,0.000,0
160961.392,-23.438,-32.715,-31.250,-28.320,0.000,0
160961.396,-27.344,-27.832,-22.461,-32.715,0.000,0
160961.400,-29.785,-29.785,-21.484,-43.945,0.000,0
160961.404,-21.973,-29.297,-25.391,-37.109,0.000,0
160961.408,-31.738,-28.320,-17.578,-42.480,0.000,0
160961.412,-44.434,-24.414,-20.508,-38.086,0.000,0
160961.416,-25.879,-21.973,-32.715,-17.578,0.000,0
160961.420,-20.508,-24.414,-9.766,-28.809,0.000,0
160961.424,-35.645,-22.949,-4.395,-19.043,0.000,0
160961.428,-25.879,-20.996,-29.297,1.465,0.000,0
160961.431,-16.602,-17.578,-28.809,0.000,0.000,0
160961.435,-20.508,-20.996,-18.555,-10.254,0.000,0
160961.439,-23.926,-23.438,-6.348,-18.066,0.000,0
160961.443,-33.691,-24.902,-23.438,-23.438,0.000,0
160961.447,-30.762,-28.320,-36.621,-20.020,0.000,0
160961.451,-27.832,-24.902,-28.809,-11.230,0.000,0
160961.455,-30.273,-25.879,-24.902,-16.113,0.000,0
160961.459,-26.367,-27.832,-17.090,-19.043,0.000,0
160961.463,-22.461,-28.320,-27.832,-12.695,0.000,0
160961.467,-20.996,-25.879,-33.691,-8.789,0.000,0
160961.471,-23.438,-24.414,-18.066,-12.695,0.000,0
160961.474,-9.766,-22.949,-29.297,-4.395,0.000,0
160961.478,1.953,-18.555,-21.973,-19.531,0.000,0
160961.482,-16.602,-15.137,-17.090,-34.668,0.000,0
160961.486,-26.367,-18.555,-23.926,-28.320,0.000,0
160961.490,-23.438,-24.902,-34.180,-17.578,0.000,0
160961.494,-28.809,-28.809,-38.086,-11.230,0.000,0
160961.498,-29.297,-27.832,-12.695,-20.020,0.000,0
160961.502,-23.926,-23.438,-20.508,-6.836,0.000,0
160961.506,-21.973,-22.949,-41.016,-8.301,0.000,0
160961.510,-25.879,-25.879,-40.527,-26.367,0.000,0
160961.513,-23.926,-24.414,-23.438,-20.508,0.000,0
160961.517,-24.902,-23.926,-17.578,-31.250,0.000,0
160961.521,-22.949,-27.832,-29.785,-32.227,0.000,0
160961.525,-22.949,-27.832,-27.344,-21.484,0.000,0
160961.529,-23.438,-25.879,-36.621,-28.809,0.000,0
160961.533,-18.555,-21.973,-39.062,-22.949,0.000,0
160961.537,-19.043,-19.043,-21.484,-23.438,0.000,0
160961.541,-23.926,-24.414,-27.832,-27.832,0.000,0
160961.545,-28.320,-22.461,-34.668,-22.949,0.000,0
160961.549,-33.203,-22.461,-28.320,-29.785,0.000,0
160961.553,-21.973,-27.344,-24.902,-23.926,0.000,0
160961.556,-17.090,-24.414,-8.301,-29.785,0.000,0
160961.560,-23.926,-18.555,-2.441,-32.715,0.000,0
160961.564,-20.996,-23.438,-23.926,-29.297,0.000,0
160961.568,-20.996,-24.902,-25.391,-28.809,0.000,0
160961.572,-23.438,-23.926,-20.508,-25.391,0.000,0
160961.576,-16.602,-25.391,-23.926,-26.855,0.000,0
160961.580,-4.883,-23.438,-22.949,-27.344,0.000,0
160961.584,-14.160,-25.391,-20.020,-28.809,0.000,0
160961.588,-25.391,-26.855,-16.602,-31.250,0.000,0
160961.592,-25.879,-27.832,-29.785,-14.160,0.000,0
160961.596,-20.020,-21.973,-27.344,-19.531,0.000,0
160961.599,-10.742,-17.090,-16.113,-31.738,0.000,0
160961.603,-23.438,-21.484,-16.113,-15.137,0.000,0
160961.607,-23.438,-20.508,-29.297,-9.277,0.000,0
160961.611,-9.277,-18.555,-50.781,-10.254,0.000,0
160961.615,-17.090,-29.297,-36.621,-12.207,0.000,0
160961.619,-22.949,-29.785,-18.555,-14.160,0.000,0
160961.623,-18.555,-25.879,-35.645,-8.301,0.000,0
160961.627,-24.902,-25.391,-38.574,-11.719,0.000,0
160961.631,-28.809,-23.926,-48.340,-8.301,0.000,0
160961.635,-24.902,-22.949,-34.668,1.465,0.000,0
160961.638,-24.414,-18.066,-20.508,0.000,0.000,0
160961.642,-27.832,-18.555,-36.621,-7.324,0.000,0
160961.646,-37.598,-19.531,-33.691,-22.949,0.000,0
160961.650,-33.691,-18.555,-20.996,-21.484,0.000,0
160961.654,-25.879,-20.020,-24.902,-23.926,0.000,0
160961.658,-29.785,-20.020,-28.809,-37.598,0.000,0
160961.662,-23.926,-21.973,-28.809,-37.598,0.000,0
160961.666,-22.461,-24.414,-28.809,-33.203,0.000,0
160961.670,-28.809,-22.949,-37.598,-23.926,0.000,0
160961.674,-27.832,-23.438,-32.227,-18.555,0.000,0
160961.678,-33.691,-23.438,-21.484,-21.973,0.000,0
160961.681,-31.250,-22.949,-37.598,-17.090,0.000,0
160961.685,-17.578,-26.855,-51.758,-23.926,0.000,0
160961.689,-20.996,-25.879,-38.086,-25.391,0.000,0
160961.693,-26.367,-22.461,-14.160,-17.578,0.000,0
160961.697,-16.602,-21.973,-24.414,-26.855,0.000,0
160961.701,-14.648,-16.602,-39.551,-43.457,0.000,0
160961.705,-21.484,-19.043,-29.297,-30.273,0.000,0
160961.709,-25.391,-18.555,-10.254,-10.254,0.000,0
160961.713,-22.949,-13.672,-10.254,-21.484,0.000,0
160961.717,-10.742,-13.672,-1.953,-25.879,0.000,0
160961.721,-10.742,-15.137,-11.719,-19.043,0.000,0
160961.724,-15.137,-18.555,-17.578,-20.996,0.000,0
160961.728,-12.207,-14.648,-13.672,-22.949,0.000,0
160961.732,-11.719,-16.113,-34.668,-34.180,0.000,0
160961.736,-15.625,-23.438,-25.391,-41.504,0.000,0
160961.740,-24.902,-23.926,-17.090,-36.621,0.000,0
160961.744,-27.344,-32.227,-29.785,-26.367,0.000,0
160961.748,-23.926,-37.109,-44.922,-15.625,0.000,0
160961.752,-25.879,-36.133,-27.344,-35.645,0.000,0
160961.756,-27.344,-34.668,8.301,-52.246,0.000,0
160961.760,-27.344,-37.109,-22.949,-48.340,0.000,0
160961.763,-25.879,-39.062,-36.621,-38.574,0.000,0
160961.767,-22.461,-35.645,-24.902,-27.832,0.000,0
160961.771,-27.832,-34.668,-34.668,-22.461,0.000,0
160961.775,-20.996,-36.621,-27.344,-30.762,0.000,0
160961.779,-12.207,-31.738,-29.297,-37.109,0.000,0
160961.783,-15.137,-28.320,-29.297,-21.973,0.000,0
160961.787,-6.348,-23.926,-22.949,-11.719,0.000,0
160961.791,5.859,-24.902,-29.297,-12.207,0.000,0
160961.795,-20.020,-33.691,-29.785,-15.137,0.000,0
160961.799,-47.852,-29.297,-24.902,-27.832,0.000,0
160961.803,-36.621,-27.832,-32.227,-35.645,0.000,0
160961.806,-25.879,-34.180,-42.480,-34.668,0.000,0
160961.810,-35.156,-31.738,-38.574,-32.715,0.000,0
160961.814,-45.898,-23.438,-17.578,-48.340,0.000,0
160961.818,-40.039,-23.926,-23.926,-42.480,0.000,0
160961.822,-38.086,-30.273,-51.270,-26.855,0.000,0
160961.826,-42.480,-29.297,-33.691,-32.715,0.000,0
160961.830,-39.062,-23.438,-12.207,-33.691,0.000,0
160961.834,-25.391,-19.043,-17.578,-25.391,0.000,0
160961.838,-19.043,-19.531,-21.484,-20.508,0.000,0
160961.842,-21.973,-21.484,-25.879,-24.902,0.000,0
160961.846,-26.367,-22.461,-18.555,-34.668,0.000,0
160961.849,-19.531,-24.414,-28.320,-35.645,0.000,0
160961.853,-15.137,-22.949,-11.719,-36.621,0.000,0
160961.857,-19.531,-17.090,-8.789,-28.809,0.000,0
160961.861,-20.508,-25.879,-37.109,-25.879,0.000,0
160961.865,-20.508,-33.203,-34.668,-30.762,0.000,0
160961.869,-21.973,-29.297,-21.973,-29.785,0.000,0
160961.873,-21.484,-30.762,-0.977,-31.738,0.000,0
160961.877,-21.973,-35.156,-12.695,-33.203,0.000,0
160961.881,-17.578,-30.273,-25.879,-24.902,0.000,0
160961.885,-17.090,-23.438,-27.832,-21.484,0.000,0
160961.888,-30.273,-23.926,-18.555,-31.250,0.000,0
160961.892,-30.762,-26.367,-19.531,-28.809,0.000,0
160961.896,-29.297,-27.832,-39.551,-19.531,0.000,0
160961.900,-35.645,-27.832,-31.250,-14.648,0.000,0
160961.904,-33.203,-26.367,-21.484,-18.555,0.000,0
160961.908,-21.484,-23.438,-29.297,-24.902,0.000,0
160961.912,-21.973,-23.438,-23.438,-18.555,0.000,0
160961.916,-21.484,-24.902,-8.301,-19.043,0.000,0
160961.920,-21.484,-21.973,-18.066,-17.578,0.000,0
160961.924,-22.461,-20.508,-42.480,-12.695,0.000,0
160961.928,-26.855,-25.391,-32.715,-29.297,0.000,0
160961.931,-28.809,-28.320,-11.719,-31.250,0.000,0
160961.935,-27.832,-25.879,-19.531,-16.113,0.000,0
160961.939,-26.855,-27.344,-36.133,-26.855,0.000,0
160961.943,-25.879,-30.762,-34.668,-31.250,0.000,0
160961.947,-29.297,-24.902,-33.203,-16.602,0.000,0
160961.951,-29.785,-23.926,-29.785,-19.043,0.000,0
160961.955,-27.832,-26.855,-31.738,-28.320,0.000,0
160961.959,-24.902,-22.949,-35.156,-11.230,0.000,0
160961.963,-19.531,-20.020,-27.344,-4.883,0.000,0
160961.967,-12.695,-17.578,-20.508,-15.137,0.000,0
160961.971,-17.090,-18.555,-16.602,-17.090,0.000,0
160961.974,-26.855,-25.879,-15.137,-22.461,0.000,0
160961.978,-23.926,-20.508,-14.160,-31.250,0.000,0
160961.982,-21.973,-17.090,-20.020,-26.855,0.000,0
160961.986,-20.508,-20.996,-37.109,-27.832,0.000,0
160961.990,-20.996,-26.367,-31.738,-34.668,0.000,0
160961.994,-20.508,-27.344,-26.855,-37.109,0.000,0
160961.998,-15.625,-21.484,-41.504,-30.273,0.000,0
160962.002,-4.395,-15.137,-31.738,-24.414,0.000,0
160962.006,-5.371,-20.996,-26.855,-24.414,0.000,0
160962.010,-14.648,-24.414,-17.578,-22.461,0.000,0
160962.013,-14.160,-23.438,-12.695,-19.043,0.000,0
160962.017,-15.625,-23.438,-22.461,-14.648,0.000,0
160962.021,-24.414,-24.902,-18.555,-4.883,0.000,0
160962.025,-23.926,-26.367,-19.531,1.953,0.000,0
160962.029,-14.160,-26.855,-24.902,-24.902,0.000,0
160962.033,-17.090,-23.438,-20.996,-33.203,0.000,0
160962.037,-24.414,-25.879,-15.137,-14.160,0.000,0
160962.041,-16.602,-24.414,-22.949,-20.996,0.000,0
160962.045,-17.578,-20.020,-41.016,-25.391,0.000,0
160962.049,-29.297,-24.902,-31.250,-27.344,0.000,0
160962.053,-19.531,-18.555,-0.488,-29.297,0.000,0
160962.056,-19.043,-12.207,-7.812,-23.438,0.000,0
160962.060,-18.555,-20.020,-26.855,-27.344,0.000,0
160962.064,-15.625,-23.438,-23.926,-22.949,0.000,0
160962.068,-25.391,-22.461,-15.137,-25.391,0.000,0
160962.072,-28.809,-22.949,-12.207,-52.246,0.000,0
160962.076,-23.438,-22.461,-30.762,-49.805,0.000,0
160962.080,-25.391,-22.461,-32.227,-45.410,0.000,0
160962.084,-26.367,-26.367,-8.301,-40.527,0.000,0
160962.088,-22.461,-28.809,-19.531,-32.715,0.000,0
160962.092,-26.367,-28.320,-18.066,-43.945,0.000,0
160962.096,-32.715,-22.949,-13.672,-40.527,0.000,0
160962.099,-26.855,-24.414,-24.414,-25.391,0.000,0
160962.103,-24.902,-26.367,-23.438,-19.531,0.000,0
160962.107,-23.438,-27.832,-18.066,-20.508,0.000,0
160962.111,-20.996,-28.320,-9.277,-32.715,0.000,0
160962.115,-26.855,-20.020,-12.695,-31.250,0.000,0
160962.119,-26.367,-20.996,-21.484,-35.645,0.000,0
160962.123,-22.949,-25.391,-33.203,-33.203,0.000,0
160962.127,-22.949,-20.508,-19.531,-21.973,0.000,0
160962.131,-21.973,-19.043,9.766,-34.180,0.000,0
160962.135,-25.391,-23.926,-17.578,-29.785,0.000,0
160962.138,-22.949,-23.438,-23.926,-19.043,0.000,0
160962.142,-18.066,-19.043,-19.531,-10.742,0.000,0
160962.146,-21.484,-20.508,-35.645,-7.324,0.000,0
160962.150,-25.879,-28.809,-23.926,-19.531,0.000,0
160962.154,-36.133,-33.203,-27.832,-35.156,0.000,0
160962.158,-36.621,-30.273,-32.715,-31.250,0.000,0
160962.162,-33.203,-25.391,-35.645,-6.348,0.000,0
160962.166,-27.344,-25.879,-42.480,-13.184,0.000,0
160962.170,-21.484,-25.879,-24.414,-45.410,0.000,0
160962.174,-30.762,-23.438,-12.695,-39.551,0.000,0
160962.178,-23.438,-22.461,-31.738,-21.484,0.000,0
160962.181,-11.230,-20.508,-35.156,-27.832,0.000,0
160962.185,-17.090,-19.531,-27.344,-29.297,0.000,0
160962.189,-20.020,-22.461,-19.043,-35.645,0.000,0
160962.193,-20.508,-24.902,-26.367,-44.922,0.000,0
160962.197,-34.180,-30.273,-30.273,-39.062,0.000,0
160962.201,-33.691,-29.297,-21.973,-17.578,0.000,0
160962.205,-33.203,-23.926,-19.043,-16.602,0.000,0
160962.209,-35.645,-25.879,-24.414,-31.738,0.000,0
160962.213,-27.344,-24.414,-32.715,-21.973,0.000,0
160962.217,-28.320,-24.414,-17.578,-10.742,0.000,0
160962.221,-26.367,-25.391,-16.113,-0.488,0.000,0
160962.224,-19.043,-23.926,-26.855,-7.324,0.000,0
160962.228,-21.484,-23.926,-18.066,-29.297,0.000,0
160962.232,-22.461,-21.484,-16.113,-30.273,0.000,0
160962.236,-17.578,-20.020,-18.555,-25.879,0.000,0
160962.240,-13.672,-14.648,-20.996,-25.391,0.000,0
160962.244,-22.949,-14.648,-26.855,-23.438,0.000,0
160962.248,-16.602,-21.484,-24.902,-39.062,0.000,0
160962.252,-12.207,-21.484,-25.879,-43.945,0.000,0
160962.256,-27.344,-21.484,-26.367,-41.504,0.000,0
160962.260,-31.738,-19.531,-29.785,-36.133,0.000,0
160962.263,-32.227,-20.020,-30.273,-25.391,0.000,0
160962.267,-29.785,-25.391,-26.367,-32.227,0.000,0
160962.271,-23.438,-25.879,-32.715,-22.949,0.000,0
160962.275,-17.578,-26.367,-44.922,-3.906,0.000,0
160962.279,-20.508,-24.902,-37.109,-6.348,0.000,0
160962.283,-30.762,-22.461,-28.809,-14.160,0.000,0
160962.287,-40.039,-25.879,-27.344,-30.273,0.000,0
160962.291,-35.156,-28.809,-30.762,-30.762,0.000,0
160962.295,-19.531,-22.461,-26.367,-20.508,0.000,0
160962.299,-30.273,-20.996,-27.344,-22.461,0.000,0
160962.303,-33.203,-19.531,-24.414,-19.531,0.000,0
160962.306,-26.855,-20.508,-7.324,-26.855,0.000,0
160962.310,-29.785,-19.043,-19.531,-27.832,0.000,0
160962.314,-20.996,-21.973,-39.551,-25.391,0.000,0
160962.318,-21.484,-29.785,-30.273,-33.691,0.000,0
160962.322,-29.785,-25.879,-28.320,-30.762,0.000,0
160962.326,-28.320,-25.879,-28.809,-28.320,0.000,0
160962.330,-28.320,-28.320,-33.203,-37.598,0.000,0
160962.334,-31.738,-27.832,-36.621,-25.391,0.000,0
160962.338,-27.832,-23.438,-28.320,-14.648,0.000,0
160962.342,-23.926,-20.996,-28.320,-26.855,0.000,0
160962.346,-23.926,-21.973,-23.438,-26.855,0.000,0
160962.349,-20.020,-20.996,-21.973,-23.926,0.000,0
160962.353,-28.320,-25.391,-27.344,-28.320,0.000,0
160962.357,-21.973,-26.855,-36.133,-23.438,0.000,0
160962.361,-16.602,-27.344,-31.250,-25.879,0.000,0
160962.365,-29.785,-24.902,-11.719,-46.387,0.000,0
160962.369,-31.250,-23.926,-19.043,-51.758,0.000,0
160962.373,-31.250,-28.809,-32.715,-49.316,0.000,0
160962.377,-28.320,-29.785,-35.645,-39.551,0.000,0
160962.381,-21.484,-26.367,-29.785,-26.855,0.000,0
160962.385,-20.020,-22.461,-9.277,-37.109,0.000,0
160962.388,-23.438,-22.949,-18.066,-32.227,0.000,0
160962.392,-31.250,-24.414,-37.598,-24.414,0.000,0
160962.396,-38.574,-22.461,-24.902,-38.086,0.000,0
160962.400,-37.109,-23.926,-24.414,-38.574,0.000,0
160962.404,-33.691,-20.508,-25.879,-40.527,0.000,0
160962.408,-32.227,-15.137,-19.043,-41.504,0.000,0
160962.412,-16.113,-20.020,-27.344,-41.992,0.000,0
160962.416,-18.555,-23.438,-25.879,-31.738,0.000,0
160962.420,-32.227,-23.438,-27.344,-25.879,0.000,0
160962.424,-20.508,-23.926,-10.742,-38.086,0.000,0
160962.428,-18.555,-18.555,-5.859,-47.363,0.000,0
160962.431,-24.902,-23.438,-27.832,-38.086,0.000,0
160962.435,-22.461,-26.367,-21.973,-27.832,0.000,0
160962.439,-24.414,-22.949,-20.508,-22.949,0.000,0
160962.443,-35.156,-26.367,-26.367,-25.879,0.000,0
160962.447,-28.809,-24.414,-24.414,-25.879,0.000,0
160962.451,-31.738,-20.020,-29.785,-10.254,0.000,0
160962.455,-41.504,-24.902,-23.438,-16.113,0.000,0
160962.459,-19.043,-23.926,-28.320,-9.277,0.000,0
160962.463,-5.859,-20.020,-33.691,-14.648,0.000,0
160962.467,-29.785,-15.137,-19.531,-46.387,0.000,0
160962.471,-31.250,-10.742,-24.414,-37.598,0.000,0
160962.474,-7.812,-15.137,-28.320,-17.578,0.000,0
160962.478,-0.488,-13.672,-34.668,-2.441,0.000,0
160962.482,-25.391,-10.742,-24.902,-23.926,0.000,0
160962.486,-34.668,-12.207,-7.812,-45.898,0.000,0
160962.490,-36.621,-11.719,-20.508,-34.668,0.000,0
160962.494,-42.969,-8.301,-36.621,-32.227,0.000,0
160962.498,-27.344,-10.254,-36.621,-29.785,0.000,0
160962.502,-15.137,-5.859,-3.906,-24.902,0.000,0
160962.506,-16.113,-3.906,7.812,-28.320,0.000,0
160962.510,-17.090,-14.160,-29.297,-27.832,0.000,0
160962.513,-20.996,-16.113,-37.598,-25.879,0.000,0
160962.517,-21.484,-16.602,-19.043,-12.207,0.000,0
160962.521,-14.160,-17.578,-8.789,-7.324,0.000,0
160962.525,-17.578,-16.113,-7.812,-22.949,0.000,0
160962.529,-22.949,-16.113,-14.648,-18.066,0.000,0
160962.533,-21.484,-19.043,-8.301,-11.719,0.000,0
160962.537,-21.484,-24.414,-16.113,-16.602,0.000,0
160962.541,-16.602,-25.879,-32.227,-21.484,0.000,0
160962.545,-22.461,-21.973,-13.184,-31.738,0.000,0
160962.549,-26.367,-25.391,1.953,-22.949,0.000,0
160962.553,-13.184,-22.461,-16.602,-12.207,0.000,0
160962.556,-13.184,-13.184,-12.695,-7.812,0.000,0
160962.560,-23.438,-14.648,-12.695,-11.230,0.000,0
160962.564,-20.508,-18.066,-19.531,-21.484,0.000,0
160962.568,-26.855,-23.926,-28.809,-12.695,0.000,0
160962.572,-20.996,-25.391,-37.598,-6.836,0.000,0
160962.576,-13.672,-24.414,-27.344,-11.719,0.000,0
160962.580,-32.227,-28.809,-24.902,-21.973,0.000,0
160962.584,-28.320,-23.926,-15.625,-26.367,0.000,0
160962.588,-19.531,-20.020,-20.996,-27.832,0.000,0
160962.592,-34.668,-21.973,-29.785,-22.461,0.000,0
160962.596,-35.645,-21.973,-34.668,-14.648,0.000,0
160962.599,-30.273,-25.391,-35.645,-12.207,0.000,0
160962.603,-24.414,-27.344,-23.438,-22.949,0.000,0
160962.607,-21.484,-25.391,-30.273,-17.090,0.000,0
160962.611,-22.949,-24.902,-38.086,-13.184,0.000,0
160962.615,-24.902,-31.738,-41.504,-28.809,0.000,0
160962.619,-25.391,-38.574,-36.621,-20.020,0.000,0
160962.623,-20.996,-34.668,-22.949,-21.484,0.000,0
160962.627,-21.973,-30.273,-36.133,-25.879,0.000,0
160962.631,-22.949,-28.320,-48.828,-23.926,0.000,0
160962.635,-16.113,-24.414,-36.133,-21.973,0.000,0
160962.638,-17.090,-27.344,-29.297,-15.137,0.000,0
160962.642,-26.367,-31.250,-40.039,-22.461,0.000,0
160962.646,-24.414,-26.855,-38.574,-26.855,0.000,0
160962.650,-21.973,-24.414,-25.879,-17.090,0.000,0
160962.654,-26.855,-27.344,-32.227,-17.090,0.000,0
160962.658,-25.391,-32.715,-35.645,-29.785,0.000,0
160962.662,-17.090,-26.367,-20.996,-23.926,0.000,0
160962.666,-19.531,-21.973,-30.762,-7.324,0.000,0
160962.670,-27.832,-30.273,-42.480,-25.879,0.000,0
160962.674,-23.438,-27.832,-35.156,-28.320,0.000,0
160962.678,-31.250,-27.344,-8.789,-30.762,0.000,0
160962.681,-38.574,-35.645,-23.438,-34.180,0.000,0
160962.685,-36.621,-37.109,-53.223,-27.344,0.000,0
160962.689,-36.621,-32.715,-42.969,-23.926,0.000,0
160962.693,-31.738,-31.738,-28.809,-20.508,0.000,0
160962.697,-29.297,-28.320,-14.648,-31.738,0.000,0
160962.701,-26.855,-27.344,-21.484,-30.762,0.000,0
160962.705,-25.391,-28.809,-32.227,-28.809,0.000,0
160962.709,-29.785,-25.391,-26.855,-28.320,0.000,0
160962.713,-18.555,-22.461,-25.879,-12.207,0.000,0
160962.717,-2.930,-23.926,-15.625,-17.090,0.000,0
160962.721,-9.766,-24.902,-18.555,-35.156,0.000,0
160962.724,-24.414,-23.438,-29.297,-29.785,0.000,0
160962.728,-28.320,-28.320,-37.598,-26.855,0.000,0
160962.732,-21.973,-28.320,-45.410,-34.180,0.000,0
160962.736,-24.902,-26.367,-10.742,-32.715,0.000,0
160962.740,-28.809,-23.438,1.953,-35.156,0.000,0
160962.744,-19.043,-25.391,-26.855,-23.926,0.000,0
160962.748,-14.160,-28.809,-22.461,-21.973,0.000,0
160962.752,-19.531,-25.391,-30.762,-14.648,0.000,0
160962.756,-30.273,-26.855,-26.855,-23.438,0.000,0
160962.760,-29.785,-28.809,-13.184,-48.828,0.000,0
160962.763,-20.996,-29.297,-39.062,-31.250,0.000,0
160962.767,-23.926,-29.297,-27.832,-14.160,0.000,0
160962.771,-26.367,-27.344,-19.043,-12.695,0.000,0
160962.775,-20.020,-27.832,-26.855,-32.715,0.000,0
160962.779,-23.438,-21.484,-21.973,-29.785,0.000,0
160962.783,-32.715,-19.531,-14.160,-19.043,0.000,0
160962.787,-31.738,-24.902,-19.531,-26.855,0.000,0
160962.791,-32.715,-29.785,-45.410,-28.320,0.000,0
160962.795,-30.273,-27.344,-29.297,-40.039,0.000,0
160962.799,-29.297,-23.926,-13.184,-42.969,0.000,0
160962.803,-31.250,-24.902,-42.969,-26.367,0.000,0
160962.806,-23.926,-23.438,-55.176,-14.160,0.000,0
160962.810,-23.438,-24.414,-36.133,-17.578,0.000,0
160962.814,-28.320,-27.832,-21.484,-30.273,0.000,0
160962.818,-25.879,-27.344,-21.484,-38.574,0.000,0
160962.822,-33.203,-30.273,-33.691,-45.410,0.000,0
160962.826,-41.504,-27.832,-32.715,-38.086,0.000,0
160962.830,-40.039,-27.832,-30.273,-16.602,0.000,0
160962.834,-34.668,-30.762,-31.250,-26.367,0.000,0
160962.838,-28.809,-25.879,-23.926,-40.527,0.000,0
160962.842,-22.949,-23.438,-33.691,-19.043,0.000,0
160962.846,-27.832,-22.949,-33.203,-14.160,0.000,0
160962.849,-35.645,-23.926,-33.691,-23.438,0.000,0
160962.853,-31.250,-23.438,-28.320,-25.391,0.000,0
160962.857,-18.555,-20.996,-20.020,-15.137,0.000,0
160962.861,-26.855,-25.879,-21.484,-37.109,0.000,0
160962.865,-42.480,-24.414,-31.250,-48.828,0.000,0
160962.869,-36.621,-21.973,-42.969,-22.461,0.000,0
160962.873,-30.273,-25.879,-33.203,-25.391,0.000,0
160962.877,-30.273,-21.973,-28.320,-28.809,0.000,0
160962.881,-20.508,-12.695,-41.504,-9.766,0.000,0
160962.885,-9.766,-0.488,-27.832,-3.418,0.000,0
160962.888,-17.090,-0.488,-29.785,-13.672,0.000,0
160962.892,-18.555,-1.465,-39.062,-16.602,0.000,0
160962.896,19.043,17.090,-20.996,17.090,0.000,0
160962.900,15.625,9.766,-29.785,12.695,0.000,0
160962.904,-38.086,2.930,-41.992,-40.039,0.000,0
160962.908,-37.598,15.137,-43.457,-35.645,0.000,0
160962.912,-16.602,25.879,-38.574,-8.301,0.000,0
160962.916,-23.438,25.879,-32.227,-23.438,0.000,0
160962.920,-30.762,24.414,-36.621,-33.691,0.000,0
160962.924,-21.973,29.297,-58.594,-26.367,0.000,0
160962.928,-17.578,27.832,-63.477,-20.996,0.000,0
160962.931,-17.578,37.109,-37.109,-11.719,0.000,0
160962.935,-20.020,44.434,-20.020,-26.855,0.000,0
160962.939,-20.996,45.410,-34.668,-18.555,0.000,0
160962.943,-16.113,46.875,-38.086,-10.254,0.000,0
160962.947,-19.043,47.852,-30.762,-27.832,0.000,0
160962.951,-16.602,50.293,-27.344,-24.414,0.000,0
160962.955,-15.625,46.387,-24.414,-35.645,0.000,0
160962.959,-20.996,44.434,-35.645,-28.320,0.000,0
160962.963,-19.531,44.922,-14.648,-23.438,0.000,0
160962.967,-23.926,38.086,-12.207,-26.855,0.000,0
160962.971,-32.227,29.785,-44.434,-16.602,0.000,0
160962.974,-39.551,16.602,-28.320,-40.527,0.000,0
160962.978,-36.133,12.695,-22.461,-46.387,0.000,0
160962.982,-23.438,15.625,-39.551,-31.738,0.000,0
160962.986,-24.902,9.766,-41.016,-41.016,0.000,0
160962.990,-38.086,1.465,-26.367,-41.504,0.000,0
160962.994,-36.133,-2.930,-2.930,-44.434,0.000,0
160962.998,-41.016,-8.301,-14.648,-61.035,0.000,0
160963.002,-41.992,-11.230,-17.578,-60.059,0.000,0
160963.006,-43.945,-14.648,-12.207,-43.457,0.000,0
160963.010,-42.480,-17.578,-19.531,-22.461,0.000,0
160963.013,-26.855,-18.066,-17.578,-31.738,0.000,0
160963.017,-23.926,-23.926,-19.531,-35.156,0.000,0
160963.021,-34.668,-27.832,-25.879,-43.457,0.000,0
160963.025,-42.969,-30.762,-22.461,-55.664,0.000,0
160963.029,-36.621,-37.598,-23.926,-50.781,0.000,0
160963.033,-32.715,-36.621,-9.766,-54.199,0.000,0
160963.037,-34.668,-31.250,-13.672,-52.734,0.000,0
160963.041,-30.762,-34.668,-32.227,-40.039,0.000,0
160963.045,-29.785,-35.156,-27.344,-28.320,0.000,0
160963.049,-32.227,-35.645,-23.926,-28.320,0.000,0
160963.053,-30.273,-36.133,-5.859,-30.273,0.000,0
160963.056,-25.879,-39.062,-14.648,-29.297,0.000,0
160963.060,-26.367,-43.457,-41.016,-25.879,0.000,0
160963.064,-26.367,-42.969,-15.625,-15.625,0.000,0
160963.068,-23.438,-39.551,6.836,-12.695,0.000,0
160963.072,-25.391,-42.969,-12.207,-19.043,0.000,0
160963.076,-22.949,-40.039,-13.184,-30.273,0.000,0
160963.080,-21.973,-34.180,-4.883,-31.250,0.000,0
160963.084,-26.367,-41.016,-15.625,-17.578,0.000,0
160963.088,-26.367,-43.457,-35.156,-17.090,0.000,0
160963.092,-22.949,-41.016,-13.672,-44.434,0.000,0
160963.096,-23.926,-41.504,4.395,-47.852,0.000,0
160963.099,-25.391,-42.480,-7.324,-36.621,0.000,0
160963.103,-26.367,-41.016,-17.090,-40.527,0.000,0
160963.107,-25.391,-42.480,-36.621,-25.879,0.000,0
160963.111,-22.461,-40.527,-8.789,-22.949,0.000,0
160963.115,-23.926,-39.062,8.789,-45.898,0.000,0
160963.119,-19.043,-39.551,-31.250,-41.504,0.000,0
160963.123,-19.531,-39.062,-37.109,-30.762,0.000,0
160963.127,-24.414,-44.922,-31.250,-28.809,0.000,0
160963.131,-19.043,-45.898,-18.555,-37.598,0.000,0
160963.135,-17.578,-44.434,-15.625,-41.992,0.000,0
160963.138,-22.949,-46.875,-37.598,-34.180,0.000,0
160963.142,-27.344,-45.410,-32.715,-31.738,0.000,0
160963.146,-25.879,-40.527,-29.297,-12.207,0.000,0
160963.150,-29.297,-45.410,-35.645,-25.391,0.000,0
160963.154,-35.156,-48.828,-31.738,-42.969,0.000,0
160963.158,-37.598,-44.434,-30.762,-17.578,0.000,0
160963.162,-31.738,-47.852,-39.062,-20.508,0.000,0
160963.166,-21.484,-51.270,-42.480,-31.250,0.000,0
160963.170,-17.090,-46.875,-19.043,-25.879,0.000,0
160963.174,-20.996,-40.527,-17.578,-26.367,0.000,0
160963.178,-28.809,-40.527,-31.738,-30.762,0.000,0
160963.181,-30.273,-46.387,-34.180,-29.297,0.000,0
160963.185,-27.832,-47.852,-33.691,-22.949,0.000,0
160963.189,-30.273,-39.062,-24.414,-20.508,0.000,0
160963.193,-38.574,-35.645,-14.648,-31.738,0.000,0
160963.197,-35.156,-33.203,-23.926,-24.902,0.000,0
160963.201,-30.762,-29.297,-25.391,-6.348,0.000,0
160963.205,-24.902,-30.273,-17.090,-1.953,0.000,0
160963.209,-12.695,-33.203,-23.438,-22.461,0.000,0
160963.213,-16.602,-37.109,-19.531,-36.621,0.000,0
160963.217,-19.043,-38.086,-26.367,-24.414,0.000,0
160963.221,-14.160,-35.645,-28.320,-14.160,0.000,0
160963.224,-11.230,-35.156,-23.438,-17.578,0.000,0
160963.228,-15.625,-37.109,-17.578,-35.156,0.000,0
160963.232,-15.625,-39.551,-26.855,-40.039,0.000,0
160963.236,-13.184,-41.504,-34.180,-29.785,0.000,0
160963.240,-32.715,-37.598,-28.320,-25.391,0.000,0
160963.244,-33.691,-34.180,-21.973,-27.832,0.000,0
160963.248,-26.367,-39.551,-14.648,-29.785,0.000,0
160963.252,-29.785,-40.527,-29.785,-43.457,0.000,0
160963.256,-27.832,-35.645,-32.715,-40.527,0.000,0
160963.260,-28.809,-33.691,-25.879,-30.273,0.000,0
160963.263,-27.344,-31.738,-27.832,-21.484,0.000,0
160963.267,-30.273,-34.668,-25.391,-34.668,0.000,0
160963.271,-33.203,-41.504,-25.391,-48.340,0.000,0
160963.275,-34.668,-38.086,-35.156,-45.898,0.000,0
160963.279,-40.039,-37.598,-46.387,-44.434,0.000,0
160963.283,-38.086,-39.062,-43.945,-32.227,0.000,0
160963.287,-41.504,-39.062,-25.879,-43.945,0.000,0
160963.291,-46.387,-39.062,-29.297,-48.340,0.000,0
160963.295,-39.062,-39.551,-47.852,-31.250,0.000,0
160963.299,-33.203,-41.016,-54.688,-26.855,0.000,0
160963.303,-27.344,-36.133,-38.086,-22.949,0.000,0
160963.306,-30.762,-31.738,-21.973,-31.738,0.000,0
160963.310,-32.227,-37.109,-29.785,-42.480,0.000,0
160963.314,-26.367,-43.457,-33.203,-38.574,0.000,0
160963.318,-25.879,-40.527,-36.133,-36.133,0.000,0
160963.322,-31.250,-39.551,-40.039,-28.320,0.000,0
160963.326,-43.457,-40.527,-28.809,-24.902,0.000,0
160963.330,-38.086,-36.133,-25.391,-29.297,0.000,0
160963.334,-35.645,-32.715,-35.645,-27.344,0.000,0
160963.338,-40.039,-40.039,-47.363,-29.785,0.000,0
160963.342,-32.715,-44.434,-46.875,-32.227,0.000,0
160963.346,-27.344,-40.527,-26.855,-30.273,0.000,0
160963.349,-27.344,-40.527,-15.625,-24.902,0.000,0
160963.353,-23.926,-40.527,-26.367,-25.879,0.000,0
160963.357,-17.090,-35.645,-39.062,-35.645,0.000,0
160963.361,-21.484,-35.645,-36.133,-27.832,0.000,0
160963.365,-27.832,-36.621,-21.484,-29.785,0.000,0
160963.369,-18.555,-31.738,-26.855,-35.645,0.000,0
160963.373,-9.766,-32.227,-48.340,-19.043,0.000,0
160963.377,-18.555,-32.715,-39.062,-16.602,0.000,0
160963.381,-33.203,-32.715,-18.555,-31.250,0.000,0
160963.385,-33.691,-36.133,-24.902,-48.828,0.000,0
160963.388,-24.902,-39.062,-25.391,-53.223,0.000,0
160963.392,-24.414,-38.086,-13.184,-35.156,0.000,0
160963.396,-25.391,-28.809,-17.090,-22.461,0.000,0
160963.400,-22.949,-28.320,-41.992,-33.691,0.000,0
160963.404,-17.578,-30.273,-27.832,-45.410,0.000,0
160963.408,-19.043,-31.250,-18.066,-38.574,0.000,0
160963.412,-25.879,-34.180,-39.551,-24.414,0.000,0
160963.416,-29.297,-32.715,-41.016,-36.133,0.000,0
160963.420,-35.156,-30.762,-43.457,-45.410,0.000,0
160963.424,-35.645,-31.250,-25.391,-43.945,0.000,0
160963.428,-35.645,-28.320,-17.578,-36.133,0.000,0
160963.431,-39.551,-24.902,-43.457,-31.250,0.000,0
160963.435,-35.156,-32.227,-55.176,-32.227,0.000,0
160963.439,-40.039,-36.133,-40.527,-20.996,0.000,0
160963.443,-46.387,-36.133,-19.531,-33.691,0.000,0
160963.447,-35.645,-38.574,-25.391,-57.617,0.000,0
160963.451,-35.156,-40.527,-48.828,-51.758,0.000,0
160963.455,-37.598,-40.527,-39.551,-49.316,0.000,0
160963.459,-39.551,-39.062,-45.410,-36.133,0.000,0
160963.463,-45.410,-36.133,-42.480,-37.109,0.000,0
160963.467,-45.410,-37.598,-27.832,-50.293,0.000,0
160963.471,-35.645,-38.574,-36.621,-25.879,0.000,0
160963.474,-28.809,-36.621,-44.434,-16.602,0.000,0
160963.478,-26.367,-31.738,-45.898,-20.996,0.000,0
160963.482,-21.973,-28.320,-23.926,-16.113,0.000,0
160963.486,-21.484,-28.809,-15.625,-20.020,0.000,0
160963.490,-14.648,-24.414,-34.180,-28.320,0.000,0
160963.494,-22.461,-26.367,-33.691,-24.414,0.000,0
160963.498,-33.203,-29.785,-35.156,-7.324,0.000,0
160963.502,-24.414,-27.344,-30.762,-16.602,0.000,0
160963.506,-22.461,-31.250,-26.367,-27.832,0.000,0
160963.510,-25.879,-30.273,-37.109,-10.254,0.000,0
160963.513,-30.762,-26.367,-43.945,-16.602,0.000,0
160963.517,-28.809,-26.855,-42.480,-34.668,0.000,0
160963.521,-28.809,-24.902,-34.668,-38.086,0.000,0
160963.525,-29.297,-20.996,-26.367,-35.156,0.000,0
160963.529,-25.391,-17.578,-20.996,-21.973,0.000,0
160963.533,-27.344,-23.926,-42.480,-25.391,0.000,0
160963.537,-18.555,-28.320,-44.434,-21.484,0.000,0
160963.541,-14.160,-26.855,-20.508,-16.602,0.000,0
160963.545,-19.531,-20.020,-28.320,-13.672,0.000,0
160963.549,-19.531,-19.531,-40.527,-3.418,0.000,0
160963.553,-20.996,-22.949,-31.250,-9.766,0.000,0
160963.556,-22.949,-20.996,-23.438,-17.090,0.000,0
160963.560,-24.902,-18.555,-18.066,-16.602,0.000,0
160963.564,-30.762,-18.066,-20.020,-17.578,0.000,0
160963.568,-33.203,-22.461,-33.203,-19.531,0.000,0
160963.572,-32.227,-24.414,-17.578,-17.090,0.000,0
160963.576,-28.320,-19.531,-20.996,-9.766,0.000,0
160963.580,-25.391,-20.020,-30.762,-20.020,0.000,0
160963.584,-25.879,-15.625,-23.926,-15.625,0.000,0
160963.588,-28.320,-17.090,-24.414,-6.348,0.000,0
160963.592,-33.203,-25.879,-30.762,-34.180,0.000,0
160963.596,-33.203,-27.832,-34.668,-37.598,0.000,0
160963.599,-16.602,-17.578,-20.996,-23.926,0.000,0
160963.603,-11.230,-15.137,-16.602,-26.855,0.000,0
160963.607,-20.020,-26.855,-29.785,-16.602,0.000,0
160963.611,-19.043,-24.902,-33.691,-5.859,0.000,0
160963.615,-19.531,-16.602,-28.809,-3.418,0.000,0
160963.619,-26.367,-19.531,-14.648,-1.465,0.000,0
160963.623,-28.320,-18.066,-8.301,-15.137,0.000,0
160963.627,-25.391,-12.207,-24.902,-27.832,0.000,0
160963.631,-15.137,-16.113,-29.785,-12.695,0.000,0
160963.635,-10.254,-19.043,-23.438,1.465,0.000,0
160963.638,-28.809,-22.949,-24.902,-29.785,0.000,0
160963.642,-45.410,-25.879,-20.996,-61.035,0.000,0
160963.646,-35.645,-22.461,-17.090,-48.340,0.000,0
160963.650,-20.508,-26.855,-28.809,-28.320,0.000,0
160963.654,-13.672,-29.297,-29.785,-23.926,0.000,0
160963.658,-32.227,-27.344,-17.578,-40.527,0.000,0
160963.662,-32.227,-23.926,-3.418,-30.762,0.000,0
160963.666,-20.020,-19.531,-21.973,-11.719,0.000,0
160963.670,-22.461,-17.578,-41.016,-36.621,0.000,0
160963.674,-23.438,-21.973,-28.809,-38.086,0.000,0
160963.678,-23.926,-23.438,-10.254,-22.461,0.000,0
160963.681,-32.227,-20.996,-15.137,-34.668,0.000,0
160963.685,-36.133,-23.438,-37.109,-40.039,0.000,0
160963.689,-24.902,-22.461,-36.133,-31.738,0.000,0
160963.693,-13.184,-19.043,-14.160,-22.461,0.000,0
160963.697,-5.371,-21.484,-9.766,-20.996,0.000,0
160963.701,-8.789,-25.391,-10.742,-30.762,0.000,0
160963.705,-19.043,-26.367,-14.648,-39.062,0.000,0
160963.709,-20.508,-23.438,-17.090,-33.203,0.000,0
160963.713,-20.020,-18.066,-31.738,-16.113,0.000,0
160963.717,-19.531,-16.602,-27.344,-11.719,0.000,0
160963.721,-14.160,-17.090,-7.812,-30.273,0.000,0
160963.724,-16.602,-15.137,-13.672,-41.016,0.000,0
160963.728,-24.902,-20.996,-26.367,-31.738,0.000,0
160963.732,-30.273,-27.832,-28.320,-22.461,0.000,0
160963.736,-30.273,-23.926,-20.508,-27.832,0.000,0
160963.740,-34.668,-29.297,-8.301,-35.156,0.000,0
160963.744,-32.227,-30.273,-21.484,-29.785,0.000,0
160963.748,-22.949,-26.855,-38.574,-30.762,0.000,0
160963.752,-28.809,-28.809,-28.809,-26.855,0.000,0
160963.756,-27.832,-31.250,-19.043,-31.738,0.000,0
160963.760,-27.344,-34.180,-23.926,-51.758,0.000,0
160963.763,-24.414,-30.762,-35.645,-33.691,0.000,0
160963.767,-23.926,-20.996,-17.090,-10.254,0.000,0
160963.771,-18.066,-16.113,-17.578,-5.371,0.000,0
160963.775,-5.371,-16.602,-24.902,-15.625,0.000,0
160963.779,-2.441,-15.137,-10.254,-16.113,0.000,0
160963.783,-0.488,-10.254,-19.531,-6.836,0.000,0
160963.787,-0.977,-15.137,-33.691,-16.113,0.000,0
160963.791,-6.836,-25.391,-34.180,-14.648,0.000,0
160963.795,-16.113,-26.855,-29.785,-15.137,0.000,0
160963.799,-11.230,-26.855,-9.766,-30.273,0.000,0
160963.803,-10.742,-31.738,-21.484,-28.320,0.000,0
160963.806,-15.137,-33.203,-31.738,-24.902,0.000,0
160963.810,-13.672,-31.250,-19.531,-13.672,0.000,0
160963.814,-19.531,-30.762,-25.879,-8.301,0.000,0
160963.818,-22.949,-34.668,-28.809,-32.227,0.000,0
160963.822,-20.020,-33.691,-30.273,-28.320,0.000,0
160963.826,-20.996,-27.832,-30.273,-0.977,0.000,0
160963.830,-23.926,-27.344,-31.250,-13.672,0.000,0
160963.834,-25.879,-32.227,-38.574,-25.391,0.000,0
160963.838,-29.297,-34.668,-22.461,-24.414,0.000,0
160963.842,-27.344,-34.668,-19.043,-14.648,0.000,0
160963.846,-25.391,-31.738,-28.809,-10.742,0.000,0
160963.849,-20.996,-29.785,-27.344,-15.137,0.000,0
160963.853,-18.555,-33.691,-38.086,-11.230,0.000,0
160963.857,-28.809,-31.738,-20.508,-27.344,0.000,0
160963.861,-27.344,-31.250,-27.832,-31.250,0.000,0
160963.865,-23.438,-34.180,-62.500,-28.809,0.000,0
160963.869,-24.414,-35.156,-55.664,-40.527,0.000,0
160963.873,-26.367,-36.621,-33.691,-32.715,0.000,0
160963.877,-29.785,-38.086,-17.578,-26.367,0.000,0
160963.881,-32.715,-38.086,-35.156,-32.227,0.000,0
160963.885,-30.273,-37.598,-44.434,-30.762,0.000,0
160963.888,-23.926,-37.109,-37.109,-19.531,0.000,0
160963.892,-21.973,-36.621,-36.133,-19.043,0.000,0
160963.896,-22.461,-35.645,-33.691,-21.484,0.000,0
160963.900,-25.879,-36.133,-36.621,-18.555,0.000,0
160963.904,-25.391,-37.109,-36.621,-19.043,0.000,0
160963.908,-21.484,-32.227,-44.922,-26.367,0.000,0
160963.912,-22.949,-30.762,-35.156,-31.738,0.000,0
160963.916,-24.902,-28.809,-19.531,-36.133,0.000,0
160963.920,-30.273,-24.902,-28.809,-24.414,0.000,0
160963.924,-30.273,-26.855,-46.875,-12.695,0.000,0
160963.928,-33.203,-26.855,-46.875,-14.160,0.000,0
160963.931,-28.809,-29.785,-33.691,-17.578,0.000,0
160963.935,-21.973,-31.738,-28.809,-17.090,0.000,0
160963.939,-27.832,-26.855,-29.297,-24.414,0.000,0
160963.943,-29.297,-25.391,-28.809,-36.621,0.000,0
160963.947,-27.832,-23.926,-29.785,-27.832,0.000,0
160963.951,-20.996,-24.902,-42.969,-4.395,0.000,0
160963.955,-20.020,-26.367,-33.203,-17.578,0.000,0
160963.959,-23.438,-24.414,-20.508,-39.551,0.000,0
160963.963,-22.461,-20.020,-28.320,-25.879,0.000,0
160963.967,-25.879,-18.555,-32.227,-24.902,0.000,0
160963.971,-28.809,-19.043,-27.832,-29.297,0.000,0
160963.974,-27.344,-14.160,-13.184,-29.785,0.000,0
160963.978,-28.320,-13.184,-6.836,-26.367,0.000,0
160963.982,-33.203,-23.438,-33.203,-25.879,0.000,0
160963.986,-35.645,-24.902,-43.457,-25.879,0.000,0
160963.990,-38.086,-19.043,-24.902,-22.461,0.000,0
160963.994,-40.527,-22.461,-23.438,-25.879,0.000,0
160963.998,-36.133,-20.996,-35.645,-27.832,0.000,0
160964.002,-28.809,-14.160,-32.715,-12.207,0.000,0
160964.006,-24.414,-16.113,-15.137,-14.648,0.000,0
160964.010,-25.391,-17.090,-13.672,-19.043,0.000,0
160964.013,-22.461,-19.531,-11.230,-18.555,0.000,0
160964.017,-22.461,-22.949,-7.812,-17.578,0.000,0
160964.021,-22.949,-16.113,-11.719,-13.672,0.000,0
160964.025,-20.020,-12.695,-18.555,-10.742,0.000,0
160964.029,-11.230,-14.160,-25.391,-4.883,0.000,0
160964.033,-13.184,-12.695,-14.160,-11.230,0.000,0
160964.037,-22.461,-15.625,-16.113,-3.418,0.000,0
160964.041,-21.484,-10.254,-30.762,-2.441,0.000,0
160964.045,-20.020,-10.742,-41.504,-13.184,0.000,0
160964.049,-21.484,-20.508,-35.156,-11.230,0.000,0
160964.053,-26.367,-21.973,-9.766,-19.043,0.000,0
160964.056,-19.531,-24.902,-26.367,-25.391,0.000,0
160964.060,-15.137,-23.438,-34.668,-17.090,0.000,0
160964.064,-23.438,-18.066,-28.320,-6.348,0.000,0
160964.068,-26.855,-23.438,-40.039,-12.695,0.000,0
160964.072,-32.227,-29.785,-25.879,-25.391,0.000,0
160964.076,-33.691,-25.391,-19.531,-22.949,0.000,0
160964.080,-29.785,-28.320,-26.855,-23.438,0.000,0
160964.084,-34.180,-28.809,-23.926,-33.203,0.000,0
160964.088,-32.227,-24.414,-37.109,-21.484,0.000,0
160964.092,-32.715,-26.855,-31.250,-36.133,0.000,0
160964.096,-42.969,-27.832,-20.996,-47.852,0.000,0
160964.099,-40.527,-23.438,-40.039,-27.832,0.000,0
160964.103,-32.715,-26.367,-53.711,-15.137,0.000,0
160964.107,-34.180,-30.273,-38.086,-20.508,0.000,0
160964.111,-30.762,-23.926,-10.254,-32.715,0.000,0
160964.115,-24.902,-22.949,-16.602,-35.645,0.000,0
160964.119,-27.344,-25.879,-40.527,-26.855,0.000,0
160964.123,-39.062,-21.484,-28.320,-30.273,0.000,0
160964.127,-41.992,-24.414,-31.250,-31.250,0.000,0
160964.131,-32.227,-27.344,-40.039,-21.484,0.000,0
160964.135,-22.461,-23.926,-32.715,-34.668,0.000,0
160964.138,-23.438,-21.484,-29.297,-29.297,0.000,0
160964.142,-24.902,-23.926,-30.762,-13.184,0.000,0
160964.146,-23.926,-31.250,-45.410,-20.508,0.000,0
160964.150,-22.949,-27.344,-36.133,-28.320,0.000,0
160964.154,-17.090,-21.973,-17.090,-25.391,0.000,0
160964.158,-21.484,-26.367,-31.250,-20.020,0.000,0
160964.162,-25.879,-26.367,-36.621,-19.043,0.000,0
160964.166,-24.902,-29.297,-39.551,-11.719,0.000,0
160964.170,-3.418,-35.156,-28.320,-0.488,0.000,0
160964.174,9.766,-28.320,-12.695,-5.859,0.000,0
160964.178,-24.902,-22.949,-31.738,-20.020,0.000,0
160964.181,-39.551,-26.855,-42.969,-20.020,0.000,0
160964.185,-20.508,-21.973,-18.066,-1.953,0.000,0
160964.189,-8.789,-18.555,-11.230,-7.324,0.000,0
160964.193,-11.230,-21.484,-20.996,-22.461,0.000,0
160964.197,-20.020,-19.531,-24.414,-19.043,0.000,0
160964.201,-28.320,-17.090,-20.020,-23.926,0.000,0
160964.205,-25.391,-14.160,-24.902,-10.254,0.000,0
160964.209,-9.277,-15.137,-21.973,-4.395,0.000,0
160964.213,-8.301,-18.066,-4.883,-19.043,0.000,0
160964.217,-15.625,-24.414,-23.438,-14.160,0.000,0
160964.221,-10.742,-27.344,-30.273,-11.230,0.000,0
160964.224,-12.207,-24.902,-11.719,-17.578,0.000,0
160964.228,-14.648,-20.020,-6.348,-11.719,0.000,0
160964.232,-13.672,-19.531,-7.812,-16.602,0.000,0
160964.236,-10.254,-19.531,-23.926,-24.902,0.000,0
160964.240,-7.812,-21.973,-29.297,-8.789,0.000,0
160964.244,-9.766,-23.926,-20.020,2.930,0.000,0
160964.248,-14.648,-21.484,-19.043,-3.906,0.000,0
160964.252,-19.531,-24.902,-20.996,-14.648,0.000,0
160964.256,-23.926,-25.879,-2.930,-31.250,0.000,0
160964.260,-29.785,-21.973,-15.625,-20.020,0.000,0
160964.263,-30.273,-20.508,-35.156,-8.789,0.000,0
160964.267,-30.273,-21.973,-27.832,-22.949,0.000,0
160964.271,-34.180,-23.438,-14.648,-30.273,0.000,0
160964.275,-39.551,-25.879,-16.113,-18.066,0.000,0
160964.279,-40.039,-29.297,-49.805,-21.484,0.000,0
160964.283,-38.086,-28.809,-40.527,-29.785,0.000,0
160964.287,-42.480,-28.320,-13.672,-25.879,0.000,0
160964.291,-37.109,-27.344,-20.996,-19.531,0.000,0
160964.295,-28.320,-22.949,-25.391,-7.324,0.000,0
160964.299,-25.879,-20.508,-19.043,-22.461,0.000,0
160964.303,-25.879,-21.484,-18.066,-33.203,0.000,0
160964.306,-30.273,-25.879,-23.438,-36.621,0.000,0
160964.310,-28.320,-24.902,-21.484,-38.574,0.000,0
160964.314,-23.926,-21.484,-25.391,-29.785,0.000,0
160964.318,-28.809,-20.996,-23.926,-26.367,0.000,0
160964.322,-26.855,-20.996,-28.320,-28.809,0.000,0
160964.326,-28.809,-21.973,-31.250,-35.645,0.000,0
160964.330,-32.715,-19.043,-16.602,-44.434,0.000,0
160964.334,-31.250,-18.555,-10.742,-36.621,0.000,0
160964.338,-26.367,-20.508,-17.578,-25.391,0.000,0
160964.342,-31.738,-22.949,-30.762,-32.227,0.000,0
160964.346,-34.180,-22.949,-27.344,-28.320,0.000,0
160964.349,-32.227,-22.949,-20.996,-33.691,0.000,0
160964.353,-25.879,-25.879,-44.922,-40.039,0.000,0
160964.357,-28.809,-23.926,-43.457,-34.180,0.000,0
160964.361,-39.062,-20.996,-30.273,-39.062,0.000,0
160964.365,-37.109,-20.508,-19.531,-41.504,0.000,0
160964.369,-28.320,-21.484,-13.672,-46.387,0.000,0
160964.373,-17.090,-18.555,-25.879,-35.156,0.000,0
160964.377,-20.996,-18.066,-19.043,-16.113,0.000,0
160964.381,-32.715,-21.484,-14.160,-21.973,0.000,0
160964.385,-31.738,-23.438,-20.020,-40.039,0.000,0
160964.388,-28.809,-19.043,-9.277,-43.945,0.000,0
160964.392,-22.949,-18.555,-21.484,-29.297,0.000,0
160964.396,-17.578,-20.508,-28.809,-33.203,0.000,0
160964.400,-19.043,-18.555,-25.879,-27.344,0.000,0
160964.404,-19.043,-16.602,-9.766,-22.949,0.000,0
160964.408,-20.508,-13.184,-5.371,-38.086,0.000,0
160964.412,-22.949,-16.113,-20.508,-26.367,0.000,0
160964.416,-21.973,-15.625,-27.344,-20.508,0.000,0
160964.420,-19.043,-11.230,-15.137,-28.320,0.000,0
160964.424,-23.438,-10.254,7.324,-39.062,0.000,0
160964.428,-19.531,-13.184,-11.230,-37.109,0.000,0
160964.431,-13.672,-15.625,-23.438,-28.809,0.000,0
160964.435,-18.555,-14.648,-10.742,-29.297,0.000,0
160964.439,-16.113,-16.602,-17.578,-21.973,0.000,0
160964.443,-12.695,-18.555,-17.090,-30.273,0.000,0
160964.447,-15.625,-18.066,-10.742,-37.109,0.000,0
160964.451,-17.578,-18.555,-25.391,-24.902,0.000,0
160964.455,-20.996,-19.531,-28.809,-27.344,0.000,0
160964.459,-21.484,-15.625,-30.762,-30.762,0.000,0
160964.463,-15.137,-15.625,-27.344,-38.086,0.000,0
160964.467,-18.555,-16.602,-10.742,-40.039,0.000,0
160964.471,-22.949,-12.207,-20.508,-32.715,0.000,0
160964.474,-21.484,-16.602,-31.250,-35.156,0.000,0
160964.478,-21.484,-14.160,-29.297,-20.508,0.000,0
160964.482,-18.555,-14.160,-17.578,-21.484,0.000,0
160964.486,-24.902,-20.020,-8.301,-41.016,0.000,0
160964.490,-25.879,-21.484,-39.551,-27.344,0.000,0
160964.494,-21.973,-23.926,-42.969,-15.137,0.000,0
160964.498,-22.461,-19.043,-20.996,-24.902,0.000,0
160964.502,-17.090,-16.113,-12.207,-15.625,0.000,0
160964.506,-21.484,-21.973,-9.766,-24.902,0.000,0
160964.510,-20.996,-20.020,-13.672,-39.551,0.000,0
160964.513,-15.137,-21.484,-14.648,-23.438,0.000,0
160964.517,-16.602,-24.902,-31.738,-4.395,0.000,0
160964.521,-16.113,-19.531,-22.461,-16.113,0.000,0
160964.525,-20.508,-15.137,-7.324,-41.504,0.000,0
160964.529,-28.320,-16.602,-25.879,-32.715,0.000,0
160964.533,-24.902,-18.555,-28.809,-19.531,0.000,0
160964.537,-22.949,-24.414,-19.531,-20.020,0.000,0
160964.541,-24.902,-25.879,-13.672,-19.043,0.000,0
160964.545,-28.320,-25.879,-12.207,-28.809,0.000,0
160964.549,-32.227,-30.273,-19.043,-48.340,0.000,0
160964.553,-30.762,-28.320,-20.996,-32.227,0.000,0
160964.556,-17.578,-22.949,-14.160,0.000,0.000,0
160964.560,-7.324,-21.973,-26.855,-5.371,0.000,0
160964.564,-26.855,-24.414,-35.645,-31.250,0.000,0
160964.568,-32.715,-18.555,-19.531,-23.926,0.000,0
160964.572,-21.484,-12.695,-20.508,-11.230,0.000,0
160964.576,-28.809,-11.719,-24.414,-21.484,0.000,0
160964.580,-31.738,-14.160,-25.879,-22.461,0.000,0
160964.584,-28.809,-19.531,-15.137,-26.367,0.000,0
160964.588,-35.156,-21.973,-5.859,-29.297,0.000,0
160964.592,-35.645,-25.879,-29.785,-11.719,0.000,0
160964.596,-24.414,-25.879,-43.945,-5.371,0.000,0
160964.599,-20.996,-20.508,-15.137,-11.719,0.000,0
160964.603,-24.902,-24.414,-4.883,-25.391,0.000,0
160964.607,-20.996,-25.879,-25.879,-32.227,0.000,0
160964.611,-16.602,-23.926,-27.832,-16.602,0.000,0
160964.615,-20.020,-28.809,-22.461,-12.695,0.000,0
160964.619,-17.090,-28.809,-24.414,-23.926,0.000,0
160964.623,-17.578,-19.531,-19.043,-32.227,0.000,0
160964.627,-22.949,-20.996,-21.973,-22.461,0.000,0
160964.631,-23.438,-25.391,-33.203,-8.789,0.000,0
160964.635,-25.391,-26.367,-39.551,-18.066,0.000,0
160964.638,-18.066,-26.367,-35.645,-15.625,0.000,0
160964.642,-18.066,-18.066,-20.020,-19.531,0.000,0
160964.646,-29.297,-14.160,-22.461,-28.809,0.000,0
160964.650,-22.949,-21.973,-40.039,-18.555,0.000,0
160964.654,-18.555,-25.879,-47.852,-6.348,0.000,0
160964.658,-22.461,-23.438,-45.898,-20.996,0.000,0
160964.662,-19.531,-20.508,-25.391,-33.203,0.000,0
160964.666,-20.020,-20.020,-25.391,-27.344,0.000,0
160964.670,-24.902,-22.461,-33.691,-20.996,0.000,0
160964.674,-27.344,-22.461,-29.297,-19.043,0.000,0
160964.678,-28.809,-20.996,-30.273,-25.879,0.000,0
160964.681,-33.203,-22.461,-23.438,-41.504,0.000,0
160964.685,-36.133,-23.438,-25.391,-45.898,0.000,0
160964.689,-33.691,-23.926,-17.090,-47.363,0.000,0
160964.693,-31.738,-24.414,-18.555,-31.738,0.000,0
160964.697,-33.203,-20.508,-44.922,-25.879,0.000,0
160964.701,-28.809,-20.996,-35.645,-45.898,0.000,0
160964.705,-27.832,-16.602,-18.066,-34.668,0.000,0
160964.709,-29.785,-17.578,-21.484,-20.996,0.000,0
160964.713,-22.461,-21.484,-36.133,-31.250,0.000,0
160964.717,-28.809,-23.438,-36.133,-34.668,0.000,0
160964.721,-37.598,-26.855,-20.996,-45.410,0.000,0
160964.724,-35.156,-24.902,-21.973,-43.945,0.000,0
160964.728,-38.574,-29.785,-36.621,-36.621,0.000,0
160964.732,-34.180,-28.320,-29.785,-39.062,0.000,0
160964.736,-33.203,-28.320,-23.926,-29.785,0.000,0
160964.740,-41.016,-34.668,-19.043,-32.227,0.000,0
160964.744,-37.598,-35.645,-27.344,-37.109,0.000,0
160964.748,-36.133,-35.645,-35.645,-29.297,0.000,0
160964.752,-33.691,-30.762,-22.461,-33.203,0.000,0
160964.756,-28.320,-29.297,-33.203,-32.227,0.000,0
160964.760,-20.996,-27.344,-33.691,-37.598,0.000,0
160964.763,-26.855,-25.391,-23.926,-48.340,0.000,0
160964.767,-36.621,-29.785,-37.109,-44.434,0.000,0
160964.771,-27.344,-21.973,-39.062,-28.809,0.000,0
160964.775,-23.438,-19.043,-48.828,-22.461,0.000,0
160964.779,-25.879,-17.578,-22.949,-32.715,0.000,0
160964.783,-23.438,-18.066,0.977,-37.109,0.000,0
160964.787,-32.715,-25.879,-23.926,-26.855,0.000,0
160964.791,-36.133,-24.902,-24.902,-33.203,0.000,0
160964.795,-34.180,-17.578,-20.996,-35.645,0.000,0
160964.799,-36.133,-19.043,-16.113,-20.996,0.000,0
160964.803,-37.109,-22.461,-19.043,-32.715,0.000,0
160964.806,-32.227,-21.484,-45.898,-36.621,0.000,0
160964.810,-28.809,-24.414,-44.434,-33.691,0.000,0
160964.814,-28.809,-14.648,-28.320,-28.809,0.000,0
160964.818,-26.855,-14.648,-20.508,-19.043,0.000,0
160964.822,-25.879,-18.555,-16.602,-23.438,0.000,0
160964.826,-21.973,-12.207,-25.879,-31.738,0.000,0
160964.830,-20.020,-13.184,-22.949,-26.855,0.000,0
160964.834,-22.461,-17.090,-23.926,-17.090,0.000,0
160964.838,-22.461,-23.926,-27.832,-23.926,0.000,0
160964.842,-25.879,-23.926,-8.789,-29.297,0.000,0
160964.846,-24.902,-23.438,-21.973,-15.137,0.000,0
160964.849,-20.020,-26.855,-41.992,-18.555,0.000,0
160964.853,-24.902,-25.879,-26.855,-21.973,0.000,0
160964.857,-29.297,-26.855,-18.066,-15.137,0.000,0
160964.861,-28.320,-26.367,-19.531,-30.273,0.000,0
160964.865,-26.855,-24.902,-31.738,-33.203,0.000,0
160964.869,-27.832,-22.949,-25.879,-30.273,0.000,0
160964.873,-25.391,-22.461,-18.555,-26.855,0.000,0
160964.877,-17.090,-22.949,-24.414,-20.508,0.000,0
160964.881,-10.254,-19.043,-10.254,-26.855,0.000,0
160964.885,-8.789,-17.090,-7.324,-31.738,0.000,0
160964.888,-7.324,-18.066,-16.602,-25.879,0.000,0
160964.892,-4.395,-20.508,-17.578,-25.879,0.000,0
160964.896,-15.625,-24.902,-14.160,-17.578,0.000,0
160964.900,-26.855,-26.367,-18.555,-15.137,0.000,0
160964.904,-25.391,-24.414,-18.066,-27.832,0.000,0
160964.908,-29.297,-26.855,-32.715,-19.531,0.000,0
160964.912,-31.250,-26.367,-27.344,-25.879,0.000,0
160964.916,-34.668,-23.926,-14.160,-31.738,0.000,0
160964.920,-38.086,-24.902,-26.367,-28.320,0.000,0
160964.924,-33.691,-24.414,-38.086,-28.809,0.000,0
160964.928,-31.738,-23.438,-42.480,-27.344,0.000,0
160964.931,-33.691,-23.926,-30.762,-24.902,0.000,0
160964.935,-32.715,-26.855,-29.297,-21.484,0.000,0
160964.939,-31.738,-24.902,-31.250,-29.297,0.000,0
160964.943,-35.156,-28.320,-30.273,-37.598,0.000,0
160964.947,-37.109,-33.691,-38.574,-35.645,0.000,0
160964.951,-26.367,-30.273,-40.039,-30.273,0.000,0
160964.955,-19.043,-22.949,-32.227,-20.508,0.000,0
160964.959,-23.926,-28.809,-22.949,-15.625,0.000,0
160964.963,-31.250,-33.203,-31.738,-26.367,0.000,0
160964.967,-29.297,-27.832,-36.133,-31.738,0.000,0
160964.971,-23.438,-27.344,-26.855,-20.508,0.000,0
160964.974,-24.414,-23.926,-23.926,-6.348,0.000,0
160964.978,-24.414,-21.973,-12.207,-12.695,0.000,0
160964.982,-27.832,-29.785,-20.020,-21.973,0.000,0
160964.986,-28.809,-27.832,-37.109,-11.719,0.000,0
160964.990,-30.273,-25.391,-33.691,-7.324,0.000,0
160964.994,-34.668,-31.738,-20.996,-16.602,0.000,0
160964.998,-37.598,-26.855,-21.973,-29.297,0.000,0
160965.002,-33.691,-28.809,-36.133,-38.086,0.000,0
160965.006,-26.367,-30.273,-29.785,-27.832,0.000,0
160965.010,-31.738,-28.809,-38.086,-16.602,0.000,0
160965.013,-36.133,-32.715,-40.039,-16.602,0.000,0
160965.017,-25.391,-31.250,-18.555,-16.602,0.000,0
160965.021,-21.484,-27.344,-22.949,-9.277,0.000,0
160965.025,-30.273,-31.738,-44.922,-22.949,0.000,0
160965.029,-30.273,-37.109,-53.711,-30.762,0.000,0
160965.033,-29.297,-31.738,-21.973,-24.414,0.000,0
160965.037,-32.227,-34.668,-5.859,-29.785,0.000,0
160965.041,-26.367,-35.156,-42.969,-33.691,0.000,0
160965.045,-22.949,-28.320,-47.363,-27.344,0.000,0
160965.049,-22.461,-27.344,-30.273,-10.742,0.000,0
160965.053,-24.414,-28.809,-23.926,-28.809,0.000,0
160965.056,-23.926,-34.668,-26.855,-42.969,0.000,0
160965.060,-18.555,-30.273,-45.410,-16.602,0.000,0
160965.064,-13.184,-31.738,-39.062,-2.441,0.000,0
160965.068,-19.531,-30.762,-31.738,-11.230,0.000,0
160965.072,-41.992,-23.438,-46.875,-39.062,0.000,0
160965.076,-55.664,-30.273,-50.781,-62.988,0.000,0
160965.080,-43.945,-31.738,-34.180,-39.551,0.000,0
160965.084,-27.344,-25.879,-34.668,-12.207,0.000,0
160965.088,-31.738,-23.926,-45.410,-22.461,0.000,0
160965.092,-41.992,-31.250,-42.969,-46.875,0.000,0
160965.096,-45.898,-37.109,-31.250,-53.223,0.000,0
160965.099,-41.016,-36.621,-41.016,-38.574,0.000,0
160965.103,-37.109,-34.180,-54.688,-28.809,0.000,0
160965.107,-33.203,-29.297,-56.641,-23.926,0.000,0
160965.111,-24.414,-25.391,-46.875,-22.949,0.000,0
160965.115,-20.508,-28.320,-32.227,-31.250,0.000,0
160965.119,-21.484,-33.203,-38.086,-43.457,0.000,0
160965.123,-28.320,-26.367,-47.363,-36.621,0.000,0
160965.127,-32.715,-29.297,-39.551,-27.344,0.000,0
160965.131,-27.832,-34.180,-48.340,-24.902,0.000,0
160965.135,-23.438,-28.809,-32.715,-26.367,0.000,0
160965.138,-23.438,-26.367,-30.273,-30.762,0.000,0
160965.142,-33.203,-29.297,-45.898,-39.551,0.000,0
160965.146,-33.203,-31.738,-48.340,-29.785,0.000,0
160965.150,-21.973,-28.320,-41.504,0.977,0.000,0
160965.154,-21.973,-22.949,-13.672,-17.090,0.000,0
160965.158,-30.273,-18.066,-28.809,-35.156,0.000,0
160965.162,-34.668,-19.531,-52.734,-22.461,0.000,0
160965.166,-38.086,-22.949,-36.133,-28.809,0.000,0
160965.170,-35.645,-19.043,-18.066,-29.297,0.000,0
160965.174,-30.762,-22.949,-21.973,-42.480,0.000,0
160965.178,-27.832,-24.902,-36.621,-43.945,0.000,0
160965.181,-30.273,-26.367,-32.227,-35.156,0.000,0
160965.185,-32.715,-33.203,-30.762,-33.691,0.000,1
160965.189,-29.297,-31.738,-39.551,-30.273,0.000,0
160965.193,-33.691,-26.367,-35.156,-38.086,0.000,0
160965.197,-31.738,-23.438,-35.645,-38.086,0.000,0
160965.201,-32.227,-25.391,-31.738,-25.879,0.000,0
160965.205,-33.203,-28.320,-27.832,-14.160,0.000,0
160965.209,-24.414,-23.926,-40.039,-7.324,0.000,0
160965.213,-28.320,-21.973,-31.250,-26.367,0.000,0
160965.217,-29.785,-24.902,-24.902,-32.715,0.000,0
160965.221,-18.066,-25.879,-39.062,-15.137,0.000,0
160965.224,-11.230,-22.461,-36.133,-8.301,0.000,0
160965.228,-14.648,-18.066,-30.273,-11.230,0.000,0
160965.232,-16.113,-23.926,-27.344,-12.695,0.000,0
160965.236,-11.230,-26.367,-27.832,-11.230,0.000,0
160965.240,-17.090,-22.949,-34.180,-10.742,0.000,0
160965.244,-24.902,-21.973,-26.367,-19.531,0.000,0
160965.248,-17.090,-16.602,-23.438,-15.625,0.000,0
160965.252,-13.672,-17.090,-22.949,-16.602,0.000,0
160965.256,-18.066,-15.137,-17.090,-30.762,0.000,0
160965.260,-24.414,-20.996,-24.902,-21.484,0.000,0
160965.263,-28.320,-29.785,-40.039,-9.277,0.000,0
160965.267,-15.625,-26.367,-37.109,-25.391,0.000,0
160965.271,-11.719,-24.902,-21.484,-27.832,0.000,0
160965.275,-20.996,-27.832,-26.855,-22.461,0.000,0
160965.279,-25.391,-29.297,-45.410,-32.227,0.000,0
160965.283,-21.484,-30.273,-43.457,-26.367,0.000,0
160965.287,-18.066,-28.809,-34.668,-22.461,0.000,0
160965.291,-25.879,-28.809,-27.832,-27.344,0.000,0
160965.295,-23.926,-31.738,-23.438,-30.762,0.000,0
160965.299,-22.949,-28.320,-27.344,-29.297,0.000,0
160965.303,-26.367,-28.320,-22.461,-26.367,0.000,0
160965.306,-20.020,-27.344,-14.160,-29.297,0.000,0
160965.310,-20.508,-29.785,-33.203,-24.414,0.000,0
160965.314,-25.391,-32.227,-34.180,-24.414,0.000,0
160965.318,-27.344,-32.227,-22.461,-22.461,0.000,0
160965.322,-31.250,-33.691,-25.391,-26.855,0.000,0
160965.326,-27.832,-31.250,-34.180,-18.066,0.000,0
160965.330,-26.367,-33.203,-28.320,-19.531,0.000,0
160965.334,-31.250,-38.574,-12.695,-28.809,0.000,0
160965.338,-30.273,-37.598,-21.973,-20.020,0.000,0
160965.342,-19.531,-28.320,-42.969,-21.484,0.000,0
160965.346,-21.484,-27.832,-39.062,-26.855,0.000,0
160965.349,-27.832,-32.715,-17.090,-23.438,0.000,0
160965.353,-22.461,-31.250,-23.438,-33.203,0.000,0
160965.357,-20.020,-27.344,-37.598,-39.551,0.000,0
160965.361,-23.438,-25.879,-30.762,-38.086,0.000,0
160965.365,-26.855,-28.809,-18.555,-17.578,0.000,0
160965.369,-28.320,-28.809,-16.113,-23.926,0.000,0
160965.373,-20.020,-29.785,-13.672,-44.922,0.000,0
160965.377,-19.043,-29.297,-26.855,-31.250,0.000,0
160965.381,-15.137,-24.902,-25.391,-17.578,0.000,0
160965.385,-9.277,-27.832,-24.414,-9.277,0.000,0
160965.388,-9.766,-29.785,-18.066,-13.184,0.000,0
160965.392,-12.695,-28.320,-9.766,-25.879,0.000,0
160965.396,-16.113,-27.832,-22.949,-17.090,0.000,0
160965.400,-17.578,-29.785,-26.855,-13.184,0.000,0
160965.404,-8.789,-30.762,-29.297,-8.301,0.000,0
160965.408,-2.930,-30.762,-16.602,-6.836,0.000,0
160965.412,-8.301,-23.926,-0.977,-4.395,0.000,0
160965.416,-11.230,-25.391,-26.855,-1.465,0.000,0
160965.420,-12.207,-31.250,-35.645,-6.836,0.000,0
160965.424,-10.254,-26.367,-23.926,-1.953,0.000,0
160965.428,-14.160,-24.902,-21.973,0.000,0.000,0
160965.431,-10.742,-25.391,-11.230,-21.973,0.000,0
160965.435,-6.836,-20.020,-16.113,-26.855,0.000,0
160965.439,-7.324,-17.578,-19.043,-9.766,0.000,0
160965.443,-7.324,-18.066,-22.461,-10.742,0.000,0
160965.447,-10.254,-18.555,-30.273,-9.766,0.000,0
160965.451,-12.695,-18.555,-22.949,-11.230,0.000,0
160965.455,-18.066,-20.020,-17.090,-10.742,0.000,0
160965.459,-22.949,-22.461,-35.156,-20.996,0.000,0
160965.463,-19.043,-22.949,-42.969,-23.926,0.000,0
160965.467,-12.207,-19.531,-33.691,-8.789,0.000,0
160965.471,-16.113,-25.391,-20.996,-24.902,0.000,0
160965.474,-21.973,-32.715,-35.645,-34.180,0.000,0
160965.478,-18.066,-32.715,-44.434,-15.137,0.000,0
160965.482,-23.926,-33.203,-39.551,-15.625,0.000,0
160965.486,-26.367,-29.297,-32.227,-15.137,0.000,0
160965.490,-23.438,-22.949,-22.949,-20.996,0.000,0
160965.494,-24.414,-25.391,-39.062,-30.273,0.000,0
160965.498,-26.855,-25.879,-25.391,-24.414,0.000,0
160965.502,-24.902,-27.832,-24.902,-7.812,0.000,0
160965.506,-23.438,-32.227,-31.738,-22.949,0.000,0
160965.510,-34.668,-27.344,-20.508,-35.156,0.000,0
160965.513,-32.715,-26.367,-40.527,-13.672,0.000,0
160965.517,-21.484,-27.832,-44.434,-11.230,0.000,0
160965.521,-24.902,-28.809,-40.527,-20.508,0.000,0
160965.525,-36.133,-28.809,-16.113,-33.691,0.000,0
160965.529,-32.227,-25.391,-13.672,-33.203,0.000,0
160965.533,-39.062,-27.832,-32.227,-38.086,0.000,0
160965.537,-37.109,-27.832,-27.344,-29.297,0.000,0
160965.541,-30.273,-22.461,-24.414,-9.766,0.000,0
160965.545,-33.203,-23.438,-22.949,-29.785,0.000,0
160965.549,-28.320,-22.949,-22.949,-38.086,0.000,0
160965.553,-28.320,-20.996,-30.762,-25.391,0.000,0
160965.556,-34.180,-26.367,-33.203,-23.926,0.000,0
160965.560,-35.156,-29.785,-35.156,-23.926,0.000,0
160965.564,-40.039,-26.855,-25.391,-38.086,0.000,0
160965.568,-41.992,-21.973,-18.555,-39.062,0.000,0
160965.572,-37.598,-19.043,-26.855,-28.809,0.000,0
160965.576,-37.109,-24.414,-27.832,-33.691,0.000,0
160965.580,-45.410,-27.344,-25.879,-47.363,0.000,0
160965.584,-45.410,-19.043,-9.766,-44.434,0.000,0
160965.588,-41.504,-17.578,-8.301,-36.621,0.000,0
160965.592,-39.551,-20.996,-31.250,-42.480,0.000,0
160965.596,-36.133,-19.043,-24.414,-35.156,0.000,0
160965.599,-35.645,-18.066,-8.301,-28.809,0.000,0
160965.603,-39.062,-16.113,-12.695,-36.133,0.000,0
160965.607,-37.109,-16.113,-5.859,-46.875,0.000,0
160965.611,-35.156,-15.137,-18.066,-39.551,0.000,0
160965.615,-34.668,-17.578,-27.832,-15.625,0.000,0
160965.619,-38.086,-22.461,-29.785,-16.602,0.000,0
160965.623,-36.621,-12.695,-27.832,-33.691,0.000,0
160965.627,-25.391,-12.207,-5.859,-36.133,0.000,0
160965.631,-28.809,-19.531,-5.371,-28.809,0.000,0
160965.635,-29.297,-16.113,-22.949,-36.621,0.000,0
160965.638,-20.996,-14.648,-41.504,-29.785,0.000,0
160965.642,-24.902,-22.949,-33.691,-24.414,0.000,0
160965.646,-26.855,-25.391,-2.441,-36.621,0.000,0
160965.650,-22.949,-19.531,-17.578,-33.691,0.000,0
160965.654,-21.973,-19.043,-36.133,-22.949,0.000,0
160965.658,-22.949,-22.461,-32.715,-11.230,0.000,0
160965.662,-21.973,-21.484,-19.531,-19.043,0.000,0
160965.666,-23.438,-19.531,-11.719,-43.457,0.000,0
160965.670,-21.484,-19.043,-24.414,-45.410,0.000,0
160965.674,-20.020,-23.438,-21.973,-42.480,0.000,0
160965.678,-27.832,-23.438,-19.043,-25.391,0.000,0
160965.681,-29.785,-21.973,-25.391,-22.461,0.000,0
160965.685,-24.414,-27.344,-15.137,-37.109,0.000,0
160965.689,-25.391,-25.879,-18.066,-25.879,0.000,0
160965.693,-34.668,-24.902,-21.973,-26.367,0.000,0
160965.697,-20.020,-26.367,-24.902,-23.926,0.000,0
160965.701,-18.555,-26.367,-19.531,-20.020,0.000,0
160965.705,-22.949,-20.996,-11.719,-24.902,0.000,0
160965.709,-17.090,-17.090,-12.695,-16.602,0.000,0
160965.713,-17.090,-16.602,-19.531,-9.766,0.000,0
160965.717,-19.531,-25.879,-38.574,-6.348,0.000,0
160965.721,-26.855,-26.855,-24.414,-14.648,0.000,0
160965.724,-25.391,-30.273,-14.160,-20.020,0.000,0
160965.728,-22.949,-26.855,-32.715,-6.836,0.000,0
160965.732,-21.973,-20.996,-36.133,-5.371,0.000,0
160965.736,-19.043,-20.996,-10.254,-4.883,0.000,0
160965.740,-21.484,-20.020,-16.113,-6.348,0.000,0
160965.744,-29.785,-23.438,-15.137,-32.227,0.000,0
160965.748,-31.738,-26.855,-15.137,-31.738,0.000,0
160965.752,-20.508,-31.250,-24.902,-13.184,0.000,0
160965.756,-16.113,-23.926,-36.133,-17.578,0.000,0
160965.760,-27.344,-25.391,-35.645,-27.832,0.000,0
160965.763,-20.020,-24.414,-12.695,-25.391,0.000,0
160965.767,-12.695,-20.020,-25.879,-15.137,0.000,0
160965.771,-19.531,-26.855,-38.086,-14.648,0.000,0
160965.775,-23.926,-28.320,-47.363,-25.391,0.000,0
160965.779,-34.668,-22.461,-40.039,-29.785,0.000,0
160965.783,-31.250,-20.508,-5.859,-30.273,0.000,0
160965.787,-17.578,-22.461,-26.855,-29.297,0.000,0
160965.791,-19.043,-21.973,-41.992,-12.695,0.000,0
160965.795,-19.531,-18.066,-34.668,-6.836,0.000,0
160965.799,-13.672,-20.508,-33.691,-25.391,0.000,0
160965.803,-17.578,-22.949,-20.508,-41.016,0.000,0
160965.806,-19.531,-18.555,-26.367,-36.621,0.000,0
160965.810,-19.531,-20.020,-27.344,-32.715,0.000,0
160965.814,-28.320,-20.508,-23.438,-29.297,0.000,0
160965.818,-32.227,-23.926,-46.387,-20.020,0.000,0
160965.822,-28.320,-33.203,-46.875,-25.391,0.000,0
160965.826,-34.180,-34.668,-28.320,-32.227,0.000,0
160965.830,-34.668,-26.855,-32.715,-29.297,0.000,0
160965.834,-26.855,-22.949,-41.504,-28.809,0.000,0
160965.838,-27.344,-25.879,-31.738,-27.832,0.000,0
160965.842,-26.367,-21.973,-13.184,-34.180,0.000,0
160965.846,-23.438,-20.996,-22.461,-32.715,0.000,0
160965.849,-20.020,-24.414,-31.738,-19.531,0.000,0
160965.853,-20.020,-20.020,-26.855,-9.766,0.000,0
160965.857,-20.508,-18.555,-33.691,1.953,0.000,0
160965.861,-22.949,-21.973,-22.949,-11.719,0.000,0
160965.865,-23.926,-22.461,-19.531,-20.508,0.000,0
160965.869,-13.184,-21.973,-30.762,-1.953,0.000,0
160965.873,-17.578,-22.949,-26.855,1.953,0.000,0
160965.877,-23.926,-23.926,-34.668,-11.230,0.000,0
160965.881,-23.438,-25.391,-29.297,-21.973,0.000,0
160965.885,-20.996,-25.391,-19.043,-29.297,0.000,0
160965.888,-17.090,-22.949,-25.879,-28.320,0.000,1
160965.892,-22.461,-24.414,-34.668,-25.879,0.000,0
160965.896,-24.902,-30.762,-35.156,-20.996,0.000,0
160965.900,-23.926,-29.297,-20.508,-23.926,0.000,0
160965.904,-21.484,-21.973,-20.996,-19.043,0.000,0
160965.908,-18.066,-24.902,-37.109,-6.836,0.000,0
160965.912,-13.672,-21.973,-22.461,-15.625,0.000,0
160965.916,-14.160,-23.438,6.348,-30.273,0.000,0
160965.920,-20.508,-25.391,-19.531,-17.090,0.000,0
160965.924,-24.902,-24.902,-36.133,-11.719,0.000,0
160965.928,-25.391,-23.438,-30.273,-15.625,0.000,0
160965.931,-13.184,-20.020,-24.902,-17.090,0.000,0
160965.935,-7.812,-20.508,-23.438,-11.719,0.000,0
160965.939,-10.742,-20.020,-18.066,-6.836,0.000,0
160965.943,-0.488,-21.484,-13.184,-2.930,0.000,0
160965.947,2.930,-24.902,-27.832,-7.812,0.000,0
160965.951,-16.113,-26.367,-33.203,-32.227,0.000,0
160965.955,-38.574,-26.367,-34.180,-46.387,0.000,0
160965.959,-39.062,-22.461,-29.785,-43.457,0.000,0
160965.963,-25.391,-24.414,-21.973,-45.410,0.000,0
160965.967,-17.090,-27.344,-29.785,-34.180,0.000,0
160965.971,-25.391,-24.414,-31.250,-30.273,0.000,0
160965.974,-41.992,-29.297,-31.250,-43.945,0.000,0
160965.978,-44.434,-34.668,-28.320,-42.969,0.000,0
160965.982,-38.574,-30.273,-24.902,-41.992,0.000,0
160965.986,-37.598,-28.809,-35.156,-43.945,0.000,0
160965.990,-37.109,-31.738,-35.156,-40.039,0.000,0
160965.994,-40.527,-30.762,-38.086,-30.762,0.000,0
160965.998,-39.062,-34.180,-38.086,-38.086,0.000,0
160966.002,-33.203,-33.691,-21.484,-54.688,0.000,0
160966.006,-35.645,-25.391,-27.832,-47.852,0.000,0
160966.010,-35.645,-33.203,-47.852,-40.039,0.000,0
160966.013,-26.855,-35.645,-44.922,-41.016,0.000,0
160966.017,-24.414,-26.855,-20.996,-37.598,0.000,0
160966.021,-29.297,-24.902,-10.254,-40.039,0.000,0
160966.025,-29.297,-26.367,-29.785,-48.340,0.000,0
160966.029,-31.738,-31.250,-34.180,-47.363,0.000,0
160966.033,-37.109,-30.273,-29.785,-33.203,0.000,0
160966.037,-41.992,-26.855,-31.738,-35.156,0.000,0
160966.041,-40.039,-31.738,-31.250,-41.992,0.000,0
160966.045,-28.320,-28.809,-31.738,-30.762,0.000,0
160966.049,-18.066,-27.832,-34.668,-29.785,0.000,0
160966.053,-27.344,-29.297,-25.879,-27.344,0.000,0
160966.056,-33.691,-30.273,-30.762,-48.340,0.000,0
160966.060,-25.391,-33.203,-32.715,-50.781,0.000,0
160966.064,-27.344,-36.133,-25.391,-37.598,0.000,0
160966.068,-30.273,-36.133,-13.672,-37.109,0.000,0
160966.072,-20.020,-24.902,-31.738,-20.020,0.000,0
160966.076,-12.207,-23.926,-31.250,-20.508,0.000,0
160966.080,-15.137,-29.297,-5.371,-39.062,0.000,0
160966.084,-22.949,-21.484,-19.043,-33.691,0.000,0
160966.088,-24.414,-19.043,-32.227,-27.344,0.000,0
160966.092,-21.484,-24.414,-27.344,-30.273,0.000,0
160966.096,-21.973,-21.973,-19.531,-24.414,0.000,0
160966.099,-18.555,-21.973,-17.090,-27.344,0.000,0
160966.103,-17.090,-22.949,-25.391,-25.391,0.000,0
160966.107,-19.531,-20.020,-20.996,-9.766,0.000,0
160966.111,-15.625,-18.066,-21.484,-8.301,0.000,0
160966.115,-12.695,-17.090,-23.926,-22.949,0.000,0
160966.119,-15.137,-19.043,-18.555,-26.367,0.000,0
160966.123,-19.043,-19.043,-35.156,-10.742,0.000,0
160966.127,-16.602,-17.578,-38.574,-10.254,0.000,0
160966.131,-20.996,-15.137,-33.691,-25.879,0.000,0
160966.135,-24.414,-21.973,-18.066,-35.156,0.000,0
160966.138,-27.344,-25.391,-14.648,-37.109,0.000,0
160966.142,-35.156,-20.508,-29.297,-21.484,0.000,0
160966.146,-31.250,-25.879,-27.832,-5.371,0.000,0
160966.150,-28.809,-26.855,-38.574,-15.137,0.000,0
160966.154,-27.344,-20.508,-19.531,-16.602,0.000,0
160966.158,-22.461,-22.949,-6.348,-20.996,0.000,0
160966.162,-25.879,-22.461,-39.551,-30.273,0.000,0
160966.166,-30.762,-26.367,-37.109,-26.855,0.000,0
160966.170,-31.250,-33.691,-26.855,-15.137,0.000,0
160966.174,-30.762,-34.668,-29.785,-18.555,0.000,0
160966.178,-28.320,-29.785,-23.926,-32.715,0.000,0
160966.181,-20.508,-24.414,-23.926,-20.996,0.000,0
160966.185,-30.762,-25.879,-29.785,-18.066,0.000,0
160966.189,-38.574,-26.367,-31.738,-18.555,0.000,0
160966.193,-35.156,-21.973,-20.020,-17.578,0.000,0
160966.197,-33.203,-18.555,-10.254,-26.855,0.000,0
160966.201,-22.461,-18.066,-13.672,-23.926,0.000,0
160966.205,-9.766,-19.531,-24.902,-10.254,0.000,0
160966.209,-7.812,-16.602,-23.438,4.883,0.000,0
160966.213,-7.812,-18.555,-18.066,16.602,0.000,0
160966.217,-7.324,-20.508,-9.277,-3.418,0.000,0
160966.221,-16.113,-19.043,-6.836,-20.508,0.000,0
160966.224,-20.508,-19.043,-18.555,-11.230,0.000,0
160966.228,-15.137,-23.926,-24.414,-0.488,0.000,0
160966.232,-18.555,-27.344,-16.602,0.977,0.000,0
160966.236,-21.484,-25.879,-13.184,0.977,0.000,0
160966.240,-18.066,-24.414,-16.113,-5.371,0.000,0
160966.244,-23.926,-25.391,-14.160,-18.555,0.000,0
160966.248,-28.809,-23.438,-23.438,-20.020,0.000,0
160966.252,-24.902,-21.973,-41.016,-25.391,0.000,0
160966.256,-23.926,-16.602,-25.879,-28.809,0.000,0
160966.260,-22.461,-13.672,-12.695,-18.555,0.000,0
160966.263,-21.484,-20.996,-16.113,-16.113,0.000,0
160966.267,-25.391,-31.738,-25.391,-13.184,0.000,0
160966.271,-25.391,-27.832,-20.996,-17.578,0.000,0
160966.275,-17.090,-14.648,-5.371,-31.738,0.000,0
160966.279,-12.207,-12.695,-20.020,-31.250,0.000,0
160966.283,-12.207,-18.555,-36.621,-24.902,0.000,0
160966.287,-13.184,-15.137,-18.555,-20.020,0.000,0
160966.291,-14.160,-15.625,-15.137,-19.043,0.000,0
160966.295,-17.090,-20.020,-19.531,-22.949,0.000,0
160966.299,-18.066,-19.531,-18.555,-27.344,0.000,0
160966.303,-22.949,-17.090,-21.973,-31.738,0.000,0
160966.306,-24.414,-16.113,-20.996,-33.691,0.000,0
160966.310,-20.508,-15.137,-28.320,-19.043,0.000,0
160966.314,-20.996,-10.254,-22.949,-23.926,0.000,0
160966.318,-24.902,-15.137,-24.414,-28.809,0.000,0
160966.322,-23.926,-21.484,-27.344,-29.785,0.000,0
160966.326,-23.438,-23.438,-24.902,-37.598,0.000,0
160966.330,-24.414,-23.438,-39.062,-26.367,0.000,0
160966.334,-17.090,-20.508,-11.230,-30.762,0.000,0
160966.338,-17.090,-19.531,-4.883,-31.738,0.000,0
160966.342,-21.484,-20.996,-25.391,-26.367,0.000,0
160966.346,-24.902,-23.438,-33.203,-31.250,0.000,0
160966.349,-26.855,-25.391,-27.344,-29.785,0.000,0
160966.353,-22.949,-18.555,-15.625,-33.691,0.000,0
160966.357,-26.855,-19.531,-19.043,-34.668,0.000,0
160966.361,-33.691,-24.902,-24.902,-19.531,0.000,0
160966.365,-34.180,-23.926,-27.832,-13.184,0.000,0
160966.369,-33.203,-30.273,-38.086,-30.273,0.000,0
160966.373,-28.320,-31.738,-28.320,-42.969,0.000,0
160966.377,-19.043,-27.344,-16.602,-31.738,0.000,0
160966.381,-20.508,-23.926,-17.578,-26.855,0.000,0
160966.385,-21.973,-27.344,-37.598,-31.250,0.000,0
160966.388,-19.043,-34.180,-45.898,-25.391,0.000,0
160966.392,-20.020,-29.785,-3.418,-24.902,0.000,0
160966.396,-19.531,-26.855,-8.301,-16.113,0.000,0
160966.400,-17.578,-31.250,-41.992,-15.137,0.000,0
160966.404,-13.672,-25.391,-30.273,-19.043,0.000,0
160966.408,-12.207,-20.996,-23.926,-6.836,0.000,0
160966.412,-15.137,-28.809,-23.438,-18.066,0.000,0
160966.416,-12.695,-30.762,-22.949,-31.738,0.000,0
160966.420,-13.672,-35.645,-34.180,-29.785,0.000,0
160966.424,-23.926,-37.598,-34.180,-33.691,0.000,0
160966.428,-24.414,-26.367,-29.297,-23.438,0.000,0
160966.431,-18.555,-28.320,-26.367,-14.648,0.000,0
160966.435,-20.508,-33.691,-37.109,-25.391,0.000,0
160966.439,-25.391,-24.902,-32.715,-33.691,0.000,0
160966.443,-24.902,-23.926,-23.926,-33.691,0.000,0
160966.447,-30.273,-26.367,-35.156,-34.180,0.000,0
160966.451,-32.715,-25.879,-25.879,-48.340,0.000,0
160966.455,-30.762,-28.809,-20.508,-50.293,0.000,0
160966.459,-36.621,-29.785,-37.109,-39.062,0.000,0
160966.463,-29.785,-24.414,-50.293,-39.062,0.000,0
160966.467,-24.902,-24.414,-39.551,-25.879,0.000,0
160966.471,-33.203,-28.809,-19.043,-29.785,0.000,0
160966.474,-30.273,-25.391,-14.648,-40.527,0.000,0
160966.478,-29.297,-21.484,-33.691,-35.645,0.000,0
160966.482,-36.621,-22.949,-29.785,-38.574,0.000,0
160966.486,-34.668,-24.414,-19.043,-19.531,0.000,0
160966.490,-29.785,-20.996,-27.344,-13.184,0.000,0
160966.494,-31.250,-22.461,-22.949,-32.715,0.000,0
160966.498,-29.785,-25.879,-30.762,-32.715,0.000,0
160966.502,-26.367,-24.902,-34.668,-25.879,0.000,0
160966.506,-30.762,-22.461,-34.668,-25.879,0.000,0
160966.510,-35.156,-23.438,-25.879,-24.414,0.000,0
160966.513,-32.227,-24.414,-16.113,-30.762,0.000,0
160966.517,-35.156,-19.043,-22.461,-32.227,0.000,0
160966.521,-22.949,-20.508,-31.738,-11.719,0.000,0
160966.525,-7.324,-26.855,-47.363,8.789,0.000,0
160966.529,-38.574,-31.250,-28.809,-28.320,0.000,0
160966.533,-54.199,-32.715,-7.324,-64.941,0.000,0
160966.537,-31.738,-31.738,-44.922,-30.762,0.000,0
160966.541,-29.297,-32.227,-51.758,-20.996,0.000,0
160966.545,-33.203,-35.156,-31.738,-32.227,0.000,0
160966.549,-38.574,-33.691,-27.832,-37.109,0.000,0
160966.553,-32.715,-26.855,-23.438,-47.363,0.000,0
160966.556,-19.043,-24.414,-21.484,-39.062,0.000,0
160966.560,-20.996,-24.902,-20.020,-31.250,0.000,0
160966.564,-18.555,-20.996,-27.832,-17.090,0.000,0
160966.568,-20.508,-22.461,-36.621,-7.812,0.000,0
160966.572,-31.738,-24.902,-23.926,-28.809,0.000,0
160966.576,-26.367,-22.461,-21.973,-28.809,0.000,0
160966.580,-17.578,-26.367,-45.898,-20.508,0.000,0
160966.584,-25.879,-30.273,-41.992,-26.855,0.000,0
160966.588,-30.762,-28.320,-33.691,-27.344,0.000,0
160966.592,-28.809,-29.297,-29.785,-38.574,0.000,0
160966.596,-31.738,-33.203,-34.180,-42.480,0.000,0
160966.599,-27.344,-31.738,-32.715,-21.484,0.000,0
160966.603,-35.156,-28.809,-31.738,-13.184,0.000,1
160966.607,-31.250,-27.832,-33.203,-27.832,0.000,0
160966.611,-23.438,-28.809,-22.461,-27.832,0.000,0
160966.615,-35.645,-29.785,-29.785,-28.320,0.000,0
160966.619,-37.109,-20.508,-28.809,-30.273,0.000,0
160966.623,-34.668,-22.461,-25.879,-26.855,0.000,0
160966.627,-35.156,-26.367,-35.645,-27.344,0.000,0
160966.631,-37.598,-26.855,-29.785,-31.250,0.000,0
160966.635,-35.156,-27.344,-24.414,-50.781,0.000,0
