timestamps,TP9,AF7,AF8,TP10,Right AUX,Marker0
160829.955,-35.645,-32.227,-40.039,-19.043,0.000,0
160829.959,-57.617,-33.203,-45.410,-20.996,0.000,0
160829.963,-32.715,-26.855,-31.738,-22.461,0.000,0
160829.967,6.836,-20.020,-16.113,-13.672,0.000,0
160829.971,-15.137,-20.996,-14.160,-24.902,0.000,0
160829.974,-48.828,-26.367,-26.855,-44.434,0.000,0
160829.978,-39.551,-23.926,-50.781,-35.645,0.000,0
160829.982,-32.227,-22.949,-33.203,-39.062,0.000,0
160829.986,-46.387,-22.461,5.371,-41.992,0.000,0
160829.990,-40.527,-18.555,-11.719,-50.781,0.000,0
160829.994,-17.090,-13.672,-27.832,-41.016,0.000,0
160829.998,-20.996,-16.602,-17.578,0.000,0.000,0
160830.002,-32.227,-22.949,-16.602,-12.695,0.000,0
160830.006,-25.879,-21.484,-7.324,-33.203,0.000,0
160830.010,-16.602,-19.531,-10.254,-20.020,0.000,0
160830.013,-17.578,-20.996,-30.762,-30.273,0.000,0
160830.017,-14.160,-20.508,-16.602,-27.344,0.000,0
160830.021,-16.602,-23.438,-6.836,-17.090,0.000,0
160830.025,-25.391,-22.949,-10.742,-35.645,0.000,0
160830.029,-19.531,-21.973,-15.137,-37.109,0.000,0
160830.033,-18.555,-25.879,0.488,-19.531,0.000,0
160830.037,-24.414,-23.438,-10.742,3.906,0.000,0
160830.041,-21.973,-17.090,-11.230,-0.488,0.000,0
160830.045,-21.484,-17.090,2.930,-12.207,0.000,0
160830.049,-18.066,-17.578,-13.672,-16.113,0.000,0
160830.053,-16.602,-18.555,-4.883,-25.879,0.000,0
160830.056,-12.207,-17.578,-6.348,-26.855,0.000,0
160830.060,-13.184,-17.090,-13.184,-11.230,0.000,0
160830.064,-25.879,-19.043,-6.348,-27.832,0.000,0
160830.068,-24.902,-21.484,-18.555,-21.973,0.000,0
160830.072,-16.602,-28.809,-19.531,-1.953,0.000,0
160830.076,-18.555,-22.949,-16.113,-12.207,0.000,0
160830.080,-17.578,-15.625,-15.625,-26.855,0.000,0
160830.084,-20.508,-21.484,-8.789,-19.043,0.000,0
160830.088,-24.902,-24.902,-19.043,-17.578,0.000,0
160830.092,-15.137,-21.973,-20.020,-34.668,0.000,0
160830.096,-4.395,-20.996,-20.508,-22.949,0.000,0
160830.099,-5.859,-23.438,-17.090,2.441,0.000,0
160830.103,-7.324,-27.344,4.883,-13.184,0.000,0
160830.107,-11.719,-31.250,-8.301,-28.809,0.000,0
160830.111,-12.695,-32.227,-22.949,-35.645,0.000,0
160830.115,-19.531,-35.156,-31.250,-27.344,0.000,0
160830.119,-41.504,-34.668,-30.762,-9.766,0.000,0
160830.123,-39.551,-31.250,2.930,-18.066,0.000,0
160830.127,-20.996,-31.250,-18.555,-18.555,0.000,0
160830.131,-10.254,-29.297,-42.969,-22.461,0.000,0
160830.135,-9.277,-25.391,-23.926,-20.996,0.000,0
160830.138,-16.113,-23.926,-9.277,-24.414,0.000,0
160830.142,-20.508,-27.832,-2.441,-32.715,0.000,0
160830.146,-18.555,-26.367,-13.672,-18.555,0.000,0
160830.150,-14.648,-21.484,-16.113,-1.953,0.000,0
160830.154,-8.789,-24.414,-15.625,0.000,0.000,0
160830.158,-14.160,-27.344,-29.785,-9.766,0.000,0
160830.162,-12.695,-21.973,-32.227,-3.418,0.000,0
160830.166,-12.207,-19.531,-14.648,-17.090,0.000,0
160830.170,-16.602,-21.484,-16.602,-20.508,0.000,0
160830.174,-8.789,-24.414,-25.879,-18.066,0.000,0
160830.178,-14.160,-19.043,-27.832,-0.977,0.000,0
160830.181,-22.461,-20.020,-13.184,-17.578,0.000,0
160830.185,-13.184,-21.973,-13.184,-38.574,0.000,0
160830.189,-11.719,-17.090,-31.738,-13.672,0.000,0
160830.193,-30.273,-24.902,-30.273,-22.461,0.000,0
160830.197,-28.809,-27.832,-27.832,-27.832,0.000,0
160830.201,-17.090,-23.438,-19.043,-31.738,0.000,0
160830.205,-21.484,-26.367,-22.949,-30.273,0.000,0
160830.209,-29.785,-24.414,-24.902,-19.531,0.000,0
160830.213,-27.832,-17.090,-7.812,-19.043,0.000,0
160830.217,-24.414,-22.949,-36.133,-10.254,0.000,0
160830.221,-20.020,-29.297,-35.156,-16.602,0.000,0
160830.224,-29.297,-28.809,-22.461,-48.828,0.000,0
160830.228,-31.738,-25.879,-36.621,-48.828,0.000,0
160830.232,-22.949,-20.020,-37.109,-39.062,0.000,0
160830.236,-36.621,-19.531,-28.320,-22.461,0.000,0
160830.240,-33.691,-20.996,-12.695,-22.461,0.000,0
160830.244,-26.367,-22.949,-16.113,-28.320,0.000,0
160830.248,-29.297,-32.227,-43.945,-36.621,0.000,0
160830.252,-24.902,-32.715,-43.457,-32.227,0.000,0
160830.256,-40.039,-31.250,-23.926,-7.812,0.000,0
160830.260,-41.504,-35.645,-29.785,-27.832,0.000,0
160830.263,-32.715,-34.668,-49.805,-51.270,0.000,0
160830.267,-34.668,-33.203,-46.875,-32.227,0.000,0
160830.271,-41.992,-33.203,-25.391,-35.645,0.000,0
160830.275,-35.156,-24.414,-26.855,-30.273,0.000,0
160830.279,-28.809,-18.066,-25.391,-23.438,0.000,0
160830.283,-29.297,-21.484,-18.555,-33.691,0.000,0
160830.287,-28.809,-24.414,-19.043,-34.180,0.000,0
160830.291,-30.762,-24.902,-26.367,-17.578,0.000,0
160830.295,-36.621,-27.344,-36.133,-6.348,0.000,0
160830.299,-38.086,-30.273,-34.180,-3.906,0.000,0
160830.303,-36.133,-29.297,-28.320,-25.879,0.000,0
160830.306,-50.781,-27.832,-37.598,-33.203,0.000,0
160830.310,-45.898,-26.367,-44.434,-21.484,0.000,0
160830.314,-32.227,-30.273,-48.340,-38.574,0.000,0
160830.318,-39.551,-25.391,-24.902,-27.344,0.000,0
160830.322,-26.855,-23.926,-26.367,-16.113,0.000,0
160830.326,-16.602,-27.344,-32.227,-26.855,0.000,0
160830.330,-23.438,-24.414,-28.809,-20.996,0.000,0
160830.334,-25.391,-28.809,-29.785,-16.602,0.000,0
160830.338,-37.109,-32.715,-25.391,-24.414,0.000,0
160830.342,-43.945,-31.738,-24.414,-35.645,0.000,0
160830.346,-34.668,-27.832,-27.832,-33.691,0.000,0
160830.349,-40.039,-29.297,-31.738,-39.062,0.000,0
160830.353,-33.203,-28.809,-48.340,-38.086,0.000,0
160830.357,-18.066,-19.043,-23.438,-52.246,0.000,0
160830.361,-24.414,-16.602,9.766,-62.988,0.000,0
160830.365,-26.855,-19.043,-21.973,-13.672,0.000,0
160830.369,-22.461,-21.973,-53.711,-10.254,0.000,0
160830.373,-30.762,-30.762,-53.711,-41.504,0.000,0
160830.377,-32.227,-32.227,-30.762,-30.762,0.000,0
160830.381,-29.297,-32.227,-28.320,-31.250,0.000,0
160830.385,-35.156,-30.273,-40.527,-34.668,0.000,0
160830.388,-29.785,-28.320,-32.227,-27.344,0.000,0
160830.392,-32.715,-26.367,-36.133,-22.949,0.000,0
160830.396,-34.180,-22.949,-39.551,-32.715,0.000,0
160830.400,-23.438,-28.809,-32.227,-69.336,0.000,0
160830.404,-31.250,-29.785,-31.250,-38.086,0.000,0
160830.408,-24.902,-25.879,-23.926,-2.930,0.000,0
160830.412,-21.973,-32.715,-48.828,-29.785,0.000,0
160830.416,-31.738,-36.133,-49.805,-47.363,0.000,0
160830.420,-33.203,-35.156,-27.344,-51.758,0.000,0
160830.424,-33.203,-30.273,-38.574,-43.457,0.000,0
160830.428,-27.832,-29.785,-52.734,-38.574,0.000,0
160830.431,-36.621,-34.180,-58.105,-21.484,0.000,0
160830.435,-45.410,-33.203,-39.062,-15.137,0.000,0
160830.439,-35.645,-32.227,-17.578,-59.082,0.000,0
160830.443,-26.855,-27.832,-37.598,-55.176,0.000,0
160830.447,-25.879,-22.461,-50.293,-23.926,0.000,0
160830.451,-41.016,-27.832,-29.785,-33.203,0.000,0
160830.455,-42.969,-28.809,-21.484,-65.918,0.000,0
160830.459,-31.738,-25.391,-20.508,-71.777,0.000,0
160830.463,-28.320,-22.949,-15.625,-38.086,0.000,0
160830.467,-31.250,-22.949,-26.367,-18.555,0.000,0
160830.471,-25.391,-26.855,-37.109,-8.789,0.000,0
160830.474,-20.020,-28.320,-31.250,-8.301,0.000,0
160830.478,-23.438,-26.367,-15.625,-26.367,0.000,0
160830.482,-30.273,-22.949,-30.273,-28.320,0.000,0
160830.486,-26.855,-29.297,-43.457,-21.973,0.000,0
160830.490,-25.391,-31.250,-32.715,-26.367,0.000,0
160830.494,-36.621,-33.691,-34.668,-32.715,0.000,0
160830.498,-32.715,-35.156,-17.578,-41.992,0.000,0
160830.502,-23.438,-34.668,-31.250,-48.828,0.000,0
160830.506,-28.320,-36.133,-45.898,-32.227,0.000,0
160830.510,-25.391,-30.762,-40.527,-17.578,0.000,0
160830.513,-24.902,-31.250,-45.410,-18.066,0.000,0
160830.517,-22.461,-34.180,-28.320,-33.203,0.000,0
160830.521,-19.043,-32.715,-28.809,-34.180,0.000,0
160830.525,-22.461,-28.320,-39.551,-34.668,0.000,0
160830.529,-25.879,-26.367,-39.551,-37.598,0.000,0
160830.533,-18.066,-30.762,-45.410,-32.715,0.000,0
160830.537,-24.902,-31.738,-39.062,-36.133,0.000,0
160830.541,-27.832,-26.855,-27.344,-30.273,0.000,0
160830.545,-24.414,-20.996,-35.156,-24.902,0.000,0
160830.549,-27.344,-21.484,-48.828,-17.090,0.000,0
160830.553,-16.602,-20.508,-32.715,-22.949,0.000,0
160830.556,-16.113,-20.508,-5.371,-29.785,0.000,0
160830.560,-20.508,-25.879,-21.484,-17.090,0.000,0
160830.564,-20.996,-25.879,-24.902,-41.992,0.000,0
160830.568,-18.555,-21.484,-18.066,-37.109,0.000,0
160830.572,-17.090,-18.066,-28.809,-3.906,0.000,0
160830.576,-19.531,-25.879,-29.785,-40.039,0.000,0
160830.580,-25.879,-31.250,-34.668,-53.223,0.000,0
160830.584,-24.902,-31.738,-31.250,-31.738,0.000,0
160830.588,-23.438,-32.227,-16.602,-25.391,0.000,0
160830.592,-20.996,-28.320,-30.762,-18.066,0.000,0
160830.596,-13.184,-29.297,-30.762,-24.414,0.000,0
160830.599,-11.719,-35.645,-23.926,-37.598,0.000,0
160830.603,-16.113,-36.621,-38.574,-40.527,0.000,0
160830.607,-15.137,-32.227,-40.527,-18.555,0.000,0
160830.611,-10.742,-29.785,-42.480,-10.254,0.000,0
160830.615,-8.301,-28.320,-21.484,-16.602,0.000,0
160830.619,-9.277,-23.438,-14.160,-22.949,0.000,0
160830.623,-1.953,-19.531,-27.344,-28.320,0.000,0
160830.627,-2.441,-20.508,-24.902,-15.137,0.000,0
160830.631,-7.812,-20.508,-18.555,-11.719,0.000,0
160830.635,-0.488,-17.578,-13.184,6.348,0.000,0
160830.638,0.488,-17.090,-20.020,0.488,0.000,0
160830.642,-11.719,-19.043,-30.762,-33.691,0.000,0
160830.646,-10.742,-16.113,-32.715,-7.324,0.000,0
160830.650,-9.766,-13.184,-34.668,16.113,0.000,0
160830.654,-19.043,-24.414,-32.227,-5.371,0.000,0
160830.658,-21.484,-25.391,-27.832,-21.973,0.000,0
160830.662,-21.973,-24.902,-40.527,-40.527,0.000,0
160830.666,-20.020,-25.391,-38.574,-35.156,0.000,0
160830.670,-23.438,-19.043,-31.738,-8.789,0.000,0
160830.674,-30.273,-20.508,-43.945,-7.324,0.000,0
160830.678,-30.762,-24.902,-28.320,-37.598,0.000,0
160830.681,-28.809,-28.320,-30.762,-37.598,0.000,0
160830.685,-28.320,-31.250,-55.664,-28.320,0.000,0
160830.689,-31.250,-34.668,-52.246,-37.109,0.000,0
160830.693,-35.645,-31.738,-24.414,-25.391,0.000,0
160830.697,-33.203,-32.715,-29.785,-32.715,0.000,0
160830.701,-36.133,-36.133,-41.992,-41.504,0.000,0
160830.705,-41.992,-33.203,-31.250,-45.898,0.000,0
160830.709,-38.086,-31.738,-36.621,-42.480,0.000,0
160830.713,-31.250,-31.738,-42.480,-16.602,0.000,0
160830.717,-35.645,-30.273,-24.414,-28.320,0.000,0
160830.721,-42.969,-31.250,-27.832,-43.945,0.000,0
160830.724,-36.621,-30.273,-40.039,-8.301,0.000,0
160830.728,-36.133,-30.762,-52.246,-6.348,0.000,0
160830.732,-29.297,-33.203,-42.480,-23.926,0.000,0
160830.736,-24.902,-27.832,-5.859,-26.855,0.000,0
160830.740,-20.020,-26.855,-24.414,-27.344,0.000,0
160830.744,-16.113,-32.715,-49.805,-23.438,0.000,0
160830.748,-16.113,-30.273,-50.293,-19.531,0.000,0
160830.752,-13.184,-28.809,-37.109,5.371,0.000,0
160830.756,-16.602,-31.250,-27.344,-3.906,0.000,0
160830.760,-18.555,-26.367,-42.969,-13.672,0.000,0
160830.763,-20.508,-26.367,-46.875,2.930,0.000,0
160830.767,-25.391,-26.855,-33.203,-13.672,0.000,0
160830.771,-27.832,-24.902,-25.879,-10.742,0.000,0
160830.775,-18.555,-28.809,-32.227,0.977,0.000,0
160830.779,-13.184,-28.320,-27.344,-15.625,0.000,0
160830.783,-7.812,-23.438,-27.344,-6.836,0.000,0
160830.787,2.930,-19.043,-43.457,-10.254,0.000,0
160830.791,-0.977,-22.461,-24.902,-14.160,0.000,0
160830.795,-13.184,-27.832,-20.020,1.465,0.000,0
160830.799,-20.020,-26.855,-39.551,-15.137,0.000,0
160830.803,-16.113,-30.273,-36.621,-34.668,0.000,0
160830.806,-18.555,-29.785,-27.832,-12.207,0.000,0
160830.810,-22.461,-29.297,-18.555,-14.648,0.000,0
160830.814,-20.996,-29.785,-21.484,-24.902,0.000,0
160830.818,-26.855,-28.320,-30.273,-20.996,0.000,0
160830.822,-38.086,-29.785,-25.391,-11.719,0.000,0
160830.826,-31.250,-30.762,-34.180,-13.672,0.000,0
160830.830,-23.926,-28.809,-32.227,-31.738,0.000,0
160830.834,-32.227,-30.762,-21.484,-43.457,0.000,0
160830.838,-39.062,-35.645,-29.297,-40.527,0.000,0
160830.842,-35.645,-31.250,-34.180,-13.184,0.000,0
160830.846,-23.926,-28.809,-39.551,-2.930,0.000,0
160830.849,-23.926,-35.156,-30.762,-30.762,0.000,0
160830.853,-29.297,-34.668,-17.578,-38.574,0.000,0
160830.857,-24.414,-30.762,-27.344,-20.020,0.000,0
160830.861,-21.484,-24.902,-38.574,-17.090,0.000,0
160830.865,-28.320,-26.367,-33.691,-17.578,0.000,0
160830.869,-36.133,-20.996,-4.395,-34.668,0.000,0
160830.873,-27.832,-12.207,-8.301,-40.039,0.000,0
160830.877,-22.949,-19.043,-42.969,-20.020,0.000,0
160830.881,-28.809,-21.973,-30.762,-40.039,0.000,0
160830.885,-33.203,-22.461,-27.344,-35.156,0.000,0
160830.888,-26.855,-23.926,-32.227,-11.719,0.000,0
160830.892,-30.273,-21.973,-20.996,-19.531,0.000,0
160830.896,-33.203,-22.461,-26.855,-34.180,0.000,0
160830.900,-29.297,-25.391,-27.832,-37.109,0.000,0
160830.904,-28.320,-29.785,-30.273,-20.996,0.000,0
160830.908,-19.043,-29.785,-27.832,-18.066,0.000,0
160830.912,-18.555,-24.902,-17.090,-37.598,0.000,0
160830.916,-17.090,-26.367,-26.855,-41.016,0.000,0
160830.920,-10.742,-31.738,-35.156,-43.945,0.000,0
160830.924,-2.441,-31.250,-32.227,-34.668,0.000,0
160830.928,3.418,-35.645,-23.926,-10.742,0.000,0
160830.931,-11.719,-38.086,-12.207,-24.414,0.000,0
160830.935,-31.738,-32.715,-25.391,-42.480,0.000,0
160830.939,-21.973,-28.320,-22.461,-22.461,0.000,0
160830.943,-6.348,-25.879,-17.090,-5.371,0.000,0
160830.947,-12.695,-28.320,-24.414,-22.949,0.000,0
160830.951,-19.043,-24.902,-13.672,-36.621,0.000,0
160830.955,-24.902,-21.484,-15.137,-54.199,0.000,0
160830.959,-36.133,-21.973,-18.066,-45.898,0.000,0
160830.963,-31.738,-19.531,-18.555,-27.832,0.000,0
160830.967,-27.832,-25.879,-35.156,-31.250,0.000,0
160830.971,-20.020,-29.297,-9.277,-60.547,0.000,0
160830.974,-17.090,-20.996,-18.555,-55.176,0.000,0
160830.978,-23.438,-19.043,-48.340,-22.461,0.000,0
160830.982,-20.996,-24.902,-32.227,-11.719,0.000,0
160830.986,-27.344,-29.297,-20.508,-21.484,0.000,0
160830.990,-32.227,-26.855,-7.812,-35.156,0.000,0
160830.994,-29.785,-26.367,-18.066,-35.156,0.000,0
160830.998,-32.715,-22.461,-28.320,-32.715,0.000,0
160831.002,-32.715,-17.090,-22.461,-50.781,0.000,0
160831.006,-33.691,-21.973,-18.555,-52.246,0.000,0
160831.010,-41.504,-30.273,-21.973,-25.879,0.000,0
160831.013,-41.504,-32.227,-27.344,-41.504,0.000,0
160831.017,-37.109,-30.762,-13.672,-44.434,0.000,0
160831.021,-31.738,-28.809,-21.973,-26.855,0.000,0
160831.025,-27.832,-26.855,-33.691,-31.250,0.000,0
160831.029,-35.156,-25.391,-12.695,-49.316,0.000,0
160831.033,-32.227,-25.391,-9.766,-37.598,0.000,0
160831.037,-31.250,-25.879,-23.926,-35.156,0.000,0
160831.041,-24.902,-26.855,-38.574,-40.527,0.000,0
160831.045,-31.250,-27.832,-29.785,-14.160,0.000,0
160831.049,-38.574,-26.855,-5.371,-25.391,0.000,0
160831.053,-25.391,-24.902,-7.324,-48.828,0.000,0
160831.056,-21.973,-25.879,-19.043,-36.621,0.000,0
160831.060,-22.949,-28.809,-29.297,-16.113,0.000,0
160831.064,-25.879,-25.879,-4.395,-18.066,0.000,0
160831.068,-16.113,-24.414,0.488,-33.691,0.000,0
160831.072,-12.695,-27.344,-22.949,-20.020,0.000,0
160831.076,-20.508,-23.438,-22.461,-21.973,0.000,0
160831.080,-14.160,-22.949,-23.438,-17.578,0.000,0
160831.084,-9.766,-28.809,-23.926,-4.883,0.000,0
160831.088,-21.484,-25.879,-11.230,-31.250,0.000,0
160831.092,-24.414,-23.926,-17.578,-33.203,0.000,0
160831.096,-17.090,-24.414,-26.367,-20.996,0.000,0
160831.099,-26.367,-22.461,-29.785,-33.691,0.000,0
160831.103,-36.133,-23.926,-34.180,-34.180,0.000,0
160831.107,-34.180,-22.949,-14.648,-26.855,0.000,0
160831.111,-30.762,-20.020,-29.297,-32.715,0.000,0
160831.115,-22.461,-22.949,-41.992,-24.414,0.000,0
160831.119,-20.508,-19.531,-23.438,-2.930,0.000,0
160831.123,-21.973,-16.113,-16.602,-9.277,0.000,0
160831.127,-22.461,-20.996,-15.625,-24.414,0.000,0
160831.131,-39.062,-22.949,-25.391,-21.973,0.000,0
160831.135,-43.457,-23.438,-40.039,-21.484,0.000,0
160831.138,-37.109,-26.855,-37.109,-31.738,0.000,0
160831.142,-32.715,-25.879,-32.715,-23.438,0.000,0
160831.146,-32.227,-25.391,-30.273,-41.016,0.000,0
160831.150,-47.363,-27.344,-25.879,-48.828,0.000,0
160831.154,-51.758,-25.391,-32.227,-29.297,0.000,0
160831.158,-42.480,-23.926,-47.852,-27.832,0.000,0
160831.162,-39.062,-25.391,-28.320,-45.898,0.000,0
160831.166,-38.574,-25.879,-17.090,-49.805,0.000,0
160831.170,-34.180,-26.855,-39.062,-32.227,0.000,0
160831.174,-31.738,-25.391,-36.621,-34.180,0.000,0
160831.178,-29.785,-21.484,-37.109,-14.160,0.000,0
160831.181,-39.062,-19.531,-24.414,-17.090,0.000,0
160831.185,-40.527,-18.555,-11.230,-51.758,0.000,0
160831.189,-24.414,-18.555,-31.250,-28.320,0.000,0
160831.193,-25.391,-21.484,-29.297,-23.438,0.000,0
160831.197,-31.250,-25.879,-23.926,-20.996,0.000,0
160831.201,-25.391,-23.926,-31.250,-16.113,0.000,0
160831.205,-26.855,-22.949,-26.367,-33.203,0.000,0
160831.209,-30.762,-22.461,-24.902,-29.785,0.000,0
160831.213,-32.715,-27.344,-32.715,-15.625,0.000,0
160831.217,-29.297,-28.320,-33.203,-10.742,0.000,0
160831.221,-28.809,-21.973,-19.531,-10.254,0.000,0
160831.224,-40.039,-25.879,-15.625,-32.227,0.000,0
160831.228,-38.574,-28.809,-26.855,-45.410,0.000,0
160831.232,-32.227,-27.832,-27.832,-33.691,0.000,0
160831.236,-25.879,-25.391,-30.273,-15.137,0.000,0
160831.240,-27.344,-21.973,-25.879,-3.418,0.000,0
160831.244,-31.250,-21.973,-17.090,-16.113,0.000,0
160831.248,-18.066,-20.020,-27.344,1.953,0.000,0
160831.252,-7.812,-18.555,-41.992,4.883,0.000,0
160831.256,-10.742,-21.484,-41.016,-9.766,0.000,0
160831.260,-22.461,-24.414,-31.738,-15.137,0.000,0
160831.263,-26.367,-24.902,-28.809,-43.457,0.000,0
160831.267,-17.578,-24.414,-25.879,-45.410,0.000,0
160831.271,-32.715,-24.902,-32.715,-26.855,0.000,0
160831.275,-38.574,-21.484,-29.785,-31.738,0.000,0
160831.279,-27.344,-18.555,-35.156,-37.109,0.000,0
160831.283,-35.156,-21.973,-36.133,-25.879,0.000,0
160831.287,-38.574,-23.438,-20.508,-12.207,0.000,0
160831.291,-30.762,-23.438,-37.109,-16.602,0.000,0
160831.295,-16.113,-24.902,-49.805,-54.199,0.000,0
160831.299,-13.672,-21.484,-20.020,-39.062,0.000,0
160831.303,-23.926,-22.461,4.883,-25.879,0.000,0
160831.306,-13.672,-27.344,-22.949,-24.414,0.000,0
160831.310,-14.648,-29.785,-46.387,-4.395,0.000,0
160831.314,-15.137,-29.297,-33.203,-6.836,0.000,0
160831.318,-11.230,-27.832,-18.066,-11.230,0.000,0
160831.322,-16.602,-22.461,-14.648,-6.836,0.000,0
160831.326,-16.602,-15.625,-21.484,-18.066,0.000,0
160831.330,-21.484,-21.484,-22.949,-31.250,0.000,0
160831.334,-35.645,-25.879,-23.438,-2.930,0.000,0
160831.338,-15.137,-20.508,-35.645,13.184,0.000,0
160831.342,-10.742,-20.020,-26.367,-9.277,0.000,0
160831.346,-41.504,-18.555,-0.488,-46.387,0.000,0
160831.349,-42.480,-18.066,-17.578,-42.480,0.000,0
160831.353,-40.527,-23.438,-48.828,-38.086,0.000,0
160831.357,-47.852,-29.297,-55.176,-56.641,0.000,0
160831.361,-53.711,-30.762,-37.598,-59.570,0.000,0
160831.365,-53.223,-32.227,-30.273,-53.223,0.000,0
160831.369,-39.062,-34.668,-55.176,-66.895,0.000,0
160831.373,-30.273,-32.227,-50.781,-60.059,0.000,0
160831.377,-24.902,-27.832,-21.973,-39.062,0.000,0
160831.381,-23.438,-26.367,-23.438,-40.527,0.000,0
160831.385,-17.090,-25.391,-33.691,-28.809,0.000,0
160831.388,-23.926,-23.926,-32.227,-20.508,0.000,0
160831.392,-28.809,-25.879,-36.621,-42.969,0.000,0
160831.396,-29.297,-31.250,-38.574,-53.223,0.000,0
160831.400,-36.621,-32.715,-25.391,-56.641,0.000,0
160831.404,-42.480,-34.668,-35.156,-47.363,0.000,0
160831.408,-49.805,-36.133,-44.922,-54.688,0.000,0
160831.412,-41.992,-33.203,-44.434,-51.270,0.000,0
160831.416,-31.250,-29.297,-36.621,-37.109,0.000,0
160831.420,-38.086,-32.715,-20.996,-45.410,0.000,0
160831.424,-51.758,-36.621,-38.574,-36.133,0.000,0
160831.428,-33.203,-30.273,-44.922,-32.715,0.000,0
160831.431,-22.949,-27.344,-35.645,-30.273,0.000,0
160831.435,-25.879,-28.320,-22.461,-18.555,0.000,0
160831.439,-22.461,-26.367,-25.879,-38.574,0.000,0
160831.443,-23.438,-26.855,-40.039,-44.922,0.000,0
160831.447,-26.367,-27.344,-31.738,-44.434,0.000,0
160831.451,-26.855,-26.367,-37.598,-27.344,0.000,0
160831.455,-26.367,-27.344,-43.945,-27.344,0.000,0
160831.459,-33.691,-28.320,-22.461,-43.945,0.000,0
160831.463,-38.086,-32.715,-35.645,-27.344,0.000,0
160831.467,-22.949,-31.250,-49.316,-25.879,0.000,0
160831.471,-31.738,-28.320,-43.457,-29.297,0.000,0
160831.474,-36.133,-30.273,-39.551,-33.203,0.000,0
160831.478,-27.344,-32.227,-12.207,-59.082,0.000,0
160831.482,-31.738,-29.785,-24.902,-35.645,0.000,0
160831.486,-32.715,-25.879,-55.176,-21.973,0.000,0
160831.490,-19.531,-26.855,-54.688,-23.926,0.000,0
160831.494,-17.578,-29.297,-28.809,-37.109,0.000,0
160831.498,-27.344,-30.762,-15.137,-46.875,0.000,0
160831.502,-26.367,-31.250,-41.504,-44.922,0.000,0
160831.506,-23.438,-32.227,-50.293,-29.297,0.000,0
160831.510,-28.809,-30.762,-38.086,-22.461,0.000,0
160831.513,-31.250,-27.832,-37.598,-27.832,0.000,0
160831.517,-21.484,-29.297,-27.832,-39.062,0.000,0
160831.521,-30.273,-28.809,-29.297,-67.871,0.000,0
160831.525,-33.691,-25.391,-31.738,-29.297,0.000,0
160831.529,-19.043,-28.809,-42.480,-3.906,0.000,0
160831.533,-19.043,-27.832,-45.898,-20.508,0.000,0
160831.537,-27.344,-26.367,-32.227,-41.016,0.000,0
160831.541,-30.273,-23.926,-36.621,-56.641,0.000,0
160831.545,-27.344,-21.484,-52.734,-56.152,0.000,0
160831.549,-27.344,-22.949,-45.410,-51.758,0.000,0
160831.553,-20.996,-18.066,-31.250,-17.578,0.000,0
160831.556,-20.020,-17.090,-18.555,-18.555,0.000,0
160831.560,-26.855,-20.020,-21.973,-46.387,0.000,0
160831.564,-30.273,-22.461,-34.180,-32.715,0.000,0
160831.568,-15.625,-18.555,-25.391,-12.207,0.000,0
160831.572,-16.602,-22.461,-40.039,-16.602,0.000,0
160831.576,-43.457,-30.273,-41.992,-34.668,0.000,0
160831.580,-31.250,-27.344,-16.602,-53.223,0.000,0
160831.584,-27.832,-19.531,-13.672,-32.715,0.000,0
160831.588,-24.902,-19.043,-25.391,-22.461,0.000,0
160831.592,-18.066,-23.926,-33.691,-16.602,0.000,0
160831.596,-27.344,-28.320,-24.902,-29.785,0.000,0
160831.599,-26.855,-19.531,-11.719,-30.273,0.000,0
160831.603,-13.672,-19.043,-37.598,9.766,0.000,0
160831.607,-18.555,-34.180,-59.570,1.465,0.000,0
160831.611,-39.062,-37.598,-45.410,-40.527,0.000,0
160831.615,-43.945,-33.203,-20.508,-54.199,0.000,0
160831.619,-40.527,-27.344,-17.090,-37.109,0.000,0
160831.623,-23.438,-28.320,-39.062,-25.879,0.000,0
160831.627,-23.926,-34.668,-34.668,-23.438,0.000,0
160831.631,-35.156,-29.297,-15.137,-20.996,0.000,0
160831.635,-25.879,-34.180,-27.832,-27.344,0.000,0
160831.638,-19.531,-35.156,-31.250,-48.340,0.000,0
160831.642,-24.902,-29.785,-31.250,-41.992,0.000,0
160831.646,-21.484,-30.273,-32.715,-6.836,0.000,0
160831.650,-35.645,-33.691,-37.598,-5.371,0.000,0
160831.654,-42.969,-34.668,-36.133,-20.508,0.000,0
160831.658,-29.785,-28.809,-23.438,-19.043,0.000,0
160831.662,-41.992,-28.809,-28.320,-23.926,0.000,0
160831.666,-45.898,-28.809,-39.551,-23.438,0.000,0
160831.670,-29.785,-26.367,-39.551,-15.137,0.000,0
160831.674,-25.391,-26.367,-22.461,-30.273,0.000,0
160831.678,-36.133,-27.344,-23.926,-45.898,0.000,0
160831.681,-34.668,-28.809,-30.762,-45.410,0.000,0
160831.685,-20.996,-27.832,-28.320,-38.086,0.000,0
160831.689,-22.461,-25.879,-31.738,-10.742,0.000,0
160831.693,-22.949,-27.344,-25.391,-15.625,0.000,0
160831.697,-20.508,-25.391,-18.555,-37.598,0.000,0
160831.701,-21.973,-25.391,-21.973,-37.109,0.000,0
160831.705,-27.344,-29.785,-28.320,-29.297,0.000,0
160831.709,-23.438,-28.809,-26.367,-39.551,0.000,0
160831.713,-25.391,-24.902,-25.391,-15.137,0.000,0
160831.717,-25.391,-24.414,-6.348,-16.602,0.000,0
160831.721,-30.273,-26.367,-3.906,-25.879,0.000,0
160831.724,-26.855,-25.879,-23.438,-21.484,0.000,0
160831.728,-20.508,-22.461,-26.367,-22.461,0.000,0
160831.732,-24.414,-27.832,-22.949,-26.855,0.000,0
160831.736,-28.320,-32.227,-19.043,-34.180,0.000,0
160831.740,-23.438,-28.320,-26.855,-31.738,0.000,0
160831.744,-21.973,-29.785,-37.109,-25.391,0.000,0
160831.748,-27.344,-28.809,-36.133,-13.184,0.000,0
160831.752,-23.926,-25.391,-30.762,-14.160,0.000,0
160831.756,-30.762,-29.297,-29.785,-38.086,0.000,0
160831.760,-33.203,-29.785,-38.086,-14.648,0.000,0
160831.763,-27.832,-26.855,-23.438,-1.465,0.000,0
160831.767,-37.109,-28.809,-29.297,-13.672,0.000,0
160831.771,-20.996,-27.832,-39.062,-16.113,0.000,0
160831.775,-17.578,-24.414,-17.578,-26.367,0.000,0
160831.779,-21.484,-23.926,-28.320,-16.113,0.000,0
160831.783,-3.418,-25.879,-32.715,-9.277,0.000,0
160831.787,-9.766,-29.785,-42.480,-10.254,0.000,0
160831.791,-24.414,-23.926,-49.805,-3.906,0.000,0
160831.795,-21.484,-22.461,-14.648,-27.832,0.000,0
160831.799,-16.113,-26.367,-23.926,-34.180,0.000,0
160831.803,-15.625,-25.879,-37.109,-13.184,0.000,0
160831.806,-23.926,-27.832,-38.086,-29.297,0.000,0
160831.810,-27.832,-27.832,-26.367,-40.039,0.000,0
160831.814,-22.461,-26.367,-22.461,-28.809,0.000,0
160831.818,-20.508,-30.762,-43.457,-15.137,0.000,0
160831.822,-17.578,-32.227,-48.828,-24.902,0.000,0
160831.826,-13.672,-22.949,-38.574,-32.715,0.000,0
160831.830,-19.531,-23.438,-35.156,-33.203,0.000,0
160831.834,-20.508,-28.809,-25.391,-33.691,0.000,0
160831.838,-28.320,-25.879,-22.461,-37.109,0.000,0
160831.842,-29.297,-21.973,-35.645,-42.480,0.000,0
160831.846,-26.855,-23.438,-48.828,-47.363,0.000,0
160831.849,-41.992,-24.414,-31.738,-34.180,0.000,0
160831.853,-44.434,-21.484,-11.719,-29.785,0.000,0
160831.857,-40.039,-20.508,-29.297,-37.109,0.000,0
160831.861,-30.273,-17.578,-39.551,-24.414,0.000,0
160831.865,-27.832,-19.531,-27.344,-33.203,0.000,0
160831.869,-33.691,-24.414,-27.832,-30.273,0.000,0
160831.873,-29.785,-23.926,-27.344,-30.273,0.000,0
160831.877,-23.926,-23.438,-25.879,-38.574,0.000,0
160831.881,-26.855,-22.949,-28.320,-29.785,0.000,0
160831.885,-24.414,-22.949,-27.344,-26.367,0.000,0
160831.888,-28.809,-23.438,-39.551,-30.273,0.000,0
160831.892,-32.227,-26.367,-40.527,-21.484,0.000,0
160831.896,-20.996,-27.344,-20.020,-37.598,0.000,0
160831.900,-18.555,-27.344,-21.973,-53.711,0.000,0
160831.904,-24.902,-25.879,-37.109,-34.668,0.000,0
160831.908,-17.090,-25.391,-53.223,-36.621,0.000,0
160831.912,-20.996,-27.832,-34.668,-48.828,0.000,0
160831.916,-30.273,-24.414,-9.277,-32.227,0.000,0
160831.920,-22.461,-22.461,-33.691,-11.230,0.000,0
160831.924,-22.461,-22.949,-39.062,-18.066,0.000,0
160831.928,-31.738,-21.484,-24.902,-33.203,0.000,0
160831.931,-31.738,-19.531,-21.973,-36.133,0.000,0
160831.935,-21.973,-21.484,-32.715,-24.414,0.000,0
160831.939,-24.414,-26.855,-41.992,-40.039,0.000,0
160831.943,-22.949,-32.715,-33.203,-38.086,0.000,0
160831.947,-24.902,-36.621,-40.527,-29.297,0.000,0
160831.951,-23.926,-33.691,-40.039,-35.156,0.000,0
160831.955,-16.113,-28.809,-29.297,-25.391,0.000,0
160831.959,-20.020,-31.738,-41.016,-23.438,0.000,0
160831.963,-29.785,-32.715,-36.133,-37.598,0.000,0
160831.967,-33.691,-34.180,-37.109,-46.875,0.000,0
160831.971,-44.434,-37.598,-38.574,-44.434,0.000,0
160831.974,-47.852,-31.250,-29.297,-50.781,0.000,0
160831.978,-40.039,-31.738,-36.621,-46.387,0.000,0
160831.982,-40.527,-34.180,-40.039,-31.250,0.000,0
160831.986,-42.969,-32.227,-43.945,-57.129,0.000,0
160831.990,-41.016,-33.203,-33.203,-39.551,0.000,0
160831.994,-44.434,-31.250,-30.762,-19.531,0.000,0
160831.998,-49.316,-31.738,-51.270,-29.297,0.000,0
160832.002,-41.016,-35.156,-33.691,-28.809,0.000,0
160832.006,-42.969,-30.762,-23.926,-33.691,0.000,0
160832.010,-47.363,-29.297,-30.762,-49.316,0.000,0
160832.013,-38.086,-24.902,-20.020,-54.199,0.000,0
160832.017,-33.203,-23.438,-31.738,-37.109,0.000,0
160832.021,-39.062,-30.273,-41.992,-22.461,0.000,0
160832.025,-32.715,-24.414,-32.715,-25.391,0.000,0
160832.029,-19.043,-21.973,-14.648,-50.293,0.000,0
160832.033,-21.973,-26.367,-17.578,-41.504,0.000,0
160832.037,-21.484,-28.320,-34.668,-14.648,0.000,0
160832.041,-24.414,-32.227,-43.457,-14.160,0.000,0
160832.045,-30.273,-28.809,-32.715,-11.230,0.000,0
160832.049,-27.832,-20.508,-6.836,-10.742,0.000,0
160832.053,-25.879,-21.484,-24.902,-40.039,0.000,0
160832.056,-20.020,-25.391,-38.574,-38.574,0.000,0
160832.060,-22.461,-20.020,-22.461,-17.090,0.000,0
160832.064,-29.297,-20.508,-27.344,-20.508,0.000,0
160832.068,-36.133,-30.762,-26.855,-45.410,0.000,0
160832.072,-41.992,-32.715,-24.902,-57.129,0.000,0
160832.076,-23.438,-29.297,-28.809,-38.574,0.000,0
160832.080,-14.160,-24.902,-20.996,-27.344,0.000,0
160832.084,-20.020,-15.137,-24.414,-23.926,0.000,0
160832.088,-16.602,-12.695,-24.414,-31.738,0.000,0
160832.092,-20.508,-19.043,-10.742,-29.785,0.000,0
160832.096,-19.043,-19.531,-8.789,-25.879,0.000,0
160832.099,-13.184,-20.996,-36.621,-9.277,0.000,0
160832.103,-19.043,-21.484,-49.316,-7.324,0.000,0
160832.107,-29.785,-21.484,-19.531,-42.969,0.000,0
160832.111,-33.691,-27.344,-15.137,-46.875,0.000,0
160832.115,-34.668,-30.273,-40.527,-38.086,0.000,0
160832.119,-38.574,-27.344,-39.062,-38.574,0.000,0
160832.123,-29.297,-24.902,-38.086,-21.484,0.000,0
160832.127,-23.926,-29.785,-30.273,-20.020,0.000,0
160832.131,-32.715,-30.273,-23.438,-25.879,0.000,0
160832.135,-32.715,-26.367,-35.645,-10.254,0.000,0
160832.138,-35.156,-25.391,-28.809,-23.438,0.000,0
160832.142,-35.156,-25.391,-34.180,-46.875,0.000,0
160832.146,-35.156,-28.320,-30.273,-25.391,0.000,0
160832.150,-36.621,-26.855,-19.531,-21.973,0.000,0
160832.154,-39.062,-23.926,-33.203,-21.973,0.000,0
160832.158,-37.598,-22.461,-39.062,-19.043,0.000,0
160832.162,-11.230,-21.484,-40.527,-8.789,0.000,0
160832.166,-10.254,-21.484,-22.461,-13.672,0.000,0
160832.170,-42.969,-20.508,-15.137,-41.992,0.000,0
160832.174,-36.133,-22.461,-28.809,-55.176,0.000,0
160832.178,-20.508,-21.973,-21.484,-32.227,0.000,0
160832.181,-28.809,-16.113,-13.672,-2.441,0.000,0
160832.185,-26.855,-17.578,-14.648,-19.531,0.000,0
160832.189,-20.020,-19.043,-19.043,-29.785,0.000,0
160832.193,-17.090,-18.066,-31.250,-41.504,0.000,0
160832.197,-7.812,-18.555,-20.020,-31.250,0.000,0
160832.201,-4.395,-15.137,-28.320,-7.324,0.000,0
160832.205,-10.742,-14.160,-44.922,-10.254,0.000,0
160832.209,-10.742,-18.555,-15.625,-2.930,0.000,0
160832.213,-16.602,-19.043,-15.625,-19.043,0.000,0
160832.217,-18.066,-19.043,-22.461,-22.949,0.000,0
160832.221,-17.090,-19.043,-24.414,-2.930,0.000,0
160832.224,-19.043,-16.113,-20.020,-0.488,0.000,0
160832.228,-13.672,-17.090,-10.742,-21.973,0.000,0
160832.232,-15.625,-18.555,-30.273,-20.996,0.000,0
160832.236,-28.320,-26.367,-47.363,-15.625,0.000,0
160832.240,-35.156,-28.320,-36.133,-29.297,0.000,0
160832.244,-23.926,-21.973,-21.973,-21.484,0.000,0
160832.248,-17.090,-20.020,-13.672,-20.996,0.000,0
160832.252,-24.902,-15.625,-23.926,-22.949,0.000,0
160832.256,-27.344,-16.113,-32.227,-10.742,0.000,0
160832.260,-24.414,-21.973,-32.227,-7.324,0.000,0
160832.263,-20.020,-22.949,-37.109,-30.762,0.000,0
160832.267,-19.531,-25.391,-30.273,-34.180,0.000,0
160832.271,-22.461,-24.414,-24.414,-16.602,0.000,0
160832.275,-24.902,-23.926,-28.809,-19.531,0.000,0
160832.279,-22.949,-31.250,-38.086,-24.414,0.000,0
160832.283,-25.391,-35.645,-37.109,-49.316,0.000,0
160832.287,-36.133,-34.668,-38.086,-50.781,0.000,0
160832.291,-35.156,-34.668,-42.480,-38.086,0.000,0
160832.295,-35.645,-33.691,-46.387,-33.203,0.000,0
160832.299,-31.738,-33.203,-30.273,-42.969,0.000,0
160832.303,-20.508,-28.320,-33.203,-36.621,0.000,0
160832.306,-20.020,-21.973,-42.480,-30.273,0.000,0
160832.310,-27.344,-20.508,-33.691,-27.344,0.000,0
160832.314,-34.668,-24.902,-46.387,-22.461,0.000,0
160832.318,-32.227,-23.926,-31.250,-21.973,0.000,0
160832.322,-28.320,-19.531,-37.598,-21.973,0.000,0
160832.326,-33.691,-23.926,-51.270,-52.246,0.000,0
160832.330,-40.039,-29.297,-30.273,-42.969,0.000,0
160832.334,-34.668,-24.414,-17.090,-22.461,0.000,0
160832.338,-27.832,-24.902,-40.039,-17.578,0.000,0
160832.342,-15.625,-26.367,-40.039,-17.090,0.000,0
160832.346,-23.438,-20.996,-13.672,-16.113,0.000,0
160832.349,-28.809,-18.555,-16.602,-12.695,0.000,0
160832.353,-23.926,-18.555,-32.715,-19.531,0.000,0
160832.357,-22.461,-19.043,-24.414,-12.207,0.000,0
160832.361,-27.832,-15.625,-12.695,-11.230,0.000,0
160832.365,-30.762,-18.555,-11.230,-54.688,0.000,0
160832.369,-31.738,-23.438,-20.996,-58.594,0.000,0
160832.373,-27.832,-21.484,-33.203,-7.812,0.000,0
160832.377,-13.184,-20.020,-21.484,1.465,0.000,0
160832.381,-11.230,-19.531,-21.484,-5.859,0.000,0
160832.385,-13.672,-20.020,-29.297,-18.066,0.000,0
160832.388,-17.578,-18.555,-26.855,-21.484,0.000,0
160832.392,-15.137,-19.043,-27.344,-25.879,0.000,0
160832.396,-15.625,-20.020,-30.273,-19.043,0.000,0
160832.400,-19.043,-19.531,-27.832,-8.789,0.000,0
160832.404,-23.438,-21.484,-18.066,-37.598,0.000,0
160832.408,-23.438,-19.531,-25.391,-48.828,0.000,0
160832.412,-21.973,-19.043,-34.668,-9.766,0.000,0
160832.416,-20.996,-21.973,-44.922,-5.859,0.000,0
160832.420,-17.578,-23.438,-46.875,-8.301,0.000,0
160832.424,-22.461,-21.484,-14.648,-10.742,0.000,0
160832.428,-20.996,-19.043,-14.160,-23.438,0.000,0
160832.431,-9.766,-20.508,-40.527,-30.762,0.000,0
160832.435,-15.137,-23.926,-35.645,-39.062,0.000,0
160832.439,-18.555,-23.926,-33.203,-24.902,0.000,0
160832.443,-18.555,-25.879,-32.227,-31.738,0.000,0
160832.447,-21.484,-27.832,-27.344,-51.758,0.000,0
160832.451,-27.344,-29.297,-42.969,-30.273,0.000,0
160832.455,-32.227,-32.715,-44.922,-14.648,0.000,0
160832.459,-38.086,-30.762,-37.109,-16.602,0.000,0
160832.463,-41.016,-27.832,-36.621,-31.738,0.000,0
160832.467,-33.203,-30.273,-20.020,-46.387,0.000,0
160832.471,-34.668,-30.273,-20.508,-36.133,0.000,0
160832.474,-28.809,-29.785,-36.621,-30.762,0.000,0
160832.478,-20.996,-26.855,-40.039,-24.414,0.000,0
160832.482,-34.668,-23.438,-27.344,-40.039,0.000,0
160832.486,-38.086,-20.508,-20.996,-44.434,0.000,0
160832.490,-33.691,-19.043,-42.969,-45.898,0.000,0
160832.494,-28.809,-24.902,-39.551,-36.621,0.000,0
160832.498,-22.949,-24.902,-18.066,-26.367,0.000,0
160832.502,-26.367,-19.531,-16.602,-35.156,0.000,0
160832.506,-30.273,-17.578,-20.508,-21.484,0.000,0
160832.510,-24.414,-15.625,-4.395,-26.855,0.000,0
160832.513,-31.250,-18.555,-9.277,-21.973,0.000,0
160832.517,-31.738,-22.949,-44.922,-24.902,0.000,0
160832.521,-38.574,-22.461,-36.133,-32.715,0.000,0
160832.525,-46.875,-25.879,-20.996,-33.691,0.000,0
160832.529,-36.133,-31.250,-40.039,-37.109,0.000,0
160832.533,-30.273,-28.320,-41.016,-6.348,0.000,0
160832.537,-30.273,-24.902,-37.109,-15.137,0.000,0
160832.541,-34.668,-26.855,-32.227,-41.016,0.000,0
160832.545,-28.809,-26.367,-19.043,-19.531,0.000,0
160832.549,-24.414,-19.531,-25.879,-23.438,0.000,0
160832.553,-25.879,-17.578,-33.691,-14.648,0.000,0
160832.556,-30.273,-23.926,-29.297,-25.879,0.000,0
160832.560,-29.297,-25.879,-20.996,-35.645,0.000,0
160832.564,-24.414,-22.461,-21.973,-30.762,0.000,0
160832.568,-31.738,-21.973,-37.109,-56.152,0.000,0
160832.572,-26.855,-14.648,-32.715,-42.969,0.000,0
160832.576,-15.625,-16.113,-31.738,-5.859,0.000,0
160832.580,-11.230,-19.043,-39.062,-10.742,0.000,0
160832.584,-10.742,-16.113,-24.414,-33.203,0.000,0
160832.588,-29.297,-23.438,-28.809,-31.250,0.000,0
160832.592,-32.715,-23.926,-39.551,-19.531,0.000,0
160832.596,-26.367,-25.879,-37.598,-28.320,0.000,0
160832.599,-41.016,-23.438,-29.297,-25.879,0.000,0
160832.603,-31.250,-16.113,-12.695,-31.738,0.000,0
160832.607,-6.836,-14.648,-30.273,-41.504,0.000,0
160832.611,-6.348,-17.090,-33.691,-41.504,0.000,0
160832.615,-7.324,-20.508,-8.301,-28.809,0.000,0
160832.619,-13.672,-20.996,-25.391,-19.531,0.000,0
160832.623,-19.043,-16.602,-29.785,-14.648,0.000,0
160832.627,-21.484,-13.184,-28.809,-28.320,0.000,0
160832.631,-27.344,-16.113,-29.785,-42.969,0.000,0
160832.635,-26.367,-17.578,-30.273,-11.230,0.000,0
160832.638,-19.531,-21.973,-30.762,2.930,0.000,0
160832.642,-28.809,-27.344,-19.043,-13.184,0.000,0
160832.646,-23.438,-23.926,-7.812,-19.531,0.000,0
160832.650,-11.719,-19.043,-14.648,-16.602,0.000,0
160832.654,-23.438,-21.973,-33.203,-14.648,0.000,0
160832.658,-22.461,-28.809,-30.762,-21.973,0.000,0
160832.662,-25.879,-31.738,-15.625,-42.480,0.000,0
160832.666,-32.227,-29.297,-33.691,-42.480,0.000,0
160832.670,-25.879,-31.250,-59.570,-11.230,0.000,0
160832.674,-23.438,-31.738,-40.039,-12.207,0.000,0
160832.678,-19.043,-29.297,-20.996,-25.879,0.000,0
160832.681,-20.508,-30.762,-19.043,-10.254,0.000,0
160832.685,-18.555,-28.320,-28.809,-17.090,0.000,0
160832.689,-15.625,-26.855,-31.738,-27.832,0.000,0
160832.693,-11.719,-28.320,-29.297,-10.742,0.000,0
160832.697,-15.137,-24.414,-42.969,-25.879,0.000,0
160832.701,-19.043,-25.391,-36.621,-51.270,0.000,0
160832.705,-14.648,-31.250,-22.949,-29.785,0.000,0
160832.709,-26.367,-34.668,-24.902,-13.184,0.000,0
160832.713,-34.180,-34.180,-32.715,-36.621,0.000,0
160832.717,-27.344,-32.715,-29.785,-30.762,0.000,0
160832.721,-27.832,-32.227,-30.762,-31.250,0.000,0
160832.724,-36.621,-33.203,-32.227,-45.898,0.000,0
160832.728,-36.133,-33.203,-43.945,-32.227,0.000,0
160832.732,-28.320,-33.691,-51.270,-34.668,0.000,0
160832.736,-33.203,-33.203,-43.457,-16.602,0.000,0
160832.740,-32.715,-26.367,-21.484,-9.277,0.000,0
160832.744,-16.602,-27.344,-28.809,-22.461,0.000,0
160832.748,1.465,-28.809,-36.621,-8.301,0.000,0
160832.752,-23.438,-25.391,-1.953,-5.371,0.000,0
160832.756,-49.805,-24.414,-11.719,-12.695,0.000,0
160832.760,-29.297,-23.438,-26.855,-31.250,0.000,0
160832.763,-11.230,-20.020,-13.672,-42.480,0.000,0
160832.767,-31.738,-25.391,-28.320,-31.250,0.000,0
160832.771,-40.527,-29.785,-39.551,-22.949,0.000,0
160832.775,-33.691,-27.832,-40.039,-15.137,0.000,0
160832.779,-31.738,-29.785,-23.438,-23.926,0.000,0
160832.783,-32.227,-26.367,-18.066,-58.594,0.000,0
160832.787,-27.344,-24.902,-28.320,-48.340,0.000,0
160832.791,-25.391,-31.738,-41.504,-16.113,0.000,0
160832.795,-24.902,-36.133,-47.363,8.301,0.000,0
160832.799,-17.578,-34.180,-11.719,13.672,0.000,0
160832.803,-4.883,-27.344,-19.531,-7.812,0.000,0
160832.806,-10.254,-31.250,-41.992,-6.836,0.000,0
160832.810,-14.648,-33.691,-23.926,-11.230,0.000,0
160832.814,-11.719,-30.762,-20.020,-14.160,0.000,0
160832.818,-14.648,-34.180,-27.832,-15.137,0.000,0
160832.822,-17.578,-31.250,-34.180,-29.785,0.000,0
160832.826,-10.742,-26.855,-26.855,-36.133,0.000,0
160832.830,-2.441,-28.320,-14.648,-23.438,0.000,0
160832.834,-21.973,-31.738,-30.273,-16.602,0.000,0
160832.838,-30.273,-27.344,-32.715,-36.621,0.000,0
160832.842,-20.508,-27.832,-9.277,-29.297,0.000,0
160832.846,-28.320,-29.297,-26.855,-23.926,0.000,0
160832.849,-22.461,-34.668,-56.152,-17.090,0.000,0
160832.853,-10.254,-33.691,-43.945,-5.859,0.000,0
160832.857,-17.090,-31.250,-20.996,-33.691,0.000,0
160832.861,-16.602,-29.785,-13.672,-46.875,0.000,0
160832.865,-22.949,-26.367,-25.391,-44.434,0.000,0
160832.869,-23.438,-25.879,-28.809,-34.180,0.000,0
160832.873,-20.996,-26.367,-31.738,-35.156,0.000,0
160832.877,-32.227,-30.273,-32.227,-36.621,0.000,0
160832.881,-31.250,-32.715,-27.344,-32.227,0.000,0
160832.885,-35.156,-34.180,-28.320,-17.090,0.000,0
160832.888,-41.504,-32.715,-25.879,-33.203,0.000,0
160832.892,-30.273,-35.156,-41.992,-48.340,0.000,0
160832.896,-33.203,-39.551,-45.410,-23.438,0.000,0
160832.900,-29.297,-35.645,-17.578,-40.039,0.000,0
160832.904,-19.043,-29.297,-26.367,-36.133,0.000,0
160832.908,-27.832,-28.320,-50.781,-41.504,0.000,0
160832.912,-22.461,-26.367,-44.434,-51.758,0.000,0
160832.916,-12.695,-22.949,-23.438,-25.879,0.000,0
160832.920,-15.137,-19.043,0.488,-39.551,0.000,0
160832.924,-23.926,-18.555,-18.555,-45.898,0.000,0
160832.928,-24.902,-27.344,-33.691,-40.527,0.000,0
160832.931,-26.855,-26.367,-18.066,-33.203,0.000,0
160832.935,-30.273,-21.973,-25.391,-1.953,0.000,0
160832.939,-27.832,-30.762,-32.227,-16.113,0.000,0
160832.943,-34.668,-33.691,-30.762,-35.645,0.000,0
160832.947,-30.762,-24.414,-28.809,-9.766,0.000,0
160832.951,-18.555,-26.855,-29.297,-11.719,0.000,0
160832.955,-24.414,-35.645,-35.645,-45.410,0.000,0
160832.959,-33.691,-33.691,-26.367,-33.203,0.000,0
160832.963,-29.785,-32.227,-29.785,-16.113,0.000,0
160832.967,-33.691,-32.715,-36.133,-34.180,0.000,0
160832.971,-42.969,-32.227,-37.109,-39.062,0.000,0
160832.974,-35.645,-33.203,-37.598,-30.762,0.000,0
160832.978,-30.762,-30.273,-16.602,-23.438,0.000,0
160832.982,-29.785,-27.344,-30.762,-24.414,0.000,0
160832.986,-31.738,-26.367,-51.270,-15.137,0.000,0
160832.990,-29.297,-23.926,-37.109,-31.250,0.000,0
160832.994,-18.066,-23.926,-26.855,-25.879,0.000,0
160832.998,-12.207,-23.926,-21.484,-8.301,0.000,0
160833.002,-16.602,-24.414,-29.785,-12.695,0.000,0
160833.006,-19.531,-25.391,-25.879,-4.395,0.000,0
160833.010,-13.184,-23.926,-18.555,-20.508,0.000,0
160833.013,-14.160,-26.367,-28.320,-19.043,0.000,0
160833.017,-18.066,-28.809,-16.113,-22.461,0.000,0
160833.021,-29.297,-23.438,-20.020,-16.113,0.000,0
160833.025,-33.691,-23.438,-34.180,-5.859,0.000,0
160833.029,-31.738,-22.949,-25.391,-20.020,0.000,0
160833.033,-25.879,-20.020,-35.645,-8.301,0.000,0
160833.037,-22.949,-21.484,-23.926,-26.855,0.000,0
160833.041,-20.020,-20.996,-15.625,-63.477,0.000,0
160833.045,-18.555,-22.461,-32.715,-8.301,0.000,0
160833.049,-11.230,-24.902,-26.367,7.812,0.000,0
160833.053,-21.484,-24.902,-30.762,-21.973,0.000,0
160833.056,-28.809,-22.949,-24.414,-18.555,0.000,0
160833.060,-16.602,-23.438,-21.484,-28.320,0.000,0
160833.064,-22.949,-21.973,-30.762,-31.738,0.000,0
160833.068,-36.133,-20.996,-29.297,-34.180,0.000,0
160833.072,-21.484,-16.113,-42.480,-30.273,0.000,0
160833.076,-15.625,-18.066,-37.598,-23.926,0.000,0
160833.080,-22.461,-21.973,-10.742,-39.062,0.000,0
160833.084,-13.184,-17.578,-16.602,-28.809,0.000,0
160833.088,-11.230,-16.113,-34.180,-8.789,0.000,0
160833.092,-9.277,-14.160,-29.785,-3.418,0.000,0
160833.096,-16.113,-14.648,-9.277,-20.996,0.000,0
160833.099,-23.438,-15.137,-14.160,-26.367,0.000,0
160833.103,-18.555,-14.160,-34.668,-17.578,0.000,0
160833.107,-23.926,-20.508,-28.320,-27.832,0.000,0
160833.111,-25.391,-21.484,-22.461,-25.391,0.000,0
160833.115,-21.973,-23.438,-20.996,-13.672,0.000,0
160833.119,-28.320,-26.855,-31.738,-44.434,0.000,0
160833.123,-25.391,-25.391,-47.363,-37.109,0.000,0
160833.127,-41.504,-24.902,-25.879,-13.672,0.000,0
160833.131,-42.480,-20.508,-16.602,-15.625,0.000,0
160833.135,-26.855,-19.531,-34.180,-16.602,0.000,0
160833.138,-24.902,-24.414,-35.156,-31.738,0.000,0
160833.142,-20.020,-23.926,-36.133,-31.738,0.000,0
160833.146,-27.832,-24.902,-43.457,-14.648,0.000,0
160833.150,-37.598,-28.809,-60.547,-18.555,0.000,0
160833.154,-38.574,-28.809,-39.062,-38.086,0.000,0
160833.158,-30.273,-25.879,-12.207,-19.531,0.000,0
160833.162,-24.414,-25.391,-28.320,-3.906,0.000,0
160833.166,-21.484,-21.973,-41.504,-10.254,0.000,0
160833.170,-19.043,-20.020,-41.504,-10.742,0.000,0
160833.174,-30.273,-27.832,-17.578,-17.578,0.000,0
160833.178,-29.297,-29.297,-20.508,-33.203,0.000,0
160833.181,-13.672,-21.484,-32.715,-40.527,0.000,0
160833.185,-13.672,-16.602,-27.344,-27.344,0.000,0
160833.189,-17.578,-17.578,-34.180,-3.418,0.000,0
160833.193,-12.695,-21.484,-28.809,-6.348,0.000,0
160833.197,-18.066,-22.949,-18.066,-27.832,0.000,0
160833.201,-14.648,-20.508,-30.273,-5.371,0.000,0
160833.205,-9.277,-17.578,-28.809,-20.020,0.000,0
160833.209,-24.902,-19.531,-23.926,-24.902,0.000,0
160833.213,-25.879,-22.461,-26.855,-26.855,0.000,0
160833.217,-20.020,-20.508,-14.648,-36.133,0.000,0
160833.221,-25.391,-20.508,-25.391,-20.508,0.000,0
160833.224,-16.113,-18.066,-40.039,-36.621,0.000,0
160833.228,-15.137,-21.973,-29.297,-42.480,0.000,0
160833.232,-24.902,-25.391,-12.207,-7.324,0.000,0
160833.236,-29.785,-22.949,-22.461,-10.742,0.000,0
160833.240,-29.785,-26.855,-49.316,-32.227,0.000,0
160833.244,-29.785,-25.879,-34.180,-31.738,0.000,0
160833.248,-24.414,-20.508,-21.484,-34.668,0.000,0
160833.252,-24.902,-17.578,-30.273,-34.668,0.000,0
160833.256,-36.133,-17.578,-28.320,-33.203,0.000,0
160833.260,-37.598,-17.578,-23.926,-28.320,0.000,0
160833.263,-39.551,-19.531,-27.344,-2.930,0.000,0
160833.267,-32.715,-18.555,-38.574,-32.715,0.000,0
160833.271,-21.484,-19.531,-39.062,-48.340,0.000,0
160833.275,-25.391,-16.602,-18.066,-12.207,0.000,0
160833.279,-23.926,-16.113,-22.461,-27.344,0.000,0
160833.283,-21.484,-20.020,-37.598,-45.410,0.000,0
160833.287,-22.461,-17.578,-34.180,-30.762,0.000,0
160833.291,-18.066,-16.113,-20.020,-23.926,0.000,0
160833.295,-21.973,-20.508,-11.230,-38.574,0.000,0
160833.299,-28.809,-19.531,-18.555,-25.391,0.000,0
160833.303,-26.367,-20.996,-28.809,-14.160,0.000,0
160833.306,-23.438,-18.066,-20.508,-16.602,0.000,0
160833.310,-26.367,-13.184,-19.043,-11.230,0.000,0
160833.314,-27.344,-17.578,-26.367,-26.367,0.000,0
160833.318,-30.273,-22.461,-28.320,-58.105,0.000,0
160833.322,-28.320,-22.461,-34.180,-37.598,0.000,0
160833.326,-29.785,-23.438,-33.691,-1.465,0.000,0
160833.330,-25.391,-23.438,-38.086,-21.484,0.000,0
160833.334,-25.879,-26.367,-18.066,-44.434,0.000,0
160833.338,-27.832,-23.438,-24.414,-34.668,0.000,0
160833.342,-14.648,-18.066,-47.363,-20.020,0.000,0
160833.346,-22.949,-20.996,-27.344,-20.996,0.000,0
160833.349,-31.738,-20.508,-14.160,-19.043,0.000,0
160833.353,-20.020,-16.113,-7.812,-32.227,0.000,0
160833.357,-19.531,-17.090,-22.461,-36.621,0.000,0
160833.361,-26.855,-23.926,-42.969,-15.625,0.000,0
160833.365,-29.297,-27.344,-32.227,-31.250,0.000,0
160833.369,-18.066,-23.926,-25.879,-37.598,0.000,0
160833.373,-15.137,-23.438,-20.020,-35.645,0.000,0
160833.377,-27.344,-25.879,-19.531,-25.391,0.000,0
160833.381,-25.391,-28.809,-29.785,-12.207,0.000,0
160833.385,-17.578,-30.762,-31.738,-20.020,0.000,0
160833.388,-18.555,-31.738,-41.016,-15.625,0.000,0
160833.392,-24.414,-31.738,-24.902,-31.738,0.000,0
160833.396,-28.320,-31.250,-17.578,-30.762,0.000,0
160833.400,-26.855,-30.273,-43.945,-23.438,0.000,0
160833.404,-29.785,-31.250,-56.641,-21.973,0.000,0
160833.408,-24.414,-35.156,-52.246,-12.695,0.000,0
160833.412,-27.344,-36.133,-20.020,-34.180,0.000,0
160833.416,-27.344,-31.738,-18.066,-28.809,0.000,0
160833.420,-16.113,-31.738,-47.852,-41.504,0.000,0
160833.424,-26.855,-28.809,-37.598,-45.410,0.000,0
160833.428,-33.203,-28.320,-38.086,-1.465,0.000,0
160833.431,-29.785,-34.180,-29.297,-7.812,0.000,0
160833.435,-30.762,-32.227,-27.832,-24.902,0.000,0
160833.439,-35.156,-32.227,-47.363,-26.367,0.000,0
160833.443,-25.879,-28.809,-38.574,-11.230,0.000,0
160833.447,-13.184,-24.414,-42.480,-6.836,0.000,0
160833.451,-14.648,-24.902,-33.203,-16.113,0.000,0
160833.455,-18.555,-23.438,-11.719,-33.691,0.000,0
160833.459,-23.438,-19.531,-9.277,-21.973,0.000,0
160833.463,-22.461,-14.648,-17.578,-14.160,0.000,0
160833.467,-18.555,-16.113,-32.227,-22.461,0.000,0
160833.471,-24.902,-19.531,-19.043,-6.348,0.000,0
160833.474,-20.508,-22.949,-11.719,-4.883,0.000,0
160833.478,-22.461,-24.902,-31.738,-1.465,0.000,0
160833.482,-29.785,-25.879,-37.598,-15.137,0.000,0
160833.486,-31.250,-27.344,-31.250,-17.090,0.000,0
160833.490,-28.320,-24.902,-29.297,-19.043,0.000,0
160833.494,-29.785,-29.297,-37.109,-32.715,0.000,0
160833.498,-40.527,-31.250,-40.039,-31.250,0.000,0
160833.502,-41.016,-26.367,-30.762,-20.508,0.000,0
160833.506,-28.809,-22.949,-35.645,-10.254,0.000,0
160833.510,-25.391,-20.508,-33.203,-44.434,0.000,0
160833.513,-21.973,-16.113,-15.625,-35.645,0.000,0
160833.517,-10.742,-15.137,-29.297,6.836,0.000,0
160833.521,-19.043,-17.578,-37.598,0.977,0.000,0
160833.525,-18.066,-20.020,-35.156,-11.230,0.000,0
160833.529,-7.812,-20.508,-20.020,-19.531,0.000,0
160833.533,-10.254,-19.043,-8.301,-15.625,0.000,0
160833.537,-14.648,-18.066,-25.879,-10.742,0.000,0
160833.541,-21.484,-20.996,-32.227,-25.391,0.000,0
160833.545,-23.438,-21.973,-32.227,-23.438,0.000,0
160833.549,-17.090,-26.367,-19.531,-20.020,0.000,0
160833.553,-19.531,-31.738,-24.414,-34.668,0.000,0
160833.556,-23.926,-26.855,-50.293,-28.809,0.000,0
160833.560,-19.531,-21.973,-39.551,-12.695,0.000,0
160833.564,-11.719,-20.508,-16.113,3.418,0.000,0
160833.568,-14.648,-22.461,-24.902,-11.230,0.000,0
160833.572,-19.043,-20.020,-37.598,-34.668,0.000,0
160833.576,-8.789,-12.207,-25.879,-23.926,0.000,0
160833.580,-9.766,-10.742,-17.578,-2.930,0.000,0
160833.584,-21.973,-11.719,-27.344,-8.789,0.000,0
160833.588,-17.578,-10.742,-40.527,-6.348,0.000,0
160833.592,-13.184,-11.719,-17.090,-10.254,0.000,0
160833.596,-20.508,-14.160,-9.766,-17.578,0.000,0
160833.599,-16.113,-15.137,-30.762,1.465,0.000,0
160833.603,-0.488,-11.719,-30.273,-22.949,0.000,0
160833.607,-7.324,-11.719,-31.738,-11.719,0.000,0
160833.611,-10.742,-17.090,-22.461,0.488,0.000,0
160833.615,-9.277,-22.949,-33.203,-23.926,0.000,0
160833.619,-9.277,-20.996,-51.758,-9.277,0.000,0
160833.623,-12.207,-19.043,-40.527,-5.859,0.000,0
160833.627,-10.254,-16.113,-26.367,-18.066,0.000,0
160833.631,-12.207,-18.066,-21.484,-28.320,0.000,0
160833.635,-20.508,-21.973,-24.414,-26.855,0.000,0
160833.638,-17.578,-21.973,-27.832,-26.367,0.000,0
160833.642,-18.066,-24.902,-23.438,-53.711,0.000,0
160833.646,-16.602,-27.344,-36.621,-42.480,0.000,0
160833.650,-26.367,-32.715,-36.621,-26.855,0.000,0
160833.654,-23.438,-28.320,-24.414,-29.785,0.000,0
160833.658,-22.949,-22.461,-31.738,-35.156,0.000,0
160833.662,-33.691,-24.414,-28.809,-32.227,0.000,0
160833.666,-30.762,-28.320,-25.391,-12.695,0.000,0
160833.670,-31.250,-24.414,-24.902,-36.621,0.000,0
160833.674,-36.133,-20.996,-29.297,-37.109,0.000,0
160833.678,-35.156,-25.391,-30.273,-27.832,0.000,0
160833.681,-21.484,-22.949,-20.508,-19.531,0.000,0
160833.685,-17.090,-20.508,-24.414,-20.020,0.000,0
160833.689,-18.555,-20.020,-32.715,-35.156,0.000,0
160833.693,-25.391,-20.996,-28.809,-31.250,0.000,0
160833.697,-20.508,-20.996,-27.344,-9.766,0.000,0
160833.701,-18.066,-20.508,-29.297,-17.090,0.000,0
160833.705,-13.184,-21.484,-34.668,-17.090,0.000,0
160833.709,-23.926,-25.391,-26.367,-14.160,0.000,0
160833.713,-24.414,-32.227,-25.391,-27.344,0.000,0
160833.717,-8.301,-28.809,-33.691,-15.625,0.000,0
160833.721,-20.020,-17.578,-36.133,-22.461,0.000,0
160833.724,-29.297,-15.137,-36.621,-39.062,0.000,0
160833.728,-42.480,-19.043,-25.879,-48.340,0.000,0
160833.732,-38.086,-20.020,-35.645,-57.129,0.000,0
160833.736,-37.109,-22.461,-60.547,-60.059,0.000,0
160833.740,-48.828,-22.949,-53.223,-38.086,0.000,0
160833.744,-32.227,-23.926,-21.973,-35.645,0.000,0
160833.748,-22.949,-27.832,-23.438,-51.270,0.000,0
160833.752,-30.273,-26.855,-48.828,-36.621,0.000,0
160833.756,-29.785,-22.461,-47.852,-32.227,0.000,0
160833.760,-31.738,-24.902,-43.945,-28.809,0.000,0
160833.763,-30.762,-26.855,-49.316,-21.484,0.000,0
160833.767,-15.137,-19.531,-28.320,-26.855,0.000,0
160833.771,-18.555,-18.066,-12.695,-35.156,0.000,0
160833.775,-25.391,-31.250,-41.504,-44.922,0.000,0
160833.779,-21.973,-40.039,-49.316,-28.809,0.000,0
160833.783,-21.973,-37.109,-50.293,-36.621,0.000,0
160833.787,-22.461,-34.668,-27.344,-42.969,0.000,0
160833.791,-26.855,-30.273,-13.184,-35.645,0.000,0
160833.795,-21.973,-29.785,-47.363,-39.551,0.000,0
160833.799,-13.672,-32.227,-47.363,-12.695,0.000,0
160833.803,-20.996,-28.809,-34.180,-6.836,0.000,0
160833.806,-18.555,-27.832,-19.043,-25.391,0.000,0
160833.810,-12.695,-28.809,-12.695,-23.926,0.000,0
160833.814,-18.066,-27.344,-25.879,-27.832,0.000,0
160833.818,-22.461,-26.367,-25.879,-31.250,0.000,0
160833.822,-23.438,-29.785,-49.316,-42.480,0.000,0
160833.826,-23.926,-33.691,-51.758,-43.457,0.000,0
160833.830,-20.996,-36.133,-28.809,-22.949,0.000,0
160833.834,-30.273,-37.598,-29.785,-30.762,0.000,0
160833.838,-30.273,-36.133,-45.898,-21.973,0.000,0
160833.842,-25.391,-33.691,-39.062,-30.273,0.000,0
160833.846,-28.809,-33.203,-17.090,-50.781,0.000,0
160833.849,-20.508,-28.809,-22.949,-40.039,0.000,0
160833.853,-27.344,-27.832,-48.340,-32.715,0.000,0
160833.857,-31.738,-28.320,-58.105,-37.598,0.000,0
160833.861,-21.484,-29.785,-48.340,-41.992,0.000,0
160833.865,-32.715,-29.785,-36.621,-26.367,0.000,0
160833.869,-37.598,-23.438,-46.387,-21.484,0.000,0
160833.873,-30.762,-22.461,-62.012,-27.344,0.000,0
160833.877,-31.250,-23.926,-33.203,-29.785,0.000,0
160833.881,-22.461,-15.625,-14.160,-28.320,0.000,0
160833.885,-25.879,-16.602,-27.832,-16.602,0.000,0
160833.888,-27.832,-21.973,-23.926,-24.902,0.000,0
160833.892,-19.531,-21.973,-27.344,-36.621,0.000,0
160833.896,-21.484,-21.484,-30.762,-27.344,0.000,0
160833.900,-10.254,-18.066,-36.621,-24.902,0.000,0
160833.904,-19.043,-19.043,-30.762,-28.809,0.000,0
160833.908,-26.367,-20.508,-19.043,-21.973,0.000,0
160833.912,-16.602,-20.020,-31.738,-4.883,0.000,0
160833.916,-20.020,-18.555,-39.551,-8.301,0.000,0
160833.920,-19.043,-17.090,-34.180,-34.668,0.000,0
160833.924,-20.508,-21.484,-26.855,-21.973,0.000,0
160833.928,-21.973,-26.367,-29.785,-20.020,0.000,0
160833.931,-19.043,-22.949,-28.809,-23.438,0.000,0
160833.935,-20.508,-17.090,-18.066,-7.324,0.000,0
160833.939,-16.602,-21.484,-19.043,-11.719,0.000,0
160833.943,-11.719,-23.438,-19.531,-16.113,0.000,0
160833.947,-14.160,-22.461,-6.836,-34.180,0.000,0
160833.951,-27.832,-28.320,-17.090,-55.664,0.000,0
160833.955,-29.785,-30.762,-41.504,-33.691,0.000,0
160833.959,-25.879,-25.879,-24.414,-2.930,0.000,0
160833.963,-27.344,-24.902,-26.367,0.488,0.000,0
160833.967,-21.484,-21.484,-16.113,-16.602,0.000,0
160833.971,-24.414,-19.043,-8.301,-17.090,0.000,0
160833.974,-21.484,-24.414,-34.668,-14.648,0.000,0
160833.978,-29.785,-24.414,-29.785,-20.508,0.000,0
160833.982,-33.691,-25.391,-24.902,-24.902,0.000,0
160833.986,-27.344,-21.973,-29.297,-32.227,0.000,0
160833.990,-28.809,-18.555,-30.762,-50.781,0.000,0
160833.994,-20.020,-19.531,-28.809,-32.227,0.000,0
160833.998,-20.508,-25.879,-26.367,-5.859,0.000,0
160834.002,-29.297,-27.832,-29.297,-0.977,0.000,0
160834.006,-8.789,-20.996,-14.648,-15.625,0.000,0
160834.010,13.184,-18.066,-12.695,-8.301,0.000,0
160834.013,-22.949,-20.508,-25.391,-8.789,0.000,0
160834.017,-53.711,-26.367,-36.133,-34.668,0.000,0
160834.021,-28.809,-17.578,-34.180,-36.133,0.000,0
160834.025,-33.691,-15.625,-13.184,-40.039,0.000,0
160834.029,-39.551,-29.297,-24.414,-36.133,0.000,0
160834.033,-34.668,-28.320,-40.039,-56.641,0.000,0
160834.037,-48.828,-23.926,-38.086,-51.758,0.000,0
160834.041,-45.898,-24.414,-26.855,-38.574,0.000,0
160834.045,-33.691,-21.484,-2.930,-44.434,0.000,0
160834.049,-25.879,-20.996,-12.207,-16.113,0.000,0
160834.053,-39.062,-20.508,-28.809,-23.926,0.000,0
160834.056,-38.086,-18.066,-20.508,-45.410,0.000,0
160834.060,-33.203,-19.531,-23.926,-22.949,0.000,0
160834.064,-23.926,-23.926,-22.949,-22.949,0.000,0
160834.068,-12.695,-23.438,-20.996,-27.344,0.000,0
160834.072,-25.391,-19.531,-23.438,-34.668,0.000,0
160834.076,-23.926,-19.043,-25.879,-26.367,0.000,0
160834.080,-12.695,-21.484,-35.645,-12.207,0.000,0
160834.084,-20.020,-18.066,-15.137,-42.480,0.000,0
160834.088,-29.785,-16.113,-9.277,-38.086,0.000,0
160834.092,-24.902,-22.461,-36.621,-24.414,0.000,0
160834.096,-23.926,-21.484,-35.645,-38.574,0.000,0
160834.099,-17.090,-18.555,-21.484,-26.855,0.000,0
160834.103,-23.438,-24.902,-15.625,-32.227,0.000,0
160834.107,-31.250,-26.855,-26.855,-50.293,0.000,0
160834.111,-21.973,-26.855,-47.363,-25.391,0.000,0
160834.115,-21.973,-26.855,-36.621,-16.602,0.000,0
160834.119,-27.832,-21.973,-33.691,-12.695,0.000,0
160834.123,-35.645,-20.996,-26.367,-43.945,0.000,0
160834.127,-34.668,-20.020,-14.648,-41.992,0.000,0
160834.131,-26.367,-20.996,-24.414,-7.324,0.000,0
160834.135,-29.785,-22.949,-28.320,-19.043,0.000,0
160834.138,-29.297,-19.043,-37.598,-45.410,0.000,0
160834.142,-20.508,-17.090,-29.785,-35.645,0.000,0
160834.146,-18.555,-16.602,-11.719,-18.066,0.000,0
160834.150,-25.391,-14.648,-17.578,-40.039,0.000,0
160834.154,-25.391,-20.996,-48.340,-37.598,0.000,0
160834.158,-26.367,-25.391,-49.316,-28.809,0.000,0
160834.162,-24.414,-23.438,-11.719,-47.852,0.000,0
160834.166,-21.973,-25.879,-15.625,-44.434,0.000,0
160834.170,-28.320,-27.832,-41.992,-36.621,0.000,0
160834.174,-20.996,-28.320,-42.480,-30.273,0.000,0
160834.178,-22.949,-28.809,-39.551,-26.367,0.000,0
160834.181,-33.691,-24.902,-25.391,-34.180,0.000,0
160834.185,-25.879,-22.949,-20.020,-26.855,0.000,0
160834.189,-25.391,-21.484,-32.227,-30.762,0.000,0
160834.193,-33.203,-25.879,-25.879,-34.668,0.000,0
160834.197,-21.484,-24.414,-32.227,-31.738,0.000,0
160834.201,-20.508,-22.949,-36.133,-19.043,0.000,0
160834.205,-35.645,-27.344,-20.508,-20.508,0.000,0
160834.209,-34.180,-23.926,-17.578,-26.855,0.000,0
160834.213,-39.551,-30.273,-34.668,-40.527,0.000,0
160834.217,-41.016,-36.621,-44.434,-31.738,0.000,0
160834.221,-35.645,-33.691,-34.668,-43.457,0.000,0
160834.224,-30.273,-30.273,-27.344,-48.340,0.000,0
160834.228,-29.297,-28.320,-41.016,-6.836,0.000,0
160834.232,-31.250,-31.250,-42.969,-10.742,0.000,0
160834.236,-32.715,-29.297,-33.691,-22.949,0.000,0
160834.240,-36.133,-26.367,-28.809,-27.832,0.000,0
160834.244,-36.133,-27.344,-35.156,-38.574,0.000,0
160834.248,-30.762,-28.809,-43.457,-47.363,0.000,0
160834.252,-27.344,-30.762,-26.855,-32.715,0.000,0
160834.256,-29.297,-32.227,-26.367,-44.434,0.000,0
160834.260,-23.926,-32.227,-33.203,-47.852,0.000,0
160834.263,-23.438,-31.738,-23.926,-13.184,0.000,0
160834.267,-21.973,-28.320,-30.762,-18.555,0.000,0
160834.271,-19.531,-25.391,-32.715,-21.484,0.000,0
160834.275,-25.391,-25.391,-29.297,-28.320,0.000,0
160834.279,-30.762,-25.879,-25.391,-18.066,0.000,0
160834.283,-31.738,-22.949,-18.555,-31.250,0.000,0
160834.287,-26.367,-19.531,-20.996,-43.457,0.000,0
160834.291,-22.461,-22.949,-38.574,-4.883,0.000,0
160834.295,-15.137,-20.020,-40.039,-13.184,0.000,0
160834.299,-23.438,-13.184,-9.277,-29.297,0.000,0
160834.303,-27.832,-18.555,-15.625,-35.156,0.000,0
160834.306,-20.996,-17.578,-32.227,-28.809,0.000,0
160834.310,-23.438,-12.695,-19.043,-49.805,0.000,0
160834.314,-28.320,-9.766,-16.113,-34.180,0.000,0
160834.318,-23.926,-12.695,-31.738,1.953,0.000,0
160834.322,-19.043,-20.020,-24.414,-26.855,0.000,0
160834.326,-20.020,-15.625,-20.020,-14.160,0.000,0
160834.330,-18.066,-12.207,-21.973,-4.883,0.000,0
160834.334,-33.691,-15.137,-20.508,-27.832,0.000,0
160834.338,-31.738,-19.043,-35.645,-29.297,0.000,0
160834.342,-14.160,-18.555,-16.113,-19.043,0.000,0
160834.346,-11.719,-11.719,-1.465,-52.246,0.000,0
160834.349,-20.996,-18.066,-24.902,-51.758,0.000,0
160834.353,-17.090,-21.484,-36.621,-22.949,0.000,0
160834.357,2.930,-20.508,-34.668,-17.090,0.000,0
160834.361,-3.906,-23.926,-1.465,-17.578,0.000,0
160834.365,-7.324,-20.996,-13.184,-2.930,0.000,0
160834.369,-5.371,-25.391,-53.223,11.230,0.000,0
160834.373,-13.672,-22.949,-33.691,-5.859,0.000,0
160834.377,-23.438,-22.461,-20.508,-18.555,0.000,0
160834.381,-16.602,-25.879,-21.484,-18.066,0.000,0
160834.385,-26.855,-22.949,-28.809,-25.879,0.000,0
160834.388,-44.434,-23.926,-36.621,-32.715,0.000,0
160834.392,-33.691,-27.344,-44.922,-27.832,0.000,0
160834.396,-23.438,-30.762,-33.203,-42.969,0.000,0
160834.400,-22.461,-31.250,-17.578,-28.809,0.000,0
160834.404,-23.926,-30.273,-39.062,-17.578,0.000,0
160834.408,-23.926,-29.297,-40.039,-23.438,0.000,0
160834.412,-24.902,-27.344,-27.344,-14.648,0.000,0
160834.416,-26.855,-27.344,-23.438,-7.812,0.000,0
160834.420,-30.273,-27.832,-22.949,-25.879,0.000,0
160834.424,-21.973,-27.344,-34.180,-29.785,0.000,0
160834.428,-21.484,-30.762,-31.738,-54.688,0.000,0
160834.431,-23.926,-29.785,-25.879,-52.246,0.000,0
160834.435,-19.043,-25.879,-35.645,-14.160,0.000,0
160834.439,-18.555,-25.391,-18.555,-35.156,0.000,0
160834.443,-18.066,-22.461,-19.531,-41.992,0.000,0
160834.447,-11.719,-23.438,-33.203,-41.504,0.000,0
160834.451,-16.113,-25.391,-35.156,-30.273,0.000,0
160834.455,-22.949,-27.344,-39.062,-27.344,0.000,0
160834.459,-26.855,-34.668,-23.926,-39.062,0.000,0
160834.463,-27.344,-28.809,-9.277,-36.621,0.000,0
160834.467,-26.367,-22.949,-37.109,-30.762,0.000,0
160834.471,-21.484,-27.832,-59.082,-25.391,0.000,0
160834.474,-21.973,-22.949,-30.762,-16.602,0.000,0
160834.478,-23.926,-22.949,2.930,-58.105,0.000,0
160834.482,-17.578,-23.438,-9.277,-87.402,0.000,0
160834.486,-24.902,-20.508,-42.480,-25.391,0.000,0
160834.490,-30.273,-25.879,-33.203,-14.648,0.000,0
160834.494,-24.902,-26.855,-27.832,-23.438,0.000,0
160834.498,-27.344,-27.344,-15.137,-25.879,0.000,0
160834.502,-31.738,-24.414,-19.043,-17.578,0.000,0
160834.506,-26.855,-20.508,-34.668,-7.324,0.000,0
160834.510,-8.789,-21.973,-33.691,-11.719,0.000,0
160834.513,-12.207,-18.066,-31.738,-26.855,0.000,0
160834.517,-32.715,-17.090,-29.297,-40.527,0.000,0
160834.521,-30.762,-17.090,-32.227,-29.785,0.000,0
160834.525,-32.227,-21.973,-35.645,-31.738,0.000,0
160834.529,-42.969,-31.738,-55.664,-54.199,0.000,0
160834.533,-41.992,-33.203,-56.152,-38.574,0.000,0
160834.537,-39.062,-30.762,-18.066,-40.039,0.000,0
160834.541,-26.855,-30.273,-30.762,-33.691,0.000,0
160834.545,-21.484,-31.738,-45.410,-35.156,0.000,0
160834.549,-30.762,-31.738,-36.133,-36.133,0.000,0
160834.553,-36.133,-31.738,-38.086,-20.996,0.000,0
160834.556,-25.391,-30.273,-26.855,-27.344,0.000,0
160834.560,-17.578,-24.414,-20.996,-44.434,0.000,0
160834.564,-28.320,-25.879,-25.391,-40.527,0.000,0
160834.568,-32.227,-30.273,-42.969,-10.254,0.000,0
160834.572,-34.668,-29.297,-57.617,-25.391,0.000,0
160834.576,-30.762,-26.367,-46.387,-26.855,0.000,0
160834.580,-24.414,-24.414,-30.762,-4.395,0.000,0
160834.584,-33.203,-21.484,-31.250,-25.391,0.000,0
160834.588,-27.344,-22.949,-38.086,-16.602,0.000,0
160834.592,-18.066,-25.391,-29.785,-15.137,0.000,0
160834.596,-26.367,-21.973,-20.508,-35.156,0.000,0
160834.599,-31.250,-25.391,-27.832,-61.523,0.000,0
160834.603,-33.691,-29.297,-43.945,-41.016,0.000,0
160834.607,-30.273,-24.902,-34.668,-11.230,0.000,0
160834.611,-32.715,-20.996,-23.926,-15.625,0.000,0
160834.615,-37.598,-21.484,-26.855,-18.066,0.000,0
160834.619,-36.133,-21.484,-31.738,-38.086,0.000,0
160834.623,-28.320,-18.555,-23.438,-62.012,0.000,0
160834.627,-31.738,-13.184,-10.254,-39.551,0.000,0
160834.631,-30.762,-12.695,-32.715,-25.879,0.000,0
160834.635,-23.438,-21.484,-37.109,-35.645,0.000,0
160834.638,-29.297,-23.926,-25.879,-40.527,0.000,0
160834.642,-26.367,-24.902,-30.762,-36.133,0.000,0
160834.646,-19.531,-28.809,-36.133,-18.066,0.000,0
160834.650,-19.531,-22.949,-36.621,-17.578,0.000,0
160834.654,-23.438,-20.508,-27.832,-34.180,0.000,0
160834.658,-23.926,-23.438,-21.484,-41.992,0.000,0
160834.662,-25.879,-19.531,-24.414,-33.203,0.000,0
160834.666,-30.762,-20.508,-32.227,-28.320,0.000,0
160834.670,-36.621,-19.531,-30.273,-11.719,0.000,0
160834.674,-33.691,-14.160,-23.438,-14.648,0.000,0
160834.678,-30.762,-20.020,-24.902,-50.781,0.000,0
160834.681,-28.809,-21.973,-30.762,-38.086,0.000,0
160834.685,-18.555,-15.625,-27.832,-3.906,0.000,0
160834.689,-16.602,-17.578,-26.855,-6.836,0.000,0
160834.693,-19.531,-25.879,-20.996,-10.742,0.000,0
160834.697,-19.531,-28.809,-10.254,-24.414,0.000,0
160834.701,-17.578,-25.391,-18.555,-42.480,0.000,0
160834.705,-21.484,-22.461,-23.926,-33.691,0.000,0
160834.709,-31.250,-25.879,-28.809,-21.484,0.000,0
160834.713,-29.297,-30.762,-28.809,-12.695,0.000,0
160834.717,-24.414,-27.832,-8.301,-43.945,0.000,0
160834.721,-21.484,-28.320,-36.133,-39.062,0.000,0
160834.724,-25.391,-29.785,-42.969,-13.184,0.000,0
160834.728,-33.203,-32.227,-30.273,-27.344,0.000,0
160834.732,-28.809,-30.273,-25.879,-31.738,0.000,0
160834.736,-26.367,-24.414,-15.137,-26.367,0.000,0
160834.740,-35.645,-24.414,-30.762,-41.016,0.000,0
160834.744,-31.250,-27.344,-41.504,-51.270,0.000,0
160834.748,-24.414,-24.414,-38.574,-33.203,0.000,0
160834.752,-31.250,-26.367,-37.598,-27.344,0.000,0
160834.756,-40.527,-27.832,-28.320,-54.688,0.000,0
160834.760,-34.180,-25.879,-21.484,-37.598,0.000,0
160834.763,-31.738,-24.414,-21.484,-48.828,0.000,0
160834.767,-30.273,-22.461,-29.297,-47.363,0.000,0
160834.771,-27.344,-26.367,-23.438,-21.973,0.000,0
160834.775,-26.367,-26.367,-7.324,-25.879,0.000,0
160834.779,-33.203,-28.809,-19.043,-10.742,0.000,0
160834.783,-33.203,-28.809,-35.645,-18.555,0.000,0
160834.787,-21.484,-23.438,-33.203,-20.020,0.000,0
160834.791,-25.391,-28.809,-20.020,-14.648,0.000,0
160834.795,-22.949,-31.250,-7.324,-38.086,0.000,0
160834.799,-30.273,-29.785,-25.879,-19.043,0.000,0
160834.803,-35.645,-26.367,-28.809,-14.648,0.000,0
160834.806,-35.645,-26.367,-15.137,-49.805,0.000,0
160834.810,-33.691,-28.320,-27.344,-23.926,0.000,0
160834.814,-24.902,-26.367,-13.672,-11.719,0.000,0
160834.818,-23.438,-27.344,-17.090,-23.926,0.000,0
160834.822,-20.996,-20.508,-30.762,-31.250,0.000,0
160834.826,-17.090,-15.137,-22.949,-4.395,0.000,0
160834.830,-17.090,-18.066,-25.391,6.836,0.000,0
160834.834,-22.461,-20.020,-26.367,-25.391,0.000,0
160834.838,-25.879,-18.555,-27.832,-43.945,0.000,0
160834.842,-17.578,-21.973,-22.461,-38.574,0.000,0
160834.846,-15.625,-24.902,-15.137,-30.273,0.000,0
160834.849,-28.809,-26.855,-36.621,-22.949,0.000,0
160834.853,-35.156,-26.367,-29.297,-44.922,0.000,0
160834.857,-41.992,-24.902,-28.320,-37.598,0.000,0
160834.861,-19.531,-21.973,-44.434,-15.625,0.000,0
160834.865,-0.488,-17.578,-26.367,-5.859,0.000,0
160834.869,-8.301,-18.555,-19.531,-8.301,0.000,0
160834.873,-11.719,-24.414,-21.973,-13.672,0.000,0
160834.877,-8.301,-25.391,-30.273,-16.113,0.000,0
160834.881,-11.719,-20.996,-25.879,-44.434,0.000,0
160834.885,-12.695,-20.508,-30.273,-27.832,0.000,0
160834.888,-9.766,-19.043,-37.109,0.977,0.000,0
160834.892,-14.648,-22.461,-25.391,-35.156,0.000,0
160834.896,-24.902,-23.926,-27.344,-41.992,0.000,0
160834.900,-13.184,-19.531,-37.598,-2.441,0.000,0
160834.904,-13.672,-20.508,-55.176,-16.113,0.000,0
160834.908,-23.438,-22.461,-43.945,-45.898,0.000,0
160834.912,-30.273,-22.949,-12.695,-27.344,0.000,0
160834.916,-35.156,-21.484,-22.949,-20.508,0.000,0
160834.920,-24.902,-23.438,-47.363,-36.133,0.000,0
160834.924,-26.367,-25.879,-46.875,-44.434,0.000,0
160834.928,-24.902,-18.555,-27.832,-12.695,0.000,0
160834.931,-22.949,-18.066,-18.555,-14.648,0.000,0
160834.935,-31.738,-20.996,-31.250,-13.184,0.000,0
160834.939,-26.367,-20.996,-30.273,-12.207,0.000,0
160834.943,-16.113,-22.949,-17.090,-29.297,0.000,0
160834.947,-9.766,-20.020,-32.715,-12.695,0.000,0
160834.951,-9.766,-20.020,-34.668,-25.391,0.000,0
160834.955,-10.742,-19.043,-4.883,-28.320,0.000,0
160834.959,-19.531,-17.090,-3.418,-21.484,0.000,0
160834.963,-18.555,-22.461,-33.691,-16.113,0.000,0
160834.967,-16.113,-23.926,-32.715,-9.766,0.000,0
160834.971,-31.250,-24.902,-21.973,-28.809,0.000,0
160834.974,-33.203,-24.902,-25.391,-35.645,0.000,0
160834.978,-20.020,-24.414,-27.832,-31.738,0.000,0
160834.982,-20.996,-26.855,-30.762,-39.551,0.000,0
160834.986,-21.973,-25.879,-38.086,-18.555,0.000,0
160834.990,-25.879,-21.973,-29.785,-12.695,0.000,0
160834.994,-24.902,-20.996,-26.367,-17.578,0.000,0
160834.998,-23.926,-23.926,-37.109,-24.414,0.000,0
160835.002,-30.762,-20.508,-18.066,-25.391,0.000,0
160835.006,-32.227,-20.996,-24.414,-8.789,0.000,0
160835.010,-33.691,-17.090,-25.391,-16.113,0.000,0
160835.013,-29.785,-19.043,-16.602,-22.461,0.000,0
160835.017,-28.320,-26.855,-32.715,-38.086,0.000,0
160835.021,-32.227,-26.367,-31.738,-56.641,0.000,0
160835.025,-23.438,-22.949,-28.320,-7.812,0.000,0
160835.029,-21.973,-23.926,-20.020,4.883,0.000,0
160835.033,-36.621,-26.855,-14.160,-27.832,0.000,0
160835.037,-34.180,-26.855,-38.086,-26.367,0.000,0
160835.041,-29.785,-27.832,-41.992,-14.648,0.000,0
160835.045,-37.598,-29.785,-25.879,-20.508,0.000,0
160835.049,-40.039,-26.855,-20.508,-9.766,0.000,0
160835.053,-31.250,-26.367,-32.715,-13.184,0.000,0
160835.056,-31.738,-28.320,-37.109,-37.109,0.000,0
160835.060,-33.203,-27.344,-23.926,-51.270,0.000,0
160835.064,-27.344,-22.949,-38.086,-29.297,0.000,0
160835.068,-28.809,-20.020,-40.527,-10.254,0.000,0
160835.072,-34.668,-25.879,-21.973,-24.414,0.000,0
160835.076,-36.133,-28.320,-29.785,-24.902,0.000,0
160835.080,-40.039,-30.762,-30.273,-31.250,0.000,0
160835.084,-45.410,-25.879,-31.250,-25.879,0.000,0
160835.088,-45.410,-21.484,-22.949,-15.137,0.000,0
160835.092,-35.156,-26.855,-4.883,-32.227,0.000,0
160835.096,-25.391,-31.738,-29.785,-35.645,0.000,0
160835.099,-23.926,-30.762,-41.016,-30.273,0.000,0
160835.103,-42.969,-27.344,-44.434,-37.598,0.000,0
160835.107,-37.109,-24.414,-34.668,-32.715,0.000,0
160835.111,-26.855,-25.391,-18.066,-20.020,0.000,0
160835.115,-28.809,-27.344,-34.668,-25.391,0.000,0
160835.119,-32.227,-31.738,-33.691,-37.598,0.000,0
160835.123,-26.855,-35.156,-26.855,-26.367,0.000,0
160835.127,-29.297,-34.668,-30.762,-29.785,0.000,0
160835.131,-51.270,-34.668,-28.320,-45.898,0.000,0
160835.135,-34.668,-36.133,-37.598,-41.992,0.000,0
160835.138,-15.625,-33.691,-38.574,-19.043,0.000,0
160835.142,-10.742,-33.691,-41.992,-14.648,0.000,0
160835.146,-11.719,-36.621,-39.062,-23.926,0.000,0
160835.150,-20.020,-36.621,-14.160,-47.363,0.000,0
160835.154,-10.742,-28.320,-31.250,-39.551,0.000,0
160835.158,-12.207,-29.297,-47.363,-7.812,0.000,0
160835.162,-15.137,-27.344,-31.738,-14.160,0.000,0
160835.166,-17.090,-26.367,-20.996,-3.418,0.000,0
160835.170,-26.367,-33.203,-19.043,-21.484,0.000,0
160835.174,-11.230,-30.273,-27.344,-26.855,0.000,0
160835.178,-17.090,-25.391,-32.715,-17.090,0.000,0
160835.181,-44.922,-25.879,-16.113,-28.320,0.000,0
160835.185,-38.574,-25.879,-38.086,-36.133,0.000,0
160835.189,-36.621,-28.320,-52.246,-52.246,0.000,0
160835.193,-40.039,-28.320,-37.109,-59.082,0.000,0
160835.197,-29.297,-23.438,-27.832,-17.578,0.000,0
160835.201,-20.996,-21.484,-29.785,-14.648,0.000,0
160835.205,-12.695,-20.508,-32.227,-21.973,0.000,0
160835.209,-14.648,-19.043,-8.301,-18.066,0.000,0
160835.213,-19.043,-13.672,-8.789,-23.926,0.000,0
160835.217,-10.254,-14.648,-38.574,-24.414,0.000,0
160835.221,-10.254,-16.113,-36.133,-15.137,0.000,0
160835.224,-18.066,-12.207,-12.695,-14.160,0.000,0
160835.228,-17.090,-11.230,2.930,-23.926,0.000,0
160835.232,-14.648,-14.648,-14.160,-25.879,0.000,0
160835.236,-13.184,-15.137,-27.344,-45.898,0.000,0
160835.240,-21.484,-19.531,-23.438,-0.977,0.000,0
160835.244,-32.715,-21.484,-28.320,2.930,0.000,0
160835.248,-30.762,-22.949,-27.832,-20.996,0.000,0
160835.252,-39.551,-27.344,-29.785,-20.020,0.000,0
160835.256,-55.664,-27.344,-39.062,-30.762,0.000,0
160835.260,-30.273,-26.855,-41.016,-27.832,0.000,0
160835.263,-8.301,-20.996,-33.203,-20.020,0.000,0
160835.267,-24.414,-20.508,-30.762,-49.805,0.000,0
160835.271,-32.227,-23.926,-27.344,-42.969,0.000,0
160835.275,-30.273,-20.020,-31.738,-15.625,0.000,0
160835.279,-30.762,-21.484,-41.992,-20.508,0.000,0
160835.283,-28.320,-23.438,-45.410,-35.645,0.000,0
160835.287,-30.762,-20.020,-24.902,-17.578,0.000,0
160835.291,-22.461,-20.020,-30.273,-15.625,0.000,0
160835.295,-26.367,-25.879,-37.598,-22.461,0.000,0
160835.299,-23.926,-27.344,-30.762,-27.344,0.000,0
160835.303,-18.066,-23.438,-39.062,-17.578,0.000,0
160835.306,-26.855,-22.461,-40.527,-22.461,0.000,0
160835.310,-23.438,-20.996,-31.250,-24.414,0.000,0
160835.314,-20.996,-21.484,-33.691,-35.645,0.000,0
160835.318,-28.320,-23.926,-45.898,-25.879,0.000,0
160835.322,-25.391,-24.902,-58.105,-17.090,0.000,0
160835.326,-22.949,-24.414,-45.898,-14.648,0.000,0
160835.330,-27.344,-26.855,-27.832,-27.832,0.000,0
160835.334,-25.879,-27.832,-36.133,-58.594,0.000,0
160835.338,-29.785,-26.855,-49.805,-35.156,0.000,0
160835.342,-32.715,-24.414,-48.828,-10.254,0.000,0
160835.346,-32.227,-21.973,-33.203,-19.043,0.000,0
160835.349,-20.508,-24.414,-31.250,-26.855,0.000,0
160835.353,-22.949,-27.832,-55.176,-21.484,0.000,0
160835.357,-30.273,-24.902,-50.293,-3.906,0.000,0
160835.361,-15.137,-19.043,-28.809,-5.371,0.000,0
160835.365,-21.484,-17.090,-26.367,-18.555,0.000,0
160835.369,-20.020,-23.926,-38.086,-17.578,0.000,0
160835.373,-22.461,-25.391,-49.805,-16.113,0.000,0
160835.377,-32.227,-23.926,-23.438,-19.043,0.000,0
160835.381,-23.438,-25.879,-35.156,-10.742,0.000,0
160835.385,-21.484,-25.391,-43.945,-22.461,0.000,0
160835.388,-26.855,-21.973,-35.156,-24.902,0.000,0
160835.392,-22.461,-20.020,-47.852,-0.488,0.000,0
160835.396,-14.648,-18.066,-51.270,-6.348,0.000,0
160835.400,-20.508,-19.043,-49.805,-12.695,0.000,0
160835.404,-28.809,-22.949,-27.344,-29.785,0.000,0
160835.408,-24.414,-21.484,-21.973,-40.039,0.000,0
160835.412,-23.926,-19.531,-32.227,-16.602,0.000,0
160835.416,-31.250,-17.090,-42.969,-23.438,0.000,0
160835.420,-30.273,-13.184,-41.016,-37.598,0.000,0
160835.424,-25.391,-20.508,-26.855,-28.809,0.000,0
160835.428,-24.414,-22.949,-35.156,-25.879,0.000,0
160835.431,-26.855,-21.484,-42.969,-12.207,0.000,0
160835.435,-30.273,-21.484,-41.504,-24.902,0.000,0
160835.439,-27.832,-23.926,-49.805,-26.367,0.000,0
160835.443,-25.391,-30.762,-36.621,-22.949,0.000,0
160835.447,-24.902,-29.297,-25.391,-25.391,0.000,0
160835.451,-20.020,-27.344,-47.363,-28.320,0.000,0
160835.455,-23.926,-29.785,-51.758,-28.809,0.000,0
160835.459,-33.203,-31.250,-39.551,-16.113,0.000,0
160835.463,-31.738,-31.738,-15.625,-31.738,0.000,0
160835.467,-32.227,-25.879,-14.160,-51.270,0.000,0
160835.471,-28.320,-25.391,-43.457,-32.715,0.000,0
160835.474,-16.113,-27.832,-31.250,-20.508,0.000,0
160835.478,-22.461,-28.320,-33.691,-28.809,0.000,0
160835.482,-25.879,-25.391,-37.109,-24.414,0.000,0
160835.486,-24.414,-26.855,-20.508,-39.062,0.000,0
160835.490,-21.973,-25.879,-38.574,-27.344,0.000,0
160835.494,-14.648,-21.484,-46.875,-7.812,0.000,0
160835.498,-17.578,-24.414,-39.062,-14.648,0.000,0
160835.502,-19.043,-22.461,-33.691,-25.391,0.000,0
160835.506,-28.809,-21.484,-25.879,-40.527,0.000,0
160835.510,-24.414,-18.555,-18.555,-30.273,0.000,0
160835.513,-11.719,-17.090,-19.531,-41.016,0.000,0
160835.517,-15.137,-19.531,-41.504,-31.250,0.000,0
160835.521,-17.578,-16.602,-23.438,7.324,0.000,0
160835.525,-12.695,-16.113,-5.859,-4.883,0.000,0
160835.529,-5.371,-18.555,-31.250,-10.742,0.000,0
160835.533,-7.812,-24.414,-38.086,0.000,0.000,0
160835.537,-16.602,-25.391,-27.344,-21.484,0.000,0
160835.541,-18.555,-22.461,-14.648,-31.250,0.000,0
160835.545,-16.602,-22.461,-16.602,-20.020,0.000,0
160835.549,-19.043,-24.902,-28.320,-39.551,0.000,0
160835.553,-24.902,-23.438,-18.555,-26.367,0.000,0
160835.556,-17.578,-16.113,-20.020,-3.418,0.000,0
160835.560,-13.184,-20.996,-34.668,-16.602,0.000,0
160835.564,-27.344,-25.391,-29.297,-24.414,0.000,0
160835.568,-39.062,-22.949,-41.504,-23.926,0.000,0
160835.572,-33.203,-30.273,-48.828,-37.109,0.000,0
160835.576,-18.555,-30.762,-39.551,-47.852,0.000,0
160835.580,-23.438,-29.297,-35.156,-43.457,0.000,0
160835.584,-23.926,-31.250,-37.598,-47.363,0.000,0
160835.588,-21.484,-33.203,-27.344,-57.617,0.000,0
160835.592,-22.461,-26.367,-30.273,-31.250,0.000,0
160835.596,-18.066,-23.438,-48.340,-14.160,0.000,0
160835.599,-23.926,-24.414,-28.809,-18.555,0.000,0
160835.603,-29.297,-20.508,-28.809,-25.879,0.000,0
160835.607,-27.344,-23.926,-45.898,-23.438,0.000,0
160835.611,-31.250,-27.832,-37.598,-7.324,0.000,0
160835.615,-29.297,-26.855,-16.113,-24.902,0.000,0
160835.619,-21.973,-24.902,-25.391,-31.738,0.000,0
160835.623,-31.738,-22.949,-19.043,-24.902,0.000,0
160835.627,-25.879,-20.020,-10.742,-32.227,0.000,0
160835.631,-10.742,-20.508,-24.902,-18.066,0.000,0
160835.635,-23.438,-18.555,-32.227,-0.488,0.000,0
160835.638,-21.973,-14.648,-25.391,-17.578,0.000,0
160835.642,-12.695,-12.695,-8.789,-35.645,0.000,0
160835.646,-19.531,-13.184,-16.113,-24.902,0.000,0
160835.650,-26.855,-14.648,-38.086,-18.066,0.000,0
160835.654,-19.043,-17.578,-44.434,-25.879,0.000,0
160835.658,-18.555,-17.090,-23.438,-28.320,0.000,0
160835.662,-21.973,-15.137,-7.812,-27.344,0.000,0
160835.666,-18.066,-16.602,-31.738,-36.133,0.000,0
160835.670,-19.531,-22.461,-38.086,-28.809,0.000,0
160835.674,-9.277,-20.508,-25.391,-1.953,0.000,0
160835.678,-9.766,-12.695,-22.461,-11.719,0.000,0
160835.681,-19.531,-11.719,-23.438,-24.902,0.000,0
160835.685,-21.973,-13.184,-21.973,-28.320,0.000,0
160835.689,-23.438,-15.625,-27.344,-23.926,0.000,0
160835.693,-22.949,-15.625,-24.414,-14.160,0.000,0
160835.697,-28.809,-19.531,-28.320,-18.555,0.000,0
160835.701,-31.738,-23.438,-30.762,-41.504,0.000,0
160835.705,-35.645,-23.926,-21.484,-30.762,0.000,0
160835.709,-36.621,-23.926,-35.156,-6.836,0.000,0
160835.713,-26.855,-26.367,-46.875,-15.625,0.000,0
160835.717,-32.715,-28.809,-36.621,-27.832,0.000,0
160835.721,-31.250,-28.320,-21.973,-36.621,0.000,0
160835.724,-17.578,-27.344,-29.297,-39.062,0.000,0
160835.728,-20.996,-22.949,-36.133,-31.250,0.000,0
160835.732,-31.738,-20.020,-34.668,-27.832,0.000,0
160835.736,-38.574,-23.438,-39.551,-25.879,0.000,0
160835.740,-38.574,-20.508,-25.879,-47.363,0.000,0
160835.744,-37.598,-24.902,-34.180,-47.363,0.000,0
160835.748,-48.340,-27.832,-41.504,-17.578,0.000,0
160835.752,-54.199,-27.344,-29.297,-30.762,0.000,0
160835.756,-45.410,-28.809,-40.039,-40.039,0.000,0
160835.760,-38.574,-25.391,-26.367,-41.992,0.000,0
160835.763,-39.062,-28.320,-24.414,-56.152,0.000,0
160835.767,-42.480,-31.250,-43.945,-49.316,0.000,0
160835.771,-40.039,-25.879,-38.574,-43.945,0.000,0
160835.775,-43.457,-22.461,-34.668,-41.992,0.000,0
160835.779,-41.016,-22.461,-21.973,-48.828,0.000,0
160835.783,-42.969,-22.461,-26.367,-46.875,0.000,0
160835.787,-50.293,-21.973,-46.387,-39.551,0.000,0
160835.791,-34.668,-23.926,-41.504,-48.828,0.000,0
160835.795,-24.902,-21.484,-21.973,-28.809,0.000,0
160835.799,-28.809,-17.578,-25.391,-27.832,0.000,0
160835.803,-29.785,-19.043,-38.086,-41.016,0.000,0
160835.806,-23.926,-18.066,-28.809,-34.180,0.000,0
160835.810,-26.855,-22.461,-32.715,-32.715,0.000,0
160835.814,-29.785,-23.438,-43.945,-25.879,0.000,0
160835.818,-30.762,-23.438,-34.180,-39.062,0.000,0
160835.822,-36.133,-28.320,-18.555,-54.688,0.000,0
160835.826,-37.598,-30.762,-29.297,-37.598,0.000,0
160835.830,-37.598,-32.715,-31.738,-45.410,0.000,0
160835.834,-37.109,-26.367,-37.109,-42.969,0.000,0
160835.838,-40.039,-23.438,-25.391,-34.668,0.000,0
160835.842,-31.738,-24.414,-8.301,-42.969,0.000,0
160835.846,-20.020,-17.090,-25.879,-22.461,0.000,0
160835.849,-19.043,-16.602,-41.992,-1.465,0.000,0
160835.853,-20.996,-17.090,-41.992,-9.766,0.000,0
160835.857,-18.555,-14.648,-13.672,-28.809,0.000,0
160835.861,-10.254,-20.996,-8.301,-29.785,0.000,0
160835.865,-16.602,-27.344,-35.645,-30.762,0.000,0
160835.869,-33.203,-15.137,-34.180,-41.016,0.000,0
160835.873,-40.039,-12.695,-27.832,-39.551,0.000,0
160835.877,-37.109,-18.066,-26.855,-39.062,0.000,0
160835.881,-27.344,-12.207,-16.602,-27.344,0.000,0
160835.885,-26.367,-6.348,-18.066,-26.367,0.000,0
160835.888,-30.273,-9.766,-30.762,-23.438,0.000,0
160835.892,-30.273,-18.066,-50.293,-35.645,0.000,0
160835.896,-30.762,-21.484,-37.598,-47.363,0.000,0
160835.900,-35.645,-25.391,-12.695,-24.902,0.000,0
160835.904,-37.598,-24.414,-32.715,-27.832,0.000,0
160835.908,-29.297,-26.855,-50.293,-27.832,0.000,0
160835.912,-24.414,-30.273,-36.133,-18.555,0.000,0
160835.916,-27.832,-30.762,-25.879,-17.090,0.000,0
160835.920,-27.344,-25.391,-18.066,-9.766,0.000,0
160835.924,-22.461,-17.090,-19.043,-13.184,0.000,0
160835.928,-21.484,-17.090,-25.391,-14.160,0.000,0
160835.931,-30.273,-15.137,-22.949,-2.930,0.000,0
160835.935,-20.996,-20.020,-34.180,1.465,0.000,0
160835.939,-11.719,-26.855,-29.785,-8.789,0.000,0
160835.943,-16.602,-18.066,-19.531,-9.766,0.000,0
160835.947,-13.672,-12.695,-20.508,1.465,0.000,0
160835.951,-15.625,-19.531,-33.203,-0.488,0.000,0
160835.955,-27.832,-26.367,-32.715,-22.949,0.000,0
160835.959,-30.273,-26.367,-22.461,-20.996,0.000,0
160835.963,-29.297,-22.461,-28.809,-19.043,0.000,0
160835.967,-30.762,-23.438,-37.598,-26.855,0.000,0
160835.971,-30.273,-29.297,-29.297,-33.691,0.000,0
160835.974,-26.367,-23.926,-20.996,-33.203,0.000,0
160835.978,-27.832,-21.973,-20.996,-50.293,0.000,0
160835.982,-26.367,-22.949,-24.414,-49.805,0.000,0
160835.986,-12.207,-20.996,-31.738,-13.672,0.000,0
160835.990,-10.254,-20.508,-21.484,-3.906,0.000,0
160835.994,-20.020,-20.508,-28.320,-12.207,0.000,0
160835.998,-22.461,-18.066,-24.902,-33.691,0.000,0
160836.002,-24.414,-19.531,-10.742,-37.598,0.000,0
160836.006,-22.949,-21.484,-19.043,-26.855,0.000,0
160836.010,-9.277,-17.090,-30.273,-22.461,0.000,0
160836.013,-7.324,-14.648,-30.273,-23.438,0.000,0
160836.017,-18.555,-19.043,-18.555,-28.320,0.000,0
160836.021,-24.902,-21.973,-20.996,-31.250,0.000,0
160836.025,-21.973,-24.902,-42.969,-19.043,0.000,0
160836.029,-19.043,-23.438,-43.457,-2.441,0.000,0
160836.033,-21.973,-16.113,-14.160,-22.461,0.000,0
160836.037,-19.043,-15.625,4.883,-36.621,0.000,0
160836.041,-10.254,-16.602,-15.137,-18.066,0.000,0
160836.045,-11.719,-18.066,-34.668,-19.531,0.000,0
160836.049,-18.066,-22.949,-35.645,-23.438,0.000,0
160836.053,-17.090,-24.902,-35.645,-19.531,0.000,0
160836.056,-16.113,-25.391,-30.273,-16.602,0.000,0
160836.060,-16.113,-24.414,-28.809,-29.785,0.000,0
160836.064,-31.738,-23.926,-33.203,-27.344,0.000,0
160836.068,-35.156,-24.414,-31.250,-20.996,0.000,0
160836.072,-12.207,-23.926,-37.109,-40.527,0.000,0
160836.076,-11.719,-20.996,-18.555,-40.527,0.000,0
160836.080,-21.484,-17.090,0.488,-18.066,0.000,0
160836.084,-17.090,-17.578,-25.879,-11.230,0.000,0
160836.088,-21.973,-21.973,-36.133,-13.672,0.000,0
160836.092,-20.020,-21.973,-24.902,-17.090,0.000,0
160836.096,-19.531,-22.461,-14.160,-11.230,0.000,0
160836.099,-23.926,-23.438,-21.973,-20.508,0.000,0
160836.103,-20.020,-21.973,-25.391,-9.766,0.000,0
160836.107,-18.555,-24.414,-14.648,-8.789,0.000,0
160836.111,-23.926,-28.320,-21.484,-25.391,0.000,0
160836.115,-29.297,-29.297,-23.926,-38.574,0.000,0
160836.119,-28.809,-30.762,-23.926,-37.109,0.000,0
160836.123,-37.598,-30.273,-14.648,-21.973,0.000,0
160836.127,-36.621,-26.855,-25.391,-7.812,0.000,0
160836.131,-20.996,-23.926,-27.832,-18.066,0.000,0
160836.135,-19.531,-21.484,-11.719,-43.945,0.000,0
160836.138,-26.367,-20.020,-19.531,-20.508,0.000,0
160836.142,-27.344,-21.973,-22.949,-7.324,0.000,0
160836.146,-25.879,-24.902,-26.367,-3.906,0.000,0
160836.150,-16.602,-21.484,-27.832,-18.066,0.000,0
160836.154,-20.996,-24.902,-11.230,-45.898,0.000,0
160836.158,-22.949,-24.902,-12.695,-26.855,0.000,0
160836.162,-28.809,-22.949,-28.809,-23.438,0.000,0
160836.166,-29.785,-23.926,-30.762,-24.414,0.000,0
160836.170,-30.762,-24.902,-22.949,-20.508,0.000,0
160836.174,-27.832,-23.438,-13.184,-35.645,0.000,0
160836.178,-13.672,-17.578,-17.090,-48.340,0.000,0
160836.181,-13.672,-13.672,-16.602,-28.809,0.000,0
160836.185,-20.508,-17.090,-22.949,-30.273,0.000,0
160836.189,-22.461,-20.020,-34.668,-19.531,0.000,0
160836.193,-21.484,-22.461,-15.137,-24.902,0.000,0
160836.197,-25.879,-23.926,-16.113,-36.621,0.000,0
160836.201,-33.691,-23.438,-40.039,-21.484,0.000,0
160836.205,-26.855,-24.414,-25.391,-34.180,0.000,0
160836.209,-24.414,-23.438,-25.391,-41.992,0.000,0
160836.213,-36.133,-22.461,-20.996,-11.719,0.000,0
160836.217,-35.156,-25.879,-30.273,-23.438,0.000,0
160836.221,-26.367,-29.785,-52.734,-34.668,0.000,0
160836.224,-29.297,-29.785,-40.039,-25.879,0.000,0
160836.228,-28.809,-27.344,-32.227,-27.344,0.000,0
160836.232,-27.832,-24.414,-29.297,-39.062,0.000,0
160836.236,-21.973,-21.973,-26.367,-38.086,0.000,0
160836.240,-14.648,-21.973,-31.250,-26.855,0.000,0
160836.244,-13.184,-23.438,-32.227,-27.344,0.000,0
160836.248,-19.043,-22.461,-36.133,-32.227,0.000,0
160836.252,-28.809,-20.508,-26.367,-26.855,0.000,0
160836.256,-28.809,-19.531,-14.648,-27.344,0.000,0
160836.260,-23.438,-25.391,-34.180,-33.691,0.000,0
160836.263,-19.531,-27.344,-48.828,-9.277,0.000,0
160836.267,-17.578,-20.508,-41.992,-2.441,0.000,0
160836.271,-23.926,-20.020,-15.137,-26.855,0.000,0
160836.275,-20.508,-20.996,-6.836,-24.902,0.000,0
160836.279,-16.113,-20.508,-40.527,-19.531,0.000,0
160836.283,-16.113,-20.996,-44.434,-34.180,0.000,0
160836.287,-24.902,-23.438,-19.531,-29.297,0.000,0
160836.291,-24.902,-29.297,-20.020,-15.137,0.000,0
160836.295,-20.508,-28.320,-25.879,-41.016,0.000,0
160836.299,-24.414,-24.414,-26.367,-49.805,0.000,0
160836.303,-39.551,-27.832,-35.156,-19.043,0.000,0
160836.306,-25.391,-28.809,-32.715,-23.438,0.000,0
160836.310,-15.137,-26.855,-26.855,-11.719,0.000,0
160836.314,-20.020,-27.344,-39.062,-26.855,0.000,0
160836.318,-18.555,-22.461,-23.926,-32.715,0.000,0
160836.322,-20.996,-23.926,-23.438,-24.902,0.000,0
160836.326,-13.672,-25.879,-34.668,-34.668,0.000,0
160836.330,-21.484,-29.297,-31.738,-28.809,0.000,0
160836.334,-38.574,-27.344,-23.926,-21.484,0.000,0
160836.338,-33.691,-25.879,-37.109,-22.949,0.000,0
160836.342,-20.996,-29.297,-46.875,-18.555,0.000,0
160836.346,-18.066,-22.949,-30.273,-3.418,0.000,0
160836.349,-28.809,-20.996,-10.254,-6.836,0.000,0
160836.353,-31.250,-25.879,-16.113,-42.480,0.000,0
160836.357,-26.367,-24.414,-30.762,-32.227,0.000,0
160836.361,-18.066,-20.020,-11.719,-4.395,0.000,0
160836.365,-19.043,-18.066,-13.672,-25.391,0.000,0
160836.369,-19.043,-20.020,-32.227,-28.320,0.000,0
160836.373,-18.555,-22.949,-20.508,-22.461,0.000,0
160836.377,-22.949,-21.484,-20.020,-20.996,0.000,0
160836.381,-23.438,-24.414,-33.691,-14.160,0.000,0
160836.385,-29.297,-27.832,-41.016,-16.113,0.000,0
160836.388,-21.973,-30.273,-21.484,-19.531,0.000,0
160836.392,-18.555,-33.203,-5.859,-24.902,0.000,0
160836.396,-26.855,-28.809,-28.320,-23.438,0.000,0
160836.400,-19.531,-25.879,-41.016,-24.902,0.000,0
160836.404,-17.090,-24.414,-43.945,-20.020,0.000,0
160836.408,-23.438,-17.090,-10.254,-5.371,0.000,0
160836.412,-25.391,-20.508,-17.090,-25.879,0.000,0
160836.416,-26.367,-22.949,-57.617,-30.273,0.000,0
160836.420,-21.484,-22.949,-44.922,-35.645,0.000,0
160836.424,-27.344,-26.367,-28.809,-18.066,0.000,0
160836.428,-35.156,-29.297,-30.762,-18.066,0.000,0
160836.431,-32.715,-28.809,-26.367,-52.734,0.000,0
160836.435,-29.297,-23.438,-31.738,-37.109,0.000,0
160836.439,-29.785,-21.484,-36.621,-36.133,0.000,0
160836.443,-33.691,-25.391,-42.480,-26.855,0.000,0
160836.447,-40.039,-29.297,-48.828,-16.602,0.000,0
160836.451,-44.434,-32.227,-33.203,-41.504,0.000,0
160836.455,-33.691,-30.762,-31.250,-29.785,0.000,0
160836.459,-27.832,-26.367,-41.016,-32.227,0.000,0
160836.463,-31.738,-27.832,-31.738,-44.434,0.000,0
160836.467,-38.574,-35.156,-25.879,-32.715,0.000,0
160836.471,-33.691,-31.738,-20.996,-47.363,0.000,0
160836.474,-24.414,-28.320,-28.809,-51.270,0.000,0
160836.478,-26.855,-25.879,-28.320,-25.879,0.000,0
160836.482,-25.391,-19.043,-25.391,-25.879,0.000,0
160836.486,-27.832,-17.090,-29.297,-26.855,0.000,0
160836.490,-33.203,-24.902,-21.973,-31.250,0.000,0
160836.494,-32.227,-29.297,-25.879,-33.203,0.000,0
160836.498,-36.133,-29.297,-27.344,-39.062,0.000,0
160836.502,-36.133,-35.645,-42.480,-25.879,0.000,0
160836.506,-29.785,-33.691,-48.828,-6.348,0.000,0
160836.510,-26.855,-34.180,-31.738,-31.738,0.000,0
160836.513,-31.738,-35.645,-31.738,-43.457,0.000,0
160836.517,-35.645,-30.762,-40.039,-24.414,0.000,0
160836.521,-31.250,-24.414,-43.457,-27.344,0.000,0
160836.525,-25.391,-19.043,-37.598,-17.090,0.000,0
160836.529,-22.949,-20.020,-19.531,-13.672,0.000,0
160836.533,-21.973,-19.043,-25.391,-38.086,0.000,0
160836.537,-25.391,-14.648,-37.109,-32.227,0.000,0
160836.541,-32.715,-15.625,-29.297,-14.648,0.000,0
160836.545,-32.227,-16.113,-30.762,-15.137,0.000,0
160836.549,-29.297,-19.531,-33.691,-19.531,0.000,0
160836.553,-28.809,-21.484,-30.762,-18.066,0.000,0
160836.556,-29.297,-23.926,-31.250,-31.738,0.000,0
160836.560,-29.297,-25.391,-32.715,-35.156,0.000,0
160836.564,-22.949,-20.020,-37.598,-18.555,0.000,0
160836.568,-22.461,-17.578,-30.762,-32.715,0.000,0
160836.572,-26.855,-18.555,-25.879,-47.363,0.000,0
160836.576,-29.297,-20.020,-43.945,-43.457,0.000,0
160836.580,-24.414,-20.996,-47.852,-48.340,0.000,0
160836.584,-22.461,-20.996,-33.691,-29.785,0.000,0
160836.588,-19.531,-18.066,-12.207,-5.371,0.000,0
160836.592,-16.113,-20.020,-21.973,-13.184,0.000,0
160836.596,-16.602,-24.414,-49.805,-15.137,0.000,0
160836.599,-23.438,-18.555,-40.527,-14.648,0.000,0
160836.603,-38.086,-20.996,-38.574,-27.832,0.000,0
160836.607,-32.227,-25.879,-39.551,-21.484,0.000,0
160836.611,-24.902,-23.438,-30.762,-36.621,0.000,0
160836.615,-25.391,-21.973,-29.785,-44.434,0.000,0
160836.619,-29.297,-24.414,-22.949,-19.531,0.000,0
160836.623,-23.926,-22.949,-44.922,-9.766,0.000,0
160836.627,-21.973,-19.043,-38.086,-29.297,0.000,0
160836.631,-28.809,-19.531,-8.789,-33.203,0.000,0
160836.635,-25.879,-18.066,-23.438,-22.949,0.000,0
160836.638,-21.484,-16.602,-34.668,-39.551,0.000,0
160836.642,-30.762,-23.926,-45.898,-27.832,0.000,0
160836.646,-40.039,-29.785,-33.691,-19.531,0.000,0
160836.650,-30.273,-27.832,-21.484,-30.273,0.000,0
160836.654,-25.879,-23.926,-35.645,-17.090,0.000,0
160836.658,-22.949,-18.066,-32.715,-2.930,0.000,0
160836.662,-18.555,-15.625,-24.414,-0.488,0.000,0
160836.666,-20.996,-18.555,-29.785,-1.953,0.000,0
160836.670,-13.672,-15.137,-25.391,-16.113,0.000,0
160836.674,-17.578,-16.602,-22.949,-27.344,0.000,0
160836.678,-25.879,-20.508,-20.020,-16.113,0.000,0
160836.681,-26.367,-20.996,-39.062,-19.043,0.000,0
160836.685,-25.391,-16.602,-42.969,-28.320,0.000,0
160836.689,-23.438,-15.137,-9.766,-41.504,0.000,0
160836.693,-28.809,-23.926,-0.488,-6.348,0.000,0
160836.697,-25.879,-25.879,-26.367,-0.977,0.000,0
160836.701,-26.367,-20.508,-36.133,-31.250,0.000,0
160836.705,-16.113,-18.555,-20.020,-19.043,0.000,0
160836.709,-6.348,-24.902,-13.184,-25.391,0.000,0
160836.713,-14.648,-28.320,-32.227,-32.227,0.000,0
160836.717,-20.996,-26.855,-34.180,-26.855,0.000,0
160836.721,-24.902,-25.879,-16.602,-28.320,0.000,0
160836.724,-21.484,-24.902,-22.949,-20.020,0.000,0
160836.728,-15.625,-20.996,-25.879,-9.766,0.000,0
160836.732,-18.066,-19.531,-36.133,-25.879,0.000,0
160836.736,-9.766,-18.066,-31.250,-24.902,0.000,0
160836.740,-11.719,-14.160,-13.184,4.883,0.000,0
160836.744,-17.090,-14.648,-20.020,-7.324,0.000,0
160836.748,-21.484,-17.578,-22.949,-20.020,0.000,0
160836.752,-28.320,-20.996,-31.738,-21.484,0.000,0
160836.756,-26.367,-22.949,-34.180,-24.902,0.000,0
160836.760,-15.625,-20.508,-42.969,-12.695,0.000,0
160836.763,-12.695,-23.438,-41.992,-8.789,0.000,0
160836.767,-25.391,-25.879,-21.973,-37.109,0.000,0
160836.771,-25.879,-20.508,-36.621,-45.410,0.000,0
160836.775,-14.648,-20.996,-57.617,-19.531,0.000,0
160836.779,-17.090,-26.367,-53.711,-12.695,0.000,0
160836.783,-27.344,-27.832,-22.461,-14.648,0.000,0
160836.787,-27.344,-28.320,-18.066,-43.945,0.000,0
160836.791,-22.461,-28.320,-36.133,-49.316,0.000,0
160836.795,-20.996,-27.344,-30.762,-27.832,0.000,0
160836.799,-24.414,-24.902,-30.273,-9.277,0.000,0
160836.803,-20.996,-23.926,-28.320,-12.207,0.000,0
160836.806,-15.625,-22.461,-3.906,-22.461,0.000,0
160836.810,-23.926,-23.438,-13.672,-8.301,0.000,0
160836.814,-27.832,-25.391,-32.227,-10.742,0.000,0
160836.818,-31.738,-26.367,-34.180,-32.227,0.000,0
160836.822,-24.414,-31.250,-31.738,-25.879,0.000,0
160836.826,-19.043,-25.391,-7.812,-38.086,0.000,0
160836.830,-28.320,-21.973,-15.137,-20.996,0.000,0
160836.834,-18.555,-24.902,-40.039,-4.883,0.000,0
160836.838,-15.137,-24.414,-33.203,-21.973,0.000,0
160836.842,-19.531,-18.066,-18.066,-20.020,0.000,0
160836.846,-24.414,-17.090,-6.348,-31.738,0.000,0
160836.849,-19.531,-21.973,-29.785,-41.016,0.000,0
160836.853,-5.371,-17.578,-42.969,-27.832,0.000,0
160836.857,-16.113,-19.043,-18.066,-19.531,0.000,0
160836.861,-20.508,-27.832,-29.785,-18.555,0.000,0
160836.865,-16.602,-25.391,-32.227,-41.504,0.000,0
160836.869,-28.320,-20.996,-25.391,-41.992,0.000,0
160836.873,-19.043,-22.461,-31.250,1.953,0.000,0
160836.877,5.859,-29.297,-43.945,-2.930,0.000,0
160836.881,-2.930,-32.227,-40.527,-29.297,0.000,0
160836.885,-16.113,-26.855,-31.738,-34.668,0.000,0
160836.888,-22.949,-21.973,-39.551,-49.805,0.000,0
160836.892,-23.438,-22.461,-42.969,-38.086,0.000,0
160836.896,-25.391,-22.949,-49.805,-10.254,0.000,0
160836.900,-34.180,-21.484,-50.293,-24.902,0.000,0
160836.904,-37.109,-27.344,-40.039,-45.898,0.000,0
160836.908,-29.785,-26.855,-44.922,-25.879,0.000,0
160836.912,-37.598,-26.367,-47.363,-16.602,0.000,0
160836.916,-40.039,-34.180,-45.898,-35.645,0.000,0
160836.920,-31.738,-30.273,-39.551,-39.062,0.000,0
160836.924,-26.855,-24.902,-31.250,-29.785,0.000,0
160836.928,-32.227,-29.297,-37.598,-50.293,0.000,0
160836.931,-33.691,-24.902,-41.016,-20.020,0.000,0
160836.935,-29.297,-22.461,-41.992,-7.324,0.000,0
160836.939,-37.598,-29.297,-36.621,-27.344,0.000,0
160836.943,-43.457,-29.785,-37.598,-20.020,0.000,0
160836.947,-33.203,-30.273,-54.688,-32.227,0.000,0
160836.951,-29.297,-28.320,-48.828,-33.203,0.000,0
160836.955,-34.180,-21.973,-35.645,-13.672,0.000,0
160836.959,-31.738,-21.484,-24.902,-31.738,0.000,0
160836.963,-21.973,-25.391,-35.156,-32.715,0.000,0
160836.967,-18.555,-27.832,-53.223,-31.250,0.000,0
160836.971,-19.043,-21.484,-37.109,-34.668,0.000,0
160836.974,-27.832,-14.648,-14.160,-20.020,0.000,0
160836.978,-22.949,-19.043,-27.832,-19.043,0.000,0
160836.982,-20.020,-14.160,-28.809,-29.785,0.000,0
160836.986,-19.043,-11.719,-21.484,-17.578,0.000,0
160836.990,-13.184,-17.578,-22.949,-18.066,0.000,0
160836.994,-18.066,-16.602,-31.250,-30.762,0.000,0
160836.998,-21.973,-17.090,-29.785,-34.668,0.000,0
160837.002,-19.043,-19.043,-20.020,-45.410,0.000,0
160837.006,-21.973,-20.508,-24.414,-33.691,0.000,0
160837.010,-21.484,-19.531,-45.410,-13.184,0.000,0
160837.013,-17.090,-16.113,-48.340,-16.113,0.000,0
160837.017,-26.855,-16.113,-17.578,-27.832,0.000,0
160837.021,-24.902,-14.648,0.488,-40.039,0.000,0
160837.025,-20.020,-19.531,-23.438,-35.645,0.000,0
160837.029,-18.066,-26.367,-41.992,-27.344,0.000,0
160837.033,-15.625,-22.949,-30.762,-18.066,0.000,0
160837.037,-14.160,-19.043,-21.973,-26.367,0.000,0
160837.041,-9.277,-17.090,-10.254,-44.434,0.000,0
160837.045,-8.789,-16.113,-20.508,-15.137,0.000,0
160837.049,-15.625,-14.648,-30.273,-3.906,0.000,0
160837.053,-24.414,-22.461,-34.668,-16.602,0.000,0
160837.056,-23.438,-27.344,-41.016,-26.855,0.000,0
160837.060,-24.414,-21.973,-31.250,-56.641,0.000,0
160837.064,-29.297,-21.973,-13.184,-35.645,0.000,0
160837.068,-28.320,-23.926,-21.973,-31.250,0.000,0
160837.072,-32.715,-21.973,-36.621,-37.598,0.000,0
160837.076,-35.645,-26.855,-29.297,-21.484,0.000,2
160837.080,-36.621,-27.344,-21.484,-25.391,0.000,0
160837.084,-38.574,-27.832,-38.574,-29.785,0.000,0
160837.088,-39.062,-28.320,-41.992,-23.438,0.000,0
160837.092,-32.227,-24.414,-33.691,-26.367,0.000,0
160837.096,-41.504,-26.855,-34.668,-27.832,0.000,0
160837.099,-33.691,-27.344,-21.484,-55.664,0.000,0
160837.103,-30.762,-22.461,-19.043,-34.668,0.000,0
160837.107,-41.016,-24.902,-23.926,-8.789,0.000,0
160837.111,-40.039,-24.902,-34.668,-16.113,0.000,0
160837.115,-34.180,-28.320,-43.457,-18.066,0.000,0
160837.119,-33.203,-32.227,-23.438,-29.297,0.000,0
160837.123,-36.133,-23.926,-20.508,-20.996,0.000,0
160837.127,-13.672,-19.531,-25.879,-4.395,0.000,0
160837.131,0.000,-25.391,-50.293,3.906,0.000,0
160837.135,-12.207,-27.344,-41.992,-14.160,0.000,0
160837.138,-36.621,-24.902,-5.859,-40.527,0.000,0
160837.142,-33.203,-23.926,-17.578,-40.039,0.000,0
160837.146,-18.555,-21.973,-32.715,-15.137,0.000,0
160837.150,-21.973,-19.531,-43.945,-29.785,0.000,0
160837.154,-26.855,-14.648,-20.020,-44.434,0.000,0
160837.158,-28.320,-20.996,-5.859,-13.672,0.000,0
160837.162,-20.996,-27.832,-35.156,-35.156,0.000,0
160837.166,-10.742,-23.926,-41.992,-20.020,0.000,0
160837.170,-20.508,-23.438,-25.879,-10.254,0.000,0
160837.174,-24.902,-25.391,-29.785,-17.090,0.000,0
160837.178,-25.391,-27.832,-22.461,-24.414,0.000,0
160837.181,-32.715,-27.344,-21.484,-28.809,0.000,0
160837.185,-46.875,-29.297,-36.621,-31.250,0.000,0
160837.189,-38.574,-33.691,-38.574,-29.297,0.000,0
160837.193,-30.273,-33.203,-34.180,-16.602,0.000,0
160837.197,-40.039,-31.738,-20.996,-27.832,0.000,0
160837.201,-39.551,-32.227,-23.438,-23.438,0.000,0
160837.205,-29.297,-34.180,-38.574,-23.926,0.000,0
160837.209,-33.203,-31.250,-33.203,-39.062,0.000,0
160837.213,-30.762,-32.227,-34.668,-24.414,0.000,0
160837.217,-25.879,-35.645,-27.832,-40.527,0.000,0
160837.221,-22.949,-35.645,-31.738,-49.805,0.000,0
160837.224,-20.020,-31.250,-42.480,-23.926,0.000,0
160837.228,-27.344,-28.320,-24.414,-15.137,0.000,0
160837.232,-27.344,-26.855,-30.273,-16.602,0.000,0
160837.236,-21.973,-28.809,-25.391,-43.457,0.000,0
160837.240,-25.391,-29.785,-20.020,-37.109,0.000,0
160837.244,-28.320,-25.879,-21.484,-14.648,0.000,0
160837.248,-32.715,-24.414,-28.809,-25.879,0.000,0
160837.252,-13.672,-25.879,-38.574,-36.133,0.000,0
160837.256,-7.812,-24.902,-17.090,-22.461,0.000,0
160837.260,-17.578,-25.879,-16.602,-21.973,0.000,0
160837.263,-22.461,-24.414,-35.156,-30.762,0.000,0
160837.267,-22.949,-23.438,-23.926,-29.785,0.000,0
160837.271,-20.996,-20.996,-15.625,-28.809,0.000,0
160837.275,-26.367,-19.043,-13.672,-26.855,0.000,0
160837.279,-24.414,-13.672,-12.207,-28.809,0.000,0
160837.283,-21.484,-13.672,-24.902,-32.227,0.000,0
160837.287,-16.602,-17.090,-20.508,-13.672,0.000,0
160837.291,-17.090,-16.602,-17.090,-6.348,0.000,0
160837.295,-17.578,-18.066,-29.297,-28.320,0.000,0
160837.299,-18.555,-23.438,-35.156,-37.109,0.000,0
160837.303,-22.949,-27.344,-35.645,-45.898,0.000,0
160837.306,-24.414,-29.785,-30.762,-25.879,0.000,0
160837.310,-18.066,-28.320,-38.086,-6.348,0.000,0
160837.314,-19.043,-28.320,-32.715,-15.137,0.000,0
160837.318,-18.555,-24.414,-14.160,-23.926,0.000,0
160837.322,-20.508,-17.090,-22.461,-23.926,0.000,0
160837.326,-29.297,-22.461,-29.297,-34.668,0.000,0
160837.330,-33.691,-28.320,-21.484,-33.691,0.000,0
160837.334,-36.133,-24.414,-27.344,-22.461,0.000,0
160837.338,-30.762,-24.414,-23.926,-23.926,0.000,0
160837.342,-28.809,-23.926,-30.273,-21.484,0.000,0
160837.346,-38.086,-25.879,-41.992,-36.621,0.000,0
160837.349,-45.898,-27.832,-26.367,-28.809,0.000,0
160837.353,-27.832,-25.391,-30.273,-14.648,0.000,0
160837.357,-15.625,-24.414,-27.832,-31.738,0.000,0
160837.361,-25.879,-26.367,-26.367,-33.691,0.000,0
160837.365,-20.996,-26.367,-33.691,-21.484,0.000,0
160837.369,-19.531,-28.320,-40.527,-25.879,0.000,0
160837.373,-27.832,-31.738,-38.574,-52.246,0.000,0
160837.377,-30.762,-34.668,-27.344,-51.270,0.000,0
160837.381,-29.297,-32.227,-26.855,-38.574,0.000,0
160837.385,-19.531,-25.879,-29.297,-39.062,0.000,0
160837.388,-11.230,-19.531,-35.156,-13.184,0.000,0
160837.392,-9.766,-23.438,-19.531,-4.883,0.000,0
160837.396,-15.137,-28.809,-3.906,-23.438,0.000,0
160837.400,-24.902,-28.320,-30.273,-27.832,0.000,0
160837.404,-19.531,-30.762,-45.410,-19.531,0.000,0
160837.408,-10.742,-26.855,-25.879,-12.695,0.000,0
160837.412,-19.043,-21.484,-15.137,-35.645,0.000,0
160837.416,-20.996,-20.020,-10.254,-38.574,0.000,0
160837.420,-21.484,-21.484,-16.602,-31.250,0.000,0
160837.424,-23.926,-20.996,-17.090,-30.762,0.000,0
160837.428,-23.438,-17.578,-19.531,-9.766,0.000,0
160837.431,-22.461,-19.043,-15.137,-25.879,0.000,0
160837.435,-18.066,-17.578,-12.695,-36.621,0.000,0
160837.439,-24.902,-14.648,-9.277,-7.812,0.000,0
160837.443,-20.508,-21.973,-28.809,-13.672,0.000,0
160837.447,-18.066,-26.367,-41.992,-2.930,0.000,0
160837.451,-25.879,-23.438,-20.996,-13.184,0.000,0
160837.455,-20.508,-29.297,-8.789,-41.016,0.000,0
160837.459,-26.367,-30.762,-22.461,-41.504,0.000,0
160837.463,-28.809,-28.809,-43.457,-50.293,0.000,0
160837.467,-27.344,-35.156,-39.062,-34.668,0.000,0
160837.471,-23.438,-34.668,-21.973,-19.531,0.000,0
160837.474,-23.438,-31.250,-21.484,-34.180,0.000,0
160837.478,-26.367,-29.297,-28.809,-50.781,0.000,0
160837.482,-20.996,-31.250,-33.691,-34.668,0.000,0
160837.486,-25.391,-31.738,-23.926,-28.809,0.000,0
160837.490,-21.973,-24.414,-30.273,-39.551,0.000,0
160837.494,-22.949,-23.926,-17.578,-15.137,0.000,0
160837.498,-21.973,-24.902,-14.160,-11.719,0.000,0
160837.502,-14.648,-25.879,-27.832,-15.137,0.000,0
160837.506,-19.043,-28.809,-32.715,-7.812,0.000,0
160837.510,-21.973,-30.273,-28.809,-5.859,0.000,0
160837.513,-17.578,-25.879,-5.859,-15.137,0.000,0
160837.517,-21.973,-21.973,-13.184,-22.949,0.000,0
160837.521,-27.832,-21.973,-30.273,-19.043,0.000,0
160837.525,-23.438,-24.902,-26.855,-16.113,0.000,0
160837.529,-18.066,-25.879,-23.438,-11.230,0.000,0
160837.533,-26.855,-25.391,-17.578,-21.973,0.000,0
160837.537,-22.461,-22.949,-23.438,-30.762,0.000,0
160837.541,-8.789,-24.902,-38.574,-37.598,0.000,0
160837.545,-13.184,-22.949,-28.809,-11.719,0.000,0
160837.549,-19.043,-24.902,-28.320,6.836,0.000,0
160837.553,-17.578,-26.855,-20.508,-10.254,0.000,0
160837.556,-12.207,-24.414,-20.508,-23.926,0.000,0
160837.560,-18.555,-23.926,-32.227,-9.766,0.000,0
160837.564,-22.949,-22.461,-28.809,-0.488,0.000,0
160837.568,-14.160,-19.531,-25.879,-11.230,0.000,0
160837.572,-21.973,-22.461,-17.578,-25.391,0.000,0
160837.576,-20.020,-26.367,-17.578,-26.855,0.000,0
160837.580,-8.789,-26.855,-46.875,-20.020,0.000,0
160837.584,-6.348,-24.902,-45.410,-29.297,0.000,0
160837.588,-6.348,-22.461,-19.043,-17.578,0.000,0
160837.592,-11.719,-23.438,-11.719,-20.508,0.000,0
160837.596,-20.020,-27.832,-27.344,-30.273,0.000,0
160837.599,-29.297,-26.855,-34.180,-31.250,0.000,0
160837.603,-34.180,-20.996,-22.949,-19.043,0.000,0
160837.607,-21.484,-24.414,-36.621,-15.137,0.000,0
160837.611,-16.602,-27.832,-42.480,-22.949,0.000,0
160837.615,-16.602,-28.320,-34.180,-16.113,0.000,0
160837.619,-21.973,-29.297,-33.691,-2.930,0.000,0
160837.623,-31.250,-27.832,-41.992,-27.344,0.000,0
160837.627,-29.785,-26.367,-45.898,-54.199,0.000,0
160837.631,-27.832,-24.414,-38.574,-25.879,0.000,0
160837.635,-30.273,-30.273,-31.250,-26.855,0.000,0
160837.638,-32.227,-32.227,-28.320,-36.133,0.000,0
160837.642,-25.879,-28.809,-52.246,-14.648,0.000,0
160837.646,-24.902,-30.273,-59.570,-32.715,0.000,0
160837.650,-24.414,-31.738,-32.715,-23.926,0.000,0
160837.654,-26.855,-34.180,-28.320,-21.484,0.000,0
160837.658,-37.598,-31.738,-43.457,-22.461,0.000,0
160837.662,-44.434,-28.809,-42.969,-20.020,0.000,0
160837.666,-27.832,-26.367,-32.715,-21.973,0.000,0
160837.670,-6.348,-24.902,-34.180,-20.508,0.000,0
160837.674,-14.648,-27.344,-33.691,-28.320,0.000,0
160837.678,-31.250,-25.391,-27.832,-10.254,0.000,0
160837.681,-43.457,-24.902,-36.621,-20.020,0.000,0
160837.685,-35.156,-20.508,-35.156,-30.762,0.000,0
160837.689,-23.438,-23.926,-23.926,-20.020,0.000,0
160837.693,-41.504,-24.414,-16.113,-30.273,0.000,0
160837.697,-47.852,-18.555,-24.902,-34.180,0.000,2
160837.701,-31.738,-17.090,-32.227,-20.508,0.000,0
160837.705,-20.508,-18.555,-24.902,-28.809,0.000,0
160837.709,-29.785,-17.578,-10.742,-34.180,0.000,0
160837.713,-31.250,-16.602,-20.508,-21.484,0.000,0
160837.717,-16.602,-18.555,-37.598,-21.484,0.000,0
160837.721,-23.926,-23.926,-25.879,-19.043,0.000,0
160837.724,-34.668,-23.926,-8.301,-11.230,0.000,0
160837.728,-27.832,-23.926,-15.137,-1.465,0.000,0
160837.732,-21.973,-26.367,-16.602,-24.414,0.000,0
160837.736,-26.367,-25.879,-20.508,-34.180,0.000,0
160837.740,-31.250,-26.367,-9.766,-44.922,0.000,0
160837.744,-23.926,-26.367,-27.344,-33.691,0.000,0
160837.748,-24.902,-27.344,-42.969,-19.531,0.000,0
160837.752,-32.715,-34.180,-16.113,-37.109,0.000,0
160837.756,-26.367,-29.785,-17.578,-34.668,0.000,0
160837.760,-23.926,-25.391,-23.438,-15.625,0.000,0
160837.763,-33.691,-27.344,-27.344,-17.090,0.000,0
160837.767,-21.973,-32.715,-19.531,-20.020,0.000,0
160837.771,-22.949,-28.320,0.000,-21.484,0.000,0
160837.775,-26.367,-26.855,-28.320,-30.762,0.000,0
160837.779,-21.973,-34.180,-37.598,-31.250,0.000,0
160837.783,-25.391,-32.227,-21.484,-15.137,0.000,0
160837.787,-25.879,-29.785,-17.090,-17.578,0.000,0
160837.791,-16.602,-31.250,-18.066,-34.180,0.000,0
160837.795,-17.578,-25.879,-34.668,-24.414,0.000,0
160837.799,-13.184,-19.043,-20.020,-16.113,0.000,0
160837.803,-6.348,-18.555,-4.395,-25.879,0.000,0
160837.806,-10.254,-22.949,-19.043,-32.715,0.000,0
160837.810,-9.277,-25.391,-16.602,-26.367,0.000,0
160837.814,-20.508,-20.996,-6.836,-18.555,0.000,0
160837.818,-15.625,-18.066,-14.648,-13.184,0.000,0
160837.822,-4.883,-18.066,-22.949,-13.184,0.000,0
160837.826,-15.625,-19.043,-18.066,-15.137,0.000,0
160837.830,-22.461,-19.043,-2.930,-22.949,0.000,0
160837.834,-19.531,-15.137,-15.137,-22.461,0.000,0
160837.838,-18.066,-17.578,-23.926,-20.996,0.000,0
160837.842,-20.020,-24.414,-8.789,-21.973,0.000,0
160837.846,-25.879,-26.367,-3.906,-34.668,0.000,0
160837.849,-21.484,-27.832,-22.949,-34.668,0.000,0
160837.853,-11.719,-27.832,-27.344,-31.250,0.000,0
160837.857,-13.672,-23.438,-23.926,-22.461,0.000,0
160837.861,-16.602,-14.648,-19.043,-12.207,0.000,0
160837.865,-14.648,-13.184,-27.344,-19.043,0.000,0
160837.869,-18.555,-19.043,-10.742,-35.645,0.000,0
160837.873,-20.996,-21.484,-9.277,-38.574,0.000,0
160837.877,-16.113,-25.879,-36.133,-26.855,0.000,0
160837.881,-12.695,-25.879,-36.133,-22.949,0.000,0
160837.885,-19.043,-23.438,-31.250,-25.879,0.000,0
160837.888,-24.902,-25.391,-10.742,-16.602,0.000,0
160837.892,-25.391,-20.508,-11.230,-13.184,0.000,0
160837.896,-22.949,-21.484,-30.273,-25.391,0.000,0
160837.900,-29.785,-31.250,-37.109,-33.691,0.000,0
160837.904,-36.621,-30.762,-22.949,-35.156,0.000,0
160837.908,-37.109,-26.855,-20.996,-31.250,0.000,0
160837.912,-33.691,-26.367,-39.062,-34.668,0.000,0
160837.916,-31.250,-28.320,-34.668,-23.926,0.000,0
160837.920,-34.180,-30.273,-25.391,-27.832,0.000,0
160837.924,-27.832,-29.785,-36.133,-27.344,0.000,0
160837.928,-29.785,-34.668,-38.086,-30.273,0.000,0
160837.931,-30.762,-32.715,-34.668,-35.156,0.000,0
160837.935,-25.879,-24.902,-42.480,-17.578,0.000,0
160837.939,-32.227,-24.414,-39.551,-15.625,0.000,0
160837.943,-27.344,-30.762,-36.133,-18.555,0.000,0
160837.947,-27.832,-37.598,-24.414,-47.852,0.000,0
160837.951,-30.762,-37.109,-37.109,-47.852,0.000,0
160837.955,-22.949,-32.227,-51.758,-9.766,0.000,0
160837.959,-22.461,-28.809,-43.457,-26.367,0.000,0
160837.963,-23.438,-28.809,-38.574,-39.062,0.000,0
160837.967,-34.180,-29.785,-31.738,-27.344,0.000,0
160837.971,-43.945,-29.297,-32.227,-20.996,0.000,0
160837.974,-41.992,-34.180,-42.969,-27.344,0.000,0
160837.978,-41.992,-31.738,-36.133,-44.922,0.000,0
160837.982,-36.621,-23.926,-27.344,-29.297,0.000,0
160837.986,-28.320,-24.414,-20.020,-29.297,0.000,0
160837.990,-26.855,-28.809,-14.648,-53.711,0.000,0
160837.994,-29.785,-25.879,-14.648,-36.133,0.000,0
160837.998,-31.250,-23.926,-36.133,-27.344,0.000,0
160838.002,-27.832,-24.902,-52.734,-27.344,0.000,0
160838.006,-21.973,-21.973,-25.391,-27.344,0.000,0
160838.010,-22.949,-23.926,-13.672,-37.109,0.000,0
160838.013,-24.902,-23.438,-34.180,-27.832,0.000,0
160838.017,-24.414,-20.996,-32.715,-31.738,0.000,0
160838.021,-33.691,-23.926,-28.320,-24.414,0.000,0
160838.025,-37.598,-27.832,-28.809,-28.320,0.000,0
160838.029,-22.461,-22.949,-24.902,-44.434,0.000,0
160838.033,-21.973,-21.484,-35.156,-30.273,0.000,0
160838.037,-29.785,-23.926,-35.156,-12.207,0.000,0
160838.041,-33.691,-24.902,-27.344,-17.578,0.000,0
160838.045,-24.414,-27.344,-36.133,-24.902,0.000,0
160838.049,-23.438,-30.762,-32.715,-43.945,0.000,0
160838.053,-33.203,-32.227,-23.438,-56.641,0.000,0
160838.056,-17.090,-28.809,-32.715,-37.598,0.000,0
160838.060,-7.812,-25.879,-50.781,-28.320,0.000,0
160838.064,-22.949,-27.344,-38.086,-21.484,0.000,0
160838.068,-23.438,-23.926,-7.812,-19.531,0.000,0
160838.072,-23.438,-23.438,-16.113,-12.207,0.000,0
160838.076,-13.184,-24.902,-34.180,-1.465,0.000,0
160838.080,-5.859,-21.484,-30.762,-6.348,0.000,0
160838.084,-8.301,-19.531,-16.113,-1.953,0.000,0
160838.088,-5.371,-16.602,-7.324,-10.254,0.000,0
160838.092,-14.160,-12.207,-27.344,-23.438,0.000,0
160838.096,-20.996,-12.207,-26.855,-21.973,0.000,0
160838.099,-11.719,-12.207,-7.812,-9.277,0.000,0
160838.103,-12.207,-16.602,-18.555,-35.645,0.000,0
160838.107,-19.531,-19.531,-11.230,-46.875,0.000,0
160838.111,-23.926,-20.996,-22.461,-13.184,0.000,0
160838.115,-26.855,-28.809,-43.457,-29.297,0.000,0
160838.119,-30.762,-27.832,-39.062,-22.461,0.000,0
160838.123,-27.344,-27.832,-33.691,-11.230,0.000,0
160838.127,-24.902,-30.762,-24.902,-22.461,0.000,0
160838.131,-29.785,-24.902,-32.715,-12.207,0.000,0
160838.135,-30.273,-27.344,-45.410,-20.508,0.000,0
160838.138,-33.203,-30.273,-51.758,-21.973,0.000,0
160838.142,-37.598,-20.996,-24.902,-9.766,0.000,0
160838.146,-31.250,-11.230,0.488,-15.625,0.000,0
160838.150,-26.367,-11.719,-23.926,-14.160,0.000,0
160838.154,-32.227,-20.020,-20.020,-32.715,0.000,0
160838.158,-32.227,-22.949,-16.113,-29.785,0.000,0
160838.162,-34.668,-22.949,-33.203,-18.555,0.000,0
160838.166,-42.969,-29.297,-26.855,-43.457,0.000,0
160838.170,-51.758,-27.344,-25.391,-58.594,0.000,0
160838.174,-47.852,-22.949,-27.344,-41.504,0.000,0
160838.178,-37.109,-26.367,-33.691,-19.531,0.000,0
160838.181,-27.832,-27.832,-51.758,-29.297,0.000,0
160838.185,-22.949,-25.391,-33.691,-44.434,0.000,0
160838.189,-27.832,-17.090,-4.883,-31.738,0.000,0
160838.193,-23.926,-15.625,-23.926,-28.320,0.000,0
160838.197,-22.461,-19.043,-39.062,-32.227,0.000,0
160838.201,-26.855,-19.043,-35.156,-25.391,0.000,0
160838.205,-28.320,-20.996,-17.090,-38.574,0.000,0
160838.209,-29.785,-20.508,-19.531,-35.156,0.000,0
160838.213,-28.809,-20.020,-42.969,-21.484,0.000,0
160838.217,-22.461,-18.066,-36.133,-22.949,0.000,0
160838.221,-21.973,-21.973,-15.625,-16.602,0.000,0
160838.224,-13.184,-20.020,-17.578,-35.156,0.000,0
160838.228,-13.184,-18.066,-32.227,-38.086,0.000,0
160838.232,-26.855,-20.996,-16.113,-30.762,0.000,0
160838.236,-11.719,-19.043,-20.996,-15.625,0.000,0
160838.240,-11.719,-17.578,-39.062,-0.977,0.000,0
160838.244,-21.484,-14.160,-15.137,-18.555,0.000,0
160838.248,-14.648,-12.207,-15.625,-12.207,0.000,0
160838.252,-10.742,-16.602,-29.297,-15.625,0.000,0
160838.256,-8.301,-14.648,-24.414,-21.973,0.000,0
160838.260,-9.277,-11.719,-23.438,-0.488,0.000,0
160838.263,-14.648,-14.160,-21.484,-17.578,0.000,0
160838.267,-13.184,-13.672,-22.461,-25.879,0.000,0
160838.271,-10.254,-9.766,-15.137,-8.789,0.000,0
160838.275,-23.438,-9.766,-14.160,-9.766,0.000,0
160838.279,-16.602,-9.766,-14.160,-25.391,0.000,0
160838.283,-5.859,-13.672,-11.719,-28.320,0.000,0
160838.287,-13.184,-18.555,-21.973,-7.324,0.000,0
160838.291,-13.184,-17.578,-35.645,-10.742,0.000,0
160838.295,-12.207,-11.719,-30.273,-33.691,0.000,0
160838.299,-12.695,-10.742,-25.879,-29.297,0.000,0
160838.303,-14.648,-13.672,-17.578,-25.391,0.000,0
160838.306,-15.625,-16.602,-17.090,-35.156,0.000,0
160838.310,-12.695,-21.484,-26.367,-18.066,0.000,0
160838.314,-12.695,-20.508,-29.297,-10.742,0.000,0
160838.318,-9.277,-17.090,-23.926,-9.766,0.000,0
160838.322,-19.043,-19.531,-14.160,-16.113,0.000,2
160838.326,-27.832,-22.461,-31.738,-26.855,0.000,0
160838.330,-13.184,-19.531,-44.434,-15.625,0.000,0
160838.334,-20.020,-16.602,-24.414,-12.207,0.000,0
160838.338,-32.227,-20.996,-21.973,-26.855,0.000,0
160838.342,-33.203,-16.113,-22.461,-44.922,0.000,0
160838.346,-28.809,-12.695,-23.926,-43.945,0.000,0
160838.349,-16.602,-21.484,-36.621,-16.113,0.000,0
160838.353,-20.020,-21.484,-33.203,-15.137,0.000,0
160838.357,-29.785,-22.461,-23.438,-24.414,0.000,0
160838.361,-28.320,-24.902,-27.832,-39.062,0.000,0
160838.365,-32.227,-26.367,-26.367,-46.387,0.000,0
160838.369,-29.785,-27.344,-20.508,-22.949,0.000,0
160838.373,-23.926,-22.461,-35.156,-14.648,0.000,0
160838.377,-21.973,-20.020,-42.969,-20.508,0.000,0
160838.381,-27.832,-25.879,-27.832,-29.785,0.000,0
160838.385,-34.180,-24.414,-24.902,-22.461,0.000,0
160838.388,-14.648,-20.020,-35.645,-22.461,0.000,0
160838.392,-19.531,-26.367,-41.992,-32.227,0.000,0
160838.396,-25.879,-24.414,-32.715,-28.809,0.000,0
160838.400,2.441,-16.602,-12.695,-28.320,0.000,0
160838.404,-5.371,-18.555,-30.762,-48.340,0.000,0
160838.408,-41.016,-25.391,-48.340,-50.293,0.000,0
160838.412,-43.457,-21.973,-42.480,-44.434,0.000,0
160838.416,-26.367,-16.113,-47.363,-22.461,0.000,0
160838.420,-22.461,-15.625,-39.062,-27.344,0.000,0
160838.424,-36.621,-16.602,-35.156,-40.039,0.000,0
160838.428,-40.527,-19.531,-40.527,-35.645,0.000,0
160838.431,-30.273,-17.090,-45.898,-36.133,0.000,0
160838.435,-24.902,-18.066,-34.668,-25.391,0.000,0
160838.439,-29.297,-25.391,-15.137,-25.879,0.000,0
160838.443,-34.180,-23.438,-31.250,-30.762,0.000,0
160838.447,-32.227,-16.113,-38.086,-34.180,0.000,0
160838.451,-36.621,-20.020,-34.180,-28.809,0.000,0
160838.455,-46.387,-26.855,-29.785,-27.344,0.000,0
160838.459,-45.410,-22.949,-28.809,-47.852,0.000,0
160838.463,-31.250,-20.996,-44.434,-39.062,0.000,0
160838.467,-32.715,-21.484,-37.598,-29.297,0.000,0
160838.471,-42.969,-20.508,-26.855,-34.180,0.000,0
160838.474,-37.598,-20.020,-43.457,-39.551,0.000,0
160838.478,-24.902,-20.996,-30.762,-52.734,0.000,0
160838.482,-25.879,-25.391,-24.902,-41.504,0.000,0
160838.486,-29.785,-27.344,-30.762,-35.156,0.000,0
160838.490,-24.902,-20.996,-39.062,-40.039,0.000,0
160838.494,-26.367,-24.414,-41.504,-26.367,0.000,0
160838.498,-28.320,-29.785,-18.066,-41.016,0.000,0
160838.502,-23.926,-23.438,-21.973,-48.340,0.000,0
160838.506,-23.926,-20.996,-30.762,-17.578,0.000,0
160838.510,-21.973,-26.367,-40.527,-15.625,0.000,0
160838.513,-27.832,-28.320,-31.738,-28.809,0.000,0
160838.517,-21.973,-21.973,4.883,-31.250,0.000,0
160838.521,-18.555,-19.043,-14.160,-30.762,0.000,0
160838.525,-34.180,-23.926,-46.875,-39.062,0.000,0
160838.529,-30.762,-23.926,-30.273,-23.926,0.000,0
160838.533,-27.832,-20.020,-11.719,-15.137,0.000,0
160838.537,-18.066,-20.508,-6.836,-46.387,0.000,0
160838.541,-5.859,-22.461,-17.090,-39.062,0.000,0
160838.545,-16.113,-21.973,-20.020,-35.156,0.000,0
160838.549,-24.902,-24.414,-20.508,-29.297,0.000,0
160838.553,-27.344,-25.879,-34.180,-5.859,0.000,0
160838.556,-20.508,-26.855,-29.785,-15.625,0.000,0
160838.560,-16.113,-24.414,-15.625,-26.855,0.000,0
160838.564,-14.648,-26.367,-36.621,-33.691,0.000,0
160838.568,-12.695,-34.668,-42.480,-50.781,0.000,0
160838.572,-26.855,-34.668,-30.273,-23.926,0.000,0
160838.576,-26.855,-28.320,-32.715,-14.160,0.000,0
160838.580,-19.043,-28.809,-36.133,-37.598,0.000,0
160838.584,-20.508,-25.879,-35.156,-30.762,0.000,0
160838.588,-16.602,-22.461,-30.273,-22.949,0.000,0
160838.592,-16.113,-22.461,-27.344,-14.648,0.000,0
160838.596,-18.555,-20.508,-19.043,-13.184,0.000,0
160838.599,-25.391,-21.973,-19.043,-27.344,0.000,0
160838.603,-26.855,-25.879,-24.414,-13.672,0.000,0
160838.607,-24.414,-27.344,-22.949,-9.766,0.000,0
160838.611,-31.250,-25.391,-38.574,-21.973,0.000,0
160838.615,-23.438,-24.902,-28.320,-29.297,0.000,0
160838.619,-17.578,-23.438,-13.184,-37.598,0.000,0
160838.623,-25.879,-26.367,-24.414,-33.691,0.000,0
160838.627,-30.762,-26.367,-31.738,-30.273,0.000,0
160838.631,-28.320,-23.926,-29.297,-6.348,0.000,0
160838.635,-24.902,-25.879,-15.137,-16.602,0.000,0
160838.638,-22.461,-20.996,-10.742,-26.855,0.000,0
160838.642,-12.207,-19.531,-37.109,-20.508,0.000,0
160838.646,-14.160,-21.484,-38.086,-14.648,0.000,0
160838.650,-27.344,-26.855,-21.484,-2.930,0.000,0
160838.654,-17.578,-29.297,-30.273,-2.930,0.000,0
160838.658,-17.578,-29.297,-42.969,-18.555,0.000,0
160838.662,-26.855,-25.879,-35.156,-37.109,0.000,0
160838.666,-24.902,-20.020,-29.785,-13.184,0.000,0
160838.670,-18.555,-25.879,-32.715,-6.836,0.000,0
160838.674,-23.438,-29.297,-30.273,-27.832,0.000,0
160838.678,-26.855,-26.367,-42.480,-10.742,0.000,0
160838.681,-9.277,-16.602,-30.762,-8.789,0.000,0
160838.685,-11.230,-13.184,-16.113,-12.695,0.000,0
160838.689,-21.484,-21.973,-20.996,-1.465,0.000,0
160838.693,-26.367,-22.461,-13.672,-12.207,0.000,0
160838.697,-33.203,-23.926,-8.301,-27.344,0.000,0
160838.701,-28.809,-25.391,-39.551,-29.785,0.000,0
160838.705,-31.250,-25.391,-54.199,-22.949,0.000,0
160838.709,-30.762,-24.902,-37.598,-27.832,0.000,0
160838.713,-28.809,-24.902,-23.926,-42.969,0.000,0
160838.717,-22.949,-27.344,-18.066,-50.293,0.000,0
160838.721,-19.531,-23.926,-29.297,-27.832,0.000,0
160838.724,-31.738,-21.484,-24.902,-26.367,0.000,0
160838.728,-19.043,-18.555,-30.273,-15.137,0.000,0
160838.732,-15.137,-19.531,-39.062,-9.766,0.000,0
160838.736,-18.066,-20.996,-19.043,-31.250,0.000,0
160838.740,-27.832,-24.902,-25.391,-16.602,0.000,0
160838.744,-31.250,-27.344,-55.176,-14.648,0.000,0
160838.748,-16.602,-28.809,-55.664,-27.344,0.000,0
160838.752,-19.531,-33.691,-34.668,-15.137,0.000,0
160838.756,-25.879,-33.691,-5.371,-33.203,0.000,0
160838.760,-39.062,-31.250,-28.809,-27.832,0.000,0
160838.763,-34.180,-30.762,-51.270,-24.414,0.000,0
160838.767,-24.902,-30.273,-45.410,-22.949,0.000,0
160838.771,-32.715,-30.762,-30.762,-20.996,0.000,0
160838.775,-30.762,-30.273,-27.832,-31.738,0.000,0
160838.779,-24.414,-29.785,-57.129,-26.855,0.000,0
160838.783,-21.484,-27.832,-42.480,-20.020,0.000,0
160838.787,-29.785,-25.879,-25.391,-19.531,0.000,0
160838.791,-31.738,-23.438,-30.273,-30.762,0.000,0
160838.795,-31.250,-23.438,-30.762,-38.086,0.000,0
160838.799,-23.926,-24.414,-13.184,-40.527,0.000,0
160838.803,-22.461,-23.926,-19.043,-34.668,0.000,0
160838.806,-28.320,-20.508,-43.457,-25.879,0.000,0
160838.810,-13.184,-15.625,-16.602,-22.949,0.000,0
160838.814,-8.301,-15.137,-4.395,-16.113,0.000,0
160838.818,-5.859,-17.090,-34.668,-15.137,0.000,0
160838.822,-18.555,-17.090,-34.180,-33.691,0.000,0
160838.826,-23.438,-15.137,-18.066,-39.551,0.000,0
160838.830,-13.184,-19.043,-21.484,-24.414,0.000,0
160838.834,-18.555,-22.949,-22.461,-25.391,0.000,0
160838.838,-23.438,-24.902,-35.156,-31.250,0.000,0
160838.842,-26.855,-26.367,-26.855,-27.344,0.000,0
160838.846,-27.832,-25.391,-15.137,-31.250,0.000,0
160838.849,-18.555,-24.414,-30.273,-22.949,0.000,0
160838.853,-10.742,-22.949,-17.090,-16.602,0.000,0
160838.857,-18.555,-26.367,-32.227,-19.043,0.000,2
160838.861,-21.973,-27.344,-36.133,-19.043,0.000,0
160838.865,-21.973,-24.902,-31.738,-20.020,0.000,0
160838.869,-23.438,-26.367,-24.414,-26.855,0.000,0
160838.873,-31.738,-30.273,-18.555,-45.410,0.000,0
160838.877,-36.133,-28.809,-29.297,-27.832,0.000,0
160838.881,-25.391,-20.996,-28.809,6.348,0.000,0
160838.885,-25.391,-21.484,-28.809,-2.441,0.000,0
160838.888,-28.809,-23.438,-24.902,-11.719,0.000,0
160838.892,-24.902,-18.555,-26.367,-13.184,0.000,0
160838.896,-24.414,-18.555,-43.945,-23.926,0.000,0
160838.900,-26.855,-20.020,-31.738,-37.109,0.000,0
160838.904,-29.785,-23.926,-28.320,-24.902,0.000,0
160838.908,-27.832,-31.738,-42.480,-11.719,0.000,0
160838.912,-20.508,-30.273,-32.715,-31.738,0.000,0
160838.916,-21.973,-22.461,-21.973,-37.109,0.000,0
160838.920,-22.461,-20.020,-22.949,-6.836,0.000,0
160838.924,-14.160,-20.020,-27.832,-5.371,0.000,0
160838.928,-14.648,-15.625,-20.020,-13.184,0.000,0
160838.931,-13.672,-14.648,-10.254,-21.484,0.000,0
160838.935,-19.043,-15.625,-15.625,-25.391,0.000,0
160838.939,-24.414,-21.484,-35.156,-25.879,0.000,0
160838.943,-24.414,-27.832,-42.480,-27.832,0.000,0
160838.947,-23.926,-20.996,-35.645,-22.949,0.000,0
160838.951,-25.879,-19.531,-29.785,-41.016,0.000,0
160838.955,-31.738,-24.902,-41.504,-26.855,0.000,0
160838.959,-17.578,-23.926,-41.504,-6.836,0.000,0
160838.963,-18.555,-23.926,-29.785,-27.344,0.000,0
160838.967,-21.973,-22.949,-26.367,-12.695,0.000,0
160838.971,-14.648,-19.531,-20.996,-24.902,0.000,0
160838.974,-19.043,-20.508,-28.320,-57.129,0.000,0
160838.978,-27.344,-25.879,-20.508,-33.691,0.000,0
160838.982,-24.414,-26.855,-27.344,-9.766,0.000,0
160838.986,-17.578,-26.367,-42.480,-9.766,0.000,0
160838.990,-21.484,-26.367,-23.926,-21.484,0.000,0
160838.994,-14.648,-24.414,-31.250,-29.297,0.000,0
160838.998,-19.043,-22.461,-45.410,-30.273,0.000,0
160839.002,-23.926,-21.973,-39.551,-23.438,0.000,0
160839.006,-29.297,-22.461,-29.785,-19.043,0.000,0
160839.010,-32.715,-20.996,-15.625,-31.738,0.000,0
160839.013,-17.090,-22.461,-22.949,-40.527,0.000,0
160839.017,-12.695,-24.902,-28.320,-32.227,0.000,0
160839.021,-12.207,-20.508,-19.531,-23.926,0.000,0
160839.025,-2.930,-18.555,-18.555,-13.672,0.000,0
160839.029,-8.301,-21.973,-25.391,-20.020,0.000,0
160839.033,-11.230,-19.531,-30.762,-15.625,0.000,0
160839.037,-12.695,-21.973,-30.273,-17.090,0.000,0
160839.041,-15.625,-25.391,-29.297,-20.508,0.000,0
160839.045,-14.160,-19.531,-29.785,-16.113,0.000,0
160839.049,-17.578,-19.531,-16.113,-31.250,0.000,0
160839.053,-8.301,-19.043,-12.695,-38.086,0.000,0
160839.056,-9.277,-8.301,-29.297,-31.250,0.000,0
160839.060,-8.301,-8.789,-40.527,-35.156,0.000,0
160839.064,-10.742,-20.020,-31.738,-23.438,0.000,0
160839.068,-20.996,-20.020,-7.324,-10.742,0.000,0
160839.072,-19.531,-17.090,-15.625,-32.715,0.000,0
160839.076,-13.184,-16.113,-39.062,-36.621,0.000,0
160839.080,-10.742,-14.160,-13.672,-25.879,0.000,0
160839.084,-12.695,-11.230,-7.324,-29.297,0.000,0
160839.088,-20.996,-15.137,-15.625,-33.691,0.000,0
160839.092,-26.855,-17.578,-14.648,-29.785,0.000,0
160839.096,-17.090,-21.484,-26.367,-19.043,0.000,0
160839.099,-13.184,-23.438,-25.391,-16.602,0.000,0
160839.103,-18.066,-20.996,-29.785,-22.461,0.000,0
160839.107,-21.973,-23.438,-20.020,-35.645,0.000,0
160839.111,-24.414,-20.508,-12.207,-38.086,0.000,0
160839.115,-28.809,-19.531,-22.461,-35.645,0.000,0
160839.119,-28.320,-24.414,-35.645,-26.855,0.000,0
160839.123,-19.531,-27.344,-52.246,-6.348,0.000,0
160839.127,-28.320,-32.227,-20.508,-23.926,0.000,0
160839.131,-32.227,-33.203,-6.836,-30.762,0.000,0
160839.135,-25.879,-29.785,-40.039,-21.484,0.000,0
160839.138,-20.020,-25.879,-36.133,-29.297,0.000,0
160839.142,-24.902,-19.043,-27.344,-35.156,0.000,0
160839.146,-31.738,-24.414,-15.625,-41.992,0.000,0
160839.150,-25.391,-29.785,-18.066,-51.270,0.000,0
160839.154,-22.949,-24.902,-30.273,-33.203,0.000,0
160839.158,-25.391,-28.320,-28.809,-18.066,0.000,0
160839.162,-34.180,-30.273,-33.203,-9.277,0.000,0
160839.166,-28.320,-27.344,-30.273,-14.648,0.000,0
160839.170,-24.414,-28.320,-30.273,-26.367,0.000,0
160839.174,-27.832,-24.902,-31.250,-14.160,0.000,0
160839.178,-20.508,-22.461,-36.133,-7.324,0.000,0
