timestamps,TP9,AF7,AF8,TP10,Right AUX,Marker0
28203.307,-18.066,-22.949,-82.031,-13.184,0.000,0
28203.311,-38.574,-23.438,-104.492,6.348,0.000,0
28203.315,-64.453,-24.414,-0.977,-40.527,0.000,0
28203.318,-43.457,-20.996,-38.086,-38.086,0.000,0
28203.322,-26.855,-14.160,-85.938,7.812,0.000,0
28203.326,-51.270,-13.184,-25.879,0.977,0.000,0
28203.330,-79.102,-17.578,-27.344,-1.953,0.000,0
28203.334,-43.457,-20.996,-5.859,-42.480,0.000,0
28203.338,-20.996,-22.461,5.371,-59.570,0.000,0
28203.342,-40.039,-23.438,-10.742,-33.203,0.000,0
28203.346,-51.758,-20.508,-66.406,-6.348,0.000,0
28203.350,-33.203,-19.043,-176.758,17.090,0.000,0
28203.354,-13.672,-22.461,-80.566,-35.645,0.000,0
28203.358,-45.410,-22.461,28.809,-45.410,0.000,0
28203.361,-65.430,-20.996,-53.711,-3.418,0.000,0
28203.365,-56.641,-25.879,-89.844,-23.438,0.000,0
28203.369,-55.664,-23.926,-54.688,-18.555,0.000,0
28203.373,-75.684,-21.973,57.617,-36.133,0.000,0
28203.377,-68.359,-24.902,19.531,-89.355,0.000,0
28203.381,-46.875,-21.484,-140.625,-52.734,0.000,0
28203.385,-43.457,-30.273,-115.234,-16.602,0.000,0
28203.389,-66.895,-36.133,-76.660,-12.695,0.000,0
28203.393,-73.242,-37.598,36.133,-67.383,0.000,0
28203.397,-65.918,-34.668,62.988,-116.699,0.000,0
28203.400,-67.871,-27.832,-80.078,-47.852,0.000,0
28203.404,-50.781,-32.715,-53.223,-45.410,0.000,0
28203.408,-39.062,-36.133,-114.746,-25.391,0.000,0
28203.412,-42.480,-36.133,-75.195,-29.297,0.000,0
28203.416,-51.758,-34.668,22.461,-78.613,0.000,0
28203.420,-61.035,-28.320,-27.832,-33.203,0.000,0
28203.424,-40.527,-29.785,-77.637,-0.488,0.000,0
28203.428,-14.160,-22.949,-155.762,2.441,0.000,0
28203.432,-62.500,-23.438,51.758,-30.762,0.000,0
28203.436,-78.613,-25.391,169.922,-62.988,0.000,0
28203.440,-14.648,-11.230,-68.848,-25.391,0.000,0
28203.443,-23.438,-16.602,-61.035,-23.438,0.000,0
28203.447,-65.430,-21.973,-78.125,4.883,0.000,0
28203.451,-47.852,-26.367,-14.160,-5.859,0.000,0
28203.455,-38.574,-30.273,76.660,-53.223,0.000,0
28203.459,-41.016,-22.461,-55.176,4.395,0.000,0
28203.463,-49.805,-22.461,-86.426,23.438,0.000,0
28203.467,-66.406,-27.344,-48.340,8.789,0.000,0
28203.471,-37.109,-24.414,21.484,-8.301,0.000,0
28203.475,-14.160,-20.020,50.781,-47.363,0.000,0
28203.479,-50.781,-18.555,29.297,-32.227,0.000,0
28203.483,-48.828,-19.531,8.301,-10.742,0.000,0
28203.486,0.977,-20.996,-119.141,16.602,0.000,0
28203.490,-9.277,-20.508,-20.020,10.254,0.000,0
28203.494,-30.273,-23.438,79.590,-37.109,0.000,0
28203.498,-41.504,-29.297,-34.668,-25.391,0.000,0
28203.502,-13.184,-32.227,-176.758,1.953,0.000,0
28203.506,2.441,-27.344,-108.398,0.977,0.000,0
28203.510,-36.133,-27.832,57.129,-9.766,0.000,0
28203.514,-44.434,-31.250,32.715,-58.105,0.000,0
28203.518,-33.691,-29.297,23.926,-70.312,0.000,0
28203.522,-49.805,-33.203,42.480,-33.691,0.000,0
28203.525,-47.852,-26.367,-8.789,-7.324,0.000,0
28203.529,-14.648,-23.438,-84.961,-23.438,0.000,0
28203.533,-15.625,-29.297,-18.555,-50.293,0.000,0
28203.537,-21.484,-19.043,-13.672,-11.719,0.000,0
28203.541,-9.277,-22.949,-41.016,-5.859,0.000,0
28203.545,-15.137,-31.250,-73.242,-21.484,0.000,0
28203.549,-39.551,-30.762,-50.781,-20.996,0.000,0
28203.553,-37.598,-32.715,33.203,-57.617,0.000,0
28203.557,-31.738,-32.227,20.996,-65.430,0.000,0
28203.561,-41.992,-24.902,-39.062,-11.719,0.000,0
28203.565,-37.109,-18.066,-98.145,13.184,0.000,0
28203.568,-43.945,-23.926,16.602,5.859,0.000,0
28203.572,-45.898,-28.809,86.914,-34.180,0.000,0
28203.576,-7.812,-20.996,-59.570,-43.457,0.000,0
28203.580,-10.254,-16.602,-106.445,-24.902,0.000,0
28203.584,-20.996,-18.066,-66.895,-5.859,0.000,0
28203.588,-6.836,-21.973,-96.191,30.273,0.000,0
28203.592,0.000,-22.461,-62.500,-10.254,0.000,0
28203.596,-25.879,-15.625,-41.504,-31.738,0.000,0
28203.600,-48.340,-17.090,-26.367,-6.836,0.000,0
28203.604,-28.809,-18.555,-85.938,16.602,0.000,0
28203.608,-35.156,-20.508,-81.543,24.902,0.000,0
28203.611,-58.594,-25.391,20.996,-26.855,0.000,0
28203.615,-60.547,-29.785,-16.602,-51.270,0.000,0
28203.619,-19.531,-32.227,-103.516,-42.969,0.000,0
28203.623,-8.301,-26.855,-114.258,-19.043,0.000,0
28203.627,-29.785,-19.531,-95.703,23.438,0.000,0
28203.631,-46.875,-21.973,-13.184,-17.090,0.000,0
28203.635,-45.898,-29.297,-33.203,-24.902,0.000,0
28203.639,-24.902,-24.902,-110.840,21.484,0.000,0
28203.643,-37.109,-23.438,-74.707,0.977,0.000,0
28203.647,-55.664,-25.879,-88.379,-5.859,0.000,0
28203.650,-52.246,-26.367,-12.695,-36.133,0.000,0
28203.654,-50.293,-27.344,1.953,-58.105,0.000,0
28203.658,-67.383,-24.414,23.438,-31.250,0.000,0
28203.662,-66.895,-21.484,-43.945,-13.672,0.000,0
28203.666,-38.086,-25.391,-193.359,3.418,0.000,0
28203.670,-41.504,-29.297,-27.832,-43.457,0.000,0
28203.674,-54.199,-30.273,-28.809,-54.688,0.000,0
28203.678,-54.199,-29.297,-162.598,-11.719,0.000,0
28203.682,-54.199,-29.785,-150.879,-18.555,0.000,0
28203.686,-65.918,-35.156,-79.590,-18.555,0.000,0
28203.690,-64.941,-32.715,47.363,-55.664,0.000,0
28203.693,-59.082,-29.297,12.695,-75.195,0.000,0
28203.697,-64.453,-26.367,-95.215,-38.574,0.000,0
28203.701,-66.895,-25.879,-54.688,-21.484,0.000,0
28203.705,-62.500,-21.973,-13.184,-20.020,0.000,0
28203.709,-35.645,-20.508,-42.969,-42.480,0.000,0
28203.713,-29.297,-21.973,-109.375,-32.227,0.000,0
28203.717,-51.758,-21.973,-95.215,11.230,0.000,0
28203.721,-56.641,-24.902,-24.414,3.418,0.000,0
28203.725,-35.156,-19.531,-79.590,9.277,0.000,0
28203.729,-40.039,-20.996,-0.977,-31.738,0.000,0
28203.733,-60.547,-22.461,68.359,-75.195,0.000,0
28203.736,-48.828,-20.996,-23.926,-26.367,0.000,0
28203.740,-24.902,-23.438,-83.984,4.395,0.000,0
28203.744,-40.039,-25.391,-103.027,-2.441,0.000,0
28203.748,-97.168,-34.180,64.453,-42.480,0.000,0
28203.752,-84.961,-33.691,130.371,-74.219,0.000,0
28203.756,-39.551,-25.879,-35.645,-48.340,0.000,0
28203.760,-37.598,-29.785,-55.664,-47.852,0.000,0
28203.764,-43.945,-36.133,-101.562,-25.391,0.000,0
28203.768,-49.805,-38.574,-96.680,0.977,0.000,0
28203.772,-32.715,-41.992,-83.008,-41.992,0.000,0
28203.775,-12.695,-38.086,-152.344,-27.344,0.000,0
28203.779,-38.574,-30.762,-74.219,4.395,0.000,0
28203.783,-40.039,-27.832,-58.594,-18.066,0.000,0
28203.787,-26.367,-28.809,30.762,-50.781,0.000,0
28203.791,-34.668,-32.715,106.934,-82.031,0.000,0
28203.795,-47.363,-31.738,-0.488,-53.711,0.000,0
28203.799,-38.574,-25.391,-34.668,-31.250,0.000,0
28203.803,-14.160,-23.438,-63.477,2.441,0.000,0
28203.807,-32.715,-32.715,17.090,-7.324,0.000,0
28203.811,-69.824,-34.180,64.941,-43.457,0.000,0
28203.815,-45.898,-32.227,-118.164,-8.301,0.000,0
28203.818,-14.648,-40.527,-155.762,4.395,0.000,0
28203.822,-31.738,-42.480,-62.988,-8.789,0.000,0
28203.826,-44.922,-35.645,-15.137,-22.461,0.000,0
28203.830,-35.645,-31.738,-21.973,-63.965,0.000,0
28203.834,-20.508,-24.902,-69.336,-53.711,0.000,0
28203.838,-30.273,-18.555,-23.926,-28.320,0.000,0
28203.842,-32.227,-13.672,-71.777,3.418,0.000,0
28203.846,-16.602,-18.555,-100.098,-24.414,0.000,0
28203.850,-17.578,-22.461,-27.832,-70.801,0.000,0
28203.854,-40.527,-14.160,2.930,-22.461,0.000,0
28203.858,-34.180,-14.160,-37.109,-12.207,0.000,0
28203.861,-11.230,-17.578,-154.785,-33.691,0.000,0
28203.865,-30.762,-20.020,-104.980,-30.762,0.000,0
28203.869,-28.809,-15.625,21.484,-58.105,0.000,0
28203.873,-11.719,-10.742,-29.785,-62.500,0.000,0
28203.877,0.488,-8.301,-112.793,-22.461,0.000,0
28203.881,-14.160,-2.930,-117.188,4.395,0.000,0
28203.885,-32.227,-4.395,-40.527,-7.812,0.000,0
28203.889,-26.855,-1.465,5.371,-32.715,0.000,0
28203.893,-10.742,0.000,-64.453,-19.043,0.000,0
28203.897,-23.438,-8.301,-68.848,-19.043,0.000,0
28203.900,-53.711,-19.043,9.766,-37.109,0.000,0
28203.904,-20.020,-21.973,-54.688,-30.273,0.000,0
28203.908,-5.371,-20.996,33.691,-79.590,0.000,0
28203.912,-42.480,-14.648,20.020,-72.266,0.000,0
28203.916,-43.457,-12.695,-121.094,-6.348,0.000,0
28203.920,-19.531,-17.578,-118.164,-4.883,0.000,0
28203.924,-22.461,-21.973,-76.172,-12.695,0.000,0
28203.928,-61.035,-33.691,-5.371,-49.316,0.000,0
28203.932,-79.590,-34.668,-28.809,-71.289,0.000,0
28203.936,-62.500,-32.227,-45.898,-62.500,0.000,0
28203.940,-35.156,-34.668,-80.566,-34.668,0.000,0
28203.943,-56.641,-33.691,-47.852,12.207,0.000,0
28203.947,-64.453,-30.273,-2.441,-30.762,0.000,0
28203.951,-19.531,-31.250,-95.215,-52.246,0.000,0
28203.955,-21.484,-26.855,-84.961,3.418,0.000,0
28203.959,-33.691,-23.926,-67.383,1.953,0.000,0
28203.963,-52.246,-31.738,-89.844,-24.414,0.000,0
28203.967,-48.340,-35.645,-31.250,-55.176,0.000,0
28203.971,-37.598,-32.715,3.906,-66.895,0.000,0
28203.975,-36.133,-28.320,-5.859,-53.711,0.000,0
28203.979,-36.621,-29.297,-57.129,-35.645,0.000,0
28203.983,-47.363,-30.762,-115.723,1.953,0.000,0
28203.986,-42.480,-34.180,54.688,-39.062,0.000,0
28203.990,-48.828,-37.109,105.469,-72.266,0.000,0
28203.994,-24.414,-41.016,-134.766,-29.297,0.000,0
28203.998,-4.883,-39.551,-146.973,-25.391,0.000,0
28204.002,-37.598,-38.086,-13.184,-21.484,0.000,0
28204.006,-44.434,-45.410,48.828,-50.293,0.000,0
28204.010,-17.090,-41.016,70.801,-101.074,0.000,0
28204.014,-28.809,-32.227,-57.617,-65.918,0.000,0
28204.018,-38.574,-36.621,-126.953,4.395,0.000,0
28204.022,-33.203,-37.598,-44.434,24.902,0.000,0
28204.025,-33.203,-37.109,31.738,-34.668,0.000,0
28204.029,-53.223,-35.645,-10.254,-43.457,0.000,0
28204.033,-76.172,-37.598,-34.668,6.836,0.000,0
28204.037,-60.059,-42.480,4.883,-4.395,0.000,0
28204.041,-22.461,-41.016,-104.980,-4.395,0.000,0
28204.045,-33.203,-44.922,0.977,-49.316,0.000,0
28204.049,-45.898,-41.016,50.293,-78.613,0.000,0
28204.053,-25.391,-33.691,-42.480,-39.062,0.000,0
28204.057,-1.953,-35.156,-102.051,-7.324,0.000,0
28204.061,-9.766,-34.180,-105.957,9.766,0.000,0
28204.065,-48.828,-35.645,61.523,-40.039,0.000,0
28204.068,-42.969,-35.645,58.105,-49.316,0.000,0
28204.072,-20.996,-36.133,-58.594,0.977,0.000,0
28204.076,-56.152,-39.062,10.742,-1.953,0.000,0
28204.080,-78.125,-37.598,-21.484,4.395,0.000,0
28204.084,-33.691,-40.527,-2.441,-34.180,0.000,0
28204.088,4.883,-34.180,38.574,-66.895,0.000,0
28204.092,-21.484,-26.855,-1.953,-20.508,0.000,0
28204.096,-41.016,-25.391,-47.852,0.488,0.000,0
28204.100,-16.113,-26.367,-118.652,5.371,0.000,0
28204.104,-23.438,-37.109,52.246,-31.738,0.000,0
28204.108,-42.969,-37.598,99.609,-63.477,0.000,0
28204.111,-30.273,-35.645,22.949,-72.754,0.000,0
28204.115,-19.043,-39.062,-22.949,-78.125,0.000,0
28204.119,-5.859,-30.762,-176.758,9.766,0.000,0
28204.123,-45.898,-33.203,92.773,-0.488,0.000,0
28204.127,-53.711,-40.527,139.160,-63.477,0.000,0
28204.131,-14.648,-37.109,-138.184,-20.508,0.000,0
28204.135,-15.625,-35.645,-98.145,4.883,0.000,0
28204.139,-22.949,-38.086,-46.387,-1.465,0.000,0
28204.143,-27.832,-41.016,0.488,-25.391,0.000,0
28204.147,-24.414,-39.062,8.301,-67.383,0.000,0
28204.150,-18.066,-36.621,-47.852,-47.852,0.000,0
28204.154,-29.785,-39.551,9.277,-31.738,0.000,0
28204.158,-23.926,-37.109,-75.684,3.418,0.000,0
28204.162,-15.625,-36.133,-65.430,-5.859,0.000,0
28204.166,-26.855,-29.785,52.246,-52.246,0.000,0
28204.170,-18.555,-18.555,-4.883,-3.906,0.000,0
28204.174,-14.160,-18.066,-32.715,15.625,0.000,0
28204.178,-3.906,-24.902,-89.844,1.953,0.000,0
28204.182,-30.273,-35.156,3.418,-7.812,0.000,0
28204.186,-44.922,-32.227,118.652,-47.363,0.000,0
28204.190,0.488,-21.973,-20.020,-46.387,0.000,0
28204.193,18.555,-24.902,-114.746,-17.578,0.000,0
28204.197,-3.906,-31.250,-126.465,7.324,0.000,0
28204.201,-32.715,-35.645,12.695,-11.230,0.000,0
28204.205,-17.578,-36.621,41.504,-43.457,0.000,0
28204.209,0.977,-27.344,-57.129,-10.742,0.000,0
28204.213,-21.484,-16.113,-86.426,8.301,0.000,0
28204.217,-32.715,-19.043,20.996,-34.180,0.000,0
28204.221,-5.859,-23.438,46.875,-41.016,0.000,0
28204.225,-0.488,-20.508,-10.254,-24.414,0.000,0
28204.229,-40.527,-19.531,56.641,-53.711,0.000,0
28204.233,-40.039,-16.113,-45.898,-9.277,0.000,0
28204.236,12.207,-19.531,-165.527,28.320,0.000,0
28204.240,4.883,-16.113,-57.129,4.395,0.000,0
28204.244,-13.672,-12.695,5.859,-13.672,0.000,0
28204.248,-13.184,-15.137,-88.867,-12.207,0.000,0
28204.252,-7.812,-20.508,-87.402,-10.742,0.000,0
28204.256,-14.648,-18.066,-1.953,-10.254,0.000,0
28204.260,-32.227,-17.578,13.672,-13.184,0.000,0
28204.264,-32.227,-19.531,-11.719,-48.340,0.000,0
28204.268,-22.461,-21.484,-22.461,-59.082,0.000,0
28204.272,-14.160,-21.973,-12.695,-7.812,0.000,0
28204.275,-23.438,-18.066,-12.207,6.836,0.000,0
28204.279,-11.230,-20.508,-109.375,-7.324,0.000,0
28204.283,-17.578,-27.344,-18.555,-37.598,0.000,0
28204.287,-29.297,-25.879,32.227,-46.875,0.000,0
28204.291,-7.812,-19.043,-29.297,-36.621,0.000,0
28204.295,-9.277,-14.648,-92.285,-24.414,0.000,0
28204.299,-14.160,-11.719,-120.605,11.230,0.000,0
28204.303,-15.137,-16.602,13.672,-29.785,0.000,0
28204.307,-20.996,-20.020,6.836,-43.457,0.000,0
28204.311,-35.156,-16.602,-57.617,12.207,0.000,0
28204.315,-27.832,-22.461,-151.367,11.719,0.000,0
28204.318,-40.039,-30.762,-6.836,-18.555,0.000,0
28204.322,-54.199,-33.203,197.754,-67.871,0.000,0
28204.326,0.488,-30.273,-44.922,-66.895,0.000,0
28204.330,-14.160,-29.785,-127.930,-42.969,0.000,0
28204.334,-37.598,-35.156,-72.266,-15.137,0.000,0
28204.338,-18.555,-36.133,-107.910,22.949,0.000,0
28204.342,-20.996,-36.621,-5.859,-28.320,0.000,0
28204.346,-51.758,-32.227,-11.230,-30.273,0.000,0
28204.350,-34.180,-25.879,-119.629,25.391,0.000,0
28204.354,-14.160,-26.855,-48.340,12.695,0.000,0
28204.358,-41.016,-26.855,-21.484,5.859,0.000,0
28204.361,-41.504,-20.508,37.109,-35.645,0.000,0
28204.365,-38.574,-16.602,69.824,-59.570,0.000,0
28204.369,-7.812,-18.066,-32.227,-29.297,0.000,0
28204.373,12.695,-16.113,-63.965,-2.441,0.000,0
28204.377,-19.531,-17.090,-46.875,14.160,0.000,0
28204.381,-41.992,-22.461,34.180,-42.969,0.000,0
28204.385,-17.578,-22.461,-15.137,-44.922,0.000,0
28204.389,-2.930,-20.508,-88.867,7.812,0.000,0
28204.393,-24.902,-22.461,-15.625,-3.418,0.000,0
28204.397,-41.504,-24.902,-70.801,-4.395,0.000,0
28204.400,-34.180,-26.855,-2.930,-45.898,0.000,0
28204.404,-32.227,-25.879,82.520,-75.195,0.000,0
28204.408,-56.152,-22.949,20.020,-25.879,0.000,0
28204.412,-54.199,-26.367,-55.664,-4.883,0.000,0
28204.416,-15.625,-25.879,-186.035,-1.465,0.000,0
28204.420,-21.484,-28.320,16.113,-48.340,0.000,0
28204.424,-30.273,-25.879,105.469,-88.867,0.000,0
28204.428,-6.836,-17.090,-121.582,-26.367,0.000,0
28204.432,-8.789,-20.020,-113.770,-19.531,0.000,0
28204.436,-19.531,-21.973,-83.008,0.977,0.000,0
28204.440,-28.809,-31.738,26.367,-16.113,0.000,0
28204.443,-25.391,-41.504,33.691,-76.172,0.000,0
28204.447,-31.738,-34.668,-100.586,-28.809,0.000,0
28204.451,-51.758,-27.832,-39.062,-2.441,0.000,0
28204.455,-41.504,-23.926,-6.836,2.930,0.000,0
28204.459,-7.812,-27.344,18.555,-15.625,0.000,0
28204.463,-24.902,-24.902,33.203,-59.570,0.000,0
28204.467,-47.852,-22.461,-20.996,-43.945,0.000,0
28204.471,-20.020,-29.297,-6.836,-32.227,0.000,0
28204.475,2.441,-21.484,-90.332,9.766,0.000,0
28204.479,-14.160,-24.414,-57.129,-12.695,0.000,0
28204.483,-47.363,-39.551,65.430,-72.266,0.000,0
28204.486,-34.180,-34.668,-22.949,-20.996,0.000,0
28204.490,-3.418,-24.414,-68.848,3.906,0.000,0
28204.494,-12.207,-26.367,-58.594,-11.719,0.000,0
28204.498,-69.824,-31.738,30.273,-22.461,0.000,0
28204.502,-45.898,-24.414,31.250,-59.570,0.000,0
28204.506,18.066,-17.090,-102.539,-59.570,0.000,0
28204.510,-4.883,-17.578,-80.078,-28.320,0.000,0
28204.514,-35.645,-21.973,-60.059,9.277,0.000,0
28204.518,-29.785,-32.715,13.184,-4.395,0.000,0
28204.522,-25.391,-31.250,62.500,-35.156,0.000,0
28204.525,-47.363,-26.855,84.961,-36.621,0.000,0
28204.529,-47.363,-29.297,0.977,-35.156,0.000,0
28204.533,-40.527,-32.227,-134.766,-3.418,0.000,0
28204.537,-35.645,-42.480,-43.457,-12.695,0.000,0
28204.541,-40.527,-44.922,47.852,-59.082,0.000,0
28204.545,-56.152,-34.180,15.625,-53.223,0.000,0
28204.549,-39.551,-25.879,-66.895,-14.160,0.000,0
28204.553,-2.930,-22.461,-116.699,17.578,0.000,0
28204.557,-24.902,-23.438,9.277,10.742,0.000,0
28204.561,-61.523,-24.902,82.520,-21.973,0.000,0
28204.565,-28.809,-25.879,-125.977,-8.301,0.000,0
28204.568,-8.301,-30.273,-120.605,-4.395,0.000,0
28204.572,-34.180,-29.785,1.465,-16.113,0.000,0
28204.576,-35.645,-25.879,-12.695,-15.137,0.000,0
28204.580,-31.250,-29.785,-27.832,-47.852,0.000,0
28204.584,-42.969,-32.227,-8.789,-64.453,0.000,0
28204.588,-32.227,-26.855,-36.133,-15.625,0.000,0
28204.592,-15.137,-24.414,-71.777,19.531,0.000,0
28204.596,-8.789,-31.738,-108.887,1.953,0.000,0
28204.600,-15.137,-41.992,-63.965,-52.246,0.000,0
28204.604,-46.875,-42.480,53.223,-67.383,0.000,0
28204.608,-33.203,-36.133,14.648,-50.293,0.000,0
28204.611,-4.883,-32.227,-97.168,-34.180,0.000,0
28204.615,-28.320,-34.180,-144.043,-2.441,0.000,0
28204.619,-20.020,-36.621,-40.039,-43.457,0.000,0
28204.623,-18.555,-33.691,-0.977,-47.852,0.000,0
28204.627,-19.043,-35.156,-53.711,-18.066,0.000,0
28204.631,-23.438,-25.391,-13.672,-15.625,0.000,0
28204.635,-26.855,-16.602,-17.090,1.953,0.000,0
28204.639,-14.648,-20.996,56.152,-53.711,0.000,0
28204.643,-14.648,-15.137,-3.906,-51.270,0.000,0
28204.647,-33.203,-10.254,-4.395,-27.344,0.000,0
28204.650,-24.414,-16.113,-64.453,2.930,0.000,0
28204.654,-3.418,-30.762,-116.699,-12.695,0.000,0
28204.658,-20.508,-34.180,-19.531,-67.871,0.000,0
28204.662,-49.316,-25.391,-64.453,-22.461,0.000,0
28204.666,-33.691,-30.762,-105.957,-9.766,0.000,0
28204.670,-11.719,-35.156,-81.543,-20.508,0.000,0
28204.674,-27.344,-35.645,-0.977,-26.367,0.000,0
28204.678,-45.410,-41.504,23.438,-79.590,0.000,0
28204.682,-34.668,-38.086,-63.965,-72.266,0.000,0
28204.686,-39.551,-30.273,-30.273,-44.922,0.000,0
28204.690,-43.945,-25.879,-41.992,-6.348,0.000,0
28204.693,-56.641,-31.250,4.883,-13.184,0.000,0
28204.697,-49.805,-41.504,-3.418,-68.359,0.000,0
28204.701,-30.762,-35.156,-91.797,-21.484,0.000,0
28204.705,-19.043,-35.645,-81.055,-10.742,0.000,0
28204.709,-21.973,-35.645,-86.426,-19.043,0.000,0
28204.713,-38.086,-35.645,-69.824,-33.691,0.000,0
28204.717,-41.016,-38.574,23.438,-94.727,0.000,0
28204.721,-47.852,-39.551,-0.488,-87.402,0.000,0
28204.725,-60.059,-48.828,-80.078,-54.688,0.000,0
28204.729,-60.059,-50.293,-129.395,-39.551,0.000,0
28204.733,-65.430,-38.086,-56.641,-41.992,0.000,0
28204.736,-74.219,-34.668,96.191,-62.988,0.000,0
28204.740,-58.105,-36.621,-28.320,-33.691,0.000,0
28204.744,-28.809,-35.645,-160.645,-21.973,0.000,0
28204.748,-34.668,-33.203,-74.707,-30.762,0.000,0
28204.752,-43.945,-32.715,38.086,-28.320,0.000,0
28204.756,-36.133,-31.738,129.883,-81.055,0.000,0
28204.760,-40.039,-27.344,21.973,-62.988,0.000,0
28204.764,-40.039,-30.762,-86.914,-6.836,0.000,0
28204.768,-32.715,-31.738,-57.617,7.812,0.000,0
28204.772,-17.578,-28.320,-29.785,-2.441,0.000,0
28204.775,-20.508,-31.250,78.125,-54.199,0.000,0
28204.779,-41.992,-28.320,28.809,-50.781,0.000,0
28204.783,-60.059,-31.738,57.129,-41.504,0.000,0
28204.787,-27.344,-41.016,-20.020,-41.504,0.000,0
28204.791,-11.230,-41.504,-119.629,-12.207,0.000,0
28204.795,-27.832,-32.715,28.320,-60.059,0.000,0
28204.799,-22.461,-22.949,-0.977,-54.199,0.000,0
28204.803,-13.672,-25.879,-86.914,1.953,0.000,0
28204.807,-16.113,-34.180,-76.172,-6.348,0.000,0
28204.811,-32.715,-31.738,-56.641,-15.137,0.000,0
28204.815,-45.898,-29.297,80.566,-55.664,0.000,0
28204.818,-23.926,-29.297,32.715,-61.523,0.000,0
28204.822,4.883,-23.926,-78.613,-33.691,0.000,0
28204.826,-35.645,-21.484,-5.371,-3.906,0.000,0
28204.830,-49.316,-26.855,-30.762,9.766,0.000,0
28204.834,-11.719,-25.879,-38.574,-20.020,0.000,0
28204.838,8.301,-12.695,-92.773,-17.090,0.000,0
28204.842,-12.695,-9.277,-35.156,22.461,0.000,0
28204.846,-20.996,-14.648,-37.109,11.719,0.000,0
28204.850,-9.277,-14.160,-64.941,1.953,0.000,0
28204.854,-22.949,-17.090,72.754,-27.344,0.000,0
28204.858,-37.598,-21.484,72.754,-57.617,0.000,0
28204.861,-35.156,-20.508,-63.477,-30.273,0.000,0
28204.865,-26.855,-21.973,-98.633,2.441,0.000,0
28204.869,-22.461,-20.508,-59.082,19.043,0.000,0
28204.873,-29.785,-16.602,22.461,-6.348,0.000,0
28204.877,-30.762,-9.277,5.859,-15.625,0.000,0
28204.881,-28.809,-7.812,-41.504,7.812,0.000,0
28204.885,-19.531,-15.625,25.391,-5.859,0.000,0
28204.889,-33.691,-11.719,76.660,-10.254,0.000,0
28204.893,0.488,-3.906,4.883,-27.832,0.000,0
28204.897,27.832,-5.859,-39.551,-56.641,0.000,0
28204.900,8.789,-8.789,-9.766,-33.203,0.000,0
28204.904,9.766,-9.766,-36.133,5.859,0.000,0
28204.908,14.648,-17.090,-91.797,2.930,0.000,0
28204.912,-8.301,-18.555,-55.664,-29.297,0.000,0
28204.916,-23.926,-11.230,7.324,-27.344,0.000,0
28204.920,-15.137,-9.766,-16.602,-2.930,0.000,0
28204.924,8.301,-10.742,-67.871,-13.184,0.000,0
28204.928,-1.953,-11.719,-101.562,-9.277,0.000,0
28204.932,-46.875,-20.020,87.891,-41.504,0.000,0
28204.936,-45.410,-26.855,162.598,-106.934,0.000,0
28204.940,-23.926,-25.879,-52.734,-49.805,0.000,0
28204.943,-22.949,-24.902,-124.023,-6.348,0.000,0
28204.947,-31.250,-27.832,-94.238,-15.625,0.000,0
28204.951,-21.973,-32.227,-46.875,-28.320,0.000,0
28204.955,-12.695,-26.855,-23.926,-56.641,0.000,0
28204.959,-22.461,-22.949,-43.457,-50.293,0.000,0
28204.963,-38.574,-25.391,-37.598,-34.180,0.000,0
28204.967,-48.828,-24.414,-72.266,2.930,0.000,0
28204.971,-30.762,-23.438,-81.543,-7.812,0.000,0
28204.975,-34.180,-23.926,-16.602,-61.035,0.000,0
28204.979,-70.312,-20.996,-62.012,-22.461,0.000,0
28204.983,-35.156,-16.602,-134.277,1.953,0.000,0
28204.986,-3.418,-12.695,-97.168,-4.883,0.000,0
28204.990,-27.832,-8.789,15.137,-6.348,0.000,0
28204.994,-55.176,-8.301,47.363,-43.945,0.000,0
28204.998,-15.625,-10.254,-99.609,-36.621,0.000,0
28205.002,11.719,-6.836,-72.266,-8.301,0.000,0
28205.006,-10.254,-8.301,-32.227,20.020,0.000,0
28205.010,-19.043,-11.719,-66.895,12.695,0.000,0
28205.014,-19.531,-11.719,-8.789,-47.363,0.000,0
28205.018,-19.043,-10.254,-13.184,-16.113,0.000,0
28205.022,-22.461,-10.254,-1.953,10.742,0.000,0
28205.025,-14.160,-7.324,-7.324,1.465,0.000,0
28205.029,-2.930,-7.324,-78.125,-2.930,0.000,0
28205.033,6.348,-21.484,-21.973,-72.754,0.000,0
28205.037,-16.602,-23.438,162.109,-103.516,0.000,0
28205.041,-25.879,-12.207,16.113,-32.227,0.000,0
28205.045,-10.254,-19.531,-166.504,17.090,0.000,0
28205.049,-35.156,-22.949,63.477,-35.156,0.000,0
28205.053,-33.203,-16.602,77.148,-30.273,0.000,0
28205.057,-7.324,-17.578,-95.215,16.113,0.000,0
28205.061,-35.156,-22.461,-56.641,-6.836,0.000,0
28205.065,-66.895,-24.902,21.973,4.883,0.000,0
28205.068,-48.340,-26.855,104.980,-24.414,0.000,0
28205.072,2.441,-22.461,13.184,-60.547,0.000,0
28205.076,-3.906,-10.742,-81.543,-10.254,0.000,0
28205.080,-24.902,-7.324,-60.059,19.043,0.000,0
28205.084,-8.301,-11.719,-76.172,22.949,0.000,0
28205.088,-4.883,-21.484,26.855,-20.508,0.000,0
28205.092,-21.973,-23.926,68.848,-58.594,0.000,0
28205.096,-21.973,-19.043,-26.855,-33.691,0.000,0
28205.100,-1.465,-25.879,-19.531,-40.527,0.000,0
28205.104,-0.488,-23.926,-49.316,-11.230,0.000,0
28205.108,-36.133,-23.926,16.602,-11.230,0.000,0
28205.111,-62.012,-31.250,90.332,-71.777,0.000,0
28205.115,-21.973,-34.180,-124.023,-41.016,0.000,0
28205.119,20.996,-34.668,-209.961,-5.859,0.000,0
28205.123,-3.418,-22.949,-56.641,5.371,0.000,0
28205.127,-43.457,-26.367,103.516,-37.598,0.000,0
28205.131,-21.973,-26.855,54.688,-65.430,0.000,0
28205.135,3.906,-12.695,26.367,-51.270,0.000,0
28205.139,-22.461,-15.137,109.375,-62.500,0.000,0
28205.143,-32.715,-15.137,-104.980,9.766,0.000,0
28205.147,-19.531,-23.438,-75.195,-10.254,0.000,0
28205.150,-23.438,-29.785,73.730,-63.477,0.000,0
28205.154,-59.082,-23.926,38.086,-11.719,0.000,0
28205.158,-46.387,-22.461,-23.438,14.648,0.000,0
28205.162,-6.348,-20.996,-134.766,2.930,0.000,0
28205.166,-12.207,-20.508,-16.113,-19.531,0.000,0
28205.170,-21.973,-23.926,102.539,-57.129,0.000,0
28205.174,-21.484,-18.066,-51.758,-45.898,0.000,0
28205.178,-4.883,-18.066,-150.879,-24.902,0.000,0
28205.182,-1.953,-16.113,-104.492,13.184,0.000,0
28205.186,-14.160,-12.695,47.852,10.254,0.000,0
28205.190,-20.020,-13.672,107.910,-38.086,0.000,0
28205.193,-20.996,-8.789,-62.500,-7.324,0.000,0
28205.197,-21.973,-14.160,-55.664,3.906,0.000,0
28205.201,-30.762,-16.113,18.066,-1.953,0.000,0
28205.205,-33.691,-13.184,23.926,2.441,0.000,0
28205.209,-7.324,-10.742,-14.648,-40.527,0.000,0
28205.213,-15.625,-12.207,-1.953,-47.363,0.000,0
28205.217,-45.410,-17.090,67.383,-14.160,0.000,0
28205.221,-14.160,-21.484,-86.426,8.301,0.000,0
28205.225,-7.812,-28.809,-86.914,-13.184,0.000,0
28205.229,-43.457,-34.180,0.000,-36.133,0.000,0
28205.233,-47.852,-37.598,34.668,-43.945,0.000,0
28205.236,-11.719,-32.227,6.348,-52.734,0.000,0
28205.240,-10.254,-27.832,-93.262,-24.414,0.000,0
28205.244,-41.992,-23.438,-83.984,-8.301,0.000,0
28205.248,-41.504,-20.508,16.113,-39.551,0.000,0
28205.252,-39.062,-23.926,36.621,-58.105,0.000,0
28205.256,-29.297,-20.508,-64.453,-17.090,0.000,0
28205.260,-50.293,-23.438,-49.316,-0.488,0.000,0
28205.264,-55.664,-33.691,-15.625,-10.742,0.000,0
28205.268,-11.230,-32.227,-37.598,-37.598,0.000,0
28205.272,-11.230,-22.461,-30.762,-48.828,0.000,0
28205.275,-33.203,-18.066,-52.246,-40.527,0.000,0
28205.279,-41.016,-23.438,-86.426,-35.645,0.000,0
28205.283,-20.508,-27.344,-87.891,1.953,0.000,0
28205.287,-31.738,-28.320,10.254,-29.297,0.000,0
28205.291,-59.082,-26.367,8.789,-44.922,0.000,0
28205.295,-58.105,-26.855,-68.359,7.324,0.000,0
28205.299,-19.043,-23.926,-104.004,16.113,0.000,0
28205.303,-25.391,-23.438,-41.016,4.883,0.000,0
28205.307,-68.848,-29.785,60.059,-29.297,0.000,0
28205.311,-35.156,-28.320,-92.773,-48.828,0.000,0
28205.315,-6.836,-29.297,-121.094,-29.785,0.000,0
28205.318,-27.344,-28.320,-31.738,-5.371,0.000,0
28205.322,-34.668,-24.414,-67.871,30.273,0.000,0
28205.326,-29.297,-25.391,-62.012,-16.113,0.000,0
28205.330,-33.691,-24.414,-50.781,-30.762,0.000,0
28205.334,-35.645,-28.320,-62.500,16.602,0.000,0
28205.338,-28.809,-25.391,-43.945,13.672,0.000,0
28205.342,-42.480,-26.367,-65.430,16.602,0.000,0
28205.346,-27.832,-31.738,24.414,-36.133,0.000,0
28205.350,-23.926,-27.344,88.867,-66.895,0.000,0
28205.354,-31.738,-29.785,-15.625,-36.133,0.000,0
28205.358,11.719,-25.879,-108.398,-7.812,0.000,0
28205.361,4.883,-17.578,-137.207,31.250,0.000,0
28205.365,-7.812,-19.531,8.301,-17.090,0.000,0
28205.369,1.465,-20.996,-6.348,-28.809,0.000,0
28205.373,7.324,-20.020,-132.812,27.344,0.000,0
28205.377,-8.301,-21.973,-77.148,19.043,0.000,0
28205.381,-27.344,-31.250,154.297,-66.406,0.000,0
28205.385,-14.160,-24.414,120.605,-70.312,0.000,0
28205.389,-14.648,-11.230,-71.777,-8.301,0.000,0
28205.393,-41.992,-6.348,-64.453,-2.930,0.000,0
28205.397,-52.734,-2.441,-38.574,13.184,0.000,0
28205.400,-3.418,-1.953,-124.023,31.250,0.000,0
28205.404,12.695,-9.277,-4.883,-18.066,0.000,0
28205.408,-20.020,-8.301,55.176,-27.832,0.000,0
28205.412,-10.254,-4.395,-100.098,19.531,0.000,0
28205.416,8.789,-12.207,-77.148,-3.418,0.000,0
28205.420,1.953,-18.066,-67.383,-2.441,0.000,0
28205.424,-17.090,-22.949,41.504,-34.668,0.000,0
28205.428,-12.207,-16.113,41.016,-68.359,0.000,0
28205.432,4.883,-6.836,-51.270,-18.555,0.000,0
28205.436,-2.930,-9.277,-24.902,11.719,0.000,0
28205.440,-27.344,-16.113,-3.418,13.672,0.000,0
28205.443,-40.039,-26.855,49.805,-29.785,0.000,0
28205.447,-1.465,-30.762,72.266,-85.449,0.000,0
28205.451,15.137,-26.855,-94.238,-34.668,0.000,0
28205.455,-7.324,-26.367,-93.750,-4.883,0.000,0
28205.459,-21.973,-26.855,-65.430,23.438,0.000,0
28205.463,-9.766,-34.180,-62.500,14.160,0.000,0
28205.467,-26.367,-33.203,76.172,-35.156,0.000,0
28205.471,-26.855,-26.367,-41.992,13.184,0.000,0
28205.475,-4.883,-26.367,-115.723,40.039,0.000,0
28205.479,-24.414,-32.227,-110.840,23.438,0.000,0
28205.483,-57.129,-36.621,50.781,-17.578,0.000,0
28205.486,-59.570,-35.645,128.906,-61.035,0.000,0
28205.490,-22.949,-25.391,-75.195,-37.598,0.000,0
28205.494,-21.484,-21.973,-109.863,-22.949,0.000,0
28205.498,-50.781,-28.809,-61.523,2.930,0.000,0
28205.502,-48.828,-32.715,11.230,-17.090,0.000,0
28205.506,-29.785,-30.273,33.203,-75.195,0.000,0
28205.510,-32.715,-23.438,-111.328,-32.715,0.000,0
28205.514,-61.035,-26.367,-68.359,-12.695,0.000,0
28205.518,-53.711,-24.902,-34.180,-13.672,0.000,0
28205.522,-38.574,-21.973,-23.926,-24.414,0.000,0
28205.525,-55.664,-17.578,40.527,-70.801,0.000,0
28205.529,-67.383,-18.066,-12.695,-61.035,0.000,0
28205.533,-55.664,-28.809,-32.227,-37.598,0.000,0
28205.537,-26.855,-29.297,-112.305,-16.113,0.000,0
28205.541,-20.508,-24.902,-78.613,-36.133,0.000,0
28205.545,-60.547,-26.367,40.039,-71.289,0.000,0
28205.549,-47.363,-33.203,56.152,-74.707,0.000,0
28205.553,7.812,-33.691,-67.871,-59.570,0.000,0
28205.557,4.883,-34.668,-209.473,-29.785,0.000,0
28205.561,-32.715,-39.062,-57.129,-40.527,0.000,0
28205.565,-22.461,-37.598,52.734,-73.242,0.000,0
28205.568,12.207,-33.203,-5.859,-65.430,0.000,0
28205.572,-8.301,-37.598,-28.809,-33.691,0.000,0
28205.576,-47.852,-43.945,-61.523,-17.090,0.000,0
28205.580,-35.645,-41.504,-65.918,-20.508,0.000,0
28205.584,-16.602,-40.527,-7.324,-39.062,0.000,0
28205.588,-35.156,-42.969,-21.973,-16.113,0.000,0
28205.592,-57.617,-46.387,-49.805,-11.230,0.000,0
28205.596,-39.062,-44.922,-122.070,-27.832,0.000,0
28205.600,-18.066,-39.551,-84.961,-17.578,0.000,0
28205.604,-35.156,-38.574,43.945,-46.387,0.000,0
28205.608,-37.598,-31.250,10.742,-57.129,0.000,0
28205.611,-27.344,-20.020,-98.145,-17.090,0.000,0
28205.615,-21.973,-19.531,-88.379,7.324,0.000,0
28205.619,-22.949,-26.367,20.996,-14.648,0.000,0
28205.623,-29.785,-30.273,64.941,-76.660,0.000,0
28205.627,-4.395,-30.762,-132.324,-78.613,0.000,0
28205.631,-7.324,-29.297,-65.918,-59.082,0.000,0
28205.635,-56.152,-27.344,92.285,-18.555,0.000,0
28205.639,-20.996,-26.855,-21.484,-13.184,0.000,0
28205.643,-24.902,-26.855,-26.367,-62.988,0.000,0
28205.647,-40.039,-23.926,1.953,-25.391,0.000,0
28205.650,-17.578,-31.738,51.270,-33.691,0.000,0
28205.654,-7.812,-31.738,-118.652,-15.625,0.000,0
28205.658,-9.766,-28.320,-190.918,-7.324,0.000,0
28205.662,-27.344,-28.809,29.785,-62.500,0.000,0
28205.666,-13.184,-21.973,53.711,-41.992,0.000,0
28205.670,-23.926,-24.414,19.043,-19.043,0.000,0
28205.674,-35.156,-25.879,-65.918,24.902,0.000,0
28205.678,-48.340,-25.391,-1.953,14.160,0.000,1
28205.682,-41.992,-28.809,43.457,-44.434,0.000,0
28205.686,-5.859,-27.832,-131.836,-10.742,0.000,0
28205.690,-19.043,-31.250,-121.094,-1.465,0.000,0
28205.693,-50.293,-31.738,-52.734,-13.672,0.000,0
28205.697,-40.039,-31.738,-6.348,-26.855,0.000,0
28205.701,-35.645,-30.273,57.129,-82.031,0.000,0
28205.705,-53.711,-29.785,17.578,-73.242,0.000,0
28205.709,-47.852,-32.227,-50.293,-48.340,0.000,0
28205.713,-26.367,-33.203,-93.262,-18.066,0.000,0
28205.717,-28.320,-35.156,-35.645,-26.367,0.000,0
28205.721,-35.645,-31.738,71.289,-84.473,0.000,0
28205.725,-61.035,-27.832,24.902,-40.039,0.000,0
28205.729,-37.598,-37.109,-101.074,-21.484,0.000,0
28205.733,-21.484,-47.363,-98.633,-43.457,0.000,0
28205.736,-42.480,-49.805,-19.531,-51.270,0.000,0
28205.740,-50.781,-42.480,26.367,-100.098,0.000,0
28205.744,-34.180,-31.250,-55.664,-75.684,0.000,0
28205.748,-17.578,-29.297,-63.477,-12.207,0.000,0
28205.752,-31.738,-28.320,18.066,-20.508,0.000,0
28205.756,-35.645,-28.320,-2.930,-30.762,0.000,0
28205.760,-33.203,-24.414,10.742,-40.527,0.000,0
28205.764,-37.109,-16.602,-13.672,-13.672,0.000,0
28205.768,-44.922,-24.902,-16.113,-6.836,0.000,0
28205.772,-44.434,-30.273,-29.297,-26.855,0.000,0
28205.775,-18.555,-32.227,-117.676,-36.621,0.000,0
28205.779,-17.090,-34.180,41.016,-90.820,0.000,0
28205.783,-28.809,-22.949,56.641,-68.848,0.000,0
28205.787,-26.367,-26.367,-76.660,-16.113,0.000,0
28205.791,-20.020,-24.414,-123.535,-7.812,0.000,0
28205.795,-24.414,-19.043,-43.457,-7.324,0.000,0
28205.799,-41.016,-23.926,142.090,-55.664,0.000,0
28205.803,-23.438,-24.902,14.160,-56.641,0.000,0
28205.807,-16.113,-26.367,-76.660,-38.086,0.000,0
28205.811,-49.805,-30.273,-7.812,-29.297,0.000,0
28205.815,-45.410,-26.367,29.297,9.277,0.000,0
28205.818,-5.859,-31.738,70.312,-42.480,0.000,0
28205.822,-12.207,-30.762,-35.645,-48.828,0.000,0
28205.826,-10.254,-28.809,-171.875,4.883,0.000,0
28205.830,-13.184,-37.598,-76.172,-8.789,0.000,0
28205.834,-24.902,-38.574,-24.902,-16.113,0.000,0
28205.838,-26.855,-37.598,49.805,-55.176,0.000,0
28205.842,-29.785,-27.344,27.344,-70.312,0.000,0
28205.846,-16.113,-20.020,-6.348,-44.434,0.000,0
28205.850,1.953,-19.043,-37.109,-13.672,0.000,0
28205.854,-6.348,-21.484,-29.785,-1.465,0.000,0
28205.858,-43.945,-23.438,42.969,-38.574,0.000,0
28205.861,-45.898,-20.020,-29.785,-7.324,0.000,0
28205.865,0.488,-26.855,-95.215,8.789,0.000,0
28205.869,-13.184,-30.762,-48.340,-2.441,0.000,0
28205.873,-56.152,-30.762,11.230,-10.742,0.000,0
28205.877,-29.785,-32.715,-13.672,-50.781,0.000,0
28205.881,-15.625,-29.785,-19.531,-38.086,0.000,0
28205.885,-19.531,-28.320,-20.508,-3.906,0.000,0
28205.889,-9.277,-21.484,-114.746,15.137,0.000,0
28205.893,-7.324,-19.531,-95.703,0.977,0.000,0
28205.897,-7.324,-24.902,10.742,-33.691,0.000,0
28205.900,-13.184,-25.879,-32.227,-4.883,0.000,0
28205.904,-33.203,-29.297,-55.176,0.977,0.000,0
28205.908,-27.832,-33.691,-80.078,-20.996,0.000,0
28205.912,3.418,-35.156,-77.148,-16.113,0.000,0
28205.916,-25.879,-29.297,82.520,-61.035,0.000,0
28205.920,-44.434,-22.949,36.133,-98.145,0.000,0
28205.924,-19.043,-21.973,-153.809,-60.059,0.000,0
28205.928,-29.297,-24.902,-119.629,-33.203,0.000,0
28205.932,-39.551,-27.344,-52.246,-49.316,0.000,0
28205.936,-52.246,-27.344,-22.461,-67.871,0.000,0
28205.940,-60.059,-28.320,-107.422,-52.734,0.000,0
28205.943,-39.551,-30.273,-123.047,-39.551,0.000,0
28205.947,-29.297,-33.691,-20.020,-40.039,0.000,0
28205.951,-40.527,-31.250,-43.457,-16.113,0.000,0
28205.955,-34.180,-40.039,-22.949,-65.430,0.000,0
28205.959,-37.109,-38.574,56.152,-111.816,0.000,0
28205.963,-46.387,-23.926,-23.438,-15.625,0.000,0
28205.967,-7.812,-28.809,-131.836,2.930,0.000,0
28205.971,-3.906,-30.273,-128.906,-16.113,0.000,0
28205.975,-40.039,-28.809,-11.230,-47.363,0.000,0
28205.979,-28.809,-27.832,-9.277,-56.641,0.000,0
28205.983,1.953,-22.949,-62.012,-38.086,0.000,0
28205.986,-12.207,-16.602,-71.289,-27.832,0.000,0
28205.990,-46.387,-20.020,-93.262,1.465,0.000,0
28205.994,-45.410,-26.367,6.836,-40.527,0.000,0
28205.998,-41.992,-25.391,21.973,-52.246,0.000,0
28206.002,-45.898,-24.414,-66.895,-10.254,0.000,0
28206.006,-64.453,-21.484,-32.227,-18.066,0.000,0
28206.010,-59.082,-21.973,-16.113,-13.184,0.000,0
28206.014,-11.230,-21.973,-22.949,-38.086,0.000,0
28206.018,-13.672,-24.902,-18.555,-59.082,0.000,0
28206.022,-41.992,-29.785,-45.898,-46.875,0.000,0
28206.025,-41.016,-27.344,-81.543,-16.602,0.000,0
28206.029,-22.461,-30.762,-99.121,23.438,0.000,0
28206.033,-29.297,-31.738,52.734,-36.133,0.000,0
28206.037,-34.668,-32.227,31.738,-47.363,0.000,0
28206.041,-30.762,-29.297,-91.309,7.324,0.000,0
28206.045,-31.250,-30.762,-25.391,-0.977,0.000,0
28206.049,-22.949,-31.250,-2.441,-0.977,0.000,0
28206.053,-49.316,-27.832,120.605,-42.480,0.000,0
28206.057,-45.898,-26.367,46.875,-74.707,0.000,0
28206.061,-24.414,-23.438,-26.855,-60.547,0.000,0
28206.065,-17.578,-15.137,-17.578,-11.230,0.000,0
28206.068,0.488,-6.348,-83.984,31.250,0.000,0
28206.072,-13.672,-16.602,-11.719,-34.668,0.000,0
28206.076,-30.762,-22.949,-13.184,-44.434,0.000,0
28206.080,-20.996,-14.648,-39.551,25.391,0.000,0
28206.084,-12.207,-10.742,-13.672,24.414,0.000,0
28206.088,-27.832,-13.184,-61.035,17.578,0.000,0
28206.092,-38.086,-19.531,-9.277,-15.625,0.000,0
28206.096,-39.551,-21.484,99.609,-54.688,0.000,0
28206.100,-42.969,-20.020,48.828,-20.996,0.000,0
28206.104,-16.602,-29.785,-110.352,1.465,0.000,0
28206.108,-24.414,-34.180,-139.160,7.812,0.000,0
28206.111,-42.969,-33.691,40.527,-31.738,0.000,0
28206.115,-51.758,-31.738,115.234,-65.918,0.000,0
28206.119,-24.414,-21.484,-47.363,-30.762,0.000,0
28206.123,-17.578,-20.508,-66.895,-34.668,0.000,0
28206.127,-33.203,-21.484,-63.477,-5.371,0.000,0
28206.131,-16.602,-22.461,-3.418,-11.230,0.000,0
28206.135,-13.184,-25.879,65.430,-61.523,0.000,0
28206.139,-40.527,-21.973,-35.156,-15.625,0.000,0
28206.143,-57.129,-18.555,-24.414,8.789,0.000,0
28206.147,-14.648,-20.508,-67.383,5.371,0.000,0
28206.150,-3.906,-27.832,12.207,-23.926,0.000,0
28206.154,-35.156,-25.391,114.746,-62.988,0.000,0
28206.158,-29.297,-17.578,-9.277,-40.039,0.000,0
28206.162,-19.043,-13.184,56.152,-38.086,0.000,0
28206.166,-2.441,-12.207,-102.051,10.742,0.000,0
28206.170,-3.418,-13.672,-58.594,17.578,0.000,0
28206.174,-45.410,-17.090,149.902,-40.527,0.000,0
28206.178,-21.973,-15.137,-35.156,3.418,0.000,0
28206.182,4.883,-17.578,-67.871,24.414,0.000,0
28206.186,-37.109,-22.949,25.391,5.859,0.000,0
28206.190,-54.688,-21.484,49.805,-20.996,0.000,0
28206.193,-18.555,-25.879,11.230,-77.637,0.000,0
28206.197,-14.648,-25.879,-27.832,-77.637,0.000,0
28206.201,-25.391,-22.949,-15.625,-48.828,0.000,0
28206.205,-19.531,-22.461,-98.145,-11.230,0.000,0
28206.209,-19.531,-23.926,-83.008,-23.926,0.000,0
28206.213,-24.902,-29.297,56.152,-65.430,0.000,0
28206.217,-20.020,-25.879,-7.324,-28.809,0.000,0
28206.221,-19.531,-28.320,-83.008,-12.207,0.000,0
28206.225,-23.926,-31.250,-76.172,-25.391,0.000,0
28206.229,-29.297,-33.691,0.488,-20.508,0.000,0
28206.233,-40.039,-28.809,89.844,-43.945,0.000,0
28206.236,-33.203,-21.973,23.926,-53.711,0.000,0
28206.240,-36.621,-21.484,-51.270,-28.320,0.000,0
28206.244,-39.062,-26.855,-23.438,-17.578,0.000,0
28206.248,-32.715,-32.715,-30.273,-10.742,0.000,0
28206.252,-20.508,-38.086,-70.801,-23.438,0.000,0
28206.256,-20.020,-38.574,-136.230,-11.230,0.000,0
28206.260,-33.691,-31.738,-79.590,1.465,0.000,0
28206.264,-41.016,-35.156,69.824,-41.016,0.000,0
28206.268,-20.020,-35.645,-41.992,-24.414,0.000,0
28206.272,1.465,-35.645,-162.109,-35.156,0.000,0
28206.275,-29.785,-35.156,-35.645,-62.500,0.000,0
28206.279,-51.270,-32.715,45.410,-10.254,0.000,0
28206.283,-14.648,-30.273,-50.293,15.137,0.000,0
28206.287,-2.930,-27.832,-98.145,5.371,0.000,0
28206.291,-57.129,-25.391,56.152,-33.691,0.000,0
28206.295,-40.039,-24.902,50.293,-46.387,0.000,0
28206.299,-4.883,-26.367,-32.227,-37.109,0.000,0
28206.303,-19.531,-20.020,-69.336,-22.461,0.000,0
28206.307,-26.855,-22.461,-120.117,11.719,0.000,0
28206.311,-34.668,-35.645,-9.766,-31.738,0.000,0
28206.315,-17.578,-29.297,-9.277,-46.387,0.000,0
28206.318,-17.090,-24.902,-49.805,11.719,0.000,0
28206.322,-35.645,-27.344,-52.246,8.789,0.000,0
28206.326,-58.105,-27.832,-58.105,-5.859,0.000,0
28206.330,-46.387,-37.598,15.625,-46.387,0.000,0
28206.334,-22.949,-33.203,51.270,-73.242,0.000,0
28206.338,-54.199,-27.344,19.531,-48.828,0.000,0
28206.342,-39.062,-29.785,-108.887,-30.273,0.000,0
28206.346,0.977,-28.809,-148.926,-0.488,0.000,0
28206.350,-20.020,-30.273,25.879,-45.410,0.000,0
28206.354,-37.109,-30.762,-10.742,-48.828,0.000,0
28206.358,-20.996,-32.227,-178.223,-7.324,0.000,0
28206.361,-4.883,-30.762,-152.344,-9.277,0.000,0
28206.365,-25.879,-25.879,73.730,-41.992,0.000,0
28206.369,-38.086,-25.391,176.758,-76.660,0.000,0
28206.373,-25.879,-16.602,-16.113,-46.875,0.000,0
28206.377,-19.531,-13.672,-53.223,-33.691,0.000,2
28206.381,-31.250,-20.020,34.668,-5.371,0.000,0
28206.385,-27.832,-16.113,-3.906,34.180,0.000,0
28206.389,9.766,-11.719,-31.738,-20.508,0.000,0
28206.393,0.000,-12.695,-26.367,-38.574,0.000,0
28206.397,-11.719,-14.648,-76.660,6.836,0.000,0
28206.400,-9.766,-15.625,-50.293,1.465,0.000,0
28206.404,-13.672,-16.602,-76.172,7.324,0.000,0
28206.408,-33.691,-20.996,11.719,-39.062,0.000,0
28206.412,-23.438,-13.672,66.406,-60.547,0.000,0
28206.416,-5.371,-4.883,-25.391,-11.719,0.000,0
28206.420,-12.207,-6.836,-53.223,11.719,0.000,0
28206.424,-20.996,-15.137,-91.309,12.695,0.000,0
28206.428,-40.527,-22.461,76.172,-39.062,0.000,0
28206.432,-5.371,-16.602,42.969,-43.457,0.000,0
28206.436,32.715,-11.230,-125.488,2.930,0.000,0
28206.440,-2.441,-14.648,-38.574,-3.906,0.000,0
28206.443,-23.438,-9.766,-36.621,0.000,0.000,0
28206.447,-8.789,-13.672,27.832,-37.109,0.000,0
28206.451,-7.812,-20.996,60.547,-76.660,0.000,0
28206.455,-30.273,-18.555,-29.297,-24.414,0.000,0
28206.459,-34.180,-15.137,-61.035,0.977,0.000,0
28206.463,-21.484,-19.531,-52.734,-5.371,0.000,0
28206.467,-37.109,-32.227,43.945,-43.457,0.000,0
28206.471,-64.453,-32.227,85.449,-78.613,0.000,0
28206.475,-71.777,-31.250,50.781,-77.148,0.000,0
28206.479,-40.527,-38.086,-38.086,-62.500,0.000,0
28206.483,-19.043,-30.273,-135.742,18.555,0.000,0
28206.486,-16.602,-27.344,-45.410,7.812,0.000,0
28206.490,-25.391,-31.250,2.441,-57.129,0.000,0
28206.494,-9.277,-29.785,-111.816,-11.230,0.000,0
28206.498,-6.348,-32.227,-69.824,14.160,0.000,0
28206.502,-17.090,-30.273,-45.898,4.395,0.000,0
28206.506,-24.414,-27.832,-26.855,-19.531,0.000,0
28206.510,-26.367,-29.297,30.762,-65.430,0.000,0
28206.514,-31.250,-24.414,6.348,-54.199,0.000,0
28206.518,-62.012,-25.391,27.832,-42.480,0.000,0
28206.522,-43.457,-27.344,-110.352,-9.277,0.000,0
28206.525,-11.230,-25.391,-105.957,-10.254,0.000,0
28206.529,-34.180,-26.855,86.426,-55.176,0.000,0
28206.533,-26.367,-27.344,-29.785,-15.137,0.000,0
28206.537,0.488,-32.227,-130.371,0.488,0.000,0
28206.541,-14.160,-30.273,-114.258,-20.020,0.000,0
28206.545,-36.133,-23.926,15.625,-24.902,0.000,0
28206.549,-33.691,-24.414,95.215,-63.477,0.000,0
28206.553,-10.742,-22.949,-32.227,-58.594,0.000,0
28206.557,-26.855,-23.438,-73.730,-28.320,0.000,0
28206.561,-71.289,-22.461,-9.277,-4.395,0.000,0
28206.565,-65.430,-24.902,40.527,-15.137,0.000,0
28206.568,-22.461,-24.902,0.977,-51.270,0.000,0
28206.572,-13.672,-16.602,-104.980,-17.578,0.000,0
28206.576,-31.738,-21.973,-26.367,-32.715,0.000,0
28206.580,-35.156,-22.949,-2.441,-28.809,0.000,0
28206.584,-16.113,-21.973,-89.355,6.348,0.000,0
28206.588,-33.691,-27.344,-26.367,-48.828,0.000,0
28206.592,-53.223,-30.273,-60.547,-72.266,0.000,0
28206.596,-32.227,-35.156,-98.145,-34.668,0.000,0
28206.600,-15.625,-36.133,-100.586,-8.789,0.000,0
28206.604,-29.297,-32.715,-55.176,-12.207,0.000,0
28206.608,-60.059,-27.832,8.301,-21.484,0.000,0
28206.611,-49.805,-25.391,-36.621,-17.090,0.000,0
28206.615,-10.742,-32.715,-95.703,-14.648,0.000,0
28206.619,-33.691,-41.504,-15.137,-25.391,0.000,0
28206.623,-68.359,-38.086,19.043,-28.320,0.000,0
28206.627,-35.156,-29.785,-39.062,-62.988,0.000,0
28206.631,-7.812,-23.438,-25.391,-67.871,0.000,0
28206.635,-29.297,-25.391,-6.836,-21.973,0.000,0
28206.639,-39.062,-29.785,-61.523,-10.254,0.000,0
28206.643,-25.879,-31.738,-83.008,-28.320,0.000,0
28206.647,-43.457,-32.715,57.617,-64.941,0.000,0
28206.650,-49.805,-29.297,57.129,-74.219,0.000,0
28206.654,-36.621,-21.973,-4.883,-54.199,0.000,0
28206.658,-20.996,-11.719,-53.711,-31.738,0.000,0
28206.662,6.348,-8.789,-91.309,-2.441,0.000,0
28206.666,-28.320,-5.371,98.633,-41.992,0.000,0
28206.670,-43.457,-2.441,88.867,-58.594,0.000,0
28206.674,-1.465,-4.883,-153.320,-7.324,0.000,0
28206.678,-0.977,-8.789,-0.488,-40.039,0.000,0
28206.682,-8.789,-13.184,33.691,-42.480,0.000,0
28206.686,-1.465,-16.602,-89.355,-33.203,0.000,0
28206.690,7.812,-11.719,-90.820,-57.129,0.000,0
28206.693,-7.324,-14.648,-55.176,-36.621,0.000,0
28206.697,-36.621,-17.578,77.148,-15.137,0.000,0
28206.701,-41.016,-14.648,36.133,16.113,0.000,0
28206.705,-37.109,-20.996,40.527,-38.574,0.000,0
28206.709,-49.805,-16.602,34.180,-43.457,0.000,0
28206.713,-53.223,-8.301,17.578,6.348,0.000,0
28206.717,-8.789,-6.836,-41.504,-7.812,0.000,0
28206.721,-13.672,-10.742,-64.941,-10.254,0.000,0
28206.725,-61.035,-16.602,78.125,-57.617,0.000,0
28206.729,-33.691,-13.184,43.945,-81.055,0.000,0
28206.733,-10.742,-11.230,-40.039,-55.176,0.000,0
28206.736,-23.926,-14.160,-53.711,-31.738,0.000,0
28206.740,-43.945,-19.531,-91.309,-7.812,0.000,0
28206.744,-53.711,-29.297,41.504,-59.082,0.000,0
28206.748,-44.434,-28.809,39.551,-55.664,0.000,0
28206.752,-23.926,-20.996,-81.543,-1.465,0.000,0
28206.756,-36.621,-16.113,-4.883,-16.113,0.000,0
28206.760,-40.527,-14.648,-30.762,-7.812,0.000,0
28206.764,4.883,-21.973,-8.301,-46.387,0.000,0
28206.768,-14.160,-18.555,76.172,-82.520,0.000,0
28206.772,-36.621,-13.672,-49.805,-39.062,0.000,0
28206.775,-25.879,-20.020,-127.930,1.953,0.000,0
28206.779,-1.953,-18.066,-66.895,5.859,0.000,0
28206.783,-23.438,-18.555,129.395,-43.457,0.000,0
28206.787,-30.273,-20.996,52.246,-58.594,0.000,0
28206.791,-17.090,-20.996,-117.188,-33.691,0.000,0
28206.795,-35.645,-31.250,-36.621,-38.574,0.000,0
28206.799,-24.902,-30.273,-45.410,-5.371,0.000,0
28206.803,-32.227,-20.996,44.434,-13.672,0.000,0
28206.807,-20.020,-17.090,10.742,-69.336,0.000,0
28206.811,3.906,-14.160,-137.207,-13.184,0.000,0
28206.815,-16.113,-19.043,-44.922,16.113,0.000,0
28206.818,-23.926,-20.020,-45.410,1.953,0.000,0
28206.822,-19.531,-21.484,-26.855,-26.855,0.000,0
28206.826,-41.504,-29.297,48.340,-59.570,0.000,0
28206.830,-39.551,-28.320,-8.789,-36.133,0.000,0
28206.834,-16.113,-26.855,-34.180,-23.438,0.000,0
28206.838,-15.137,-21.973,-83.984,15.625,0.000,0
28206.842,-38.574,-19.531,-82.520,37.109,0.000,0
28206.846,-57.129,-26.855,74.707,-20.996,0.000,0
28206.850,-35.645,-23.926,27.832,-18.555,0.000,0
28206.854,8.301,-17.090,-136.230,19.531,0.000,0
28206.858,-0.977,-18.555,-126.465,18.066,0.000,0
28206.861,-24.902,-20.996,-15.137,-9.766,0.000,0
28206.865,-15.625,-25.879,55.176,-60.059,0.000,0
28206.869,-1.953,-29.785,-38.086,-49.805,0.000,0
28206.873,-21.973,-21.973,-42.969,-24.414,0.000,0
28206.877,-30.762,-18.066,-66.895,22.949,0.000,0
28206.881,-16.113,-25.391,27.832,-20.996,0.000,0
28206.885,-30.273,-26.855,39.551,-56.641,0.000,0
28206.889,-49.316,-25.391,-113.770,10.254,0.000,0
28206.893,-38.086,-26.367,-79.590,2.441,0.000,0
28206.897,-17.090,-29.785,-69.336,-7.324,0.000,0
28206.900,-7.812,-31.250,-18.066,-26.855,0.000,0
28206.904,-44.434,-30.273,56.641,-59.082,0.000,0
28206.908,-42.480,-34.180,-37.598,-43.945,0.000,0
28206.912,8.301,-33.691,-121.094,-7.324,0.000,0
28206.916,2.441,-28.809,-72.754,10.742,0.000,0
28206.920,-42.969,-32.227,19.531,-26.855,0.000,0
28206.924,-34.668,-28.320,-37.598,-38.086,0.000,0
28206.928,-10.254,-26.855,-91.309,-15.137,0.000,0
28206.932,-17.090,-30.273,-23.438,-21.973,0.000,0
28206.936,-40.039,-26.367,6.348,-10.254,0.000,0
28206.940,-31.738,-20.996,-20.996,-21.973,0.000,0
28206.943,-13.672,-28.320,6.836,-61.523,0.000,0
28206.947,-22.461,-30.762,6.836,-43.457,0.000,0
28206.951,-39.551,-29.297,-15.625,-8.301,0.000,0
28206.955,-10.254,-32.715,-132.812,4.395,0.000,1
28206.959,4.395,-31.250,-68.359,-13.672,0.000,0
28206.963,-10.254,-29.297,30.273,-44.922,0.000,0
28206.967,-11.230,-31.250,-35.156,-34.668,0.000,0
28206.971,-15.625,-27.832,-70.312,-26.855,0.000,0
28206.975,-26.367,-21.973,-77.637,4.395,0.000,0
28206.979,-24.902,-22.949,1.953,-6.348,0.000,0
28206.983,-34.180,-25.391,84.473,-59.570,0.000,0
28206.986,-34.668,-26.367,-46.387,-28.809,0.000,0
28206.990,-26.855,-23.926,-122.559,22.461,0.000,0
28206.994,-43.945,-25.879,0.000,16.113,0.000,0
28206.998,-32.227,-33.691,4.883,-35.645,0.000,0
28207.002,-24.902,-38.086,-66.406,-70.312,0.000,0
28207.006,-28.320,-31.738,-48.828,-55.176,0.000,0
28207.010,-16.602,-33.203,-25.391,-30.762,0.000,0
28207.014,-2.441,-33.691,-104.492,2.441,0.000,0
28207.018,-7.812,-24.902,-24.414,-39.062,0.000,0
28207.022,-24.414,-14.160,5.371,-44.434,0.000,0
28207.025,-14.648,-14.160,-38.574,8.301,0.000,0
28207.029,-10.254,-19.043,-15.137,7.324,0.000,0
28207.033,-16.602,-13.672,-43.457,7.812,0.000,0
28207.037,-55.176,-19.043,67.383,-38.574,0.000,0
28207.041,-55.664,-27.344,69.336,-62.988,0.000,0
28207.045,0.977,-27.344,-74.219,-38.574,0.000,0
28207.049,-14.160,-25.391,-61.523,-17.578,0.000,0
28207.053,-38.574,-25.879,-114.746,9.766,0.000,0
28207.057,-36.133,-35.156,-10.254,-42.480,0.000,0
28207.061,-38.574,-36.621,26.367,-47.852,0.000,0
28207.065,-22.949,-31.250,-104.004,0.977,0.000,0
28207.068,-19.043,-36.133,-99.121,-0.977,0.000,0
28207.072,-41.504,-41.992,-30.762,-20.996,0.000,0
28207.076,-25.879,-40.039,42.480,-68.359,0.000,0
28207.080,-27.344,-32.715,38.086,-50.781,0.000,0
28207.084,-43.457,-34.180,34.180,-48.340,0.000,0
28207.088,-6.836,-35.645,-177.246,-13.184,0.000,0
28207.092,22.461,-34.180,-173.340,11.230,0.000,0
28207.096,-22.949,-32.227,128.418,-49.805,0.000,0
28207.100,-34.668,-29.297,-42.969,-16.602,0.000,0
28207.104,-15.137,-33.691,-131.836,0.977,0.000,0
28207.108,-26.855,-34.668,-19.043,-27.344,0.000,0
28207.111,-38.574,-25.879,23.438,-31.738,0.000,0
28207.115,-26.855,-22.461,86.426,-79.590,0.000,0
28207.119,-52.246,-25.879,-4.883,-80.566,0.000,0
28207.123,-57.617,-27.344,-39.062,-23.438,0.000,0
28207.127,-43.945,-25.879,9.277,4.395,0.000,0
28207.131,-15.625,-27.832,-67.383,-20.996,0.000,0
28207.135,-14.648,-27.832,5.859,-80.566,0.000,0
28207.139,-23.926,-25.391,-8.301,-70.312,0.000,0
28207.143,-16.113,-24.902,-42.480,-46.875,0.000,0
28207.147,-13.672,-20.996,-91.309,-40.039,0.000,0
28207.150,-16.602,-22.949,-180.664,-3.418,0.000,0
28207.154,-31.250,-30.762,20.996,-41.504,0.000,0
28207.158,-28.320,-31.738,43.457,-46.875,0.000,0
28207.162,-20.020,-32.227,-82.520,-4.395,0.000,0
28207.166,-25.879,-37.109,-97.656,-20.020,0.000,0
28207.170,-53.711,-33.203,-41.504,-28.320,0.000,0
28207.174,-62.988,-31.738,119.141,-61.035,0.000,0
28207.178,-20.020,-24.902,17.090,-64.941,0.000,0
28207.182,-0.488,-19.043,-77.637,-38.086,0.000,0
28207.186,-37.109,-24.414,-5.371,-32.227,0.000,0
28207.190,-35.156,-29.297,-70.312,-6.348,0.000,0
28207.193,-4.883,-31.738,-50.293,-35.645,0.000,0
28207.197,-19.043,-32.715,-14.160,-48.828,0.000,0
28207.201,-46.387,-32.227,-66.406,-1.465,0.000,0
28207.205,-26.367,-31.738,-71.289,-8.301,0.000,0
28207.209,-5.371,-28.809,-51.270,-6.836,0.000,0
28207.213,-15.625,-25.879,62.012,-31.250,0.000,0
28207.217,-37.109,-23.438,34.668,-63.477,0.000,0
28207.221,-43.457,-25.391,-45.898,-46.875,0.000,0
28207.225,-11.719,-22.461,-69.336,-14.648,0.000,0
28207.229,-0.977,-12.207,-59.570,17.090,0.000,0
28207.233,-52.246,-14.648,123.535,-12.695,0.000,0
28207.236,-52.734,-20.996,11.230,-25.879,0.000,0
28207.240,-14.648,-22.461,-85.938,3.906,0.000,0
28207.244,-21.973,-24.902,-16.113,-7.812,0.000,0
28207.248,-39.062,-31.250,-93.750,-2.930,0.000,0
28207.252,-41.504,-28.320,-81.543,-15.625,0.000,0
28207.256,-26.855,-25.879,-20.508,-50.293,0.000,0
28207.260,-31.738,-19.531,10.742,-32.715,0.000,0
28207.264,-54.199,-16.602,-20.020,1.953,0.000,0
28207.268,-38.086,-20.508,-119.629,4.883,0.000,0
28207.272,-35.156,-20.996,-54.199,-22.461,0.000,0
28207.275,-67.871,-26.367,69.824,-36.133,0.000,0
28207.279,-49.805,-25.879,-22.461,-23.438,0.000,0
28207.283,-17.578,-20.020,-124.512,-28.320,0.000,0
28207.287,-38.086,-16.113,-44.922,-33.203,0.000,0
28207.291,-43.457,-15.137,52.734,-44.922,0.000,0
28207.295,-36.133,-17.090,43.945,-60.059,0.000,0
28207.299,-19.043,-13.672,-39.062,-33.691,0.000,0
28207.303,-1.953,-11.230,-101.074,5.859,0.000,0
28207.307,-14.160,-20.508,-55.664,3.906,0.000,0
28207.311,-31.250,-32.227,5.859,-30.762,0.000,0
28207.315,-20.996,-32.715,-36.133,-67.383,0.000,0
28207.318,-11.230,-22.461,-127.930,-58.594,0.000,0
28207.322,-54.688,-23.926,55.664,-43.457,0.000,0
28207.326,-27.832,-30.273,-45.410,-6.348,0.000,0
28207.330,3.906,-33.203,-125.000,-2.930,0.000,0
28207.334,-32.715,-36.133,-28.320,-51.758,0.000,0
28207.338,-54.199,-33.203,-77.637,-28.809,0.000,0
28207.342,-30.273,-29.297,-98.633,-1.465,0.000,0
28207.346,-21.973,-28.320,-77.148,0.000,0.000,0
28207.350,-51.270,-30.762,-2.930,-9.277,0.000,0
28207.354,-56.152,-31.250,31.250,-47.852,0.000,0
28207.358,-31.738,-29.785,-12.695,-35.156,0.000,0
28207.361,-29.785,-32.227,-16.602,-22.461,0.000,0
28207.365,-49.805,-27.832,-53.711,8.301,0.000,0
28207.369,-46.387,-23.926,-70.801,-2.441,0.000,0
28207.373,-18.555,-29.785,-45.410,-62.500,0.000,0
28207.377,-13.672,-21.484,-71.777,-16.602,0.000,0
28207.381,-26.855,-13.672,-35.156,8.301,0.000,0
28207.385,-26.367,-13.184,-109.863,6.348,0.000,0
28207.389,-15.625,-17.578,58.105,-65.918,0.000,0
28207.393,-28.320,-17.578,155.273,-114.258,0.000,0
28207.397,-13.672,-7.812,-62.988,-39.062,0.000,0
28207.400,-16.113,-9.277,-74.707,-15.625,0.000,0
28207.404,-32.227,-15.625,-72.754,-10.742,0.000,0
28207.408,-46.875,-19.531,109.863,-67.383,0.000,0
28207.412,-37.109,-13.672,73.242,-67.871,0.000,0
28207.416,3.418,-7.812,-166.992,-17.090,0.000,0
28207.420,-5.371,-7.812,-79.102,-22.949,0.000,0
28207.424,-20.996,-12.695,-24.414,-15.625,0.000,0
28207.428,-21.484,-23.438,42.480,-55.176,0.000,0
28207.432,-10.254,-26.367,27.344,-95.703,0.000,0
28207.436,-20.020,-17.578,-48.340,-52.246,0.000,0
28207.440,-24.414,-12.695,-9.766,0.488,0.000,0
28207.443,-11.719,-20.996,-67.871,15.137,0.000,0
28207.447,-33.691,-27.832,24.902,-44.434,0.000,0
28207.451,-64.941,-26.367,51.758,-53.711,0.000,0
28207.455,-60.547,-19.043,-20.508,4.883,0.000,0
28207.459,-34.180,-28.320,-49.805,-5.859,0.000,0
28207.463,-24.414,-32.227,-117.676,-9.277,0.000,0
28207.467,-49.316,-26.367,24.414,-37.598,0.000,0
28207.471,-58.105,-25.391,132.324,-67.383,0.000,0
28207.475,-31.250,-22.461,-33.691,-17.090,0.000,0
28207.479,-23.438,-23.438,-96.191,6.836,0.000,0
28207.483,-51.758,-24.902,-57.129,0.977,0.000,0
28207.486,-54.199,-33.691,21.484,-26.367,0.000,0
28207.490,-25.391,-37.109,88.867,-80.566,0.000,0
28207.494,-25.391,-35.156,22.461,-78.125,0.000,0
28207.498,-67.871,-35.645,0.488,-41.504,0.000,0
28207.502,-61.523,-34.668,-54.199,-1.465,0.000,0
28207.506,-4.395,-43.945,-80.566,-9.766,0.000,0
28207.510,-0.488,-49.805,25.391,-66.895,0.000,0
28207.514,-20.508,-37.109,-75.684,-27.832,0.000,0
28207.518,-27.832,-35.156,-136.719,-3.418,0.000,0
28207.522,-15.625,-36.133,-103.027,-13.184,0.000,0
28207.525,-21.484,-32.715,-4.395,-19.531,0.000,0
28207.529,-46.387,-33.691,71.777,-53.711,0.000,0
28207.533,-49.805,-31.738,-59.082,-48.340,0.000,0
28207.537,-30.762,-31.738,-89.844,-34.180,0.000,0
28207.541,-29.297,-28.320,-47.363,-3.906,0.000,0
28207.545,-41.504,-27.344,-23.438,10.254,0.000,0
28207.549,-49.316,-32.227,-1.953,-33.203,0.000,0
28207.553,-14.648,-31.250,-127.441,-22.949,0.000,0
28207.557,-9.277,-31.738,-68.359,9.277,0.000,0
28207.561,-52.734,-38.086,81.055,-8.301,0.000,0
28207.565,-44.922,-37.109,-20.020,-10.254,0.000,0
28207.568,-19.043,-36.621,-96.191,-37.598,0.000,0
28207.572,-15.137,-36.133,-28.320,-43.457,0.000,0
28207.576,-29.297,-28.809,38.574,-8.301,0.000,0
28207.580,-18.555,-27.832,-96.680,11.230,0.000,0
28207.584,-25.391,-34.180,-91.309,0.488,0.000,0
28207.588,-41.992,-37.598,31.738,-33.691,0.000,0
28207.592,-35.645,-28.320,-14.648,-15.137,0.000,0
28207.596,-17.578,-20.996,-72.266,0.000,0.000,0
28207.600,-21.973,-20.508,-54.688,-28.320,0.000,0
28207.604,-45.410,-12.695,12.695,-15.137,0.000,0
28207.608,-16.113,-11.719,29.785,-29.785,0.000,0
28207.611,32.715,-11.719,-80.078,-50.781,0.000,0
28207.615,4.883,-13.184,-110.352,-18.555,0.000,0
28207.619,-2.930,-17.578,-92.773,9.766,0.000,0
28207.623,13.184,-14.160,-32.227,3.906,0.000,0
28207.627,0.488,-21.973,0.000,-20.020,0.000,0
28207.631,-15.625,-27.344,-43.457,-8.301,0.000,1
28207.635,-27.832,-24.414,-24.414,-0.977,0.000,0
28207.639,-34.180,-22.461,21.973,-15.137,0.000,0
28207.643,-8.301,-15.625,0.000,-10.742,0.000,0
28207.647,3.906,-16.602,42.480,-38.086,0.000,0
28207.650,-37.109,-19.043,56.152,-52.246,0.000,0
28207.654,-19.531,-20.020,-61.035,-21.973,0.000,0
28207.658,9.277,-22.949,-87.402,-15.137,0.000,0
28207.662,-27.832,-30.273,0.488,-13.184,0.000,0
28207.666,-50.293,-35.156,31.250,-54.199,0.000,0
28207.670,-18.066,-26.367,-36.621,-77.148,0.000,0
28207.674,-6.348,-24.414,-16.602,-49.316,0.000,0
28207.678,-30.273,-32.715,3.418,-29.785,0.000,0
28207.682,-50.781,-33.203,-75.195,-1.465,0.000,0
28207.686,-50.781,-41.016,-26.855,-58.105,0.000,0
28207.690,-35.156,-44.922,9.277,-76.660,0.000,0
28207.693,-62.012,-37.109,-3.906,-12.695,0.000,0
28207.697,-58.594,-29.785,-31.250,-8.301,0.000,0
28207.701,-34.180,-31.738,-73.730,-23.926,0.000,0
28207.705,-43.945,-33.203,9.766,-48.340,0.000,0
28207.709,-23.926,-24.414,-10.254,-44.922,0.000,0
28207.713,-12.207,-16.602,-43.945,-23.438,0.000,0
28207.717,-19.043,-20.508,-101.562,-2.930,0.000,0
28207.721,-21.484,-21.484,-84.473,27.344,0.000,0
28207.725,-19.531,-25.879,60.059,-13.184,0.000,0
28207.729,-13.184,-31.250,16.113,-14.160,0.000,0
28207.733,-32.715,-29.297,-86.426,21.973,0.000,0
28207.736,-39.551,-30.273,-32.715,-0.488,0.000,0
28207.740,-35.156,-29.785,40.039,8.301,0.000,0
28207.744,-16.602,-34.668,52.734,-36.133,0.000,0
28207.748,9.277,-30.762,-34.180,-72.266,0.000,0
28207.752,-20.996,-28.320,-41.016,-39.062,0.000,0
28207.756,-28.809,-28.809,-8.789,-11.719,0.000,0
28207.760,0.000,-22.461,-110.352,7.812,0.000,0
28207.764,-9.766,-21.973,-0.977,-41.016,0.000,0
28207.768,-43.457,-20.996,41.504,-47.852,0.000,0
28207.772,-26.855,-20.020,-88.867,7.812,0.000,0
28207.775,-12.695,-20.508,-33.691,-6.836,0.000,0
28207.779,-40.527,-24.414,-38.086,-6.836,0.000,0
28207.783,-74.707,-34.668,62.500,-31.738,0.000,0
28207.787,-54.199,-36.133,104.492,-62.500,0.000,0
28207.791,-4.883,-31.250,-86.426,-29.297,0.000,0
28207.795,-10.254,-25.879,-89.844,2.441,0.000,0
28207.799,-18.555,-21.484,-84.473,10.254,0.000,0
28207.803,-13.672,-19.043,27.344,-32.715,0.000,0
28207.807,14.648,-7.324,-60.547,-41.016,0.000,0
28207.811,14.648,-12.207,-102.539,-26.367,0.000,0
28207.815,-13.184,-16.113,-13.184,-19.043,0.000,0
28207.818,-14.160,-18.066,-67.871,15.137,0.000,0
28207.822,-9.277,-35.156,77.148,-42.969,0.000,0
28207.826,-22.949,-34.180,52.734,-53.223,0.000,0
28207.830,-36.133,-27.832,-67.383,-0.488,0.000,0
28207.834,-19.043,-27.344,-104.492,-10.742,0.000,0
28207.838,-10.254,-31.738,-75.684,-23.438,0.000,0
28207.842,-55.664,-36.133,154.297,-69.824,0.000,0
28207.846,-35.156,-31.738,15.625,-85.449,0.000,0
28207.850,2.930,-27.344,-153.320,-62.988,0.000,0
28207.854,-7.812,-18.555,-43.457,-37.598,0.000,0
28207.858,-18.066,-19.043,-33.203,5.371,0.000,0
28207.861,-20.508,-29.785,6.836,-43.945,0.000,0
28207.865,-19.531,-31.250,-57.617,-59.570,0.000,0
28207.869,-24.414,-31.250,-88.379,0.000,0.000,0
28207.873,-44.434,-34.668,-15.137,1.953,0.000,0
28207.877,-27.344,-35.645,-124.023,-3.906,0.000,0
28207.881,-18.066,-31.250,-87.402,-29.785,0.000,0
28207.885,-40.527,-20.996,66.406,-43.945,0.000,0
28207.889,-47.363,-17.578,93.750,-17.090,0.000,0
28207.893,-17.090,-23.926,-32.715,-2.441,0.000,0
28207.897,-18.066,-32.227,-144.531,7.812,0.000,0
28207.900,-39.551,-30.762,14.160,-41.992,0.000,0
28207.904,-26.855,-23.438,148.438,-80.566,0.000,0
28207.908,3.906,-22.949,-144.043,-2.930,0.000,0
28207.912,12.695,-23.438,-211.426,6.348,0.000,0
28207.916,-22.949,-22.461,-36.133,-8.301,0.000,0
28207.920,-43.945,-24.414,74.707,-26.855,0.000,0
28207.924,-25.391,-21.973,46.387,-76.660,0.000,0
28207.928,2.441,-13.184,-58.594,-54.688,0.000,0
28207.932,-25.391,-8.789,-20.020,-9.277,0.000,0
28207.936,-30.762,-17.090,-43.945,-9.766,0.000,0
28207.940,-4.395,-23.438,-61.035,-41.016,0.000,0
28207.943,-29.785,-18.555,6.348,-39.062,0.000,0
28207.947,-35.645,-22.461,-80.566,-12.207,0.000,0
28207.951,-23.926,-32.715,-102.051,-26.855,0.000,0
28207.955,-23.926,-36.621,-56.641,-25.391,0.000,0
28207.959,-35.645,-36.621,-2.930,-35.156,0.000,0
28207.963,-49.805,-31.738,10.742,-71.289,0.000,0
28207.967,-62.988,-24.414,-37.598,-49.805,0.000,0
28207.971,-41.504,-21.973,-81.543,-4.395,0.000,0
28207.975,-27.344,-19.043,-60.059,-0.488,0.000,0
28207.979,-83.984,-19.043,84.961,-24.902,0.000,0
28207.983,-62.500,-20.508,-18.555,-62.988,0.000,0
28207.986,-33.203,-20.996,-77.637,-59.082,0.000,0
28207.990,-57.617,-23.926,9.277,-48.828,0.000,0
28207.994,-49.316,-21.484,-80.078,-11.719,0.000,0
28207.998,-42.969,-22.461,-117.676,-0.488,0.000,0
28208.002,-57.129,-27.832,-4.395,-52.246,0.000,0
28208.006,-51.758,-31.738,60.547,-56.152,0.000,0
28208.010,-33.203,-37.109,-72.266,-6.348,0.000,0
28208.014,-40.039,-37.109,-149.414,20.996,0.000,0
28208.018,-22.461,-38.086,-113.281,1.465,0.000,0
28208.022,-35.156,-32.715,40.527,-49.316,0.000,0
28208.025,-38.574,-21.484,44.922,-46.875,0.000,0
28208.029,3.418,-17.578,-94.238,-28.320,0.000,0
28208.033,-18.066,-24.902,-120.117,9.766,0.000,0
28208.037,-38.574,-29.785,-0.488,13.184,0.000,0
28208.041,-16.602,-26.367,35.645,-36.621,0.000,0
28208.045,-9.277,-22.461,-97.656,0.488,0.000,0
28208.049,-28.320,-22.461,-98.145,13.184,0.000,0
28208.053,-37.109,-21.484,-21.484,-0.977,0.000,0
28208.057,-30.273,-24.414,-18.066,0.488,0.000,0
28208.061,-22.461,-32.715,20.996,-46.875,0.000,0
28208.065,-41.992,-31.738,7.812,-59.570,0.000,0
28208.068,-78.613,-29.785,29.785,-40.527,0.000,0
28208.072,-34.668,-33.203,-89.355,-7.812,0.000,0
28208.076,-8.789,-33.203,-87.402,-17.090,0.000,0
28208.080,-41.992,-29.785,36.621,-68.359,0.000,0
28208.084,-43.945,-20.508,-80.078,-16.113,0.000,0
28208.088,-20.996,-20.996,-88.379,4.883,0.000,0
28208.092,-13.184,-22.949,-50.781,-0.977,0.000,0
28208.096,-33.691,-20.996,-3.906,-1.465,0.000,0
28208.100,-37.598,-23.438,64.941,-64.941,0.000,0
28208.104,-16.602,-25.391,-5.859,-56.152,0.000,0
28208.108,-26.855,-26.367,-25.391,-10.742,0.000,0
28208.111,-46.875,-28.320,43.945,-18.066,0.000,0
28208.115,-48.340,-29.785,-28.809,-22.949,0.000,0
28208.119,-20.996,-31.250,-8.789,-41.504,0.000,0
28208.123,-26.367,-25.879,-11.230,-0.977,0.000,0
28208.127,-37.109,-28.809,-62.012,20.020,0.000,0
28208.131,-31.250,-30.273,-102.051,5.371,0.000,0
28208.135,-23.926,-30.273,-84.961,5.371,0.000,0
28208.139,-22.949,-37.598,91.309,-58.105,0.000,0
28208.143,-30.273,-29.297,55.176,-57.129,0.000,0
28208.147,-19.043,-20.996,-99.609,0.000,0.000,0
28208.150,-8.301,-24.902,-121.582,13.184,0.000,0
28208.154,-23.438,-28.320,-16.113,-1.465,0.000,0
28208.158,-51.270,-26.367,191.406,-49.316,0.000,0
28208.162,-16.602,-22.949,0.977,-52.246,0.000,0
28208.166,10.254,-23.926,-125.000,-38.574,0.000,0
28208.170,-0.488,-20.508,-12.207,-22.461,0.000,0
28208.174,-3.418,-26.855,-49.316,10.742,0.000,0
28208.178,-10.254,-39.551,37.598,-48.340,0.000,0
28208.182,-29.785,-29.297,16.113,-57.617,0.000,0
28208.186,-22.461,-24.414,-80.566,0.977,0.000,0
28208.190,-2.441,-30.273,-71.777,4.883,0.000,0
28208.193,-0.488,-26.855,-68.848,-0.977,0.000,0
28208.197,-20.996,-24.414,21.484,-37.598,0.000,0
28208.201,-47.852,-25.391,35.645,-48.828,0.000,0
28208.205,-45.898,-24.902,11.719,-33.203,0.000,0
28208.209,-15.137,-19.531,-67.871,-4.883,0.000,0
28208.213,-22.461,-18.555,-63.965,17.578,0.000,0
28208.217,-49.805,-22.461,58.105,-26.855,0.000,0
28208.221,-30.762,-23.926,-10.254,-28.320,0.000,0
28208.225,-1.465,-16.602,-97.168,19.043,0.000,0
28208.229,-13.672,-12.207,-55.176,11.719,0.000,0
28208.233,-46.875,-18.555,-14.648,0.977,0.000,0
28208.236,-37.598,-23.926,29.785,-22.949,0.000,0
28208.240,-28.320,-20.508,67.871,-58.105,0.000,0
28208.244,-25.879,-18.555,80.566,-71.289,0.000,0
28208.248,-46.875,-24.902,-61.035,-11.719,0.000,0
28208.252,-24.414,-22.949,-138.672,24.902,0.000,0
28208.256,14.160,-12.207,-14.648,-17.578,0.000,0
28208.260,-7.812,-9.766,22.461,-20.996,0.000,0
28208.264,-49.316,-17.090,-12.207,14.648,0.000,0
28208.268,-22.949,-22.949,-71.777,1.953,0.000,0
28208.272,-5.371,-19.531,-51.270,0.000,0.000,0
28208.275,-25.879,-21.973,26.367,-19.043,0.000,0
28208.279,-31.250,-24.902,-3.418,-60.059,0.000,0
28208.283,-33.691,-20.508,-79.590,-41.992,0.000,0
28208.287,-23.438,-25.879,-76.660,0.488,0.000,0
28208.291,-27.344,-29.297,-26.367,4.395,0.000,0
28208.295,-52.734,-32.715,13.672,-26.855,0.000,0
28208.299,-65.430,-39.551,-67.871,-41.016,0.000,0
28208.303,-57.617,-42.480,-99.121,-27.344,0.000,0
28208.307,-56.641,-39.551,-12.695,-29.297,0.000,0
28208.311,-43.457,-33.691,-60.547,-20.020,0.000,0
28208.315,-22.461,-36.621,-42.969,-71.289,0.000,0
28208.318,-41.992,-33.203,36.621,-88.867,0.000,0
28208.322,-25.879,-29.785,-76.660,-19.531,0.000,0
28208.326,-9.277,-31.250,-128.418,-6.348,0.000,0
28208.330,-28.320,-29.785,-108.398,-13.184,0.000,0
28208.334,-45.410,-37.109,7.324,-52.734,0.000,0
28208.338,-38.086,-39.062,21.484,-66.895,0.000,0
28208.342,-41.504,-38.086,-20.020,-52.246,0.000,0
28208.346,-33.203,-34.668,-101.074,-41.016,0.000,0
28208.350,-39.551,-33.691,-63.965,-3.906,0.000,0
28208.354,-40.527,-40.527,74.707,-34.668,0.000,0
28208.358,-15.137,-41.992,-27.832,-46.387,0.000,0
28208.361,-23.926,-42.969,-121.094,-5.371,0.000,1
28208.365,-21.973,-38.086,-99.609,-1.465,0.000,0
28208.369,-8.789,-34.668,-48.340,-0.977,0.000,0
28208.373,-4.883,-39.551,36.133,-47.852,0.000,0
28208.377,-14.160,-36.133,14.648,-70.801,0.000,0
28208.381,-18.066,-29.297,-39.062,-35.156,0.000,0
28208.385,-10.742,-29.785,-26.855,-7.812,0.000,0
28208.389,-18.066,-26.367,-45.410,18.555,0.000,0
28208.393,-18.066,-27.344,25.391,-37.598,0.000,0
28208.397,-48.828,-23.926,56.641,-53.223,0.000,0
28208.400,-33.691,-23.438,-85.938,-3.418,0.000,0
28208.404,5.859,-26.855,-86.914,-2.930,0.000,0
28208.408,-17.578,-24.414,0.977,1.953,0.000,0
28208.412,-20.996,-20.508,19.043,-35.156,0.000,0
28208.416,-10.254,-24.414,32.715,-57.617,0.000,0
28208.420,-14.648,-31.738,77.637,-44.434,0.000,0
28208.424,-20.508,-30.762,10.742,-12.695,0.000,0
28208.428,-16.602,-23.438,-120.605,22.461,0.000,0
28208.432,-19.043,-21.973,-8.789,-33.691,0.000,0
28208.436,-25.391,-30.273,60.547,-48.828,0.000,0
28208.440,-42.969,-33.691,9.277,-3.418,0.000,0
28208.443,-41.992,-31.250,9.277,-17.578,0.000,0
28208.447,-7.324,-29.785,-134.766,-13.184,0.000,0
28208.451,-8.301,-32.227,4.395,-49.316,0.000,0
28208.455,-10.742,-33.691,80.566,-79.590,0.000,0
28208.459,-7.324,-26.855,-46.387,-30.273,0.000,0
28208.463,-3.418,-23.438,-92.773,2.930,0.000,0
28208.467,-2.930,-24.414,-90.820,19.531,0.000,0
28208.471,-20.508,-30.273,72.266,-29.297,0.000,0
28208.475,-24.414,-29.297,80.566,-40.039,0.000,0
28208.479,-15.625,-20.996,-101.074,10.742,0.000,0
28208.483,-28.809,-27.832,-65.430,-14.648,0.000,0
28208.486,-41.016,-31.738,4.395,-16.602,0.000,0
28208.490,-19.043,-36.133,14.648,-45.410,0.000,0
28208.494,-3.906,-36.621,-14.160,-88.867,0.000,0
28208.498,-28.809,-29.785,-80.078,-33.691,0.000,0
28208.502,-26.367,-28.320,-62.500,-0.488,0.000,0
28208.506,2.930,-28.809,-102.051,-5.859,0.000,0
28208.510,-11.719,-31.250,-11.719,-27.344,0.000,0
28208.514,-37.109,-24.414,66.895,-59.082,0.000,0
28208.518,-21.973,-26.855,-41.992,-45.898,0.000,0
28208.522,-18.555,-40.039,19.043,-66.895,0.000,0
28208.525,-24.902,-31.250,-51.758,-13.184,0.000,0
28208.529,-41.992,-25.391,-18.555,18.555,0.000,0
28208.533,-57.617,-31.250,120.605,-53.223,0.000,0
28208.537,-6.348,-27.832,-75.195,-22.461,0.000,0
28208.541,16.113,-25.391,-105.957,11.719,0.000,0
28208.545,0.000,-27.344,-84.961,2.441,0.000,0
28208.549,-13.672,-25.391,-39.062,-15.625,0.000,0
28208.553,0.488,-20.508,52.246,-46.875,0.000,0
28208.557,14.160,-16.113,-4.883,-30.273,0.000,0
28208.561,-8.789,-13.672,-17.578,-10.254,0.000,0
28208.565,-12.695,-15.137,-86.914,21.484,0.000,0
28208.568,1.953,-22.461,-54.688,15.625,0.000,0
28208.572,-15.137,-18.555,93.262,-37.598,0.000,0
28208.576,-46.875,-15.625,24.414,-11.230,0.000,0
28208.580,-33.691,-19.531,-101.562,13.184,0.000,0
28208.584,-7.324,-18.066,-101.074,0.000,0.000,0
28208.588,-22.949,-15.137,24.414,-2.441,0.000,0
28208.592,-48.340,-20.020,135.254,-42.480,0.000,0
28208.596,-27.344,-15.625,-29.297,-52.246,0.000,0
28208.600,-4.395,-12.207,-120.117,-10.742,0.000,0
28208.604,-4.395,-18.066,-52.734,31.738,0.000,0
28208.608,-10.742,-23.926,-27.832,23.438,0.000,0
28208.611,-23.926,-22.949,-45.410,-28.809,0.000,0
28208.615,-25.879,-13.672,-83.496,-20.996,0.000,0
28208.619,-31.738,-18.066,-39.062,-3.906,0.000,0
28208.623,-46.875,-23.438,12.207,-17.090,0.000,0
28208.627,-48.340,-19.043,10.742,-31.738,0.000,0
28208.631,-32.715,-21.973,-59.082,-56.152,0.000,0
28208.635,-52.734,-31.250,-6.836,-55.664,0.000,0
28208.639,-57.617,-37.109,-11.230,-22.949,0.000,0
28208.643,-5.371,-32.715,-153.809,-9.277,0.000,0
28208.647,-13.184,-28.320,-109.863,-19.043,0.000,0
28208.650,-40.527,-33.203,24.414,-54.199,0.000,0
28208.654,-33.203,-27.832,19.043,-62.988,0.000,0
28208.658,-9.277,-22.461,-66.895,-53.711,0.000,0
28208.662,-31.738,-18.555,-72.266,-47.363,0.000,0
28208.666,-51.758,-9.766,-46.387,-3.418,0.000,0
28208.670,-38.574,-13.184,30.273,-32.715,0.000,0
28208.674,-27.344,-20.996,-19.531,-57.617,0.000,0
28208.678,-28.809,-18.555,-77.148,-8.789,0.000,0
28208.682,-51.758,-20.508,-32.227,1.953,0.000,0
28208.686,-25.879,-27.832,-77.637,-8.301,0.000,0
28208.690,0.977,-26.855,-30.273,-36.133,0.000,0
28208.693,-20.508,-23.438,12.695,-48.828,0.000,0
28208.697,-31.738,-21.973,-38.086,-31.738,0.000,0
28208.701,0.000,-14.648,-66.895,-5.371,0.000,0
28208.705,10.254,-11.719,-70.801,35.645,0.000,0
28208.709,-14.648,-20.996,37.598,-19.531,0.000,0
28208.713,-42.480,-18.555,12.207,-39.551,0.000,0
28208.717,-34.180,-18.555,-60.059,3.418,0.000,0
28208.721,-0.488,-18.066,-68.848,13.672,0.000,0
28208.725,-10.254,-14.160,20.996,-9.277,0.000,0
28208.729,-21.484,-33.203,130.859,-104.492,0.000,0
28208.733,15.625,-35.156,-133.789,-72.266,0.000,0
28208.736,10.742,-27.344,-136.719,-20.508,0.000,0
28208.740,-17.578,-26.855,-38.574,8.301,0.000,0
28208.744,-23.926,-27.344,-58.105,-3.906,0.000,0
28208.748,-22.949,-30.762,30.762,-54.199,0.000,0
28208.752,-13.672,-22.461,-8.789,-2.441,0.000,0
28208.756,-3.418,-19.043,-47.852,17.578,0.000,0
28208.760,-20.508,-25.391,-58.594,-5.859,0.000,0
28208.764,-54.199,-30.273,-38.574,-7.812,0.000,0
28208.768,-56.641,-35.645,98.633,-57.129,0.000,0
28208.772,-43.945,-36.133,52.246,-75.195,0.000,0
28208.775,-20.020,-34.668,-120.117,-35.645,0.000,0
28208.779,-24.902,-30.762,-149.414,2.441,0.000,0
28208.783,-39.551,-29.297,-10.742,-2.441,0.000,0
28208.787,-29.785,-29.785,83.984,-56.641,0.000,0
28208.791,-12.695,-23.926,-88.379,-8.789,0.000,0
28208.795,-31.738,-21.973,-107.422,10.254,0.000,0
28208.799,-54.688,-23.438,-25.391,-11.230,0.000,0
28208.803,-26.367,-20.996,-36.621,-6.836,0.000,0
28208.807,-9.766,-20.020,55.176,-57.129,0.000,0
28208.811,-46.875,-21.484,3.418,-52.734,0.000,0
28208.815,-72.754,-20.996,0.488,3.418,0.000,0
28208.818,-16.602,-26.367,-78.125,20.020,0.000,0
28208.822,0.000,-31.250,-111.816,-1.465,0.000,0
28208.826,-49.805,-28.320,22.949,-56.152,0.000,0
28208.830,-67.383,-23.438,-11.719,-61.035,0.000,0
28208.834,-34.668,-21.973,53.711,-76.172,0.000,0
28208.838,-9.766,-18.066,-32.715,-29.297,0.000,0
28208.842,-26.855,-19.043,-124.023,33.691,0.000,0
28208.846,-37.109,-20.996,4.395,-27.344,0.000,0
28208.850,-17.578,-15.137,-25.879,-33.203,0.000,0
28208.854,-15.137,-20.996,-93.750,19.043,0.000,0
28208.858,-37.598,-22.949,-25.879,26.855,0.000,0
28208.861,-46.387,-19.043,-23.438,20.508,0.000,0
28208.865,-18.555,-20.508,17.578,-26.855,0.000,0
28208.869,-3.418,-18.555,7.324,-46.387,0.000,0
28208.873,-24.414,-17.578,6.836,-32.715,0.000,0
28208.877,-36.621,-17.578,-41.992,-25.879,0.000,0
28208.881,-30.273,-21.973,-122.559,10.742,0.000,0
28208.885,-32.715,-33.691,30.762,-24.902,0.000,0
28208.889,-34.180,-27.832,59.570,-35.645,0.000,0
28208.893,-26.855,-22.949,-104.980,20.020,0.000,0
28208.897,-23.926,-22.461,-116.699,12.207,0.000,0
28208.900,-22.461,-20.996,-58.594,1.465,0.000,0
28208.904,-42.969,-21.484,27.344,-12.695,0.000,0
28208.908,-28.809,-22.949,-23.926,-43.457,0.000,0
28208.912,1.953,-22.949,-160.156,-31.738,0.000,0
28208.916,-10.254,-21.484,-74.707,0.488,0.000,0
28208.920,-43.945,-18.555,47.363,17.090,0.000,0
28208.924,-21.484,-23.926,10.254,-20.996,0.000,0
28208.928,-14.160,-25.879,-61.035,-29.297,0.000,0
28208.932,-28.809,-22.949,-90.332,7.324,0.000,0
28208.936,-26.367,-33.203,35.156,-39.551,0.000,0
28208.940,-12.207,-25.879,-91.797,-20.508,0.000,0
28208.943,-14.160,-20.996,-154.297,5.859,0.000,0
28208.947,-45.410,-28.320,44.434,-38.086,0.000,0
28208.951,-43.945,-18.066,60.547,-21.484,0.000,0
28208.955,-13.184,-12.695,-45.898,15.137,0.000,0
28208.959,-2.930,-14.648,-112.793,20.020,0.000,0
28208.963,-59.570,-24.414,26.855,-13.184,0.000,0
28208.967,-54.199,-27.832,21.484,-15.625,0.000,0
28208.971,3.418,-23.438,-119.141,6.348,0.000,0
28208.975,-15.137,-24.414,-58.594,-8.301,0.000,0
28208.979,-51.270,-23.926,-12.695,-6.836,0.000,0
28208.983,-40.039,-30.762,-35.645,-27.344,0.000,0
28208.986,-15.625,-28.320,-12.207,-67.871,0.000,0
28208.990,-19.531,-17.578,-17.090,-38.086,0.000,0
28208.994,-37.109,-23.438,-62.012,3.418,0.000,0
28208.998,-45.898,-29.297,-57.617,-0.488,0.000,0
28209.002,-29.785,-28.809,6.836,-21.973,0.000,0
28209.006,-14.648,-27.344,60.059,-56.152,0.000,0
28209.010,-46.875,-28.809,51.758,-54.199,0.000,0
28209.014,-27.832,-25.879,-50.781,-47.363,0.000,0
28209.018,3.906,-21.484,-86.914,-11.719,0.000,0
28209.022,-1.465,-27.832,-29.297,-9.766,0.000,0
28209.025,-10.742,-27.832,11.719,-62.500,0.000,0
28209.029,-9.766,-23.438,-67.383,-30.762,0.000,0
28209.033,7.324,-27.832,-82.031,13.672,0.000,0
28209.037,-14.160,-30.762,10.254,-21.973,0.000,0
28209.041,-50.781,-33.203,64.453,-77.148,0.000,0
28209.045,-51.758,-33.691,-13.184,-82.031,0.000,0
28209.049,-45.410,-34.668,-13.184,-55.664,0.000,0
28209.053,-47.852,-34.668,10.254,-26.367,0.000,0
28209.057,-21.484,-33.203,-125.488,0.488,0.000,0
28209.061,-21.484,-39.551,-57.617,-60.547,0.000,0
28209.065,-51.270,-37.109,34.668,-62.988,0.000,0
28209.068,-24.414,-30.273,-55.176,8.789,0.000,0
28209.072,-1.465,-34.180,-79.102,4.395,0.000,0
28209.076,-18.066,-37.109,-79.590,-0.488,0.000,0
28209.080,-42.969,-42.480,75.195,-42.480,0.000,0
28209.084,-22.949,-39.062,76.660,-68.848,0.000,0
28209.088,-10.254,-31.250,4.395,-39.062,0.000,0
28209.092,-44.434,-26.855,-17.090,-13.672,0.000,1
28209.096,-64.453,-24.902,-13.672,10.742,0.000,0
28209.100,-47.852,-28.320,123.535,-45.410,0.000,0
28209.104,-7.324,-28.809,-6.836,-56.152,0.000,0
28209.108,-4.883,-21.973,-117.188,6.836,0.000,0
28209.111,-24.902,-25.879,-62.012,-1.465,0.000,0
28209.115,-26.855,-32.715,-65.430,-4.883,0.000,0
28209.119,-29.785,-39.551,29.785,-43.457,0.000,0
28209.123,-54.688,-39.551,69.824,-81.543,0.000,0
28209.127,-59.570,-30.273,-65.430,-41.992,0.000,0
28209.131,-30.762,-28.320,-87.891,-12.207,0.000,0
28209.135,-14.160,-26.855,-73.730,1.953,0.000,0
28209.139,-36.133,-31.250,62.988,-34.180,0.000,0
28209.143,-58.105,-32.227,149.414,-77.148,0.000,0
28209.147,-18.555,-27.344,-65.430,-20.020,0.000,0
28209.150,17.090,-36.133,-141.602,-1.953,0.000,0
28209.154,-8.789,-31.738,-42.969,-10.254,0.000,0
28209.158,-22.949,-30.273,33.203,-33.691,0.000,0
28209.162,-8.301,-33.691,41.504,-76.660,0.000,0
28209.166,-2.441,-28.809,-48.828,-30.762,0.000,0
28209.170,-20.996,-30.273,-32.227,3.418,0.000,0
28209.174,-20.020,-25.391,-54.199,3.418,0.000,0
28209.178,-15.625,-26.855,-5.371,-22.949,0.000,0
28209.182,-25.391,-32.227,108.887,-61.523,0.000,0
28209.186,-28.809,-27.832,38.574,-45.410,0.000,0
28209.190,-23.926,-27.832,3.418,-49.805,0.000,0
28209.193,-20.020,-31.738,-93.750,-21.973,0.000,0
28209.197,-13.184,-26.855,-34.180,-20.508,0.000,0
28209.201,-27.832,-16.602,159.180,-60.059,0.000,0
28209.205,-20.996,-14.648,17.090,-15.625,0.000,0
28209.209,-2.930,-20.020,-135.742,4.395,0.000,0
28209.213,-24.902,-25.391,-84.961,-14.648,0.000,0
28209.217,-28.809,-27.344,34.668,-29.785,0.000,0
28209.221,-13.184,-20.996,64.453,-58.594,0.000,0
28209.225,-10.742,-13.672,-53.711,-47.363,0.000,0
28209.229,-39.551,-19.043,-20.508,-26.855,0.000,0
28209.233,-44.922,-22.461,2.930,15.137,0.000,0
28209.236,-10.742,-16.113,-14.160,13.672,0.000,0
28209.240,-5.859,-14.648,6.836,-25.879,0.000,0
28209.244,-30.762,-16.602,96.191,-43.945,0.000,0
28209.248,-29.297,-23.438,123.047,-44.434,0.000,0
28209.252,-4.395,-24.902,-111.816,14.648,0.000,0
28209.256,-2.930,-30.762,-137.695,2.441,0.000,0
28209.260,-32.715,-36.621,-38.086,-54.688,0.000,0
28209.264,-35.645,-39.062,-7.324,-60.059,0.000,0
28209.268,-19.043,-42.969,-65.430,-30.762,0.000,0
28209.272,-19.043,-48.828,-99.121,-2.441,0.000,0
28209.275,-39.551,-48.340,-55.176,-3.906,0.000,0
28209.279,-58.105,-42.480,34.180,-33.203,0.000,0
28209.283,-20.996,-33.691,-26.367,-9.766,0.000,0
28209.287,7.324,-34.180,-89.355,4.395,0.000,0
28209.291,-51.270,-40.527,26.855,-4.395,0.000,0
28209.295,-63.477,-37.598,33.203,-0.977,0.000,0
28209.299,-16.113,-36.621,-11.719,-47.852,0.000,0
28209.303,-30.273,-33.691,33.203,-66.406,0.000,0
28209.307,-26.367,-30.273,-45.898,-23.926,0.000,0
28209.311,-10.742,-30.762,-131.348,1.465,0.000,0
28209.315,-9.766,-29.297,-69.336,-1.953,0.000,0
28209.318,-11.719,-26.367,14.648,-22.461,0.000,0
28209.322,-9.277,-24.902,-14.648,-15.137,0.000,0
28209.326,-25.391,-30.273,-40.039,-3.418,0.000,0
28209.330,-21.973,-34.668,-40.039,-21.484,0.000,0
28209.334,-7.812,-32.227,-18.066,-18.555,0.000,0
28209.338,-34.180,-32.715,85.449,-46.387,0.000,0
28209.342,-12.695,-29.785,-33.203,-64.941,0.000,0
28209.346,3.418,-29.785,-113.770,-22.949,0.000,0
28209.350,-18.555,-29.785,6.836,-11.719,0.000,0
28209.354,-5.371,-23.438,-84.961,8.789,0.000,0
28209.358,-7.812,-24.902,-69.824,-21.973,0.000,0
28209.361,-41.016,-23.438,41.016,-44.434,0.000,0
28209.365,-33.203,-26.367,20.996,-23.438,0.000,0
28209.369,-26.855,-31.250,1.465,-14.648,0.000,0
28209.373,-32.227,-26.367,-76.172,25.879,0.000,0
28209.377,-23.926,-24.414,-35.645,-12.695,0.000,0
28209.381,-44.922,-23.926,72.266,-42.480,0.000,0
28209.385,-41.504,-22.949,-22.461,8.789,0.000,0
28209.389,4.395,-23.926,-138.672,-6.836,0.000,0
28209.393,-18.555,-25.391,-106.445,-14.648,0.000,0
28209.397,-35.645,-31.250,15.137,-53.223,0.000,0
28209.400,-12.695,-32.227,3.418,-80.078,0.000,0
28209.404,-4.883,-31.250,-61.035,-52.246,0.000,0
28209.408,-28.809,-30.762,-69.336,-26.367,0.000,0
28209.412,-35.156,-25.391,-98.145,4.883,0.000,0
28209.416,-18.555,-21.484,26.367,-45.410,0.000,0
28209.420,-29.297,-26.367,38.086,-48.340,0.000,0
28209.424,-44.434,-26.855,-74.219,-4.395,0.000,0
28209.428,-52.246,-23.438,-37.109,-14.648,0.000,0
28209.432,-28.320,-22.949,-60.547,-0.977,0.000,0
28209.436,3.418,-26.367,16.602,-27.344,0.000,0
28209.440,-8.789,-25.879,72.754,-49.316,0.000,0
28209.443,-40.527,-27.832,-17.578,-30.762,0.000,0
28209.447,-21.973,-33.203,-62.012,-1.953,0.000,0
28209.451,-13.672,-35.645,-30.762,13.184,0.000,0
28209.455,-37.598,-31.250,101.074,-23.926,0.000,0
28209.459,-32.227,-27.832,-0.488,-29.297,0.000,0
28209.463,-22.949,-24.902,-126.953,15.137,0.000,0
28209.467,-30.762,-20.508,-28.809,10.742,0.000,0
28209.471,-50.293,-18.066,33.203,10.254,0.000,0
28209.475,-59.082,-24.902,87.402,-35.156,0.000,0
28209.479,-33.203,-25.879,27.344,-79.102,0.000,0
28209.483,-16.602,-24.902,-42.969,-25.391,0.000,0
28209.486,-8.789,-30.273,-69.824,5.371,0.000,0
28209.490,-4.395,-23.926,-108.398,11.719,0.000,0
28209.494,-17.578,-23.438,-13.672,-27.832,0.000,0
28209.498,-23.438,-28.320,77.148,-72.266,0.000,0
28209.502,-14.648,-23.438,-5.371,-39.551,0.000,0
28209.506,-8.789,-16.602,-30.762,-35.156,0.000,0
28209.510,-17.578,-14.648,-70.312,-7.324,0.000,0
28209.514,-43.945,-22.461,5.859,2.930,0.000,0
28209.518,-57.617,-31.738,123.047,-60.059,0.000,0
28209.522,-26.367,-24.414,-31.250,-34.668,0.000,0
28209.525,-6.836,-22.949,-137.207,-9.277,0.000,0
28209.529,-28.809,-27.832,-66.406,-24.902,0.000,0
28209.533,-44.922,-29.297,64.941,-45.410,0.000,0
28209.537,-35.645,-28.809,98.145,-71.289,0.000,0
28209.541,-26.855,-25.391,-33.691,-49.316,0.000,0
28209.545,-41.992,-27.832,-38.574,-42.480,0.000,0
28209.549,-34.180,-26.367,-42.480,-4.883,0.000,0
28209.553,-0.977,-26.367,-9.277,-28.320,0.000,0
28209.557,-9.277,-21.484,-72.266,-44.922,0.000,0
28209.561,-28.320,-20.508,-105.957,11.719,0.000,0
28209.565,-17.090,-26.367,-10.254,1.465,0.000,0
28209.568,13.184,-29.297,-67.871,-5.371,0.000,0
28209.572,-7.812,-33.203,31.738,-28.320,0.000,0
28209.576,-49.316,-32.715,114.258,-52.734,0.000,0
28209.580,-4.395,-30.273,-10.254,-33.691,0.000,0
28209.584,16.113,-32.227,-64.453,-1.953,0.000,0
28209.588,-7.324,-29.785,-75.684,28.809,0.000,0
28209.592,-27.832,-31.250,0.977,-21.973,0.000,0
28209.596,-42.480,-37.109,42.480,-56.152,0.000,0
28209.600,-7.324,-32.227,-99.609,-13.184,0.000,0
28209.604,5.371,-25.879,-55.176,-11.719,0.000,0
28209.608,-32.227,-28.320,12.695,-14.648,0.000,0
28209.611,-17.578,-32.227,-8.301,-23.926,0.000,0
28209.615,6.348,-30.762,3.418,-58.594,0.000,0
28209.619,-28.809,-31.250,51.758,-47.852,0.000,0
28209.623,-42.480,-29.297,-24.414,-2.930,0.000,0
28209.627,0.977,-26.367,-138.672,20.020,0.000,2
28209.631,-1.465,-24.414,3.906,-4.883,0.000,0
28209.635,-31.738,-23.438,60.547,-19.043,0.000,0
28209.639,-15.625,-27.344,-83.984,2.930,0.000,0
28209.643,-12.695,-34.668,-97.168,-11.719,0.000,0
28209.647,-31.250,-36.621,-17.578,-17.090,0.000,0
28209.650,-31.250,-28.809,36.133,-18.555,0.000,0
28209.654,-20.996,-22.949,78.613,-73.730,0.000,0
28209.658,-23.926,-12.207,-0.977,-45.410,0.000,0
28209.662,-27.832,-20.020,-13.672,-6.836,0.000,0
28209.666,-30.273,-22.949,53.711,-12.695,0.000,0
28209.670,0.000,-13.184,-63.477,4.395,0.000,0
28209.674,-1.953,-21.973,-96.191,-27.832,0.000,0
28209.678,-15.625,-31.738,-121.094,-36.621,0.000,0
28209.682,-1.953,-22.949,-51.758,-26.367,0.000,0
28209.686,0.000,-15.625,-59.570,7.324,0.000,0
28209.690,-13.184,-13.672,-89.355,11.719,0.000,0
28209.693,-30.762,-8.789,10.254,-41.992,0.000,0
28209.697,-21.484,-12.207,-7.812,-18.066,0.000,0
28209.701,-10.254,-20.508,-37.109,14.648,0.000,0
28209.705,-12.207,-21.484,-65.918,6.348,0.000,0
28209.709,-32.715,-22.461,0.000,-13.672,0.000,0
28209.713,-42.969,-26.855,83.984,-48.340,0.000,0
28209.717,17.578,-27.344,-79.590,-35.645,0.000,0
28209.721,30.762,-25.879,-87.402,-21.973,0.000,0
28209.725,-15.137,-24.414,-35.645,11.719,0.000,0
28209.729,-21.484,-29.297,-23.438,-1.465,0.000,0
28209.733,-16.113,-35.645,33.203,-69.824,0.000,0
28209.736,-29.785,-30.762,-32.715,-30.762,0.000,0
28209.740,-39.551,-27.832,-65.918,2.441,0.000,0
28209.744,-30.762,-31.738,-63.965,-11.230,0.000,0
28209.748,-26.367,-29.297,-1.465,-10.742,0.000,0
28209.752,-21.484,-31.738,76.172,-63.477,0.000,0
28209.756,-45.898,-30.762,83.496,-65.918,0.000,0
28209.760,-27.832,-27.832,-65.430,-19.043,0.000,0
28209.764,-1.465,-30.762,-89.355,0.488,0.000,0
28209.768,-21.484,-31.738,53.223,-34.180,0.000,0
28209.772,-32.227,-28.809,48.340,-53.711,0.000,0
28209.775,-44.922,-22.949,-94.727,-7.324,0.000,0
28209.779,-19.531,-28.320,-117.188,2.441,0.000,0
28209.783,-12.207,-33.203,-48.340,-6.836,0.000,0
28209.787,-30.762,-33.203,-21.484,-19.043,0.000,0
28209.791,-26.367,-28.809,32.227,-71.289,0.000,0
28209.795,-24.902,-16.113,18.555,-56.152,0.000,0
28209.799,-33.691,-16.602,39.551,-21.484,0.000,0
28209.803,-23.438,-18.066,-26.367,1.465,0.000,0
28209.807,8.789,-15.137,-104.492,7.324,0.000,0
28209.811,2.930,-18.066,49.805,-37.598,0.000,0
28209.815,-6.348,-17.578,32.715,-3.906,0.000,0
28209.818,1.465,-20.996,-49.805,14.648,0.000,0
28209.822,-4.395,-26.855,-75.195,-6.348,0.000,0
28209.826,-15.137,-23.438,-43.945,-5.371,0.000,0
28209.830,-28.320,-20.508,147.949,-60.059,0.000,0
28209.834,-28.320,-23.926,71.777,-60.547,0.000,0
28209.838,-12.695,-26.367,-89.355,-2.930,0.000,0
28209.842,-35.156,-29.297,-87.891,6.348,0.000,0
28209.846,-62.012,-33.203,20.020,2.930,0.000,0
28209.850,-20.508,-34.668,65.918,-40.039,0.000,0
28209.854,5.859,-21.973,-46.387,-51.270,0.000,0
28209.858,-21.973,-13.184,-57.617,-40.527,0.000,0
28209.861,-39.551,-19.531,-57.617,-24.414,0.000,0
28209.865,-19.043,-25.879,-63.477,-12.207,0.000,0
28209.869,-34.180,-29.785,46.875,-69.824,0.000,0
28209.873,-47.363,-31.738,-89.355,-32.227,0.000,0
28209.877,-17.090,-32.227,-152.832,6.836,0.000,0
28209.881,-8.301,-30.762,-68.848,-16.602,0.000,0
28209.885,-27.832,-29.785,-20.020,-23.926,0.000,0
28209.889,-45.410,-25.391,22.461,-50.781,0.000,0
28209.893,-46.387,-28.320,5.371,-63.477,0.000,0
28209.897,-36.621,-25.879,5.859,-41.992,0.000,0
28209.900,-33.203,-18.555,-8.789,0.977,0.000,0
28209.904,-51.758,-22.949,-6.348,4.395,0.000,0
28209.908,-29.785,-23.438,-15.625,-53.223,0.000,0
28209.912,3.418,-19.043,-90.332,-29.785,0.000,0
28209.916,-14.648,-20.020,-38.574,4.395,0.000,0
28209.920,-28.320,-21.484,-25.391,-2.441,0.000,0
28209.924,-29.297,-22.949,-62.988,-10.742,0.000,0
28209.928,-27.344,-22.949,29.785,-55.176,0.000,0
28209.932,-29.297,-18.555,43.457,-58.594,0.000,0
28209.936,-47.852,-14.648,-2.441,-22.461,0.000,0
28209.940,-36.621,-17.578,-115.723,4.395,0.000,0
28209.943,-20.508,-23.926,-96.680,5.859,0.000,0
28209.947,-56.152,-21.484,99.609,-24.902,0.000,0
28209.951,-53.223,-16.602,34.180,-9.766,0.000,0
28209.955,-5.371,-20.508,-137.695,10.254,0.000,0
28209.959,-11.230,-16.602,-52.246,2.441,0.000,0
28209.963,-16.113,-19.043,-4.883,13.184,0.000,0
28209.967,-6.836,-27.344,90.820,-49.805,0.000,0
28209.971,-8.789,-27.832,41.992,-86.426,0.000,0
28209.975,-8.789,-25.879,-183.594,-4.883,0.000,0
28209.979,-14.648,-21.973,-48.828,29.785,0.000,0
28209.983,-35.156,-23.926,56.152,16.113,0.000,0
28209.986,-17.578,-25.879,-6.836,-2.441,0.000,0
28209.990,-13.672,-23.438,-55.664,9.277,0.000,0
28209.994,-44.922,-22.949,19.043,9.277,0.000,0
28209.998,-18.066,-23.438,-18.066,-0.488,0.000,0
28210.002,-3.418,-24.902,-45.898,2.441,0.000,0
28210.006,-33.203,-28.320,20.996,-34.180,0.000,0
28210.010,-33.203,-25.879,45.410,-43.945,0.000,0
28210.014,-6.348,-23.926,-22.949,-5.371,0.000,0
28210.018,9.277,-22.461,-71.777,10.254,0.000,0
28210.022,-22.461,-25.879,-26.855,3.906,0.000,0
28210.025,-44.434,-32.227,34.180,-34.180,0.000,0
28210.029,-32.715,-29.785,25.391,-44.434,0.000,0
28210.033,-12.695,-33.203,-38.574,-29.785,0.000,0
28210.037,-34.180,-32.715,1.953,-15.625,0.000,0
28210.041,-54.688,-33.203,-44.922,18.066,0.000,0
28210.045,-11.719,-41.504,-64.453,-28.809,0.000,0
28210.049,-9.277,-34.180,-11.230,-45.410,0.000,0
28210.053,-23.438,-20.508,-76.172,10.742,0.000,0
28210.057,-27.344,-17.090,-109.375,12.207,0.000,0
28210.061,-20.996,-27.832,-83.008,-3.906,0.000,0
28210.065,-26.367,-33.691,48.828,-37.598,0.000,0
28210.068,-27.832,-27.832,26.855,-62.500,0.000,0
28210.072,-36.133,-28.809,-52.246,-58.594,0.000,0
28210.076,-50.781,-28.809,-50.293,-12.207,0.000,0
28210.080,-31.250,-25.879,-55.664,36.133,0.000,0
28210.084,-40.039,-26.855,72.754,-23.438,0.000,0
28210.088,-31.250,-24.902,-47.852,-45.898,0.000,0
28210.092,-6.348,-25.879,-184.082,6.836,0.000,0
28210.096,-23.926,-26.855,-44.922,-1.953,0.000,0
28210.100,-26.855,-27.832,-64.941,1.465,0.000,0
28210.104,-9.766,-35.156,-63.477,-34.180,0.000,0
28210.108,-10.742,-32.715,-52.246,-61.523,0.000,0
28210.111,-41.016,-28.809,24.902,-35.156,0.000,0
28210.115,-46.875,-25.391,84.473,-4.395,0.000,0
28210.119,-25.391,-25.879,-37.109,24.414,0.000,0
28210.123,-47.363,-35.645,20.508,-28.809,0.000,0
28210.127,-59.082,-35.645,87.402,-52.246,0.000,0
28210.131,-44.922,-30.273,-18.066,-5.859,0.000,0
28210.135,-3.906,-24.902,-98.145,-13.184,0.000,0
28210.139,-9.277,-15.137,-99.121,-9.277,0.000,0
28210.143,-31.250,-19.043,28.320,-41.016,0.000,0
28210.147,-14.160,-20.996,67.871,-80.566,0.000,0
28210.150,-5.859,-23.438,-46.875,-38.574,0.000,0
28210.154,-22.461,-28.809,-76.660,-5.371,0.000,0
28210.158,-31.738,-29.297,-103.516,0.977,0.000,0
28210.162,-31.738,-40.039,10.254,-42.480,0.000,0
28210.166,-32.227,-40.527,40.527,-42.969,0.000,0
28210.170,-39.551,-31.250,-69.336,5.859,0.000,0
28210.174,-53.223,-28.809,-5.371,-26.367,0.000,0
28210.178,-27.832,-30.273,-99.121,-16.602,0.000,0
28210.182,3.418,-34.668,-61.035,-33.691,0.000,0
28210.186,-16.113,-32.715,74.219,-87.891,0.000,0
28210.190,-25.391,-21.973,-131.836,-38.086,0.000,0
28210.193,4.395,-21.973,-193.359,-1.465,0.000,0
28210.197,23.926,-25.391,-125.488,-7.812,0.000,0
28210.201,-10.254,-24.902,83.984,-27.832,0.000,0
28210.205,-22.461,-17.090,177.734,-56.641,0.000,0
28210.209,2.441,-17.090,-11.230,-41.992,0.000,0
28210.213,-3.418,-23.926,45.410,-38.086,0.000,0
28210.217,-36.621,-21.973,83.984,-1.465,0.000,0
28210.221,-41.016,-19.043,40.527,7.324,0.000,0
28210.225,-8.301,-20.020,0.488,-54.688,0.000,0
28210.229,-10.254,-28.320,-48.340,-26.855,0.000,0
28210.233,-14.160,-32.227,-38.574,14.160,0.000,0
28210.236,-6.348,-23.438,-57.129,6.348,0.000,0
28210.240,-11.719,-20.020,-42.969,-5.859,0.000,0
28210.244,-17.090,-26.855,63.965,-47.852,0.000,0
28210.248,-11.719,-20.996,53.711,-63.965,0.000,0
28210.252,-3.418,-17.578,-30.273,-26.367,0.000,0
28210.256,7.812,-17.578,-126.465,17.090,0.000,0
28210.260,3.418,-23.438,-65.430,10.742,0.000,0
28210.264,-17.578,-28.809,76.172,-36.133,0.000,0
28210.268,-27.832,-24.902,23.438,-33.203,0.000,0
28210.272,-10.742,-20.996,-98.633,-3.418,0.000,0
28210.275,-10.742,-25.879,-15.625,-33.691,0.000,1
28210.279,-33.203,-25.391,62.988,-20.020,0.000,0
28210.283,-5.371,-19.531,-12.207,-30.273,0.000,0
28210.287,3.418,-25.391,-71.289,-58.594,0.000,0
28210.291,-41.016,-30.762,-46.387,-21.973,0.000,0
28210.295,-42.969,-36.133,-49.316,11.719,0.000,0
28210.299,-22.461,-36.133,-64.453,10.742,0.000,0
28210.303,-51.270,-29.785,22.461,-19.043,0.000,0
28210.307,-73.730,-25.879,-44.434,-9.277,0.000,0
28210.311,-57.129,-23.926,-69.824,8.301,0.000,0
28210.315,-32.715,-19.043,-29.297,-2.441,0.000,0
28210.318,-18.555,-22.949,-65.918,-8.301,0.000,0
28210.322,-61.035,-26.855,44.922,-46.387,0.000,0
28210.326,-69.336,-21.484,46.875,-71.289,0.000,0
28210.330,-10.254,-24.414,-96.680,-36.621,0.000,0
28210.334,-6.348,-27.344,-83.008,-9.766,0.000,0
28210.338,-34.180,-26.367,-57.617,-16.113,0.000,0
28210.342,-45.898,-26.367,-23.438,-55.664,0.000,0
28210.346,-28.320,-26.367,-31.738,-66.895,0.000,0
28210.350,-27.344,-32.715,-36.621,-47.852,0.000,0
28210.354,-54.688,-30.762,-1.465,-28.320,0.000,0
28210.358,-65.918,-27.344,-58.105,18.066,0.000,0
28210.361,-33.203,-32.227,-16.602,-17.090,0.000,0
28210.365,-32.227,-32.227,44.434,-59.570,0.000,0
28210.369,-53.711,-26.367,-24.414,-1.953,0.000,0
28210.373,-13.184,-20.508,19.531,-44.434,0.000,0
28210.377,2.441,-13.184,133.301,-84.473,0.000,0
28210.381,-19.531,-10.254,21.973,-20.020,0.000,0
28210.385,-1.953,-13.184,-102.051,-18.555,0.000,0
28210.389,0.000,-16.602,-115.234,-15.137,0.000,0
28210.393,-12.207,-19.531,-88.379,20.996,0.000,0
28210.397,-25.391,-24.414,-15.625,5.859,0.000,0
28210.400,-18.555,-20.020,37.109,-46.387,0.000,0
28210.404,-26.367,-5.859,-46.875,-1.953,0.000,0
28210.408,-30.762,-7.324,-29.785,27.344,0.000,0
28210.412,-43.457,-16.602,62.500,16.113,0.000,0
28210.416,-18.555,-19.531,5.859,-2.930,0.000,0
28210.420,-17.578,-19.043,26.367,-52.246,0.000,0
28210.424,-42.480,-17.578,3.906,-40.527,0.000,0
28210.428,-14.160,-21.973,-26.855,-10.742,0.000,0
28210.432,2.441,-20.996,-72.754,24.902,0.000,0
28210.436,-9.766,-12.695,-50.781,-4.395,0.000,0
28210.440,-31.250,-12.695,71.289,-77.148,0.000,0
28210.443,-28.809,-21.973,-24.902,-37.109,0.000,0
28210.447,-25.391,-28.320,-63.477,-17.578,0.000,0
28210.451,-39.062,-23.438,-25.879,-24.414,0.000,0
28210.455,-53.223,-19.043,32.715,-21.484,0.000,0
28210.459,-36.133,-21.973,133.789,-78.125,0.000,0
28210.463,9.766,-20.020,-4.883,-64.941,0.000,0
28210.467,-0.977,-14.648,-31.738,-26.855,0.000,0
28210.471,-33.203,-10.254,-28.809,-1.465,0.000,0
28210.475,-17.578,-20.996,-42.969,-8.301,0.000,0
28210.479,-9.766,-34.668,139.160,-86.426,0.000,0
28210.483,-33.203,-22.461,38.086,-28.809,0.000,0
28210.486,-31.250,-11.719,-95.703,29.297,0.000,0
28210.490,-6.836,-18.066,-57.129,3.418,0.000,0
28210.494,-4.883,-28.320,-46.875,13.672,0.000,0
28210.498,-23.438,-31.738,44.434,-1.953,0.000,0
28210.502,-54.199,-30.273,96.191,-33.203,0.000,0
28210.506,-33.203,-26.855,-70.801,4.883,0.000,0
28210.510,5.859,-22.949,-122.070,34.180,0.000,0
28210.514,-5.371,-26.855,-22.461,20.508,0.000,0
28210.518,-28.809,-32.715,113.281,-37.598,0.000,0
28210.522,-18.066,-35.156,-40.527,-51.758,0.000,0
28210.525,7.324,-30.273,-110.840,-36.133,0.000,0
28210.529,-3.418,-27.344,-1.465,-32.715,0.000,0
28210.533,-18.066,-32.227,-37.109,2.441,0.000,0
28210.537,-19.531,-34.180,22.949,-38.086,0.000,0
28210.541,-41.992,-36.133,19.043,-64.453,0.000,0
28210.545,-51.758,-32.715,-26.367,-12.207,0.000,0
28210.549,-31.738,-25.879,-16.602,2.441,0.000,0
28210.553,1.953,-20.020,-103.027,1.465,0.000,0
28210.557,-14.648,-22.461,19.531,-39.062,0.000,0
28210.561,-21.973,-24.414,78.125,-62.012,0.000,0
28210.565,-3.906,-27.344,-5.859,-50.781,0.000,0
28210.568,-5.371,-30.273,-42.480,-35.156,0.000,0
28210.572,-17.090,-26.367,-81.055,3.906,0.000,0
28210.576,-23.438,-27.832,55.664,-28.809,0.000,0
28210.580,-27.344,-27.832,80.078,-47.852,0.000,0
28210.584,-36.621,-26.855,-87.891,-2.441,0.000,0
28210.588,-25.391,-25.391,-197.266,6.348,0.000,0
28210.592,-47.363,-18.066,-34.180,0.977,0.000,0
28210.596,-43.945,-20.508,80.078,-30.762,0.000,0
28210.600,-32.715,-22.949,24.414,-63.965,0.000,0
28210.604,-47.852,-16.113,-25.391,-39.062,0.000,0
28210.608,-59.570,-14.160,4.883,-12.207,0.000,0
28210.611,-19.531,-20.996,-87.402,0.977,0.000,0
28210.615,1.953,-20.020,-32.227,-25.879,0.000,0
28210.619,-21.973,-12.695,4.395,-45.410,0.000,0
28210.623,-21.973,-12.695,-100.098,-2.930,0.000,0
28210.627,0.000,-19.531,-67.871,0.977,0.000,0
28210.631,-7.324,-24.414,-38.086,-3.906,0.000,0
28210.635,-32.227,-23.438,18.066,-10.254,0.000,0
28210.639,-39.062,-17.578,46.387,-31.738,0.000,0
28210.643,-27.832,-20.508,-23.926,-22.949,0.000,0
28210.647,0.977,-24.902,-122.070,8.301,0.000,0
28210.650,-17.090,-25.391,-35.156,22.949,0.000,0
28210.654,-55.664,-32.715,23.438,-10.254,0.000,0
28210.658,-42.480,-29.785,-41.504,-16.113,0.000,0
28210.662,-23.438,-25.391,-54.688,9.277,0.000,0
28210.666,-23.926,-30.762,-19.531,-2.930,0.000,0
28210.670,-21.484,-31.250,-55.664,-7.324,0.000,0
28210.674,-16.602,-28.320,-55.176,-27.832,0.000,0
28210.678,-15.625,-29.785,41.504,-77.148,0.000,0
28210.682,-26.855,-27.832,27.344,-43.945,0.000,0
28210.686,-33.691,-25.391,-40.527,-4.883,0.000,0
28210.690,-16.113,-28.320,-3.906,-53.223,0.000,0
28210.693,-14.648,-26.855,-8.789,-43.945,0.000,0
28210.697,-43.457,-25.391,78.125,-52.246,0.000,0
28210.701,-17.090,-27.344,-34.180,-66.406,0.000,0
28210.705,-6.348,-27.832,-109.863,-61.035,0.000,0
28210.709,-28.809,-24.902,-73.730,-28.320,0.000,0
28210.713,-20.020,-21.973,-58.594,-18.555,0.000,0
28210.717,-17.090,-20.508,10.742,-64.941,0.000,0
28210.721,-38.574,-19.531,-66.406,-44.434,0.000,0
28210.725,-29.297,-23.926,-120.117,-14.648,0.000,0
28210.729,-12.207,-20.996,-68.848,-11.230,0.000,0
28210.733,-25.879,-25.391,0.488,-60.547,0.000,0
28210.736,-34.668,-23.438,2.441,-77.148,0.000,0
28210.740,-36.133,-18.066,0.488,-41.504,0.000,0
28210.744,-8.301,-19.531,-59.570,-21.484,0.000,0
28210.748,15.625,-16.113,-142.578,12.695,0.000,0
28210.752,-11.230,-20.996,16.113,-44.922,0.000,0
28210.756,-27.344,-23.926,32.715,-59.082,0.000,0
28210.760,-1.465,-20.996,-97.168,-3.418,0.000,0
28210.764,10.254,-20.996,-74.707,-20.020,0.000,0
28210.768,-15.137,-18.066,-41.992,-16.602,0.000,0
28210.772,-25.391,-18.066,54.688,-56.641,0.000,0
28210.775,-9.277,-14.648,56.152,-96.680,0.000,0
28210.779,-1.953,-12.695,-6.836,-61.523,0.000,0
28210.783,-19.531,-17.578,-6.836,-18.555,0.000,0
28210.787,-14.160,-18.555,-3.906,-7.812,0.000,0
28210.791,20.508,-21.484,33.691,-62.988,0.000,0
28210.795,31.738,-17.090,-101.562,-39.062,0.000,0
28210.799,25.879,-10.254,-136.719,18.066,0.000,0
28210.803,-0.977,-15.137,-49.805,1.465,0.000,0
28210.807,-13.184,-25.879,-74.707,-8.789,0.000,0
28210.811,-22.461,-32.227,57.129,-41.016,0.000,0
28210.815,-24.414,-29.297,87.402,-70.312,0.000,0
28210.818,-19.531,-24.902,-74.707,-30.273,0.000,0
28210.822,-33.691,-26.855,-62.500,-7.812,0.000,0
28210.826,-43.457,-30.273,-39.062,4.395,0.000,0
28210.830,-57.617,-29.297,97.168,-37.109,0.000,0
28210.834,-60.059,-30.762,58.594,-47.363,0.000,0
28210.838,-26.855,-24.414,-154.297,5.859,0.000,0
28210.842,-22.461,-17.090,-45.898,-7.812,0.000,0
28210.846,-32.227,-15.625,-20.996,-7.324,0.000,0
28210.850,-24.414,-20.020,-17.578,-36.133,0.000,0
28210.854,-28.809,-21.973,15.625,-85.938,0.000,0
28210.858,-36.621,-19.531,-21.973,-39.062,0.000,0
28210.861,-26.855,-22.461,-34.180,1.953,0.000,0
28210.865,-9.277,-27.344,-95.703,-11.719,0.000,0
28210.869,-46.387,-26.855,-59.570,-22.949,0.000,0
28210.873,-76.660,-22.461,66.406,-49.316,0.000,0
28210.877,-39.551,-20.508,11.230,-58.594,0.000,0
28210.881,-5.859,-20.508,-68.848,-50.781,0.000,0
28210.885,-9.277,-19.043,-112.305,-14.160,0.000,0
28210.889,-35.156,-23.926,-32.227,-11.719,0.000,0
28210.893,-38.574,-28.809,86.914,-88.379,0.000,0
28210.897,-28.809,-24.414,-60.059,-41.504,0.000,0
28210.900,-32.715,-23.926,-128.906,5.371,0.000,0
28210.904,-23.926,-20.020,-129.883,-13.184,0.000,0
28210.908,-24.902,-25.391,-44.434,-26.855,0.000,0
28210.912,-18.066,-26.367,23.926,-63.965,0.000,0
28210.916,-10.254,-12.695,-29.785,-50.781,0.000,0
28210.920,-36.133,-4.883,-2.441,-12.207,0.000,0
28210.924,-19.043,-4.883,-60.059,20.020,0.000,0
28210.928,12.695,-8.789,-84.473,16.113,0.000,0
28210.932,-7.324,-14.648,60.547,-25.879,0.000,0
28210.936,-34.668,-15.137,-3.418,-0.488,0.000,0
28210.940,-31.250,-19.531,-93.262,28.320,0.000,0
28210.943,0.488,-18.066,-120.117,21.484,0.000,0
28210.947,-1.953,-12.207,-38.574,11.719,0.000,1
28210.951,-45.898,-16.113,113.281,-43.457,0.000,0
28210.955,-41.504,-17.090,12.207,-52.246,0.000,0
28210.959,-12.207,-16.113,-33.691,-6.836,0.000,0
28210.963,-6.836,-12.695,-39.551,29.297,0.000,0
28210.967,-32.715,-10.254,-19.531,20.996,0.000,0
28210.971,-24.902,-14.648,-55.664,-32.715,0.000,0
28210.975,12.695,-13.672,-146.973,-25.879,0.000,0
28210.979,-20.508,-4.883,12.207,0.000,0.000,0
28210.983,-41.504,-8.301,72.266,-18.555,0.000,0
28210.986,-1.465,-10.254,-78.613,-26.855,0.000,0
28210.990,10.254,-11.230,-6.348,-64.941,0.000,0
28210.994,1.953,-20.508,59.570,-96.680,0.000,0
28210.998,1.953,-23.438,-55.176,-42.480,0.000,0
28211.002,9.766,-20.996,-153.809,0.977,0.000,0
28211.006,-0.977,-20.996,-70.312,-11.719,0.000,0
28211.010,-21.484,-23.926,46.387,-25.879,0.000,0
28211.014,-29.785,-23.926,-10.742,-13.184,0.000,0
28211.018,-22.461,-20.508,-83.496,-2.441,0.000,0
28211.022,-33.203,-20.020,-30.273,-7.324,0.000,0
28211.025,-41.504,-18.555,20.508,-3.418,0.000,0
28211.029,-7.812,-15.625,-21.484,-33.691,0.000,0
28211.033,4.395,-14.160,-72.754,-50.781,0.000,0
28211.037,-32.227,-14.648,-74.219,-9.277,0.000,0
28211.041,-32.227,-11.719,-57.617,3.906,0.000,0
28211.045,-14.160,-19.043,-76.660,-1.465,0.000,0
28211.049,-23.926,-28.809,-15.137,-42.969,0.000,0
28211.053,-45.410,-26.855,-16.602,-69.336,0.000,0
28211.057,-46.875,-22.949,-25.879,-44.434,0.000,0
28211.061,-45.898,-27.344,-18.555,-25.879,0.000,0
28211.065,-19.043,-26.367,-137.207,10.742,0.000,0
28211.068,-43.457,-21.973,-5.859,-35.645,0.000,0
28211.072,-74.219,-20.508,62.500,-55.176,0.000,0
28211.076,-8.789,-12.695,-104.004,4.395,0.000,0
28211.080,5.859,-11.719,-73.730,8.301,0.000,0
28211.084,-19.531,-18.555,-45.898,7.324,0.000,0
28211.088,-31.738,-25.879,15.625,-35.156,0.000,0
28211.092,-13.672,-28.320,-0.488,-62.500,0.000,0
28211.096,-13.672,-23.926,40.039,-59.570,0.000,0
28211.100,-20.508,-19.043,-1.953,-24.902,0.000,0
28211.104,-16.113,-17.090,-136.230,37.109,0.000,0
28211.108,-15.137,-19.043,-4.395,-20.996,0.000,0
28211.111,-9.766,-20.508,44.434,-43.945,0.000,0
28211.115,-31.738,-22.949,-11.230,5.859,0.000,0
28211.119,-14.648,-27.832,-93.750,-7.812,0.000,0
28211.123,9.766,-21.484,-119.629,-7.812,0.000,0
28211.127,-12.695,-18.555,63.965,-41.992,0.000,0
28211.131,-23.438,-10.742,104.004,-67.871,0.000,0
28211.135,-11.230,-6.836,-70.312,-34.668,0.000,0
28211.139,-15.137,-16.113,-105.469,-12.207,0.000,0
28211.143,-34.668,-20.996,-58.105,11.719,0.000,0
28211.147,-37.598,-25.391,50.781,-37.598,0.000,0
28211.150,-36.133,-27.832,6.348,-55.176,0.000,0
28211.154,-55.664,-29.785,-111.816,-2.930,0.000,0
28211.158,-67.871,-33.203,12.695,-0.977,0.000,0
28211.162,-61.523,-38.574,2.441,0.000,0.000,0
28211.166,-29.785,-41.992,-42.480,-44.434,0.000,0
28211.170,-24.902,-34.180,-2.441,-79.590,0.000,0
28211.174,-33.691,-25.879,-52.246,-37.109,0.000,0
28211.178,-23.438,-20.020,-54.688,-4.395,0.000,0
28211.182,-16.113,-21.973,-109.863,-0.977,0.000,0
28211.186,-38.086,-27.832,-23.926,-41.016,0.000,0
28211.190,-55.176,-21.973,83.984,-82.520,0.000,0
28211.193,-31.738,-13.672,-37.109,-52.734,0.000,0
28211.197,-5.859,-8.789,20.508,-69.336,0.000,0
28211.201,-36.621,-1.953,-12.207,-41.504,0.000,0
28211.205,-70.312,-3.906,-30.762,-1.465,0.000,0
28211.209,-32.227,-9.277,56.152,-58.594,0.000,0
28211.213,4.883,-8.301,-98.145,-26.855,0.000,0
28211.217,-28.809,-16.602,-78.125,-3.906,0.000,0
28211.221,-48.340,-17.090,-61.035,-15.625,0.000,0
28211.225,-39.062,-20.996,2.930,-33.691,0.000,0
28211.229,-35.645,-30.762,74.707,-78.613,0.000,0
28211.233,-47.363,-34.180,10.254,-71.289,0.000,0
28211.236,-57.129,-33.203,-5.371,-52.246,0.000,0
28211.240,-26.855,-34.668,-65.430,-14.160,0.000,0
28211.244,-27.344,-33.691,-30.273,4.883,0.000,0
28211.248,-58.105,-29.785,96.680,-45.898,0.000,0
28211.252,-57.129,-28.809,15.625,-37.109,0.000,0
28211.256,-36.621,-30.762,-54.199,-22.461,0.000,0
28211.260,-10.742,-28.809,-64.941,-16.602,0.000,0
28211.264,-41.504,-23.926,5.371,-12.695,0.000,0
28211.268,-54.199,-24.414,41.504,-69.336,0.000,0
28211.272,-26.367,-29.297,-90.332,-77.637,0.000,0
28211.275,-42.969,-35.156,-46.875,-59.570,0.000,0
28211.279,-45.898,-33.691,-60.547,-25.879,0.000,0
28211.283,-39.062,-35.645,-86.914,-11.230,0.000,0
28211.287,-46.387,-38.086,-34.668,-56.152,0.000,0
28211.291,-43.457,-32.715,-33.203,-43.457,0.000,0
28211.295,-42.480,-28.809,-45.410,0.977,0.000,0
28211.299,-30.762,-31.738,17.090,-35.156,0.000,0
28211.303,-21.484,-32.715,-35.645,-48.828,0.000,0
28211.307,-29.785,-28.809,-78.125,-36.621,0.000,0
28211.311,-42.480,-28.809,32.227,-50.293,0.000,0
28211.315,-32.715,-31.250,-62.988,-19.531,0.000,0
28211.318,-29.297,-33.691,-146.484,8.301,0.000,0
28211.322,-49.805,-35.645,-53.223,-4.395,0.000,0
28211.326,-44.922,-39.551,35.645,-35.645,0.000,0
28211.330,-21.973,-37.598,-71.289,-19.531,0.000,0
28211.334,-20.508,-35.645,-114.746,-12.695,0.000,0
28211.338,-45.410,-32.227,-39.551,-27.344,0.000,0
28211.342,-55.664,-24.902,32.715,-15.137,0.000,0
28211.346,-15.137,-19.043,15.137,-42.969,0.000,0
28211.350,19.531,-13.672,-56.152,-61.523,0.000,0
28211.354,-33.691,-14.648,11.719,-22.461,0.000,0
28211.358,-46.387,-20.508,25.879,-7.812,0.000,0
28211.361,-0.488,-23.438,-63.965,-24.414,0.000,0
28211.365,-14.160,-27.832,11.719,-55.176,0.000,0
28211.369,-12.207,-26.367,-17.578,-58.105,0.000,0
28211.373,3.906,-20.996,-50.293,-33.691,0.000,0
28211.377,12.695,-26.367,-33.203,-6.836,0.000,0
28211.381,7.324,-34.668,-64.453,35.156,0.000,0
28211.385,-6.348,-30.762,11.719,0.000,0.000,0
28211.389,-21.973,-24.414,25.879,-23.926,0.000,0
28211.393,-7.324,-25.879,-64.453,20.996,0.000,0
28211.397,8.789,-30.273,-83.008,21.973,0.000,0
28211.400,-31.738,-29.297,22.949,-2.930,0.000,0
28211.404,-35.645,-31.250,38.574,-44.922,0.000,0
28211.408,20.020,-28.320,-109.863,-49.805,0.000,0
28211.412,12.207,-20.020,-67.871,-26.855,0.000,0
28211.416,-23.926,-16.602,28.809,-9.277,0.000,0
28211.420,-16.602,-21.484,-101.074,17.090,0.000,0
28211.424,-16.602,-24.902,20.020,-35.645,0.000,0
28211.428,-31.250,-22.949,79.590,-48.828,0.000,0
28211.432,-23.926,-20.996,-45.898,6.836,0.000,0
28211.436,-27.832,-24.902,-69.824,0.488,0.000,0
28211.440,-25.391,-26.855,-95.703,-4.395,0.000,0
28211.443,-46.387,-25.391,110.840,-41.992,0.000,0
28211.447,-50.293,-22.461,115.723,-63.965,0.000,0
28211.451,-5.859,-19.531,-115.723,-38.574,0.000,0
28211.455,-20.508,-19.043,-96.680,-17.578,0.000,0
28211.459,-18.066,-17.090,-83.984,30.273,0.000,0
28211.463,-11.230,-22.461,25.391,-10.742,0.000,0
28211.467,-25.879,-32.715,1.953,-39.062,0.000,0
28211.471,-43.945,-31.250,-126.953,11.230,0.000,0
28211.475,-35.645,-24.902,-47.852,8.301,0.000,0
28211.479,-29.297,-22.949,-17.090,16.602,0.000,0
28211.483,-43.457,-32.227,3.906,-24.902,0.000,0
28211.486,-40.527,-32.715,-10.742,-71.289,0.000,0
28211.490,-55.176,-24.902,19.531,-30.762,0.000,1
28211.494,-30.273,-28.320,-30.273,-1.953,0.000,0
28211.498,7.324,-29.785,-133.789,16.602,0.000,0
28211.502,-23.926,-29.785,29.785,-29.785,0.000,0
28211.506,-49.316,-25.879,107.422,-62.500,0.000,0
28211.510,-13.184,-17.578,-84.961,3.418,0.000,0
28211.514,10.742,-16.113,-79.590,7.812,0.000,0
28211.518,-20.020,-17.090,-31.738,-1.465,0.000,0
28211.522,-39.062,-28.320,21.973,-40.039,0.000,0
28211.525,-15.625,-29.297,72.754,-82.031,0.000,0
28211.529,-17.090,-16.113,11.719,-31.250,0.000,0
28211.533,-40.527,-12.695,22.461,7.812,0.000,0
28211.537,-36.133,-15.137,-36.133,12.207,0.000,0
28211.541,-8.789,-23.926,-35.156,-29.785,0.000,0
28211.545,-26.367,-25.879,83.984,-79.102,0.000,0
28211.549,-31.738,-22.949,-21.484,-52.246,0.000,0
28211.553,-30.273,-32.715,-83.008,-52.734,0.000,0
28211.557,-38.086,-37.109,-121.582,-30.273,0.000,0
28211.561,-38.086,-39.062,-53.223,-21.973,0.000,0
28211.565,-35.156,-41.992,50.781,-72.266,0.000,0
28211.568,-34.668,-37.109,-93.750,-37.598,0.000,0
28211.572,-41.504,-35.645,-93.750,-3.418,0.000,0
28211.576,-44.434,-37.598,-25.391,-9.766,0.000,0
28211.580,-70.801,-41.016,53.711,-27.344,0.000,0
28211.584,-49.316,-37.598,41.504,-66.895,0.000,0
28211.588,2.930,-24.414,-113.770,-56.152,0.000,0
28211.592,-17.090,-22.949,-8.301,-28.809,0.000,0
28211.596,-33.203,-26.367,-3.418,4.395,0.000,0
28211.600,-22.461,-28.809,-68.848,3.906,0.000,0
28211.604,-36.621,-33.691,2.441,-41.016,0.000,0
28211.608,-48.340,-31.738,70.801,-44.922,0.000,0
28211.611,-25.391,-27.832,1.953,-5.371,0.000,0
28211.615,-5.371,-31.250,-109.375,14.160,0.000,0
28211.619,-39.551,-34.180,-58.105,5.371,0.000,0
28211.623,-70.312,-36.621,34.180,-37.109,0.000,0
28211.627,-33.203,-36.133,4.395,-64.941,0.000,0
28211.631,-8.789,-32.227,-48.828,-28.809,0.000,0
28211.635,-12.207,-35.645,-121.094,-1.465,0.000,0
28211.639,-46.875,-39.062,-24.414,-12.695,0.000,0
28211.643,-53.223,-34.180,84.473,-49.805,0.000,0
28211.647,-7.812,-26.855,-89.844,-29.297,0.000,0
28211.650,-16.113,-28.320,-121.582,-8.301,0.000,0
28211.654,-36.621,-32.227,-80.566,-21.484,0.000,0
28211.658,-24.902,-30.762,-47.852,-15.137,0.000,0
28211.662,-21.484,-27.344,25.879,-45.898,0.000,0
28211.666,-33.691,-21.973,25.391,-59.082,0.000,0
28211.670,-44.434,-21.973,-58.105,-16.602,0.000,0
28211.674,-29.785,-31.738,-114.258,2.441,0.000,0
28211.678,-11.230,-36.621,-83.008,-8.789,0.000,0
28211.682,-29.785,-32.227,8.789,-19.531,0.000,0
28211.686,-39.062,-25.391,-34.668,-5.859,0.000,0
28211.690,-6.836,-26.855,-106.445,5.859,0.000,0
28211.693,8.301,-32.227,-53.223,-9.766,0.000,0
28211.697,-10.254,-31.250,19.043,-10.254,0.000,0
28211.701,-26.855,-33.691,33.691,-47.852,0.000,0
28211.705,-17.578,-30.762,-59.082,-65.918,0.000,0
28211.709,-3.418,-25.879,8.301,-41.504,0.000,0
28211.713,-8.789,-20.996,11.230,0.488,0.000,0
28211.717,-21.973,-15.137,-73.242,25.879,0.000,0
28211.721,-20.508,-20.020,-21.973,-35.645,0.000,0
28211.725,-1.953,-22.949,-20.020,-46.387,0.000,0
28211.729,-18.555,-19.531,42.480,-29.785,0.000,0
28211.733,-23.438,-17.578,28.809,-14.160,0.000,0
28211.736,10.742,-20.996,-155.762,21.973,0.000,0
28211.740,4.395,-28.809,-41.992,-26.855,0.000,0
28211.744,-10.254,-30.762,28.320,-47.363,0.000,0
28211.748,-18.555,-31.250,-72.754,0.977,0.000,0
28211.752,-18.555,-33.203,-111.328,0.488,0.000,0
28211.756,-23.926,-27.832,-78.613,0.977,0.000,0
28211.760,-30.762,-29.785,61.523,-38.574,0.000,0
28211.764,-40.039,-36.621,62.012,-66.895,0.000,0
28211.768,-36.621,-37.109,-62.988,-40.039,0.000,0
28211.772,-24.414,-35.156,-101.562,-17.578,0.000,0
28211.775,-41.016,-35.645,-30.762,14.160,0.000,0
28211.779,-28.320,-41.992,26.367,-45.410,0.000,0
28211.783,-23.438,-38.574,-25.391,-61.035,0.000,0
28211.787,-46.875,-30.762,-103.516,-6.836,0.000,0
28211.791,-26.855,-32.227,-76.172,-18.066,0.000,0
28211.795,-13.184,-36.621,-80.566,-11.719,0.000,0
28211.799,-22.949,-36.621,20.996,-51.758,0.000,0
28211.803,-29.785,-27.344,54.688,-80.078,0.000,0
28211.807,-31.250,-15.137,-1.953,-34.668,0.000,0
28211.811,-23.438,-12.695,-1.953,0.000,0.000,0
28211.815,-6.348,-11.230,-52.734,17.090,0.000,0
28211.818,-42.969,-8.789,90.332,-25.391,0.000,0
28211.822,-55.664,-4.395,78.613,-29.785,0.000,0
28211.826,5.859,-4.395,-125.977,12.695,0.000,0
28211.830,4.883,-14.648,-56.152,-7.812,0.000,0
28211.834,-22.949,-17.090,-55.664,-11.719,0.000,0
28211.838,-32.227,-18.555,-6.836,-47.363,0.000,0
28211.842,-27.344,-21.973,81.055,-82.520,0.000,0
28211.846,-19.531,-15.625,-42.480,-41.992,0.000,0
28211.850,-11.719,-10.742,-99.609,-0.488,0.000,0
28211.854,-14.160,-11.719,-84.473,3.418,0.000,0
28211.858,-28.809,-9.766,-26.367,-9.277,0.000,0
28211.861,-31.250,-13.672,47.363,-47.363,0.000,0
28211.865,-39.062,-19.531,42.969,-56.641,0.000,0
28211.869,-28.809,-18.066,-53.223,-50.781,0.000,0
28211.873,0.000,-15.137,-143.066,-19.531,0.000,0
28211.877,-26.855,-23.926,-6.348,-12.695,0.000,0
28211.881,-47.852,-30.762,89.355,-72.754,0.000,0
28211.885,-38.574,-30.273,-99.609,-40.039,0.000,0
28211.889,-33.203,-31.250,-131.836,-1.465,0.000,0
28211.893,-35.645,-29.785,-46.387,6.836,0.000,0
28211.897,-51.758,-36.621,35.645,-13.184,0.000,0
28211.900,-49.805,-36.133,38.086,-47.363,0.000,0
28211.904,-47.363,-28.809,-75.195,-26.367,0.000,0
28211.908,-66.406,-28.320,9.766,-15.625,0.000,0
28211.912,-51.270,-23.438,-8.301,6.348,0.000,0
28211.916,-14.160,-24.902,-73.242,3.418,0.000,0
28211.920,-15.137,-28.320,-95.215,-37.598,0.000,0
28211.924,-5.859,-26.367,-138.672,-14.648,0.000,0
28211.928,-0.977,-28.320,-70.312,19.531,0.000,0
28211.932,11.230,-35.156,-95.215,2.930,0.000,0
28211.936,-3.906,-33.691,-49.805,-10.254,0.000,0
28211.940,-28.320,-33.203,31.738,-51.270,0.000,0
28211.943,3.418,-23.926,-21.484,-54.199,0.000,0
28211.947,4.395,-21.973,-19.531,-36.621,0.000,0
28211.951,-32.227,-25.391,-63.965,-13.672,0.000,0
28211.955,-51.758,-18.066,-36.133,-15.137,0.000,0
28211.959,-50.781,-19.531,49.316,-70.801,0.000,0
28211.963,-29.297,-17.578,-80.566,-46.875,0.000,0
28211.967,-31.738,-19.043,-120.117,-11.719,0.000,0
28211.971,-46.387,-22.461,-91.797,-21.973,0.000,0
28211.975,-41.992,-24.414,-78.613,-19.531,0.000,0
28211.979,-42.969,-28.809,-19.043,-58.594,0.000,0
28211.983,-56.152,-27.344,4.395,-64.453,0.000,0
28211.986,-63.477,-27.832,-53.711,-25.391,0.000,0
28211.990,-43.457,-31.738,-135.254,-8.301,0.000,0
28211.994,-37.109,-28.320,-66.406,-7.324,0.000,0
28211.998,-65.918,-25.879,54.199,-39.551,0.000,0
28212.002,-63.965,-22.461,-49.805,-28.320,0.000,0
28212.006,-25.391,-18.555,-149.414,-9.766,0.000,0
28212.010,-16.602,-19.043,-72.266,-17.090,0.000,0
28212.014,-45.898,-24.902,15.137,-22.461,0.000,0
28212.018,-57.129,-26.367,-1.953,-55.664,0.000,0
28212.022,-42.480,-19.043,-14.160,-89.844,0.000,0
28212.025,-32.227,-18.555,-39.062,-61.523,0.000,0
28212.029,-29.785,-21.973,-150.879,1.465,0.000,0
28212.033,-41.016,-20.996,-94.238,0.977,0.000,0
28212.037,-54.688,-22.949,-54.199,-39.551,0.000,2
28212.041,-49.805,-25.391,-26.855,-46.875,0.000,0
28212.045,-49.805,-19.531,1.953,-27.344,0.000,0
28212.049,-49.316,-12.695,-22.461,-29.297,0.000,0
28212.053,-36.133,-20.020,-123.535,5.859,0.000,0
28212.057,-43.457,-31.738,-24.414,-20.996,0.000,0
28212.061,-63.477,-32.715,59.570,-51.758,0.000,0
28212.065,-36.621,-24.902,-83.496,-0.488,0.000,0
28212.068,-17.090,-20.020,-143.555,19.043,0.000,0
28212.072,-42.969,-23.438,-70.312,4.883,0.000,0
28212.076,-42.969,-23.438,64.453,-30.273,0.000,0
28212.080,-20.996,-16.602,47.363,-43.945,0.000,0
28212.084,-7.812,-17.578,-44.434,-38.086,0.000,0
28212.088,-27.832,-20.508,-60.547,-41.504,0.000,0
28212.092,-35.645,-14.648,-41.504,-8.789,0.000,0
28212.096,0.488,-18.555,20.508,-49.805,0.000,0
28212.100,17.090,-17.578,-22.949,-58.594,0.000,0
28212.104,-23.438,-8.301,-27.832,0.977,0.000,0
28212.108,-26.367,-10.254,22.949,-1.953,0.000,0
28212.111,15.625,-16.113,-50.781,1.465,0.000,0
28212.115,4.395,-22.461,71.289,-35.156,0.000,0
28212.119,-16.113,-25.391,36.133,-64.453,0.000,0
28212.123,-15.625,-22.949,-33.691,-44.922,0.000,0
28212.127,-1.953,-17.090,36.621,-22.949,0.000,0
28212.131,17.090,-13.672,-141.113,36.133,0.000,0
28212.135,1.953,-20.020,-12.207,-4.395,0.000,0
28212.139,-37.109,-24.902,88.379,-38.086,0.000,0
28212.143,-41.016,-29.297,-72.754,0.488,0.000,0
28212.147,-39.062,-33.203,-42.969,-19.043,0.000,0
28212.150,-58.594,-31.250,-20.996,-21.973,0.000,0
28212.154,-49.316,-32.227,-17.090,-57.617,0.000,0
28212.158,-14.160,-38.574,-36.133,-97.168,0.000,0
28212.162,-27.832,-40.527,-25.879,-65.918,0.000,0
28212.166,-37.598,-36.621,-23.438,-30.762,0.000,0
28212.170,-23.438,-36.621,-159.180,-13.184,0.000,0
28212.174,-26.367,-37.598,-23.926,-53.711,0.000,0
28212.178,-32.227,-32.227,77.148,-54.688,0.000,0
28212.182,-32.227,-26.855,-40.527,3.418,0.000,0
28212.186,-35.645,-16.602,-41.992,-8.789,0.000,0
28212.190,-21.484,-17.578,-120.605,-17.578,0.000,0
28212.193,-32.227,-27.832,53.223,-44.434,0.000,0
28212.197,-58.594,-27.832,187.012,-87.402,0.000,0
28212.201,-16.113,-18.555,-81.543,-43.945,0.000,0
28212.205,-18.555,-14.160,-90.332,0.000,0.000,0
28212.209,-36.133,-22.461,-50.293,0.000,0.000,0
28212.213,-23.926,-20.508,12.695,-25.391,0.000,0
28212.217,-26.855,-17.090,49.805,-56.641,0.000,0
28212.221,-41.016,-15.625,-85.938,-42.480,0.000,0
28212.225,-44.922,-18.066,-34.668,-34.668,0.000,0
28212.229,-37.109,-15.625,0.977,-14.160,0.000,0
28212.233,-47.852,-11.230,-63.965,24.902,0.000,0
28212.236,-54.688,-7.324,-42.480,-19.043,0.000,0
28212.240,-62.012,-9.766,-4.883,-25.879,0.000,0
28212.244,-36.133,-20.508,-93.262,4.883,0.000,0
28212.248,-7.324,-21.484,-145.020,-17.578,0.000,0
28212.252,-39.551,-16.113,-21.484,-24.902,0.000,0
28212.256,-62.012,-15.137,78.125,-53.223,0.000,0
28212.260,-33.691,-14.160,65.918,-77.637,0.000,0
28212.264,-11.230,-8.301,5.859,-39.551,0.000,0
28212.268,-21.973,-2.441,-83.008,35.645,0.000,0
28212.272,-27.832,-11.230,-63.477,27.344,0.000,0
28212.275,-11.230,-22.949,13.184,-35.645,0.000,0
28212.279,-7.324,-18.066,-27.344,-11.719,0.000,0
28212.283,-27.832,-19.043,-20.020,18.066,0.000,0
28212.287,-39.551,-24.414,-28.320,-7.812,0.000,0
28212.291,1.953,-23.438,-95.215,-13.672,0.000,0
28212.295,17.090,-20.508,-7.812,-43.457,0.000,0
28212.299,7.812,-18.066,-13.184,-51.270,0.000,0
28212.303,-7.324,-18.555,-69.824,-28.809,0.000,0
28212.307,-6.836,-21.484,-111.328,0.000,0.000,0
28212.311,-1.953,-22.949,-62.988,0.000,0.000,0
28212.315,-27.344,-17.578,56.641,-41.016,0.000,0
28212.318,-31.250,-9.766,-27.344,-27.832,0.000,0
28212.322,-12.695,-10.254,-108.887,-2.441,0.000,0
28212.326,-22.949,-12.695,-32.227,-8.789,0.000,0
28212.330,-47.363,-13.672,88.867,-38.574,0.000,0
28212.334,-33.203,-19.531,14.160,-70.801,0.000,0
28212.338,-10.254,-24.414,-149.902,-66.895,0.000,0
28212.342,-23.926,-25.391,-63.477,-29.297,0.000,0
28212.346,-31.738,-29.297,-47.852,5.371,0.000,0
28212.350,-31.738,-30.762,-86.914,-8.301,0.000,0
28212.354,-44.434,-29.297,-66.895,-37.598,0.000,0
28212.358,-59.570,-34.180,-46.875,-27.344,0.000,0
28212.361,-54.688,-37.598,-34.668,-18.066,0.000,0
28212.365,-34.180,-36.621,-63.477,-27.832,0.000,0
28212.369,-41.992,-34.180,-58.594,-15.625,0.000,0
28212.373,-60.059,-35.156,65.430,-47.363,0.000,0
28212.377,-52.734,-30.762,96.680,-72.266,0.000,0
28212.381,-17.578,-24.414,-47.363,-31.738,0.000,0
28212.385,-0.488,-20.996,-98.145,-14.648,0.000,0
28212.389,-21.973,-24.414,-42.969,-19.531,0.000,0
28212.393,-25.391,-37.109,33.691,-56.152,0.000,0
28212.397,1.953,-37.598,-6.836,-69.824,0.000,0
28212.400,3.906,-28.320,-45.898,-46.387,0.000,0
28212.404,-19.531,-27.344,-51.270,-28.320,0.000,0
28212.408,-21.973,-34.668,-88.867,11.230,0.000,0
28212.412,-7.324,-36.621,-19.531,-35.156,0.000,0
28212.416,-16.602,-34.180,6.836,-57.617,0.000,0
28212.420,-50.781,-31.738,-45.410,-9.766,0.000,0
28212.424,-34.668,-25.391,-83.984,5.859,0.000,0
28212.428,4.395,-23.438,-25.391,-9.766,0.000,0
28212.432,-31.250,-24.414,188.965,-87.402,0.000,0
28212.436,-57.617,-16.602,24.414,-54.688,0.000,0
28212.440,-15.625,-19.531,-104.980,-7.324,0.000,0
28212.443,-6.348,-25.879,-77.637,20.508,0.000,0
28212.447,-29.785,-25.879,-4.883,16.113,0.000,0
28212.451,-35.156,-21.973,31.250,-51.270,0.000,0
28212.455,-27.344,-20.020,-97.168,-15.137,0.000,0
28212.459,-22.461,-26.367,-72.754,8.789,0.000,0
28212.463,-38.086,-26.367,-1.953,-4.395,0.000,0
28212.467,-55.664,-25.879,-6.836,-10.742,0.000,0
28212.471,-38.086,-36.621,20.996,-75.195,0.000,0
28212.475,-17.578,-35.645,-16.602,-73.242,0.000,0
28212.479,-55.176,-30.273,61.035,-38.574,0.000,0
28212.483,-27.832,-28.320,-75.684,-8.789,0.000,0
28212.486,-8.789,-33.203,-142.578,-12.695,0.000,0
28212.490,-39.551,-35.645,86.914,-68.359,0.000,0
28212.494,-38.086,-22.949,-0.488,-17.090,0.000,0
28212.498,-8.301,-20.020,-162.598,4.395,0.000,0
28212.502,-3.418,-24.414,-152.832,-18.066,0.000,0
28212.506,-17.578,-25.879,-19.043,-19.531,0.000,0
28212.510,-28.320,-28.809,166.016,-67.383,0.000,0
28212.514,-40.527,-25.391,91.309,-56.152,0.000,0
28212.518,-38.574,-27.344,-44.922,-17.578,0.000,0
28212.522,-37.109,-27.832,-20.996,5.371,0.000,0
28212.525,-50.293,-29.297,39.551,2.441,0.000,0
28212.529,-15.137,-32.227,54.199,-43.457,0.000,0
28212.533,-10.742,-28.809,41.016,-46.387,0.000,0
28212.537,-31.738,-24.414,-38.086,-0.488,0.000,0
28212.541,-13.672,-25.879,-63.477,10.254,0.000,0
28212.545,0.977,-29.297,-53.223,-3.906,0.000,0
28212.549,-16.602,-31.738,76.172,-58.105,0.000,0
28212.553,-38.086,-24.414,21.484,-64.941,0.000,0
28212.557,-11.230,-15.625,-121.094,-13.672,0.000,0
28212.561,-9.277,-12.695,-22.461,-6.348,0.000,0
28212.565,-24.902,-10.742,31.250,-11.230,0.000,0
28212.568,-64.453,-13.184,154.297,-54.688,0.000,0
28212.572,-31.738,-15.625,23.926,-69.336,0.000,0
28212.576,15.137,-16.113,-80.078,-40.527,0.000,0
28212.580,2.441,-10.742,-7.812,-16.113,0.000,0
28212.584,-8.789,-10.742,-81.055,24.902,0.000,0
28212.588,-9.277,-22.461,-12.207,-20.996,0.000,0
28212.592,-4.883,-22.949,8.301,-49.805,0.000,0
28212.596,-11.719,-21.484,-70.801,5.371,0.000,0
28212.600,-15.137,-24.414,-76.660,11.230,0.000,0
28212.604,-10.254,-14.160,-72.266,1.953,0.000,0
28212.608,-9.277,-6.348,21.484,-6.836,0.000,0
28212.611,-9.277,-8.789,78.613,-37.598,0.000,0
28212.615,-25.879,-13.672,53.711,-36.133,0.000,0
28212.619,-12.207,-17.090,-75.684,-12.207,0.000,0
28212.623,3.418,-21.484,-101.074,10.254,0.000,0
28212.627,-22.461,-25.391,82.520,-23.926,0.000,0
28212.631,-29.297,-20.996,65.918,-42.480,0.000,0
28212.635,-18.555,-24.414,-36.621,-25.879,0.000,2
28212.639,-25.391,-32.227,-55.176,-22.949,0.000,0
28212.643,-30.762,-26.855,-23.438,-2.930,0.000,0
28212.647,-23.438,-28.809,41.504,-17.578,0.000,0
28212.650,-16.113,-33.691,-12.695,-53.223,0.000,0
28212.654,-46.875,-38.086,3.906,-47.852,0.000,0
28212.658,-65.430,-36.621,62.012,-14.648,0.000,0
28212.662,-24.414,-29.785,-63.477,1.465,0.000,0
28212.666,-13.672,-31.738,-64.453,-30.273,0.000,0
28212.670,-47.852,-27.344,6.836,-38.086,0.000,0
28212.674,-20.996,-24.902,-65.430,1.953,0.000,0
28212.678,4.395,-28.809,-66.895,-8.789,0.000,0
28212.682,-11.230,-31.250,-47.852,-15.137,0.000,0
28212.686,-31.250,-28.320,-24.902,-28.809,0.000,0
28212.690,-40.039,-32.715,11.719,-77.637,0.000,0
28212.693,-24.414,-33.691,-14.160,-57.617,0.000,0
28212.697,-18.066,-22.461,-53.223,-6.348,0.000,0
28212.701,-41.504,-14.160,-34.668,1.953,0.000,0
28212.705,-41.016,-11.230,61.523,-3.418,0.000,0
28212.709,9.766,-12.207,-13.184,-13.184,0.000,0
28212.713,0.000,-19.043,-93.262,-16.602,0.000,0
28212.717,-40.527,-20.996,-20.508,-19.531,0.000,0
28212.721,-35.156,-18.066,-34.180,-3.418,0.000,0
28212.725,-16.113,-14.648,-12.207,-9.766,0.000,0
28212.729,-29.785,-10.742,100.098,-53.711,0.000,0
28212.733,-41.504,-5.371,35.645,-28.320,0.000,0
28212.736,-24.902,-7.324,-25.391,-8.301,0.000,0
28212.740,-5.371,-14.160,-66.406,-12.207,0.000,0
28212.744,5.371,-19.043,-111.328,4.883,0.000,0
28212.748,-31.250,-21.973,145.508,-50.293,0.000,0
28212.752,-36.621,-14.648,63.965,-60.059,0.000,0
28212.756,3.418,-14.648,-70.801,-33.691,0.000,0
28212.760,1.465,-16.602,-47.363,-0.488,0.000,0
28212.764,-37.109,-14.648,41.504,-4.395,0.000,0
28212.768,-17.578,-12.695,16.113,-57.129,0.000,0
28212.772,6.348,-11.230,-91.797,-17.578,0.000,0
28212.775,0.488,-14.648,-43.457,11.230,0.000,0
28212.779,0.488,-16.113,-32.227,2.441,0.000,0
28212.783,-3.906,-19.043,-31.738,-16.113,0.000,0
28212.787,-39.551,-31.738,48.828,-75.684,0.000,0
28212.791,-41.016,-31.250,33.203,-68.848,0.000,0
28212.795,-21.973,-23.438,19.531,-39.551,0.000,0
28212.799,-16.113,-20.508,-89.355,4.395,0.000,0
28212.803,-6.836,-25.391,-111.328,0.000,0.000,0
28212.807,-38.086,-32.227,115.723,-68.848,0.000,0
28212.811,-46.875,-22.949,24.902,-25.879,0.000,0
28212.815,-3.418,-23.438,-127.930,1.953,0.000,0
28212.818,-18.555,-25.391,-96.191,-15.625,0.000,0
28212.822,-42.480,-16.602,29.297,-16.602,0.000,0
28212.826,-17.090,-21.973,98.633,-67.871,0.000,0
28212.830,-3.906,-20.508,-24.902,-62.988,0.000,0
28212.834,-33.203,-17.090,-47.852,-29.785,0.000,0
28212.838,-60.059,-22.461,-39.551,-1.465,0.000,0
28212.842,-55.176,-31.738,-4.883,-14.648,0.000,0
28212.846,-38.086,-33.691,76.660,-56.152,0.000,0
28212.850,-41.016,-27.344,6.348,-26.367,0.000,0
28212.854,-64.453,-28.320,46.875,-30.762,0.000,0
28212.858,-34.668,-30.273,-74.219,-12.695,0.000,0
28212.861,-5.859,-28.320,-101.074,-1.953,0.000,0
28212.865,-22.461,-30.762,66.895,-56.641,0.000,0
28212.869,-40.527,-25.879,-15.137,-55.176,0.000,0
