timestamps,TP9,AF7,AF8,TP10,Right AUX,Marker0
28329.869,-48.828,-17.090,-35.156,-88.379,0.000,0
28329.873,-29.297,10.254,-129.883,-12.207,0.000,0
28329.877,-26.855,1.465,-184.082,-16.113,0.000,0
28329.881,-58.105,-4.883,-137.695,-59.082,0.000,0
28329.885,-103.027,-31.250,-53.711,-111.328,0.000,0
28329.889,-75.684,-21.973,-99.121,-89.355,0.000,0
28329.893,-50.293,8.789,-179.199,-45.410,0.000,0
28329.897,-62.988,6.348,-179.199,-47.363,0.000,0
28329.900,-94.727,6.348,-107.910,-12.207,0.000,0
28329.904,-122.070,-36.133,-106.934,-86.914,0.000,0
28329.908,-107.910,-32.715,-174.805,-117.676,0.000,0
28329.912,-98.145,-9.766,-178.711,-68.359,0.000,0
28329.916,-100.586,-31.250,-177.246,-87.402,0.000,0
28329.920,-93.262,-39.062,-182.129,-86.426,0.000,0
28329.924,-89.844,-52.734,-119.629,-144.043,0.000,0
28329.928,-94.238,-41.016,-72.266,-173.828,0.000,0
28329.932,-101.074,-6.836,-45.898,-114.258,0.000,0
28329.936,-118.652,-31.738,-99.121,-83.496,0.000,0
28329.940,-119.141,-50.781,-174.316,-84.473,0.000,0
28329.943,-114.258,-29.297,-17.090,-117.188,0.000,0
28329.947,-111.328,-26.367,-35.156,-114.258,0.000,0
28329.951,-68.848,-29.297,-217.773,-72.266,0.000,0
28329.955,-22.949,-0.488,-132.812,-38.574,0.000,0
28329.959,-33.691,19.043,-75.684,-16.602,0.000,0
28329.963,-45.898,-9.277,16.113,-82.031,0.000,0
28329.967,-10.742,10.742,91.309,-88.867,0.000,0
28329.971,-5.859,44.922,-40.039,-23.438,0.000,0
28329.975,20.996,48.340,-84.961,31.250,0.000,0
28329.979,37.109,61.523,11.230,75.684,0.000,0
28329.983,-0.488,36.133,70.801,28.320,0.000,0
28329.986,2.930,9.766,40.039,-34.668,0.000,0
28329.990,49.805,80.078,104.492,37.598,0.000,0
28329.994,62.988,85.449,123.535,37.109,0.000,0
28329.998,75.195,67.871,5.371,54.199,0.000,0
28330.002,48.828,67.871,95.215,70.801,0.000,0
28330.006,13.672,59.570,141.113,25.391,0.000,0
28330.010,28.320,73.730,5.371,57.129,0.000,0
28330.014,17.578,56.152,-23.926,51.758,0.000,0
28330.018,29.785,69.336,2.930,64.453,0.000,0
28330.022,20.996,61.523,56.641,30.273,0.000,0
28330.025,-42.969,22.461,32.227,-34.180,0.000,0
28330.029,-27.832,20.020,-31.738,-16.113,0.000,0
28330.033,-4.395,37.598,28.809,-2.930,0.000,0
28330.037,1.465,63.477,-28.809,51.270,0.000,0
28330.041,-27.344,32.227,-138.184,20.508,0.000,0
28330.045,-60.547,-19.043,-172.852,-77.148,0.000,0
28330.049,-41.504,22.949,-105.957,-7.324,0.000,0
28330.053,-36.621,53.223,-52.246,73.730,0.000,0
28330.057,-46.387,-10.742,-205.078,-3.906,0.000,0
28330.061,-120.117,-74.219,-146.484,-100.098,0.000,0
28330.065,-169.922,-106.445,-78.125,-180.664,0.000,0
28330.068,-141.113,-90.332,-196.777,-155.273,0.000,0
28330.072,-163.086,-83.496,-220.215,-108.887,0.000,0
28330.076,-192.871,-91.309,-227.051,-86.914,0.000,0
28330.080,-216.797,-117.676,-117.676,-112.305,0.000,0
28330.084,-188.965,-124.512,-3.906,-141.113,0.000,0
28330.088,-101.074,-91.797,-138.672,-79.102,0.000,0
28330.092,-86.914,-83.008,-149.414,-69.824,0.000,0
28330.096,-113.770,-93.262,-76.172,-79.102,0.000,0
28330.100,-115.723,-104.980,-58.105,-71.289,0.000,0
28330.104,-131.348,-125.488,-36.133,-147.461,0.000,0
28330.108,-115.234,-81.055,-30.273,-109.863,0.000,0
28330.111,-75.195,-49.805,-5.859,-40.039,0.000,0
28330.115,-42.480,-68.848,-51.758,-30.762,0.000,0
28330.119,-31.738,-49.805,-15.625,-16.602,0.000,0
28330.123,-40.527,0.000,92.285,-2.441,0.000,0
28330.127,39.551,75.195,82.520,85.449,0.000,0
28330.131,143.066,110.352,66.406,146.484,0.000,0
28330.135,165.527,128.906,144.531,151.367,0.000,0
28330.139,169.922,184.082,274.414,192.871,0.000,0
28330.143,181.641,214.355,323.730,207.520,0.000,0
28330.147,193.848,175.293,323.730,130.371,0.000,0
28330.150,267.090,229.492,351.562,200.195,0.000,0
28330.154,401.367,386.719,347.168,424.316,0.000,0
28330.158,443.359,446.777,428.711,475.098,0.000,0
28330.162,466.797,452.637,504.883,462.402,0.000,0
28330.166,500.000,463.379,547.363,514.160,0.000,0
28330.170,481.445,460.449,583.008,520.996,0.000,0
28330.174,467.773,420.410,445.312,445.801,0.000,0
28330.178,454.590,386.230,394.043,416.504,0.000,0
28330.182,404.297,361.816,530.762,378.418,0.000,0
28330.186,427.246,381.348,645.020,380.859,0.000,0
28330.190,444.336,377.930,548.340,420.898,0.000,0
28330.193,404.297,327.148,438.477,383.789,0.000,0
28330.197,365.234,300.293,493.164,346.191,0.000,0
28330.201,333.008,284.180,562.012,304.688,0.000,0
28330.205,349.609,284.668,486.816,290.527,0.000,0
28330.209,392.090,299.805,428.711,324.219,0.000,0
28330.213,387.695,312.012,491.699,355.469,0.000,0
28330.217,378.418,324.219,508.301,393.066,0.000,0
28330.221,359.375,296.875,469.727,325.195,0.000,0
28330.225,387.207,300.293,397.461,312.500,0.000,0
28330.229,382.812,314.453,463.867,372.070,0.000,0
28330.233,318.848,290.527,478.516,343.750,0.000,0
28330.236,314.941,258.789,344.238,317.871,0.000,0
28330.240,289.062,219.727,397.461,243.652,0.000,0
28330.244,270.020,199.219,380.859,205.566,0.000,0
28330.248,288.086,192.871,379.395,215.820,0.000,0
28330.252,276.855,176.758,349.121,196.289,0.000,0
28330.256,272.461,180.176,121.582,250.977,0.000,0
28330.260,237.305,166.504,248.535,201.172,0.000,0
28330.264,228.516,173.340,346.680,170.898,0.000,0
28330.268,249.512,174.805,224.121,227.051,0.000,0
28330.272,210.938,153.809,207.031,206.543,0.000,0
28330.275,183.105,176.758,245.117,214.355,0.000,0
28330.279,171.387,124.512,232.422,126.465,0.000,0
28330.283,158.203,93.262,134.766,70.801,0.000,0
28330.287,137.207,135.254,127.441,145.020,0.000,0
28330.291,135.254,128.906,107.910,158.203,0.000,0
28330.295,131.348,87.891,25.391,137.695,0.000,0
28330.299,71.777,50.781,115.234,66.406,0.000,0
28330.303,63.965,76.172,166.016,86.914,0.000,0
28330.307,71.289,98.145,69.336,147.949,0.000,0
28330.311,19.043,49.316,51.270,81.055,0.000,0
28330.315,34.180,30.273,-16.602,68.359,0.000,0
28330.318,30.762,38.574,79.102,35.645,0.000,0
28330.322,26.367,62.988,121.094,1.953,0.000,0
28330.326,54.688,76.172,-120.605,48.340,0.000,0
28330.330,-7.812,48.340,-158.691,49.316,0.000,0
28330.334,-73.242,42.480,-112.793,41.504,0.000,0
28330.338,-120.117,27.832,-100.098,-29.785,0.000,0
28330.342,-102.539,0.000,-204.102,-120.605,0.000,0
28330.346,-21.484,0.977,-262.207,-65.918,0.000,0
28330.350,-40.527,-5.371,-205.078,-61.035,0.000,0
28330.354,-139.160,7.812,-219.238,-50.293,0.000,0
28330.358,-172.363,-18.555,-262.207,-66.406,0.000,0
28330.361,-152.344,-18.066,-189.941,-87.891,0.000,0
28330.365,-122.559,21.973,-190.918,-11.230,0.000,0
28330.369,-60.059,-8.301,-338.379,-17.578,0.000,0
28330.373,-64.941,-14.160,-335.449,-49.805,0.000,0
28330.377,-133.789,-15.137,-126.953,-109.863,0.000,0
28330.381,-116.211,-9.277,-236.328,-107.422,0.000,0
28330.385,-40.039,14.648,-360.352,-64.941,0.000,0
28330.389,-38.574,67.871,-291.992,7.812,0.000,0
28330.393,-69.824,101.074,-159.668,51.758,0.000,0
28330.397,-101.562,18.555,-8.789,-131.836,0.000,0
28330.400,-55.664,55.176,-218.262,-50.293,0.000,0
28330.404,-60.059,114.258,-307.617,88.379,0.000,0
28330.408,-90.820,55.664,-267.090,9.277,0.000,0
28330.412,-110.352,19.043,-321.289,-40.527,0.000,0
28330.416,-150.391,20.996,-262.207,-76.172,0.000,0
28330.420,-134.277,55.176,-263.672,-40.039,0.000,0
28330.424,-132.324,62.012,-253.418,-24.414,0.000,0
28330.428,-103.027,55.176,-282.227,16.602,0.000,0
28330.432,-54.199,50.781,-236.816,18.555,0.000,0
28330.436,-126.465,60.059,-136.719,-36.133,0.000,0
28330.440,-159.668,74.219,-202.148,-6.348,0.000,0
28330.443,-97.168,40.039,-263.672,-13.672,0.000,0
28330.447,-115.234,21.973,-208.984,-36.133,0.000,0
28330.451,-166.504,20.996,-201.660,-31.250,0.000,0
28330.455,-169.922,-5.859,-140.625,-130.371,0.000,0
28330.459,-127.930,-13.184,-231.445,-149.902,0.000,0
28330.463,-86.914,14.648,-326.172,-46.875,0.000,0
28330.467,-81.543,41.504,-169.434,-14.648,0.000,0
28330.471,-99.609,16.113,-201.172,-59.082,0.000,0
28330.475,-124.512,-9.277,-199.219,-93.750,0.000,0
28330.479,-95.215,8.789,-141.602,-39.062,0.000,0
28330.483,-80.566,15.625,-125.488,-21.973,0.000,0
28330.486,-90.332,9.766,-164.551,-40.039,0.000,0
28330.490,-74.219,13.184,-119.629,-43.457,0.000,0
28330.494,-81.543,2.441,5.371,-67.383,0.000,0
28330.498,-110.840,-2.930,-13.184,-59.082,0.000,0
28330.502,-101.074,4.883,-78.125,-11.230,0.000,0
28330.506,-119.141,-34.180,-163.574,-30.273,0.000,0
28330.510,-147.461,-63.477,-83.984,-49.805,0.000,0
28330.514,-139.648,-75.684,18.066,-104.492,0.000,0
28330.518,-128.906,-103.027,-152.344,-157.715,0.000,0
28330.522,-139.160,-97.656,-149.414,-128.418,0.000,0
28330.525,-129.883,-105.469,-81.055,-117.676,0.000,0
28330.529,-103.027,-103.516,-110.352,-80.078,0.000,0
28330.533,-105.469,-108.887,-92.285,-118.652,0.000,0
28330.537,-134.277,-95.703,-80.566,-126.953,0.000,0
28330.541,-126.465,-84.961,-70.801,-67.383,0.000,0
28330.545,-108.398,-94.238,-50.293,-63.477,0.000,0
28330.549,-66.895,-83.496,-38.574,-62.012,0.000,0
28330.553,-44.922,-65.430,-3.418,-62.988,0.000,0
28330.557,-96.680,-64.941,144.043,-109.375,0.000,0
28330.561,-75.195,-75.684,111.328,-111.816,0.000,0
28330.565,-31.250,-56.152,-62.988,-30.762,0.000,0
28330.568,-21.973,-33.203,-9.277,18.555,0.000,0
28330.572,-45.410,-61.035,71.289,-44.434,0.000,0
28330.576,-47.363,-73.242,36.621,-62.500,0.000,0
28330.580,-14.648,-47.363,-0.977,4.883,0.000,0
28330.584,-9.277,-20.020,74.219,41.992,0.000,0
28330.588,-23.926,-23.438,125.488,29.785,0.000,0
28330.592,-14.160,-75.195,113.770,-71.289,0.000,0
28330.596,11.230,-37.109,109.863,-38.574,0.000,0
28330.600,15.137,6.348,167.969,36.621,0.000,0
28330.604,45.898,2.441,41.992,60.547,0.000,0
28330.608,52.246,-23.438,17.090,20.996,0.000,0
28330.611,28.320,-40.039,161.621,-46.875,0.000,0
28330.615,80.078,7.324,83.984,31.250,0.000,0
28330.619,99.609,7.324,14.160,46.387,0.000,0
28330.623,64.453,-22.461,53.223,11.719,0.000,0
28330.627,67.383,-18.066,130.859,25.391,0.000,0
28330.631,42.969,-25.391,198.242,-31.738,0.000,0
28330.635,71.777,16.602,156.250,11.230,0.000,0
28330.639,104.492,41.016,180.664,93.750,0.000,0
28330.643,94.238,44.922,219.238,134.277,0.000,0
28330.647,116.211,31.738,243.652,91.309,0.000,0
28330.650,98.145,-7.324,193.359,-11.230,0.000,0
28330.654,81.055,1.953,87.891,47.852,0.000,0
28330.658,73.730,-17.578,218.750,34.668,0.000,0
28330.662,95.215,-16.602,183.594,41.992,0.000,0
28330.666,116.699,-9.277,87.891,76.172,0.000,0
28330.670,96.680,-42.969,250.488,-1.465,0.000,0
28330.674,101.074,-28.809,282.227,41.504,0.000,0
28330.678,105.469,-17.090,245.605,104.980,0.000,0
28330.682,106.445,-23.438,211.914,102.539,0.000,0
28330.686,115.723,3.418,248.535,127.441,0.000,0
28330.690,119.629,1.465,486.816,87.891,0.000,0
28330.693,171.387,-21.973,382.812,63.477,0.000,0
28330.697,212.402,-34.668,301.270,88.867,0.000,0
28330.701,205.078,-37.598,426.270,110.352,0.000,0
28330.705,223.145,-58.105,501.465,145.508,0.000,0
28330.709,220.215,-139.160,695.801,85.938,0.000,0
28330.713,252.930,-196.289,892.090,73.730,0.000,0
28330.717,389.160,-213.379,965.820,198.242,0.000,0
28330.721,501.953,-157.715,968.750,292.969,0.000,0
28330.725,477.539,-101.562,969.238,310.059,0.000,0
28330.729,457.031,-69.824,961.426,276.855,0.000,0
28330.733,435.059,-21.973,796.875,254.395,0.000,0
28330.736,390.137,7.324,637.695,279.785,0.000,0
28330.740,363.770,0.977,524.414,264.160,0.000,0
28330.744,314.941,-24.414,364.258,217.773,0.000,0
28330.748,237.793,-41.992,428.711,138.184,0.000,0
28330.752,208.496,-36.133,375.977,108.887,0.000,0
28330.756,202.637,-59.082,145.996,110.352,0.000,0
28330.760,123.047,-99.121,160.156,46.387,0.000,0
28330.764,115.234,-86.914,198.730,52.734,0.000,0
28330.768,153.320,-72.754,164.551,41.992,0.000,0
28330.772,109.375,-69.336,137.695,-8.301,0.000,0
28330.775,103.516,-49.805,162.598,18.066,0.000,0
28330.779,117.676,-28.809,216.309,77.637,0.000,0
28330.783,144.531,-38.086,92.285,80.566,0.000,0
28330.787,142.090,-64.941,140.137,30.762,0.000,0
28330.791,108.887,-45.898,298.828,41.504,0.000,0
28330.795,128.418,-34.180,262.207,81.543,0.000,0
28330.799,132.324,-57.129,137.695,57.617,0.000,0
28330.803,132.812,-39.062,103.516,72.754,0.000,0
28330.807,107.910,-23.926,172.363,69.336,0.000,0
28330.811,84.473,-19.531,169.434,37.598,0.000,0
28330.815,97.656,-0.977,91.797,57.129,0.000,0
28330.818,68.359,2.441,28.809,75.195,0.000,0
28330.822,20.020,-25.391,0.977,57.617,0.000,0
28330.826,4.395,-31.250,74.707,21.973,0.000,0
28330.830,9.766,-29.297,25.879,-10.254,0.000,0
28330.834,21.973,-31.250,-134.766,-5.371,0.000,0
28330.838,6.836,-6.836,-5.371,14.648,0.000,0
28330.842,11.230,-1.465,88.379,13.184,0.000,0
28330.846,39.062,-14.648,-9.766,-9.766,0.000,0
28330.850,18.555,-1.465,32.227,-26.367,0.000,0
28330.854,32.715,27.344,32.227,20.020,0.000,0
28330.858,71.289,20.508,-49.805,61.035,0.000,0
28330.861,41.016,3.906,-52.734,37.109,0.000,0
28330.865,12.207,17.090,17.090,22.949,0.000,0
28330.869,22.949,43.945,18.066,2.930,0.000,0
28330.873,32.715,36.621,-6.348,5.859,0.000,0
28330.877,-1.465,13.184,-47.852,-10.254,0.000,0
28330.881,-16.602,20.020,-121.582,11.230,0.000,0
28330.885,-28.809,38.574,-37.109,42.969,0.000,0
28330.889,-6.836,20.508,-57.617,-32.227,0.000,0
28330.893,25.879,37.598,-145.996,13.184,0.000,0
28330.897,-11.719,43.457,-136.230,51.758,0.000,0
28330.900,-47.852,34.180,-164.551,23.926,0.000,0
28330.904,-83.008,23.926,-163.574,-30.273,0.000,0
28330.908,-104.492,5.371,-86.914,-84.473,0.000,0
28330.912,-69.336,24.902,-110.840,-44.922,0.000,0
28330.916,-64.941,26.855,-187.500,-39.551,0.000,0
28330.920,-93.262,23.926,-236.328,-15.625,0.000,0
28330.924,-112.793,-13.672,-231.445,-65.430,0.000,0
28330.928,-125.488,-22.461,-115.723,-107.422,0.000,0
28330.932,-111.328,16.113,-144.043,-35.645,0.000,0
28330.936,-70.801,-5.859,-291.504,-35.156,0.000,0
28330.940,-78.613,-13.672,-251.953,-41.504,0.000,0
28330.943,-123.047,-6.348,-118.652,-55.176,0.000,0
28330.947,-137.695,-36.621,-120.117,-121.582,0.000,0
28330.951,-86.914,-16.602,-227.539,-98.633,0.000,0
28330.955,-65.918,7.324,-181.641,-67.383,0.000,0
28330.959,-80.566,20.996,-119.141,0.488,0.000,0
28330.963,-89.355,-4.883,-168.457,-30.762,0.000,0
28330.967,-126.465,-41.992,-140.625,-137.695,0.000,0
28330.971,-88.379,11.230,-123.047,-40.039,0.000,0
28330.975,-78.125,12.207,-60.547,-31.250,0.000,0
28330.979,-62.500,-2.930,-87.891,-66.895,0.000,0
28330.983,-47.363,8.301,-200.195,-29.785,0.000,0
28330.986,-90.332,-19.043,-102.051,-107.910,0.000,0
28330.990,-60.059,-12.695,-80.078,-96.680,0.000,0
28330.994,-32.227,-4.395,-120.117,-39.062,0.000,0
28330.998,-36.133,-2.930,-151.855,-9.766,0.000,0
28331.002,-39.551,-4.395,-119.141,-19.043,0.000,0
28331.006,-60.547,-35.645,-8.301,-95.703,0.000,0
28331.010,-43.945,-20.996,-78.125,-55.176,0.000,0
28331.014,-59.082,-20.020,-114.258,-38.574,0.000,0
28331.018,-99.121,-18.066,-55.176,-53.223,0.000,0
28331.022,-116.211,-27.344,-16.113,-67.383,0.000,0
28331.025,-96.680,-85.938,-35.645,-153.320,0.000,0
28331.029,-86.426,-69.336,-64.941,-125.488,0.000,0
28331.033,-72.754,-35.156,-108.398,-52.246,0.000,0
28331.037,-61.035,-66.406,-177.734,-76.172,0.000,0
28331.041,-96.191,-102.051,-165.039,-133.789,0.000,0
28331.045,-120.605,-103.516,-13.184,-180.176,0.000,0
28331.049,-58.105,-56.641,-6.348,-119.629,0.000,0
28331.053,-34.668,-43.457,-97.168,-94.727,0.000,0
28331.057,-48.828,-54.688,-85.449,-91.797,0.000,0
28331.061,-62.500,-51.758,-62.012,-51.270,0.000,0
28331.065,-98.145,-64.941,73.730,-112.305,0.000,0
28331.068,-77.148,-62.988,-51.758,-132.812,0.000,0
28331.072,-40.039,-60.059,-204.102,-67.383,0.000,0
28331.076,-45.898,-85.938,-88.379,-86.914,0.000,0
28331.080,-75.195,-71.777,-24.414,-94.238,0.000,0
28331.084,-50.781,-27.344,-62.988,-56.641,0.000,0
28331.088,-39.551,-19.043,-107.910,-56.152,0.000,0
28331.092,-51.270,-19.043,-163.086,-67.383,0.000,0
28331.096,-60.547,11.230,-122.070,-40.039,0.000,0
28331.100,-42.480,33.203,-146.973,4.883,0.000,0
28331.104,-45.410,15.625,-97.656,-46.387,0.000,0
28331.108,-53.711,17.578,-18.555,-46.875,0.000,0
28331.111,-30.273,46.387,-36.621,20.508,0.000,0
28331.115,-12.695,18.066,-149.414,-14.648,0.000,0
28331.119,-19.531,4.883,-169.434,-21.973,0.000,0
28331.123,-68.848,-2.441,-28.320,-52.734,0.000,0
28331.127,-68.359,-13.672,-29.785,-99.609,0.000,0
28331.131,-35.645,0.000,-101.562,-81.543,0.000,0
28331.135,-40.527,12.695,-111.328,-36.621,0.000,0
28331.139,-55.176,-0.977,-82.520,-12.207,0.000,0
28331.143,-55.176,-22.949,-23.438,-51.270,0.000,0
28331.147,-75.684,-11.230,-31.738,-61.523,0.000,0
28331.150,-97.168,-11.230,-169.434,-26.855,0.000,0
28331.154,-108.398,-15.137,-93.262,-32.715,0.000,0
28331.158,-115.723,-22.949,-63.965,-54.199,0.000,0
28331.162,-94.238,-38.086,-118.164,-66.406,0.000,0
28331.166,-95.703,-23.926,-83.008,-78.613,0.000,0
28331.170,-103.027,-14.648,-99.609,-74.707,0.000,0
28331.174,-106.445,-29.785,-141.602,-68.359,0.000,0
28331.178,-148.438,-75.684,-220.215,-100.586,0.000,0
28331.182,-169.922,-104.492,-100.586,-163.574,0.000,0
28331.186,-153.809,-81.543,-48.340,-166.504,0.000,0
28331.190,-148.438,-89.355,-184.082,-145.020,0.000,0
28331.193,-147.461,-102.539,-161.133,-145.020,0.000,0
28331.197,-145.020,-92.773,-157.715,-108.398,0.000,0
28331.201,-180.176,-92.773,-178.223,-110.840,0.000,0
28331.205,-187.988,-98.633,-143.555,-165.039,0.000,0
28331.209,-151.367,-74.707,-162.109,-119.629,0.000,0
28331.213,-121.094,-56.152,-166.504,-46.875,0.000,0
28331.217,-142.090,-62.012,-180.176,-42.969,0.000,0
28331.221,-150.879,-87.891,-251.465,-90.332,0.000,0
28331.225,-124.512,-102.539,-186.035,-147.461,0.000,0
28331.229,-117.676,-71.289,-134.277,-128.418,0.000,0
28331.233,-153.809,-62.500,-178.223,-108.398,0.000,0
28331.236,-120.605,-55.664,-239.258,-59.082,0.000,0
28331.240,-138.184,-78.613,-175.293,-84.473,0.000,0
28331.244,-177.734,-77.148,-40.039,-151.855,0.000,0
28331.248,-136.719,-32.715,-93.262,-81.543,0.000,0
28331.252,-101.074,-33.203,-200.684,-52.734,0.000,0
28331.256,-73.730,-35.156,-163.086,-65.430,0.000,0
28331.260,-126.465,-25.879,13.672,-67.871,0.000,0
28331.264,-135.742,-55.176,-30.273,-157.227,0.000,0
28331.268,-56.641,-34.180,-159.668,-130.371,0.000,0
28331.272,-66.895,-24.902,-142.578,-84.961,0.000,0
28331.275,-83.496,-29.297,-175.781,-46.387,0.000,0
28331.279,-98.633,-64.941,-48.340,-137.207,0.000,0
28331.283,-93.750,-58.594,-62.012,-157.715,0.000,0
28331.287,-56.152,-15.625,-237.305,-34.668,0.000,0
28331.291,-72.266,-43.945,-142.090,-61.523,0.000,0
28331.295,-96.680,-54.199,-123.047,-56.641,0.000,0
28331.299,-97.656,-75.195,-126.465,-115.723,0.000,0
28331.303,-127.441,-62.012,-42.480,-145.508,0.000,0
28331.307,-97.656,-48.340,-72.754,-102.051,0.000,0
28331.311,-48.340,-51.758,-171.875,-75.684,0.000,0
28331.315,-65.918,-14.648,-165.527,-18.066,0.000,0
28331.318,-100.098,-40.039,-57.129,-85.938,0.000,0
28331.322,-119.629,-58.105,-53.711,-121.094,0.000,0
28331.326,-71.777,-40.039,-174.805,-58.594,0.000,0
28331.330,-76.660,-57.129,-166.992,-82.031,0.000,0
28331.334,-113.770,-49.316,-160.156,-99.121,0.000,0
28331.338,-125.977,-42.480,-139.648,-69.824,0.000,0
28331.342,-111.816,-54.688,-87.402,-106.934,0.000,0
28331.346,-67.383,-23.926,-40.527,-80.566,0.000,0
28331.350,-68.848,-1.953,-83.496,-16.113,0.000,0
28331.354,-83.984,-41.504,-239.258,-63.965,0.000,0
28331.358,-92.773,-64.941,-127.930,-121.094,0.000,0
28331.361,-101.562,-44.434,-64.941,-112.793,0.000,0
28331.365,-55.664,-6.836,-203.613,-39.551,0.000,0
28331.369,-41.016,-20.996,-201.660,-47.852,0.000,0
28331.373,-55.176,-27.832,-187.988,-55.176,0.000,0
28331.377,-60.547,-32.227,-123.047,-85.938,0.000,0
28331.381,-101.562,-36.621,-100.098,-132.324,0.000,0
28331.385,-127.930,-10.742,-181.641,-99.609,0.000,0
28331.389,-90.820,5.859,-171.387,-32.227,0.000,0
28331.393,-77.637,15.137,-121.094,-15.137,0.000,0
28331.397,-83.496,7.812,-80.078,-51.758,0.000,0
28331.400,-46.875,-15.137,-120.605,-96.680,0.000,0
28331.404,-29.297,-4.395,-126.465,-83.496,0.000,0
28331.408,-62.988,1.465,-41.016,-48.340,0.000,0
28331.412,-41.016,4.395,-94.727,8.789,0.000,0
28331.416,-62.012,-11.719,-111.328,-17.578,0.000,0
28331.420,-89.355,-37.598,29.297,-105.469,0.000,0
28331.424,-61.035,-18.066,5.859,-49.316,0.000,0
28331.428,-46.387,-23.438,-79.590,-18.066,0.000,0
28331.432,-42.969,-28.320,-54.688,-36.133,0.000,0
28331.436,-48.828,-23.438,68.359,-29.297,0.000,0
28331.440,-59.570,-38.574,159.668,-69.824,0.000,0
28331.443,4.883,-37.109,31.738,-60.547,0.000,0
28331.447,28.809,-21.484,-11.719,-27.344,0.000,0
28331.451,-19.531,-14.648,2.930,10.742,0.000,0
28331.455,-28.320,-33.203,28.320,7.324,0.000,0
28331.459,-15.137,-36.621,93.750,-39.551,0.000,0
28331.463,1.953,-1.953,28.320,-4.883,0.000,0
28331.467,-20.508,-1.953,-32.715,11.719,0.000,0
28331.471,-19.531,-32.715,-21.973,-16.602,0.000,0
28331.475,-29.297,-38.574,-7.324,-20.996,0.000,0
28331.479,-46.387,-27.832,50.781,-45.410,0.000,0
28331.483,-21.484,-8.301,53.223,-41.016,0.000,0
28331.486,-23.926,-17.578,52.246,-35.156,0.000,0
28331.490,-36.621,-25.391,-83.496,4.395,0.000,0
28331.494,-4.395,-13.184,-133.789,30.273,0.000,0
28331.498,-10.742,31.250,114.746,18.555,0.000,0
28331.502,-9.766,45.898,62.500,46.875,0.000,0
28331.506,13.672,9.766,-56.152,29.785,0.000,0
28331.510,10.742,4.395,20.508,-0.977,0.000,0
28331.514,4.883,15.137,21.484,6.348,0.000,0
28331.518,-17.578,-6.836,-42.969,-48.340,0.000,0
28331.522,-24.902,-17.090,-43.457,-85.449,0.000,0
28331.525,-40.039,-1.465,-5.859,-29.785,0.000,0
28331.529,-57.129,11.230,0.977,1.465,0.000,0
28331.533,-46.387,5.371,-45.898,-7.324,0.000,0
28331.537,-49.805,-28.320,-24.902,-61.035,0.000,0
28331.541,-33.203,-7.812,90.332,-51.270,0.000,0
28331.545,-23.926,13.672,109.375,-7.324,0.000,0
28331.549,-8.789,-5.371,-11.719,-22.949,0.000,0
28331.553,18.555,-1.465,-6.836,17.578,0.000,0
28331.557,-26.855,-21.973,102.539,-16.113,0.000,0
28331.561,0.977,-3.418,121.094,-32.227,0.000,0
28331.565,42.969,20.508,-2.930,34.180,0.000,0
28331.568,-7.812,9.766,-50.293,43.945,0.000,0
28331.572,-34.180,-22.461,16.602,-15.137,0.000,0
28331.576,-31.738,-42.969,47.363,-83.984,0.000,0
28331.580,8.301,0.977,-82.520,-29.785,0.000,0
28331.584,-21.484,9.277,-21.484,-16.602,0.000,0
28331.588,-53.711,0.977,63.965,-17.090,0.000,0
28331.592,-16.113,5.371,-118.652,10.254,0.000,0
28331.596,-47.363,-12.695,-83.984,-62.988,0.000,0
28331.600,-39.551,8.301,-56.641,-14.648,0.000,0
28331.604,-50.781,-8.301,-101.562,-6.836,0.000,0
28331.608,-66.895,-35.156,-100.586,-42.969,0.000,0
28331.611,-72.754,-41.016,-23.438,-59.570,0.000,0
28331.615,-113.281,-57.617,65.918,-127.930,0.000,0
28331.619,-103.027,-57.129,5.371,-115.234,0.000,0
28331.623,-105.469,-67.383,-8.789,-100.098,0.000,0
28331.627,-90.332,-50.293,-17.090,-38.086,0.000,0
28331.631,-64.453,-21.973,61.035,-4.883,0.000,0
28331.635,-86.426,-66.895,43.457,-104.980,0.000,0
28331.639,-44.434,-45.898,-84.473,-52.734,0.000,0
28331.643,-30.273,-20.996,-39.551,-1.953,0.000,0
28331.647,-53.711,-28.320,-20.508,-17.578,0.000,0
28331.650,-61.523,-49.316,-15.137,-51.270,0.000,0
28331.654,-81.543,-98.633,54.199,-154.297,0.000,0
28331.658,-65.430,-76.660,19.531,-120.605,0.000,0
28331.662,-57.617,-55.176,-26.367,-64.941,0.000,0
28331.666,-83.008,-67.871,-94.238,-62.500,0.000,0
28331.670,-76.660,-85.449,-51.758,-81.055,0.000,0
28331.674,-72.266,-90.332,69.336,-126.465,0.000,0
28331.678,-72.266,-55.664,31.250,-77.637,0.000,0
28331.682,-71.289,-53.711,-142.090,-67.383,0.000,0
28331.686,-69.824,-88.379,-273.438,-101.562,0.000,0
28331.690,-89.355,-79.102,-45.898,-123.535,0.000,0
28331.693,-93.750,-45.898,48.340,-118.164,0.000,0
28331.697,-59.082,-30.762,-113.281,-70.801,0.000,0
28331.701,-37.598,-42.969,-109.863,-19.531,0.000,0
28331.705,-41.504,-51.270,-39.551,-12.207,0.000,0
28331.709,-51.758,-54.199,-34.668,-41.992,0.000,0
28331.713,-60.059,-68.359,74.707,-94.727,0.000,0
28331.717,-46.875,-44.922,95.703,-65.918,0.000,0
28331.721,-25.879,-20.996,151.855,-18.555,0.000,0
28331.725,8.789,-39.062,112.305,-14.648,0.000,0
28331.729,49.805,-34.668,-10.254,29.297,0.000,0
28331.733,0.977,-50.781,118.164,-38.574,0.000,0
28331.736,-12.695,-59.082,87.402,-58.105,0.000,0
28331.740,33.691,-47.852,-106.445,6.348,0.000,0
28331.744,26.367,-60.059,-142.578,-16.113,0.000,0
28331.748,-48.828,-54.688,-97.656,-20.020,0.000,0
28331.752,-57.617,-53.711,68.359,-57.617,0.000,0
28331.756,11.719,-39.062,-3.906,-74.219,0.000,0
28331.760,-14.160,-22.461,-116.699,-54.688,0.000,0
28331.764,-86.914,-17.578,-74.219,-35.156,0.000,0
28331.768,-80.078,-5.859,-86.426,5.859,0.000,0
28331.772,-77.637,-55.664,-131.348,-82.520,0.000,0
28331.775,-59.082,-51.758,-142.578,-100.098,0.000,0
28331.779,-39.551,-8.789,-145.996,-12.695,0.000,0
28331.783,-73.730,-37.598,-166.992,-37.109,0.000,0
28331.787,-90.332,-60.059,-167.480,-58.594,0.000,0
28331.791,-106.445,-77.148,-55.176,-111.328,0.000,0
28331.795,-118.164,-65.430,-37.598,-121.582,0.000,0
28331.799,-95.703,-47.363,-105.469,-63.965,0.000,0
28331.803,-79.590,-66.895,-138.184,-58.594,0.000,0
28331.807,-84.961,-59.082,-140.625,-41.016,0.000,0
28331.811,-101.562,-50.293,-35.156,-53.223,0.000,0
28331.815,-70.312,-38.574,-37.109,-56.641,0.000,0
28331.818,-40.527,-41.992,-151.855,-24.414,0.000,0
28331.822,-61.523,-52.734,-111.328,-36.621,0.000,0
28331.826,-82.031,-26.367,7.812,-21.973,0.000,0
28331.830,-87.891,-49.316,-85.449,-66.895,0.000,0
28331.834,-97.656,-87.402,-153.809,-143.555,0.000,0
28331.838,-79.590,-82.520,-106.445,-123.047,0.000,0
28331.842,-63.965,-70.312,-104.492,-65.918,0.000,0
28331.846,-86.914,-62.988,-147.949,-39.062,0.000,0
28331.850,-102.539,-68.848,-78.613,-62.988,0.000,0
28331.854,-94.727,-70.801,-24.414,-64.941,0.000,0
28331.858,-53.711,-53.711,-66.895,-9.766,0.000,0
28331.861,-36.133,-38.574,-60.059,9.277,0.000,0
28331.865,-43.457,-42.969,-125.000,-1.953,0.000,0
28331.869,-62.500,-62.500,-50.293,-35.645,0.000,0
28331.873,-82.031,-73.242,19.043,-71.289,0.000,0
28331.877,-30.273,-66.406,-127.930,-42.480,0.000,0
28331.881,-23.438,-57.129,-165.039,0.977,0.000,0
28331.885,-87.402,-45.410,-73.730,3.906,0.000,0
28331.889,-85.938,-58.594,-61.035,-31.250,0.000,0
28331.893,-78.125,-72.266,-41.504,-89.844,0.000,0
28331.897,-73.242,-35.645,-106.934,-49.316,0.000,0
28331.900,-65.918,-16.113,-92.773,-1.465,0.000,0
28331.904,-55.176,-19.531,-50.781,18.555,0.000,0
28331.908,-52.246,-33.691,-120.605,-7.812,0.000,0
28331.912,-77.637,-34.668,-51.758,-74.707,0.000,0
28331.916,-64.941,7.812,7.812,-16.602,0.000,0
28331.920,-49.805,-24.414,-108.887,-24.414,0.000,0
28331.924,-83.984,-85.938,-209.961,-92.285,0.000,0
28331.928,-241.699,-238.281,-258.301,-245.605,0.000,0
28331.932,-370.117,-357.910,-321.777,-401.367,0.000,0
28331.936,-303.223,-321.777,-359.375,-366.699,0.000,0
28331.940,-264.648,-291.992,-320.801,-309.570,0.000,0
28331.943,-286.621,-271.484,-335.449,-245.605,0.000,0
28331.947,-307.129,-282.715,-368.164,-252.930,0.000,0
28331.951,-337.402,-321.289,-287.598,-357.910,0.000,0
28331.955,-294.434,-274.902,-280.273,-290.527,0.000,0
28331.959,-269.043,-250.488,-291.016,-231.445,0.000,0
28331.963,-271.973,-243.164,-252.930,-234.375,0.000,0
28331.967,-229.004,-245.605,-293.945,-254.883,0.000,0
28331.971,-239.258,-262.207,-181.641,-312.012,0.000,0
28331.975,-214.355,-219.238,-165.039,-262.207,0.000,0
28331.979,-204.102,-195.312,-221.191,-215.332,0.000,0
28331.983,-208.496,-197.266,-285.156,-180.664,0.000,0
28331.986,-187.988,-206.543,-218.262,-190.430,0.000,0
28331.990,-206.055,-210.938,-42.969,-250.977,0.000,0
28331.994,-179.688,-169.434,-113.281,-188.477,0.000,0
28331.998,-149.414,-147.461,-162.109,-143.555,0.000,0
28332.002,-129.395,-144.043,-123.535,-129.395,0.000,0
28332.006,-105.957,-122.070,3.906,-109.863,0.000,0
28332.010,-97.656,-156.250,-11.719,-207.520,0.000,0
28332.014,-63.477,-144.531,-134.766,-195.801,0.000,0
28332.018,-83.008,-117.188,-74.707,-119.629,0.000,0
28332.022,-58.594,-113.281,-55.176,-81.055,0.000,0
28332.025,-53.223,-110.352,-56.641,-78.613,0.000,0
28332.029,-75.684,-109.375,55.176,-120.605,0.000,0
28332.033,-56.641,-73.730,3.418,-57.129,0.000,0
28332.037,-40.039,-83.496,-55.176,-42.480,0.000,0
28332.041,-38.574,-89.844,-14.648,-62.500,0.000,0
28332.045,-51.758,-72.754,-8.301,-43.457,0.000,0
28332.049,-64.453,-73.730,85.938,-77.637,0.000,0
28332.053,-41.016,-60.547,138.184,-76.660,0.000,0
28332.057,4.883,-53.223,-10.254,-26.367,0.000,0
28332.061,-15.137,-68.359,-69.336,-29.785,0.000,0
28332.065,-28.320,-60.059,-6.836,-28.809,0.000,0
28332.068,-79.102,-75.195,93.750,-81.055,0.000,0
28332.072,-68.848,-78.613,21.484,-93.262,0.000,0
28332.076,-21.973,-63.965,-8.301,-62.500,0.000,0
28332.080,-71.289,-50.781,51.270,-44.434,0.000,0
28332.084,-74.707,-43.945,-33.691,1.465,0.000,0
28332.088,-48.340,-69.824,48.828,-51.270,0.000,0
28332.092,-6.836,-35.645,108.887,-33.691,0.000,0
28332.096,-2.930,0.488,60.059,35.156,0.000,0
28332.100,-17.578,-14.648,25.879,6.836,0.000,0
28332.104,30.762,-24.414,-87.402,8.301,0.000,0
28332.108,-9.277,-36.621,56.152,-28.320,0.000,0
28332.111,-0.488,17.090,224.121,-13.672,0.000,0
28332.115,43.945,37.598,92.285,9.766,0.000,0
28332.119,14.160,11.230,77.148,8.301,0.000,0
28332.123,4.883,4.395,91.309,35.156,0.000,0
28332.127,-12.695,-18.555,127.930,-14.160,0.000,0
28332.131,6.348,-9.277,97.168,-26.855,0.000,0
28332.135,-6.348,-1.465,18.555,20.020,0.000,0
28332.139,-55.176,-12.695,103.516,10.254,0.000,0
28332.143,-62.500,3.906,145.996,14.648,0.000,0
28332.147,-38.574,-9.766,45.898,-14.160,0.000,0
28332.150,-23.926,-12.695,76.660,-42.969,0.000,0
28332.154,-52.246,-7.812,103.516,-22.949,0.000,0
28332.158,-32.715,-15.137,22.461,3.906,0.000,0
28332.162,-6.348,-18.555,-46.875,20.508,0.000,0
28332.166,-18.555,-20.020,24.902,2.441,0.000,0
28332.170,-34.668,1.465,132.812,17.578,0.000,0
28332.174,-12.207,11.230,41.016,57.129,0.000,0
28332.178,10.742,-1.465,-5.859,31.250,0.000,0
28332.182,-13.184,7.324,30.273,31.738,0.000,0
28332.186,-45.898,-0.488,118.652,20.508,0.000,0
28332.190,-21.484,-24.414,95.703,-39.551,0.000,0
28332.193,5.371,-27.832,-73.730,-37.598,0.000,0
28332.197,-33.203,-18.066,-48.828,-6.836,0.000,0
28332.201,-102.539,-34.180,132.812,-56.152,0.000,0
28332.205,-73.242,-42.480,41.016,-67.871,0.000,0
28332.209,-49.316,-44.434,-21.973,-72.754,0.000,0
28332.213,-94.238,-48.340,-39.062,-68.848,0.000,0
28332.217,-123.535,-85.449,-78.125,-95.703,0.000,0
28332.221,-118.652,-106.445,-60.547,-110.352,0.000,0
28332.225,-118.652,-102.051,-35.645,-117.188,0.000,0
28332.229,-122.070,-98.145,0.488,-153.809,0.000,0
28332.233,-139.648,-71.289,4.395,-108.887,0.000,0
28332.236,-123.535,-68.848,-17.578,-70.312,0.000,0
28332.240,-62.988,-66.895,-53.711,-70.801,0.000,0
28332.244,-59.082,-42.480,52.734,-62.012,0.000,0
28332.248,-94.238,-33.203,129.883,-89.844,0.000,0
28332.252,-31.250,-48.340,-7.812,-88.379,0.000,0
28332.256,-20.996,-54.199,11.230,-68.359,0.000,0
28332.260,-33.691,-14.160,62.012,5.371,0.000,0
28332.264,-45.898,-13.184,27.344,21.973,0.000,0
28332.268,-80.078,-46.387,93.262,-63.965,0.000,0
28332.272,-55.664,-21.484,78.613,-20.508,0.000,0
28332.275,-31.250,-9.277,47.363,20.996,0.000,0
28332.279,-43.945,-18.066,56.152,8.301,0.000,0
28332.283,-45.410,-34.180,28.809,-20.996,0.000,0
28332.287,-39.551,-46.875,98.633,-78.125,0.000,0
28332.291,-25.391,11.230,195.312,-11.230,0.000,0
28332.295,-2.441,8.789,71.289,8.789,0.000,0
28332.299,0.000,-15.625,-55.176,14.648,0.000,0
28332.303,-40.039,-51.270,105.469,-59.570,0.000,0
28332.307,-72.754,-81.543,74.219,-133.301,0.000,0
28332.311,-33.203,-31.738,-91.797,-35.645,0.000,0
28332.315,-7.324,-12.695,-71.777,-8.789,0.000,0
28332.318,-36.133,-16.602,18.555,-23.438,0.000,0
28332.322,-23.438,-4.883,102.539,3.906,0.000,0
28332.326,-25.879,-33.203,107.422,-63.477,0.000,0
28332.330,8.301,10.742,86.426,-22.461,0.000,0
28332.334,47.852,36.133,47.363,46.387,0.000,0
28332.338,-25.391,-1.465,69.336,9.277,0.000,0
28332.342,-54.688,-45.898,39.062,-57.129,0.000,0
28332.346,3.906,-34.668,44.922,-67.871,0.000,0
28332.350,23.926,28.320,36.133,6.348,0.000,0
28332.354,-46.875,-26.367,60.547,-43.457,0.000,0
28332.358,-82.031,-83.008,48.828,-88.379,0.000,0
28332.361,-104.980,-53.223,62.988,-77.148,0.000,0
28332.365,-182.617,-87.402,120.605,-191.895,0.000,0
28332.369,-278.320,-207.031,-91.309,-315.918,0.000,0
28332.373,-393.066,-305.664,-269.531,-363.770,0.000,0
28332.377,-450.684,-348.145,-351.562,-401.855,0.000,0
28332.381,-466.309,-349.609,-294.922,-434.570,0.000,0
28332.385,-528.809,-409.668,-269.531,-526.367,0.000,0
28332.389,-518.555,-427.734,-413.086,-512.207,0.000,0
28332.393,-484.863,-414.551,-433.594,-482.910,0.000,0
28332.397,-488.770,-407.715,-401.855,-500.000,0.000,0
28332.400,-472.656,-395.996,-426.758,-481.934,0.000,0
28332.404,-458.984,-412.109,-300.293,-520.996,0.000,0
28332.408,-436.035,-373.535,-268.066,-489.258,0.000,0
28332.412,-403.809,-340.332,-416.016,-396.973,0.000,0
28332.416,-414.062,-370.117,-447.266,-412.598,0.000,0
28332.420,-423.828,-383.301,-378.418,-420.410,0.000,0
28332.424,-400.879,-365.234,-212.891,-439.453,0.000,0
28332.428,-370.117,-322.754,-216.797,-415.527,0.000,0
28332.432,-323.242,-311.035,-383.301,-377.930,0.000,0
28332.436,-305.176,-317.871,-361.328,-367.676,0.000,0
28332.440,-304.688,-287.109,-291.016,-300.781,0.000,0
28332.443,-318.359,-264.160,-222.168,-321.289,0.000,0
28332.447,-276.367,-242.188,-300.293,-286.621,0.000,0
28332.451,-252.441,-242.676,-307.129,-239.258,0.000,0
28332.455,-279.785,-267.090,-274.902,-275.879,0.000,0
28332.459,-315.430,-285.156,-306.641,-293.945,0.000,0
28332.463,-337.891,-285.645,-248.047,-314.453,0.000,0
28332.467,-319.336,-274.902,-215.332,-308.594,0.000,0
28332.471,-306.152,-265.137,-199.219,-278.809,0.000,0
28332.475,-260.742,-269.043,-326.660,-251.465,0.000,0
28332.479,-224.609,-260.254,-343.750,-235.840,0.000,0
28332.483,-237.305,-248.535,-176.758,-266.602,0.000,0
28332.486,-221.680,-227.051,-193.359,-227.539,0.000,0
28332.490,-192.383,-213.867,-267.090,-183.594,0.000,0
28332.494,-194.336,-216.797,-251.953,-197.754,0.000,0
28332.498,-217.773,-225.098,-215.332,-213.867,0.000,0
28332.502,-245.605,-248.535,-186.035,-270.996,0.000,0
28332.506,-247.070,-259.277,-146.484,-322.266,0.000,0
28332.510,-224.121,-231.934,-170.898,-274.902,0.000,0
28332.514,-179.688,-164.062,-189.941,-129.883,0.000,0
28332.518,-168.457,-194.336,-183.594,-155.762,0.000,0
28332.522,-165.039,-231.934,-212.402,-237.793,0.000,0
28332.525,-140.137,-197.754,-198.730,-187.012,0.000,0
28332.529,-157.227,-187.012,-211.426,-145.020,0.000,0
28332.533,-181.152,-209.473,-193.848,-167.969,0.000,0
28332.537,-165.039,-211.914,-166.016,-162.109,0.000,0
28332.541,-166.992,-199.707,-93.750,-172.852,0.000,0
28332.545,-159.180,-162.109,-91.797,-151.855,0.000,0
28332.549,-145.020,-164.062,-166.992,-116.211,0.000,0
28332.553,-127.441,-175.781,-158.691,-100.098,0.000,0
28332.557,-156.738,-178.223,-110.840,-130.371,0.000,0
28332.561,-182.129,-177.246,-64.453,-189.453,0.000,0
28332.565,-137.695,-151.855,-93.262,-164.551,0.000,0
28332.568,-114.258,-153.809,-67.871,-153.320,0.000,0
28332.572,-113.281,-113.281,-2.441,-93.750,0.000,0
28332.576,-90.332,-116.211,-126.953,-88.379,0.000,0
28332.580,-76.660,-152.344,-151.855,-167.480,0.000,0
28332.584,-82.520,-133.301,-88.867,-127.930,0.000,0
28332.588,-74.219,-124.023,-97.168,-83.984,0.000,0
28332.592,-52.734,-115.723,-124.512,-64.941,0.000,0
28332.596,-60.547,-122.070,-75.684,-89.844,0.000,0
28332.600,-69.824,-137.695,3.418,-143.066,0.000,0
28332.604,-41.992,-99.609,-17.090,-96.191,0.000,0
28332.608,-71.777,-74.707,-9.766,-42.480,0.000,0
28332.611,-69.336,-55.664,-15.625,-10.742,0.000,0
28332.615,-49.805,-57.129,34.180,-11.719,0.000,0
28332.619,-73.730,-79.102,118.652,-61.523,0.000,0
28332.623,7.324,-58.594,-18.066,-15.137,0.000,0
28332.627,8.789,-54.688,-83.496,14.648,0.000,0
28332.631,-62.988,-60.059,23.438,-0.977,0.000,0
28332.635,-34.668,-55.176,96.680,-2.441,0.000,0
28332.639,-19.043,-66.406,114.746,-62.500,0.000,0
28332.643,20.508,-3.418,93.750,-5.859,0.000,0
28332.647,45.410,40.039,165.527,62.500,0.000,0
28332.650,86.914,40.527,133.789,97.656,0.000,0
28332.654,84.961,42.480,131.836,104.004,0.000,0
28332.658,61.035,39.551,249.512,42.480,0.000,0
28332.662,86.914,90.332,251.465,107.910,0.000,0
28332.666,93.262,65.430,141.113,104.492,0.000,0
28332.670,112.305,43.457,114.746,73.730,0.000,0
28332.674,88.867,58.594,193.848,89.355,0.000,1
28332.678,42.969,40.039,271.973,31.738,0.000,0
28332.682,92.773,83.008,267.578,68.848,0.000,0
28332.686,208.984,171.387,299.316,181.152,0.000,0
28332.690,288.086,237.305,262.207,294.434,0.000,0
28332.693,271.484,270.996,297.852,320.801,0.000,0
28332.697,270.020,294.922,479.004,291.992,0.000,0
28332.701,355.469,360.352,492.188,392.090,0.000,0
28332.705,405.273,420.410,530.762,465.820,0.000,0
28332.709,413.086,434.082,570.312,462.891,0.000,0
28332.713,449.219,416.016,488.281,441.895,0.000,0
28332.717,445.801,399.414,519.043,403.809,0.000,0
28332.721,426.270,419.434,543.945,407.715,0.000,0
28332.725,426.270,433.105,523.926,458.496,0.000,0
28332.729,381.836,382.324,416.016,433.594,0.000,0
28332.733,350.586,345.703,435.547,391.602,0.000,0
28332.736,311.035,333.008,614.746,345.703,0.000,0
28332.740,320.312,326.660,520.020,324.219,0.000,0
28332.744,343.262,322.266,378.906,340.820,0.000,0
28332.748,308.594,301.758,441.406,329.102,0.000,0
28332.752,308.594,310.059,480.957,368.652,0.000,0
28332.756,321.289,270.020,455.078,297.363,0.000,0
28332.760,353.516,255.859,342.773,252.441,0.000,0
28332.764,314.453,283.691,335.449,327.637,0.000,0
28332.768,244.141,259.766,366.211,311.523,0.000,0
28332.772,266.113,252.930,326.660,272.949,0.000,0
28332.775,265.137,259.277,394.531,241.211,0.000,0
28332.779,272.949,266.113,401.855,236.816,0.000,0
28332.783,258.789,267.090,380.859,262.207,0.000,0
28332.787,223.633,251.465,364.746,249.023,0.000,0
28332.791,222.168,248.535,291.504,277.832,0.000,0
28332.795,165.039,219.727,330.566,240.723,0.000,0
28332.799,139.648,195.312,405.273,177.734,0.000,0
28332.803,184.570,200.195,259.766,208.008,0.000,0
28332.807,141.113,166.992,191.406,187.500,0.000,0
28332.811,121.094,165.039,227.539,193.359,0.000,0
28332.815,105.469,133.789,283.691,137.695,0.000,0
28332.818,80.078,87.402,265.625,39.551,0.000,0
28332.822,97.168,93.262,78.613,85.938,0.000,0
28332.826,99.121,117.676,172.852,142.578,0.000,0
28332.830,106.445,88.379,180.664,131.348,0.000,0
28332.834,83.008,35.156,142.578,61.035,0.000,0
28332.838,26.855,42.969,185.059,36.621,0.000,0
28332.842,33.691,61.523,149.902,80.078,0.000,0
28332.846,56.152,41.992,109.863,67.383,0.000,0
28332.850,60.059,12.207,90.820,24.414,0.000,0
28332.854,50.293,3.418,177.734,-17.090,0.000,0
28332.858,23.438,-3.906,208.008,-49.805,0.000,0
28332.861,1.465,-23.926,27.344,-52.734,0.000,0
28332.865,-39.062,-66.895,-59.570,-57.617,0.000,0
28332.869,-92.285,-104.980,-26.855,-71.289,0.000,0
28332.873,-115.234,-101.562,124.512,-87.891,0.000,0
28332.877,-96.191,-126.465,15.137,-125.000,0.000,0
28332.881,-174.316,-199.707,-146.484,-167.480,0.000,0
28332.885,-304.199,-319.336,-181.152,-281.738,0.000,0
28332.889,-391.113,-380.859,-205.566,-349.609,0.000,0
28332.893,-399.414,-404.785,-263.672,-388.184,0.000,0
28332.897,-390.625,-434.570,-322.266,-450.195,0.000,0
28332.900,-407.227,-413.086,-258.789,-406.250,0.000,0
28332.904,-397.461,-392.090,-238.281,-348.145,0.000,0
28332.908,-260.742,-320.312,-312.988,-274.902,0.000,0
28332.912,-183.105,-245.605,-194.824,-229.980,0.000,0
28332.916,-197.754,-229.492,-46.387,-250.000,0.000,0
28332.920,-106.934,-186.035,-29.785,-203.125,0.000,0
28332.924,-67.871,-150.391,-85.938,-164.551,0.000,0
28332.928,-99.609,-121.582,-152.832,-90.332,0.000,0
28332.932,-127.930,-162.598,-115.234,-106.445,0.000,0
28332.936,-220.703,-278.809,-119.629,-291.992,0.000,0
28332.940,-240.723,-287.109,-216.309,-298.828,0.000,0
28332.943,-221.680,-276.367,-309.570,-240.723,0.000,0
28332.947,-254.883,-291.016,-216.797,-258.789,0.000,0
28332.951,-254.883,-323.242,-221.680,-305.176,0.000,0
28332.955,-229.492,-342.773,-249.023,-362.305,0.000,0
28332.959,-198.730,-293.457,-248.047,-315.430,0.000,0
28332.963,-197.266,-273.438,-222.656,-284.180,0.000,0
28332.967,-211.914,-268.066,-252.930,-246.094,0.000,0
28332.971,-226.074,-269.531,-233.398,-241.699,0.000,0
28332.975,-216.797,-272.949,-115.234,-298.340,0.000,0
28332.979,-145.020,-215.820,-152.344,-214.355,0.000,0
28332.983,-160.156,-207.031,-164.062,-167.969,0.000,0
28332.986,-157.227,-207.520,-176.758,-180.664,0.000,0
28332.990,-106.934,-183.594,-97.168,-181.152,0.000,0
28332.994,-172.363,-186.035,27.832,-236.816,0.000,0
28332.998,-158.691,-187.988,-139.160,-231.934,0.000,0
28333.002,-128.906,-182.129,-150.391,-201.660,0.000,0
28333.006,-109.375,-158.691,-113.770,-152.832,0.000,0
28333.010,-112.793,-166.016,-147.461,-155.273,0.000,0
28333.014,-153.809,-208.984,-84.961,-241.211,0.000,0
28333.018,-93.262,-165.039,-126.465,-166.016,0.000,0
28333.022,-77.637,-136.719,-84.473,-118.652,0.000,0
28333.025,-110.352,-134.277,-90.332,-122.559,0.000,0
28333.029,-76.660,-116.699,-143.555,-93.262,0.000,0
28333.033,-96.191,-154.785,-48.828,-181.641,0.000,0
28333.037,-106.934,-113.770,-14.648,-133.301,0.000,0
28333.041,-72.266,-80.566,-111.816,-66.406,0.000,0
28333.045,-39.062,-86.426,-221.191,-60.059,0.000,0
28333.049,-64.453,-101.562,-141.113,-73.242,0.000,0
28333.053,-100.586,-128.418,0.488,-148.438,0.000,0
28333.057,-62.012,-97.168,-115.234,-98.633,0.000,0
28333.061,-39.062,-83.008,-176.270,-59.082,0.000,0
28333.065,-53.711,-108.398,-103.027,-101.562,0.000,0
28333.068,-54.199,-113.770,-82.520,-111.328,0.000,0
28333.072,-71.289,-126.953,-15.137,-156.738,0.000,0
28333.076,-58.105,-95.215,-48.828,-131.836,0.000,0
28333.080,-56.641,-51.270,-74.219,-45.898,0.000,0
28333.084,-52.734,-48.340,-19.531,-22.461,0.000,0
28333.088,-1.953,-51.758,-117.188,-29.297,0.000,0
28333.092,-15.625,-52.734,-44.434,-74.219,0.000,0
28333.096,-26.367,-45.410,-44.434,-83.984,0.000,0
28333.100,21.484,-25.879,-101.074,-44.434,0.000,0
28333.104,34.180,-13.184,-84.961,-24.414,0.000,0
28333.108,39.551,17.090,-104.492,52.734,0.000,0
28333.111,19.043,21.973,0.488,27.832,0.000,0
28333.115,-10.254,-0.977,-33.203,-36.621,0.000,0
28333.119,-5.859,10.254,-137.207,39.551,0.000,0
28333.123,-10.254,8.301,-41.504,18.555,0.000,0
28333.127,-19.043,15.625,60.059,-14.160,0.000,0
28333.131,-49.316,11.719,-16.113,11.719,0.000,0
28333.135,-19.531,-10.742,-89.355,-36.133,0.000,0
28333.139,-17.578,-4.883,-60.547,-39.551,0.000,0
28333.143,-58.594,6.836,-28.809,-11.719,0.000,0
28333.147,-21.484,5.859,-101.074,31.250,0.000,0
28333.150,-42.969,-14.648,-23.438,-11.719,0.000,0
28333.154,-39.062,22.949,51.270,-13.672,0.000,0
28333.158,31.738,98.633,-26.855,93.262,0.000,0
28333.162,62.500,129.883,-11.230,123.535,0.000,0
28333.166,97.168,163.574,89.355,157.227,0.000,0
28333.170,133.789,226.074,244.629,219.238,0.000,0
28333.174,205.566,302.246,351.074,252.441,0.000,0
28333.178,277.832,349.121,249.023,295.410,0.000,0
28333.182,292.480,359.375,248.047,352.051,0.000,0
28333.186,314.453,377.441,314.453,394.043,0.000,0
28333.190,329.590,382.324,346.191,369.141,0.000,0
28333.193,335.938,396.973,320.801,353.027,0.000,0
28333.197,364.258,421.387,293.945,415.527,0.000,0
28333.201,348.633,422.852,375.488,425.781,0.000,0
28333.205,347.168,417.480,350.586,411.133,0.000,0
28333.209,344.238,403.320,330.078,388.184,0.000,0
28333.213,290.039,386.719,369.629,338.379,0.000,0
28333.217,289.062,388.184,378.418,352.539,0.000,0
28333.221,346.680,386.719,307.129,391.602,0.000,0
28333.225,332.031,355.957,195.312,355.469,0.000,0
28333.229,253.906,321.777,362.305,272.949,0.000,0
28333.233,255.859,341.309,484.863,287.109,0.000,0
28333.236,316.406,348.145,287.109,319.824,0.000,0
28333.240,334.961,326.172,248.047,297.852,0.000,0
28333.244,307.129,333.496,302.734,323.242,0.000,0
28333.248,252.441,308.594,313.477,317.871,0.000,0
28333.252,253.418,271.973,327.637,242.188,0.000,0
28333.256,298.340,277.344,303.711,259.766,0.000,0
28333.260,252.930,267.578,274.414,289.062,0.000,0
28333.264,172.363,232.910,279.785,253.418,0.000,0
28333.268,170.410,179.688,310.547,177.734,0.000,0
28333.272,163.574,150.391,337.891,104.004,0.000,0
28333.275,150.391,177.734,308.594,135.742,0.000,0
28333.279,155.273,170.898,300.293,140.625,0.000,0
28333.283,202.148,146.484,192.383,149.902,0.000,0
28333.287,159.668,102.539,93.262,120.117,0.000,0
28333.291,150.879,118.164,246.094,80.078,0.000,0
28333.295,214.844,169.922,268.066,160.645,0.000,0
28333.299,196.777,137.695,165.039,168.945,0.000,0
28333.303,197.754,133.789,198.242,165.039,0.000,0
28333.307,168.457,109.375,246.094,89.844,0.000,0
28333.311,157.227,107.422,238.770,50.781,0.000,0
28333.315,173.340,109.375,150.879,91.797,0.000,0
28333.318,152.832,121.094,220.215,126.465,0.000,0
28333.322,152.832,148.926,200.195,179.199,0.000,0
28333.326,129.883,78.125,155.273,54.199,0.000,0
28333.330,113.770,59.082,245.117,3.418,0.000,0
28333.334,146.484,101.074,104.004,131.348,0.000,0
28333.338,122.559,57.129,32.715,83.496,0.000,0
28333.342,95.703,36.133,4.395,42.480,0.000,0
28333.346,59.082,-0.977,83.496,-21.973,0.000,1
28333.350,35.645,-31.250,76.172,-76.660,0.000,0
28333.354,29.297,-1.953,-19.043,-16.113,0.000,0
28333.358,-19.531,0.488,-51.270,4.395,0.000,0
28333.361,-20.020,-15.625,-174.805,12.207,0.000,0
28333.365,-61.035,-43.457,-1.953,-51.758,0.000,0
28333.369,-80.566,-62.012,12.207,-89.355,0.000,0
28333.373,-11.230,-43.945,-193.848,-29.785,0.000,0
28333.377,-50.293,-60.547,-111.328,-48.340,0.000,0
28333.381,-84.961,-73.242,-61.523,-48.340,0.000,0
28333.385,-94.727,-101.074,-39.062,-99.609,0.000,0
28333.389,-102.051,-101.562,-23.926,-140.137,0.000,0
28333.393,-79.102,-54.199,-75.684,-60.059,0.000,0
28333.397,-75.195,-78.613,-156.738,-52.734,0.000,0
28333.400,-104.492,-110.840,-225.098,-77.637,0.000,0
28333.404,-155.762,-115.723,-200.684,-75.684,0.000,0
28333.408,-176.758,-118.164,-152.832,-106.934,0.000,0
28333.412,-171.875,-130.371,-187.500,-145.996,0.000,0
28333.416,-183.105,-176.270,-323.242,-182.617,0.000,0
28333.420,-202.637,-179.199,-350.098,-160.645,0.000,0
28333.424,-228.516,-179.688,-312.500,-145.020,0.000,0
28333.428,-254.395,-219.238,-236.816,-244.141,0.000,0
28333.432,-227.051,-213.379,-267.090,-233.887,0.000,0
28333.436,-214.355,-219.238,-437.500,-174.316,0.000,0
28333.440,-214.844,-207.031,-381.348,-166.992,0.000,0
28333.443,-183.105,-175.293,-202.637,-168.457,0.000,0
28333.447,-214.355,-200.684,-159.668,-236.816,0.000,0
28333.451,-236.328,-190.430,-205.566,-225.586,0.000,0
28333.455,-218.262,-159.180,-129.883,-185.547,0.000,0
28333.459,-179.199,-144.531,-209.961,-152.832,0.000,0
28333.463,-142.578,-160.645,-270.996,-144.531,0.000,0
28333.467,-142.090,-170.898,-99.121,-189.941,0.000,0
28333.471,-78.613,-107.910,-94.727,-109.375,0.000,0
28333.475,-24.902,-72.266,-145.508,-39.551,0.000,0
28333.479,-28.320,-94.238,-118.164,-76.172,0.000,0
28333.483,-35.156,-87.891,11.230,-74.707,0.000,0
28333.486,-20.508,-69.336,78.125,-87.891,0.000,0
28333.490,22.461,-53.711,-53.223,-82.520,0.000,0
28333.494,43.457,-46.875,-22.949,-55.176,0.000,0
28333.498,22.949,-42.480,48.340,-20.508,0.000,0
28333.502,57.129,-27.832,29.297,7.812,0.000,0
28333.506,70.801,-26.855,5.371,-45.410,0.000,0
28333.510,44.434,0.000,-43.457,-12.695,0.000,0
28333.514,68.359,7.324,-29.785,31.738,0.000,0
28333.518,76.172,0.977,-13.672,9.766,0.000,0
28333.522,83.984,20.020,-21.973,15.625,0.000,0
28333.525,89.844,37.598,18.555,3.906,0.000,0
28333.529,89.355,46.387,49.805,-3.418,0.000,0
28333.533,91.797,50.781,63.965,24.902,0.000,0
28333.537,116.211,43.945,-149.414,65.918,0.000,0
28333.541,124.023,63.965,-121.582,89.844,0.000,0
28333.545,68.359,66.406,154.297,51.270,0.000,0
28333.549,73.242,57.129,41.016,59.082,0.000,0
28333.553,112.793,50.293,-98.633,70.801,0.000,0
28333.557,62.988,19.531,-65.918,20.996,0.000,0
28333.561,-23.438,-0.977,-58.594,-1.465,0.000,0
28333.565,-69.824,-48.340,-63.477,-83.984,0.000,0
28333.568,-71.289,-55.176,-94.238,-104.980,0.000,0
28333.572,-63.477,-39.062,-166.992,-44.922,0.000,0
28333.576,-87.891,-60.547,-234.375,-42.480,0.000,0
28333.580,-119.141,-122.559,-291.992,-106.934,0.000,0
28333.584,-169.434,-158.203,-249.023,-163.086,0.000,0
28333.588,-184.570,-129.883,-259.277,-134.766,0.000,0
28333.592,-266.113,-188.965,-348.633,-180.176,0.000,0
28333.596,-393.066,-314.941,-487.793,-320.312,0.000,0
28333.600,-399.414,-372.559,-615.723,-385.254,0.000,0
28333.604,-402.344,-351.074,-399.414,-403.809,0.000,0
28333.608,-423.828,-292.969,-311.523,-367.188,0.000,0
28333.611,-423.340,-300.293,-576.660,-325.684,0.000,0
28333.615,-456.543,-330.078,-617.676,-334.961,0.000,0
28333.619,-586.914,-458.008,-677.246,-450.684,0.000,0
28333.623,-780.273,-662.598,-783.691,-676.758,0.000,0
28333.627,-862.305,-729.004,-850.586,-764.648,0.000,0
28333.631,-888.672,-770.508,-955.566,-785.645,0.000,0
28333.635,-895.508,-781.738,-911.133,-790.527,0.000,0
28333.639,-857.910,-717.773,-929.199,-673.340,0.000,0
28333.643,-859.375,-740.234,-960.938,-705.566,0.000,0
28333.647,-858.887,-749.023,-904.297,-752.441,0.000,0
28333.650,-812.500,-654.785,-865.234,-607.422,0.000,0
28333.654,-799.805,-649.902,-920.898,-596.191,0.000,0
28333.658,-772.461,-655.762,-1000.000,-625.977,0.000,0
28333.662,-811.523,-646.484,-889.160,-662.109,0.000,0
28333.666,-827.148,-613.281,-857.422,-660.645,0.000,0
28333.670,-788.574,-536.621,-1000.000,-561.523,0.000,0
28333.674,-852.051,-519.531,-1000.000,-523.926,0.000,0
28333.678,-875.000,-478.027,-990.234,-448.730,0.000,0
28333.682,-866.211,-460.449,-920.898,-457.031,0.000,0
28333.686,-868.164,-453.613,-901.367,-454.102,0.000,0
28333.690,-791.992,-402.344,-1000.000,-356.445,0.000,0
28333.693,-800.781,-436.523,-841.309,-454.102,0.000,0
28333.697,-819.824,-440.430,-725.098,-460.449,0.000,0
28333.701,-761.230,-438.477,-745.117,-443.359,0.000,0
28333.705,-674.805,-450.684,-619.141,-524.414,0.000,0
28333.709,-615.234,-396.973,-571.777,-446.777,0.000,0
28333.713,-568.359,-387.207,-545.898,-378.906,0.000,0
28333.717,-446.777,-357.910,-558.105,-306.152,0.000,0
28333.721,-427.734,-336.914,-428.223,-327.148,0.000,0
28333.725,-433.594,-294.922,-403.809,-325.684,0.000,0
28333.729,-403.809,-224.121,-485.840,-207.031,0.000,0
28333.733,-366.699,-211.426,-405.273,-187.988,0.000,0
28333.736,-331.055,-231.445,-419.922,-236.328,0.000,0
28333.740,-316.406,-178.711,-298.828,-193.848,0.000,0
28333.744,-297.363,-144.531,-245.117,-189.453,0.000,0
28333.748,-240.234,-150.879,-362.793,-207.031,0.000,0
28333.752,-188.477,-136.719,-320.312,-154.785,0.000,0
28333.756,-148.926,-126.465,-288.574,-124.512,0.000,0
28333.760,-163.574,-150.391,-212.891,-170.898,0.000,0
28333.764,-208.496,-195.312,-91.797,-247.559,0.000,0
28333.768,-189.453,-187.012,-41.992,-225.586,0.000,0
28333.772,-156.250,-187.988,-8.301,-212.891,0.000,0
28333.775,-113.281,-198.242,-35.156,-198.730,0.000,0
28333.779,-94.727,-224.609,23.926,-197.266,0.000,0
28333.783,-73.242,-235.840,177.734,-243.652,0.000,0
28333.787,-49.316,-200.684,218.750,-212.891,0.000,0
28333.791,-9.277,-200.195,80.566,-171.387,0.000,0
28333.795,30.273,-209.473,109.863,-180.664,0.000,0
28333.799,55.664,-207.031,276.367,-178.711,0.000,0
28333.803,62.012,-200.684,376.953,-195.312,0.000,0
28333.807,126.465,-163.574,295.410,-180.664,0.000,0
28333.811,188.965,-140.137,282.715,-158.203,0.000,0
28333.815,185.547,-125.977,305.664,-111.328,0.000,0
28333.818,188.965,-127.930,251.465,-91.797,0.000,0
28333.822,180.664,-138.672,261.719,-157.227,0.000,0
28333.826,169.922,-104.980,195.312,-120.117,0.000,0
28333.830,125.000,-69.824,209.961,-45.898,0.000,0
28333.834,132.812,-49.316,135.742,-34.180,0.000,0
28333.838,149.414,-40.527,95.215,-66.406,0.000,0
28333.842,125.488,-30.762,123.535,-88.867,0.000,0
28333.846,172.363,39.551,51.758,0.000,0.000,0
28333.850,174.805,88.379,78.125,65.430,0.000,0
28333.854,162.598,99.609,19.531,111.816,0.000,0
28333.858,167.969,116.211,26.855,144.531,0.000,0
28333.861,91.309,95.215,136.230,83.008,0.000,0
28333.865,89.844,91.797,66.406,102.051,0.000,0
28333.869,139.160,104.004,0.000,144.043,0.000,0
28333.873,103.516,101.074,68.848,121.094,0.000,0
28333.877,88.379,102.539,97.656,124.023,0.000,0
28333.881,101.562,72.266,74.219,67.871,0.000,0
28333.885,126.953,78.613,73.730,50.293,0.000,0
28333.889,139.648,111.816,123.535,106.934,0.000,0
28333.893,127.441,111.328,81.055,125.977,0.000,0
28333.897,108.398,71.777,54.199,77.637,0.000,0
28333.900,57.617,33.691,135.742,10.254,0.000,0
28333.904,51.758,50.293,118.652,30.273,0.000,0
28333.908,83.008,57.129,31.738,54.688,0.000,0
28333.912,94.727,39.062,26.855,40.039,0.000,0
28333.916,64.941,19.531,125.000,11.719,0.000,0
28333.920,55.664,20.996,181.641,-24.902,0.000,0
28333.924,116.211,70.312,135.254,39.062,0.000,0
28333.928,90.332,65.430,100.098,81.055,0.000,0
28333.932,83.984,51.270,103.027,80.078,0.000,0
28333.936,99.121,58.594,182.129,46.387,0.000,0
28333.940,77.637,11.719,171.875,-84.473,0.000,0
28333.943,91.797,-3.906,-55.176,-72.754,0.000,0
28333.947,123.047,22.949,15.137,-12.695,0.000,0
28333.951,103.516,41.504,104.980,23.926,0.000,0
28333.955,69.336,31.738,15.137,37.109,0.000,0
28333.959,59.570,37.598,114.746,-1.465,0.000,0
28333.963,121.094,115.723,211.914,92.773,0.000,0
28333.967,184.570,150.879,209.961,165.527,0.000,1
28333.971,230.957,163.086,118.164,178.223,0.000,0
28333.975,252.930,196.777,193.359,208.984,0.000,0
28333.979,221.680,217.773,397.461,213.867,0.000,0
28333.983,266.113,243.652,196.777,239.258,0.000,0
28333.986,314.941,267.090,108.398,243.652,0.000,0
28333.990,337.402,314.941,207.520,316.406,0.000,0
28333.994,347.168,341.797,346.680,363.770,0.000,0
28333.998,329.590,315.918,447.266,262.207,0.000,0
28334.002,362.305,357.422,333.984,306.641,0.000,0
28334.006,358.398,381.348,257.812,375.000,0.000,0
28334.010,335.938,342.285,263.184,345.215,0.000,0
28334.014,308.105,316.406,319.824,327.148,0.000,0
28334.018,281.250,286.621,342.285,250.977,0.000,0
28334.022,282.227,320.801,255.371,272.949,0.000,0
28334.025,234.863,345.215,298.340,322.754,0.000,0
28334.029,241.211,297.363,164.551,306.152,0.000,0
28334.033,243.164,259.277,137.695,269.531,0.000,0
28334.037,197.754,243.652,284.668,208.008,0.000,0
28334.041,196.777,275.879,220.703,253.906,0.000,0
28334.045,211.426,256.836,139.160,247.070,0.000,0
28334.049,202.148,227.539,79.102,227.539,0.000,0
28334.053,167.480,236.328,175.781,239.258,0.000,0
28334.057,139.648,199.707,234.375,158.203,0.000,0
28334.061,152.344,192.871,166.992,155.762,0.000,0
28334.065,130.859,194.336,119.141,203.125,0.000,0
28334.068,101.562,204.102,171.875,246.094,0.000,0
28334.072,112.305,193.848,101.562,229.492,0.000,0
28334.076,96.191,132.324,102.539,120.117,0.000,0
28334.080,110.352,144.043,115.723,160.645,0.000,0
28334.084,111.816,168.945,81.543,217.773,0.000,0
28334.088,105.469,161.133,59.570,188.965,0.000,0
28334.092,125.977,164.062,53.223,173.340,0.000,0
28334.096,68.359,132.324,167.969,110.352,0.000,0
28334.100,65.918,144.043,201.172,117.676,0.000,0
28334.104,113.770,170.410,133.789,166.016,0.000,0
28334.108,117.676,154.785,100.098,168.457,0.000,0
28334.111,102.051,143.066,177.246,164.551,0.000,0
28334.115,43.457,126.953,310.547,107.422,0.000,0
28334.119,73.242,120.605,139.648,78.125,0.000,0
28334.123,93.750,125.977,34.180,104.980,0.000,0
28334.127,65.430,109.863,120.117,95.215,0.000,0
28334.131,101.562,111.816,67.383,125.977,0.000,0
28334.135,81.055,86.914,100.586,81.543,0.000,0
28334.139,89.355,91.797,92.773,57.617,0.000,0
28334.143,57.129,113.770,91.309,110.840,0.000,0
28334.147,4.395,56.152,65.918,55.176,0.000,0
28334.150,41.016,43.945,-100.098,68.848,0.000,0
28334.154,31.250,61.523,16.113,77.637,0.000,0
28334.158,-8.301,69.336,102.539,39.551,0.000,0
28334.162,-1.465,61.035,43.945,44.434,0.000,0
28334.166,22.461,44.922,-20.508,52.734,0.000,0
28334.170,2.930,51.270,-51.758,92.285,0.000,0
28334.174,-34.180,28.320,-6.348,51.270,0.000,0
28334.178,-36.621,-0.977,-28.809,-18.555,0.000,0
28334.182,-7.324,13.672,-100.586,26.367,0.000,0
28334.186,-19.531,7.812,-80.566,32.227,0.000,0
28334.190,-20.996,10.742,-77.148,28.320,0.000,0
28334.193,0.977,-4.395,-62.988,5.859,0.000,0
28334.197,4.395,-14.160,-52.734,-24.414,0.000,0
28334.201,-11.719,18.066,-17.090,18.555,0.000,0
28334.205,-30.273,48.828,48.340,67.383,0.000,0
28334.209,-22.949,20.996,-128.418,53.711,0.000,0
28334.213,-28.809,-28.809,-75.195,-31.250,0.000,0
28334.217,-45.898,-25.391,27.832,-50.293,0.000,0
28334.221,-21.973,1.465,-98.633,17.578,0.000,0
28334.225,0.977,-11.230,-135.742,-1.465,0.000,0
28334.229,-18.066,-30.273,-104.980,-19.531,0.000,0
28334.233,-41.016,-18.555,-7.812,-8.301,0.000,0
28334.236,-30.762,-18.066,-20.508,-45.898,0.000,0
28334.240,4.395,0.977,-107.422,-29.297,0.000,0
28334.244,-6.836,-4.395,-108.887,9.277,0.000,0
28334.248,-29.785,-35.156,-50.293,-6.348,0.000,0
28334.252,-30.762,-46.387,-18.555,-43.945,0.000,0
28334.256,-24.902,-16.113,-125.977,-14.648,0.000,0
28334.260,-14.160,0.000,-154.297,17.578,0.000,0
28334.264,-12.207,-7.324,-45.410,7.812,0.000,0
28334.268,9.277,-4.883,-78.613,12.207,0.000,0
28334.272,0.488,-8.301,-82.031,-7.812,0.000,0
28334.275,-38.574,-13.184,19.531,-60.059,0.000,0
28334.279,-27.832,-15.625,-80.566,-37.598,0.000,0
28334.283,25.879,-13.672,-166.992,15.137,0.000,0
28334.287,17.578,14.160,-123.535,50.781,0.000,0
28334.291,-20.508,28.320,-57.617,51.270,0.000,0
28334.295,-35.645,15.625,111.328,-3.418,0.000,0
28334.299,48.340,74.707,126.465,61.523,0.000,0
28334.303,68.848,79.590,-0.488,74.707,0.000,0
28334.307,4.395,75.195,-12.207,82.031,0.000,0
28334.311,12.207,63.965,53.223,104.492,0.000,0
28334.315,6.836,3.418,-2.441,-3.906,0.000,0
28334.318,7.812,33.691,-69.336,11.230,0.000,0
28334.322,-1.953,51.758,-83.984,73.242,0.000,0
28334.326,-30.762,19.531,-126.953,49.805,0.000,0
28334.330,-58.105,-16.113,-100.098,-14.648,0.000,0
28334.334,-112.793,-51.758,-6.836,-101.562,0.000,0
28334.338,-101.074,-22.949,-65.918,-61.523,0.000,0
28334.342,-103.027,-26.367,-120.605,-32.227,0.000,0
28334.346,-103.516,-45.898,-165.039,-15.625,0.000,0
28334.350,-87.891,-55.664,-139.160,-39.551,0.000,0
28334.354,-108.398,-67.383,64.941,-130.859,0.000,0
28334.358,-64.941,-17.090,-125.488,-39.062,0.000,0
28334.361,-57.617,-32.715,-270.996,4.395,0.000,0
28334.365,-65.430,-58.594,-169.434,-32.715,0.000,0
28334.369,-83.496,-38.086,-111.328,-28.809,0.000,0
28334.373,-121.094,-59.082,-98.633,-99.609,0.000,0
28334.377,-96.680,-43.945,-157.715,-83.984,0.000,0
28334.381,-80.078,-25.879,-145.996,-39.062,0.000,0
28334.385,-91.309,-22.461,-158.203,-0.488,0.000,0
28334.389,-100.098,-21.484,-175.293,-0.488,0.000,0
28334.393,-85.938,-45.898,-145.508,-67.871,0.000,0
28334.397,-85.938,-30.762,-95.703,-41.504,0.000,0
28334.400,-95.215,-23.438,-113.281,-34.668,0.000,0
28334.404,-76.172,-31.738,-209.961,-47.852,0.000,0
28334.408,-113.281,-49.805,-80.078,-89.844,0.000,0
28334.412,-117.676,-60.547,5.859,-139.160,0.000,0
28334.416,-68.848,-35.645,-94.727,-87.402,0.000,0
28334.420,-89.844,-39.551,-154.785,-56.641,0.000,0
28334.424,-110.352,-38.574,-139.648,-36.621,0.000,0
28334.428,-104.980,-63.965,-34.668,-82.520,0.000,0
28334.432,-96.680,-60.059,-27.832,-92.773,0.000,0
28334.436,-63.965,-7.812,-125.488,-13.184,0.000,0
28334.440,-49.805,1.465,-63.477,-6.836,0.000,0
28334.443,-60.547,-19.531,-39.551,-16.602,0.000,0
28334.447,-64.941,-52.734,-132.324,-62.988,0.000,0
28334.451,-119.629,-55.664,-54.688,-116.699,0.000,0
28334.455,-150.879,-45.898,-27.344,-109.375,0.000,0
28334.459,-110.352,-36.133,-122.559,-41.504,0.000,0
28334.463,-62.500,-53.223,-220.703,-21.973,0.000,0
28334.467,-79.590,-79.102,-143.555,-67.383,0.000,0
28334.471,-133.301,-66.406,-65.918,-91.797,0.000,0
28334.475,-112.793,-51.270,-143.555,-74.219,0.000,0
28334.479,-85.938,-53.711,-105.469,-69.824,0.000,0
28334.483,-73.242,-26.855,-85.938,-20.508,0.000,0
28334.486,-41.504,16.113,-39.551,47.363,0.000,0
28334.490,-40.527,-8.789,-17.578,-24.902,0.000,0
28334.494,-33.203,-20.996,-149.414,-31.250,0.000,0
28334.498,-32.227,3.906,-105.957,21.973,0.000,0
28334.502,-26.855,17.090,-68.359,5.859,0.000,0
28334.506,-46.387,9.766,-89.844,-7.324,0.000,0
28334.510,-63.965,-18.066,-31.250,-48.340,0.000,0
28334.514,-27.832,2.441,-19.043,-41.504,0.000,0
28334.518,-3.906,31.738,-29.785,-2.930,0.000,0
28334.522,9.277,41.016,-99.121,27.832,0.000,0
28334.525,-11.719,28.320,-95.215,35.645,0.000,0
28334.529,-37.598,7.812,49.316,-16.113,0.000,0
28334.533,9.277,44.434,4.883,19.531,0.000,0
28334.537,43.457,53.223,-136.719,57.129,0.000,0
28334.541,6.348,25.391,-128.906,16.602,0.000,0
28334.545,-29.785,40.527,27.832,38.086,0.000,0
28334.549,-29.785,36.621,107.910,8.789,0.000,0
28334.553,16.113,29.785,-91.309,-11.719,0.000,0
28334.557,-2.441,10.742,-43.457,-33.203,0.000,0
28334.561,5.371,22.461,60.547,20.996,0.000,0
28334.565,46.875,54.688,-57.617,107.422,0.000,0
28334.568,-0.977,30.273,-5.859,30.273,0.000,0
28334.572,1.465,40.527,-24.414,49.316,0.000,0
28334.576,-0.488,35.645,-44.922,78.125,0.000,0
28334.580,19.043,10.742,-47.852,30.273,0.000,0
28334.584,25.879,0.000,-126.465,18.555,0.000,0
28334.588,-34.180,-20.508,-78.125,-35.156,0.000,0
28334.592,-30.762,-27.832,-44.922,-68.848,0.000,0
28334.596,-4.883,-20.996,-98.145,-22.461,0.000,0
28334.600,-14.648,-33.203,-160.156,-17.578,0.000,0
28334.604,-29.785,-36.621,-135.254,-40.527,0.000,0
28334.608,-53.711,-49.805,-36.621,-84.473,0.000,0
28334.611,-36.621,-51.270,-84.961,-69.824,0.000,0
28334.615,-33.203,-48.828,-115.723,-49.805,0.000,0
28334.619,-43.945,-42.969,-31.250,-65.430,0.000,0
28334.623,-41.992,-25.391,8.301,-44.434,0.000,0
28334.627,-51.758,-67.871,-3.906,-120.117,0.000,0
28334.631,-29.297,-54.688,36.133,-113.770,0.000,0
28334.635,13.184,3.418,67.383,-1.465,0.000,0
28334.639,-17.090,-6.348,-20.508,7.324,0.000,0
28334.643,-34.180,-53.711,-143.555,-34.180,0.000,0
28334.647,-25.391,-87.402,-34.668,-104.980,0.000,0
28334.650,-15.625,-58.594,21.484,-92.773,0.000,0
28334.654,10.254,-12.695,-96.191,-16.113,0.000,1
28334.658,-11.230,-37.598,-25.391,-58.594,0.000,0
28334.662,-7.324,-40.039,-59.082,-35.156,0.000,0
28334.666,-2.441,-33.691,-99.121,-7.812,0.000,0
28334.670,12.207,-11.230,27.832,-27.832,0.000,0
28334.674,39.551,26.367,-73.242,44.434,0.000,0
28334.678,20.996,5.859,-92.285,46.875,0.000,0
28334.682,25.879,27.344,27.344,51.758,0.000,0
28334.686,11.719,6.836,86.914,-12.207,0.000,0
28334.690,15.625,-15.137,-17.090,-59.570,0.000,0
28334.693,-22.949,-11.230,29.297,-68.848,0.000,0
28334.697,-16.113,-22.461,48.340,-69.824,0.000,0
28334.701,63.965,15.137,-155.273,49.316,0.000,0
28334.705,-1.465,-36.621,-98.145,-33.203,0.000,0
28334.709,-29.297,-44.434,3.418,-83.984,0.000,0
28334.713,10.254,2.930,-57.617,26.367,0.000,0
28334.717,3.906,-31.738,-89.355,-0.488,0.000,0
28334.721,17.090,-42.969,-208.008,-33.691,0.000,0
28334.725,-18.066,-42.480,-38.574,-58.594,0.000,0
28334.729,-44.434,-45.898,134.277,-96.191,0.000,0
28334.733,16.602,-39.551,-82.031,-76.660,0.000,0
28334.736,20.996,-28.320,-80.078,-38.574,0.000,0
28334.740,4.883,-20.020,-52.734,-0.488,0.000,0
28334.744,15.137,-54.199,29.785,-65.430,0.000,0
28334.748,-6.836,-48.340,88.379,-81.543,0.000,0
28334.752,-5.371,-29.785,-104.980,-20.996,0.000,0
28334.756,10.254,-44.922,-120.605,-27.344,0.000,0
28334.760,7.324,-24.414,48.340,-9.277,0.000,0
28334.764,-0.977,-17.090,47.363,5.371,0.000,0
28334.768,4.395,-27.832,12.207,-38.086,0.000,0
28334.772,-3.906,5.859,83.496,-20.508,0.000,0
28334.775,22.949,12.207,-1.465,48.340,0.000,0
28334.779,51.270,-37.598,-142.090,26.367,0.000,0
28334.783,-3.906,-49.805,1.465,-21.973,0.000,0
28334.787,-20.020,-22.461,58.105,-14.160,0.000,0
28334.791,19.043,-9.766,-72.754,29.297,0.000,0
28334.795,6.348,-43.457,-49.805,-7.812,0.000,0
28334.799,-0.488,-22.461,30.273,-2.930,0.000,0
28334.803,27.344,6.836,52.734,6.836,0.000,0
28334.807,11.230,-19.531,29.785,-65.918,0.000,0
28334.811,11.719,-15.625,-0.977,-51.270,0.000,0
28334.815,34.180,2.441,-16.602,8.301,0.000,0
28334.818,26.367,1.953,-66.406,5.371,0.000,0
28334.822,5.371,-9.766,-125.488,-14.160,0.000,0
28334.826,-13.672,-32.715,-36.133,-65.430,0.000,0
28334.830,10.742,-17.578,-5.859,-51.270,0.000,0
28334.834,9.766,10.742,-22.949,-19.043,0.000,0
28334.838,31.250,22.461,-100.098,11.230,0.000,0
28334.842,20.508,1.953,-114.258,25.391,0.000,0
28334.846,-22.461,-29.297,-16.602,-48.828,0.000,0
28334.850,32.715,-8.301,-77.148,-13.672,0.000,0
28334.854,41.504,2.930,-129.883,39.062,0.000,0
28334.858,-36.621,-36.133,-111.816,-2.441,0.000,0
28334.861,-62.988,-42.480,-5.371,-7.812,0.000,0
28334.865,-51.758,-45.410,37.109,-48.340,0.000,0
28334.869,-5.859,-30.762,-110.840,-40.527,0.000,0
28334.873,2.930,-1.465,-71.777,-7.812,0.000,0
28334.877,-2.441,7.324,-78.613,33.203,0.000,0
28334.881,-10.742,-28.320,-149.902,39.062,0.000,0
28334.885,-55.664,-69.824,-103.516,-57.617,0.000,0
28334.889,-30.273,-32.227,-91.309,-20.508,0.000,0
28334.893,-6.836,-26.367,-81.055,26.367,0.000,0
28334.897,-37.109,-59.082,-99.121,-34.668,0.000,0
28334.900,-52.734,-51.758,-95.215,-34.180,0.000,0
28334.904,-117.188,-82.520,5.859,-103.027,0.000,0
28334.908,-80.566,-104.980,2.930,-164.062,0.000,0
28334.912,-30.762,-79.102,-131.348,-90.332,0.000,0
28334.916,-98.633,-72.754,-144.531,-43.945,0.000,0
28334.920,-108.398,-74.219,-94.238,-43.457,0.000,0
28334.924,-124.512,-92.285,-7.812,-96.680,0.000,0
28334.928,-119.141,-111.816,-116.211,-114.258,0.000,0
28334.932,-99.121,-142.090,-307.129,-124.512,0.000,0
28334.936,-96.191,-116.211,-182.617,-104.492,0.000,0
28334.940,-97.168,-83.984,-97.168,-60.059,0.000,0
28334.943,-104.492,-131.348,-92.773,-141.602,0.000,0
28334.947,-93.262,-120.117,-69.336,-156.738,0.000,0
28334.951,-100.586,-68.848,-58.105,-59.570,0.000,0
28334.955,-104.492,-93.262,-180.176,-51.270,0.000,0
28334.959,-81.055,-125.977,-266.602,-87.402,0.000,0
28334.963,-106.934,-136.719,-90.332,-144.531,0.000,0
28334.967,-80.078,-92.773,-12.695,-130.371,0.000,0
28334.971,-33.203,-53.223,-52.734,-61.035,0.000,0
28334.975,-69.336,-105.469,-35.645,-135.254,0.000,0
28334.979,-24.414,-63.965,-53.223,-60.059,0.000,0
28334.983,-15.625,-50.293,18.555,-41.992,0.000,0
28334.986,-44.922,-64.453,40.527,-84.961,0.000,0
28334.990,0.977,-39.551,-89.355,-0.488,0.000,0
28334.994,-9.766,-54.199,-101.562,-8.789,0.000,0
28334.998,-24.902,-39.062,-32.227,-20.020,0.000,0
28335.002,-39.551,-66.895,-19.043,-103.027,0.000,0
28335.006,-22.949,-87.402,-152.344,-151.855,0.000,0
28335.010,41.504,-35.156,-30.762,-69.824,0.000,0
28335.014,13.672,-11.719,106.445,-39.551,0.000,0
28335.018,-2.930,-22.949,-127.930,-7.812,0.000,0
28335.022,-10.742,-58.594,-80.566,-71.777,0.000,0
28335.025,-42.480,-66.895,41.504,-112.793,0.000,0
28335.029,4.883,-33.203,-66.406,-16.602,0.000,0
28335.033,35.645,-52.246,-142.578,-22.949,0.000,0
28335.037,-0.977,-46.387,-131.836,-21.973,0.000,0
28335.041,-40.039,-54.199,-81.543,-51.270,0.000,0
28335.045,-30.273,-51.758,-28.320,-80.566,0.000,0
28335.049,-8.301,-21.973,-65.918,-41.016,0.000,0
28335.053,-34.668,-7.812,-101.562,5.371,0.000,0
28335.057,-60.547,-31.738,-60.547,-14.160,0.000,0
28335.061,-69.336,-84.961,-57.617,-125.488,0.000,0
28335.065,-20.508,-38.574,-134.766,-52.734,0.000,0
28335.068,14.648,11.230,-135.742,36.133,0.000,0
28335.072,10.254,-12.207,-80.078,-4.395,0.000,0
28335.076,-32.715,-46.875,-3.418,-69.824,0.000,0
28335.080,-63.965,-62.012,-95.703,-105.957,0.000,0
28335.084,-1.953,7.812,-61.035,-27.344,0.000,0
28335.088,24.902,43.457,-4.395,25.391,0.000,0
28335.092,-18.066,2.441,-97.168,20.020,0.000,0
28335.096,-25.879,-36.133,-186.523,-9.277,0.000,0
28335.100,-34.668,-12.207,45.410,-27.832,0.000,0
28335.104,-13.672,25.391,-15.137,22.949,0.000,0
28335.108,-4.395,7.324,-183.105,28.809,0.000,0
28335.111,-22.461,-3.418,-62.988,14.648,0.000,0
28335.115,-17.578,10.742,-26.367,39.551,0.000,0
28335.119,-31.250,-3.906,-15.137,-7.324,0.000,0
28335.123,-31.738,-7.324,-28.809,-32.715,0.000,0
28335.127,-10.742,7.812,-34.180,20.508,0.000,0
28335.131,-4.395,-2.441,-68.848,34.180,0.000,0
28335.135,-27.344,-6.348,-111.816,27.832,0.000,0
28335.139,-76.660,-23.438,-45.898,-2.441,0.000,0
28335.143,-85.938,-27.832,37.109,-33.203,0.000,0
28335.147,-56.152,-0.977,86.426,-5.371,0.000,0
28335.150,-33.691,-18.066,-50.781,-24.414,0.000,0
28335.154,-29.785,-21.484,-139.648,6.348,0.000,0
28335.158,-46.875,-41.016,19.531,-15.625,0.000,0
28335.162,-44.922,-40.527,83.008,-53.711,0.000,0
28335.166,-10.742,-7.812,-45.410,13.184,0.000,0
28335.170,3.418,-6.836,-86.914,15.625,0.000,0
28335.174,-38.574,-24.414,22.461,-14.160,0.000,0
28335.178,-62.012,-60.547,174.805,-83.496,0.000,0
28335.182,-21.973,-33.203,82.031,-69.336,0.000,0
28335.186,7.324,8.301,23.926,-11.230,0.000,0
28335.190,-8.789,8.301,127.930,0.000,0.000,0
28335.193,3.906,2.441,31.738,37.598,0.000,0
28335.197,-1.953,-29.785,-24.902,2.930,0.000,0
28335.201,-41.992,-24.902,16.602,-14.160,0.000,0
28335.205,-34.668,4.395,-24.414,48.828,0.000,0
28335.209,-25.391,-31.250,-59.570,25.879,0.000,0
28335.213,-31.250,-42.480,-30.273,-1.953,0.000,0
28335.217,-61.035,-40.039,46.387,-21.973,0.000,0
28335.221,-71.777,-42.480,90.332,-50.781,0.000,0
28335.225,-1.953,-34.180,54.199,-22.461,0.000,0
28335.229,1.465,-31.738,34.668,2.441,0.000,0
28335.233,-27.344,-10.254,62.500,50.293,0.000,0
28335.236,-25.391,15.625,138.672,58.105,0.000,0
28335.240,-3.906,-9.277,32.227,-0.488,0.000,0
28335.244,9.766,-13.672,-78.613,38.574,0.000,0
28335.248,5.859,-14.160,-30.273,48.828,0.000,0
28335.252,22.461,-2.930,-57.129,35.645,0.000,0
28335.256,0.977,-20.508,-75.684,-1.953,0.000,0
28335.260,-7.812,-37.109,-23.926,-68.359,0.000,0
28335.264,9.277,4.883,7.324,-28.320,0.000,0
28335.268,0.488,10.742,-62.012,21.973,0.000,0
28335.272,-6.836,-6.348,-135.742,25.879,0.000,0
28335.275,-20.020,-19.043,-33.691,3.418,0.000,0
28335.279,-55.664,-38.574,143.555,-59.570,0.000,0
28335.283,14.160,-8.789,27.344,-21.973,0.000,0
28335.287,8.789,-15.625,-56.641,-24.902,0.000,0
28335.291,-25.391,-15.625,11.719,-15.625,0.000,0
28335.295,-18.066,17.090,58.105,68.359,0.000,0
28335.299,-38.086,-27.344,1.465,-22.461,0.000,0
28335.303,-8.789,-28.809,-54.688,-39.062,0.000,0
28335.307,-18.555,-21.484,26.367,2.441,0.000,0
28335.311,-16.602,-9.766,17.090,21.484,0.000,0
28335.315,-5.859,-11.719,-0.488,9.277,0.000,0
28335.318,-29.785,-30.762,9.277,-51.758,0.000,0
28335.322,-4.395,-16.602,-49.805,-34.668,0.000,1
28335.326,-5.859,-23.926,3.906,-31.738,0.000,0
28335.330,-37.109,-4.883,10.254,2.930,0.000,0
28335.334,-17.578,-7.324,-83.496,19.043,0.000,0
28335.338,-43.945,-35.645,49.316,-71.289,0.000,0
28335.342,-47.363,1.953,91.797,-25.391,0.000,0
28335.346,-7.812,-14.648,-108.887,-3.418,0.000,0
28335.350,-7.324,-28.809,-134.766,-21.973,0.000,0
28335.354,-11.230,5.371,41.992,0.000,0.000,0
28335.358,-20.508,-16.602,165.039,-76.172,0.000,0
28335.361,12.695,-0.977,34.180,-50.293,0.000,0
28335.365,42.480,23.926,8.789,-5.371,0.000,0
28335.369,5.859,38.086,33.691,28.320,0.000,0
28335.373,-9.766,29.785,-10.742,46.875,0.000,0
28335.377,-10.254,-10.254,0.000,-24.414,0.000,0
28335.381,0.488,-6.348,-42.480,-29.785,0.000,0
28335.385,35.645,55.664,7.812,76.172,0.000,0
28335.389,22.461,20.996,-20.508,22.461,0.000,0
28335.393,11.230,-13.672,-24.414,-31.738,0.000,0
28335.397,-7.812,-28.809,27.832,-58.594,0.000,0
28335.400,-8.789,-27.344,57.617,-119.629,0.000,0
28335.404,64.941,53.711,-64.453,39.551,0.000,0
28335.408,79.590,65.430,-139.160,145.020,0.000,0
28335.412,12.695,12.695,28.809,39.551,0.000,0
28335.416,1.465,23.438,77.148,25.879,0.000,0
28335.420,30.762,56.152,-33.203,104.004,0.000,0
28335.424,27.832,21.973,-55.176,61.523,0.000,0
28335.428,15.625,33.691,48.828,57.617,0.000,0
28335.432,1.953,23.926,69.824,27.344,0.000,0
28335.436,27.832,-13.184,-43.457,-41.016,0.000,0
28335.440,38.086,2.930,-33.691,-17.578,0.000,0
28335.443,20.508,11.230,-7.324,19.043,0.000,0
28335.447,0.977,2.441,-105.957,33.203,0.000,0
28335.451,-36.133,-17.578,-72.754,-10.254,0.000,0
28335.455,-49.316,-28.809,37.109,-40.039,0.000,0
28335.459,-21.973,-35.645,-133.301,-16.113,0.000,0
28335.463,-9.766,-31.250,-139.648,-20.996,0.000,0
28335.467,-0.977,10.254,17.578,19.043,0.000,0
28335.471,4.883,16.602,81.543,27.832,0.000,0
28335.475,32.715,-0.488,128.418,-33.691,0.000,0
28335.479,60.059,1.465,-42.480,-13.184,0.000,0
28335.483,-3.906,5.371,-119.629,24.414,0.000,0
28335.486,-37.598,-12.695,-100.098,-2.441,0.000,0
28335.490,-56.152,-52.734,37.109,-68.359,0.000,0
28335.494,-65.918,-88.379,17.090,-134.277,0.000,0
28335.498,-20.020,-65.918,-200.684,-94.238,0.000,0
28335.502,-25.879,-25.879,-81.543,-43.457,0.000,0
28335.506,-37.109,-14.648,-1.465,-7.812,0.000,0
28335.510,-15.137,-21.484,-52.734,10.254,0.000,0
28335.514,-37.598,-34.180,13.184,-46.387,0.000,0
28335.518,-63.965,9.766,61.035,0.000,0.000,0
28335.522,-39.551,3.418,-58.105,35.156,0.000,0
28335.525,21.973,-55.176,-194.336,-34.668,0.000,0
28335.529,-23.926,-46.875,-81.543,-44.922,0.000,0
28335.533,-60.547,-14.160,60.547,-49.805,0.000,0
28335.537,-5.371,-5.859,8.301,-54.199,0.000,0
28335.541,-4.395,-23.926,-45.410,-60.547,0.000,0
28335.545,-2.930,-7.812,-26.855,-19.043,0.000,0
28335.549,-13.184,-2.441,-53.711,13.672,0.000,0
28335.553,-54.688,-39.062,-70.312,-66.895,0.000,0
28335.557,-48.340,-36.133,-82.520,-62.012,0.000,0
28335.561,-53.223,-12.207,-42.480,-5.371,0.000,0
28335.565,-78.125,-18.066,-34.180,-13.672,0.000,0
28335.568,-73.242,-35.645,-164.551,-33.691,0.000,0
28335.572,-34.180,-61.035,-93.262,-92.285,0.000,0
28335.576,9.277,-41.504,-2.441,-82.520,0.000,0
28335.580,-15.625,0.000,-42.480,-10.254,0.000,0
28335.584,-34.668,11.230,-98.633,22.461,0.000,0
28335.588,-33.691,-11.230,-115.234,8.789,0.000,0
28335.592,-107.910,-76.172,67.383,-116.699,0.000,0
28335.596,-109.375,-80.566,-16.113,-118.652,0.000,0
28335.600,-52.734,-54.688,-306.641,-15.625,0.000,0
28335.604,-62.988,-60.547,-164.062,-40.527,0.000,0
28335.608,-72.754,-34.668,57.129,-12.695,0.000,0
28335.611,-80.566,-46.875,37.109,-65.430,0.000,0
28335.615,-41.992,-41.992,-104.004,-102.539,0.000,0
28335.619,-26.855,-12.695,-125.488,-26.855,0.000,0
28335.623,-42.480,-17.578,-91.797,4.395,0.000,0
28335.627,-40.039,-32.227,-117.188,-25.391,0.000,0
28335.631,-45.898,-47.363,-54.199,-74.219,0.000,0
28335.635,-56.641,-33.203,-54.688,-41.504,0.000,0
28335.639,-48.340,-29.297,-120.605,-24.902,0.000,0
28335.643,-64.941,-49.805,-104.492,-56.641,0.000,0
28335.647,-80.078,-40.527,-104.492,-37.598,0.000,0
28335.650,-82.520,-39.062,-19.043,-83.496,0.000,0
28335.654,-65.918,-14.160,63.477,-84.473,0.000,0
28335.658,-6.836,12.695,-38.574,-8.789,0.000,0
28335.662,21.484,-5.371,-143.555,-5.371,0.000,0
28335.666,10.742,34.668,8.301,41.504,0.000,0
28335.670,-50.781,24.902,182.617,-1.953,0.000,0
28335.674,-19.531,-13.184,31.250,-65.918,0.000,0
28335.678,52.246,26.855,-22.949,-14.160,0.000,0
28335.682,39.062,47.363,76.172,12.207,0.000,0
28335.686,42.480,65.918,8.789,69.824,0.000,0
28335.690,33.691,30.273,54.199,20.996,0.000,0
28335.693,21.973,22.461,164.062,-25.879,0.000,0
28335.697,18.555,56.641,108.887,13.184,0.000,0
28335.701,46.875,84.473,-13.672,89.844,0.000,0
28335.705,42.969,62.500,-41.016,103.027,0.000,0
28335.709,1.465,-10.254,34.668,-15.625,0.000,0
28335.713,11.230,13.184,126.465,-19.531,0.000,0
28335.717,27.344,46.875,30.762,39.062,0.000,0
28335.721,20.996,14.160,-78.613,16.602,0.000,0
28335.725,51.270,34.668,-30.762,65.430,0.000,0
28335.729,24.414,10.742,104.004,19.531,0.000,0
28335.733,4.883,6.836,105.957,-17.090,0.000,0
28335.736,58.594,45.410,-25.879,61.035,0.000,0
28335.740,53.711,25.391,37.598,43.457,0.000,0
28335.744,47.363,28.320,104.492,37.109,0.000,0
28335.748,29.297,12.695,63.965,34.180,0.000,0
28335.752,-17.578,-22.461,28.320,-33.203,0.000,0
28335.756,-37.109,-19.043,95.703,-59.570,0.000,0
28335.760,-22.949,-12.695,102.051,-26.367,0.000,0
28335.764,-0.488,-33.203,-69.824,-9.766,0.000,0
28335.768,-10.742,-47.852,1.953,-45.898,0.000,0
28335.772,-19.531,-48.828,124.512,-68.359,0.000,0
28335.775,25.391,-14.160,17.090,7.324,0.000,0
28335.779,36.621,-10.254,-4.883,2.930,0.000,0
28335.783,33.691,3.906,19.531,10.254,0.000,0
28335.787,29.297,-17.090,88.379,-16.602,0.000,0
28335.791,43.457,-43.945,146.484,-81.055,0.000,0
28335.795,32.715,-7.324,87.402,-21.973,0.000,0
28335.799,29.297,-5.371,67.383,-0.977,0.000,0
28335.803,69.824,31.250,124.512,68.359,0.000,0
28335.807,55.176,19.043,154.297,55.664,0.000,0
28335.811,58.105,-19.531,127.441,-31.250,0.000,0
28335.815,71.777,19.043,106.445,24.414,0.000,0
28335.818,66.895,22.461,94.727,30.273,0.000,0
28335.822,65.918,-1.465,83.008,1.953,0.000,0
28335.826,60.059,-11.719,102.051,-10.742,0.000,0
28335.830,46.387,-8.301,191.406,-46.875,0.000,0
28335.834,47.852,20.996,156.250,-13.184,0.000,0
28335.838,42.969,14.160,85.938,19.043,0.000,0
28335.842,36.133,-13.184,82.520,-8.301,0.000,0
28335.846,43.457,8.789,147.949,16.602,0.000,0
28335.850,5.371,15.625,185.059,-4.395,0.000,0
28335.854,44.922,-6.836,1.953,-41.992,0.000,0
28335.858,76.660,-7.324,6.836,-35.156,0.000,0
28335.861,22.461,7.812,60.547,4.883,0.000,0
28335.865,-2.441,14.160,-2.930,32.715,0.000,0
28335.869,-17.090,-10.742,23.926,-40.039,0.000,0
28335.873,-8.789,-15.137,-12.207,-27.344,0.000,0
28335.877,9.277,-3.906,-59.570,21.484,0.000,0
28335.881,5.371,-3.906,-40.527,1.953,0.000,0
28335.885,0.488,-5.371,-30.273,-5.859,0.000,0
28335.889,-39.062,-40.039,37.598,-65.430,0.000,0
28335.893,-38.086,-21.973,104.492,-53.223,0.000,0
28335.897,17.578,19.531,41.016,9.766,0.000,0
28335.900,20.020,-18.555,-31.738,-30.762,0.000,0
28335.904,-52.734,-51.758,-84.961,-50.293,0.000,0
28335.908,-48.340,-43.457,-100.098,-41.016,0.000,0
28335.912,-18.066,-26.367,-61.523,-20.020,0.000,0
28335.916,-6.348,-24.902,-153.809,6.348,0.000,0
28335.920,-35.156,-41.016,-101.562,-15.137,0.000,0
28335.924,-78.125,-57.617,-56.152,-31.250,0.000,1
28335.928,-102.539,-92.285,-55.176,-103.027,0.000,0
28335.932,-109.375,-86.914,-75.684,-111.816,0.000,0
28335.936,-89.844,-65.430,-105.469,-53.711,0.000,0
28335.940,-97.168,-75.684,-115.723,-43.945,0.000,0
28335.943,-70.312,-86.426,-199.707,-53.711,0.000,0
28335.947,-44.434,-87.402,-139.160,-100.098,0.000,0
28335.951,-44.922,-49.805,-87.402,-64.941,0.000,0
28335.955,-75.195,-50.781,-133.789,-31.738,0.000,0
28335.959,-93.262,-69.336,-134.766,-66.895,0.000,0
28335.963,-71.289,-39.062,-99.609,-45.898,0.000,0
28335.967,-91.797,-42.969,-17.578,-82.520,0.000,0
28335.971,-65.430,-31.738,-16.113,-76.172,0.000,0
28335.975,-6.836,6.348,-67.871,16.113,0.000,0
28335.979,-2.441,14.648,-46.387,41.016,0.000,0
28335.983,-22.949,32.227,32.715,48.828,0.000,0
28335.986,-64.941,-15.625,81.543,-31.250,0.000,0
28335.990,-46.387,-51.758,16.602,-84.473,0.000,0
28335.994,-5.859,-11.719,-13.672,-29.297,0.000,0
28335.998,-11.230,17.578,-27.832,8.789,0.000,0
28336.002,-0.977,36.621,26.855,33.691,0.000,0
28336.006,-29.785,-16.602,38.086,-47.363,0.000,0
28336.010,0.000,1.953,-62.012,-27.832,0.000,0
28336.014,76.660,91.309,36.133,113.770,0.000,0
28336.018,61.523,83.984,4.883,125.977,0.000,0
28336.022,50.781,57.129,-50.781,91.797,0.000,0
28336.025,14.648,16.113,105.957,17.578,0.000,0
28336.029,3.418,18.555,165.039,-11.719,0.000,0
28336.033,36.133,61.035,24.902,45.898,0.000,0
28336.037,31.738,39.551,-19.531,34.180,0.000,0
28336.041,47.363,53.711,47.852,86.914,0.000,0
28336.045,23.926,40.527,167.480,34.180,0.000,0
28336.049,28.320,34.180,115.723,-20.996,0.000,0
28336.053,76.660,68.848,5.371,78.125,0.000,0
28336.057,35.645,22.949,23.438,53.223,0.000,0
28336.061,20.508,6.836,21.973,21.484,0.000,0
28336.065,35.156,-12.207,60.547,-28.809,0.000,0
28336.068,-10.742,-26.367,67.871,-72.266,0.000,0
28336.072,-36.133,-7.812,36.133,-29.297,0.000,0
28336.076,-41.504,-23.438,54.688,-27.344,0.000,0
28336.080,-26.855,-30.762,-67.871,2.930,0.000,0
28336.084,-57.617,-75.684,-59.570,-68.848,0.000,0
28336.088,-114.258,-91.797,96.191,-121.582,0.000,0
28336.092,-75.195,-66.406,-50.781,-39.551,0.000,0
28336.096,-44.434,-99.121,-184.082,-72.754,0.000,0
28336.100,-81.055,-86.426,-132.324,-74.707,0.000,0
28336.104,-107.422,-93.750,-28.809,-102.051,0.000,0
28336.108,-107.422,-121.094,15.137,-179.199,0.000,0
28336.111,-68.848,-76.660,-68.848,-102.051,0.000,0
28336.115,-51.270,-56.152,-87.402,-40.039,0.000,0
28336.119,-44.922,-69.336,-118.652,-47.363,0.000,0
28336.123,-49.316,-78.613,-63.965,-61.035,0.000,0
28336.127,-56.641,-74.707,-36.621,-70.312,0.000,0
28336.131,-21.484,-43.457,-43.457,-31.738,0.000,0
28336.135,-15.137,-16.602,40.527,5.371,0.000,0
28336.139,-10.254,-45.898,-26.367,-21.973,0.000,0
28336.143,-12.207,-59.082,4.395,-42.969,0.000,0
28336.147,-28.809,-62.012,95.703,-84.961,0.000,0
28336.150,-23.438,-37.109,16.113,-62.012,0.000,0
28336.154,-43.945,-46.387,-41.992,-36.133,0.000,0
28336.158,-12.207,-57.617,-38.574,-41.992,0.000,0
28336.162,-22.461,-48.828,28.809,-49.316,0.000,0
28336.166,-59.570,-36.621,82.031,-68.359,0.000,0
28336.170,-17.090,-17.090,38.086,-47.363,0.000,0
28336.174,-27.832,-29.785,29.785,-46.875,0.000,0
28336.178,-35.156,-0.977,97.656,-2.441,0.000,0
28336.182,0.488,11.230,32.227,37.109,0.000,0
28336.186,-6.836,-26.855,-51.270,-43.945,0.000,0
28336.190,5.859,-11.230,14.160,-32.227,0.000,0
28336.193,12.695,-4.883,5.371,29.785,0.000,0
28336.197,-6.348,-35.156,-40.039,0.977,0.000,0
28336.201,-32.715,-35.156,-16.113,-19.531,0.000,0
28336.205,-42.480,-37.109,90.332,-59.570,0.000,0
28336.209,-50.293,-39.062,132.812,-88.379,0.000,0
28336.213,-33.691,-7.324,58.105,-33.203,0.000,0
28336.217,4.395,15.625,-9.277,23.438,0.000,0
28336.221,-4.395,17.090,30.273,38.574,0.000,0
28336.225,-43.945,-8.301,141.602,-26.855,0.000,0
28336.229,-30.762,-21.973,3.906,-37.109,0.000,0
28336.233,12.695,1.465,-96.191,34.668,0.000,0
28336.236,-19.043,-11.230,-0.977,14.648,0.000,0
28336.240,-54.199,-36.133,51.758,-14.160,0.000,0
28336.244,-50.781,-53.711,43.945,-60.059,0.000,0
28336.248,-19.531,-23.926,14.648,-55.664,0.000,0
28336.252,-20.996,11.719,38.086,-2.441,0.000,0
28336.256,-18.066,-1.953,11.230,10.742,0.000,0
28336.260,7.812,3.418,-9.277,28.320,0.000,0
28336.264,-56.641,-48.340,34.180,-63.965,0.000,0
28336.268,-45.410,-15.137,98.145,-41.992,0.000,0
28336.272,7.324,34.180,59.082,41.992,0.000,0
28336.275,13.184,-15.625,-47.363,-15.137,0.000,0
28336.279,-1.465,-17.578,-16.113,-7.324,0.000,0
28336.283,-45.898,-43.945,28.320,-64.941,0.000,0
28336.287,-68.359,-57.617,0.000,-100.098,0.000,0
28336.291,-80.566,-57.617,-68.359,-56.152,0.000,0
28336.295,-63.965,-39.062,-57.617,-0.977,0.000,0
28336.299,-50.781,-28.809,-51.270,12.695,0.000,0
28336.303,-76.172,-63.477,-31.250,-83.984,0.000,0
28336.307,-67.383,-55.664,-37.109,-81.055,0.000,0
28336.311,-77.148,-48.340,-60.059,-37.109,0.000,0
28336.315,-102.539,-55.664,-23.926,-65.430,0.000,0
28336.318,-55.664,-30.762,-135.742,-31.250,0.000,0
28336.322,-49.316,-80.566,-101.074,-98.633,0.000,0
28336.326,-91.797,-84.961,12.207,-125.977,0.000,0
28336.330,-57.129,-31.738,-42.480,-34.180,0.000,0
28336.334,-29.785,-35.156,-105.957,-16.113,0.000,0
28336.338,-37.109,-49.805,-63.477,-25.391,0.000,0
28336.342,-76.660,-71.289,99.609,-88.379,0.000,0
28336.346,-76.660,-52.734,117.676,-100.586,0.000,0
28336.350,0.977,-16.602,-32.715,-31.250,0.000,0
28336.354,-12.695,-26.367,-28.809,-28.320,0.000,0
28336.358,-42.480,-4.395,71.777,32.715,0.000,0
28336.361,-39.551,-38.574,92.285,-23.926,0.000,0
28336.365,-18.066,-55.664,-6.348,-96.680,0.000,0
28336.369,-27.344,-11.230,-62.012,-13.184,0.000,0
28336.373,-65.918,-38.086,-30.273,-24.902,0.000,0
28336.377,-26.367,-36.621,-52.734,-24.414,0.000,0
28336.381,-67.871,-65.430,8.789,-87.402,0.000,0
28336.385,-89.844,-65.918,41.504,-120.605,0.000,0
28336.389,-30.762,-26.367,10.742,-44.434,0.000,0
28336.393,-52.246,-43.945,-1.465,-54.688,0.000,0
28336.397,-71.777,-50.781,-68.848,-42.969,0.000,0
28336.400,-69.336,-51.270,-50.781,-27.344,0.000,0
28336.404,-75.684,-55.176,50.781,-58.594,0.000,0
28336.408,-57.129,-37.598,20.996,-38.086,0.000,0
28336.412,-65.918,-33.691,-27.344,-21.973,0.000,0
28336.416,-42.969,-18.066,12.207,-26.367,0.000,0
28336.420,-46.875,-22.949,63.965,-41.992,0.000,0
28336.424,-69.336,-66.406,-10.254,-107.910,0.000,0
28336.428,-43.945,-50.293,-79.590,-76.660,0.000,0
28336.432,-69.824,-46.387,-38.574,-39.062,0.000,0
28336.436,-71.777,-38.086,-111.816,-0.488,0.000,0
28336.440,-78.613,-68.359,-56.152,-71.289,0.000,0
28336.443,-72.754,-63.477,27.344,-100.586,0.000,0
28336.447,-25.879,-2.930,-46.387,9.277,0.000,0
28336.451,-35.645,-2.441,-40.527,13.184,0.000,0
28336.455,-37.598,-15.137,-50.781,-2.930,0.000,0
28336.459,-36.133,-36.621,-20.508,-29.785,0.000,1
28336.463,-67.871,-35.645,85.938,-71.289,0.000,0
28336.467,-48.828,-5.371,-19.531,-45.410,0.000,0
28336.471,-38.574,-32.715,-149.902,-49.316,0.000,0
28336.475,-64.941,-45.898,-120.605,-28.320,0.000,0
28336.479,-94.727,-55.176,-32.715,-45.898,0.000,0
28336.483,-77.148,-56.641,-43.945,-71.777,0.000,0
28336.486,-42.480,-37.598,-147.461,-36.133,0.000,0
28336.490,-69.336,-64.453,-78.613,-60.547,0.000,0
28336.494,-75.195,-62.988,-20.508,-58.594,0.000,0
28336.498,-70.801,-57.129,-51.270,-54.688,0.000,0
28336.502,-75.684,-83.496,-86.426,-112.793,0.000,0
28336.506,-49.316,-73.730,-52.734,-104.980,0.000,0
28336.510,-60.059,-38.086,-10.742,-16.113,0.000,0
28336.514,-78.125,-64.453,-191.895,-24.902,0.000,0
28336.518,-81.055,-86.914,-151.855,-84.473,0.000,0
28336.522,-132.812,-102.051,-62.988,-121.582,0.000,0
28336.525,-115.234,-104.492,-151.855,-121.582,0.000,0
28336.529,-107.422,-111.328,-200.195,-127.930,0.000,0
28336.533,-119.141,-101.562,-208.496,-94.727,0.000,0
28336.537,-113.281,-87.891,-175.293,-50.781,0.000,0
28336.541,-129.395,-107.422,-91.797,-117.188,0.000,0
28336.545,-95.215,-74.219,-72.266,-88.379,0.000,0
28336.549,-70.801,-47.852,-158.203,-23.438,0.000,0
28336.553,-85.938,-44.922,-87.891,-25.879,0.000,0
28336.557,-62.500,-38.086,-5.859,-20.508,0.000,0
28336.561,-43.457,-48.340,-76.172,-69.336,0.000,0
28336.565,-36.133,-24.414,-91.309,-67.871,0.000,0
28336.568,-19.531,-7.324,-80.078,-40.039,0.000,0
28336.572,-28.320,-27.344,-95.703,-31.250,0.000,0
28336.576,-61.523,-38.574,-110.840,-26.367,0.000,0
28336.580,-109.375,-40.039,12.695,-79.590,0.000,0
28336.584,-108.887,-44.922,-84.473,-80.566,0.000,0
28336.588,-88.867,-63.477,-176.270,-58.594,0.000,0
28336.592,-86.914,-63.965,-39.062,-62.988,0.000,0
28336.596,-77.148,-50.293,3.906,-41.992,0.000,0
28336.600,-100.098,-56.641,56.152,-70.801,0.000,0
28336.604,-91.797,-87.402,-84.961,-126.953,0.000,0
28336.608,-80.566,-104.492,-109.863,-121.094,0.000,0
28336.611,-99.609,-95.215,-41.992,-73.730,0.000,0
28336.615,-107.422,-98.145,-102.539,-68.359,0.000,0
28336.619,-156.250,-162.109,5.859,-217.773,0.000,0
28336.623,-131.836,-149.414,-74.707,-186.523,0.000,0
28336.627,-59.082,-80.078,-175.293,-45.898,0.000,0
28336.631,-70.312,-77.148,-46.387,-61.035,0.000,0
28336.635,-118.652,-75.195,-68.848,-66.895,0.000,0
28336.639,-171.875,-138.672,-43.457,-168.945,0.000,0
28336.643,-163.574,-126.465,44.434,-189.941,0.000,0
28336.647,-86.914,-32.227,7.812,-51.758,0.000,0
28336.650,-44.434,-35.156,-151.855,-27.832,0.000,0
28336.654,-67.383,-67.871,-133.301,-60.059,0.000,0
28336.658,-114.258,-105.469,4.883,-131.836,0.000,0
28336.662,-80.078,-72.266,-21.484,-91.797,0.000,0
28336.666,-43.457,-47.852,-150.879,-47.852,0.000,0
28336.670,-65.430,-52.246,-75.195,-62.988,0.000,0
28336.674,-51.758,-28.809,3.906,-18.555,0.000,0
28336.678,-66.895,-67.871,7.324,-94.238,0.000,0
28336.682,-53.223,-69.336,-6.348,-118.164,0.000,0
28336.686,-24.902,-8.789,-16.602,-7.812,0.000,0
28336.690,-50.781,-15.137,3.418,4.395,0.000,0
28336.693,-29.785,-36.133,-83.496,-22.949,0.000,0
28336.697,-45.898,-61.035,-7.812,-77.148,0.000,0
28336.701,-98.145,-82.520,120.117,-150.391,0.000,0
28336.705,-52.246,-73.242,43.945,-135.742,0.000,0
28336.709,-43.457,-74.707,-93.750,-78.613,0.000,0
28336.713,-95.215,-91.797,-151.855,-58.105,0.000,0
28336.717,-151.855,-152.832,-123.535,-150.391,0.000,0
28336.721,-200.195,-210.449,-27.344,-282.227,0.000,0
28336.725,-204.590,-221.191,-210.938,-261.230,0.000,0
28336.729,-207.520,-242.676,-426.758,-213.379,0.000,0
28336.733,-222.656,-225.098,-233.887,-196.289,0.000,0
28336.736,-304.199,-312.500,-260.742,-322.266,0.000,0
28336.740,-323.242,-379.395,-398.438,-414.551,0.000,0
28336.744,-272.461,-315.918,-388.184,-328.613,0.000,0
28336.748,-247.070,-265.137,-265.625,-256.836,0.000,0
28336.752,-209.961,-235.840,-303.711,-183.105,0.000,0
28336.756,-253.906,-303.223,-289.062,-290.527,0.000,0
28336.760,-277.344,-318.848,-177.246,-339.355,0.000,0
28336.764,-214.844,-235.840,-278.809,-208.008,0.000,0
28336.768,-208.984,-225.098,-337.402,-206.055,0.000,0
28336.772,-229.980,-245.605,-304.199,-241.699,0.000,0
28336.775,-232.910,-226.074,-210.938,-215.332,0.000,0
28336.779,-232.910,-222.656,-144.043,-239.746,0.000,0
28336.783,-216.309,-206.055,-191.895,-239.258,0.000,0
28336.787,-196.777,-192.871,-268.555,-200.195,0.000,0
28336.791,-199.707,-181.152,-213.379,-145.996,0.000,0
28336.795,-234.375,-190.918,-104.980,-176.758,0.000,0
28336.799,-233.398,-227.539,-212.891,-244.629,0.000,0
28336.803,-196.777,-210.938,-333.984,-183.594,0.000,0
28336.807,-222.656,-238.281,-269.043,-208.984,0.000,0
28336.811,-232.910,-242.188,-266.602,-233.398,0.000,0
28336.815,-254.395,-248.047,-291.016,-256.836,0.000,0
28336.818,-303.223,-266.602,-221.680,-318.359,0.000,0
28336.822,-275.879,-234.375,-242.676,-272.461,0.000,0
28336.826,-266.602,-237.793,-194.336,-258.301,0.000,0
28336.830,-250.488,-261.230,-272.949,-273.926,0.000,0
28336.834,-244.629,-256.836,-437.500,-255.859,0.000,0
28336.838,-271.973,-225.098,-157.227,-248.535,0.000,0
28336.842,-232.910,-191.406,-146.484,-193.359,0.000,0
28336.846,-223.145,-217.285,-317.871,-208.496,0.000,0
28336.850,-222.168,-208.984,-266.602,-210.938,0.000,0
28336.854,-227.539,-194.824,-222.656,-202.148,0.000,0
28336.858,-230.469,-223.145,-198.242,-256.836,0.000,0
28336.861,-209.473,-217.285,-233.398,-243.164,0.000,0
28336.865,-191.895,-184.570,-248.535,-168.457,0.000,0
28336.869,-236.816,-207.520,-243.164,-194.824,0.000,0
28336.873,-286.133,-256.836,-241.211,-244.141,0.000,0
28336.877,-285.645,-298.828,-233.398,-297.852,0.000,0
28336.881,-284.668,-306.641,-286.133,-322.266,0.000,0
28336.885,-302.246,-274.902,-301.758,-306.641,0.000,0
28336.889,-288.574,-278.320,-383.789,-291.504,0.000,0
28336.893,-246.094,-270.508,-398.438,-244.141,0.000,0
28336.897,-258.301,-255.859,-243.164,-279.297,0.000,0
28336.900,-227.051,-209.961,-255.859,-243.652,0.000,0
28336.904,-178.223,-190.918,-324.707,-176.270,0.000,0
28336.908,-170.410,-193.848,-251.953,-180.664,0.000,0
28336.912,-139.160,-162.109,-165.527,-151.855,0.000,0
28336.916,-138.184,-145.020,-133.789,-166.016,0.000,0
28336.920,-144.531,-126.465,-125.977,-167.480,0.000,0
28336.924,-130.371,-139.160,-202.637,-158.203,0.000,0
28336.928,-127.441,-129.883,-88.379,-145.996,0.000,0
28336.932,-123.047,-105.469,-50.293,-109.375,0.000,0
28336.936,-128.418,-129.883,-227.051,-134.277,0.000,0
28336.940,-156.738,-145.508,-171.875,-141.602,0.000,0
28336.943,-152.344,-156.250,-215.332,-131.836,0.000,0
28336.947,-162.109,-181.641,-271.484,-170.410,0.000,0
28336.951,-163.574,-176.758,-267.578,-158.203,0.000,0
28336.955,-193.359,-208.496,-181.152,-224.609,0.000,0
28336.959,-202.148,-218.750,-183.594,-252.441,0.000,0
28336.963,-191.895,-202.148,-230.469,-205.566,0.000,0
28336.967,-200.684,-209.473,-273.438,-179.688,0.000,0
28336.971,-207.520,-203.125,-252.930,-160.156,0.000,0
28336.975,-246.582,-217.773,-93.262,-231.445,0.000,0
28336.979,-197.754,-203.613,-205.566,-222.168,0.000,0
28336.983,-137.695,-170.898,-291.992,-161.133,0.000,0
28336.986,-166.992,-175.293,-159.180,-177.734,0.000,0
28336.990,-172.363,-167.969,-108.398,-160.156,0.000,0
28336.994,-134.766,-158.691,-41.992,-192.383,0.000,0
28336.998,-97.168,-105.469,27.344,-166.504,0.000,0
28337.002,-91.797,-68.359,-36.133,-78.613,0.000,0
28337.006,-100.586,-116.211,-123.047,-95.703,0.000,0
28337.010,-112.305,-141.113,-126.465,-119.629,0.000,0
28337.014,-180.176,-185.547,-98.145,-203.613,0.000,0
28337.018,-179.688,-149.414,-10.254,-204.590,0.000,0
28337.022,-122.559,-101.562,-24.902,-128.906,0.000,0
28337.025,-124.023,-166.504,-166.504,-187.500,0.000,0
28337.029,-150.391,-186.523,-187.500,-178.223,0.000,0
28337.033,-224.609,-233.887,-133.789,-236.816,0.000,0
28337.037,-242.676,-249.512,-166.016,-291.016,0.000,0
28337.041,-201.172,-223.145,-265.137,-227.051,0.000,0
28337.045,-198.242,-216.797,-223.633,-190.430,0.000,0
28337.049,-179.199,-185.059,-192.871,-158.203,0.000,0
28337.053,-198.242,-200.195,-110.352,-210.938,0.000,0
28337.057,-190.430,-202.637,-43.945,-243.652,0.000,0
28337.061,-121.582,-141.602,-91.797,-165.039,0.000,0
28337.065,-119.629,-119.141,-70.801,-140.625,0.000,0
28337.068,-124.023,-118.164,-194.824,-102.539,0.000,0
28337.072,-178.223,-184.082,-161.621,-182.617,0.000,0
28337.076,-202.148,-195.801,-26.367,-235.352,0.000,0
28337.080,-213.867,-192.871,-150.879,-182.129,0.000,0
28337.084,-306.152,-307.129,-389.648,-281.250,0.000,0
28337.088,-337.402,-365.234,-484.375,-338.379,0.000,0
28337.092,-344.238,-351.074,-233.887,-339.355,0.000,0
28337.096,-322.754,-314.453,-124.512,-346.191,0.000,1
28337.100,-265.625,-258.789,-292.480,-278.809,0.000,0
28337.104,-272.949,-257.324,-286.133,-261.719,0.000,0
28337.108,-290.039,-246.094,-210.938,-221.191,0.000,0
28337.111,-313.477,-279.297,-188.477,-280.762,0.000,0
28337.115,-312.988,-287.109,-200.684,-329.590,0.000,0
28337.119,-255.859,-222.656,-261.230,-221.191,0.000,0
28337.123,-256.836,-261.719,-296.387,-253.906,0.000,0
28337.127,-272.949,-275.391,-298.828,-264.160,0.000,0
28337.131,-262.207,-264.160,-254.395,-253.418,0.000,0
28337.135,-294.434,-271.973,-188.477,-315.430,0.000,0
28337.139,-248.047,-212.891,-239.746,-251.465,0.000,0
28337.143,-181.152,-180.176,-283.691,-170.898,0.000,0
28337.147,-169.434,-165.527,-294.922,-135.742,0.000,0
28337.150,-203.613,-163.574,-248.047,-155.273,0.000,0
28337.154,-196.777,-159.668,-145.020,-181.152,0.000,0
28337.158,-115.723,-111.328,-180.176,-120.117,0.000,0
28337.162,-90.820,-104.492,-237.305,-98.145,0.000,0
28337.166,-103.516,-96.680,-150.391,-90.332,0.000,0
28337.170,-128.418,-102.051,-89.355,-99.121,0.000,0
28337.174,-125.000,-139.648,-119.141,-174.316,0.000,0
28337.178,-95.703,-109.375,-130.371,-150.879,0.000,0
28337.182,-122.070,-108.887,-167.969,-112.793,0.000,0
28337.186,-139.648,-144.043,-227.539,-127.441,0.000,0
28337.190,-150.391,-178.223,-198.730,-166.504,0.000,0
28337.193,-145.996,-166.504,-106.934,-184.570,0.000,0
28337.197,-107.910,-111.328,-97.168,-140.137,0.000,0
28337.201,-118.164,-92.285,-132.324,-108.398,0.000,0
28337.205,-77.148,-90.820,-199.707,-79.102,0.000,0
28337.209,-32.227,-68.848,-179.688,-27.832,0.000,0
28337.213,-52.246,-27.832,79.590,-26.855,0.000,0
28337.217,-23.926,16.113,86.914,0.977,0.000,0
28337.221,-12.695,-23.926,-143.066,0.488,0.000,0
28337.225,-52.246,-68.359,-106.445,-36.621,0.000,0
28337.229,-67.871,-70.312,-34.180,-49.805,0.000,0
28337.233,-72.266,-52.734,-23.438,-64.453,0.000,0
28337.236,-65.918,-45.410,-0.977,-86.426,0.000,0
28337.240,-23.438,-38.574,55.664,-75.195,0.000,0
28337.244,19.531,3.906,-34.180,13.184,0.000,0
28337.248,-10.742,-10.742,-102.051,21.973,0.000,0
28337.252,-45.410,-61.523,-95.703,-69.824,0.000,0
28337.256,-30.762,-53.223,-47.363,-58.594,0.000,0
28337.260,-29.785,-38.086,-22.949,-4.883,0.000,0
28337.264,-65.430,-90.332,-170.898,-74.219,0.000,0
28337.268,-86.426,-98.145,-187.012,-90.332,0.000,0
28337.272,-114.746,-118.164,-46.387,-138.184,0.000,0
28337.275,-117.188,-130.859,-75.684,-168.945,0.000,0
28337.279,-95.703,-113.281,-132.812,-130.859,0.000,0
28337.283,-97.168,-101.562,-142.090,-95.703,0.000,0
28337.287,-135.254,-122.559,-148.438,-103.027,0.000,0
28337.291,-188.477,-177.246,-77.637,-203.613,0.000,0
28337.295,-169.922,-167.969,-104.492,-185.059,0.000,0
28337.299,-148.438,-152.832,-190.430,-120.605,0.000,0
28337.303,-195.312,-174.316,-119.629,-155.273,0.000,0
28337.307,-209.473,-199.707,-125.488,-177.734,0.000,0
28337.311,-210.449,-253.906,-213.867,-253.418,0.000,0
28337.315,-209.473,-254.395,-221.191,-279.785,0.000,0
28337.318,-216.309,-221.191,-228.027,-226.074,0.000,0
28337.322,-228.516,-228.516,-250.488,-205.566,0.000,0
28337.326,-216.309,-235.352,-280.762,-202.148,0.000,0
28337.330,-236.816,-229.492,-140.137,-247.070,0.000,0
28337.334,-164.551,-149.414,-117.676,-170.898,0.000,0
28337.338,-90.332,-89.355,-159.668,-63.965,0.000,0
28337.342,-110.840,-113.770,-97.168,-102.051,0.000,0
28337.346,-103.516,-92.773,-71.777,-97.656,0.000,0
28337.350,-94.727,-43.457,26.367,-75.195,0.000,0
28337.354,-56.152,-17.578,-6.348,-64.453,0.000,0
28337.358,5.371,12.207,-77.148,6.348,0.000,0
28337.361,20.508,29.785,-18.066,52.734,0.000,0
28337.365,17.090,25.879,-41.016,46.387,0.000,0
28337.369,-71.777,-60.059,-46.387,-80.566,0.000,0
28337.373,-155.762,-137.207,-48.828,-184.082,0.000,0
28337.377,-157.715,-132.812,-117.188,-159.180,0.000,0
28337.381,-189.453,-167.969,-141.602,-197.754,0.000,0
28337.385,-204.590,-187.988,-220.703,-176.758,0.000,0
28337.389,-289.062,-274.902,-242.676,-266.113,0.000,0
28337.393,-365.234,-341.309,-155.273,-395.020,0.000,0
28337.397,-395.508,-379.883,-298.340,-390.625,0.000,0
28337.400,-473.145,-488.770,-552.734,-469.727,0.000,0
28337.404,-545.898,-546.875,-550.781,-534.668,0.000,0
28337.408,-591.309,-593.262,-444.824,-616.699,0.000,0
28337.412,-595.703,-586.914,-406.738,-640.137,0.000,0
28337.416,-535.645,-534.180,-528.320,-554.199,0.000,0
28337.420,-530.762,-530.273,-507.812,-540.527,0.000,0
28337.424,-549.805,-538.086,-504.395,-511.230,0.000,0
28337.428,-583.008,-592.285,-503.906,-586.914,0.000,0
28337.432,-605.957,-601.074,-448.242,-644.043,0.000,0
28337.436,-563.965,-534.668,-517.090,-525.879,0.000,0
28337.440,-557.617,-537.109,-506.836,-500.000,0.000,0
28337.443,-541.016,-556.152,-555.176,-533.691,0.000,0
28337.447,-547.363,-568.359,-547.363,-563.477,0.000,0
28337.451,-553.223,-545.410,-482.910,-557.129,0.000,0
28337.455,-502.441,-520.020,-494.629,-540.039,0.000,0
28337.459,-504.395,-532.715,-544.922,-534.180,0.000,0
28337.463,-506.836,-513.672,-591.797,-485.840,0.000,0
28337.467,-508.789,-503.906,-483.887,-500.488,0.000,0
28337.471,-525.879,-513.672,-376.465,-539.551,0.000,0
28337.475,-492.188,-484.375,-507.812,-469.727,0.000,0
28337.479,-463.379,-470.215,-535.156,-449.219,0.000,0
28337.483,-463.867,-435.059,-372.070,-423.828,0.000,0
28337.486,-499.512,-473.633,-358.398,-466.797,0.000,0
28337.490,-493.164,-526.855,-439.941,-553.711,0.000,0
28337.494,-333.496,-368.164,-319.824,-394.531,0.000,0
28337.498,-167.480,-178.711,-181.641,-176.270,0.000,0
28337.502,-76.660,-71.777,-122.070,-53.711,0.000,0
28337.506,-43.457,-59.570,-76.172,-59.082,0.000,0
28337.510,-2.441,-32.227,-15.625,-53.223,0.000,0
28337.514,84.961,88.867,119.629,93.262,0.000,0
28337.518,90.332,113.281,130.859,125.977,0.000,0
28337.522,44.434,55.664,99.609,57.129,0.000,0
28337.525,-10.254,9.766,129.395,12.207,0.000,0
28337.529,-90.820,-56.152,113.281,-95.215,0.000,0
28337.533,-149.414,-117.676,-8.301,-166.016,0.000,0
28337.537,-181.152,-152.832,-101.562,-143.066,0.000,0
28337.541,-169.434,-154.297,-76.660,-134.277,0.000,0
28337.545,-114.746,-119.629,-35.156,-111.328,0.000,0
28337.549,-173.340,-183.594,-49.316,-227.051,0.000,0
28337.553,-181.152,-184.570,-191.895,-236.816,0.000,0
28337.557,-123.535,-131.348,-151.855,-141.113,0.000,0
28337.561,-135.742,-139.160,-45.898,-125.977,0.000,0
28337.565,-148.438,-168.945,-186.523,-125.977,0.000,0
28337.568,-218.750,-216.309,-189.941,-213.379,0.000,0
28337.572,-302.734,-270.020,-200.195,-275.391,0.000,0
28337.576,-323.242,-301.758,-268.555,-261.230,0.000,0
28337.580,-288.574,-309.570,-341.309,-272.949,0.000,0
28337.584,-287.109,-290.039,-329.102,-270.020,0.000,0
28337.588,-342.285,-295.410,-172.363,-308.105,0.000,0
28337.592,-333.496,-308.105,-211.426,-344.727,0.000,0
28337.596,-280.273,-304.688,-330.566,-329.590,0.000,0
28337.600,-250.977,-261.719,-293.457,-259.766,0.000,0
28337.604,-235.840,-243.164,-281.250,-204.102,0.000,0
28337.608,-305.664,-329.102,-266.602,-323.730,0.000,0
28337.611,-334.473,-360.352,-337.402,-368.164,0.000,0
28337.615,-325.195,-339.844,-376.953,-316.406,0.000,0
28337.619,-316.895,-315.430,-304.688,-308.594,0.000,0
28337.623,-360.840,-354.004,-288.574,-341.797,0.000,0
28337.627,-425.781,-429.688,-322.754,-457.520,0.000,0
28337.631,-351.074,-354.980,-290.039,-415.527,0.000,0
28337.635,-369.629,-334.961,-252.441,-360.840,0.000,0
28337.639,-406.250,-412.598,-411.621,-410.156,0.000,0
28337.643,-370.605,-409.180,-445.312,-391.113,0.000,0
28337.647,-444.336,-441.406,-333.984,-458.008,0.000,0
28337.650,-494.629,-465.820,-307.129,-508.301,0.000,0
28337.654,-453.125,-460.449,-432.617,-462.891,0.000,0
28337.658,-431.152,-459.473,-505.371,-435.059,0.000,0
28337.662,-455.078,-439.941,-427.734,-430.176,0.000,0
28337.666,-452.637,-437.012,-366.211,-476.562,0.000,0
28337.670,-376.465,-392.090,-335.938,-458.496,0.000,0
28337.674,-316.406,-350.098,-381.836,-372.559,0.000,0
28337.678,-333.496,-324.219,-303.223,-313.477,0.000,0
28337.682,-350.098,-323.242,-314.941,-311.035,0.000,0
28337.686,-385.742,-402.832,-394.043,-429.199,0.000,0
28337.690,-393.555,-406.250,-368.164,-426.270,0.000,0
28337.693,-343.750,-354.492,-384.277,-340.820,0.000,0
28337.697,-270.508,-289.551,-303.711,-291.504,0.000,0
28337.701,-232.910,-238.770,-303.223,-239.746,0.000,0
28337.705,-291.016,-294.434,-222.168,-319.824,0.000,0
28337.709,-318.359,-317.871,-152.344,-377.441,0.000,0
28337.713,-316.895,-310.547,-281.738,-333.008,0.000,0
28337.717,-326.172,-305.176,-352.051,-283.691,0.000,0
28337.721,-258.789,-256.348,-298.828,-226.562,0.000,0
28337.725,-206.055,-219.727,-81.055,-233.887,0.000,0
28337.729,-213.867,-202.148,-129.395,-254.395,0.000,0
28337.733,-205.078,-208.496,-303.711,-238.281,0.000,0
28337.736,-251.465,-241.699,-203.125,-270.020,0.000,0
28337.740,-348.633,-310.547,-286.133,-305.664,0.000,0
28337.744,-478.027,-476.074,-408.203,-470.215,0.000,0
28337.748,-448.730,-455.078,-358.398,-485.352,0.000,0
28337.752,-355.957,-340.820,-287.598,-354.492,0.000,0
28337.756,-287.598,-316.895,-234.375,-320.801,0.000,0
28337.760,-190.918,-183.105,-229.492,-150.879,0.000,0
28337.764,-212.891,-167.480,-141.602,-149.902,0.000,0
28337.768,-145.020,-113.770,-0.977,-158.691,0.000,0
28337.772,32.715,56.152,108.398,21.973,0.000,0
28337.775,145.508,101.562,86.914,91.797,0.000,0
28337.779,129.883,96.191,64.941,118.652,0.000,0
28337.783,14.160,26.855,103.516,41.016,0.000,0
28337.787,6.348,9.277,163.574,-8.789,0.000,0
28337.791,72.266,67.871,82.520,79.590,0.000,0
28337.795,99.121,87.402,116.211,103.516,0.000,0
28337.799,100.586,122.559,166.992,133.301,0.000,0
28337.803,19.043,51.758,136.719,58.105,0.000,0
28337.807,-40.039,-44.434,150.879,-59.570,0.000,1
28337.811,-23.438,-18.066,125.977,-15.137,0.000,0
28337.815,8.789,43.457,146.484,68.359,0.000,0
28337.818,30.762,53.223,-3.906,101.562,0.000,0
28337.822,-22.461,-40.527,-40.527,-3.906,0.000,0
28337.826,-22.949,-27.344,114.258,-31.738,0.000,0
28337.830,65.918,65.918,-5.371,81.543,0.000,0
28337.834,120.117,71.289,-88.867,93.750,0.000,0
28337.838,102.539,77.148,13.672,83.984,0.000,0
28337.842,115.234,140.625,238.281,142.578,0.000,0
28337.846,164.062,193.848,348.633,167.969,0.000,0
28337.850,232.910,240.723,228.516,202.148,0.000,0
28337.854,271.484,271.973,209.961,265.625,0.000,0
28337.858,246.582,257.812,315.430,282.227,0.000,0
28337.861,240.723,257.812,381.348,252.930,0.000,0
28337.865,272.461,266.602,188.477,251.465,0.000,0
28337.869,312.988,308.594,145.508,316.406,0.000,0
28337.873,348.633,350.586,286.621,357.422,0.000,0
28337.877,382.324,397.461,355.469,399.902,0.000,0
28337.881,484.863,499.023,419.434,504.883,0.000,0
28337.885,553.711,577.148,537.109,557.617,0.000,0
28337.889,551.758,601.562,571.289,570.312,0.000,0
28337.893,633.301,661.133,568.359,664.551,0.000,0
28337.897,646.484,643.066,504.883,669.434,0.000,0
28337.900,499.512,523.926,437.012,549.805,0.000,0
28337.904,379.883,439.941,471.680,427.734,0.000,0
28337.908,398.926,442.871,413.574,424.316,0.000,0
28337.912,447.754,445.312,325.195,448.242,0.000,0
28337.916,497.070,499.023,394.531,507.812,0.000,0
28337.920,463.867,498.535,403.809,535.156,0.000,0
28337.924,395.020,414.062,374.512,415.527,0.000,0
28337.928,379.395,393.555,279.297,384.766,0.000,0
28337.932,435.059,465.820,308.105,498.535,0.000,0
28337.936,511.230,548.828,466.309,570.801,0.000,0
28337.940,484.863,493.652,408.691,515.625,0.000,0
28337.943,376.465,408.203,436.035,398.438,0.000,0
28337.947,319.336,392.578,405.273,359.375,0.000,0
28337.951,362.305,428.223,368.652,411.133,0.000,0
28337.955,374.512,398.926,301.270,411.133,0.000,0
28337.959,305.176,304.199,222.656,323.242,0.000,0
28337.963,172.852,224.121,362.793,178.711,0.000,0
28337.967,149.414,221.680,184.082,196.289,0.000,0
28337.971,134.277,152.832,-63.965,175.293,0.000,0
28337.975,82.031,85.449,2.930,96.191,0.000,0
28337.979,61.035,87.402,34.180,92.773,0.000,0
28337.983,29.297,43.945,30.273,12.695,0.000,0
28337.986,3.418,8.301,-37.598,-52.246,0.000,0
28337.990,-15.625,5.371,-26.367,-28.320,0.000,0
28337.994,-30.273,1.953,-5.859,6.836,0.000,0
28337.998,-47.363,-27.344,-94.238,9.766,0.000,0
28338.002,-79.590,-89.355,-83.984,-100.586,0.000,0
28338.006,-32.227,-24.414,-7.812,-63.477,0.000,0
28338.010,15.625,57.617,17.578,55.664,0.000,0
28338.014,14.160,23.438,-84.961,18.555,0.000,0
28338.018,39.551,41.016,-100.586,37.109,0.000,0
28338.022,22.949,44.434,117.188,20.020,0.000,0
28338.025,101.074,114.258,178.223,70.312,0.000,0
28338.029,221.191,224.121,115.723,217.773,0.000,0
28338.033,259.766,258.301,131.348,277.344,0.000,0
28338.037,231.445,240.723,135.742,261.230,0.000,0
28338.041,170.898,184.082,241.699,164.551,0.000,0
28338.045,183.105,195.312,280.762,142.578,0.000,0
28338.049,220.215,236.328,133.789,215.820,0.000,0
28338.053,220.215,250.977,209.473,234.375,0.000,0
28338.057,258.789,280.273,229.004,290.527,0.000,0
28338.061,264.160,244.141,166.504,251.953,0.000,0
28338.065,198.242,206.055,249.023,169.922,0.000,0
28338.068,209.473,233.398,138.672,223.145,0.000,0
28338.072,235.352,228.516,51.758,262.207,0.000,0
28338.076,213.867,200.684,63.477,238.281,0.000,0
28338.080,181.152,182.617,219.727,174.805,0.000,0
28338.084,190.430,210.938,255.859,169.922,0.000,0
28338.088,240.234,241.699,164.551,211.426,0.000,0
28338.092,157.227,187.012,197.266,159.180,0.000,0
28338.096,159.180,216.309,166.992,236.328,0.000,0
28338.100,154.297,206.055,227.539,212.891,0.000,0
28338.104,98.145,120.605,151.855,76.172,0.000,0
28338.108,124.023,114.258,8.789,121.094,0.000,0
28338.111,102.539,99.121,78.125,135.742,0.000,0
28338.115,106.445,96.680,62.988,132.812,0.000,0
28338.119,53.223,45.898,33.203,57.129,0.000,0
28338.123,-2.930,-6.348,106.445,-36.621,0.000,0
28338.127,-5.859,-9.277,25.391,-20.508,0.000,0
28338.131,-25.391,-26.855,-74.707,-17.090,0.000,0
28338.135,7.812,7.812,-88.379,31.250,0.000,0
28338.139,-0.977,2.441,-44.922,25.879,0.000,0
28338.143,4.883,35.156,129.883,28.809,0.000,0
28338.147,89.844,133.301,130.371,143.066,0.000,0
28338.150,142.090,149.414,-39.551,186.035,0.000,0
28338.154,120.117,127.930,14.648,157.715,0.000,0
28338.158,102.051,113.770,127.441,140.137,0.000,0
28338.162,170.898,178.223,206.543,173.340,0.000,0
28338.166,268.066,276.855,189.941,255.859,0.000,0
28338.170,275.391,306.641,261.719,289.062,0.000,0
28338.174,315.430,332.031,234.863,356.445,0.000,0
28338.178,284.668,276.855,208.496,301.758,0.000,0
28338.182,194.824,225.098,250.488,208.008,0.000,0
28338.186,220.703,262.695,191.895,270.020,0.000,0
28338.190,202.637,231.445,190.430,257.812,0.000,0
28338.193,185.547,195.312,147.949,212.891,0.000,0
28338.197,198.730,205.078,138.672,217.773,0.000,0
28338.201,191.406,227.051,256.836,198.242,0.000,0
28338.205,223.145,258.301,300.781,218.750,0.000,0
28338.209,226.562,232.422,174.316,238.770,0.000,0
28338.213,158.691,168.457,90.332,195.312,0.000,0
28338.217,72.754,120.117,105.469,131.836,0.000,0
28338.221,12.695,45.898,104.492,19.531,0.000,0
28338.225,-4.883,-7.324,-18.555,-53.223,0.000,0
28338.229,-50.781,-46.875,-62.012,-74.707,0.000,0
28338.233,-61.523,-31.738,15.625,-39.062,0.000,0
28338.236,-16.602,15.625,-9.766,31.250,0.000,0
28338.240,-52.246,-50.781,-78.613,-67.383,0.000,0
28338.244,-52.734,-37.109,-22.461,-61.035,0.000,0
28338.248,-13.184,11.230,-56.152,32.227,0.000,0
28338.252,-8.301,3.906,-133.301,21.484,0.000,0
28338.256,11.230,-2.441,-86.914,11.230,0.000,0
28338.260,-23.926,-24.902,-7.324,-58.105,0.000,0
28338.264,-41.016,1.465,-20.020,-66.895,0.000,0
28338.268,4.883,43.457,-54.688,-5.859,0.000,0
28338.272,-5.371,36.133,-11.719,-4.395,0.000,0
28338.275,52.246,87.402,23.438,82.031,0.000,0
28338.279,95.703,117.676,146.973,92.285,0.000,0
28338.283,98.633,142.090,126.465,106.445,0.000,0
28338.287,134.766,164.062,24.414,170.410,0.000,0
28338.291,150.391,180.664,150.879,176.758,0.000,0
28338.295,188.477,227.539,237.793,217.773,0.000,0
28338.299,175.781,195.312,171.875,162.109,0.000,0
28338.303,180.664,198.730,141.113,146.973,0.000,0
28338.307,205.078,217.773,192.871,190.918,0.000,0
28338.311,204.102,212.402,170.410,207.031,0.000,0
28338.315,207.031,201.660,67.383,218.750,0.000,0
28338.318,136.719,134.766,100.586,113.281,0.000,0
28338.322,74.219,84.473,93.262,61.035,0.000,0
28338.326,81.055,87.891,37.109,101.562,0.000,0
28338.330,73.730,61.035,-18.066,57.129,0.000,0
28338.334,76.172,66.895,-30.273,67.383,0.000,0
28338.338,63.965,81.543,154.297,56.641,0.000,0
28338.342,73.730,78.125,118.164,31.250,0.000,0
28338.346,100.098,88.867,10.742,71.777,0.000,0
28338.350,94.727,111.816,-24.902,124.023,0.000,0
28338.354,138.184,160.645,41.992,183.594,0.000,0
28338.358,141.602,146.973,231.445,128.906,0.000,0
28338.361,183.105,181.641,189.453,168.945,0.000,0
28338.365,221.191,207.031,52.246,232.910,0.000,0
28338.369,187.012,185.059,97.656,185.059,0.000,0
28338.373,145.508,167.480,134.277,168.945,0.000,0
28338.377,84.473,72.754,114.258,37.598,0.000,0
28338.381,111.328,102.051,148.438,37.109,0.000,0
28338.385,133.789,173.340,85.938,167.969,0.000,0
28338.389,69.824,56.152,-77.148,80.566,0.000,0
28338.393,11.230,-38.086,-166.504,-13.184,0.000,0
28338.397,-80.566,-77.637,-0.488,-92.773,0.000,0
28338.400,-95.215,-83.496,-11.719,-131.348,0.000,1
28338.404,-95.703,-105.469,-215.332,-127.930,0.000,0
28338.408,-100.586,-111.328,-145.508,-136.230,0.000,0
28338.412,-3.906,-7.812,-52.246,2.441,0.000,0
28338.416,18.066,29.785,3.418,22.949,0.000,0
28338.420,28.320,59.082,63.477,0.000,0.000,0
28338.424,101.074,134.277,44.434,114.746,0.000,0
28338.428,124.512,170.898,139.160,173.340,0.000,0
28338.432,153.320,184.082,113.770,188.477,0.000,0
28338.436,133.301,132.812,49.805,108.398,0.000,0
28338.440,88.379,85.938,121.094,32.227,0.000,0
28338.443,89.355,58.594,24.902,27.832,0.000,0
28338.447,25.879,-7.324,-38.086,-12.695,0.000,0
28338.451,-3.418,3.418,-114.746,47.852,0.000,0
28338.455,0.000,18.555,-5.371,37.109,0.000,0
28338.459,32.227,42.969,137.207,6.836,0.000,0
28338.463,137.207,139.160,55.176,152.832,0.000,0
28338.467,138.672,153.809,32.227,188.965,0.000,0
28338.471,163.086,183.105,108.887,202.637,0.000,0
28338.475,203.125,232.422,290.527,221.680,0.000,0
28338.479,222.656,242.188,273.926,187.500,0.000,0
28338.483,272.949,278.320,234.863,210.938,0.000,0
28338.486,314.941,337.402,282.227,314.453,0.000,0
28338.490,348.633,361.328,207.031,397.949,0.000,0
28338.494,309.570,288.086,218.262,306.641,0.000,0
28338.498,343.750,345.215,341.309,334.961,0.000,0
28338.502,430.176,475.586,379.883,503.418,0.000,0
28338.506,406.250,422.852,342.285,459.961,0.000,0
28338.510,364.258,362.305,331.543,378.418,0.000,0
28338.514,340.820,369.141,351.562,390.625,0.000,0
28338.518,335.449,378.906,418.457,371.094,0.000,0
28338.522,322.266,336.914,358.887,302.734,0.000,0
28338.525,250.488,231.934,130.859,234.375,0.000,0
28338.529,160.645,156.738,57.617,192.383,0.000,0
28338.533,103.027,123.047,67.383,132.812,0.000,0
28338.537,56.641,91.309,91.797,75.684,0.000,0
28338.541,105.957,111.328,38.086,112.793,0.000,0
28338.545,168.945,155.273,39.551,162.109,0.000,0
28338.549,184.570,199.219,113.281,199.707,0.000,0
28338.553,169.434,189.453,90.332,192.383,0.000,0
28338.557,110.840,117.188,101.074,98.633,0.000,0
28338.561,96.680,116.699,133.789,81.543,0.000,0
28338.565,120.605,149.902,116.211,156.250,0.000,0
28338.568,122.070,116.699,-18.066,143.555,0.000,0
28338.572,109.863,80.566,-39.062,94.727,0.000,0
28338.576,104.492,101.074,145.020,90.820,0.000,0
28338.580,172.363,163.086,134.277,148.438,0.000,0
28338.584,170.898,152.832,148.926,111.816,0.000,0
28338.588,125.977,130.859,84.961,105.957,0.000,0
28338.592,201.660,199.219,40.039,250.488,0.000,0
28338.596,195.801,186.523,244.141,198.730,0.000,0
28338.600,164.551,178.223,167.480,166.992,0.000,0
28338.604,168.457,170.898,51.270,197.266,0.000,0
28338.608,93.262,110.352,107.910,131.348,0.000,0
28338.611,83.984,113.281,137.207,118.652,0.000,0
28338.615,101.562,81.055,25.391,53.223,0.000,0
28338.619,55.176,42.969,-37.109,-0.977,0.000,0
28338.623,29.785,26.367,-10.254,6.836,0.000,0
28338.627,63.477,48.340,-17.578,49.316,0.000,0
28338.631,107.422,98.633,-41.992,115.723,0.000,0
28338.635,124.512,120.605,76.660,92.285,0.000,0
28338.639,201.172,192.383,158.691,167.969,0.000,0
28338.643,246.094,244.141,129.883,268.066,0.000,0
28338.647,244.629,248.535,141.113,263.184,0.000,0
28338.650,271.484,277.832,233.887,268.066,0.000,0
28338.654,301.758,302.734,350.098,269.043,0.000,0
28338.658,342.773,359.375,371.582,334.961,0.000,0
28338.662,403.320,401.855,352.539,386.230,0.000,0
28338.666,407.715,417.969,340.332,429.199,0.000,0
28338.670,321.777,343.750,313.965,349.609,0.000,0
28338.674,303.223,285.645,291.016,246.582,0.000,0
28338.678,364.258,349.609,246.094,347.656,0.000,0
28338.682,334.473,355.469,274.902,368.164,0.000,0
28338.686,241.699,262.695,294.434,244.629,0.000,0
28338.690,229.004,221.680,142.578,213.379,0.000,0
28338.693,263.184,244.141,169.922,212.891,0.000,0
28338.697,343.750,371.094,365.234,335.449,0.000,0
28338.701,381.836,435.547,377.930,422.363,0.000,0
28338.705,391.602,404.785,287.109,409.180,0.000,0
28338.709,356.445,382.812,323.730,386.719,0.000,0
28338.713,254.395,333.008,484.375,289.551,0.000,0
28338.717,220.703,271.973,286.621,217.773,0.000,0
28338.721,265.137,265.625,98.145,254.883,0.000,0
28338.725,261.230,246.582,113.770,247.559,0.000,0
28338.729,167.480,187.012,113.770,174.316,0.000,0
28338.733,83.008,110.840,114.258,44.434,0.000,0
28338.736,123.047,130.859,64.941,79.102,0.000,0
28338.740,179.688,198.730,98.145,201.172,0.000,0
28338.744,157.227,182.129,77.148,184.570,0.000,0
28338.748,65.918,102.539,0.977,94.727,0.000,0
28338.752,-12.207,14.160,15.137,-44.434,0.000,0
28338.756,34.668,66.895,80.566,5.371,0.000,0
28338.760,66.406,91.309,55.664,60.059,0.000,0
28338.764,65.430,67.871,-85.449,44.434,0.000,0
28338.768,61.523,76.172,-65.430,74.219,0.000,0
28338.772,1.953,31.250,129.883,-14.160,0.000,0
28338.775,48.828,84.961,96.191,33.691,0.000,0
28338.779,120.605,135.254,-54.199,128.418,0.000,0
28338.783,74.707,113.770,-39.062,107.422,0.000,0
28338.787,5.859,51.758,92.773,30.273,0.000,0
28338.791,-30.273,-0.488,64.941,-45.898,0.000,0
28338.795,1.953,48.340,-22.461,1.465,0.000,0
28338.799,12.207,76.660,9.766,35.156,0.000,0
28338.803,10.254,73.730,55.664,55.176,0.000,0
28338.807,32.715,33.691,-95.703,50.293,0.000,0
28338.811,-15.137,-35.156,-62.988,-65.918,0.000,0
28338.815,-5.859,16.113,-19.531,-29.297,0.000,0
28338.818,25.391,50.781,-112.305,51.270,0.000,0
28338.822,22.949,18.066,-106.445,17.090,0.000,0
28338.826,20.508,25.879,-69.824,17.090,0.000,0
28338.830,0.488,33.203,54.688,-5.859,0.000,0
28338.834,8.301,39.062,43.945,-9.766,0.000,0
28338.838,-5.859,-7.324,-63.965,-31.250,0.000,0
28338.842,3.906,-10.254,-56.641,-2.930,0.000,0
28338.846,23.926,20.020,-27.344,44.922,0.000,0
28338.850,-29.785,-12.695,3.906,-28.320,0.000,0
28338.854,-29.785,-43.945,-125.488,-69.824,0.000,0
28338.858,-38.574,-69.336,-203.613,-57.617,0.000,0
28338.861,-71.289,-82.031,-115.234,-68.359,0.000,0
28338.865,-38.086,-43.945,-123.535,-25.391,0.000,0
28338.869,-43.945,-56.152,-99.121,-68.848,0.000,0
28338.873,-57.129,-64.941,-36.621,-101.074,0.000,0
28338.877,-19.531,-9.766,-5.371,-12.695,0.000,0
28338.881,4.883,19.531,-85.449,42.969,0.000,0
28338.885,43.945,63.965,-60.059,86.914,0.000,0
28338.889,147.461,167.969,161.621,180.176,0.000,0
28338.893,132.324,165.527,260.742,145.020,0.000,0
28338.897,67.383,92.773,134.766,49.805,0.000,0
28338.900,150.879,150.391,15.625,142.090,0.000,0
28338.904,215.332,226.074,111.816,255.371,0.000,0
28338.908,142.090,177.734,175.781,200.195,0.000,0
28338.912,118.652,121.582,86.914,96.680,0.000,0
28338.916,188.965,191.895,80.566,178.711,0.000,0
28338.920,161.621,164.062,99.121,186.523,0.000,0
28338.924,80.566,61.523,34.180,98.145,0.000,0
28338.928,51.270,27.832,20.020,46.387,0.000,0
28338.932,27.344,12.695,-4.883,-4.395,0.000,0
28338.936,-21.973,-17.578,-6.836,-17.090,0.000,0
28338.940,-60.059,-57.129,-2.930,-40.039,0.000,0
28338.943,-33.691,-68.359,-166.504,-16.602,0.000,0
28338.947,-57.129,-83.496,-162.109,-26.855,0.000,2
28338.951,-120.117,-125.488,-87.891,-113.281,0.000,0
28338.955,-123.535,-153.809,-268.066,-113.281,0.000,0
28338.959,-103.516,-158.691,-334.473,-93.750,0.000,0
28338.963,-65.918,-112.305,-199.219,-62.500,0.000,0
28338.967,-42.969,-43.457,18.066,-18.555,0.000,0
28338.971,-59.570,-68.848,-4.395,-65.918,0.000,0
28338.975,-32.227,-69.824,-99.609,-59.082,0.000,0
28338.979,-35.645,-45.898,-53.223,-46.387,0.000,0
28338.983,-44.922,-18.066,-83.984,12.695,0.000,0
28338.986,-61.035,-56.641,-93.262,-27.344,0.000,0
28338.990,-59.570,-79.590,-101.074,-106.445,0.000,0
28338.994,-7.812,-12.695,-125.977,-7.324,0.000,0
28338.998,-43.945,-19.531,20.508,-17.578,0.000,0
28339.002,-41.992,-27.832,-142.090,-15.625,0.000,0
28339.006,-33.691,-34.668,-178.711,-21.484,0.000,0
28339.010,-77.148,-62.988,-0.977,-97.168,0.000,0
28339.014,-25.391,15.137,-28.809,5.371,0.000,0
28339.018,18.066,52.734,-37.598,51.758,0.000,0
28339.022,20.508,40.527,-57.617,53.223,0.000,0
28339.025,24.414,45.898,13.184,57.129,0.000,0
28339.029,-9.277,10.254,107.910,-18.555,0.000,0
28339.033,23.926,33.691,-63.965,35.645,0.000,0
28339.037,22.949,15.137,-137.695,28.320,0.000,0
28339.041,-28.809,-9.766,0.488,-5.371,0.000,0
28339.045,-140.137,-115.723,-88.867,-110.840,0.000,0
28339.049,-259.766,-287.598,-285.156,-331.543,0.000,0
28339.053,-272.461,-299.316,-325.195,-338.867,0.000,0
28339.057,-253.418,-252.930,-250.000,-246.582,0.000,0
28339.061,-261.230,-270.508,-351.562,-245.605,0.000,0
28339.065,-295.410,-310.059,-378.906,-299.316,0.000,0
28339.068,-344.727,-340.332,-233.887,-359.375,0.000,0
28339.072,-296.387,-288.574,-286.133,-281.250,0.000,0
28339.076,-233.398,-233.398,-254.395,-212.402,0.000,0
28339.080,-204.590,-211.914,-260.742,-197.266,0.000,0
28339.084,-179.688,-187.988,-236.328,-181.152,0.000,0
28339.088,-177.734,-142.090,70.801,-186.523,0.000,0
28339.092,-61.523,-55.176,-36.621,-94.238,0.000,0
28339.096,40.039,9.277,-140.137,27.344,0.000,0
28339.100,30.762,38.574,-11.230,49.805,0.000,0
28339.104,34.180,46.387,34.180,52.246,0.000,0
28339.108,37.598,22.461,92.285,-0.488,0.000,0
28339.111,96.680,89.844,72.266,51.758,0.000,0
28339.115,134.766,158.691,86.426,138.184,0.000,0
28339.119,106.934,130.371,98.145,128.418,0.000,0
28339.123,90.332,108.398,54.688,128.906,0.000,0
28339.127,84.961,77.637,98.145,45.410,0.000,0
28339.131,164.551,185.547,201.660,148.926,0.000,0
28339.135,172.852,207.031,125.977,229.980,0.000,0
28339.139,134.766,105.469,-8.789,127.441,0.000,0
28339.143,93.262,73.730,36.133,89.355,0.000,0
28339.147,36.133,53.711,165.039,42.480,0.000,0
28339.150,71.289,79.590,57.129,50.781,0.000,0
28339.154,18.066,7.324,-59.082,2.441,0.000,0
28339.158,-72.266,-69.336,-64.453,-40.527,0.000,0
28339.162,-73.242,-61.523,-89.355,-13.184,0.000,0
28339.166,-75.684,-74.219,-41.504,-70.801,0.000,0
28339.170,-53.711,-43.457,-41.016,-51.758,0.000,0
28339.174,-2.441,-7.324,-68.848,19.531,0.000,0
28339.178,54.199,53.711,68.848,63.965,0.000,0
28339.182,73.242,83.984,-29.297,78.125,0.000,0
28339.186,37.109,50.293,6.836,17.578,0.000,0
28339.190,15.137,41.016,90.820,-24.414,0.000,0
28339.193,85.449,117.188,58.105,68.848,0.000,0
28339.197,173.340,200.195,59.570,197.266,0.000,0
28339.201,161.133,176.270,66.895,184.082,0.000,0
28339.205,96.680,135.254,177.246,111.816,0.000,0
28339.209,93.262,130.859,88.867,123.535,0.000,0
28339.213,64.941,79.102,-33.691,102.539,0.000,0
28339.217,-27.344,21.484,-14.160,25.391,0.000,0
28339.221,-48.340,25.391,59.570,29.297,0.000,0
28339.225,-68.359,-12.695,25.879,-17.578,0.000,0
28339.229,-69.824,-53.711,-115.723,-91.797,0.000,0
28339.233,-116.211,-82.520,-180.176,-98.633,0.000,0
28339.236,-242.188,-198.242,-219.238,-182.129,0.000,0
28339.240,-352.051,-339.355,-379.395,-320.312,0.000,0
28339.244,-455.078,-435.059,-430.664,-438.477,0.000,0
28339.248,-503.906,-455.566,-384.766,-496.094,0.000,0
28339.252,-536.133,-516.602,-510.254,-553.711,0.000,0
