timestamps,TP9,AF7,AF8,TP10,Right AUX,Marker0
38553.577,-18.066,-0.488,-0.977,-19.043,0.000,0
38553.581,-0.977,-4.395,3.418,-12.695,0.000,0
38553.585,8.301,7.812,4.883,-1.465,0.000,0
38553.589,5.859,-2.930,-5.371,-5.859,0.000,0
38553.593,-9.277,-10.742,-8.301,-7.812,0.000,0
38553.597,-14.160,-19.043,5.859,-12.207,0.000,0
38553.601,-2.930,-8.789,3.906,-17.578,0.000,0
38553.604,-2.441,11.719,-10.254,-20.020,0.000,0
38553.608,-16.113,-2.930,-3.418,-19.043,0.000,0
38553.612,-7.324,-13.672,2.441,-20.996,0.000,0
38553.616,-7.324,-22.461,-10.742,-34.668,0.000,0
38553.620,-25.879,-19.043,-18.555,-42.480,0.000,0
38553.624,-26.855,-2.930,-13.184,-23.926,0.000,0
38553.628,-19.043,-2.441,-13.672,-20.020,0.000,0
38553.632,-18.555,-2.441,-19.043,-39.062,0.000,0
38553.636,-19.531,-20.996,-10.254,-36.133,0.000,0
38553.640,-20.996,-16.113,-3.906,-26.855,0.000,0
38553.644,-16.602,4.883,-5.859,-15.137,0.000,0
38553.647,-17.090,17.578,-1.465,-8.301,0.000,0
38553.651,-15.137,24.902,-2.930,-11.719,0.000,0
38553.655,-5.371,-11.230,6.836,-13.672,0.000,0
38553.659,-6.348,-9.277,19.531,-20.020,0.000,0
38553.663,-5.859,18.066,16.113,-28.320,0.000,0
38553.667,2.441,20.020,23.438,-9.766,0.000,0
38553.671,3.906,27.832,22.949,-0.977,0.000,0
38553.675,9.766,10.742,20.996,-17.090,0.000,0
38553.679,13.184,18.066,23.926,-12.695,0.000,0
38553.683,21.973,41.016,22.461,-10.254,0.000,0
38553.687,12.695,20.020,6.836,-15.625,0.000,0
38553.690,-3.418,19.531,0.488,-4.395,0.000,0
38553.694,-9.277,24.414,0.000,-3.906,0.000,0
38553.698,1.465,20.996,-1.953,-9.277,0.000,0
38553.702,21.484,37.109,8.789,-7.324,0.000,0
38553.706,18.066,40.039,3.418,-4.883,0.000,0
38553.710,-0.488,37.109,-5.859,-17.578,0.000,0
38553.714,2.441,21.973,3.418,-31.738,0.000,0
38553.718,2.930,16.602,5.859,-26.367,0.000,0
38553.722,9.277,42.969,-8.789,-18.555,0.000,0
38553.726,13.184,46.387,-8.301,-12.207,0.000,0
38553.729,-1.953,25.879,-7.324,-4.883,0.000,0
38553.733,-3.906,7.324,-9.766,-15.137,0.000,0
38553.737,0.488,0.977,-8.789,-27.344,0.000,0
38553.741,-3.418,4.395,-15.625,-17.578,0.000,0
38553.745,-6.348,-0.488,-17.578,-15.625,0.000,0
38553.749,-11.719,-2.441,-16.602,-17.090,0.000,0
38553.753,-0.977,-3.418,-13.672,-23.926,0.000,0
38553.757,16.602,-2.441,-1.953,-26.367,0.000,0
38553.761,6.836,10.254,-5.371,-12.207,0.000,0
38553.765,-7.324,-0.977,-3.418,-6.348,0.000,0
38553.769,-5.371,10.742,-10.254,-12.207,0.000,0
38553.772,-6.348,5.859,-9.766,-20.996,0.000,0
38553.776,-17.090,-20.508,3.418,-11.719,0.000,0
38553.780,-18.555,3.418,-2.441,-2.930,0.000,0
38553.784,-9.277,11.719,1.953,0.977,0.000,0
38553.788,-8.789,-1.953,15.137,12.695,0.000,0
38553.792,-2.441,-10.254,19.531,14.160,0.000,0
38553.796,6.348,-8.789,13.184,2.441,0.000,0
38553.800,-1.465,6.836,15.625,3.906,0.000,0
38553.804,1.953,9.766,23.926,0.488,0.000,0
38553.808,9.277,10.742,23.438,-6.348,0.000,0
38553.812,21.973,16.602,23.438,-8.301,0.000,0
38553.815,30.762,12.695,28.809,-15.137,0.000,0
38553.819,21.973,25.391,31.250,-3.906,0.000,0
38553.823,23.438,27.344,33.203,3.906,0.000,0
38553.827,23.926,9.277,26.367,-4.395,0.000,0
38553.831,14.160,4.883,24.414,-0.488,0.000,0
38553.835,17.578,6.836,33.691,0.488,0.000,0
38553.839,33.691,19.043,37.109,9.277,0.000,0
38553.843,35.645,22.461,32.227,16.602,0.000,0
38553.847,24.414,16.602,22.461,16.602,0.000,0
38553.851,17.090,13.184,14.648,19.531,0.000,0
38553.854,10.254,11.719,12.695,13.672,0.000,0
38553.858,-5.371,21.973,7.324,4.883,0.000,0
38553.862,-6.348,16.602,1.953,-6.348,0.000,0
38553.866,-5.371,-5.371,9.766,-4.883,0.000,0
38553.870,-14.160,16.113,4.883,-0.977,0.000,0
38553.874,-3.418,24.902,4.395,-8.301,0.000,0
38553.878,-0.488,6.836,20.508,-8.301,0.000,0
38553.882,-7.812,11.230,18.555,2.930,0.000,0
38553.886,-1.465,13.184,14.160,-8.301,0.000,0
38553.890,-7.812,5.371,7.812,-16.113,0.000,0
38553.894,-14.648,-7.812,6.348,-4.883,0.000,0
38553.897,-11.719,8.301,-1.465,-4.883,0.000,0
38553.901,-18.066,29.297,-9.277,-3.906,0.000,0
38553.905,-31.250,23.438,-8.301,-2.441,0.000,0
38553.909,-19.531,6.348,-3.418,-10.254,0.000,0
38553.913,-6.836,-10.254,4.395,-20.508,0.000,0
38553.917,-5.859,-0.488,0.977,-15.625,0.000,0
38553.921,-17.578,3.906,-4.883,-7.324,0.000,0
38553.925,-18.555,-3.906,-2.930,-14.648,0.000,0
38553.929,-3.418,2.441,2.930,-16.602,0.000,0
38553.933,0.488,-0.488,0.488,-8.789,0.000,0
38553.937,-8.789,3.418,-10.254,-13.184,0.000,0
38553.940,-16.602,1.953,-13.184,-17.578,0.000,0
38553.944,-20.508,-9.766,-19.043,-19.531,0.000,0
38553.948,-28.320,-17.090,-25.391,-24.414,0.000,0
38553.952,-34.668,-41.504,-31.738,-26.367,0.000,0
38553.956,-41.992,-45.898,-40.039,-41.016,0.000,0
38553.960,-24.902,-23.438,-37.598,-34.180,0.000,0
38553.964,-11.230,-18.555,-44.434,-29.297,0.000,0
38553.968,-69.336,-44.922,-57.129,-63.477,0.000,0
38553.972,-93.750,-61.523,-59.570,-79.590,0.000,0
38553.976,-65.430,-50.293,-53.223,-55.664,0.000,0
38553.979,-68.359,-32.227,-58.594,-53.223,0.000,0
38553.983,-75.684,-48.828,-62.988,-60.059,0.000,0
38553.987,-61.523,-63.965,-52.734,-44.922,0.000,0
38553.991,-54.688,-63.477,-49.316,-43.945,0.000,0
38553.995,-53.711,-57.617,-49.805,-52.734,0.000,0
38553.999,-51.270,-37.598,-49.805,-46.875,0.000,0
38554.003,-57.129,-45.898,-50.781,-41.992,0.000,0
38554.007,-54.199,-40.527,-56.641,-41.992,0.000,0
38554.011,-43.945,-50.293,-47.852,-44.922,0.000,0
38554.015,-42.480,-49.805,-43.945,-41.992,0.000,0
38554.019,-45.898,-29.297,-44.434,-32.715,0.000,0
38554.022,-37.109,-29.785,-39.551,-33.203,0.000,0
38554.026,-39.062,-18.555,-46.387,-34.668,0.000,0
38554.030,-43.457,-60.059,-28.809,-41.016,0.000,0
38554.034,-36.621,-66.406,-14.160,-33.691,0.000,0
38554.038,-26.367,-31.738,-25.879,-41.016,0.000,0
38554.042,-28.320,-47.363,-25.391,-48.828,0.000,0
38554.046,-32.227,-53.711,-21.484,-22.461,0.000,0
38554.050,-8.789,-61.523,-14.160,-23.438,0.000,0
38554.054,-7.812,-55.176,-4.395,-38.086,0.000,0
38554.058,-35.645,-35.645,-7.324,-24.414,0.000,0
38554.062,-23.438,-36.621,-14.648,-12.207,0.000,0
38554.065,-16.602,-30.762,-20.996,-14.160,0.000,0
38554.069,-16.113,-41.016,-16.113,-19.043,0.000,0
38554.073,-14.648,-33.203,-7.812,-13.184,0.000,0
38554.077,-9.766,-14.160,-8.301,-5.859,0.000,0
38554.081,-1.953,-14.648,-10.254,-1.465,0.000,0
38554.085,-2.441,-22.461,-6.836,0.977,0.000,0
38554.089,1.465,-40.527,-2.441,-4.883,0.000,0
38554.093,-8.301,-36.621,-16.602,-6.836,0.000,0
38554.097,-26.367,-33.203,-24.414,-22.461,0.000,0
38554.101,-31.250,-41.016,-21.484,-33.691,0.000,0
38554.104,-23.926,-45.898,-21.973,-27.832,0.000,0
38554.108,-24.414,-65.918,-22.949,-36.133,0.000,0
38554.112,-47.363,-61.523,-24.414,-35.156,0.000,0
38554.116,-50.781,-52.246,-26.855,-30.762,0.000,0
38554.120,-35.645,-61.523,-21.484,-25.391,0.000,0
38554.124,-19.531,-50.293,-20.508,-35.156,0.000,0
38554.128,-16.602,-56.152,-16.113,-38.574,0.000,0
38554.132,-21.973,-48.828,-12.695,-29.785,0.000,0
38554.136,-16.602,-20.020,-14.648,-29.785,0.000,0
38554.140,-14.160,-13.184,-10.742,-23.926,0.000,0
38554.144,-13.672,-14.160,-5.859,-2.930,0.000,0
38554.147,-4.883,-31.250,1.953,-3.906,0.000,0
38554.151,-8.301,-30.762,2.930,-14.160,0.000,0
38554.155,-18.555,-11.719,4.883,-5.859,0.000,0
38554.159,-6.348,-15.625,3.906,-3.418,0.000,0
38554.163,0.488,-12.695,0.977,6.836,0.000,0
38554.167,-2.441,-12.207,4.395,0.977,0.000,0
38554.171,-8.789,-23.926,4.883,-18.555,0.000,0
38554.175,-1.465,17.578,-2.441,-8.789,0.000,0
38554.179,11.230,16.602,-1.465,2.441,0.000,0
38554.183,6.348,1.465,-0.977,8.789,0.000,0
38554.187,8.789,6.348,0.000,-2.441,0.000,0
38554.190,13.184,4.395,3.418,-8.789,0.000,0
38554.194,3.906,6.836,0.000,0.977,0.000,0
38554.198,15.137,7.812,2.441,17.578,0.000,0
38554.202,3.906,6.836,0.000,7.324,0.000,0
38554.206,-8.301,-7.812,-8.301,-8.301,0.000,0
38554.210,2.930,-8.301,0.000,10.254,0.000,0
38554.214,8.301,6.836,-9.277,17.090,0.000,0
38554.218,11.230,7.324,-10.742,10.742,0.000,0
38554.222,4.395,2.930,-9.277,10.254,0.000,0
38554.226,0.977,-8.301,-18.066,2.441,0.000,0
38554.229,-0.977,-6.836,-15.137,-4.883,0.000,0
38554.233,-8.789,-0.488,-18.555,-2.441,0.000,0
38554.237,-7.812,-12.207,-16.113,3.418,0.000,0
38554.241,-1.465,-7.324,-10.254,3.906,0.000,0
38554.245,-10.254,-9.766,-20.508,-2.441,0.000,0
38554.249,-5.371,-15.625,-22.949,-0.488,0.000,0
38554.253,2.441,-3.906,-23.438,2.441,0.000,0
38554.257,-19.531,-8.789,-29.297,-7.812,0.000,0
38554.261,-28.320,-0.977,-35.156,-20.020,0.000,0
38554.265,-8.301,-6.348,-29.785,-18.555,0.000,0
38554.269,-17.090,-47.852,-17.578,-2.441,0.000,0
38554.272,-28.320,-47.363,-20.996,6.348,0.000,0
38554.276,-24.414,-13.184,-33.691,-1.953,0.000,0
38554.280,-19.531,-12.695,-33.691,-0.488,0.000,0
38554.284,-20.020,-26.855,-31.250,-4.883,0.000,0
38554.288,-17.578,-30.273,-34.668,-17.578,0.000,0
38554.292,-15.137,-12.695,-29.785,-15.137,0.000,0
38554.296,-19.531,-13.672,-34.668,-15.625,0.000,0
38554.300,-22.461,-20.996,-45.410,-17.578,0.000,0
38554.304,-21.973,-25.391,-45.410,-19.043,0.000,0
38554.308,-32.227,-41.016,-53.711,-20.020,0.000,0
38554.312,-29.785,-40.039,-53.711,-15.625,0.000,0
38554.315,-40.039,-36.133,-54.688,-15.137,0.000,0
38554.319,-39.062,-56.641,-59.082,-20.508,0.000,0
38554.323,-37.598,-81.543,-57.617,-29.785,0.000,0
38554.327,-53.711,-55.176,-60.059,-34.180,0.000,0
38554.331,-50.293,-32.715,-58.105,-32.715,0.000,0
38554.335,-44.434,-38.086,-59.082,-27.832,0.000,0
38554.339,-45.898,-41.016,-62.012,-28.320,0.000,0
38554.343,-57.129,-48.828,-59.570,-30.273,0.000,0
38554.347,-52.246,-62.012,-63.477,-36.133,0.000,0
38554.351,-50.293,-52.734,-76.172,-40.039,0.000,0
38554.354,-64.941,-43.945,-83.008,-40.039,0.000,0
38554.358,-56.641,-58.105,-69.336,-19.531,0.000,0
38554.362,-43.945,-58.594,-63.477,-20.020,0.000,0
38554.366,-42.480,-62.012,-67.383,-34.668,0.000,0
38554.370,-46.875,-39.551,-58.105,-38.574,0.000,0
38554.374,-57.617,-41.992,-48.828,-39.551,0.000,0
38554.378,-55.176,-33.691,-53.223,-28.320,0.000,0
38554.382,-50.293,-11.719,-55.664,-25.391,0.000,0
38554.386,-43.457,-44.922,-42.969,-39.551,0.000,0
38554.390,-33.691,-41.992,-42.480,-40.039,0.000,0
38554.394,-41.992,-25.879,-39.551,-31.738,0.000,0
38554.397,-44.434,-14.160,-39.062,-32.715,0.000,0
38554.401,-41.992,-19.531,-41.504,-38.086,0.000,0
38554.405,-37.109,-56.641,-24.902,-33.203,0.000,0
38554.409,-26.367,-33.203,-24.414,-22.949,0.000,0
38554.413,-16.113,-14.160,-24.902,-22.461,0.000,0
38554.417,-23.926,-21.973,-19.531,-19.043,0.000,0
38554.421,-26.855,-13.672,-14.160,-15.137,0.000,0
38554.425,-20.508,-23.926,-11.230,-30.273,0.000,0
38554.429,-15.137,-15.137,-15.625,-27.832,0.000,0
38554.433,-8.789,-2.930,-25.391,-15.137,0.000,0
38554.437,-10.742,-3.418,-23.926,-3.418,0.000,0
38554.440,-10.742,8.301,-14.648,-3.418,0.000,0
38554.444,-7.324,0.000,-11.719,-20.996,0.000,0
38554.448,-4.395,-12.695,-13.184,-15.625,0.000,0
38554.452,-6.836,-4.395,-15.137,2.930,0.000,0
38554.456,-1.953,-0.977,-17.578,5.371,0.000,0
38554.460,-1.465,-6.348,-20.508,-11.719,0.000,0
38554.464,-17.090,-17.578,-19.043,-20.508,0.000,0
38554.468,-25.391,-20.996,-16.602,-24.414,0.000,0
38554.472,-20.508,-20.508,-26.367,-25.391,0.000,0
38554.476,-16.113,-33.691,-33.203,-20.996,0.000,0
38554.479,-20.996,-35.156,-35.645,-19.043,0.000,0
38554.483,-33.203,-33.691,-36.133,-28.320,0.000,0
38554.487,-30.762,-35.156,-31.738,-37.109,0.000,0
38554.491,-24.414,-36.621,-32.715,-32.227,0.000,0
38554.495,-32.715,-45.898,-32.227,-30.762,0.000,0
38554.499,-27.344,-40.527,-44.922,-36.621,0.000,0
38554.503,-25.879,-48.828,-56.641,-45.898,0.000,0
38554.507,-39.062,-49.316,-53.711,-50.293,0.000,0
38554.511,-48.340,-41.504,-49.805,-44.434,0.000,0
38554.515,-51.758,-45.898,-55.664,-46.875,0.000,0
38554.519,-43.945,-40.039,-51.270,-46.387,0.000,0
38554.522,-37.109,-46.387,-38.086,-44.434,0.000,0
38554.526,-25.391,-46.875,-38.086,-50.293,0.000,0
38554.530,-22.461,-30.762,-41.016,-48.828,0.000,0
38554.534,-38.574,-33.691,-40.039,-51.758,0.000,0
38554.538,-40.039,-39.062,-39.062,-43.457,0.000,0
38554.542,-26.367,-30.762,-34.668,-25.879,0.000,0
38554.546,-16.602,-22.461,-33.203,-36.133,0.000,0
38554.550,-20.020,-5.859,-36.133,-40.039,0.000,0
38554.554,-39.062,-9.766,-37.598,-38.574,0.000,0
38554.558,-38.574,-18.555,-37.109,-44.434,0.000,0
38554.562,-29.297,-24.902,-37.598,-47.852,0.000,0
38554.565,-39.551,-31.250,-42.969,-56.152,0.000,0
38554.569,-48.340,-30.273,-50.293,-68.359,0.000,0
38554.573,-48.828,-35.156,-54.688,-71.289,0.000,0
38554.577,-56.152,-42.480,-60.547,-60.059,0.000,0
38554.581,-62.988,-66.406,-63.477,-59.570,0.000,0
38554.585,-64.941,-73.730,-60.547,-72.754,0.000,0
38554.589,-62.988,-35.156,-72.754,-79.102,0.000,0
38554.593,-58.105,-32.227,-79.102,-78.613,0.000,0
38554.597,-58.594,-58.105,-75.684,-73.730,0.000,0
38554.601,-62.988,-83.984,-78.613,-71.289,0.000,0
38554.604,-74.707,-97.168,-86.914,-65.430,0.000,0
38554.608,-82.031,-83.008,-99.121,-63.965,0.000,0
38554.612,-81.055,-85.938,-110.840,-62.988,0.000,0
38554.616,-84.961,-94.727,-110.352,-58.594,0.000,0
38554.620,-90.820,-99.609,-106.445,-66.895,0.000,0
38554.624,-81.543,-105.957,-100.098,-67.871,0.000,0
38554.628,-97.656,-86.426,-98.633,-69.824,0.000,0
38554.632,-102.539,-74.707,-97.656,-78.125,0.000,0
38554.636,-85.938,-63.965,-91.797,-68.848,0.000,0
38554.640,-83.496,-73.242,-89.844,-76.172,0.000,0
38554.644,-78.613,-89.355,-74.219,-76.660,0.000,0
38554.647,-85.938,-52.246,-74.219,-56.641,0.000,0
38554.651,-88.867,-45.410,-78.613,-60.547,0.000,0
38554.655,-76.660,-54.199,-66.895,-72.266,0.000,0
38554.659,-73.242,-59.570,-62.988,-79.590,0.000,0
38554.663,-61.523,-73.242,-55.176,-79.590,0.000,0
38554.667,-52.734,-48.340,-51.270,-65.430,0.000,0
38554.671,-54.199,-31.738,-56.641,-55.176,0.000,0
38554.675,-35.645,-38.086,-48.828,-43.945,0.000,0
38554.679,-35.645,-33.691,-42.969,-45.410,0.000,0
38554.683,-44.922,-42.480,-39.551,-39.551,0.000,0
38554.687,-39.551,-26.367,-31.738,-38.574,0.000,0
38554.690,-34.668,-27.344,-23.926,-36.621,0.000,0
38554.694,-27.832,-24.902,-30.762,-38.086,0.000,0
38554.698,-28.320,-21.484,-30.762,-39.551,0.000,0
38554.702,-33.203,-48.828,-24.414,-36.621,0.000,0
38554.706,-38.574,-35.645,-33.691,-41.504,0.000,0
38554.710,-39.551,-25.391,-36.133,-37.109,0.000,0
38554.714,-28.320,-32.227,-33.203,-24.414,0.000,0
38554.718,-22.461,-21.973,-27.832,-8.301,0.000,0
38554.722,-36.133,-22.949,-33.203,-13.672,0.000,0
38554.726,-33.203,-25.391,-41.504,-18.066,0.000,0
38554.729,-21.973,-20.996,-42.969,-15.137,0.000,0
38554.733,-26.367,-26.367,-39.062,-34.180,0.000,0
38554.737,-36.133,-30.762,-41.992,-37.109,0.000,0
38554.741,-41.016,-47.852,-44.922,-38.086,0.000,0
38554.745,-51.270,-42.969,-45.898,-44.434,0.000,0
38554.749,-50.781,-33.203,-48.340,-43.457,0.000,0
38554.753,-45.898,-32.715,-50.781,-46.387,0.000,0
38554.757,-40.527,-24.902,-53.711,-42.480,0.000,0
38554.761,-40.039,-33.691,-50.293,-36.133,0.000,0
38554.765,-53.711,-18.555,-50.781,-36.621,0.000,0
38554.769,-49.316,-11.719,-57.129,-51.758,0.000,0
38554.772,-45.898,-13.184,-61.523,-57.617,0.000,0
38554.776,-69.824,-18.555,-63.965,-57.617,0.000,0
38554.780,-71.289,-47.363,-50.293,-57.617,0.000,0
38554.784,-59.570,-41.016,-48.828,-53.223,0.000,0
38554.788,-70.801,-34.668,-56.641,-51.758,0.000,0
38554.792,-83.008,-16.602,-56.152,-49.805,0.000,0
38554.796,-71.777,-10.742,-51.270,-42.969,0.000,0
38554.800,-60.547,-26.855,-43.945,-41.992,0.000,0
38554.804,-63.477,-23.926,-45.410,-40.527,0.000,0
38554.808,-62.988,-18.555,-48.340,-38.086,0.000,0
38554.812,-61.523,-27.832,-51.758,-56.152,0.000,0
38554.815,-64.453,-28.809,-56.641,-61.035,0.000,0
38554.819,-65.430,-17.090,-50.293,-60.547,0.000,0
38554.823,-73.730,-27.832,-48.828,-65.430,0.000,0
38554.827,-74.707,-28.320,-48.340,-62.500,0.000,0
38554.831,-72.266,-13.184,-49.805,-47.852,0.000,0
38554.835,-68.359,-11.719,-48.340,-36.621,0.000,0
38554.839,-58.594,-13.672,-36.133,-45.898,0.000,0
38554.843,-50.293,-10.254,-38.574,-53.711,0.000,0
38554.847,-53.223,7.324,-41.504,-45.898,0.000,0
38554.851,-52.734,7.324,-37.109,-52.246,0.000,0
38554.854,-60.547,-15.137,-35.156,-59.570,0.000,0
38554.858,-62.988,-20.508,-29.785,-52.734,0.000,0
38554.862,-50.293,-23.438,-23.438,-50.781,0.000,0
38554.866,-58.594,-18.066,-30.273,-47.852,0.000,0
38554.870,-61.523,-18.555,-31.738,-41.016,0.000,0
38554.874,-55.176,-19.043,-33.691,-44.434,0.000,0
38554.878,-58.105,-22.461,-29.785,-48.340,0.000,0
38554.882,-57.129,-23.926,-24.902,-47.363,0.000,0
38554.886,-46.875,-11.719,-27.832,-49.316,0.000,0
38554.890,-50.781,-29.297,-22.461,-49.805,0.000,0
38554.894,-41.992,2.441,-10.254,-30.762,0.000,0
38554.897,-26.855,10.742,1.465,-28.320,0.000,0
38554.901,-43.945,-11.230,3.418,-41.992,0.000,0
38554.905,-36.133,11.230,-6.348,-42.480,0.000,0
38554.909,-19.043,9.277,-1.465,-31.250,0.000,0
38554.913,-33.203,-2.441,4.395,-28.809,0.000,0
38554.917,-36.621,-6.348,2.441,-41.016,0.000,0
38554.921,-19.531,9.766,7.324,-40.527,0.000,0
38554.925,-18.555,20.020,13.184,-25.391,0.000,0
38554.929,-20.020,10.742,9.766,-27.832,0.000,0
38554.933,-20.020,25.879,1.465,-38.574,0.000,0
38554.937,-16.113,25.391,4.883,-38.574,0.000,0
38554.940,-5.859,13.184,12.207,-33.203,0.000,0
38554.944,-14.160,17.578,15.137,-30.762,0.000,0
38554.948,-11.230,25.391,18.066,-22.461,0.000,0
38554.952,-5.371,25.879,11.230,-20.996,0.000,0
38554.956,-5.371,23.438,6.836,-30.762,0.000,0
38554.960,2.441,13.672,12.695,-39.551,0.000,0
38554.964,2.441,22.949,15.625,-30.762,0.000,0
38554.968,-0.977,32.715,5.859,-28.320,0.000,0
38554.972,-8.301,18.555,-0.977,-32.227,0.000,0
38554.976,-15.625,-7.812,0.488,-30.762,0.000,0
38554.979,-8.789,-18.066,-1.953,-28.809,0.000,0
38554.983,5.859,5.859,0.000,-24.414,0.000,0
38554.987,5.371,9.277,5.371,-24.414,0.000,0
38554.991,3.906,-14.160,1.465,-27.832,0.000,0
38554.995,-13.184,-7.324,-8.301,-40.039,0.000,0
38554.999,-17.090,0.488,-5.371,-53.711,0.000,0
38555.003,0.488,-2.441,3.906,-37.598,0.000,0
38555.007,-2.441,-8.301,0.977,-31.250,0.000,0
38555.011,-14.160,-6.836,-10.742,-36.621,0.000,0
38555.015,-17.090,-6.348,-11.719,-29.785,0.000,0
38555.019,-20.996,-36.621,1.953,-20.996,0.000,0
38555.022,-12.695,-17.090,-0.488,-9.766,0.000,0
38555.026,10.742,12.695,-9.766,-18.555,0.000,0
38555.030,-1.465,0.977,-3.906,-23.438,0.000,0
38555.034,-29.785,-22.461,-3.906,-18.555,0.000,0
38555.038,-19.531,-44.922,0.000,-24.414,0.000,0
38555.042,-9.766,-28.320,-2.930,-22.461,0.000,0
38555.046,-14.160,-20.508,-16.602,-7.324,0.000,0
38555.050,-20.996,-32.227,-16.113,-14.160,0.000,0
38555.054,-21.484,-27.832,-12.207,-29.785,0.000,0
38555.058,-28.320,-29.785,-17.578,-30.273,0.000,0
38555.062,-22.949,-21.484,-17.578,-24.414,0.000,0
38555.065,-5.371,-34.668,-11.230,-20.508,0.000,0
38555.069,-17.090,-37.598,-17.578,-12.207,0.000,0
38555.073,-20.508,-28.809,-26.367,-16.113,0.000,0
38555.077,-18.066,-54.199,-29.297,-26.367,0.000,0
38555.081,-26.855,-40.527,-27.344,-28.320,0.000,0
38555.085,-19.531,-4.883,-20.508,-38.574,0.000,0
38555.089,-14.648,-3.906,-18.555,-35.156,0.000,0
38555.093,-19.043,-35.645,-17.578,-25.879,0.000,0
38555.097,-19.043,-41.504,-14.648,-26.367,0.000,0
38555.101,-12.695,-13.184,-14.160,-20.508,0.000,0
38555.104,-23.438,-20.508,-17.090,-20.020,0.000,0
38555.108,-26.367,-27.832,-16.602,-12.207,0.000,0
38555.112,-29.785,-30.762,-25.879,-21.973,0.000,0
38555.116,-30.273,-42.480,-25.879,-16.113,0.000,0
38555.120,-27.832,-30.273,-19.531,-10.742,0.000,0
38555.124,-37.598,-29.785,-24.414,-31.738,0.000,0
38555.128,-30.273,-23.926,-23.926,-32.715,0.000,0
38555.132,-21.973,-19.043,-17.578,-27.832,0.000,0
38555.136,-10.742,-27.832,-13.672,-18.555,0.000,0
38555.140,-23.438,-17.090,-17.578,-25.391,0.000,0
38555.144,-30.762,-15.625,-19.043,-31.250,0.000,0
38555.147,-22.461,-7.324,-20.020,-32.715,0.000,0
38555.151,-22.461,-14.160,-22.461,-36.133,0.000,0
38555.155,-21.973,-26.367,-15.625,-22.461,0.000,0
38555.159,-25.391,-5.371,-11.230,-12.695,0.000,0
38555.163,-19.043,0.000,-12.695,-15.625,0.000,0
38555.167,-16.113,-6.836,-13.672,-19.531,0.000,0
38555.171,-11.719,-9.277,-9.766,-16.113,0.000,0
38555.175,-26.367,-8.789,-8.789,-23.926,0.000,0
38555.179,-17.090,-4.395,-9.766,-20.020,0.000,0
38555.183,0.488,-1.465,-10.254,-4.883,0.000,0
38555.187,-13.184,-8.789,-14.160,-16.602,0.000,0
38555.190,-15.625,-17.578,-16.602,-28.809,0.000,0
38555.194,-25.879,-25.391,-19.531,-44.434,0.000,0
38555.198,-23.438,-30.273,-11.230,-43.457,0.000,0
38555.202,-11.719,-6.836,-13.672,-31.250,0.000,0
38555.206,-14.648,0.000,-29.297,-20.020,0.000,0
38555.210,-16.113,-26.367,-26.367,0.000,0.000,0
38555.214,-14.160,-39.062,-12.695,1.465,0.000,0
38555.218,-14.160,-28.809,-14.160,-14.160,0.000,0
38555.222,-20.020,-34.180,-31.250,-38.574,0.000,0
38555.226,-7.812,-42.969,-34.668,-34.180,0.000,0
38555.229,-0.488,-32.227,-20.508,-8.301,0.000,0
38555.233,-8.301,-30.273,-7.324,-16.602,0.000,0
38555.237,-23.926,-28.809,-16.602,-39.551,0.000,0
38555.241,-30.273,-29.297,-20.508,-34.668,0.000,0
38555.245,-20.508,-33.691,-18.066,-20.020,0.000,0
38555.249,-18.555,-22.461,-20.508,-25.879,0.000,0
38555.253,-25.391,-33.691,-13.184,-21.484,0.000,0
38555.257,-29.785,-35.156,-16.113,-20.508,0.000,0
38555.261,-20.508,-16.113,-29.297,-30.762,0.000,0
38555.265,-6.348,-15.137,-31.738,-37.598,0.000,0
38555.269,-1.953,-24.414,-22.949,-32.227,0.000,0
38555.272,-7.324,-49.805,-23.926,-31.250,0.000,0
38555.276,-9.766,-46.387,-26.367,-32.227,0.000,0
38555.280,-6.836,-42.969,-24.902,-23.438,0.000,0
38555.284,-18.555,-42.480,-41.992,-20.996,0.000,0
38555.288,-19.531,-37.598,-41.504,-17.578,0.000,0
38555.292,-15.625,-50.293,-27.344,-25.391,0.000,0
38555.296,-14.648,-42.969,-32.227,-39.062,0.000,0
38555.300,-24.902,-39.551,-37.598,-34.180,0.000,0
38555.304,-33.691,-41.992,-35.156,-35.156,0.000,0
38555.308,-33.203,-30.762,-43.457,-34.180,0.000,0
38555.312,-41.504,-55.664,-45.898,-41.992,0.000,0
38555.315,-41.504,-57.129,-39.062,-49.805,0.000,0
38555.319,-34.668,-39.062,-39.551,-53.711,0.000,0
38555.323,-32.227,-45.410,-50.293,-57.617,0.000,0
38555.327,-30.273,-32.227,-43.457,-61.523,0.000,0
38555.331,-32.715,-45.898,-23.438,-53.223,0.000,0
38555.335,-37.109,-52.246,-31.738,-49.805,0.000,0
38555.339,-43.457,-22.949,-51.758,-64.453,0.000,0
38555.343,-42.969,-27.344,-49.316,-71.289,0.000,0
38555.347,-35.645,-44.434,-42.480,-56.152,0.000,0
38555.351,-45.898,-55.664,-41.504,-48.340,0.000,0
38555.354,-42.480,-41.992,-38.086,-54.199,0.000,0
38555.358,-31.250,-22.949,-32.715,-43.457,0.000,0
38555.362,-46.875,-44.434,-36.133,-49.805,0.000,0
38555.366,-50.293,-48.340,-40.039,-51.758,0.000,0
38555.370,-41.016,-51.758,-30.762,-63.477,0.000,0
38555.374,-21.973,-52.246,-26.855,-62.988,0.000,0
38555.378,-34.180,-40.039,-40.527,-55.664,0.000,0
38555.382,-44.922,-42.480,-41.016,-60.547,0.000,0
38555.386,-31.250,-20.996,-39.551,-41.992,0.000,0
38555.390,-31.250,-48.828,-34.180,-46.875,0.000,0
38555.394,-37.109,-73.242,-31.250,-50.781,0.000,0
38555.397,-30.762,-34.668,-44.922,-45.410,0.000,0
38555.401,-45.410,-57.129,-45.410,-58.105,0.000,0
38555.405,-64.453,-54.688,-36.133,-68.848,0.000,0
38555.409,-41.992,-41.016,-30.273,-58.594,0.000,0
38555.413,-47.852,-59.570,-39.551,-48.828,0.000,0
38555.417,-75.684,-50.293,-45.410,-61.523,0.000,0
38555.421,-43.945,-44.434,-35.645,-45.410,0.000,0
38555.425,-20.996,-35.156,-41.016,-20.996,0.000,0
38555.429,-35.645,-31.738,-46.387,-38.086,0.000,0
38555.433,-29.297,-40.039,-35.156,-32.715,0.000,0
38555.437,-34.180,-32.715,-21.973,-24.414,0.000,0
38555.440,-45.410,-26.855,-21.484,-36.621,0.000,0
38555.444,-25.391,-21.484,-25.879,-25.879,0.000,0
38555.448,-38.574,-33.691,-37.109,-37.598,0.000,0
38555.452,-42.480,-38.086,-33.691,-41.016,0.000,0
38555.456,-35.645,-18.066,-22.949,-39.551,0.000,0
38555.460,-49.805,-27.344,-32.715,-53.711,0.000,0
38555.464,-40.039,-35.156,-37.109,-42.480,0.000,0
38555.468,-23.926,-28.320,-29.297,-35.156,0.000,0
38555.472,-16.602,-30.762,-30.273,-40.039,0.000,0
38555.476,-12.695,-22.461,-38.574,-38.574,0.000,0
38555.479,-8.789,-16.602,-38.086,-20.996,0.000,0
38555.483,-14.648,-29.785,-23.926,-14.648,0.000,0
38555.487,-15.625,-22.949,-17.578,-26.367,0.000,0
38555.491,-18.066,-28.809,-23.438,-37.598,0.000,0
38555.495,-26.855,-33.203,-27.832,-31.738,0.000,0
38555.499,-21.973,-24.902,-32.227,-22.949,0.000,0
38555.503,-12.695,-46.387,-34.180,-29.297,0.000,0
38555.507,-14.160,-42.480,-33.691,-29.785,0.000,0
38555.511,-18.555,-21.973,-32.715,-27.344,0.000,0
38555.515,-10.254,-24.902,-29.297,-20.996,0.000,0
38555.519,-15.625,-27.344,-38.574,-19.531,0.000,0
38555.522,-19.531,-17.578,-40.039,-23.926,0.000,0
38555.526,-15.625,-23.438,-34.668,-20.996,0.000,0
38555.530,-20.020,-41.992,-38.086,-36.133,0.000,0
38555.534,-18.066,-22.461,-41.504,-35.645,0.000,0
38555.538,-15.625,-16.602,-39.551,-22.461,0.000,1
38555.542,-15.137,-21.973,-40.527,-27.344,0.000,0
38555.546,-26.367,-24.902,-43.945,-29.297,0.000,0
38555.550,-28.320,-27.344,-43.457,-34.668,0.000,0
38555.554,-21.973,-26.855,-44.434,-30.273,0.000,0
38555.558,-19.043,-30.273,-46.387,-28.320,0.000,0
38555.562,-30.762,-29.297,-39.062,-33.691,0.000,0
38555.565,-32.715,-29.297,-35.156,-30.762,0.000,0
38555.569,-27.832,-53.223,-35.645,-29.785,0.000,0
38555.573,-33.691,-44.922,-33.203,-27.344,0.000,0
38555.577,-23.926,-23.438,-32.227,-22.461,0.000,0
38555.581,-20.508,-29.785,-33.691,-21.973,0.000,0
38555.585,-24.414,-39.551,-34.180,-21.973,0.000,0
38555.589,-22.949,-56.152,-32.227,-29.297,0.000,0
38555.593,-22.461,-48.828,-34.180,-31.738,0.000,0
38555.597,-21.484,-42.969,-33.691,-32.715,0.000,0
38555.601,-29.785,-46.387,-31.250,-24.902,0.000,0
38555.604,-36.133,-52.246,-27.832,-26.367,0.000,0
38555.608,-33.691,-48.828,-25.391,-46.875,0.000,0
38555.612,-40.039,-23.438,-23.926,-33.691,0.000,0
38555.616,-41.016,-25.879,-24.902,-30.762,0.000,0
38555.620,-36.133,-16.602,-28.809,-43.457,0.000,0
38555.624,-20.996,-12.207,-24.902,-40.527,0.000,0
38555.628,-12.695,-36.621,-20.508,-37.598,0.000,0
38555.632,-20.508,-34.180,-23.438,-31.738,0.000,0
38555.636,-29.297,-27.344,-33.691,-27.832,0.000,0
38555.640,-38.086,-27.344,-32.227,-20.996,0.000,0
38555.644,-21.484,-35.156,-21.484,-24.902,0.000,0
38555.647,5.859,-40.527,-14.648,-13.672,0.000,0
38555.651,-10.254,-24.414,-20.996,-4.395,0.000,0
38555.655,-29.785,-30.273,-21.973,-17.090,0.000,0
38555.659,-14.160,-33.691,-20.020,-15.137,0.000,0
38555.663,-3.906,-35.156,-23.438,-9.766,0.000,0
38555.667,-14.160,-49.316,-15.625,-13.672,0.000,0
38555.671,-13.672,-37.109,-20.508,-15.137,0.000,0
38555.675,-8.301,-38.574,-28.320,-13.184,0.000,0
38555.679,-4.395,-38.574,-30.762,-18.066,0.000,0
38555.683,-11.230,-34.668,-25.391,-25.391,0.000,0
38555.687,-20.508,-49.316,-11.719,-29.297,0.000,0
38555.690,-15.137,-34.180,-14.160,-22.949,0.000,0
38555.694,-12.207,-28.809,-18.066,-22.949,0.000,0
38555.698,-19.043,-32.227,-18.555,-11.719,0.000,0
38555.702,-17.578,-30.762,-22.949,-10.742,0.000,0
38555.706,-12.695,-33.203,-22.461,-19.043,0.000,0
38555.710,-14.648,-41.016,-18.066,-23.926,0.000,0
38555.714,-27.344,-41.016,-24.414,-24.902,0.000,0
38555.718,-16.113,-25.879,-25.391,-13.672,0.000,0
38555.722,-13.672,-41.016,-16.113,-14.160,0.000,0
38555.726,-20.020,-60.547,-25.391,-33.691,0.000,0
38555.729,-21.484,-43.945,-35.645,-38.086,0.000,0
38555.733,-37.109,-41.016,-36.133,-37.598,0.000,0
38555.737,-30.762,-43.457,-37.109,-37.109,0.000,0
38555.741,-33.203,-39.551,-40.039,-37.598,0.000,0
38555.745,-38.574,-49.805,-34.668,-39.551,0.000,0
38555.749,-24.414,-44.434,-29.785,-29.785,0.000,0
38555.753,-28.320,-33.691,-30.273,-20.508,0.000,0
38555.757,-20.508,-17.090,-31.738,-22.461,0.000,0
38555.761,-24.414,-19.531,-34.668,-34.180,0.000,0
38555.765,-33.203,-62.012,-30.762,-35.156,0.000,0
38555.769,-29.297,-58.105,-38.086,-24.414,0.000,0
38555.772,-29.785,-38.086,-39.062,-24.414,0.000,0
38555.776,-18.555,-28.320,-31.250,-16.602,0.000,0
38555.780,-20.996,-39.062,-34.180,-8.789,0.000,0
38555.784,-17.578,-58.594,-30.762,-14.648,0.000,0
38555.788,-16.602,-46.875,-29.297,-17.090,0.000,0
38555.792,-40.039,-30.762,-36.621,-20.996,0.000,0
38555.796,-47.363,-39.062,-36.133,-25.391,0.000,0
38555.800,-29.785,-39.551,-26.855,-14.160,0.000,0
38555.804,-29.785,-29.785,-33.691,-25.391,0.000,0
38555.808,-30.762,-27.832,-38.574,-27.344,0.000,0
38555.812,-28.320,-49.805,-24.902,-18.555,0.000,0
38555.815,-27.832,-55.664,-28.320,-26.367,0.000,0
38555.819,-27.832,-15.625,-36.133,-27.832,0.000,0
38555.823,-35.156,-23.926,-28.809,-32.715,0.000,0
38555.827,-37.109,-47.363,-24.902,-30.762,0.000,0
38555.831,-31.250,-33.691,-25.879,-24.414,0.000,0
38555.835,-29.785,-38.086,-22.461,-25.879,0.000,0
38555.839,-33.691,-46.387,-20.508,-25.879,0.000,0
38555.843,-38.574,-42.969,-25.879,-35.645,0.000,0
38555.847,-30.762,-50.293,-28.320,-43.945,0.000,0
38555.851,-23.926,-44.922,-30.762,-26.367,0.000,0
38555.854,-31.738,-46.387,-37.598,-18.066,0.000,0
38555.858,-28.809,-44.434,-37.109,-23.438,0.000,0
38555.862,-18.555,-43.457,-29.785,-22.949,0.000,0
38555.866,-24.414,-51.758,-37.109,-21.973,0.000,0
38555.870,-27.832,-45.898,-38.086,-20.996,0.000,0
38555.874,-34.180,-37.598,-36.133,-23.438,0.000,0
38555.878,-37.109,-35.645,-37.598,-19.531,0.000,0
38555.882,-20.020,-39.062,-28.320,-12.695,0.000,0
38555.886,-16.113,-42.480,-32.715,-15.137,0.000,0
38555.890,-48.340,-47.852,-51.270,-14.160,0.000,0
38555.894,-47.852,-46.875,-49.316,-5.859,0.000,0
38555.897,-23.438,-41.504,-35.156,-9.766,0.000,0
38555.901,-21.484,-47.852,-28.320,-15.137,0.000,0
38555.905,-27.832,-45.410,-37.109,-10.742,0.000,0
38555.909,-18.066,-24.414,-45.410,-15.625,0.000,0
38555.913,-13.184,-28.809,-45.898,-20.996,0.000,0
38555.917,-16.602,-46.387,-35.645,-16.113,0.000,0
38555.921,-20.020,-12.207,-37.109,-15.625,0.000,0
38555.925,-25.879,-12.695,-45.898,-10.742,0.000,0
38555.929,-41.504,-27.832,-41.016,-10.742,0.000,0
38555.933,-46.387,-30.273,-34.668,-20.996,0.000,0
38555.937,-23.926,-14.648,-37.109,-9.277,0.000,0
38555.940,-14.648,-17.578,-36.133,5.859,0.000,0
38555.944,-13.184,-38.086,-27.344,-12.695,0.000,0
38555.948,-19.531,-18.066,-25.391,-27.832,0.000,0
38555.952,-26.367,-14.648,-24.414,-29.297,0.000,0
38555.956,-29.297,-23.926,-30.762,-18.066,0.000,0
38555.960,-20.508,-26.367,-35.645,-9.766,0.000,0
38555.964,-23.926,-36.133,-34.668,-11.230,0.000,0
38555.968,-41.504,-21.973,-42.480,-14.160,0.000,0
38555.972,-25.391,-7.324,-38.086,-10.742,0.000,0
38555.976,-17.090,-22.461,-35.645,-4.395,0.000,0
38555.979,-16.602,-32.715,-40.527,-13.184,0.000,0
38555.983,-15.625,-44.922,-41.016,-18.555,0.000,0
38555.987,-27.344,-30.273,-38.574,-3.906,0.000,0
38555.991,-38.574,-27.344,-37.598,-2.441,0.000,0
38555.995,-40.527,-30.273,-48.340,-18.555,0.000,0
38555.999,-33.203,-26.855,-52.734,-17.090,0.000,0
38556.003,-28.320,-45.410,-45.410,-16.113,0.000,0
38556.007,-24.414,-30.273,-45.898,-20.996,0.000,0
38556.011,-24.414,-24.414,-50.781,-22.949,0.000,0
38556.015,-41.992,-44.434,-52.734,-27.344,0.000,0
38556.019,-49.316,-59.570,-49.805,-23.438,0.000,0
38556.022,-39.062,-46.387,-52.734,-20.020,0.000,0
38556.026,-21.973,-25.879,-50.293,-20.508,0.000,0
38556.030,-31.738,-21.973,-53.223,-30.273,0.000,0
38556.034,-41.016,-37.109,-54.199,-33.691,0.000,0
38556.038,-28.320,-28.320,-56.641,-23.926,0.000,0
38556.042,-17.090,-26.855,-54.688,-20.996,0.000,0
38556.046,-21.484,-20.996,-47.852,-25.391,0.000,0
38556.050,-25.879,-23.438,-38.086,-34.668,0.000,0
38556.054,-28.809,-30.762,-41.504,-33.203,0.000,0
38556.058,-31.250,-25.879,-48.828,-21.484,0.000,0
38556.062,-27.832,-39.062,-36.621,-25.879,0.000,0
38556.065,-22.949,-28.809,-32.227,-20.508,0.000,0
38556.069,-24.414,-13.672,-34.668,-17.578,0.000,0
38556.073,-19.043,-13.672,-24.902,-25.879,0.000,0
38556.077,-9.277,-16.113,-22.949,-27.344,0.000,0
38556.081,1.953,-17.578,-30.273,-27.832,0.000,0
38556.085,-17.090,-18.555,-33.691,-31.250,0.000,0
38556.089,-39.062,-19.043,-37.598,-47.363,0.000,0
38556.093,-28.320,-20.508,-31.738,-34.180,0.000,0
38556.097,-8.301,-29.297,-16.602,-12.695,0.000,0
38556.101,1.953,-22.949,-15.625,-20.508,0.000,0
38556.104,-11.719,-19.531,-23.438,-25.879,0.000,0
38556.108,-12.207,-18.066,-20.508,-13.184,0.000,0
38556.112,3.418,-0.488,-19.531,2.441,0.000,0
38556.116,2.441,-18.555,-22.949,-6.836,0.000,0
38556.120,-12.207,-37.109,-14.160,-21.484,0.000,0
38556.124,-11.230,-10.742,-15.137,-25.879,0.000,0
38556.128,-7.812,-4.883,-19.043,-16.113,0.000,0
38556.132,-16.602,2.441,-19.531,-17.578,0.000,0
38556.136,-5.371,-1.465,-18.555,-28.320,0.000,0
38556.140,0.977,-18.555,-3.906,-16.602,0.000,0
38556.144,-3.906,5.859,-12.695,-15.625,0.000,0
38556.147,-2.441,16.602,-24.902,-24.902,0.000,0
38556.151,6.348,-6.348,-8.789,-7.812,0.000,0
38556.155,-6.836,-27.344,-8.789,0.000,0.000,0
38556.159,-24.902,-34.668,-22.949,-18.555,0.000,0
38556.163,-12.695,-17.090,-12.695,-27.832,0.000,0
38556.167,-1.953,-6.836,-3.418,-16.113,0.000,0
38556.171,-10.742,-8.301,-16.602,-12.695,0.000,0
38556.175,-33.691,-17.090,-18.066,-27.344,0.000,0
38556.179,-27.344,-14.648,-17.090,-35.645,0.000,0
38556.183,-2.930,-11.230,-20.020,-25.391,0.000,0
38556.187,0.488,-19.043,-16.113,-14.648,0.000,0
38556.190,-21.973,-17.090,-19.043,-25.879,0.000,1
38556.194,-33.691,-22.461,-17.090,-31.738,0.000,0
38556.198,-24.902,-27.832,-13.672,-20.508,0.000,0
38556.202,-22.461,-21.484,-17.090,-16.113,0.000,0
38556.206,-30.273,-13.184,-23.438,-24.414,0.000,0
38556.210,-36.621,-17.090,-20.996,-37.109,0.000,0
38556.214,-30.273,-28.320,-16.602,-27.344,0.000,0
38556.218,-12.695,-28.320,-17.578,-20.508,0.000,0
38556.222,-10.742,-16.113,-28.320,-28.809,0.000,0
38556.226,-10.254,-27.832,-30.762,-14.648,0.000,0
38556.229,-21.973,-30.762,-28.809,-7.324,0.000,0
38556.233,-33.203,-18.066,-40.527,-20.020,0.000,0
38556.237,-17.578,-28.320,-33.203,-23.438,0.000,0
38556.241,-13.672,-20.996,-20.020,-18.555,0.000,0
38556.245,-26.855,-16.602,-20.508,-27.344,0.000,0
38556.249,-39.551,-27.832,-32.715,-40.527,0.000,0
38556.253,-41.016,-29.297,-40.527,-38.086,0.000,0
38556.257,-41.504,-41.016,-32.227,-38.086,0.000,0
38556.261,-35.156,-35.645,-35.156,-36.133,0.000,0
38556.265,-40.039,-23.926,-48.340,-33.203,0.000,0
38556.269,-52.246,-27.832,-39.062,-32.715,0.000,0
38556.272,-34.668,-32.715,-23.926,-30.762,0.000,0
38556.276,-24.902,-56.641,-27.832,-35.645,0.000,0
38556.280,-36.133,-21.484,-45.410,-31.738,0.000,0
38556.284,-34.668,-12.695,-43.457,-30.762,0.000,0
38556.288,-16.113,-30.273,-32.227,-20.996,0.000,0
38556.292,-7.812,-25.391,-21.973,-16.602,0.000,0
38556.296,-17.090,-36.133,-15.137,-17.578,0.000,0
38556.300,-29.785,-26.367,-19.043,-28.320,0.000,0
38556.304,-51.758,-25.879,-27.344,-32.715,0.000,0
38556.308,-49.316,-31.738,-43.457,-27.832,0.000,0
38556.312,-35.156,-38.086,-44.922,-33.691,0.000,0
38556.315,-37.598,-54.199,-32.715,-38.086,0.000,0
38556.319,-41.992,-36.133,-41.016,-31.738,0.000,0
38556.323,-34.180,-28.809,-47.852,-24.902,0.000,0
38556.327,-31.738,-46.387,-42.969,-23.926,0.000,0
38556.331,-32.227,-41.016,-32.227,-32.227,0.000,0
38556.335,-40.527,-43.945,-29.297,-50.781,0.000,0
38556.339,-35.645,-29.785,-41.504,-49.316,0.000,0
38556.343,-21.484,-27.832,-39.551,-32.715,0.000,0
38556.347,-26.855,-26.855,-33.691,-31.738,0.000,0
38556.351,-42.969,-23.926,-34.668,-44.922,0.000,0
38556.354,-39.062,-45.410,-32.715,-46.875,0.000,0
38556.358,-23.438,-30.762,-30.273,-25.391,0.000,0
38556.362,-30.273,-28.320,-32.227,-21.973,0.000,0
38556.366,-42.480,-38.574,-39.062,-29.297,0.000,0
38556.370,-35.645,-22.461,-46.875,-32.715,0.000,0
38556.374,-28.320,-36.133,-30.762,-38.086,0.000,0
38556.378,-30.762,-39.551,-20.020,-28.809,0.000,0
38556.382,-25.391,-12.695,-30.273,-29.785,0.000,0
38556.386,-22.461,-15.625,-32.227,-33.203,0.000,0
38556.390,-27.344,-37.598,-32.227,-31.250,0.000,0
38556.394,-26.855,-62.988,-27.832,-37.598,0.000,0
38556.397,-25.879,-46.875,-34.668,-34.668,0.000,0
38556.401,-39.551,-33.691,-34.668,-33.691,0.000,0
38556.405,-32.227,-36.621,-15.137,-29.297,0.000,0
38556.409,-28.320,-35.156,-24.414,-32.715,0.000,0
38556.413,-35.156,-42.480,-41.992,-45.898,0.000,0
38556.417,-30.273,-27.832,-39.551,-37.109,0.000,0
38556.421,-34.180,-30.273,-29.785,-26.367,0.000,0
38556.425,-35.156,-41.992,-22.949,-27.832,0.000,0
38556.429,-28.320,-49.805,-26.367,-21.973,0.000,0
38556.433,-21.973,-38.086,-34.180,-18.066,0.000,0
38556.437,-20.508,-27.344,-28.809,-26.855,0.000,0
38556.440,-28.809,-24.414,-25.879,-41.504,0.000,0
38556.444,-35.156,-20.020,-27.832,-35.645,0.000,0
38556.448,-23.438,-25.391,-29.785,-18.066,0.000,0
38556.452,-14.160,-49.316,-30.273,-20.508,0.000,0
38556.456,-24.902,-48.340,-28.809,-20.508,0.000,0
38556.460,-28.809,-31.250,-32.715,-27.832,0.000,0
38556.464,-18.066,-24.902,-32.715,-37.598,0.000,0
38556.468,-31.250,-41.016,-22.461,-40.039,0.000,0
38556.472,-44.434,-46.875,-23.926,-42.969,0.000,0
38556.476,-37.598,-37.598,-23.926,-38.086,0.000,0
38556.479,-32.227,-25.879,-16.113,-37.109,0.000,0
38556.483,-19.531,-19.531,-12.695,-28.809,0.000,0
38556.487,-20.996,-23.926,-20.020,-28.809,0.000,0
38556.491,-24.902,-26.855,-17.578,-27.832,0.000,0
38556.495,-25.391,-15.137,-8.301,-22.461,0.000,0
38556.499,-28.320,-4.395,-15.625,-29.297,0.000,0
38556.503,-25.879,-19.043,-16.113,-31.738,0.000,0
38556.507,-6.348,-5.859,-12.207,-25.391,0.000,0
38556.511,-1.465,-13.184,-5.859,-20.508,0.000,0
38556.515,-8.301,-20.996,3.906,-20.508,0.000,0
38556.519,1.953,-1.465,-0.977,-13.672,0.000,0
38556.522,-2.441,-9.766,-3.906,-14.160,0.000,0
38556.526,-17.090,-17.578,-1.465,-20.996,0.000,0
38556.530,-8.789,-30.273,0.000,-25.391,0.000,0
38556.534,1.953,-16.113,-5.859,-16.113,0.000,0
38556.538,-2.930,8.789,-12.695,-12.695,0.000,0
38556.542,-6.348,-18.066,-7.324,-20.996,0.000,0
38556.546,-3.418,-20.996,-0.977,-18.555,0.000,0
38556.550,-7.324,-19.043,1.465,-29.785,0.000,0
38556.554,-16.113,-24.414,6.348,-29.785,0.000,0
38556.558,-7.812,-13.184,2.441,-18.066,0.000,0
38556.562,2.441,-6.348,-4.395,-18.555,0.000,0
38556.565,13.184,-5.859,-0.977,-8.789,0.000,0
38556.569,18.555,-15.625,4.883,-11.719,0.000,0
38556.573,-0.977,-11.230,0.977,-23.926,0.000,0
38556.577,-8.301,-13.184,-10.254,-21.484,0.000,0
38556.581,0.977,-21.484,-8.301,-9.766,0.000,0
38556.585,5.371,-15.625,-5.371,-8.789,0.000,0
38556.589,11.719,-24.414,-0.977,-14.648,0.000,0
38556.593,3.906,-14.160,-0.977,-9.277,0.000,0
38556.597,-6.836,-4.883,-9.277,-11.230,0.000,0
38556.601,7.324,-14.648,-8.789,-6.348,0.000,0
38556.604,10.254,-11.230,-13.184,0.977,0.000,0
38556.608,-4.395,-28.320,-13.184,-18.066,0.000,0
38556.612,-6.348,-24.414,-10.254,-29.297,0.000,0
38556.616,0.977,-15.137,-8.789,-20.996,0.000,0
38556.620,-8.789,-18.555,-16.602,-20.508,0.000,0
38556.624,-19.531,-0.488,-24.414,-19.531,0.000,0
38556.628,-8.789,-39.062,-14.160,-18.066,0.000,0
38556.632,-2.930,-56.152,-2.930,-10.254,0.000,0
38556.636,-15.625,-3.906,-13.672,-11.719,0.000,0
38556.640,-18.555,-7.812,-19.043,-16.113,0.000,0
38556.644,-15.137,-29.785,-12.207,-6.836,0.000,0
38556.647,-9.277,-48.828,-7.324,-30.273,0.000,0
38556.651,18.066,-38.574,-9.277,-38.086,0.000,0
38556.655,11.719,-19.043,-20.508,-20.020,0.000,0
38556.659,-3.906,-31.250,-19.531,-12.695,0.000,0
38556.663,-0.977,-30.273,-20.996,-18.066,0.000,0
38556.667,-7.324,-43.457,-18.555,-27.344,0.000,0
38556.671,-7.812,-39.062,-13.184,-24.902,0.000,0
38556.675,-8.789,-15.625,-18.066,-14.648,0.000,0
38556.679,-9.277,-16.602,-17.090,-9.766,0.000,0
38556.683,-9.277,-18.066,-13.184,0.000,0.000,0
38556.687,-9.766,-36.133,-12.207,0.977,0.000,0
38556.690,-12.207,-38.574,-13.184,-8.789,0.000,0
38556.694,-5.371,-18.066,-16.113,-10.742,0.000,0
38556.698,0.000,-9.766,-26.367,-14.648,0.000,0
38556.702,0.000,-22.461,-23.926,-16.113,0.000,0
38556.706,-7.324,-53.711,-11.719,-6.348,0.000,0
38556.710,-5.371,-48.340,-19.043,-7.812,0.000,0
38556.714,-3.906,-21.484,-18.555,-14.160,0.000,0
38556.718,-3.906,-25.879,-7.812,-16.602,0.000,0
38556.722,-1.465,-25.391,-13.184,-19.043,0.000,0
38556.726,-13.672,-31.250,-16.602,-21.484,0.000,0
38556.729,-23.926,-39.551,-15.137,-20.996,0.000,0
38556.733,-23.926,-30.273,-15.137,-17.090,0.000,0
38556.737,-15.625,-17.578,-13.184,-13.672,0.000,0
38556.741,-15.625,-1.465,-16.113,-13.184,0.000,0
38556.745,-18.066,5.371,-12.695,-14.160,0.000,0
38556.749,-17.090,-13.672,-4.883,-15.625,0.000,0
38556.753,-13.184,-6.836,-5.371,-8.301,0.000,0
38556.757,-12.695,6.348,-9.277,-3.906,0.000,0
38556.761,-25.391,-4.883,-12.695,2.441,0.000,0
38556.765,-17.578,-15.137,-13.184,-5.859,0.000,0
38556.769,0.488,-9.766,-4.883,-8.301,0.000,0
38556.772,-15.625,-0.977,-6.348,-3.906,0.000,0
38556.776,-31.738,-12.695,-19.043,-8.301,0.000,0
38556.780,-20.020,-18.555,-17.578,-7.324,0.000,0
38556.784,-8.301,-15.137,-16.602,-2.930,0.000,0
38556.788,-25.879,-23.438,-32.227,-24.902,0.000,0
38556.792,-32.715,-23.926,-26.855,-29.297,0.000,1
38556.796,-23.926,-27.832,-19.043,-14.160,0.000,0
38556.800,-24.902,-30.273,-35.156,-24.414,0.000,0
38556.804,-18.555,-22.461,-32.715,-26.367,0.000,0
38556.808,-3.418,-22.461,-21.484,-18.555,0.000,0
38556.812,-4.883,-12.207,-17.578,-20.020,0.000,0
38556.815,-20.020,-18.066,-23.438,-25.391,0.000,0
38556.819,-26.855,-29.785,-21.973,-20.996,0.000,0
38556.823,-42.969,-36.133,-15.625,-31.250,0.000,0
38556.827,-53.711,-49.316,-16.602,-41.992,0.000,0
38556.831,-35.645,-41.504,-22.461,-21.484,0.000,0
38556.835,-29.297,-42.969,-26.855,-14.160,0.000,0
38556.839,-29.297,-51.758,-20.020,-20.508,0.000,0
38556.843,-33.691,-39.551,-21.484,-27.344,0.000,0
38556.847,-46.387,-41.504,-26.855,-33.203,0.000,0
38556.851,-42.969,-39.062,-26.855,-40.039,0.000,0
38556.854,-30.762,-33.691,-25.879,-37.598,0.000,0
38556.858,-39.062,-35.645,-29.785,-23.926,0.000,0
38556.862,-44.434,-36.621,-33.203,-13.672,0.000,0
38556.866,-45.410,-46.387,-32.715,-18.555,0.000,0
38556.870,-48.828,-39.551,-27.832,-27.832,0.000,0
38556.874,-40.039,-26.855,-24.902,-15.625,0.000,0
38556.878,-36.133,-35.645,-33.691,-9.277,0.000,0
38556.882,-44.922,-47.852,-37.598,-18.555,0.000,0
38556.886,-46.875,-50.293,-26.367,-22.461,0.000,0
38556.890,-36.133,-41.016,-30.762,-31.250,0.000,0
38556.894,-24.902,-36.133,-32.227,-41.016,0.000,0
38556.897,-24.902,-34.180,-25.391,-37.598,0.000,0
38556.901,-41.016,-40.527,-40.527,-39.062,0.000,0
38556.905,-44.434,-49.316,-47.363,-40.527,0.000,0
38556.909,-45.410,-35.645,-45.410,-38.086,0.000,0
38556.913,-54.199,-20.996,-41.016,-30.273,0.000,0
38556.917,-35.156,-25.879,-38.086,-33.691,0.000,0
38556.921,-37.109,-20.996,-37.598,-33.203,0.000,0
38556.925,-48.828,-25.391,-32.227,-40.527,0.000,0
38556.929,-32.715,-28.809,-22.461,-37.598,0.000,0
38556.933,-29.785,-14.648,-21.484,-15.625,0.000,0
38556.937,-31.738,-23.926,-30.762,-24.902,0.000,0
38556.940,-30.762,-32.227,-27.832,-27.832,0.000,0
38556.944,-29.785,-23.438,-26.855,-27.344,0.000,0
38556.948,-24.414,-16.113,-25.391,-34.668,0.000,0
38556.952,-20.996,-9.277,-29.297,-35.156,0.000,0
38556.956,-30.762,-18.066,-28.809,-31.738,0.000,0
38556.960,-34.180,-20.508,-29.297,-20.020,0.000,0
38556.964,-31.250,-34.668,-36.133,-22.461,0.000,0
38556.968,-28.809,-32.715,-33.691,-36.133,0.000,0
38556.972,-33.691,-16.113,-36.133,-32.715,0.000,0
38556.976,-47.852,-20.508,-39.062,-20.020,0.000,0
38556.979,-43.945,-18.555,-46.875,-25.879,0.000,0
38556.983,-32.715,-38.086,-46.387,-44.922,0.000,0
38556.987,-29.297,-41.016,-34.668,-30.762,0.000,0
38556.991,-25.879,-20.996,-32.227,-15.137,0.000,0
38556.995,-17.578,-19.531,-35.645,-16.602,0.000,0
38556.999,-35.156,-23.926,-42.969,-17.090,0.000,0
38557.003,-41.504,-42.480,-35.156,-24.902,0.000,0
38557.007,-24.414,-36.133,-29.785,-28.809,0.000,0
38557.011,-31.738,-13.672,-36.621,-34.180,0.000,0
38557.015,-25.879,-16.113,-33.203,-24.902,0.000,0
38557.019,-22.461,-22.949,-35.645,-15.137,0.000,0
38557.022,-36.133,-39.062,-30.762,-29.785,0.000,0
38557.026,-28.809,-38.086,-24.902,-33.203,0.000,0
38557.030,-16.113,-12.207,-36.133,-29.297,0.000,0
38557.034,-23.926,-20.020,-35.645,-27.344,0.000,0
38557.038,-27.832,-31.250,-28.809,-18.066,0.000,0
38557.042,-27.344,-37.598,-31.738,-14.648,0.000,0
38557.046,-28.320,-28.320,-36.621,-17.090,0.000,0
38557.050,-18.066,-20.020,-37.109,-11.230,0.000,0
38557.054,-21.973,-28.809,-40.039,-10.742,0.000,0
38557.058,-30.273,-29.297,-40.039,-15.625,0.000,0
38557.062,-33.691,-32.715,-32.715,-13.184,0.000,0
38557.065,-25.391,-38.574,-31.738,-16.602,0.000,0
38557.069,-20.020,-33.203,-37.109,-17.578,0.000,0
38557.073,-28.320,-15.625,-41.016,-23.926,0.000,0
38557.077,-34.180,-24.902,-31.250,-15.137,0.000,0
38557.081,-36.621,-50.293,-25.879,-11.230,0.000,0
38557.085,-28.809,-45.410,-32.715,-11.719,0.000,0
38557.089,-25.879,-19.043,-40.527,-10.254,0.000,0
38557.093,-18.555,-13.672,-37.109,-18.066,0.000,0
38557.097,2.441,-20.508,-27.344,-3.418,0.000,0
38557.101,14.160,-26.855,-32.227,6.348,0.000,0
38557.104,-23.926,-40.039,-41.992,-23.438,0.000,0
38557.108,-50.293,-25.391,-39.551,-32.715,0.000,0
38557.112,-22.461,-15.625,-33.203,-12.207,0.000,0
38557.116,-8.301,-5.859,-38.574,-7.324,0.000,0
38557.120,-9.766,0.000,-33.691,-9.766,0.000,0
38557.124,-4.883,-19.531,-13.184,-0.488,0.000,0
38557.128,-7.812,-22.949,-14.648,8.301,0.000,0
38557.132,-9.766,-19.043,-27.344,-2.441,0.000,0
38557.136,-12.695,-20.020,-20.020,-14.648,0.000,0
38557.140,-14.648,-18.555,-20.996,-13.184,0.000,0
38557.144,-15.137,-31.250,-22.949,-15.137,0.000,0
38557.147,-9.277,-14.648,-21.973,-9.766,0.000,0
38557.151,-3.906,-4.395,-26.367,-6.836,0.000,0
38557.155,-2.441,-10.742,-23.926,-8.789,0.000,0
38557.159,-6.836,-11.230,-18.066,-2.930,0.000,0
38557.163,-11.230,-9.766,-21.973,-3.418,0.000,0
38557.167,-13.672,-4.883,-21.484,-6.348,0.000,0
38557.171,-6.836,-17.578,-13.184,-2.441,0.000,0
38557.175,2.930,-7.812,-13.184,-1.465,0.000,0
38557.179,-2.441,-10.254,-13.672,-3.418,0.000,0
38557.183,-4.395,-20.508,-9.766,-19.531,0.000,0
38557.187,-13.672,-13.672,-12.207,-20.996,0.000,0
38557.190,-10.254,-11.230,-14.648,-2.930,0.000,0
38557.194,2.930,-7.324,-11.230,-0.488,0.000,0
38557.198,-7.812,-11.719,-9.766,-1.953,0.000,0
38557.202,-17.578,-20.508,-14.648,-9.766,0.000,0
38557.206,-26.367,-17.090,-20.508,-20.996,0.000,0
38557.210,-20.508,-8.301,-20.996,-19.531,0.000,0
38557.214,-0.488,-6.348,-14.648,-3.418,0.000,0
38557.218,-3.906,-14.160,-16.602,5.371,0.000,0
38557.222,-15.137,-17.578,-20.020,-7.324,0.000,0
38557.226,-6.836,-13.184,-18.066,-14.648,0.000,0
38557.229,3.906,-7.324,-18.555,-10.254,0.000,0
38557.233,0.488,-8.789,-20.996,-12.207,0.000,0
38557.237,-1.465,-11.230,-22.461,-8.301,0.000,0
38557.241,0.977,-24.902,-16.602,-3.418,0.000,0
38557.245,-12.207,-38.086,-13.672,-10.742,0.000,0
38557.249,-14.160,-18.066,-22.461,-12.207,0.000,0
38557.253,0.488,-10.742,-31.250,-8.789,0.000,0
38557.257,-6.348,-20.996,-28.320,-5.859,0.000,0
38557.261,-9.766,-31.738,-23.438,-10.742,0.000,0
38557.265,-0.488,-24.902,-26.367,-12.207,0.000,0
38557.269,-5.371,-2.930,-31.738,-19.043,0.000,0
38557.272,-2.441,-9.277,-27.344,-27.832,0.000,0
38557.276,-11.230,-34.180,-18.066,-22.461,0.000,0
38557.280,-15.625,-24.902,-16.602,-14.160,0.000,0
38557.284,-12.695,-6.348,-23.926,-11.230,0.000,0
38557.288,-13.184,-18.555,-19.531,-3.906,0.000,0
38557.292,-7.812,-30.273,-20.020,-4.395,0.000,0
38557.296,-2.930,-28.809,-27.832,-17.578,0.000,0
38557.300,-7.812,-39.551,-22.949,-29.785,0.000,0
38557.304,-10.254,-40.039,-21.973,-24.414,0.000,0
38557.308,3.906,-28.809,-25.879,-9.766,0.000,0
38557.312,-1.953,-29.297,-28.809,-16.113,0.000,0
38557.315,-15.137,-29.297,-25.879,-21.484,0.000,0
38557.319,-14.648,-44.922,-20.996,-30.762,0.000,0
38557.323,-11.719,-45.410,-20.508,-32.227,0.000,0
38557.327,-10.254,-18.066,-24.902,-20.508,0.000,0
38557.331,-10.742,-19.531,-30.273,-9.766,0.000,0
38557.335,-1.953,-38.086,-32.227,3.418,0.000,1
38557.339,-1.465,-53.223,-20.996,-1.953,0.000,0
38557.343,-22.461,-42.969,-11.230,-20.020,0.000,0
38557.347,-18.555,-25.391,-18.066,-11.719,0.000,0
38557.351,0.977,-33.691,-18.066,6.348,0.000,0
38557.354,10.254,-17.578,-16.113,4.395,0.000,0
38557.358,4.883,-25.879,-15.137,-12.695,0.000,0
38557.362,-9.277,-43.457,-11.719,-15.137,0.000,0
38557.366,-11.719,-37.109,-24.902,-12.207,0.000,0
38557.370,1.953,-35.156,-34.180,-10.254,0.000,0
38557.374,2.441,-27.344,-33.691,-1.465,0.000,0
38557.378,-5.859,-39.551,-21.484,-5.371,0.000,0
38557.382,3.418,-46.875,-16.113,-14.160,0.000,0
38557.386,-1.953,-12.207,-24.902,-17.090,0.000,0
38557.390,-0.977,-8.789,-18.066,-7.812,0.000,0
38557.394,5.859,-30.762,-7.812,8.789,0.000,0
38557.397,0.000,-41.016,-7.324,-2.441,0.000,0
38557.401,0.488,-35.645,-14.648,-12.207,0.000,0
38557.405,-9.766,-22.461,-22.461,-6.836,0.000,0
38557.409,-7.324,-30.762,-24.414,-10.742,0.000,0
38557.413,-1.465,-30.273,-27.832,-13.184,0.000,0
38557.417,-20.020,-35.156,-25.879,-17.090,0.000,0
38557.421,-21.973,-46.875,-20.020,-20.020,0.000,0
38557.425,-18.555,-34.668,-17.090,-20.996,0.000,0
38557.429,-15.625,-25.391,-18.555,-15.625,0.000,0
38557.433,-14.160,-27.344,-16.113,-15.625,0.000,0
38557.437,-19.531,-30.273,-11.719,-26.367,0.000,0
38557.440,-19.531,-33.203,-13.672,-19.531,0.000,0
38557.444,-8.301,-26.367,-15.137,-10.254,0.000,0
38557.448,-6.348,-22.949,-12.695,-18.066,0.000,0
38557.452,-17.090,-29.297,-12.207,-21.973,0.000,0
38557.456,-13.184,-25.391,-13.672,-8.789,0.000,0
38557.460,-4.395,-20.020,-5.859,-5.859,0.000,0
38557.464,2.441,5.371,-3.906,-7.324,0.000,0
38557.468,9.277,6.348,-2.930,1.465,0.000,0
38557.472,15.625,-17.090,0.488,15.625,0.000,0
38557.476,0.977,-11.719,-5.371,5.371,0.000,0
38557.479,-2.930,-18.066,-3.906,-3.418,0.000,0
38557.483,-1.465,-23.438,-11.230,-1.953,0.000,0
38557.487,-4.883,-19.531,-20.020,-8.789,0.000,0
38557.491,4.395,-10.254,-24.414,-10.742,0.000,0
38557.495,5.859,-11.719,-22.949,-16.602,0.000,0
38557.499,-3.906,-36.621,-18.555,-9.766,0.000,0
38557.503,3.906,-30.273,-13.184,-6.348,0.000,0
38557.507,6.836,-12.695,-18.066,-13.672,0.000,0
38557.511,-13.672,-26.855,-29.297,-22.949,0.000,0
38557.515,-11.719,-44.922,-22.949,-20.996,0.000,0
38557.519,-6.836,-45.410,-17.578,-10.254,0.000,0
38557.522,-11.719,-28.320,-21.973,-20.996,0.000,0
38557.526,-17.578,-31.738,-27.832,-28.809,0.000,0
38557.530,-15.625,-34.180,-32.227,-19.531,0.000,0
38557.534,-5.371,-24.902,-26.855,-14.648,0.000,0
38557.538,-10.742,-18.555,-28.809,-18.066,0.000,0
38557.542,-14.160,-27.344,-24.902,-18.066,0.000,0
38557.546,-14.160,-36.621,-19.531,-6.836,0.000,0
38557.550,-18.555,-20.020,-26.855,-19.531,0.000,0
38557.554,-15.625,-22.461,-20.508,-21.484,0.000,0
38557.558,18.066,-6.836,-0.977,20.020,0.000,0
38557.562,46.875,45.898,-12.695,38.574,0.000,0
38557.565,63.965,89.355,-27.344,52.734,0.000,0
38557.569,42.969,70.312,-4.395,31.250,0.000,0
38557.573,-11.230,15.625,-17.578,-20.508,0.000,0
38557.577,-24.902,-8.301,-21.484,-27.344,0.000,0
38557.581,-8.301,15.137,-22.949,-7.324,0.000,0
38557.585,-2.930,55.176,-36.133,2.441,0.000,0
38557.589,14.648,70.801,-16.602,22.461,0.000,0
38557.593,50.293,82.031,-16.602,50.781,0.000,0
38557.597,28.320,74.219,-25.391,19.043,0.000,0
38557.601,-7.812,58.105,-28.809,-19.531,0.000,0
38557.604,-21.973,60.059,-42.480,-37.109,0.000,0
38557.608,-21.484,64.941,-48.340,-31.250,0.000,0
38557.612,-22.461,76.660,-50.781,-25.879,0.000,0
38557.616,-26.367,66.895,-56.152,-28.809,0.000,0
38557.620,-14.160,87.402,-50.293,-9.766,0.000,0
38557.624,0.000,122.070,-52.734,5.859,0.000,0
38557.628,12.695,117.188,-54.688,12.695,0.000,0
38557.632,-1.953,104.492,-50.293,5.371,0.000,0
38557.636,-20.508,79.102,-50.293,-18.555,0.000,0
38557.640,-4.395,82.031,-61.523,-18.066,0.000,0
38557.644,2.441,101.562,-66.895,-13.672,0.000,0
38557.647,-16.602,85.449,-53.711,-23.926,0.000,0
38557.651,-17.578,73.242,-55.664,-20.996,0.000,0
38557.655,-17.090,48.828,-64.453,-22.461,0.000,0
38557.659,-28.320,56.152,-60.547,-22.949,0.000,0
38557.663,-4.883,56.152,-56.641,-22.461,0.000,0
38557.667,-0.488,37.598,-59.570,-20.996,0.000,0
38557.671,-23.438,33.691,-62.500,-23.438,0.000,0
38557.675,-36.621,11.230,-58.594,-34.180,0.000,0
38557.679,-44.922,8.301,-61.035,-49.316,0.000,0
38557.683,-42.480,8.301,-61.523,-60.059,0.000,0
38557.687,-42.480,12.207,-61.035,-53.711,0.000,0
38557.690,-33.691,2.930,-53.711,-44.434,0.000,0
38557.694,-25.391,-38.086,-41.992,-40.527,0.000,0
38557.698,-52.246,-33.203,-50.293,-50.293,0.000,0
38557.702,-80.078,-32.715,-55.176,-75.684,0.000,0
38557.706,-65.918,-43.945,-43.945,-69.336,0.000,0
38557.710,-45.410,-38.574,-33.203,-51.270,0.000,0
38557.714,-43.457,-47.852,-30.273,-46.875,0.000,0
38557.718,-45.898,-42.969,-35.645,-50.781,0.000,0
38557.722,-41.504,-45.410,-38.574,-58.105,0.000,0
38557.726,-43.457,-54.688,-37.109,-42.969,0.000,0
38557.729,-45.410,-52.734,-34.668,-38.086,0.000,0
38557.733,-41.504,-62.012,-15.625,-68.848,0.000,0
38557.737,-42.969,-58.594,-16.113,-70.312,0.000,0
38557.741,-50.781,-52.246,-30.273,-52.246,0.000,0
38557.745,-53.223,-59.570,-30.273,-45.898,0.000,0
38557.749,-46.875,-59.082,-28.320,-25.879,0.000,0
38557.753,-45.898,-92.773,-19.043,-31.738,0.000,0
38557.757,-37.598,-102.051,-14.160,-33.203,0.000,0
38557.761,-49.805,-59.570,-23.438,-47.363,0.000,0
38557.765,-63.477,-72.266,-21.484,-63.477,0.000,0
38557.769,-46.875,-91.309,-13.672,-49.316,0.000,0
38557.772,-28.809,-80.078,-11.719,-34.180,0.000,0
38557.776,-26.367,-74.219,-15.137,-45.410,0.000,0
38557.780,-37.109,-77.637,-14.648,-40.527,0.000,0
38557.784,-35.156,-91.797,-0.488,-26.855,0.000,0
38557.788,-28.809,-83.984,-3.906,-31.250,0.000,0
38557.792,-41.016,-86.914,-6.348,-46.875,0.000,0
38557.796,-47.852,-99.609,-7.324,-51.270,0.000,0
38557.800,-51.758,-95.703,-20.020,-56.641,0.000,0
38557.804,-48.828,-85.449,-20.996,-57.129,0.000,0
38557.808,-35.156,-80.566,-17.090,-23.926,0.000,0
38557.812,-27.832,-94.238,-20.508,-31.250,0.000,0
38557.815,-46.875,-100.586,-25.391,-56.641,0.000,0
38557.819,-72.266,-88.379,-22.949,-73.730,0.000,0
38557.823,-39.062,-76.172,-28.809,-53.711,0.000,0
38557.827,-33.203,-90.332,-30.273,-34.180,0.000,0
38557.831,-61.035,-100.586,-23.926,-55.176,0.000,0
38557.835,-56.152,-92.285,-38.086,-55.176,0.000,0
38557.839,-48.340,-78.125,-38.574,-46.387,0.000,0
38557.843,-58.105,-86.426,-30.762,-62.500,0.000,0
38557.847,-69.336,-100.586,-42.969,-85.938,0.000,0
38557.851,-63.965,-91.309,-46.387,-71.777,0.000,0
38557.854,-53.223,-89.844,-37.598,-59.570,0.000,0
38557.858,-38.086,-99.609,-36.621,-73.242,0.000,0
38557.862,-40.527,-80.078,-39.551,-50.293,0.000,0
38557.866,-48.828,-66.895,-36.621,-42.480,0.000,0
38557.870,-46.875,-74.707,-34.668,-68.848,0.000,0
38557.874,-64.941,-96.680,-35.645,-79.590,0.000,0
38557.878,-54.199,-77.637,-40.039,-66.895,0.000,0
38557.882,-27.832,-70.312,-34.180,-36.621,0.000,0
38557.886,-33.203,-77.148,-25.879,-31.250,0.000,0
38557.890,-53.223,-79.590,-29.297,-46.875,0.000,0
38557.894,-49.316,-82.031,-33.203,-53.223,0.000,0
38557.897,-49.316,-64.941,-34.668,-44.922,0.000,0
38557.901,-48.828,-60.547,-27.832,-48.340,0.000,0
38557.905,-42.969,-63.965,-26.855,-56.152,0.000,0
38557.909,-32.715,-62.988,-27.832,-44.922,0.000,0
38557.913,-34.180,-58.594,-29.297,-46.387,0.000,0
38557.917,-43.945,-44.922,-25.879,-43.945,0.000,0
38557.921,-28.809,-37.109,-21.973,-36.133,0.000,0
38557.925,-19.043,-31.250,-29.297,-27.832,0.000,0
38557.929,-27.344,-41.504,-29.785,-36.621,0.000,0
38557.933,-30.762,-52.246,-25.879,-41.504,0.000,0
38557.937,-26.855,-40.527,-32.715,-32.715,0.000,0
38557.940,-29.785,-40.039,-38.574,-44.922,0.000,0
38557.944,-31.250,-33.691,-36.133,-41.992,0.000,0
38557.948,-23.926,-41.992,-29.785,-31.250,0.000,0
38557.952,-23.438,-52.734,-27.344,-50.293,0.000,0
38557.956,-37.598,-22.949,-34.180,-53.711,0.000,0
38557.960,-25.879,-30.762,-37.109,-35.156,0.000,0
38557.964,-8.301,-30.273,-29.785,-23.438,0.000,0
38557.968,-17.090,-18.555,-28.320,-47.852,0.000,2
38557.972,-20.508,-39.062,-29.297,-51.270,0.000,0
38557.976,-38.574,-26.855,-33.691,-33.203,0.000,0
38557.979,-52.246,-29.785,-40.527,-49.316,0.000,0
38557.983,-31.250,-34.180,-41.016,-40.527,0.000,0
38557.987,-16.113,-28.320,-32.227,-39.062,0.000,0
38557.991,-23.926,-55.664,-24.414,-58.105,0.000,0
38557.995,-25.391,-45.410,-22.949,-46.387,0.000,0
38557.999,-21.484,-35.645,-31.250,-38.086,0.000,0
38558.003,-22.949,-38.574,-34.668,-47.363,0.000,0
38558.007,-24.414,-38.574,-22.949,-29.297,0.000,0
38558.011,-17.578,-56.641,-19.043,-18.555,0.000,0
38558.015,-18.555,-40.039,-27.344,-27.344,0.000,0
38558.019,-23.438,-32.715,-24.902,-28.320,0.000,0
38558.022,-32.227,-47.852,-22.461,-32.227,0.000,0
38558.026,-34.180,-50.781,-30.273,-39.062,0.000,0
38558.030,-30.273,-66.895,-27.832,-51.270,0.000,0
38558.034,-29.297,-51.758,-29.785,-30.273,0.000,0
38558.038,-28.320,-37.598,-32.715,-23.926,0.000,0
38558.042,-24.902,-41.504,-37.109,-30.273,0.000,0
38558.046,-25.391,-33.691,-36.621,-24.902,0.000,0
38558.050,-19.043,-44.434,-24.902,-25.879,0.000,0
38558.054,-21.484,-44.922,-22.949,-16.602,0.000,0
38558.058,-20.020,-18.555,-24.414,-22.461,0.000,0
38558.062,-3.906,-26.855,-24.902,-17.090,0.000,0
38558.065,0.000,-32.227,-24.414,-6.348,0.000,0
38558.069,-1.465,-30.273,-20.996,-18.555,0.000,0
38558.073,3.418,-21.484,-21.973,-16.602,0.000,0
38558.077,4.883,-9.277,-22.949,-6.836,0.000,0
38558.081,-15.137,-15.137,-18.066,-6.836,0.000,0
38558.085,-14.160,-12.695,-16.113,-21.973,0.000,0
38558.089,8.789,-10.742,-9.766,-19.043,0.000,0
38558.093,-7.812,-9.277,-10.254,-23.926,0.000,0
38558.097,-22.461,-3.418,-15.625,-24.902,0.000,0
38558.101,-17.578,-7.812,-17.090,-3.906,0.000,0
38558.104,-31.738,-1.953,-27.832,-32.227,0.000,0
38558.108,-41.992,-9.277,-29.297,-42.969,0.000,0
38558.112,-26.367,-23.438,-17.578,-23.926,0.000,0
38558.116,-20.508,-0.977,-14.160,-15.625,0.000,0
38558.120,-17.090,12.207,-14.648,-21.973,0.000,0
38558.124,-13.672,10.742,-8.789,-12.695,0.000,0
38558.128,-18.066,3.418,-2.441,-18.555,0.000,0
38558.132,-16.602,7.324,-2.930,-21.973,0.000,0
38558.136,-11.719,17.578,-7.812,-16.113,0.000,0
38558.140,-20.020,2.441,-16.113,-14.648,0.000,0
38558.144,-18.066,1.465,-19.043,-7.324,0.000,0
38558.147,-18.066,7.812,-22.949,-10.742,0.000,0
38558.151,-27.344,-0.488,-28.809,-13.672,0.000,0
38558.155,-26.855,-5.859,-26.367,-20.508,0.000,0
38558.159,-33.691,-10.254,-22.461,-21.973,0.000,0
38558.163,-25.879,-3.906,-22.461,-18.555,0.000,0
38558.167,-9.766,-4.395,-19.043,-14.648,0.000,0
38558.171,-26.367,-5.371,-26.367,-15.625,0.000,0
38558.175,-33.203,-7.324,-22.949,-13.672,0.000,0
38558.179,-27.344,-14.648,-23.438,-13.184,0.000,0
38558.183,-24.902,-23.438,-29.785,-20.020,0.000,0
38558.187,-8.301,-26.855,-26.367,-8.789,0.000,0
38558.190,-12.695,-30.273,-25.879,-4.883,0.000,0
38558.194,-18.066,-19.043,-23.926,-18.555,0.000,0
38558.198,-7.324,-13.672,-28.809,-15.137,0.000,0
38558.202,-8.789,-37.598,-26.367,-16.113,0.000,0
38558.206,-18.066,-51.270,-30.273,-24.414,0.000,0
38558.210,-18.066,-47.363,-32.227,-29.297,0.000,0
38558.214,-23.438,-38.086,-28.809,-20.020,0.000,0
38558.218,-14.648,-36.133,-27.344,-12.695,0.000,0
38558.222,-6.348,-28.809,-22.949,-21.484,0.000,0
38558.226,-15.625,-32.227,-18.066,-13.184,0.000,0
38558.229,-15.625,-37.598,-15.137,-18.066,0.000,0
38558.233,-17.090,-24.902,-12.695,-22.949,0.000,0
38558.237,-17.090,-23.926,-12.207,-11.719,0.000,0
38558.241,-12.207,-12.695,-20.508,-15.625,0.000,0
38558.245,-15.137,-13.184,-23.438,-8.789,0.000,0
38558.249,-1.953,-42.969,-12.695,9.766,0.000,0
38558.253,-1.953,-30.273,-22.461,0.488,0.000,0
38558.257,-18.555,-22.461,-29.785,-20.020,0.000,0
38558.261,-10.254,-25.391,-24.902,-33.203,0.000,0
38558.265,-2.441,-36.621,-22.949,-20.508,0.000,0
38558.269,-14.160,-42.969,-20.508,-14.648,0.000,0
38558.272,-2.930,-12.695,-23.926,-24.902,0.000,0
38558.276,5.859,-24.414,-21.484,-25.879,0.000,0
38558.280,-19.043,-27.832,-26.855,-15.625,0.000,0
38558.284,-21.973,-16.602,-25.391,-8.789,0.000,0
38558.288,-19.043,-34.180,-22.461,-38.574,0.000,0
38558.292,-16.602,-34.180,-25.879,-39.551,0.000,0
38558.296,-11.230,-27.344,-25.391,-9.766,0.000,0
38558.300,-10.254,-20.996,-26.855,-17.090,0.000,0
38558.304,0.977,-21.973,-21.484,-30.273,0.000,0
38558.308,-8.789,-41.992,-20.996,-15.625,0.000,0
38558.312,-14.160,-33.203,-27.344,-13.184,0.000,0
38558.315,-10.742,-25.391,-29.785,-23.926,0.000,0
38558.319,-15.137,-26.855,-29.785,-17.578,0.000,0
38558.323,-5.859,-32.227,-23.438,-18.066,0.000,0
38558.327,0.488,-49.316,-18.066,-2.441,0.000,0
38558.331,-3.418,-35.156,-19.043,3.906,0.000,0
38558.335,0.977,-24.902,-21.484,-6.348,0.000,0
38558.339,-7.324,-36.621,-18.555,-2.441,0.000,0
38558.343,-22.949,-42.969,-20.996,-9.766,0.000,0
38558.347,-14.648,-60.547,-30.273,-20.508,0.000,0
38558.351,-7.324,-46.875,-29.297,-7.812,0.000,0
38558.354,-12.207,-35.156,-27.344,-3.906,0.000,0
38558.358,-17.578,-36.133,-26.855,-19.531,0.000,0
38558.362,-21.484,-30.762,-28.320,-13.184,0.000,0
38558.366,-17.578,-56.641,-23.926,-9.277,0.000,0
38558.370,-4.395,-51.758,-21.973,-11.719,0.000,0
38558.374,-4.883,-15.137,-35.156,-21.484,0.000,0
38558.378,-27.832,-32.715,-34.180,-18.066,0.000,0
38558.382,-28.809,-45.898,-29.297,1.953,0.000,0
38558.386,-17.090,-58.594,-30.273,-9.277,0.000,0
38558.390,-11.719,-45.410,-35.156,-21.484,0.000,0
38558.394,-11.719,-25.391,-41.504,-12.207,0.000,0
38558.397,-3.418,-41.504,-30.762,-0.977,0.000,0
38558.401,0.488,-37.598,-20.508,-8.789,0.000,0
38558.405,-12.207,-42.480,-20.020,-18.066,0.000,0
38558.409,-12.207,-44.922,-23.438,-10.742,0.000,0
38558.413,-9.766,-38.086,-19.043,-6.348,0.000,0
38558.417,-5.371,-34.668,-18.066,-11.230,0.000,0
38558.421,1.953,-28.809,-29.297,-13.672,0.000,0
38558.425,8.789,-41.504,-25.391,-26.855,0.000,0
38558.429,-3.906,-37.109,-21.484,-17.090,0.000,0
38558.433,-20.996,-21.484,-30.273,-3.418,0.000,0
38558.437,-11.230,-29.297,-28.809,-22.949,0.000,0
38558.440,-15.625,-41.504,-30.273,-34.668,0.000,0
38558.444,-20.996,-48.340,-31.250,-33.203,0.000,0
38558.448,-17.578,-35.156,-25.391,-34.180,0.000,0
38558.452,-24.902,-18.555,-36.133,-31.738,0.000,0
38558.456,-20.508,-27.832,-44.922,-27.832,0.000,0
38558.460,-4.883,-33.203,-32.715,-17.578,0.000,0
38558.464,-9.277,-28.809,-23.926,-22.949,0.000,0
38558.468,-8.789,-23.438,-26.855,-18.555,0.000,0
38558.472,-16.113,-29.297,-28.809,-1.465,0.000,0
38558.476,-23.926,-35.156,-23.438,3.906,0.000,0
38558.479,-18.066,-12.695,-26.855,-4.395,0.000,0
38558.483,-16.113,-17.578,-30.273,-18.555,0.000,0
38558.487,-0.488,-20.996,-18.066,-19.531,0.000,0
38558.491,-2.930,-12.695,-11.719,-19.043,0.000,0
38558.495,-1.465,-11.230,-15.137,-13.672,0.000,0
38558.499,0.000,-12.207,-17.090,-8.301,0.000,0
38558.503,-2.930,-22.949,-16.113,-12.207,0.000,0
38558.507,-0.977,-29.297,-26.367,-10.254,0.000,0
38558.511,0.488,-15.137,-33.691,-0.488,0.000,0
38558.515,-3.906,-8.301,-27.832,-8.301,0.000,0
38558.519,-0.977,-15.137,-20.508,-10.742,0.000,0
38558.522,-3.906,-11.719,-22.461,2.441,0.000,0
38558.526,-22.949,-11.230,-30.762,-20.020,0.000,0
38558.530,-29.297,-26.855,-31.250,-39.062,0.000,0
38558.534,-24.902,-52.734,-23.438,-27.344,0.000,0
38558.538,-3.906,-42.969,-25.879,-21.973,0.000,0
38558.542,-9.766,-41.016,-28.809,-13.672,0.000,0
38558.546,-20.508,-52.246,-28.320,-17.090,0.000,0
38558.550,-19.531,-37.598,-29.785,-9.277,0.000,0
38558.554,-16.113,-33.203,-30.273,-19.531,0.000,0
38558.558,-0.488,-32.227,-28.320,-41.992,0.000,0
38558.562,-13.672,-39.062,-19.531,-11.719,0.000,0
38558.565,-25.879,-35.156,-23.926,1.953,0.000,0
38558.569,-23.926,-26.367,-33.691,-9.766,0.000,0
38558.573,-20.020,-41.016,-26.367,-6.348,0.000,0
38558.577,-15.625,-38.574,-19.531,-14.160,0.000,0
38558.581,-22.949,-42.480,-22.461,-25.391,0.000,0
38558.585,-26.855,-43.457,-28.809,-31.738,0.000,0
38558.589,-30.273,-34.668,-29.297,-32.715,0.000,0
38558.593,-29.785,-36.133,-25.391,-22.461,0.000,0
38558.597,-17.578,-30.762,-29.297,-19.531,0.000,0
38558.601,-14.160,-43.457,-28.809,-20.020,0.000,0
38558.604,-27.344,-41.504,-21.973,-33.203,0.000,0
38558.608,-34.668,-30.273,-21.973,-38.086,0.000,0
38558.612,-29.785,-37.598,-27.832,-28.809,0.000,0
38558.616,-23.926,-26.367,-32.227,-28.320,0.000,0
38558.620,-22.949,-41.504,-22.461,-30.273,0.000,0
38558.624,-24.414,-49.805,-20.996,-19.531,0.000,0
38558.628,-27.344,-16.602,-34.180,-24.414,0.000,0
38558.632,-43.457,-15.625,-31.738,-29.297,0.000,0
38558.636,-33.691,-27.832,-20.508,-18.555,0.000,0
38558.640,-17.578,-44.922,-14.648,-23.438,0.000,0
38558.644,-16.113,-33.691,-21.973,-20.508,0.000,0
38558.647,-14.160,-17.090,-29.785,-20.508,0.000,0
38558.651,-11.719,-24.414,-28.809,-22.461,0.000,0
38558.655,-28.320,-29.785,-30.273,-19.531,0.000,0
38558.659,-36.133,-36.621,-26.367,-35.156,0.000,0
38558.663,-20.020,-31.738,-22.461,-35.645,0.000,0
38558.667,-20.020,-32.227,-20.996,-22.949,0.000,0
38558.671,-22.461,-28.320,-19.531,-27.832,0.000,0
38558.675,-12.695,-30.273,-13.184,-39.062,0.000,0
38558.679,-8.301,-53.223,-5.859,-42.969,0.000,0
38558.683,-9.766,-40.527,-7.324,-20.020,0.000,0
38558.687,-12.207,-11.230,-15.625,-20.996,0.000,0
38558.690,-34.180,-13.672,-22.461,-43.457,0.000,0
38558.694,-29.297,-30.273,-18.555,-35.156,0.000,1
38558.698,-11.230,-51.758,-12.695,-32.227,0.000,0
38558.702,-17.090,-49.805,-8.789,-31.738,0.000,0
38558.706,-27.832,-24.902,-13.184,-15.137,0.000,0
38558.710,-16.602,-32.227,-15.137,-13.184,0.000,0
38558.714,-0.488,-35.645,-13.184,-20.020,0.000,0
38558.718,2.930,-36.621,-12.207,-28.809,0.000,0
38558.722,4.395,-35.156,-8.301,-11.719,0.000,0
38558.726,-6.836,-29.297,-20.508,-19.531,0.000,0
38558.729,-19.531,-34.180,-30.762,-35.645,0.000,0
38558.733,-12.207,-22.461,-29.785,-19.043,0.000,0
38558.737,-1.953,-32.227,-24.414,-20.996,0.000,0
38558.741,-4.883,-49.316,-13.184,-25.879,0.000,0
38558.745,0.488,-28.320,-14.648,-13.672,0.000,0
38558.749,-13.184,-28.320,-20.996,-19.043,0.000,0
38558.753,-37.598,-49.316,-23.438,-41.992,0.000,0
38558.757,-38.086,-60.547,-24.414,-44.922,0.000,0
38558.761,-29.785,-61.523,-28.809,-43.945,0.000,0
38558.765,-31.250,-40.039,-38.086,-44.922,0.000,0
38558.769,-30.273,-45.410,-35.156,-33.203,0.000,0
38558.772,-24.414,-47.852,-31.250,-26.367,0.000,0
38558.776,-25.879,-57.617,-28.809,-35.156,0.000,0
38558.780,-16.113,-68.848,-23.926,-28.320,0.000,0
38558.784,-21.484,-41.504,-29.785,-28.809,0.000,0
38558.788,-28.320,-41.992,-27.832,-34.668,0.000,0
38558.792,-29.297,-47.363,-25.879,-26.855,0.000,0
38558.796,-24.902,-48.340,-23.438,-28.809,0.000,0
38558.800,-24.414,-59.570,-17.090,-37.109,0.000,0
38558.804,-41.504,-59.082,-26.855,-41.016,0.000,0
38558.808,-36.621,-49.805,-29.297,-35.645,0.000,0
38558.812,-29.785,-35.645,-32.715,-35.156,0.000,0
38558.815,-32.227,-50.293,-30.273,-31.250,0.000,0
38558.819,-26.855,-59.570,-18.555,-20.996,0.000,0
38558.823,-15.625,-35.156,-18.066,-19.531,0.000,0
38558.827,-22.949,-32.715,-19.043,-15.137,0.000,0
38558.831,-19.531,-31.738,-8.789,-3.418,0.000,0
38558.835,-13.184,-28.809,-6.836,-14.160,0.000,0
38558.839,-13.672,-29.297,-13.184,-22.949,0.000,0
38558.843,-4.883,-22.949,-14.648,-21.484,0.000,0
38558.847,-0.977,-20.508,-16.113,-13.672,0.000,0
38558.851,-4.883,-8.301,-18.066,-9.277,0.000,0
38558.854,-4.395,1.465,-19.531,-11.230,0.000,0
38558.858,9.277,-20.996,-9.277,-9.766,0.000,0
38558.862,7.324,-16.602,-10.742,-12.695,0.000,0
38558.866,0.488,6.348,-20.508,-13.184,0.000,0
38558.870,8.789,-8.789,-19.531,-6.836,0.000,0
38558.874,6.836,-15.137,-15.137,-3.418,0.000,0
38558.878,2.930,-36.133,-5.859,-4.395,0.000,0
38558.882,3.906,-35.156,-10.254,-14.648,0.000,0
38558.886,-11.230,3.906,-23.438,-12.695,0.000,0
38558.890,-18.555,-11.230,-20.508,-20.996,0.000,0
38558.894,-11.230,-31.738,-15.625,-22.461,0.000,0
38558.897,-8.301,-24.902,-19.043,-22.461,0.000,0
38558.901,-3.418,-14.648,-26.367,-29.785,0.000,0
38558.905,-4.883,-26.367,-17.090,-19.043,0.000,0
38558.909,-11.230,-41.992,-11.230,-18.555,0.000,0
38558.913,-7.812,-31.250,-21.484,-35.156,0.000,0
38558.917,-4.883,-34.668,-14.648,-27.832,0.000,0
38558.921,-12.695,-20.996,-8.789,-15.625,0.000,0
38558.925,-15.625,1.465,-14.160,-14.648,0.000,0
38558.929,-10.742,-9.277,-24.414,-20.996,0.000,0
38558.933,-14.160,-17.090,-25.879,-32.715,0.000,0
38558.937,-14.160,-40.039,-14.160,-23.438,0.000,0
38558.940,-9.766,-34.180,-15.625,-16.113,0.000,0
38558.944,-9.277,-9.277,-14.648,-15.625,0.000,0
38558.948,-0.488,-12.207,-4.883,-6.836,0.000,0
38558.952,7.324,-15.137,-3.418,-2.441,0.000,0
38558.956,5.371,-24.902,-8.789,-7.812,0.000,0
38558.960,0.977,-13.672,-9.766,-1.953,0.000,0
38558.964,3.906,2.930,-6.348,2.441,0.000,0
38558.968,-6.836,-19.043,-12.695,-11.230,0.000,0
38558.972,-13.672,-18.066,-15.625,-17.578,0.000,0
38558.976,12.695,-23.926,-7.324,-4.883,0.000,0
38558.979,11.719,-30.273,-2.441,0.977,0.000,0
38558.983,-5.859,-23.438,-11.230,1.465,0.000,0
38558.987,-8.789,-24.902,-19.043,-0.488,0.000,0
38558.991,-1.465,-13.184,-23.926,-14.160,0.000,0
38558.995,0.977,-39.062,-18.066,-22.949,0.000,0
38558.999,-9.766,-52.734,-11.230,-27.832,0.000,0
38559.003,-16.602,-28.809,-25.391,-29.297,0.000,0
38559.007,-19.531,-30.762,-28.809,-30.273,0.000,0
38559.011,-5.371,-28.320,-29.785,-21.484,0.000,0
38559.015,-13.184,-48.340,-31.738,-37.109,0.000,0
38559.019,-34.180,-47.852,-32.715,-51.270,0.000,0
38559.022,-17.090,-30.762,-32.227,-35.156,0.000,0
38559.026,-15.625,-29.785,-27.832,-22.461,0.000,0
38559.030,-13.184,-20.020,-25.391,-12.207,0.000,0
38559.034,-14.160,-29.297,-29.297,-26.367,0.000,0
38559.038,-28.809,-41.016,-36.133,-41.504,0.000,0
38559.042,-25.879,-30.273,-33.203,-36.133,0.000,0
38559.046,-20.508,-25.879,-28.809,-33.203,0.000,0
38559.050,-12.695,-24.902,-34.180,-33.203,0.000,0
38559.054,-27.832,-34.668,-35.156,-36.621,0.000,0
38559.058,-29.785,-36.133,-27.832,-41.504,0.000,0
38559.062,-15.137,-15.625,-34.180,-34.180,0.000,0
38559.065,-20.020,-20.020,-37.598,-28.320,0.000,0
38559.069,-19.531,-23.438,-32.715,-19.043,0.000,0
38559.073,-11.230,-28.809,-35.645,-20.996,0.000,0
38559.077,-23.926,-34.180,-33.691,-39.551,0.000,0
38559.081,-29.785,-15.137,-34.180,-37.598,0.000,0
38559.085,-14.160,-22.949,-31.738,-39.551,0.000,0
38559.089,-35.645,-20.996,-34.668,-36.133,0.000,0
38559.093,-46.875,-12.695,-45.410,-26.855,0.000,0
38559.097,-29.297,-33.203,-41.016,-38.574,0.000,0
38559.101,-34.180,-26.855,-44.434,-43.945,0.000,0
38559.104,-39.062,-24.414,-46.875,-41.992,0.000,0
38559.108,-38.086,-27.832,-42.480,-45.410,0.000,0
38559.112,-37.109,-34.668,-41.504,-46.387,0.000,0
38559.116,-43.945,-49.316,-44.434,-49.805,0.000,0
38559.120,-46.387,-34.668,-46.875,-51.758,0.000,0
38559.124,-42.480,-30.762,-42.969,-41.016,0.000,0
38559.128,-38.574,-29.785,-40.039,-32.227,0.000,0
38559.132,-33.691,-28.320,-30.273,-41.504,0.000,0
38559.136,-35.156,-33.203,-29.785,-38.086,0.000,0
38559.140,-43.945,-21.973,-40.527,-39.062,0.000,0
38559.144,-38.086,-20.996,-38.086,-49.805,0.000,0
38559.147,-37.598,-29.785,-35.156,-51.270,0.000,0
38559.151,-50.781,-27.344,-43.457,-50.293,0.000,0
38559.155,-53.223,-32.227,-43.945,-57.617,0.000,0
38559.159,-50.781,-34.668,-43.945,-55.664,0.000,0
38559.163,-43.945,-25.879,-46.387,-46.387,0.000,0
38559.167,-50.781,-31.738,-41.992,-46.875,0.000,0
38559.171,-47.852,-35.645,-42.480,-54.199,0.000,0
38559.175,-48.340,-52.734,-43.945,-53.711,0.000,0
38559.179,-55.176,-36.621,-46.875,-44.922,0.000,0
38559.183,-41.504,-7.324,-46.387,-41.992,0.000,0
38559.187,-26.855,-22.461,-35.156,-35.156,0.000,0
38559.190,-25.391,-28.320,-28.809,-18.555,0.000,0
38559.194,-30.762,-22.949,-28.320,-27.344,0.000,0
38559.198,-31.250,-20.020,-28.809,-37.109,0.000,0
38559.202,-25.879,-12.695,-27.344,-30.273,0.000,0
38559.206,-14.648,-15.625,-24.414,-30.762,0.000,0
38559.210,-17.090,-21.484,-26.367,-30.273,0.000,0
38559.214,-20.020,-31.250,-17.090,-29.785,0.000,0
38559.218,-27.832,-30.762,-20.508,-23.438,0.000,0
38559.222,-32.227,-28.320,-31.250,-18.066,0.000,0
38559.226,-26.367,-23.438,-32.227,-28.809,0.000,0
38559.229,-32.715,-15.137,-38.574,-36.621,0.000,0
38559.233,-34.180,-38.574,-32.227,-38.574,0.000,0
38559.237,-25.879,-50.293,-25.879,-40.039,0.000,0
38559.241,-37.109,-42.480,-33.203,-45.410,0.000,0
38559.245,-30.762,-35.645,-35.156,-42.480,0.000,0
38559.249,-25.391,-30.762,-28.320,-28.809,0.000,0
38559.253,-38.086,-41.504,-22.461,-29.297,0.000,0
38559.257,-33.203,-29.297,-27.832,-29.297,0.000,0
38559.261,-32.227,-21.484,-33.691,-33.203,0.000,0
38559.265,-30.273,-27.344,-25.391,-26.855,0.000,0
38559.269,-28.809,-26.367,-25.391,-19.043,0.000,0
38559.272,-32.227,-25.391,-30.762,-28.320,0.000,0
38559.276,-30.762,-28.809,-28.320,-28.320,0.000,0
38559.280,-30.762,-38.574,-18.066,-20.020,0.000,0
38559.284,-23.438,-22.461,-15.137,-23.438,0.000,0
38559.288,-19.043,-21.484,-21.484,-41.504,0.000,0
38559.292,-27.344,-29.785,-22.461,-46.387,0.000,0
38559.296,-16.113,-17.090,-19.531,-36.621,0.000,0
38559.300,-9.766,-8.301,-13.184,-26.855,0.000,0
38559.304,-25.391,-9.766,-12.695,-16.602,0.000,0
38559.308,-22.949,-18.555,-11.719,-14.648,0.000,0
38559.312,-15.625,-29.297,-4.395,-19.043,0.000,0
38559.315,-23.926,7.324,-10.742,-14.160,0.000,0
38559.319,-8.789,16.602,-11.719,-17.090,0.000,0
38559.323,-6.836,0.000,-13.184,-26.855,0.000,0
38559.327,-25.391,-11.230,-16.602,-19.531,0.000,0
38559.331,-19.043,-8.789,-9.766,-14.648,0.000,0
38559.335,-5.859,10.254,-8.789,-18.555,0.000,0
38559.339,2.441,6.348,-9.766,-5.371,0.000,0
38559.343,0.488,11.230,-10.254,2.441,0.000,0
38559.347,-1.465,-7.812,-11.230,-14.160,0.000,0
38559.351,1.465,-16.602,-7.324,-7.812,0.000,0
38559.354,4.395,12.207,-8.789,2.441,0.000,0
38559.358,4.883,8.789,-10.254,4.883,0.000,0
38559.362,5.371,7.812,-7.324,13.672,0.000,0
38559.366,7.324,1.465,1.953,4.395,0.000,0
38559.370,0.000,-7.324,2.930,-7.812,0.000,0
38559.374,-8.789,1.953,-11.230,-6.348,0.000,0
38559.378,-12.207,-6.836,-10.254,-11.230,0.000,0
38559.382,-15.137,-11.230,-15.137,-21.484,0.000,0
38559.386,-10.742,-28.809,-16.602,-27.832,0.000,0
38559.390,-16.602,-17.578,-12.695,-27.344,0.000,0
38559.394,-25.391,-9.277,-15.625,-18.066,0.000,0
38559.397,-30.273,-33.691,-21.973,-18.555,0.000,0
38559.401,-36.621,-37.109,-28.809,-24.902,0.000,0
38559.405,-35.645,-43.457,-22.949,-33.691,0.000,0
38559.409,-28.320,-38.574,-22.461,-19.043,0.000,0
38559.413,-22.461,-15.137,-26.855,-4.883,0.000,1
38559.417,-8.301,-8.789,-24.902,-16.602,0.000,0
38559.421,-9.277,-16.113,-20.508,-15.137,0.000,0
38559.425,-21.484,-46.875,-6.836,-7.812,0.000,0
38559.429,-13.184,-45.410,-11.230,-15.625,0.000,0
38559.433,-18.555,-31.738,-24.902,-21.973,0.000,0
38559.437,-26.855,-42.969,-22.461,-21.484,0.000,0
38559.440,-30.762,-41.504,-18.066,-21.484,0.000,0
38559.444,-37.598,-43.945,-20.020,-21.484,0.000,0
38559.448,-29.297,-45.898,-20.996,-20.020,0.000,0
38559.452,-28.809,-29.785,-26.367,-17.578,0.000,0
38559.456,-24.414,-31.250,-27.832,-15.625,0.000,0
38559.460,-21.484,-22.949,-26.855,-12.207,0.000,0
38559.464,-16.113,-20.508,-26.855,-32.227,0.000,0
38559.468,-16.602,-24.414,-16.602,-42.969,0.000,0
38559.472,-23.926,-27.344,-12.207,-30.273,0.000,0
38559.476,-24.414,-31.738,-22.949,-24.414,0.000,0
38559.479,-26.367,-18.066,-25.879,-10.254,0.000,0
38559.483,-20.020,-26.855,-22.949,-7.324,0.000,0
38559.487,-17.090,-43.945,-18.555,-15.137,0.000,0
38559.491,-23.438,-3.418,-29.297,-13.184,0.000,0
38559.495,-20.020,5.371,-33.691,-7.812,0.000,0
38559.499,-10.742,-20.508,-20.020,-6.836,0.000,0
38559.503,-11.230,-28.320,-15.137,-15.137,0.000,0
38559.507,-15.137,-22.949,-22.461,-18.066,0.000,0
38559.511,-20.020,-21.973,-27.832,-23.926,0.000,0
38559.515,-15.625,-33.691,-27.344,-17.090,0.000,0
38559.519,-20.996,-41.016,-32.715,-16.602,0.000,0
38559.522,-24.414,-40.039,-34.180,-36.133,0.000,0
38559.526,-23.926,-37.598,-30.762,-37.109,0.000,0
38559.530,-20.996,-23.438,-34.180,-30.273,0.000,0
38559.534,-16.113,-22.949,-37.109,-32.715,0.000,0
38559.538,-21.973,-24.414,-38.574,-28.809,0.000,0
38559.542,-28.320,-32.227,-37.109,-36.621,0.000,0
38559.546,-32.715,-47.363,-38.086,-38.086,0.000,0
38559.550,-36.621,-35.156,-41.992,-28.320,0.000,0
38559.554,-35.645,-17.578,-47.363,-33.691,0.000,0
38559.558,-31.738,-17.578,-45.898,-32.715,0.000,0
38559.562,-29.785,-46.387,-29.785,-21.484,0.000,0
38559.565,-20.020,-47.852,-28.809,-18.555,0.000,0
38559.569,-25.391,-33.691,-39.551,-23.926,0.000,0
38559.573,-43.945,-30.762,-41.504,-29.785,0.000,0
38559.577,-34.180,-26.855,-31.250,-17.578,0.000,0
38559.581,-26.367,-30.762,-29.297,-19.043,0.000,0
38559.585,-25.879,-41.992,-24.902,-26.367,0.000,0
38559.589,-21.484,-38.086,-19.531,-19.531,0.000,0
38559.593,-18.555,-12.207,-27.832,-8.301,0.000,0
38559.597,-19.043,-17.090,-28.809,-5.371,0.000,0
38559.601,-18.555,-34.180,-27.832,-22.949,0.000,0
38559.604,-10.742,-45.898,-32.715,-33.203,0.000,0
38559.608,-30.273,-37.109,-34.668,-24.902,0.000,0
38559.612,-45.898,-33.203,-41.016,-28.809,0.000,0
38559.616,-39.062,-39.551,-45.410,-31.738,0.000,0
38559.620,-38.086,-44.434,-41.992,-29.297,0.000,0
38559.624,-37.109,-54.199,-39.062,-36.621,0.000,0
38559.628,-37.109,-30.762,-41.504,-31.738,0.000,0
38559.632,-33.691,-14.160,-40.527,-31.738,0.000,0
38559.636,-25.879,-29.297,-35.156,-27.344,0.000,0
38559.640,-27.832,-39.062,-33.203,-24.414,0.000,0
38559.644,-25.879,-44.922,-36.133,-32.227,0.000,0
38559.647,-14.648,-44.434,-36.133,-31.250,0.000,0
38559.651,-21.484,-46.875,-30.273,-20.020,0.000,0
38559.655,-39.551,-41.016,-40.039,-26.367,0.000,0
38559.659,-40.039,-40.039,-45.898,-32.227,0.000,0
38559.663,-24.902,-61.035,-43.945,-36.621,0.000,0
38559.667,-29.297,-49.316,-44.434,-37.598,0.000,0
38559.671,-36.133,-37.598,-45.898,-28.320,0.000,0
38559.675,-31.250,-41.016,-48.340,-29.785,0.000,0
38559.679,-25.391,-44.922,-38.086,-35.645,0.000,0
38559.683,-21.484,-59.082,-30.273,-44.922,0.000,0
38559.687,-24.414,-45.410,-38.086,-34.668,0.000,0
38559.690,-30.762,-37.598,-41.992,-29.785,0.000,0
38559.694,-23.438,-52.246,-37.109,-40.039,0.000,0
38559.698,-22.461,-38.574,-32.715,-35.645,0.000,0
38559.702,-18.555,-43.457,-34.180,-39.062,0.000,0
38559.706,-20.508,-44.434,-34.180,-26.367,0.000,0
38559.710,-28.809,-43.945,-35.156,-24.902,0.000,0
38559.714,-19.043,-43.945,-38.574,-46.875,0.000,0
38559.718,-24.414,-38.574,-34.180,-41.016,0.000,0
38559.722,-33.203,-53.223,-29.785,-41.992,0.000,0
38559.726,-30.762,-46.875,-33.691,-41.992,0.000,0
38559.729,-29.785,-33.691,-36.133,-28.320,0.000,0
38559.733,-31.738,-36.133,-38.574,-25.391,0.000,0
38559.737,-29.297,-41.016,-39.062,-29.297,0.000,0
38559.741,-33.203,-57.617,-31.250,-35.156,0.000,0
38559.745,-32.715,-48.340,-37.109,-32.715,0.000,0
38559.749,-38.574,-16.113,-47.363,-35.156,0.000,0
38559.753,-27.344,-18.066,-43.945,-36.133,0.000,0
38559.757,-14.648,-27.832,-36.133,-26.855,0.000,0
38559.761,-44.434,-40.039,-37.598,-43.457,0.000,0
38559.765,-46.875,-42.969,-36.133,-48.340,0.000,0
38559.769,-3.906,-35.645,-26.367,-7.324,0.000,0
38559.772,-9.277,-40.527,-33.691,-7.812,0.000,0
38559.776,-55.176,-40.527,-44.434,-45.410,0.000,0
38559.780,-58.105,-45.410,-35.645,-49.805,0.000,0
38559.784,-45.898,-46.875,-26.367,-46.875,0.000,0
38559.788,-50.781,-42.969,-34.668,-46.875,0.000,0
38559.792,-47.363,-34.180,-41.016,-43.457,0.000,0
38559.796,-41.992,-39.062,-35.645,-45.898,0.000,0
38559.800,-38.086,-51.270,-21.973,-34.668,0.000,0
38559.804,-40.039,-39.551,-13.672,-30.762,0.000,0
38559.808,-38.086,-10.742,-15.137,-31.738,0.000,0
38559.812,-17.090,0.488,-7.812,-24.902,0.000,0
38559.815,-19.531,-11.230,3.418,-19.043,0.000,0
38559.819,-12.695,-15.625,4.395,-11.230,0.000,0
38559.823,0.000,-16.113,1.953,-3.906,0.000,0
38559.827,-14.160,-14.648,-0.488,-14.648,0.000,0
38559.831,-21.973,-22.461,-9.766,-12.207,0.000,0
38559.835,-13.672,-13.672,-18.066,-4.395,0.000,0
38559.839,-12.207,-1.953,-16.113,-12.695,0.000,0
38559.843,-5.859,-8.789,-5.371,-5.859,0.000,0
38559.847,14.160,-15.137,7.324,7.324,0.000,0
38559.851,11.230,-16.602,-1.953,-2.441,0.000,0
38559.854,-6.348,-13.184,-7.324,-14.160,0.000,0
38559.858,-8.789,-18.066,0.488,-11.230,0.000,0
38559.862,-3.418,-24.902,-0.488,-21.484,0.000,0
38559.866,-7.324,-7.324,-12.207,-20.996,0.000,0
38559.870,-12.695,0.488,-18.066,-13.184,0.000,0
38559.874,-14.160,-21.484,-15.137,-11.719,0.000,0
38559.878,-12.695,-41.992,-14.648,-16.602,0.000,0
38559.882,-0.977,-32.227,-21.484,-19.043,0.000,0
38559.886,-2.930,-15.625,-21.973,-19.043,0.000,0
38559.890,-22.949,-35.645,-14.648,-11.719,0.000,0
38559.894,-19.531,-36.133,-18.555,-11.230,0.000,0
38559.897,-17.090,-31.250,-16.602,-20.996,0.000,0
38559.901,-11.719,-22.949,-5.859,-15.137,0.000,0
38559.905,0.977,-1.465,-4.883,-5.859,0.000,0
38559.909,0.000,-6.348,2.930,3.418,0.000,0
38559.913,0.977,-5.859,10.254,3.906,0.000,0
38559.917,10.742,-10.254,21.973,5.371,0.000,0
38559.921,16.113,-3.418,24.414,3.906,0.000,0
38559.925,3.906,5.859,9.766,-1.465,0.000,0
38559.929,-4.883,3.906,0.000,0.000,0.000,0
38559.933,1.465,3.906,9.277,19.531,0.000,0
38559.937,5.371,-15.137,20.020,20.020,0.000,0
38559.940,2.930,-4.883,12.207,-6.836,0.000,0
38559.944,4.883,11.719,9.277,3.418,0.000,0
38559.948,15.137,5.859,13.672,18.555,0.000,0
38559.952,9.766,4.883,13.184,12.695,0.000,0
38559.956,8.789,-3.906,19.043,-0.488,0.000,0
38559.960,22.461,-3.418,22.461,7.324,0.000,0
38559.964,18.066,5.859,14.160,11.719,0.000,0
38559.968,14.648,1.465,6.348,6.836,0.000,0
38559.972,18.555,6.348,5.371,13.184,0.000,0
38559.976,14.160,-6.348,13.184,12.207,0.000,0
38559.979,11.719,-6.836,11.230,17.578,0.000,0
38559.983,16.113,19.043,-0.977,16.602,0.000,0
38559.987,21.484,17.578,1.465,11.719,0.000,0
38559.991,24.902,11.719,5.371,9.766,0.000,0
38559.995,8.301,2.930,2.930,-6.836,0.000,0
38559.999,-13.184,-7.324,3.906,-13.184,0.000,0
38560.003,-5.859,1.465,-2.930,-8.301,0.000,0
38560.007,0.488,-3.906,-7.324,-8.301,0.000,0
38560.011,-4.395,-16.602,-1.953,-10.254,0.000,0
38560.015,-9.277,-20.508,-5.859,-20.020,0.000,0
38560.019,-15.137,-24.414,-12.207,-20.508,0.000,0
38560.022,-26.855,-26.367,-14.160,-23.438,0.000,0
38560.026,-35.645,-31.250,-20.020,-26.855,0.000,0
38560.030,-35.156,-20.996,-33.203,-20.508,0.000,0
38560.034,-35.645,-30.762,-30.273,-25.879,0.000,0
38560.038,-37.109,-38.574,-22.949,-28.320,0.000,0
38560.042,-31.250,-5.859,-24.902,-19.043,0.000,0
38560.046,-17.578,5.371,-24.902,-18.066,0.000,0
38560.050,-18.066,-1.465,-20.508,-17.578,0.000,0
38560.054,-21.484,-21.973,-14.648,-15.137,0.000,0
38560.058,-19.043,-33.203,-17.578,-19.043,0.000,0
38560.062,-13.672,-14.160,-20.020,-17.578,0.000,0
38560.065,-11.230,-18.066,-16.602,-10.742,0.000,1
38560.069,-11.719,-20.508,-17.578,-6.348,0.000,0
38560.073,-13.672,-19.043,-19.043,-5.859,0.000,0
38560.077,-18.066,-21.484,-15.625,-11.719,0.000,0
38560.081,-10.254,-3.418,-13.184,-6.348,0.000,0
38560.085,-6.836,-3.906,-10.254,-4.883,0.000,0
38560.089,-10.254,-6.836,-7.812,-5.859,0.000,0
38560.093,-9.766,-14.160,-12.695,-6.348,0.000,0
38560.097,-11.719,-22.461,-11.719,-14.160,0.000,0
38560.101,-19.043,-23.438,-4.395,-16.113,0.000,0
38560.104,-18.555,-20.020,-14.160,-13.184,0.000,0
38560.108,-19.531,-3.418,-27.344,-12.695,0.000,0
38560.112,-20.020,-21.973,-18.555,-8.789,0.000,0
38560.116,-14.648,-31.250,-8.301,-2.930,0.000,0
38560.120,-5.371,-13.672,-16.602,0.000,0.000,0
38560.124,-11.719,-9.277,-20.020,-3.906,0.000,0
38560.128,-23.438,-7.812,-12.695,-8.301,0.000,0
38560.132,-17.090,-14.160,-15.625,-6.836,0.000,0
38560.136,-15.625,-19.531,-19.043,-9.766,0.000,0
38560.140,-21.484,-18.555,-21.484,-16.602,0.000,0
38560.144,-20.996,-19.531,-22.949,-18.555,0.000,0
38560.147,-25.879,-19.043,-27.344,-15.137,0.000,0
38560.151,-30.273,-24.902,-33.203,-17.090,0.000,0
38560.155,-33.203,-37.109,-28.809,-15.625,0.000,0
38560.159,-28.320,-34.668,-32.227,-18.066,0.000,0
38560.163,-24.414,-33.203,-36.621,-11.230,0.000,0
38560.167,-38.086,-23.926,-44.434,-15.137,0.000,0
38560.171,-27.832,-26.855,-47.363,-9.766,0.000,0
38560.175,-14.648,-58.105,-33.203,4.395,0.000,0
38560.179,-37.598,-35.156,-26.855,-28.809,0.000,0
38560.183,-38.086,-19.531,-24.414,-41.992,0.000,0
38560.187,-22.949,-33.203,-27.344,-22.461,0.000,0
38560.190,-24.414,-29.785,-27.344,-20.996,0.000,0
38560.194,-24.414,-33.203,-30.273,-35.156,0.000,0
38560.198,-28.809,-34.668,-40.527,-28.809,0.000,0
38560.202,-39.551,-25.391,-37.598,-30.273,0.000,0
38560.206,-38.574,-31.738,-41.504,-44.922,0.000,0
38560.210,-28.320,-41.992,-46.387,-34.668,0.000,0
38560.214,-41.504,-44.922,-47.852,-40.527,0.000,0
38560.218,-50.781,-48.828,-43.457,-42.480,0.000,0
38560.222,-33.691,-37.598,-35.156,-34.180,0.000,0
38560.226,-21.973,-24.902,-37.109,-38.086,0.000,0
38560.229,-21.973,-22.461,-32.227,-37.109,0.000,0
38560.233,-36.133,-38.086,-29.785,-38.574,0.000,0
38560.237,-38.574,-32.227,-29.785,-37.598,0.000,0
38560.241,-41.504,-24.414,-33.691,-35.645,0.000,0
38560.245,-37.598,-29.297,-30.762,-29.297,0.000,0
38560.249,-27.344,-23.926,-29.785,-19.531,0.000,0
38560.253,-37.598,-33.691,-32.227,-27.832,0.000,0
38560.257,-33.691,-27.832,-38.086,-36.133,0.000,0
38560.261,-30.762,-15.625,-42.969,-28.809,0.000,0
38560.265,-34.180,-32.715,-42.480,-27.344,0.000,0
38560.269,-28.809,-29.297,-43.945,-29.297,0.000,0
38560.272,-17.578,-43.945,-33.203,-25.879,0.000,0
38560.276,-19.531,-43.945,-31.738,-21.484,0.000,0
38560.280,-38.086,-14.160,-40.527,-38.086,0.000,0
38560.284,-43.457,-17.578,-45.410,-48.340,0.000,0
38560.288,-42.480,-19.531,-47.363,-32.715,0.000,0
38560.292,-43.945,-43.945,-40.039,-34.668,0.000,0
38560.296,-39.551,-55.176,-37.598,-39.062,0.000,0
38560.300,-37.598,-38.574,-44.922,-37.598,0.000,0
38560.304,-42.969,-31.250,-46.875,-47.363,0.000,0
38560.308,-40.527,-28.809,-43.457,-51.270,0.000,0
38560.312,-35.645,-67.383,-44.434,-49.805,0.000,0
38560.315,-51.270,-58.105,-58.105,-47.363,0.000,0
38560.319,-59.570,-21.484,-66.895,-48.340,0.000,0
38560.323,-51.758,-51.270,-64.453,-43.945,0.000,0
38560.327,-42.969,-54.688,-59.570,-39.551,0.000,0
38560.331,-43.457,-60.547,-53.223,-53.711,0.000,0
38560.335,-51.758,-67.871,-52.734,-54.688,0.000,0
38560.339,-56.152,-49.316,-61.035,-52.734,0.000,0
38560.343,-54.688,-50.781,-61.523,-50.781,0.000,0
38560.347,-50.781,-44.922,-59.570,-43.457,0.000,0
38560.351,-52.246,-49.316,-56.641,-48.340,0.000,0
38560.354,-41.992,-55.664,-50.293,-48.340,0.000,0
38560.358,-40.527,-32.715,-53.223,-46.875,0.000,0
38560.362,-49.316,-29.297,-56.641,-46.387,0.000,0
38560.366,-38.086,-30.273,-51.270,-39.062,0.000,0
38560.370,-36.621,-46.387,-45.410,-51.270,0.000,0
38560.374,-45.410,-57.129,-47.363,-53.223,0.000,0
38560.378,-48.340,-42.480,-53.711,-43.457,0.000,0
38560.382,-39.551,-43.945,-50.781,-50.781,0.000,0
38560.386,-42.969,-41.992,-50.781,-48.340,0.000,0
38560.390,-47.852,-44.922,-51.758,-45.410,0.000,0
38560.394,-35.156,-46.387,-46.875,-44.434,0.000,0
38560.397,-39.062,-43.945,-48.828,-41.016,0.000,0
38560.401,-36.621,-45.410,-50.781,-33.691,0.000,0
38560.405,-23.438,-35.156,-46.387,-29.297,0.000,0
38560.409,-32.715,-32.715,-35.645,-36.621,0.000,0
38560.413,-32.227,-51.270,-30.762,-38.574,0.000,0
38560.417,-20.508,-29.785,-35.156,-30.273,0.000,0
38560.421,-14.648,-5.859,-44.434,-26.855,0.000,0
38560.425,-14.160,-17.578,-39.551,-21.973,0.000,0
38560.429,-17.578,-24.414,-23.438,-20.508,0.000,0
38560.433,-15.625,-18.066,-15.625,-13.184,0.000,0
38560.437,-4.883,-8.301,-15.137,-1.465,0.000,0
38560.440,-2.930,-19.043,-19.043,-11.719,0.000,0
38560.444,-10.742,-20.996,-19.531,-22.461,0.000,0
38560.448,-7.324,-19.043,-21.484,-12.207,0.000,0
38560.452,-10.254,-25.879,-22.949,-10.254,0.000,0
38560.456,-18.066,-25.879,-23.438,-11.719,0.000,0
38560.460,-13.672,-21.973,-23.926,-9.277,0.000,0
38560.464,-8.789,-19.531,-22.949,-19.043,0.000,0
38560.468,-13.184,-25.879,-19.531,-33.691,0.000,0
38560.472,-4.395,-32.715,-15.137,-28.809,0.000,0
38560.476,9.766,-21.484,-17.090,-19.043,0.000,0
38560.479,-6.348,-17.090,-21.484,-26.367,0.000,0
38560.483,-23.926,-26.367,-23.438,-27.832,0.000,0
38560.487,-22.949,-32.227,-16.113,-17.578,0.000,0
38560.491,-21.484,-34.180,-15.625,-22.949,0.000,0
38560.495,-22.949,-20.508,-22.461,-32.227,0.000,0
38560.499,-13.184,-16.602,-19.531,-22.949,0.000,0
38560.503,-7.324,-18.555,-12.695,-8.301,0.000,0
38560.507,-7.324,-11.719,-11.719,-6.348,0.000,0
38560.511,-7.324,-15.625,-16.113,-9.277,0.000,0
38560.515,-16.113,-33.203,-15.137,-13.184,0.000,0
38560.519,-19.531,-32.715,-16.602,-13.672,0.000,0
38560.522,-23.926,-18.066,-26.855,-23.438,0.000,0
38560.526,-27.832,-20.508,-21.484,-30.273,0.000,0
38560.530,-16.602,-22.461,-12.207,-14.160,0.000,0
38560.534,-6.836,-20.508,-14.648,-15.625,0.000,0
38560.538,-14.160,-6.836,-16.113,-18.066,0.000,0
38560.542,-5.371,7.324,-19.043,-6.836,0.000,0
38560.546,3.906,-1.465,-13.184,-5.371,0.000,0
38560.550,-10.254,-28.809,-0.977,-14.160,0.000,0
38560.554,-11.230,-18.555,-7.812,-29.785,0.000,0
38560.558,-7.324,0.488,-14.160,-34.180,0.000,0
38560.562,-19.043,-6.348,-11.719,-21.484,0.000,0
38560.565,-27.344,-4.395,-19.043,-16.602,0.000,0
38560.569,-15.625,-12.207,-20.508,-19.531,0.000,0
38560.573,-11.230,-16.602,-20.996,-9.766,0.000,0
38560.577,-15.625,-9.277,-25.879,-0.977,0.000,0
38560.581,-13.184,-10.742,-22.949,-15.137,0.000,0
38560.585,4.883,0.488,-17.578,-21.973,0.000,0
38560.589,12.695,-0.977,-15.137,-9.766,0.000,0
38560.593,-3.906,-10.742,-6.348,4.395,0.000,0
38560.597,-1.465,-0.488,-0.488,3.418,0.000,0
38560.601,5.859,-1.953,-8.301,-10.254,0.000,0
38560.604,-6.348,-13.184,-14.648,-6.836,0.000,1
38560.608,-12.207,-30.273,-12.207,-14.160,0.000,0
38560.612,-15.137,-27.832,-10.254,-21.484,0.000,0
38560.616,-25.879,-18.066,-15.625,-20.020,0.000,0
38560.620,-33.691,-28.809,-14.648,-33.203,0.000,0
38560.624,-39.062,-18.066,-16.602,-29.785,0.000,0
38560.628,-34.668,-22.461,-13.672,-30.273,0.000,0
38560.632,-22.949,-27.344,-14.160,-34.180,0.000,0
38560.636,-34.668,-23.926,-21.973,-31.738,0.000,0
38560.640,-48.340,-33.691,-25.391,-23.926,0.000,0
38560.644,-44.434,-33.203,-36.133,-24.902,0.000,0
38560.647,-41.992,-49.316,-37.598,-43.945,0.000,0
38560.651,-31.250,-55.664,-33.691,-45.898,0.000,0
38560.655,-42.969,-38.086,-36.621,-38.574,0.000,0
38560.659,-47.363,-34.668,-34.180,-35.156,0.000,0
38560.663,-41.016,-27.344,-30.273,-32.227,0.000,0
38560.667,-39.551,-46.875,-26.855,-33.203,0.000,0
38560.671,-30.762,-50.781,-26.855,-35.645,0.000,0
38560.675,-34.180,-32.715,-32.227,-36.621,0.000,0
38560.679,-48.828,-29.785,-41.992,-41.504,0.000,0
38560.683,-55.664,-29.297,-44.434,-44.434,0.000,0
38560.687,-50.293,-46.875,-32.227,-38.086,0.000,0
38560.690,-51.758,-44.922,-31.250,-37.598,0.000,0
38560.694,-50.293,-14.160,-43.945,-45.410,0.000,0
38560.698,-41.992,-16.113,-45.898,-51.270,0.000,0
38560.702,-37.109,-30.273,-39.551,-44.922,0.000,0
38560.706,-41.504,-37.598,-39.551,-42.969,0.000,0
38560.710,-47.363,-41.016,-36.133,-48.828,0.000,0
38560.714,-42.480,-20.020,-29.785,-36.133,0.000,0
38560.718,-29.785,-23.438,-30.762,-23.926,0.000,0
38560.722,-25.879,-15.137,-36.133,-30.762,0.000,0
38560.726,-30.762,-18.555,-32.715,-35.645,0.000,0
38560.729,-32.227,-18.066,-20.508,-24.414,0.000,0
38560.733,-26.855,3.906,-21.973,-25.391,0.000,0
38560.737,-28.809,0.977,-25.391,-32.715,0.000,0
38560.741,-29.297,-6.348,-23.438,-24.902,0.000,0
38560.745,-31.250,-15.625,-28.809,-29.785,0.000,0
38560.749,-38.086,-21.484,-27.344,-34.668,0.000,0
38560.753,-36.133,-9.766,-26.855,-28.320,0.000,0
38560.757,-23.438,-5.859,-29.297,-28.809,0.000,0
38560.761,-22.949,-10.254,-23.926,-23.438,0.000,0
38560.765,-35.156,-19.043,-23.438,-21.973,0.000,0
38560.769,-30.273,-32.715,-29.297,-23.926,0.000,0
38560.772,-27.832,-31.250,-29.785,-28.320,0.000,0
38560.776,-26.367,-31.738,-27.344,-31.250,0.000,0
38560.780,-22.949,-29.297,-34.668,-30.273,0.000,0
38560.784,-21.973,-31.250,-34.668,-33.691,0.000,0
38560.788,-23.438,-34.668,-26.855,-35.156,0.000,0
38560.792,-30.273,-22.949,-31.738,-35.645,0.000,0
38560.796,-32.715,-25.391,-37.598,-38.574,0.000,0
38560.800,-25.391,-30.273,-31.250,-31.250,0.000,0
38560.804,-17.578,-23.438,-26.855,-30.762,0.000,0
38560.808,-20.020,-29.297,-28.320,-31.250,0.000,0
38560.812,-30.273,-28.320,-28.809,-26.367,0.000,0
38560.815,-30.762,-20.996,-27.832,-24.902,0.000,0
38560.819,-34.668,-28.809,-32.715,-35.156,0.000,0
38560.823,-32.227,-29.785,-38.086,-43.945,0.000,0
38560.827,-17.090,-46.875,-33.203,-36.621,0.000,0
38560.831,-23.438,-39.062,-28.809,-22.461,0.000,0
38560.835,-25.879,-18.066,-28.809,-20.508,0.000,0
38560.839,-17.578,-8.789,-23.926,-24.902,0.000,0
38560.843,-16.602,-3.418,-28.809,-28.809,0.000,0
38560.847,-18.066,-27.832,-25.879,-27.832,0.000,0
38560.851,-23.438,-33.691,-20.020,-25.391,0.000,0
38560.854,-26.855,-21.484,-24.902,-11.719,0.000,0
38560.858,-26.855,-25.391,-27.344,-9.277,0.000,0
38560.862,-30.762,-28.320,-28.809,-24.414,0.000,0
38560.866,-28.320,-36.133,-26.855,-25.391,0.000,0
38560.870,-24.902,-29.297,-33.691,-27.832,0.000,0
38560.874,-28.320,-11.719,-43.457,-33.691,0.000,0
38560.878,-38.574,-29.297,-42.480,-28.809,0.000,0
38560.882,-43.945,-41.016,-39.551,-27.344,0.000,0
38560.886,-41.992,-45.410,-39.551,-36.133,0.000,0
38560.890,-38.574,-39.551,-37.109,-35.156,0.000,0
38560.894,-27.344,-37.109,-33.691,-34.668,0.000,0
38560.897,-25.879,-43.457,-34.180,-44.922,0.000,0
38560.901,-20.996,-36.133,-32.715,-36.133,0.000,0
38560.905,-26.367,-41.504,-29.785,-32.227,0.000,0
38560.909,-38.574,-43.945,-30.762,-39.062,0.000,0
38560.913,-27.344,-26.367,-29.785,-33.691,0.000,0
38560.917,-16.602,-15.137,-33.203,-31.250,0.000,0
38560.921,-18.555,-32.227,-34.180,-31.250,0.000,0
38560.925,-33.691,-65.918,-29.297,-26.855,0.000,0
38560.929,-35.156,-47.363,-30.762,-20.996,0.000,0
38560.933,-39.551,-30.762,-44.922,-28.809,0.000,0
38560.937,-39.551,-34.668,-48.340,-40.039,0.000,0
38560.940,-20.996,-29.785,-40.039,-34.180,0.000,0
38560.944,-21.484,-45.898,-31.250,-33.203,0.000,0
38560.948,-17.578,-42.480,-24.414,-36.133,0.000,0
38560.952,0.488,-26.367,-25.879,-4.395,0.000,0
38560.956,-14.648,-34.668,-31.738,-4.395,0.000,0
38560.960,-45.898,-25.879,-47.852,-41.016,0.000,0
38560.964,-56.152,-25.391,-44.922,-43.945,0.000,0
38560.968,-41.992,-40.039,-29.297,-26.855,0.000,0
38560.972,-26.367,-31.250,-34.180,-17.578,0.000,0
38560.976,-29.785,-24.902,-36.621,-34.668,0.000,0
38560.979,-31.738,-19.043,-26.855,-41.992,0.000,0
38560.983,-31.250,-34.180,-29.785,-36.621,0.000,0
38560.987,-31.738,-39.551,-33.203,-41.504,0.000,0
38560.991,-29.785,-11.230,-35.645,-37.109,0.000,0
38560.995,-33.691,-10.254,-42.480,-33.203,0.000,0
38560.999,-28.320,-32.715,-41.016,-39.551,0.000,0
38561.003,-20.508,-35.156,-29.785,-38.574,0.000,0
38561.007,-17.578,-23.926,-25.391,-24.414,0.000,0
38561.011,-13.672,-13.672,-28.320,-22.949,0.000,0
38561.015,-17.578,-21.484,-20.020,-26.855,0.000,0
38561.019,-9.766,-16.113,-23.438,-18.555,0.000,0
38561.022,-5.371,-25.879,-28.320,-19.531,0.000,0
38561.026,-14.648,-37.109,-21.973,-32.715,0.000,0
38561.030,-16.113,-16.113,-30.273,-29.785,0.000,0
38561.034,-12.695,-29.297,-35.156,-24.902,0.000,0
38561.038,-20.020,-21.973,-37.109,-27.832,0.000,0
38561.042,-19.043,-36.621,-39.062,-35.645,0.000,0
38561.046,-7.324,-54.688,-37.109,-41.504,0.000,0
38561.050,-20.020,-29.297,-43.945,-38.574,0.000,0
38561.054,-34.180,-30.273,-45.898,-40.527,0.000,0
38561.058,-38.574,-31.738,-41.992,-44.922,0.000,0
38561.062,-35.645,-36.621,-41.504,-43.945,0.000,0
38561.065,-25.879,-36.621,-42.969,-44.922,0.000,0
38561.069,-24.902,-22.461,-41.992,-35.645,0.000,0
38561.073,-32.227,-19.043,-36.621,-34.668,0.000,0
38561.077,-25.391,-20.020,-31.738,-31.250,0.000,0
38561.081,-17.578,-21.484,-27.832,-34.180,0.000,0
38561.085,-21.973,-17.578,-20.996,-41.992,0.000,0
38561.089,-26.855,-9.766,-24.414,-40.527,0.000,0
38561.093,-26.367,-19.043,-24.902,-35.645,0.000,0
38561.097,-31.738,-20.020,-25.879,-34.668,0.000,0
38561.101,-16.602,-15.137,-31.738,-35.156,0.000,0
38561.104,-26.367,-25.879,-31.250,-42.969,0.000,0
38561.108,-39.551,-21.484,-37.109,-46.387,0.000,0
38561.112,-38.086,-19.043,-38.086,-41.504,0.000,0
38561.116,-40.039,-31.250,-36.621,-35.645,0.000,0
38561.120,-39.062,-38.086,-36.621,-27.832,0.000,0
38561.124,-33.691,-39.551,-30.762,-35.156,0.000,0
38561.128,-25.391,-25.391,-28.320,-44.922,0.000,0
38561.132,-25.391,-20.996,-26.367,-38.574,0.000,0
38561.136,-33.691,-29.785,-27.832,-16.602,0.000,0
38561.140,-36.133,-21.484,-34.668,-21.973,0.000,0
38561.144,-32.227,-24.414,-40.039,-40.039,0.000,0
38561.147,-33.203,-30.762,-43.945,-37.109,0.000,0
38561.151,-33.203,-24.414,-39.062,-28.809,0.000,0
38561.155,-39.551,-25.391,-35.156,-24.902,0.000,0
38561.159,-35.645,-28.809,-35.156,-29.785,0.000,0
38561.163,-20.996,-32.227,-27.344,-36.621,0.000,0
38561.167,-28.320,-21.484,-25.879,-36.621,0.000,0
38561.171,-29.785,-7.324,-33.691,-33.203,0.000,0
38561.175,-28.809,-11.719,-35.156,-32.715,0.000,0
38561.179,-27.832,-28.809,-28.320,-35.156,0.000,0
38561.183,-21.484,-38.574,-20.508,-34.668,0.000,0
38561.187,-20.020,-30.273,-20.020,-41.992,0.000,0
38561.190,-22.949,-20.996,-18.066,-38.574,0.000,0
38561.194,-20.020,-17.578,-12.695,-20.020,0.000,0
38561.198,-7.324,-12.207,-16.113,-12.695,0.000,0
38561.202,-3.418,-24.902,-21.484,-19.043,0.000,0
38561.206,-13.184,-25.391,-21.484,-20.020,0.000,0
38561.210,-13.672,-15.137,-25.391,-10.254,0.000,0
38561.214,-6.836,-16.602,-27.344,-7.812,0.000,0
38561.218,-5.859,-13.184,-23.438,-6.836,0.000,0
38561.222,-1.953,-21.973,-16.113,-3.418,0.000,0
38561.226,-7.812,-10.742,-13.184,-7.324,0.000,0
38561.229,-6.348,11.719,-18.066,-7.812,0.000,0
38561.233,-7.324,5.371,-10.254,-8.301,0.000,0
38561.237,-19.531,-16.602,0.488,-13.184,0.000,0
38561.241,-20.508,-43.945,-3.906,-18.066,0.000,0
38561.245,-18.066,-20.020,-15.137,-24.902,0.000,0
38561.249,-23.438,-9.277,-22.949,-29.297,0.000,1
38561.253,-24.414,-17.578,-19.043,-30.762,0.000,0
38561.257,-28.809,-13.672,-22.461,-33.691,0.000,0
38561.261,-37.109,-24.902,-33.203,-34.668,0.000,0
38561.265,-34.668,-16.602,-28.809,-35.645,0.000,0
38561.269,-19.531,-18.066,-21.484,-31.738,0.000,0
38561.272,-22.461,-41.016,-21.973,-30.762,0.000,0
38561.276,-38.574,-34.180,-26.855,-21.484,0.000,0
38561.280,-38.574,-20.508,-28.320,-24.414,0.000,0
38561.284,-40.527,-38.574,-29.785,-30.273,0.000,0
38561.288,-42.969,-45.410,-42.969,-28.809,0.000,0
38561.292,-28.809,-38.574,-46.875,-35.156,0.000,0
38561.296,-19.043,-26.367,-38.086,-31.738,0.000,0
38561.300,-26.367,-49.805,-26.367,-32.715,0.000,0
38561.304,-21.973,-46.875,-30.762,-27.344,0.000,0
38561.308,-24.902,-24.902,-33.691,-25.391,0.000,0
38561.312,-29.785,-37.109,-25.879,-29.297,0.000,0
38561.315,-24.902,-31.250,-27.344,-23.438,0.000,0
38561.319,-30.273,-36.133,-29.785,-33.203,0.000,0
38561.323,-26.367,-40.039,-27.832,-30.762,0.000,0
38561.327,-22.949,-22.461,-29.785,-15.625,0.000,0
38561.331,-22.949,-23.438,-23.438,-16.113,0.000,0
38561.335,-21.484,-12.207,-25.391,-17.090,0.000,0
38561.339,-14.160,-15.137,-33.691,-29.785,0.000,0
38561.343,-17.578,-41.992,-27.344,-34.668,0.000,0
38561.347,-37.598,-32.715,-27.832,-20.996,0.000,0
38561.351,-28.320,-25.879,-34.668,-18.066,0.000,0
38561.354,-19.043,-23.926,-36.133,-12.207,0.000,0
38561.358,-20.020,-28.809,-26.855,-19.531,0.000,0
38561.362,-17.090,-33.203,-20.508,-23.926,0.000,0
38561.366,-20.996,-20.020,-30.273,-29.297,0.000,0
38561.370,-21.484,-20.996,-31.250,-31.250,0.000,0
38561.374,-19.043,-21.484,-26.367,-18.066,0.000,0
38561.378,-17.578,-28.809,-31.250,-14.648,0.000,0
38561.382,-16.113,-23.438,-37.598,-24.414,0.000,0
38561.386,-10.742,-15.137,-36.133,-24.902,0.000,0
38561.390,-17.578,-36.133,-28.809,-25.391,0.000,0
38561.394,-33.203,-26.367,-28.809,-27.832,0.000,0
38561.397,-21.484,-22.949,-22.949,-24.414,0.000,0
38561.401,-20.508,-35.645,-18.066,-32.227,0.000,0
38561.405,-31.738,-14.160,-25.879,-24.414,0.000,0
38561.409,-30.762,-5.371,-30.273,-22.949,0.000,0
38561.413,-32.227,-8.301,-25.391,-19.043,0.000,0
38561.417,-24.414,-23.926,-19.531,-20.020,0.000,0
38561.421,-23.438,-44.922,-21.973,-25.879,0.000,0
38561.425,-24.902,-34.180,-30.762,-17.090,0.000,0
38561.429,-20.020,-18.555,-36.621,-23.926,0.000,0
38561.433,-24.414,-28.809,-31.250,-34.180,0.000,0
38561.437,-25.391,-43.457,-21.484,-20.020,0.000,0
38561.440,-32.715,-39.551,-25.391,-18.066,0.000,0
38561.444,-38.574,-36.621,-31.250,-26.367,0.000,0
38561.448,-24.414,-31.250,-32.227,-20.020,0.000,0
38561.452,-19.043,-29.297,-32.715,-20.996,0.000,0
38561.456,-35.645,-36.133,-36.621,-27.344,0.000,0
38561.460,-36.621,-43.945,-33.691,-32.715,0.000,0
38561.464,-32.227,-34.668,-30.273,-33.203,0.000,0
38561.468,-35.156,-34.180,-33.691,-36.133,0.000,0
38561.472,-35.156,-34.668,-33.691,-35.156,0.000,0
38561.476,-30.762,-34.180,-31.250,-23.438,0.000,0
38561.479,-30.273,-43.945,-29.297,-19.531,0.000,0
38561.483,-32.227,-33.691,-35.156,-34.180,0.000,0
38561.487,-21.484,-21.973,-36.621,-33.691,0.000,0
38561.491,-22.461,-21.973,-30.273,-22.949,0.000,0
38561.495,-31.738,-24.414,-27.832,-23.438,0.000,0
38561.499,-30.762,-26.367,-27.832,-28.809,0.000,0
38561.503,-26.855,-17.578,-27.832,-22.949,0.000,0
38561.507,-26.367,-20.996,-26.855,-26.367,0.000,0
38561.511,-36.133,-23.438,-26.855,-32.715,0.000,0
38561.515,-32.227,-22.949,-26.855,-28.320,0.000,0
38561.519,-31.738,-37.109,-28.320,-24.414,0.000,0
38561.522,-37.109,-29.297,-26.367,-26.855,0.000,0
38561.526,-13.672,-26.367,-26.855,-38.086,0.000,0
38561.530,-22.949,-22.949,-33.691,-35.156,0.000,0
38561.534,-37.109,-24.902,-28.809,-34.668,0.000,0
38561.538,-20.996,-26.855,-25.391,-30.273,0.000,0
38561.542,-23.438,-24.902,-31.250,-30.762,0.000,0
38561.546,-21.973,-32.227,-26.855,-26.367,0.000,0
38561.550,-15.625,-14.648,-31.250,-19.043,0.000,0
38561.554,-21.484,-22.461,-29.297,-20.508,0.000,0
38561.558,-20.996,-29.785,-23.438,-17.578,0.000,0
38561.562,-8.789,-16.602,-21.973,-9.277,0.000,0
38561.565,-11.719,-15.137,-25.391,-9.766,0.000,0
38561.569,-25.391,-17.578,-27.344,-19.043,0.000,0
38561.573,-21.973,-27.344,-27.344,-21.484,0.000,0
38561.577,-14.648,-33.203,-19.531,-20.996,0.000,0
38561.581,-15.625,-19.531,-22.949,-28.320,0.000,0
38561.585,-20.020,-17.578,-32.715,-30.762,0.000,0
38561.589,-23.926,-12.207,-32.227,-24.414,0.000,0
38561.593,-22.949,-20.020,-26.855,-34.180,0.000,0
38561.597,-23.926,-41.504,-21.484,-40.039,0.000,0
38561.601,-24.414,-28.809,-30.762,-24.902,0.000,0
38561.604,-23.926,-30.273,-37.109,-21.484,0.000,0
38561.608,-15.137,-39.062,-32.227,-31.250,0.000,0
38561.612,-24.414,-39.062,-24.902,-33.691,0.000,0
38561.616,-31.250,-33.691,-21.484,-35.156,0.000,0
38561.620,-23.926,-10.742,-30.273,-35.645,0.000,0
38561.624,-35.156,-20.508,-34.668,-23.438,0.000,0
38561.628,-40.527,-43.457,-24.414,-17.090,0.000,0
38561.632,-33.691,-36.621,-27.832,-28.320,0.000,0
38561.636,-28.809,-45.410,-30.273,-35.645,0.000,0
38561.640,-36.133,-34.668,-38.574,-32.715,0.000,0
38561.644,-47.363,-39.551,-45.410,-33.691,0.000,0
38561.647,-40.527,-56.152,-39.551,-30.762,0.000,0
38561.651,-30.273,-25.879,-42.480,-42.480,0.000,0
38561.655,-34.668,-35.645,-39.551,-45.898,0.000,0
38561.659,-40.039,-45.898,-38.086,-32.227,0.000,0
38561.663,-38.574,-32.715,-43.945,-38.574,0.000,0
38561.667,-39.551,-30.762,-53.711,-50.293,0.000,0
38561.671,-36.621,-47.852,-46.387,-49.316,0.000,0
38561.675,-34.668,-67.383,-33.691,-44.922,0.000,0
38561.679,-35.156,-45.410,-43.945,-42.480,0.000,0
38561.683,-42.969,-25.391,-45.898,-52.246,0.000,0
38561.687,-38.574,-34.668,-38.574,-48.828,0.000,0
38561.690,-30.762,-44.434,-38.086,-49.805,0.000,0
38561.694,-33.691,-48.340,-35.156,-52.246,0.000,0
38561.698,-29.785,-38.574,-33.691,-48.828,0.000,0
38561.702,-25.879,-31.250,-35.156,-44.434,0.000,0
38561.706,-33.203,-29.297,-36.133,-43.945,0.000,0
38561.710,-39.551,-20.508,-41.504,-46.875,0.000,0
38561.714,-36.621,-33.203,-33.691,-48.828,0.000,0
38561.718,-29.785,-37.598,-20.020,-39.062,0.000,0
38561.722,-28.320,-26.367,-30.762,-35.645,0.000,0
38561.726,-28.809,-24.414,-34.668,-37.598,0.000,0
38561.729,-27.344,-18.555,-31.738,-29.785,0.000,0
38561.733,-24.902,-30.273,-29.785,-36.621,0.000,0
38561.737,-28.809,-36.133,-29.297,-38.574,0.000,0
38561.741,-33.691,-30.273,-39.062,-35.156,0.000,0
38561.745,-33.691,-40.039,-38.574,-34.668,0.000,0
38561.749,-28.320,-51.270,-27.344,-23.926,0.000,0
38561.753,-25.879,-35.645,-29.297,-19.043,0.000,0
38561.757,-29.297,-29.785,-34.668,-22.461,0.000,0
38561.761,-33.691,-35.156,-37.109,-32.715,0.000,0
38561.765,-31.250,-35.156,-33.203,-33.691,0.000,0
38561.769,-36.133,-31.250,-40.527,-36.621,0.000,0
38561.772,-41.016,-33.691,-35.156,-36.133,0.000,0
38561.776,-40.527,-34.668,-25.879,-29.297,0.000,0
38561.780,-37.109,-30.273,-37.598,-33.203,0.000,0
38561.784,-27.832,-23.926,-35.156,-33.691,0.000,0
38561.788,-24.414,-21.484,-27.344,-28.320,0.000,0
38561.792,-37.598,-39.551,-32.227,-34.180,0.000,0
38561.796,-38.086,-40.039,-38.086,-44.922,0.000,0
38561.800,-37.109,-27.344,-35.645,-36.133,0.000,0
38561.804,-36.621,-27.344,-38.086,-41.504,0.000,0
38561.808,-36.621,-37.598,-35.156,-45.410,0.000,0
38561.812,-35.156,-41.016,-33.691,-38.086,0.000,2
38561.815,-32.715,-40.527,-40.527,-35.645,0.000,0
38561.819,-37.598,-41.016,-46.387,-42.969,0.000,0
38561.823,-37.109,-43.457,-50.781,-55.176,0.000,0
38561.827,-38.086,-36.621,-45.410,-37.598,0.000,0
38561.831,-41.016,-36.621,-39.551,-30.762,0.000,0
38561.835,-35.156,-42.969,-39.062,-37.598,0.000,0
38561.839,-27.344,-31.738,-34.180,-34.668,0.000,0
38561.843,-17.090,-21.973,-29.785,-25.391,0.000,0
38561.847,-9.766,-28.320,-33.691,-23.438,0.000,0
38561.851,-7.812,-54.199,-21.973,-24.902,0.000,0
38561.854,-0.488,-40.039,-18.555,-15.625,0.000,0
38561.858,-0.488,-9.766,-34.180,-19.043,0.000,0
38561.862,-13.184,-18.066,-32.227,-24.902,0.000,0
38561.866,-10.254,-20.996,-27.344,-13.672,0.000,0
38561.870,-3.418,-29.297,-26.367,-9.766,0.000,0
38561.874,-16.602,-38.086,-24.414,-31.738,0.000,0
38561.878,-13.184,-19.043,-23.438,-38.086,0.000,0
38561.882,-9.277,-17.578,-21.484,-29.785,0.000,0
38561.886,-15.137,-24.902,-23.438,-30.273,0.000,0
38561.890,-19.531,-21.973,-22.461,-33.203,0.000,0
38561.894,-25.391,-31.250,-19.043,-43.945,0.000,0
38561.897,-32.715,-26.367,-18.066,-40.527,0.000,0
38561.901,-35.156,-21.484,-23.438,-40.527,0.000,0
38561.905,-24.902,-18.066,-31.250,-25.391,0.000,0
38561.909,-23.926,-28.320,-30.762,-28.320,0.000,0
38561.913,-19.043,-38.574,-26.855,-35.645,0.000,0
38561.917,-27.344,-21.973,-32.227,-26.855,0.000,0
38561.921,-31.250,-24.414,-32.715,-31.738,0.000,0
38561.925,-18.066,-22.461,-23.438,-31.250,0.000,0
38561.929,-20.996,-23.926,-18.066,-25.391,0.000,0
38561.933,-32.715,-35.645,-13.672,-23.926,0.000,0
38561.937,-27.832,-20.020,-20.020,-23.438,0.000,0
38561.940,-27.344,-16.113,-29.785,-26.367,0.000,0
38561.944,-32.227,-25.879,-32.715,-22.949,0.000,0
38561.948,-24.902,-24.414,-30.273,-23.926,0.000,0
38561.952,-12.207,-43.945,-20.996,-37.598,0.000,0
38561.956,-11.719,-24.902,-25.391,-28.809,0.000,0
38561.960,-19.531,-9.766,-28.809,-25.879,0.000,0
38561.964,-21.973,-16.602,-25.879,-34.180,0.000,0
38561.968,-17.578,-21.484,-22.949,-35.156,0.000,0
38561.972,-16.602,-41.016,-20.020,-29.297,0.000,0
38561.976,-18.555,-33.203,-34.668,-39.551,0.000,0
38561.979,-19.043,-29.297,-41.504,-47.852,0.000,0
38561.983,-18.066,-35.156,-38.086,-38.086,0.000,0
38561.987,-32.227,-32.715,-37.598,-34.668,0.000,0
38561.991,-30.273,-35.645,-30.273,-38.574,0.000,0
38561.995,-22.461,-28.809,-31.250,-34.180,0.000,0
38561.999,-35.156,-21.484,-36.133,-28.320,0.000,0
38562.003,-39.551,-33.203,-28.809,-28.809,0.000,0
38562.007,-32.715,-36.133,-34.180,-31.250,0.000,0
38562.011,-34.180,-42.480,-32.715,-32.227,0.000,0
38562.015,-37.109,-33.203,-25.879,-41.016,0.000,0
38562.019,-24.414,-24.414,-26.855,-35.645,0.000,0
38562.022,-26.367,-27.832,-34.668,-32.715,0.000,0
38562.026,-34.668,-25.879,-28.320,-29.785,0.000,0
38562.030,-26.855,-41.992,-14.648,-25.879,0.000,0
38562.034,-24.902,-36.621,-23.926,-31.250,0.000,0
38562.038,-31.738,-18.555,-31.738,-30.273,0.000,0
38562.042,-19.531,-11.230,-29.297,-31.250,0.000,0
38562.046,-23.926,-27.832,-23.438,-30.762,0.000,0
38562.050,-28.809,-52.246,-19.043,-35.156,0.000,0
38562.054,-21.973,-36.133,-27.344,-39.062,0.000,0
38562.058,-31.250,-38.574,-33.203,-39.551,0.000,0
38562.062,-33.203,-38.086,-26.367,-33.691,0.000,0
38562.065,-24.902,-30.273,-27.344,-23.926,0.000,0
38562.069,-32.715,-39.062,-27.344,-33.691,0.000,0
38562.073,-27.832,-32.715,-20.020,-34.668,0.000,0
38562.077,-14.160,-29.297,-19.043,-35.156,0.000,0
38562.081,-32.227,-30.762,-22.949,-30.762,0.000,0
38562.085,-32.227,-14.160,-27.832,-26.855,0.000,0
38562.089,-23.926,-23.926,-25.879,-40.527,0.000,0
38562.093,-23.926,-44.434,-17.090,-26.855,0.000,0
38562.097,-21.484,-32.715,-27.832,-16.113,0.000,0
38562.101,-23.438,-33.203,-38.086,-22.949,0.000,0
38562.104,-22.949,-30.762,-35.156,-20.508,0.000,0
38562.108,-31.250,-36.621,-32.227,-24.414,0.000,0
38562.112,-38.574,-45.410,-34.180,-33.203,0.000,0
38562.116,-28.809,-29.297,-43.457,-28.809,0.000,0
38562.120,-28.809,-30.762,-47.852,-23.438,0.000,0
38562.124,-37.598,-43.457,-41.992,-36.133,0.000,0
38562.128,-37.598,-42.969,-34.180,-44.922,0.000,0
38562.132,-37.109,-38.086,-38.574,-49.316,0.000,0
38562.136,-29.297,-31.250,-40.527,-44.434,0.000,0
38562.140,-34.180,-34.668,-30.762,-30.762,0.000,0
38562.144,-39.062,-32.227,-34.180,-38.086,0.000,0
38562.147,-33.203,-40.039,-41.992,-41.992,0.000,0
38562.151,-29.785,-42.969,-39.551,-46.387,0.000,0
38562.155,-21.973,-32.227,-35.645,-46.875,0.000,0
38562.159,-23.438,-44.922,-30.762,-38.574,0.000,0
38562.163,-24.414,-26.367,-36.621,-35.645,0.000,0
38562.167,-34.180,-27.832,-40.527,-34.180,0.000,0
38562.171,-41.016,-39.062,-37.598,-30.273,0.000,0
38562.175,-45.898,-27.344,-39.551,-32.715,0.000,0
38562.179,-46.387,-37.598,-41.504,-37.109,0.000,0
38562.183,-38.574,-39.551,-45.410,-40.039,0.000,0
38562.187,-44.922,-40.039,-46.387,-39.062,0.000,0
38562.190,-39.551,-38.574,-41.016,-42.969,0.000,0
38562.194,-43.457,-36.133,-44.922,-46.875,0.000,0
38562.198,-53.711,-51.758,-49.805,-45.898,0.000,0
38562.202,-48.340,-40.527,-53.223,-50.781,0.000,0
38562.206,-39.062,-37.109,-50.293,-55.176,0.000,0
38562.210,-36.621,-44.922,-39.551,-48.340,0.000,0
38562.214,-39.062,-30.762,-39.062,-43.945,0.000,0
38562.218,-27.832,-28.809,-45.410,-44.434,0.000,0
38562.222,-32.227,-26.367,-46.875,-42.480,0.000,0
38562.226,-43.945,-34.668,-40.039,-37.109,0.000,0
38562.229,-37.109,-45.410,-36.621,-40.039,0.000,0
38562.233,-40.039,-21.973,-46.875,-43.945,0.000,0
38562.237,-40.527,-16.602,-46.875,-40.039,0.000,0
38562.241,-33.203,-39.062,-44.434,-40.527,0.000,0
38562.245,-26.855,-53.711,-41.504,-40.039,0.000,0
38562.249,-39.062,-52.734,-39.551,-41.016,0.000,0
38562.253,-44.434,-44.434,-44.922,-52.246,0.000,0
38562.257,-36.621,-48.340,-43.457,-57.617,0.000,0
38562.261,-50.293,-59.570,-44.922,-48.340,0.000,0
38562.265,-48.828,-56.152,-53.711,-38.574,0.000,0
38562.269,-50.293,-51.270,-52.246,-50.293,0.000,0
38562.272,-53.223,-58.105,-40.527,-48.828,0.000,0
38562.276,-45.410,-55.176,-38.574,-47.363,0.000,0
38562.280,-38.086,-12.207,-43.457,-48.828,0.000,0
38562.284,-42.969,-16.602,-38.574,-50.293,0.000,0
38562.288,-45.410,-59.570,-27.832,-50.781,0.000,0
38562.292,-40.039,-41.016,-31.738,-45.410,0.000,0
38562.296,-40.527,-16.113,-34.180,-41.016,0.000,0
38562.300,-39.062,-28.320,-33.203,-36.621,0.000,0
38562.304,-29.297,-40.039,-25.879,-31.250,0.000,0
38562.308,-27.832,-51.758,-20.508,-44.922,0.000,0
38562.312,-34.668,-41.504,-28.320,-40.527,0.000,0
38562.315,-36.133,-34.668,-32.227,-21.973,0.000,0
38562.319,-37.109,-40.527,-34.668,-38.086,0.000,0
38562.323,-35.156,-40.527,-35.645,-43.945,0.000,0
38562.327,-30.762,-55.176,-29.297,-44.434,0.000,0
38562.331,-20.020,-45.410,-24.902,-35.156,0.000,0
38562.335,-19.531,-34.180,-32.227,-27.832,0.000,0
38562.339,-33.203,-24.902,-38.574,-34.668,0.000,0
38562.343,-28.809,-22.949,-32.715,-32.227,0.000,0
38562.347,-27.344,-43.945,-26.367,-39.551,0.000,0
38562.351,-25.879,-30.273,-34.180,-46.387,0.000,0
38562.354,-23.438,-6.348,-37.109,-34.668,0.000,0
38562.358,-28.809,-12.207,-32.227,-34.180,0.000,0
38562.362,-27.344,-27.344,-28.320,-28.320,0.000,0
38562.366,-17.090,-38.574,-21.973,-27.832,0.000,0
38562.370,-7.812,-14.648,-23.926,-28.809,0.000,0
38562.374,-19.043,0.000,-29.297,-28.320,0.000,0
38562.378,-26.855,-18.555,-17.578,-30.762,0.000,0
38562.382,-19.043,-16.113,-17.090,-21.973,0.000,0
38562.386,-22.461,-22.949,-19.531,-18.555,0.000,0
38562.390,-26.367,-17.578,-20.508,-33.691,0.000,0
38562.394,-20.508,-9.277,-30.273,-31.250,0.000,0
38562.397,-2.930,-17.578,-28.809,-1.465,0.000,0
38562.401,-10.742,-16.113,-23.438,-12.207,0.000,0
38562.405,-31.738,-22.949,-20.996,-46.387,0.000,0
38562.409,-26.855,-21.973,-19.043,-29.297,0.000,0
38562.413,-10.742,-14.160,-22.949,-15.137,0.000,0
38562.417,-20.508,-10.742,-31.250,-29.297,0.000,0
38562.421,-32.227,-10.742,-29.297,-30.762,0.000,0
38562.425,-29.297,-33.691,-20.996,-35.645,0.000,0
38562.429,-29.297,-26.367,-27.832,-38.086,0.000,0
38562.433,-23.926,-15.625,-31.738,-34.668,0.000,0
38562.437,-21.484,-29.785,-29.297,-31.738,0.000,0
38562.440,-20.508,-31.738,-34.180,-28.809,0.000,0
38562.444,-22.949,-34.668,-31.250,-34.180,0.000,0
38562.448,-34.668,-40.039,-23.438,-35.156,0.000,0
38562.452,-29.785,-36.621,-27.344,-28.320,0.000,0
38562.456,-29.297,-26.367,-22.949,-29.297,0.000,0
38562.460,-38.574,-22.461,-25.391,-35.156,0.000,0
38562.464,-30.762,-29.785,-31.738,-35.156,0.000,0
38562.468,-34.668,-40.527,-21.484,-30.762,0.000,0
38562.472,-36.133,-32.715,-21.973,-21.973,0.000,0
38562.476,-25.879,-18.555,-27.344,-24.414,0.000,0
38562.479,-23.926,-20.508,-27.344,-27.832,0.000,0
38562.483,-20.996,-34.180,-19.531,-25.879,0.000,0
38562.487,-16.113,-29.297,-9.277,-22.949,0.000,0
38562.491,-16.113,-15.625,-14.648,-22.461,0.000,0
38562.495,-15.625,-21.484,-18.066,-29.785,0.000,0
38562.499,-8.789,-20.020,-16.602,-35.156,0.000,0
38562.503,-19.043,-21.484,-19.531,-36.621,0.000,0
38562.507,-27.344,-14.160,-20.508,-38.086,0.000,0
38562.511,-29.297,-12.207,-20.020,-42.969,0.000,0
38562.515,-24.902,-25.391,-18.066,-32.227,0.000,0
38562.519,-16.113,-20.996,-20.996,-33.203,0.000,0
38562.522,-18.555,-25.879,-23.926,-41.992,0.000,0
38562.526,-22.461,-43.457,-21.973,-36.621,0.000,0
38562.530,-17.090,-26.367,-23.438,-18.555,0.000,0
38562.534,-10.254,4.395,-26.367,-14.648,0.000,2
38562.538,-2.930,-10.254,-26.855,-21.484,0.000,0
38562.542,-10.742,-36.133,-22.949,-21.973,0.000,0
38562.546,-9.766,-36.133,-20.020,-25.391,0.000,0
38562.550,-1.953,-17.090,-26.855,-13.184,0.000,0
38562.554,-14.648,-7.812,-29.297,0.977,0.000,0
38562.558,-13.672,-14.648,-17.090,1.953,0.000,0
38562.562,-5.859,-23.438,-19.043,-10.742,0.000,0
38562.565,-19.043,-29.297,-26.367,-24.902,0.000,0
38562.569,-16.602,-25.879,-26.367,-24.902,0.000,0
38562.573,-10.254,-28.320,-26.855,-28.320,0.000,0
38562.577,-25.879,-9.277,-36.621,-33.691,0.000,0
38562.581,-29.785,-12.207,-36.133,-36.133,0.000,0
38562.585,-34.180,-37.109,-29.297,-41.992,0.000,0
38562.589,-32.715,-28.809,-30.273,-30.762,0.000,0
38562.593,-22.949,-14.648,-32.715,-17.090,0.000,0
38562.597,-21.973,-21.973,-29.785,-25.879,0.000,0
38562.601,-23.438,-34.668,-20.020,-29.297,0.000,0
38562.604,-25.879,-43.945,-18.066,-30.762,0.000,0
38562.608,-17.090,-20.508,-29.785,-31.738,0.000,0
38562.612,-15.625,-17.090,-25.879,-19.043,0.000,0
38562.616,-25.879,-21.484,-20.020,-11.719,0.000,0
38562.620,-26.367,-22.949,-23.926,-28.320,0.000,0
38562.624,-22.461,-40.527,-25.879,-37.109,0.000,0
38562.628,-13.184,-27.832,-27.832,-30.273,0.000,0
38562.632,-20.020,-20.020,-27.344,-27.344,0.000,0
38562.636,-20.996,-24.414,-30.762,-21.484,0.000,0
38562.640,-18.555,-27.832,-32.715,-25.879,0.000,0
38562.644,-24.902,-39.551,-32.715,-38.574,0.000,0
38562.647,-24.414,-29.297,-33.203,-40.039,0.000,0
38562.651,-27.344,-28.320,-35.156,-29.785,0.000,0
38562.655,-23.438,-22.949,-32.715,-21.973,0.000,0
38562.659,-20.508,-20.020,-25.391,-28.320,0.000,0
38562.663,-9.766,-44.922,-24.902,-22.949,0.000,0
38562.667,-10.742,-30.762,-32.715,-22.461,0.000,0
38562.671,-23.926,-27.344,-29.785,-23.438,0.000,0
38562.675,-22.949,-40.527,-23.438,-13.672,0.000,0
38562.679,-20.996,-24.414,-28.320,-19.531,0.000,0
38562.683,-20.020,-31.250,-26.855,-28.809,0.000,0
38562.687,-20.020,-25.879,-30.273,-24.902,0.000,0
38562.690,-28.809,-24.902,-35.156,-15.137,0.000,0
38562.694,-22.949,-30.273,-26.855,-14.648,0.000,0
38562.698,-20.508,-23.438,-29.297,-22.461,0.000,0
38562.702,-20.020,-39.551,-27.344,-30.762,0.000,0
38562.706,-16.113,-35.645,-28.320,-34.180,0.000,0
38562.710,-23.926,-11.230,-36.621,-33.203,0.000,0
38562.714,-22.949,-12.207,-30.762,-22.949,0.000,0
38562.718,-18.555,-22.949,-29.785,-9.766,0.000,0
38562.722,-21.484,-46.875,-20.508,-28.320,0.000,0
38562.726,-26.367,-44.434,-19.043,-35.156,0.000,0
38562.729,-33.203,-27.344,-28.320,-24.414,0.000,0
38562.733,-28.320,-32.227,-28.809,-20.508,0.000,0
38562.737,-20.020,-31.738,-27.832,-12.207,0.000,0
38562.741,-30.273,-30.762,-24.414,-18.555,0.000,0
38562.745,-41.992,-23.926,-29.785,-27.344,0.000,0
38562.749,-37.598,-22.461,-27.344,-23.438,0.000,0
38562.753,-33.691,-43.945,-17.090,-13.184,0.000,0
38562.757,-28.320,-33.691,-27.344,-18.066,0.000,0
38562.761,-15.625,-22.949,-24.414,-20.996,0.000,0
38562.765,-14.160,-26.855,-17.090,-16.113,0.000,0
38562.769,-20.996,-16.113,-26.367,-19.531,0.000,0
38562.772,-19.531,-27.344,-23.926,-15.625,0.000,0
38562.776,-16.113,-41.016,-16.602,-15.137,0.000,0
38562.780,-27.832,-21.484,-26.855,-19.043,0.000,0
38562.784,-34.180,-21.484,-30.762,-11.719,0.000,0
38562.788,-34.180,-19.043,-31.250,-14.160,0.000,0
38562.792,-25.391,-1.465,-35.645,-20.508,0.000,0
38562.796,-23.926,-15.137,-29.297,-18.555,0.000,0
38562.800,-30.762,-36.621,-19.531,-21.484,0.000,0
38562.804,-27.344,-24.902,-20.996,-26.855,0.000,0
38562.808,-11.230,-6.836,-20.508,-21.484,0.000,0
38562.812,-12.695,-19.043,-16.113,-25.879,0.000,0
38562.815,-18.066,-24.414,-14.160,-34.668,0.000,0
38562.819,-12.207,-26.855,-16.602,-28.809,0.000,0
38562.823,-8.789,-33.691,-19.531,-24.902,0.000,0
38562.827,-30.762,-28.320,-29.297,-27.832,0.000,0
38562.831,-39.062,-32.227,-40.527,-27.832,0.000,0
38562.835,-33.691,-15.625,-42.969,-34.668,0.000,0
38562.839,-39.062,-21.973,-42.480,-31.738,0.000,0
38562.843,-31.738,-48.340,-26.367,-20.020,0.000,0
38562.847,-21.484,-24.902,-27.832,-34.668,0.000,0
38562.851,-25.879,-19.531,-39.062,-40.527,0.000,0
38562.854,-27.832,-29.785,-38.086,-34.668,0.000,0
38562.858,-31.250,-38.574,-35.645,-34.180,0.000,0
38562.862,-39.551,-37.598,-33.691,-39.062,0.000,0
38562.866,-40.039,-26.855,-35.645,-39.062,0.000,0
38562.870,-35.156,-29.785,-35.156,-32.227,0.000,0
38562.874,-31.738,-30.762,-32.715,-19.043,0.000,0
38562.878,-24.902,-35.156,-24.414,-22.949,0.000,0
38562.882,-25.391,-32.715,-22.461,-27.832,0.000,0
38562.886,-28.320,-31.250,-23.926,-23.926,0.000,0
38562.890,-25.879,-21.973,-26.855,-20.508,0.000,0
38562.894,-19.043,-4.395,-29.785,-13.184,0.000,0
38562.897,-14.160,-28.809,-21.973,-20.020,0.000,0
38562.901,-20.996,-36.621,-24.414,-20.020,0.000,0
38562.905,-34.668,-24.902,-33.203,-21.973,0.000,0
38562.909,-36.621,-30.762,-35.156,-28.320,0.000,0
38562.913,-19.531,-28.320,-32.715,-25.879,0.000,0
38562.917,-30.762,-45.410,-33.691,-33.203,0.000,0
38562.921,-41.992,-40.039,-39.062,-38.086,0.000,0
38562.925,-36.621,-26.855,-40.039,-35.645,0.000,0
38562.929,-36.133,-30.762,-30.273,-19.043,0.000,0
38562.933,-30.273,-21.484,-28.809,-14.160,0.000,0
38562.937,-31.250,-37.598,-33.691,-32.715,0.000,0
38562.940,-36.621,-35.645,-31.738,-25.879,0.000,0
38562.944,-40.039,-16.602,-33.203,-13.672,0.000,0
38562.948,-35.645,-13.184,-33.691,-19.531,0.000,0
38562.952,-28.809,-6.836,-37.598,-20.996,0.000,0
38562.956,-24.902,-26.855,-37.109,-21.484,0.000,0
38562.960,-30.762,-32.227,-31.250,-31.738,0.000,0
38562.964,-27.344,-20.996,-32.715,-36.133,0.000,0
38562.968,-40.039,-35.156,-42.969,-41.016,0.000,0
38562.972,-52.734,-40.527,-47.852,-43.945,0.000,0
38562.976,-48.828,-60.547,-44.922,-53.711,0.000,0
38562.979,-46.387,-63.965,-50.781,-46.387,0.000,0
38562.983,-29.785,-39.062,-50.781,-32.227,0.000,0
38562.987,-4.395,-56.641,-44.922,-35.645,0.000,0
38562.991,-26.367,-51.758,-51.270,-47.363,0.000,0
38562.995,-65.430,-50.293,-50.781,-69.336,0.000,0
38562.999,-59.570,-55.176,-46.387,-58.105,0.000,0
38563.003,-49.316,-46.387,-46.875,-42.480,0.000,0
38563.007,-55.176,-51.758,-52.246,-48.828,0.000,0
38563.011,-45.898,-42.969,-50.293,-40.039,0.000,0
38563.015,-38.086,-41.504,-44.434,-31.250,0.000,0
38563.019,-50.781,-53.711,-39.062,-38.574,0.000,0
38563.022,-44.922,-37.109,-32.227,-38.086,0.000,0
38563.026,-35.156,-14.648,-34.668,-38.086,0.000,0
38563.030,-36.621,-9.766,-35.156,-41.992,0.000,0
38563.034,-25.879,-38.574,-26.367,-38.086,0.000,0
38563.038,-23.438,-58.594,-27.832,-37.598,0.000,0
38563.042,-31.738,-25.879,-34.668,-34.668,0.000,0
38563.046,-24.902,-15.625,-26.367,-20.020,0.000,0
38563.050,-20.020,-14.648,-21.484,-10.742,0.000,0
38563.054,-24.902,-21.973,-20.508,-16.113,0.000,0
38563.058,-13.672,-27.344,-16.113,-19.531,0.000,0
38563.062,-19.043,-17.090,-18.066,-19.043,0.000,0
38563.065,-39.551,-24.414,-18.066,-24.414,0.000,0
38563.069,-34.180,-31.738,-32.227,-27.344,0.000,0
38563.073,-30.273,-30.273,-41.016,-31.738,0.000,0
38563.077,-41.016,-35.645,-37.109,-43.457,0.000,0
38563.081,-46.875,-32.715,-44.922,-44.922,0.000,0
38563.085,-47.852,-37.109,-51.270,-39.551,0.000,0
38563.089,-44.434,-42.480,-46.875,-34.668,0.000,0
