timestamps,TP9,AF7,AF8,TP10,Right AUX,Marker0
38174.124,-22.461,-41.992,-54.688,-15.625,0.000,0
38174.128,-20.508,-43.945,-61.523,-16.602,0.000,0
38174.132,-31.250,-33.203,-66.406,-13.184,0.000,0
38174.136,-31.738,-36.133,-62.988,-16.113,0.000,0
38174.140,-6.836,-42.969,-66.895,5.859,0.000,0
38174.144,13.672,-43.945,-50.781,24.414,0.000,0
38174.147,-8.301,-20.508,-33.203,-10.254,0.000,0
38174.151,-31.250,1.953,-48.828,-23.926,0.000,0
38174.155,-15.137,-27.344,-52.246,4.395,0.000,0
38174.159,-9.766,-61.035,-42.480,9.766,0.000,0
38174.163,-24.414,-54.199,-47.852,-12.207,0.000,0
38174.167,-48.828,-47.852,-48.340,-27.832,0.000,0
38174.171,-40.527,-51.758,-54.688,-5.371,0.000,0
38174.175,-18.555,-61.035,-55.664,1.465,0.000,0
38174.179,-11.719,-73.730,-38.086,3.906,0.000,0
38174.183,-13.672,-50.293,-32.227,1.465,0.000,0
38174.187,-6.348,-48.340,-36.621,-13.672,0.000,0
38174.190,-19.531,-75.195,-45.898,-20.996,0.000,0
38174.194,-30.273,-77.148,-60.547,-31.738,0.000,0
38174.198,-38.574,-63.965,-66.895,-26.367,0.000,0
38174.202,-40.527,-93.750,-54.199,-13.184,0.000,0
38174.206,-40.527,-104.980,-59.570,-25.391,0.000,0
38174.210,-37.109,-77.148,-79.102,-38.574,0.000,0
38174.214,-41.504,-83.008,-73.730,-42.969,0.000,0
38174.218,-46.875,-90.332,-66.895,-41.016,0.000,0
38174.222,-45.410,-95.215,-67.383,-41.992,0.000,0
38174.226,-54.688,-97.168,-72.266,-40.527,0.000,0
38174.230,-46.387,-84.961,-70.801,-42.969,0.000,0
38174.233,-24.414,-87.402,-63.965,-44.434,0.000,0
38174.237,-17.578,-80.566,-61.523,-31.250,0.000,0
38174.241,-20.508,-62.500,-61.035,-24.902,0.000,0
38174.245,-6.348,-61.035,-51.270,-7.812,0.000,0
38174.249,-10.742,-67.871,-37.109,9.766,0.000,0
38174.253,-18.066,-64.941,-48.340,-16.602,0.000,0
38174.257,-16.602,-63.965,-61.035,-19.043,0.000,0
38174.261,-27.344,-78.613,-59.570,-13.672,0.000,0
38174.265,-35.645,-88.379,-60.547,-37.109,0.000,0
38174.269,-34.180,-69.336,-70.312,-35.645,0.000,0
38174.272,-18.555,-61.523,-68.848,-15.625,0.000,0
38174.276,-9.766,-51.758,-59.082,10.742,0.000,0
38174.280,-13.184,-59.570,-51.758,-3.906,0.000,0
38174.284,-1.953,-48.340,-49.316,-11.230,0.000,0
38174.288,0.000,-20.508,-49.316,15.137,0.000,0
38174.292,-1.953,-36.621,-50.293,24.414,0.000,0
38174.296,7.812,-32.227,-55.176,27.344,0.000,0
38174.300,14.160,-52.246,-52.734,5.859,0.000,0
38174.304,-4.395,-67.383,-51.270,-20.996,0.000,0
38174.308,-27.832,-45.410,-55.176,-12.207,0.000,0
38174.312,-19.043,-47.363,-61.523,-10.254,0.000,0
38174.315,-29.297,-53.223,-66.895,-13.184,0.000,0
38174.319,-33.691,-81.543,-56.641,-19.531,0.000,0
38174.323,-35.645,-76.172,-58.594,-26.855,0.000,0
38174.327,-36.133,-45.898,-62.500,-17.578,0.000,0
38174.331,-10.254,-48.828,-54.199,-19.043,0.000,0
38174.335,-15.137,-55.176,-58.105,-6.348,0.000,0
38174.339,-42.480,-78.125,-57.129,-12.207,0.000,0
38174.343,-41.992,-77.637,-62.500,-23.926,0.000,0
38174.347,-30.273,-50.293,-79.102,-17.090,0.000,0
38174.351,-38.086,-68.359,-85.938,-24.902,0.000,0
38174.355,-54.199,-82.031,-80.566,-33.691,0.000,0
38174.358,-57.617,-101.074,-74.707,-50.293,0.000,0
38174.362,-59.570,-105.469,-77.637,-50.293,0.000,0
38174.366,-59.082,-75.195,-83.984,-24.902,0.000,0
38174.370,-59.082,-79.590,-83.984,-41.992,0.000,0
38174.374,-83.008,-76.172,-85.449,-49.316,0.000,0
38174.378,-72.754,-80.078,-77.148,-59.082,0.000,0
38174.382,-59.082,-118.652,-60.547,-68.359,0.000,0
38174.386,-59.570,-73.242,-66.895,-38.574,0.000,0
38174.390,-45.898,-23.926,-77.637,-13.672,0.000,0
38174.394,-50.293,-58.105,-67.871,-14.648,0.000,0
38174.397,-61.523,-80.566,-65.430,-44.434,0.000,0
38174.401,-55.176,-78.613,-71.289,-58.594,0.000,0
38174.405,-58.594,-68.359,-72.754,-51.270,0.000,0
38174.409,-56.641,-67.871,-76.172,-40.527,0.000,0
38174.413,-47.363,-77.637,-83.008,-35.156,0.000,0
38174.417,-53.223,-84.473,-83.984,-47.363,0.000,0
38174.421,-71.289,-96.680,-80.566,-46.387,0.000,0
38174.425,-63.965,-75.195,-76.172,-29.785,0.000,0
38174.429,-56.152,-65.430,-67.871,-25.879,0.000,0
38174.433,-58.594,-63.965,-71.777,-21.973,0.000,1
38174.437,-53.223,-73.242,-73.242,-43.945,0.000,0
38174.440,-49.805,-86.426,-77.637,-64.941,0.000,0
38174.444,-47.852,-70.312,-80.078,-44.922,0.000,0
38174.448,-61.523,-65.430,-80.078,-13.184,0.000,0
38174.452,-69.336,-65.430,-82.520,-22.949,0.000,0
38174.456,-68.848,-72.266,-85.449,-59.082,0.000,0
38174.460,-53.223,-85.938,-86.426,-59.570,0.000,0
38174.464,-41.504,-62.012,-82.520,-35.645,0.000,0
38174.468,-50.293,-51.270,-84.961,-38.574,0.000,0
38174.472,-52.734,-78.613,-80.566,-41.504,0.000,0
38174.476,-48.828,-77.637,-81.055,-34.180,0.000,0
38174.480,-49.805,-52.734,-91.797,-28.320,0.000,0
38174.483,-43.457,-83.984,-80.566,-37.109,0.000,0
38174.487,-53.711,-112.305,-67.871,-46.387,0.000,0
38174.491,-57.617,-70.801,-80.566,-32.227,0.000,0
38174.495,-52.734,-73.730,-80.078,-36.133,0.000,0
38174.499,-41.016,-79.102,-68.359,-21.484,0.000,0
38174.503,-44.922,-62.500,-68.359,-28.320,0.000,0
38174.507,-50.293,-58.105,-71.777,-33.691,0.000,0
38174.511,-38.574,-60.547,-70.312,-27.832,0.000,0
38174.515,-43.457,-75.195,-68.848,-23.438,0.000,0
38174.519,-41.016,-81.055,-67.871,-34.668,0.000,0
38174.522,-32.715,-53.223,-65.430,-27.344,0.000,0
38174.526,-33.691,-55.664,-59.570,-13.184,0.000,0
38174.530,-36.133,-62.500,-50.781,-19.531,0.000,0
38174.534,-31.738,-59.570,-57.129,-29.297,0.000,0
38174.538,-25.879,-59.570,-60.547,-43.945,0.000,0
38174.542,-25.391,-52.246,-57.129,-21.484,0.000,0
38174.546,-30.762,-60.059,-61.035,-13.184,0.000,0
38174.550,-35.156,-62.500,-66.895,-10.742,0.000,0
38174.554,-35.645,-69.824,-60.059,-10.742,0.000,0
38174.558,-17.090,-72.266,-53.223,-33.203,0.000,0
38174.562,-4.395,-49.805,-59.082,-1.953,0.000,0
38174.565,-25.879,-50.781,-59.082,10.742,0.000,0
38174.569,-24.902,-47.852,-62.012,-27.832,0.000,0
38174.573,-14.648,-58.594,-57.617,-24.414,0.000,0
38174.577,-30.762,-67.871,-55.664,-13.672,0.000,0
38174.581,-25.879,-39.551,-63.477,-29.785,0.000,0
38174.585,-9.277,-56.152,-55.664,-39.551,0.000,0
38174.589,-20.020,-57.129,-48.828,-10.742,0.000,0
38174.593,-13.184,-48.340,-58.594,2.930,0.000,0
38174.597,-7.324,-66.895,-62.012,-17.090,0.000,0
38174.601,-20.020,-53.711,-63.477,-12.695,0.000,0
38174.605,-16.602,-61.035,-54.199,1.465,0.000,0
38174.608,-18.555,-56.152,-50.781,-4.883,0.000,0
38174.612,0.977,-47.852,-60.059,-15.137,0.000,0
38174.616,-10.742,-71.289,-55.176,-16.113,0.000,0
38174.620,-41.016,-54.199,-60.059,-31.250,0.000,0
38174.624,-4.883,-41.504,-68.359,-30.762,0.000,0
38174.628,-9.766,-43.457,-73.730,-18.555,0.000,0
38174.632,-38.574,-52.246,-65.918,-9.277,0.000,0
38174.636,-40.039,-75.684,-48.828,-24.414,0.000,0
38174.640,-29.785,-38.574,-66.406,-21.973,0.000,0
38174.644,-15.137,-17.578,-78.125,-29.785,0.000,0
38174.647,-22.461,-41.992,-70.312,-20.020,0.000,0
38174.651,-15.137,-56.641,-66.406,-7.812,0.000,0
38174.655,-14.160,-61.035,-57.129,-30.762,0.000,0
38174.659,-22.949,-41.504,-57.617,-25.879,0.000,0
38174.663,-37.109,-41.016,-60.547,-7.324,0.000,0
38174.667,-40.039,-42.480,-66.406,-8.301,0.000,0
38174.671,-34.668,-39.551,-74.707,-21.973,0.000,0
38174.675,-44.922,-60.059,-66.406,-23.438,0.000,0
38174.679,-35.156,-35.156,-58.105,-14.648,0.000,0
38174.683,-32.227,-27.344,-66.895,-24.414,0.000,0
38174.687,-36.133,-43.945,-67.383,-19.531,0.000,0
38174.690,-22.949,-36.133,-59.082,2.441,0.000,0
38174.694,-32.227,-49.316,-53.223,-2.441,0.000,0
38174.698,-41.992,-26.855,-59.082,-20.020,0.000,0
38174.702,-32.227,-6.836,-72.266,-17.090,0.000,0
38174.706,-30.762,-29.785,-64.453,3.418,0.000,0
38174.710,-33.691,-34.668,-55.664,15.137,0.000,0
38174.714,-22.949,-45.898,-52.734,-12.695,0.000,0
38174.718,-14.648,-30.273,-55.664,-31.250,0.000,0
38174.722,-26.367,-27.832,-66.406,-27.832,0.000,0
38174.726,-51.758,-44.922,-77.637,-14.160,0.000,0
38174.730,-49.805,-47.852,-83.496,-14.160,0.000,0
38174.733,-40.527,-69.824,-78.125,-26.855,0.000,0
38174.737,-38.574,-59.570,-74.219,-17.090,0.000,0
38174.741,-44.922,-43.945,-74.707,-21.973,0.000,0
38174.745,-47.363,-49.316,-73.242,-27.344,0.000,0
38174.749,-35.156,-47.363,-70.801,-11.230,0.000,0
38174.753,-26.367,-54.199,-66.895,-6.348,0.000,0
38174.757,-36.133,-50.781,-68.359,-31.738,0.000,0
38174.761,-48.828,-23.926,-81.055,-40.039,0.000,0
38174.765,-39.062,-23.926,-82.520,-15.137,0.000,0
38174.769,-19.043,-54.688,-67.871,4.395,0.000,0
38174.772,-5.859,-59.082,-57.617,7.812,0.000,0
38174.776,-23.926,-41.504,-64.453,-14.160,0.000,0
38174.780,-33.203,-32.715,-68.359,-23.926,0.000,0
38174.784,-22.461,-35.645,-56.152,-24.902,0.000,0
38174.788,-19.531,-45.898,-58.105,-20.996,0.000,0
38174.792,-19.043,-49.316,-68.848,-28.320,0.000,0
38174.796,-21.973,-30.273,-73.242,-25.879,0.000,0
38174.800,-27.832,-44.434,-67.383,0.000,0.000,0
38174.804,-25.391,-49.316,-69.336,-4.883,0.000,0
38174.808,-30.273,-30.273,-80.566,-19.043,0.000,0
38174.812,-22.461,-52.246,-74.219,-22.461,0.000,0
38174.815,-27.832,-75.684,-58.594,-30.762,0.000,0
38174.819,-35.645,-57.617,-63.477,-29.297,0.000,0
38174.823,-27.832,-30.762,-60.547,-11.719,0.000,0
38174.827,-17.090,-37.109,-56.641,18.555,0.000,0
38174.831,-21.484,-60.059,-51.270,-14.160,0.000,0
38174.835,-32.715,-48.828,-55.176,-21.973,0.000,0
38174.839,-36.621,-43.457,-65.430,8.301,0.000,0
38174.843,-36.133,-48.340,-62.500,-16.602,0.000,0
38174.847,-34.668,-46.875,-68.359,-23.926,0.000,0
38174.851,-28.809,-42.969,-73.730,-30.273,0.000,0
38174.855,-28.320,-34.180,-76.660,-42.969,0.000,0
38174.858,-44.922,-53.223,-68.359,-23.438,0.000,0
38174.862,-51.758,-51.758,-63.965,-19.531,0.000,0
38174.866,-44.922,-22.461,-73.730,-3.906,0.000,0
38174.870,-41.992,-34.180,-68.359,-13.672,0.000,0
38174.874,-43.945,-48.340,-66.406,-42.969,0.000,0
38174.878,-36.133,-20.020,-80.078,-38.086,0.000,0
38174.882,-39.062,-18.555,-83.496,-40.527,0.000,0
38174.886,-38.086,-33.691,-78.125,-47.363,0.000,0
38174.890,-32.715,-61.035,-67.383,-45.410,0.000,0
38174.894,-33.203,-73.730,-54.199,-48.340,0.000,0
38174.897,-37.109,-32.227,-63.477,-27.832,0.000,0
38174.901,-39.062,-33.691,-72.754,-2.930,0.000,0
38174.905,-44.922,-45.898,-75.195,1.465,0.000,0
38174.909,-49.805,-42.969,-81.055,-37.109,0.000,0
38174.913,-35.156,-58.105,-75.195,-38.086,0.000,0
38174.917,-39.062,-59.570,-79.590,-14.648,0.000,0
38174.921,-45.898,-61.523,-76.172,-37.109,0.000,0
38174.925,-37.109,-57.129,-71.289,-24.902,0.000,0
38174.929,-56.641,-69.336,-75.195,-29.785,0.000,0
38174.933,-62.012,-80.566,-67.871,-44.434,0.000,0
38174.937,-43.457,-60.059,-70.801,-25.879,0.000,0
38174.940,-53.223,-60.059,-83.008,-18.066,0.000,0
38174.944,-18.066,-45.410,-86.914,-13.672,0.000,0
38174.948,-22.461,-68.359,-71.289,-15.625,0.000,0
38174.952,-54.688,-93.262,-65.918,-29.297,0.000,0
38174.956,-54.688,-54.199,-83.496,-29.785,0.000,0
38174.960,-45.898,-53.711,-84.473,-34.668,0.000,0
38174.964,-42.480,-55.664,-74.707,-21.973,0.000,0
38174.968,-56.641,-58.594,-79.590,-4.395,0.000,0
38174.972,-39.062,-75.195,-80.566,-35.156,0.000,0
38174.976,-35.156,-52.246,-75.195,-41.016,0.000,0
38174.980,-69.824,-56.152,-76.660,-45.898,0.000,0
38174.983,-70.312,-68.359,-83.496,-56.152,0.000,0
38174.987,-53.711,-63.965,-81.543,-54.199,0.000,0
38174.991,-35.645,-73.242,-73.730,-63.965,0.000,0
38174.995,-48.828,-85.449,-71.777,-57.129,0.000,0
38174.999,-62.012,-51.758,-76.660,-36.133,0.000,0
38175.003,-55.176,-24.902,-87.891,-28.809,0.000,0
38175.007,-60.059,-63.965,-89.355,-38.086,0.000,0
38175.011,-65.430,-103.516,-74.219,-44.434,0.000,0
38175.015,-56.152,-69.336,-75.195,-33.691,0.000,0
38175.019,-66.406,-52.734,-80.078,-47.363,0.000,0
38175.022,-64.453,-60.547,-73.730,-57.129,0.000,0
38175.026,-52.246,-55.176,-77.148,-56.152,0.000,0
38175.030,-76.660,-74.707,-74.707,-53.223,0.000,0
38175.034,-73.730,-57.129,-76.660,-39.062,0.000,0
38175.038,-56.641,-50.293,-75.684,-42.480,0.000,0
38175.042,-82.031,-57.617,-76.660,-35.156,0.000,0
38175.046,-76.660,-49.316,-89.355,-36.133,0.000,0
38175.050,-72.266,-76.660,-81.543,-58.594,0.000,0
38175.054,-66.406,-59.082,-75.195,-56.641,0.000,0
38175.058,-50.781,-24.902,-90.332,-46.387,0.000,0
38175.062,-70.312,-40.039,-97.168,-52.246,0.000,0
38175.065,-61.523,-54.199,-86.426,-53.711,0.000,0
38175.069,-52.246,-93.262,-69.824,-60.059,0.000,0
38175.073,-61.523,-76.172,-75.684,-55.664,0.000,0
38175.077,-49.805,-56.641,-82.031,-42.480,0.000,0
38175.081,-46.387,-76.172,-76.660,-51.270,0.000,0
38175.085,-47.852,-74.707,-74.219,-55.664,0.000,0
38175.089,-44.922,-80.078,-72.754,-45.410,0.000,0
38175.093,-43.457,-67.871,-74.219,-42.480,0.000,0
38175.097,-56.152,-63.477,-79.590,-51.270,0.000,0
38175.101,-62.500,-93.262,-77.637,-62.012,0.000,0
38175.105,-47.852,-65.918,-83.008,-42.480,0.000,0
38175.108,-49.805,-47.363,-86.426,-46.387,0.000,0
38175.112,-33.691,-58.594,-77.637,-54.688,0.000,0
38175.116,-28.320,-49.316,-81.543,-51.758,0.000,0
38175.120,-59.570,-59.570,-92.773,-53.223,0.000,0
38175.124,-67.383,-66.406,-92.285,-51.270,0.000,0
38175.128,-65.918,-69.336,-84.473,-74.707,0.000,0
38175.132,-67.383,-57.617,-84.961,-75.195,0.000,0
38175.136,-54.199,-37.598,-89.844,-71.289,0.000,0
38175.140,-43.945,-57.129,-86.426,-53.711,0.000,0
38175.144,-59.082,-75.684,-75.684,-27.344,0.000,0
38175.147,-47.363,-64.453,-77.637,-42.969,0.000,0
38175.151,-31.738,-53.711,-78.125,-48.828,0.000,1
38175.155,-53.711,-55.664,-71.289,-36.133,0.000,0
38175.159,-31.738,-57.129,-72.266,-37.109,0.000,0
38175.163,-24.414,-57.129,-75.195,-34.668,0.000,0
38175.167,-42.969,-65.430,-69.336,-38.574,0.000,0
38175.171,-46.387,-51.758,-73.242,-41.016,0.000,0
38175.175,-53.223,-51.270,-76.660,-40.039,0.000,0
38175.179,-23.438,-44.922,-75.195,-11.719,0.000,0
38175.183,-24.902,-30.273,-87.402,-31.738,0.000,0
38175.187,-47.852,-67.871,-76.660,-63.965,0.000,0
38175.190,-36.621,-69.336,-70.312,-42.480,0.000,0
38175.194,-25.879,-48.828,-75.684,-32.715,0.000,0
38175.198,-33.203,-70.801,-69.336,-25.391,0.000,0
38175.202,-29.297,-68.359,-76.660,-14.160,0.000,0
38175.206,-6.348,-62.988,-75.195,-26.367,0.000,0
38175.210,-20.020,-56.152,-74.219,-38.574,0.000,0
38175.214,-57.129,-59.082,-74.219,-24.902,0.000,0
38175.218,-33.691,-70.312,-73.242,-29.297,0.000,0
38175.222,-28.809,-64.453,-81.055,-49.316,0.000,0
38175.226,-51.758,-62.500,-76.660,-49.316,0.000,0
38175.230,-43.457,-54.199,-63.965,-33.203,0.000,0
38175.233,-32.227,-55.664,-68.359,-30.762,0.000,0
38175.237,-34.180,-54.688,-77.148,-41.992,0.000,0
38175.241,-45.410,-56.152,-75.684,-32.715,0.000,0
38175.245,-33.691,-79.102,-70.801,-27.344,0.000,0
38175.249,-30.762,-63.965,-70.312,-45.898,0.000,0
38175.253,-19.043,-54.199,-76.172,-51.758,0.000,0
38175.257,-19.531,-64.453,-80.566,-41.016,0.000,0
38175.261,-55.176,-65.430,-79.102,-33.203,0.000,0
38175.265,-62.988,-78.613,-71.289,-39.062,0.000,0
38175.269,-50.781,-65.430,-66.406,-33.691,0.000,0
38175.272,-45.898,-37.598,-75.195,-16.113,0.000,0
38175.276,-46.875,-49.805,-71.289,-30.762,0.000,0
38175.280,-32.227,-56.641,-61.523,-41.504,0.000,0
38175.284,-5.371,-61.523,-62.012,-35.645,0.000,0
38175.288,-10.742,-57.129,-59.570,-25.391,0.000,0
38175.292,-30.762,-42.480,-72.266,-18.555,0.000,0
38175.296,-37.598,-54.688,-78.613,-29.785,0.000,0
38175.300,-40.527,-61.523,-75.684,-47.852,0.000,0
38175.304,-38.086,-62.500,-75.684,-49.316,0.000,0
38175.308,-40.039,-54.688,-75.684,-44.922,0.000,0
38175.312,-39.062,-43.457,-73.242,-21.973,0.000,0
38175.315,-23.926,-42.480,-66.895,-17.090,0.000,0
38175.319,-32.227,-36.133,-69.824,-20.996,0.000,0
38175.323,-41.504,-66.895,-68.848,-22.461,0.000,0
38175.327,-32.227,-60.547,-66.895,-31.250,0.000,0
38175.331,-35.645,-32.227,-67.871,-21.973,0.000,0
38175.335,-18.555,-46.387,-59.082,-19.043,0.000,0
38175.339,-27.344,-41.016,-58.594,-12.207,0.000,0
38175.343,-22.461,-54.688,-59.082,-21.484,0.000,0
38175.347,-18.066,-59.570,-59.570,-29.785,0.000,0
38175.351,-41.016,-36.133,-69.824,-35.156,0.000,0
38175.355,-41.992,-41.016,-77.148,-38.086,0.000,0
38175.358,-38.574,-30.762,-74.219,-19.043,0.000,0
38175.362,-45.898,-44.434,-63.477,-34.668,0.000,0
38175.366,-35.156,-48.340,-60.059,-37.109,0.000,0
38175.370,-12.207,-19.531,-70.312,-22.461,0.000,0
38175.374,-30.762,-25.879,-77.637,-21.973,0.000,0
38175.378,-35.156,-68.359,-74.707,-22.949,0.000,0
38175.382,-20.508,-49.316,-71.289,-49.316,0.000,0
38175.386,-19.043,-9.277,-73.730,-41.504,0.000,0
38175.390,-20.508,-16.602,-69.824,-35.156,0.000,0
38175.394,-19.043,-30.273,-60.059,-25.879,0.000,0
38175.397,-17.578,-41.016,-53.711,-10.742,0.000,0
38175.401,-31.738,-54.688,-54.199,-25.391,0.000,0
38175.405,-50.293,-41.992,-58.594,-29.297,0.000,0
38175.409,-45.410,-37.109,-61.523,-24.902,0.000,0
38175.413,-18.066,-43.457,-61.523,-21.973,0.000,0
38175.417,-16.602,-25.879,-66.895,-21.484,0.000,0
38175.421,-35.645,-46.387,-66.406,-22.949,0.000,0
38175.425,-37.598,-65.430,-51.270,-17.578,0.000,0
38175.429,-22.461,-54.199,-50.781,-7.324,0.000,0
38175.433,-21.484,-52.246,-54.688,-2.441,0.000,0
38175.437,-12.695,-47.852,-47.852,0.488,0.000,0
38175.440,-9.766,-70.312,-34.668,-36.133,0.000,0
38175.444,-39.062,-69.336,-48.828,-51.758,0.000,0
38175.448,-36.133,-53.711,-58.105,-26.855,0.000,0
38175.452,-26.855,-65.918,-55.176,-24.902,0.000,0
38175.456,-23.926,-77.637,-57.129,-13.184,0.000,0
38175.460,-31.250,-85.938,-60.059,-13.184,0.000,0
38175.464,-36.133,-80.078,-63.477,-33.691,0.000,0
38175.468,-22.461,-76.660,-62.500,-21.973,0.000,0
38175.472,-18.555,-83.496,-61.523,-12.695,0.000,0
38175.476,-22.949,-70.801,-68.359,-26.367,0.000,0
38175.480,-26.855,-71.289,-63.965,-32.715,0.000,0
38175.483,-20.996,-65.430,-55.176,-28.809,0.000,0
38175.487,-12.207,-47.852,-55.176,-14.648,0.000,0
38175.491,-21.973,-49.316,-61.523,-23.438,0.000,0
38175.495,-24.902,-48.828,-65.918,-12.695,0.000,0
38175.499,-22.461,-62.988,-56.152,0.000,0.000,0
38175.503,-12.695,-59.082,-56.641,-17.090,0.000,0
38175.507,-7.812,-42.480,-65.918,-26.855,0.000,0
38175.511,-28.809,-34.180,-71.289,-33.203,0.000,0
38175.515,-48.340,-45.898,-66.406,-17.090,0.000,0
38175.519,-31.738,-55.664,-60.059,-20.020,0.000,0
38175.522,-13.184,-40.039,-63.965,-34.180,0.000,0
38175.526,-37.109,-33.203,-68.848,-32.715,0.000,0
38175.530,-50.293,-46.875,-62.500,-16.113,0.000,0
38175.534,-39.551,-52.734,-64.941,-3.418,0.000,0
38175.538,-36.621,-63.965,-70.312,-14.648,0.000,0
38175.542,-29.785,-67.383,-63.477,-30.762,0.000,0
38175.546,-14.160,-55.664,-71.777,-15.625,0.000,0
38175.550,-46.387,-68.848,-77.637,-17.578,0.000,0
38175.554,-50.781,-52.246,-81.055,-33.691,0.000,0
38175.558,-36.621,-58.105,-80.078,-35.645,0.000,0
38175.562,-49.316,-92.773,-67.871,-30.273,0.000,0
38175.565,-35.645,-70.801,-79.590,-33.203,0.000,0
38175.569,-29.785,-66.895,-84.961,-33.203,0.000,0
38175.573,-38.086,-73.242,-83.984,-11.230,0.000,0
38175.577,-38.574,-77.637,-83.496,-45.410,0.000,0
38175.581,-42.480,-82.520,-75.195,-61.523,0.000,0
38175.585,-45.410,-54.688,-79.102,-31.250,0.000,0
38175.589,-30.273,-46.875,-74.219,-20.508,0.000,0
38175.593,-18.555,-53.711,-68.359,-19.043,0.000,0
38175.597,-20.020,-47.852,-69.824,-19.531,0.000,0
38175.601,-6.348,-50.293,-68.848,-28.320,0.000,0
38175.605,-17.090,-49.805,-73.242,-22.949,0.000,0
38175.608,-27.832,-65.918,-73.730,-17.578,0.000,0
38175.612,-19.043,-35.156,-84.473,-15.625,0.000,0
38175.616,-28.320,-24.902,-88.379,-20.020,0.000,0
38175.620,-32.715,-73.242,-67.383,-26.855,0.000,0
38175.624,-28.809,-45.898,-67.383,-24.414,0.000,0
38175.628,-28.809,-37.109,-72.754,-36.621,0.000,0
38175.632,-32.227,-49.805,-69.824,-34.180,0.000,0
38175.636,-36.133,-46.387,-64.453,-17.578,0.000,0
38175.640,-36.133,-54.688,-48.828,-34.180,0.000,0
38175.644,-32.227,-35.645,-55.664,-42.969,0.000,0
38175.647,-34.668,-30.762,-74.707,-23.926,0.000,0
38175.651,-32.227,-38.086,-69.824,-9.277,0.000,0
38175.655,-38.574,-31.250,-72.754,-15.625,0.000,0
38175.659,-54.688,-48.340,-67.383,-18.555,0.000,0
38175.663,-38.086,-31.250,-55.664,-41.992,0.000,0
38175.667,-30.762,-5.371,-59.570,-36.133,0.000,0
38175.671,-15.137,-11.230,-62.012,-18.066,0.000,0
38175.675,-24.414,-22.949,-61.035,-32.715,0.000,0
38175.679,-43.457,-62.012,-52.734,-42.480,0.000,0
38175.683,-34.668,-50.781,-55.664,-20.020,0.000,0
38175.687,-31.738,-31.250,-65.430,-14.160,0.000,0
38175.690,-20.508,-30.273,-60.059,-21.484,0.000,0
38175.694,-27.832,-24.414,-48.340,-16.602,0.000,0
38175.698,-33.691,-45.410,-43.457,-30.762,0.000,0
38175.702,-20.996,-27.832,-53.711,-35.645,0.000,0
38175.706,-18.066,-12.207,-64.453,-31.738,0.000,0
38175.710,-9.277,-47.852,-55.664,-21.973,0.000,0
38175.714,-12.695,-37.598,-53.711,-4.883,0.000,0
38175.718,-20.996,-17.090,-58.594,-9.766,0.000,0
38175.722,-30.762,-21.484,-59.570,-11.719,0.000,0
38175.726,-35.156,-39.062,-58.105,-4.883,0.000,0
38175.730,-22.949,-46.875,-56.641,-10.742,0.000,0
38175.733,-19.531,-41.504,-61.035,-6.836,0.000,0
38175.737,-23.438,-49.316,-57.617,-22.949,0.000,0
38175.741,-23.926,-34.668,-52.734,-33.203,0.000,0
38175.745,-25.391,-3.906,-54.199,-8.301,0.000,0
38175.749,-30.762,-6.836,-61.523,-5.371,0.000,0
38175.753,-31.250,-22.461,-61.035,-13.184,0.000,0
38175.757,-18.555,-52.734,-42.480,3.906,0.000,0
38175.761,-13.184,-42.969,-42.969,15.137,0.000,0
38175.765,0.488,-8.789,-55.664,-6.348,0.000,0
38175.769,-12.207,-25.879,-51.270,-18.555,0.000,0
38175.772,-36.133,-46.875,-43.945,1.465,0.000,0
38175.776,-34.668,-46.387,-47.852,-16.602,0.000,0
38175.780,-26.367,-42.969,-50.781,-44.922,0.000,0
38175.784,-13.672,-43.945,-52.246,-18.555,0.000,0
38175.788,-21.484,-52.734,-62.988,0.000,0.000,0
38175.792,-37.109,-49.316,-75.195,-13.184,0.000,0
38175.796,-47.363,-58.594,-72.754,-34.180,0.000,0
38175.800,-67.383,-53.711,-68.848,-64.453,0.000,0
38175.804,-55.664,-35.645,-68.848,-42.480,0.000,0
38175.808,-20.020,-33.691,-65.918,-37.598,0.000,0
38175.812,-51.270,-38.574,-68.359,-38.574,0.000,0
38175.815,-63.965,-38.574,-63.965,-21.973,0.000,0
38175.819,-31.738,-19.531,-57.617,-27.832,0.000,0
38175.823,-29.785,-2.930,-66.895,-29.785,0.000,0
38175.827,-32.227,-14.648,-72.754,-27.832,0.000,0
38175.831,-40.527,-51.758,-72.754,-22.949,0.000,0
38175.835,-36.133,-50.293,-72.266,-26.855,0.000,0
38175.839,-2.441,-24.902,-77.148,-29.785,0.000,0
38175.843,-40.039,-33.691,-73.242,-27.832,0.000,0
38175.847,-66.406,-63.965,-57.129,-19.043,0.000,1
38175.851,-42.480,-57.129,-67.383,-16.602,0.000,0
38175.855,-34.180,-58.594,-75.195,-40.527,0.000,0
38175.858,-36.621,-65.918,-68.848,-47.852,0.000,0
38175.862,-27.832,-66.895,-78.613,-17.578,0.000,0
38175.866,-9.766,-74.219,-83.496,7.812,0.000,0
38175.870,-32.715,-73.242,-74.707,-21.973,0.000,0
38175.874,-60.059,-85.449,-71.777,-46.875,0.000,0
38175.878,-45.410,-79.102,-69.824,-34.668,0.000,0
38175.882,-32.227,-60.059,-68.359,-21.973,0.000,0
38175.886,-28.320,-65.918,-68.359,-25.391,0.000,0
38175.890,-17.578,-67.871,-63.477,-23.438,0.000,0
38175.894,-11.719,-68.359,-64.941,-23.926,0.000,0
38175.897,-17.578,-64.453,-61.035,-6.348,0.000,0
38175.901,-14.160,-53.711,-59.082,-5.371,0.000,0
38175.905,-28.320,-66.406,-58.594,-34.668,0.000,0
38175.909,-37.598,-63.477,-59.082,-35.156,0.000,0
38175.913,-27.344,-75.684,-59.570,-30.273,0.000,0
38175.917,-25.391,-108.887,-55.664,-33.203,0.000,0
38175.921,-31.738,-84.473,-65.430,-40.039,0.000,0
38175.925,-27.832,-84.473,-67.871,-28.809,0.000,0
38175.929,-29.785,-73.242,-73.242,-19.043,0.000,0
38175.933,-52.246,-84.473,-73.242,-24.414,0.000,0
38175.937,-53.223,-131.348,-57.129,-28.809,0.000,0
38175.940,-43.945,-86.914,-70.312,-29.785,0.000,0
38175.944,-42.480,-67.383,-76.660,-37.109,0.000,0
38175.948,-33.203,-91.797,-65.918,-29.785,0.000,0
38175.952,-43.457,-121.094,-66.406,-18.555,0.000,0
38175.956,-46.875,-128.906,-71.777,-39.551,0.000,0
38175.960,-43.457,-104.004,-82.031,-51.270,0.000,0
38175.964,-51.758,-109.863,-83.008,-43.457,0.000,0
38175.968,-46.387,-109.863,-81.543,-41.016,0.000,0
38175.972,-48.828,-109.375,-81.543,-37.598,0.000,0
38175.976,-63.965,-124.512,-76.660,-60.547,0.000,0
38175.980,-70.312,-110.352,-74.707,-63.477,0.000,0
38175.983,-45.410,-99.121,-75.684,-41.016,0.000,0
38175.987,-31.738,-92.773,-80.078,-37.598,0.000,0
38175.991,-53.711,-100.098,-78.125,-50.293,0.000,0
38175.995,-55.176,-142.578,-69.824,-59.082,0.000,0
38175.999,-47.363,-124.023,-77.637,-40.039,0.000,0
38176.003,-55.664,-87.402,-86.426,-31.250,0.000,0
38176.007,-52.734,-96.191,-77.637,-30.762,0.000,0
38176.011,-36.133,-125.000,-59.570,-40.527,0.000,0
38176.015,-43.945,-154.785,-56.152,-64.941,0.000,0
38176.019,-57.617,-135.254,-68.848,-54.199,0.000,0
38176.022,-52.734,-133.789,-67.871,-39.062,0.000,0
38176.026,-48.340,-135.254,-59.570,-25.879,0.000,0
38176.030,-36.621,-118.652,-71.777,-31.738,0.000,0
38176.034,-33.691,-146.484,-68.848,-47.852,0.000,0
38176.038,-45.898,-135.254,-65.918,-41.016,0.000,0
38176.042,-59.570,-126.465,-81.055,-21.973,0.000,0
38176.046,-46.387,-133.301,-84.473,-19.043,0.000,0
38176.050,-51.270,-135.254,-80.566,-55.664,0.000,0
38176.054,-62.500,-163.086,-74.707,-62.500,0.000,0
38176.058,-50.781,-140.137,-81.543,-41.504,0.000,0
38176.062,-49.805,-109.375,-89.844,-61.035,0.000,0
38176.065,-55.176,-131.348,-83.496,-59.570,0.000,0
38176.069,-48.828,-132.324,-80.078,-46.875,0.000,0
38176.073,-38.574,-133.789,-66.895,-49.805,0.000,0
38176.077,-29.785,-112.305,-63.477,-38.086,0.000,0
38176.081,-32.715,-100.586,-63.965,-41.016,0.000,0
38176.085,-21.484,-101.562,-48.340,-33.691,0.000,0
38176.089,-13.672,-78.613,-48.828,-23.926,0.000,0
38176.093,-16.602,-82.031,-50.781,-30.273,0.000,0
38176.097,-16.602,-80.078,-53.223,-10.254,0.000,0
38176.101,-1.465,-82.520,-45.898,-3.906,0.000,0
38176.105,-16.113,-82.520,-41.504,-19.043,0.000,0
38176.108,-38.574,-72.754,-43.457,-11.230,0.000,0
38176.112,-14.648,-88.379,-35.645,-8.789,0.000,0
38176.116,-23.926,-87.402,-43.945,-17.090,0.000,0
38176.120,-34.180,-70.312,-66.895,-24.902,0.000,0
38176.124,-18.066,-84.473,-66.406,-29.785,0.000,0
38176.128,-39.551,-95.215,-70.801,-18.066,0.000,0
38176.132,-50.293,-100.586,-82.520,-15.137,0.000,0
38176.136,-50.781,-108.398,-86.426,-53.711,0.000,0
38176.140,-71.777,-104.004,-95.703,-69.336,0.000,0
38176.144,-72.266,-106.934,-95.215,-45.898,0.000,0
38176.147,-78.613,-107.910,-101.562,-24.414,0.000,0
38176.151,-75.684,-115.723,-104.980,-52.246,0.000,0
38176.155,-49.805,-104.004,-94.238,-75.684,0.000,0
38176.159,-56.641,-88.867,-84.961,-52.734,0.000,0
38176.163,-69.824,-100.586,-88.867,-52.734,0.000,0
38176.167,-67.383,-93.750,-99.121,-60.059,0.000,0
38176.171,-58.594,-106.934,-101.562,-62.500,0.000,0
38176.175,-65.918,-120.117,-110.840,-69.824,0.000,0
38176.179,-80.566,-100.098,-124.023,-72.754,0.000,0
38176.183,-84.473,-95.703,-132.324,-78.125,0.000,0
38176.187,-91.797,-113.770,-123.047,-84.961,0.000,0
38176.190,-76.172,-140.625,-101.074,-68.848,0.000,0
38176.194,-64.941,-134.766,-97.168,-65.430,0.000,0
38176.198,-65.918,-117.676,-106.445,-77.637,0.000,0
38176.202,-65.430,-122.559,-104.492,-86.426,0.000,0
38176.206,-61.035,-110.352,-102.051,-63.965,0.000,0
38176.210,-50.293,-102.539,-106.934,-62.988,0.000,0
38176.214,-64.941,-100.586,-103.027,-75.195,0.000,0
38176.218,-74.219,-103.516,-98.633,-56.152,0.000,0
38176.222,-71.289,-125.977,-94.238,-41.016,0.000,0
38176.226,-63.965,-119.141,-98.145,-53.223,0.000,0
38176.230,-41.504,-103.027,-85.449,-57.129,0.000,0
38176.233,-33.691,-76.660,-70.312,-39.551,0.000,0
38176.237,-21.973,-41.504,-60.547,-31.250,0.000,0
38176.241,-6.836,-37.109,-49.805,-8.789,0.000,0
38176.245,-3.906,-35.645,-47.852,8.789,0.000,0
38176.249,-3.418,-47.852,-38.086,-1.953,0.000,0
38176.253,-2.930,-79.590,-23.926,-10.254,0.000,0
38176.257,4.883,-36.133,-35.645,0.977,0.000,0
38176.261,-13.184,-16.113,-43.945,0.000,0.000,0
38176.265,-21.484,-59.570,-36.621,-5.859,0.000,0
38176.269,-30.273,-83.496,-45.410,-17.090,0.000,0
38176.272,-24.414,-81.055,-56.152,-33.203,0.000,0
38176.276,-21.973,-70.312,-61.523,-39.551,0.000,0
38176.280,-42.969,-87.402,-72.754,-32.227,0.000,0
38176.284,-53.223,-87.402,-82.031,-26.367,0.000,0
38176.288,-49.805,-92.285,-83.496,-58.105,0.000,0
38176.292,-44.922,-122.070,-85.449,-76.660,0.000,0
38176.296,-42.480,-104.980,-94.238,-66.406,0.000,0
38176.300,-42.969,-101.562,-92.773,-52.246,0.000,0
38176.304,-61.035,-96.191,-100.098,-28.320,0.000,0
38176.308,-49.316,-88.867,-102.539,-26.367,0.000,0
38176.312,-30.273,-122.070,-76.172,-49.805,0.000,0
38176.315,-45.898,-94.238,-81.543,-51.270,0.000,0
38176.319,-56.152,-85.938,-95.703,-42.969,0.000,0
38176.323,-58.594,-93.750,-89.844,-45.410,0.000,0
38176.327,-62.500,-103.516,-87.891,-57.129,0.000,0
38176.331,-67.871,-130.371,-86.426,-74.219,0.000,0
38176.335,-62.012,-74.707,-98.145,-60.547,0.000,0
38176.339,-54.199,-72.266,-97.168,-38.574,0.000,0
38176.343,-69.824,-104.980,-94.727,-58.105,0.000,0
38176.347,-82.031,-109.863,-104.004,-77.637,0.000,0
38176.351,-81.543,-117.676,-100.098,-70.312,0.000,0
38176.355,-82.520,-106.445,-100.098,-71.289,0.000,0
38176.358,-67.383,-102.539,-104.492,-78.125,0.000,0
38176.362,-56.641,-95.703,-102.051,-79.590,0.000,0
38176.366,-79.590,-123.047,-86.426,-73.730,0.000,0
38176.370,-67.383,-125.000,-83.984,-80.078,0.000,0
38176.374,-48.340,-86.914,-94.238,-83.496,0.000,0
38176.378,-78.613,-118.652,-88.379,-74.219,0.000,0
38176.382,-87.402,-112.305,-87.402,-62.012,0.000,0
38176.386,-63.965,-105.957,-85.449,-60.059,0.000,0
38176.390,-52.246,-124.023,-83.496,-53.223,0.000,0
38176.394,-51.758,-98.145,-91.797,-43.945,0.000,0
38176.397,-55.664,-92.285,-79.102,-55.176,0.000,0
38176.401,-31.738,-76.172,-64.941,-40.039,0.000,0
38176.405,-12.695,-76.660,-62.500,-16.113,0.000,0
38176.409,-22.461,-86.914,-60.547,-38.086,0.000,0
38176.413,-18.555,-67.383,-66.895,-33.203,0.000,0
38176.417,-21.484,-68.359,-65.430,-24.902,0.000,0
38176.421,-31.250,-65.430,-62.988,-23.926,0.000,0
38176.425,-31.738,-70.312,-63.965,-31.738,0.000,0
38176.429,-18.555,-102.539,-51.758,-40.039,0.000,0
38176.433,-8.789,-58.105,-53.223,-18.066,0.000,0
38176.437,-4.395,-23.438,-53.223,-4.395,0.000,0
38176.440,5.371,-39.062,-26.855,12.207,0.000,0
38176.444,22.461,-28.809,-3.906,25.879,0.000,0
38176.448,25.391,-22.461,-4.395,7.812,0.000,0
38176.452,13.184,-6.348,-10.254,11.230,0.000,0
38176.456,27.832,-17.578,-6.348,39.551,0.000,0
38176.460,39.062,-28.320,-11.719,34.668,0.000,0
38176.464,3.418,-31.738,-20.996,31.250,0.000,0
38176.468,1.953,-41.504,-18.555,26.367,0.000,0
38176.472,13.672,-29.785,-22.461,21.973,0.000,0
38176.476,0.488,-28.320,-26.855,7.324,0.000,0
38176.480,5.859,-27.832,-25.391,-5.371,0.000,0
38176.483,21.973,-21.973,-23.438,14.648,0.000,0
38176.487,14.648,-34.668,-14.160,7.812,0.000,0
38176.491,4.883,-20.508,-22.949,18.066,0.000,0
38176.495,21.973,1.465,-40.039,33.203,0.000,0
38176.499,15.137,0.488,-30.762,25.879,0.000,0
38176.503,-4.395,-30.273,-18.066,21.973,0.000,0
38176.507,4.395,-51.270,-23.438,-2.441,0.000,0
38176.511,20.508,-10.742,-34.668,-2.441,0.000,0
38176.515,25.879,3.418,-34.668,16.113,0.000,0
38176.519,3.906,-25.879,-28.320,9.277,0.000,0
38176.522,-25.391,-33.691,-33.691,5.371,0.000,0
38176.526,-21.484,-41.992,-38.086,5.859,0.000,0
38176.530,-18.555,-32.715,-43.945,22.949,0.000,0
38176.534,-12.695,-40.527,-50.293,13.672,0.000,0
38176.538,-9.277,-42.969,-53.711,-10.254,0.000,0
38176.542,-17.578,-17.090,-60.547,-3.418,0.000,0
38176.546,-15.625,-48.828,-47.852,-2.930,0.000,0
38176.550,-20.996,-56.641,-39.062,-5.859,0.000,0
38176.554,-0.488,-29.785,-41.992,-4.395,0.000,1
38176.558,12.207,-21.973,-41.992,15.137,0.000,0
38176.562,-6.348,-22.949,-38.086,21.973,0.000,0
38176.565,-2.930,-30.762,-25.391,10.742,0.000,0
38176.569,14.160,-16.602,-27.344,17.090,0.000,0
38176.573,18.555,-7.324,-33.203,19.531,0.000,0
38176.577,3.906,-15.625,-29.297,12.695,0.000,0
38176.581,-9.766,-21.973,-33.203,20.020,0.000,0
38176.585,27.344,-24.902,-31.738,5.859,0.000,0
38176.589,15.625,-21.484,-27.832,-7.324,0.000,0
38176.593,-25.391,-28.809,-31.250,5.859,0.000,0
38176.597,-18.555,-38.574,-40.527,11.719,0.000,0
38176.601,-9.277,-40.039,-52.246,-5.859,0.000,0
38176.605,-26.367,-57.129,-41.992,-15.137,0.000,0
38176.608,-27.344,-58.105,-46.875,-10.742,0.000,0
38176.612,-27.832,-61.035,-70.312,-23.926,0.000,0
38176.616,-30.762,-77.148,-76.172,-39.062,0.000,0
38176.620,-23.438,-82.031,-84.473,-35.645,0.000,0
38176.624,-62.988,-107.910,-90.332,-51.758,0.000,0
38176.628,-78.613,-101.074,-86.426,-74.707,0.000,0
38176.632,-59.082,-58.594,-92.285,-54.688,0.000,0
38176.636,-48.828,-83.008,-92.773,-47.363,0.000,0
38176.640,-41.504,-104.492,-88.379,-53.711,0.000,0
38176.644,-67.383,-97.656,-97.656,-60.059,0.000,0
38176.647,-77.637,-100.586,-96.680,-64.941,0.000,0
38176.651,-70.801,-82.520,-98.145,-58.105,0.000,0
38176.655,-75.684,-92.773,-102.539,-55.664,0.000,0
38176.659,-61.035,-83.496,-104.980,-37.109,0.000,0
38176.663,-42.969,-93.750,-92.773,-43.457,0.000,0
38176.667,-44.434,-98.633,-82.520,-45.410,0.000,0
38176.671,-58.594,-74.219,-86.914,-35.645,0.000,0
38176.675,-44.922,-79.102,-76.660,-18.066,0.000,0
38176.679,-25.391,-56.152,-67.871,-1.465,0.000,0
38176.683,-35.156,-71.777,-52.246,-34.180,0.000,0
38176.687,-23.926,-83.984,-40.039,-33.691,0.000,0
38176.690,4.395,-40.527,-42.480,-5.371,0.000,0
38176.694,10.254,-48.828,-33.691,1.465,0.000,0
38176.698,12.695,-44.434,-34.180,10.742,0.000,0
38176.702,4.883,-51.270,-24.902,3.418,0.000,0
38176.706,-4.883,-54.199,-13.672,3.418,0.000,0
38176.710,-3.418,-35.156,-30.762,19.043,0.000,0
38176.714,-8.301,-41.992,-39.062,14.648,0.000,0
38176.718,-15.625,-45.410,-39.551,3.906,0.000,0
38176.722,-19.043,-47.852,-45.898,-6.348,0.000,0
38176.726,-9.277,-54.199,-45.410,-5.859,0.000,0
38176.730,9.277,-41.504,-30.273,1.953,0.000,0
38176.733,20.508,-21.484,-29.785,3.418,0.000,0
38176.737,2.441,-29.785,-38.574,3.418,0.000,0
38176.741,-17.090,-58.105,-32.715,-3.418,0.000,0
38176.745,-11.719,-45.410,-33.691,-8.301,0.000,0
38176.749,0.977,-26.367,-41.992,-3.906,0.000,0
38176.753,-20.996,-49.316,-49.805,-14.160,0.000,0
38176.757,-33.203,-59.082,-57.617,-11.719,0.000,0
38176.761,-28.809,-64.941,-63.477,-20.020,0.000,0
38176.765,-20.996,-72.266,-62.988,-40.527,0.000,0
38176.769,-25.391,-55.664,-67.383,-32.227,0.000,0
38176.772,-55.176,-62.012,-70.801,-27.344,0.000,0
38176.776,-61.523,-66.406,-74.707,-10.254,0.000,0
38176.780,-28.809,-62.500,-73.730,-2.441,0.000,0
38176.784,-12.695,-70.801,-62.988,-23.926,0.000,0
38176.788,-26.855,-58.594,-65.918,-44.434,0.000,0
38176.792,-39.551,-67.383,-78.613,-50.781,0.000,0
38176.796,-63.965,-79.102,-83.496,-51.758,0.000,0
38176.800,-65.430,-83.984,-78.125,-52.734,0.000,0
38176.804,-54.688,-93.262,-73.242,-41.992,0.000,0
38176.808,-68.848,-87.402,-79.102,-42.480,0.000,0
38176.812,-64.941,-89.355,-87.402,-52.246,0.000,0
38176.815,-69.336,-88.379,-89.844,-46.387,0.000,0
38176.819,-84.473,-99.609,-89.355,-50.293,0.000,0
38176.823,-69.824,-107.910,-93.262,-66.895,0.000,0
38176.827,-60.547,-83.984,-98.633,-69.824,0.000,0
38176.831,-69.336,-88.379,-104.492,-66.406,0.000,0
38176.835,-62.500,-104.980,-105.469,-62.012,0.000,0
38176.839,-60.059,-106.934,-102.539,-53.223,0.000,0
38176.843,-78.613,-113.281,-93.750,-60.059,0.000,0
38176.847,-83.008,-91.797,-101.562,-61.035,0.000,0
38176.851,-76.172,-90.332,-111.816,-69.336,0.000,0
38176.855,-70.801,-99.121,-113.281,-81.543,0.000,0
38176.858,-76.660,-100.586,-104.004,-69.824,0.000,0
38176.862,-78.613,-107.910,-93.750,-70.801,0.000,0
38176.866,-76.660,-98.145,-101.562,-72.754,0.000,0
38176.870,-69.824,-78.613,-117.188,-67.383,0.000,0
38176.874,-70.801,-86.914,-111.816,-63.965,0.000,0
38176.878,-77.637,-114.746,-96.680,-59.082,0.000,0
38176.882,-66.895,-110.840,-96.680,-60.059,0.000,0
38176.886,-67.383,-88.379,-104.004,-55.176,0.000,0
38176.890,-61.523,-87.402,-105.957,-46.387,0.000,0
38176.894,-57.129,-104.980,-103.027,-40.527,0.000,0
38176.897,-65.430,-115.234,-97.168,-30.762,0.000,0
38176.901,-57.129,-111.328,-95.215,-60.547,0.000,0
38176.905,-81.055,-95.703,-92.285,-67.871,0.000,0
38176.909,-83.008,-98.145,-83.496,-45.410,0.000,0
38176.913,-66.895,-79.102,-95.703,-46.387,0.000,0
38176.917,-60.059,-79.590,-94.727,-45.410,0.000,0
38176.921,-48.828,-118.652,-72.754,-44.434,0.000,0
38176.925,-41.016,-97.656,-82.031,-25.391,0.000,0
38176.929,-44.922,-82.031,-88.379,-9.766,0.000,0
38176.933,-44.434,-77.637,-79.102,-29.785,0.000,0
38176.937,-17.090,-88.867,-64.453,-42.969,0.000,0
38176.940,-31.250,-93.262,-51.270,-36.133,0.000,0
38176.944,-29.297,-55.664,-47.363,-7.812,0.000,0
38176.948,3.906,-40.039,-41.992,28.320,0.000,0
38176.952,10.254,-30.762,-43.945,19.531,0.000,0
38176.956,24.414,-33.203,-39.062,14.648,0.000,0
38176.960,17.578,-36.621,-26.855,16.602,0.000,0
38176.964,-0.977,-18.066,-29.297,12.207,0.000,0
38176.968,6.836,-33.203,-20.020,32.227,0.000,0
38176.972,31.250,-30.273,-21.973,35.645,0.000,0
38176.976,17.578,-33.691,-36.133,4.883,0.000,0
38176.980,-20.508,-69.824,-37.109,-19.043,0.000,0
38176.983,-26.367,-58.594,-55.176,-8.789,0.000,0
38176.987,-27.832,-62.500,-73.242,-13.184,0.000,0
38176.991,-42.480,-78.125,-78.125,-47.852,0.000,0
38176.995,-58.594,-84.961,-76.172,-48.828,0.000,0
38176.999,-57.617,-102.051,-70.312,-54.199,0.000,0
38177.003,-52.246,-77.637,-80.078,-57.129,0.000,0
38177.007,-61.523,-74.219,-92.285,-52.734,0.000,0
38177.011,-52.734,-85.938,-94.727,-51.758,0.000,0
38177.015,-52.734,-84.473,-93.750,-48.828,0.000,0
38177.019,-69.336,-94.727,-84.473,-51.758,0.000,0
38177.022,-74.707,-75.195,-80.078,-48.340,0.000,0
38177.026,-61.035,-74.707,-81.543,-41.992,0.000,0
38177.030,-32.227,-79.590,-86.426,-38.086,0.000,0
38177.034,-41.504,-76.660,-87.891,-30.273,0.000,0
38177.038,-63.477,-98.633,-73.730,-47.363,0.000,0
38177.042,-54.199,-83.984,-73.730,-70.312,0.000,0
38177.046,-42.969,-67.871,-80.078,-63.965,0.000,0
38177.050,-31.250,-56.152,-66.895,-43.945,0.000,0
38177.054,-13.184,-45.898,-48.828,-14.648,0.000,0
38177.058,5.371,-62.012,-39.551,-6.836,0.000,0
38177.062,5.371,-39.062,-47.363,-8.789,0.000,0
38177.065,-26.367,-13.184,-62.012,-15.137,0.000,0
38177.069,-29.785,-20.996,-57.129,-17.578,0.000,0
38177.073,-14.160,-36.621,-41.992,-5.859,0.000,0
38177.077,9.766,-37.598,-28.809,1.465,0.000,0
38177.081,12.695,-7.324,-21.484,0.977,0.000,0
38177.085,12.207,5.371,-14.648,21.484,0.000,0
38177.089,21.484,0.000,-18.066,32.227,0.000,0
38177.093,15.625,-0.488,-17.090,27.832,0.000,0
38177.097,35.156,-11.230,-10.742,28.809,0.000,0
38177.101,23.926,-12.695,-17.578,12.207,0.000,0
38177.105,-2.441,-13.672,-20.508,0.488,0.000,0
38177.108,14.648,-13.184,-19.043,15.137,0.000,0
38177.112,12.695,-22.949,-12.695,29.297,0.000,0
38177.116,-6.348,-36.133,-11.230,14.648,0.000,0
38177.120,-6.348,-22.949,-21.484,2.441,0.000,1
38177.124,-6.348,-6.348,-32.715,9.766,0.000,0
38177.128,0.977,-23.926,-31.738,17.090,0.000,0
38177.132,-0.977,-46.387,-25.391,0.000,0.000,0
38177.136,-1.465,-41.504,-26.367,-9.277,0.000,0
38177.140,0.488,-28.320,-28.809,3.418,0.000,0
38177.144,-9.277,-33.691,-25.391,7.324,0.000,0
38177.147,-2.441,-22.949,-32.227,22.949,0.000,0
38177.151,11.230,-36.133,-33.203,21.973,0.000,0
38177.155,12.207,-45.410,-18.555,13.184,0.000,0
38177.159,-4.395,-8.789,-21.484,24.414,0.000,0
38177.163,-5.371,-7.812,-24.414,29.785,0.000,0
38177.167,6.348,-8.301,-19.531,28.320,0.000,0
38177.171,9.277,-9.766,-17.090,25.879,0.000,0
38177.175,22.461,-21.973,-13.184,21.973,0.000,0
38177.179,4.883,-11.719,-21.973,25.879,0.000,0
38177.183,-0.977,-0.977,-40.527,12.695,0.000,0
38177.187,3.906,-18.066,-41.504,3.906,0.000,0
38177.190,-16.602,-35.156,-34.180,5.371,0.000,0
38177.194,-15.137,-40.039,-36.133,-12.207,0.000,0
38177.198,2.441,-17.578,-47.852,-17.578,0.000,0
38177.202,-8.301,-21.973,-46.387,-3.906,0.000,0
38177.206,-22.949,-56.152,-33.203,-2.441,0.000,0
38177.210,-9.277,-45.898,-36.621,-6.836,0.000,0
38177.214,0.488,-51.758,-41.504,3.906,0.000,0
38177.218,-17.090,-50.781,-46.875,-7.812,0.000,0
38177.222,-30.762,-47.852,-50.781,-20.996,0.000,0
38177.226,-31.250,-44.922,-54.688,-4.883,0.000,0
38177.230,-28.320,-36.621,-49.316,-10.742,0.000,0
38177.233,-20.020,-47.852,-38.086,-24.902,0.000,0
38177.237,-25.879,-33.691,-48.340,-13.672,0.000,0
38177.241,-17.578,-18.066,-54.199,7.324,0.000,0
38177.245,-12.207,-15.625,-54.199,2.441,0.000,0
38177.249,-15.137,-25.391,-54.199,-8.301,0.000,0
38177.253,-20.020,-66.406,-42.480,-0.977,0.000,0
38177.257,-31.738,-49.316,-46.387,-22.949,0.000,0
38177.261,-19.531,-2.930,-56.152,-24.902,0.000,0
38177.265,-7.324,-22.949,-53.711,-3.418,0.000,0
38177.269,-11.230,-31.738,-52.734,5.859,0.000,0
38177.272,-6.836,-44.434,-50.781,-1.465,0.000,0
38177.276,-10.742,-47.363,-46.387,19.531,0.000,0
38177.280,-18.066,-32.715,-47.363,8.301,0.000,0
38177.284,-19.043,-43.945,-50.293,-20.020,0.000,0
38177.288,-11.719,-26.367,-57.129,-12.695,0.000,0
38177.292,-2.930,-41.992,-52.734,-16.602,0.000,0
38177.296,-24.414,-66.895,-46.875,-17.090,0.000,0
38177.300,-30.273,-39.062,-48.828,-2.930,0.000,0
38177.304,-1.953,-37.109,-47.852,-2.441,0.000,0
38177.308,-3.418,-39.062,-53.223,19.531,0.000,0
38177.312,-20.020,-59.082,-46.875,0.977,0.000,0
38177.315,-6.836,-52.734,-46.875,-20.020,0.000,0
38177.319,-19.043,-33.203,-59.082,-19.043,0.000,0
38177.323,-44.922,-53.223,-68.359,-38.086,0.000,0
38177.327,-57.129,-78.125,-91.797,-46.387,0.000,0
38177.331,-72.266,-103.027,-102.539,-69.336,0.000,0
38177.335,-60.547,-87.891,-101.562,-69.336,0.000,0
38177.339,-54.199,-80.566,-96.191,-41.992,0.000,0
38177.343,-70.801,-92.773,-91.797,-43.945,0.000,0
38177.347,-60.059,-82.031,-98.145,-67.383,0.000,0
38177.351,-65.918,-96.680,-91.797,-73.242,0.000,0
38177.355,-80.078,-99.121,-90.820,-69.824,0.000,0
38177.358,-75.195,-101.074,-95.703,-71.777,0.000,0
38177.362,-56.152,-97.656,-101.562,-67.383,0.000,0
38177.366,-55.176,-71.777,-113.281,-46.875,0.000,0
38177.370,-64.453,-103.027,-103.027,-68.359,0.000,0
38177.374,-48.340,-106.445,-78.125,-46.387,0.000,0
38177.378,-35.645,-62.500,-63.477,-4.883,0.000,0
38177.382,-26.855,-54.199,-53.223,-15.137,0.000,0
38177.386,-24.414,-46.387,-46.387,-0.488,0.000,0
38177.390,-13.672,-48.340,-43.457,-10.742,0.000,0
38177.394,-7.812,-46.387,-33.203,-16.113,0.000,0
38177.397,-16.602,-34.668,-38.086,-3.906,0.000,0
38177.401,-32.715,-53.711,-59.570,-11.230,0.000,0
38177.405,-30.273,-50.781,-70.312,-11.719,0.000,0
38177.409,-23.926,-60.059,-67.383,-15.137,0.000,0
38177.413,-42.969,-82.031,-70.801,-30.273,0.000,0
38177.417,-52.734,-60.059,-86.426,-36.133,0.000,0
38177.421,-55.176,-61.035,-91.797,-41.992,0.000,0
38177.425,-61.523,-83.496,-88.867,-41.016,0.000,0
38177.429,-84.473,-100.098,-84.961,-44.434,0.000,0
38177.433,-65.918,-95.215,-76.172,-56.641,0.000,0
38177.437,-40.527,-61.523,-79.102,-53.223,0.000,0
38177.440,-47.852,-59.082,-76.172,-19.043,0.000,0
38177.444,-41.992,-56.152,-71.289,-16.602,0.000,0
38177.448,-39.062,-57.617,-73.730,-39.062,0.000,0
38177.452,-43.457,-57.617,-72.266,-27.832,0.000,0
38177.456,-32.227,-33.203,-69.824,-15.625,0.000,0
38177.460,-30.273,-50.781,-70.801,-49.316,0.000,0
38177.464,-46.387,-60.547,-76.660,-52.734,0.000,0
38177.468,-45.410,-34.180,-89.844,-29.297,0.000,0
38177.472,-28.809,-59.082,-83.008,-39.551,0.000,0
38177.476,-51.270,-70.801,-80.566,-41.992,0.000,0
38177.480,-48.340,-55.176,-85.449,-23.926,0.000,0
38177.483,-29.785,-34.180,-84.473,-26.855,0.000,0
38177.487,-40.039,-53.223,-70.801,-19.043,0.000,0
38177.491,-21.484,-69.824,-55.176,-5.371,0.000,0
38177.495,-20.508,-42.480,-55.664,-20.996,0.000,0
38177.499,-17.090,-33.203,-52.246,-29.785,0.000,0
38177.503,-4.883,-36.133,-47.363,-5.371,0.000,0
38177.507,-0.488,-25.391,-43.945,17.090,0.000,0
38177.511,2.441,-20.996,-40.039,3.906,0.000,0
38177.515,1.465,-14.160,-41.016,-11.719,0.000,0
38177.519,5.371,-12.207,-38.574,1.953,0.000,0
38177.522,-13.184,-17.090,-40.039,11.230,0.000,0
38177.526,-6.348,-9.277,-47.363,12.207,0.000,0
38177.530,11.230,-22.949,-41.992,11.230,0.000,0
38177.534,2.930,-17.578,-54.688,-18.066,0.000,0
38177.538,-36.621,-23.926,-81.055,-52.734,0.000,0
38177.542,-55.664,-56.152,-93.750,-50.293,0.000,0
38177.546,-44.434,-71.289,-95.703,-57.617,0.000,0
38177.550,-54.199,-104.004,-95.215,-62.988,0.000,0
38177.554,-70.801,-103.516,-105.469,-50.293,0.000,0
38177.558,-97.656,-89.844,-116.699,-56.641,0.000,0
38177.562,-78.613,-101.562,-116.211,-75.684,0.000,0
38177.565,-67.871,-104.004,-112.305,-79.590,0.000,0
38177.569,-89.355,-113.770,-113.770,-84.473,0.000,0
38177.573,-73.242,-120.605,-116.211,-93.262,0.000,0
38177.577,-84.473,-101.562,-113.770,-69.336,0.000,0
38177.581,-84.961,-87.891,-108.887,-54.688,0.000,0
38177.585,-48.340,-74.219,-112.305,-50.781,0.000,0
38177.589,-42.480,-93.750,-100.586,-59.082,0.000,0
38177.593,-70.801,-86.914,-91.797,-63.477,0.000,0
38177.597,-53.223,-61.523,-93.262,-50.293,0.000,0
38177.601,-21.484,-57.129,-81.543,-37.109,0.000,0
38177.605,-20.508,-47.852,-70.801,-29.297,0.000,0
38177.608,-20.020,-64.941,-61.035,-31.738,0.000,0
38177.612,-35.645,-59.082,-56.152,-28.320,0.000,0
38177.616,-52.734,-33.203,-69.824,-25.879,0.000,0
38177.620,-44.922,-21.973,-79.590,-5.371,0.000,0
38177.624,-19.043,-34.668,-61.035,3.418,0.000,0
38177.628,-16.113,-57.129,-42.480,-33.203,0.000,0
38177.632,-13.184,-34.180,-49.805,-46.387,0.000,0
38177.636,0.000,-11.230,-51.270,-22.949,0.000,0
38177.640,-16.113,-24.902,-45.898,-15.625,0.000,0
38177.644,-4.395,-19.043,-51.270,-5.859,0.000,0
38177.647,8.789,-36.133,-47.363,1.953,0.000,0
38177.651,-5.371,-41.016,-47.852,-7.812,0.000,0
38177.655,-7.324,-20.020,-56.152,-7.324,0.000,0
38177.659,-0.488,-27.344,-55.176,-6.836,0.000,0
38177.663,-16.113,-10.254,-65.430,2.441,0.000,0
38177.667,-26.855,-41.016,-56.152,-18.066,0.000,0
38177.671,-33.203,-66.406,-42.969,-44.434,0.000,0
38177.675,-25.391,-50.781,-56.641,-33.203,0.000,0
38177.679,-22.949,-33.691,-64.453,-20.508,0.000,0
38177.683,-40.039,-22.949,-61.035,-30.273,0.000,0
38177.687,-47.852,-75.684,-54.688,-24.414,0.000,0
38177.690,-20.508,-75.684,-57.129,-6.348,0.000,0
38177.694,-42.480,-47.363,-67.871,-20.508,0.000,0
38177.698,-69.824,-56.641,-69.824,-49.316,0.000,0
38177.702,-51.270,-58.105,-63.965,-50.293,0.000,0
38177.706,-46.387,-48.340,-62.500,-39.062,0.000,0
38177.710,-40.527,-46.875,-64.453,-27.832,0.000,0
38177.714,-27.344,-42.480,-52.246,-25.879,0.000,1
38177.718,-32.715,-35.156,-45.898,-37.598,0.000,0
38177.722,-36.133,-20.020,-51.270,-27.832,0.000,0
38177.726,-27.344,-30.273,-39.551,-18.066,0.000,0
38177.730,-20.996,-41.504,-31.250,-16.113,0.000,0
38177.733,-4.395,-17.578,-34.668,-2.441,0.000,0
38177.737,13.672,-15.137,-33.203,-6.348,0.000,0
38177.741,0.488,-20.508,-34.180,3.906,0.000,0
38177.745,-15.137,-36.133,-40.039,-2.441,0.000,0
38177.749,-5.371,-35.156,-36.621,-20.996,0.000,0
38177.753,-14.160,-11.719,-33.203,-8.789,0.000,0
38177.757,-18.555,-13.672,-46.387,-16.113,0.000,0
38177.761,-14.648,-22.461,-50.781,-6.836,0.000,0
38177.765,-16.113,-26.367,-53.223,-3.906,0.000,0
38177.769,-16.113,-30.273,-53.223,3.906,0.000,0
38177.772,10.742,-9.277,-50.781,2.441,0.000,0
38177.776,-2.441,-35.156,-45.898,-16.113,0.000,0
38177.780,-40.527,-27.832,-48.828,-16.113,0.000,0
38177.784,-19.043,10.254,-60.547,-11.230,0.000,0
38177.788,-0.977,-20.508,-49.805,-17.090,0.000,0
38177.792,-1.465,-16.113,-41.016,-10.254,0.000,0
38177.796,1.465,-10.742,-43.457,5.371,0.000,0
38177.800,-5.859,-23.926,-51.270,-2.441,0.000,0
38177.804,-25.879,-40.527,-50.781,-18.555,0.000,0
38177.808,-36.621,-36.621,-53.223,-27.344,0.000,0
38177.812,-19.043,4.883,-68.359,1.465,0.000,0
38177.815,2.441,4.395,-50.293,13.184,0.000,0
38177.819,-2.441,-33.691,-61.035,-1.953,0.000,0
38177.823,-10.742,-47.852,-70.801,7.324,0.000,0
38177.827,-11.230,-36.133,-56.152,-23.438,0.000,0
38177.831,20.996,-16.113,-59.082,-4.395,0.000,0
38177.835,39.551,13.184,-50.293,45.898,0.000,0
38177.839,6.836,9.277,-52.246,7.324,0.000,0
38177.843,-27.832,-32.227,-66.895,-44.922,0.000,0
38177.847,-14.160,-30.762,-75.195,-38.574,0.000,0
38177.851,0.000,10.254,-59.082,5.371,0.000,0
38177.855,-16.602,9.766,-57.129,-15.137,0.000,0
38177.858,-6.348,19.531,-55.664,-3.906,0.000,0
38177.862,25.879,39.551,-51.758,51.758,0.000,0
38177.866,51.270,48.828,-57.129,42.969,0.000,0
38177.870,49.316,82.520,-50.781,47.852,0.000,0
38177.874,11.719,101.562,-43.945,24.902,0.000,0
38177.878,-11.230,72.754,-41.016,-16.602,0.000,0
38177.882,-1.465,93.750,-55.664,13.184,0.000,0
38177.886,20.020,149.414,-65.918,36.133,0.000,0
38177.890,34.180,150.879,-52.246,29.297,0.000,0
38177.894,45.410,160.645,-38.086,61.035,0.000,0
38177.897,41.992,157.715,-53.711,67.871,0.000,0
38177.901,53.223,180.176,-57.617,57.617,0.000,0
38177.905,64.453,178.223,-38.574,53.711,0.000,0
38177.909,53.711,172.363,-39.551,60.059,0.000,0
38177.913,46.875,176.270,-47.363,65.430,0.000,0
38177.917,56.641,165.039,-46.875,70.312,0.000,0
38177.921,59.082,148.926,-43.457,67.871,0.000,0
38177.925,58.105,117.676,-37.109,43.457,0.000,0
38177.929,34.668,116.211,-42.969,30.762,0.000,0
38177.933,23.926,112.793,-54.199,43.457,0.000,0
38177.937,23.438,85.938,-52.246,52.246,0.000,0
38177.940,4.395,69.336,-47.363,33.203,0.000,0
38177.944,14.648,47.363,-48.828,34.180,0.000,0
38177.948,23.438,35.645,-43.945,40.039,0.000,0
38177.952,4.883,38.086,-35.156,30.273,0.000,0
38177.956,-5.371,24.414,-28.809,31.250,0.000,0
38177.960,2.441,12.695,-33.203,15.625,0.000,0
38177.964,-2.930,-27.832,-37.598,-0.977,0.000,0
38177.968,-22.949,-45.898,-44.922,-3.418,0.000,0
38177.972,-29.297,-46.387,-59.570,-14.160,0.000,0
38177.976,-22.949,-56.641,-63.477,-15.137,0.000,0
38177.980,-32.227,-77.148,-67.383,-27.344,0.000,0
38177.983,-54.688,-122.070,-70.312,-46.387,0.000,0
38177.987,-57.129,-116.699,-83.496,-62.500,0.000,0
38177.991,-61.523,-115.723,-91.309,-70.312,0.000,0
38177.995,-72.266,-127.441,-95.703,-65.918,0.000,0
38177.999,-73.730,-134.277,-96.191,-62.012,0.000,0
38178.003,-75.195,-169.434,-83.008,-60.059,0.000,0
38178.007,-66.895,-163.574,-78.125,-56.152,0.000,0
38178.011,-72.754,-131.348,-89.844,-53.711,0.000,0
38178.015,-81.055,-143.066,-93.262,-62.988,0.000,0
38178.019,-76.172,-145.996,-85.449,-71.777,0.000,0
38178.022,-63.965,-154.297,-81.055,-65.430,0.000,0
38178.026,-63.965,-163.086,-78.125,-59.082,0.000,0
38178.030,-67.383,-136.719,-73.730,-43.945,0.000,0
38178.034,-69.336,-135.742,-66.895,-47.852,0.000,0
38178.038,-47.852,-104.980,-68.359,-35.156,0.000,0
38178.042,-33.691,-107.910,-52.246,-27.832,0.000,0
38178.046,-35.645,-140.625,-30.762,-29.785,0.000,0
38178.050,-42.480,-107.422,-41.992,-21.484,0.000,0
38178.054,-49.805,-101.562,-52.246,-34.180,0.000,0
38178.058,-51.270,-115.723,-54.688,-21.973,0.000,0
38178.062,-59.570,-131.348,-59.570,-32.227,0.000,0
38178.065,-63.965,-136.719,-62.012,-73.730,0.000,0
38178.069,-67.871,-110.840,-67.871,-63.965,0.000,0
38178.073,-49.316,-109.375,-72.266,-44.922,0.000,0
38178.077,-53.223,-126.953,-73.242,-41.016,0.000,0
38178.081,-86.426,-136.230,-72.754,-61.523,0.000,0
38178.085,-74.707,-138.184,-62.988,-68.848,0.000,0
38178.089,-41.504,-108.887,-52.246,-40.527,0.000,0
38178.093,-22.461,-86.914,-47.363,-12.207,0.000,0
38178.097,-18.066,-83.496,-40.039,-5.371,0.000,0
38178.101,-26.855,-90.820,-34.668,-20.508,0.000,0
38178.105,-25.879,-84.473,-38.086,-29.785,0.000,0
38178.108,-16.602,-67.871,-40.039,-29.785,0.000,0
38178.112,-11.719,-63.477,-37.109,-15.137,0.000,0
38178.116,-1.465,-62.988,-31.250,-11.719,0.000,0
38178.120,-23.438,-71.289,-30.762,-14.160,0.000,0
38178.124,-24.902,-74.219,-38.086,-16.602,0.000,0
38178.128,-17.578,-58.594,-42.969,-37.598,0.000,0
38178.132,-28.809,-63.477,-43.457,-32.715,0.000,0
38178.136,-38.574,-69.336,-47.852,-19.043,0.000,0
38178.140,-35.156,-64.453,-50.781,-21.484,0.000,0
38178.144,-32.227,-62.500,-49.316,-25.879,0.000,0
38178.147,-42.480,-64.453,-51.270,-23.438,0.000,0
38178.151,-30.273,-62.012,-55.664,-12.207,0.000,0
38178.155,-25.879,-58.594,-58.105,-21.973,0.000,0
38178.159,-47.852,-70.801,-52.246,-32.227,0.000,0
38178.163,-43.945,-64.941,-43.945,-25.391,0.000,0
38178.167,-16.602,-40.527,-43.945,-20.020,0.000,0
38178.171,-13.672,-37.109,-40.039,-8.301,0.000,0
38178.175,-17.090,-35.156,-37.109,6.836,0.000,0
38178.179,-9.766,-35.645,-26.855,6.348,0.000,0
38178.183,-7.324,-27.832,-25.879,4.883,0.000,0
38178.187,-6.836,-22.461,-29.785,3.418,0.000,0
38178.190,0.000,-11.230,-21.484,6.348,0.000,0
38178.194,-1.465,3.906,-15.625,12.207,0.000,0
38178.198,0.488,4.883,-22.949,13.184,0.000,0
38178.202,6.348,10.254,-28.320,6.836,0.000,0
38178.206,0.000,8.789,-20.020,10.254,0.000,0
38178.210,-1.465,-14.160,-7.812,26.855,0.000,0
38178.214,7.324,-10.742,-13.672,28.320,0.000,0
38178.218,11.230,-12.695,-14.648,19.531,0.000,0
38178.222,0.977,-35.645,-7.324,-4.883,0.000,0
38178.226,-6.836,-11.230,-16.602,6.836,0.000,0
38178.230,19.531,4.883,-16.602,17.578,0.000,0
38178.233,11.230,-8.789,-18.066,14.160,0.000,0
38178.237,-34.668,-47.852,-28.809,4.395,0.000,0
38178.241,-26.367,-67.383,-43.945,-28.320,0.000,0
38178.245,-49.805,-52.246,-73.730,-61.035,0.000,0
38178.249,-65.918,-57.617,-85.938,-59.570,0.000,0
38178.253,-51.758,-80.566,-82.520,-46.875,0.000,0
38178.257,-59.082,-94.727,-82.520,-62.500,0.000,0
38178.261,-70.312,-103.516,-86.426,-79.102,0.000,0
38178.265,-70.801,-83.008,-88.867,-59.570,0.000,0
38178.269,-60.547,-72.754,-84.961,-43.945,0.000,0
38178.272,-55.664,-56.152,-89.844,-49.805,0.000,0
38178.276,-50.293,-50.781,-83.984,-45.898,0.000,0
38178.280,-29.785,-65.918,-59.082,-46.387,0.000,0
38178.284,-21.484,-55.176,-40.527,-28.809,0.000,0
38178.288,-15.625,-55.664,-40.039,-19.531,0.000,0
38178.292,-1.465,-26.367,-45.898,-13.672,0.000,0
38178.296,-12.207,-13.672,-49.805,-7.812,0.000,0
38178.300,-27.344,-56.152,-36.133,-10.742,0.000,0
38178.304,-31.738,-30.273,-44.434,-12.207,0.000,0
38178.308,-17.578,-6.836,-58.105,-6.836,0.000,0
38178.312,0.488,-24.414,-51.270,1.953,0.000,0
38178.315,-1.465,-41.504,-46.875,-5.859,0.000,0
38178.319,-8.301,-42.480,-51.758,-18.066,0.000,0
38178.323,-13.184,-19.531,-56.152,-20.996,0.000,0
38178.327,-20.508,-42.480,-50.781,-10.742,0.000,0
38178.331,-21.484,-49.805,-52.246,0.977,0.000,0
38178.335,-2.930,-24.414,-53.223,17.090,0.000,0
38178.339,-13.672,-43.945,-43.457,-0.488,0.000,0
38178.343,-16.113,-26.367,-43.457,-20.996,0.000,0
38178.347,-2.441,-10.254,-44.922,-18.066,0.000,0
38178.351,-1.953,-14.160,-46.875,6.836,0.000,0
38178.355,21.973,-3.906,-36.133,14.648,0.000,0
38178.358,6.348,-20.508,-18.555,-1.953,0.000,0
38178.362,-7.812,0.000,-20.508,13.184,0.000,0
38178.366,20.996,19.531,-28.320,31.250,0.000,0
38178.370,26.367,23.438,-26.855,24.414,0.000,0
38178.374,-1.953,10.742,-20.508,18.555,0.000,0
38178.378,10.742,-2.930,-20.996,11.230,0.000,0
38178.382,41.016,-4.883,-16.602,-12.207,0.000,0
38178.386,29.297,21.973,-14.160,9.277,0.000,0
38178.390,26.367,27.344,-20.508,34.668,0.000,0
38178.394,30.273,26.855,-23.926,31.250,0.000,0
38178.397,19.043,38.086,-23.438,9.277,0.000,0
38178.401,13.672,22.461,-16.602,16.602,0.000,0
38178.405,23.438,22.461,-10.742,32.227,0.000,0
38178.409,34.668,24.902,-10.254,16.113,0.000,0
38178.413,33.203,27.832,-10.254,23.438,0.000,0
38178.417,22.461,8.789,0.000,26.855,0.000,0
38178.421,20.996,16.602,-1.465,1.465,0.000,0
38178.425,5.371,47.852,-18.555,-5.371,0.000,0
38178.429,-7.324,24.902,-26.367,5.859,0.000,0
38178.433,-2.441,-4.395,-23.926,9.766,0.000,1
38178.437,-1.953,-16.602,-22.949,6.836,0.000,0
38178.440,-7.812,-12.695,-30.273,9.766,0.000,0
38178.444,-1.465,-7.324,-33.203,24.414,0.000,0
38178.448,3.906,-8.789,-28.320,21.973,0.000,0
38178.452,-1.465,-3.418,-20.020,17.578,0.000,0
38178.456,-8.789,-9.277,-18.555,12.207,0.000,0
38178.460,-0.977,-12.207,-21.484,3.418,0.000,0
38178.464,-7.324,-17.578,-17.578,15.625,0.000,0
38178.468,-17.578,-12.207,-29.785,21.973,0.000,0
38178.472,-9.277,-3.906,-39.551,12.207,0.000,0
38178.476,2.930,-17.578,-30.762,13.184,0.000,0
38178.480,-5.371,-17.090,-27.832,16.602,0.000,0
38178.483,3.418,3.418,-35.156,7.324,0.000,0
38178.487,17.090,4.883,-39.062,4.883,0.000,0
38178.491,-4.395,-18.555,-32.227,29.297,0.000,0
38178.495,-15.625,-31.738,-27.832,21.484,0.000,0
38178.499,-6.836,-1.953,-36.621,10.254,0.000,0
38178.503,-4.395,-6.836,-38.086,23.438,0.000,0
38178.507,9.277,-16.113,-31.738,25.391,0.000,0
38178.511,6.348,-5.859,-28.809,35.645,0.000,0
38178.515,-18.066,-19.531,-39.062,-1.953,0.000,0
38178.519,-11.230,-26.855,-46.387,-26.855,0.000,0
38178.522,-3.906,-17.578,-46.387,-11.719,0.000,0
38178.526,-23.926,-19.043,-47.852,-10.254,0.000,0
38178.530,-20.020,-16.602,-51.758,-2.441,0.000,0
38178.534,-15.137,-22.949,-47.852,-13.184,0.000,0
38178.538,-23.926,-32.227,-43.945,-17.578,0.000,0
38178.542,-17.090,-8.789,-58.594,-14.160,0.000,0
38178.546,-16.602,-16.113,-67.383,-29.297,0.000,0
38178.550,-37.109,-51.270,-61.523,-12.695,0.000,0
38178.554,-45.410,-66.406,-50.781,-9.766,0.000,0
38178.558,-30.273,-56.641,-57.617,-51.270,0.000,0
38178.562,-39.062,-41.992,-63.965,-57.129,0.000,0
38178.565,-24.414,-55.176,-62.988,-28.320,0.000,0
38178.569,-3.418,-53.223,-72.754,-23.438,0.000,0
38178.573,-46.875,-64.453,-77.637,-41.504,0.000,0
38178.577,-63.477,-74.707,-71.289,-44.922,0.000,0
38178.581,-39.551,-54.688,-71.777,-40.039,0.000,0
38178.585,-38.086,-55.176,-71.289,-54.688,0.000,0
38178.589,-43.945,-55.664,-71.777,-47.852,0.000,0
38178.593,-42.480,-61.523,-69.336,-41.016,0.000,0
38178.597,-39.062,-83.984,-60.059,-48.828,0.000,0
38178.601,-42.480,-68.359,-62.988,-41.992,0.000,0
38178.605,-33.691,-77.148,-67.871,-45.410,0.000,0
38178.608,-44.922,-62.988,-81.543,-35.156,0.000,0
38178.612,-70.312,-76.660,-75.684,-43.457,0.000,0
38178.616,-57.617,-107.422,-64.453,-46.387,0.000,0
38178.620,-36.621,-62.988,-79.590,-35.645,0.000,0
38178.624,-57.129,-62.988,-86.914,-58.594,0.000,0
38178.628,-57.617,-87.891,-75.684,-43.457,0.000,0
38178.632,-34.180,-94.238,-68.359,-33.691,0.000,0
38178.636,-30.273,-100.098,-63.477,-39.062,0.000,0
38178.640,-25.879,-73.242,-62.988,-20.996,0.000,0
38178.644,-45.898,-68.359,-59.082,-15.137,0.000,0
38178.647,-47.852,-52.734,-63.477,-18.066,0.000,0
38178.651,-25.879,-46.387,-65.918,-21.484,0.000,0
38178.655,-9.277,-78.613,-52.734,-36.621,0.000,0
38178.659,-34.180,-72.266,-50.781,-27.832,0.000,0
38178.663,-36.133,-57.129,-51.758,-6.836,0.000,0
38178.667,-6.348,-47.363,-44.434,10.254,0.000,0
38178.671,-12.207,-43.945,-46.875,5.859,0.000,0
38178.675,-16.602,-67.383,-45.410,-17.578,0.000,0
38178.679,1.465,-45.898,-41.016,-11.719,0.000,0
38178.683,20.508,-30.273,-39.551,1.465,0.000,0
38178.687,13.184,-42.480,-41.504,-1.465,0.000,0
38178.690,-17.578,-48.828,-41.504,-3.906,0.000,0
38178.694,-27.344,-47.363,-38.574,-29.297,0.000,0
38178.698,-23.438,-27.832,-44.922,-21.973,0.000,0
38178.702,-12.695,-50.781,-33.691,-8.301,0.000,0
38178.706,3.418,-83.984,-23.438,0.000,0.000,0
38178.710,-4.883,-37.598,-44.922,13.184,0.000,0
38178.714,-11.230,-49.316,-41.992,-5.859,0.000,0
38178.718,-4.395,-58.594,-32.227,-2.441,0.000,0
38178.722,-8.301,-25.391,-43.945,0.000,0.000,0
38178.726,-21.973,-33.203,-51.758,-3.418,0.000,0
38178.730,-21.484,-42.969,-48.828,-6.348,0.000,0
38178.733,-20.508,-75.684,-41.016,-24.902,0.000,0
38178.737,-20.020,-68.359,-46.387,-30.762,0.000,0
38178.741,-15.137,-49.805,-57.129,-28.320,0.000,0
38178.745,-29.297,-45.410,-60.059,-20.508,0.000,0
38178.749,-42.480,-58.594,-45.410,-13.184,0.000,0
38178.753,-22.461,-65.918,-38.574,-27.344,0.000,0
38178.757,-11.719,-45.898,-41.504,-2.930,0.000,0
38178.761,-12.207,-37.109,-46.875,22.949,0.000,0
38178.765,-5.859,-42.969,-48.340,-14.160,0.000,0
38178.769,-0.977,-33.691,-50.293,-20.020,0.000,0
38178.772,-30.273,-53.223,-54.688,-20.508,0.000,0
38178.776,-41.504,-50.781,-58.105,-39.062,0.000,0
38178.780,-29.785,-22.461,-66.895,-32.227,0.000,0
38178.784,-22.949,-42.969,-65.918,-11.719,0.000,0
38178.788,-32.715,-44.434,-62.988,4.883,0.000,0
38178.792,-34.668,-48.340,-59.082,-10.742,0.000,0
38178.796,-29.297,-52.246,-56.641,-31.250,0.000,0
38178.800,-17.090,-29.785,-61.035,-21.484,0.000,0
38178.804,-17.578,-32.227,-61.035,-4.395,0.000,0
38178.808,-33.203,-53.223,-53.223,-26.855,0.000,0
38178.812,-18.555,-35.156,-55.664,-21.973,0.000,0
38178.815,-10.742,-6.348,-65.918,-3.906,0.000,0
38178.819,-13.184,-26.367,-66.406,-4.883,0.000,0
38178.823,-16.602,-56.152,-61.523,-7.324,0.000,0
38178.827,-27.344,-53.223,-62.012,-16.602,0.000,0
38178.831,-36.621,-48.340,-61.523,-27.344,0.000,0
38178.835,-33.203,-50.781,-63.477,-27.832,0.000,0
38178.839,-17.578,-47.363,-63.477,-18.555,0.000,0
38178.843,-0.977,-41.992,-67.871,-25.391,0.000,0
38178.847,-30.762,-47.363,-79.102,-10.254,0.000,0
38178.851,-43.457,-67.383,-76.172,4.395,0.000,0
38178.855,-39.551,-67.383,-71.777,-20.508,0.000,0
38178.858,-46.875,-55.176,-75.684,-20.996,0.000,0
38178.862,-48.340,-60.547,-77.637,-23.438,0.000,0
38178.866,-35.645,-58.105,-71.289,-11.719,0.000,0
38178.870,-21.484,-57.129,-58.594,-0.488,0.000,0
38178.874,-15.137,-58.105,-54.688,-19.043,0.000,0
38178.878,-14.648,-46.387,-56.641,-5.371,0.000,0
38178.882,-29.785,-44.434,-47.852,-5.859,0.000,0
38178.886,-22.949,-38.086,-46.875,6.836,0.000,0
38178.890,-7.812,-34.180,-52.734,3.906,0.000,0
38178.894,-1.953,-39.551,-44.922,-16.602,0.000,0
38178.897,-11.230,-31.250,-46.387,-1.953,0.000,0
38178.901,-21.484,-32.715,-52.734,0.000,0.000,0
38178.905,-26.855,-23.438,-54.688,-23.926,0.000,0
38178.909,-13.184,-40.039,-47.852,-20.020,0.000,0
38178.913,-5.371,-46.387,-40.527,-3.906,0.000,0
38178.917,-23.438,-12.695,-49.316,-8.301,0.000,0
38178.921,-15.625,-18.555,-45.410,-8.789,0.000,0
38178.925,-8.789,-21.973,-44.922,0.977,0.000,0
38178.929,-17.090,-40.527,-44.434,-4.395,0.000,0
38178.933,-22.461,-44.434,-41.992,-22.949,0.000,0
38178.937,-9.277,-19.043,-51.758,-23.438,0.000,0
38178.940,-11.230,-32.227,-59.570,-28.320,0.000,0
38178.944,-5.371,-31.250,-59.570,-26.367,0.000,0
38178.948,-10.742,-33.691,-54.688,-19.043,0.000,0
38178.952,-18.066,-55.664,-51.270,-26.855,0.000,0
38178.956,-5.371,-41.016,-57.617,-28.320,0.000,0
38178.960,-10.254,-39.551,-57.617,-20.996,0.000,0
38178.964,-22.461,-39.062,-56.641,-22.461,0.000,0
38178.968,-34.180,-49.316,-58.594,-26.367,0.000,0
38178.972,-40.039,-74.707,-54.688,-29.297,0.000,0
38178.976,-20.508,-42.969,-57.617,-2.441,0.000,0
38178.980,-1.953,-31.738,-54.199,-18.555,0.000,0
38178.983,-10.742,-39.551,-54.688,-28.809,0.000,0
38178.987,-16.602,-45.898,-55.664,-6.348,0.000,0
38178.991,-13.672,-61.523,-54.199,-25.391,0.000,0
38178.995,-8.301,-35.156,-62.012,-26.367,0.000,0
38178.999,-17.090,-32.715,-67.871,-16.113,0.000,0
38179.003,-31.738,-44.434,-71.289,-14.648,0.000,0
38179.007,-22.949,-42.969,-66.406,-18.555,0.000,0
38179.011,-16.602,-61.523,-54.199,-24.414,0.000,0
38179.015,-14.160,-47.852,-58.594,-27.832,0.000,0
38179.019,-31.250,-45.410,-60.059,-23.926,0.000,0
38179.022,-34.180,-40.527,-57.617,-2.930,0.000,0
38179.026,-21.484,-12.207,-68.848,-18.555,0.000,0
38179.030,-20.508,-43.945,-60.059,-40.039,0.000,0
38179.034,-10.742,-52.734,-47.363,-18.066,0.000,0
38179.038,-21.484,-30.273,-57.129,6.348,0.000,0
38179.042,-26.855,-17.578,-60.547,-12.695,0.000,0
38179.046,-12.207,-25.879,-54.199,-36.621,0.000,0
38179.050,-19.043,-58.594,-42.480,-39.062,0.000,0
38179.054,-18.555,-35.156,-46.387,-27.832,0.000,0
38179.058,-16.602,-23.926,-54.199,-18.066,0.000,0
38179.062,-22.461,-38.086,-53.711,-8.301,0.000,0
38179.065,-19.531,-27.832,-59.570,-3.418,0.000,0
38179.069,-24.414,-24.902,-57.617,-28.809,0.000,0
38179.073,-27.344,-22.949,-55.664,-25.879,0.000,0
38179.077,-28.809,-15.137,-51.758,-2.930,0.000,0
38179.081,-16.113,-14.160,-45.410,-14.648,0.000,0
38179.085,-7.812,-5.859,-46.387,-9.277,0.000,0
38179.089,-15.137,-22.949,-45.898,4.883,0.000,1
38179.093,-24.902,-23.438,-42.480,-19.531,0.000,0
38179.097,-20.020,-8.789,-46.875,-33.691,0.000,0
38179.101,-26.855,-11.719,-55.176,-5.371,0.000,0
38179.105,-38.574,-12.207,-54.688,-4.395,0.000,0
38179.108,-39.062,-27.344,-51.270,-25.391,0.000,0
38179.112,-22.949,-24.902,-53.223,-0.488,0.000,0
38179.116,-7.324,-0.977,-57.129,20.996,0.000,0
38179.120,-12.695,0.977,-52.734,-21.484,0.000,0
38179.124,-24.414,-25.391,-41.504,-27.344,0.000,0
38179.128,-27.832,-19.043,-49.316,-11.230,0.000,0
38179.132,-27.832,-13.672,-55.176,-27.832,0.000,0
38179.136,-22.949,-13.672,-56.641,-15.137,0.000,0
38179.140,-1.953,-11.719,-54.688,0.000,0.000,0
38179.144,-8.789,-16.113,-51.270,-22.949,0.000,0
38179.147,-24.414,-21.973,-45.410,-15.137,0.000,0
38179.151,3.906,-16.113,-39.062,-16.602,0.000,0
38179.155,0.977,-9.277,-42.480,-16.113,0.000,0
38179.159,-6.836,-9.766,-39.551,7.812,0.000,0
38179.163,7.324,10.742,-43.945,18.555,0.000,0
38179.167,9.766,-5.859,-38.574,15.137,0.000,0
38179.171,3.418,-16.113,-21.973,10.742,0.000,0
38179.175,-6.836,3.906,-29.785,1.465,0.000,0
38179.179,-15.137,-11.719,-37.109,-5.371,0.000,0
38179.183,-2.441,-21.973,-31.250,-10.254,0.000,0
38179.187,-17.578,-32.715,-33.203,-23.438,0.000,0
38179.190,-41.504,-28.320,-37.109,-30.762,0.000,0
38179.194,-27.832,-3.418,-41.016,-27.344,0.000,0
38179.198,-17.578,-23.926,-42.480,-20.020,0.000,0
38179.202,-21.484,-29.785,-41.504,-4.883,0.000,0
38179.206,-29.297,-26.367,-37.598,2.930,0.000,0
38179.210,-38.086,-41.016,-40.527,-26.855,0.000,0
38179.214,-44.434,-35.645,-41.504,-43.945,0.000,0
38179.218,-33.203,-22.461,-52.246,-30.762,0.000,0
38179.222,-20.020,-30.273,-55.664,-14.648,0.000,0
38179.226,-16.602,-49.316,-36.133,-21.484,0.000,0
38179.230,-15.625,-21.973,-39.551,-16.602,0.000,0
38179.233,-12.695,0.488,-47.363,-17.090,0.000,0
38179.237,-15.137,-11.230,-35.156,-25.391,0.000,0
38179.241,-14.648,-13.184,-30.762,-1.953,0.000,0
38179.245,-16.602,-18.555,-36.621,-12.695,0.000,0
38179.249,-15.137,-26.367,-35.645,-25.391,0.000,0
38179.253,-10.742,-13.672,-43.457,-3.906,0.000,0
38179.257,-28.320,-24.414,-45.898,-22.949,0.000,0
38179.261,-35.156,-31.250,-44.922,-13.672,0.000,0
38179.265,-25.391,-31.250,-51.758,-16.602,0.000,0
38179.269,-30.273,-44.434,-46.387,-56.641,0.000,0
38179.272,-33.203,-36.621,-42.969,-36.621,0.000,0
38179.276,-32.227,-40.039,-52.246,-17.090,0.000,0
38179.280,-51.758,-42.480,-60.547,-36.621,0.000,0
38179.284,-60.547,-59.082,-56.641,-44.434,0.000,0
38179.288,-49.316,-84.473,-46.875,-45.898,0.000,0
38179.292,-41.504,-57.129,-56.641,-33.691,0.000,0
38179.296,-55.176,-48.828,-61.035,-29.785,0.000,0
38179.300,-59.570,-50.293,-60.059,-20.996,0.000,0
38179.304,-45.410,-58.594,-58.105,-13.184,0.000,0
38179.308,-55.664,-71.777,-55.176,-24.902,0.000,0
38179.312,-50.293,-32.715,-54.688,-38.086,0.000,0
38179.315,-37.109,-14.160,-54.688,-36.621,0.000,0
38179.319,-38.086,-24.414,-49.316,-10.742,0.000,0
38179.323,-20.508,-28.809,-35.156,-7.812,0.000,0
38179.327,-1.465,-21.484,-17.578,-5.371,0.000,0
38179.331,-1.953,11.719,-22.949,5.859,0.000,0
38179.335,0.488,4.395,-27.344,1.953,0.000,0
38179.339,3.418,1.953,-26.367,4.883,0.000,0
38179.343,4.395,-15.137,-19.531,18.066,0.000,0
38179.347,-6.348,-22.949,-12.207,4.883,0.000,0
38179.351,-12.207,8.789,-20.020,-11.230,0.000,0
38179.355,1.465,16.602,-33.203,1.953,0.000,0
38179.358,-16.113,1.465,-30.273,10.742,0.000,0
38179.362,-17.090,-34.668,-11.719,19.531,0.000,0
38179.366,-0.977,-29.297,-11.719,13.672,0.000,0
38179.370,18.066,21.484,-22.949,5.371,0.000,0
38179.374,20.020,10.742,-23.438,9.277,0.000,0
38179.378,-4.883,-13.672,-21.484,10.742,0.000,0
38179.382,-6.836,-23.438,-16.113,6.836,0.000,0
38179.386,5.859,-7.812,-21.484,1.953,0.000,0
38179.390,-7.812,3.418,-33.691,0.488,0.000,0
38179.394,-19.531,-26.367,-32.715,7.812,0.000,0
38179.397,-15.625,-11.230,-37.109,15.137,0.000,0
38179.401,-13.184,-9.766,-38.574,2.930,0.000,0
38179.405,-25.391,-42.969,-28.809,-9.766,0.000,0
38179.409,-24.902,-31.738,-31.250,-3.906,0.000,0
38179.413,-12.207,-24.902,-45.898,-6.836,0.000,0
38179.417,-18.066,-23.926,-41.504,-4.883,0.000,0
38179.421,-20.996,-22.461,-31.738,-3.906,0.000,0
38179.425,-2.441,-22.461,-31.738,5.371,0.000,0
38179.429,-11.719,-17.578,-35.156,-10.254,0.000,0
38179.433,-19.531,-7.324,-41.504,-18.555,0.000,0
38179.437,-13.184,1.465,-41.992,-2.930,0.000,0
38179.440,-20.020,-18.555,-35.156,-11.719,0.000,0
38179.444,3.418,-7.324,-46.875,-28.809,0.000,0
38179.448,-3.906,1.465,-48.828,-25.391,0.000,0
38179.452,-31.738,-29.785,-37.598,-2.441,0.000,0
38179.456,-19.043,-28.809,-49.805,-4.883,0.000,0
38179.460,-0.977,-18.555,-48.828,-7.812,0.000,0
38179.464,-10.742,-30.273,-37.598,-17.578,0.000,0
38179.468,-10.742,-20.508,-42.480,-20.508,0.000,0
38179.472,4.395,-12.207,-41.504,-2.930,0.000,0
38179.476,11.719,-14.160,-33.691,1.953,0.000,0
38179.480,20.020,-14.160,-31.250,10.254,0.000,0
38179.483,5.371,-21.973,-32.227,3.906,0.000,0
38179.487,-11.719,-10.742,-31.738,0.977,0.000,0
38179.491,12.207,-0.488,-38.574,3.906,0.000,0
38179.495,13.672,-7.324,-35.156,11.719,0.000,0
38179.499,-8.789,-13.184,-30.273,13.672,0.000,0
38179.503,-12.207,-16.602,-44.434,-2.930,0.000,0
38179.507,-14.648,-18.066,-52.734,-14.160,0.000,0
38179.511,-2.441,-20.508,-48.340,-10.254,0.000,0
38179.515,5.371,-16.602,-46.875,-8.789,0.000,0
38179.519,2.930,-17.578,-51.758,-4.883,0.000,0
38179.522,6.348,-27.344,-43.457,-9.766,0.000,0
38179.526,-5.371,-20.020,-41.992,-25.391,0.000,0
38179.530,-1.953,-28.809,-48.340,-20.508,0.000,0
38179.534,2.930,-23.926,-40.527,-1.465,0.000,0
38179.538,-8.301,-5.859,-39.062,19.531,0.000,0
38179.542,-11.230,-28.809,-40.527,2.930,0.000,0
38179.546,-17.090,-8.301,-48.340,-26.855,0.000,0
38179.550,-12.207,17.090,-47.363,-22.949,0.000,0
38179.554,6.836,-10.254,-42.480,9.766,0.000,0
38179.558,0.977,-29.297,-42.969,20.996,0.000,0
38179.562,-4.395,-38.086,-37.109,-5.371,0.000,0
38179.565,-8.301,-33.691,-42.969,-15.137,0.000,0
38179.569,-5.371,-26.855,-48.828,-9.277,0.000,0
38179.573,-20.996,-28.809,-48.828,-6.836,0.000,0
38179.577,-32.715,-21.484,-50.293,-8.301,0.000,0
38179.581,-20.508,-34.180,-48.828,-9.766,0.000,0
38179.585,-29.785,-43.945,-45.898,-14.648,0.000,0
38179.589,-31.250,-36.621,-45.410,-8.301,0.000,0
38179.593,-16.602,-39.062,-60.547,-12.207,0.000,0
38179.597,-24.902,-43.457,-63.477,-15.137,0.000,0
38179.601,-37.598,-61.523,-50.781,-17.578,0.000,0
38179.605,-19.043,-55.176,-52.734,-7.812,0.000,0
38179.608,-17.090,-29.785,-64.941,-13.672,0.000,0
38179.612,-31.738,-35.645,-69.336,-29.297,0.000,0
38179.616,-22.949,-57.129,-63.965,-18.066,0.000,0
38179.620,-33.691,-76.660,-52.734,-26.367,0.000,0
38179.624,-34.668,-63.965,-41.992,-26.367,0.000,0
38179.628,-24.414,-38.086,-51.758,-6.836,0.000,0
38179.632,-22.949,-56.641,-47.363,-14.648,0.000,0
38179.636,-13.184,-44.922,-43.945,-20.996,0.000,0
38179.640,-10.254,-26.367,-59.082,-25.391,0.000,0
38179.644,-10.254,-41.016,-51.270,-30.273,0.000,0
38179.647,-24.902,-33.691,-41.504,-24.902,0.000,0
38179.651,-31.250,-33.203,-38.574,-20.996,0.000,0
38179.655,-11.719,-25.879,-45.410,-9.277,0.000,0
38179.659,-14.648,-49.316,-38.574,-20.996,0.000,0
38179.663,-21.484,-53.223,-33.691,-24.902,0.000,0
38179.667,-14.160,-13.184,-46.387,-8.301,0.000,0
38179.671,-23.438,-15.625,-50.781,-13.672,0.000,0
38179.675,-26.367,-32.715,-42.969,-3.418,0.000,0
38179.679,-29.785,-49.805,-34.180,-4.395,0.000,0
38179.683,-14.160,-43.457,-37.598,-37.598,0.000,0
38179.687,8.301,-13.184,-38.574,-13.184,0.000,0
38179.690,-4.883,-22.949,-36.133,0.977,0.000,0
38179.694,0.488,-18.555,-41.016,7.812,0.000,0
38179.698,21.484,-28.320,-32.227,6.836,0.000,0
38179.702,-0.488,-35.645,-25.391,-17.578,0.000,0
38179.706,-13.184,-14.160,-32.227,1.953,0.000,0
38179.710,-3.906,-18.555,-38.574,8.301,0.000,0
38179.714,-20.020,-19.043,-40.527,-20.508,0.000,0
38179.718,-21.484,-21.484,-31.738,-22.461,0.000,0
38179.722,-13.184,-24.414,-32.227,-4.395,0.000,0
38179.726,-13.672,-18.555,-41.016,-4.883,0.000,0
38179.730,-17.090,-14.160,-34.180,-8.789,0.000,0
38179.733,-17.090,-20.996,-39.551,-6.836,0.000,0
38179.737,-28.320,-58.105,-44.922,-10.742,0.000,0
38179.741,-42.480,-52.246,-50.781,-14.648,0.000,0
38179.745,-34.180,-21.973,-56.641,-20.020,0.000,0
38179.749,-32.227,-31.738,-52.734,-15.625,0.000,0
38179.753,-32.227,-35.156,-47.363,-17.090,0.000,0
38179.757,-29.785,-41.504,-48.828,-27.832,0.000,0
38179.761,-23.438,-50.293,-55.664,-31.250,0.000,0
38179.765,-32.227,-37.598,-55.176,-22.461,0.000,0
38179.769,-46.875,-34.668,-52.246,-26.855,0.000,0
38179.772,-33.691,-23.926,-63.477,-32.715,0.000,0
38179.776,-34.668,-39.551,-73.242,-40.039,0.000,0
38179.780,-50.781,-75.195,-63.477,-47.363,0.000,0
38179.784,-52.246,-68.848,-66.406,-56.641,0.000,0
38179.788,-41.992,-47.363,-72.266,-41.016,0.000,0
38179.792,-38.574,-46.875,-62.500,-23.438,0.000,0
38179.796,-44.922,-55.176,-61.523,-47.363,0.000,0
38179.800,-48.340,-58.594,-68.359,-52.246,0.000,0
38179.804,-43.457,-41.992,-72.754,-37.109,0.000,0
38179.808,-47.363,-42.480,-73.730,-42.969,0.000,1
38179.812,-55.664,-45.410,-76.660,-35.156,0.000,0
38179.815,-39.551,-39.062,-73.730,-23.438,0.000,0
38179.819,-20.508,-22.461,-69.824,-39.062,0.000,0
38179.823,-43.945,-4.883,-64.453,-46.875,0.000,0
38179.827,-46.387,-28.320,-52.246,-39.062,0.000,0
38179.831,-16.113,-23.438,-59.082,-29.785,0.000,0
38179.835,-2.930,-15.625,-61.035,-22.461,0.000,0
38179.839,5.371,-14.160,-47.852,-14.648,0.000,0
38179.843,19.531,7.812,-52.734,9.766,0.000,0
38179.847,-0.977,19.043,-62.012,-6.836,0.000,0
38179.851,-33.203,3.906,-65.918,-41.992,0.000,0
38179.855,-32.227,-28.809,-52.246,-28.809,0.000,0
38179.858,-22.949,-23.438,-44.922,-24.414,0.000,0
38179.862,-27.344,-8.301,-50.781,-32.227,0.000,0
38179.866,-25.391,-9.277,-52.246,-23.926,0.000,0
38179.870,-28.320,-13.672,-49.805,-7.324,0.000,0
38179.874,-20.996,-14.160,-53.223,-6.348,0.000,0
38179.878,-20.996,-11.230,-53.223,-26.855,0.000,0
38179.882,-31.250,-10.254,-56.152,-11.230,0.000,0
38179.886,-27.832,-6.836,-63.965,-29.785,0.000,0
38179.890,-32.715,-5.859,-66.895,-49.316,0.000,0
38179.894,-48.828,-21.484,-64.453,-36.621,0.000,0
38179.897,-47.852,-38.574,-56.152,-32.715,0.000,0
38179.901,-36.621,-15.137,-59.082,-19.531,0.000,0
38179.905,-30.762,-5.859,-62.500,-15.137,0.000,0
38179.909,-41.016,-28.320,-62.012,-21.484,0.000,0
38179.913,-50.781,-60.059,-77.148,-39.062,0.000,0
38179.917,-73.730,-85.938,-94.238,-68.848,0.000,0
38179.921,-112.305,-75.195,-124.512,-83.496,0.000,0
38179.925,-122.559,-88.379,-141.113,-102.539,0.000,0
38179.929,-123.535,-102.051,-139.648,-108.887,0.000,0
38179.933,-128.418,-107.910,-144.043,-105.957,0.000,0
38179.937,-133.301,-127.441,-148.438,-120.117,0.000,0
38179.940,-125.000,-109.863,-152.344,-114.258,0.000,0
38179.944,-125.977,-107.422,-152.344,-108.398,0.000,0
38179.948,-133.789,-119.141,-155.273,-100.098,0.000,0
38179.952,-148.438,-126.465,-161.621,-126.465,0.000,0
38179.956,-140.625,-146.484,-161.621,-137.695,0.000,0
38179.960,-149.902,-135.742,-162.598,-121.582,0.000,0
38179.964,-156.250,-138.184,-167.480,-133.301,0.000,0
38179.968,-137.695,-139.648,-170.410,-132.324,0.000,0
38179.972,-122.559,-143.555,-164.551,-110.352,0.000,0
38179.976,-122.559,-152.832,-146.484,-113.281,0.000,0
38179.980,-131.348,-121.582,-142.578,-109.375,0.000,0
38179.983,-134.277,-124.023,-151.855,-102.539,0.000,0
38179.987,-117.676,-131.348,-148.926,-107.422,0.000,0
38179.991,-112.305,-124.512,-135.742,-99.121,0.000,0
38179.995,-121.582,-136.230,-126.953,-100.098,0.000,0
38179.999,-102.539,-111.816,-124.023,-104.492,0.000,0
38180.003,-97.168,-98.633,-115.234,-82.520,0.000,0
38180.007,-91.309,-92.773,-112.305,-50.781,0.000,0
38180.011,-80.566,-74.707,-108.887,-40.527,0.000,0
38180.015,-75.195,-92.773,-89.844,-76.172,0.000,0
38180.019,-53.223,-62.012,-76.660,-77.637,0.000,0
38180.022,-23.926,-31.738,-79.102,-41.504,0.000,0
38180.026,-32.715,-35.645,-79.102,-28.809,0.000,0
38180.030,-48.828,-43.457,-72.266,-36.621,0.000,0
38180.034,-44.434,-72.266,-57.617,-40.527,0.000,0
38180.038,-41.992,-62.500,-60.059,-23.438,0.000,0
38180.042,-32.227,-48.340,-62.012,-14.648,0.000,0
38180.046,-38.574,-30.762,-66.406,-16.602,0.000,0
38180.050,-47.852,-39.551,-63.477,-21.484,0.000,0
38180.054,-27.344,-46.875,-50.781,-36.621,0.000,0
38180.058,-4.395,-25.391,-56.152,-32.227,0.000,0
38180.062,-7.324,-25.391,-56.641,-11.230,0.000,0
38180.065,-28.320,-51.758,-41.504,-6.348,0.000,0
38180.069,-16.602,-41.992,-44.434,-7.812,0.000,0
38180.073,-13.184,-44.922,-42.969,-3.906,0.000,0
38180.077,-17.090,-38.574,-41.504,-16.602,0.000,0
38180.081,-21.973,-29.297,-45.410,-24.902,0.000,0
38180.085,-19.531,-24.902,-46.875,-7.812,0.000,0
38180.089,-16.113,-34.180,-46.387,-3.906,0.000,0
38180.093,-16.113,-68.359,-43.945,-22.949,0.000,0
38180.097,-22.949,-21.973,-51.270,-3.906,0.000,0
38180.101,-27.832,-3.906,-53.223,5.371,0.000,0
38180.105,-20.508,-20.996,-42.969,-0.488,0.000,0
38180.108,-11.719,-26.367,-39.551,-14.160,0.000,0
38180.112,-6.836,-20.020,-49.805,-9.277,0.000,0
38180.116,-18.555,-18.555,-49.316,-1.953,0.000,0
38180.120,-42.480,-33.203,-44.922,-15.625,0.000,0
38180.124,-27.344,-35.645,-53.223,-23.438,0.000,0
38180.128,-13.184,-47.363,-54.199,-12.207,0.000,0
38180.132,-26.367,-47.852,-52.246,-11.719,0.000,0
38180.136,-10.742,-44.434,-53.711,-21.973,0.000,0
38180.140,3.906,-61.523,-48.828,-19.531,0.000,0
38180.144,-12.207,-38.086,-53.711,5.371,0.000,0
38180.147,-18.555,-34.180,-54.688,6.348,0.000,0
38180.151,-23.438,-49.316,-42.480,-9.766,0.000,0
38180.155,-16.113,-39.062,-49.316,1.953,0.000,0
38180.159,3.906,-28.320,-54.199,4.883,0.000,0
38180.163,1.465,-25.879,-47.363,14.160,0.000,0
38180.167,-9.766,-35.645,-36.621,7.324,0.000,0
38180.171,-10.254,-36.621,-43.457,-14.648,0.000,0
38180.175,-17.578,-30.273,-53.711,-14.648,0.000,0
38180.179,-24.414,-38.574,-51.270,-20.996,0.000,0
38180.183,-15.625,-39.551,-56.641,-24.414,0.000,0
38180.187,-11.719,-39.551,-58.105,-18.066,0.000,0
38180.190,-14.648,-50.781,-47.363,-19.531,0.000,0
38180.194,-5.859,-35.645,-41.016,4.395,0.000,0
38180.198,5.859,-20.508,-37.598,20.020,0.000,0
38180.202,7.324,-15.137,-45.410,5.859,0.000,0
38180.206,-18.066,-27.832,-43.945,-13.184,0.000,0
38180.210,-20.996,-35.645,-38.086,-16.602,0.000,0
38180.214,0.488,-15.137,-40.039,-11.719,0.000,0
38180.218,1.953,-14.648,-34.180,-4.395,0.000,0
38180.222,14.160,-14.160,-30.273,18.066,0.000,0
38180.226,18.066,-24.902,-21.484,25.391,0.000,0
38180.230,-4.883,-32.715,-22.949,24.414,0.000,0
38180.233,9.766,-5.371,-30.762,21.973,0.000,0
38180.237,-0.977,-15.625,-30.273,1.465,0.000,0
38180.241,-9.277,-44.922,-21.484,-7.324,0.000,0
38180.245,12.207,-22.949,-25.879,11.719,0.000,0
38180.249,4.395,-23.926,-25.391,10.742,0.000,0
38180.253,0.000,-20.508,-25.391,4.395,0.000,0
38180.257,-4.395,-21.973,-35.156,10.742,0.000,0
38180.261,5.859,-19.043,-38.086,18.555,0.000,0
38180.265,-2.441,-27.832,-41.992,2.930,0.000,0
38180.269,-23.438,-56.152,-52.246,-17.578,0.000,0
38180.272,-7.812,-33.691,-60.547,-3.906,0.000,0
38180.276,-19.531,-28.809,-58.105,0.488,0.000,0
38180.280,-22.949,-32.227,-58.105,-7.812,0.000,0
38180.284,-8.301,-33.203,-56.641,-20.020,0.000,0
38180.288,-40.039,-50.293,-50.293,-42.969,0.000,0
38180.292,-36.621,-27.344,-53.711,-36.133,0.000,0
38180.296,-29.297,-18.066,-53.223,-11.719,0.000,0
38180.300,-25.391,-26.367,-48.828,0.488,0.000,0
38180.304,-8.789,-22.949,-47.852,1.953,0.000,0
38180.308,-10.742,-21.484,-38.574,-0.488,0.000,0
38180.312,-9.277,-9.277,-39.062,-8.301,0.000,0
38180.315,-4.883,-14.160,-45.898,-13.672,0.000,0
38180.319,-2.441,-14.648,-46.875,-11.719,0.000,0
38180.323,-8.789,-19.531,-54.688,-5.371,0.000,0
38180.327,-19.531,-53.223,-52.734,-17.090,0.000,0
38180.331,-31.738,-39.551,-53.711,-28.320,0.000,0
38180.335,-40.527,-15.137,-71.289,-26.855,0.000,0
38180.339,-26.855,-21.484,-78.613,-39.551,0.000,0
38180.343,-12.695,-59.570,-64.453,-41.016,0.000,1
38180.347,-42.480,-77.637,-53.223,-22.461,0.000,0
38180.351,-41.016,-38.086,-67.383,-13.672,0.000,0
38180.355,-10.742,-29.297,-67.383,-21.973,0.000,0
38180.358,-16.113,-39.551,-63.477,-28.809,0.000,0
38180.362,-37.598,-43.457,-70.801,-22.949,0.000,0
38180.366,-41.504,-60.547,-64.453,-42.480,0.000,0
38180.370,-37.109,-47.852,-65.430,-48.828,0.000,0
38180.374,-17.090,-33.691,-72.754,-19.043,0.000,0
38180.378,-16.113,-33.203,-64.941,-5.371,0.000,0
38180.382,-29.297,-17.578,-57.617,-18.555,0.000,0
38180.386,-14.648,-13.184,-57.617,-35.645,0.000,0
38180.390,-20.996,-28.809,-54.688,-42.480,0.000,0
38180.394,-21.973,-36.621,-56.641,-20.508,0.000,0
38180.397,-16.602,-25.879,-59.082,-12.207,0.000,0
38180.401,-22.461,-22.949,-53.223,-19.043,0.000,0
38180.405,-30.762,-43.457,-42.969,-32.227,0.000,0
38180.409,-27.344,-23.926,-46.387,-24.414,0.000,0
38180.413,-12.695,-3.906,-57.129,-9.277,0.000,0
38180.417,-3.906,-14.648,-51.270,-11.719,0.000,0
38180.421,-19.043,-20.996,-42.969,-20.996,0.000,0
38180.425,-20.996,-29.297,-48.340,-17.090,0.000,0
38180.429,-16.602,-30.273,-52.246,-14.648,0.000,0
38180.433,-29.785,-28.809,-49.805,-30.762,0.000,0
38180.437,-37.109,-35.156,-45.898,-18.066,0.000,0
38180.440,-24.414,-23.438,-56.152,-11.719,0.000,0
38180.444,-11.719,-32.715,-51.270,-16.602,0.000,0
38180.448,-15.625,-21.484,-47.363,-12.695,0.000,0
38180.452,-24.902,-5.859,-57.617,-25.391,0.000,0
38180.456,-28.809,-20.996,-56.152,-29.297,0.000,0
38180.460,-24.414,-20.996,-57.617,-0.488,0.000,0
38180.464,-30.762,-24.902,-58.105,13.672,0.000,0
38180.468,-39.062,-23.438,-57.129,-14.648,0.000,0
38180.472,-33.691,-22.949,-60.059,-25.879,0.000,0
38180.476,-38.086,-22.949,-70.312,-23.926,0.000,0
38180.480,-35.645,-33.203,-71.777,-31.250,0.000,0
38180.483,-42.480,-52.246,-63.477,-27.832,0.000,0
38180.487,-42.480,-40.527,-63.965,-38.574,0.000,0
38180.491,-19.043,-20.020,-67.871,-37.598,0.000,0
38180.495,-14.160,-32.715,-63.477,-7.812,0.000,0
38180.499,-30.273,-46.387,-64.941,7.812,0.000,0
38180.503,-46.387,-49.805,-77.148,-33.691,0.000,0
38180.507,-38.574,-54.199,-71.289,-62.012,0.000,0
38180.511,-40.527,-46.875,-58.594,-35.156,0.000,0
38180.515,-56.152,-55.664,-68.359,-32.715,0.000,0
38180.519,-62.988,-65.918,-80.078,-45.898,0.000,0
38180.522,-64.941,-89.844,-81.055,-46.875,0.000,0
38180.526,-69.336,-110.352,-81.055,-59.082,0.000,0
38180.530,-58.594,-89.844,-83.984,-60.059,0.000,0
38180.534,-58.594,-92.773,-86.426,-49.316,0.000,0
38180.538,-55.664,-96.680,-83.008,-41.016,0.000,0
38180.542,-56.641,-101.074,-73.730,-37.598,0.000,0
38180.546,-63.965,-105.469,-71.289,-34.668,0.000,0
38180.550,-36.133,-99.609,-77.637,-38.574,0.000,0
38180.554,-47.363,-100.586,-83.008,-48.828,0.000,0
38180.558,-70.801,-91.797,-83.496,-34.180,0.000,0
38180.562,-44.922,-96.191,-82.520,-31.738,0.000,0
38180.565,-54.688,-109.375,-81.543,-63.477,0.000,0
38180.569,-62.012,-104.004,-82.520,-55.176,0.000,0
38180.573,-38.574,-105.957,-80.078,-32.227,0.000,0
38180.577,-36.621,-102.539,-85.938,-34.668,0.000,0
38180.581,-45.410,-110.352,-81.543,-53.223,0.000,0
38180.585,-46.875,-121.094,-68.848,-47.363,0.000,0
38180.589,-31.250,-102.051,-77.637,-33.691,0.000,0
38180.593,-18.066,-103.516,-86.914,-40.527,0.000,0
38180.597,-32.715,-105.957,-89.844,-22.949,0.000,0
38180.601,-43.945,-117.188,-83.984,-41.504,0.000,0
38180.605,-53.223,-129.883,-78.125,-69.336,0.000,0
38180.608,-49.316,-101.074,-79.590,-56.152,0.000,0
38180.612,-39.062,-95.703,-79.590,-34.180,0.000,0
38180.616,-37.598,-102.539,-74.219,-23.926,0.000,0
38180.620,-32.227,-99.609,-73.242,-33.691,0.000,0
38180.624,-28.809,-109.863,-67.871,-40.039,0.000,0
38180.628,-31.738,-90.332,-65.918,-21.484,0.000,0
38180.632,-32.227,-85.938,-66.406,-23.438,0.000,0
38180.636,-20.508,-86.426,-66.406,-30.273,0.000,0
38180.640,-6.836,-81.543,-64.453,-14.160,0.000,0
38180.644,-38.086,-100.586,-56.641,-16.113,0.000,0
38180.647,-56.641,-82.031,-62.500,-31.738,0.000,0
38180.651,-39.062,-72.754,-64.941,-29.297,0.000,0
38180.655,-27.344,-60.059,-65.430,-9.277,0.000,0
38180.659,-34.668,-54.688,-65.430,-18.555,0.000,0
38180.663,-34.668,-86.426,-52.246,-46.387,0.000,0
38180.667,-21.973,-51.758,-67.871,-41.016,0.000,0
38180.671,-40.039,-25.391,-78.613,-29.297,0.000,0
38180.675,-47.363,-46.875,-64.941,-14.160,0.000,0
38180.679,-36.133,-59.570,-60.059,-16.113,0.000,0
38180.683,-26.367,-73.242,-60.547,-35.645,0.000,0
38180.687,-21.973,-56.641,-63.965,-36.621,0.000,0
38180.690,-32.227,-45.410,-65.918,-26.855,0.000,0
38180.694,-45.410,-39.551,-63.477,-20.996,0.000,0
38180.698,-44.434,-34.180,-62.988,-27.832,0.000,0
38180.702,-35.645,-57.617,-59.082,-29.785,0.000,0
38180.706,-38.574,-33.203,-56.641,-17.578,0.000,0
38180.710,-31.738,2.441,-62.012,-18.555,0.000,0
38180.714,-17.090,12.207,-60.547,-5.371,0.000,0
38180.718,-21.973,0.000,-60.059,2.441,0.000,0
38180.722,-30.273,-39.551,-46.875,-20.508,0.000,0
38180.726,-26.855,-15.137,-42.480,-14.160,0.000,0
38180.730,-27.344,26.367,-55.664,-4.395,0.000,0
38180.733,-8.301,23.438,-54.688,-7.812,0.000,0
38180.737,6.348,8.301,-43.945,0.977,0.000,0
38180.741,-11.719,-5.371,-39.062,2.441,0.000,0
38180.745,-12.695,0.488,-43.945,-8.789,0.000,0
38180.749,-24.414,0.977,-57.129,-2.441,0.000,0
38180.753,-29.297,-23.926,-62.988,-9.766,0.000,0
38180.757,-29.297,-31.738,-63.965,-32.227,0.000,0
38180.761,-35.645,-6.836,-64.941,-33.691,0.000,0
38180.765,-19.043,-20.508,-61.035,-20.508,0.000,0
38180.769,-21.973,-34.668,-59.082,-9.766,0.000,0
38180.772,-33.203,-29.297,-61.523,-17.578,0.000,0
38180.776,-26.855,-41.504,-62.012,-28.320,0.000,0
38180.780,-23.438,-60.059,-59.570,-36.133,0.000,0
38180.784,-31.250,-61.035,-61.523,-40.527,0.000,0
38180.788,-36.621,-43.457,-73.242,-41.504,0.000,0
38180.792,-17.090,-57.129,-78.125,-39.551,0.000,0
38180.796,-25.879,-88.867,-72.266,-22.949,0.000,0
38180.800,-57.617,-102.539,-71.777,-26.367,0.000,0
38180.804,-51.758,-90.332,-80.078,-46.387,0.000,0
38180.808,-33.203,-63.965,-81.055,-43.457,0.000,0
38180.812,-40.039,-83.496,-61.523,-33.203,0.000,0
38180.815,-37.109,-81.055,-60.059,-15.137,0.000,0
38180.819,-17.090,-69.824,-61.035,-22.949,0.000,0
38180.823,-17.578,-69.824,-52.246,-28.809,0.000,0
38180.827,-20.020,-60.059,-53.711,-14.648,0.000,0
38180.831,-21.484,-58.105,-60.059,-8.301,0.000,0
38180.835,-18.066,-51.270,-59.570,-8.301,0.000,0
38180.839,-16.602,-51.270,-55.664,-17.090,0.000,0
38180.843,-32.227,-42.480,-54.688,-35.156,0.000,0
38180.847,-25.879,-21.973,-55.176,-41.016,0.000,0
38180.851,-15.137,-12.207,-54.688,-20.996,0.000,0
38180.855,-14.648,-16.602,-49.316,-17.578,0.000,0
38180.858,-24.414,-38.086,-37.598,-20.996,0.000,0
38180.862,-20.508,6.836,-50.293,-12.207,0.000,0
38180.866,-4.395,30.273,-59.570,1.953,0.000,0
38180.870,-15.625,-10.742,-50.781,1.465,0.000,0
38180.874,-31.738,-10.254,-51.270,-0.488,0.000,0
38180.878,-22.949,-4.883,-49.805,-13.184,0.000,0
38180.882,-26.855,-10.254,-47.363,-22.461,0.000,0
38180.886,-33.691,3.906,-47.363,-16.602,0.000,0
38180.890,-22.949,-4.395,-50.781,-13.672,0.000,0
38180.894,3.418,-0.488,-59.082,-9.766,0.000,0
38180.897,-11.719,9.766,-55.176,-15.137,0.000,0
38180.901,-47.852,-12.695,-43.457,-5.859,0.000,0
38180.905,-41.992,-14.160,-58.594,-11.719,0.000,0
38180.909,-35.645,-17.578,-74.219,-20.508,0.000,0
38180.913,-39.062,-26.367,-74.219,-24.414,0.000,0
38180.917,-44.434,-59.570,-77.148,-51.758,0.000,0
38180.921,-45.898,-82.031,-82.520,-57.617,0.000,0
38180.925,-52.246,-74.219,-85.449,-48.828,0.000,1
38180.929,-56.152,-95.215,-87.402,-55.176,0.000,0
38180.933,-57.617,-107.422,-97.168,-60.059,0.000,0
38180.937,-67.871,-113.770,-100.586,-61.035,0.000,0
38180.940,-68.848,-125.977,-95.215,-60.059,0.000,0
38180.944,-70.801,-111.816,-90.820,-50.293,0.000,0
38180.948,-81.055,-110.840,-87.402,-57.129,0.000,0
38180.952,-69.824,-110.352,-96.191,-66.406,0.000,0
38180.956,-47.852,-117.676,-93.262,-61.523,0.000,0
38180.960,-46.875,-157.715,-76.172,-72.754,0.000,0
38180.964,-54.688,-130.859,-84.473,-54.688,0.000,0
38180.968,-54.688,-104.492,-96.191,-47.363,0.000,0
38180.972,-66.895,-99.121,-103.027,-53.711,0.000,0
38180.976,-61.523,-120.605,-93.750,-50.781,0.000,0
38180.980,-55.664,-145.996,-86.426,-50.781,0.000,0
38180.983,-52.246,-111.328,-98.633,-68.359,0.000,0
38180.987,-65.430,-105.957,-97.168,-85.449,0.000,0
38180.991,-79.102,-121.582,-93.262,-64.941,0.000,0
38180.995,-65.918,-119.141,-101.074,-58.105,0.000,0
38180.999,-54.199,-130.859,-94.727,-68.359,0.000,0
38181.003,-55.176,-108.398,-97.168,-65.918,0.000,0
38181.007,-56.641,-104.492,-109.375,-50.781,0.000,0
38181.011,-55.664,-112.305,-110.840,-54.199,0.000,0
38181.015,-56.641,-113.281,-104.492,-63.965,0.000,0
38181.019,-68.848,-136.719,-97.168,-78.613,0.000,0
38181.022,-80.566,-112.305,-103.516,-82.031,0.000,0
38181.026,-80.078,-85.938,-112.305,-67.871,0.000,0
38181.030,-76.660,-95.215,-112.793,-46.387,0.000,0
38181.034,-65.918,-105.957,-94.727,-45.898,0.000,0
38181.038,-50.781,-119.141,-78.613,-62.988,0.000,0
38181.042,-62.012,-95.703,-93.750,-55.176,0.000,0
38181.046,-76.660,-78.613,-96.191,-35.645,0.000,0
38181.050,-70.312,-79.102,-86.426,-51.758,0.000,0
38181.054,-65.918,-68.359,-83.008,-64.941,0.000,0
38181.058,-40.527,-72.266,-65.430,-60.059,0.000,0
38181.062,-27.344,-57.617,-46.387,-38.574,0.000,0
38181.065,-21.484,-15.625,-42.480,-18.066,0.000,0
38181.069,-6.836,1.465,-48.828,-0.488,0.000,0
38181.073,-5.859,5.371,-47.363,12.207,0.000,0
38181.077,3.906,-0.488,-35.156,-1.465,0.000,0
38181.081,-12.207,13.672,-31.250,1.465,0.000,0
38181.085,-23.926,28.320,-32.227,0.000,0.000,0
38181.089,-18.555,15.625,-37.109,-14.648,0.000,0
38181.093,-17.090,24.414,-43.945,-15.137,0.000,0
38181.097,-12.695,-5.859,-32.715,-17.578,0.000,0
38181.101,-10.254,-1.465,-33.203,-14.648,0.000,0
38181.105,-9.766,17.090,-42.480,-2.441,0.000,0
38181.108,-8.301,3.906,-41.992,-0.488,0.000,0
38181.112,-9.766,8.301,-42.969,-8.301,0.000,0
38181.116,-8.301,-5.371,-42.969,-8.789,0.000,0
38181.120,-4.395,-0.977,-38.574,-6.836,0.000,0
38181.124,-8.301,14.160,-35.645,-8.301,0.000,0
38181.128,-22.949,0.000,-42.480,-8.301,0.000,0
38181.132,-27.832,8.301,-56.152,-12.207,0.000,0
38181.136,-23.438,3.906,-59.082,-20.996,0.000,0
38181.140,-14.648,-13.184,-48.828,-11.719,0.000,0
38181.144,0.000,-6.836,-52.734,10.254,0.000,0
38181.147,-12.207,-10.254,-64.941,0.977,0.000,0
38181.151,-16.602,-6.348,-73.242,-10.742,0.000,0
38181.155,-29.297,-27.344,-76.172,-16.113,0.000,0
38181.159,-51.758,-36.133,-79.102,-42.480,0.000,0
38181.163,-36.621,-31.250,-79.102,-54.688,0.000,0
38181.167,-57.617,-31.738,-81.055,-61.523,0.000,0
38181.171,-62.988,-20.020,-86.914,-48.828,0.000,0
38181.175,-59.082,-34.180,-79.590,-49.316,0.000,0
38181.179,-51.270,-25.391,-71.777,-58.594,0.000,0
38181.183,-25.879,-9.766,-73.730,-51.758,0.000,0
38181.187,-48.340,-37.598,-56.641,-40.527,0.000,0
38181.190,-43.457,-28.320,-54.688,-30.273,0.000,0
38181.194,-27.344,-21.484,-61.523,-27.344,0.000,0
38181.198,-39.062,-31.738,-60.547,-36.621,0.000,0
38181.202,-34.668,-15.625,-69.336,-38.574,0.000,0
38181.206,-34.668,-17.578,-68.359,-33.691,0.000,0
38181.210,-50.781,-21.484,-66.406,-27.344,0.000,0
38181.214,-42.969,-27.832,-61.523,-28.320,0.000,0
38181.218,-26.367,-28.320,-52.246,-27.832,0.000,0
38181.222,-18.555,-3.418,-52.246,-0.488,0.000,0
38181.226,-25.879,6.348,-62.012,-24.414,0.000,0
38181.230,-38.574,-12.207,-63.477,-36.621,0.000,0
38181.233,-49.805,-35.645,-53.711,-27.344,0.000,0
38181.237,-34.668,-26.367,-53.223,-30.762,0.000,0
38181.241,-21.484,-20.996,-53.223,-23.926,0.000,0
38181.245,-25.879,-37.598,-50.293,-27.832,0.000,0
38181.249,-30.762,-29.297,-55.176,-34.668,0.000,0
38181.253,-42.480,-39.551,-60.059,-36.621,0.000,0
38181.257,-37.109,-61.523,-59.570,-39.551,0.000,0
38181.261,-21.484,-41.504,-67.871,-32.227,0.000,0
38181.265,-53.223,-52.734,-76.660,-42.969,0.000,0
38181.269,-73.242,-48.828,-74.707,-44.434,0.000,0
38181.272,-62.988,-37.109,-67.871,-35.645,0.000,0
38181.276,-55.176,-63.965,-60.059,-41.016,0.000,0
38181.280,-25.879,-39.062,-62.988,-32.715,0.000,0
38181.284,-23.926,-40.527,-67.383,-28.809,0.000,0
38181.288,-49.316,-53.223,-73.730,-22.949,0.000,0
38181.292,-46.875,-59.082,-68.359,-17.578,0.000,0
38181.296,-19.043,-76.660,-54.688,-28.809,0.000,0
38181.300,-17.090,-54.199,-55.176,-22.461,0.000,0
38181.304,-43.945,-52.246,-55.176,-32.227,0.000,0
38181.308,-40.527,-57.617,-53.711,-40.039,0.000,0
38181.312,-35.156,-58.105,-56.152,-26.367,0.000,0
38181.315,-35.156,-65.430,-51.758,-36.621,0.000,0
38181.319,-29.297,-50.781,-52.246,-41.016,0.000,0
38181.323,-27.832,-39.062,-53.223,-15.625,0.000,0
38181.327,-20.508,-19.043,-57.129,5.371,0.000,0
38181.331,-14.160,-18.066,-51.758,-19.043,0.000,0
38181.335,-39.551,-68.359,-40.527,-36.621,0.000,0
38181.339,-28.320,-54.688,-46.875,-29.297,0.000,0
38181.343,-35.156,-26.367,-53.711,-39.551,0.000,0
38181.347,-52.734,-44.434,-52.246,-39.551,0.000,0
38181.351,-33.203,-62.988,-51.270,-22.461,0.000,0
38181.355,-37.598,-85.449,-57.129,-32.715,0.000,0
38181.358,-40.527,-72.754,-60.547,-34.668,0.000,0
38181.362,-41.992,-65.918,-62.988,-24.902,0.000,0
38181.366,-39.062,-93.750,-58.105,-20.996,0.000,0
38181.370,-22.461,-86.426,-60.059,-7.324,0.000,0
38181.374,-38.086,-81.055,-67.383,-25.879,0.000,0
38181.378,-38.574,-95.703,-62.988,-35.156,0.000,0
38181.382,-28.809,-107.910,-59.082,-39.062,0.000,0
38181.386,-29.785,-75.195,-66.406,-22.461,0.000,0
38181.390,-25.391,-49.316,-76.172,-1.953,0.000,0
38181.394,-35.645,-81.055,-60.547,-19.043,0.000,0
38181.397,-42.969,-76.172,-52.246,-17.090,0.000,0
38181.401,-20.508,-60.547,-63.477,-14.648,0.000,0
38181.405,-14.160,-58.594,-64.941,-19.043,0.000,0
38181.409,-36.133,-51.758,-58.594,-15.137,0.000,0
38181.413,-28.320,-69.336,-48.340,-21.484,0.000,0
38181.417,-9.766,-54.199,-58.594,-24.902,0.000,0
38181.421,-26.855,-31.250,-68.848,-37.109,0.000,0
38181.425,-37.109,-39.062,-64.941,-26.367,0.000,0
38181.429,-9.766,-33.691,-64.453,2.930,0.000,0
38181.433,-21.484,-37.109,-59.082,-20.508,0.000,0
38181.437,-36.133,-29.297,-57.617,-32.715,0.000,0
38181.440,-17.090,-11.719,-58.594,-17.578,0.000,0
38181.444,-14.648,-8.789,-54.199,-14.160,0.000,0
38181.448,-28.320,-5.371,-55.176,-16.602,0.000,0
38181.452,-22.461,-17.578,-55.664,-15.625,0.000,0
38181.456,-19.043,-24.902,-55.176,-16.602,0.000,0
38181.460,-25.391,-17.578,-57.129,-22.949,0.000,0
38181.464,-22.461,-7.812,-62.500,-18.555,0.000,0
38181.468,-14.160,-26.855,-65.918,-15.137,0.000,0
38181.472,-32.715,-76.660,-50.293,-7.812,0.000,0
38181.476,-41.504,-56.152,-57.129,-13.184,0.000,0
38181.480,-20.020,-39.551,-66.895,-31.738,0.000,0
38181.483,-35.645,-56.152,-57.617,-29.297,0.000,0
38181.487,-44.434,-61.523,-56.152,-20.508,0.000,0
38181.491,-25.879,-75.195,-59.082,-30.273,0.000,0
38181.495,-26.367,-75.195,-55.176,-10.254,0.000,0
38181.499,-38.086,-71.289,-56.152,9.277,0.000,2
38181.503,-35.645,-76.172,-63.477,-14.648,0.000,0
38181.507,-25.879,-55.176,-69.336,-25.391,0.000,0
38181.511,-31.250,-54.688,-65.430,-23.438,0.000,0
38181.515,-37.109,-74.707,-55.664,-29.297,0.000,0
38181.519,-34.668,-77.148,-53.711,-32.227,0.000,0
38181.522,-21.484,-79.590,-57.617,-21.973,0.000,0
38181.526,-18.555,-78.125,-55.176,1.953,0.000,0
38181.530,-37.109,-84.473,-46.875,-26.367,0.000,0
38181.534,-41.504,-86.426,-53.711,-44.922,0.000,0
38181.538,-34.180,-73.730,-70.312,-24.414,0.000,0
38181.542,-32.227,-67.871,-65.918,-26.367,0.000,0
38181.546,-31.738,-61.523,-60.059,-25.879,0.000,0
38181.550,-32.715,-69.824,-63.965,-19.043,0.000,0
38181.554,-34.668,-89.355,-67.871,-36.133,0.000,0
38181.558,-23.438,-76.172,-67.871,-40.527,0.000,0
38181.562,-36.133,-71.289,-64.941,-30.273,0.000,0
38181.565,-55.664,-70.312,-79.102,-30.273,0.000,0
38181.569,-56.641,-82.031,-84.961,-26.367,0.000,0
38181.573,-47.363,-104.492,-73.730,-53.223,0.000,0
38181.577,-46.875,-76.172,-71.289,-49.316,0.000,0
38181.581,-30.273,-52.246,-73.730,-28.809,0.000,0
38181.585,-39.062,-63.477,-75.195,-38.574,0.000,0
38181.589,-57.617,-75.195,-71.289,-47.363,0.000,0
38181.593,-39.551,-80.078,-70.801,-52.734,0.000,0
38181.597,-47.363,-64.453,-79.102,-58.105,0.000,0
38181.601,-54.688,-55.664,-89.844,-41.992,0.000,0
38181.605,-54.688,-62.500,-89.355,-41.016,0.000,0
38181.608,-53.223,-79.102,-72.266,-41.992,0.000,0
38181.612,-42.480,-77.148,-65.918,-32.227,0.000,0
38181.616,-41.016,-47.852,-70.312,-30.273,0.000,0
38181.620,-42.480,-48.340,-68.359,-28.809,0.000,0
38181.624,-34.180,-51.270,-62.988,-21.973,0.000,0
38181.628,-36.621,-44.922,-56.641,-15.625,0.000,0
38181.632,-30.762,-58.105,-50.293,-20.020,0.000,0
38181.636,-28.809,-46.387,-53.223,-29.785,0.000,0
38181.640,-36.621,-41.504,-52.734,-20.996,0.000,0
38181.644,-23.926,-47.363,-56.152,-4.395,0.000,0
38181.647,-20.996,-68.359,-55.664,-16.602,0.000,0
38181.651,-28.320,-100.586,-35.156,-31.250,0.000,0
38181.655,-23.926,-73.730,-41.992,-23.438,0.000,0
38181.659,-7.324,-56.641,-46.875,-7.812,0.000,0
38181.663,-0.977,-62.012,-41.016,9.277,0.000,0
38181.667,-17.578,-70.312,-46.387,-0.488,0.000,0
38181.671,-26.367,-84.961,-41.992,-18.555,0.000,0
38181.675,-36.621,-72.754,-41.992,-23.438,0.000,0
38181.679,-30.762,-71.289,-52.734,-13.184,0.000,0
38181.683,-24.414,-57.617,-50.293,-1.465,0.000,0
38181.687,-30.762,-48.828,-43.945,-14.648,0.000,0
38181.690,-25.391,-57.617,-42.969,-18.066,0.000,0
38181.694,-33.203,-48.828,-40.527,-12.695,0.000,0
38181.698,-40.039,-50.781,-46.875,-15.625,0.000,0
38181.702,-15.625,-41.504,-40.039,-6.348,0.000,0
38181.706,-7.324,-23.438,-26.367,6.836,0.000,0
38181.710,-17.578,-59.082,-31.250,-14.160,0.000,0
38181.714,-20.996,-65.918,-46.875,-28.809,0.000,0
38181.718,-9.766,-56.152,-57.129,-24.414,0.000,0
38181.722,-38.086,-65.430,-53.223,-6.836,0.000,0
38181.726,-47.852,-70.312,-46.875,-18.555,0.000,0
38181.730,-31.738,-71.289,-41.992,-51.270,0.000,0
38181.733,-37.109,-59.082,-47.852,-47.852,0.000,0
38181.737,-40.527,-60.059,-56.152,-33.203,0.000,0
38181.741,-42.480,-70.801,-53.223,-20.020,0.000,0
38181.745,-37.109,-56.641,-53.711,-11.719,0.000,0
38181.749,-32.715,-64.453,-55.176,-25.391,0.000,0
38181.753,-42.480,-65.430,-59.570,-27.832,0.000,0
38181.757,-25.391,-52.734,-63.965,-23.438,0.000,0
38181.761,-36.621,-54.688,-65.430,-47.852,0.000,0
38181.765,-67.383,-63.965,-71.777,-51.270,0.000,0
38181.769,-60.547,-77.148,-67.383,-38.086,0.000,0
38181.772,-40.527,-54.199,-61.523,-46.387,0.000,0
38181.776,-23.926,-46.387,-62.012,-39.551,0.000,0
38181.780,-18.066,-72.266,-57.617,-30.762,0.000,0
38181.784,-34.180,-52.734,-64.941,-29.785,0.000,0
38181.788,-45.898,-59.082,-67.871,-30.762,0.000,0
38181.792,-46.875,-66.895,-68.848,-34.180,0.000,0
38181.796,-45.410,-42.969,-74.707,-23.926,0.000,0
38181.800,-32.227,-42.969,-71.289,-20.508,0.000,0
38181.804,-29.785,-48.340,-61.035,-11.230,0.000,0
38181.808,-19.531,-40.039,-61.523,-9.277,0.000,0
38181.812,-16.113,-31.738,-60.547,-28.809,0.000,0
38181.815,-29.785,-26.855,-53.711,-13.672,0.000,0
38181.819,-17.090,-24.414,-62.500,-1.953,0.000,0
38181.823,8.301,-13.672,-69.336,-6.836,0.000,0
38181.827,3.418,-18.066,-59.082,-7.324,0.000,0
38181.831,-15.137,-41.016,-49.316,-4.395,0.000,0
38181.835,-13.184,-13.184,-60.547,10.742,0.000,0
38181.839,-9.277,15.137,-72.266,11.230,0.000,0
38181.843,0.000,6.836,-66.895,2.441,0.000,0
38181.847,-9.277,-22.461,-52.246,-9.277,0.000,0
38181.851,-24.414,-24.414,-52.734,-17.090,0.000,0
38181.855,-28.809,1.465,-64.453,-16.113,0.000,0
38181.858,-21.484,-8.789,-63.965,-19.043,0.000,0
38181.862,-20.020,-25.391,-50.781,-18.555,0.000,0
38181.866,-23.438,-20.020,-42.969,-9.766,0.000,0
38181.870,-25.391,-16.113,-39.062,-6.348,0.000,0
38181.874,-30.273,-3.906,-36.621,-15.625,0.000,0
38181.878,-16.113,-11.719,-41.504,-11.230,0.000,0
38181.882,2.441,-19.531,-41.504,-8.789,0.000,0
38181.886,-23.926,7.324,-43.457,-13.672,0.000,0
38181.890,-25.879,-2.930,-40.039,-13.672,0.000,0
38181.894,-10.742,-3.906,-35.645,6.836,0.000,0
38181.897,-10.254,12.207,-36.621,13.184,0.000,0
38181.901,-7.812,8.301,-34.180,11.230,0.000,0
38181.905,-3.418,-9.277,-27.832,2.930,0.000,0
38181.909,-11.230,-19.043,-27.344,-8.301,0.000,0
38181.913,-20.020,3.418,-40.527,-13.184,0.000,0
38181.917,-17.090,10.254,-54.199,-16.113,0.000,0
38181.921,-19.531,-13.672,-51.758,-14.160,0.000,0
38181.925,-10.254,-21.973,-43.945,-20.020,0.000,0
38181.929,-8.301,-11.719,-43.457,-22.461,0.000,0
38181.933,-12.207,17.090,-49.805,-5.859,0.000,0
38181.937,-0.977,-11.230,-38.086,12.207,0.000,0
38181.940,-0.488,-28.809,-43.945,6.348,0.000,0
38181.944,-15.625,-32.227,-59.570,-16.602,0.000,0
38181.948,-9.277,-56.641,-56.152,-31.250,0.000,0
38181.952,0.000,-33.203,-52.734,-6.348,0.000,0
38181.956,-21.973,-33.203,-60.059,1.465,0.000,0
38181.960,-22.949,-42.969,-66.406,-11.719,0.000,0
38181.964,-18.066,-52.734,-61.523,-25.879,0.000,0
38181.968,-24.902,-76.660,-55.664,-38.574,0.000,0
38181.972,-12.207,-45.410,-59.082,-17.578,0.000,0
38181.976,-30.762,-31.738,-60.547,-6.348,0.000,0
38181.980,-28.320,-38.574,-51.758,-12.695,0.000,0
38181.983,-10.742,-60.547,-41.016,-10.254,0.000,0
38181.987,-10.254,-43.457,-49.316,-4.883,0.000,0
38181.991,9.277,-10.254,-53.711,-10.742,0.000,0
38181.995,-6.836,-36.621,-45.410,-8.301,0.000,0
38181.999,-13.184,-32.227,-45.898,4.395,0.000,0
38182.003,0.977,-22.461,-41.992,7.812,0.000,0
38182.007,7.324,-42.969,-28.809,-7.324,0.000,0
38182.011,0.977,-24.414,-29.297,1.465,0.000,0
38182.015,-6.836,-10.254,-33.203,1.953,0.000,0
38182.019,7.324,-15.625,-34.180,-5.859,0.000,0
38182.022,11.230,-14.648,-32.715,0.977,0.000,0
38182.026,4.395,-37.109,-26.367,3.418,0.000,0
38182.030,13.672,-11.230,-42.480,3.418,0.000,0
38182.034,-5.371,14.160,-45.898,11.230,0.000,0
38182.038,-20.020,-9.766,-45.410,-6.836,0.000,0
38182.042,-8.789,-35.156,-44.434,-9.277,0.000,0
38182.046,-9.766,-48.340,-32.715,2.441,0.000,0
38182.050,-1.465,-20.996,-30.273,-9.766,0.000,0
38182.054,9.766,-5.371,-27.832,-2.930,0.000,0
38182.058,22.461,-7.812,-26.855,15.137,0.000,0
38182.062,11.230,-14.648,-31.738,10.254,0.000,0
38182.065,-11.719,-25.391,-40.039,0.488,0.000,0
38182.069,4.883,-20.996,-42.969,12.695,0.000,0
38182.073,10.254,-20.508,-42.969,4.883,0.000,0
38182.077,-8.301,-15.625,-44.434,-7.324,0.000,0
38182.081,-7.812,-30.273,-41.992,0.000,0.000,0
38182.085,-19.531,-47.363,-48.340,-6.836,0.000,0
38182.089,-27.344,-26.855,-58.105,-15.625,0.000,0
38182.093,-28.809,-10.742,-61.523,-10.742,0.000,0
38182.097,-26.855,-11.719,-62.988,-2.441,0.000,0
38182.101,-27.832,-36.621,-56.641,2.441,0.000,0
38182.105,-5.371,-29.785,-42.969,7.324,0.000,0
38182.108,11.230,0.977,-35.156,-0.488,0.000,0
38182.112,-16.602,-1.953,-29.297,4.883,0.000,0
38182.116,-14.648,-3.418,-25.879,11.719,0.000,0
38182.120,-0.977,-0.488,-36.621,-10.254,0.000,0
38182.124,2.930,-7.324,-38.086,-15.137,0.000,0
38182.128,-10.254,-10.254,-41.016,-11.230,0.000,0
38182.132,-23.438,-24.414,-53.711,-31.250,0.000,0
38182.136,-26.367,-22.461,-57.617,-21.973,0.000,0
38182.140,-18.555,-16.602,-46.387,7.812,0.000,0
38182.144,-27.344,-23.926,-33.203,-23.438,0.000,0
38182.147,-42.969,-4.883,-41.016,-44.434,0.000,0
38182.151,-17.578,22.461,-44.922,-32.715,0.000,0
38182.155,0.488,14.160,-37.109,-17.090,0.000,0
38182.159,-7.812,-10.742,-33.691,8.789,0.000,0
38182.163,-11.230,-14.160,-28.809,4.883,0.000,0
38182.167,-3.418,1.465,-34.180,4.395,0.000,0
38182.171,-12.695,-6.836,-37.598,11.719,0.000,0
38182.175,-30.762,-34.668,-32.227,9.766,0.000,0
38182.179,-11.230,-26.855,-30.762,14.648,0.000,0
38182.183,-2.441,-18.555,-27.344,-12.207,0.000,0
38182.187,-18.066,-14.648,-29.297,-11.230,0.000,0
38182.190,-11.719,8.301,-29.297,3.906,0.000,0
38182.194,-3.418,11.719,-28.320,-4.883,0.000,1
38182.198,-10.742,-1.953,-38.086,-9.766,0.000,0
38182.202,-18.555,-18.066,-33.691,-20.020,0.000,0
38182.206,-18.555,-9.766,-32.227,-20.996,0.000,0
38182.210,-21.484,-5.371,-35.645,-2.930,0.000,0
38182.214,-17.090,-3.418,-38.574,-7.324,0.000,0
38182.218,-23.438,-8.301,-36.133,-18.555,0.000,0
38182.222,-29.785,-40.527,-27.344,-20.020,0.000,0
38182.226,-20.020,-14.648,-33.691,-16.602,0.000,0
38182.230,-10.254,0.000,-29.297,-12.695,0.000,0
38182.233,-15.625,-14.648,-30.273,-7.812,0.000,0
38182.237,-25.391,-16.113,-34.668,-2.930,0.000,0
38182.241,-9.277,-34.668,-29.785,-14.648,0.000,0
38182.245,-7.324,-16.602,-26.367,-8.789,0.000,0
38182.249,-21.484,3.418,-20.508,-3.418,0.000,0
38182.253,-7.812,-1.465,-11.719,4.883,0.000,0
38182.257,11.719,18.555,-18.066,7.812,0.000,0
38182.261,5.859,9.277,-18.555,-11.719,0.000,0
38182.265,-18.066,-12.207,-15.625,-21.484,0.000,0
38182.269,-9.277,1.953,-30.762,-10.254,0.000,0
38182.272,-1.465,4.395,-38.574,-5.371,0.000,0
38182.276,-25.879,-1.953,-32.715,-7.812,0.000,0
38182.280,-12.695,-32.227,-18.066,-3.906,0.000,0
38182.284,6.348,-24.414,-21.973,6.348,0.000,0
38182.288,-6.836,-12.695,-38.574,1.953,0.000,0
38182.292,-37.598,-30.762,-49.316,-27.344,0.000,0
38182.296,-55.176,-36.133,-54.199,-28.320,0.000,0
38182.300,-39.551,-51.758,-58.594,-21.484,0.000,0
38182.304,-32.715,-55.176,-64.941,-49.805,0.000,0
38182.308,-52.734,-50.293,-59.570,-50.781,0.000,0
38182.312,-50.293,-61.035,-51.270,-28.320,0.000,0
38182.315,-38.574,-49.805,-66.406,-34.180,0.000,0
38182.319,-41.504,-80.078,-77.148,-62.988,0.000,0
38182.323,-68.848,-90.332,-78.125,-66.895,0.000,0
38182.327,-68.848,-49.805,-85.938,-61.523,0.000,0
38182.331,-35.645,-48.828,-86.426,-62.012,0.000,0
38182.335,-40.527,-54.199,-87.891,-58.594,0.000,0
38182.339,-61.035,-80.566,-76.172,-59.082,0.000,0
38182.343,-63.477,-83.008,-69.336,-57.617,0.000,0
38182.347,-66.895,-42.480,-77.148,-40.527,0.000,0
38182.351,-43.945,-30.762,-76.172,-39.551,0.000,0
38182.355,-36.621,-40.039,-70.801,-37.109,0.000,0
38182.358,-66.895,-58.105,-65.430,-22.949,0.000,0
38182.362,-52.734,-52.734,-70.801,-41.992,0.000,0
38182.366,-36.133,-35.156,-71.777,-64.453,0.000,0
38182.370,-46.387,-42.480,-63.965,-43.457,0.000,0
38182.374,-41.016,-31.738,-66.895,-15.625,0.000,0
38182.378,-26.855,-41.016,-58.105,-16.113,0.000,0
38182.382,-13.672,-46.875,-47.363,-24.902,0.000,0
38182.386,-26.855,-16.602,-43.945,-5.859,0.000,0
38182.390,-33.203,-17.090,-45.898,-13.184,0.000,0
38182.394,-18.066,-16.602,-50.781,-17.090,0.000,0
38182.397,-23.438,-34.180,-46.387,-21.484,0.000,0
38182.401,-29.785,-47.852,-42.969,-37.109,0.000,0
38182.405,-36.133,-27.344,-52.734,-33.691,0.000,0
38182.409,-25.879,-32.715,-56.152,-36.621,0.000,0
38182.413,-14.648,-32.715,-47.852,-4.395,0.000,0
38182.417,-16.602,-24.902,-45.410,8.789,0.000,0
38182.421,-3.906,-25.391,-47.363,-33.691,0.000,0
38182.425,-18.555,-22.949,-56.152,-49.805,0.000,0
38182.429,-39.551,-43.457,-62.012,-24.414,0.000,0
38182.433,-31.250,-50.781,-53.223,-16.602,0.000,0
38182.437,-26.367,-41.504,-48.340,-26.855,0.000,0
38182.440,-20.996,-46.387,-53.711,-26.855,0.000,0
38182.444,-41.504,-41.992,-52.734,-22.949,0.000,0
38182.448,-46.387,-35.645,-59.082,-13.184,0.000,0
38182.452,-26.367,-27.344,-70.312,-24.902,0.000,0
38182.456,-14.160,-33.691,-60.059,-35.156,0.000,0
38182.460,-15.625,-48.340,-58.594,-20.996,0.000,0
38182.464,-38.574,-43.457,-69.824,-28.809,0.000,0
38182.468,-51.758,-48.340,-74.219,-51.270,0.000,0
38182.472,-51.270,-60.547,-71.777,-60.059,0.000,0
38182.476,-51.270,-59.570,-68.848,-48.340,0.000,0
38182.480,-38.086,-58.105,-65.918,-48.828,0.000,0
38182.483,-36.621,-48.828,-61.523,-38.086,0.000,0
38182.487,-51.758,-49.316,-71.289,-29.785,0.000,0
38182.491,-44.434,-79.102,-73.242,-29.785,0.000,0
38182.495,-19.531,-51.758,-75.684,-27.344,0.000,0
38182.499,-22.949,-27.832,-69.824,-36.621,0.000,0
38182.503,-25.391,-44.922,-61.523,-27.344,0.000,0
38182.507,-41.016,-46.875,-69.824,-28.809,0.000,0
38182.511,-58.594,-54.199,-72.266,-31.738,0.000,0
38182.515,-46.875,-61.035,-75.195,-43.457,0.000,0
38182.519,-57.129,-71.777,-72.754,-53.711,0.000,0
38182.522,-55.176,-66.895,-73.730,-44.922,0.000,0
38182.526,-63.965,-66.406,-80.566,-43.945,0.000,0
38182.530,-72.754,-67.871,-77.637,-57.617,0.000,0
38182.534,-80.566,-66.895,-79.590,-65.430,0.000,0
38182.538,-77.148,-64.453,-88.867,-82.520,0.000,0
38182.542,-59.082,-49.316,-98.145,-62.500,0.000,0
38182.546,-64.941,-61.035,-91.797,-49.316,0.000,0
38182.550,-74.707,-85.938,-76.172,-66.406,0.000,0
38182.554,-62.500,-80.078,-77.148,-64.941,0.000,0
38182.558,-52.734,-83.496,-75.684,-45.410,0.000,0
38182.562,-70.312,-76.172,-75.195,-31.250,0.000,0
38182.565,-60.547,-66.895,-86.914,-58.594,0.000,0
38182.569,-64.941,-70.312,-88.379,-62.988,0.000,0
38182.573,-61.523,-66.895,-78.613,-52.734,0.000,0
38182.577,-62.988,-88.379,-72.754,-74.219,0.000,0
38182.581,-74.219,-83.008,-78.613,-76.660,0.000,0
38182.585,-53.711,-54.688,-83.984,-64.453,0.000,0
38182.589,-60.547,-37.598,-91.309,-51.270,0.000,0
38182.593,-56.152,-77.637,-75.195,-51.270,0.000,0
38182.597,-37.109,-109.863,-56.152,-44.922,0.000,0
38182.601,-58.594,-62.500,-73.730,-35.156,0.000,0
38182.605,-68.359,-48.828,-74.707,-59.082,0.000,0
38182.608,-53.711,-56.641,-67.383,-63.477,0.000,0
38182.612,-40.039,-49.316,-65.430,-43.457,0.000,0
38182.616,-35.645,-73.242,-62.500,-44.922,0.000,0
38182.620,-37.598,-74.707,-57.129,-49.805,0.000,0
38182.624,-12.695,-45.410,-56.152,-29.785,0.000,0
38182.628,-18.555,-51.270,-55.176,-29.785,0.000,0
38182.632,-49.805,-49.805,-56.641,-43.457,0.000,0
38182.636,-45.898,-69.824,-57.129,-46.387,0.000,0
38182.640,-40.527,-86.426,-51.758,-42.480,0.000,0
38182.644,-42.969,-65.430,-59.570,-38.086,0.000,0
38182.647,-39.062,-61.035,-65.430,-56.641,0.000,0
38182.651,-41.016,-71.289,-68.359,-55.176,0.000,0
38182.655,-52.734,-100.586,-72.266,-56.152,0.000,0
38182.659,-57.129,-100.586,-77.148,-62.500,0.000,0
38182.663,-69.336,-74.219,-88.867,-61.035,0.000,0
38182.667,-78.125,-83.008,-83.984,-64.453,0.000,0
38182.671,-76.172,-83.008,-81.543,-61.035,0.000,0
38182.675,-62.500,-84.961,-82.520,-62.988,0.000,0
38182.679,-60.059,-87.402,-86.914,-56.152,0.000,0
38182.683,-70.801,-86.914,-86.426,-56.641,0.000,0
38182.687,-66.406,-87.891,-79.102,-63.965,0.000,0
38182.690,-64.941,-63.477,-85.938,-53.223,0.000,0
38182.694,-55.664,-84.473,-82.520,-57.617,0.000,0
38182.698,-35.156,-91.309,-71.289,-56.152,0.000,0
38182.702,-39.062,-33.691,-81.543,-37.598,0.000,0
38182.706,-47.852,-38.574,-83.496,-32.715,0.000,0
38182.710,-21.484,-38.086,-67.383,-35.645,0.000,0
38182.714,-29.297,-57.129,-52.246,-36.133,0.000,0
38182.718,-51.270,-77.637,-48.340,-27.832,0.000,0
38182.722,-43.457,-45.410,-60.547,-22.461,0.000,0
38182.726,-36.621,-39.551,-70.312,-43.457,0.000,0
38182.730,-33.203,-50.781,-66.895,-33.691,0.000,0
38182.733,-32.227,-61.523,-62.012,-37.598,0.000,0
38182.737,-38.574,-58.594,-57.617,-36.621,0.000,0
38182.741,-32.227,-46.875,-58.105,-20.508,0.000,0
38182.745,-27.344,-53.711,-65.430,-43.945,0.000,0
38182.749,-34.180,-56.641,-70.801,-53.223,0.000,0
38182.753,-50.293,-64.453,-70.312,-62.988,0.000,0
38182.757,-55.176,-81.055,-68.848,-60.547,0.000,0
38182.761,-52.246,-67.871,-76.172,-56.152,0.000,0
38182.765,-36.133,-62.500,-82.031,-44.434,0.000,2
38182.769,-39.062,-60.059,-82.031,-38.086,0.000,0
38182.772,-59.082,-73.242,-78.613,-58.105,0.000,0
38182.776,-58.105,-89.844,-72.754,-57.129,0.000,0
38182.780,-55.664,-62.988,-81.543,-40.527,0.000,0
38182.784,-50.293,-63.965,-83.008,-46.875,0.000,0
38182.788,-44.434,-66.895,-72.266,-36.133,0.000,0
38182.792,-29.297,-60.059,-63.965,-20.020,0.000,0
38182.796,-26.367,-57.129,-63.965,-27.344,0.000,0
38182.800,-40.527,-64.941,-61.035,-35.645,0.000,0
38182.804,-34.180,-67.871,-59.082,-30.273,0.000,0
38182.808,-36.133,-39.551,-66.895,-30.762,0.000,0
38182.812,-59.082,-54.688,-73.730,-50.293,0.000,0
38182.815,-55.176,-72.754,-75.195,-40.527,0.000,0
38182.819,-38.574,-68.359,-73.242,-45.898,0.000,0
38182.823,-35.645,-66.406,-76.660,-52.734,0.000,0
38182.827,-48.340,-60.059,-76.172,-45.410,0.000,0
38182.831,-30.273,-56.641,-65.430,-24.902,0.000,0
38182.835,-31.738,-63.477,-57.129,-34.668,0.000,0
38182.839,-40.527,-46.387,-63.965,-48.340,0.000,0
38182.843,-37.109,-34.180,-78.613,-41.504,0.000,0
38182.847,-41.992,-53.711,-71.289,-33.691,0.000,0
38182.851,-35.645,-72.754,-62.988,-29.785,0.000,0
38182.855,-33.691,-74.707,-68.848,-41.504,0.000,0
38182.858,-48.828,-66.895,-77.637,-52.734,0.000,0
38182.862,-51.758,-69.336,-80.078,-47.852,0.000,0
38182.866,-41.504,-70.312,-71.777,-28.320,0.000,0
38182.870,-39.062,-55.664,-74.219,-30.762,0.000,0
38182.874,-30.762,-58.105,-67.871,-49.805,0.000,0
38182.878,-27.832,-59.570,-63.477,-39.551,0.000,0
38182.882,-38.086,-56.152,-67.871,-14.160,0.000,0
38182.886,-43.457,-65.430,-68.848,-36.621,0.000,0
38182.890,-32.227,-68.848,-64.453,-39.062,0.000,0
38182.894,-39.551,-79.102,-58.594,-44.434,0.000,0
38182.897,-39.551,-67.871,-67.871,-43.457,0.000,0
38182.901,-28.809,-78.613,-66.406,-43.457,0.000,0
38182.905,-44.922,-86.426,-64.453,-46.875,0.000,0
38182.909,-46.387,-60.059,-68.848,-20.996,0.000,0
38182.913,-42.969,-79.102,-58.594,-22.949,0.000,0
38182.917,-33.203,-61.035,-64.453,-42.969,0.000,0
38182.921,-32.227,-33.691,-71.289,-36.133,0.000,0
38182.925,-40.527,-47.852,-68.848,-27.344,0.000,0
38182.929,-37.109,-53.223,-70.312,-41.992,0.000,0
38182.933,-28.320,-67.871,-63.965,-46.875,0.000,0
38182.937,-50.293,-69.336,-62.500,-43.945,0.000,0
38182.940,-64.453,-55.176,-69.336,-26.855,0.000,0
38182.944,-40.039,-49.316,-66.895,-26.367,0.000,0
38182.948,-26.367,-38.086,-64.941,-40.527,0.000,0
38182.952,-29.785,-65.918,-55.176,-39.551,0.000,0
38182.956,-34.668,-63.477,-53.223,-27.344,0.000,0
38182.960,-37.598,-18.555,-66.895,-30.762,0.000,0
38182.964,-35.156,-12.207,-70.801,-31.250,0.000,0
38182.968,-23.926,-34.180,-58.594,-14.648,0.000,0
38182.972,-17.090,-67.871,-40.039,-5.371,0.000,0
38182.976,-4.395,-55.664,-44.922,-7.812,0.000,0
38182.980,-15.137,-15.625,-59.082,-3.906,0.000,0
38182.983,-37.109,-30.273,-59.570,-20.020,0.000,0
38182.987,-30.762,-43.457,-54.688,-24.414,0.000,0
38182.991,-33.203,-62.500,-52.246,-28.320,0.000,0
38182.995,-29.297,-65.918,-53.711,-38.086,0.000,0
38182.999,-27.832,-43.945,-64.941,-25.879,0.000,0
38183.003,-34.668,-59.570,-69.824,-19.043,0.000,0
38183.007,-38.574,-56.641,-73.730,-23.438,0.000,0
38183.011,-41.016,-54.199,-78.613,-46.387,0.000,0
38183.015,-45.898,-73.242,-71.777,-49.316,0.000,0
38183.019,-38.086,-53.711,-66.895,-25.879,0.000,0
38183.022,-31.250,-47.363,-74.219,-30.273,0.000,0
38183.026,-46.387,-54.688,-73.242,-41.504,0.000,0
38183.030,-49.805,-70.312,-64.941,-37.109,0.000,0
38183.034,-36.133,-71.777,-62.012,-41.504,0.000,0
38183.038,-31.250,-32.715,-69.336,-41.504,0.000,0
38183.042,-38.086,-41.992,-73.242,-37.598,0.000,0
38183.046,-45.898,-63.477,-65.430,-20.020,0.000,0
38183.050,-49.316,-54.199,-63.965,-6.348,0.000,0
38183.054,-47.852,-52.246,-64.941,-32.715,0.000,0
38183.058,-52.246,-56.152,-64.453,-37.598,0.000,0
38183.062,-37.109,-59.570,-58.105,-27.344,0.000,0
38183.065,-24.902,-44.922,-59.082,-24.902,0.000,0
38183.069,-40.039,-53.711,-58.594,-32.715,0.000,0
38183.073,-42.969,-62.500,-53.711,-41.016,0.000,0
38183.077,-33.691,-35.645,-57.129,-35.645,0.000,0
38183.081,-20.508,-36.621,-56.152,-26.855,0.000,0
38183.085,-29.785,-35.645,-52.734,-7.812,0.000,0
38183.089,-39.062,-42.969,-48.828,-21.973,0.000,0
38183.093,-29.785,-61.035,-49.316,-35.156,0.000,0
38183.097,-39.062,-50.781,-59.082,-18.555,0.000,0
38183.101,-37.109,-41.016,-65.430,-16.602,0.000,0
38183.105,-31.738,-42.480,-59.570,-18.555,0.000,0
38183.108,-40.527,-57.617,-56.641,-17.578,0.000,0
38183.112,-40.527,-38.574,-72.266,-30.273,0.000,0
38183.116,-32.227,-21.484,-72.266,-41.016,0.000,0
38183.120,-47.363,-51.270,-63.965,-40.039,0.000,0
38183.124,-48.828,-56.152,-73.242,-47.363,0.000,0
38183.128,-40.039,-51.758,-82.031,-53.711,0.000,0
38183.132,-45.410,-65.918,-83.496,-56.641,0.000,0
38183.136,-42.969,-61.035,-83.984,-44.434,0.000,0
38183.140,-40.039,-60.547,-88.379,-41.504,0.000,0
38183.144,-37.598,-66.895,-97.656,-43.457,0.000,0
38183.147,-39.062,-70.312,-98.633,-32.715,0.000,0
38183.151,-59.570,-78.125,-94.238,-59.570,0.000,0
38183.155,-49.805,-60.059,-102.051,-81.055,0.000,0
38183.159,-40.527,-50.781,-111.328,-71.777,0.000,0
38183.163,-72.754,-73.730,-109.863,-65.430,0.000,0
38183.167,-87.402,-86.426,-102.051,-60.059,0.000,0
38183.171,-75.195,-82.031,-97.168,-63.965,0.000,0
38183.175,-62.500,-73.242,-104.004,-79.590,0.000,0
38183.179,-81.055,-71.289,-106.934,-80.078,0.000,0
38183.183,-93.262,-65.918,-104.980,-84.473,0.000,0
38183.187,-67.871,-63.477,-104.980,-74.707,0.000,0
38183.190,-71.289,-78.613,-104.980,-80.078,0.000,0
38183.194,-73.730,-75.195,-106.934,-79.102,0.000,0
38183.198,-59.570,-65.430,-102.051,-41.992,0.000,0
38183.202,-58.105,-60.547,-97.168,-45.410,0.000,0
38183.206,-52.246,-66.895,-90.820,-62.012,0.000,0
38183.210,-72.266,-103.027,-74.219,-51.758,0.000,0
38183.214,-72.266,-73.242,-81.055,-45.898,0.000,0
38183.218,-56.152,-31.250,-91.309,-53.711,0.000,0
38183.222,-59.570,-45.898,-92.773,-49.316,0.000,0
38183.226,-68.359,-62.988,-95.703,-42.969,0.000,0
38183.230,-75.684,-73.730,-91.309,-54.199,0.000,0
38183.233,-65.918,-68.848,-94.727,-47.852,0.000,0
38183.237,-74.707,-68.359,-95.703,-36.621,0.000,0
38183.241,-65.430,-70.312,-84.961,-33.203,0.000,0
38183.245,-46.875,-58.594,-88.379,-30.762,0.000,0
38183.249,-40.527,-71.777,-84.473,-34.668,0.000,0
38183.253,-42.480,-62.988,-73.242,-45.410,0.000,0
38183.257,-44.922,-53.223,-70.801,-50.781,0.000,0
38183.261,-40.527,-46.875,-74.707,-38.086,0.000,0
38183.265,-35.645,-32.715,-82.520,-32.227,0.000,0
38183.269,-35.645,-69.336,-68.848,-39.062,0.000,0
38183.272,-34.668,-76.172,-59.570,-29.785,0.000,0
38183.276,-17.578,-30.762,-66.406,-16.602,0.000,0
38183.280,-27.344,-36.133,-66.895,-23.438,0.000,0
38183.284,-45.898,-57.617,-59.082,-24.902,0.000,0
38183.288,-40.527,-63.477,-54.199,-24.414,0.000,0
38183.292,-41.504,-51.758,-57.617,-39.551,0.000,0
38183.296,-34.180,-35.156,-60.059,-23.926,0.000,2
38183.300,-16.602,-59.082,-57.129,-17.090,0.000,0
38183.304,-26.855,-52.734,-57.129,-25.391,0.000,0
38183.308,-41.016,-62.500,-52.734,-23.926,0.000,0
38183.312,-49.805,-88.867,-46.387,-57.129,0.000,0
38183.315,-37.109,-58.105,-53.711,-59.570,0.000,0
38183.319,-35.645,-21.973,-65.430,-53.223,0.000,0
38183.323,-48.828,-23.438,-61.523,-46.875,0.000,0
38183.327,-35.156,-39.062,-49.316,-23.438,0.000,0
38183.331,-28.809,-42.480,-44.434,-26.855,0.000,0
38183.335,-42.480,-31.250,-56.641,-25.879,0.000,0
38183.339,-50.293,-28.320,-64.453,-18.555,0.000,0
38183.343,-48.828,-43.457,-53.711,-30.762,0.000,0
38183.347,-40.039,-61.035,-42.480,-42.969,0.000,0
38183.351,-26.855,-29.297,-48.828,-33.691,0.000,0
38183.355,-26.855,-26.855,-47.852,-20.020,0.000,0
38183.358,-31.250,-42.480,-35.156,-11.230,0.000,0
38183.362,-22.949,-29.297,-47.852,-20.508,0.000,0
38183.366,-26.367,-48.828,-56.641,-37.109,0.000,0
38183.370,-31.738,-36.133,-51.758,-21.484,0.000,0
38183.374,-31.738,-18.555,-53.223,-9.766,0.000,0
38183.378,-41.992,-21.973,-54.688,-20.508,0.000,0
38183.382,-34.668,-5.859,-56.152,-35.156,0.000,0
38183.386,-26.367,-47.852,-46.387,-35.156,0.000,0
38183.390,-23.926,-39.551,-46.387,-19.531,0.000,0
38183.394,-17.090,16.113,-57.617,-14.160,0.000,0
38183.397,-17.090,7.812,-56.152,-14.648,0.000,0
38183.401,-24.902,-28.809,-51.758,-17.090,0.000,0
38183.405,-31.738,-62.012,-52.734,-41.504,0.000,0
38183.409,-49.316,-42.969,-60.059,-46.875,0.000,0
38183.413,-58.594,-44.922,-62.988,-30.762,0.000,0
38183.417,-41.016,-47.363,-63.477,-20.020,0.000,0
38183.421,-41.504,-34.180,-69.336,-31.250,0.000,0
38183.425,-41.992,-42.969,-65.918,-43.457,0.000,0
38183.429,-34.180,-37.598,-61.523,-33.691,0.000,0
38183.433,-44.922,-39.551,-62.988,-35.156,0.000,0
38183.437,-58.594,-45.410,-76.172,-42.969,0.000,0
38183.440,-37.109,-40.039,-80.566,-34.668,0.000,0
38183.444,-38.574,-46.387,-71.289,-46.387,0.000,0
38183.448,-52.734,-40.039,-67.383,-35.645,0.000,0
38183.452,-36.133,-19.043,-70.312,-24.902,0.000,0
38183.456,-39.551,-21.484,-67.871,-23.438,0.000,0
38183.460,-31.738,-44.922,-59.082,-2.441,0.000,0
38183.464,-18.555,-68.359,-52.246,-23.438,0.000,0
38183.468,-30.762,-55.176,-52.246,-48.828,0.000,0
38183.472,-26.367,-38.574,-56.152,-20.508,0.000,0
38183.476,-33.203,-37.598,-58.105,-18.555,0.000,0
38183.480,-50.293,-37.598,-57.617,-28.809,0.000,0
38183.483,-41.504,-36.621,-61.523,-34.668,0.000,0
38183.487,-27.832,-33.203,-57.617,-28.320,0.000,0
38183.491,-8.301,-32.715,-50.781,-9.766,0.000,0
38183.495,-13.184,-39.062,-50.781,-30.762,0.000,0
38183.499,-42.480,-42.969,-59.082,-32.715,0.000,0
38183.503,-40.527,-33.691,-57.129,-14.160,0.000,0
38183.507,-18.066,-20.508,-48.340,-20.020,0.000,0
38183.511,-22.949,-4.883,-56.152,-33.691,0.000,0
38183.515,-36.621,-22.949,-59.082,-29.297,0.000,0
38183.519,-34.180,-47.363,-50.781,-17.090,0.000,0
38183.522,-33.691,-44.922,-46.387,-28.809,0.000,0
38183.526,-26.855,-43.457,-50.781,-42.969,0.000,0
38183.530,-26.855,-37.109,-59.570,-24.902,0.000,0
38183.534,-43.457,-47.852,-59.082,-37.598,0.000,0
38183.538,-50.293,-57.129,-62.988,-45.410,0.000,0
38183.542,-35.156,-61.523,-58.594,-28.320,0.000,0
38183.546,-21.973,-63.965,-53.223,-30.273,0.000,0
38183.550,-25.391,-56.152,-59.082,-28.320,0.000,0
38183.554,-49.316,-51.758,-55.664,-22.949,0.000,0
38183.558,-44.922,-50.293,-53.711,-21.973,0.000,0
38183.562,-25.879,-53.711,-52.246,-25.391,0.000,0
38183.565,-17.090,-62.012,-50.781,-44.434,0.000,0
38183.569,-31.738,-48.340,-55.176,-33.691,0.000,0
38183.573,-34.668,-40.039,-54.688,-14.160,0.000,0
38183.577,-20.996,-31.250,-64.941,-19.043,0.000,0
38183.581,-28.320,-57.617,-62.012,-26.367,0.000,0
38183.585,-32.227,-78.613,-50.781,-24.902,0.000,0
38183.589,-29.785,-53.711,-62.012,-14.160,0.000,0
38183.593,-15.625,-47.852,-57.617,-9.277,0.000,0
