timestamps,TP9,AF7,AF8,TP10,Right AUX,Marker0
160502.721,-30.273,-36.133,-5.859,-32.715,0.000,0
160502.724,-42.480,-31.738,-5.859,-40.039,0.000,0
160502.728,-23.926,-38.574,-18.066,-13.672,0.000,0
160502.732,-13.672,-36.133,-16.602,-4.395,0.000,0
160502.736,-25.391,-34.668,-20.996,-5.859,0.000,0
160502.740,-27.832,-38.086,-5.859,4.883,0.000,0
160502.744,-28.809,-32.715,3.906,25.391,0.000,0
160502.748,-19.531,-37.109,-21.484,7.324,0.000,0
160502.752,-6.348,-38.086,-31.250,-15.137,0.000,0
160502.756,-20.020,-36.621,-25.879,-19.531,0.000,0
160502.760,-24.902,-39.551,-22.461,-21.973,0.000,0
160502.763,-14.160,-40.039,-29.785,-21.973,0.000,0
160502.767,-14.160,-35.156,-32.227,-16.113,0.000,0
160502.771,-22.461,-33.203,-28.809,-5.859,0.000,0
160502.775,-20.020,-39.551,-30.273,15.625,0.000,0
160502.779,-27.344,-41.504,-23.438,-18.066,0.000,0
160502.783,-30.273,-41.504,-26.367,-44.922,0.000,0
160502.787,-12.695,-42.969,-29.785,-12.207,0.000,0
160502.791,-14.648,-50.293,-30.273,-20.020,0.000,0
160502.795,-20.020,-52.734,-46.387,-18.066,0.000,0
160502.799,-10.742,-41.992,-32.227,-23.926,0.000,0
160502.803,-17.090,-35.156,-18.066,-20.996,0.000,0
160502.806,-23.438,-32.227,-32.227,-7.812,0.000,0
160502.810,-19.043,-33.203,-39.062,-18.555,0.000,0
160502.814,-22.461,-30.762,-39.062,-14.648,0.000,0
160502.818,-16.602,-28.809,-22.949,-25.391,0.000,0
160502.822,-6.348,-34.180,-22.461,-38.574,0.000,0
160502.826,-18.555,-36.621,-39.062,-33.203,0.000,0
160502.830,-24.414,-32.227,-33.691,-24.902,0.000,0
160502.834,-24.414,-28.320,-23.438,-17.578,0.000,0
160502.838,-33.203,-27.344,-21.973,-26.855,0.000,0
160502.842,-25.879,-30.273,-13.672,-33.203,0.000,0
160502.846,-13.672,-30.273,-22.461,-20.508,0.000,0
160502.849,-24.902,-30.762,-26.855,-23.438,0.000,0
160502.853,-23.438,-29.785,-24.414,-19.531,0.000,0
160502.857,-16.113,-29.297,-21.973,-14.648,0.000,0
160502.861,-6.836,-32.227,-20.508,-6.348,0.000,0
160502.865,5.859,-26.855,-24.414,0.977,0.000,0
160502.869,-32.227,-26.855,-30.273,-47.363,0.000,0
160502.873,-51.758,-35.156,-40.039,-62.012,0.000,0
160502.877,-25.879,-37.109,-33.691,-29.297,0.000,0
160502.881,-37.109,-37.109,-29.785,-38.086,0.000,0
160502.885,-51.758,-39.062,-41.992,-48.340,0.000,0
160502.888,-44.434,-47.852,-47.852,-36.133,0.000,0
160502.892,-37.109,-41.504,-23.438,-23.926,0.000,0
160502.896,-23.926,-40.039,-23.926,-28.809,0.000,0
160502.900,-26.855,-42.969,-30.273,-17.090,0.000,0
160502.904,-29.785,-43.457,-26.855,-25.391,0.000,0
160502.908,-28.320,-37.109,-39.062,-26.855,0.000,0
160502.912,-30.273,-30.762,-38.086,-21.973,0.000,0
160502.916,-32.715,-31.738,-25.391,-23.438,0.000,0
160502.920,-30.762,-23.438,-23.438,-22.949,0.000,0
160502.924,-34.668,-27.344,-33.691,-28.320,0.000,0
160502.928,-30.762,-35.156,-36.133,-23.438,0.000,0
160502.931,-24.902,-27.832,-41.016,-21.973,0.000,0
160502.935,-31.250,-20.508,-20.020,-38.574,0.000,0
160502.939,-33.691,-20.508,-7.812,-50.293,0.000,0
160502.943,-27.344,-28.320,-35.645,-31.250,0.000,0
160502.947,-27.344,-27.832,-40.527,-15.625,0.000,0
160502.951,-30.273,-25.879,-23.438,-17.578,0.000,0
160502.955,-40.527,-29.785,-16.602,-27.344,0.000,0
160502.959,-40.527,-31.250,-22.949,-31.250,0.000,0
160502.963,-35.645,-30.273,-36.133,-24.414,0.000,0
160502.967,-30.762,-23.926,-29.297,-28.809,0.000,0
160502.971,-17.578,-16.113,-25.391,2.441,0.000,0
160502.974,-24.414,-21.973,-31.250,-7.812,0.000,0
160502.978,-32.227,-29.297,-29.785,-39.551,0.000,0
160502.982,-38.086,-19.043,-24.414,-12.207,0.000,0
160502.986,-31.250,-24.902,-31.738,-16.113,0.000,0
160502.990,-23.438,-33.203,-39.062,-28.320,0.000,0
160502.994,-26.855,-31.738,-32.227,-28.320,0.000,0
160502.998,-15.137,-26.855,-26.855,-39.062,0.000,0
160503.002,-11.230,-22.461,-25.879,-43.945,0.000,0
160503.006,-26.855,-25.391,-23.438,-39.062,0.000,0
160503.010,-22.461,-27.832,-41.992,-11.719,0.000,0
160503.013,-24.414,-25.391,-34.668,-23.438,0.000,0
160503.017,-31.738,-21.484,-22.949,-35.156,0.000,0
160503.021,-13.184,-22.949,-31.738,-17.090,0.000,0
160503.025,-11.719,-27.344,-34.180,-18.555,0.000,0
160503.029,-33.203,-25.879,-32.227,-25.879,0.000,0
160503.033,-22.949,-25.391,-30.273,-15.137,0.000,0
160503.037,-19.043,-28.320,-23.438,-12.695,0.000,0
160503.041,-20.996,-22.461,-14.648,-20.996,0.000,0
160503.045,-14.648,-16.113,-22.461,-22.461,0.000,0
160503.049,-14.160,-16.113,-37.109,-14.160,0.000,0
160503.053,-14.160,-18.066,-29.785,-21.484,0.000,0
160503.056,-20.020,-20.508,-16.602,-24.902,0.000,0
160503.060,-22.461,-22.461,-34.668,-21.484,0.000,0
160503.064,-20.996,-24.902,-41.504,-40.039,0.000,0
160503.068,-26.855,-21.484,-28.809,-33.203,0.000,0
160503.072,-32.715,-21.973,-20.020,-31.250,0.000,0
160503.076,-26.367,-22.461,-24.414,-43.457,0.000,0
160503.080,-25.879,-18.555,-38.574,-36.133,0.000,0
160503.084,-20.508,-20.996,-40.039,-20.020,0.000,0
160503.088,-20.996,-21.973,-30.762,-17.090,0.000,0
160503.092,-23.926,-23.438,-24.902,-24.902,0.000,0
160503.096,-25.879,-24.902,-28.809,-38.574,0.000,0
160503.099,-24.414,-20.996,-37.598,-34.668,0.000,0
160503.103,-28.320,-18.555,-29.785,-31.738,0.000,0
160503.107,-32.715,-22.461,-21.484,-43.457,0.000,0
160503.111,-20.996,-23.926,-34.668,-26.367,0.000,0
160503.115,-15.625,-23.438,-18.066,-31.738,0.000,0
160503.119,-24.902,-19.043,-14.160,-39.551,0.000,0
160503.123,-25.391,-16.602,-31.250,-20.020,0.000,0
160503.127,-24.902,-22.461,-35.156,-16.113,0.000,0
160503.131,-36.621,-18.066,-24.414,-29.297,0.000,0
160503.135,-31.250,-16.602,-14.160,-42.969,0.000,0
160503.138,-19.043,-19.043,-31.250,-28.320,0.000,0
160503.142,-19.043,-17.090,-36.133,-26.367,0.000,0
160503.146,-22.949,-14.160,-26.855,-19.043,0.000,0
160503.150,-22.949,-12.695,-26.855,-4.883,0.000,0
160503.154,-20.996,-15.625,-21.973,-38.086,0.000,0
160503.158,-18.555,-20.508,-24.414,-42.969,0.000,0
160503.162,-27.832,-25.391,-34.668,-17.578,0.000,0
160503.166,-29.297,-24.902,-46.387,-3.418,0.000,0
160503.170,-21.484,-27.344,-46.387,-22.461,0.000,0
160503.174,-31.250,-23.926,-22.461,-54.199,0.000,0
160503.178,-31.738,-20.996,-11.719,-45.410,0.000,0
160503.181,-30.762,-22.949,-27.344,-35.156,0.000,0
160503.185,-27.344,-24.414,-35.156,-25.879,0.000,0
160503.189,-28.320,-28.320,-30.273,-12.695,0.000,0
160503.193,-31.738,-27.344,-20.996,-25.879,0.000,0
160503.197,-32.715,-22.949,-31.738,-28.320,0.000,0
160503.201,-28.320,-25.391,-42.969,-21.973,0.000,0
160503.205,-26.367,-22.461,-30.762,-23.438,0.000,0
160503.209,-25.879,-21.484,-12.207,-24.902,0.000,0
160503.213,-25.391,-27.344,-22.461,-14.648,0.000,0
160503.217,-20.020,-26.367,-36.133,-20.508,0.000,0
160503.221,-20.020,-28.320,-19.531,-29.297,0.000,0
160503.224,-24.414,-28.320,-31.250,-10.742,0.000,0
160503.228,-18.066,-22.949,-37.598,-19.043,0.000,0
160503.232,-24.902,-23.438,-19.043,-29.297,0.000,0
160503.236,-35.645,-24.414,-24.414,-25.391,0.000,0
160503.240,-32.715,-23.438,-35.645,-28.809,0.000,0
160503.244,-31.738,-28.320,-41.992,-30.762,0.000,0
160503.248,-35.156,-27.344,-18.555,-26.855,0.000,0
160503.252,-34.180,-21.484,-3.906,-36.133,0.000,0
160503.256,-28.809,-21.973,-17.090,-32.715,0.000,0
160503.260,-25.879,-22.461,-24.414,-20.508,0.000,0
160503.263,-20.996,-19.531,-19.043,-19.531,0.000,0
160503.267,-10.742,-17.090,-4.395,-7.812,0.000,0
160503.271,-2.441,-19.043,-9.766,-8.301,0.000,0
160503.275,0.488,-20.508,-20.020,-28.809,0.000,0
160503.279,-5.371,-20.020,-19.043,-22.949,0.000,0
160503.283,-3.906,-13.672,-16.602,-2.930,0.000,0
160503.287,-0.488,-12.695,-24.414,-3.906,0.000,0
160503.291,-8.301,-19.043,-24.902,-22.949,0.000,0
160503.295,-30.762,-27.344,-27.344,-37.109,0.000,0
160503.299,-43.457,-30.273,-33.203,-33.691,0.000,0
160503.303,-31.738,-30.273,-36.621,-33.691,0.000,0
160503.306,-36.621,-27.344,-30.273,-34.668,0.000,0
160503.310,-35.645,-17.578,-19.531,-36.621,0.000,0
160503.314,-35.645,-19.043,-31.738,-42.969,0.000,0
160503.318,-31.250,-20.996,-39.551,-40.527,0.000,0
160503.322,-23.438,-17.578,-31.738,-22.949,0.000,0
160503.326,-36.133,-21.484,-25.391,-18.066,0.000,0
160503.330,-31.738,-20.996,-30.273,-29.297,0.000,0
160503.334,-21.484,-22.461,-26.855,-15.625,0.000,0
160503.338,-29.785,-26.367,-24.414,-11.230,0.000,0
160503.342,-36.621,-21.484,-31.738,-17.090,0.000,0
160503.346,-28.320,-21.484,-33.691,-18.066,0.000,0
160503.349,-24.414,-21.484,-18.066,-30.273,0.000,0
160503.353,-31.738,-20.996,-12.695,-42.480,0.000,0
160503.357,-32.227,-22.461,-19.043,-42.480,0.000,0
160503.361,-23.438,-22.461,-37.109,-20.020,0.000,0
160503.365,-20.996,-24.902,-37.598,-17.090,0.000,0
160503.369,-27.344,-22.461,-19.043,-35.645,0.000,0
160503.373,-28.320,-20.996,-21.973,-21.973,0.000,0
160503.377,-12.207,-21.484,-42.480,-1.465,0.000,0
160503.381,-19.531,-26.367,-46.875,-19.531,0.000,0
160503.385,-27.832,-26.367,-30.273,-30.762,0.000,0
160503.388,-14.160,-20.020,-10.742,-23.438,0.000,0
160503.392,-11.230,-22.461,-17.090,-27.344,0.000,0
160503.396,-18.066,-22.949,-23.438,-17.578,0.000,0
160503.400,-14.160,-17.090,-13.672,-5.371,0.000,0
160503.404,-7.324,-18.066,-20.508,-5.371,0.000,0
160503.408,-19.043,-26.367,-24.902,-34.668,0.000,0
160503.412,-34.668,-25.879,-29.297,-40.527,0.000,0
160503.416,-36.621,-26.855,-23.438,-25.391,0.000,0
160503.420,-16.113,-31.738,-27.344,-18.555,0.000,0
160503.424,-10.254,-30.273,-54.199,-8.301,0.000,0
160503.428,-42.480,-23.926,-29.785,-38.086,0.000,0
160503.431,-45.898,-15.137,-16.602,-47.852,0.000,0
160503.435,-32.227,-11.719,-36.133,-25.391,0.000,0
160503.439,-20.508,-3.418,-27.344,-11.230,0.000,0
160503.443,-11.230,2.930,-12.207,-16.113,0.000,0
160503.447,-27.832,-2.441,-4.395,-37.109,0.000,0
160503.451,-23.438,-4.883,-9.277,-30.273,0.000,0
160503.455,-14.648,-5.371,-26.367,-19.043,0.000,0
160503.459,-24.414,-6.836,-15.625,-24.414,0.000,0
160503.463,-12.207,-7.812,-10.742,-15.137,0.000,0
160503.467,10.254,-5.371,-10.254,-26.367,0.000,0
160503.471,4.883,-7.812,-1.953,-30.273,0.000,0
160503.474,-11.230,-11.719,-10.254,-20.508,0.000,0
160503.478,-19.043,-14.648,-22.949,-14.160,0.000,0
160503.482,-22.949,-13.672,-21.973,-9.766,0.000,0
160503.486,-29.297,-10.742,-8.301,-13.184,0.000,0
160503.490,-25.879,-17.090,-11.230,-28.320,0.000,0
160503.494,-15.625,-17.090,-21.973,-26.367,0.000,0
160503.498,-20.508,-19.043,-23.926,-20.996,0.000,0
160503.502,-19.531,-23.926,-37.109,-20.508,0.000,0
160503.506,-25.391,-24.902,-23.926,-15.137,0.000,0
160503.510,-35.645,-23.926,-18.555,-36.621,0.000,0
160503.513,-40.039,-22.461,-40.527,-32.715,0.000,0
160503.517,-29.785,-27.832,-22.461,-12.695,0.000,0
160503.521,-20.020,-26.855,-20.996,-25.879,0.000,0
160503.525,-30.273,-29.785,-42.969,-36.621,0.000,0
160503.529,-30.273,-33.691,-37.598,-44.434,0.000,0
160503.533,-23.926,-25.879,-25.391,-28.809,0.000,0
160503.537,-19.043,-25.879,-18.066,-21.484,0.000,0
160503.541,-21.973,-23.926,-40.039,-23.926,0.000,0
160503.545,-32.715,-19.531,-38.574,-27.832,0.000,0
160503.549,-43.457,-25.391,-14.648,-42.480,0.000,0
160503.553,-39.551,-26.855,-20.996,-38.574,0.000,0
160503.556,-23.438,-27.832,-33.691,-20.996,0.000,0
160503.560,-30.762,-25.879,-39.062,-25.879,0.000,0
160503.564,-42.969,-27.832,-27.344,-42.480,0.000,0
160503.568,-30.273,-28.320,-17.090,-32.715,0.000,0
160503.572,-31.738,-28.809,-31.738,-30.273,0.000,0
160503.576,-43.945,-31.738,-37.598,-36.621,0.000,0
160503.580,-31.738,-32.227,-39.551,-31.250,0.000,0
160503.584,-24.902,-32.715,-32.227,-37.598,0.000,0
160503.588,-26.855,-31.738,-36.133,-26.367,0.000,0
160503.592,-26.855,-28.320,-31.738,-14.648,0.000,0
160503.596,-21.973,-28.809,-15.625,-36.133,0.000,0
160503.599,-14.648,-30.273,-22.949,-31.250,0.000,0
160503.603,-18.066,-22.949,-19.043,-29.297,0.000,0
160503.607,-30.273,-17.090,-10.254,-34.668,0.000,0
160503.611,-27.832,-15.137,-25.879,-21.484,0.000,0
160503.615,-10.742,-19.043,-36.133,-24.902,0.000,0
160503.619,-10.254,-19.531,-20.020,-39.062,0.000,0
160503.623,-22.949,-24.902,-19.531,-33.203,0.000,0
160503.627,-22.949,-21.973,-36.133,-26.855,0.000,0
160503.631,-25.391,-15.137,-25.391,-33.203,0.000,0
160503.635,-36.621,-20.020,-18.555,-21.973,0.000,0
160503.638,-23.926,-22.949,-20.508,-11.719,0.000,0
160503.642,-19.043,-25.391,-33.203,-34.180,0.000,0
160503.646,-33.203,-22.949,-36.621,-51.758,0.000,0
160503.650,-39.062,-19.531,-32.715,-38.574,0.000,0
160503.654,-33.691,-26.367,-36.133,-24.414,0.000,0
160503.658,-34.180,-30.273,-42.480,-16.113,0.000,0
160503.662,-43.945,-25.879,-30.762,-24.414,0.000,0
160503.666,-45.898,-21.484,-22.461,-31.738,0.000,0
160503.670,-32.227,-25.391,-40.527,-36.133,0.000,0
160503.674,-28.320,-25.391,-40.039,-32.227,0.000,0
160503.678,-22.949,-22.949,-28.809,-6.836,0.000,0
160503.681,-17.090,-28.809,-15.137,-0.488,0.000,0
160503.685,-28.809,-27.344,-9.277,-35.645,0.000,0
160503.689,-34.180,-24.902,-30.762,-36.621,0.000,0
160503.693,-37.109,-24.902,-30.762,-19.043,0.000,0
160503.697,-40.039,-20.996,-20.996,-18.066,0.000,0
160503.701,-32.715,-26.367,-25.391,-6.836,0.000,0
160503.705,-33.203,-30.273,-25.879,-19.531,0.000,0
160503.709,-29.785,-29.297,-25.391,-42.969,0.000,0
160503.713,-17.578,-31.250,-19.531,-31.738,0.000,0
160503.717,-32.715,-31.738,-26.367,-20.508,0.000,0
160503.721,-43.945,-25.879,-24.414,-37.109,0.000,0
160503.724,-42.480,-19.043,-24.414,-26.367,0.000,0
160503.728,-39.551,-26.367,-42.969,-20.508,0.000,0
160503.732,-29.297,-30.762,-45.410,-30.273,0.000,0
160503.736,-28.320,-24.414,-46.875,-35.645,0.000,0
160503.740,-44.434,-30.273,-38.086,-56.641,0.000,0
160503.744,-42.480,-31.250,-29.785,-49.316,0.000,0
160503.748,-37.109,-28.809,-29.297,-29.297,0.000,0
160503.752,-38.574,-31.250,-33.203,-19.043,0.000,0
160503.756,-28.809,-29.297,-41.016,-22.949,0.000,0
160503.760,-22.949,-23.926,-29.297,-35.156,0.000,0
160503.763,-19.531,-21.484,-27.344,-36.621,0.000,0
160503.767,-19.043,-26.855,-33.203,-26.367,0.000,0
160503.771,-22.949,-22.949,-27.344,-25.879,0.000,0
160503.775,-33.203,-19.531,-44.434,-43.457,0.000,0
160503.779,-32.715,-30.273,-42.480,-40.039,0.000,0
160503.783,-40.039,-28.809,-23.926,-32.227,0.000,0
160503.787,-39.551,-17.578,-27.832,-21.973,0.000,0
160503.791,-14.648,-18.066,-35.156,-14.160,0.000,0
160503.795,-12.695,-22.461,-41.992,-17.090,0.000,0
160503.799,-30.762,-21.973,-23.926,-31.738,0.000,0
160503.803,-32.715,-23.438,-21.484,-49.805,0.000,0
160503.806,-22.461,-25.879,-47.852,-44.434,0.000,0
160503.810,-27.832,-21.973,-38.574,-30.273,0.000,0
160503.814,-38.574,-23.438,-35.156,-26.855,0.000,0
160503.818,-41.992,-29.785,-40.039,-46.387,0.000,0
160503.822,-32.715,-33.203,-36.133,-42.480,0.000,0
160503.826,-30.762,-27.344,-51.758,-24.902,0.000,0
160503.830,-35.645,-19.043,-41.992,-10.742,0.000,0
160503.834,-32.715,-14.648,-28.320,-8.301,0.000,0
160503.838,-21.973,-19.043,-34.668,-40.039,0.000,0
160503.842,-26.855,-24.902,-33.203,-53.223,0.000,0
160503.846,-34.180,-28.320,-46.387,-47.852,0.000,0
160503.849,-24.902,-30.762,-44.434,-46.387,0.000,0
160503.853,-22.949,-30.273,-51.270,-20.996,0.000,0
160503.857,-32.227,-27.344,-41.016,-20.996,0.000,0
160503.861,-40.039,-23.926,-23.438,-41.504,0.000,0
160503.865,-33.203,-25.391,-35.645,-30.762,0.000,0
160503.869,-20.996,-23.438,-42.969,-23.926,0.000,0
160503.873,-31.250,-23.926,-43.945,-23.926,0.000,0
160503.877,-40.527,-25.391,-20.508,-27.832,0.000,0
160503.881,-36.133,-26.855,-15.137,-39.551,0.000,0
160503.885,-39.062,-33.691,-36.621,-41.992,0.000,0
160503.888,-48.340,-30.273,-39.062,-36.133,0.000,0
160503.892,-45.898,-23.926,-43.457,-25.879,0.000,0
160503.896,-39.551,-25.391,-36.133,-27.344,0.000,0
160503.900,-39.062,-19.043,-14.648,-24.902,0.000,0
160503.904,-30.273,-18.066,-24.902,-7.812,0.000,0
160503.908,-27.344,-18.555,-31.738,-9.277,0.000,0
160503.912,-30.273,-21.973,-24.414,-15.137,0.000,0
160503.916,-21.484,-24.414,-28.809,-29.785,0.000,0
160503.920,-20.996,-17.578,-20.020,-48.828,0.000,0
160503.924,-33.203,-16.113,-10.742,-47.363,0.000,0
160503.928,-30.762,-16.602,-39.062,-48.340,0.000,0
160503.931,-21.973,-17.578,-51.270,-38.086,0.000,0
160503.935,-13.672,-18.555,-24.902,-34.668,0.000,0
160503.939,-7.812,-10.742,-10.742,-35.156,0.000,0
160503.943,-2.930,-5.859,-23.438,-29.785,0.000,0
160503.947,-14.648,-13.672,-29.297,-22.461,0.000,0
160503.951,-29.297,-24.414,-27.344,-31.250,0.000,0
160503.955,-30.273,-20.020,-24.414,-40.039,0.000,0
160503.959,-28.320,-21.484,-26.855,-46.387,0.000,0
160503.963,-23.438,-26.367,-24.414,-32.227,0.000,0
160503.967,-27.344,-26.367,-19.531,-14.648,0.000,0
160503.971,-24.902,-27.832,-36.621,-23.926,0.000,0
160503.974,-11.719,-23.926,-41.504,-20.996,0.000,0
160503.978,-23.438,-28.809,-28.320,-24.902,0.000,0
160503.982,-33.691,-32.715,-31.738,-34.180,0.000,0
160503.986,-27.344,-30.273,-35.156,-23.926,0.000,0
160503.990,-24.902,-28.809,-38.086,-14.160,0.000,0
160503.994,-33.203,-29.297,-40.527,-16.113,0.000,0
160503.998,-39.062,-23.438,-29.297,-24.414,0.000,0
160504.002,-35.645,-20.508,-29.297,-28.809,0.000,0
160504.006,-19.531,-27.832,-44.922,-9.277,0.000,0
160504.010,-8.301,-18.066,-28.320,3.418,0.000,0
160504.013,-32.227,-9.277,-13.672,-25.879,0.000,0
160504.017,-52.246,-23.926,-43.457,-62.500,0.000,0
160504.021,-36.621,-25.391,-59.082,-54.199,0.000,0
160504.025,-18.066,-20.996,-42.969,-44.434,0.000,0
160504.029,-35.156,-20.508,-42.480,-44.922,0.000,0
160504.033,-44.922,-17.578,-60.547,-44.434,0.000,0
160504.037,-31.738,-20.996,-45.410,-54.688,0.000,0
160504.041,-27.344,-20.996,-39.551,-47.852,0.000,0
160504.045,-32.227,-20.020,-39.062,-30.762,0.000,0
160504.049,-32.715,-18.066,-34.180,-24.414,0.000,0
160504.053,-14.648,-12.695,-24.414,-19.531,0.000,0
160504.056,-16.113,-10.742,-15.137,-24.902,0.000,0
160504.060,-25.391,-14.160,-27.344,-31.250,0.000,0
160504.064,-19.043,-12.207,-28.320,-27.344,0.000,0
160504.068,-24.902,-19.531,-23.926,-21.484,0.000,0
160504.072,-27.832,-26.367,-32.227,-26.367,0.000,0
160504.076,-21.973,-21.973,-23.926,-34.668,0.000,0
160504.080,-30.762,-22.461,-25.391,-20.020,0.000,0
160504.084,-37.598,-28.320,-36.133,-9.766,0.000,0
160504.088,-28.809,-21.484,-34.180,-20.508,0.000,0
160504.092,-24.902,-20.020,-40.527,-30.762,0.000,0
160504.096,-29.297,-20.996,-30.762,-45.410,0.000,0
160504.099,-31.738,-18.066,-16.113,-45.410,0.000,0
160504.103,-35.645,-19.043,-20.996,-34.668,0.000,0
160504.107,-20.020,-20.508,-29.785,-17.578,0.000,0
160504.111,-19.043,-23.926,-32.715,-19.043,0.000,0
160504.115,-23.438,-26.367,-19.531,-35.645,0.000,0
160504.119,-18.066,-26.855,-23.926,-35.645,0.000,0
160504.123,-22.949,-27.832,-45.410,-28.320,0.000,0
160504.127,-28.809,-28.809,-30.762,-38.574,0.000,0
160504.131,-39.062,-33.203,-31.738,-36.621,0.000,0
160504.135,-32.715,-32.227,-38.574,-28.809,0.000,0
160504.138,-22.949,-20.508,-17.578,-27.344,0.000,0
160504.142,-24.902,-17.578,-26.367,-6.836,0.000,0
160504.146,-27.832,-24.902,-29.297,-15.137,0.000,0
160504.150,-22.461,-21.973,-31.250,-22.949,0.000,0
160504.154,-22.949,-20.508,-32.715,-35.645,0.000,0
160504.158,-29.297,-23.438,-21.973,-46.875,0.000,0
160504.162,-30.762,-32.227,-21.973,-28.809,0.000,0
160504.166,-19.043,-28.809,-20.020,-24.902,0.000,0
160504.170,-22.461,-24.414,-28.320,-24.902,0.000,0
160504.174,-46.875,-31.738,-27.832,-34.180,0.000,0
160504.178,-35.645,-26.855,-11.719,-37.598,0.000,0
160504.181,-21.484,-25.879,-28.809,-17.578,0.000,0
160504.185,-27.344,-30.762,-40.039,-23.438,0.000,0
160504.189,-27.344,-30.273,-32.715,-22.461,0.000,0
160504.193,-29.785,-26.855,-27.832,-24.902,0.000,0
160504.197,-29.785,-21.484,-26.855,-42.969,0.000,0
160504.201,-35.645,-23.438,-41.992,-35.645,0.000,0
160504.205,-32.227,-30.762,-38.574,-20.508,0.000,0
160504.209,-22.949,-28.320,-36.133,-16.113,0.000,0
160504.213,-18.066,-23.438,-22.461,-31.250,0.000,0
160504.217,-22.461,-24.414,-16.602,-27.344,0.000,0
160504.221,-25.391,-18.555,-29.297,-9.277,0.000,0
160504.224,-3.906,-14.648,-30.762,-6.348,0.000,0
160504.228,-11.719,-21.484,-19.531,-20.508,0.000,0
160504.232,-30.762,-19.043,-17.090,-23.438,0.000,0
160504.236,-26.367,-14.648,-27.832,-19.043,0.000,0
160504.240,-32.227,-23.438,-32.715,-23.926,0.000,0
160504.244,-27.832,-29.297,-43.457,-18.066,0.000,0
160504.248,-23.438,-31.738,-34.180,-12.207,0.000,0
160504.252,-32.227,-30.273,-15.137,-24.414,0.000,0
160504.256,-30.273,-26.855,-30.273,-27.344,0.000,0
160504.260,-21.484,-25.391,-43.457,-19.531,0.000,0
160504.263,-19.043,-27.832,-36.621,-18.066,0.000,0
160504.267,-20.996,-30.273,-31.250,-15.137,0.000,0
160504.271,-23.926,-30.273,-36.133,-20.020,0.000,0
160504.275,-23.438,-38.574,-41.504,-20.508,0.000,0
160504.279,-23.926,-32.715,-37.109,-21.484,0.000,0
160504.283,-20.020,-23.438,-35.156,-21.484,0.000,0
160504.287,-16.602,-27.832,-38.574,-18.066,0.000,0
160504.291,-25.391,-30.762,-38.086,-25.879,0.000,0
160504.295,-33.203,-36.621,-31.250,-43.945,0.000,0
160504.299,-23.926,-35.156,-36.133,-47.363,0.000,0
160504.303,-22.949,-34.668,-41.992,-41.992,0.000,0
160504.306,-26.855,-34.668,-39.062,-30.273,0.000,0
160504.310,-24.414,-28.320,-30.273,-28.809,0.000,0
160504.314,-22.949,-24.414,-22.949,-40.527,0.000,0
160504.318,-21.973,-23.926,-36.621,-31.250,0.000,0
160504.322,-19.531,-23.438,-47.363,-20.996,0.000,0
160504.326,-19.531,-24.902,-36.621,-30.762,0.000,0
160504.330,-22.949,-23.926,-20.020,-36.133,0.000,0
160504.334,-21.973,-26.855,-29.297,-30.273,0.000,0
160504.338,-17.090,-23.926,-31.250,-17.090,0.000,0
160504.342,-17.090,-18.066,-25.391,-8.301,0.000,0
160504.346,-15.625,-20.020,-33.203,-11.230,0.000,0
160504.349,-19.531,-20.020,-21.484,-30.273,0.000,0
160504.353,-21.973,-18.555,-19.531,-31.250,0.000,0
160504.357,-11.230,-17.090,-32.715,-18.555,0.000,0
160504.361,-3.906,-23.438,-39.551,-17.578,0.000,0
160504.365,-10.254,-21.973,-22.949,-7.324,0.000,0
160504.369,-18.066,-20.020,-11.719,-18.066,0.000,0
160504.373,-19.043,-21.484,-25.391,-26.855,0.000,0
160504.377,-18.066,-21.484,-32.715,-27.832,0.000,0
160504.381,-22.949,-20.508,-23.438,-26.367,0.000,0
160504.385,-26.855,-16.602,-24.414,-15.137,0.000,0
160504.388,-15.625,-17.090,-27.344,-22.949,0.000,0
160504.392,-18.555,-24.902,-34.668,-20.508,0.000,0
160504.396,-27.344,-21.973,-35.156,-11.230,0.000,0
160504.400,-28.320,-19.531,-34.180,-23.926,0.000,0
160504.404,-28.320,-26.367,-41.016,-33.203,0.000,0
160504.408,-24.902,-22.461,-27.344,-30.273,0.000,0
160504.412,-35.645,-19.531,-24.414,-27.832,0.000,0
160504.416,-28.320,-21.484,-31.250,-27.832,0.000,0
160504.420,-21.484,-25.391,-37.598,-15.625,0.000,0
160504.424,-31.250,-28.320,-30.762,-19.043,0.000,0
160504.428,-33.691,-20.996,-17.578,-32.227,0.000,0
160504.431,-32.715,-20.996,-30.273,-25.879,0.000,0
160504.435,-34.180,-21.973,-25.391,-26.855,0.000,0
160504.439,-41.016,-22.461,-33.691,-19.043,0.000,0
160504.443,-41.016,-28.320,-40.527,-27.344,0.000,0
160504.447,-22.949,-30.273,-27.344,-35.645,0.000,0
160504.451,-30.273,-25.391,-29.297,-42.480,0.000,0
160504.455,-33.691,-24.414,-30.273,-35.645,0.000,0
160504.459,-25.391,-22.461,-35.645,-20.020,0.000,0
160504.463,-31.250,-24.902,-33.691,-22.461,0.000,0
160504.467,-28.320,-30.273,-20.020,-35.156,0.000,0
160504.471,-26.855,-29.297,-29.785,-37.598,0.000,0
160504.474,-28.809,-29.297,-31.250,-27.344,0.000,0
160504.478,-14.160,-27.832,-33.203,-10.254,0.000,0
160504.482,-8.301,-22.461,-36.621,-16.113,0.000,0
160504.486,-23.926,-20.020,-6.348,-37.109,0.000,0
160504.490,-30.762,-20.508,-24.902,-30.762,0.000,0
160504.494,-26.367,-23.926,-43.945,-17.578,0.000,0
160504.498,-14.160,-26.367,-32.715,-20.996,0.000,0
160504.502,-16.602,-20.996,-25.879,-25.391,0.000,0
160504.506,-23.926,-17.090,-21.973,-33.203,0.000,0
160504.510,-21.484,-21.973,-37.109,-37.109,0.000,0
160504.513,-18.066,-23.438,-34.180,-33.691,0.000,0
160504.517,-10.254,-17.090,-23.438,-14.160,0.000,0
160504.521,-18.066,-17.578,-31.738,-15.137,0.000,0
160504.525,-23.438,-18.066,-26.367,-33.203,0.000,0
160504.529,-20.508,-20.508,-23.438,-20.996,0.000,0
160504.533,-19.043,-26.367,-25.879,-18.066,0.000,0
160504.537,-22.461,-20.508,-22.461,-32.227,0.000,0
160504.541,-21.484,-11.230,-28.320,-31.738,0.000,0
160504.545,-16.602,-15.137,-16.602,-38.086,0.000,0
160504.549,-20.508,-21.973,-19.043,-28.809,0.000,0
160504.553,-28.320,-26.855,-46.875,-34.668,0.000,0
160504.556,-24.902,-30.273,-40.527,-38.574,0.000,0
160504.560,-16.113,-23.438,-20.508,-30.762,0.000,0
160504.564,-23.926,-18.066,-11.719,-39.551,0.000,0
160504.568,-33.203,-18.555,-25.391,-37.109,0.000,0
160504.572,-37.598,-20.020,-31.738,-37.598,0.000,0
160504.576,-38.086,-23.438,-14.160,-32.227,0.000,0
160504.580,-28.809,-29.297,-26.367,-33.203,0.000,0
160504.584,-29.785,-33.203,-35.156,-47.363,0.000,0
160504.588,-19.043,-27.832,-25.879,-42.480,0.000,0
160504.592,-7.812,-21.484,-26.367,-33.691,0.000,0
160504.596,-14.648,-21.484,-33.691,-27.832,0.000,0
160504.599,-12.695,-25.391,-34.668,-21.973,0.000,0
160504.603,-23.438,-28.320,-21.973,-24.414,0.000,0
160504.607,-30.273,-24.902,-22.949,-27.344,0.000,0
160504.611,-18.555,-20.508,-34.180,-16.602,0.000,0
160504.615,-27.832,-18.555,-24.414,-16.602,0.000,0
160504.619,-34.668,-25.391,-18.555,-24.414,0.000,0
160504.623,-28.809,-23.438,-15.625,-21.484,0.000,0
160504.627,-22.949,-20.508,-22.461,-31.250,0.000,0
160504.631,-27.832,-21.484,-27.832,-33.691,0.000,0
160504.635,-37.598,-21.973,-25.391,-21.973,0.000,0
160504.638,-32.227,-24.902,-23.926,-31.250,0.000,0
160504.642,-21.484,-20.020,-23.926,-30.273,0.000,0
160504.646,-28.809,-20.996,-29.297,-29.297,0.000,0
160504.650,-26.367,-24.414,-20.996,-21.484,0.000,0
160504.654,-13.672,-15.137,-16.113,-19.531,0.000,0
160504.658,-24.902,-11.230,-26.367,-20.020,0.000,0
160504.662,-38.574,-15.625,-23.926,-15.625,0.000,0
160504.666,-31.250,-16.113,-7.324,-12.207,0.000,0
160504.670,-25.391,-21.973,-29.297,-12.695,0.000,0
160504.674,-23.926,-23.926,-38.574,-15.625,0.000,0
160504.678,-26.855,-26.855,-21.973,-1.953,0.000,0
160504.681,-27.344,-21.484,-15.625,-6.836,0.000,0
160504.685,-24.414,-20.996,-24.414,-30.762,0.000,0
160504.689,-27.344,-24.414,-26.855,-28.809,0.000,0
160504.693,-31.738,-22.461,-14.648,-22.949,0.000,0
160504.697,-31.738,-21.484,-21.973,-12.207,0.000,0
160504.701,-31.738,-20.020,-25.879,-16.113,0.000,0
160504.705,-32.227,-25.391,-23.926,-24.414,0.000,0
160504.709,-32.715,-28.320,-31.250,-11.719,0.000,0
160504.713,-35.156,-22.949,-28.809,-21.973,0.000,0
160504.717,-27.344,-20.508,-35.156,-26.367,0.000,0
160504.721,-19.043,-23.438,-38.574,-34.180,0.000,0
160504.724,-21.973,-23.438,-22.461,-38.574,0.000,0
160504.728,-25.391,-21.484,-17.578,-34.180,0.000,0
160504.732,-22.949,-21.973,-24.902,-24.902,0.000,0
160504.736,-27.344,-29.785,-39.062,-10.742,0.000,0
160504.740,-38.086,-38.086,-21.973,-25.391,0.000,0
160504.744,-29.785,-31.250,-27.344,-20.020,0.000,0
160504.748,-25.879,-21.973,-50.781,-7.812,0.000,0
160504.752,-31.738,-27.344,-39.551,-15.625,0.000,0
160504.756,-31.250,-32.227,-35.645,-15.625,0.000,0
160504.760,-32.227,-26.855,-39.551,-27.344,0.000,0
160504.763,-29.785,-24.414,-41.504,-34.668,0.000,0
160504.767,-35.645,-28.809,-29.785,-15.625,0.000,0
160504.771,-34.668,-22.461,-23.926,-2.441,0.000,0
160504.775,-8.789,-13.184,-33.203,8.301,0.000,0
160504.779,3.906,-17.578,-16.113,11.230,0.000,0
160504.783,-18.066,-18.555,-16.602,-1.465,0.000,0
160504.787,-30.273,-21.484,-42.969,-5.859,0.000,0
160504.791,-29.297,-21.973,-48.828,-12.695,0.000,0
160504.795,-36.133,-21.484,-38.086,-15.625,0.000,0
160504.799,-32.715,-28.320,-17.578,-27.832,0.000,0
160504.803,-30.762,-27.344,-10.742,-41.504,0.000,0
160504.806,-27.344,-20.020,-22.949,-32.227,0.000,0
160504.810,-23.438,-20.020,-28.809,-21.484,0.000,0
160504.814,-24.414,-25.391,-23.926,-20.508,0.000,0
160504.818,-20.996,-30.273,-16.113,-34.180,0.000,0
160504.822,-10.742,-31.738,-19.043,-35.645,0.000,0
160504.826,-7.812,-24.414,-19.043,-19.043,0.000,0
160504.830,-25.391,-28.809,-15.137,-31.738,0.000,0
160504.834,-27.832,-31.738,-28.320,-33.691,0.000,0
160504.838,-23.438,-28.320,-21.484,-12.695,0.000,0
160504.842,-31.250,-30.762,-15.625,-32.715,0.000,0
160504.846,-26.367,-34.180,-33.691,-32.715,0.000,0
160504.849,-31.738,-34.668,-45.898,-7.812,0.000,0
160504.853,-35.645,-36.133,-54.199,-12.695,0.000,0
160504.857,-29.297,-29.785,-27.344,-16.113,0.000,0
160504.861,-36.133,-26.855,-8.789,-21.484,0.000,0
160504.865,-27.344,-26.367,-32.715,-33.691,0.000,0
160504.869,-25.391,-25.879,-32.715,-35.156,0.000,0
160504.873,-38.086,-30.273,-35.645,-23.438,0.000,0
160504.877,-28.809,-28.320,-28.809,-25.391,0.000,0
160504.881,-20.508,-23.438,-20.020,-32.227,0.000,0
160504.885,-21.973,-29.297,-38.086,-19.531,0.000,0
160504.888,-19.531,-30.273,-37.598,-12.695,0.000,0
160504.892,-10.742,-23.926,-24.902,-8.301,0.000,0
160504.896,-10.254,-25.391,-23.926,-1.465,0.000,0
160504.900,-29.785,-28.809,-27.832,-33.691,0.000,0
160504.904,-24.902,-25.391,-22.461,-31.738,0.000,0
160504.908,-0.977,-21.484,-24.414,4.883,0.000,0
160504.912,-2.441,-20.020,-27.344,0.488,0.000,0
160504.916,-14.160,-19.043,-14.160,-20.020,0.000,0
160504.920,-27.344,-23.926,-11.230,-36.621,0.000,0
160504.924,-25.391,-26.855,-24.902,-28.320,0.000,0
160504.928,-20.996,-27.832,-22.461,-20.020,0.000,0
160504.931,-25.391,-27.344,-23.438,-15.137,0.000,0
160504.935,-26.855,-25.879,-22.461,-15.137,0.000,0
160504.939,-23.926,-31.738,-19.043,-30.273,0.000,0
160504.943,-21.484,-34.180,-18.555,-28.809,0.000,0
160504.947,-26.855,-26.855,-9.277,-16.113,0.000,0
160504.951,-19.043,-25.879,-20.020,0.000,0.000,0
160504.955,-13.672,-29.785,-33.691,-10.742,0.000,0
160504.959,-25.879,-32.227,-26.367,-22.461,0.000,0
160504.963,-31.250,-32.715,-37.598,-14.648,0.000,0
160504.967,-24.902,-31.250,-44.922,-10.742,0.000,0
160504.971,-8.301,-26.367,-33.691,-8.301,0.000,0
160504.974,-13.672,-20.996,-20.996,-10.254,0.000,0
160504.978,-17.578,-17.090,-15.625,-22.461,0.000,0
160504.982,-5.859,-19.043,-29.297,-20.996,0.000,0
160504.986,-10.254,-25.879,-33.691,-10.742,0.000,0
160504.990,-15.137,-22.461,-23.926,-10.254,0.000,0
160504.994,-13.184,-18.555,-17.578,-12.207,0.000,0
160504.998,-9.277,-23.438,-20.996,-21.484,0.000,0
160505.002,-9.766,-24.902,-32.715,-32.227,0.000,0
160505.006,-19.043,-23.438,-27.344,-25.391,0.000,0
160505.010,-17.578,-22.949,-24.902,-11.719,0.000,0
160505.013,-17.578,-27.344,-35.645,-13.672,0.000,0
160505.017,-25.391,-29.297,-28.320,-22.949,0.000,0
160505.021,-30.762,-27.344,-28.320,-33.691,0.000,0
160505.025,-33.203,-27.832,-41.992,-27.344,0.000,0
160505.029,-29.297,-25.391,-35.156,-18.066,0.000,0
160505.033,-36.621,-25.391,-32.715,-14.160,0.000,0
160505.037,-43.945,-27.344,-22.949,-17.578,0.000,0
160505.041,-25.879,-24.414,-27.344,-28.320,0.000,0
160505.045,-13.672,-26.855,-41.016,-28.320,0.000,0
160505.049,-32.715,-26.367,-38.086,-27.832,0.000,0
160505.053,-35.645,-26.855,-38.086,-14.160,0.000,0
160505.056,-29.785,-29.785,-34.180,-17.090,0.000,0
160505.060,-29.297,-24.414,-34.180,-28.809,0.000,0
160505.064,-20.996,-25.391,-22.461,-25.879,0.000,0
160505.068,-24.414,-24.902,-36.133,-10.254,0.000,0
160505.072,-28.320,-27.344,-42.969,-15.625,0.000,0
160505.076,-25.879,-23.926,-24.414,-32.227,0.000,0
160505.080,-21.484,-20.020,-30.273,-24.902,0.000,0
160505.084,-28.320,-27.344,-37.598,-16.113,0.000,0
160505.088,-35.645,-28.320,-47.363,-20.508,0.000,0
160505.092,-36.621,-28.809,-50.293,-31.250,0.000,0
160505.096,-47.363,-31.738,-28.320,-37.598,0.000,0
160505.099,-41.992,-28.809,-30.762,-22.461,0.000,0
160505.103,-24.414,-28.809,-35.645,-16.602,0.000,0
160505.107,-20.020,-27.832,-25.879,-28.809,0.000,0
160505.111,-29.785,-27.344,-20.508,-34.668,0.000,0
160505.115,-38.574,-31.250,-23.438,-48.340,0.000,0
160505.119,-34.668,-30.273,-31.738,-38.086,0.000,0
160505.123,-28.320,-28.320,-27.344,-20.996,0.000,0
160505.127,-35.645,-28.809,-27.344,-21.484,0.000,0
160505.131,-42.969,-30.273,-36.621,-31.250,0.000,0
160505.135,-37.598,-32.227,-33.203,-47.363,0.000,0
160505.138,-29.297,-29.785,-24.414,-38.574,0.000,0
160505.142,-36.133,-22.461,-17.578,-28.320,0.000,0
160505.146,-31.738,-24.902,-25.879,-31.250,0.000,0
160505.150,-21.973,-22.949,-30.273,-28.320,0.000,0
160505.154,-26.855,-21.973,-28.809,-30.273,0.000,0
160505.158,-36.133,-22.461,-31.250,-21.484,0.000,0
160505.162,-36.133,-22.461,-31.250,-25.391,0.000,0
160505.166,-30.273,-25.391,-33.691,-36.621,0.000,0
160505.170,-34.668,-31.250,-32.227,-37.598,0.000,0
160505.174,-27.832,-31.738,-13.672,-43.945,0.000,0
160505.178,-29.297,-25.879,-18.066,-38.574,0.000,0
160505.181,-34.668,-25.391,-34.180,-46.387,0.000,0
160505.185,-33.203,-26.855,-23.926,-42.480,0.000,0
160505.189,-36.133,-28.809,-21.484,-30.762,0.000,0
160505.193,-35.645,-31.250,-24.414,-47.363,0.000,0
160505.197,-42.480,-30.273,-27.344,-47.363,0.000,0
160505.201,-42.480,-30.762,-34.668,-21.973,0.000,0
160505.205,-31.250,-26.855,-35.645,-34.180,0.000,0
160505.209,-26.367,-25.391,-38.086,-47.852,0.000,0
160505.213,-26.367,-28.809,-25.391,-50.293,0.000,0
160505.217,-26.367,-31.250,-29.785,-41.992,0.000,0
160505.221,-28.320,-27.344,-36.621,-23.926,0.000,0
160505.224,-39.551,-31.250,-31.250,-30.273,0.000,0
160505.228,-42.480,-31.738,-41.992,-41.504,0.000,0
160505.232,-42.969,-28.809,-19.531,-46.387,0.000,0
160505.236,-23.926,-35.645,-27.344,-26.367,0.000,0
160505.240,-12.695,-37.109,-47.363,-20.996,0.000,0
160505.244,-41.992,-26.367,-34.668,-40.527,0.000,0
160505.248,-55.176,-26.367,-32.715,-51.758,0.000,0
160505.252,-33.691,-26.855,-20.996,-53.223,0.000,0
160505.256,-30.762,-21.484,-23.438,-39.062,0.000,0
160505.260,-47.852,-19.531,-35.156,-32.227,0.000,0
160505.263,-43.457,-13.672,-33.203,-25.879,0.000,0
160505.267,-32.227,-12.207,-31.738,-29.785,0.000,0
160505.271,-30.762,-18.066,-31.738,-30.762,0.000,0
160505.275,-34.668,-15.137,-27.832,-18.555,0.000,0
160505.279,-29.785,-17.090,-33.203,-12.695,0.000,0
160505.283,-21.484,-17.090,-36.621,-15.137,0.000,0
160505.287,-26.367,-15.137,-24.414,-25.879,0.000,0
160505.291,-26.855,-18.066,-16.113,-39.551,0.000,0
160505.295,-17.090,-16.113,-22.949,-42.480,0.000,0
160505.299,-18.555,-20.020,-32.227,-30.273,0.000,0
160505.303,-17.578,-20.508,-23.926,-7.812,0.000,0
160505.306,-11.719,-17.090,-17.578,-2.441,0.000,0
160505.310,-18.555,-16.602,-20.508,-32.227,0.000,0
160505.314,-26.367,-25.391,-30.762,-52.734,0.000,0
160505.318,-27.832,-27.832,-27.832,-46.875,0.000,0
160505.322,-25.391,-22.949,-21.484,-38.086,0.000,0
160505.326,-19.531,-23.926,-34.180,-24.414,0.000,0
160505.330,-24.414,-29.785,-32.227,-37.598,0.000,0
160505.334,-33.203,-29.785,-26.367,-36.621,0.000,0
160505.338,-30.762,-27.832,-30.762,-20.020,0.000,0
160505.342,-30.273,-33.203,-34.180,-22.461,0.000,0
160505.346,-31.738,-32.715,-35.645,-9.766,0.000,0
160505.349,-23.438,-28.320,-20.020,-40.527,0.000,0
160505.353,-20.508,-28.809,-15.625,-48.340,0.000,0
160505.357,-25.879,-22.949,-30.762,-27.344,0.000,0
160505.361,-31.250,-17.090,-26.367,-36.621,0.000,0
160505.365,-21.484,-20.020,-18.555,-26.855,0.000,0
160505.369,-16.113,-19.043,-7.324,-26.855,0.000,0
160505.373,-24.414,-18.555,-9.277,-23.438,0.000,0
160505.377,-29.297,-17.090,-18.555,-11.230,0.000,0
160505.381,-34.180,-17.578,-17.090,-18.555,0.000,0
160505.385,-28.320,-19.043,-24.902,-27.832,0.000,0
160505.388,-28.320,-23.926,-18.555,-38.086,0.000,0
160505.392,-29.297,-23.926,-14.160,-39.062,0.000,0
160505.396,-35.156,-14.160,-21.973,-30.762,0.000,0
160505.400,-33.691,-17.090,-28.809,-32.227,0.000,0
160505.404,-24.414,-21.973,-27.344,-34.180,0.000,0
160505.408,-33.203,-19.043,-12.207,-31.250,0.000,0
160505.412,-42.480,-18.555,-20.020,-41.992,0.000,0
160505.416,-35.156,-17.090,-32.715,-36.621,0.000,0
160505.420,-29.297,-16.113,-33.203,-25.391,0.000,0
160505.424,-29.297,-18.555,-20.020,-27.832,0.000,0
160505.428,-34.180,-18.066,-7.812,-36.621,0.000,0
160505.431,-29.785,-19.043,-22.949,-33.691,0.000,0
160505.435,-28.320,-21.484,-33.691,-18.555,0.000,0
160505.439,-24.414,-26.367,-34.668,-19.531,0.000,0
160505.443,-18.555,-27.344,-39.551,-16.113,0.000,0
160505.447,-26.855,-26.855,-34.668,-32.227,0.000,0
160505.451,-37.109,-28.320,-28.809,-42.480,0.000,0
160505.455,-36.621,-30.273,-35.156,-28.809,0.000,0
160505.459,-29.785,-30.273,-36.621,-17.578,0.000,0
160505.463,-39.062,-20.020,-40.527,-23.438,0.000,0
160505.467,-41.504,-21.973,-36.133,-42.969,0.000,0
160505.471,-35.156,-26.855,-17.578,-45.898,0.000,0
160505.474,-33.203,-21.484,-27.344,-29.297,0.000,0
160505.478,-23.926,-18.555,-39.062,-21.973,0.000,0
160505.482,-26.367,-24.902,-35.156,-25.879,0.000,0
160505.486,-28.809,-27.832,-20.508,-31.250,0.000,0
160505.490,-29.785,-26.855,-19.043,-42.480,0.000,0
160505.494,-35.156,-23.438,-37.598,-42.969,0.000,0
160505.498,-29.785,-18.066,-34.668,-30.762,0.000,0
160505.502,-27.344,-20.020,-30.762,-16.602,0.000,0
160505.506,-31.738,-27.344,-31.738,-19.043,0.000,0
160505.510,-28.320,-28.320,-26.855,-32.715,0.000,0
160505.513,-17.090,-28.809,-32.715,-26.855,0.000,0
160505.517,-20.996,-26.855,-34.180,-12.207,0.000,0
160505.521,-25.391,-20.508,-32.227,-0.488,0.000,0
160505.525,-24.902,-24.902,-23.438,-14.160,0.000,0
160505.529,-24.902,-27.832,-17.578,-41.016,0.000,0
160505.533,-17.578,-24.902,-27.832,-38.574,0.000,0
160505.537,-26.367,-31.250,-38.574,-32.715,0.000,0
160505.541,-21.484,-31.738,-37.598,-6.836,0.000,0
160505.545,-8.789,-26.855,-32.715,-8.789,0.000,0
160505.549,-18.066,-24.414,-21.973,-28.809,0.000,0
160505.553,-16.602,-21.973,-35.645,-9.766,0.000,0
160505.556,-20.996,-26.855,-40.039,-10.254,0.000,0
160505.560,-20.996,-29.297,-28.320,-9.766,0.000,0
160505.564,-20.996,-24.902,-33.691,4.395,0.000,0
160505.568,-24.902,-24.902,-25.879,-23.926,0.000,0
160505.572,-27.832,-23.438,-25.879,-28.320,0.000,0
160505.576,-35.645,-20.996,-28.320,-20.020,0.000,0
160505.580,-29.785,-23.926,-38.086,-15.625,0.000,0
160505.584,-20.020,-24.902,-29.785,-13.672,0.000,0
160505.588,-25.391,-28.320,-14.160,-20.020,0.000,0
160505.592,-27.832,-25.879,-28.320,-19.043,0.000,0
160505.596,-23.926,-22.461,-37.109,-14.648,0.000,0
160505.599,-20.996,-24.414,-28.320,-10.742,0.000,0
160505.603,-20.020,-26.855,-18.066,-17.578,0.000,0
160505.607,-22.461,-24.902,-9.766,-33.691,0.000,0
160505.611,-20.508,-25.391,-28.320,-22.461,0.000,0
160505.615,-23.438,-33.203,-48.828,-20.508,0.000,0
160505.619,-13.184,-31.250,-39.062,-24.414,0.000,0
160505.623,-6.836,-25.879,-21.484,-21.973,0.000,0
160505.627,-20.020,-28.320,-25.391,-30.762,0.000,0
160505.631,-20.020,-32.227,-36.621,-18.555,0.000,0
160505.635,-11.230,-33.691,-31.250,-20.020,0.000,0
160505.638,-13.184,-34.668,-32.227,-37.109,0.000,0
160505.642,-22.461,-31.250,-34.668,-25.879,0.000,0
160505.646,-33.203,-29.297,-33.203,-21.973,0.000,0
160505.650,-30.762,-30.273,-22.949,-32.227,0.000,0
160505.654,-21.973,-26.367,-29.297,-20.996,0.000,0
160505.658,-23.438,-28.320,-34.180,-14.160,0.000,0
160505.662,-29.785,-30.273,-19.531,-22.949,0.000,0
160505.666,-36.621,-28.809,-23.438,-28.320,0.000,0
160505.670,-33.203,-29.297,-38.086,-22.949,0.000,0
160505.674,-33.203,-26.367,-50.293,-22.461,0.000,0
160505.678,-36.621,-27.832,-42.480,-26.367,0.000,0
160505.681,-26.855,-29.297,-36.133,-24.414,0.000,0
160505.685,-23.926,-30.273,-32.227,-31.250,0.000,0
160505.689,-31.250,-30.273,-30.762,-15.625,0.000,0
160505.693,-36.133,-26.367,-32.715,-8.301,0.000,0
160505.697,-31.250,-21.973,-29.785,-14.160,0.000,0
160505.701,-14.648,-24.414,-32.715,-12.207,0.000,0
160505.705,-10.254,-23.438,-20.996,-14.160,0.000,0
160505.709,-18.066,-24.902,-24.414,-23.926,0.000,0
160505.713,-27.832,-28.809,-37.109,-31.250,0.000,0
160505.717,-15.137,-22.949,-30.762,-29.785,0.000,0
160505.721,-10.254,-23.438,-26.367,-17.578,0.000,0
160505.724,-25.391,-27.344,-20.996,-29.297,0.000,0
160505.728,-25.879,-29.297,-21.973,-34.180,0.000,0
160505.732,-23.926,-30.762,-33.691,-24.902,0.000,0
160505.736,-26.855,-30.273,-39.062,-28.320,0.000,0
160505.740,-35.645,-26.367,-23.926,-20.996,0.000,0
160505.744,-23.926,-20.020,-16.602,-31.250,0.000,0
160505.748,-7.812,-20.996,-28.320,-46.387,0.000,0
160505.752,-16.113,-22.949,-21.973,-39.551,0.000,0
160505.756,-26.855,-21.484,-15.137,-25.391,0.000,0
160505.760,-28.809,-27.832,-26.367,-25.879,0.000,0
160505.763,-27.344,-30.273,-23.926,-36.621,0.000,0
160505.767,-17.090,-20.996,-18.555,-22.949,0.000,0
160505.771,-11.230,-15.137,-23.438,-20.020,0.000,0
160505.775,-21.484,-21.973,-34.180,-29.297,0.000,0
160505.779,-24.902,-21.484,-34.180,-21.484,0.000,0
160505.783,-18.066,-21.484,-13.184,-27.832,0.000,0
160505.787,-20.996,-24.902,-5.859,-38.574,0.000,0
160505.791,-20.996,-24.414,-23.926,-21.973,0.000,0
160505.795,-24.414,-20.508,-36.621,-22.461,0.000,0
160505.799,-34.180,-18.066,-33.203,-19.043,0.000,0
160505.803,-27.832,-21.484,-9.766,-14.160,0.000,0
160505.806,-16.113,-24.414,-23.438,-32.227,0.000,0
160505.810,-22.461,-23.926,-39.551,-44.434,0.000,0
160505.814,-18.555,-30.762,-29.297,-32.715,0.000,0
160505.818,-12.207,-28.320,-24.902,-12.695,0.000,0
160505.822,-22.949,-24.414,-22.949,-28.809,0.000,0
160505.826,-27.832,-27.344,-26.855,-39.062,0.000,0
160505.830,-31.738,-24.414,-34.668,-31.738,0.000,0
160505.834,-41.504,-24.902,-37.598,-34.180,0.000,0
160505.838,-40.527,-25.391,-49.805,-31.250,0.000,0
160505.842,-33.691,-24.414,-31.738,-41.016,0.000,0
160505.846,-34.668,-26.367,-7.324,-44.434,0.000,0
160505.849,-34.668,-28.809,-29.297,-38.574,0.000,0
160505.853,-34.180,-29.785,-39.062,-38.574,0.000,0
160505.857,-45.410,-30.762,-35.645,-25.391,0.000,0
160505.861,-42.480,-27.832,-31.738,-36.133,0.000,0
160505.865,-23.926,-22.949,-28.320,-35.156,0.000,0
160505.869,-27.344,-22.949,-42.480,-29.785,0.000,0
160505.873,-32.715,-22.461,-36.621,-24.414,0.000,0
160505.877,-26.855,-18.066,-23.438,-20.020,0.000,0
160505.881,-19.531,-19.531,-26.367,-25.391,0.000,0
160505.885,-19.531,-25.879,-28.809,-24.414,0.000,0
160505.888,-29.785,-24.902,-25.391,-29.785,0.000,0
160505.892,-26.855,-23.438,-22.949,-23.926,0.000,0
160505.896,-21.973,-27.344,-43.945,-26.855,0.000,0
160505.900,-32.227,-25.391,-39.551,-30.273,0.000,0
160505.904,-34.668,-26.855,-19.531,-22.949,0.000,0
160505.908,-37.598,-24.902,-29.785,-16.113,0.000,0
160505.912,-24.902,-23.438,-47.852,-10.742,0.000,0
160505.916,-15.625,-25.391,-41.016,-16.602,0.000,0
160505.920,-25.391,-26.855,-21.484,-23.438,0.000,0
160505.924,-26.367,-29.785,-11.719,-24.414,0.000,0
160505.928,-30.762,-27.344,-20.996,-25.879,0.000,0
160505.931,-27.344,-24.414,-30.273,-13.184,0.000,0
160505.935,-31.250,-21.484,-26.855,-11.230,0.000,0
160505.939,-26.855,-22.949,-29.785,-37.109,0.000,0
160505.943,-12.207,-28.809,-33.691,-34.180,0.000,0
160505.947,-23.438,-36.621,-38.574,-19.043,0.000,0
160505.951,-30.273,-32.715,-37.109,-30.273,0.000,0
160505.955,-19.531,-20.020,-27.344,-28.320,0.000,0
160505.959,-23.438,-27.344,-29.297,-27.344,0.000,0
160505.963,-24.902,-29.785,-25.391,-27.832,0.000,0
160505.967,-33.691,-27.832,-24.902,-25.879,0.000,0
160505.971,-40.527,-27.344,-41.016,-27.344,0.000,0
160505.974,-30.762,-27.832,-40.039,-12.695,0.000,0
160505.978,-37.598,-29.297,-31.250,-10.254,0.000,0
160505.982,-50.293,-29.297,-29.297,-35.645,0.000,0
160505.986,-41.016,-30.273,-37.598,-43.457,0.000,0
160505.990,-32.715,-27.832,-36.621,-34.180,0.000,0
160505.994,-42.969,-27.344,-33.203,-33.691,0.000,0
160505.998,-44.434,-28.320,-39.062,-30.762,0.000,0
160506.002,-38.086,-32.715,-36.621,-47.363,0.000,0
160506.006,-43.457,-35.645,-37.598,-38.574,0.000,0
160506.010,-45.898,-29.297,-34.180,-23.438,0.000,0
160506.013,-31.738,-26.367,-31.250,-30.273,0.000,0
160506.017,-28.809,-27.344,-32.227,-25.879,0.000,0
160506.021,-33.691,-31.738,-14.648,-27.344,0.000,0
160506.025,-35.645,-36.133,-19.043,-30.762,0.000,0
160506.029,-44.434,-38.086,-47.852,-36.621,0.000,0
160506.033,-36.133,-35.156,-49.805,-30.762,0.000,0
160506.037,-21.973,-32.227,-33.203,-25.879,0.000,0
160506.041,-28.809,-28.809,-17.578,-32.715,0.000,0
160506.045,-28.809,-28.320,-26.855,-25.879,0.000,0
160506.049,-27.832,-32.227,-41.504,-14.648,0.000,0
160506.053,-18.555,-34.180,-28.809,-10.254,0.000,0
160506.056,-22.461,-36.621,-26.367,-15.625,0.000,0
160506.060,-32.715,-38.574,-27.832,-30.273,0.000,0
160506.064,-31.250,-33.691,-28.320,-30.762,0.000,0
160506.068,-23.926,-29.785,-15.137,-37.109,0.000,0
160506.072,-23.926,-33.203,-14.160,-23.438,0.000,0
160506.076,-17.090,-32.715,-39.551,8.301,0.000,0
160506.080,-5.859,-27.832,-26.367,-12.207,0.000,0
160506.084,-14.160,-20.508,-28.809,-10.742,0.000,0
160506.088,-22.949,-25.391,-44.922,-23.438,0.000,0
160506.092,-26.855,-28.320,-40.039,-32.715,0.000,0
160506.096,-16.113,-24.414,-36.621,-2.930,0.000,0
160506.099,-13.184,-28.320,-17.578,-18.066,0.000,0
160506.103,-20.020,-30.762,-19.531,-26.367,0.000,0
160506.107,-16.113,-28.320,-27.832,-15.625,0.000,0
160506.111,-14.648,-26.367,-21.973,-11.719,0.000,0
160506.115,-18.066,-28.320,-31.738,-11.230,0.000,0
160506.119,-18.066,-27.832,-27.832,-27.344,0.000,0
160506.123,-16.113,-25.391,-26.367,-25.391,0.000,0
160506.127,-24.902,-31.250,-32.715,-22.461,0.000,0
160506.131,-21.973,-30.273,-16.113,-36.133,0.000,0
160506.135,-22.949,-26.367,-20.508,-35.156,0.000,0
160506.138,-31.250,-32.715,-23.438,-56.641,0.000,0
160506.142,-31.738,-33.691,-17.090,-58.105,0.000,0
160506.146,-37.598,-26.367,-27.344,-33.203,0.000,0
160506.150,-40.527,-29.297,-37.598,-27.344,0.000,0
160506.154,-39.551,-33.203,-41.504,-20.996,0.000,0
160506.158,-38.086,-24.902,-20.020,-30.273,0.000,0
160506.162,-31.738,-28.320,-12.207,-51.270,0.000,0
160506.166,-30.762,-33.203,-34.668,-46.387,0.000,0
160506.170,-31.738,-29.785,-35.156,-40.527,0.000,0
160506.174,-33.203,-28.809,-16.602,-20.508,0.000,0
160506.178,-32.227,-31.250,-15.137,-14.160,0.000,0
160506.181,-33.691,-36.621,-32.227,-60.059,0.000,0
160506.185,-29.785,-26.855,-36.133,-42.969,0.000,0
160506.189,-16.602,-20.508,-29.297,-9.766,0.000,0
160506.193,-25.391,-30.273,-39.062,-16.113,0.000,0
160506.197,-31.250,-38.086,-41.504,-37.109,0.000,0
160506.201,-30.273,-30.762,-23.438,-37.598,0.000,0
160506.205,-32.715,-28.320,-20.508,-34.668,0.000,0
160506.209,-34.180,-31.738,-28.809,-43.945,0.000,0
160506.213,-35.156,-25.391,-42.480,-26.367,0.000,0
160506.217,-30.762,-24.414,-38.574,-41.992,0.000,0
160506.221,-15.625,-18.555,-5.371,-38.574,0.000,0
160506.224,-7.812,-14.648,-18.555,-4.883,0.000,0
160506.228,-10.742,-20.020,-39.551,-12.695,0.000,0
160506.232,-13.184,-22.949,-30.273,-24.902,0.000,0
160506.236,-20.996,-26.367,-25.879,-34.668,0.000,0
160506.240,-19.531,-21.973,-24.414,-41.504,0.000,0
160506.244,-16.113,-24.902,-32.227,-34.668,0.000,0
160506.248,-28.809,-31.738,-31.738,-29.785,0.000,0
160506.252,-20.996,-26.855,-23.438,-20.508,0.000,0
160506.256,-6.836,-26.367,-22.949,-22.461,0.000,0
160506.260,-16.113,-25.879,-23.438,-34.668,0.000,0
160506.263,-18.066,-17.578,-21.973,-31.250,0.000,0
160506.267,-10.742,-17.090,-22.461,-14.648,0.000,0
160506.271,-17.578,-16.602,-27.832,-26.855,0.000,0
160506.275,-33.691,-24.414,-24.414,-36.133,0.000,0
160506.279,-24.902,-25.391,-25.879,-23.438,0.000,0
160506.283,-12.207,-27.344,-36.133,-25.879,0.000,0
160506.287,-12.207,-26.367,-34.180,-21.484,0.000,0
160506.291,-7.324,-19.043,-27.344,-9.277,0.000,0
160506.295,-3.418,-21.484,-27.832,-19.043,0.000,0
160506.299,-4.883,-21.973,-26.855,-18.066,0.000,0
160506.303,-15.137,-24.414,-30.273,-11.719,0.000,0
160506.306,-21.973,-22.949,-34.668,-23.926,0.000,0
160506.310,-11.230,-20.996,-24.414,-16.113,0.000,0
160506.314,-15.137,-18.066,-22.949,-10.254,0.000,0
160506.318,-26.855,-14.648,-21.484,-29.297,0.000,0
160506.322,-30.273,-20.508,-18.555,-25.391,0.000,0
160506.326,-27.344,-22.461,-29.297,-27.344,0.000,0
160506.330,-25.391,-24.902,-34.180,-35.645,0.000,0
160506.334,-28.809,-24.414,-28.809,-26.855,0.000,0
160506.338,-19.531,-15.625,-18.066,-30.762,0.000,0
160506.342,-5.371,-17.090,-25.391,-19.531,0.000,0
160506.346,-12.695,-14.648,-27.344,-20.020,0.000,0
160506.349,-28.320,-13.184,-22.949,-37.598,0.000,0
160506.353,-29.297,-21.484,-20.508,-21.973,0.000,0
160506.357,-33.203,-25.391,-14.648,-28.320,0.000,0
160506.361,-34.180,-27.832,-32.715,-44.922,0.000,0
160506.365,-25.391,-23.926,-38.574,-26.855,0.000,0
160506.369,-27.344,-19.531,-31.738,-19.531,0.000,0
160506.373,-26.855,-20.996,-22.461,-24.902,0.000,0
160506.377,-15.137,-20.020,-12.695,-26.855,0.000,0
160506.381,-19.043,-21.484,-22.461,-32.715,0.000,0
160506.385,-19.531,-25.879,-25.391,-31.250,0.000,0
160506.388,-18.555,-25.391,-29.785,-22.461,0.000,0
160506.392,-25.879,-31.250,-28.320,-22.949,0.000,0
160506.396,-24.902,-35.645,-18.555,-32.227,0.000,0
160506.400,-17.090,-34.668,-27.344,-20.020,0.000,0
160506.404,-21.973,-33.691,-30.273,-13.184,0.000,0
160506.408,-18.555,-33.691,-37.109,-24.902,0.000,0
160506.412,-15.137,-28.809,-21.484,-21.973,0.000,0
160506.416,-23.926,-19.043,-7.812,-29.297,0.000,0
160506.420,-23.926,-22.949,-29.785,-41.016,0.000,0
160506.424,-27.832,-25.879,-30.273,-36.133,0.000,0
160506.428,-41.504,-27.344,-30.273,-32.227,0.000,0
160506.431,-31.250,-26.367,-33.203,-29.785,0.000,0
160506.435,-30.762,-24.902,-21.973,-39.062,0.000,0
160506.439,-36.621,-32.227,-34.180,-36.133,0.000,0
160506.443,-35.156,-27.832,-35.645,-22.949,0.000,0
160506.447,-33.203,-20.508,-40.039,-9.277,0.000,0
160506.451,-22.461,-21.484,-36.133,-8.789,0.000,0
160506.455,-22.461,-20.508,-16.602,-24.902,0.000,0
160506.459,-28.809,-22.461,-18.555,-32.227,0.000,0
160506.463,-24.902,-22.949,-30.273,-23.926,0.000,0
160506.467,-24.414,-21.484,-30.273,-11.719,0.000,0
160506.471,-29.297,-26.855,-26.367,-18.555,0.000,0
160506.474,-30.762,-29.297,-19.531,-39.062,0.000,0
160506.478,-25.391,-23.438,-30.762,-33.691,0.000,0
160506.482,-20.996,-23.438,-44.434,-40.039,0.000,0
160506.486,-22.461,-29.785,-35.156,-28.809,0.000,0
160506.490,-29.297,-26.367,-21.973,-13.672,0.000,0
160506.494,-25.391,-30.762,-26.855,-29.785,0.000,0
160506.498,-28.320,-28.809,-37.598,-42.480,0.000,0
160506.502,-27.344,-23.926,-29.785,-21.973,0.000,0
160506.506,-25.879,-23.926,-28.809,-13.672,0.000,0
160506.510,-25.391,-23.438,-35.645,-23.438,0.000,0
160506.513,-20.508,-32.715,-20.020,-34.180,0.000,0
160506.517,-26.367,-24.902,-14.160,-42.969,0.000,0
160506.521,-16.113,-20.996,-23.438,-38.086,0.000,0
160506.525,-13.672,-25.391,-27.344,-33.203,0.000,0
160506.529,-29.785,-22.949,-27.344,-21.973,0.000,0
160506.533,-24.414,-23.438,-15.137,-23.438,0.000,0
160506.537,-24.902,-21.484,-24.414,-24.902,0.000,0
160506.541,-24.902,-26.367,-46.387,-22.949,0.000,0
160506.545,-9.766,-34.668,-44.922,-21.484,0.000,0
160506.549,-24.902,-23.438,-16.113,-11.719,0.000,0
160506.553,-28.809,-16.113,-8.789,-15.625,0.000,0
160506.556,-19.043,-22.461,-28.320,-27.344,0.000,0
160506.560,-17.090,-20.508,-36.621,-24.414,0.000,0
160506.564,-16.113,-13.672,-26.367,-12.207,0.000,0
160506.568,-16.113,-15.137,-24.902,-8.301,0.000,0
160506.572,-18.066,-19.043,-16.602,-6.836,0.000,0
160506.576,-13.184,-21.484,-12.695,-18.066,0.000,0
160506.580,-19.043,-14.648,-20.996,-37.109,0.000,0
160506.584,-21.484,-9.766,-23.926,-31.250,0.000,0
160506.588,-22.949,-17.578,-27.344,-7.324,0.000,0
160506.592,-24.414,-20.996,-13.672,-11.719,0.000,0
160506.596,-15.625,-17.578,-6.836,-39.062,0.000,0
160506.599,-19.043,-21.973,-29.297,-27.344,0.000,0
160506.603,-20.508,-26.367,-30.762,-9.766,0.000,0
160506.607,-18.066,-19.531,-22.949,0.488,0.000,0
160506.611,-20.020,-16.602,-22.949,-5.371,0.000,0
160506.615,-36.133,-20.996,-29.785,-26.367,0.000,0
160506.619,-35.156,-21.484,-33.691,-27.344,0.000,0
160506.623,-26.855,-26.855,-33.691,-26.367,0.000,0
160506.627,-38.574,-34.180,-38.086,-30.762,0.000,0
160506.631,-38.086,-27.344,-29.297,-32.227,0.000,0
160506.635,-36.133,-27.344,-23.438,-47.363,0.000,0
160506.638,-41.016,-29.297,-16.602,-29.297,0.000,0
160506.642,-23.438,-25.391,-24.414,-6.348,0.000,0
160506.646,-20.508,-23.438,-38.086,-0.977,0.000,0
160506.650,-34.668,-25.879,-26.855,-2.441,0.000,0
160506.654,-20.996,-32.227,-25.879,-14.648,0.000,0
160506.658,-18.555,-25.391,-37.109,-20.508,0.000,0
160506.662,-28.809,-19.531,-35.645,-23.926,0.000,0
160506.666,-31.250,-18.555,-25.879,-23.926,0.000,0
160506.670,-33.203,-16.113,-23.438,-22.461,0.000,0
160506.674,-40.039,-16.113,-27.832,-27.832,0.000,0
160506.678,-35.645,-15.625,-31.738,-25.879,0.000,0
160506.681,-23.926,-23.438,-29.297,-20.508,0.000,0
160506.685,-25.391,-28.320,-27.344,-25.879,0.000,0
160506.689,-20.996,-25.879,-33.691,-18.066,0.000,0
160506.693,-18.555,-21.973,-31.250,-23.438,0.000,0
160506.697,-24.902,-20.508,-26.367,-36.133,0.000,0
160506.701,-15.625,-26.367,-23.438,-19.531,0.000,0
160506.705,-13.672,-27.832,-30.273,-6.348,0.000,0
160506.709,-22.949,-29.297,-32.227,-32.227,0.000,0
160506.713,-36.133,-32.227,-24.902,-56.152,0.000,0
160506.717,-27.832,-30.273,-30.762,-38.086,0.000,0
160506.721,-16.602,-31.738,-34.668,-18.555,0.000,0
160506.724,-23.926,-35.645,-32.227,-24.414,0.000,0
160506.728,-31.738,-35.645,-21.484,-48.828,0.000,0
160506.732,-26.367,-37.109,-16.113,-57.129,0.000,0
160506.736,-24.902,-34.180,-28.809,-33.203,0.000,0
160506.740,-32.715,-32.715,-34.180,-21.973,0.000,0
160506.744,-39.062,-33.691,-35.156,-40.527,0.000,0
160506.748,-38.574,-34.180,-34.180,-42.969,0.000,0
160506.752,-27.344,-31.738,-22.949,-43.945,0.000,0
160506.756,-26.855,-25.879,-22.461,-28.320,0.000,0
160506.760,-26.855,-28.320,-28.809,-18.555,0.000,0
160506.763,-27.344,-26.855,-34.180,-41.992,0.000,0
160506.767,-28.809,-25.879,-25.879,-36.133,0.000,0
160506.771,-20.996,-25.879,-8.301,-28.809,0.000,0
160506.775,-20.508,-20.996,-13.672,-41.504,0.000,0
160506.779,-28.320,-20.996,-30.273,-43.945,0.000,0
160506.783,-25.879,-26.367,-28.320,-40.039,0.000,0
160506.787,-23.926,-22.461,-15.137,-42.969,0.000,0
160506.791,-26.855,-18.555,-18.066,-43.457,0.000,0
160506.795,-31.250,-23.926,-37.109,-40.039,0.000,0
160506.799,-30.273,-28.809,-46.875,-33.691,0.000,0
160506.803,-36.133,-29.297,-32.227,-29.785,0.000,0
160506.806,-25.879,-23.926,-18.066,-39.551,0.000,0
160506.810,-27.832,-24.414,-18.066,-46.875,0.000,0
160506.814,-35.645,-28.320,-26.855,-40.039,0.000,0
160506.818,-35.645,-25.879,-21.484,-32.715,0.000,0
160506.822,-40.527,-23.438,-36.621,-33.203,0.000,0
160506.826,-43.945,-25.879,-41.992,-33.691,0.000,0
160506.830,-40.527,-23.926,-27.832,-49.805,0.000,0
160506.834,-31.738,-19.043,-18.555,-38.574,0.000,0
160506.838,-30.273,-22.949,-24.414,-15.137,0.000,0
160506.842,-35.156,-23.926,-31.738,-15.137,0.000,0
160506.846,-24.414,-20.020,-27.832,-28.320,0.000,0
160506.849,-25.391,-20.996,-20.020,-45.410,0.000,0
160506.853,-34.180,-26.367,-28.320,-43.457,0.000,0
160506.857,-28.320,-28.320,-43.945,-34.180,0.000,0
160506.861,-25.391,-25.879,-42.969,-34.180,0.000,0
160506.865,-26.367,-25.391,-26.855,-30.762,0.000,0
160506.869,-18.066,-22.949,-15.625,-30.762,0.000,0
160506.873,-28.320,-23.438,-29.297,-35.645,0.000,0
160506.877,-34.668,-26.367,-26.855,-37.109,0.000,0
160506.881,-14.648,-31.738,-30.273,-20.020,0.000,0
160506.885,-12.207,-28.320,-39.551,-20.508,0.000,0
160506.888,-44.434,-24.902,-23.926,-48.828,0.000,0
160506.892,-47.852,-21.484,-35.156,-28.809,0.000,0
160506.896,-37.109,-21.484,-45.410,-25.391,0.000,0
160506.900,-35.645,-26.367,-42.480,-46.875,0.000,0
160506.904,-42.969,-24.902,-20.508,-43.457,0.000,0
160506.908,-39.062,-27.832,-23.926,-46.387,0.000,0
160506.912,-27.832,-23.438,-44.434,-40.527,0.000,0
160506.916,-27.344,-17.578,-33.203,-23.438,0.000,0
160506.920,-28.320,-15.625,-23.926,-12.207,0.000,0
160506.924,-26.367,-18.555,-24.414,-18.066,0.000,0
160506.928,-21.973,-22.949,-27.344,-36.621,0.000,0
160506.931,-20.508,-24.414,-28.320,-25.391,0.000,0
160506.935,-30.273,-23.438,-25.879,-11.719,0.000,0
160506.939,-23.438,-25.879,-27.344,-10.254,0.000,0
160506.943,-12.207,-29.297,-29.785,-20.020,0.000,0
160506.947,-20.508,-31.738,-21.484,-37.109,0.000,0
160506.951,-26.855,-37.598,-23.926,-41.992,0.000,0
160506.955,-26.367,-29.297,-26.855,-24.902,0.000,0
160506.959,-21.484,-20.996,-29.297,-2.441,0.000,0
160506.963,-20.996,-23.926,-29.297,-10.254,0.000,0
160506.967,-29.785,-24.902,-16.602,-11.230,0.000,0
160506.971,-22.949,-28.809,-29.785,-13.672,0.000,0
160506.974,-23.438,-35.156,-42.480,-20.996,0.000,0
160506.978,-37.598,-27.832,-23.926,-35.645,0.000,0
160506.982,-30.762,-24.902,-20.508,-29.785,0.000,0
160506.986,-22.949,-30.273,-23.926,-38.086,0.000,0
160506.990,-25.879,-27.344,-30.273,-46.875,0.000,0
160506.994,-39.551,-29.785,-47.852,-21.484,0.000,0
160506.998,-41.016,-28.809,-38.086,-24.414,0.000,0
160507.002,-32.227,-29.297,-31.738,-32.227,0.000,0
160507.006,-31.250,-30.273,-30.273,-31.738,0.000,0
160507.010,-34.180,-21.484,-25.879,-30.273,0.000,0
160507.013,-31.738,-26.855,-36.133,-29.297,0.000,0
160507.017,-35.645,-31.250,-46.875,-38.086,0.000,0
160507.021,-38.086,-28.809,-32.715,-34.668,0.000,0
160507.025,-32.715,-26.367,-24.902,-33.203,0.000,0
160507.029,-28.320,-25.391,-42.969,-25.879,0.000,0
160507.033,-31.250,-36.621,-52.246,-24.902,0.000,0
160507.037,-31.738,-33.691,-39.062,-23.926,0.000,0
160507.041,-26.367,-21.973,-29.297,-29.785,0.000,0
160507.045,-25.879,-23.438,-30.273,-38.086,0.000,0
160507.049,-22.461,-22.949,-29.785,-36.621,0.000,0
160507.053,-14.648,-20.020,-19.043,-37.109,0.000,0
160507.056,-20.996,-22.949,-25.391,-25.391,0.000,0
160507.060,-28.320,-20.508,-36.621,-20.996,0.000,0
160507.064,-26.367,-18.555,-21.484,-39.062,0.000,0
160507.068,-31.738,-17.578,-18.555,-29.785,0.000,0
160507.072,-34.180,-16.113,-30.273,-5.859,0.000,0
160507.076,-18.066,-20.508,-34.668,-19.043,0.000,0
160507.080,-10.742,-22.949,-26.367,-26.367,0.000,0
160507.084,-18.555,-22.949,-14.648,-33.203,0.000,0
160507.088,-22.461,-26.855,-20.508,-51.270,0.000,0
160507.092,-26.855,-27.832,-37.598,-26.367,0.000,0
160507.096,-24.414,-31.738,-47.852,-5.371,0.000,0
160507.099,-41.016,-30.762,-33.691,-20.996,0.000,0
160507.103,-44.922,-30.762,-31.738,-31.738,0.000,0
160507.107,-25.879,-29.297,-51.758,-31.250,0.000,0
160507.111,-32.715,-30.762,-43.945,-31.738,0.000,0
160507.115,-34.668,-30.273,-19.043,-23.926,0.000,0
160507.119,-27.832,-25.391,-22.949,-24.414,0.000,0
160507.123,-24.414,-25.879,-22.461,-41.016,0.000,0
160507.127,-22.949,-23.926,-21.973,-38.086,0.000,0
160507.131,-25.879,-20.996,-23.438,-17.090,0.000,0
160507.135,-29.297,-22.949,-32.227,-25.879,0.000,0
160507.138,-29.785,-25.879,-34.180,-34.180,0.000,0
160507.142,-26.855,-28.320,-24.414,-39.551,0.000,0
160507.146,-20.020,-31.250,-35.156,-20.508,0.000,0
160507.150,-21.484,-32.227,-38.574,-14.160,0.000,0
160507.154,-32.715,-33.691,-39.062,-30.762,0.000,0
160507.158,-31.738,-32.715,-33.691,-33.203,0.000,0
160507.162,-24.414,-30.762,-15.137,-46.875,0.000,0
160507.166,-26.855,-32.715,-29.297,-50.781,0.000,0
160507.170,-34.668,-25.879,-33.203,-24.902,0.000,0
160507.174,-33.691,-24.414,-32.715,-15.137,0.000,0
160507.178,-21.973,-24.902,-34.668,-24.414,0.000,0
160507.181,-15.625,-23.438,-20.996,-39.062,0.000,0
160507.185,-20.020,-17.578,-21.973,-38.574,0.000,0
160507.189,-20.020,-15.137,-17.578,-43.945,0.000,0
160507.193,-28.809,-21.973,-29.297,-32.227,0.000,0
160507.197,-36.621,-28.809,-49.805,-12.207,0.000,0
160507.201,-27.832,-24.414,-33.691,-23.438,0.000,0
160507.205,-29.785,-20.508,-26.855,-15.625,0.000,0
160507.209,-25.391,-23.438,-39.551,-11.230,0.000,0
160507.213,-19.043,-21.484,-38.574,-15.625,0.000,0
160507.217,-23.926,-24.414,-31.738,-19.043,0.000,0
160507.221,-19.531,-29.785,-21.484,-21.484,0.000,0
160507.224,-14.648,-24.902,-27.832,-19.531,0.000,0
160507.228,-20.508,-25.391,-34.180,-30.762,0.000,0
160507.232,-19.531,-24.414,-25.391,-29.297,0.000,0
160507.236,-18.066,-22.949,-22.461,-8.301,0.000,0
160507.240,-19.531,-22.949,-25.391,-25.879,0.000,0
160507.244,-10.742,-20.020,-35.156,-35.156,0.000,0
160507.248,-20.996,-18.066,-24.902,-24.902,0.000,0
160507.252,-22.949,-23.926,-29.297,-27.344,0.000,0
160507.256,-21.973,-28.809,-41.992,-15.625,0.000,0
160507.260,-24.414,-23.926,-23.438,-25.391,0.000,0
160507.263,-18.555,-22.461,-27.832,-26.367,0.000,0
160507.267,-24.414,-27.344,-37.109,-22.949,0.000,0
160507.271,-24.414,-25.879,-35.645,-19.531,0.000,0
160507.275,-14.648,-22.461,-22.461,-6.348,0.000,0
160507.279,-8.789,-19.043,-4.883,-3.418,0.000,0
160507.283,-10.742,-17.578,-19.043,-12.695,0.000,0
160507.287,-19.531,-19.043,-28.320,-25.391,0.000,0
160507.291,-9.766,-25.391,-20.020,-35.156,0.000,0
160507.295,-9.766,-25.879,-18.066,-20.020,0.000,0
160507.299,-20.020,-26.855,-26.367,-25.879,0.000,0
160507.303,-14.160,-31.738,-25.391,-35.645,0.000,0
160507.306,-13.184,-26.855,-24.414,-20.996,0.000,0
160507.310,-11.719,-23.438,-31.250,-10.254,0.000,0
160507.314,-10.254,-26.367,-29.297,-14.160,0.000,0
160507.318,-16.602,-29.297,-23.438,-17.578,0.000,0
160507.322,-9.766,-30.762,-35.645,-4.395,0.000,0
160507.326,-11.230,-29.297,-38.086,-10.254,0.000,0
160507.330,-16.602,-21.484,-24.414,-14.648,0.000,0
160507.334,-11.719,-17.578,-15.625,-23.438,0.000,0
160507.338,-20.020,-18.066,-9.766,-34.180,0.000,0
160507.342,-20.996,-20.020,-25.391,-40.039,0.000,0
160507.346,-16.602,-22.461,-37.109,-32.715,0.000,0
160507.349,-10.742,-21.973,-27.344,-4.395,0.000,0
160507.353,-3.418,-23.926,-22.949,5.371,0.000,0
160507.357,-12.695,-25.879,-27.344,-17.578,0.000,0
160507.361,-13.672,-24.414,-28.320,-28.320,0.000,0
160507.365,-15.137,-23.438,-17.578,-28.809,0.000,0
160507.369,-24.414,-28.320,-23.926,-25.391,0.000,0
160507.373,-24.902,-28.320,-39.062,-16.113,0.000,0
160507.377,-28.809,-31.250,-23.438,-29.785,0.000,0
160507.381,-29.297,-30.273,-15.625,-22.461,0.000,0
160507.385,-30.762,-21.973,-25.879,-13.184,0.000,0
160507.388,-32.715,-23.926,-40.527,-20.996,0.000,0
160507.392,-23.926,-23.926,-41.504,-5.859,0.000,0
160507.396,-30.762,-20.996,-14.648,-14.160,0.000,0
160507.400,-40.039,-17.578,-22.461,-35.156,0.000,0
160507.404,-25.879,-24.902,-40.527,-32.715,0.000,0
160507.408,-32.227,-25.879,-37.598,-29.297,0.000,0
160507.412,-36.133,-16.113,-34.180,-19.043,0.000,0
160507.416,-34.668,-24.414,-26.855,-30.273,0.000,0
160507.420,-36.133,-29.297,-31.250,-37.109,0.000,0
160507.424,-29.297,-23.926,-39.062,-26.855,0.000,0
160507.428,-34.180,-20.996,-35.645,-17.578,0.000,0
160507.431,-29.785,-26.367,-37.598,-10.254,0.000,0
160507.435,-24.902,-31.250,-35.156,-20.996,0.000,0
160507.439,-35.156,-25.391,-24.414,-38.086,0.000,0
160507.443,-36.621,-21.973,-19.531,-37.109,0.000,0
160507.447,-24.414,-20.996,-29.297,-19.043,0.000,0
160507.451,-15.625,-20.020,-32.715,-4.883,0.000,0
160507.455,-18.066,-21.484,-17.578,-41.016,0.000,0
160507.459,-20.020,-21.484,-28.320,-46.875,0.000,0
160507.463,-15.137,-19.043,-44.922,-29.785,0.000,0
160507.467,-6.836,-16.113,-33.691,-28.320,0.000,0
160507.471,-12.207,-19.043,-28.809,-16.113,0.000,0
160507.474,-27.832,-17.578,-14.648,-24.902,0.000,0
160507.478,-25.879,-20.020,-16.602,-41.016,0.000,0
160507.482,-29.297,-29.785,-32.715,-45.898,0.000,0
160507.486,-38.574,-24.902,-18.555,-31.738,0.000,0
160507.490,-24.902,-15.137,-14.648,-19.043,0.000,0
160507.494,-27.344,-22.949,-25.391,-31.738,0.000,0
160507.498,-31.738,-25.879,-19.043,-14.160,0.000,0
160507.502,-19.531,-21.484,-24.902,-10.254,0.000,0
160507.506,-26.855,-27.344,-34.668,-34.180,0.000,0
160507.510,-41.504,-25.391,-31.250,-20.020,0.000,0
160507.513,-39.062,-27.832,-16.602,-25.391,0.000,0
160507.517,-30.762,-26.855,-20.508,-32.227,0.000,0
160507.521,-40.039,-26.855,-33.203,-23.926,0.000,0
160507.525,-35.645,-29.785,-42.480,-19.531,0.000,0
160507.529,-23.438,-26.367,-27.344,2.930,0.000,0
160507.533,-24.902,-30.273,-3.418,-13.672,0.000,0
160507.537,-27.832,-26.367,-24.414,-33.691,0.000,0
160507.541,-28.320,-21.484,-31.250,-33.691,0.000,0
160507.545,-19.043,-25.879,-16.602,-36.621,0.000,0
160507.549,-27.832,-28.320,-28.809,-32.227,0.000,0
160507.553,-32.227,-24.902,-24.414,-29.297,0.000,0
160507.556,-22.461,-17.090,-21.484,-15.137,0.000,0
160507.560,-17.578,-21.484,-31.738,-11.719,0.000,0
160507.564,-22.949,-24.902,-30.273,-16.113,0.000,0
160507.568,-36.133,-22.949,-33.691,-20.996,0.000,0
160507.572,-45.410,-27.344,-36.133,-28.320,0.000,0
160507.576,-36.621,-30.762,-27.344,-34.668,0.000,0
160507.580,-28.809,-31.738,-32.715,-46.875,0.000,0
160507.584,-34.668,-39.062,-39.551,-41.016,0.000,0
160507.588,-36.133,-42.480,-42.480,-33.203,0.000,0
160507.592,-35.156,-42.480,-34.668,-49.316,0.000,0
160507.596,-38.086,-37.109,-21.973,-43.457,0.000,0
160507.599,-33.691,-29.785,-45.898,-20.020,0.000,0
160507.603,-20.508,-25.391,-45.410,-17.090,0.000,0
160507.607,-13.184,-20.020,-27.832,-16.602,0.000,0
160507.611,-15.625,-19.531,-21.484,-18.555,0.000,0
160507.615,-22.949,-23.926,-23.438,-30.273,0.000,0
160507.619,-28.320,-26.367,-31.738,-25.391,0.000,0
160507.623,-33.203,-22.461,-33.691,-18.066,0.000,0
160507.627,-27.344,-24.902,-38.086,-22.461,0.000,0
160507.631,-29.297,-26.367,-24.902,-38.574,0.000,0
160507.635,-25.391,-17.578,-15.625,-41.016,0.000,0
160507.638,-17.090,-16.113,-31.250,-33.691,0.000,0
160507.642,-15.137,-17.090,-30.762,-22.461,0.000,0
160507.646,-9.766,-17.578,-20.508,-11.719,0.000,0
160507.650,-5.371,-12.695,-12.695,-18.066,0.000,0
160507.654,-11.230,-12.695,-21.973,-22.461,0.000,0
160507.658,-22.949,-20.020,-30.762,-32.715,0.000,0
160507.662,-22.949,-20.996,-20.508,-31.250,0.000,0
160507.666,-23.926,-21.484,-15.137,-8.789,0.000,0
160507.670,-22.461,-26.855,-27.344,-9.277,0.000,0
160507.674,-20.996,-22.461,-33.203,-27.832,0.000,0
160507.678,-27.344,-19.531,-30.273,-25.879,0.000,0
160507.681,-30.762,-22.461,-33.203,-24.414,0.000,0
160507.685,-31.738,-26.855,-35.645,-37.109,0.000,0
160507.689,-28.809,-24.414,-33.203,-35.645,0.000,0
160507.693,-30.762,-25.879,-27.832,-26.855,0.000,0
160507.697,-23.926,-35.645,-29.297,-15.625,0.000,0
160507.701,-2.930,-24.414,-44.922,6.348,0.000,0
160507.705,-31.250,-20.020,-49.316,-25.879,0.000,0
160507.709,-55.664,-25.879,-37.109,-49.316,0.000,0
160507.713,-44.434,-30.762,-33.691,-46.875,0.000,0
160507.717,-40.039,-33.203,-56.152,-50.781,0.000,0
160507.721,-44.922,-34.180,-58.105,-51.270,0.000,0
160507.724,-49.805,-35.645,-45.410,-45.898,0.000,0
160507.728,-55.176,-34.180,-46.387,-52.734,0.000,0
160507.732,-48.340,-31.738,-50.293,-57.617,0.000,0
160507.736,-41.504,-31.738,-49.805,-40.527,0.000,0
160507.740,-36.133,-33.691,-49.316,-31.250,0.000,0
160507.744,-27.832,-33.691,-48.340,-22.949,0.000,0
160507.748,-30.273,-30.273,-44.434,-24.414,0.000,0
160507.752,-33.691,-32.227,-37.109,-42.480,0.000,0
160507.756,-34.180,-31.250,-39.062,-36.621,0.000,0
160507.760,-31.738,-29.785,-41.016,-38.086,0.000,0
160507.763,-30.273,-30.762,-50.293,-27.832,0.000,0
160507.767,-30.273,-31.738,-38.574,-21.973,0.000,0
160507.771,-40.527,-30.273,-9.277,-20.996,0.000,0
160507.775,-37.598,-32.715,-33.203,-17.578,0.000,0
160507.779,-26.367,-32.715,-40.527,-32.715,0.000,0
160507.783,-25.391,-25.391,-31.738,-29.785,0.000,0
160507.787,-26.855,-24.414,-31.250,-20.508,0.000,0
160507.791,-26.855,-25.879,-17.090,-45.410,0.000,0
160507.795,-32.227,-24.414,-20.996,-53.223,0.000,0
160507.799,-37.109,-29.785,-24.902,-58.594,0.000,0
160507.803,-38.574,-34.668,-29.785,-45.898,0.000,0
160507.806,-37.109,-32.227,-38.086,-41.992,0.000,0
160507.810,-27.832,-34.180,-33.203,-51.758,0.000,0
160507.814,-28.809,-34.668,-30.762,-38.086,0.000,0
160507.818,-33.691,-33.691,-26.855,-38.086,0.000,0
160507.822,-26.367,-32.227,-36.133,-30.762,0.000,0
160507.826,-25.879,-34.180,-29.785,-22.949,0.000,0
160507.830,-26.855,-28.809,-4.395,-34.180,0.000,0
160507.834,-14.648,-19.043,-10.254,-19.531,0.000,0
160507.838,-18.555,-18.555,-27.832,-20.508,0.000,0
160507.842,-30.762,-22.461,-26.855,-22.949,0.000,0
160507.846,-36.133,-22.949,-16.602,-17.578,0.000,0
160507.849,-29.785,-25.879,-21.973,-21.973,0.000,0
160507.853,-28.320,-29.297,-38.574,-30.762,0.000,0
160507.857,-31.738,-33.203,-34.180,-33.691,0.000,0
160507.861,-27.832,-31.250,-21.484,-33.203,0.000,0
160507.865,-35.645,-28.320,-35.645,-27.832,0.000,0
160507.869,-44.922,-28.809,-28.320,-39.062,0.000,0
160507.873,-36.133,-25.391,-25.391,-44.434,0.000,0
160507.877,-33.691,-20.996,-30.762,-26.855,0.000,0
160507.881,-34.668,-21.973,-29.297,-28.320,0.000,0
160507.885,-19.043,-34.180,-40.039,-27.344,0.000,0
160507.888,-17.578,-26.855,-27.832,-31.250,0.000,0
160507.892,-22.461,-19.531,-21.973,-33.203,0.000,0
160507.896,-23.926,-26.367,-27.832,-29.785,0.000,0
160507.900,-28.809,-24.902,-31.738,-27.832,0.000,0
160507.904,-29.297,-21.484,-30.762,-7.812,0.000,0
160507.908,-34.668,-22.461,-15.137,-6.836,0.000,0
160507.912,-39.551,-24.902,-24.414,-13.672,0.000,0
160507.916,-33.203,-25.879,-40.039,-29.785,0.000,0
160507.920,-32.715,-25.391,-32.227,-33.203,0.000,0
160507.924,-36.133,-25.391,-33.203,-35.156,0.000,0
160507.928,-36.133,-32.715,-33.691,-57.129,0.000,0
160507.931,-39.551,-39.062,-38.574,-53.223,0.000,0
160507.935,-43.945,-36.133,-41.504,-36.621,0.000,0
160507.939,-40.039,-29.785,-38.086,-40.527,0.000,0
160507.943,-37.109,-25.391,-37.598,-43.945,0.000,0
160507.947,-31.738,-23.926,-25.391,-37.598,0.000,0
160507.951,-30.762,-26.855,-20.996,-32.227,0.000,0
160507.955,-27.832,-27.832,-41.992,-22.461,0.000,0
160507.959,-25.391,-22.949,-39.062,-31.250,0.000,0
160507.963,-27.344,-20.996,-25.879,-30.273,0.000,0
160507.967,-29.785,-23.438,-22.949,-30.762,0.000,0
160507.971,-25.391,-22.461,-24.414,-38.086,0.000,0
160507.974,-14.160,-19.531,-38.574,-27.832,0.000,0
160507.978,-10.742,-20.020,-39.551,-17.090,0.000,0
160507.982,-6.348,-23.926,-28.320,-23.926,0.000,0
160507.986,-10.742,-24.902,-22.461,-29.297,0.000,0
160507.990,-14.160,-20.996,-21.973,-23.926,0.000,0
160507.994,-17.578,-21.973,-32.227,-12.207,0.000,0
160507.998,-24.414,-21.484,-27.832,-7.812,0.000,0
160508.002,-25.391,-24.414,-24.414,-19.043,0.000,0
160508.006,-25.879,-24.414,-25.391,-34.668,0.000,0
160508.010,-15.137,-21.484,-28.809,-20.508,0.000,0
160508.013,-15.137,-21.484,-32.715,-18.066,0.000,0
160508.017,-31.738,-22.461,-41.504,-29.297,0.000,0
160508.021,-29.297,-26.855,-38.086,-29.785,0.000,0
160508.025,-24.414,-25.391,-20.508,-28.809,0.000,0
160508.029,-25.391,-22.461,-11.719,-42.969,0.000,0
160508.033,-17.578,-23.438,-25.391,-41.016,0.000,0
160508.037,-10.742,-14.160,-20.996,-25.391,0.000,0
160508.041,-22.949,-17.090,-16.602,-11.230,0.000,0
160508.045,-20.508,-20.020,-26.855,-25.879,0.000,0
160508.049,-13.184,-24.414,-23.438,-37.598,0.000,0
160508.053,-26.855,-26.367,-27.344,-23.926,0.000,0
160508.056,-27.344,-23.926,-32.715,-17.578,0.000,0
160508.060,-25.879,-19.531,-36.133,-22.461,0.000,0
160508.064,-15.137,-14.160,-27.344,-23.926,0.000,0
160508.068,-5.371,-15.625,-20.508,-23.438,0.000,0
160508.072,-15.625,-18.066,-30.273,-23.438,0.000,0
160508.076,-15.137,-18.066,-26.855,-13.672,0.000,0
160508.080,-14.160,-14.160,-23.926,6.836,0.000,0
160508.084,-35.645,-22.949,-25.391,2.441,0.000,0
160508.088,-36.621,-26.855,-18.066,-31.250,0.000,0
160508.092,-28.320,-21.973,-33.691,-41.504,0.000,0
160508.096,-24.902,-22.949,-48.340,-20.996,0.000,0
160508.099,-9.277,-20.508,-30.273,-6.348,0.000,0
160508.103,-14.160,-17.090,-15.625,-22.461,0.000,0
160508.107,-17.578,-17.578,-15.137,-45.410,0.000,0
160508.111,-20.020,-20.020,-32.227,-28.320,0.000,0
160508.115,-22.949,-16.113,-24.902,-16.602,0.000,0
160508.119,-26.855,-19.531,-29.785,-20.020,0.000,0
160508.123,-24.902,-26.855,-34.180,-22.461,0.000,0
160508.127,-20.020,-27.344,-15.137,-29.785,0.000,0
160508.131,-30.762,-26.855,-26.367,-14.648,0.000,0
160508.135,-28.320,-24.414,-36.133,-14.648,0.000,0
160508.138,-15.625,-21.973,-34.180,-26.855,0.000,0
160508.142,-25.879,-27.832,-28.809,-20.508,0.000,0
160508.146,-45.410,-26.367,-9.766,-31.738,0.000,0
160508.150,-35.156,-18.555,-20.508,-25.879,0.000,0
160508.154,-22.949,-19.531,-39.551,-10.742,0.000,0
160508.158,-23.438,-22.949,-36.621,-21.484,0.000,0
160508.162,-16.602,-25.391,-20.996,-20.996,0.000,0
160508.166,-13.672,-20.996,-5.859,-36.621,0.000,0
160508.170,-17.578,-22.461,-20.020,-44.434,0.000,0
160508.174,-22.949,-35.156,-33.691,-24.902,0.000,0
160508.178,-25.391,-34.180,-24.902,-23.438,0.000,0
160508.181,-33.203,-29.785,-30.273,-31.738,0.000,0
160508.185,-22.949,-30.273,-28.809,-40.527,0.000,0
160508.189,-20.996,-31.738,-20.996,-28.809,0.000,0
160508.193,-24.414,-28.809,-18.555,-17.090,0.000,0
160508.197,-12.207,-20.996,-23.438,-17.578,0.000,0
160508.201,-20.020,-20.020,-25.391,-22.949,0.000,0
160508.205,-23.438,-21.973,-15.137,-18.066,0.000,0
160508.209,-10.742,-27.344,-21.484,-29.785,0.000,0
160508.213,-18.066,-29.297,-31.738,-51.270,0.000,0
160508.217,-30.273,-31.250,-32.715,-38.574,0.000,0
160508.221,-25.879,-28.320,-23.926,-14.648,0.000,0
160508.224,-21.973,-24.902,-13.184,-8.789,0.000,0
160508.228,-20.020,-27.344,-18.555,-14.648,0.000,0
160508.232,-25.391,-25.879,-30.762,-20.508,0.000,0
160508.236,-31.250,-30.273,-20.020,-33.691,0.000,0
160508.240,-22.461,-33.691,-24.902,-39.062,0.000,0
160508.244,-22.949,-23.926,-20.996,-43.457,0.000,0
160508.248,-28.809,-21.973,-19.043,-46.875,0.000,0
160508.252,-25.391,-24.902,-26.855,-50.293,0.000,0
160508.256,-26.855,-27.832,-29.785,-42.969,0.000,0
160508.260,-29.785,-29.297,-37.109,-25.879,0.000,0
160508.263,-24.414,-29.297,-26.855,-29.785,0.000,0
160508.267,-19.531,-35.645,-28.320,-41.016,0.000,0
160508.271,-17.578,-34.180,-43.945,-27.344,0.000,0
160508.275,-27.832,-31.250,-45.410,-22.949,0.000,0
160508.279,-30.273,-31.738,-39.551,-22.461,0.000,0
160508.283,-16.113,-26.367,-28.809,-33.203,0.000,0
160508.287,-13.184,-25.879,-38.574,-43.457,0.000,0
160508.291,-12.207,-25.879,-38.574,-31.738,0.000,0
160508.295,-12.207,-17.090,-22.461,-19.043,0.000,0
160508.299,-17.578,-11.719,-25.879,-9.277,0.000,0
160508.303,-20.508,-15.625,-28.809,-18.066,0.000,0
160508.306,-21.484,-18.555,-36.621,-41.992,0.000,0
160508.310,-33.691,-21.973,-30.273,-39.062,0.000,0
160508.314,-38.574,-25.391,-27.344,-33.203,0.000,0
160508.318,-21.973,-28.809,-43.945,-21.484,0.000,0
160508.322,-21.484,-24.414,-43.945,-14.160,0.000,0
160508.326,-32.227,-19.043,-28.809,-35.156,0.000,0
160508.330,-25.391,-25.879,-30.273,-43.945,0.000,0
160508.334,-20.508,-25.879,-33.203,-24.414,0.000,0
160508.338,-22.949,-24.414,-25.879,-10.254,0.000,0
160508.342,-33.691,-37.598,-31.738,-26.855,0.000,0
160508.346,-48.828,-39.062,-38.574,-36.621,0.000,0
160508.349,-37.109,-30.273,-40.527,-33.203,0.000,2
160508.353,-26.367,-32.227,-41.504,-35.156,0.000,0
160508.357,-32.227,-32.227,-39.062,-23.926,0.000,0
160508.361,-35.156,-25.391,-31.250,-27.832,0.000,0
160508.365,-30.762,-26.855,-24.902,-36.133,0.000,0
160508.369,-30.273,-29.785,-24.902,-20.996,0.000,0
160508.373,-35.156,-26.367,-31.250,-24.414,0.000,0
160508.377,-32.715,-27.832,-43.457,-29.297,0.000,0
160508.381,-22.949,-25.879,-34.180,-22.461,0.000,0
160508.385,-10.254,-24.414,-21.973,-9.766,0.000,0
160508.388,0.977,-26.367,-34.668,-0.488,0.000,0
160508.392,-19.043,-27.344,-43.457,-36.621,0.000,0
160508.396,-43.457,-26.855,-39.551,-45.898,0.000,0
160508.400,-47.363,-28.320,-21.973,-32.715,0.000,0
160508.404,-44.922,-19.531,-16.602,-39.551,0.000,0
160508.408,-35.156,-21.484,-36.621,-27.832,0.000,0
160508.412,-39.551,-23.926,-32.715,-36.133,0.000,0
160508.416,-47.852,-22.949,-21.484,-48.828,0.000,0
160508.420,-45.410,-26.367,-41.992,-34.668,0.000,0
160508.424,-36.133,-29.785,-46.387,-38.086,0.000,0
160508.428,-26.855,-25.879,-33.203,-26.855,0.000,0
160508.431,-29.297,-16.113,-27.832,-25.879,0.000,0
160508.435,-28.320,-15.625,-36.621,-19.531,0.000,0
160508.439,-22.949,-20.508,-36.621,-19.531,0.000,0
160508.443,-27.344,-20.508,-26.367,-35.156,0.000,0
160508.447,-29.297,-26.367,-36.621,-24.414,0.000,0
160508.451,-27.344,-35.645,-49.805,-24.414,0.000,0
160508.455,-26.367,-32.227,-47.852,-12.695,0.000,0
160508.459,-27.832,-32.227,-27.832,-15.625,0.000,0
160508.463,-27.832,-37.109,-16.113,-35.645,0.000,0
160508.467,-21.973,-31.738,-33.203,-31.250,0.000,0
160508.471,-25.391,-28.809,-31.738,-28.320,0.000,0
160508.474,-26.855,-30.762,-34.668,-14.648,0.000,0
160508.478,-18.066,-32.715,-33.691,-16.113,0.000,0
160508.482,-19.531,-30.273,-17.090,-36.621,0.000,0
160508.486,-30.273,-29.297,-30.762,-21.973,0.000,0
160508.490,-29.785,-28.809,-32.227,-9.277,0.000,0
160508.494,-32.715,-30.762,-27.832,-14.648,0.000,0
160508.498,-27.832,-30.273,-29.297,-24.414,0.000,0
160508.502,-26.367,-29.785,-20.020,-40.527,0.000,0
160508.506,-37.598,-29.785,-25.879,-37.109,0.000,0
160508.510,-35.645,-21.973,-35.156,-29.785,0.000,0
160508.513,-33.203,-23.438,-34.180,-39.062,0.000,0
160508.517,-26.855,-26.855,-22.461,-33.203,0.000,0
160508.521,-34.668,-21.973,-8.789,-12.695,0.000,0
160508.525,-32.227,-23.926,-29.297,-16.113,0.000,0
160508.529,-27.344,-31.738,-36.621,-23.438,0.000,0
160508.533,-38.574,-23.438,-29.297,-32.227,0.000,0
160508.537,-30.273,-18.555,-31.738,-36.133,0.000,0
160508.541,-28.320,-25.879,-26.855,-38.086,0.000,0
160508.545,-34.668,-24.902,-29.785,-47.852,0.000,0
160508.549,-35.156,-22.949,-34.180,-43.945,0.000,0
160508.553,-32.715,-21.484,-32.715,-39.062,0.000,0
160508.556,-33.691,-27.344,-44.922,-32.227,0.000,0
160508.560,-42.969,-31.250,-39.551,-48.340,0.000,0
160508.564,-41.504,-24.902,-18.066,-49.316,0.000,0
160508.568,-38.086,-24.414,-20.996,-42.969,0.000,0
160508.572,-26.855,-26.367,-37.109,-37.598,0.000,0
160508.576,-24.902,-24.414,-33.203,-20.020,0.000,0
160508.580,-38.086,-23.926,-11.230,-39.551,0.000,0
160508.584,-37.109,-25.879,-21.484,-40.039,0.000,0
160508.588,-42.969,-32.715,-46.387,-28.320,0.000,0
160508.592,-42.969,-32.715,-44.434,-47.852,0.000,0
160508.596,-42.969,-28.320,-36.621,-52.734,0.000,0
160508.599,-41.992,-27.832,-33.203,-46.387,0.000,0
160508.603,-26.367,-22.949,-33.203,-45.410,0.000,0
160508.607,-28.809,-23.926,-35.645,-53.223,0.000,0
160508.611,-36.133,-27.344,-16.602,-35.156,0.000,0
160508.615,-24.902,-22.461,-20.996,-10.742,0.000,0
160508.619,-21.973,-19.531,-20.020,-33.691,0.000,0
160508.623,-27.344,-20.996,-25.879,-38.086,0.000,0
160508.627,-19.531,-26.855,-37.109,-24.414,0.000,0
160508.631,-20.996,-24.902,-22.461,-31.250,0.000,0
160508.635,-22.949,-24.414,-22.949,-39.062,0.000,0
160508.638,-20.020,-28.809,-26.367,-48.828,0.000,0
160508.642,-18.066,-22.949,-22.461,-50.781,0.000,0
160508.646,-20.508,-20.996,-23.438,-32.227,0.000,0
160508.650,-16.602,-22.949,-37.598,-7.324,0.000,0
160508.654,-18.066,-22.461,-29.297,-11.230,0.000,0
160508.658,-25.391,-25.879,-16.602,-24.902,0.000,0
160508.662,-28.809,-27.832,-32.227,-12.695,0.000,0
160508.666,-32.715,-18.066,-28.320,-21.484,0.000,0
160508.670,-24.902,-20.020,-22.949,-20.996,0.000,0
160508.674,-36.133,-26.855,-27.832,-28.320,0.000,0
160508.678,-35.645,-18.555,-17.578,-41.016,0.000,0
160508.681,-32.715,-15.625,-16.113,-43.945,0.000,0
160508.685,-35.645,-23.926,-26.855,-42.480,0.000,0
160508.689,-30.273,-21.484,-28.320,-28.320,0.000,0
160508.693,-28.320,-16.113,-29.785,-23.438,0.000,0
160508.697,-23.926,-16.113,-18.555,-36.133,0.000,0
160508.701,-20.020,-22.949,-16.602,-45.898,0.000,0
160508.705,-22.949,-25.391,-33.203,-43.945,0.000,0
160508.709,-22.949,-17.578,-24.902,-25.391,0.000,0
160508.713,-20.508,-20.020,-26.367,-9.766,0.000,0
160508.717,-23.438,-21.484,-17.090,-32.715,0.000,0
160508.721,-28.809,-20.508,-15.137,-40.039,0.000,0
160508.724,-31.250,-21.484,-37.109,-23.926,0.000,0
160508.728,-19.043,-18.066,-27.344,-30.762,0.000,0
160508.732,-13.184,-16.602,-24.902,-28.320,0.000,0
160508.736,-23.926,-19.531,-24.414,-35.156,0.000,0
160508.740,-26.367,-22.949,-23.926,-35.156,0.000,0
160508.744,-32.227,-22.461,-30.273,-23.926,0.000,0
160508.748,-33.203,-30.273,-35.645,-39.551,0.000,0
160508.752,-32.227,-35.645,-48.828,-38.574,0.000,0
160508.756,-41.016,-32.715,-31.250,-38.574,0.000,0
160508.760,-30.762,-34.668,-14.160,-42.480,0.000,0
160508.763,-15.137,-32.227,-28.809,-33.203,0.000,0
160508.767,-25.879,-29.297,-38.574,-32.227,0.000,0
160508.771,-28.809,-29.785,-33.203,-27.832,0.000,0
160508.775,-30.762,-29.297,-20.996,-40.527,0.000,0
160508.779,-39.551,-32.227,-30.762,-51.270,0.000,0
160508.783,-39.062,-29.785,-41.504,-43.457,0.000,0
160508.787,-33.691,-24.902,-36.621,-32.715,0.000,0
160508.791,-31.738,-25.879,-35.645,-14.648,0.000,0
160508.795,-32.715,-24.902,-23.926,-24.902,0.000,0
160508.799,-32.715,-21.484,-17.090,-36.133,0.000,0
160508.803,-28.809,-22.461,-33.203,-22.461,0.000,0
160508.806,-25.391,-24.902,-35.645,-26.367,0.000,0
160508.810,-27.832,-26.855,-30.273,-34.180,0.000,0
160508.814,-19.043,-26.367,-15.137,-30.762,0.000,0
160508.818,-10.742,-21.484,-10.254,-24.902,0.000,0
160508.822,-19.043,-16.113,-19.531,-28.320,0.000,0
160508.826,-23.926,-21.484,-35.156,-14.648,0.000,0
160508.830,-19.043,-17.578,-30.762,-4.883,0.000,0
160508.834,-20.508,-11.230,-10.742,-10.742,0.000,0
160508.838,-28.809,-20.508,-24.902,-33.203,0.000,0
160508.842,-21.973,-26.367,-38.574,-46.387,0.000,0
160508.846,-17.090,-22.949,-26.367,-33.203,0.000,0
160508.849,-23.926,-24.414,-14.648,-20.996,0.000,0
160508.853,-12.207,-22.949,-16.113,-21.973,0.000,0
160508.857,-17.578,-17.578,-19.043,-28.320,0.000,0
160508.861,-20.508,-20.996,-25.391,-24.414,0.000,0
160508.865,-9.766,-24.414,-27.832,-26.855,0.000,0
160508.869,-14.160,-26.855,-41.016,-34.668,0.000,0
160508.873,-15.137,-28.320,-33.203,-39.551,0.000,0
160508.877,-12.695,-21.973,-11.719,-36.621,0.000,0
160508.881,-15.625,-12.695,-15.137,-37.109,0.000,0
160508.885,-17.090,-13.184,-25.879,-21.973,0.000,0
160508.888,-22.461,-17.578,-38.574,-6.348,0.000,0
160508.892,-17.578,-22.461,-20.996,-20.508,0.000,0
160508.896,-24.902,-23.438,-5.371,-37.598,0.000,0
160508.900,-33.203,-25.391,-32.227,-41.016,0.000,0
160508.904,-29.785,-35.645,-43.457,-27.344,0.000,0
160508.908,-30.762,-33.203,-36.621,-28.809,0.000,0
160508.912,-22.461,-24.414,-27.832,-35.156,0.000,0
160508.916,-18.066,-25.391,-21.484,-32.227,0.000,0
160508.920,-29.297,-20.508,-26.367,-20.996,0.000,0
160508.924,-32.715,-20.508,-29.297,-25.879,0.000,1
160508.928,-33.691,-28.320,-39.551,-26.855,0.000,0
160508.931,-41.504,-30.762,-42.969,-20.020,0.000,0
160508.935,-40.527,-26.855,-34.668,-38.086,0.000,0
160508.939,-38.086,-24.902,-29.785,-30.762,0.000,0
160508.943,-31.250,-21.484,-30.762,-18.066,0.000,0
160508.947,-32.715,-24.414,-38.574,-27.344,0.000,0
160508.951,-38.574,-28.809,-32.715,-26.855,0.000,0
160508.955,-36.133,-30.273,-22.461,-32.715,0.000,0
160508.959,-28.809,-24.414,-26.855,-34.180,0.000,0
160508.963,-26.367,-16.602,-26.855,-23.438,0.000,0
160508.967,-28.809,-21.973,-27.344,-11.230,0.000,0
160508.971,-36.133,-23.438,-28.809,-22.461,0.000,0
160508.974,-40.039,-22.949,-25.879,-31.738,0.000,0
160508.978,-33.691,-21.973,-26.855,-17.090,0.000,0
160508.982,-14.648,-24.902,-20.508,2.930,0.000,0
160508.986,-13.672,-21.484,-20.996,-9.277,0.000,0
160508.990,-25.879,-11.719,-26.855,-37.109,0.000,0
160508.994,-24.414,-15.625,-18.555,-37.598,0.000,0
160508.998,-24.902,-18.066,-20.508,-29.785,0.000,0
160509.002,-29.297,-13.672,-25.879,-27.344,0.000,0
160509.006,-30.762,-15.625,-27.832,-37.109,0.000,0
160509.010,-18.066,-16.113,-20.508,-31.250,0.000,0
160509.013,-2.930,-7.812,-8.789,-22.949,0.000,0
160509.017,-9.766,-5.859,-11.230,-12.695,0.000,0
160509.021,-23.926,-10.254,-25.391,0.000,0.000,0
160509.025,-24.902,-18.555,-18.066,-16.602,0.000,0
160509.029,-23.926,-20.020,-9.277,-29.297,0.000,0
160509.033,-22.461,-15.137,-21.484,-32.227,0.000,0
160509.037,-20.996,-17.090,-33.203,-31.738,0.000,0
160509.041,-22.949,-20.508,-39.551,-23.926,0.000,0
160509.045,-19.531,-20.508,-28.320,-25.391,0.000,0
160509.049,-24.902,-14.648,-22.461,-16.113,0.000,0
160509.053,-26.367,-14.648,-20.020,-21.484,0.000,0
160509.056,-26.855,-18.066,-25.391,-41.504,0.000,0
160509.060,-37.598,-20.508,-30.273,-52.246,0.000,0
160509.064,-28.320,-17.578,-23.438,-35.156,0.000,0
160509.068,-33.203,-20.020,-35.645,-23.438,0.000,0
160509.072,-36.621,-24.902,-30.762,-50.293,0.000,0
160509.076,-26.855,-20.020,-21.484,-47.363,0.000,0
160509.080,-21.973,-18.066,-39.551,-24.414,0.000,0
160509.084,-28.809,-24.414,-39.062,-22.461,0.000,0
160509.088,-33.691,-27.832,-38.086,-22.949,0.000,0
160509.092,-28.809,-27.832,-31.250,-40.527,0.000,0
160509.096,-24.414,-24.414,-25.391,-40.039,0.000,0
160509.099,-23.926,-26.367,-35.156,-39.551,0.000,0
160509.103,-22.949,-29.785,-31.738,-36.621,0.000,0
160509.107,-18.066,-29.297,-29.785,-20.020,0.000,0
160509.111,-14.648,-27.832,-23.926,-27.344,0.000,0
160509.115,-20.996,-25.391,-22.949,-22.949,0.000,0
160509.119,-32.715,-26.367,-30.273,-26.855,0.000,0
160509.123,-25.879,-26.367,-34.180,-35.156,0.000,0
160509.127,-10.254,-21.484,-25.391,-39.551,0.000,0
160509.131,-9.766,-16.602,-3.906,-40.527,0.000,0
160509.135,-9.766,-16.113,-18.066,-37.109,0.000,0
160509.138,-4.883,-17.090,-31.250,-40.527,0.000,0
160509.142,-10.742,-16.113,-24.902,-21.484,0.000,0
160509.146,-13.672,-15.625,-18.555,-6.348,0.000,0
160509.150,-6.836,-17.578,-8.789,-23.926,0.000,0
160509.154,-0.488,-9.277,-8.301,-24.902,0.000,0
160509.158,-12.207,-9.277,-27.344,-15.625,0.000,0
160509.162,-21.973,-14.160,-28.809,-22.461,0.000,0
160509.166,-17.578,-17.578,-24.902,-15.137,0.000,0
160509.170,-18.555,-27.344,-29.785,-32.227,0.000,0
160509.174,-16.113,-25.391,-26.367,-38.086,0.000,0
160509.178,-21.484,-25.879,-25.879,-25.391,0.000,0
160509.181,-25.879,-27.344,-31.250,-19.531,0.000,0
160509.185,-24.414,-30.273,-44.922,-10.742,0.000,0
160509.189,-24.902,-31.250,-29.297,-25.391,0.000,0
160509.193,-24.902,-30.762,-20.996,-24.414,0.000,0
160509.197,-18.555,-36.621,-42.480,-16.113,0.000,0
160509.201,-5.371,-33.691,-46.387,-18.555,0.000,0
160509.205,3.906,-27.344,-37.109,0.000,0.000,0
160509.209,-14.648,-33.203,-37.598,-6.348,0.000,0
160509.213,-49.805,-40.039,-35.156,-59.082,0.000,0
160509.217,-56.152,-35.645,-32.227,-63.965,0.000,0
160509.221,-41.992,-37.598,-55.664,-41.016,0.000,0
160509.224,-36.621,-37.109,-47.363,-43.945,0.000,0
160509.228,-31.250,-37.109,-35.156,-36.133,0.000,0
160509.232,-33.691,-47.363,-39.551,-50.781,0.000,0
160509.236,-41.504,-44.434,-53.711,-60.547,0.000,0
160509.240,-41.504,-41.992,-47.363,-53.711,0.000,0
160509.244,-41.016,-38.574,-45.410,-41.992,0.000,0
160509.248,-34.668,-33.203,-46.875,-25.391,0.000,0
160509.252,-31.250,-31.250,-32.715,-37.598,0.000,0
160509.256,-33.203,-32.715,-40.039,-30.273,0.000,0
160509.260,-21.973,-31.738,-51.758,-13.672,0.000,0
160509.263,-22.461,-29.785,-54.688,-23.926,0.000,0
160509.267,-32.227,-30.762,-30.273,-30.273,0.000,0
160509.271,-29.297,-26.855,-11.230,-43.457,0.000,0
160509.275,-30.273,-28.320,-36.133,-39.551,0.000,0
160509.279,-26.855,-30.762,-42.480,-39.551,0.000,0
160509.283,-18.066,-24.902,-30.762,-19.043,0.000,0
160509.287,-23.926,-27.344,-33.203,1.465,0.000,0
160509.291,-27.344,-28.809,-32.715,-23.926,0.000,0
160509.295,-27.832,-20.508,-27.344,-30.273,0.000,0
160509.299,-22.461,-18.555,-21.973,-15.625,0.000,0
160509.303,-20.508,-19.043,-21.484,-9.766,0.000,0
160509.306,-30.273,-21.973,-31.250,-22.461,0.000,0
160509.310,-35.156,-24.902,-35.156,-43.457,0.000,0
160509.314,-33.691,-21.973,-18.066,-36.621,0.000,0
160509.318,-27.832,-19.531,-19.043,-25.879,0.000,0
160509.322,-35.156,-26.855,-41.504,-28.320,0.000,0
160509.326,-31.250,-24.414,-32.715,-26.367,0.000,0
160509.330,-15.625,-19.043,-13.184,-28.320,0.000,0
160509.334,-24.414,-25.879,-19.531,-30.273,0.000,0
160509.338,-28.320,-31.250,-32.715,-24.902,0.000,0
160509.342,-26.367,-29.297,-32.227,-5.859,0.000,0
160509.346,-36.621,-26.367,-15.137,-14.648,0.000,0
160509.349,-37.598,-27.832,-22.949,-36.621,0.000,0
160509.353,-35.156,-28.809,-43.457,-26.367,0.000,0
160509.357,-35.156,-26.367,-32.715,-19.531,0.000,0
160509.361,-23.438,-26.855,-30.273,-14.648,0.000,0
160509.365,-27.832,-28.809,-29.785,-20.996,0.000,0
160509.369,-42.969,-33.203,-29.297,-42.969,0.000,0
160509.373,-45.410,-31.738,-40.527,-43.457,0.000,0
160509.377,-43.457,-34.668,-40.039,-44.922,0.000,0
160509.381,-35.645,-41.992,-38.574,-45.898,0.000,0
160509.385,-43.945,-39.062,-36.621,-52.246,0.000,0
160509.388,-52.734,-32.227,-30.762,-64.453,0.000,0
160509.392,-33.691,-36.621,-39.062,-45.898,0.000,0
160509.396,-27.832,-30.273,-45.410,-38.086,0.000,0
160509.400,-35.645,-25.391,-45.410,-44.922,0.000,0
160509.404,-25.879,-28.809,-33.691,-44.922,0.000,0
160509.408,-7.812,-29.785,-22.949,-51.270,0.000,0
160509.412,-11.719,-31.250,-29.297,-33.203,0.000,0
160509.416,-19.043,-23.438,-26.855,-16.113,0.000,0
160509.420,-22.949,-16.602,-32.715,-16.113,0.000,0
160509.424,-17.090,-21.973,-38.086,-23.926,0.000,0
160509.428,-10.254,-23.438,-23.438,-31.250,0.000,0
160509.431,-6.348,-18.066,-20.020,-11.719,0.000,0
160509.435,-15.137,-17.578,-25.879,-14.160,0.000,0
160509.439,-22.949,-20.996,-40.527,-24.414,0.000,0
160509.443,-23.926,-26.855,-36.133,-23.438,0.000,0
160509.447,-27.832,-23.926,-10.742,-40.039,0.000,0
160509.451,-19.043,-19.043,-29.297,-43.457,0.000,0
160509.455,-26.367,-24.902,-41.504,-37.598,0.000,0
160509.459,-44.922,-26.855,-35.156,-31.738,0.000,0
160509.463,-26.855,-21.973,-22.949,-21.973,0.000,0
160509.467,-13.672,-22.461,-10.742,-35.156,0.000,0
160509.471,-27.832,-22.461,-28.320,-32.227,0.000,0
160509.474,-22.949,-20.020,-33.691,-20.996,0.000,0
160509.478,-10.742,-22.461,-26.367,-20.996,0.000,0
160509.482,-16.602,-24.902,-27.832,-27.344,0.000,0
160509.486,-21.973,-20.508,-23.438,-40.039,0.000,0
160509.490,-19.043,-15.137,-20.020,-18.555,0.000,0
160509.494,-17.578,-18.555,-16.113,-2.441,0.000,0
160509.498,-16.602,-24.902,-30.273,-15.625,0.000,0
160509.502,-14.160,-23.438,-29.297,-24.902,0.000,0
160509.506,-14.648,-19.531,-7.324,-36.621,0.000,0
160509.510,-15.625,-22.461,-21.484,-25.391,0.000,0
160509.513,-12.207,-27.344,-38.086,-16.113,0.000,0
160509.517,-12.695,-22.461,-30.762,-19.043,0.000,0
160509.521,-20.996,-26.855,-21.973,-19.531,0.000,0
160509.525,-28.809,-27.344,-17.090,-34.180,0.000,0
160509.529,-15.137,-18.066,-20.020,-29.297,0.000,0
160509.533,-13.184,-20.996,-26.855,-12.695,0.000,0
160509.537,-23.926,-24.902,-33.691,-22.949,0.000,0
160509.541,-27.832,-31.250,-35.645,-31.738,0.000,0
160509.545,-27.344,-35.645,-34.668,-31.250,0.000,0
160509.549,-30.273,-33.691,-37.598,-32.715,0.000,0
160509.553,-36.133,-27.344,-20.508,-23.438,0.000,0
160509.556,-22.949,-19.531,-17.090,-22.949,0.000,0
160509.560,-25.391,-18.555,-26.855,-25.879,0.000,0
160509.564,-39.062,-28.809,-20.020,-30.762,0.000,0
160509.568,-20.996,-28.809,-23.438,-21.973,0.000,0
160509.572,-5.371,-18.066,-35.156,-3.906,0.000,0
160509.576,-23.926,-19.043,-43.457,-28.809,0.000,0
160509.580,-32.715,-16.602,-36.133,-38.574,0.000,0
160509.584,-29.297,-9.766,-20.508,-26.367,0.000,0
160509.588,-35.645,-10.742,-25.391,-35.645,0.000,0
160509.592,-31.738,-6.836,-34.180,-42.969,0.000,1
160509.596,-30.762,-3.906,-15.625,-32.227,0.000,0
160509.599,-22.949,-3.906,-7.812,-10.742,0.000,0
160509.603,-16.113,-15.625,-20.508,-27.832,0.000,0
160509.607,-13.184,-15.137,-16.113,-23.926,0.000,0
160509.611,-19.531,-14.648,-20.996,-1.953,0.000,0
160509.615,-19.043,-18.555,-26.367,4.395,0.000,0
160509.619,-11.230,-18.555,-24.902,-8.301,0.000,0
160509.623,-5.859,-19.043,-14.160,-28.320,0.000,0
160509.627,-11.230,-18.555,-8.789,-31.738,0.000,0
160509.631,-24.414,-18.066,-15.137,-34.180,0.000,0
160509.635,-23.438,-21.484,-26.367,-27.344,0.000,0
160509.638,-25.391,-22.461,-39.551,-20.996,0.000,0
160509.642,-34.180,-25.391,-9.277,-33.691,0.000,0
160509.646,-29.297,-26.367,-9.277,-30.762,0.000,0
160509.650,-22.949,-23.926,-46.387,-19.043,0.000,0
160509.654,-24.902,-26.367,-39.551,-32.715,0.000,0
160509.658,-39.062,-29.297,-27.832,-37.109,0.000,0
160509.662,-38.574,-25.879,-28.320,-44.434,0.000,0
160509.666,-30.273,-23.926,-30.762,-43.457,0.000,0
160509.670,-35.645,-22.949,-35.156,-30.273,0.000,0
160509.674,-41.992,-21.973,-35.645,-21.484,0.000,0
160509.678,-36.133,-22.461,-33.691,-9.766,0.000,0
160509.681,-34.668,-25.879,-38.086,-17.090,0.000,0
160509.685,-40.039,-30.762,-36.133,-39.551,0.000,0
160509.689,-47.363,-28.809,-25.879,-37.598,0.000,0
160509.693,-45.410,-26.367,-32.227,-26.367,0.000,0
160509.697,-25.391,-25.879,-27.832,-28.809,0.000,0
160509.701,-24.414,-22.461,-22.949,-28.320,0.000,0
160509.705,-30.273,-22.949,-29.785,-45.410,0.000,0
160509.709,-30.762,-23.438,-36.133,-40.527,0.000,0
160509.713,-34.668,-23.438,-40.039,-20.508,0.000,0
160509.717,-37.109,-27.344,-38.086,-17.578,0.000,0
160509.721,-31.738,-24.414,-32.227,-21.484,0.000,0
160509.724,-37.109,-25.391,-29.297,-42.480,0.000,0
160509.728,-41.504,-28.320,-30.273,-37.598,0.000,0
160509.732,-31.250,-21.484,-19.043,-24.414,0.000,0
160509.736,-22.949,-23.438,-35.156,-23.438,0.000,0
160509.740,-25.879,-28.320,-40.527,-20.020,0.000,0
160509.744,-34.180,-24.902,-13.184,-33.203,0.000,0
160509.748,-30.273,-25.391,-14.648,-43.945,0.000,0
160509.752,-26.855,-34.180,-45.410,-27.832,0.000,0
160509.756,-28.809,-31.738,-48.340,-32.227,0.000,0
160509.760,-31.738,-27.832,-25.391,-42.480,0.000,0
160509.763,-24.902,-31.250,-17.578,-45.410,0.000,0
160509.767,-21.973,-31.738,-34.180,-49.316,0.000,0
160509.771,-32.227,-29.785,-36.133,-45.898,0.000,0
160509.775,-26.855,-25.879,-33.691,-23.438,0.000,0
160509.779,-22.461,-18.555,-21.973,-16.113,0.000,0
160509.783,-17.578,-20.508,-20.508,-42.480,0.000,0
160509.787,-28.320,-32.227,-38.086,-43.945,0.000,0
160509.791,-38.086,-35.156,-34.180,-24.902,0.000,0
160509.795,-41.016,-31.738,-33.203,-33.691,0.000,0
160509.799,-39.551,-33.691,-35.645,-39.551,0.000,0
160509.803,-28.320,-31.738,-26.367,-47.363,0.000,0
160509.806,-36.133,-27.344,-29.297,-53.711,0.000,0
160509.810,-44.434,-30.273,-29.297,-47.363,0.000,0
160509.814,-41.016,-28.320,-31.250,-38.574,0.000,0
160509.818,-40.527,-28.320,-36.621,-39.551,0.000,0
160509.822,-45.898,-37.598,-24.414,-46.875,0.000,0
160509.826,-44.434,-37.109,-37.598,-35.156,0.000,0
160509.830,-41.016,-38.086,-53.711,-31.738,0.000,0
160509.834,-37.598,-41.016,-45.898,-24.414,0.000,0
160509.838,-33.691,-47.363,-41.016,-18.066,0.000,0
160509.842,-33.691,-41.016,-31.738,-47.852,0.000,0
160509.846,-38.574,-35.156,-33.691,-53.223,0.000,0
160509.849,-31.250,-30.273,-26.367,-37.598,0.000,0
160509.853,-27.344,-25.391,-33.203,-21.484,0.000,0
160509.857,-29.785,-29.297,-41.504,-18.555,0.000,0
160509.861,-24.414,-30.273,-19.043,-39.551,0.000,0
160509.865,-30.762,-31.250,-29.785,-32.227,0.000,0
160509.869,-24.414,-31.738,-43.457,-20.020,0.000,0
160509.873,-20.020,-27.344,-37.598,-19.043,0.000,0
160509.877,-28.809,-23.438,-27.344,-19.043,0.000,0
160509.881,-27.832,-27.344,-5.859,-31.738,0.000,0
160509.885,-25.879,-25.879,-4.395,-36.621,0.000,0
160509.888,-24.414,-17.090,-21.973,-23.438,0.000,0
160509.892,-20.020,-19.531,-27.344,-17.578,0.000,0
160509.896,-15.137,-22.461,-22.461,-14.160,0.000,0
160509.900,-17.578,-17.090,-16.113,-30.273,0.000,0
160509.904,-20.020,-20.996,-25.879,-45.898,0.000,0
160509.908,-23.438,-24.414,-27.344,-38.086,0.000,0
160509.912,-26.367,-25.879,-19.043,-22.949,0.000,0
160509.916,-20.508,-27.344,-41.016,-21.973,0.000,0
160509.920,-20.508,-25.879,-39.062,-30.273,0.000,0
160509.924,-23.926,-28.809,-14.160,-32.715,0.000,0
160509.928,-24.902,-30.762,-16.602,-17.578,0.000,0
160509.931,-22.461,-21.973,-26.855,-17.578,0.000,0
160509.935,-17.578,-12.695,-21.973,-23.438,0.000,0
160509.939,-16.113,-13.184,-7.812,-23.926,0.000,0
160509.943,-10.254,-15.137,-8.789,-28.809,0.000,0
160509.947,-11.719,-12.695,-20.996,-31.250,0.000,0
160509.951,-21.484,-17.090,-26.855,-18.555,0.000,0
160509.955,-26.855,-18.066,-32.227,-9.766,0.000,0
160509.959,-16.113,-20.508,-25.879,-14.648,0.000,0
160509.963,-16.602,-21.973,-32.227,-23.926,0.000,0
160509.967,-22.949,-20.020,-41.992,-15.625,0.000,0
160509.971,-23.926,-13.672,-23.926,-7.324,0.000,0
160509.974,-25.391,-7.812,-14.160,-18.555,0.000,0
160509.978,-17.090,-11.230,-20.020,-30.273,0.000,0
160509.982,-13.672,-18.555,-18.555,-26.367,0.000,0
160509.986,-29.297,-19.043,-20.020,-33.691,0.000,0
160509.990,-28.809,-17.578,-22.461,-32.715,0.000,0
160509.994,-13.184,-18.555,-37.109,-25.879,0.000,0
160509.998,-16.602,-22.461,-33.203,-27.344,0.000,0
160510.002,-28.809,-25.391,-17.090,-27.832,0.000,0
160510.006,-27.344,-25.391,-16.113,-15.625,0.000,0
160510.010,-22.461,-24.902,-18.066,-3.418,0.000,0
160510.013,-29.785,-24.902,-25.391,-21.973,0.000,0
160510.017,-40.039,-25.391,-7.324,-25.879,0.000,0
160510.021,-37.109,-25.391,-12.695,-37.598,0.000,0
160510.025,-24.902,-26.855,-29.297,-46.387,0.000,0
160510.029,-22.461,-28.320,-30.273,-33.203,0.000,0
160510.033,-19.043,-31.738,-32.227,-21.484,0.000,0
160510.037,-22.461,-29.297,-28.320,-30.273,0.000,0
160510.041,-28.320,-21.973,-18.555,-37.109,0.000,0
160510.045,-19.043,-22.949,-19.531,-28.809,0.000,0
160510.049,-20.996,-25.391,-27.832,-24.414,0.000,0
160510.053,-33.203,-27.832,-29.785,-35.645,0.000,0
160510.056,-25.391,-30.273,-9.766,-54.199,0.000,0
160510.060,-26.367,-23.438,-17.578,-46.387,0.000,0
160510.064,-29.785,-21.484,-41.504,-24.414,0.000,0
160510.068,-20.020,-23.926,-33.691,-18.555,0.000,0
160510.072,-25.391,-24.414,-20.020,-24.902,0.000,0
160510.076,-35.645,-30.762,-20.996,-44.434,0.000,0
160510.080,-29.785,-27.344,-30.273,-42.480,0.000,0
160510.084,-22.461,-25.391,-27.832,-23.926,0.000,0
160510.088,-23.926,-32.715,-22.949,-16.602,0.000,0
160510.092,-16.602,-31.250,-23.926,-22.461,0.000,0
160510.096,-13.672,-26.367,-16.113,-28.320,0.000,0
160510.099,-32.715,-25.879,-24.902,-26.367,0.000,0
160510.103,-36.133,-24.902,-26.367,-14.160,0.000,0
160510.107,-23.438,-28.809,-33.203,-12.695,0.000,0
160510.111,-20.996,-34.668,-36.621,-24.902,0.000,0
160510.115,-18.555,-23.438,-17.090,-35.156,0.000,0
160510.119,-22.461,-18.066,-18.555,-32.227,0.000,0
160510.123,-23.926,-19.043,-19.531,-24.902,0.000,0
160510.127,-26.367,-20.996,-24.414,-15.137,0.000,0
160510.131,-33.203,-28.320,-29.297,-10.742,0.000,0
160510.135,-36.621,-30.762,-19.043,-27.344,0.000,0
160510.138,-40.039,-29.297,-28.320,-33.691,0.000,0
160510.142,-37.109,-29.297,-30.762,-17.090,0.000,0
160510.146,-39.551,-24.902,-25.879,-17.090,0.000,0
160510.150,-34.180,-21.484,-19.043,-29.785,0.000,0
160510.154,-27.832,-21.973,-9.277,-37.598,0.000,0
160510.158,-31.250,-22.949,-12.695,-39.551,0.000,0
160510.162,-21.484,-22.461,-21.484,-26.367,0.000,0
160510.166,-23.438,-25.391,-40.527,-9.766,0.000,0
160510.170,-28.809,-26.367,-40.527,-12.695,0.000,0
160510.174,-28.320,-21.973,-13.672,-15.625,0.000,0
160510.178,-24.902,-21.484,-13.672,-17.578,0.000,0
160510.181,-22.461,-25.879,-28.809,-32.227,0.000,0
160510.185,-23.438,-26.855,-27.832,-38.086,0.000,0
160510.189,-25.391,-21.484,-23.438,-28.809,0.000,0
160510.193,-33.203,-12.207,-10.742,-28.320,0.000,0
160510.197,-27.344,-13.184,-22.949,-34.668,0.000,0
160510.201,-23.926,-14.648,-42.480,-21.973,0.000,0
160510.205,-35.156,-17.090,-45.410,-14.648,0.000,0
160510.209,-41.016,-25.879,-27.832,-22.949,0.000,0
160510.213,-45.410,-25.879,-19.043,-24.414,0.000,0
160510.217,-44.922,-20.508,-33.203,-31.250,0.000,0
160510.221,-39.062,-25.879,-38.574,-33.203,0.000,0
160510.224,-38.574,-28.809,-31.250,-28.809,0.000,0
160510.228,-39.062,-23.926,-30.762,-25.879,0.000,0
160510.232,-36.133,-24.414,-25.391,-44.922,0.000,0
160510.236,-41.016,-27.344,-20.508,-52.246,0.000,0
160510.240,-40.527,-23.926,-21.484,-32.227,0.000,0
160510.244,-35.156,-27.344,-36.133,-35.156,0.000,0
160510.248,-29.785,-28.809,-51.758,-23.926,0.000,0
160510.252,-27.344,-22.461,-22.461,-31.250,0.000,0
160510.256,-28.320,-20.508,-11.719,-55.664,0.000,0
160510.260,-34.668,-22.461,-30.762,-48.340,0.000,0
160510.263,-32.715,-19.531,-25.879,-36.133,0.000,0
160510.267,-28.809,-20.020,-34.180,-11.719,0.000,1
160510.271,-30.762,-26.855,-27.832,-24.414,0.000,0
160510.275,-31.250,-30.762,-23.438,-35.156,0.000,0
160510.279,-32.715,-23.438,-33.691,-15.625,0.000,0
160510.283,-22.461,-22.949,-27.832,-20.508,0.000,0
160510.287,-25.879,-27.344,-23.438,-35.156,0.000,0
160510.291,-33.691,-33.203,-33.691,-36.621,0.000,0
160510.295,-28.320,-35.156,-38.086,-34.180,0.000,0
160510.299,-30.762,-27.832,-20.996,-26.855,0.000,0
160510.303,-26.367,-23.438,-17.578,-23.438,0.000,0
160510.306,-12.207,-26.367,-26.855,-10.742,0.000,0
160510.310,-18.555,-25.391,-23.926,-16.602,0.000,0
160510.314,-23.438,-21.484,-25.879,-36.621,0.000,0
160510.318,-17.090,-20.996,-32.715,-31.250,0.000,0
160510.322,-19.531,-21.973,-27.832,-35.156,0.000,0
160510.326,-16.602,-24.902,-23.926,-28.320,0.000,0
160510.330,-15.625,-21.484,-22.461,-26.855,0.000,0
160510.334,-15.625,-17.090,-21.973,-34.668,0.000,0
160510.338,-11.719,-21.484,-21.973,-28.809,0.000,0
160510.342,-23.438,-25.879,-21.484,-17.090,0.000,0
160510.346,-27.832,-30.762,-30.762,-9.766,0.000,0
160510.349,-17.578,-33.203,-37.598,-20.020,0.000,0
160510.353,-20.508,-32.715,-33.691,-37.109,0.000,0
160510.357,-21.973,-34.668,-33.203,-29.785,0.000,0
160510.361,-18.066,-31.738,-28.809,-21.973,0.000,0
160510.365,-19.043,-21.484,-19.531,-18.066,0.000,0
160510.369,-25.391,-21.484,-29.785,-25.879,0.000,0
160510.373,-27.344,-25.879,-25.879,-42.480,0.000,0
160510.377,-26.367,-24.902,-28.320,-31.738,0.000,0
160510.381,-29.785,-29.297,-43.945,-24.414,0.000,0
160510.385,-20.020,-29.785,-44.922,-20.996,0.000,0
160510.388,-17.578,-20.508,-15.137,-23.438,0.000,0
160510.392,-24.902,-22.461,-8.301,-32.715,0.000,0
160510.396,-21.973,-28.809,-38.574,-36.133,0.000,0
160510.400,-6.836,-26.367,-37.598,-20.508,0.000,0
160510.404,-17.090,-23.438,-25.391,-19.043,0.000,0
160510.408,-40.527,-27.832,-29.297,-42.969,0.000,0
160510.412,-31.738,-28.320,-20.020,-51.270,0.000,0
160510.416,-21.484,-23.926,-33.203,-41.992,0.000,0
160510.420,-26.367,-20.996,-29.785,-34.180,0.000,0
160510.424,-35.645,-20.996,-20.020,-44.922,0.000,0
160510.428,-30.762,-20.508,-21.484,-38.086,0.000,0
160510.431,-35.156,-22.461,-11.719,-34.668,0.000,0
160510.435,-35.156,-26.367,-9.766,-38.086,0.000,0
160510.439,-18.066,-29.785,-20.020,-28.809,0.000,0
160510.443,-19.043,-31.738,-30.762,-24.414,0.000,0
160510.447,-39.551,-32.227,-30.762,-33.203,0.000,0
160510.451,-43.457,-28.809,-16.113,-49.805,0.000,0
160510.455,-38.574,-25.391,-22.461,-43.945,0.000,0
160510.459,-36.133,-24.902,-40.039,-31.250,0.000,0
160510.463,-36.133,-24.902,-31.738,-30.273,0.000,0
160510.467,-46.875,-30.762,-16.602,-33.691,0.000,0
160510.471,-41.992,-27.344,-23.438,-40.039,0.000,0
160510.474,-37.598,-22.461,-24.902,-32.715,0.000,0
160510.478,-48.828,-26.367,-22.461,-32.227,0.000,0
160510.482,-43.945,-27.832,-44.922,-26.367,0.000,0
160510.486,-27.832,-28.320,-41.992,-16.113,0.000,0
160510.490,-26.367,-25.391,-17.090,-32.715,0.000,0
160510.494,-24.902,-23.926,-28.809,-29.297,0.000,0
160510.498,-24.902,-21.973,-34.180,-17.578,0.000,0
160510.502,-27.832,-14.160,-23.926,-14.648,0.000,0
160510.506,-30.273,-17.090,-21.484,-10.742,0.000,0
160510.510,-27.344,-23.926,-12.207,-28.320,0.000,0
160510.513,-22.949,-23.926,-23.438,-38.086,0.000,0
160510.517,-34.180,-26.855,-43.945,-39.062,0.000,0
160510.521,-29.297,-28.809,-37.109,-22.461,0.000,0
160510.525,-14.160,-16.602,-22.461,-20.020,0.000,0
160510.529,-12.695,-8.301,-15.625,-31.250,0.000,0
160510.533,-19.531,-13.672,-29.297,-23.438,0.000,0
160510.537,-17.090,-17.578,-25.391,-26.855,0.000,0
160510.541,-21.484,-17.578,-15.137,-23.438,0.000,0
160510.545,-25.879,-18.555,-23.926,-23.438,0.000,0
160510.549,-20.020,-23.926,-22.949,-32.715,0.000,0
160510.553,-20.996,-20.020,-16.113,-31.250,0.000,0
160510.556,-22.461,-18.555,-21.973,-29.785,0.000,0
160510.560,-20.996,-16.113,-24.414,-23.438,0.000,0
160510.564,-15.137,-16.602,-21.973,-20.996,0.000,0
160510.568,-23.926,-22.949,-17.090,-24.414,0.000,0
160510.572,-31.738,-24.414,-19.531,-21.484,0.000,0
160510.576,-28.320,-21.484,-27.344,-29.785,0.000,0
160510.580,-27.344,-24.414,-29.297,-21.484,0.000,0
160510.584,-33.691,-30.762,-32.227,-11.230,0.000,0
160510.588,-32.715,-28.320,-30.273,-24.902,0.000,0
160510.592,-21.973,-21.484,-25.879,-32.227,0.000,0
160510.596,-26.855,-20.020,-29.785,-29.785,0.000,0
160510.599,-31.738,-18.066,-29.785,-17.578,0.000,0
160510.603,-26.367,-17.578,-20.996,-10.742,0.000,0
160510.607,-32.715,-24.902,-15.137,-20.020,0.000,0
160510.611,-24.414,-23.926,-19.043,-25.391,0.000,0
160510.615,-22.949,-19.531,-22.461,-23.926,0.000,0
160510.619,-22.461,-20.996,-35.156,-20.020,0.000,0
160510.623,-23.926,-22.461,-36.621,-29.297,0.000,0
160510.627,-33.691,-24.414,-18.555,-39.551,0.000,0
160510.631,-37.598,-22.949,-29.297,-20.508,0.000,0
160510.635,-26.367,-22.461,-37.598,-8.789,0.000,0
160510.638,-16.113,-21.973,-23.926,-14.160,0.000,0
160510.642,-24.902,-20.020,-12.207,-18.555,0.000,0
160510.646,-24.902,-19.531,-19.043,-35.156,0.000,0
160510.650,-18.555,-17.578,-20.020,-24.902,0.000,0
160510.654,-23.926,-12.207,-9.766,-10.742,0.000,0
160510.658,-26.855,-13.184,-14.160,-10.742,0.000,0
160510.662,-26.855,-14.160,-23.438,-9.277,0.000,0
160510.666,-25.879,-19.531,-28.809,-26.855,0.000,0
160510.670,-22.461,-20.020,-25.391,-21.973,0.000,0
160510.674,-30.762,-20.020,-24.902,-8.789,0.000,0
160510.678,-24.414,-21.973,-26.855,-6.836,0.000,0
160510.681,-22.461,-16.113,-28.809,10.742,0.000,0
160510.685,-29.297,-14.160,-23.926,-6.348,0.000,0
160510.689,-28.809,-12.207,-13.672,-23.926,0.000,0
160510.693,-24.414,-20.996,-27.832,-7.324,0.000,0
160510.697,-25.879,-24.414,-38.574,-14.160,0.000,0
160510.701,-21.484,-19.043,-33.203,-19.043,0.000,0
160510.705,-12.695,-18.555,-19.043,-17.090,0.000,0
160510.709,-21.484,-19.043,-29.297,-21.973,0.000,0
160510.713,-31.738,-19.531,-42.480,-21.484,0.000,0
160510.717,-36.133,-20.508,-26.367,-20.020,0.000,0
160510.721,-31.250,-23.438,-32.227,-24.414,0.000,0
160510.724,-21.973,-33.203,-39.062,-35.645,0.000,0
160510.728,-23.926,-33.691,-30.273,-33.691,0.000,0
160510.732,-22.461,-21.484,-37.598,-13.184,0.000,0
160510.736,-17.578,-19.043,-33.691,-15.137,0.000,0
160510.740,-29.297,-21.484,-34.668,-21.973,0.000,0
160510.744,-30.762,-20.508,-20.996,-24.414,0.000,0
160510.748,-27.344,-21.484,-18.555,-28.320,0.000,0
160510.752,-23.438,-25.391,-33.203,-20.508,0.000,0
160510.756,-25.879,-22.949,-26.367,-25.391,0.000,0
160510.760,-32.715,-24.414,-27.832,-24.902,0.000,0
160510.763,-35.156,-29.297,-29.785,-33.691,0.000,0
160510.767,-34.668,-26.367,-36.621,-41.992,0.000,0
160510.771,-35.645,-26.367,-40.527,-25.391,0.000,0
160510.775,-45.898,-32.715,-41.504,-13.672,0.000,0
160510.779,-43.457,-33.203,-34.180,-28.320,0.000,0
160510.783,-28.809,-31.738,-24.902,-42.969,0.000,0
160510.787,-27.832,-30.273,-37.598,-43.457,0.000,0
160510.791,-31.738,-23.438,-34.668,-43.457,0.000,0
160510.795,-21.973,-19.531,-29.297,-25.391,0.000,0
160510.799,-26.855,-21.973,-41.504,-17.090,0.000,0
160510.803,-26.855,-21.484,-22.461,-31.250,0.000,0
160510.806,-18.066,-24.902,-6.836,-34.668,0.000,0
160510.810,-20.996,-23.926,-26.855,-14.648,0.000,0
160510.814,-25.879,-22.461,-39.062,-15.625,0.000,0
160510.818,-23.926,-23.926,-31.738,-19.043,0.000,0
160510.822,-32.227,-21.484,-11.719,-42.969,0.000,0
160510.826,-20.508,-20.020,-11.230,-54.688,0.000,0
160510.830,-1.953,-18.066,-20.996,-34.180,0.000,0
160510.834,-12.695,-25.391,-16.602,-23.438,0.000,0
160510.838,-16.602,-27.344,-21.484,-23.438,0.000,0
160510.842,-17.090,-20.996,-12.207,-37.598,0.000,0
160510.846,-22.949,-20.996,-11.230,-27.344,0.000,0
160510.849,-24.902,-28.320,-33.691,-15.625,0.000,0
160510.853,-29.297,-30.762,-30.762,-25.391,0.000,0
160510.857,-22.949,-29.785,-32.715,-24.414,0.000,0
160510.861,-16.602,-31.738,-32.227,-31.250,0.000,0
160510.865,-30.762,-25.879,-22.949,-40.527,0.000,0
160510.869,-32.227,-24.414,-29.785,-38.086,0.000,1
160510.873,-25.391,-22.461,-32.227,-29.297,0.000,0
160510.877,-23.926,-20.020,-36.621,-22.949,0.000,0
160510.881,-21.973,-23.438,-20.508,-24.414,0.000,0
160510.885,-16.602,-21.973,-2.441,-29.785,0.000,0
160510.888,-16.113,-25.879,-30.762,-45.898,0.000,0
160510.892,-21.973,-26.367,-31.250,-44.922,0.000,0
160510.896,-33.691,-17.578,-20.996,-23.438,0.000,0
160510.900,-26.367,-22.461,-32.227,-20.508,0.000,0
160510.904,-16.113,-30.762,-26.367,-39.062,0.000,0
160510.908,-23.926,-29.297,-26.367,-33.691,0.000,0
160510.912,-21.484,-25.879,-23.926,-13.184,0.000,0
160510.916,-20.020,-28.809,-31.738,-18.066,0.000,0
160510.920,-28.320,-28.809,-29.297,-27.832,0.000,0
160510.924,-29.785,-29.297,-20.996,-43.457,0.000,0
160510.928,-24.902,-30.273,-34.668,-46.875,0.000,0
160510.931,-27.832,-29.297,-39.551,-34.668,0.000,0
160510.935,-28.320,-29.785,-35.645,-26.855,0.000,0
160510.939,-24.902,-32.715,-28.320,-20.020,0.000,0
160510.943,-20.996,-27.832,-25.879,-33.203,0.000,0
160510.947,-22.461,-23.438,-40.039,-20.020,0.000,0
160510.951,-31.738,-24.902,-44.434,-16.602,0.000,0
160510.955,-36.621,-22.461,-18.066,-18.066,0.000,0
160510.959,-8.301,-14.648,-12.207,0.000,0.000,0
160510.963,-0.977,-10.742,-25.391,-9.277,0.000,0
160510.967,-18.066,-20.020,-26.855,-24.414,0.000,0
160510.971,-21.973,-27.832,-25.391,-21.973,0.000,0
160510.974,-19.043,-26.367,-32.715,-3.906,0.000,0
160510.978,-23.926,-30.273,-31.738,-15.625,0.000,0
160510.982,-24.414,-28.809,-15.625,-33.691,0.000,0
160510.986,-21.484,-18.555,-13.672,-17.578,0.000,0
160510.990,-24.902,-15.137,-25.391,-8.301,0.000,0
160510.994,-18.555,-24.902,-36.621,-13.672,0.000,0
160510.998,-17.578,-29.297,-26.855,-22.461,0.000,0
160511.002,-15.625,-24.414,-7.812,-41.504,0.000,0
160511.006,-11.230,-24.902,-23.438,-40.527,0.000,0
160511.010,-28.809,-27.832,-37.109,-28.809,0.000,0
160511.013,-32.715,-27.344,-31.250,-29.785,0.000,0
160511.017,-20.020,-22.461,-20.020,-30.273,0.000,0
160511.021,-18.066,-23.926,-20.020,-31.738,0.000,0
160511.025,-29.297,-23.438,-28.320,-30.273,0.000,0
160511.029,-31.250,-28.809,-28.809,-35.156,0.000,0
160511.033,-33.691,-33.203,-34.180,-22.949,0.000,0
160511.037,-38.574,-31.738,-32.227,-22.949,0.000,0
160511.041,-29.297,-35.156,-21.484,-54.199,0.000,0
160511.045,-32.227,-28.320,-23.926,-36.621,0.000,0
160511.049,-46.387,-27.344,-39.551,-33.203,0.000,0
160511.053,-33.203,-32.227,-43.945,-39.551,0.000,0
160511.056,-34.180,-27.344,-24.414,-37.598,0.000,0
160511.060,-50.293,-24.902,-14.160,-39.062,0.000,0
160511.064,-46.875,-24.414,-31.738,-26.855,0.000,0
160511.068,-47.363,-25.879,-39.062,-34.180,0.000,0
160511.072,-41.016,-25.391,-31.738,-28.809,0.000,0
160511.076,-32.715,-25.879,-23.438,-23.438,0.000,0
160511.080,-37.109,-31.738,-26.855,-45.410,0.000,0
160511.084,-46.387,-37.598,-34.668,-51.758,0.000,0
160511.088,-43.945,-36.133,-14.160,-44.922,0.000,0
160511.092,-35.156,-26.367,-14.160,-41.504,0.000,0
160511.096,-27.832,-23.926,-34.668,-39.062,0.000,0
160511.099,-28.809,-25.879,-19.531,-40.039,0.000,0
160511.103,-26.367,-29.785,-22.461,-46.387,0.000,0
160511.107,-20.020,-30.762,-30.762,-37.109,0.000,0
160511.111,-24.902,-25.879,-31.250,-19.043,0.000,0
160511.115,-24.414,-28.809,-30.273,-21.484,0.000,0
160511.119,-18.555,-21.973,-9.766,-38.574,0.000,0
160511.123,-23.926,-16.602,-17.578,-30.273,0.000,0
160511.127,-27.344,-21.973,-33.691,-22.949,0.000,0
160511.131,-25.391,-26.855,-34.180,-27.832,0.000,0
160511.135,-13.672,-22.461,-20.020,-21.973,0.000,0
160511.138,-9.277,-19.531,-12.207,-30.273,0.000,0
160511.142,-13.672,-21.973,-28.809,-22.949,0.000,0
160511.146,-16.602,-19.043,-23.926,-7.812,0.000,0
160511.150,-22.949,-23.438,-21.484,-23.438,0.000,0
160511.154,-25.879,-27.344,-31.250,-20.508,0.000,0
160511.158,-23.438,-20.996,-14.160,-11.719,0.000,0
160511.162,-20.020,-18.066,-16.113,-25.879,0.000,0
160511.166,-16.113,-23.438,-33.691,-27.344,0.000,0
160511.170,-13.184,-22.949,-26.367,-16.113,0.000,0
160511.174,-23.438,-18.066,-21.484,-16.602,0.000,0
160511.178,-27.344,-19.531,-21.973,-22.949,0.000,0
160511.181,-28.809,-21.973,-24.414,-32.227,0.000,0
160511.185,-38.574,-27.344,-34.668,-44.434,0.000,0
160511.189,-31.738,-28.320,-31.250,-33.691,0.000,0
160511.193,-32.715,-26.367,-28.320,-26.367,0.000,0
160511.197,-25.879,-25.391,-20.508,-23.438,0.000,0
160511.201,-17.090,-24.414,-29.297,-20.996,0.000,0
160511.205,-22.949,-20.020,-31.738,-30.273,0.000,0
160511.209,-28.809,-16.602,-21.484,-29.297,0.000,0
160511.213,-31.250,-24.414,-31.738,-27.344,0.000,0
160511.217,-33.203,-31.738,-26.367,-38.574,0.000,0
160511.221,-25.391,-26.367,-19.531,-41.016,0.000,0
160511.224,-23.438,-17.578,-24.414,-25.391,0.000,0
160511.228,-23.926,-16.113,-35.156,-17.090,0.000,0
160511.232,-20.020,-20.996,-41.016,-20.996,0.000,0
160511.236,-24.902,-20.508,-19.531,-38.086,0.000,0
160511.240,-29.297,-12.695,-7.324,-47.852,0.000,0
160511.244,-33.203,-15.137,-26.367,-37.109,0.000,0
160511.248,-20.996,-18.555,-33.691,-37.109,0.000,0
160511.252,-10.742,-15.137,-32.715,-28.320,0.000,0
160511.256,-20.020,-20.508,-27.832,-34.180,0.000,0
160511.260,-24.902,-27.832,-34.180,-40.039,0.000,0
160511.263,-29.785,-20.996,-40.039,-23.438,0.000,0
160511.267,-30.273,-20.996,-34.180,-19.043,0.000,0
160511.271,-29.297,-24.414,-34.180,-10.254,0.000,0
160511.275,-28.809,-22.949,-33.691,-25.391,0.000,0
160511.279,-29.785,-24.902,-33.203,-42.969,0.000,0
160511.283,-21.484,-23.926,-28.320,-28.320,0.000,0
160511.287,-15.625,-22.949,-20.508,-13.672,0.000,0
160511.291,-16.602,-28.320,-32.227,-13.184,0.000,0
160511.295,-16.602,-33.203,-39.551,-34.668,0.000,0
160511.299,-12.207,-25.391,-31.738,-31.250,0.000,0
160511.303,-21.484,-21.973,-28.320,-17.090,0.000,0
160511.306,-23.926,-22.461,-28.809,-19.531,0.000,0
160511.310,-15.625,-20.508,-27.832,-16.602,0.000,0
160511.314,-19.531,-21.484,-20.020,-22.461,0.000,0
160511.318,-31.250,-24.414,-21.484,-32.715,0.000,0
160511.322,-28.809,-29.785,-34.180,-23.926,0.000,0
160511.326,-28.320,-27.832,-39.062,-17.090,0.000,0
160511.330,-33.203,-20.020,-21.973,-17.578,0.000,0
160511.334,-30.273,-21.973,-14.648,-22.461,0.000,0
160511.338,-43.457,-26.855,-22.949,-19.043,0.000,0
160511.342,-40.039,-26.855,-34.180,-21.484,0.000,0
160511.346,-32.227,-23.926,-36.133,-33.691,0.000,0
160511.349,-32.227,-29.297,-32.227,-32.715,0.000,0
160511.353,-21.484,-32.715,-23.926,-26.367,0.000,0
160511.357,-24.414,-25.391,-18.066,-47.363,0.000,0
160511.361,-32.227,-21.973,-21.973,-48.340,0.000,0
160511.365,-28.809,-18.555,-18.555,-30.762,0.000,0
160511.369,-22.949,-20.996,-27.832,-28.809,0.000,0
160511.373,-26.367,-21.484,-20.508,-26.367,0.000,0
160511.377,-30.273,-18.555,-1.465,-20.996,0.000,0
160511.381,-28.809,-24.902,-29.785,-46.387,0.000,0
160511.385,-28.809,-25.879,-29.297,-42.480,0.000,0
160511.388,-32.227,-24.902,-14.160,-25.391,0.000,0
160511.392,-24.902,-19.531,-10.742,-39.551,0.000,0
160511.396,-25.879,-14.648,-15.625,-35.156,0.000,0
160511.400,-33.203,-21.484,-23.438,-20.508,0.000,0
160511.404,-25.391,-25.879,-28.320,-19.043,0.000,0
160511.408,-23.438,-24.902,-29.785,-30.273,0.000,0
160511.412,-22.461,-26.367,-26.855,-40.039,0.000,0
160511.416,-20.996,-23.438,-20.996,-20.508,0.000,0
160511.420,-24.902,-23.926,-24.414,-28.320,0.000,0
160511.424,-21.484,-23.926,-37.109,-27.832,0.000,1
160511.428,-19.531,-22.949,-31.738,-14.648,0.000,0
160511.431,-26.367,-30.273,-22.949,-29.785,0.000,0
160511.435,-18.555,-33.203,-38.574,-27.832,0.000,0
160511.439,-26.367,-31.250,-42.480,-18.066,0.000,0
160511.443,-31.250,-30.762,-40.527,-11.719,0.000,0
160511.447,-28.320,-31.250,-37.109,-25.391,0.000,0
160511.451,-29.785,-33.691,-23.438,-39.551,0.000,0
160511.455,-26.855,-32.715,-30.273,-33.203,0.000,0
160511.459,-32.715,-32.227,-37.598,-38.086,0.000,0
160511.463,-22.949,-27.344,-30.762,-20.996,0.000,0
160511.467,-16.602,-27.832,-34.180,-22.949,0.000,0
160511.471,-22.949,-30.273,-33.691,-40.527,0.000,0
160511.474,-15.137,-24.902,-28.809,-13.184,0.000,0
160511.478,-15.625,-22.461,-26.367,-8.789,0.000,0
160511.482,-21.484,-25.391,-32.227,-26.855,0.000,0
160511.486,-9.766,-22.949,-24.414,-13.184,0.000,0
160511.490,-2.441,-20.508,-2.441,-26.367,0.000,0
160511.494,-13.672,-22.461,-12.695,-36.621,0.000,0
160511.498,-20.508,-24.414,-39.062,-24.414,0.000,0
160511.502,-15.137,-21.973,-35.156,-10.742,0.000,0
160511.506,-20.020,-17.578,-20.508,-4.395,0.000,0
160511.510,-22.949,-22.949,-19.043,-26.855,0.000,0
160511.513,-26.855,-23.926,-31.250,-22.949,0.000,0
160511.517,-24.902,-21.484,-34.668,-13.672,0.000,0
160511.521,-26.367,-18.555,-19.043,-12.207,0.000,0
160511.525,-38.574,-20.508,-30.762,-19.531,0.000,0
160511.529,-31.250,-23.926,-31.250,-37.598,0.000,0
160511.533,-22.461,-24.414,-25.879,-33.203,0.000,0
160511.537,-29.785,-27.832,-32.227,-41.504,0.000,0
160511.541,-36.621,-26.855,-41.016,-47.852,0.000,0
160511.545,-37.598,-23.438,-41.016,-26.367,0.000,0
160511.549,-24.414,-22.461,-19.043,-31.738,0.000,0
160511.553,-25.879,-21.484,-22.461,-26.855,0.000,0
160511.556,-38.574,-28.809,-46.387,-22.461,0.000,0
160511.560,-33.691,-33.691,-53.223,-43.945,0.000,0
160511.564,-30.762,-29.297,-31.250,-42.969,0.000,0
160511.568,-32.227,-22.461,-8.301,-41.504,0.000,0
160511.572,-31.250,-20.996,-29.297,-45.410,0.000,0
160511.576,-28.809,-19.043,-44.434,-43.945,0.000,0
160511.580,-23.438,-20.996,-31.738,-27.832,0.000,0
160511.584,-22.461,-29.785,-23.926,-14.160,0.000,0
160511.588,-41.016,-29.297,-25.879,-39.551,0.000,0
160511.592,-42.969,-25.391,-28.320,-58.105,0.000,0
160511.596,-32.715,-28.320,-24.902,-43.457,0.000,0
160511.599,-34.180,-25.879,-30.273,-25.879,0.000,0
160511.603,-35.156,-27.344,-49.316,-17.578,0.000,0
160511.607,-30.762,-27.832,-43.945,-29.297,0.000,0
160511.611,-34.180,-21.973,-9.277,-39.062,0.000,0
160511.615,-35.156,-27.832,-24.902,-25.879,0.000,0
160511.619,-26.855,-23.438,-40.039,-23.926,0.000,0
160511.623,-20.996,-19.531,-30.273,-23.438,0.000,0
160511.627,-22.461,-27.832,-28.320,-30.273,0.000,0
160511.631,-31.738,-24.414,-23.438,-42.480,0.000,0
160511.635,-23.438,-24.414,-28.809,-30.762,0.000,0
160511.638,-16.113,-29.785,-33.203,-19.531,0.000,0
160511.642,-24.414,-28.809,-32.715,-24.902,0.000,0
160511.646,-21.484,-23.926,-27.832,-30.273,0.000,0
160511.650,-20.508,-20.996,-25.879,-30.273,0.000,0
160511.654,-29.297,-18.555,-31.250,-23.926,0.000,0
160511.658,-30.762,-18.555,-18.555,-5.371,0.000,0
160511.662,-19.531,-22.461,-22.949,-11.719,0.000,0
160511.666,-21.484,-20.020,-16.113,-29.297,0.000,0
160511.670,-28.320,-22.461,-9.277,-26.855,0.000,0
160511.674,-20.508,-25.391,-20.508,-23.926,0.000,0
160511.678,-25.879,-20.508,-24.902,-30.762,0.000,0
160511.681,-29.297,-20.996,-28.320,-22.461,0.000,0
160511.685,-31.738,-18.555,-14.648,-26.855,0.000,0
160511.689,-24.902,-10.742,-6.348,-31.738,0.000,0
160511.693,-12.695,-13.184,-23.926,-10.254,0.000,0
160511.697,-8.789,-14.648,-16.602,-7.324,0.000,0
160511.701,-8.789,-9.277,-8.301,-15.625,0.000,0
160511.705,-15.625,-9.277,-26.855,-4.395,0.000,0
160511.709,-17.090,-15.137,-30.273,-14.648,0.000,0
160511.713,-20.020,-21.973,-26.855,-20.996,0.000,0
160511.717,-29.297,-20.508,-27.344,-6.348,0.000,0
160511.721,-37.109,-19.043,-28.809,-6.836,0.000,0
160511.724,-29.785,-22.949,-15.137,-31.250,0.000,0
160511.728,-31.250,-26.855,-17.090,-41.016,0.000,0
160511.732,-36.621,-26.367,-34.180,-22.949,0.000,0
160511.736,-33.691,-29.297,-31.250,-27.832,0.000,0
160511.740,-40.039,-34.180,-32.227,-36.621,0.000,0
160511.744,-47.852,-33.691,-31.738,-30.762,0.000,0
160511.748,-38.574,-28.320,-18.555,-31.250,0.000,0
160511.752,-24.902,-29.297,-44.922,-28.320,0.000,0
160511.756,-22.949,-35.645,-57.617,-11.230,0.000,0
160511.760,-25.391,-33.691,-39.062,-7.812,0.000,0
160511.763,-24.902,-29.785,-21.973,-15.137,0.000,0
160511.767,-18.066,-26.367,-15.137,-29.297,0.000,0
160511.771,-19.531,-24.414,-26.855,-37.109,0.000,0
160511.775,-26.855,-23.438,-21.484,-24.902,0.000,0
160511.779,-34.668,-22.461,-23.438,-17.090,0.000,0
160511.783,-30.273,-21.973,-34.668,-21.973,0.000,0
160511.787,-24.902,-24.414,-25.391,-34.668,0.000,0
160511.791,-31.250,-23.926,-19.043,-24.414,0.000,0
160511.795,-23.926,-20.020,-25.879,-22.461,0.000,0
160511.799,-22.461,-24.902,-28.809,-25.879,0.000,0
160511.803,-28.320,-29.297,-14.160,-11.719,0.000,0
160511.806,-10.254,-22.461,-7.812,-10.742,0.000,0
160511.810,-12.695,-27.832,-29.297,-23.926,0.000,0
160511.814,-21.973,-32.227,-46.387,-35.156,0.000,0
160511.818,-11.230,-26.855,-42.969,-18.555,0.000,0
160511.822,-17.578,-22.461,-35.156,-14.648,0.000,0
160511.826,-17.090,-25.879,-25.879,-35.645,0.000,0
160511.830,-20.020,-27.832,-32.227,-29.297,0.000,0
160511.834,-16.602,-24.902,-24.414,-16.113,0.000,0
160511.838,-13.672,-22.949,-16.113,-18.555,0.000,0
160511.842,-19.531,-22.949,-32.227,-26.855,0.000,0
160511.846,-23.438,-29.297,-24.902,-52.246,0.000,0
160511.849,-19.043,-23.438,-20.020,-52.246,0.000,0
160511.853,-18.555,-22.461,-26.855,-19.531,0.000,0
160511.857,-24.902,-29.297,-38.574,-6.348,0.000,0
160511.861,-23.926,-28.809,-39.062,-23.926,0.000,0
160511.865,-20.996,-24.902,-15.137,-38.574,0.000,0
160511.869,-20.508,-19.043,-16.602,-21.973,0.000,0
160511.873,-20.996,-16.113,-36.621,-16.602,0.000,0
160511.877,-27.344,-19.531,-35.156,-25.391,0.000,0
160511.881,-32.715,-24.902,-20.020,-27.344,0.000,0
160511.885,-20.508,-24.414,-15.625,-32.227,0.000,0
160511.888,-16.602,-22.461,-25.391,-42.480,0.000,0
160511.892,-25.391,-22.461,-30.762,-39.551,0.000,0
160511.896,-24.902,-20.508,-13.184,-14.160,0.000,0
160511.900,-19.043,-22.949,-9.277,-17.090,0.000,0
160511.904,-22.461,-26.855,-16.602,-31.738,0.000,0
160511.908,-24.414,-24.902,-32.715,-37.598,0.000,0
160511.912,-18.555,-24.902,-32.715,-38.574,0.000,0
160511.916,-19.043,-27.344,-31.738,-14.160,0.000,0
160511.920,-21.973,-22.461,-26.367,-12.695,0.000,0
160511.924,-18.066,-23.438,-17.578,-27.832,0.000,0
160511.928,-21.484,-20.508,-29.297,-24.414,0.000,0
