timestamps,TP9,AF7,AF8,TP10,Right AUX,Marker0
160107.236,-32.227,-20.508,-41.992,-28.809,0.000,0
160107.240,-37.598,-20.996,-21.484,-37.109,0.000,0
160107.244,-33.691,-18.555,-22.949,-35.645,0.000,0
160107.248,-31.738,-19.531,-54.688,-27.344,0.000,0
160107.252,-35.645,-22.949,-56.152,-28.320,0.000,0
160107.256,-41.992,-17.090,-33.691,-7.324,0.000,0
160107.260,-30.762,-15.137,-43.945,-26.367,0.000,0
160107.263,-18.555,-15.625,-51.270,-45.410,0.000,0
160107.267,-26.855,-14.648,-44.434,-25.391,0.000,0
160107.271,-34.180,-20.020,-23.926,-22.949,0.000,0
160107.275,-28.809,-21.973,-43.457,-25.391,0.000,0
160107.279,-38.086,-20.020,-52.246,-34.180,0.000,0
160107.283,-42.969,-17.090,-30.273,-43.457,0.000,0
160107.287,-36.133,-19.531,-38.086,-36.621,0.000,0
160107.291,-34.668,-23.926,-38.574,-32.227,0.000,0
160107.295,-37.598,-24.414,-47.363,-24.414,0.000,0
160107.299,-26.855,-23.926,-41.016,-26.855,0.000,0
160107.303,-22.461,-20.020,-26.367,-18.066,0.000,0
160107.306,-21.484,-20.508,-46.387,-11.719,0.000,0
160107.310,-13.184,-21.973,-41.016,-24.414,0.000,0
160107.314,-14.160,-16.113,-20.020,-20.996,0.000,0
160107.318,-9.766,-11.230,-26.367,-23.926,0.000,0
160107.322,4.395,-10.254,-48.828,-34.180,0.000,0
160107.326,-8.789,-11.230,-39.062,-32.227,0.000,0
160107.330,-22.461,-14.648,-31.738,-25.391,0.000,0
160107.334,-16.602,-15.625,-43.457,-24.902,0.000,0
160107.338,-20.508,-18.066,-35.645,-34.668,0.000,0
160107.342,-19.531,-15.625,-37.109,-33.691,0.000,0
160107.346,-17.090,-16.113,-44.922,-29.785,0.000,0
160107.349,-25.391,-20.020,-43.457,-31.250,0.000,0
160107.353,-22.461,-19.043,-54.688,-30.762,0.000,0
160107.357,-19.043,-16.113,-37.109,-30.273,0.000,0
160107.361,-20.020,-14.648,-20.508,-31.738,0.000,0
160107.365,-11.230,-15.625,-43.945,-27.344,0.000,0
160107.369,-11.230,-17.578,-42.969,-23.438,0.000,0
160107.373,-12.207,-17.578,-37.109,-22.949,0.000,0
160107.377,-14.160,-20.020,-26.367,-26.855,0.000,0
160107.381,-14.648,-21.973,-31.250,-39.062,0.000,0
160107.385,-20.020,-20.020,-42.480,-42.969,0.000,0
160107.388,-27.344,-16.602,-36.133,-30.762,0.000,0
160107.392,-22.461,-17.578,-35.645,-14.160,0.000,0
160107.396,-19.043,-21.484,-30.762,-27.832,0.000,0
160107.400,-24.414,-20.508,-25.391,-22.461,0.000,0
160107.404,-26.855,-22.461,-35.156,-12.695,0.000,0
160107.408,-13.672,-21.484,-53.711,-25.879,0.000,0
160107.412,0.977,-20.020,-33.203,-15.137,0.000,0
160107.416,4.883,-21.973,1.465,-12.207,0.000,0
160107.420,-10.254,-24.414,-19.531,-37.109,0.000,0
160107.424,-37.109,-26.855,-39.062,-58.594,0.000,0
160107.428,-39.551,-30.273,-28.320,-38.086,0.000,0
160107.431,-35.156,-31.250,-7.812,-23.926,0.000,0
160107.435,-20.996,-28.809,12.695,-27.344,0.000,0
160107.439,-17.090,-28.320,-9.766,-26.367,0.000,0
160107.443,-39.062,-31.738,-17.578,-33.203,0.000,0
160107.447,-39.551,-28.320,1.953,-25.391,0.000,0
160107.451,-36.133,-25.391,-5.859,-24.902,0.000,0
160107.455,-30.273,-28.809,-8.789,-36.621,0.000,0
160107.459,-17.090,-19.531,-11.719,-27.344,0.000,0
160107.463,-18.066,-15.137,-13.184,-15.625,0.000,0
160107.467,-12.207,-20.996,-23.438,-5.371,0.000,0
160107.471,-17.090,-24.414,-32.227,-9.277,0.000,0
160107.474,-29.297,-27.832,-14.648,-25.391,0.000,0
160107.478,-24.902,-25.391,-14.160,-14.648,0.000,0
160107.482,-13.672,-24.902,-36.133,2.930,0.000,0
160107.486,-11.230,-24.414,-37.109,8.789,0.000,0
160107.490,-15.625,-20.996,-13.184,-5.371,0.000,0
160107.494,-18.555,-20.508,1.953,-20.020,0.000,0
160107.498,-11.719,-18.555,-31.250,-20.996,0.000,0
160107.502,-16.113,-19.531,-45.898,-12.695,0.000,0
160107.506,-26.855,-22.949,-40.039,-2.930,0.000,0
160107.510,-28.809,-24.902,-45.898,-16.602,0.000,0
160107.513,-28.809,-28.320,-30.273,-34.668,0.000,0
160107.517,-24.902,-30.762,-34.668,-23.438,0.000,0
160107.521,-33.203,-29.785,-48.828,-31.250,0.000,0
160107.525,-35.645,-23.926,-51.270,-43.457,0.000,0
160107.529,-36.133,-24.902,-48.340,-37.109,0.000,0
160107.533,-37.109,-30.273,-27.832,-38.086,0.000,0
160107.537,-37.598,-22.949,-19.043,-41.504,0.000,0
160107.541,-41.016,-18.066,-33.691,-35.645,0.000,0
160107.545,-26.855,-19.043,-46.875,-24.414,0.000,0
160107.549,-20.020,-20.020,-50.781,-29.785,0.000,0
160107.553,-27.344,-23.926,-5.859,-33.691,0.000,0
160107.556,-24.902,-21.973,-18.555,-36.621,0.000,0
160107.560,-23.926,-22.949,-47.363,-34.668,0.000,0
160107.564,-15.625,-27.344,-33.203,-25.391,0.000,0
160107.568,-16.602,-26.855,-39.062,-12.695,0.000,0
160107.572,-22.461,-25.391,-27.832,-23.438,0.000,0
160107.576,-22.949,-23.926,-28.809,-23.926,0.000,0
160107.580,-26.367,-24.902,-47.852,-17.578,0.000,0
160107.584,-22.461,-26.367,-32.715,-22.461,0.000,0
160107.588,-18.066,-23.926,-48.828,-27.344,0.000,0
160107.592,-17.578,-20.020,-49.805,-37.109,0.000,0
160107.596,-19.531,-18.555,-5.859,-45.898,0.000,0
160107.599,-21.484,-16.602,0.000,-46.875,0.000,0
160107.603,-18.066,-17.090,-43.457,-26.855,0.000,0
160107.607,-22.461,-20.020,-60.059,-3.418,0.000,0
160107.611,-29.297,-17.578,-26.367,-17.578,0.000,0
160107.615,-27.344,-16.602,-18.066,-38.574,0.000,0
160107.619,-20.508,-14.160,-42.480,-14.160,0.000,0
160107.623,-21.973,-14.160,-47.852,-10.742,0.000,0
160107.627,-28.320,-22.461,-39.062,-20.996,0.000,0
160107.631,-30.762,-27.832,-24.414,-30.762,0.000,0
160107.635,-24.902,-25.879,-44.434,-44.434,0.000,0
160107.638,-23.926,-26.367,-41.016,-29.785,0.000,0
160107.642,-28.320,-23.926,-20.996,-13.672,0.000,0
160107.646,-24.902,-20.996,-40.527,-23.438,0.000,0
160107.650,-28.809,-22.461,-26.367,-42.480,0.000,0
160107.654,-29.297,-20.996,-36.621,-31.738,0.000,0
160107.658,-29.297,-20.996,-55.664,-21.484,0.000,0
160107.662,-27.344,-20.996,-45.410,-39.062,0.000,0
160107.666,-21.973,-23.926,-41.016,-39.062,0.000,0
160107.670,-31.250,-26.367,-35.645,-35.645,0.000,0
160107.674,-28.320,-23.926,-38.086,-44.434,0.000,0
160107.678,-23.438,-22.461,-40.039,-29.785,0.000,0
160107.681,-32.715,-26.367,-42.969,-18.555,0.000,0
160107.685,-36.621,-24.414,-35.645,-16.602,0.000,0
160107.689,-34.180,-20.508,-34.180,-18.066,0.000,0
160107.693,-38.574,-21.973,-53.711,-26.367,0.000,0
160107.697,-39.062,-24.414,-36.133,-28.320,0.000,0
160107.701,-43.945,-28.320,-41.504,-28.320,0.000,0
160107.705,-41.504,-26.367,-72.754,-27.832,0.000,0
160107.709,-34.180,-27.344,-41.992,-43.945,0.000,0
160107.713,-41.016,-30.762,-19.043,-49.805,0.000,0
160107.717,-40.039,-24.902,-35.156,-31.250,0.000,0
160107.721,-34.180,-24.414,-47.363,-22.949,0.000,0
160107.724,-36.133,-26.367,-42.969,-29.297,0.000,0
160107.728,-35.645,-25.879,-11.230,-37.598,0.000,0
160107.732,-29.785,-22.949,-11.719,-43.457,0.000,0
160107.736,-25.879,-22.949,-45.410,-35.645,0.000,0
160107.740,-26.367,-22.461,-41.504,-24.414,0.000,0
160107.744,-28.320,-23.438,-39.062,-18.066,0.000,0
160107.748,-32.715,-23.926,-28.809,-38.574,0.000,0
160107.752,-28.809,-20.020,-32.715,-51.270,0.000,0
160107.756,-19.531,-17.578,-44.922,-28.809,0.000,0
160107.760,-20.020,-20.020,-36.621,-16.602,0.000,0
160107.763,-24.902,-26.367,-41.504,-10.254,0.000,0
160107.767,-28.320,-28.320,-30.273,-28.809,0.000,0
160107.771,-23.926,-27.832,-27.344,-51.270,0.000,0
160107.775,-28.320,-26.367,-37.598,-45.410,0.000,0
160107.779,-26.855,-20.508,-36.621,-27.832,0.000,0
160107.783,-18.555,-21.484,-49.805,-0.977,0.000,0
160107.787,-23.438,-29.297,-31.250,-32.227,0.000,0
160107.791,-27.344,-23.926,-14.648,-51.758,0.000,0
160107.795,-27.344,-18.066,-38.574,-17.578,0.000,0
160107.799,-32.715,-26.855,-30.762,-33.203,0.000,0
160107.803,-40.527,-26.367,-28.809,-36.133,0.000,0
160107.806,-38.574,-25.879,-34.668,-28.809,0.000,0
160107.810,-34.668,-33.203,-29.785,-39.062,0.000,0
160107.814,-37.109,-30.762,-33.691,-39.062,0.000,0
160107.818,-39.551,-26.855,-29.297,-31.250,0.000,0
160107.822,-35.645,-25.879,-47.852,-6.836,0.000,0
160107.826,-32.715,-27.832,-38.086,-31.250,0.000,0
160107.830,-43.945,-25.879,-19.531,-51.270,0.000,0
160107.834,-45.410,-20.996,-39.062,-26.367,0.000,0
160107.838,-35.645,-22.461,-48.340,-30.273,0.000,0
160107.842,-29.297,-24.902,-45.410,-32.715,0.000,0
160107.846,-31.250,-24.902,-24.902,-36.621,0.000,0
160107.849,-29.785,-25.879,-18.555,-49.316,0.000,0
160107.853,-28.320,-29.297,-44.922,-53.223,0.000,0
160107.857,-30.762,-28.809,-52.246,-38.086,0.000,0
160107.861,-26.855,-24.414,-41.992,-19.531,0.000,0
160107.865,-29.297,-23.926,-26.367,-26.367,0.000,0
160107.869,-34.180,-24.414,-28.320,-34.180,0.000,0
160107.873,-20.996,-24.414,-48.828,-38.574,0.000,0
160107.877,-23.926,-27.832,-35.645,-45.898,0.000,0
160107.881,-32.227,-25.879,-11.230,-37.109,0.000,0
160107.885,-25.879,-26.367,-27.832,-20.508,0.000,0
160107.888,-37.109,-24.414,-29.785,-39.551,0.000,0
160107.892,-45.898,-21.973,-22.949,-41.992,0.000,0
160107.896,-27.832,-23.926,-32.715,-14.648,0.000,0
160107.900,-21.973,-20.020,-21.973,-28.320,0.000,0
160107.904,-33.203,-19.531,-25.391,-39.062,0.000,0
160107.908,-28.320,-20.508,-31.250,-29.785,0.000,0
160107.912,-22.461,-14.648,-17.090,-27.832,0.000,0
160107.916,-23.926,-13.672,-30.762,-17.090,0.000,0
160107.920,-25.879,-17.578,-56.641,-11.230,0.000,0
160107.924,-35.645,-18.066,-35.645,-8.789,0.000,0
160107.928,-35.645,-18.555,-4.883,-21.973,0.000,0
160107.931,-18.066,-15.137,-30.273,-21.484,0.000,0
160107.935,-26.367,-17.578,-45.410,-16.113,0.000,0
160107.939,-32.227,-26.855,-41.016,-18.066,0.000,0
160107.943,-29.297,-27.832,-34.180,-17.578,0.000,0
160107.947,-26.855,-22.949,-25.391,-40.527,0.000,0
160107.951,-17.090,-21.484,-24.414,-48.828,0.000,0
160107.955,-25.879,-21.484,-37.109,-46.387,0.000,0
160107.959,-31.738,-20.508,-39.551,-35.156,0.000,0
160107.963,-23.438,-23.926,-55.664,-24.414,0.000,0
160107.967,-14.160,-24.414,-46.387,-34.668,0.000,0
160107.971,-20.020,-21.484,-20.508,-17.090,0.000,0
160107.974,-26.367,-24.414,-35.156,-3.418,0.000,0
160107.978,-26.367,-28.809,-43.945,-23.926,0.000,0
160107.982,-29.785,-26.855,-29.297,-24.414,0.000,0
160107.986,-26.855,-23.926,-23.926,-20.996,0.000,0
160107.990,-22.949,-25.879,-46.387,-34.668,0.000,0
160107.994,-23.438,-23.438,-44.434,-33.203,0.000,0
160107.998,-25.879,-17.090,-33.203,-3.418,0.000,0
160108.002,-30.762,-18.066,-34.668,-14.160,0.000,0
160108.006,-37.109,-20.508,-35.645,-45.410,0.000,0
160108.010,-36.621,-20.020,-37.109,-34.180,0.000,0
160108.013,-42.480,-21.484,-16.113,-38.086,0.000,0
160108.017,-47.363,-22.461,-40.527,-29.297,0.000,0
160108.021,-40.039,-21.973,-54.199,-31.738,0.000,0
160108.025,-34.668,-23.926,-30.762,-49.316,0.000,0
160108.029,-30.273,-21.484,-28.320,-47.363,0.000,0
160108.033,-23.926,-21.484,-37.109,-33.691,0.000,0
160108.037,-25.391,-20.996,-46.387,-30.273,0.000,0
160108.041,-31.738,-20.508,-30.762,-39.062,0.000,0
160108.045,-31.250,-26.855,-23.438,-37.598,0.000,0
160108.049,-29.297,-30.762,-48.828,-27.832,0.000,0
160108.053,-31.738,-28.809,-50.293,-26.367,0.000,0
160108.056,-37.109,-26.855,-35.156,-32.227,0.000,0
160108.060,-32.715,-26.855,-23.438,-33.203,0.000,0
160108.064,-28.809,-30.273,-31.738,-43.945,0.000,0
160108.068,-29.297,-24.902,-48.828,-40.527,0.000,0
160108.072,-24.414,-23.438,-52.734,-28.320,0.000,0
160108.076,-25.879,-25.879,-49.316,-25.879,0.000,0
160108.080,-25.879,-28.809,-43.457,-24.414,0.000,0
160108.084,-22.461,-30.273,-26.855,-50.781,0.000,0
160108.088,-29.785,-28.809,-34.668,-51.270,0.000,0
160108.092,-33.691,-31.250,-44.434,-48.340,0.000,0
160108.096,-31.738,-27.344,-46.875,-33.691,0.000,0
160108.099,-38.086,-24.902,-43.945,-18.066,0.000,0
160108.103,-37.598,-22.949,-20.020,-42.969,0.000,0
160108.107,-27.832,-20.996,-36.621,-37.598,0.000,0
160108.111,-32.227,-26.855,-57.129,-24.902,0.000,0
160108.115,-32.227,-25.879,-36.133,-39.551,0.000,0
160108.119,-23.926,-21.484,-52.734,-36.621,0.000,0
160108.123,-29.785,-27.344,-52.246,-43.457,0.000,0
160108.127,-29.297,-25.879,-32.715,-38.086,0.000,0
160108.131,-24.902,-24.414,-48.828,-36.621,0.000,0
160108.135,-25.879,-21.484,-51.270,-25.879,0.000,0
160108.138,-17.578,-27.344,-54.199,-24.414,0.000,0
160108.142,-19.531,-26.855,-30.273,-51.758,0.000,0
160108.146,-28.809,-21.973,-24.414,-30.273,0.000,0
160108.150,-31.250,-23.438,-38.574,-10.254,0.000,0
160108.154,-31.250,-25.391,-55.176,-25.391,0.000,0
160108.158,-25.879,-23.438,-59.570,-32.715,0.000,0
160108.162,-29.297,-25.879,-22.461,-44.434,0.000,0
160108.166,-26.367,-21.973,-20.996,-41.992,0.000,0
160108.170,-26.367,-21.484,-42.969,-32.227,0.000,0
160108.174,-33.203,-25.879,-45.898,-24.414,0.000,0
160108.178,-28.809,-23.926,-33.691,-15.137,0.000,0
160108.181,-29.297,-27.832,-24.902,-29.297,0.000,0
160108.185,-34.180,-24.414,-44.922,-33.203,0.000,0
160108.189,-37.109,-23.926,-63.477,-35.645,0.000,0
160108.193,-37.598,-26.855,-45.410,-39.551,0.000,0
160108.197,-31.738,-22.461,-51.270,-28.809,0.000,0
160108.201,-34.668,-27.344,-51.758,-37.109,0.000,0
160108.205,-36.621,-28.320,-44.922,-65.430,0.000,0
160108.209,-37.598,-20.996,-22.461,-53.711,0.000,0
160108.213,-26.855,-21.973,-38.086,-29.785,0.000,0
160108.217,-23.438,-22.949,-42.480,-44.922,0.000,0
160108.221,-28.809,-18.066,-18.555,-48.340,0.000,0
160108.224,-25.879,-18.066,-31.738,-40.527,0.000,0
160108.228,-27.344,-20.996,-33.691,-42.969,0.000,0
160108.232,-30.762,-25.879,-38.086,-43.457,0.000,0
160108.236,-32.715,-23.438,-44.922,-23.438,0.000,0
160108.240,-35.645,-20.020,-35.156,-25.879,0.000,0
160108.244,-35.156,-21.484,-28.809,-42.480,0.000,0
160108.248,-27.832,-24.414,-42.480,-24.902,0.000,0
160108.252,-26.855,-24.414,-49.805,-18.555,0.000,0
160108.256,-28.809,-25.879,-37.109,-20.020,0.000,0
160108.260,-24.414,-28.809,-40.527,-19.043,0.000,0
160108.263,-22.461,-27.344,-38.086,-35.156,0.000,0
160108.267,-29.297,-24.902,-34.668,-41.016,0.000,0
160108.271,-33.203,-24.902,-41.992,-30.762,0.000,0
160108.275,-37.598,-26.855,-51.758,-21.973,0.000,0
160108.279,-42.969,-30.762,-37.598,-29.785,0.000,0
160108.283,-36.621,-30.273,-23.926,-37.109,0.000,0
160108.287,-37.598,-25.879,-38.574,-28.320,0.000,0
160108.291,-34.668,-19.531,-52.246,-24.902,0.000,0
160108.295,-27.832,-21.484,-46.875,-18.555,0.000,0
160108.299,-41.992,-23.926,-10.742,-22.949,0.000,0
160108.303,-40.039,-21.484,-14.648,-44.922,0.000,0
160108.306,-24.414,-20.020,-41.992,-43.945,0.000,0
160108.310,-22.461,-18.555,-37.598,-28.320,0.000,0
160108.314,-23.926,-21.484,-31.250,-17.578,0.000,0
160108.318,-22.461,-24.902,-24.902,-36.621,0.000,0
160108.322,-28.809,-25.391,-43.945,-35.156,0.000,0
160108.326,-29.297,-29.297,-59.570,-10.742,0.000,0
160108.330,-31.738,-34.668,-39.062,-20.020,0.000,0
160108.334,-38.574,-31.738,-42.480,-25.391,0.000,0
160108.338,-43.457,-27.832,-29.785,-38.086,0.000,0
160108.342,-40.527,-27.832,-15.625,-47.852,0.000,0
160108.346,-26.367,-25.391,-27.344,-33.691,0.000,0
160108.349,-28.320,-26.855,-40.039,-24.902,0.000,0
160108.353,-39.062,-26.855,-34.180,-15.137,0.000,0
160108.357,-31.738,-22.949,-8.789,-20.508,0.000,0
160108.361,-32.715,-22.949,-14.648,-36.621,0.000,0
160108.365,-30.273,-26.367,-43.457,-38.574,0.000,0
160108.369,-21.973,-24.414,-42.969,-24.414,0.000,0
160108.373,-26.855,-30.762,-32.715,-14.648,0.000,0
160108.377,-23.438,-33.203,-21.484,-27.344,0.000,0
160108.381,-20.996,-29.297,-20.508,-32.227,0.000,0
160108.385,-21.484,-29.297,-34.668,-21.484,0.000,0
160108.388,-20.996,-26.855,-34.180,-15.137,0.000,0
160108.392,-14.648,-26.855,-42.969,-13.672,0.000,0
160108.396,-15.625,-24.414,-24.414,-28.809,0.000,0
160108.400,-21.484,-25.391,-24.902,-41.992,0.000,0
160108.404,-19.531,-25.391,-35.156,-41.992,0.000,0
160108.408,-21.484,-20.020,-27.832,-39.062,0.000,0
160108.412,-20.020,-19.043,-39.062,-18.066,0.000,0
160108.416,-19.043,-18.066,-23.926,-15.137,0.000,0
160108.420,-25.391,-16.602,-16.602,-23.438,0.000,0
160108.424,-24.902,-19.043,-32.227,-15.625,0.000,0
160108.428,-22.949,-23.926,-39.551,-10.742,0.000,0
160108.431,-22.949,-21.973,-34.668,-6.348,0.000,0
160108.435,-10.742,-21.484,-24.902,-24.902,0.000,0
160108.439,-1.953,-24.414,-32.227,-39.062,0.000,0
160108.443,-14.160,-27.344,-34.668,-33.203,0.000,0
160108.447,-22.461,-24.902,-32.227,-30.762,0.000,0
160108.451,-12.207,-18.555,-53.711,-6.348,0.000,0
160108.455,-8.301,-18.555,-36.621,-18.555,0.000,0
160108.459,-14.648,-17.090,-12.207,-27.344,0.000,0
160108.463,-15.625,-15.625,-31.738,-1.465,0.000,0
160108.467,-20.508,-16.113,-42.480,-19.531,0.000,0
160108.471,-22.461,-16.602,-37.109,-29.785,0.000,0
160108.474,-27.832,-20.996,-13.672,-36.133,0.000,0
160108.478,-26.367,-20.020,-0.488,-55.176,0.000,0
160108.482,-14.160,-14.648,-41.016,-46.875,0.000,0
160108.486,-18.555,-18.555,-58.105,-45.898,0.000,0
160108.490,-19.531,-17.578,-40.039,-31.738,0.000,0
160108.494,-14.648,-17.090,-18.555,-32.715,0.000,0
160108.498,-19.531,-15.137,-18.066,-43.945,0.000,0
160108.502,-20.020,-13.184,-42.480,-30.273,0.000,0
160108.506,-16.113,-16.113,-38.574,-26.367,0.000,0
160108.510,-22.461,-15.137,-34.180,-18.066,0.000,0
160108.513,-31.250,-19.531,-34.668,-27.832,0.000,0
160108.517,-33.203,-23.438,-31.250,-37.109,0.000,0
160108.521,-33.691,-21.973,-40.527,-34.180,0.000,0
160108.525,-29.785,-25.391,-39.062,-43.457,0.000,0
160108.529,-27.344,-23.926,-55.176,-29.297,0.000,0
160108.533,-30.762,-22.461,-55.176,-40.039,0.000,0
160108.537,-28.809,-18.555,-15.625,-50.293,0.000,0
160108.541,-16.602,-18.555,-41.504,-19.531,0.000,0
160108.545,-21.484,-25.391,-68.359,-20.020,0.000,0
160108.549,-32.715,-22.949,-42.969,-33.203,0.000,0
160108.553,-30.273,-18.555,-20.508,-37.598,0.000,0
160108.556,-20.020,-20.020,-21.484,-50.781,0.000,0
160108.560,-20.996,-20.508,-31.738,-45.410,0.000,0
160108.564,-22.461,-20.508,-36.621,-19.043,0.000,0
160108.568,-18.555,-17.090,-40.527,-9.277,0.000,0
160108.572,-9.766,-18.066,-35.156,-18.066,0.000,0
160108.576,-7.812,-18.066,-36.133,-17.090,0.000,0
160108.580,-22.949,-15.625,-30.762,-23.926,0.000,0
160108.584,-34.180,-11.230,-25.879,-44.434,0.000,0
160108.588,-33.691,-8.789,-50.293,-42.969,0.000,0
160108.592,-27.832,-8.789,-47.852,-15.137,0.000,0
160108.596,-26.855,-6.836,-29.785,-23.926,0.000,0
160108.599,-36.621,-6.348,-49.316,-43.457,0.000,0
160108.603,-36.133,-5.859,-77.148,-36.133,0.000,0
160108.607,-26.855,-2.930,-66.895,-23.926,0.000,0
160108.611,-26.855,-1.953,-43.945,-19.043,0.000,0
160108.615,-34.668,2.441,-33.691,-37.598,0.000,0
160108.619,-38.574,7.324,-46.387,-45.898,0.000,0
160108.623,-36.621,4.395,-63.965,-39.551,0.000,0
160108.627,-36.133,1.465,-36.133,-33.691,0.000,0
160108.631,-37.598,4.395,-48.340,-25.391,0.000,0
160108.635,-43.945,8.789,-87.402,-46.875,0.000,0
160108.638,-37.109,13.672,-61.035,-51.758,0.000,0
160108.642,-33.691,13.672,-41.504,-25.879,0.000,0
160108.646,-38.574,9.766,-47.852,-26.855,0.000,0
160108.650,-38.574,6.348,-45.410,-36.133,0.000,0
160108.654,-47.363,0.000,-24.414,-35.645,0.000,0
160108.658,-40.039,0.977,-19.531,-35.156,0.000,0
160108.662,-33.691,0.000,-27.832,-41.016,0.000,0
160108.666,-41.504,-3.906,-44.434,-41.992,0.000,0
160108.670,-36.621,-7.324,-40.039,-30.762,0.000,0
160108.674,-27.344,-7.812,-6.836,-40.039,0.000,0
160108.678,-24.414,-7.324,-26.855,-37.109,0.000,0
160108.681,-17.578,-10.254,-43.945,-17.090,0.000,0
160108.685,-22.949,-13.184,-42.480,-23.438,0.000,0
160108.689,-23.926,-16.602,-38.574,-15.137,0.000,0
160108.693,-6.348,-18.066,-18.066,-16.113,0.000,0
160108.697,-9.277,-18.555,-11.230,-37.598,0.000,0
160108.701,-19.043,-18.066,-22.461,-37.109,0.000,0
160108.705,-10.254,-20.020,-22.461,-19.043,0.000,0
160108.709,-9.277,-21.973,-19.043,-18.066,0.000,0
160108.713,-13.672,-24.902,-12.207,-28.320,0.000,0
160108.717,-19.043,-25.391,-15.625,-18.555,0.000,0
160108.721,-10.742,-24.902,-32.715,-6.348,0.000,0
160108.724,-1.465,-23.926,-35.645,-11.719,0.000,0
160108.728,-11.230,-23.438,-10.742,-25.879,0.000,0
160108.732,-7.812,-20.996,7.812,-38.574,0.000,0
160108.736,-2.930,-18.555,-23.926,-29.297,0.000,0
160108.740,-9.766,-23.926,-39.551,-11.719,0.000,0
160108.744,-2.930,-23.926,-28.320,-6.836,0.000,0
160108.748,-13.672,-24.414,-34.180,-20.020,0.000,0
160108.752,-33.691,-28.320,-34.180,-38.574,0.000,0
160108.756,-32.715,-27.344,-27.832,-41.504,0.000,0
160108.760,-31.250,-27.344,-28.809,-30.273,0.000,0
160108.763,-36.621,-31.738,-28.809,-25.391,0.000,0
160108.767,-35.156,-33.691,-58.594,-11.230,0.000,0
160108.771,-26.367,-36.133,-40.527,-22.461,0.000,0
160108.775,-26.367,-36.133,-14.160,-41.504,0.000,0
160108.779,-28.320,-36.621,-45.898,-24.414,0.000,0
160108.783,-25.879,-39.062,-67.383,-28.320,0.000,0
160108.787,-22.461,-35.645,-52.246,-28.809,0.000,0
160108.791,-16.113,-37.598,-14.648,-28.809,0.000,0
160108.795,-17.578,-39.062,-6.348,-50.293,0.000,0
160108.799,-27.832,-40.527,-30.762,-54.688,0.000,0
160108.803,-33.691,-41.016,-32.715,-39.062,0.000,0
160108.806,-35.156,-36.621,-28.809,-18.066,0.000,0
160108.810,-26.367,-40.527,-20.020,-32.227,0.000,0
160108.814,-23.926,-40.527,-27.832,-40.039,0.000,0
160108.818,-27.344,-35.156,-46.875,-28.320,0.000,0
160108.822,-20.508,-37.109,-40.039,-29.785,0.000,0
160108.826,-23.438,-38.574,-42.969,-22.461,0.000,0
160108.830,-35.645,-41.504,-35.645,-31.738,0.000,0
160108.834,-36.133,-40.039,-19.043,-43.945,0.000,0
160108.838,-35.645,-38.086,-39.551,-30.273,0.000,0
160108.842,-30.273,-34.668,-59.570,-18.066,0.000,0
160108.846,-23.926,-32.715,-65.430,-2.930,0.000,0
160108.849,-29.785,-33.691,-30.273,-13.672,0.000,0
160108.853,-22.461,-30.273,-13.184,-26.367,0.000,0
160108.857,-9.766,-23.926,-42.480,-16.113,0.000,0
160108.861,-9.277,-24.902,-40.527,-12.207,0.000,0
160108.865,-15.625,-31.250,-34.668,-6.348,0.000,0
160108.869,-10.742,-29.785,-34.180,-14.648,0.000,0
160108.873,-7.812,-34.180,-24.414,-41.016,0.000,0
160108.877,-21.484,-40.039,-32.715,-39.062,0.000,0
160108.881,-18.555,-38.086,-38.574,-16.602,0.000,0
160108.885,-13.672,-33.691,-51.270,-11.230,0.000,0
160108.888,-17.090,-37.109,-44.434,-28.809,0.000,0
160108.892,-23.926,-37.598,-28.320,-35.645,0.000,0
160108.896,-28.320,-34.180,-41.016,-11.719,0.000,0
160108.900,-17.090,-32.227,-52.246,-10.742,0.000,0
160108.904,-16.113,-26.855,-64.453,-21.973,0.000,0
160108.908,-26.367,-23.438,-48.828,-20.508,0.000,0
160108.912,-28.809,-26.367,-13.184,-34.180,0.000,0
160108.916,-24.902,-24.902,-29.297,-34.668,0.000,0
160108.920,-20.508,-25.391,-51.270,-28.320,0.000,0
160108.924,-17.090,-24.902,-36.621,-25.391,0.000,0
160108.928,-20.020,-22.949,-23.926,-20.020,0.000,0
160108.931,-23.926,-22.949,-28.809,-26.855,0.000,0
160108.935,-22.949,-23.926,-38.086,-44.922,0.000,0
160108.939,-33.203,-23.926,-32.227,-42.969,0.000,0
160108.943,-35.156,-24.414,-37.109,-31.250,0.000,0
160108.947,-22.461,-26.855,-60.059,-26.855,0.000,0
160108.951,-19.043,-27.832,-41.992,-35.645,0.000,0
160108.955,-33.203,-28.320,-20.020,-27.832,0.000,0
160108.959,-37.598,-28.320,-29.297,-24.902,0.000,0
160108.963,-28.809,-34.180,-48.828,-43.945,0.000,0
160108.967,-23.438,-34.668,-46.875,-40.527,0.000,0
160108.971,-30.273,-32.227,-34.668,-46.387,0.000,0
160108.974,-30.273,-31.738,-39.062,-53.711,0.000,0
160108.978,-27.344,-30.273,-36.621,-40.527,0.000,0
160108.982,-26.367,-28.809,-36.621,-14.648,0.000,0
160108.986,-25.879,-25.391,-37.109,-10.254,0.000,0
160108.990,-27.344,-24.902,-22.461,-32.227,0.000,0
160108.994,-25.391,-26.367,-44.434,-27.832,0.000,0
160108.998,-22.949,-23.438,-55.176,-23.438,0.000,0
160109.002,-29.297,-26.855,-26.367,-26.855,0.000,0
160109.006,-27.344,-32.715,-37.109,-20.996,0.000,0
160109.010,-13.184,-26.367,-40.527,-24.414,0.000,0
160109.013,-24.902,-23.438,-32.227,-35.156,0.000,0
160109.017,-30.762,-24.414,-38.574,-27.344,0.000,0
160109.021,-18.555,-20.996,-45.898,-20.020,0.000,0
160109.025,-12.695,-23.926,-46.875,-23.926,0.000,0
160109.029,-20.996,-28.809,-18.555,-33.203,0.000,0
160109.033,-32.715,-23.438,-24.414,-25.879,0.000,0
160109.037,-34.668,-21.973,-47.852,-22.461,0.000,0
160109.041,-30.762,-23.438,-39.062,-30.762,0.000,0
160109.045,-36.621,-22.461,-27.344,-23.438,0.000,0
160109.049,-41.016,-26.855,-21.484,-38.574,0.000,0
160109.053,-30.762,-28.320,-46.875,-45.410,0.000,0
160109.056,-28.320,-26.367,-49.805,-30.762,0.000,0
160109.060,-35.645,-27.832,-37.109,-31.250,0.000,0
160109.064,-35.156,-28.320,-45.898,-24.902,0.000,0
160109.068,-30.762,-31.250,-36.621,-32.227,0.000,0
160109.072,-36.621,-27.832,-28.809,-36.621,0.000,0
160109.076,-34.180,-24.414,-38.574,-24.902,0.000,0
160109.080,-30.273,-27.832,-38.086,-26.367,0.000,0
160109.084,-33.203,-27.344,-46.387,-31.250,0.000,0
160109.088,-29.297,-28.320,-27.344,-38.086,0.000,0
160109.092,-25.391,-26.367,-7.324,-45.898,0.000,0
160109.096,-23.926,-24.902,-34.668,-29.785,0.000,0
160109.099,-23.926,-28.809,-50.293,-16.602,0.000,0
160109.103,-32.227,-24.902,-43.945,-20.020,0.000,0
160109.107,-25.879,-27.832,-15.625,-32.227,0.000,0
160109.111,-16.113,-31.250,-19.043,-31.738,0.000,0
160109.115,-22.949,-28.809,-47.852,-20.996,0.000,0
160109.119,-34.180,-31.250,-45.898,-35.645,0.000,0
160109.123,-33.691,-31.250,-54.199,-30.762,0.000,0
160109.127,-20.996,-24.414,-41.504,-23.438,0.000,0
160109.131,-24.902,-21.484,-26.367,-33.203,0.000,0
160109.135,-30.762,-25.879,-39.062,-26.367,0.000,0
160109.138,-28.809,-24.414,-50.293,-22.949,0.000,0
160109.142,-24.414,-18.555,-48.828,-21.484,0.000,0
160109.146,-27.832,-23.926,-28.320,-32.227,0.000,0
160109.150,-33.203,-25.879,-30.273,-53.223,0.000,0
160109.154,-23.926,-17.578,-32.227,-37.598,0.000,0
160109.158,-21.484,-18.555,-36.133,-25.391,0.000,0
160109.162,-24.902,-20.508,-45.898,-11.719,0.000,0
160109.166,-18.555,-17.090,-28.809,-16.113,0.000,0
160109.170,-20.996,-18.066,-25.879,-32.715,0.000,0
160109.174,-27.832,-18.555,-43.457,-8.789,0.000,0
160109.178,-28.320,-20.020,-37.598,-1.465,0.000,0
160109.181,-37.109,-19.531,-30.762,-16.602,0.000,0
160109.185,-48.828,-21.973,-32.715,-35.645,0.000,0
160109.189,-42.969,-29.785,-35.645,-51.270,0.000,0
160109.193,-24.902,-23.438,-32.715,-44.922,0.000,0
160109.197,-11.719,-16.113,-35.645,-21.973,0.000,0
160109.201,-22.949,-22.461,-57.129,-15.625,0.000,0
160109.205,-39.551,-26.367,-46.875,-47.363,0.000,0
160109.209,-26.367,-19.043,-13.672,-42.969,0.000,0
160109.213,-19.531,-19.531,-33.691,-13.184,0.000,0
160109.217,-28.320,-21.484,-50.781,-18.066,0.000,0
160109.221,-29.785,-16.113,-41.016,-21.973,0.000,0
160109.224,-35.645,-16.113,-25.879,-30.273,0.000,0
160109.228,-40.039,-11.719,-9.277,-54.199,0.000,0
160109.232,-27.344,-8.789,-33.203,-38.086,0.000,0
160109.236,-13.672,-15.137,-48.340,-18.066,0.000,0
160109.240,-8.301,-17.578,-36.621,-11.230,0.000,0
160109.244,-16.113,-19.531,-14.160,-23.926,0.000,0
160109.248,-33.691,-18.066,-16.602,-35.645,0.000,0
160109.252,-35.645,-18.066,-32.227,-34.180,0.000,0
160109.256,-22.949,-19.531,-20.020,-29.785,0.000,0
160109.260,-20.020,-18.555,-27.344,-4.395,0.000,0
160109.263,-19.043,-18.066,-28.809,-13.184,0.000,0
160109.267,-21.973,-10.742,-13.672,-32.715,0.000,0
160109.271,-35.156,-10.254,-16.113,-20.020,0.000,0
160109.275,-25.391,-12.695,-30.273,-17.578,0.000,0
160109.279,-18.555,-19.043,-48.340,-20.996,0.000,0
160109.283,-27.344,-21.484,-27.344,-29.297,0.000,0
160109.287,-32.715,-17.578,-3.418,-47.363,0.000,0
160109.291,-19.043,-17.090,-23.926,-46.875,0.000,0
160109.295,-12.207,-19.043,-23.438,-34.180,0.000,0
160109.299,-22.461,-21.484,-26.367,-16.602,0.000,0
160109.303,-19.531,-18.555,-24.902,-26.855,0.000,0
160109.306,-24.414,-18.555,-11.230,-36.621,0.000,0
160109.310,-22.949,-19.531,-31.250,-20.508,0.000,0
160109.314,-22.461,-20.508,-38.574,-30.273,0.000,0
160109.318,-23.438,-22.461,-35.645,-42.480,0.000,0
160109.322,-21.973,-24.414,-47.363,-50.293,0.000,0
160109.326,-28.320,-27.832,-41.016,-62.500,0.000,0
160109.330,-30.762,-20.996,-13.672,-41.992,0.000,0
160109.334,-29.785,-16.113,-30.762,-27.832,0.000,0
160109.338,-28.809,-19.531,-56.641,-16.602,0.000,0
160109.342,-24.414,-20.020,-28.809,-25.391,0.000,0
160109.346,-24.902,-24.414,-10.254,-41.016,0.000,0
160109.349,-23.926,-21.484,-62.012,-26.855,0.000,0
160109.353,-15.137,-22.949,-69.336,-29.297,0.000,0
160109.357,-13.184,-27.344,-37.109,-27.344,0.000,0
160109.361,-9.766,-18.066,-18.555,-21.484,0.000,0
160109.365,-5.859,-13.672,-13.672,-39.062,0.000,0
160109.369,-16.113,-17.090,-23.926,-48.828,0.000,0
160109.373,-15.137,-18.555,-19.043,-30.273,0.000,0
160109.377,-9.766,-20.996,-21.484,-8.789,0.000,0
160109.381,-4.395,-21.484,-31.250,-15.625,0.000,0
160109.385,4.883,-19.531,-17.090,-31.250,0.000,0
160109.388,9.766,-14.648,-16.113,-20.508,0.000,0
160109.392,2.441,-13.672,-21.484,-12.695,0.000,0
160109.396,-12.207,-20.508,-31.738,-10.254,0.000,0
160109.400,-16.602,-22.949,-29.785,-16.602,0.000,0
160109.404,-13.184,-19.043,-8.789,-44.434,0.000,0
160109.408,-12.695,-19.043,-17.578,-49.316,0.000,0
160109.412,-13.184,-23.926,-24.414,-30.273,0.000,0
160109.416,-10.742,-21.973,-27.832,-22.461,0.000,0
160109.420,-20.020,-16.602,-10.742,-21.973,0.000,0
160109.424,-20.020,-22.461,0.488,-42.480,0.000,0
160109.428,-18.555,-24.414,-34.668,-48.828,0.000,0
160109.431,-21.484,-16.113,-49.805,-43.457,0.000,0
160109.435,-26.855,-17.090,-42.969,-36.133,0.000,0
160109.439,-28.809,-19.531,-51.270,-27.832,0.000,0
160109.443,-20.508,-20.020,-26.367,-41.504,0.000,0
160109.447,-19.043,-23.926,-14.648,-42.969,0.000,0
160109.451,-26.367,-20.508,-54.688,-19.043,0.000,0
160109.455,-28.320,-16.602,-54.199,-18.066,0.000,0
160109.459,-20.996,-16.113,-16.602,-17.090,0.000,0
160109.463,-19.043,-18.066,0.488,-34.668,0.000,0
160109.467,-25.391,-17.090,-15.625,-38.086,0.000,0
160109.471,-16.602,-18.555,-34.180,-14.160,0.000,0
160109.474,-9.766,-23.438,-35.156,-9.277,0.000,0
160109.478,-17.578,-23.438,-29.785,-21.973,0.000,0
160109.482,-26.855,-20.020,-11.230,-37.109,0.000,0
160109.486,-33.691,-23.926,-27.344,-30.762,0.000,0
160109.490,-24.414,-26.367,-51.270,-9.277,0.000,0
160109.494,-25.879,-26.367,-32.715,-19.043,0.000,0
160109.498,-32.715,-29.297,-29.297,-35.156,0.000,0
160109.502,-29.785,-33.691,-21.484,-58.594,0.000,0
160109.506,-23.438,-29.785,-19.043,-57.129,0.000,0
160109.510,-33.203,-24.414,-19.531,-41.992,0.000,0
160109.513,-30.273,-21.484,-27.344,-36.133,0.000,0
160109.517,-22.461,-21.484,-44.434,-26.855,0.000,0
160109.521,-29.785,-21.973,-16.113,-36.133,0.000,0
160109.525,-31.738,-25.391,-19.043,-29.785,0.000,0
160109.529,-36.621,-29.297,-47.363,-22.949,0.000,0
160109.533,-27.832,-24.902,-42.480,-25.879,0.000,0
160109.537,-20.020,-20.996,-34.668,-27.344,0.000,0
160109.541,-31.250,-25.879,-14.648,-44.434,0.000,0
160109.545,-28.320,-24.902,-12.695,-50.781,0.000,0
160109.549,-28.320,-22.949,-28.320,-46.875,0.000,0
160109.553,-42.480,-25.879,-32.715,-28.320,0.000,0
160109.556,-48.828,-26.855,-29.785,-18.066,0.000,0
160109.560,-37.598,-28.809,-30.762,-35.645,0.000,0
160109.564,-36.621,-28.320,-48.340,-29.297,0.000,0
160109.568,-40.527,-28.809,-49.805,-20.996,0.000,0
160109.572,-31.250,-25.879,-16.113,-41.504,0.000,0
160109.576,-20.020,-20.020,-37.598,-26.367,0.000,0
160109.580,-21.973,-21.973,-48.828,-20.020,0.000,0
160109.584,-24.902,-22.461,-23.438,-30.273,0.000,0
160109.588,-28.320,-23.926,-29.785,-28.809,0.000,0
160109.592,-37.109,-24.414,-37.598,-27.832,0.000,0
160109.596,-40.527,-24.902,-41.504,-26.367,0.000,0
160109.599,-53.711,-28.320,-40.039,-42.969,0.000,0
160109.603,-57.617,-29.297,-34.668,-60.547,0.000,0
160109.607,-46.875,-28.320,-42.480,-56.641,0.000,0
160109.611,-45.898,-32.715,-51.758,-53.711,0.000,0
160109.615,-54.688,-32.227,-36.133,-39.551,0.000,0
160109.619,-49.316,-29.297,-41.992,-46.875,0.000,0
160109.623,-39.062,-32.715,-47.363,-64.453,0.000,0
160109.627,-41.992,-32.227,-48.828,-43.457,0.000,0
160109.631,-49.805,-32.715,-57.617,-39.062,0.000,0
160109.635,-56.641,-29.785,-69.336,-50.781,0.000,0
160109.638,-57.129,-29.785,-52.734,-63.477,0.000,0
160109.642,-48.828,-32.227,-30.273,-71.777,0.000,0
160109.646,-41.504,-32.227,-28.809,-57.617,0.000,0
160109.650,-43.457,-32.715,-36.133,-54.199,0.000,0
160109.654,-41.016,-27.832,-45.410,-29.297,0.000,0
160109.658,-36.133,-29.785,-37.109,-25.391,0.000,0
160109.662,-40.039,-26.855,-14.648,-51.270,0.000,0
160109.666,-32.715,-23.438,-43.457,-27.832,0.000,0
160109.670,-29.785,-27.832,-49.316,-14.160,0.000,0
160109.674,-38.086,-26.367,-27.832,-20.996,0.000,0
160109.678,-33.203,-19.531,-18.066,-30.273,0.000,0
160109.681,-28.320,-21.484,-26.367,-45.410,0.000,0
160109.685,-28.320,-29.297,-36.133,-45.410,0.000,0
160109.689,-20.996,-23.926,-21.973,-29.297,0.000,0
160109.693,-24.902,-24.414,-34.668,-20.020,0.000,0
160109.697,-22.461,-26.367,-49.805,-26.855,0.000,0
160109.701,-19.531,-23.926,-39.551,-32.227,0.000,0
160109.705,-30.762,-21.484,-19.043,-14.648,0.000,0
160109.709,-24.414,-20.508,-27.832,-19.043,0.000,0
160109.713,-15.625,-20.020,-43.945,-36.133,0.000,0
160109.717,-21.484,-16.113,-34.180,-30.273,0.000,0
160109.721,-31.250,-16.113,-14.648,-44.434,0.000,0
160109.724,-26.855,-16.602,-28.809,-40.039,0.000,0
160109.728,-6.836,-21.973,-54.688,1.953,0.000,0
160109.732,-10.742,-22.949,-47.852,0.488,0.000,0
160109.736,-32.715,-20.020,-36.133,-30.273,0.000,0
160109.740,-25.391,-18.555,-29.785,-30.273,0.000,0
160109.744,-20.508,-16.602,-39.551,-21.484,0.000,0
160109.748,-46.387,-24.902,-59.570,-44.434,0.000,0
160109.752,-62.988,-25.879,-47.363,-52.734,0.000,0
160109.756,-49.805,-24.902,-57.617,-31.738,0.000,0
160109.760,-37.109,-26.367,-62.988,-36.133,0.000,0
160109.763,-35.645,-20.508,-43.945,-24.902,0.000,0
160109.767,-32.227,-20.508,-51.270,-5.859,0.000,0
160109.771,-26.367,-22.949,-66.406,-8.789,0.000,0
160109.775,-23.926,-20.508,-50.293,-16.602,0.000,0
160109.779,-27.832,-18.555,-18.555,-23.926,0.000,0
160109.783,-28.809,-17.090,-35.645,-22.461,0.000,0
160109.787,-30.273,-22.949,-48.340,-32.715,0.000,0
160109.791,-32.227,-25.879,-46.875,-32.227,0.000,0
160109.795,-34.180,-22.461,-32.227,-15.625,0.000,0
160109.799,-29.785,-19.531,-21.973,-26.855,0.000,0
160109.803,-26.367,-20.020,-43.457,-24.414,0.000,0
160109.806,-30.273,-19.531,-44.434,-19.043,0.000,0
160109.810,-28.809,-22.461,-41.016,-26.367,0.000,0
160109.814,-25.879,-29.297,-53.711,-26.367,0.000,0
160109.818,-32.227,-35.156,-41.016,-39.062,0.000,0
160109.822,-41.504,-35.645,-37.109,-46.875,0.000,0
160109.826,-41.992,-35.156,-44.434,-43.457,0.000,0
160109.830,-32.227,-29.297,-47.363,-28.320,0.000,0
160109.834,-28.320,-26.855,-48.828,-20.020,0.000,0
160109.838,-27.832,-29.297,-16.602,-39.062,0.000,0
160109.842,-35.645,-26.855,-17.090,-35.156,0.000,0
160109.846,-35.645,-30.273,-54.688,-27.344,0.000,0
160109.849,-28.809,-34.180,-58.105,-36.621,0.000,0
160109.853,-33.691,-30.273,-37.109,-31.738,0.000,0
160109.857,-39.062,-26.367,-26.367,-22.461,0.000,0
160109.861,-37.598,-22.461,-48.828,-39.062,0.000,0
160109.865,-33.203,-23.438,-55.664,-44.434,0.000,0
160109.869,-30.273,-24.902,-45.898,-19.531,0.000,0
160109.873,-26.367,-25.879,-44.434,-16.602,0.000,0
160109.877,-29.785,-27.344,-25.391,-37.598,0.000,0
160109.881,-33.691,-24.902,-29.297,-32.227,0.000,0
160109.885,-36.133,-25.391,-41.504,-20.996,0.000,0
160109.888,-39.062,-29.785,-39.062,-31.250,0.000,0
160109.892,-28.320,-25.391,-42.480,-20.996,0.000,0
160109.896,-29.785,-28.809,-32.227,-26.367,0.000,0
160109.900,-38.574,-31.250,-29.297,-39.062,0.000,0
160109.904,-31.250,-27.832,-49.316,-32.715,0.000,0
160109.908,-29.297,-28.320,-62.988,-27.832,0.000,0
160109.912,-32.227,-29.297,-47.363,-22.461,0.000,0
160109.916,-29.785,-27.832,-18.555,-23.438,0.000,0
160109.920,-23.438,-27.344,-27.344,-18.555,0.000,0
160109.924,-14.160,-27.832,-38.086,-9.766,0.000,0
160109.928,-8.789,-29.297,-22.949,-10.254,0.000,0
160109.931,-15.137,-27.344,-14.160,-2.441,0.000,0
160109.935,-12.207,-23.438,-24.414,-20.508,0.000,0
160109.939,-2.930,-23.438,-20.996,-36.133,0.000,0
160109.943,-5.859,-21.484,-18.066,-18.555,0.000,0
160109.947,-10.742,-25.391,-34.180,-15.625,0.000,0
160109.951,-10.254,-31.250,-42.969,-19.043,0.000,0
160109.955,-12.695,-27.344,-23.438,-14.648,0.000,0
160109.959,-22.461,-20.996,-8.301,-27.344,0.000,0
160109.963,-22.461,-25.391,-17.090,-43.945,0.000,0
160109.967,-10.742,-20.508,-47.852,-22.949,0.000,0
160109.971,-7.324,-17.578,-55.176,-2.930,0.000,0
160109.974,-18.555,-21.973,-23.926,-10.742,0.000,0
160109.978,-20.508,-23.438,-28.320,-27.344,0.000,0
160109.982,-17.090,-24.902,-65.918,-20.996,0.000,0
160109.986,-15.625,-27.344,-60.059,-15.137,0.000,0
160109.990,-16.113,-26.855,-24.414,-11.230,0.000,0
160109.994,-16.113,-28.809,-27.344,-9.277,0.000,0
160109.998,-16.602,-30.762,-35.156,-38.086,0.000,0
160110.002,-24.414,-29.785,-38.574,-48.340,0.000,0
160110.006,-31.250,-28.320,-35.156,-34.180,0.000,0
160110.010,-23.438,-28.320,-46.875,-17.578,0.000,0
160110.013,-20.508,-37.598,-46.875,-30.273,0.000,0
160110.017,-28.809,-34.668,-34.180,-37.598,0.000,0
160110.021,-33.203,-29.297,-44.434,-17.090,0.000,0
160110.025,-35.645,-34.668,-48.828,-18.555,0.000,0
160110.029,-37.598,-34.668,-62.012,-28.320,0.000,0
160110.033,-44.434,-31.738,-40.527,-27.832,0.000,0
160110.037,-41.992,-33.691,-10.254,-35.156,0.000,0
160110.041,-19.531,-36.133,-30.273,-26.367,0.000,0
160110.045,-26.367,-36.133,-29.297,-21.973,0.000,0
160110.049,-55.176,-36.133,-26.367,-40.039,0.000,0
160110.053,-52.246,-32.227,-18.555,-51.270,0.000,0
160110.056,-28.320,-27.832,-21.484,-38.574,0.000,0
160110.060,-26.367,-26.855,-33.691,-23.438,0.000,0
160110.064,-24.902,-26.367,-0.488,-31.738,0.000,0
160110.068,-21.484,-22.461,-11.719,-13.184,0.000,0
160110.072,-20.996,-24.902,-30.762,-11.230,0.000,0
160110.076,-14.648,-32.227,-24.902,-32.227,0.000,0
160110.080,-18.555,-29.297,-22.949,-18.555,0.000,0
160110.084,-18.066,-31.250,-43.457,-7.812,0.000,0
160110.088,-13.672,-34.180,-53.711,-6.836,0.000,0
160110.092,-23.438,-34.668,-34.180,-8.789,0.000,0
160110.096,-23.926,-34.668,-17.578,-38.574,0.000,0
160110.099,-12.695,-29.785,-38.574,-35.645,0.000,0
160110.103,-15.137,-32.227,-46.387,-28.320,0.000,0
160110.107,-20.996,-28.809,-34.180,-30.273,0.000,0
160110.111,-18.066,-26.855,-35.156,-17.578,0.000,0
160110.115,-17.090,-28.320,-22.461,-31.250,0.000,0
160110.119,-21.973,-20.020,-29.297,-27.832,0.000,0
160110.123,-28.320,-20.996,-40.039,-11.719,0.000,0
160110.127,-34.668,-25.391,-28.809,-17.578,0.000,0
160110.131,-32.227,-26.367,-41.016,-21.484,0.000,0
160110.135,-36.621,-27.832,-31.738,-44.434,0.000,0
160110.138,-41.016,-26.367,-34.668,-50.293,0.000,0
160110.142,-36.133,-24.902,-39.062,-39.551,0.000,0
160110.146,-26.367,-22.461,-41.504,-20.996,0.000,0
160110.150,-18.066,-19.043,-44.922,-13.672,0.000,0
160110.154,-22.461,-20.020,-7.812,-35.645,0.000,0
160110.158,-24.902,-22.949,-16.602,-32.227,0.000,0
160110.162,-25.391,-22.949,-33.691,-10.254,0.000,0
160110.166,-22.949,-22.949,-28.809,-7.812,0.000,0
160110.170,-26.367,-19.043,-16.602,-5.371,0.000,0
160110.174,-21.484,-15.625,-11.719,-30.762,0.000,0
160110.178,-15.137,-19.531,-36.133,-37.109,0.000,0
160110.181,-25.879,-21.973,-41.992,-26.855,0.000,0
160110.185,-29.785,-18.066,-41.016,-21.484,0.000,0
160110.189,-22.949,-18.555,-49.805,-23.926,0.000,0
160110.193,-24.902,-21.973,-26.367,-41.992,0.000,0
160110.197,-33.691,-22.949,-34.180,-30.273,0.000,0
160110.201,-38.086,-27.832,-62.500,-21.484,0.000,0
160110.205,-33.691,-24.414,-48.828,-29.297,0.000,0
160110.209,-34.668,-21.484,-36.133,-25.391,0.000,0
160110.213,-31.738,-26.367,-22.461,-35.156,0.000,0
160110.217,-23.926,-27.344,-22.949,-39.062,0.000,0
160110.221,-14.160,-26.855,-48.340,-28.320,0.000,0
160110.224,-19.043,-28.809,-45.898,-19.531,0.000,0
160110.228,-21.484,-22.949,-33.203,-18.555,0.000,0
160110.232,-19.531,-21.484,-28.809,-28.809,0.000,0
160110.236,-19.043,-26.855,-45.898,-27.344,0.000,0
160110.240,-19.043,-25.879,-46.387,-24.414,0.000,0
160110.244,-18.066,-23.926,-26.855,-24.902,0.000,0
160110.248,-13.184,-28.320,-45.410,-17.578,0.000,0
160110.252,-12.695,-23.438,-43.945,-27.832,0.000,0
160110.256,-12.207,-16.113,-24.902,-44.922,0.000,0
160110.260,-9.277,-16.113,-25.391,-29.297,0.000,0
160110.263,-3.906,-19.043,-36.133,-0.488,0.000,0
160110.267,-6.348,-20.508,-53.223,-14.160,0.000,0
160110.271,-16.113,-20.508,-33.691,-27.832,0.000,0
160110.275,-17.090,-20.996,-19.043,-17.578,0.000,0
160110.279,-12.695,-20.996,-40.527,-20.508,0.000,0
160110.283,-19.043,-19.043,-46.387,-26.855,0.000,0
160110.287,-25.879,-15.137,-39.551,-7.812,0.000,0
160110.291,-20.020,-15.137,-29.297,-7.324,0.000,0
160110.295,-13.672,-16.602,-25.879,-23.926,0.000,0
160110.299,-27.344,-17.090,-38.574,-16.113,0.000,0
160110.303,-37.598,-19.531,-44.922,-10.742,0.000,0
160110.306,-32.715,-23.926,-37.598,-11.230,0.000,0
160110.310,-31.250,-25.391,-39.062,-32.715,0.000,0
160110.314,-34.180,-22.461,-34.180,-52.246,0.000,0
160110.318,-37.598,-22.949,-38.574,-44.434,0.000,0
160110.322,-38.574,-26.367,-41.016,-33.691,0.000,0
160110.326,-32.227,-23.926,-43.945,-22.949,0.000,0
160110.330,-34.180,-26.855,-40.527,-33.691,0.000,0
160110.334,-39.062,-29.785,-29.785,-48.828,0.000,0
160110.338,-33.203,-29.785,-37.598,-32.227,0.000,0
160110.342,-23.438,-29.785,-39.062,-27.832,0.000,0
160110.346,-27.832,-23.438,-36.621,-33.203,0.000,0
160110.349,-37.598,-25.391,-31.738,-36.621,0.000,0
160110.353,-33.691,-29.785,-28.809,-52.734,0.000,0
160110.357,-34.180,-22.949,-46.875,-44.434,0.000,0
160110.361,-34.668,-25.879,-43.945,-34.668,0.000,0
160110.365,-36.621,-26.855,-26.367,-18.555,0.000,0
160110.369,-39.551,-24.414,-36.621,-19.043,0.000,0
160110.373,-30.273,-30.273,-23.926,-44.434,0.000,0
160110.377,-29.297,-30.762,-36.133,-37.109,0.000,0
160110.381,-40.039,-26.367,-57.617,-33.203,0.000,0
160110.385,-29.297,-22.461,-55.176,-25.391,0.000,0
160110.388,-23.926,-26.367,-41.992,-24.902,0.000,0
160110.392,-30.273,-28.809,-29.297,-53.223,0.000,0
160110.396,-30.273,-23.438,-31.250,-46.387,0.000,0
160110.400,-25.879,-22.949,-40.039,-20.508,0.000,0
160110.404,-30.273,-25.879,-61.035,-16.602,0.000,0
160110.408,-35.156,-21.484,-33.203,-32.715,0.000,0
160110.412,-32.715,-21.973,0.977,-40.527,0.000,0
160110.416,-24.902,-27.344,-45.410,-25.391,0.000,0
160110.420,-27.344,-28.809,-57.129,-27.832,0.000,0
160110.424,-34.180,-25.879,-30.762,-28.320,0.000,0
160110.428,-26.855,-25.879,-26.855,-28.809,0.000,0
160110.431,-24.414,-27.832,-22.949,-48.340,0.000,0
160110.435,-34.180,-28.320,-27.344,-45.410,0.000,0
160110.439,-31.738,-25.879,-25.879,-19.531,0.000,0
160110.443,-22.461,-20.508,-28.809,-6.836,0.000,0
160110.447,-7.812,-19.531,-44.434,-19.043,0.000,0
160110.451,-25.391,-28.320,-36.133,-47.363,0.000,0
160110.455,-39.551,-27.344,-12.695,-54.199,0.000,0
160110.459,-26.367,-23.926,-16.113,-43.945,0.000,0
160110.463,-27.832,-26.367,-34.180,-40.039,0.000,0
160110.467,-29.297,-21.484,-37.109,-40.527,0.000,0
160110.471,-22.949,-23.438,-10.742,-58.105,0.000,0
160110.474,-25.879,-23.926,-12.695,-52.246,0.000,0
160110.478,-29.785,-24.902,-48.828,-27.832,0.000,0
160110.482,-21.484,-29.785,-57.617,-31.738,0.000,0
160110.486,-26.855,-27.344,-33.203,-40.039,0.000,0
160110.490,-31.738,-26.367,-19.531,-53.711,0.000,0
160110.494,-25.879,-26.367,-31.738,-58.594,0.000,0
160110.498,-33.203,-22.461,-27.344,-49.316,0.000,0
160110.502,-35.156,-20.020,-39.062,-22.461,0.000,0
160110.506,-25.879,-22.461,-33.691,-26.367,0.000,0
160110.510,-29.297,-25.391,-14.160,-55.176,0.000,0
160110.513,-30.762,-23.438,-41.992,-35.645,0.000,0
160110.517,-25.879,-23.438,-49.805,-23.926,0.000,0
160110.521,-25.391,-27.344,-43.457,-30.273,0.000,0
160110.525,-26.855,-29.297,-24.414,-24.414,0.000,0
160110.529,-28.809,-25.879,-18.555,-31.250,0.000,0
160110.533,-35.156,-25.879,-39.551,-46.875,0.000,0
160110.537,-38.574,-30.273,-37.598,-42.480,0.000,0
160110.541,-32.227,-29.297,-30.273,-19.531,0.000,0
160110.545,-33.203,-33.691,-22.949,-27.832,0.000,0
160110.549,-39.062,-33.691,-30.762,-44.434,0.000,0
160110.553,-33.691,-28.809,-55.176,-31.738,0.000,0
160110.556,-23.926,-25.391,-51.758,-31.250,0.000,0
160110.560,-22.461,-24.414,-36.621,-32.227,0.000,0
160110.564,-26.367,-24.902,-40.039,-38.086,0.000,0
160110.568,-33.691,-21.484,-38.086,-47.852,0.000,0
160110.572,-25.879,-24.902,-11.719,-49.316,0.000,0
160110.576,-23.438,-27.344,-9.766,-37.109,0.000,0
160110.580,-33.691,-17.578,-56.152,-11.230,0.000,0
160110.584,-32.227,-18.555,-51.758,-20.020,0.000,0
160110.588,-36.621,-21.484,-17.578,-34.668,0.000,0
160110.592,-37.109,-22.949,-26.855,-39.062,0.000,0
160110.596,-29.297,-23.438,-49.316,-41.016,0.000,0
160110.599,-29.785,-22.461,-42.969,-35.645,0.000,0
160110.603,-28.320,-23.926,-41.016,-15.137,0.000,0
160110.607,-28.320,-22.461,-29.297,-18.066,0.000,0
160110.611,-30.273,-23.926,-30.273,-37.598,0.000,0
160110.615,-32.227,-30.762,-51.270,-39.062,0.000,0
160110.619,-36.621,-32.227,-48.340,-30.273,0.000,0
160110.623,-26.367,-28.320,-36.621,-24.902,0.000,0
160110.627,-25.391,-29.785,-31.738,-35.645,0.000,0
160110.631,-36.133,-30.273,-37.109,-41.992,0.000,0
160110.635,-40.039,-26.855,-40.039,-42.480,0.000,0
160110.638,-35.156,-28.809,-44.434,-38.086,0.000,0
160110.642,-30.762,-31.250,-46.875,-18.066,0.000,0
160110.646,-31.250,-27.344,-31.250,-31.738,0.000,0
160110.650,-31.250,-22.949,-36.133,-38.574,0.000,0
160110.654,-20.020,-21.484,-44.922,-15.625,0.000,0
160110.658,-15.137,-20.020,-33.691,-6.836,0.000,0
160110.662,-26.367,-23.438,-35.156,-6.348,0.000,0
160110.666,-31.250,-20.996,-26.367,-20.996,0.000,0
160110.670,-25.879,-18.555,-30.762,-41.504,0.000,0
160110.674,-22.949,-24.902,-48.828,-44.434,0.000,0
160110.678,-28.809,-25.391,-38.574,-22.949,0.000,0
160110.681,-30.273,-26.367,-41.016,-16.602,0.000,0
160110.685,-31.250,-28.809,-43.457,-42.480,0.000,0
160110.689,-25.391,-19.531,-41.992,-38.574,0.000,0
160110.693,-23.438,-19.043,-33.203,-9.277,0.000,0
160110.697,-25.391,-22.461,-40.527,-19.043,0.000,0
160110.701,-22.461,-20.508,-54.199,-28.320,0.000,0
160110.705,-23.438,-23.438,-26.855,-37.598,0.000,0
160110.709,-27.832,-24.414,-20.020,-48.828,0.000,0
160110.713,-30.273,-22.461,-41.504,-37.109,0.000,0
160110.717,-21.484,-22.949,-48.340,-25.391,0.000,0
160110.721,-22.461,-23.926,-35.645,-20.020,0.000,0
160110.724,-24.902,-24.902,-21.484,-22.949,0.000,0
160110.728,-23.926,-23.926,-41.504,-24.902,0.000,0
160110.732,-18.555,-24.414,-45.410,-28.809,0.000,0
160110.736,-20.508,-23.438,-24.414,-20.508,0.000,0
160110.740,-23.926,-26.367,-10.742,-45.898,0.000,0
160110.744,-18.555,-27.832,-26.855,-59.082,0.000,0
160110.748,-27.832,-24.902,-49.805,-26.855,0.000,0
160110.752,-31.250,-23.438,-42.969,-12.207,0.000,0
160110.756,-16.602,-21.973,-42.480,-11.230,0.000,0
160110.760,-22.461,-23.926,-26.855,-22.949,0.000,0
160110.763,-36.133,-22.949,-23.438,-36.621,0.000,0
160110.767,-32.227,-24.414,-42.969,-45.898,0.000,0
160110.771,-27.832,-25.391,-36.621,-47.852,0.000,0
160110.775,-22.461,-22.949,-48.828,-19.531,0.000,0
160110.779,-22.949,-24.902,-37.109,-13.672,0.000,0
160110.783,-19.531,-25.879,-28.320,-26.855,0.000,0
160110.787,-13.672,-25.391,-51.758,-16.113,0.000,0
160110.791,-14.648,-25.391,-41.992,-19.043,0.000,0
160110.795,-20.996,-25.879,-31.250,-25.391,0.000,0
160110.799,-10.742,-24.414,-11.230,-31.250,0.000,0
160110.803,1.953,-18.066,-11.230,-26.367,0.000,0
160110.806,-14.648,-18.066,-19.531,-25.879,0.000,0
160110.810,-24.414,-22.461,-32.227,-25.879,0.000,0
160110.814,-19.531,-23.438,-45.410,-13.184,0.000,0
160110.818,-26.855,-22.949,-29.785,-22.461,0.000,0
160110.822,-38.574,-19.531,-16.602,-39.551,0.000,0
160110.826,-31.250,-19.531,-40.527,-27.344,0.000,0
160110.830,-20.020,-28.320,-52.734,-21.973,0.000,0
160110.834,-13.184,-31.738,-40.527,-22.949,0.000,0
160110.838,-11.719,-33.691,-17.578,-30.762,0.000,0
160110.842,-12.695,-27.344,-33.203,-31.250,0.000,0
160110.846,-11.719,-20.996,-59.082,-34.668,0.000,0
160110.849,-15.625,-23.926,-49.805,-20.508,0.000,0
160110.853,-19.531,-20.996,-33.691,-1.953,0.000,0
160110.857,-20.020,-21.973,-22.461,-24.414,0.000,0
160110.861,-25.391,-24.414,-37.109,-30.762,0.000,0
160110.865,-28.320,-20.996,-39.062,-20.508,0.000,0
160110.869,-27.344,-19.043,-23.926,-30.762,0.000,0
160110.873,-22.461,-21.484,-47.363,-32.715,0.000,0
160110.877,-19.043,-27.344,-34.180,-46.387,0.000,0
160110.881,-24.414,-28.809,-5.371,-69.824,0.000,0
160110.885,-24.902,-26.855,-41.504,-46.387,0.000,0
160110.888,-19.531,-27.344,-61.035,-26.367,0.000,0
160110.892,-16.113,-26.855,-56.152,-29.785,0.000,0
160110.896,-20.508,-23.438,-30.273,-26.367,0.000,0
160110.900,-26.855,-18.555,-14.648,-24.414,0.000,0
160110.904,-21.484,-17.090,-39.062,-25.391,0.000,0
160110.908,-19.043,-16.602,-40.527,-29.785,0.000,0
160110.912,-31.250,-24.414,-20.508,-26.367,0.000,0
160110.916,-20.508,-26.367,-23.438,-25.391,0.000,0
160110.920,-12.695,-21.973,-28.320,-33.691,0.000,0
160110.924,-26.367,-19.043,-29.297,-22.461,0.000,0
160110.928,-29.785,-14.648,-16.602,-3.906,0.000,0
160110.931,-20.996,-17.090,-24.414,-14.648,0.000,0
160110.935,-19.043,-22.461,-25.391,-30.762,0.000,0
160110.939,-16.602,-20.996,-16.602,-23.926,0.000,0
160110.943,-19.531,-23.926,-26.855,-27.344,0.000,0
160110.947,-21.484,-26.367,-27.344,-42.969,0.000,0
160110.951,-15.625,-22.461,-27.344,-20.996,0.000,0
160110.955,-13.184,-27.344,-26.367,-19.531,0.000,0
160110.959,-21.484,-28.809,-27.832,-32.715,0.000,0
160110.963,-23.926,-25.879,-38.086,-14.160,0.000,0
160110.967,-11.719,-24.902,-45.898,-16.113,0.000,0
160110.971,-20.020,-20.508,-27.344,-25.879,0.000,0
160110.974,-27.344,-20.020,-28.320,-34.180,0.000,0
160110.978,-20.020,-20.020,-38.574,-56.641,0.000,0
160110.982,-21.484,-22.461,-26.855,-58.105,0.000,0
160110.986,-28.320,-28.320,-50.781,-34.668,0.000,0
160110.990,-28.809,-24.902,-63.477,-20.508,0.000,0
160110.994,-29.297,-23.926,-45.898,-36.621,0.000,0
160110.998,-45.410,-27.832,-38.574,-40.527,0.000,0
160111.002,-43.457,-27.832,-42.480,-23.926,0.000,0
160111.006,-37.598,-27.832,-50.293,-36.621,0.000,0
160111.010,-43.457,-31.738,-69.336,-39.551,0.000,0
160111.013,-45.410,-30.762,-41.016,-36.621,0.000,0
160111.017,-45.410,-30.273,-26.367,-44.922,0.000,0
160111.021,-30.762,-28.320,-50.781,-51.758,0.000,0
160111.025,-21.484,-19.531,-54.688,-37.109,0.000,0
160111.029,-27.344,-20.996,-47.363,-13.184,0.000,0
160111.033,-31.250,-25.391,-29.297,-31.738,0.000,0
160111.037,-22.949,-21.484,-35.156,-43.457,0.000,0
160111.041,-25.391,-16.602,-47.852,-30.273,0.000,0
160111.045,-34.180,-19.531,-42.480,-34.180,0.000,0
160111.049,-32.227,-24.414,-38.574,-27.832,0.000,0
160111.053,-23.438,-21.484,-20.020,-36.133,0.000,0
160111.056,-26.855,-19.531,-23.926,-50.293,0.000,0
160111.060,-35.156,-17.578,-28.320,-39.551,0.000,0
160111.064,-26.855,-14.648,-30.273,-24.902,0.000,0
160111.068,-13.672,-16.113,-46.387,-10.254,0.000,0
160111.072,-6.348,-15.137,-20.996,-23.438,0.000,0
160111.076,-14.648,-11.719,-22.949,-19.531,0.000,0
160111.080,-13.672,-12.695,-46.875,-9.766,0.000,0
160111.084,-11.230,-20.508,-40.039,-24.414,0.000,0
160111.088,-21.973,-23.438,-43.457,-13.184,0.000,0
160111.092,-23.926,-22.949,-25.879,-23.438,0.000,0
160111.096,-18.066,-19.531,-14.648,-37.109,0.000,0
160111.099,-17.578,-19.531,-27.832,-25.879,0.000,0
160111.103,-21.484,-21.484,-23.438,-18.066,0.000,0
160111.107,-27.832,-25.391,-34.180,-19.043,0.000,0
160111.111,-12.695,-25.879,-30.273,-25.391,0.000,0
160111.115,-9.277,-26.367,-16.602,-35.645,0.000,0
160111.119,-31.738,-31.738,-37.598,-35.156,0.000,0
160111.123,-30.762,-31.738,-41.016,-33.203,0.000,0
160111.127,-21.484,-30.762,-50.781,-19.531,0.000,0
160111.131,-15.625,-31.738,-37.598,-26.367,0.000,0
160111.135,-21.484,-29.785,-19.531,-43.457,0.000,0
160111.138,-27.832,-26.855,-51.270,-26.855,0.000,0
160111.142,-27.344,-33.203,-60.059,-14.160,0.000,0
160111.146,-28.320,-32.227,-36.133,-8.789,0.000,0
160111.150,-30.762,-27.832,-2.930,-10.742,0.000,0
160111.154,-36.621,-27.344,-9.766,-33.691,0.000,0
160111.158,-18.066,-29.785,-53.223,-38.086,0.000,0
160111.162,-7.812,-32.715,-38.574,-23.926,0.000,0
160111.166,-31.250,-27.832,-41.992,-28.809,0.000,0
160111.170,-30.273,-28.320,-48.340,-45.898,0.000,0
160111.174,-22.461,-28.320,-37.109,-55.664,0.000,0
160111.178,-42.480,-22.461,-40.527,-41.016,0.000,0
160111.181,-45.410,-26.367,-33.203,-31.250,0.000,0
160111.185,-43.945,-25.391,-34.668,-40.527,0.000,0
160111.189,-42.480,-20.508,-42.480,-31.250,0.000,0
160111.193,-38.086,-21.484,-28.320,-39.551,0.000,0
160111.197,-49.316,-25.391,-27.832,-51.758,0.000,0
160111.201,-48.828,-29.297,-54.199,-41.016,0.000,0
160111.205,-40.039,-31.250,-76.172,-35.156,0.000,0
160111.209,-43.457,-31.250,-39.062,-45.898,0.000,0
160111.213,-45.410,-28.809,-4.395,-47.363,0.000,0
160111.217,-40.039,-27.832,-38.574,-30.762,0.000,0
160111.221,-30.273,-28.320,-41.992,-25.879,0.000,0
160111.224,-20.020,-28.320,-41.016,-26.367,0.000,0
160111.228,-31.250,-26.367,-37.598,-30.762,0.000,0
160111.232,-38.574,-26.855,-30.762,-41.504,0.000,0
160111.236,-31.738,-31.738,-44.922,-42.480,0.000,0
160111.240,-39.062,-32.227,-48.340,-27.344,0.000,0
160111.244,-46.387,-29.297,-62.988,-16.602,0.000,0
160111.248,-39.062,-33.691,-66.406,-26.855,0.000,0
160111.252,-34.180,-34.668,-40.039,-33.203,0.000,0
160111.256,-38.574,-30.762,-36.621,-25.879,0.000,0
160111.260,-39.551,-31.738,-49.316,-28.320,0.000,0
160111.263,-40.039,-34.668,-50.781,-28.320,0.000,0
160111.267,-42.480,-37.109,-40.527,-33.203,0.000,0
160111.271,-32.715,-30.762,-34.180,-46.875,0.000,0
160111.275,-33.691,-25.879,-51.758,-38.086,0.000,0
160111.279,-42.969,-30.762,-53.223,-23.438,0.000,0
160111.283,-46.875,-31.738,-41.504,-21.973,0.000,0
160111.287,-53.223,-30.762,-38.574,-24.902,0.000,0
160111.291,-48.340,-31.250,-28.320,-47.363,0.000,0
160111.295,-34.668,-31.250,-46.387,-48.828,0.000,0
160111.299,-39.062,-32.227,-41.504,-37.109,0.000,0
160111.303,-45.898,-29.785,-22.461,-26.855,0.000,0
160111.306,-32.715,-28.809,-51.270,-18.555,0.000,0
160111.310,-26.855,-31.250,-44.922,-36.133,0.000,0
160111.314,-36.621,-27.344,-34.180,-29.785,0.000,0
160111.318,-41.992,-26.367,-46.875,-15.137,0.000,0
160111.322,-35.645,-33.691,-61.035,-25.879,0.000,0
160111.326,-34.180,-32.227,-56.152,-22.461,0.000,0
160111.330,-38.086,-28.809,-22.461,-25.879,0.000,0
160111.334,-34.180,-26.367,-11.719,-31.738,0.000,0
160111.338,-31.738,-26.367,-37.598,-37.109,0.000,0
160111.342,-27.344,-27.832,-55.176,-26.367,0.000,0
160111.346,-27.832,-29.785,-36.621,-12.207,0.000,0
160111.349,-36.133,-32.227,-22.461,-44.434,0.000,0
160111.353,-29.785,-27.832,-40.527,-40.039,0.000,0
160111.357,-32.227,-26.855,-49.805,-7.812,0.000,0
160111.361,-43.945,-32.227,-42.480,-20.508,0.000,0
160111.365,-35.156,-32.227,-32.227,-23.926,0.000,0
160111.369,-27.832,-27.832,-21.973,-25.879,0.000,0
160111.373,-34.668,-22.461,-25.391,-31.738,0.000,0
160111.377,-37.598,-22.461,-34.180,-30.273,0.000,0
160111.381,-38.574,-30.762,-36.621,-28.809,0.000,0
160111.385,-39.551,-32.227,-55.176,-23.438,0.000,0
160111.388,-31.250,-24.414,-31.738,-31.250,0.000,0
160111.392,-25.879,-19.531,-0.488,-38.086,0.000,0
160111.396,-29.785,-18.555,-34.668,-24.414,0.000,0
160111.400,-26.367,-20.020,-53.223,-30.273,0.000,0
160111.404,-27.344,-21.484,-34.668,-23.438,0.000,0
160111.408,-31.250,-18.555,-15.625,-20.020,0.000,0
160111.412,-20.996,-19.043,-21.484,-45.898,0.000,0
160111.416,-19.043,-21.973,-30.762,-30.762,0.000,0
160111.420,-29.297,-23.438,-34.180,-15.137,0.000,0
160111.424,-27.832,-25.391,-47.363,-8.301,0.000,0
160111.428,-25.879,-24.414,-40.527,-15.625,0.000,0
160111.431,-23.438,-20.996,-24.414,-31.738,0.000,0
160111.435,-27.344,-17.090,-18.066,-21.973,0.000,0
160111.439,-23.926,-16.113,-29.785,-49.316,0.000,0
160111.443,-11.719,-17.578,-50.781,-52.734,0.000,0
160111.447,-23.926,-18.066,-26.855,-11.230,0.000,0
160111.451,-19.531,-20.996,-17.578,-23.438,0.000,0
160111.455,-7.812,-21.973,-45.898,-15.625,0.000,0
160111.459,-24.414,-25.879,-55.664,-12.207,0.000,0
160111.463,-27.832,-29.297,-46.875,-23.438,0.000,0
160111.467,-29.297,-32.227,-22.461,-29.785,0.000,0
160111.471,-27.344,-31.738,-21.484,-36.621,0.000,0
160111.474,-22.949,-27.832,-41.504,-37.109,0.000,0
160111.478,-24.414,-27.832,-24.902,-39.062,0.000,0
160111.482,-19.531,-26.855,-28.809,-14.160,0.000,0
160111.486,-20.996,-33.203,-43.457,-28.809,0.000,0
160111.490,-35.156,-30.273,-32.227,-50.293,0.000,0
160111.494,-25.879,-20.508,-26.855,-36.133,0.000,0
160111.498,-17.090,-19.531,-25.879,-18.555,0.000,0
160111.502,-17.578,-19.531,-52.734,8.789,0.000,0
160111.506,-20.996,-25.879,-49.316,-25.391,0.000,0
160111.510,-32.715,-23.438,-29.785,-59.570,0.000,0
160111.513,-27.344,-19.043,-35.156,-47.363,0.000,0
160111.517,-22.949,-24.414,-39.551,-46.875,0.000,0
160111.521,-34.668,-21.484,-44.922,-30.762,0.000,0
160111.525,-42.969,-25.391,-31.738,-23.438,0.000,0
160111.529,-41.016,-29.297,-21.973,-49.805,0.000,0
160111.533,-29.297,-22.461,-56.152,-39.062,0.000,0
160111.537,-26.367,-21.484,-52.246,-20.508,0.000,0
160111.541,-39.062,-24.414,-36.621,-25.879,0.000,0
160111.545,-42.480,-26.855,-38.574,-31.738,0.000,0
160111.549,-44.434,-28.809,-31.250,-40.527,0.000,0
160111.553,-40.039,-25.879,-26.855,-32.715,0.000,0
160111.556,-31.250,-22.461,-32.715,-21.973,0.000,0
160111.560,-27.344,-23.926,-45.898,-17.090,0.000,0
160111.564,-26.367,-23.926,-39.551,-28.809,0.000,0
160111.568,-31.250,-19.043,-18.066,-38.086,0.000,0
160111.572,-30.273,-14.160,-21.973,-33.203,0.000,0
160111.576,-27.832,-15.625,-61.523,-18.066,0.000,0
160111.580,-17.090,-20.020,-67.383,-15.625,0.000,0
160111.584,-13.672,-20.996,-31.250,-10.742,0.000,0
160111.588,-22.949,-19.531,-14.648,-16.113,0.000,0
160111.592,-20.996,-20.996,-35.156,-35.645,0.000,0
160111.596,-20.020,-19.043,-30.762,-29.297,0.000,0
160111.599,-26.855,-18.555,-28.320,-23.438,0.000,0
160111.603,-25.879,-19.531,-52.734,-20.020,0.000,0
160111.607,-21.973,-19.043,-38.086,-8.789,0.000,0
160111.611,-30.762,-20.996,-34.180,-6.348,0.000,0
160111.615,-40.527,-28.320,-37.109,-14.160,0.000,0
160111.619,-32.715,-29.297,-34.180,-17.090,0.000,0
160111.623,-25.879,-27.832,-49.805,-22.949,0.000,0
160111.627,-33.691,-27.344,-38.086,-55.176,0.000,0
160111.631,-40.527,-28.320,-30.762,-60.059,0.000,1
160111.635,-34.668,-27.832,-40.527,-27.344,0.000,0
160111.638,-29.297,-26.855,-44.922,-22.461,0.000,0
160111.642,-34.668,-29.785,-41.992,-35.645,0.000,0
160111.646,-31.738,-25.391,-25.879,-32.715,0.000,0
160111.650,-28.809,-26.367,-38.086,-35.645,0.000,0
160111.654,-27.344,-31.738,-46.875,-51.270,0.000,0
160111.658,-30.762,-26.855,-35.156,-28.809,0.000,0
160111.662,-29.297,-21.973,-38.086,-11.230,0.000,0
160111.666,-24.902,-27.832,-40.039,-34.668,0.000,0
160111.670,-29.785,-31.738,-49.316,-41.992,0.000,0
160111.674,-30.273,-30.762,-52.246,-21.484,0.000,0
160111.678,-31.738,-29.297,-43.457,-14.648,0.000,0
160111.681,-26.855,-31.250,-55.176,-27.344,0.000,0
160111.685,-26.367,-32.227,-39.551,-29.297,0.000,0
160111.689,-28.809,-27.344,-35.645,-29.297,0.000,0
160111.693,-26.367,-26.855,-39.062,-54.688,0.000,0
160111.697,-26.855,-31.738,-34.180,-57.617,0.000,0
160111.701,-28.809,-31.250,-31.250,-28.809,0.000,0
160111.705,-29.785,-29.297,-28.320,-32.715,0.000,0
160111.709,-28.320,-25.391,-38.086,-31.738,0.000,0
160111.713,-20.996,-20.996,-52.246,-10.742,0.000,0
160111.717,-21.973,-29.297,-58.105,-20.020,0.000,0
160111.721,-31.738,-30.273,-39.062,-27.344,0.000,0
160111.724,-31.738,-22.461,-21.973,-33.691,0.000,0
160111.728,-28.809,-19.531,-22.949,-31.250,0.000,0
160111.732,-28.320,-17.578,-29.297,-25.879,0.000,0
160111.736,-24.902,-16.113,-21.484,-8.301,0.000,0
160111.740,-14.648,-16.113,-43.945,4.395,0.000,0
160111.744,-10.742,-17.578,-54.688,-25.391,0.000,0
160111.748,-16.602,-17.578,-29.297,-39.062,0.000,0
160111.752,-23.926,-22.461,-26.367,-20.508,0.000,0
160111.756,-29.297,-30.273,-32.715,-11.719,0.000,0
160111.760,-28.809,-29.297,-58.105,-20.996,0.000,0
160111.763,-28.809,-27.344,-26.367,-30.273,0.000,0
160111.767,-28.809,-27.344,2.930,-32.715,0.000,0
160111.771,-19.531,-25.391,-36.133,-26.367,0.000,0
160111.775,-17.090,-28.809,-45.898,-23.438,0.000,0
160111.779,-20.996,-30.273,-46.875,-14.648,0.000,0
160111.783,-22.461,-28.320,-27.344,-22.461,0.000,0
160111.787,-23.438,-24.414,-16.602,-39.551,0.000,0
160111.791,-14.648,-22.461,-49.316,-23.438,0.000,0
160111.795,-15.625,-28.809,-50.781,-17.578,0.000,0
160111.799,-22.461,-31.250,-25.391,-31.738,0.000,0
160111.803,-26.855,-30.762,-30.273,-30.762,0.000,0
160111.806,-27.832,-33.691,-28.809,-55.664,0.000,0
160111.810,-36.621,-37.598,-23.438,-54.199,0.000,0
160111.814,-40.039,-36.133,-50.293,-18.555,0.000,0
160111.818,-33.203,-37.598,-62.500,-30.273,0.000,0
160111.822,-36.133,-41.992,-31.738,-56.641,0.000,0
160111.826,-36.133,-40.039,-20.020,-52.734,0.000,0
160111.830,-32.715,-34.668,-41.992,-42.969,0.000,0
160111.834,-31.250,-28.320,-33.203,-50.781,0.000,0
160111.838,-31.250,-28.320,-30.762,-34.668,0.000,0
160111.842,-36.133,-35.156,-33.691,-36.621,0.000,0
160111.846,-35.645,-30.273,-19.043,-47.363,0.000,0
160111.849,-38.086,-23.926,-38.574,-22.949,0.000,0
160111.853,-37.109,-22.949,-40.039,-17.090,0.000,0
160111.857,-29.297,-22.461,-30.273,-20.996,0.000,0
160111.861,-22.461,-24.902,-36.621,-24.902,0.000,0
160111.865,-15.137,-23.438,-21.973,-43.457,0.000,0
160111.869,-13.184,-25.879,-24.902,-34.668,0.000,0
160111.873,-22.949,-27.832,-30.762,-28.320,0.000,0
160111.877,-19.043,-23.438,-46.875,-19.043,0.000,0
160111.881,-19.043,-26.855,-37.598,-15.625,0.000,0
160111.885,-29.785,-26.855,-14.160,-29.297,0.000,0
160111.888,-24.414,-29.297,-36.133,-17.578,0.000,0
160111.892,-23.926,-33.203,-48.340,-19.043,0.000,0
160111.896,-31.250,-28.809,-35.156,-19.043,0.000,0
160111.900,-31.250,-28.809,-14.648,-21.484,0.000,0
160111.904,-31.738,-28.809,-13.184,-30.273,0.000,0
160111.908,-26.855,-26.367,-38.574,-45.410,0.000,0
160111.912,-22.949,-26.367,-33.203,-47.363,0.000,0
160111.916,-25.391,-26.367,-35.156,-11.230,0.000,0
160111.920,-20.996,-28.320,-37.598,-11.719,0.000,0
160111.924,-22.461,-27.832,-32.227,-25.879,0.000,0
160111.928,-31.738,-27.832,-37.598,-19.531,0.000,0
160111.931,-29.297,-29.785,-32.715,-17.578,0.000,0
160111.935,-24.902,-27.832,-32.227,-27.344,0.000,0
160111.939,-32.715,-28.809,-29.297,-31.738,0.000,0
160111.943,-41.504,-32.715,-20.508,-41.504,0.000,0
160111.947,-41.504,-28.809,-21.973,-38.574,0.000,0
160111.951,-39.551,-32.715,-45.410,-22.461,0.000,0
160111.955,-39.062,-36.133,-61.035,-31.738,0.000,0
160111.959,-41.504,-34.668,-41.016,-32.715,0.000,0
160111.963,-39.062,-33.203,-15.137,-45.410,0.000,0
160111.967,-41.016,-30.762,-38.086,-66.406,0.000,0
160111.971,-35.156,-35.156,-64.453,-53.711,0.000,0
160111.974,-34.668,-36.133,-55.176,-39.551,0.000,0
160111.978,-45.898,-34.180,-46.875,-25.391,0.000,0
160111.982,-31.738,-32.227,-31.738,-31.250,0.000,0
160111.986,-27.832,-29.297,-20.996,-41.504,0.000,0
160111.990,-34.180,-29.297,-25.879,-24.414,0.000,0
160111.994,-29.297,-28.320,-46.875,-23.926,0.000,0
160111.998,-22.949,-29.297,-54.688,-26.367,0.000,0
160112.002,-23.438,-28.320,-30.273,-36.133,0.000,0
160112.006,-21.484,-26.855,-24.414,-41.992,0.000,0
160112.010,-20.508,-25.391,-28.320,-33.203,0.000,0
160112.013,-29.297,-26.855,-25.391,-38.086,0.000,0
160112.017,-25.879,-28.809,-46.387,-27.832,0.000,0
160112.021,-9.766,-24.902,-20.996,-27.832,0.000,0
160112.025,-7.324,-20.996,-16.602,-24.414,0.000,0
160112.029,-5.371,-20.508,-50.781,-6.836,0.000,0
160112.033,-9.277,-23.926,-33.203,-0.488,0.000,0
160112.037,-12.695,-23.438,-9.766,0.488,0.000,0
160112.041,-12.695,-20.996,-22.949,-30.273,0.000,0
160112.045,-20.020,-23.438,-46.875,-49.316,0.000,0
160112.049,-20.020,-21.973,-15.137,-25.879,0.000,0
160112.053,-16.113,-19.043,3.418,-10.254,0.000,0
160112.056,-13.184,-19.043,-38.086,-8.789,0.000,0
160112.060,-24.414,-21.973,-28.809,-31.738,0.000,0
160112.064,-28.809,-23.438,-19.531,-33.203,0.000,0
160112.068,-24.414,-19.043,-33.691,-22.461,0.000,0
160112.072,-18.555,-17.578,-33.691,-34.668,0.000,0
160112.076,-14.648,-18.066,-30.273,-30.762,0.000,0
160112.080,-21.484,-20.020,-9.277,-33.203,0.000,0
160112.084,-26.855,-15.625,-8.789,-43.457,0.000,0
160112.088,-24.414,-9.766,-27.344,-31.250,0.000,0
160112.092,-20.508,-10.254,-32.227,-12.207,0.000,0
160112.096,-27.344,-10.254,-31.250,-20.508,0.000,0
160112.099,-31.738,-19.043,-24.902,-51.270,0.000,0
160112.103,-24.902,-23.438,-38.574,-50.781,0.000,0
160112.107,-29.297,-16.602,-52.246,-37.598,0.000,0
160112.111,-38.086,-16.113,-41.992,-42.480,0.000,0
160112.115,-32.715,-17.090,-29.785,-34.180,0.000,0
160112.119,-25.879,-22.461,-36.621,-42.480,0.000,0
160112.123,-30.273,-23.926,-33.691,-52.734,0.000,0
160112.127,-35.645,-23.438,-29.297,-42.969,0.000,0
160112.131,-29.297,-28.320,-36.621,-38.574,0.000,0
160112.135,-20.508,-24.414,-46.387,-24.414,0.000,0
160112.138,-15.137,-24.902,-23.926,-20.996,0.000,0
160112.142,-17.578,-22.461,-10.742,-43.457,0.000,0
160112.146,-23.438,-17.090,-46.875,-52.734,0.000,0
160112.150,-21.973,-23.438,-37.598,-53.223,0.000,0
160112.154,-14.648,-24.902,-37.109,-25.391,0.000,0
160112.158,-19.531,-23.438,-37.109,-24.902,0.000,0
160112.162,-19.531,-25.391,-33.691,-58.105,0.000,0
160112.166,-11.230,-25.879,-55.664,-45.410,0.000,0
160112.170,-19.043,-32.227,-51.270,-30.273,0.000,0
160112.174,-30.273,-39.551,-47.363,-23.438,0.000,0
160112.178,-41.992,-38.086,-52.246,-17.578,0.000,0
160112.181,-37.109,-34.668,-48.340,-52.246,0.000,0
160112.185,-39.551,-31.738,-32.715,-59.570,0.000,0
160112.189,-36.133,-31.738,-31.738,-45.410,0.000,0
160112.193,-25.391,-30.762,-54.688,-39.551,0.000,0
160112.197,-36.621,-29.785,-41.504,-33.203,0.000,0
160112.201,-42.480,-32.715,-15.625,-43.945,0.000,0
160112.205,-36.621,-33.203,-46.387,-35.156,0.000,0
160112.209,-30.273,-34.180,-73.730,-24.414,0.000,0
160112.213,-31.738,-34.180,-47.852,-24.414,0.000,0
160112.217,-34.668,-29.297,-14.648,-30.762,0.000,0
160112.221,-29.297,-25.391,-25.391,-23.438,0.000,0
160112.224,-24.902,-25.391,-41.992,-25.391,0.000,0
160112.228,-28.809,-29.297,-31.738,-39.062,0.000,0
160112.232,-23.438,-33.691,-36.621,-32.227,0.000,0
160112.236,-24.414,-32.715,-52.246,-33.691,0.000,0
160112.240,-35.156,-24.414,-39.551,-42.969,0.000,0
160112.244,-39.551,-24.902,-40.527,-28.809,0.000,0
160112.248,-32.227,-28.320,-39.551,-22.461,0.000,0
160112.252,-22.949,-26.855,-38.574,-26.367,0.000,0
160112.256,-31.250,-31.250,-42.969,-40.039,0.000,1
160112.260,-36.133,-28.320,-31.250,-42.480,0.000,0
160112.263,-29.785,-22.949,-38.086,-34.180,0.000,0
160112.267,-20.996,-20.508,-46.875,-30.273,0.000,0
160112.271,-27.344,-22.461,-37.109,-24.414,0.000,0
160112.275,-39.062,-23.438,-29.785,-29.297,0.000,0
160112.279,-37.598,-25.391,-30.273,-29.297,0.000,0
160112.283,-29.785,-25.879,-50.293,-32.715,0.000,0
160112.287,-32.227,-23.438,-46.387,-43.457,0.000,0
160112.291,-36.621,-25.391,-39.551,-42.480,0.000,0
160112.295,-33.691,-24.414,-46.875,-40.527,0.000,0
160112.299,-33.691,-23.926,-44.434,-43.945,0.000,0
160112.303,-28.320,-24.414,-32.715,-43.457,0.000,0
160112.306,-23.926,-24.902,-35.156,-31.250,0.000,0
160112.310,-25.879,-20.508,-55.176,-19.531,0.000,0
160112.314,-24.902,-20.508,-48.340,-23.926,0.000,0
160112.318,-30.273,-23.438,-19.531,-46.875,0.000,0
160112.322,-32.715,-18.555,-22.949,-44.922,0.000,0
160112.326,-27.344,-21.484,-41.992,-46.387,0.000,0
160112.330,-24.414,-21.484,-55.664,-29.785,0.000,0
160112.334,-23.926,-21.484,-47.852,-3.906,0.000,0
160112.338,-18.555,-29.297,-23.926,-27.832,0.000,0
160112.342,-15.625,-27.344,-33.691,-33.203,0.000,0
160112.346,-17.090,-17.090,-37.598,-9.766,0.000,0
160112.349,-15.137,-19.531,-30.273,1.953,0.000,0
160112.353,-14.160,-26.367,-30.273,11.230,0.000,0
160112.357,-22.949,-25.879,-28.320,-20.508,0.000,0
160112.361,-31.738,-26.855,-30.762,-54.688,0.000,0
160112.365,-28.320,-22.949,-19.531,-39.551,0.000,0
160112.369,-25.879,-21.973,-31.250,-30.762,0.000,0
160112.373,-30.273,-26.855,-50.781,-28.809,0.000,0
160112.377,-18.066,-27.832,-29.785,-33.691,0.000,0
160112.381,-23.926,-25.879,-21.973,-29.785,0.000,0
160112.385,-26.855,-26.367,-45.410,-17.578,0.000,0
160112.388,-10.254,-28.809,-52.246,-23.438,0.000,0
160112.392,-23.438,-27.832,-40.527,-17.090,0.000,0
160112.396,-27.344,-25.879,-16.602,-18.555,0.000,0
160112.400,-16.602,-23.926,-20.020,-32.227,0.000,0
160112.404,-24.414,-29.785,-40.039,-28.320,0.000,0
160112.408,-33.691,-30.273,-44.922,-17.090,0.000,0
160112.412,-32.715,-24.414,-43.945,-7.812,0.000,0
160112.416,-25.879,-27.832,-29.785,-22.461,0.000,0
160112.420,-18.555,-28.320,-41.016,-37.109,0.000,0
160112.424,-30.762,-25.879,-43.945,-32.715,0.000,0
160112.428,-42.480,-22.949,-7.812,-40.527,0.000,0
160112.431,-34.668,-26.367,-38.086,-37.109,0.000,0
160112.435,-24.902,-29.785,-44.434,-38.574,0.000,0
160112.439,-25.391,-22.461,-14.648,-41.016,0.000,0
160112.443,-20.508,-18.555,-29.785,-26.367,0.000,0
160112.447,-19.531,-27.344,-41.016,-20.508,0.000,0
160112.451,-27.344,-30.762,-45.898,-7.324,0.000,0
160112.455,-26.367,-30.762,-25.879,-16.602,0.000,0
160112.459,-26.855,-31.250,-29.785,-30.762,0.000,0
160112.463,-30.762,-27.832,-56.641,-25.879,0.000,0
160112.467,-25.879,-25.879,-56.152,-24.414,0.000,0
160112.471,-30.762,-25.391,-29.297,-18.066,0.000,0
160112.474,-33.691,-26.367,-14.648,-31.738,0.000,0
160112.478,-28.320,-28.320,-30.762,-45.410,0.000,0
160112.482,-33.203,-21.484,-34.668,-32.227,0.000,0
160112.486,-38.574,-19.531,-34.668,-15.137,0.000,0
160112.490,-28.320,-23.438,-51.270,-0.488,0.000,0
160112.494,-21.973,-27.832,-33.691,-23.926,0.000,0
160112.498,-29.785,-26.855,-7.812,-48.340,0.000,0
160112.502,-34.180,-22.949,-28.809,-38.574,0.000,0
160112.506,-30.762,-20.996,-30.762,-34.180,0.000,0
160112.510,-17.578,-21.484,-52.246,-15.625,0.000,0
160112.513,-15.625,-24.414,-36.621,-19.043,0.000,0
160112.517,-13.672,-20.996,0.977,-42.969,0.000,0
160112.521,-13.672,-22.949,-36.621,-28.809,0.000,0
160112.525,-22.461,-23.926,-49.805,-24.414,0.000,0
160112.529,-22.949,-21.973,-21.484,-34.180,0.000,0
160112.533,-19.531,-22.461,-14.648,-27.344,0.000,0
160112.537,-18.066,-24.414,-40.527,-29.785,0.000,0
160112.541,-25.879,-30.762,-45.410,-34.668,0.000,0
160112.545,-33.203,-33.691,-35.645,-38.086,0.000,0
160112.549,-37.598,-30.762,-26.855,-21.484,0.000,0
160112.553,-37.109,-29.785,-25.391,-18.555,0.000,0
160112.556,-34.180,-27.344,-30.273,-33.691,0.000,0
160112.560,-29.297,-25.391,-39.062,-16.602,0.000,0
160112.564,-20.020,-24.902,-47.852,-11.719,0.000,0
160112.568,-21.973,-23.438,-35.645,-24.414,0.000,0
160112.572,-29.297,-26.367,-13.672,-42.969,0.000,0
160112.576,-20.996,-22.949,-33.691,-29.297,0.000,0
160112.580,-13.184,-19.531,-49.316,-13.672,0.000,0
160112.584,-21.973,-23.438,-29.785,-8.301,0.000,0
160112.588,-27.832,-27.344,-26.367,-12.695,0.000,0
160112.592,-31.250,-27.832,-39.551,-34.668,0.000,0
160112.596,-29.297,-28.809,-46.387,-24.414,0.000,0
160112.599,-23.438,-29.297,-38.574,-17.090,0.000,0
160112.603,-21.973,-27.344,-33.203,-25.879,0.000,0
160112.607,-23.438,-30.762,-45.898,-27.344,0.000,0
160112.611,-27.832,-34.180,-34.668,-35.645,0.000,0
160112.615,-32.227,-31.738,-27.832,-38.086,0.000,0
160112.619,-31.738,-31.738,-43.457,-36.133,0.000,0
160112.623,-22.949,-31.250,-56.152,-32.227,0.000,0
160112.627,-18.066,-29.785,-35.156,-36.133,0.000,0
160112.631,-24.414,-30.273,-6.348,-40.039,0.000,0
160112.635,-16.113,-26.367,-24.414,-30.273,0.000,0
160112.638,-17.578,-32.227,-49.316,-34.668,0.000,0
160112.642,-32.715,-39.062,-43.457,-35.156,0.000,0
160112.646,-31.738,-33.691,-34.668,-10.254,0.000,0
160112.650,-22.461,-28.320,-40.527,-10.254,0.000,0
160112.654,-19.531,-33.203,-57.129,-33.203,0.000,0
160112.658,-17.578,-33.691,-57.617,-19.043,0.000,0
160112.662,-20.508,-24.902,-28.809,-9.766,0.000,0
160112.666,-19.531,-21.973,-27.344,-21.973,0.000,0
160112.670,-20.020,-25.391,-38.086,-38.574,0.000,0
160112.674,-28.320,-28.809,-28.809,-46.387,0.000,0
160112.678,-19.531,-24.902,-25.391,-38.086,0.000,0
160112.681,-13.184,-23.438,-36.621,-31.250,0.000,0
160112.685,-17.090,-28.809,-47.363,-13.672,0.000,0
160112.689,-25.879,-30.762,-28.320,-26.855,0.000,0
160112.693,-37.109,-26.367,-20.996,-34.180,0.000,0
160112.697,-32.715,-25.879,-46.387,-16.602,0.000,0
160112.701,-22.949,-24.902,-59.082,-18.066,0.000,0
160112.705,-28.809,-24.414,-33.203,-20.508,0.000,0
160112.709,-24.902,-22.461,-1.465,-36.621,0.000,0
160112.713,-21.484,-26.367,-25.391,-44.434,0.000,0
160112.717,-24.902,-31.250,-32.715,-30.762,0.000,0
160112.721,-21.484,-29.297,-26.367,-22.949,0.000,0
160112.724,-16.602,-28.809,-36.621,-16.113,0.000,0
160112.728,-14.648,-32.715,-19.531,-35.156,0.000,0
160112.732,-22.461,-31.738,-9.766,-35.645,0.000,0
160112.736,-28.809,-27.832,-24.414,-17.090,0.000,0
160112.740,-27.832,-26.367,-37.598,-20.020,0.000,0
160112.744,-25.391,-24.414,-40.527,-30.762,0.000,0
160112.748,-35.645,-29.785,-36.621,-54.199,0.000,0
160112.752,-41.504,-33.691,-20.020,-46.387,0.000,0
160112.756,-37.598,-34.668,-37.109,-44.922,0.000,0
160112.760,-34.668,-34.668,-56.641,-44.922,0.000,0
160112.763,-31.738,-30.762,-47.363,-23.926,0.000,0
160112.767,-36.621,-30.762,-23.926,-42.969,0.000,0
160112.771,-32.715,-26.367,-25.879,-50.293,0.000,0
160112.775,-31.738,-30.273,-47.852,-38.574,0.000,0
160112.779,-38.086,-32.715,-31.738,-35.645,0.000,0
160112.783,-36.621,-28.809,-20.996,-26.855,0.000,0
160112.787,-38.086,-31.250,-36.133,-37.109,0.000,0
160112.791,-40.039,-29.297,-40.527,-51.758,0.000,0
160112.795,-41.016,-30.762,-32.227,-39.062,0.000,0
160112.799,-43.457,-32.715,-32.715,-20.996,0.000,0
160112.803,-35.645,-29.785,-52.734,-25.391,0.000,0
160112.806,-39.551,-36.133,-37.109,-45.898,0.000,0
160112.810,-34.180,-29.785,-13.184,-46.875,0.000,0
160112.814,-20.508,-22.461,-26.367,-32.715,0.000,0
160112.818,-23.926,-24.902,-34.180,-35.645,0.000,0
160112.822,-25.391,-23.926,-46.387,-32.227,0.000,0
160112.826,-25.391,-27.832,-33.203,-24.902,0.000,0
160112.830,-25.391,-24.414,-17.578,-29.785,0.000,0
160112.834,-30.273,-17.090,-36.133,-29.297,0.000,0
160112.838,-36.621,-21.973,-42.969,-42.480,0.000,0
160112.842,-33.203,-24.414,-35.645,-25.879,0.000,0
160112.846,-24.414,-23.926,-30.762,-22.461,0.000,2
160112.849,-20.020,-24.414,-27.832,-45.410,0.000,0
160112.853,-19.531,-19.531,-33.691,-32.715,0.000,0
160112.857,-21.484,-18.066,-36.621,-33.203,0.000,0
160112.861,-20.020,-15.137,-39.062,-18.066,0.000,0
160112.865,-6.836,-16.602,-34.180,-20.020,0.000,0
160112.869,-7.324,-15.137,-12.695,-32.227,0.000,0
160112.873,4.395,-8.789,-25.391,-9.766,0.000,0
160112.877,9.766,-10.254,-35.156,-10.742,0.000,0
160112.881,-13.184,-15.137,-24.902,-20.508,0.000,0
160112.885,-19.043,-23.438,-17.578,-24.414,0.000,0
160112.888,-16.602,-25.391,-15.137,-44.922,0.000,0
160112.892,-11.230,-20.020,-41.016,-45.898,0.000,0
160112.896,-11.230,-22.461,-42.480,-27.344,0.000,0
160112.900,-18.555,-23.438,-35.645,-15.137,0.000,0
160112.904,-27.832,-21.484,-40.527,-25.879,0.000,0
160112.908,-30.762,-24.902,-24.902,-31.738,0.000,0
160112.912,-25.879,-24.902,-33.691,-15.625,0.000,0
160112.916,-18.555,-25.879,-47.363,-17.090,0.000,0
160112.920,-25.879,-24.902,-41.504,-30.273,0.000,0
160112.924,-29.297,-20.020,-34.180,-31.738,0.000,0
160112.928,-20.508,-22.949,-22.461,-39.062,0.000,0
160112.931,-22.949,-21.484,-13.672,-40.039,0.000,0
160112.935,-20.996,-19.043,-26.855,-23.926,0.000,0
160112.939,-23.438,-23.438,-36.133,-37.598,0.000,0
160112.943,-28.809,-24.414,-23.926,-39.551,0.000,0
160112.947,-20.020,-23.438,-26.367,-24.902,0.000,0
160112.951,-19.043,-20.508,-32.715,-26.855,0.000,0
160112.955,-23.926,-18.555,-39.551,-24.902,0.000,0
160112.959,-27.832,-13.184,-25.879,-18.066,0.000,0
160112.963,-28.320,-12.695,-16.113,-12.207,0.000,0
160112.967,-20.508,-15.625,-20.996,-21.973,0.000,0
160112.971,-22.949,-14.648,-31.738,-27.832,0.000,0
160112.974,-34.668,-20.020,-35.156,-20.996,0.000,0
160112.978,-29.785,-22.949,-33.203,-14.648,0.000,0
160112.982,-15.137,-20.508,-41.992,-16.602,0.000,0
160112.986,-15.625,-19.531,-35.156,-29.297,0.000,0
160112.990,-22.461,-18.555,-30.273,-43.457,0.000,0
160112.994,-21.484,-15.137,-28.320,-40.527,0.000,0
160112.998,-18.555,-16.602,-30.273,-33.691,0.000,0
160113.002,-17.090,-20.020,-39.551,-13.184,0.000,0
160113.006,-20.508,-24.902,-29.297,-26.367,0.000,0
160113.010,-23.438,-25.879,-28.320,-39.062,0.000,0
160113.013,-19.531,-24.414,-44.922,-16.113,0.000,0
160113.017,-22.461,-27.344,-36.621,-3.418,0.000,0
160113.021,-33.203,-24.414,-16.113,-0.488,0.000,0
160113.025,-27.832,-19.531,-16.113,-20.996,0.000,0
160113.029,-17.090,-19.531,-18.066,-27.832,0.000,0
160113.033,-22.949,-21.973,-28.320,-28.809,0.000,0
160113.037,-28.320,-26.367,-43.945,-26.855,0.000,0
160113.041,-24.414,-26.367,-35.645,-17.578,0.000,0
160113.045,-30.273,-28.809,-22.949,-41.504,0.000,0
160113.049,-38.086,-30.762,-37.598,-36.133,0.000,0
160113.053,-38.086,-32.715,-47.852,-12.695,0.000,0
160113.056,-36.621,-34.668,-50.781,-24.414,0.000,0
160113.060,-19.043,-26.855,-39.062,-15.137,0.000,0
160113.064,-11.719,-22.461,-8.789,-15.625,0.000,0
160113.068,-22.949,-21.484,-13.672,-43.457,0.000,0
160113.072,-20.996,-26.855,-47.852,-45.898,0.000,0
160113.076,-6.836,-34.668,-63.965,-23.926,0.000,0
160113.080,-12.207,-33.203,-38.574,-6.836,0.000,0
160113.084,-20.996,-27.832,-2.930,-27.832,0.000,0
160113.088,-24.414,-27.832,-34.180,-40.527,0.000,0
160113.092,-25.391,-27.832,-65.918,-20.508,0.000,0
160113.096,-16.602,-24.902,-43.945,-17.578,0.000,0
160113.099,-22.949,-25.391,-31.738,-20.508,0.000,0
160113.103,-36.133,-29.297,-35.645,-46.875,0.000,0
160113.107,-35.645,-32.227,-34.180,-67.383,0.000,0
160113.111,-41.504,-31.250,-41.504,-43.945,0.000,0
160113.115,-42.969,-25.879,-37.598,-23.926,0.000,0
160113.119,-38.086,-21.973,-58.594,-22.461,0.000,0
160113.123,-37.109,-30.762,-58.105,-44.434,0.000,0
160113.127,-34.668,-28.320,-17.090,-34.180,0.000,0
160113.131,-31.250,-20.996,-30.762,0.000,0.000,0
160113.135,-25.879,-17.090,-45.898,-9.277,0.000,0
160113.138,-30.273,-19.043,-43.457,-25.879,0.000,0
160113.142,-28.320,-26.367,-20.020,-47.363,0.000,0
160113.146,-21.484,-19.531,-0.977,-54.199,0.000,0
160113.150,-21.973,-18.066,-34.668,-21.973,0.000,0
160113.154,-22.949,-25.391,-49.805,-12.207,0.000,0
160113.158,-23.926,-25.391,-40.039,-19.531,0.000,0
160113.162,-17.578,-20.996,-32.227,-20.508,0.000,0
160113.166,-15.625,-16.602,-29.297,-28.809,0.000,0
160113.170,-21.484,-16.113,-29.785,-32.227,0.000,0
160113.174,-25.879,-20.020,-27.832,-24.902,0.000,0
160113.178,-22.949,-23.926,-44.434,-17.578,0.000,0
160113.181,-29.297,-25.879,-40.527,-19.531,0.000,0
160113.185,-32.227,-24.414,-23.438,-37.109,0.000,0
160113.189,-23.926,-21.484,-48.340,-32.715,0.000,0
160113.193,-17.090,-18.066,-51.270,-22.461,0.000,0
160113.197,-18.066,-15.137,-40.039,-18.066,0.000,0
160113.201,-19.043,-20.996,-33.203,-22.949,0.000,0
160113.205,-18.066,-21.973,-21.973,-36.133,0.000,0
160113.209,-24.902,-20.020,-35.156,-34.180,0.000,0
160113.213,-32.715,-28.809,-39.062,-28.809,0.000,0
160113.217,-27.832,-31.250,-30.762,-13.184,0.000,0
160113.221,-24.414,-28.809,-35.645,-11.719,0.000,0
160113.224,-28.320,-28.320,-42.969,-33.691,0.000,0
160113.228,-20.508,-24.902,-44.434,-26.855,0.000,0
160113.232,-16.113,-26.367,-42.969,-24.902,0.000,0
160113.236,-13.184,-24.902,-48.828,-25.879,0.000,0
160113.240,-20.508,-25.879,-51.758,-23.926,0.000,0
160113.244,-31.738,-25.879,-28.809,-34.668,0.000,0
160113.248,-28.320,-24.414,-25.879,-29.785,0.000,0
160113.252,-25.879,-21.484,-49.805,-27.344,0.000,0
160113.256,-19.531,-15.625,-52.734,-24.902,0.000,0
160113.260,-18.555,-13.184,-32.227,-17.090,0.000,0
160113.263,-32.227,-12.207,-12.695,-30.273,0.000,0
160113.267,-30.762,-13.184,-46.387,-27.832,0.000,0
160113.271,-21.973,-12.207,-73.242,-12.207,0.000,0
160113.275,-21.484,-10.254,-44.434,-20.996,0.000,0
160113.279,-9.277,-11.719,-22.461,-21.484,0.000,0
160113.283,-13.672,-17.578,-26.855,-13.672,0.000,0
160113.287,-24.902,-17.090,-41.504,-20.996,0.000,0
160113.291,-19.531,-15.625,-41.992,-37.109,0.000,0
160113.295,-21.484,-18.555,-35.645,-28.809,0.000,0
160113.299,-22.949,-19.531,-28.809,-21.484,0.000,0
160113.303,-20.020,-16.602,-20.020,-27.344,0.000,0
160113.306,-27.832,-14.648,-24.414,-21.973,0.000,0
160113.310,-28.320,-12.695,-30.762,-22.949,0.000,0
160113.314,-15.625,-8.789,-32.227,-26.855,0.000,0
160113.318,-10.742,-13.184,-22.949,-28.320,0.000,0
160113.322,-14.160,-17.578,-18.555,-34.668,0.000,0
160113.326,-19.043,-13.672,-19.043,-24.414,0.000,0
160113.330,-4.395,-11.719,-34.180,-10.742,0.000,0
160113.334,-0.488,-17.578,-34.180,-24.414,0.000,0
160113.338,-15.137,-27.832,-23.926,-28.320,0.000,0
160113.342,-11.719,-26.855,-20.020,-31.250,0.000,0
160113.346,-12.207,-18.066,-23.926,-34.668,0.000,0
160113.349,-15.625,-17.090,-15.625,-41.504,0.000,0
160113.353,-14.160,-21.484,-11.719,-36.621,0.000,0
160113.357,-12.207,-22.461,-55.664,-19.043,0.000,0
160113.361,-14.648,-23.926,-40.527,-33.203,0.000,0
160113.365,-23.438,-25.391,-21.484,-32.227,0.000,0
160113.369,-28.320,-27.344,-42.969,-26.855,0.000,0
160113.373,-24.902,-28.320,-50.293,-36.621,0.000,0
160113.377,-17.578,-25.879,-38.086,-23.438,0.000,0
160113.381,-15.625,-25.391,-17.578,-30.762,0.000,0
160113.385,-20.508,-25.879,-19.531,-49.805,0.000,0
160113.388,-24.902,-22.949,-52.246,-43.457,0.000,0
160113.392,-24.902,-25.391,-59.082,-29.785,0.000,0
160113.396,-19.531,-27.832,-40.527,-12.207,0.000,0
160113.400,-24.902,-25.879,-36.621,-20.020,0.000,0
160113.404,-33.203,-22.949,-52.734,-37.109,0.000,0
160113.408,-26.367,-23.438,-56.641,-21.484,0.000,0
160113.412,-24.902,-25.879,-30.273,-16.113,0.000,0
160113.416,-25.391,-25.879,-32.227,-29.297,0.000,0
160113.420,-27.344,-30.762,-33.203,-44.922,0.000,0
160113.424,-35.645,-32.227,-29.785,-24.902,0.000,0
160113.428,-38.574,-31.250,-42.969,-12.207,0.000,0
160113.431,-20.996,-32.227,-55.664,-19.531,0.000,0
160113.435,-17.090,-31.250,-64.941,-16.602,0.000,0
160113.439,-25.879,-29.297,-35.156,-49.316,0.000,0
160113.443,-20.020,-28.320,-10.742,-49.316,0.000,0
160113.447,-11.230,-23.438,-40.527,-29.297,0.000,0
160113.451,-8.301,-21.484,-46.875,-39.551,0.000,0
160113.455,-18.066,-25.879,-43.457,-38.574,0.000,0
160113.459,-21.973,-28.809,-32.715,-43.457,0.000,0
160113.463,-11.719,-27.344,-36.621,-61.035,0.000,0
160113.467,-20.996,-25.391,-48.340,-46.387,0.000,0
160113.471,-26.367,-21.973,-42.969,-20.996,0.000,0
160113.474,-12.695,-22.461,-51.758,-13.184,0.000,0
160113.478,-6.836,-24.902,-36.621,-26.855,0.000,0
160113.482,-17.090,-22.949,-27.832,-26.367,0.000,0
160113.486,-22.461,-20.508,-42.969,-16.602,0.000,0
160113.490,-24.902,-24.414,-41.016,-27.344,0.000,0
160113.494,-19.043,-21.973,-50.293,-31.738,0.000,0
160113.498,-13.184,-21.484,-34.668,-29.297,0.000,0
160113.502,-26.367,-21.484,1.953,-28.809,0.000,0
160113.506,-33.203,-18.066,-24.414,-20.020,0.000,0
160113.510,-23.926,-25.391,-51.270,-15.137,0.000,0
160113.513,-29.297,-30.273,-38.574,-16.602,0.000,0
160113.517,-36.133,-25.391,-6.836,-28.320,0.000,0
160113.521,-32.227,-25.391,-8.301,-46.875,0.000,0
160113.525,-29.785,-28.809,-37.598,-36.621,0.000,0
160113.529,-26.855,-27.344,-27.344,-31.738,0.000,0
160113.533,-27.344,-31.738,-29.785,-31.738,0.000,0
160113.537,-23.438,-31.738,-43.457,-26.367,0.000,0
160113.541,-17.090,-28.809,-53.223,-37.109,0.000,0
160113.545,-23.926,-33.691,-47.363,-39.551,0.000,0
160113.549,-33.203,-38.086,-29.297,-29.785,0.000,0
160113.553,-29.785,-33.691,-39.551,-32.227,0.000,1
160113.556,-37.598,-30.273,-40.039,-28.320,0.000,0
160113.560,-42.480,-28.809,-38.086,-29.297,0.000,0
160113.564,-34.668,-28.809,-41.992,-40.527,0.000,0
160113.568,-24.414,-24.414,-45.410,-32.715,0.000,0
160113.572,-21.484,-19.043,-42.969,-13.672,0.000,0
160113.576,-26.367,-21.484,-29.297,-23.438,0.000,0
160113.580,-27.832,-17.090,-24.414,-41.504,0.000,0
160113.584,-24.902,-19.043,-30.762,-31.250,0.000,0
160113.588,-28.809,-20.996,-58.105,-30.762,0.000,0
160113.592,-33.203,-17.090,-48.340,-32.715,0.000,0
160113.596,-37.109,-22.461,-35.645,-14.160,0.000,0
160113.599,-37.109,-29.785,-46.875,-27.344,0.000,0
160113.603,-28.809,-30.762,-42.969,-47.852,0.000,0
160113.607,-20.508,-25.391,-31.738,-39.062,0.000,0
160113.611,-20.996,-24.902,-35.645,-22.949,0.000,0
160113.615,-14.648,-31.250,-36.621,-23.438,0.000,0
160113.619,-18.555,-30.273,-17.578,-25.879,0.000,0
160113.623,-28.320,-25.879,-39.062,-13.184,0.000,0
160113.627,-21.484,-23.438,-52.734,-18.066,0.000,0
160113.631,-21.484,-23.926,-24.902,-32.715,0.000,0
160113.635,-28.320,-26.367,-17.090,-32.715,0.000,0
160113.638,-25.391,-21.973,-13.672,-43.457,0.000,0
160113.642,-17.578,-19.531,-27.832,-52.246,0.000,0
160113.646,-16.113,-23.438,-37.598,-38.086,0.000,0
160113.650,-21.484,-24.414,-34.668,-28.809,0.000,0
160113.654,-24.414,-27.832,-28.320,-36.133,0.000,0
160113.658,-26.855,-27.832,-21.973,-49.805,0.000,0
160113.662,-30.273,-26.367,-39.062,-45.410,0.000,0
160113.666,-36.133,-25.879,-33.691,-41.016,0.000,0
160113.670,-34.180,-27.344,-41.992,-33.691,0.000,0
160113.674,-26.855,-29.297,-53.711,-24.414,0.000,0
160113.678,-38.086,-31.250,-24.902,-37.598,0.000,0
160113.681,-41.504,-32.227,-22.949,-34.180,0.000,0
160113.685,-31.738,-28.809,-61.035,-21.484,0.000,0
160113.689,-28.809,-29.297,-74.219,-26.855,0.000,0
160113.693,-31.250,-32.227,-40.527,-26.367,0.000,0
160113.697,-33.203,-30.273,-20.508,-35.645,0.000,0
160113.701,-32.715,-28.320,-43.457,-30.762,0.000,0
160113.705,-28.320,-29.785,-47.363,-17.090,0.000,0
160113.709,-23.438,-23.926,-40.527,3.906,0.000,0
160113.713,-23.926,-26.367,-41.504,-6.836,0.000,0
160113.717,-27.344,-26.855,-31.738,-40.039,0.000,0
160113.721,-31.250,-25.391,-38.086,-26.855,0.000,0
160113.724,-40.527,-28.320,-44.922,-20.020,0.000,0
160113.728,-31.738,-26.367,-52.734,-23.438,0.000,0
160113.732,-25.391,-24.902,-50.293,-27.344,0.000,0
160113.736,-33.203,-24.414,-33.203,-51.758,0.000,0
160113.740,-31.738,-23.926,-32.715,-51.758,0.000,0
160113.744,-31.738,-28.320,-40.039,-35.156,0.000,0
160113.748,-29.297,-28.809,-48.340,-18.555,0.000,0
160113.752,-32.227,-26.855,-43.457,-21.484,0.000,0
160113.756,-45.410,-29.785,-21.973,-41.992,0.000,0
160113.760,-44.434,-27.832,-35.156,-24.902,0.000,0
160113.763,-29.785,-27.344,-58.105,-18.555,0.000,0
160113.767,-24.414,-25.391,-44.434,-20.508,0.000,0
160113.771,-33.691,-22.461,-23.926,-13.184,0.000,0
160113.775,-31.738,-25.879,-23.438,-32.715,0.000,0
160113.779,-17.090,-20.020,-41.016,-30.273,0.000,0
160113.783,-16.113,-17.578,-33.203,-10.254,0.000,0
160113.787,-26.367,-20.508,-21.484,1.953,0.000,0
160113.791,-19.043,-21.484,-31.738,-8.789,0.000,0
160113.795,-9.766,-25.391,-15.137,-19.531,0.000,0
160113.799,-18.555,-25.879,-28.320,-12.207,0.000,0
160113.803,-20.996,-27.832,-48.340,-20.020,0.000,0
160113.806,-16.113,-26.367,-41.016,-16.602,0.000,0
160113.810,-16.602,-22.461,-27.832,-9.277,0.000,0
160113.814,-26.367,-21.973,-5.371,-31.738,0.000,0
160113.818,-36.621,-20.996,-20.996,-39.062,0.000,0
160113.822,-30.762,-19.531,-50.781,-26.855,0.000,0
160113.826,-20.996,-16.602,-49.316,-18.555,0.000,0
160113.830,-32.715,-16.602,-11.230,-17.090,0.000,0
160113.834,-35.156,-17.578,-3.418,-41.504,0.000,0
160113.838,-29.785,-14.160,-29.785,-56.152,0.000,0
160113.842,-31.738,-14.648,-29.785,-39.551,0.000,0
160113.846,-33.203,-24.414,-30.273,-22.461,0.000,0
160113.849,-36.133,-29.785,-45.410,-17.578,0.000,0
160113.853,-37.109,-29.297,-46.875,-41.992,0.000,0
160113.857,-29.785,-31.250,-29.785,-41.992,0.000,0
160113.861,-20.996,-26.367,-20.508,-17.090,0.000,0
160113.865,-25.391,-22.461,-38.086,4.395,0.000,0
160113.869,-19.043,-23.926,-48.340,-9.277,0.000,0
160113.873,-16.602,-27.832,-31.250,-46.387,0.000,0
160113.877,-33.203,-26.367,-17.090,-41.504,0.000,0
160113.881,-28.320,-24.902,-34.668,-29.297,0.000,0
160113.885,-21.973,-23.926,-38.086,-19.043,0.000,0
160113.888,-18.555,-21.484,-39.062,-1.953,0.000,0
160113.892,-14.648,-23.438,-22.949,-22.949,0.000,0
160113.896,-18.555,-21.973,-20.020,-21.484,0.000,0
160113.900,-20.020,-22.461,-37.109,0.977,0.000,0
160113.904,-20.508,-23.438,-33.691,-20.996,0.000,0
160113.908,-16.113,-20.996,-32.227,-27.832,0.000,0
160113.912,-17.578,-23.438,-24.902,-21.484,0.000,0
160113.916,-20.996,-23.926,-20.020,-41.504,0.000,0
160113.920,-26.367,-20.020,-24.414,-39.062,0.000,0
160113.924,-29.785,-21.973,-40.527,-24.414,0.000,0
160113.928,-19.531,-24.902,-47.852,-19.043,0.000,0
160113.931,-18.066,-22.461,-26.367,-27.832,0.000,0
160113.935,-22.461,-22.461,-19.531,-41.992,0.000,0
160113.939,-21.973,-25.879,-41.016,-32.715,0.000,0
160113.943,-13.672,-25.879,-39.551,-26.855,0.000,0
160113.947,-15.137,-21.973,-27.832,-35.645,0.000,0
160113.951,-20.996,-21.484,-20.508,-33.203,0.000,0
160113.955,-17.578,-24.414,-27.344,-39.551,0.000,0
160113.959,-16.113,-23.926,-34.180,-39.062,0.000,0
160113.963,-23.438,-25.879,-20.020,-39.551,0.000,0
160113.967,-24.902,-30.762,-38.574,-21.484,0.000,0
160113.971,-15.625,-27.344,-43.945,-20.020,0.000,0
160113.974,-17.578,-26.367,-32.715,-25.879,0.000,0
160113.978,-21.484,-28.320,-31.250,-7.812,0.000,0
160113.982,-22.949,-26.855,-25.391,-7.324,0.000,0
160113.986,-26.367,-21.973,-45.410,-23.438,0.000,0
160113.990,-23.926,-22.461,-42.969,-34.180,0.000,0
160113.994,-25.391,-25.391,-22.949,-41.504,0.000,0
160113.998,-27.832,-27.832,-34.668,-32.715,0.000,0
160114.002,-32.227,-33.691,-47.852,-13.672,0.000,0
160114.006,-36.621,-29.297,-48.340,-22.461,0.000,0
160114.010,-35.156,-24.902,-30.273,-35.156,0.000,0
160114.013,-24.902,-26.367,-29.785,-42.969,0.000,0
160114.017,-25.391,-31.250,-50.781,-51.270,0.000,0
160114.021,-41.016,-35.156,-44.434,-52.246,0.000,0
160114.025,-44.434,-30.273,-38.086,-24.902,0.000,0
160114.029,-40.039,-28.809,-40.527,-23.926,0.000,0
160114.033,-39.551,-29.297,-26.367,-55.664,0.000,0
160114.037,-40.039,-27.344,-38.574,-33.691,0.000,0
160114.041,-39.551,-30.273,-58.105,-26.855,0.000,0
160114.045,-34.668,-32.227,-51.270,-31.738,0.000,0
160114.049,-30.762,-29.297,-40.039,-22.461,0.000,0
160114.053,-33.691,-30.273,-28.809,-63.477,0.000,0
160114.056,-33.203,-30.762,-34.180,-65.430,0.000,0
160114.060,-24.902,-34.180,-43.457,-47.852,0.000,0
160114.064,-24.414,-36.621,-39.062,-42.480,0.000,0
160114.068,-17.090,-25.879,-25.879,-18.555,0.000,0
160114.072,-17.090,-22.461,-24.414,-24.902,0.000,0
160114.076,-16.113,-24.902,-42.480,-9.766,0.000,0
160114.080,-16.113,-28.320,-46.387,-3.906,0.000,0
160114.084,-27.344,-28.320,-41.504,-14.160,0.000,0
160114.088,-28.809,-26.367,-38.086,-17.578,0.000,0
160114.092,-25.391,-27.344,-25.391,-21.973,0.000,0
160114.096,-30.762,-23.438,-20.996,-16.602,0.000,0
160114.099,-35.156,-27.832,-25.391,-37.598,0.000,0
160114.103,-35.645,-33.203,-47.363,-35.156,0.000,0
160114.107,-27.344,-29.785,-49.805,-30.273,0.000,0
160114.111,-25.879,-32.715,-22.461,-41.016,0.000,0
160114.115,-35.156,-32.227,-29.297,-22.949,0.000,0
160114.119,-27.344,-31.738,-47.363,-16.113,0.000,0
160114.123,-24.414,-31.250,-45.898,-12.207,0.000,0
160114.127,-29.297,-25.879,-27.344,-18.555,0.000,0
160114.131,-29.785,-28.320,-10.742,-41.992,0.000,0
160114.135,-29.297,-30.762,-34.180,-40.527,0.000,0
160114.138,-25.879,-29.785,-45.410,-29.297,0.000,0
160114.142,-25.391,-24.414,-38.086,-16.602,0.000,0
160114.146,-30.273,-22.461,-31.738,-14.160,0.000,0
160114.150,-32.715,-24.902,-26.855,-35.156,0.000,0
160114.154,-28.320,-25.879,-38.574,-47.363,0.000,0
160114.158,-40.039,-29.297,-29.785,-44.922,0.000,0
160114.162,-48.340,-37.598,-27.832,-36.621,0.000,0
160114.166,-36.133,-41.504,-37.109,-34.668,0.000,0
160114.170,-27.832,-38.574,-44.922,-48.828,0.000,0
160114.174,-33.203,-33.691,-43.945,-40.527,0.000,0
160114.178,-31.250,-29.785,-33.203,-28.320,0.000,0
160114.181,-20.508,-31.738,-42.480,-27.832,0.000,0
160114.185,-28.809,-34.668,-30.273,-37.109,0.000,0
160114.189,-37.109,-31.250,-18.066,-49.316,0.000,0
160114.193,-36.621,-26.855,-38.574,-41.992,0.000,0
160114.197,-33.691,-25.879,-47.363,-42.969,0.000,0
160114.201,-36.621,-26.367,-46.875,-30.273,0.000,0
160114.205,-33.691,-28.809,-33.691,-17.578,0.000,0
160114.209,-19.531,-24.414,-27.344,-34.668,0.000,2
160114.213,-24.414,-19.531,-42.969,-36.133,0.000,0
160114.217,-26.367,-16.113,-46.875,-16.113,0.000,0
160114.221,-18.066,-19.531,-37.109,-14.160,0.000,0
160114.224,-19.531,-20.020,-26.367,-31.738,0.000,0
160114.228,-12.695,-15.625,-11.719,-29.297,0.000,0
160114.232,0.000,-18.066,-24.902,-6.836,0.000,0
160114.236,-16.602,-21.484,-34.180,-23.926,0.000,0
160114.240,-28.320,-20.508,-39.062,-22.949,0.000,0
160114.244,-24.414,-18.555,-50.293,-28.320,0.000,0
160114.248,-21.973,-15.137,-15.137,-44.434,0.000,0
160114.252,-21.484,-13.672,-18.555,-16.602,0.000,0
160114.256,-23.438,-12.207,-50.781,-17.090,0.000,0
160114.260,-21.973,-10.254,-30.273,-28.809,0.000,0
160114.263,-21.484,-13.672,-12.695,-31.738,0.000,0
160114.267,-27.832,-19.531,-21.484,-41.504,0.000,0
160114.271,-22.949,-15.137,-26.367,-16.602,0.000,0
160114.275,-28.320,-17.090,-23.926,-12.207,0.000,0
160114.279,-28.320,-20.508,-38.086,-21.973,0.000,0
160114.283,-28.320,-23.926,-30.762,-33.691,0.000,0
160114.287,-23.438,-21.484,-15.137,-36.621,0.000,0
160114.291,-18.066,-14.648,-10.742,-9.766,0.000,0
160114.295,-19.043,-16.602,-22.461,-9.766,0.000,0
160114.299,-19.531,-18.066,-40.039,-21.484,0.000,0
160114.303,-24.414,-16.602,-29.297,-25.391,0.000,0
160114.306,-25.879,-15.625,-14.648,-35.645,0.000,0
160114.310,-21.973,-24.414,-37.598,-34.668,0.000,0
160114.314,-21.973,-25.391,-44.434,-24.414,0.000,0
160114.318,-30.273,-19.531,-37.109,-19.531,0.000,0
160114.322,-27.832,-27.344,-30.762,-28.809,0.000,0
160114.326,-25.391,-22.949,-26.855,-20.508,0.000,0
160114.330,-26.367,-16.113,-45.410,-20.020,0.000,0
160114.334,-30.273,-19.043,-36.133,-28.320,0.000,0
160114.338,-29.785,-15.625,-10.254,-22.461,0.000,0
160114.342,-19.531,-15.625,-23.438,-25.879,0.000,0
160114.346,-16.113,-17.090,-25.391,-38.574,0.000,0
160114.349,-19.531,-14.648,-25.391,-35.156,0.000,0
160114.353,-11.719,-15.137,-33.203,-24.414,0.000,0
160114.357,-14.160,-19.531,-35.156,-13.672,0.000,0
160114.361,-26.367,-26.367,-29.297,-23.926,0.000,0
160114.365,-29.297,-30.273,-12.207,-51.758,0.000,0
160114.369,-33.691,-23.438,-29.297,-48.340,0.000,0
160114.373,-33.691,-26.855,-54.688,-42.480,0.000,0
160114.377,-32.227,-33.203,-46.875,-27.832,0.000,0
160114.381,-39.062,-32.227,-29.297,-38.086,0.000,0
160114.385,-39.551,-32.715,-34.180,-45.410,0.000,0
160114.388,-22.461,-30.273,-60.547,-27.832,0.000,0
160114.392,-21.973,-28.809,-38.574,-32.715,0.000,0
160114.396,-28.809,-26.855,-18.555,-26.855,0.000,0
160114.400,-17.090,-23.438,-22.461,-32.715,0.000,0
160114.404,-13.672,-21.973,-19.531,-43.457,0.000,0
160114.408,-22.461,-24.414,-23.926,-40.527,0.000,0
160114.412,-20.508,-26.855,-28.320,-36.621,0.000,0
160114.416,-17.090,-25.879,-45.898,-26.367,0.000,0
160114.420,-13.672,-28.320,-31.738,-35.156,0.000,0
160114.424,-14.648,-28.809,-27.344,-31.738,0.000,0
160114.428,-27.832,-28.320,-42.480,-15.625,0.000,0
160114.431,-30.762,-24.902,-48.828,-28.809,0.000,0
160114.435,-24.902,-25.879,-57.617,-34.180,0.000,0
160114.439,-33.691,-29.297,-15.137,-28.809,0.000,0
160114.443,-35.645,-27.832,-11.719,-29.785,0.000,0
160114.447,-23.438,-30.273,-57.129,-33.691,0.000,0
160114.451,-25.391,-30.273,-53.711,-34.668,0.000,0
160114.455,-31.250,-26.855,-37.598,-19.531,0.000,0
160114.459,-32.715,-28.320,-24.902,-36.133,0.000,0
160114.463,-31.738,-26.367,-27.832,-41.504,0.000,0
160114.467,-34.180,-24.902,-38.574,-24.902,0.000,0
160114.471,-31.250,-24.902,-37.598,-30.273,0.000,0
160114.474,-36.621,-26.367,-42.480,-26.855,0.000,0
160114.478,-32.715,-29.785,-39.062,-35.645,0.000,0
160114.482,-25.391,-26.367,-25.391,-55.176,0.000,0
160114.486,-31.738,-26.367,-21.973,-40.527,0.000,0
160114.490,-30.762,-33.691,-45.898,-28.809,0.000,0
160114.494,-34.180,-34.180,-53.223,-26.855,0.000,0
160114.498,-29.297,-32.227,-32.227,-31.738,0.000,0
160114.502,-34.668,-31.250,-21.973,-38.086,0.000,0
160114.506,-34.180,-28.809,-45.410,-47.363,0.000,0
160114.510,-23.926,-28.320,-48.828,-62.500,0.000,0
160114.513,-28.320,-32.715,-42.969,-50.781,0.000,0
160114.517,-34.180,-30.273,-41.992,-30.273,0.000,0
160114.521,-33.203,-24.902,-27.832,-38.086,0.000,0
160114.525,-30.762,-25.879,-29.785,-31.250,0.000,0
160114.529,-35.645,-25.879,-32.227,-17.090,0.000,0
160114.533,-35.156,-20.508,-36.621,-17.090,0.000,0
160114.537,-27.344,-21.484,-36.133,-22.461,0.000,0
160114.541,-25.391,-25.391,-14.648,-29.785,0.000,0
160114.545,-26.855,-22.461,-22.461,-27.832,0.000,0
160114.549,-26.367,-21.484,-36.133,-40.527,0.000,0
160114.553,-20.996,-23.926,-41.016,-22.461,0.000,0
160114.556,-11.230,-23.438,-23.926,5.859,0.000,0
160114.560,-20.996,-22.949,-9.277,-35.645,0.000,0
160114.564,-30.762,-20.996,-33.203,-42.969,0.000,0
160114.568,-21.484,-28.320,-43.457,-20.508,0.000,0
160114.572,-25.391,-34.180,-27.832,-32.227,0.000,0
160114.576,-24.414,-27.344,-31.250,-20.020,0.000,0
160114.580,-10.742,-25.879,-46.387,-27.344,0.000,0
160114.584,-13.672,-24.414,-45.410,-47.852,0.000,0
160114.588,-21.484,-23.926,-27.832,-31.738,0.000,0
160114.592,-18.555,-24.414,-32.715,-9.766,0.000,0
160114.596,-17.090,-25.391,-46.875,-20.508,0.000,0
160114.599,-22.461,-26.855,-36.621,-35.645,0.000,0
160114.603,-16.113,-21.973,-32.715,-15.137,0.000,0
160114.607,-15.137,-20.508,-40.527,-10.254,0.000,0
160114.611,-23.926,-19.043,-39.551,-21.973,0.000,0
160114.615,-29.297,-16.113,-38.086,-17.578,0.000,0
160114.619,-33.691,-22.461,-27.344,-39.551,0.000,0
160114.623,-34.668,-24.902,-32.227,-43.945,0.000,0
160114.627,-24.414,-24.902,-64.941,-28.809,0.000,0
160114.631,-24.414,-26.855,-67.871,-27.344,0.000,0
160114.635,-27.832,-22.461,-43.945,-17.578,0.000,0
160114.638,-21.484,-21.973,-28.320,-9.277,0.000,0
160114.642,-20.996,-23.438,-43.457,-15.137,0.000,0
160114.646,-36.133,-29.785,-52.246,-28.320,0.000,0
160114.650,-44.922,-35.156,-46.387,-34.668,0.000,0
160114.654,-44.434,-35.645,-49.805,-41.992,0.000,0
160114.658,-44.434,-32.715,-37.598,-51.758,0.000,0
160114.662,-48.340,-30.273,-32.715,-50.781,0.000,0
160114.666,-39.062,-30.273,-45.898,-31.250,0.000,0
160114.670,-26.367,-31.250,-59.570,-28.320,0.000,0
160114.674,-28.809,-31.250,-40.039,-37.598,0.000,0
160114.678,-30.273,-31.738,-16.113,-41.016,0.000,0
160114.681,-28.809,-28.320,-43.457,-31.738,0.000,0
160114.685,-24.414,-24.902,-62.988,-31.250,0.000,0
160114.689,-29.785,-29.785,-53.711,-33.691,0.000,0
160114.693,-34.668,-28.809,-41.992,-14.160,0.000,0
160114.697,-30.762,-25.879,-36.621,-20.508,0.000,0
160114.701,-27.344,-27.344,-46.875,-28.320,0.000,0
160114.705,-23.926,-27.832,-38.574,-10.742,0.000,0
160114.709,-29.297,-23.926,-14.648,-20.508,0.000,0
160114.713,-30.762,-20.996,-32.715,-23.926,0.000,0
160114.717,-33.691,-31.738,-49.805,-32.227,0.000,0
160114.721,-33.203,-34.668,-38.574,-46.387,0.000,0
160114.724,-27.344,-26.367,-20.508,-35.645,0.000,0
160114.728,-22.949,-21.973,-22.949,-25.391,0.000,0
160114.732,-26.367,-22.949,-46.387,-23.438,0.000,0
160114.736,-33.691,-25.879,-27.344,-46.875,0.000,0
160114.740,-34.180,-24.902,-14.160,-43.457,0.000,0
160114.744,-35.645,-25.391,-47.852,-28.320,0.000,0
160114.748,-28.809,-27.832,-63.965,-31.738,0.000,0
160114.752,-34.180,-33.203,-48.828,-27.832,0.000,0
160114.756,-36.621,-29.297,-18.066,-34.668,0.000,0
160114.760,-18.555,-18.066,-14.648,-39.551,0.000,0
160114.763,-19.531,-21.484,-49.805,-37.598,0.000,0
160114.767,-35.645,-27.344,-44.434,-24.902,0.000,0
160114.771,-35.645,-22.461,-28.809,-2.930,0.000,0
160114.775,-28.809,-28.320,-30.762,-41.504,0.000,0
160114.779,-27.832,-30.762,-26.855,-55.664,0.000,0
160114.783,-23.438,-21.484,-52.246,-17.090,0.000,0
160114.787,-16.113,-22.949,-47.363,-23.926,0.000,0
160114.791,-9.277,-23.438,-37.598,-15.137,0.000,0
160114.795,-23.438,-28.320,-29.297,-28.320,0.000,0
160114.799,-33.691,-29.297,-27.832,-46.387,0.000,0
160114.803,-36.133,-30.762,-33.203,-37.598,0.000,0
160114.806,-28.320,-29.297,-30.273,-16.602,0.000,0
160114.810,-20.020,-23.926,-53.711,-6.836,0.000,0
160114.814,-30.273,-31.738,-27.344,-33.203,0.000,0
160114.818,-28.320,-31.738,-15.137,-37.109,0.000,0
160114.822,-19.043,-27.832,-52.246,-12.695,0.000,0
160114.826,-16.602,-26.367,-36.133,-9.766,0.000,0
160114.830,-23.438,-19.043,-27.832,-11.719,0.000,0
160114.834,-32.227,-26.367,-28.809,-20.508,0.000,0
160114.838,-35.156,-33.691,-24.414,-30.762,0.000,1
160114.842,-36.621,-30.762,-31.738,-22.949,0.000,0
160114.846,-36.621,-31.738,-32.715,-15.137,0.000,0
160114.849,-35.645,-27.832,-40.527,-16.602,0.000,0
160114.853,-30.762,-28.320,-42.969,-26.855,0.000,0
160114.857,-33.691,-28.320,-16.113,-32.715,0.000,0
160114.861,-37.109,-20.508,-12.207,-36.621,0.000,0
160114.865,-25.391,-20.508,-34.668,-40.039,0.000,0
160114.869,-30.762,-22.461,-43.945,-25.879,0.000,0
160114.873,-14.160,-20.996,-32.227,0.977,0.000,0
160114.877,3.906,-21.484,-18.555,4.883,0.000,0
160114.881,-24.414,-20.996,-31.250,-17.578,0.000,0
160114.885,-49.805,-17.578,-51.270,-30.762,0.000,0
160114.888,-41.504,-21.973,-48.828,-24.902,0.000,0
160114.892,-41.992,-25.879,-27.832,-21.973,0.000,0
160114.896,-45.898,-18.555,-19.531,-25.391,0.000,0
160114.900,-40.527,-21.484,-26.367,-41.992,0.000,0
160114.904,-32.715,-25.879,-14.160,-47.363,0.000,0
160114.908,-26.367,-21.973,-17.578,-23.438,0.000,0
160114.912,-27.344,-29.297,-46.875,-31.738,0.000,0
160114.916,-28.809,-31.250,-29.297,-46.875,0.000,0
160114.920,-30.762,-29.297,-36.621,-21.484,0.000,0
160114.924,-25.879,-31.738,-48.340,-16.602,0.000,0
160114.928,-18.066,-30.273,-41.016,-30.273,0.000,0
160114.931,-21.973,-27.832,-38.086,-26.855,0.000,0
160114.935,-24.414,-28.809,-30.273,-41.504,0.000,0
160114.939,-20.020,-25.879,-31.250,-45.410,0.000,0
160114.943,-30.762,-27.344,-34.668,-29.785,0.000,0
160114.947,-35.156,-26.855,-41.016,-18.555,0.000,0
160114.951,-24.902,-21.484,-33.203,-18.555,0.000,0
160114.955,-24.414,-27.344,-32.227,-31.250,0.000,0
160114.959,-23.438,-25.879,-41.992,-32.715,0.000,0
160114.963,-21.484,-23.926,-40.039,-20.020,0.000,0
160114.967,-24.902,-25.391,-41.504,-19.531,0.000,0
160114.971,-20.020,-19.531,-39.551,-23.438,0.000,0
160114.974,-15.137,-13.672,-12.207,-25.879,0.000,0
160114.978,-27.344,-14.648,-11.230,-33.203,0.000,0
160114.982,-27.832,-20.508,-24.414,-34.180,0.000,0
160114.986,-24.902,-22.949,-40.039,-19.043,0.000,0
160114.990,-27.344,-21.484,-39.062,-9.277,0.000,0
160114.994,-32.227,-25.391,-15.625,-23.438,0.000,0
160114.998,-32.227,-35.156,-39.062,-20.508,0.000,0
160115.002,-20.020,-35.156,-62.988,-13.184,0.000,0
160115.006,-24.902,-26.855,-37.109,-14.160,0.000,0
160115.010,-26.855,-25.391,-29.785,-20.508,0.000,0
160115.013,-20.996,-23.926,-32.227,-40.527,0.000,0
160115.017,-24.902,-24.414,-34.668,-46.875,0.000,0
160115.021,-26.855,-28.320,-37.109,-31.250,0.000,0
160115.025,-24.414,-25.391,-32.715,-20.020,0.000,0
160115.029,-21.973,-21.973,-38.086,-20.508,0.000,0
160115.033,-11.719,-24.414,-30.762,-36.133,0.000,0
160115.037,-24.902,-30.273,-28.809,-35.156,0.000,0
160115.041,-32.715,-28.809,-29.785,-23.926,0.000,0
160115.045,-10.254,-25.879,-38.574,-20.508,0.000,0
160115.049,-8.301,-27.344,-64.453,-13.184,0.000,0
160115.053,-24.414,-30.273,-30.273,-33.691,0.000,0
160115.056,-23.926,-27.344,-5.859,-32.227,0.000,0
160115.060,-21.484,-26.367,-37.109,-19.531,0.000,0
160115.064,-28.320,-32.715,-48.340,-31.250,0.000,0
160115.068,-31.250,-33.203,-41.992,-30.762,0.000,0
160115.072,-29.297,-29.297,-20.996,-46.875,0.000,0
160115.076,-26.855,-22.949,-20.996,-51.270,0.000,0
160115.080,-23.438,-18.555,-33.203,-31.738,0.000,0
160115.084,-31.250,-19.043,-22.461,-32.227,0.000,0
160115.088,-33.691,-25.879,-35.156,-30.273,0.000,0
160115.092,-25.879,-26.367,-46.387,-33.203,0.000,0
160115.096,-26.367,-24.414,-24.414,-39.551,0.000,0
160115.099,-28.809,-24.902,-37.598,-32.715,0.000,0
160115.103,-25.391,-26.855,-45.898,-27.832,0.000,0
160115.107,-20.996,-26.855,-41.504,-20.020,0.000,0
160115.111,-21.973,-26.855,-18.066,-28.320,0.000,0
160115.115,-24.902,-21.973,-14.160,-39.551,0.000,0
160115.119,-21.484,-17.578,-36.621,-49.316,0.000,0
160115.123,-21.484,-25.879,-35.645,-41.504,0.000,0
160115.127,-27.832,-27.832,-38.086,-24.414,0.000,0
160115.131,-33.691,-25.391,-36.133,-40.527,0.000,0
160115.135,-39.062,-20.020,-50.781,-43.945,0.000,0
160115.138,-34.668,-18.555,-58.105,-20.508,0.000,0
160115.142,-36.621,-24.414,-27.832,-28.320,0.000,0
160115.146,-33.691,-25.391,-30.762,-43.457,0.000,0
160115.150,-23.438,-28.320,-29.297,-50.781,0.000,0
160115.154,-24.414,-23.926,-19.531,-48.828,0.000,0
160115.158,-19.531,-20.508,-26.855,-29.297,0.000,0
160115.162,-23.926,-23.438,-44.922,-4.883,0.000,0
160115.166,-35.645,-25.391,-47.363,-15.625,0.000,0
160115.170,-39.062,-25.879,-17.578,-39.551,0.000,0
160115.174,-42.969,-26.367,-27.832,-34.180,0.000,0
160115.178,-36.133,-29.297,-40.527,-23.926,0.000,0
160115.181,-36.621,-27.832,-47.363,-26.855,0.000,0
160115.185,-33.203,-23.438,-39.551,-38.086,0.000,0
160115.189,-23.926,-24.414,0.000,-40.039,0.000,0
160115.193,-18.555,-25.879,-25.391,-29.785,0.000,0
160115.197,-12.695,-24.902,-44.434,-13.672,0.000,0
160115.201,-15.625,-25.391,-30.273,-7.324,0.000,0
160115.205,-16.602,-28.809,-33.203,-14.648,0.000,0
160115.209,-17.090,-25.879,-23.438,-31.250,0.000,0
160115.213,-25.391,-24.414,-24.902,-33.691,0.000,0
160115.217,-15.625,-24.902,-37.598,-24.414,0.000,0
160115.221,-5.371,-28.320,-32.715,-33.203,0.000,0
160115.224,-22.949,-33.203,-36.133,-19.531,0.000,0
160115.228,-35.156,-35.645,-37.109,-32.227,0.000,0
160115.232,-36.133,-34.668,-25.391,-38.086,0.000,0
160115.236,-27.832,-31.250,-39.062,-18.066,0.000,0
160115.240,-24.414,-31.250,-56.152,-36.621,0.000,0
160115.244,-32.715,-30.762,-48.828,-34.668,0.000,0
160115.248,-34.668,-28.320,-30.273,-36.133,0.000,0
160115.252,-29.785,-28.320,-30.273,-49.316,0.000,0
160115.256,-26.855,-28.320,-31.738,-42.969,0.000,0
160115.260,-27.832,-22.461,-19.043,-25.879,0.000,0
160115.263,-31.738,-23.438,-35.645,-11.230,0.000,0
160115.267,-33.691,-27.344,-39.551,-33.203,0.000,0
160115.271,-41.992,-26.367,-28.809,-44.434,0.000,0
160115.275,-46.875,-24.414,-39.062,-27.344,0.000,0
160115.279,-39.062,-27.344,-34.668,-38.086,0.000,0
160115.283,-22.949,-28.809,-50.781,-34.180,0.000,0
160115.287,-19.043,-30.762,-40.039,-39.551,0.000,0
160115.291,-22.461,-30.273,-19.043,-56.152,0.000,0
160115.295,-17.090,-27.344,-53.223,-36.133,0.000,0
160115.299,-16.602,-27.344,-64.941,-17.090,0.000,0
160115.303,-19.531,-26.855,-51.758,-1.465,0.000,0
160115.306,-27.344,-28.320,-26.367,-14.160,0.000,0
160115.310,-29.297,-27.832,-30.273,-30.762,0.000,0
160115.314,-26.855,-25.879,-53.223,-20.996,0.000,0
160115.318,-31.250,-29.785,-38.574,-20.020,0.000,0
160115.322,-28.809,-26.367,-19.531,-15.625,0.000,0
160115.326,-20.508,-21.484,-25.879,-8.301,0.000,0
160115.330,-15.625,-22.949,-38.086,-23.926,0.000,0
160115.334,-15.137,-22.949,-45.410,-32.227,0.000,0
160115.338,-17.578,-20.996,-40.527,-15.625,0.000,0
160115.342,-17.090,-19.043,-39.062,-18.066,0.000,0
160115.346,-21.973,-21.484,-42.480,-37.598,0.000,0
160115.349,-19.531,-19.531,-32.227,-37.109,0.000,0
160115.353,-14.648,-17.090,-31.738,-23.438,0.000,0
160115.357,-15.625,-22.949,-34.668,-30.762,0.000,0
160115.361,-20.020,-25.391,-37.598,-27.832,0.000,0
160115.365,-25.879,-23.438,-24.414,-29.785,0.000,0
160115.369,-22.949,-21.973,-13.184,-45.898,0.000,0
160115.373,-25.879,-24.902,-38.574,-41.504,0.000,0
160115.377,-23.926,-27.344,-48.828,-15.625,0.000,0
160115.381,-26.855,-25.391,-46.387,-5.371,0.000,0
160115.385,-27.832,-27.344,-34.180,-23.926,0.000,0
160115.388,-20.996,-28.809,-15.137,-28.809,0.000,0
160115.392,-24.414,-25.879,-27.344,-25.391,0.000,0
160115.396,-23.926,-24.902,-37.109,-29.785,0.000,0
160115.400,-24.902,-27.832,-44.434,-10.742,0.000,0
160115.404,-24.902,-29.297,-37.109,-1.953,0.000,0
160115.408,-24.414,-29.297,-24.414,-26.367,0.000,0
160115.412,-22.461,-26.367,-37.109,-27.832,0.000,0
160115.416,-26.367,-26.367,-59.082,-20.508,0.000,0
160115.420,-25.879,-23.926,-61.035,-25.879,0.000,0
160115.424,-18.555,-26.855,-35.156,-26.855,0.000,0
160115.428,-17.090,-33.691,-1.953,-34.180,0.000,0
160115.431,-15.137,-32.227,-35.156,-37.109,0.000,0
160115.435,-15.137,-30.273,-53.711,-37.598,0.000,0
160115.439,-26.367,-28.320,-43.945,-17.090,0.000,0
160115.443,-24.902,-26.855,-38.086,-15.137,0.000,0
160115.447,-14.648,-25.879,-18.555,-41.016,0.000,0
160115.451,-25.879,-23.926,-36.133,-29.785,0.000,0
160115.455,-18.066,-21.973,-54.199,-17.578,0.000,0
160115.459,-14.160,-19.531,-34.668,-20.508,0.000,2
160115.463,-27.344,-27.832,-43.945,-25.879,0.000,0
160115.467,-25.391,-34.668,-50.781,-42.480,0.000,0
160115.471,-20.996,-30.273,-31.250,-36.133,0.000,0
160115.474,-31.250,-29.297,-15.625,-20.508,0.000,0
160115.478,-34.668,-30.762,-46.875,-9.277,0.000,0
160115.482,-29.297,-29.297,-49.316,-16.602,0.000,0
160115.486,-30.762,-29.297,-14.160,-32.715,0.000,0
160115.490,-35.156,-28.809,-34.180,-20.020,0.000,0
160115.494,-34.668,-27.832,-43.457,-22.461,0.000,0
160115.498,-38.574,-30.762,-33.691,-39.062,0.000,0
160115.502,-34.180,-33.691,-45.410,-29.297,0.000,0
160115.506,-26.367,-36.133,-44.434,-19.043,0.000,0
160115.510,-29.785,-37.598,-38.574,-27.344,0.000,0
160115.513,-27.832,-38.574,-46.875,-37.109,0.000,0
160115.517,-20.996,-30.273,-41.504,-21.973,0.000,0
160115.521,-21.973,-29.297,-43.945,-19.043,0.000,0
160115.525,-26.855,-34.668,-39.551,-49.316,0.000,0
160115.529,-31.250,-31.250,-39.062,-50.293,0.000,0
160115.533,-28.809,-27.832,-38.574,-37.109,0.000,0
160115.537,-28.809,-24.902,-30.762,-39.062,0.000,0
160115.541,-24.414,-21.973,-52.734,-27.832,0.000,0
160115.545,-21.484,-24.902,-41.016,-28.320,0.000,0
160115.549,-27.832,-28.809,-28.320,-29.297,0.000,0
160115.553,-37.109,-26.367,-37.109,-27.344,0.000,0
160115.556,-28.809,-23.926,-46.875,-27.344,0.000,0
160115.560,-21.973,-23.926,-51.758,-17.578,0.000,0
160115.564,-29.297,-21.973,-12.207,-22.949,0.000,0
160115.568,-20.508,-20.508,-21.484,-33.691,0.000,0
160115.572,-18.066,-22.461,-35.156,-49.805,0.000,0
160115.576,-33.691,-25.391,-26.367,-54.199,0.000,0
160115.580,-35.645,-26.855,-46.387,-30.762,0.000,0
160115.584,-30.762,-29.785,-42.969,-31.738,0.000,0
160115.588,-30.762,-26.855,-28.320,-40.039,0.000,0
160115.592,-30.762,-24.902,-31.738,-23.438,0.000,0
160115.596,-28.809,-30.273,-44.922,-16.113,0.000,0
160115.599,-33.203,-33.691,-53.711,-29.785,0.000,0
160115.603,-33.691,-36.133,-34.668,-46.875,0.000,0
160115.607,-38.574,-34.180,-22.461,-44.922,0.000,0
160115.611,-40.039,-33.203,-39.062,-48.828,0.000,0
160115.615,-25.879,-34.180,-50.781,-48.340,0.000,0
160115.619,-28.809,-26.367,-45.410,-20.508,0.000,0
160115.623,-30.762,-25.391,-28.320,-31.738,0.000,0
160115.627,-25.879,-29.785,-28.320,-37.109,0.000,0
160115.631,-20.508,-24.902,-55.664,-2.930,0.000,0
160115.635,-20.996,-22.949,-59.570,-6.836,0.000,0
160115.638,-34.668,-25.391,-39.062,-31.738,0.000,0
160115.642,-34.668,-26.855,-31.250,-40.527,0.000,0
160115.646,-29.785,-23.438,-33.691,-46.875,0.000,0
160115.650,-29.297,-20.020,-27.832,-38.086,0.000,0
160115.654,-30.762,-23.926,-18.555,-10.254,0.000,0
160115.658,-22.949,-24.414,-35.645,-6.348,0.000,0
160115.662,-21.484,-26.367,-40.039,-27.344,0.000,0
160115.666,-35.156,-30.273,-36.621,-34.180,0.000,0
160115.670,-38.086,-37.109,-47.363,-29.297,0.000,0
160115.674,-31.738,-41.016,-51.270,-33.691,0.000,0
160115.678,-29.297,-37.598,-50.293,-32.715,0.000,0
160115.681,-28.809,-38.086,-41.992,-36.133,0.000,0
160115.685,-37.598,-31.738,-31.250,-56.152,0.000,0
160115.689,-31.250,-24.414,-43.945,-43.945,0.000,0
160115.693,-27.344,-26.367,-45.898,-25.879,0.000,0
160115.697,-30.273,-20.996,-42.969,-19.531,0.000,0
160115.701,-26.367,-19.531,-41.504,-18.555,0.000,0
160115.705,-22.949,-24.902,-21.484,-45.410,0.000,0
160115.709,-26.367,-26.367,-38.574,-45.898,0.000,0
160115.713,-28.809,-28.809,-48.340,-41.016,0.000,0
160115.717,-23.926,-26.367,-42.969,-22.461,0.000,0
160115.721,-18.555,-23.926,-37.109,-20.996,0.000,0
160115.724,-20.996,-20.020,-19.531,-36.133,0.000,0
160115.728,-25.391,-20.020,-24.414,-33.691,0.000,0
160115.732,-21.484,-23.926,-26.367,-42.480,0.000,0
160115.736,-17.090,-17.578,-48.828,-12.207,0.000,0
160115.740,-22.461,-18.555,-26.855,-16.113,0.000,0
160115.744,-36.621,-26.855,-21.484,-39.551,0.000,0
160115.748,-33.203,-30.273,-54.688,-31.738,0.000,0
160115.752,-25.879,-27.832,-57.129,-25.391,0.000,0
160115.756,-35.156,-26.855,-44.922,-18.066,0.000,0
160115.760,-40.527,-29.785,-29.297,-34.668,0.000,0
160115.763,-37.109,-27.344,-38.574,-33.691,0.000,0
160115.767,-31.738,-23.926,-44.434,-13.672,0.000,0
160115.771,-36.621,-31.250,-34.668,-14.160,0.000,0
160115.775,-40.039,-33.691,-41.992,-17.578,0.000,0
160115.779,-40.039,-33.203,-28.809,-49.316,0.000,0
160115.783,-35.645,-28.809,-19.043,-60.059,0.000,0
160115.787,-30.762,-29.297,-23.926,-35.645,0.000,0
160115.791,-37.109,-33.203,-40.527,-33.203,0.000,0
160115.795,-31.738,-30.762,-68.848,-27.832,0.000,0
160115.799,-24.414,-26.855,-25.879,-32.227,0.000,0
160115.803,-32.715,-25.391,1.953,-39.551,0.000,0
160115.806,-25.879,-26.855,-31.250,-27.344,0.000,0
160115.810,-18.066,-27.832,-48.828,-18.066,0.000,0
160115.814,-27.344,-32.715,-46.387,-19.043,0.000,0
160115.818,-27.344,-35.156,-15.625,-33.691,0.000,0
160115.822,-16.113,-29.785,-12.207,-41.992,0.000,0
160115.826,-12.695,-28.809,-30.273,-32.715,0.000,0
160115.830,-10.254,-30.273,-28.809,-16.113,0.000,0
160115.834,-21.484,-26.855,-33.691,-8.301,0.000,0
160115.838,-25.879,-29.785,-33.691,-20.996,0.000,0
160115.842,-17.090,-31.738,-36.133,-25.879,0.000,0
160115.846,-24.902,-28.320,-29.297,-10.742,0.000,0
160115.849,-26.855,-27.344,-22.461,-5.371,0.000,0
160115.853,-16.602,-28.809,-40.527,-2.441,0.000,0
160115.857,-18.555,-29.297,-32.715,-20.020,0.000,0
160115.861,-24.414,-27.344,-22.949,-45.898,0.000,0
160115.865,-21.484,-24.902,-48.828,-34.668,0.000,0
160115.869,-27.344,-29.785,-65.918,-20.020,0.000,0
160115.873,-37.598,-32.227,-49.316,-17.578,0.000,0
160115.877,-35.645,-30.762,-31.250,-15.625,0.000,0
160115.881,-37.598,-25.879,-27.832,-31.250,0.000,0
160115.885,-38.086,-25.391,-35.156,-37.598,0.000,0
160115.888,-33.203,-26.855,-32.715,-30.762,0.000,0
160115.892,-28.809,-23.438,-25.879,-9.277,0.000,0
160115.896,-24.414,-26.855,-48.340,-17.578,0.000,0
160115.900,-21.484,-23.438,-37.109,-32.715,0.000,0
160115.904,-25.879,-18.066,-31.250,-20.508,0.000,0
160115.908,-23.926,-20.996,-37.109,-20.996,0.000,0
160115.912,-22.949,-21.484,-59.570,-20.020,0.000,0
160115.916,-32.715,-27.832,-64.941,-22.949,0.000,0
160115.920,-36.133,-31.738,-31.738,-33.691,0.000,0
160115.924,-27.832,-29.297,-26.855,-31.738,0.000,0
160115.928,-22.461,-28.809,-28.320,-26.855,0.000,0
160115.931,-24.902,-25.879,-48.828,-23.926,0.000,0
160115.935,-20.508,-20.508,-36.133,-6.836,0.000,0
160115.939,-16.602,-22.949,-14.648,-14.160,0.000,0
160115.943,-16.113,-25.391,-43.945,-30.762,0.000,0
160115.947,-13.184,-20.020,-44.922,-23.438,0.000,0
160115.951,-12.695,-18.066,-32.227,-20.508,0.000,0
160115.955,-16.602,-20.996,-29.297,-30.273,0.000,0
160115.959,-20.020,-22.461,-27.344,-34.668,0.000,0
160115.963,-19.531,-20.020,-33.203,-35.645,0.000,0
160115.967,-21.484,-16.602,-27.832,-27.832,0.000,0
160115.971,-15.137,-15.625,-26.855,-7.324,0.000,0
160115.974,-10.254,-16.602,-31.738,-8.301,0.000,0
160115.978,-26.367,-17.090,-24.414,-30.273,0.000,0
160115.982,-29.297,-14.160,-25.879,-21.484,0.000,0
160115.986,-9.766,-11.719,-39.551,-2.930,0.000,0
160115.990,-5.371,-17.578,-38.574,-8.789,0.000,0
160115.994,-21.973,-25.391,-35.645,-17.090,0.000,0
160115.998,-25.391,-28.320,-36.133,-33.203,0.000,0
160116.002,-14.648,-22.461,-30.762,-34.180,0.000,1
160116.006,-18.066,-20.020,-31.250,-20.996,0.000,0
160116.010,-24.414,-22.461,-30.762,-16.113,0.000,0
160116.013,-20.996,-15.137,-46.875,-11.719,0.000,0
160116.017,-22.949,-20.020,-47.363,-6.836,0.000,0
160116.021,-21.973,-25.391,-27.344,-14.160,0.000,0
160116.025,-21.484,-25.391,-23.926,-13.672,0.000,0
160116.029,-26.855,-26.367,-28.320,-20.020,0.000,0
160116.033,-21.973,-30.762,-46.875,-36.133,0.000,0
160116.037,-19.531,-26.855,-22.461,-37.598,0.000,0
160116.041,-19.531,-21.973,-13.672,-40.039,0.000,0
160116.045,-24.902,-25.391,-49.805,-31.738,0.000,0
160116.049,-32.715,-28.320,-62.500,-22.461,0.000,0
160116.053,-37.109,-34.668,-49.316,-21.973,0.000,0
160116.056,-40.039,-36.133,-22.461,-37.109,0.000,0
160116.060,-31.250,-31.738,-33.203,-46.387,0.000,0
160116.064,-31.250,-31.250,-50.293,-47.363,0.000,0
160116.068,-37.598,-32.227,-38.574,-41.016,0.000,0
160116.072,-41.504,-32.715,-42.969,-20.020,0.000,0
160116.076,-21.484,-30.273,-35.156,-31.738,0.000,0
160116.080,-2.441,-21.973,-29.785,-52.246,0.000,0
160116.084,-18.066,-21.484,-32.227,-32.227,0.000,0
160116.088,-27.344,-26.855,-26.855,-13.672,0.000,0
160116.092,-25.391,-28.809,-40.527,-23.926,0.000,0
160116.096,-31.250,-33.203,-24.414,-48.340,0.000,0
160116.099,-33.203,-32.715,-15.137,-53.223,0.000,0
160116.103,-20.996,-28.320,-37.109,-41.992,0.000,0
160116.107,-14.648,-25.879,-44.922,-34.668,0.000,0
160116.111,-18.555,-26.367,-45.410,-39.062,0.000,0
160116.115,-26.367,-25.879,-34.668,-50.293,0.000,0
160116.119,-34.180,-25.391,-30.273,-40.527,0.000,0
160116.123,-30.762,-24.902,-48.828,-33.203,0.000,0
160116.127,-24.414,-19.043,-61.035,-33.691,0.000,0
160116.131,-35.645,-18.555,-36.133,-31.250,0.000,0
160116.135,-44.922,-20.508,-16.113,-47.852,0.000,0
160116.138,-31.250,-18.066,-28.809,-45.898,0.000,0
160116.142,-24.902,-16.113,-42.969,-26.855,0.000,0
160116.146,-27.344,-15.625,-38.574,-26.367,0.000,0
160116.150,-21.973,-13.672,-49.316,-20.020,0.000,0
160116.154,-24.414,-17.090,-32.715,-32.227,0.000,0
160116.158,-31.738,-16.602,-16.602,-41.016,0.000,0
160116.162,-25.391,-12.695,-41.504,-8.301,0.000,0
160116.166,-20.508,-19.043,-49.316,-14.160,0.000,0
160116.170,-26.855,-24.902,-59.082,-25.879,0.000,0
160116.174,-35.156,-28.809,-38.574,-32.227,0.000,0
160116.178,-30.762,-26.855,-21.484,-46.387,0.000,0
160116.181,-22.949,-22.949,-50.293,-31.738,0.000,0
160116.185,-23.926,-26.855,-55.176,-14.648,0.000,0
160116.189,-20.996,-27.832,-42.480,-10.254,0.000,0
160116.193,-31.738,-25.391,-29.785,-30.273,0.000,0
160116.197,-37.598,-23.926,-39.062,-35.645,0.000,0
160116.201,-27.344,-23.926,-44.434,-15.137,0.000,0
160116.205,-27.832,-20.508,-28.809,-23.438,0.000,0
160116.209,-40.527,-22.461,-31.738,-28.809,0.000,0
160116.213,-32.227,-29.297,-38.086,-43.457,0.000,0
160116.217,-25.391,-28.320,-30.273,-53.223,0.000,0
160116.221,-31.738,-23.438,-22.949,-26.855,0.000,0
160116.224,-24.902,-19.043,-39.062,-20.508,0.000,0
160116.228,-28.320,-23.438,-50.293,-25.879,0.000,0
160116.232,-29.297,-24.414,-20.020,-32.715,0.000,0
160116.236,-22.461,-19.043,-20.020,-35.156,0.000,0
160116.240,-21.973,-22.461,-41.504,-34.668,0.000,0
160116.244,-21.973,-24.902,-34.668,-29.785,0.000,0
160116.248,-20.508,-25.391,-30.762,-7.324,0.000,0
160116.252,-18.066,-28.809,-20.996,-22.461,0.000,0
160116.256,-15.625,-25.391,-18.066,-42.969,0.000,0
160116.260,-22.461,-22.461,-38.086,-27.832,0.000,0
160116.263,-26.855,-24.902,-31.738,-23.926,0.000,0
160116.267,-23.926,-22.949,-31.738,-16.602,0.000,0
160116.271,-31.738,-24.902,-33.691,-23.926,0.000,0
160116.275,-35.645,-26.367,-24.414,-48.340,0.000,0
160116.279,-26.855,-24.902,-31.250,-43.457,0.000,0
160116.283,-22.949,-30.273,-30.762,-27.344,0.000,0
160116.287,-22.949,-33.203,-39.062,-14.160,0.000,0
160116.291,-19.043,-26.855,-32.715,-16.602,0.000,0
160116.295,-17.578,-25.879,-28.809,-33.691,0.000,0
160116.299,-20.508,-26.855,-39.062,-18.555,0.000,0
160116.303,-26.367,-25.879,-34.668,-14.648,0.000,0
160116.306,-33.691,-26.855,-30.762,-23.926,0.000,0
160116.310,-34.668,-30.762,-23.438,-25.391,0.000,0
160116.314,-22.949,-32.715,-19.043,-39.551,0.000,0
160116.318,-17.090,-24.902,-40.039,-22.949,0.000,0
160116.322,-19.043,-20.996,-43.945,-9.277,0.000,0
160116.326,-25.879,-23.438,-37.598,-15.137,0.000,0
160116.330,-30.762,-25.879,-39.062,-23.926,0.000,0
160116.334,-29.297,-22.461,-27.832,-22.949,0.000,0
160116.338,-29.785,-21.484,-35.156,-7.324,0.000,0
160116.342,-29.785,-26.367,-41.992,-17.090,0.000,0
160116.346,-22.461,-25.391,-41.992,-26.855,0.000,0
160116.349,-25.391,-27.344,-36.133,-21.973,0.000,0
160116.353,-32.715,-30.273,-8.789,-43.945,0.000,0
160116.357,-27.832,-29.297,-23.438,-41.992,0.000,0
160116.361,-22.949,-25.879,-51.270,-17.578,0.000,0
160116.365,-19.531,-24.414,-36.133,-4.395,0.000,0
160116.369,-15.625,-22.461,-13.672,-16.113,0.000,0
160116.373,-22.949,-20.020,-11.719,-44.434,0.000,0
160116.377,-20.996,-20.996,-30.762,-45.410,0.000,0
160116.381,-19.043,-21.484,-24.414,-36.621,0.000,0
160116.385,-12.207,-21.484,-24.414,-14.160,0.000,0
160116.388,-1.953,-23.438,-32.715,0.488,0.000,0
160116.392,-9.766,-23.926,-17.090,-31.738,0.000,0
160116.396,-20.996,-21.484,-20.996,-39.062,0.000,0
160116.400,-19.043,-25.879,-27.344,-15.625,0.000,0
160116.404,-13.672,-25.391,-43.457,-16.602,0.000,0
160116.408,-16.113,-20.996,-41.016,-25.391,0.000,0
160116.412,-19.043,-21.484,-19.531,-40.039,0.000,0
160116.416,-13.184,-21.973,-2.930,-45.410,0.000,0
160116.420,-16.113,-25.879,-28.320,-26.855,0.000,0
160116.424,-25.391,-26.855,-63.477,-15.625,0.000,0
160116.428,-26.367,-24.902,-42.480,-28.809,0.000,0
160116.431,-23.438,-27.344,-12.695,-38.574,0.000,0
160116.435,-19.531,-26.855,-26.367,-26.855,0.000,0
160116.439,-14.648,-26.855,-37.109,-16.602,0.000,0
160116.443,-22.461,-30.762,-35.645,-15.625,0.000,0
