timestamps,TP9,AF7,AF8,TP10,Right AUX,Marker0
160236.283,-21.973,-34.180,-31.738,-12.695,0.000,0
160236.287,-24.902,-34.180,-42.969,-23.438,0.000,0
160236.291,-29.297,-29.297,-28.320,-24.414,0.000,0
160236.295,-28.809,-26.367,-15.137,-34.668,0.000,0
160236.299,-21.484,-26.855,-34.668,-41.504,0.000,0
160236.303,-22.949,-25.391,-42.480,-27.832,0.000,0
160236.306,-20.996,-25.879,-50.781,-20.020,0.000,0
160236.310,-20.020,-29.297,-26.367,-31.250,0.000,0
160236.314,-14.160,-28.809,-26.367,-28.809,0.000,0
160236.318,-15.137,-26.367,-49.316,-20.508,0.000,0
160236.322,-28.320,-29.297,-42.969,-26.367,0.000,0
160236.326,-27.344,-25.391,-32.227,-19.531,0.000,0
160236.330,-14.160,-22.461,-17.090,-24.414,0.000,0
160236.334,-14.160,-21.973,-22.949,-21.973,0.000,0
160236.338,-19.043,-24.414,-47.852,-27.344,0.000,0
160236.342,-28.809,-30.762,-40.527,-24.414,0.000,0
160236.346,-21.973,-31.738,-30.762,-11.719,0.000,0
160236.349,-20.020,-28.320,-25.879,-19.531,0.000,0
160236.353,-35.645,-29.297,-20.996,-38.574,0.000,0
160236.357,-34.180,-27.832,-24.902,-39.062,0.000,0
160236.361,-31.738,-31.250,-43.457,-27.344,0.000,0
160236.365,-33.691,-31.738,-47.363,-22.949,0.000,0
160236.369,-29.297,-30.273,-30.762,-27.832,0.000,0
160236.373,-27.344,-25.879,-23.438,-43.457,0.000,0
160236.377,-15.625,-22.949,-33.691,-27.832,0.000,0
160236.381,-19.043,-30.273,-36.621,-17.090,0.000,0
160236.385,-30.762,-30.762,-38.086,-31.250,0.000,0
160236.388,-25.391,-25.879,-33.203,-30.762,0.000,0
160236.392,-25.879,-33.691,-29.297,-39.062,0.000,0
160236.396,-27.832,-33.691,-23.438,-38.574,0.000,0
160236.400,-21.973,-25.879,-14.648,-20.020,0.000,0
160236.404,-27.344,-31.738,-44.922,-23.438,0.000,0
160236.408,-21.973,-29.785,-57.617,-31.250,0.000,0
160236.412,-19.043,-25.879,-26.855,-30.273,0.000,0
160236.416,-23.438,-27.832,-29.785,-25.391,0.000,0
160236.420,-25.879,-27.832,-38.086,-25.879,0.000,0
160236.424,-28.809,-28.809,-37.109,-41.992,0.000,0
160236.428,-0.977,-22.461,-20.508,-20.996,0.000,0
160236.431,20.508,-20.020,0.977,-22.949,0.000,0
160236.435,-11.230,-24.414,-30.762,-47.363,0.000,0
160236.439,-41.016,-18.555,-50.293,-43.457,0.000,0
160236.443,-32.715,-10.742,-29.785,-10.742,0.000,0
160236.447,-24.414,-16.113,-9.766,-5.371,0.000,0
160236.451,-26.855,-20.020,-14.160,-28.809,0.000,0
160236.455,-31.250,-17.090,-30.762,-25.879,0.000,0
160236.459,-29.297,-14.648,-20.508,-18.555,0.000,0
160236.463,-19.531,-9.766,-9.766,-4.883,0.000,0
160236.467,-16.113,-12.207,-6.348,-7.324,0.000,0
160236.471,-18.066,-20.020,-0.488,-33.691,0.000,0
160236.474,-20.996,-22.949,-5.859,-34.668,0.000,0
160236.478,-18.066,-13.672,-5.859,-16.113,0.000,0
160236.482,-15.625,-9.766,-14.648,9.766,0.000,0
160236.486,-18.555,-12.695,-12.207,4.883,0.000,0
160236.490,-31.738,-18.555,-3.418,-24.902,0.000,0
160236.494,-26.367,-18.066,-21.484,-15.625,0.000,0
160236.498,-17.578,-14.648,-34.668,-2.441,0.000,0
160236.502,-21.973,-16.602,-30.273,-5.371,0.000,0
160236.506,-28.320,-15.137,-8.301,-19.043,0.000,0
160236.510,-28.320,-14.160,-6.348,-29.297,0.000,0
160236.513,-28.809,-17.578,-23.438,-23.926,0.000,0
160236.517,-28.809,-23.926,-27.344,-12.695,0.000,0
160236.521,-28.320,-18.555,-30.762,-11.230,0.000,0
160236.525,-23.926,-17.090,-33.691,-11.230,0.000,0
160236.529,-16.602,-20.020,-14.160,-21.973,0.000,0
160236.533,-23.926,-22.949,-20.508,-20.996,0.000,0
160236.537,-25.391,-20.996,-26.855,-11.230,0.000,0
160236.541,-29.785,-22.461,-19.043,-19.043,0.000,0
160236.545,-22.461,-28.809,-45.898,-13.672,0.000,0
160236.549,-19.531,-25.391,-16.602,-20.996,0.000,0
160236.553,-32.227,-21.973,-4.395,-18.066,0.000,0
160236.556,-17.090,-21.973,-34.668,-14.648,0.000,0
160236.560,-6.836,-21.484,-28.320,-12.207,0.000,0
160236.564,-27.344,-25.391,-22.949,-18.066,0.000,0
160236.568,-22.949,-20.996,-12.695,-32.227,0.000,0
160236.572,-14.160,-17.090,-24.414,-32.227,0.000,0
160236.576,-19.043,-16.602,-26.367,-26.855,0.000,0
160236.580,-14.648,-19.531,-17.090,-4.883,0.000,0
160236.584,-13.184,-17.578,-24.902,3.906,0.000,0
160236.588,-8.789,-15.625,-26.855,-17.578,0.000,0
160236.592,-11.230,-10.254,-20.508,-11.230,0.000,0
160236.596,-20.508,-9.766,-15.625,5.859,0.000,0
160236.599,-10.254,-12.695,-22.949,-1.465,0.000,0
160236.603,-10.742,-16.113,-35.156,-17.090,0.000,0
160236.607,-18.555,-20.996,-26.855,-37.109,0.000,0
160236.611,-23.438,-18.066,-18.555,-45.898,0.000,0
160236.615,-33.203,-20.508,-27.344,-38.086,0.000,0
160236.619,-28.809,-24.414,-45.898,-36.133,0.000,0
160236.623,-29.785,-25.391,-46.387,-36.133,0.000,0
160236.627,-35.645,-27.832,-22.461,-36.133,0.000,0
160236.631,-37.109,-24.902,-20.508,-26.367,0.000,0
160236.635,-22.949,-18.066,-34.668,-11.719,0.000,0
160236.638,-13.672,-16.113,-27.832,-18.555,0.000,0
160236.642,-13.672,-16.602,2.930,-24.902,0.000,0
160236.646,-8.789,-18.555,-21.484,-16.113,0.000,0
160236.650,-16.602,-16.602,-27.344,-13.184,0.000,0
160236.654,-26.855,-17.578,-19.531,-10.742,0.000,0
160236.658,-35.645,-19.531,-28.809,-12.207,0.000,0
160236.662,-30.762,-18.066,-31.250,-19.531,0.000,0
160236.666,-32.715,-21.973,-30.762,-33.203,0.000,0
160236.670,-31.250,-28.320,-25.391,-40.039,0.000,0
160236.674,-31.250,-23.438,-31.250,-29.297,0.000,0
160236.678,-36.621,-16.602,-26.855,-36.621,0.000,0
160236.681,-30.762,-19.043,-32.227,-34.180,0.000,0
160236.685,-27.832,-17.090,-27.344,-17.578,0.000,0
160236.689,-21.973,-20.020,-33.691,-20.020,0.000,0
160236.693,-26.367,-27.344,-49.805,-27.832,0.000,0
160236.697,-28.809,-24.414,-42.480,-18.555,0.000,0
160236.701,-28.320,-22.949,-34.668,-16.113,0.000,0
160236.705,-32.715,-24.902,-34.180,-22.461,0.000,0
160236.709,-30.762,-20.020,-25.879,-31.738,0.000,0
160236.713,-30.762,-22.949,-27.832,-38.086,0.000,0
160236.717,-35.645,-26.855,-37.598,-36.133,0.000,0
160236.721,-34.668,-22.949,-44.922,-22.949,0.000,0
160236.724,-33.691,-22.461,-36.621,-30.273,0.000,0
160236.728,-27.832,-20.508,-20.020,-37.598,0.000,0
160236.732,-27.832,-20.020,-20.508,-15.137,0.000,0
160236.736,-24.902,-22.461,-45.410,-16.602,0.000,0
160236.740,-24.902,-28.320,-52.734,-31.738,0.000,0
160236.744,-27.832,-28.320,-33.203,-45.410,0.000,0
160236.748,3.906,-17.090,-36.621,-14.648,0.000,0
160236.752,2.441,-16.602,-52.246,-2.441,0.000,0
160236.756,-42.480,-22.461,-40.527,-29.297,0.000,0
160236.760,-48.340,-20.996,-26.855,-20.996,0.000,0
160236.763,-37.109,-22.949,-17.090,-28.809,0.000,0
160236.767,-27.344,-26.855,-25.879,-21.484,0.000,0
160236.771,-23.926,-23.926,-34.180,-6.348,0.000,0
160236.775,-37.598,-22.461,-23.438,-15.625,0.000,0
160236.779,-33.691,-27.832,-28.809,-25.879,0.000,0
160236.783,-16.113,-29.785,-20.508,-30.762,0.000,0
160236.787,-15.137,-26.855,-14.648,-41.016,0.000,0
160236.791,-10.742,-29.785,-21.484,-34.180,0.000,0
160236.795,-0.488,-24.902,-24.414,-11.719,0.000,0
160236.799,-16.602,-22.949,-31.250,-10.254,0.000,0
160236.803,-27.832,-29.297,-15.137,-27.832,0.000,0
160236.806,-21.484,-24.414,-12.695,-30.273,0.000,0
160236.810,-14.160,-22.949,-28.809,-15.625,0.000,0
160236.814,-14.160,-24.414,-20.996,-16.113,0.000,0
160236.818,-26.367,-20.508,-19.043,-20.996,0.000,0
160236.822,-36.621,-24.414,-22.461,-35.156,0.000,0
160236.826,-36.621,-23.438,-14.160,-38.574,0.000,0
160236.830,-30.273,-19.043,-16.602,-16.602,0.000,0
160236.834,-20.020,-23.438,-23.438,4.395,0.000,0
160236.838,-17.090,-24.414,-37.598,-15.137,0.000,0
160236.842,-20.508,-23.926,-25.879,-40.527,0.000,0
160236.846,-18.555,-22.461,-9.766,-41.992,0.000,0
160236.849,-29.785,-17.090,-29.785,-34.180,0.000,0
160236.853,-34.180,-21.973,-41.504,-30.273,0.000,0
160236.857,-29.297,-26.367,-47.852,-15.137,0.000,0
160236.861,-36.621,-26.855,-27.832,-25.879,0.000,0
160236.865,-38.574,-26.367,-16.602,-41.992,0.000,0
160236.869,-23.926,-23.926,-41.504,-29.785,0.000,0
160236.873,-24.902,-23.926,-56.641,-27.344,0.000,0
160236.877,-32.715,-25.879,-41.016,-30.273,0.000,0
160236.881,-26.367,-28.320,-15.137,-28.809,0.000,0
160236.885,-26.367,-28.320,-25.391,-26.367,0.000,0
160236.888,-22.461,-21.973,-41.504,-28.320,0.000,0
160236.892,-19.531,-27.832,-33.691,-33.203,0.000,0
160236.896,-20.508,-29.297,-31.738,-22.461,0.000,0
160236.900,-19.043,-26.855,-35.156,-26.367,0.000,0
160236.904,-29.785,-31.250,-27.344,-31.738,0.000,0
160236.908,-31.250,-27.344,-31.738,-22.461,0.000,0
160236.912,-28.809,-25.879,-27.832,-17.090,0.000,0
160236.916,-22.461,-22.949,-35.645,-19.043,0.000,0
160236.920,-16.113,-22.461,-41.992,-10.742,0.000,0
160236.924,-26.855,-21.973,-10.742,-24.902,0.000,0
160236.928,-25.391,-16.113,-15.625,-34.180,0.000,0
160236.931,-12.695,-20.508,-30.762,-16.602,0.000,0
160236.935,-23.438,-25.391,-29.785,-8.789,0.000,0
160236.939,-35.645,-27.344,-30.762,-29.297,0.000,0
160236.943,-32.227,-24.414,-26.367,-38.086,0.000,0
160236.947,-31.738,-23.438,-30.273,-21.973,0.000,0
160236.951,-31.738,-25.391,-37.109,-25.879,0.000,0
160236.955,-35.156,-21.973,-40.527,-27.832,0.000,0
160236.959,-37.109,-23.438,-30.273,-20.508,0.000,0
160236.963,-33.203,-22.949,-32.715,-37.109,0.000,0
160236.967,-26.367,-25.391,-31.738,-38.574,0.000,0
160236.971,-34.180,-26.367,-25.879,-18.555,0.000,0
160236.974,-31.738,-20.996,-42.969,-20.508,0.000,0
160236.978,-25.879,-22.461,-31.738,-24.414,0.000,0
160236.982,-30.273,-22.949,-18.066,-23.438,0.000,0
160236.986,-24.414,-16.113,-33.691,-12.207,0.000,0
160236.990,-20.996,-13.672,-33.691,-13.184,0.000,0
160236.994,-20.996,-17.090,-22.949,-20.020,0.000,0
160236.998,-25.879,-21.973,-21.484,-23.438,0.000,0
160237.002,-28.320,-18.555,-18.555,-28.320,0.000,0
160237.006,-26.855,-13.184,-23.926,-30.762,0.000,0
160237.010,-35.156,-18.555,-33.203,-32.227,0.000,0
160237.013,-35.156,-23.926,-28.320,-30.762,0.000,0
160237.017,-28.320,-17.578,-29.297,-25.879,0.000,0
160237.021,-24.414,-18.066,-36.621,-41.016,0.000,0
160237.025,-21.973,-19.531,-27.832,-47.363,0.000,0
160237.029,-25.391,-15.625,-23.926,-31.250,0.000,0
160237.033,-24.902,-13.184,-33.203,-16.602,0.000,0
160237.037,-24.414,-15.137,-45.898,-17.090,0.000,0
160237.041,-23.926,-19.531,-34.668,-47.363,0.000,0
160237.045,-25.391,-20.020,-21.484,-38.086,0.000,0
160237.049,-19.043,-22.949,-23.438,-15.137,0.000,0
160237.053,-15.137,-20.020,-28.809,-20.508,0.000,0
160237.056,-28.320,-21.484,-36.621,-23.438,0.000,0
160237.060,-33.691,-26.367,-21.484,-36.621,0.000,0
160237.064,-27.832,-24.414,-36.133,-41.504,0.000,0
160237.068,-30.273,-24.414,-53.711,-41.504,0.000,0
160237.072,-38.574,-30.273,-41.504,-31.250,0.000,0
160237.076,-32.715,-27.832,-31.250,-19.531,0.000,0
160237.080,-18.066,-25.879,-22.949,-36.621,0.000,0
160237.084,-19.531,-29.297,-30.762,-30.273,0.000,0
160237.088,-26.367,-30.762,-38.574,-6.348,0.000,0
160237.092,-28.809,-25.391,-29.297,-18.066,0.000,0
160237.096,-33.691,-21.484,-28.809,-27.832,0.000,0
160237.099,-36.133,-22.949,-20.508,-36.133,0.000,0
160237.103,-32.715,-20.996,-14.160,-34.180,0.000,0
160237.107,-31.250,-19.043,-17.578,-20.996,0.000,0
160237.111,-35.645,-25.879,-34.668,-35.156,0.000,0
160237.115,-41.504,-29.785,-39.062,-33.691,0.000,0
160237.119,-39.062,-25.879,-20.020,-39.062,0.000,0
160237.123,-27.344,-22.949,-15.137,-40.527,0.000,0
160237.127,-20.996,-24.414,-33.203,-37.598,0.000,0
160237.131,-31.250,-26.367,-36.133,-35.645,0.000,0
160237.135,-36.621,-26.367,-25.879,-27.344,0.000,0
160237.138,-27.344,-26.367,-22.461,-44.922,0.000,0
160237.142,-23.438,-27.832,-22.949,-56.152,0.000,0
160237.146,-34.180,-26.855,-28.320,-34.180,0.000,0
160237.150,-40.039,-28.320,-21.484,-42.480,0.000,0
160237.154,-26.855,-29.297,-32.715,-38.086,0.000,0
160237.158,-32.227,-36.621,-46.387,-30.762,0.000,0
160237.162,-34.668,-37.109,-31.738,-47.852,0.000,0
160237.166,-29.297,-23.926,-30.762,-34.180,0.000,0
160237.170,-31.250,-26.367,-40.039,-23.926,0.000,0
160237.174,-34.668,-28.809,-41.504,-38.086,0.000,0
160237.178,-33.691,-29.297,-25.879,-48.340,0.000,0
160237.181,-24.414,-27.344,-17.578,-32.227,0.000,0
160237.185,-22.461,-27.344,-37.598,-36.133,0.000,0
160237.189,-20.020,-32.227,-47.363,-37.109,0.000,0
160237.193,-20.020,-23.926,-26.367,-22.461,0.000,0
160237.197,-19.043,-28.320,-21.484,-34.668,0.000,0
160237.201,-23.438,-32.715,-35.645,-53.711,0.000,0
160237.205,-18.066,-26.855,-38.086,-37.598,0.000,0
160237.209,-21.973,-30.762,-20.996,-17.578,0.000,0
160237.213,-23.438,-29.297,-27.832,-7.812,0.000,0
160237.217,-8.789,-26.855,-35.156,-22.461,0.000,0
160237.221,-34.180,-25.391,-30.762,-50.293,0.000,0
160237.224,-52.246,-22.461,-37.109,-43.945,0.000,0
160237.228,-33.203,-26.855,-40.527,-30.273,0.000,0
160237.232,-24.902,-30.273,-41.016,-29.297,0.000,0
160237.236,-36.133,-24.902,-31.250,-19.531,0.000,0
160237.240,-36.133,-22.461,-22.461,-34.180,0.000,0
160237.244,-24.902,-21.484,-24.414,-52.734,0.000,0
160237.248,-23.926,-19.531,-29.297,-34.180,0.000,0
160237.252,-25.391,-22.461,-27.832,-11.719,0.000,0
160237.256,-22.461,-23.438,-15.137,-20.020,0.000,0
160237.260,-23.438,-27.344,-27.344,-39.062,0.000,0
160237.263,-22.949,-32.715,-38.574,-14.160,0.000,0
160237.267,-13.184,-23.438,-30.273,-2.441,0.000,0
160237.271,-1.953,-17.090,-31.250,-10.742,0.000,0
160237.275,-19.531,-21.484,-22.461,-20.020,0.000,0
160237.279,-31.250,-23.926,-15.137,-47.363,0.000,0
160237.283,-23.438,-21.973,-21.973,-39.551,0.000,0
160237.287,-31.250,-23.926,-30.273,-32.715,0.000,0
160237.291,-34.668,-25.391,-51.270,-31.250,0.000,0
160237.295,-24.902,-29.785,-46.875,-27.832,0.000,0
160237.299,-29.297,-29.785,-14.160,-26.367,0.000,0
160237.303,-31.250,-25.391,-27.344,-17.090,0.000,0
160237.306,-18.066,-30.273,-46.387,-30.273,0.000,0
160237.310,-23.926,-30.762,-33.691,-26.855,0.000,0
160237.314,-35.156,-24.414,-25.391,-23.438,0.000,0
160237.318,-26.855,-22.949,-26.855,-46.875,0.000,0
160237.322,-33.691,-29.785,-36.133,-53.711,0.000,0
160237.326,-33.691,-26.367,-28.809,-32.227,0.000,0
160237.330,-23.438,-28.320,-26.855,-24.902,0.000,0
160237.334,-33.691,-26.855,-27.832,-29.297,0.000,0
160237.338,-41.992,-20.508,-29.297,-36.621,0.000,0
160237.342,-32.715,-21.973,-18.555,-39.551,0.000,0
160237.346,-34.180,-21.973,-0.488,-33.203,0.000,0
160237.349,-26.367,-20.020,-17.090,-21.484,0.000,0
160237.353,-10.742,-18.555,-27.344,-16.113,0.000,0
160237.357,-18.555,-23.926,-12.695,-34.668,0.000,0
160237.361,-29.297,-21.973,-13.184,-27.344,0.000,0
160237.365,-31.250,-20.508,-35.645,-13.184,0.000,0
160237.369,-37.109,-27.344,-49.316,-16.113,0.000,0
160237.373,-41.504,-31.250,-38.086,-21.484,0.000,0
160237.377,-35.645,-27.832,-20.020,-27.344,0.000,0
160237.381,-34.180,-21.973,-20.020,-33.203,0.000,0
160237.385,-31.250,-29.785,-35.645,-37.598,0.000,0
160237.388,-28.320,-32.227,-32.715,-24.414,0.000,0
160237.392,-32.227,-28.320,-30.762,-20.996,0.000,0
160237.396,-31.738,-26.855,-33.691,-33.691,0.000,0
160237.400,-40.039,-22.461,-24.414,-30.762,0.000,0
160237.404,-36.621,-20.996,-32.227,-20.020,0.000,0
160237.408,-34.180,-21.973,-40.527,-31.250,0.000,0
160237.412,-30.273,-19.043,-34.668,-33.203,0.000,0
160237.416,-23.438,-19.531,-21.973,-33.203,0.000,0
160237.420,-33.691,-23.926,-25.391,-54.199,0.000,0
160237.424,-24.414,-20.996,-32.715,-51.270,0.000,0
160237.428,-24.414,-19.531,-30.273,-31.738,0.000,0
160237.431,-29.785,-20.996,-35.156,-19.043,0.000,0
160237.435,-10.742,-21.973,-22.949,-16.602,0.000,0
160237.439,-11.719,-15.137,-30.273,-15.137,0.000,0
160237.443,-26.855,-16.113,-42.480,-19.531,0.000,0
160237.447,-26.855,-21.973,-38.574,-26.855,0.000,0
160237.451,-23.926,-18.555,-39.062,-28.809,0.000,0
160237.455,-33.203,-21.973,-33.691,-44.922,0.000,0
160237.459,-46.875,-31.738,-29.785,-60.547,0.000,0
160237.463,-43.945,-35.645,-32.227,-52.734,0.000,0
160237.467,-36.621,-34.180,-40.039,-32.715,0.000,0
160237.471,-33.691,-30.273,-42.969,-34.180,0.000,0
160237.474,-34.668,-28.320,-23.926,-56.641,0.000,0
160237.478,-38.086,-27.832,-16.113,-45.898,0.000,0
160237.482,-31.250,-28.320,-36.621,-25.879,0.000,0
160237.486,-20.996,-31.738,-49.316,-45.898,0.000,0
160237.490,-20.508,-25.391,-39.551,-33.203,0.000,0
160237.494,-34.180,-22.461,-19.043,-29.297,0.000,0
160237.498,-37.109,-24.902,-20.508,-53.711,0.000,0
160237.502,-25.391,-21.484,-35.156,-35.645,0.000,0
160237.506,-18.066,-18.555,-34.180,-14.160,0.000,0
160237.510,-13.184,-22.461,-38.086,-19.043,0.000,0
160237.513,-16.602,-27.344,-26.855,-37.109,0.000,0
160237.517,-23.926,-27.344,-15.137,-46.875,0.000,0
160237.521,-26.367,-22.949,-21.973,-33.691,0.000,0
160237.525,-29.297,-22.949,-14.648,-20.996,0.000,0
160237.529,-26.367,-28.809,-31.738,-0.977,0.000,0
160237.533,-24.902,-30.762,-33.691,-8.301,0.000,0
160237.537,-25.391,-25.879,-22.949,-34.180,0.000,0
160237.541,-29.297,-24.414,-33.203,-25.391,0.000,0
160237.545,-28.809,-31.250,-36.133,-13.184,0.000,0
160237.549,-28.809,-29.785,-42.480,-23.438,0.000,0
160237.553,-27.344,-26.367,-28.809,-33.691,0.000,0
160237.556,-28.809,-25.879,-24.414,-45.410,0.000,0
160237.560,-28.809,-29.785,-32.227,-40.527,0.000,0
160237.564,-24.414,-29.785,-33.203,-23.438,0.000,0
160237.568,-29.297,-29.297,-35.645,-4.883,0.000,0
160237.572,-32.227,-33.203,-28.809,-13.672,0.000,0
160237.576,-25.391,-31.738,-26.855,-34.668,0.000,0
160237.580,-25.391,-29.297,-32.715,-28.809,0.000,0
160237.584,-33.203,-29.785,-36.621,-27.832,0.000,0
160237.588,-34.668,-30.273,-41.992,-22.949,0.000,0
160237.592,-19.043,-21.973,-23.926,-20.996,0.000,0
160237.596,-10.742,-23.438,-9.766,-34.180,0.000,0
160237.599,-11.230,-29.297,-36.133,-41.992,0.000,0
160237.603,-11.230,-28.320,-46.387,-37.109,0.000,0
160237.607,-7.812,-28.809,-45.410,-18.555,0.000,0
160237.611,-17.578,-30.273,-30.762,-18.555,0.000,0
160237.615,-24.902,-31.250,-7.812,-30.273,0.000,0
160237.619,-19.531,-33.691,-29.297,-22.949,0.000,0
160237.623,-11.719,-29.785,-48.828,-12.695,0.000,0
160237.627,-15.137,-27.832,-23.926,-20.508,0.000,0
160237.631,-25.879,-27.832,-6.836,-25.879,0.000,0
160237.635,-21.484,-23.926,-22.949,-27.344,0.000,0
160237.638,-26.855,-21.973,-30.762,-22.461,0.000,0
160237.642,-27.344,-24.902,-22.949,-27.832,0.000,0
160237.646,-24.902,-30.273,-31.738,-26.367,0.000,0
160237.650,-30.273,-36.621,-38.086,-24.902,0.000,0
160237.654,-39.551,-33.691,-27.832,-39.062,0.000,0
160237.658,-32.227,-30.273,-24.902,-26.367,0.000,0
160237.662,-24.414,-35.156,-27.832,-25.879,0.000,0
160237.666,-24.414,-38.086,-24.414,-33.691,0.000,0
160237.670,-17.578,-36.621,-32.227,-31.738,0.000,0
160237.674,-24.414,-37.109,-22.949,-39.551,0.000,0
160237.678,-30.273,-37.598,-20.020,-34.668,0.000,0
160237.681,-16.113,-36.621,-33.691,-44.434,0.000,0
160237.685,-12.207,-30.762,-29.785,-40.527,0.000,0
160237.689,-30.273,-22.949,-35.645,-18.555,0.000,0
160237.693,-30.762,-24.902,-30.762,-26.367,0.000,0
160237.697,-39.062,-30.273,-34.668,-38.086,0.000,0
160237.701,-41.016,-30.273,-30.762,-46.387,0.000,0
160237.705,-36.133,-32.227,-28.320,-44.922,0.000,0
160237.709,-38.574,-35.156,-38.574,-26.367,0.000,0
160237.713,-33.691,-34.180,-37.598,-33.203,0.000,0
160237.717,-30.762,-31.738,-32.227,-50.293,0.000,0
160237.721,-24.414,-26.367,-35.156,-31.738,0.000,0
160237.724,-24.414,-29.785,-46.387,-30.273,0.000,0
160237.728,-32.715,-32.227,-37.109,-28.320,0.000,0
160237.732,-33.203,-24.902,-19.531,-17.090,0.000,0
160237.736,-23.926,-18.555,-25.879,-23.926,0.000,0
160237.740,-26.367,-20.996,-34.668,-34.668,0.000,0
160237.744,-28.809,-17.578,-30.762,-25.879,0.000,0
160237.748,-16.602,-16.602,-29.297,-14.648,0.000,0
160237.752,-20.996,-23.438,-26.367,-36.621,0.000,0
160237.756,-31.738,-21.973,-30.762,-46.387,0.000,0
160237.760,-30.273,-20.020,-38.086,-23.926,0.000,0
160237.763,-36.133,-21.973,-26.367,-22.949,0.000,0
160237.767,-44.434,-23.926,-16.602,-31.250,0.000,0
160237.771,-38.086,-21.484,-28.320,-37.598,0.000,0
160237.775,-37.598,-22.949,-33.691,-34.180,0.000,0
160237.779,-34.180,-22.949,-26.367,-30.762,0.000,0
160237.783,-17.578,-23.926,-32.715,-16.113,0.000,0
160237.787,-17.090,-21.973,-39.062,-2.441,0.000,0
160237.791,-35.156,-21.973,-16.113,-18.066,0.000,0
160237.795,-29.297,-17.090,-14.648,-10.254,0.000,0
160237.799,-21.484,-16.602,-33.691,-3.418,0.000,0
160237.803,-19.043,-24.902,-35.156,-17.090,0.000,0
160237.806,-24.414,-23.926,-24.414,-19.531,0.000,0
160237.810,-26.367,-24.414,-4.395,-25.879,0.000,0
160237.814,0.488,-22.949,-12.695,-30.273,0.000,0
160237.818,-9.766,-22.461,-28.809,-26.855,0.000,0
160237.822,-27.832,-26.367,-25.879,-10.742,0.000,0
160237.826,-16.602,-27.832,-28.320,-7.324,0.000,0
160237.830,-26.367,-29.785,-22.461,-29.297,0.000,0
160237.834,-33.203,-22.461,-19.043,-28.809,0.000,0
160237.838,-36.133,-22.949,-34.668,-24.902,0.000,0
160237.842,-30.273,-27.832,-34.668,-27.832,0.000,0
160237.846,-18.555,-23.438,-33.203,-20.508,0.000,0
160237.849,-26.855,-22.461,-28.320,-31.738,0.000,0
160237.853,-29.785,-19.043,-19.531,-29.297,0.000,0
160237.857,-19.531,-18.555,-26.855,-19.043,0.000,0
160237.861,-8.301,-23.438,-40.039,-26.367,0.000,0
160237.865,-20.508,-28.320,-37.109,-33.691,0.000,0
160237.869,-35.645,-28.320,-17.090,-38.086,0.000,0
160237.873,-36.133,-20.508,-24.414,-39.062,0.000,0
160237.877,-28.809,-28.320,-42.480,-40.527,0.000,0
160237.881,-24.414,-30.273,-25.879,-32.715,0.000,0
160237.885,-23.438,-28.320,-38.574,-20.508,0.000,0
160237.888,-26.367,-33.691,-30.273,-44.922,0.000,0
160237.892,-29.785,-33.203,-20.020,-37.109,0.000,0
160237.896,-34.180,-30.273,-22.461,-1.465,0.000,0
160237.900,-23.926,-25.879,-22.461,-19.043,0.000,0
160237.904,-19.043,-23.926,-27.832,-26.855,0.000,0
160237.908,-31.250,-29.785,-14.160,-35.645,0.000,0
160237.912,-34.668,-33.203,-22.949,-48.340,0.000,0
160237.916,-22.949,-28.320,-33.203,-37.598,0.000,0
160237.920,-16.602,-22.949,-29.297,-28.320,0.000,0
160237.924,-24.414,-24.902,-33.203,-25.879,0.000,0
160237.928,-25.879,-25.879,-21.484,-40.527,0.000,0
160237.931,-14.160,-18.555,-25.879,-39.551,0.000,0
160237.935,-23.438,-20.508,-43.457,-20.508,0.000,0
160237.939,-41.992,-24.414,-37.109,-26.367,0.000,0
160237.943,-38.086,-26.855,-29.297,-24.414,0.000,0
160237.947,-27.344,-28.809,-27.832,-29.297,0.000,0
160237.951,-25.391,-28.320,-28.320,-47.363,0.000,0
160237.955,-21.484,-27.832,-25.879,-32.715,0.000,0
160237.959,-21.973,-21.973,-21.484,-17.090,0.000,0
160237.963,-27.344,-25.391,-38.086,-23.438,0.000,0
160237.967,-23.926,-31.738,-28.809,-31.738,0.000,0
160237.971,-28.809,-26.855,-8.301,-42.969,0.000,0
160237.974,-34.180,-25.391,-33.203,-28.809,0.000,0
160237.978,-30.762,-26.367,-41.504,-17.578,0.000,0
160237.982,-30.273,-23.926,-33.203,-21.484,0.000,0
160237.986,-31.250,-23.438,-24.902,-19.531,0.000,0
160237.990,-27.344,-22.949,-19.531,-28.320,0.000,0
160237.994,-28.320,-19.043,-29.785,-35.156,0.000,0
160237.998,-28.320,-16.602,-44.434,-20.020,0.000,0
160238.002,-33.203,-17.578,-29.785,-19.531,0.000,0
160238.006,-39.062,-21.484,-21.484,-27.344,0.000,0
160238.010,-33.203,-24.414,-28.320,-25.391,0.000,0
160238.013,-31.250,-25.879,-41.504,-19.043,0.000,0
160238.017,-29.785,-28.320,-42.969,-24.414,0.000,0
160238.021,-31.738,-30.762,-36.621,-37.598,0.000,0
160238.025,-40.527,-33.691,-32.715,-40.527,0.000,0
160238.029,-39.062,-28.809,-23.438,-36.621,0.000,0
160238.033,-26.855,-27.832,-27.832,-25.879,0.000,0
160238.037,-32.227,-26.367,-35.645,-19.531,0.000,0
160238.041,-37.109,-17.578,-44.922,-27.344,0.000,0
160238.045,-32.715,-20.508,-32.715,-28.809,0.000,0
160238.049,-36.133,-22.461,-10.254,-34.180,0.000,0
160238.053,-32.227,-21.484,-39.551,-33.203,0.000,0
160238.056,-19.043,-21.973,-41.016,-20.508,0.000,0
160238.060,-13.672,-20.020,-28.320,-13.672,0.000,0
160238.064,-13.184,-22.949,-35.645,-13.184,0.000,0
160238.068,-24.414,-25.879,-32.715,-38.086,0.000,0
160238.072,-29.297,-24.414,-27.832,-33.203,0.000,0
160238.076,-25.391,-24.902,-34.668,-4.883,0.000,0
160238.080,-25.879,-24.902,-42.969,-15.137,0.000,0
160238.084,-19.531,-30.762,-40.527,-34.668,0.000,0
160238.088,-19.043,-31.738,-26.367,-34.180,0.000,0
160238.092,-19.531,-29.297,-22.461,-31.250,0.000,0
160238.096,-7.812,-26.855,-32.715,-28.809,0.000,0
160238.099,-3.906,-22.461,-40.039,-26.367,0.000,0
160238.103,-20.996,-28.809,-30.762,-43.457,0.000,0
160238.107,-22.949,-25.391,-26.367,-39.551,0.000,0
160238.111,-13.184,-20.996,-31.738,-17.578,0.000,0
160238.115,-9.277,-29.785,-34.668,-19.043,0.000,0
160238.119,-20.996,-33.203,-40.527,-27.832,0.000,0
160238.123,-30.273,-28.809,-22.949,-33.203,0.000,0
160238.127,-32.715,-28.809,-21.973,-30.762,0.000,0
160238.131,-30.762,-26.855,-34.180,-37.598,0.000,0
160238.135,-33.691,-25.879,-27.344,-43.945,0.000,0
160238.138,-38.086,-25.879,-39.062,-39.551,0.000,0
160238.142,-30.273,-35.645,-41.016,-51.270,0.000,0
160238.146,-24.902,-39.062,-31.250,-41.992,0.000,0
160238.150,-20.508,-30.762,-41.504,-24.414,0.000,0
160238.154,-25.391,-31.738,-40.527,-29.297,0.000,0
160238.158,-24.902,-28.809,-33.691,-20.020,0.000,0
160238.162,-28.320,-33.203,-20.020,-32.227,0.000,0
160238.166,-32.227,-34.180,-20.508,-51.758,0.000,0
160238.170,-33.691,-26.855,-31.250,-39.551,0.000,0
160238.174,-39.062,-30.273,-26.855,-29.297,0.000,0
160238.178,-38.086,-29.785,-36.621,-25.391,0.000,0
160238.181,-38.086,-27.832,-26.855,-28.809,0.000,0
160238.185,-21.973,-28.320,-28.320,-18.066,0.000,0
160238.189,-14.648,-30.273,-48.340,-13.672,0.000,0
160238.193,-26.367,-29.297,-37.109,-19.043,0.000,0
160238.197,-23.438,-23.438,-25.391,-8.789,0.000,0
160238.201,-17.090,-19.531,-21.484,-15.137,0.000,0
160238.205,-30.762,-16.602,-11.719,-32.715,0.000,0
160238.209,-41.992,-20.020,-19.043,-21.973,0.000,0
160238.213,-36.621,-26.855,-29.785,-8.789,0.000,0
160238.217,-22.949,-28.320,-38.086,-21.973,0.000,0
160238.221,-27.344,-25.879,-29.297,-22.949,0.000,0
160238.224,-41.016,-23.926,-14.648,-35.645,0.000,0
160238.228,-32.715,-23.926,-30.273,-49.805,0.000,0
160238.232,-23.926,-23.926,-46.387,-45.410,0.000,0
160238.236,-37.109,-28.320,-49.316,-31.250,0.000,0
160238.240,-35.645,-36.133,-29.785,-12.695,0.000,0
160238.244,-12.695,-33.691,-19.531,-17.578,0.000,0
160238.248,-28.809,-22.461,-56.152,-33.203,0.000,0
160238.252,-51.758,-23.438,-65.918,-41.992,0.000,0
160238.256,-42.969,-23.926,-42.480,-40.527,0.000,0
160238.260,-35.156,-23.926,-37.109,-44.434,0.000,0
160238.263,-31.250,-24.414,-36.133,-50.293,0.000,0
160238.267,-31.250,-19.531,-27.832,-52.246,0.000,0
160238.271,-44.922,-19.043,-15.625,-44.434,0.000,0
160238.275,-49.805,-23.438,-25.879,-28.320,0.000,0
160238.279,-36.133,-27.344,-42.969,-25.391,0.000,0
160238.283,-33.691,-23.438,-21.973,-35.645,0.000,0
160238.287,-35.645,-24.902,-20.020,-36.133,0.000,0
160238.291,-35.645,-24.902,-40.527,-24.902,0.000,0
160238.295,-38.086,-22.949,-33.203,-11.719,0.000,0
160238.299,-36.621,-25.879,-29.297,-25.879,0.000,0
160238.303,-33.203,-25.879,-22.461,-51.270,0.000,0
160238.306,-32.227,-28.320,-24.902,-53.711,0.000,0
160238.310,-29.297,-33.691,-45.898,-37.109,0.000,0
160238.314,-27.344,-32.227,-52.734,-25.391,0.000,0
160238.318,-32.715,-29.785,-39.062,-36.133,0.000,0
160238.322,-26.367,-26.367,-42.969,-35.645,0.000,0
160238.326,-12.695,-22.949,-49.316,-20.020,0.000,0
160238.330,-24.414,-20.508,-27.832,-21.973,0.000,0
160238.334,-37.109,-24.902,-29.297,-22.949,0.000,0
160238.338,-25.391,-26.855,-41.992,-16.602,0.000,0
160238.342,-22.461,-21.973,-20.020,-30.762,0.000,0
160238.346,-22.949,-20.508,-14.160,-41.016,0.000,0
160238.349,-28.809,-29.297,-32.715,-40.039,0.000,0
160238.353,-21.973,-28.320,-36.133,-28.320,0.000,0
160238.357,-9.766,-17.578,-20.020,-19.043,0.000,0
160238.361,-12.207,-20.996,-11.230,-20.020,0.000,0
160238.365,-19.531,-20.020,-21.484,-22.461,0.000,0
160238.369,-21.973,-16.602,-28.320,-38.086,0.000,0
160238.373,-26.367,-23.438,-20.020,-52.734,0.000,0
160238.377,-33.203,-26.855,-11.719,-37.598,0.000,0
160238.381,-25.879,-23.438,-30.273,-38.086,0.000,0
160238.385,-13.672,-21.484,-42.969,-43.457,0.000,0
160238.388,-16.113,-25.879,-25.391,-24.902,0.000,0
160238.392,-22.461,-25.879,-17.090,-16.602,0.000,0
160238.396,-21.973,-21.973,-17.578,-27.832,0.000,0
160238.400,-18.555,-22.461,-17.578,-44.922,0.000,0
160238.404,-20.020,-23.926,-25.879,-42.480,0.000,0
160238.408,-26.367,-22.949,-22.461,-31.250,0.000,0
160238.412,-33.691,-28.320,-19.043,-26.367,0.000,0
160238.416,-34.668,-26.855,-40.039,-9.766,0.000,0
160238.420,-33.203,-22.949,-26.855,-27.832,0.000,0
160238.424,-27.832,-23.926,-19.043,-49.805,0.000,0
160238.428,-19.043,-23.926,-43.457,-29.297,0.000,0
160238.431,-19.043,-25.879,-41.016,-27.832,0.000,0
160238.435,-18.066,-29.785,-32.227,-25.391,0.000,0
160238.439,-21.484,-27.832,-16.602,-32.227,0.000,0
160238.443,-22.949,-24.414,-18.555,-41.992,0.000,0
160238.447,-24.414,-26.367,-22.949,-33.691,0.000,0
160238.451,-16.113,-21.484,-25.391,-25.391,0.000,0
160238.455,-13.672,-15.625,-32.227,-13.184,0.000,0
160238.459,-20.508,-15.625,-19.043,-21.484,0.000,0
160238.463,-16.602,-17.090,-10.742,-28.809,0.000,0
160238.467,-21.973,-16.113,-21.484,-18.555,0.000,0
160238.471,-22.461,-20.996,-35.156,-12.207,0.000,0
160238.474,-13.672,-22.949,-32.715,-14.160,0.000,0
160238.478,-20.508,-26.855,-20.020,-22.949,0.000,0
160238.482,-32.227,-31.250,-30.762,-41.016,0.000,0
160238.486,-35.156,-28.320,-41.992,-41.016,0.000,0
160238.490,-35.156,-30.273,-39.551,-26.367,0.000,0
160238.494,-32.227,-28.809,-31.250,-20.020,0.000,0
160238.498,-31.250,-28.320,-9.277,-28.320,0.000,0
160238.502,-29.785,-28.809,-17.090,-32.227,0.000,0
160238.506,-30.762,-25.391,-35.156,-25.879,0.000,0
160238.510,-30.273,-23.438,-21.973,-24.414,0.000,0
160238.513,-27.832,-27.344,-30.762,-19.043,0.000,0
160238.517,-23.926,-30.273,-43.457,-32.227,0.000,0
160238.521,-23.438,-21.973,-23.926,-41.016,0.000,0
160238.525,-13.672,-16.602,-21.484,-30.762,0.000,0
160238.529,-14.648,-19.043,-23.926,-18.066,0.000,0
160238.533,-25.879,-14.648,-26.367,-21.484,0.000,0
160238.537,-28.809,-17.090,-13.672,-30.762,0.000,0
160238.541,-31.738,-20.508,-6.836,-23.926,0.000,0
160238.545,-27.344,-21.973,-36.133,-31.738,0.000,0
160238.549,-24.414,-21.973,-35.645,-41.992,0.000,0
160238.553,-32.227,-18.066,-32.715,-26.855,0.000,0
160238.556,-39.551,-24.414,-29.785,-26.367,0.000,0
160238.560,-28.809,-26.367,-21.484,-33.203,0.000,0
160238.564,-21.484,-29.785,-42.969,-19.043,0.000,0
160238.568,-31.738,-30.273,-45.410,-19.043,0.000,0
160238.572,-32.715,-26.855,-42.480,-29.297,0.000,0
160238.576,-27.832,-26.855,-39.062,-31.250,0.000,0
160238.580,-33.691,-28.320,-28.320,-50.293,0.000,0
160238.584,-34.668,-28.809,-39.551,-41.504,0.000,0
160238.588,-18.066,-28.809,-46.875,-35.156,0.000,0
160238.592,-20.996,-31.738,-44.434,-21.973,0.000,0
160238.596,-28.809,-30.762,-41.504,-19.531,0.000,0
160238.599,-22.461,-27.344,-30.273,-50.293,0.000,0
160238.603,-38.086,-31.738,-34.668,-43.945,0.000,0
160238.607,-42.969,-30.762,-37.109,-32.227,0.000,0
160238.611,-28.809,-28.320,-41.504,-32.227,0.000,0
160238.615,-31.738,-27.344,-26.855,-23.438,0.000,0
160238.619,-26.855,-25.391,-19.531,-29.297,0.000,0
160238.623,-20.020,-24.414,-34.668,-40.527,0.000,0
160238.627,-29.297,-21.973,-26.367,-32.715,0.000,0
160238.631,-14.160,-15.625,-24.902,-10.254,0.000,0
160238.635,-15.137,-17.578,-33.203,-20.020,0.000,0
160238.638,-25.879,-21.484,-25.879,-31.738,0.000,0
160238.642,-25.879,-20.996,-31.738,-9.277,0.000,0
160238.646,-29.297,-29.785,-37.109,-17.578,0.000,0
160238.650,-24.902,-34.180,-50.781,-30.762,0.000,0
160238.654,-33.203,-35.645,-59.082,-25.391,0.000,0
160238.658,-35.645,-31.738,-25.879,-21.973,0.000,0
160238.662,-33.203,-26.367,-18.555,-24.902,0.000,0
160238.666,-34.180,-24.902,-49.316,-39.062,0.000,0
160238.670,-32.227,-25.879,-50.781,-33.203,0.000,0
160238.674,-28.809,-27.832,-24.414,-31.738,0.000,0
160238.678,-22.949,-30.762,-17.578,-38.574,0.000,0
160238.681,-26.855,-32.715,-18.555,-52.734,0.000,0
160238.685,-29.297,-31.250,-16.113,-39.062,0.000,0
160238.689,-22.461,-25.879,-33.203,-11.230,0.000,0
160238.693,-20.996,-20.508,-26.855,-15.137,0.000,0
160238.697,-20.020,-21.484,-20.996,-19.043,0.000,0
160238.701,-17.090,-27.832,-37.598,-37.598,0.000,0
160238.705,-16.602,-24.902,-22.949,-22.461,0.000,0
160238.709,-12.207,-24.902,-14.648,-7.324,0.000,0
160238.713,-9.277,-16.602,-27.832,-0.488,0.000,0
160238.717,-14.160,-15.625,-19.043,-0.977,0.000,0
160238.721,-18.066,-23.438,-24.414,-16.602,0.000,0
160238.724,-23.926,-21.973,-25.879,-25.879,0.000,0
160238.728,-29.785,-25.879,-30.273,-31.250,0.000,0
160238.732,-39.062,-29.785,-39.062,-27.832,0.000,0
160238.736,-41.504,-31.250,-20.020,-36.621,0.000,0
160238.740,-29.785,-28.809,-13.672,-36.621,0.000,0
160238.744,-37.109,-30.273,-44.922,-31.250,0.000,0
160238.748,-33.691,-30.273,-43.457,-35.156,0.000,0
160238.752,-23.926,-24.414,-13.184,-26.855,0.000,0
160238.756,-23.926,-30.273,-15.625,-43.457,0.000,0
160238.760,-23.438,-30.762,-24.902,-49.805,0.000,0
160238.763,-26.367,-28.320,-27.832,-31.250,0.000,0
160238.767,-22.949,-33.203,-36.133,-31.738,0.000,0
160238.771,-22.949,-31.738,-39.062,-27.832,0.000,0
160238.775,-34.668,-30.273,-21.484,-33.203,0.000,0
160238.779,-28.320,-27.344,-23.926,-29.785,0.000,0
160238.783,-32.715,-31.738,-44.434,-14.648,0.000,0
160238.787,-40.527,-32.715,-31.738,-24.902,0.000,0
160238.791,-29.785,-31.250,-26.855,-31.738,0.000,0
160238.795,-31.738,-34.180,-15.625,-27.832,0.000,0
160238.799,-23.926,-25.879,-20.508,-29.297,0.000,0
160238.803,-20.508,-28.809,-40.039,-34.180,0.000,0
160238.806,-19.531,-30.273,-31.738,-34.180,0.000,0
160238.810,-18.555,-26.367,-33.691,-16.602,0.000,0
160238.814,-21.484,-30.762,-27.832,-27.832,0.000,0
160238.818,-16.602,-29.297,-32.715,-48.340,0.000,0
160238.822,-11.230,-28.320,-35.645,-14.160,0.000,0
160238.826,-15.137,-23.926,-20.508,-17.090,0.000,0
160238.830,-6.348,-20.020,-21.973,-36.133,0.000,0
160238.834,-7.812,-20.020,-18.555,-29.297,0.000,0
160238.838,-24.902,-19.043,-13.184,-23.926,0.000,0
160238.842,-25.879,-23.438,-17.090,-27.832,0.000,0
160238.846,-19.043,-23.438,-30.273,-31.738,0.000,0
160238.849,-22.461,-22.949,-41.504,-31.250,0.000,0
160238.853,-18.066,-23.438,-19.043,-33.203,0.000,0
160238.857,-14.160,-24.414,-10.742,-35.156,0.000,0
160238.861,-24.414,-23.926,-39.551,-30.273,0.000,0
160238.865,-25.879,-20.996,-39.551,-28.809,0.000,0
160238.869,-26.367,-16.113,-36.133,-26.367,0.000,0
160238.873,-20.996,-20.020,-32.715,-30.273,0.000,0
160238.877,-18.555,-22.461,-23.926,-42.480,0.000,0
160238.881,-31.738,-21.484,-31.738,-30.762,0.000,0
160238.885,-38.574,-20.996,-32.227,-9.766,0.000,0
160238.888,-37.109,-22.461,-34.180,-18.555,0.000,0
160238.892,-27.344,-21.973,-31.250,-39.551,0.000,0
160238.896,-29.297,-23.926,-23.926,-35.645,0.000,0
160238.900,-35.156,-29.297,-41.504,-38.574,0.000,0
160238.904,-40.039,-34.668,-41.992,-48.340,0.000,0
160238.908,-39.551,-33.691,-39.062,-30.273,0.000,0
160238.912,-34.668,-25.391,-28.809,-23.926,0.000,0
160238.916,-31.738,-26.367,-20.996,-48.340,0.000,0
160238.920,-28.809,-27.344,-41.992,-44.434,0.000,0
160238.924,-22.461,-21.484,-35.645,-25.391,0.000,0
160238.928,-27.832,-21.484,-25.879,-30.273,0.000,0
160238.931,-45.898,-22.461,-19.531,-33.691,0.000,0
160238.935,-36.133,-20.996,-25.391,-44.922,0.000,0
160238.939,-26.855,-20.508,-43.945,-54.199,0.000,0
160238.943,-37.598,-25.391,-29.297,-21.484,0.000,0
160238.947,-35.156,-23.926,-26.855,-10.254,0.000,0
160238.951,-27.832,-19.531,-36.133,-47.363,0.000,0
160238.955,-29.785,-24.414,-24.414,-59.082,0.000,0
160238.959,-29.785,-21.484,-28.320,-39.062,0.000,0
160238.963,-22.949,-17.578,-38.086,-15.137,0.000,0
160238.967,-27.344,-23.926,-45.898,-15.625,0.000,0
160238.971,-33.691,-27.344,-45.410,-24.414,0.000,0
160238.974,-40.527,-30.762,-32.715,-30.273,0.000,0
160238.978,-37.598,-32.227,-35.645,-29.785,0.000,0
160238.982,-36.621,-30.273,-55.176,-25.391,0.000,0
160238.986,-33.691,-29.785,-59.570,-23.438,0.000,0
160238.990,-24.414,-26.367,-29.785,-7.324,0.000,0
160238.994,-26.855,-24.414,-3.418,-15.137,0.000,0
160238.998,-27.344,-21.973,-38.086,-20.996,0.000,0
160239.002,-24.902,-27.832,-60.547,-20.020,0.000,0
160239.006,-36.133,-26.855,-28.809,-22.461,0.000,0
160239.010,-42.969,-21.484,-25.391,-32.227,0.000,0
160239.013,-30.273,-25.391,-30.762,-48.340,0.000,0
160239.017,-25.879,-22.949,-34.180,-44.434,0.000,0
160239.021,-38.086,-20.996,-46.875,-33.691,0.000,0
160239.025,-25.391,-24.902,-54.688,-25.391,0.000,0
160239.029,-13.184,-28.809,-50.781,-28.809,0.000,0
160239.033,-25.879,-26.855,-23.926,-31.738,0.000,0
160239.037,-35.156,-29.785,-14.648,-24.902,0.000,0
160239.041,-36.621,-32.715,-35.156,-23.926,0.000,0
160239.045,-39.062,-27.832,-31.250,-26.855,0.000,0
160239.049,-37.598,-25.879,-23.926,-30.273,0.000,0
160239.053,-31.250,-23.926,-21.973,-36.133,0.000,0
160239.056,-20.996,-22.949,-23.926,-22.949,0.000,0
160239.060,-17.578,-26.367,-28.809,-20.508,0.000,0
160239.064,-22.461,-24.902,-31.738,-28.809,0.000,0
160239.068,-27.344,-20.996,-32.715,-24.902,0.000,0
160239.072,-25.391,-29.297,-27.344,-30.762,0.000,0
160239.076,-37.598,-33.691,-33.203,-44.922,0.000,0
160239.080,-44.922,-33.691,-29.297,-46.387,0.000,0
160239.084,-25.879,-26.367,-28.809,-30.273,0.000,0
160239.088,-15.625,-24.902,-41.504,-12.695,0.000,0
160239.092,-20.996,-29.297,-28.809,-25.391,0.000,0
160239.096,-20.996,-25.879,-12.207,-34.668,0.000,0
160239.099,-17.090,-23.438,-32.227,-18.066,0.000,0
160239.103,-19.043,-23.926,-55.664,-17.578,0.000,0
160239.107,-14.160,-21.484,-31.250,-21.973,0.000,0
160239.111,-9.766,-22.461,-2.441,-13.672,0.000,0
160239.115,-22.949,-27.832,-9.766,-20.996,0.000,0
160239.119,-28.809,-26.855,-34.668,-31.738,0.000,0
160239.123,-29.297,-26.367,-37.109,-17.578,0.000,0
160239.127,-32.227,-26.367,-28.809,-9.277,0.000,0
160239.131,-21.484,-22.461,-24.414,-37.109,0.000,0
160239.135,-22.461,-25.879,-26.367,-37.598,0.000,0
160239.138,-40.039,-34.668,-40.039,-28.809,0.000,0
160239.142,-34.180,-34.668,-35.156,-34.668,0.000,0
160239.146,-24.414,-28.320,-35.645,-21.484,0.000,0
160239.150,-25.879,-34.180,-42.969,-32.227,0.000,0
160239.154,-34.668,-29.785,-35.156,-41.016,0.000,0
160239.158,-45.410,-25.391,-26.367,-32.715,0.000,0
160239.162,-27.344,-24.414,-23.438,-7.324,0.000,0
160239.166,-21.484,-21.973,-47.852,-15.625,0.000,0
160239.170,-38.086,-29.785,-32.715,-56.152,0.000,0
160239.174,-27.832,-29.297,-16.602,-40.039,0.000,0
160239.178,-17.578,-22.949,-42.480,-21.973,0.000,0
160239.181,-27.832,-27.832,-33.691,-39.062,0.000,0
160239.185,-22.461,-20.508,-25.391,-41.504,0.000,0
160239.189,-12.207,-15.625,-14.160,-40.527,0.000,0
160239.193,-22.949,-23.438,-16.113,-43.945,0.000,0
160239.197,-27.832,-27.344,-23.926,-40.527,0.000,0
160239.201,-31.250,-29.785,-28.809,-34.668,0.000,0
160239.205,-33.203,-29.297,-39.062,-14.648,0.000,0
160239.209,-24.902,-29.297,-27.832,-10.254,0.000,0
160239.213,-24.902,-32.227,-22.461,-35.645,0.000,0
160239.217,-30.273,-33.203,-31.250,-44.434,0.000,0
160239.221,-27.344,-31.738,-42.480,-45.898,0.000,0
160239.224,-17.578,-29.297,-39.551,-37.598,0.000,0
160239.228,-17.578,-29.297,-23.926,-21.973,0.000,0
160239.232,-21.484,-27.344,-24.902,-28.320,0.000,0
160239.236,-20.020,-25.879,-49.805,-25.879,0.000,0
160239.240,-10.742,-25.879,-44.922,-14.160,0.000,0
160239.244,-13.184,-25.391,-37.109,-7.812,0.000,0
160239.248,-22.461,-25.391,-29.785,-20.996,0.000,0
160239.252,-32.715,-25.391,-26.855,-47.363,0.000,0
160239.256,-36.621,-24.902,-34.180,-38.086,0.000,0
160239.260,-35.645,-25.391,-19.531,-13.672,0.000,0
160239.263,-32.715,-30.762,-30.762,-5.859,0.000,0
160239.267,-20.020,-28.809,-41.016,-12.695,0.000,0
160239.271,-16.113,-23.926,-15.625,-23.438,0.000,0
160239.275,-14.648,-19.043,-20.508,-12.695,0.000,0
160239.279,-15.625,-21.973,-32.715,-14.648,0.000,0
160239.283,-18.555,-28.320,-38.086,-20.508,0.000,0
160239.287,-26.367,-27.344,-27.344,-22.461,0.000,0
160239.291,-20.996,-21.484,-14.160,-17.578,0.000,0
160239.295,-7.324,-20.996,-24.414,-20.508,0.000,0
160239.299,-20.020,-21.973,-25.879,-35.645,0.000,0
160239.303,-24.414,-21.484,-20.508,-26.855,0.000,0
160239.306,-5.371,-24.414,-10.742,-20.996,0.000,0
160239.310,-6.836,-27.832,-9.277,-25.879,0.000,0
160239.314,-26.855,-29.785,-28.320,-22.461,0.000,0
160239.318,-27.832,-28.320,-38.086,-6.348,0.000,0
160239.322,-31.738,-30.273,-28.809,-7.324,0.000,0
160239.326,-36.133,-29.297,-28.809,-26.367,0.000,0
160239.330,-30.762,-31.250,-23.438,-39.551,0.000,0
160239.334,-33.691,-36.133,-28.809,-39.062,0.000,0
160239.338,-35.645,-32.227,-32.227,-25.879,0.000,0
160239.342,-26.367,-27.832,-29.297,-15.137,0.000,0
160239.346,-26.367,-28.320,-27.344,-19.043,0.000,0
160239.349,-23.438,-24.902,-20.508,-19.043,0.000,0
160239.353,-19.043,-18.066,-32.227,-27.344,0.000,0
160239.357,-30.273,-21.484,-45.410,-34.180,0.000,0
160239.361,-28.320,-24.902,-43.945,-32.227,0.000,0
160239.365,-22.461,-26.367,-31.738,-28.809,0.000,0
160239.369,-35.645,-23.926,-19.043,-27.832,0.000,0
160239.373,-35.645,-24.414,-26.367,-20.996,0.000,0
160239.377,-28.320,-30.762,-38.086,-25.391,0.000,0
160239.381,-36.621,-28.320,-34.180,-41.016,0.000,0
160239.385,-36.133,-27.344,-35.156,-43.945,0.000,0
160239.388,-31.250,-28.320,-32.227,-40.039,0.000,0
160239.392,-30.762,-28.320,-27.344,-31.250,0.000,0
160239.396,-38.086,-28.320,-26.367,-37.109,0.000,0
160239.400,-41.992,-27.344,-38.086,-28.320,0.000,0
160239.404,-34.668,-25.391,-42.969,-15.137,0.000,0
160239.408,-35.645,-25.391,-10.254,-37.109,0.000,0
160239.412,-34.180,-28.320,-9.277,-26.367,0.000,0
160239.416,-27.344,-31.738,-40.527,-7.812,0.000,0
160239.420,-34.180,-31.250,-43.457,-22.949,0.000,0
160239.424,-24.902,-30.762,-33.691,-28.320,0.000,0
160239.428,-24.902,-33.203,-22.949,-32.715,0.000,0
160239.431,-46.387,-31.250,-26.855,-49.316,0.000,0
160239.435,-39.062,-29.297,-43.457,-45.898,0.000,0
160239.439,-19.043,-33.691,-38.574,-26.367,0.000,0
160239.443,-21.973,-33.203,-31.738,-20.020,0.000,0
160239.447,-34.668,-33.691,-30.762,-45.898,0.000,0
160239.451,-30.762,-36.621,-47.363,-55.176,0.000,0
160239.455,-24.902,-31.738,-33.691,-36.621,0.000,0
160239.459,-23.926,-33.203,-24.414,-35.156,0.000,0
160239.463,-32.715,-38.574,-44.922,-29.297,0.000,0
160239.467,-43.457,-37.598,-28.809,-37.109,0.000,0
160239.471,-43.457,-34.668,-26.367,-54.199,0.000,0
160239.474,-25.879,-35.645,-36.133,-49.316,0.000,0
160239.478,-18.555,-34.180,-38.086,-32.715,0.000,0
160239.482,-34.180,-30.762,-46.387,-22.461,0.000,0
160239.486,-35.156,-33.203,-32.227,-44.434,0.000,0
160239.490,-24.902,-33.203,-26.855,-38.086,0.000,0
160239.494,-20.020,-27.832,-42.480,-20.996,0.000,0
160239.498,-33.203,-29.297,-37.109,-41.992,0.000,0
160239.502,-44.434,-32.715,-39.551,-44.434,0.000,0
160239.506,-36.621,-28.809,-40.527,-51.758,0.000,0
160239.510,-35.156,-26.855,-31.738,-66.895,0.000,0
160239.513,-36.621,-20.508,-38.574,-52.246,0.000,0
160239.517,-29.785,-20.996,-44.434,-28.320,0.000,0
160239.521,-18.555,-21.484,-45.410,-20.996,0.000,0
160239.525,-15.625,-26.367,-27.344,-34.668,0.000,0
160239.529,-22.461,-34.180,-28.320,-39.062,0.000,0
160239.533,-20.996,-29.785,-49.316,-30.762,0.000,0
160239.537,-27.832,-25.879,-43.457,-29.785,0.000,0
160239.541,-31.250,-28.320,-50.293,-15.625,0.000,0
160239.545,-34.180,-36.621,-34.180,-26.367,0.000,0
160239.549,-40.039,-36.621,-25.391,-59.082,0.000,0
160239.553,-34.668,-33.203,-57.617,-45.410,0.000,0
160239.556,-38.086,-29.785,-52.734,-32.715,0.000,0
160239.560,-26.855,-26.367,-33.691,-24.902,0.000,0
160239.564,-22.461,-25.879,-18.066,-19.043,0.000,0
160239.568,-34.180,-26.855,-26.855,-44.922,0.000,0
160239.572,-30.762,-28.320,-43.945,-37.598,0.000,0
160239.576,-23.926,-32.715,-27.832,-27.832,0.000,0
160239.580,-25.879,-33.203,-26.855,-29.785,0.000,0
160239.584,-37.598,-24.414,-39.551,-21.973,0.000,0
160239.588,-38.086,-26.855,-32.715,-34.180,0.000,0
160239.592,-29.297,-30.273,-20.996,-19.531,0.000,0
160239.596,-22.461,-30.273,-36.133,-16.113,0.000,0
160239.599,-30.273,-28.809,-43.945,-31.738,0.000,0
160239.603,-34.180,-24.902,-26.855,-26.855,0.000,0
160239.607,-28.809,-28.320,-20.020,-41.016,0.000,0
160239.611,-27.344,-31.738,-26.367,-64.453,0.000,0
160239.615,-28.320,-26.367,-32.227,-45.898,0.000,0
160239.619,-20.508,-21.973,-36.133,-14.648,0.000,0
160239.623,-20.508,-22.461,-20.020,-16.113,0.000,0
160239.627,-26.855,-19.043,-10.254,-32.715,0.000,0
160239.631,-26.855,-22.949,-30.273,-37.109,0.000,0
160239.635,-32.227,-22.461,-28.320,-21.484,0.000,0
160239.638,-30.273,-16.113,-19.043,-18.555,0.000,0
160239.642,-18.066,-21.484,-28.320,-29.785,0.000,0
160239.646,-17.578,-21.973,-20.996,-41.504,0.000,0
160239.650,-20.020,-21.973,-27.832,-45.410,0.000,0
160239.654,-28.809,-25.879,-33.691,-40.039,0.000,0
160239.658,-33.691,-25.879,-36.621,-32.227,0.000,0
160239.662,-27.344,-24.902,-32.227,-30.762,0.000,0
160239.666,-36.133,-24.414,-19.043,-39.062,0.000,0
160239.670,-38.086,-20.996,-32.715,-37.598,0.000,0
160239.674,-28.809,-23.926,-43.457,-27.832,0.000,0
160239.678,-32.715,-25.879,-32.227,-23.438,0.000,0
160239.681,-34.180,-23.438,-29.297,-21.973,0.000,0
160239.685,-31.250,-24.902,-28.809,-51.270,0.000,0
160239.689,-24.414,-27.832,-42.480,-46.387,0.000,0
160239.693,-13.184,-28.320,-43.457,-17.090,0.000,0
160239.697,-18.066,-25.879,-28.320,-9.766,0.000,0
160239.701,-36.133,-25.391,-39.551,-11.230,0.000,0
160239.705,-34.668,-26.367,-31.250,-32.227,0.000,0
160239.709,-28.809,-26.855,-30.762,-12.207,0.000,0
160239.713,-25.391,-25.879,-22.461,-15.625,0.000,0
160239.717,-27.344,-25.391,-28.320,-30.273,0.000,0
160239.721,-21.484,-24.414,-46.875,-11.719,0.000,0
160239.724,-3.906,-24.414,-11.230,-11.230,0.000,0
160239.728,-10.742,-27.344,-12.695,-13.672,0.000,0
160239.732,-40.039,-32.227,-39.062,-33.691,0.000,0
160239.736,-49.805,-30.762,-57.129,-49.316,0.000,0
160239.740,-35.645,-27.344,-37.598,-31.738,0.000,0
160239.744,-30.762,-26.855,-18.066,-22.949,0.000,0
160239.748,-46.387,-27.344,-38.086,-46.875,0.000,0
160239.752,-47.363,-29.297,-43.457,-54.199,0.000,0
160239.756,-26.367,-27.832,-30.273,-25.879,0.000,0
160239.760,-21.484,-26.855,-35.645,-11.230,0.000,0
160239.763,-20.508,-27.832,-33.203,-44.434,0.000,0
160239.767,-23.438,-33.203,-28.320,-36.133,0.000,0
160239.771,-28.320,-26.855,-25.879,-0.488,0.000,0
160239.775,-27.832,-18.066,-28.320,-14.648,0.000,0
160239.779,-22.461,-21.973,-41.992,-20.996,0.000,0
160239.783,-21.484,-22.461,-23.926,-23.926,0.000,0
160239.787,-21.973,-21.484,-15.625,-22.949,0.000,0
160239.791,-17.578,-19.531,-27.832,-16.113,0.000,0
160239.795,-18.555,-22.461,-25.391,-12.695,0.000,0
160239.799,-27.344,-26.367,-27.344,-15.625,0.000,0
160239.803,-33.203,-25.391,-17.578,-39.551,0.000,0
160239.806,-27.832,-24.902,-20.508,-28.809,0.000,0
160239.810,-22.949,-19.531,-24.902,-14.648,0.000,0
160239.814,-13.184,-17.090,-22.949,-26.855,0.000,0
160239.818,-25.391,-19.043,-23.438,-26.367,0.000,0
160239.822,-44.434,-20.996,-13.184,-38.086,0.000,0
160239.826,-32.227,-19.531,-23.438,-41.504,0.000,0
160239.830,-34.180,-17.090,-13.184,-26.855,0.000,0
160239.834,-41.016,-19.043,-16.113,-24.414,0.000,0
160239.838,-24.414,-18.066,-37.598,-31.250,0.000,0
160239.842,-11.719,-18.066,-16.602,-39.551,0.000,0
160239.846,-31.250,-24.414,-19.043,-41.504,0.000,0
160239.849,-44.922,-27.344,-46.875,-34.180,0.000,0
160239.853,-23.438,-24.902,-51.758,-32.715,0.000,0
160239.857,-14.160,-18.066,-31.738,-20.996,0.000,0
160239.861,-21.484,-21.484,-14.648,-24.414,0.000,0
160239.865,-21.973,-25.391,-25.391,-42.969,0.000,0
160239.869,-19.043,-23.438,-40.039,-24.902,0.000,0
160239.873,-34.180,-24.902,-29.297,-21.973,0.000,0
160239.877,-44.922,-32.227,-23.438,-41.504,0.000,0
160239.881,-39.551,-34.668,-29.785,-47.852,0.000,0
160239.885,-36.133,-30.762,-37.109,-28.809,0.000,0
160239.888,-25.391,-26.855,-28.320,-13.184,0.000,0
160239.892,-15.137,-25.391,-29.297,-15.137,0.000,0
160239.896,-28.320,-24.414,-39.062,-32.715,0.000,0
160239.900,-36.133,-32.715,-26.855,-51.270,0.000,0
160239.904,-26.367,-30.762,-29.785,-47.363,0.000,0
160239.908,-24.902,-27.832,-48.828,-36.621,0.000,0
160239.912,-20.508,-28.809,-43.945,-29.297,0.000,0
160239.916,-14.160,-28.320,-32.715,-26.855,0.000,0
160239.920,-32.715,-30.273,-3.418,-44.922,0.000,0
160239.924,-21.973,-24.902,-17.090,-31.738,0.000,0
160239.928,-4.395,-22.461,-43.457,-22.461,0.000,0
160239.931,-18.555,-24.902,-33.203,-26.367,0.000,0
160239.935,-22.461,-18.555,-24.902,6.836,0.000,0
160239.939,-15.625,-19.043,-19.043,-12.695,0.000,0
160239.943,-20.996,-26.367,-26.367,-33.203,0.000,0
160239.947,-25.879,-27.832,-32.715,-19.043,0.000,0
160239.951,-18.066,-27.832,-32.227,-20.020,0.000,0
160239.955,-20.996,-24.414,-32.227,-21.484,0.000,0
160239.959,-27.344,-25.879,-21.484,-31.250,0.000,0
160239.963,-24.902,-29.297,-22.461,-42.480,0.000,0
160239.967,-32.227,-27.832,-39.062,-43.457,0.000,0
160239.971,-27.344,-29.785,-51.758,-32.227,0.000,0
160239.974,-33.203,-32.715,-46.875,-27.344,0.000,0
160239.978,-45.898,-35.645,-22.461,-39.551,0.000,0
160239.982,-20.996,-31.738,-23.438,-41.504,0.000,0
160239.986,-25.391,-30.762,-40.039,-23.438,0.000,0
160239.990,-45.410,-35.156,-33.691,-18.555,0.000,0
160239.994,-36.621,-32.715,-35.645,-10.254,0.000,0
160239.998,-35.156,-34.180,-42.480,-32.227,0.000,0
160240.002,-34.180,-38.574,-40.527,-51.758,0.000,0
160240.006,-31.738,-38.086,-31.250,-38.574,0.000,0
160240.010,-19.043,-30.762,-18.555,-23.438,0.000,0
160240.013,-11.719,-22.949,-41.016,-17.090,0.000,0
160240.017,-18.555,-26.855,-41.016,-18.066,0.000,0
160240.021,-17.090,-24.902,-21.973,-21.484,0.000,0
160240.025,-18.555,-22.949,-28.320,-22.461,0.000,0
160240.029,-21.484,-29.785,-45.410,-11.230,0.000,0
160240.033,-26.855,-28.809,-45.410,-11.230,0.000,0
160240.037,-20.020,-21.484,-21.973,-20.508,0.000,0
160240.041,-4.395,-29.297,-20.020,-25.391,0.000,0
160240.045,-15.137,-32.715,-36.621,-31.250,0.000,0
160240.049,-20.508,-26.367,-38.086,-21.484,0.000,0
160240.053,-24.902,-27.832,-34.180,-7.324,0.000,0
160240.056,-27.832,-30.273,-24.902,-23.438,0.000,0
160240.060,-27.344,-24.902,-28.809,-45.410,0.000,0
160240.064,-25.879,-22.461,-37.109,-27.832,0.000,0
160240.068,-26.367,-20.996,-24.902,-21.973,0.000,0
160240.072,-19.043,-22.461,-31.250,-19.531,0.000,0
160240.076,-8.789,-24.414,-35.156,-10.742,0.000,0
160240.080,-16.602,-25.879,-21.484,-20.508,0.000,0
160240.084,-29.785,-27.344,-32.715,-20.020,0.000,0
160240.088,-27.832,-29.785,-47.363,-20.508,0.000,0
160240.092,-18.066,-27.344,-41.016,-30.762,0.000,0
160240.096,-13.184,-25.879,-34.180,-20.020,0.000,0
160240.099,-19.043,-21.973,-26.855,-24.414,0.000,0
160240.103,-25.391,-21.484,-29.785,-29.297,0.000,0
160240.107,-17.578,-35.156,-50.293,-24.414,0.000,0
160240.111,-18.066,-32.715,-53.711,-17.578,0.000,0
160240.115,-30.273,-24.902,-24.414,-11.719,0.000,0
160240.119,-20.508,-24.902,-26.367,-30.273,0.000,0
160240.123,-17.090,-23.926,-36.133,-25.879,0.000,0
160240.127,-20.508,-24.902,-23.438,-16.113,0.000,0
160240.131,-22.461,-20.508,-44.434,-14.648,0.000,0
160240.135,-21.484,-23.926,-45.898,-27.832,0.000,0
160240.138,-16.602,-29.785,-20.996,-39.062,0.000,0
160240.142,-24.414,-26.855,-25.391,-28.320,0.000,0
160240.146,-27.344,-25.879,-29.297,-26.367,0.000,0
160240.150,-13.184,-27.832,-51.758,-14.648,0.000,0
160240.154,-13.184,-27.832,-50.293,-11.230,0.000,0
160240.158,-35.645,-26.367,-1.465,-38.574,0.000,0
160240.162,-41.992,-20.020,-17.090,-19.531,0.000,0
160240.166,-33.203,-17.090,-39.062,-6.836,0.000,0
160240.170,-41.016,-21.484,-29.785,-27.832,0.000,0
160240.174,-43.457,-18.066,-19.531,-27.344,0.000,0
160240.178,-30.273,-18.555,-19.043,-30.273,0.000,0
160240.181,-28.809,-19.043,-34.668,-30.273,0.000,0
160240.185,-28.809,-24.902,-35.156,-25.391,0.000,0
160240.189,-30.273,-33.691,-30.762,-18.555,0.000,0
160240.193,-41.504,-30.762,-33.203,-30.273,0.000,0
160240.197,-39.551,-27.344,-32.715,-47.852,0.000,0
160240.201,-41.016,-28.809,-32.227,-34.180,0.000,0
160240.205,-45.410,-28.320,-28.809,-18.066,0.000,0
160240.209,-30.762,-30.762,-41.016,-29.785,0.000,0
160240.213,-34.180,-34.668,-45.898,-36.133,0.000,0
160240.217,-43.945,-36.621,-30.762,-49.805,0.000,0
160240.221,-34.668,-37.598,-37.109,-53.223,0.000,0
160240.224,-31.250,-31.250,-39.551,-46.875,0.000,0
160240.228,-25.391,-35.156,-32.715,-47.852,0.000,0
160240.232,-20.020,-38.086,-44.922,-36.133,0.000,0
160240.236,-18.066,-33.691,-33.691,-42.969,0.000,0
160240.240,-17.090,-29.297,-29.785,-41.016,0.000,0
160240.244,-22.461,-30.762,-47.363,-26.367,0.000,0
160240.248,-24.902,-29.785,-38.086,-25.879,0.000,0
160240.252,-29.785,-30.762,-44.434,-14.160,0.000,0
160240.256,-28.320,-33.203,-39.551,-28.809,0.000,0
160240.260,-34.668,-30.762,-32.715,-41.992,0.000,0
160240.263,-29.297,-27.344,-47.852,-32.227,0.000,0
160240.267,-19.531,-26.855,-49.316,-23.926,0.000,0
160240.271,-18.066,-26.855,-41.992,-25.391,0.000,0
160240.275,-20.508,-23.926,-23.438,-39.062,0.000,0
160240.279,-25.879,-24.414,-23.926,-43.945,0.000,0
160240.283,-16.602,-22.461,-34.180,-43.945,0.000,0
160240.287,-22.461,-23.926,-35.156,-37.598,0.000,0
160240.291,-29.785,-30.762,-49.316,-22.949,0.000,0
160240.295,-31.738,-28.320,-27.344,-31.738,0.000,0
160240.299,-24.902,-25.879,-30.762,-41.504,0.000,0
160240.303,-22.461,-25.879,-54.199,-34.180,0.000,0
160240.306,-28.320,-22.949,-42.480,-41.504,0.000,0
160240.310,-22.949,-22.949,-39.551,-39.551,0.000,0
160240.314,-29.297,-27.344,-39.551,-27.832,0.000,0
160240.318,-29.297,-24.902,-30.273,-31.250,0.000,0
160240.322,-14.648,-20.020,-27.832,-39.062,0.000,0
160240.326,-10.254,-20.020,-31.250,-27.832,0.000,0
160240.330,-23.926,-22.461,-28.809,-30.762,0.000,0
160240.334,-22.949,-22.949,-31.250,-22.461,0.000,0
160240.338,-20.996,-20.020,-28.320,-22.949,0.000,0
160240.342,-26.367,-20.020,-42.480,-28.320,0.000,0
160240.346,-16.113,-19.043,-51.758,-20.020,0.000,0
160240.349,-16.113,-19.531,-45.410,-14.160,0.000,0
160240.353,-33.203,-24.414,-20.508,-22.949,0.000,0
160240.357,-24.902,-25.879,-18.066,-33.691,0.000,0
160240.361,-22.949,-24.902,-38.574,-23.926,0.000,0
160240.365,-37.598,-27.832,-40.527,-25.391,0.000,0
160240.369,-37.109,-29.297,-36.133,-24.902,0.000,0
160240.373,-31.738,-24.902,-24.414,-6.348,0.000,0
160240.377,-20.996,-19.043,-17.578,-1.465,0.000,0
160240.381,-22.949,-19.531,-36.133,-19.531,0.000,0
160240.385,-33.691,-25.879,-32.715,-25.391,0.000,0
160240.388,-10.254,-25.879,-29.297,-11.230,0.000,0
160240.392,-8.789,-16.602,-29.785,-20.508,0.000,0
160240.396,-34.668,-16.602,-29.297,-39.062,0.000,0
160240.400,-26.367,-19.043,-35.645,-33.203,0.000,0
160240.404,-31.250,-23.438,-41.504,-19.531,0.000,0
160240.408,-40.527,-32.227,-47.852,-22.949,0.000,0
160240.412,-32.227,-30.762,-29.785,-27.344,0.000,0
160240.416,-28.809,-24.902,-25.879,-31.738,0.000,0
160240.420,-30.273,-29.297,-40.527,-28.320,0.000,0
160240.424,-23.926,-28.809,-33.691,-23.926,0.000,0
160240.428,-31.250,-21.973,-27.832,-17.090,0.000,0
160240.431,-32.715,-22.461,-29.297,-19.531,0.000,0
160240.435,-20.020,-24.902,-36.133,-26.367,0.000,0
160240.439,-25.391,-25.879,-42.480,-20.020,0.000,0
160240.443,-20.508,-27.832,-45.410,-24.414,0.000,0
160240.447,-12.695,-24.902,-44.434,-31.250,0.000,0
160240.451,-23.438,-20.508,-29.297,-35.645,0.000,0
160240.455,-30.273,-18.555,-21.973,-27.832,0.000,0
160240.459,-33.691,-17.090,-30.762,-19.043,0.000,0
160240.463,-27.344,-22.949,-40.527,-12.695,0.000,0
160240.467,-21.484,-25.391,-45.410,-0.977,0.000,0
160240.471,-34.668,-28.809,-25.879,-12.207,0.000,0
160240.474,-39.551,-26.367,-22.461,-22.461,0.000,0
160240.478,-33.691,-23.926,-45.410,-14.648,0.000,0
160240.482,-24.902,-32.227,-56.641,-20.508,0.000,0
160240.486,-32.715,-31.250,-32.715,-18.066,0.000,0
160240.490,-37.109,-29.785,-12.207,-21.973,0.000,0
160240.494,-26.367,-35.156,-31.738,-40.039,0.000,0
160240.498,-23.926,-28.320,-48.828,-41.504,0.000,0
160240.502,-22.949,-25.879,-37.598,-36.621,0.000,0
160240.506,-5.371,-22.949,-32.227,-16.602,0.000,0
160240.510,8.789,-21.973,-22.949,-6.348,0.000,0
160240.513,-10.254,-26.367,-23.438,-16.113,0.000,0
160240.517,-33.691,-23.926,-32.227,-30.762,0.000,0
160240.521,-32.715,-25.391,-30.273,-32.715,0.000,0
160240.525,-24.902,-27.344,-20.996,-47.363,0.000,0
160240.529,-31.738,-22.461,1.465,-70.801,0.000,0
160240.533,-24.902,-20.508,-25.391,-33.203,0.000,0
160240.537,-18.555,-27.344,-42.480,-15.137,0.000,0
160240.541,-20.508,-26.855,-32.227,-6.836,0.000,0
160240.545,-21.484,-27.832,-33.691,-11.230,0.000,0
160240.549,-20.996,-31.738,-19.531,-36.621,0.000,0
160240.553,-20.996,-29.297,-29.785,-27.832,0.000,0
160240.556,-10.742,-26.367,-42.969,-19.043,0.000,0
160240.560,-8.301,-21.973,-26.855,-15.625,0.000,0
160240.564,-20.508,-18.066,-21.484,-19.531,0.000,0
160240.568,-23.926,-20.508,-19.531,-38.086,0.000,0
160240.572,-20.508,-19.043,-16.113,-30.762,0.000,0
160240.576,-24.414,-22.461,-28.809,-13.672,0.000,0
160240.580,-23.926,-23.438,-42.480,-20.508,0.000,0
160240.584,-22.949,-21.484,-21.484,-23.926,0.000,0
160240.588,-15.137,-22.461,-12.207,-27.832,0.000,0
160240.592,-17.578,-20.508,-33.691,-31.250,0.000,0
160240.596,-18.066,-18.555,-33.691,-23.438,0.000,0
160240.599,-15.625,-18.555,-27.832,0.488,0.000,0
160240.603,-15.625,-24.414,-27.344,-6.836,0.000,0
160240.607,-10.742,-20.508,-20.508,-36.621,0.000,0
160240.611,-13.672,-18.555,-31.250,-20.508,0.000,0
160240.615,-13.184,-26.367,-40.527,0.977,0.000,0
160240.619,-20.996,-26.367,-29.785,-4.883,0.000,0
160240.623,-26.367,-28.320,-36.133,-20.996,0.000,0
160240.627,-21.484,-30.762,-43.457,-34.668,0.000,0
160240.631,-18.066,-23.926,-25.391,-31.250,0.000,0
160240.635,-21.973,-17.578,-22.461,-17.578,0.000,0
160240.638,-17.578,-18.555,-44.434,-7.812,0.000,0
160240.642,-13.184,-22.461,-41.992,-15.137,0.000,0
160240.646,-20.020,-22.461,-17.090,-25.391,0.000,0
160240.650,-30.762,-23.926,-22.461,-8.301,0.000,0
160240.654,-30.273,-28.320,-32.715,-10.742,0.000,0
160240.658,-23.926,-25.391,-27.832,-31.738,0.000,0
160240.662,-31.250,-20.020,-24.414,-18.555,0.000,0
160240.666,-27.344,-18.066,-16.602,-17.090,0.000,0
160240.670,-10.254,-19.043,-20.508,-35.156,0.000,0
160240.674,-13.184,-20.508,-37.598,-31.738,0.000,0
160240.678,-20.508,-17.090,-38.574,-28.320,0.000,0
160240.681,-23.438,-17.578,-20.996,-28.320,0.000,0
160240.685,-23.926,-24.902,-25.879,-31.250,0.000,0
160240.689,-23.438,-29.297,-44.922,-32.715,0.000,0
160240.693,-19.043,-25.879,-35.156,-21.973,0.000,0
160240.697,-19.531,-23.926,-29.297,-27.832,0.000,0
160240.701,-16.602,-27.832,-31.738,-31.250,0.000,0
160240.705,-16.602,-26.367,-22.461,-35.156,0.000,0
160240.709,-25.391,-20.508,-19.531,-28.809,0.000,0
160240.713,-26.367,-23.438,-30.273,-9.766,0.000,0
160240.717,-30.273,-28.320,-46.387,-18.066,0.000,0
160240.721,-23.926,-28.320,-32.227,-24.414,0.000,0
160240.724,-15.137,-28.809,-10.254,-19.043,0.000,0
160240.728,-25.879,-28.809,-39.551,-22.949,0.000,0
160240.732,-28.809,-28.809,-45.898,-37.109,0.000,0
160240.736,-33.691,-32.227,-29.785,-44.922,0.000,0
160240.740,-39.062,-25.879,-37.109,-41.016,0.000,0
160240.744,-29.785,-23.926,-36.621,-49.316,0.000,0
160240.748,-27.832,-23.926,-33.691,-51.270,0.000,0
160240.752,-34.180,-22.949,-28.320,-43.457,0.000,0
160240.756,-37.109,-22.949,-31.250,-38.574,0.000,0
160240.760,-34.180,-25.391,-46.875,-36.133,0.000,0
160240.763,-23.438,-30.273,-38.086,-42.969,0.000,0
160240.767,-22.949,-26.855,-15.625,-41.992,0.000,0
160240.771,-16.602,-22.949,-18.066,-34.668,0.000,0
160240.775,-1.465,-26.367,-39.551,-37.109,0.000,0
160240.779,-28.320,-28.809,-48.340,-29.785,0.000,0
160240.783,-42.480,-31.250,-37.598,-37.598,0.000,0
160240.787,-31.250,-27.832,-26.855,-39.062,0.000,0
160240.791,-23.438,-23.926,-44.434,-24.902,0.000,0
160240.795,-9.277,-23.926,-47.852,-21.973,0.000,0
160240.799,-16.113,-21.484,-26.855,-24.902,0.000,0
160240.803,-26.367,-25.391,-18.066,-37.598,0.000,0
160240.806,-17.090,-27.832,-30.273,-39.062,0.000,0
160240.810,-9.277,-23.438,-37.598,-31.250,0.000,0
160240.814,-10.742,-18.066,-18.066,-21.484,0.000,0
160240.818,-8.301,-16.602,-33.691,-10.742,0.000,0
160240.822,-8.789,-20.508,-27.832,-28.320,0.000,0
160240.826,-24.414,-21.484,-20.020,-36.133,0.000,0
160240.830,-29.297,-22.949,-44.434,-21.973,0.000,0
160240.834,-13.672,-25.391,-29.297,-28.809,0.000,0
160240.838,-7.324,-25.879,-33.691,-30.273,0.000,0
160240.842,-21.484,-26.367,-33.691,-24.902,0.000,0
160240.846,-27.344,-25.879,-19.531,-27.344,0.000,0
160240.849,-18.555,-20.996,-23.438,-15.137,0.000,0
160240.853,-18.555,-20.020,-18.066,0.977,0.000,0
160240.857,-25.879,-20.996,-21.484,1.465,0.000,0
160240.861,-30.762,-22.949,-19.043,-29.297,0.000,0
160240.865,-21.484,-18.555,-23.438,-36.133,0.000,0
160240.869,-20.996,-15.137,-28.809,-15.137,0.000,0
160240.873,-27.832,-27.344,-33.691,-24.414,0.000,0
160240.877,-25.391,-30.273,-41.504,-17.090,0.000,0
160240.881,-21.484,-28.320,-30.762,-22.461,0.000,0
160240.885,-33.203,-33.203,-22.949,-49.805,0.000,0
160240.888,-40.527,-32.227,-34.668,-39.062,0.000,0
160240.892,-39.062,-29.297,-45.410,-27.832,0.000,0
160240.896,-29.297,-28.809,-48.340,-22.949,0.000,0
160240.900,-22.461,-34.668,-28.320,-23.438,0.000,0
160240.904,-39.062,-39.551,-12.207,-39.062,0.000,0
160240.908,-30.273,-33.203,-40.527,-38.574,0.000,0
160240.912,-22.949,-31.738,-54.199,-32.715,0.000,0
160240.916,-32.715,-32.227,-41.504,-22.461,0.000,0
160240.920,-40.527,-33.203,-31.738,-20.996,0.000,0
160240.924,-44.922,-32.227,-28.320,-41.016,0.000,0
160240.928,-33.203,-26.367,-35.156,-41.504,0.000,0
160240.931,-28.809,-26.855,-33.691,-25.879,0.000,0
160240.935,-38.574,-33.691,-24.414,-36.133,0.000,0
160240.939,-35.156,-33.691,-23.438,-46.875,0.000,0
160240.943,-31.250,-32.227,-39.551,-40.527,0.000,0
160240.947,-29.785,-26.855,-26.855,-28.320,0.000,0
160240.951,-25.391,-26.367,-26.367,-20.996,0.000,0
160240.955,-26.855,-30.762,-41.992,-21.484,0.000,0
160240.959,-29.785,-33.203,-32.227,-32.227,0.000,0
160240.963,-38.574,-34.180,-31.738,-39.551,0.000,0
160240.967,-31.250,-26.855,-47.363,-22.461,0.000,0
160240.971,-20.996,-24.902,-41.016,-8.789,0.000,0
160240.974,-27.344,-28.320,-32.227,-4.395,0.000,0
160240.978,-24.902,-23.438,-20.508,-24.902,0.000,0
160240.982,-18.066,-22.949,-17.090,-46.875,0.000,0
160240.986,-22.949,-27.344,-26.855,-38.086,0.000,0
160240.990,-22.949,-23.438,-23.438,-12.207,0.000,0
160240.994,-14.160,-19.043,-27.832,-10.254,0.000,0
160240.998,-8.789,-22.949,-31.250,-30.273,0.000,0
160241.002,-15.625,-22.949,-21.973,-36.621,0.000,0
160241.006,-18.555,-20.508,-27.832,-21.484,0.000,0
160241.010,-15.625,-22.461,-40.527,-16.602,0.000,0
160241.013,-15.625,-26.855,-41.016,-19.531,0.000,0
160241.017,-19.043,-28.809,-31.250,-20.020,0.000,0
160241.021,-17.578,-26.367,-16.113,-22.461,0.000,0
160241.025,-13.672,-26.855,-31.250,-19.531,0.000,0
160241.029,-16.113,-28.809,-47.852,-14.160,0.000,0
160241.033,-18.066,-26.855,-34.668,-7.812,0.000,0
160241.037,-19.531,-24.902,-15.137,-29.297,0.000,0
160241.041,-27.832,-28.809,-19.531,-48.340,0.000,0
160241.045,-24.414,-26.367,-37.109,-37.109,0.000,0
160241.049,-21.484,-20.996,-17.090,-28.809,0.000,0
160241.053,-27.344,-24.902,-17.578,-31.250,0.000,0
160241.056,-19.531,-26.855,-37.109,-28.809,0.000,0
160241.060,-16.602,-28.320,-29.785,-15.137,0.000,0
160241.064,-23.438,-31.250,-31.250,-25.391,0.000,0
160241.068,-24.414,-32.715,-39.551,-36.133,0.000,0
160241.072,-19.531,-29.297,-41.016,-19.531,0.000,0
160241.076,-20.508,-20.020,-25.391,-24.902,0.000,0
160241.080,-31.250,-15.625,-19.531,-35.156,0.000,0
160241.084,-21.973,-16.602,-21.484,-23.926,0.000,0
160241.088,-21.484,-13.184,-28.320,-18.066,0.000,0
160241.092,-34.180,-15.137,-30.762,-17.578,0.000,0
160241.096,-27.344,-17.090,-7.324,-32.227,0.000,0
160241.099,-27.344,-16.113,-17.578,-39.551,0.000,0
160241.103,-34.668,-20.508,-37.598,-22.949,0.000,0
160241.107,-28.320,-16.602,-30.762,-23.926,0.000,0
160241.111,-14.160,-17.578,-26.855,-25.391,0.000,0
160241.115,-17.578,-21.973,-20.020,-33.203,0.000,0
160241.119,-23.926,-24.902,-20.508,-28.809,0.000,0
160241.123,-29.297,-26.367,-30.762,-25.391,0.000,0
160241.127,-29.297,-21.484,-25.879,-24.902,0.000,0
160241.131,-31.738,-23.438,-25.391,-9.277,0.000,0
160241.135,-29.297,-25.879,-23.926,-32.715,0.000,0
160241.138,-25.391,-18.066,-12.695,-34.668,0.000,0
160241.142,-24.902,-17.090,-10.742,-13.672,0.000,0
160241.146,-26.367,-22.461,-37.598,-29.785,0.000,0
160241.150,-25.391,-22.461,-45.898,-39.551,0.000,0
160241.154,-29.297,-24.414,-17.090,-35.645,0.000,0
160241.158,-34.668,-22.461,-23.926,-42.969,0.000,0
160241.162,-24.414,-20.996,-38.574,-34.668,0.000,0
160241.166,-19.531,-24.414,-25.879,-15.625,0.000,0
160241.170,-18.066,-26.855,-31.738,-8.301,0.000,0
160241.174,-17.578,-28.320,-25.879,-30.273,0.000,0
160241.178,-28.320,-26.855,-23.438,-28.809,0.000,0
160241.181,-32.227,-24.902,-35.156,-16.602,0.000,0
160241.185,-34.668,-23.438,-27.344,-11.719,0.000,0
160241.189,-30.762,-20.508,-40.039,-21.973,0.000,0
160241.193,-35.156,-24.414,-27.344,-50.293,0.000,0
160241.197,-34.668,-28.320,-11.719,-54.199,0.000,0
160241.201,-31.250,-26.367,-33.691,-37.598,0.000,0
160241.205,-37.598,-29.785,-51.758,-36.621,0.000,0
160241.209,-34.180,-33.203,-53.711,-32.715,0.000,0
160241.213,-37.109,-30.762,-21.973,-33.691,0.000,0
160241.217,-28.809,-29.297,-12.207,-33.691,0.000,0
160241.221,-24.414,-31.250,-37.598,-18.066,0.000,0
160241.224,-42.969,-34.180,-35.645,-27.832,0.000,0
160241.228,-43.945,-30.762,-24.414,-19.531,0.000,0
160241.232,-34.180,-25.879,-19.043,-20.996,0.000,0
160241.236,-21.484,-27.832,-28.809,-46.875,0.000,0
160241.240,-27.832,-30.273,-41.992,-41.016,0.000,0
160241.244,-42.480,-31.250,-30.273,-32.715,0.000,0
160241.248,-39.062,-28.320,-42.480,-22.949,0.000,0
160241.252,-18.555,-21.973,-47.363,-19.531,0.000,0
160241.256,-17.578,-23.926,-27.344,-31.738,0.000,0
160241.260,-29.785,-25.879,-39.062,-30.273,0.000,0
160241.263,-24.902,-26.855,-38.574,-30.762,0.000,0
160241.267,-34.180,-25.879,-38.574,-27.344,0.000,0
160241.271,-41.992,-21.484,-40.039,-16.602,0.000,0
160241.275,-38.086,-21.484,-25.391,-14.160,0.000,0
160241.279,-26.855,-23.438,-38.574,-3.418,0.000,0
160241.283,-11.719,-27.832,-51.270,-18.066,0.000,0
160241.287,-2.441,-26.367,-39.062,-29.297,0.000,0
160241.291,-24.414,-24.902,-33.203,-23.926,0.000,0
160241.295,-41.504,-24.902,-29.297,-35.645,0.000,1
160241.299,-32.227,-23.438,-35.156,-31.250,0.000,0
160241.303,-30.762,-21.973,-26.367,-28.809,0.000,0
160241.306,-24.414,-19.531,-28.320,-17.090,0.000,0
160241.310,-20.020,-20.020,-37.598,-13.672,0.000,0
160241.314,-27.344,-24.414,-16.602,-38.086,0.000,0
160241.318,-22.461,-23.926,-20.020,-35.645,0.000,0
160241.322,-20.020,-20.996,-42.969,-25.879,0.000,0
160241.326,-34.180,-24.414,-53.711,-21.973,0.000,0
160241.330,-34.668,-29.785,-44.434,-5.859,0.000,0
160241.334,-35.645,-29.297,-13.184,-28.320,0.000,0
160241.338,-30.762,-23.926,-13.184,-50.293,0.000,0
160241.342,-17.578,-28.320,-40.039,-28.809,0.000,0
160241.346,-34.668,-27.832,-26.855,-23.926,0.000,0
160241.349,-36.133,-19.043,-22.949,-28.809,0.000,0
160241.353,-29.785,-21.484,-39.062,-32.715,0.000,0
160241.357,-29.297,-22.461,-43.945,-31.250,0.000,0
160241.361,-31.250,-23.926,-39.551,-22.949,0.000,0
160241.365,-34.668,-26.367,-21.973,-17.578,0.000,0
160241.369,-28.320,-25.879,-33.203,-20.508,0.000,0
160241.373,-31.250,-36.133,-41.992,-41.504,0.000,0
160241.377,-33.691,-35.156,-23.438,-49.805,0.000,0
160241.381,-26.367,-23.438,-19.531,-35.156,0.000,0
160241.385,-18.066,-27.832,-39.062,-23.438,0.000,0
160241.388,-14.648,-30.273,-41.992,-22.461,0.000,0
160241.392,-21.484,-25.879,-22.949,-20.996,0.000,0
160241.396,-25.391,-29.297,-28.320,-20.508,0.000,0
160241.400,-21.973,-31.738,-40.527,-17.090,0.000,0
160241.404,-33.203,-29.297,-36.621,-24.902,0.000,0
160241.408,-40.039,-28.320,-31.738,-14.648,0.000,0
160241.412,-34.668,-28.809,-18.555,-19.531,0.000,0
160241.416,-24.414,-24.902,-12.695,-42.969,0.000,0
160241.420,-17.090,-22.949,-37.598,-21.973,0.000,0
160241.424,-21.484,-23.438,-30.273,-12.695,0.000,0
160241.428,-23.438,-19.043,-15.137,-18.066,0.000,0
160241.431,-13.672,-18.555,-14.648,-25.879,0.000,0
160241.435,-21.973,-22.461,-13.672,-32.227,0.000,0
160241.439,-22.949,-23.926,-30.762,-32.715,0.000,0
160241.443,-24.414,-21.973,-38.086,-34.668,0.000,0
160241.447,-22.461,-24.414,-30.762,-24.902,0.000,0
160241.451,-18.066,-30.273,-13.184,-30.762,0.000,0
160241.455,-26.367,-27.832,-23.926,-30.273,0.000,0
160241.459,-20.996,-25.391,-36.621,-20.996,0.000,0
160241.463,-10.254,-27.832,-45.410,-13.184,0.000,0
160241.467,-16.602,-27.344,-36.133,-6.836,0.000,0
160241.471,-19.531,-24.414,-8.789,-22.461,0.000,0
160241.474,-4.883,-27.344,-27.832,-35.156,0.000,0
160241.478,-7.324,-27.832,-33.691,-35.645,0.000,0
160241.482,-16.602,-28.320,-18.555,-43.945,0.000,0
160241.486,-24.414,-26.855,-34.180,-31.738,0.000,0
160241.490,-17.090,-23.438,-27.832,-40.527,0.000,0
160241.494,-6.836,-20.020,-10.742,-39.551,0.000,0
160241.498,-20.996,-23.926,-26.855,-24.902,0.000,0
160241.502,-29.785,-29.785,-35.645,-29.785,0.000,0
160241.506,-33.691,-31.250,-40.527,-16.602,0.000,0
160241.510,-35.645,-32.227,-38.086,-31.250,0.000,0
160241.513,-37.109,-33.691,-24.902,-50.293,0.000,0
160241.517,-29.297,-34.180,-32.715,-29.297,0.000,0
160241.521,-17.578,-30.273,-49.316,-22.949,0.000,0
160241.525,-21.973,-28.809,-47.852,-13.184,0.000,0
160241.529,-16.113,-29.785,-27.344,-23.926,0.000,0
160241.533,-21.973,-27.344,-26.367,-29.297,0.000,0
160241.537,-26.367,-24.902,-48.340,-22.461,0.000,0
160241.541,-27.344,-26.367,-38.574,-37.109,0.000,0
160241.545,-28.320,-23.926,-22.949,-21.484,0.000,0
160241.549,-23.438,-27.344,-27.832,-12.695,0.000,0
160241.553,-31.250,-33.203,-31.250,-30.762,0.000,0
160241.556,-26.367,-29.297,-35.645,-26.855,0.000,0
160241.560,-15.625,-31.250,-31.250,-12.207,0.000,0
160241.564,-16.113,-31.738,-45.898,-13.672,0.000,0
160241.568,-4.395,-31.250,-46.387,-15.137,0.000,0
160241.572,-6.836,-30.273,-28.320,-21.973,0.000,0
160241.576,-28.809,-21.484,-40.527,-30.273,0.000,0
160241.580,-24.414,-20.020,-46.875,-26.855,0.000,0
160241.584,-26.367,-19.043,-43.457,-22.461,0.000,0
160241.588,-28.809,-15.625,-31.250,-25.879,0.000,0
160241.592,-26.855,-15.137,-27.344,-34.180,0.000,0
160241.596,-33.203,-15.137,-33.691,-21.484,0.000,0
160241.599,-26.855,-15.625,-30.762,-18.066,0.000,0
160241.603,-18.066,-16.113,-25.391,-15.625,0.000,0
160241.607,-17.090,-19.531,-24.414,-10.742,0.000,0
160241.611,-15.625,-20.020,-23.926,-37.598,0.000,0
160241.615,-10.254,-11.719,-23.438,-31.250,0.000,0
160241.619,-13.672,-14.648,-27.832,-27.832,0.000,0
160241.623,-31.250,-19.531,-39.062,-32.227,0.000,0
160241.627,-33.203,-15.137,-37.109,-24.902,0.000,0
160241.631,-17.090,-14.648,-18.555,-30.762,0.000,0
160241.635,-15.137,-15.625,-26.855,-19.531,0.000,0
160241.638,-12.695,-15.137,-37.109,-1.465,0.000,0
160241.642,-13.672,-19.531,-35.156,-7.324,0.000,0
160241.646,-12.207,-21.484,-28.320,-15.137,0.000,0
160241.650,-15.137,-20.020,-16.113,-26.855,0.000,0
160241.654,-23.438,-26.855,-38.086,-39.062,0.000,0
160241.658,-24.902,-30.762,-48.340,-49.805,0.000,0
160241.662,-24.902,-34.180,-33.691,-47.363,0.000,0
160241.666,-25.879,-34.180,-48.828,-20.508,0.000,0
160241.670,-28.320,-28.320,-39.062,-28.320,0.000,0
160241.674,-28.320,-21.973,-31.738,-30.273,0.000,0
160241.678,-25.879,-26.855,-43.945,-15.137,0.000,0
160241.681,-21.484,-24.902,-27.344,-18.555,0.000,0
160241.685,-18.066,-18.066,-42.480,-15.625,0.000,0
160241.689,-23.438,-22.461,-47.852,-25.879,0.000,0
160241.693,-24.414,-16.113,-22.461,-27.832,0.000,0
160241.697,-12.207,-16.602,-29.785,-0.488,0.000,0
160241.701,-9.766,-20.508,-44.922,-8.789,0.000,0
160241.705,-20.020,-23.926,-44.434,-36.621,0.000,0
160241.709,-29.785,-27.832,-29.297,-32.227,0.000,0
160241.713,-31.250,-21.973,-26.367,-16.602,0.000,0
160241.717,-26.367,-17.578,-33.691,-18.555,0.000,0
160241.721,-17.090,-13.672,-28.320,-15.625,0.000,0
160241.724,-14.648,-11.230,-23.926,-3.906,0.000,0
160241.728,-17.578,-16.602,-16.602,-14.648,0.000,0
160241.732,-10.742,-19.043,-14.160,-14.648,0.000,0
160241.736,-14.648,-15.625,-32.227,-9.766,0.000,0
160241.740,-21.973,-16.602,-33.691,-12.207,0.000,0
160241.744,-19.043,-18.066,-33.691,-18.555,0.000,0
160241.748,-14.160,-18.066,-33.203,-27.832,0.000,0
160241.752,-13.672,-17.090,-22.949,-18.066,0.000,0
160241.756,-24.902,-15.137,-21.484,-27.832,0.000,0
160241.760,-23.438,-17.578,-35.156,-47.852,0.000,0
160241.763,-20.020,-19.043,-25.879,-34.668,0.000,0
160241.767,-27.344,-14.648,-15.137,-22.949,0.000,0
160241.771,-25.879,-13.672,-29.785,-26.367,0.000,0
160241.775,-23.438,-17.578,-39.062,-31.738,0.000,0
160241.779,-20.508,-13.672,-32.715,-23.926,0.000,0
160241.783,-18.066,-14.648,-26.367,-21.484,0.000,0
160241.787,-17.578,-20.508,-24.902,-31.738,0.000,0
160241.791,-19.043,-15.625,-23.926,-43.945,0.000,0
160241.795,-20.996,-13.672,-40.039,-31.738,0.000,0
160241.799,-11.230,-13.184,-27.344,-17.578,0.000,0
160241.803,-20.996,-20.996,-24.414,-6.348,0.000,0
160241.806,-41.992,-29.297,-43.945,-28.809,0.000,0
160241.810,-37.598,-25.391,-31.250,-53.223,0.000,0
160241.814,-34.668,-28.809,-34.668,-38.574,0.000,0
160241.818,-35.645,-26.855,-37.109,-32.715,0.000,0
160241.822,-32.227,-22.461,-36.133,-35.645,0.000,0
160241.826,-36.621,-26.367,-26.367,-46.875,0.000,0
160241.830,-35.645,-29.785,-22.949,-49.316,0.000,0
160241.834,-24.414,-27.344,-36.133,-48.828,0.000,0
160241.838,-29.785,-29.785,-51.758,-46.387,0.000,0
160241.842,-30.273,-32.227,-55.664,-23.926,0.000,0
160241.846,-27.344,-24.414,-17.578,-28.320,0.000,0
160241.849,-34.668,-21.973,-21.973,-46.387,0.000,0
160241.853,-27.344,-25.391,-57.617,-29.297,0.000,0
160241.857,-26.855,-28.809,-54.688,-12.207,0.000,0
160241.861,-25.391,-27.344,-36.133,-19.531,0.000,0
160241.865,-16.602,-30.273,-27.832,-43.457,0.000,0
160241.869,-28.320,-25.879,-37.109,-43.945,0.000,0
160241.873,-36.133,-23.438,-46.875,-35.156,0.000,0
160241.877,-39.551,-32.227,-41.016,-33.203,0.000,0
160241.881,-37.109,-29.297,-38.086,-29.785,0.000,0
160241.885,-24.902,-28.809,-29.297,-36.621,0.000,0
160241.888,-37.598,-35.156,-32.227,-28.809,0.000,0
160241.892,-36.133,-33.203,-43.457,-20.508,0.000,0
160241.896,-23.926,-29.297,-40.039,-32.227,0.000,0
160241.900,-23.438,-27.832,-32.227,-43.457,0.000,0
160241.904,-32.715,-28.809,-26.367,-51.758,0.000,0
160241.908,-39.551,-28.320,-37.598,-51.270,0.000,0
160241.912,-29.297,-26.367,-47.852,-41.016,0.000,0
160241.916,-26.367,-27.344,-33.691,-27.832,0.000,0
160241.920,-32.227,-31.738,-33.203,-20.020,0.000,0
160241.924,-34.180,-28.320,-25.391,-16.602,0.000,0
160241.928,-35.156,-22.949,-23.926,-25.391,0.000,0
160241.931,-36.133,-28.809,-33.691,-52.246,0.000,0
160241.935,-36.133,-26.855,-37.598,-52.734,0.000,0
160241.939,-31.250,-28.809,-53.711,-26.855,0.000,0
160241.943,-29.297,-38.574,-35.645,-23.438,0.000,0
160241.947,-30.273,-34.180,-25.391,-35.645,0.000,0
160241.951,-23.926,-31.250,-42.480,-35.156,0.000,0
160241.955,-19.531,-29.297,-41.016,-28.809,0.000,0
160241.959,-17.578,-24.902,-30.762,-20.020,0.000,0
160241.963,-19.043,-25.391,-16.602,-24.414,0.000,0
160241.967,-23.438,-25.391,-17.090,-35.645,0.000,0
160241.971,-25.879,-26.855,-28.809,-46.387,0.000,0
160241.974,-36.621,-25.879,-40.039,-28.809,0.000,0
160241.978,-45.898,-25.879,-34.668,2.441,0.000,0
160241.982,-25.391,-23.438,-35.645,-15.137,0.000,2
160241.986,-27.832,-23.438,-44.922,-25.391,0.000,0
160241.990,-35.156,-20.020,-42.969,-11.230,0.000,0
160241.994,-23.438,-19.531,-34.668,-23.438,0.000,0
160241.998,-18.555,-27.832,-38.086,-26.855,0.000,0
160242.002,-17.578,-28.320,-33.691,-20.996,0.000,0
160242.006,-26.855,-18.555,-26.855,-41.504,0.000,0
160242.010,-31.250,-20.508,-31.250,-41.992,0.000,0
160242.013,-25.879,-27.832,-37.598,-29.297,0.000,0
160242.017,-27.344,-27.832,-40.527,-21.484,0.000,0
160242.021,-41.504,-27.832,-30.762,-24.902,0.000,0
160242.025,-39.062,-23.926,-21.973,-26.367,0.000,0
160242.029,-29.297,-23.438,-51.270,-16.602,0.000,0
160242.033,-21.484,-25.391,-54.199,-25.879,0.000,0
160242.037,-21.484,-24.414,-25.879,-27.344,0.000,0
160242.041,-25.391,-26.855,-27.832,-23.438,0.000,0
160242.045,-22.461,-31.250,-36.621,-37.598,0.000,0
160242.049,-23.438,-31.250,-34.180,-37.109,0.000,0
160242.053,-35.156,-33.691,-37.598,-10.254,0.000,0
160242.056,-37.598,-33.691,-51.758,-8.301,0.000,0
160242.060,-40.527,-33.691,-44.434,-46.875,0.000,0
160242.064,-42.480,-33.691,-36.621,-41.504,0.000,0
160242.068,-34.180,-30.762,-47.363,-10.742,0.000,0
160242.072,-23.438,-28.320,-44.922,-18.066,0.000,0
160242.076,-21.484,-26.367,-43.945,-20.020,0.000,0
160242.080,-24.902,-30.273,-40.527,-14.160,0.000,0
160242.084,-35.645,-32.227,-19.531,-29.785,0.000,0
160242.088,-33.691,-32.227,-44.434,-28.809,0.000,0
160242.092,-20.996,-31.250,-63.477,-19.043,0.000,0
160242.096,-22.949,-33.691,-47.363,-15.137,0.000,0
160242.099,-28.320,-29.785,-27.832,-11.719,0.000,0
160242.103,-16.113,-25.391,-37.109,-37.598,0.000,0
160242.107,-18.066,-24.902,-48.340,-38.086,0.000,0
160242.111,-18.066,-19.043,-24.414,-3.906,0.000,0
160242.115,-8.789,-18.555,-14.160,2.930,0.000,0
160242.119,-24.902,-27.344,-37.598,-21.973,0.000,0
160242.123,-28.320,-34.668,-43.457,-37.109,0.000,0
160242.127,-20.020,-28.809,-22.461,-21.484,0.000,0
160242.131,-16.113,-22.949,-21.484,-8.301,0.000,0
160242.135,-19.531,-29.785,-38.086,-12.695,0.000,0
160242.138,-34.668,-34.180,-36.621,-24.414,0.000,0
160242.142,-34.668,-30.762,-15.625,-32.715,0.000,0
160242.146,-21.484,-28.809,-24.902,-37.109,0.000,0
160242.150,-24.414,-28.809,-48.340,-42.480,0.000,0
160242.154,-22.949,-30.762,-49.805,-21.484,0.000,0
160242.158,-9.766,-27.344,-35.156,-19.531,0.000,0
160242.162,-7.324,-23.926,-16.113,-31.738,0.000,0
160242.166,-17.578,-28.809,-27.344,-15.137,0.000,0
160242.170,-19.531,-30.273,-47.363,-26.855,0.000,0
160242.174,-25.879,-28.320,-21.484,-25.391,0.000,0
160242.178,-36.133,-31.738,-30.273,-8.789,0.000,0
160242.181,-30.273,-33.691,-41.504,-46.387,0.000,0
160242.185,-25.879,-32.715,-36.133,-45.410,0.000,0
160242.189,-25.391,-32.227,-34.668,-31.250,0.000,0
160242.193,-19.043,-28.809,-34.668,-27.344,0.000,0
160242.197,-24.414,-32.715,-37.109,-19.043,0.000,0
160242.201,-31.250,-34.668,-23.926,-37.598,0.000,0
160242.205,-28.320,-29.785,-41.016,-24.414,0.000,0
160242.209,-11.719,-28.320,-52.246,-11.719,0.000,0
160242.213,-14.648,-30.762,-50.293,-18.066,0.000,0
160242.217,-26.367,-32.227,-33.691,-1.953,0.000,0
160242.221,-30.762,-37.598,-22.949,-14.648,0.000,0
160242.224,-33.691,-42.969,-43.457,-30.762,0.000,0
160242.228,-29.785,-42.480,-41.016,-29.785,0.000,0
160242.232,-31.738,-37.598,-37.598,-21.484,0.000,0
160242.236,-40.039,-39.062,-43.945,-23.438,0.000,0
160242.240,-41.992,-42.969,-32.227,-44.434,0.000,0
160242.244,-37.109,-43.457,-40.039,-40.039,0.000,0
160242.248,-34.668,-42.480,-42.480,-41.992,0.000,0
160242.252,-38.086,-41.504,-40.039,-44.922,0.000,0
160242.256,-36.621,-34.668,-45.898,-35.156,0.000,0
160242.260,-32.715,-30.762,-35.645,-39.062,0.000,0
160242.263,-33.203,-30.273,-14.648,-38.574,0.000,0
160242.267,-33.203,-27.344,-33.691,-26.367,0.000,0
160242.271,-32.715,-31.250,-55.176,-23.926,0.000,0
160242.275,-19.531,-32.227,-41.992,-20.020,0.000,0
160242.279,-24.902,-28.809,-27.344,-37.598,0.000,0
160242.283,-42.480,-28.320,-45.410,-53.711,0.000,0
160242.287,-37.598,-33.691,-59.570,-41.016,0.000,0
160242.291,-37.598,-31.738,-44.922,-24.414,0.000,0
160242.295,-35.645,-25.879,-38.086,-18.555,0.000,0
160242.299,-28.320,-25.879,-37.109,-38.574,0.000,0
160242.303,-34.180,-24.414,-37.109,-38.574,0.000,0
160242.306,-29.785,-21.484,-36.133,-26.855,0.000,0
160242.310,-29.785,-22.461,-37.598,-30.273,0.000,0
160242.314,-29.297,-26.855,-41.992,-29.785,0.000,0
160242.318,-22.461,-25.879,-31.738,-30.762,0.000,0
160242.322,-23.926,-27.344,-32.227,-30.273,0.000,0
160242.326,-18.555,-32.715,-41.504,-22.949,0.000,0
160242.330,-13.184,-28.809,-47.363,-23.926,0.000,0
160242.334,-22.949,-24.902,-47.363,-25.391,0.000,0
160242.338,-29.785,-20.996,-23.438,-29.785,0.000,0
160242.342,-6.348,-18.555,-20.996,-29.297,0.000,0
160242.346,5.371,-26.367,-37.109,-19.531,0.000,0
160242.349,-36.621,-29.297,-35.645,-35.156,0.000,0
160242.353,-54.688,-25.879,-31.250,-45.410,0.000,0
160242.357,-24.902,-26.367,-35.645,-32.227,0.000,0
160242.361,-12.695,-25.879,-33.691,-24.902,0.000,0
160242.365,-27.344,-25.391,-36.621,-26.367,0.000,0
160242.369,-37.109,-22.461,-40.527,-36.133,0.000,0
160242.373,-31.738,-23.926,-44.922,-32.227,0.000,0
160242.377,-36.133,-33.203,-33.203,-32.227,0.000,0
160242.381,-37.598,-39.062,-17.578,-42.969,0.000,0
160242.385,-26.855,-35.156,-36.621,-28.809,0.000,0
160242.388,-19.531,-22.461,-47.852,-24.414,0.000,0
160242.392,-21.484,-22.461,-45.410,-12.695,0.000,0
160242.396,-33.691,-26.855,-16.602,-21.973,0.000,0
160242.400,-39.551,-26.855,-13.672,-53.223,0.000,0
160242.404,-33.691,-25.879,-41.016,-48.340,0.000,0
160242.408,-30.273,-20.020,-35.645,-25.391,0.000,0
160242.412,-21.973,-19.043,-26.367,-21.973,0.000,0
160242.416,-22.949,-21.484,-23.438,-18.066,0.000,0
160242.420,-23.926,-22.461,-27.344,-18.066,0.000,0
160242.424,-21.484,-24.414,-37.598,-30.273,0.000,0
160242.428,-25.879,-24.414,-25.391,-19.531,0.000,0
160242.431,-25.391,-24.414,-25.879,-10.254,0.000,0
160242.435,-18.555,-23.438,-28.809,-31.738,0.000,0
160242.439,-12.207,-21.973,-19.531,-35.645,0.000,0
160242.443,-22.461,-20.508,-19.531,-20.508,0.000,0
160242.447,-28.809,-19.531,-24.414,-0.488,0.000,0
160242.451,-29.785,-19.531,-46.387,2.441,0.000,0
160242.455,-29.785,-20.996,-39.062,-18.555,0.000,0
160242.459,-36.133,-27.832,-8.789,-34.668,0.000,0
160242.463,-40.527,-31.738,-34.180,-40.039,0.000,0
160242.467,-31.738,-24.414,-40.527,-36.133,0.000,0
160242.471,-15.137,-22.461,-34.668,-29.297,0.000,0
160242.474,-19.531,-29.297,-34.668,-17.578,0.000,0
160242.478,-33.203,-28.809,-18.066,-33.203,0.000,0
160242.482,-22.461,-28.809,-14.648,-45.410,0.000,0
160242.486,-25.879,-25.391,-31.250,-19.531,0.000,0
160242.490,-38.086,-25.391,-45.898,-16.602,0.000,0
160242.494,-35.156,-23.926,-38.574,-25.391,0.000,0
160242.498,-32.715,-20.020,-27.832,-44.434,0.000,0
160242.502,-31.738,-16.113,-17.578,-35.645,0.000,0
160242.506,-25.879,-14.648,-20.996,-27.344,0.000,0
160242.510,-16.113,-18.555,-37.598,-21.973,0.000,0
160242.513,-15.625,-19.043,-30.273,-17.090,0.000,0
160242.517,-25.879,-21.484,-7.324,-36.133,0.000,2
160242.521,-29.785,-26.855,-30.273,-27.832,0.000,0
160242.525,-34.180,-26.367,-55.176,-21.484,0.000,0
160242.529,-31.738,-22.461,-38.574,-27.832,0.000,0
160242.533,-25.391,-20.996,-21.973,-21.484,0.000,0
160242.537,-32.715,-21.484,-23.926,-31.738,0.000,0
160242.541,-31.250,-22.461,-35.156,-42.480,0.000,0
160242.545,-17.090,-26.855,-33.203,-37.598,0.000,0
160242.549,-33.203,-24.902,-19.043,-21.484,0.000,0
160242.553,-23.926,-18.555,-32.227,-23.438,0.000,0
160242.556,-5.371,-18.555,-20.996,-49.805,0.000,0
160242.560,-24.902,-17.578,-17.578,-40.039,0.000,0
160242.564,-20.020,-14.160,-29.785,-22.949,0.000,0
160242.568,-24.902,-18.066,-34.180,-35.156,0.000,0
160242.572,-36.133,-25.391,-34.668,-31.250,0.000,0
160242.576,-28.320,-26.367,-19.043,-44.922,0.000,0
160242.580,-32.715,-21.973,-22.949,-46.875,0.000,0
160242.584,-35.156,-20.020,-27.344,-27.344,0.000,0
160242.588,-28.809,-28.320,-34.668,-31.250,0.000,0
160242.592,-40.039,-29.785,-36.621,-35.156,0.000,0
160242.596,-32.227,-24.414,-20.020,-30.762,0.000,0
160242.599,-21.484,-32.715,-42.480,-33.691,0.000,0
160242.603,-29.297,-34.180,-51.758,-28.809,0.000,0
160242.607,-34.668,-33.691,-42.969,-23.926,0.000,0
160242.611,-20.508,-32.715,-46.387,-17.090,0.000,0
160242.615,-13.672,-25.391,-30.273,-25.391,0.000,0
160242.619,-29.297,-25.391,-24.902,-46.875,0.000,0
160242.623,-30.273,-28.320,-39.062,-28.320,0.000,0
160242.627,-19.043,-34.180,-38.574,-9.766,0.000,0
160242.631,-23.926,-36.133,-36.621,-17.578,0.000,0
160242.635,-25.391,-27.344,-27.832,-28.320,0.000,0
160242.638,-26.855,-20.996,-15.625,-33.203,0.000,0
160242.642,-31.250,-28.809,-37.109,-35.645,0.000,0
160242.646,-29.785,-32.715,-41.504,-37.109,0.000,0
160242.650,-36.621,-30.762,-31.738,-24.902,0.000,0
160242.654,-40.039,-34.668,-31.250,-25.879,0.000,0
160242.658,-27.832,-33.203,-26.855,-42.480,0.000,0
160242.662,-25.391,-28.809,-28.809,-31.738,0.000,0
160242.666,-35.156,-27.832,-23.438,-19.531,0.000,0
160242.670,-28.809,-26.855,-24.414,-23.926,0.000,0
160242.674,-22.949,-27.832,-26.367,-33.203,0.000,0
160242.678,-29.785,-27.344,-21.484,-36.133,0.000,0
160242.681,-32.227,-21.973,-16.602,-33.691,0.000,0
160242.685,-34.668,-21.484,-15.625,-39.062,0.000,0
160242.689,-25.391,-18.555,-35.156,-30.762,0.000,0
160242.693,-18.066,-21.973,-39.062,-29.785,0.000,0
160242.697,-31.250,-29.297,-29.785,-34.180,0.000,0
160242.701,-20.996,-24.902,-28.320,-7.324,0.000,0
160242.705,-20.020,-21.973,-36.621,-10.742,0.000,0
160242.709,-29.785,-21.484,-33.203,-25.879,0.000,0
160242.713,-27.344,-22.949,-19.043,-28.320,0.000,0
160242.717,-29.297,-26.367,-23.438,-41.504,0.000,0
160242.721,-16.113,-27.344,-30.762,-38.574,0.000,0
160242.724,-22.461,-27.832,-24.414,-29.785,0.000,0
160242.728,-41.992,-28.320,-20.508,-17.090,0.000,0
160242.732,-38.574,-27.344,-26.367,-20.508,0.000,0
160242.736,-29.785,-23.438,-25.391,-26.855,0.000,0
160242.740,-29.297,-22.949,-26.367,-3.906,0.000,0
160242.744,-21.484,-27.344,-29.785,-17.578,0.000,0
160242.748,-13.184,-28.809,-32.227,-37.598,0.000,0
160242.752,-29.785,-31.738,-27.832,-29.785,0.000,0
160242.756,-45.410,-34.668,-25.391,-47.852,0.000,0
160242.760,-37.598,-35.645,-36.621,-41.016,0.000,0
160242.763,-22.461,-30.273,-40.039,-16.602,0.000,0
160242.767,-31.250,-28.320,-43.457,-29.785,0.000,0
160242.771,-43.945,-31.738,-34.668,-31.738,0.000,0
160242.775,-32.715,-28.320,-24.414,-27.344,0.000,0
160242.779,-25.879,-24.414,-38.086,-34.180,0.000,0
160242.783,-36.133,-30.273,-35.645,-36.133,0.000,0
160242.787,-36.133,-30.273,-35.645,-20.508,0.000,0
160242.791,-29.297,-28.809,-41.016,-20.508,0.000,0
160242.795,-32.715,-32.715,-36.133,-32.715,0.000,0
160242.799,-32.715,-29.785,-40.039,-36.133,0.000,0
160242.803,-30.273,-31.738,-45.898,-24.902,0.000,0
160242.806,-29.297,-36.133,-46.875,-20.020,0.000,0
160242.810,-26.855,-36.133,-42.480,-35.156,0.000,0
160242.814,-29.785,-40.527,-32.715,-46.875,0.000,0
160242.818,-36.621,-43.457,-37.598,-47.852,0.000,0
160242.822,-33.691,-39.062,-54.199,-52.734,0.000,0
160242.826,-27.832,-38.086,-62.012,-39.551,0.000,0
160242.830,-32.227,-41.504,-47.363,-37.598,0.000,0
160242.834,-34.180,-38.086,-13.184,-48.340,0.000,0
160242.838,-15.625,-34.668,-34.180,-17.090,0.000,0
160242.842,-16.602,-37.109,-44.922,-8.301,0.000,0
160242.846,-28.809,-36.621,-32.227,-34.180,0.000,0
160242.849,-29.785,-37.109,-35.156,-42.480,0.000,0
160242.853,-27.832,-33.203,-25.391,-49.316,0.000,0
160242.857,-23.926,-27.344,-29.785,-38.574,0.000,0
160242.861,-31.738,-30.762,-32.227,-37.598,0.000,0
160242.865,-38.574,-34.180,-33.203,-26.367,0.000,0
160242.869,-26.855,-35.156,-48.828,-15.625,0.000,0
160242.873,-29.297,-35.156,-35.645,-46.875,0.000,0
160242.877,-31.738,-33.203,-15.625,-34.668,0.000,0
160242.881,-25.391,-32.715,-20.020,-19.531,0.000,0
160242.885,-23.438,-30.273,-37.109,-24.414,0.000,0
160242.888,-22.949,-29.297,-37.109,-14.648,0.000,0
160242.892,-22.461,-30.762,-15.137,-32.715,0.000,0
160242.896,-19.531,-29.297,-25.879,-34.180,0.000,0
160242.900,1.953,-26.855,-51.758,-20.020,0.000,0
160242.904,7.812,-29.297,-48.828,-10.254,0.000,0
160242.908,-17.090,-32.227,-37.598,-10.254,0.000,0
160242.912,-22.949,-30.762,-32.715,-23.926,0.000,0
160242.916,-19.043,-30.762,-37.109,-39.062,0.000,0
160242.920,-33.203,-26.367,-41.992,-36.133,0.000,0
160242.924,-38.086,-25.879,-37.109,-27.344,0.000,0
160242.928,-26.367,-24.902,-47.363,-18.555,0.000,0
160242.931,-23.438,-30.762,-40.527,-33.691,0.000,0
160242.935,-21.973,-33.691,-31.250,-28.809,0.000,0
160242.939,-13.184,-24.902,-30.762,-11.230,0.000,0
160242.943,-16.113,-23.926,-33.691,-13.184,0.000,0
160242.947,-19.043,-26.367,-45.410,-17.578,0.000,0
160242.951,-21.484,-26.367,-22.461,-27.832,0.000,0
160242.955,-26.855,-28.320,-20.996,-36.133,0.000,0
160242.959,-28.320,-29.297,-36.621,-29.297,0.000,0
160242.963,-31.738,-25.879,-37.109,-25.391,0.000,0
160242.967,-35.645,-24.414,-34.180,-37.598,0.000,0
160242.971,-34.668,-25.879,-22.461,-44.434,0.000,0
160242.974,-39.062,-21.484,-28.320,-39.551,0.000,0
160242.978,-45.898,-23.438,-43.457,-37.598,0.000,0
160242.982,-39.551,-24.902,-34.180,-28.320,0.000,0
160242.986,-26.855,-18.066,-27.832,-17.578,0.000,0
160242.990,-26.367,-20.508,-31.738,-35.645,0.000,0
160242.994,-33.691,-25.391,-23.438,-46.875,0.000,0
160242.998,-27.344,-23.926,-25.879,-37.598,0.000,0
160243.002,-1.465,-18.555,-30.762,-23.926,0.000,0
160243.006,6.836,-14.160,-37.598,-14.160,0.000,0
160243.010,-25.879,-25.879,-39.551,-27.832,0.000,0
160243.013,-53.223,-31.738,-22.949,-44.434,0.000,0
160243.017,-50.293,-31.250,-41.016,-46.387,0.000,0
160243.021,-33.691,-34.180,-54.199,-40.039,0.000,0
160243.025,-41.992,-36.621,-47.363,-38.086,0.000,0
160243.029,-56.152,-34.180,-44.922,-45.898,0.000,0
160243.033,-46.875,-32.715,-41.992,-47.363,0.000,0
160243.037,-46.387,-33.691,-56.641,-53.223,0.000,0
160243.041,-46.387,-37.109,-60.547,-39.062,0.000,0
160243.045,-39.551,-35.156,-47.363,-21.484,0.000,0
160243.049,-29.785,-35.156,-41.992,-29.297,0.000,0
160243.053,-23.926,-38.086,-35.645,-34.180,0.000,0
160243.056,-38.086,-27.832,-40.527,-25.391,0.000,0
160243.060,-41.016,-24.414,-41.992,-28.809,0.000,0
160243.064,-23.926,-26.367,-38.574,-28.809,0.000,0
160243.068,-21.973,-29.297,-30.273,-18.555,0.000,0
160243.072,-23.438,-29.785,-21.484,-26.855,0.000,0
160243.076,-6.348,-24.414,-26.367,-24.902,0.000,0
160243.080,-2.930,-28.809,-34.180,-12.207,0.000,0
160243.084,-24.414,-26.367,-35.645,-2.930,0.000,0
160243.088,-25.879,-25.391,-32.715,-13.184,0.000,0
160243.092,-23.438,-26.367,-29.297,-23.438,0.000,0
160243.096,-38.574,-28.320,-38.086,-18.555,0.000,0
160243.099,-43.457,-32.715,-31.250,-29.785,0.000,0
160243.103,-48.828,-28.809,-17.090,-34.180,0.000,0
160243.107,-38.574,-26.855,-36.133,-29.297,0.000,0
160243.111,-29.785,-24.414,-29.297,-43.457,0.000,0
160243.115,-37.598,-21.973,-29.785,-33.691,0.000,0
160243.119,-42.480,-25.879,-41.504,-19.043,0.000,0
160243.123,-42.480,-27.832,-48.828,-31.250,0.000,0
160243.127,-35.645,-24.902,-34.180,-46.875,0.000,0
160243.131,-34.180,-23.438,-13.672,-57.617,0.000,0
160243.135,-35.156,-24.414,-26.367,-48.828,0.000,0
160243.138,-36.133,-24.414,-29.785,-43.945,0.000,0
160243.142,-38.086,-22.461,-27.344,-33.203,0.000,0
160243.146,-36.133,-25.391,-19.043,-19.043,0.000,0
160243.150,-29.297,-23.438,-0.977,-26.367,0.000,0
160243.154,-22.461,-20.508,-20.508,-23.926,0.000,0
160243.158,-26.367,-24.414,-44.922,-30.762,0.000,0
160243.162,-25.879,-29.297,-35.645,-26.855,0.000,0
160243.166,-16.113,-33.691,-26.367,-16.602,0.000,0
160243.170,-31.738,-34.180,-22.949,-38.574,0.000,0
160243.174,-33.691,-27.832,-20.996,-43.945,0.000,0
160243.178,-25.391,-25.391,-18.555,-36.621,0.000,0
160243.181,-29.785,-27.344,-31.250,-27.344,0.000,0
160243.185,-19.043,-24.414,-33.691,-27.832,0.000,0
160243.189,-23.438,-27.832,-19.531,-38.574,0.000,0
160243.193,-30.762,-30.273,-27.344,-22.461,0.000,0
160243.197,-29.785,-27.344,-37.598,-21.973,0.000,0
160243.201,-28.320,-31.250,-41.992,-27.344,0.000,0
160243.205,-19.531,-34.668,-29.785,-19.043,0.000,0
160243.209,-24.414,-30.762,-3.906,-25.391,0.000,0
160243.213,-30.762,-30.273,-24.414,-42.969,0.000,0
160243.217,-25.391,-26.855,-37.109,-40.039,0.000,0
160243.221,-19.531,-19.043,-26.367,-15.625,0.000,0
160243.224,-20.020,-17.578,-14.648,-12.207,0.000,0
160243.228,-19.043,-20.996,-0.488,-38.086,0.000,0
160243.232,-20.508,-23.438,-19.043,-25.879,0.000,1
160243.236,-20.508,-19.043,-31.250,-14.160,0.000,0
160243.240,-20.020,-20.996,-34.668,-38.574,0.000,0
160243.244,-23.926,-23.438,-46.875,-37.109,0.000,0
160243.248,-12.207,-24.902,-34.180,-36.133,0.000,0
160243.252,-1.953,-18.066,-6.836,-35.645,0.000,0
160243.256,-6.348,-17.578,-10.742,-21.973,0.000,0
160243.260,-12.695,-26.855,-34.668,-8.301,0.000,0
160243.263,-8.301,-20.020,-23.438,-13.672,0.000,0
160243.267,-10.254,-16.602,-3.906,-26.855,0.000,0
160243.271,-12.207,-22.461,-22.949,-14.160,0.000,0
160243.275,-20.020,-27.832,-54.688,-24.414,0.000,0
160243.279,-23.438,-28.809,-47.363,-31.738,0.000,0
160243.283,-25.391,-22.949,-24.902,-16.602,0.000,0
160243.287,-35.156,-22.461,-22.949,-20.996,0.000,0
160243.291,-27.344,-22.949,-24.414,-30.273,0.000,0
160243.295,-11.230,-24.414,-29.785,-24.902,0.000,0
160243.299,-17.578,-23.926,-22.949,-10.254,0.000,0
160243.303,-29.785,-28.809,-26.367,-20.020,0.000,0
160243.306,-34.668,-29.297,-20.996,-32.227,0.000,0
160243.310,-36.133,-25.391,-27.344,-30.762,0.000,0
160243.314,-31.250,-29.297,-33.203,-32.227,0.000,0
160243.318,-31.738,-34.180,-40.527,-17.578,0.000,0
160243.322,-31.250,-30.273,-41.992,-19.531,0.000,0
160243.326,-22.949,-23.438,-19.531,-37.109,0.000,0
160243.330,-27.344,-26.367,-27.344,-27.832,0.000,0
160243.334,-34.668,-33.203,-48.340,-14.160,0.000,0
160243.338,-36.621,-30.762,-42.480,-24.902,0.000,0
160243.342,-22.461,-26.367,-18.555,-18.066,0.000,0
160243.346,-13.672,-28.320,-20.020,-16.113,0.000,0
160243.349,-28.320,-32.227,-39.062,-39.062,0.000,0
160243.353,-23.438,-33.691,-28.809,-37.598,0.000,0
160243.357,-27.832,-33.691,-27.344,-32.227,0.000,0
160243.361,-37.598,-34.180,-40.527,-30.762,0.000,0
160243.365,-24.414,-28.320,-24.414,-31.250,0.000,0
160243.369,-18.066,-31.250,-24.414,-33.203,0.000,0
160243.373,-26.855,-37.109,-38.574,-29.297,0.000,0
160243.377,-28.809,-36.133,-38.574,-16.602,0.000,0
160243.381,-24.414,-35.156,-36.133,-4.395,0.000,0
160243.385,-27.832,-30.762,-23.926,-30.762,0.000,0
160243.388,-29.785,-31.250,-37.109,-35.156,0.000,0
160243.392,-32.715,-38.574,-57.617,-41.504,0.000,0
160243.396,-28.320,-31.738,-49.805,-39.551,0.000,0
160243.400,-31.250,-25.391,-35.645,-11.719,0.000,0
160243.404,-37.598,-26.855,-18.066,-20.996,0.000,0
160243.408,-40.039,-24.414,-29.297,-36.621,0.000,0
160243.412,-28.809,-21.973,-47.363,-26.367,0.000,0
160243.416,-19.531,-28.320,-31.738,-26.367,0.000,0
160243.420,-32.715,-25.391,-32.227,-25.391,0.000,0
160243.424,-34.668,-18.555,-29.785,-32.227,0.000,0
160243.428,-35.156,-22.949,-22.461,-38.574,0.000,0
160243.431,-33.691,-24.902,-21.484,-26.855,0.000,0
160243.435,-23.926,-24.902,-38.086,-20.996,0.000,0
160243.439,-32.715,-27.344,-50.293,-19.043,0.000,0
160243.443,-37.109,-30.273,-28.809,-19.531,0.000,0
160243.447,-23.438,-28.320,-32.227,-22.949,0.000,0
160243.451,-12.207,-25.879,-53.711,-21.973,0.000,0
160243.455,-25.391,-27.344,-46.875,-32.227,0.000,0
160243.459,-34.180,-26.367,-24.902,-26.855,0.000,0
160243.463,-25.391,-25.879,-1.953,-29.297,0.000,0
160243.467,-20.508,-25.391,-13.184,-42.969,0.000,0
160243.471,-24.414,-26.855,-33.691,-29.785,0.000,0
160243.474,-19.043,-29.297,-27.832,-22.949,0.000,0
160243.478,-15.625,-33.203,-24.902,-22.461,0.000,0
160243.482,-22.461,-31.738,-25.391,-30.273,0.000,0
160243.486,-20.508,-30.762,-33.203,-39.062,0.000,0
160243.490,-18.555,-28.809,-34.180,-32.715,0.000,0
160243.494,-15.137,-26.367,-21.973,-19.043,0.000,0
160243.498,-13.672,-26.367,-31.738,-5.859,0.000,0
160243.502,-14.648,-25.391,-27.344,-22.461,0.000,0
160243.506,-8.789,-28.809,-24.902,-30.273,0.000,0
160243.510,-18.555,-32.715,-40.039,-23.438,0.000,0
160243.513,-16.113,-27.344,-51.758,-18.555,0.000,0
160243.517,-15.625,-31.738,-53.223,-22.949,0.000,0
160243.521,-38.086,-38.574,-36.621,-38.086,0.000,0
160243.525,-34.668,-32.715,-30.762,-38.086,0.000,0
160243.529,-20.020,-34.180,-43.457,-28.809,0.000,0
160243.533,-9.766,-40.527,-40.039,-6.836,0.000,0
160243.537,-19.043,-32.227,-31.250,-5.371,0.000,0
160243.541,-39.551,-27.832,-34.180,-40.527,0.000,0
160243.545,-46.387,-28.809,-31.738,-54.199,0.000,0
160243.549,-39.551,-25.879,-33.203,-34.180,0.000,0
160243.553,-29.785,-26.855,-36.133,-26.855,0.000,0
160243.556,-33.203,-26.367,-42.969,-32.227,0.000,0
160243.560,-27.344,-28.809,-27.832,-41.504,0.000,0
160243.564,-42.480,-29.297,-25.391,-61.523,0.000,0
160243.568,-51.270,-27.344,-45.898,-55.176,0.000,0
160243.572,-39.062,-27.344,-47.363,-35.156,0.000,0
160243.576,-40.039,-26.855,-56.152,-25.879,0.000,0
160243.580,-42.480,-29.785,-31.250,-39.062,0.000,0
160243.584,-41.504,-30.273,-19.531,-30.762,0.000,0
160243.588,-34.668,-22.461,-51.270,-14.160,0.000,0
160243.592,-31.738,-21.973,-39.062,-36.621,0.000,0
160243.596,-33.691,-25.391,-27.832,-42.969,0.000,0
160243.599,-30.762,-22.949,-29.785,-37.109,0.000,0
160243.603,-28.320,-27.832,-36.133,-51.270,0.000,0
160243.607,-36.621,-32.715,-41.504,-55.664,0.000,0
160243.611,-35.645,-30.762,-27.344,-42.969,0.000,0
160243.615,-31.738,-28.809,-41.504,-22.461,0.000,0
160243.619,-27.344,-30.273,-44.922,-27.832,0.000,0
160243.623,-28.320,-32.715,-27.344,-39.062,0.000,0
160243.627,-31.250,-27.344,-32.227,-33.691,0.000,0
160243.631,-24.902,-23.438,-32.715,-39.062,0.000,0
160243.635,-28.809,-23.438,-35.645,-31.250,0.000,0
160243.638,-28.809,-27.344,-32.227,-27.832,0.000,0
160243.642,-19.531,-27.344,-31.738,-28.809,0.000,0
160243.646,-15.137,-23.926,-35.645,-24.414,0.000,0
160243.650,-25.391,-24.902,-33.203,-28.320,0.000,0
160243.654,-36.133,-27.344,-36.621,-21.973,0.000,0
160243.658,-29.785,-26.855,-25.391,-22.949,0.000,0
160243.662,-21.484,-25.879,-22.461,-29.297,0.000,0
160243.666,-17.090,-28.809,-33.691,-26.855,0.000,0
160243.670,-35.156,-25.879,-24.902,-40.527,0.000,0
160243.674,-36.133,-23.438,-37.598,-25.879,0.000,0
160243.678,-25.391,-33.203,-38.574,-16.113,0.000,0
160243.681,-33.691,-38.086,-24.902,-38.574,0.000,0
160243.685,-39.551,-28.320,-37.109,-39.551,0.000,0
160243.689,-38.574,-27.344,-59.082,-21.973,0.000,0
160243.693,-34.180,-31.738,-55.664,-20.996,0.000,0
160243.697,-27.832,-25.391,-25.879,-24.902,0.000,0
160243.701,-28.809,-25.391,-18.066,-27.832,0.000,0
160243.705,-38.086,-26.855,-29.297,-27.832,0.000,0
160243.709,-43.945,-26.855,-28.809,-26.855,0.000,0
160243.713,-34.668,-25.879,-22.461,-29.297,0.000,0
160243.717,-40.527,-18.555,-29.297,-19.043,0.000,0
160243.721,-42.480,-19.531,-41.016,-29.785,0.000,0
160243.724,-28.320,-20.508,-31.250,-35.645,0.000,0
160243.728,-30.762,-17.090,-20.508,-24.902,0.000,0
160243.732,-27.832,-23.926,-32.227,-21.484,0.000,0
160243.736,-22.461,-25.879,-34.180,-20.996,0.000,0
160243.740,-33.691,-25.391,-12.207,-30.762,0.000,0
160243.744,-36.621,-26.367,-14.160,-36.621,0.000,0
160243.748,-32.715,-27.832,-28.320,-23.926,0.000,0
160243.752,-32.227,-29.785,-37.109,-15.625,0.000,0
160243.756,-39.062,-30.273,-20.020,-32.715,0.000,0
160243.760,-39.551,-29.297,-8.301,-37.109,0.000,0
160243.763,-32.715,-24.902,-38.574,-25.391,0.000,0
160243.767,-31.738,-23.926,-45.410,-30.762,0.000,0
160243.771,-32.715,-26.367,-37.109,-34.180,0.000,0
160243.775,-30.762,-27.832,-29.785,-26.367,0.000,0
160243.779,-35.645,-27.344,-24.902,-37.598,0.000,0
160243.783,-37.109,-21.484,-31.738,-37.109,0.000,0
160243.787,-34.180,-22.949,-28.320,-15.137,0.000,0
160243.791,-34.180,-25.879,-26.855,-18.066,0.000,0
160243.795,-30.273,-25.391,-23.926,-41.016,0.000,0
160243.799,-41.992,-27.344,-14.648,-55.176,0.000,0
160243.803,-45.410,-24.902,-22.949,-42.969,0.000,1
160243.806,-36.621,-28.809,-26.367,-46.875,0.000,0
160243.810,-28.809,-36.621,-41.016,-46.387,0.000,0
160243.814,-22.461,-41.016,-41.504,-39.551,0.000,0
160243.818,-39.551,-35.645,-9.277,-34.668,0.000,0
160243.822,-35.156,-32.227,-20.508,-26.855,0.000,0
160243.826,-27.832,-38.086,-42.969,-26.855,0.000,0
160243.830,-41.016,-37.598,-41.016,-27.344,0.000,0
160243.834,-36.621,-34.668,-31.738,-30.273,0.000,0
160243.838,-25.879,-39.551,-27.832,-48.828,0.000,0
160243.842,-30.762,-40.039,-40.039,-50.293,0.000,0
160243.846,-30.762,-38.574,-37.109,-33.203,0.000,0
160243.849,-32.715,-32.715,-34.180,-13.672,0.000,0
160243.853,-28.809,-35.645,-56.152,-17.090,0.000,0
160243.857,-25.879,-40.527,-43.457,-46.875,0.000,0
160243.861,-36.621,-33.203,-29.297,-31.250,0.000,0
160243.865,-30.273,-25.879,-29.785,-7.324,0.000,0
160243.869,-16.602,-21.484,-37.109,-20.020,0.000,0
160243.873,-14.648,-25.879,-33.203,-27.344,0.000,0
160243.877,-16.113,-26.855,-13.184,-31.738,0.000,0
160243.881,-18.555,-21.973,-21.973,-30.273,0.000,0
160243.885,-26.855,-28.320,-41.016,-36.133,0.000,0
160243.888,-17.578,-30.762,-48.828,-20.508,0.000,0
160243.892,-6.836,-26.855,-31.250,-4.395,0.000,0
160243.896,-27.832,-32.715,-30.273,-40.039,0.000,0
160243.900,-24.902,-32.227,-62.500,-38.574,0.000,0
160243.904,-22.949,-34.668,-48.828,-25.879,0.000,0
160243.908,-32.715,-29.297,-17.578,-24.902,0.000,0
160243.912,-21.973,-24.414,-22.461,-32.715,0.000,0
160243.916,-21.484,-29.297,-25.879,-59.082,0.000,0
160243.920,-24.902,-29.297,-36.621,-43.945,0.000,0
160243.924,-15.137,-28.320,-45.898,-30.762,0.000,0
160243.928,-13.184,-26.367,-42.969,-21.973,0.000,0
160243.931,-25.391,-28.809,-37.109,-30.273,0.000,0
160243.935,-26.367,-29.297,-25.879,-34.180,0.000,0
160243.939,-20.020,-24.902,-20.020,-14.160,0.000,0
160243.943,-18.555,-28.809,-17.090,-14.648,0.000,0
160243.947,-16.113,-25.391,-31.738,-16.602,0.000,0
160243.951,-20.020,-22.461,-26.855,-22.949,0.000,0
160243.955,-21.973,-27.832,-15.625,-31.250,0.000,0
160243.959,-11.230,-21.973,-30.273,-30.762,0.000,0
160243.963,-6.836,-19.531,-33.691,-23.926,0.000,0
160243.967,-16.113,-22.461,-35.645,-20.020,0.000,0
160243.971,-22.949,-20.508,-25.879,-18.555,0.000,0
160243.974,-16.602,-22.949,-17.578,-12.695,0.000,0
160243.978,-13.672,-26.367,-29.785,-26.855,0.000,0
160243.982,-18.066,-24.902,-40.039,-48.828,0.000,0
160243.986,-15.625,-24.902,-40.527,-30.273,0.000,0
160243.990,-8.301,-24.902,-36.621,0.488,0.000,0
160243.994,-11.719,-26.367,-28.809,0.000,0.000,0
160243.998,-15.625,-22.461,-25.879,-7.812,0.000,0
160244.002,-14.648,-19.043,-39.062,-3.418,0.000,0
160244.006,-19.531,-25.391,-42.969,-3.418,0.000,0
160244.010,-30.762,-26.855,-23.926,-6.348,0.000,0
160244.013,-32.227,-22.461,-18.555,-16.113,0.000,0
160244.017,-37.598,-30.762,-39.062,-35.645,0.000,0
160244.021,-41.992,-32.227,-48.828,-44.434,0.000,0
160244.025,-39.551,-35.645,-48.340,-36.133,0.000,0
160244.029,-36.621,-41.016,-41.504,-28.809,0.000,0
160244.033,-32.715,-39.551,-34.180,-37.598,0.000,0
160244.037,-37.598,-37.598,-33.203,-27.832,0.000,0
160244.041,-34.180,-30.273,-26.367,-17.578,0.000,0
160244.045,-28.809,-29.297,-29.297,-30.762,0.000,0
160244.049,-23.438,-33.691,-49.316,-34.180,0.000,0
160244.053,-17.090,-30.273,-39.551,-33.691,0.000,0
160244.056,-19.531,-28.320,-30.273,-33.691,0.000,0
160244.060,-33.203,-29.297,-34.668,-25.391,0.000,0
160244.064,-30.762,-29.297,-41.504,-18.555,0.000,0
160244.068,-24.902,-33.691,-44.434,-30.762,0.000,0
160244.072,-30.273,-30.273,-26.367,-49.805,0.000,0
160244.076,-26.367,-24.414,-26.855,-34.668,0.000,0
160244.080,-17.578,-22.461,-28.320,-9.277,0.000,0
160244.084,-21.484,-23.926,-21.973,-15.137,0.000,0
160244.088,-27.344,-30.273,-24.902,-20.996,0.000,0
160244.092,-18.555,-32.227,-20.996,-34.180,0.000,0
160244.096,-18.555,-30.273,-25.391,-43.457,0.000,0
160244.099,-25.879,-28.809,-33.203,-31.738,0.000,0
160244.103,-19.043,-27.832,-31.738,-21.484,0.000,0
160244.107,-22.949,-29.297,-40.527,-31.250,0.000,0
160244.111,-21.973,-28.809,-39.551,-36.133,0.000,0
160244.115,-24.414,-24.414,-37.109,-24.902,0.000,0
160244.119,-24.902,-26.367,-32.227,-23.926,0.000,0
160244.123,-7.324,-28.809,-41.504,-21.973,0.000,0
160244.127,-13.184,-28.809,-52.246,-28.320,0.000,0
160244.131,-31.738,-31.250,-20.508,-38.086,0.000,0
160244.135,-23.438,-30.762,-18.066,-36.133,0.000,0
160244.138,-18.066,-24.414,-38.086,-22.949,0.000,0
160244.142,-15.625,-23.926,-31.250,-19.531,0.000,0
160244.146,-18.555,-27.832,-31.738,-22.949,0.000,0
160244.150,-31.738,-35.645,-27.344,-37.598,0.000,0
160244.154,-34.668,-35.645,-23.438,-39.551,0.000,0
160244.158,-33.691,-30.762,-41.016,-41.016,0.000,0
160244.162,-33.691,-33.691,-37.598,-48.828,0.000,0
160244.166,-26.367,-35.156,-39.551,-23.438,0.000,0
160244.170,-20.508,-38.086,-32.227,-20.996,0.000,0
160244.174,-16.602,-35.156,-19.043,-35.645,0.000,0
160244.178,-20.996,-28.809,-28.809,-20.508,0.000,0
160244.181,-25.391,-31.250,-42.480,-26.855,0.000,0
160244.185,-13.672,-34.668,-57.129,-34.668,0.000,0
160244.189,-14.160,-36.133,-26.855,-33.691,0.000,0
160244.193,-27.344,-34.668,-5.859,-44.922,0.000,0
160244.197,-29.297,-36.621,-35.645,-42.480,0.000,0
160244.201,-22.949,-36.133,-43.457,-30.762,0.000,0
160244.205,-18.555,-25.879,-37.109,-11.230,0.000,0
160244.209,-12.207,-20.996,-23.438,-2.441,0.000,0
160244.213,-13.184,-24.414,-18.066,-22.949,0.000,0
160244.217,-17.578,-21.484,-39.062,-30.762,0.000,0
160244.221,-13.184,-20.508,-25.391,-24.414,0.000,0
160244.224,-15.625,-22.949,-14.160,-20.020,0.000,0
160244.228,-22.461,-22.949,-27.344,-8.301,0.000,0
160244.232,-15.137,-22.461,-36.621,-3.418,0.000,0
160244.236,-10.254,-24.414,-29.297,-18.555,0.000,0
160244.240,-15.625,-29.297,-15.137,-29.297,0.000,0
160244.244,-17.578,-33.691,-45.410,-24.902,0.000,0
160244.248,-24.902,-36.621,-43.457,-29.785,0.000,0
160244.252,-25.879,-33.203,-30.762,-32.227,0.000,0
160244.256,-20.020,-30.762,-44.922,-22.461,0.000,0
160244.260,-15.137,-34.668,-48.828,-15.137,0.000,0
160244.263,1.465,-26.855,-37.109,0.977,0.000,0
160244.267,-6.836,-22.949,-20.996,-6.348,0.000,0
160244.271,-40.039,-24.902,-28.320,-42.480,0.000,0
160244.275,-40.527,-25.879,-41.992,-52.246,0.000,0
160244.279,-40.527,-29.785,-42.480,-30.273,0.000,0
160244.283,-37.598,-29.785,-45.898,-20.020,0.000,0
160244.287,-33.203,-29.785,-44.922,-32.227,0.000,0
160244.291,-30.762,-27.344,-41.992,-32.715,0.000,0
160244.295,-23.926,-27.344,-41.992,-25.391,0.000,0
160244.299,-25.879,-30.762,-41.992,-35.645,0.000,0
160244.303,-23.438,-25.879,-40.039,-40.039,0.000,0
160244.306,-20.996,-22.949,-27.344,-45.410,0.000,0
160244.310,-24.902,-26.367,-24.902,-51.270,0.000,0
160244.314,-26.855,-28.809,-42.480,-36.621,0.000,0
160244.318,-37.109,-29.297,-40.039,-23.926,0.000,0
160244.322,-34.668,-31.250,-25.391,-39.551,0.000,0
160244.326,-39.062,-32.715,-21.973,-36.621,0.000,0
160244.330,-42.969,-30.762,-38.086,-36.621,0.000,0
160244.334,-27.832,-28.809,-53.223,-42.480,0.000,0
160244.338,-20.508,-25.391,-41.992,-37.598,0.000,0
160244.342,-28.320,-23.926,-31.738,-16.113,0.000,0
160244.346,-30.762,-26.367,-33.203,-9.277,0.000,0
160244.349,-36.621,-29.297,-38.574,-22.461,0.000,0
160244.353,-33.203,-28.320,-37.109,-17.578,0.000,0
160244.357,-29.297,-29.297,-35.156,-23.926,0.000,0
160244.361,-32.227,-31.738,-40.527,-37.109,0.000,0
160244.365,-35.645,-29.785,-32.227,-40.527,0.000,0
160244.369,-34.180,-28.320,-23.438,-42.480,0.000,0
160244.373,-33.203,-26.367,-30.273,-41.504,0.000,0
160244.377,-29.785,-22.461,-30.273,-32.715,0.000,0
160244.381,-29.297,-23.438,-35.156,-15.137,0.000,0
160244.385,-31.738,-28.320,-31.250,-17.090,0.000,0
160244.388,-31.250,-29.785,-25.391,-23.438,0.000,0
160244.392,-25.391,-31.738,-49.316,-16.602,0.000,0
160244.396,-28.320,-36.621,-55.664,-39.062,0.000,0
160244.400,-29.297,-34.180,-29.297,-34.180,0.000,0
160244.404,-23.438,-28.809,-20.996,-32.715,0.000,0
160244.408,-20.020,-30.273,-25.879,-50.781,0.000,0
160244.412,-35.645,-34.668,-31.738,-43.457,0.000,0
160244.416,-41.504,-29.785,-27.344,-28.320,0.000,0
160244.420,-35.156,-26.855,-39.062,-30.762,0.000,0
160244.424,-24.902,-35.645,-36.133,-47.363,0.000,0
160244.428,-15.137,-36.621,-15.625,-48.340,0.000,0
160244.431,-27.832,-27.832,-28.809,-36.621,0.000,0
160244.435,-34.180,-32.227,-41.504,-25.879,0.000,0
160244.439,-36.133,-31.250,-38.574,-21.484,0.000,0
160244.443,-33.203,-26.855,-34.668,-21.973,0.000,0
160244.447,-33.203,-26.367,-29.785,-33.691,0.000,0
160244.451,-31.250,-25.391,-42.969,-19.043,0.000,0
160244.455,-24.414,-29.785,-52.246,-11.230,0.000,0
160244.459,-28.320,-24.414,-30.273,-19.531,0.000,0
160244.463,-24.414,-20.020,-22.461,-20.508,0.000,0
160244.467,-11.719,-23.438,-30.762,-38.086,0.000,0
160244.471,-11.719,-21.973,-26.367,-40.039,0.000,0
160244.474,-17.090,-24.902,-17.578,-32.227,0.000,0
160244.478,-16.113,-24.902,-28.320,-27.832,0.000,0
160244.482,-23.438,-25.879,-41.992,-9.277,0.000,0
160244.486,-24.414,-33.203,-22.949,-22.461,0.000,0
160244.490,-18.555,-33.203,-19.043,-51.758,0.000,0
160244.494,-26.367,-31.250,-39.062,-42.480,0.000,0
160244.498,-29.297,-30.762,-47.363,-29.785,0.000,0
160244.502,-22.461,-27.832,-30.762,-27.344,0.000,0
160244.506,-16.113,-26.367,-9.766,-27.344,0.000,0
160244.510,-12.695,-23.926,-27.832,-17.578,0.000,0
160244.513,-18.066,-20.996,-39.551,-34.180,0.000,0
160244.517,-22.949,-20.508,-41.016,-29.785,0.000,0
160244.521,-25.879,-19.043,-26.855,-9.766,0.000,0
160244.525,-28.320,-26.855,-11.230,-40.527,0.000,1
160244.529,-22.949,-21.973,-30.762,-19.531,0.000,0
160244.533,-18.066,-16.113,-44.922,-4.883,0.000,0
160244.537,-24.902,-21.973,-27.832,-13.184,0.000,0
160244.541,-25.879,-25.391,-24.414,-7.812,0.000,0
160244.545,-21.484,-27.832,-16.113,-25.391,0.000,0
160244.549,-30.273,-23.926,-17.090,-27.832,0.000,0
160244.553,-29.297,-18.555,-28.320,-27.344,0.000,0
160244.556,-20.508,-21.973,-47.852,-26.855,0.000,0
160244.560,-31.738,-24.902,-52.246,-20.996,0.000,0
160244.564,-43.457,-24.902,-14.648,-27.344,0.000,0
160244.568,-41.992,-25.879,-18.555,-26.367,0.000,0
160244.572,-28.809,-25.391,-37.109,-20.508,0.000,0
160244.576,-25.879,-21.484,-27.832,-24.414,0.000,0
160244.580,-25.879,-20.020,-23.438,-21.484,0.000,0
160244.584,-14.648,-17.578,-17.578,-30.273,0.000,0
160244.588,-10.254,-16.113,-19.531,-28.320,0.000,0
160244.592,-15.137,-15.625,-20.996,-28.809,0.000,0
160244.596,-24.902,-21.973,-27.832,-29.785,0.000,0
160244.599,-34.668,-33.691,-40.527,-25.391,0.000,0
160244.603,-30.273,-35.645,-38.574,-37.598,0.000,0
160244.607,-17.090,-27.832,-36.621,-20.020,0.000,0
160244.611,-34.180,-23.926,-20.996,-13.672,0.000,0
160244.615,-26.367,-19.531,-29.785,-34.180,0.000,0
160244.619,-10.254,-16.113,-32.715,-26.855,0.000,0
160244.623,-22.461,-17.578,-16.113,-23.438,0.000,0
160244.627,-23.926,-20.996,-18.555,-36.621,0.000,0
160244.631,-13.184,-19.531,-32.715,-35.156,0.000,0
160244.635,-9.766,-20.508,-48.828,-25.879,0.000,0
160244.638,-21.973,-24.414,-43.945,-22.949,0.000,0
160244.642,-22.461,-20.996,-14.648,-20.508,0.000,0
160244.646,-28.809,-18.555,-14.160,-32.227,0.000,0
160244.650,-36.133,-22.949,-36.621,-41.016,0.000,0
160244.654,-28.809,-20.508,-25.879,-30.762,0.000,0
160244.658,-24.902,-18.066,-24.414,-12.207,0.000,0
160244.662,-29.785,-20.020,-40.039,-15.625,0.000,0
160244.666,-33.203,-16.602,-33.691,-33.691,0.000,0
160244.670,-30.273,-21.484,-31.738,-30.762,0.000,0
160244.674,-28.809,-24.902,-36.621,-26.367,0.000,0
160244.678,-18.066,-26.855,-41.016,-21.973,0.000,0
160244.681,-20.020,-32.227,-33.203,-34.668,0.000,0
160244.685,-40.527,-31.250,-32.715,-57.129,0.000,0
160244.689,-41.016,-26.855,-50.781,-54.688,0.000,0
160244.693,-27.832,-25.391,-50.293,-34.668,0.000,0
160244.697,-9.766,-27.344,-56.152,-17.090,0.000,0
160244.701,-21.973,-24.414,-33.691,-30.762,0.000,0
160244.705,-29.785,-23.438,-31.738,-38.086,0.000,0
160244.709,-17.090,-25.391,-43.457,-21.484,0.000,0
160244.713,-14.648,-21.484,-32.715,-26.367,0.000,0
160244.717,-23.438,-21.484,-37.109,-29.297,0.000,0
160244.721,-25.879,-30.273,-36.621,-30.762,0.000,0
160244.724,-23.926,-31.250,-32.227,-36.133,0.000,0
160244.728,-30.273,-28.320,-31.738,-30.273,0.000,0
160244.732,-31.738,-30.273,-39.062,-33.203,0.000,0
160244.736,-30.762,-37.598,-65.918,-26.367,0.000,0
160244.740,-33.691,-36.133,-49.805,-23.926,0.000,0
160244.744,-27.832,-30.273,-19.043,-34.668,0.000,0
160244.748,-28.809,-24.902,-37.598,-26.855,0.000,0
160244.752,-21.973,-26.855,-60.059,-24.902,0.000,0
160244.756,-24.902,-30.273,-48.828,-25.879,0.000,0
160244.760,-41.504,-32.227,-28.320,-25.879,0.000,0
160244.763,-39.551,-38.086,-34.180,-49.316,0.000,0
160244.767,-41.992,-34.180,-49.805,-54.688,0.000,0
160244.771,-44.922,-28.809,-38.086,-32.715,0.000,0
160244.775,-39.062,-29.785,-30.273,-20.508,0.000,0
160244.779,-37.109,-28.809,-34.180,-25.391,0.000,0
160244.783,-44.434,-27.344,-31.738,-47.363,0.000,0
160244.787,-37.598,-24.414,-31.250,-33.691,0.000,0
160244.791,-28.320,-29.297,-28.320,-25.391,0.000,0
160244.795,-22.949,-31.250,-39.551,-33.203,0.000,0
160244.799,-24.902,-26.855,-42.480,-33.691,0.000,0
160244.803,-32.715,-26.367,-19.043,-38.086,0.000,0
160244.806,-34.180,-32.227,-28.809,-31.738,0.000,0
160244.810,-23.926,-33.691,-47.852,-32.715,0.000,0
160244.814,-25.391,-28.809,-50.293,-30.762,0.000,0
160244.818,-30.273,-32.715,-37.109,-22.461,0.000,0
160244.822,-21.973,-35.156,-13.672,-19.531,0.000,0
160244.826,-28.809,-27.344,-19.531,-32.227,0.000,0
160244.830,-55.664,-26.855,-30.273,-67.383,0.000,0
160244.834,-46.875,-26.367,-23.438,-48.828,0.000,0
160244.838,-31.738,-24.414,-15.137,-13.184,0.000,0
160244.842,-33.691,-24.414,-21.484,-48.828,0.000,0
160244.846,-25.391,-28.809,-45.898,-54.199,0.000,0
160244.849,-25.391,-27.344,-41.992,-26.855,0.000,0
160244.853,-18.555,-31.250,-35.156,-24.902,0.000,0
160244.857,-12.207,-30.273,-32.227,-20.996,0.000,0
160244.861,-11.230,-27.344,-14.160,-26.367,0.000,0
160244.865,-16.113,-32.227,-29.785,-27.832,0.000,0
160244.869,-22.461,-30.273,-40.039,-22.461,0.000,0
160244.873,-21.973,-30.273,-44.922,-9.277,0.000,0
160244.877,-20.020,-28.809,-45.410,1.465,0.000,0
160244.881,-36.621,-32.715,-31.250,-20.508,0.000,0
160244.885,-40.039,-38.086,-39.551,-30.273,0.000,0
160244.888,-33.203,-36.133,-48.340,-27.344,0.000,0
160244.892,-37.598,-24.902,-22.949,-29.297,0.000,0
160244.896,-44.434,-26.367,-6.348,-32.715,0.000,0
160244.900,-30.762,-29.297,-18.066,-45.410,0.000,0
160244.904,-15.137,-20.508,-18.555,-36.621,0.000,0
160244.908,-21.973,-22.461,-15.137,-28.809,0.000,0
160244.912,-27.344,-22.949,-31.250,-21.973,0.000,0
160244.916,-24.414,-26.367,-29.785,-20.996,0.000,0
160244.920,-25.391,-25.879,-20.508,-22.949,0.000,0
160244.924,-22.949,-25.879,-32.227,-18.066,0.000,0
160244.928,-21.973,-27.832,-32.715,-19.043,0.000,0
160244.931,-23.438,-25.879,-44.922,-21.973,0.000,0
160244.935,-20.020,-28.809,-22.949,-29.297,0.000,0
160244.939,-20.020,-27.832,1.465,-26.855,0.000,0
160244.943,-12.695,-23.926,-32.715,-15.625,0.000,0
160244.947,-5.859,-27.832,-36.133,-10.254,0.000,0
160244.951,-14.160,-27.832,-26.855,-3.418,0.000,0
160244.955,-25.391,-23.438,-20.508,-20.996,0.000,0
160244.959,-25.879,-21.973,-20.508,-40.039,0.000,0
160244.963,-22.461,-20.996,-32.715,-27.832,0.000,0
160244.967,-22.949,-21.484,-25.879,-27.344,0.000,0
160244.971,-31.738,-22.461,-22.949,-30.762,0.000,0
160244.974,-25.879,-21.484,-25.879,-16.602,0.000,0
160244.978,-26.367,-24.414,-29.297,-24.902,0.000,0
160244.982,-38.086,-25.391,-25.391,-31.250,0.000,0
160244.986,-29.785,-20.508,-23.926,-10.742,0.000,0
160244.990,-17.090,-19.531,-43.945,-10.742,0.000,0
160244.994,-17.578,-22.461,-41.992,-21.484,0.000,0
160244.998,-21.973,-24.902,-30.762,-23.438,0.000,0
160245.002,-20.020,-18.066,-32.715,-26.367,0.000,0
160245.006,-15.137,-15.137,-31.738,-37.598,0.000,0
160245.010,-9.766,-18.066,-27.344,-23.438,0.000,0
160245.013,-20.020,-21.484,-31.738,-11.719,0.000,0
160245.017,-27.832,-23.926,-29.297,-34.180,0.000,0
160245.021,-21.973,-22.949,-29.297,-38.086,0.000,0
160245.025,-18.555,-22.461,-40.527,-21.484,0.000,0
160245.029,-17.090,-19.043,-30.762,-16.602,0.000,0
160245.033,-4.883,-21.973,-27.832,-24.414,0.000,0
160245.037,-14.160,-23.926,-26.367,-36.621,0.000,0
160245.041,-29.297,-21.973,-6.348,-41.504,0.000,0
160245.045,-23.926,-15.137,-12.207,-29.297,0.000,0
160245.049,-25.879,-18.066,-43.945,-9.766,0.000,0
160245.053,-26.367,-20.996,-37.598,-8.301,0.000,0
160245.056,-20.508,-14.648,-15.625,-18.555,0.000,0
160245.060,-17.578,-16.602,-13.672,-8.301,0.000,0
160245.064,-20.996,-18.555,-20.020,0.000,0.000,0
160245.068,-31.250,-15.625,-20.996,-17.090,0.000,0
160245.072,-31.250,-19.043,-11.719,-14.648,0.000,0
160245.076,-28.809,-25.391,-12.695,-20.996,0.000,0
160245.080,-15.625,-25.391,-38.086,-20.996,0.000,0
160245.084,-14.648,-23.438,-36.133,-3.906,0.000,0
160245.088,-31.250,-23.926,-39.551,-8.789,0.000,0
160245.092,-20.996,-27.832,-47.852,-20.996,0.000,0
160245.096,-14.160,-29.785,-36.621,-37.109,0.000,0
160245.099,-27.344,-30.762,-36.621,-36.621,0.000,0
160245.103,-27.344,-28.320,-36.621,-25.879,0.000,0
160245.107,-19.043,-29.785,-35.645,-28.320,0.000,0
160245.111,-32.715,-33.691,-46.875,-27.832,0.000,0
160245.115,-36.621,-36.621,-33.691,-36.621,0.000,0
160245.119,-26.855,-33.203,-20.508,-49.805,0.000,0
160245.123,-18.555,-27.832,-39.062,-39.551,0.000,0
160245.127,-22.949,-40.039,-55.176,-29.297,0.000,0
160245.131,-25.879,-36.621,-47.852,-28.809,0.000,0
160245.135,-20.020,-25.391,-21.973,-32.227,0.000,0
160245.138,-16.602,-30.273,-29.297,-23.438,0.000,0
160245.142,-11.719,-32.715,-39.062,-11.230,0.000,0
160245.146,-15.137,-29.297,-23.926,-13.184,0.000,1
160245.150,-25.879,-30.762,-40.039,-11.230,0.000,0
160245.154,-25.879,-35.645,-37.109,-30.273,0.000,0
160245.158,-26.367,-33.203,-20.996,-52.734,0.000,0
160245.162,-26.367,-29.297,-33.691,-36.133,0.000,0
160245.166,-20.020,-26.855,-44.922,-20.508,0.000,0
160245.170,-17.090,-25.391,-51.758,-27.344,0.000,0
160245.174,-25.879,-31.250,-37.109,-40.039,0.000,0
160245.178,-34.180,-29.785,-13.672,-45.898,0.000,0
160245.181,-22.461,-20.508,-22.461,-37.109,0.000,0
160245.185,-20.996,-23.438,-32.227,-36.133,0.000,0
160245.189,-32.227,-22.461,-29.785,-17.578,0.000,0
160245.193,-25.879,-20.020,-23.438,-28.809,0.000,0
160245.197,-14.648,-22.949,-25.879,-37.109,0.000,0
160245.201,-22.461,-25.391,-41.016,-19.531,0.000,0
160245.205,-26.367,-28.809,-34.668,-29.785,0.000,0
160245.209,-23.926,-27.344,-30.762,-20.508,0.000,0
160245.213,-37.109,-28.320,-36.621,-28.809,0.000,0
160245.217,-35.645,-29.297,-36.133,-47.852,0.000,0
160245.221,-27.344,-23.438,-28.809,-34.180,0.000,0
160245.224,-28.809,-19.043,-29.785,-27.832,0.000,0
160245.228,-25.879,-21.973,-53.711,-20.020,0.000,0
160245.232,-18.555,-30.273,-42.480,-28.320,0.000,0
160245.236,-10.254,-30.762,-16.113,-40.039,0.000,0
160245.240,-15.137,-29.297,-32.715,-26.367,0.000,0
160245.244,-29.785,-34.668,-40.527,-24.902,0.000,0
160245.248,-31.738,-31.738,-27.344,-25.879,0.000,0
160245.252,-33.691,-29.297,-27.344,-11.230,0.000,0
160245.256,-30.762,-32.227,-27.344,-13.672,0.000,0
160245.260,-25.391,-26.855,-24.902,-16.113,0.000,0
160245.263,-33.691,-25.879,-44.922,-26.855,0.000,0
160245.267,-42.969,-29.785,-41.992,-27.344,0.000,0
160245.271,-38.574,-29.785,-20.508,-28.320,0.000,0
160245.275,-29.297,-26.855,-23.926,-26.855,0.000,0
160245.279,-28.809,-27.832,-38.086,-11.719,0.000,0
160245.283,-35.156,-29.785,-45.898,-29.785,0.000,0
160245.287,-30.273,-25.879,-44.922,-26.855,0.000,0
160245.291,-26.367,-28.809,-40.039,-19.531,0.000,0
160245.295,-34.668,-30.273,-37.109,-44.434,0.000,0
160245.299,-37.109,-24.414,-40.039,-46.387,0.000,0
160245.303,-32.715,-24.902,-32.227,-29.785,0.000,0
160245.306,-31.738,-28.809,-48.828,-24.902,0.000,0
160245.310,-24.414,-34.180,-50.781,-28.809,0.000,0
160245.314,-26.855,-35.645,-25.391,-43.457,0.000,0
160245.318,-42.480,-31.738,-38.086,-50.781,0.000,0
160245.322,-38.574,-33.691,-48.828,-40.039,0.000,0
160245.326,-29.785,-31.738,-40.039,-27.344,0.000,0
160245.330,-28.809,-20.020,-39.062,-15.625,0.000,0
160245.334,-31.250,-23.926,-34.668,-23.438,0.000,0
160245.338,-29.785,-30.762,-32.715,-34.668,0.000,0
160245.342,-21.973,-23.438,-33.203,-28.809,0.000,0
160245.346,-24.414,-22.461,-30.762,-19.043,0.000,0
160245.349,-32.715,-24.902,-28.320,-12.207,0.000,0
160245.353,-26.855,-23.438,-23.438,-35.645,0.000,0
160245.357,-22.461,-21.484,-21.973,-41.992,0.000,0
160245.361,-24.902,-18.555,-23.926,-32.715,0.000,0
160245.365,-15.625,-17.578,-32.715,-30.762,0.000,0
160245.369,-12.207,-18.066,-28.809,-19.531,0.000,0
160245.373,-18.555,-20.508,-16.602,-36.621,0.000,0
160245.377,-26.855,-24.414,-25.391,-33.691,0.000,0
160245.381,-24.902,-27.344,-40.039,-13.672,0.000,0
160245.385,-20.020,-27.344,-33.691,-14.648,0.000,0
160245.388,-25.879,-26.855,-25.391,-19.043,0.000,0
160245.392,-24.414,-23.926,-17.578,-29.785,0.000,0
160245.396,-22.949,-21.973,-26.855,-33.691,0.000,0
160245.400,-29.785,-25.879,-31.250,-39.551,0.000,0
160245.404,-26.855,-24.414,-19.043,-24.902,0.000,0
160245.408,-17.090,-24.414,-34.180,-13.184,0.000,0
160245.412,-17.090,-26.367,-35.645,-30.273,0.000,0
160245.416,-22.461,-22.949,-24.902,-25.391,0.000,0
160245.420,-25.879,-29.297,-30.273,-20.996,0.000,0
160245.424,-25.391,-33.203,-35.156,-36.133,0.000,0
160245.428,-33.203,-29.785,-36.133,-25.391,0.000,0
160245.431,-29.297,-30.273,-25.391,-30.762,0.000,0
160245.435,-26.855,-26.855,-29.297,-44.434,0.000,0
160245.439,-38.086,-27.832,-39.062,-39.551,0.000,0
160245.443,-39.062,-26.855,-40.527,-30.762,0.000,0
160245.447,-43.945,-23.438,-43.457,-22.461,0.000,0
160245.451,-38.574,-26.367,-27.344,-30.273,0.000,0
160245.455,-27.344,-23.926,-27.832,-31.738,0.000,0
160245.459,-24.902,-21.484,-35.645,-28.320,0.000,0
160245.463,-23.926,-19.043,-37.598,-25.879,0.000,0
160245.467,-34.180,-25.391,-46.387,-20.020,0.000,0
160245.471,-32.227,-34.180,-33.691,-29.297,0.000,0
160245.474,-24.414,-29.785,-19.531,-37.109,0.000,0
160245.478,-33.691,-24.902,-31.738,-26.367,0.000,0
160245.482,-30.762,-26.367,-40.039,-18.555,0.000,0
160245.486,-26.855,-26.367,-38.086,-18.555,0.000,0
