timestamps,TP9,AF7,AF8,TP10,Right AUX,Marker0
159980.205,-26.855,-36.621,-42.969,-3.906,0.000,0
159980.209,-34.668,-37.598,-11.719,-37.598,0.000,0
159980.213,-34.180,-35.156,-11.719,-41.992,0.000,0
159980.217,-24.902,-36.621,-42.969,-23.926,0.000,0
159980.221,-31.250,-39.062,-53.711,-23.926,0.000,0
159980.224,-35.645,-35.645,-26.855,-0.977,0.000,0
159980.228,-25.879,-36.133,41.992,-26.855,0.000,0
159980.232,-24.414,-36.621,-0.488,-33.203,0.000,0
159980.236,-20.996,-33.203,-66.406,-36.133,0.000,0
159980.240,-15.137,-32.227,-28.320,-32.715,0.000,0
159980.244,-17.578,-28.809,-20.996,9.766,0.000,0
159980.248,-18.555,-27.832,-30.762,-12.695,0.000,0
159980.252,-15.625,-29.785,-38.086,-44.922,0.000,0
159980.256,-9.277,-28.809,-31.738,-11.719,0.000,0
159980.260,-8.789,-33.691,-22.949,4.395,0.000,0
159980.263,-15.137,-33.691,-46.875,-20.508,0.000,0
159980.267,-22.949,-32.227,-30.273,-28.320,0.000,0
159980.271,-26.855,-30.762,-20.020,-28.809,0.000,0
159980.275,-15.625,-24.414,-28.809,-42.480,0.000,0
159980.279,-13.184,-25.391,-53.223,-10.254,0.000,0
159980.283,-14.648,-33.691,-101.562,10.742,0.000,0
159980.287,-22.949,-36.621,-32.715,-31.250,0.000,0
159980.291,-32.715,-28.320,8.789,-32.715,0.000,0
159980.295,-32.227,-28.320,-59.570,-10.254,0.000,0
159980.299,-34.180,-29.297,-58.594,0.977,0.000,0
159980.303,-27.344,-26.855,-51.270,-18.555,0.000,0
159980.306,-28.320,-28.320,-40.039,-36.133,0.000,0
159980.310,-30.762,-27.344,-46.875,-40.039,0.000,0
159980.314,-22.949,-25.391,-50.781,-41.016,0.000,0
159980.318,-24.414,-25.879,-49.316,-16.602,0.000,0
159980.322,-26.855,-28.809,-69.336,-11.230,0.000,0
159980.326,-15.625,-33.203,-35.645,-32.715,0.000,0
159980.330,-22.949,-37.598,-27.344,-25.879,0.000,0
159980.334,-27.344,-32.715,-58.594,-10.742,0.000,0
159980.338,-23.438,-28.320,-81.055,-5.371,0.000,0
159980.342,-26.855,-29.297,-55.176,-14.160,0.000,0
159980.346,-21.484,-28.320,-12.207,-29.297,0.000,0
159980.349,-19.531,-23.926,-44.922,-32.227,0.000,0
159980.353,-17.578,-24.902,-63.965,-32.227,0.000,0
159980.357,-15.625,-26.855,-54.688,-8.789,0.000,0
159980.361,-16.602,-24.902,-37.598,-11.230,0.000,0
159980.365,-26.367,-28.809,-28.320,-32.715,0.000,0
159980.369,-29.297,-27.832,-64.453,-9.277,0.000,0
159980.373,-20.020,-27.832,-83.008,-1.953,0.000,0
159980.377,-33.203,-26.855,-18.066,2.930,0.000,0
159980.381,-31.738,-29.297,-28.809,-18.555,0.000,0
159980.385,-19.043,-35.156,-38.574,-53.223,0.000,0
159980.388,-21.973,-29.785,-28.809,-37.109,0.000,0
159980.392,-23.438,-30.762,-53.223,-30.273,0.000,0
159980.396,-9.766,-31.738,-77.148,-26.367,0.000,0
159980.400,-4.395,-27.344,-70.801,-8.789,0.000,0
159980.404,-6.836,-28.320,-15.137,-45.898,0.000,0
159980.408,0.000,-25.879,-23.926,-45.410,0.000,0
159980.412,-6.836,-25.879,-49.316,-14.160,0.000,0
159980.416,-12.207,-21.973,-82.520,-26.855,0.000,0
159980.420,-13.672,-24.414,-81.055,-19.043,0.000,0
159980.424,-22.461,-37.109,1.953,-16.602,0.000,0
159980.428,-20.020,-34.180,-39.551,-32.227,0.000,0
159980.431,-20.508,-25.879,-61.035,-40.039,0.000,0
159980.435,-21.973,-23.438,-47.363,-23.438,0.000,0
159980.439,-19.531,-22.461,-64.453,-16.602,0.000,0
159980.443,-19.043,-21.973,-24.902,-33.691,0.000,0
159980.447,-27.832,-22.461,-35.156,-42.480,0.000,0
159980.451,-30.273,-20.996,-45.898,-46.387,0.000,0
159980.455,-25.391,-19.531,-50.781,-35.156,0.000,0
159980.459,-25.879,-22.949,-86.914,8.789,0.000,0
159980.463,-32.715,-25.879,-72.266,-20.996,0.000,0
159980.467,-44.922,-26.855,-39.551,-44.922,0.000,0
159980.471,-37.109,-25.391,-61.523,-12.695,0.000,0
159980.474,-28.809,-21.973,-81.055,-19.531,0.000,0
159980.478,-38.574,-25.879,-69.824,-26.855,0.000,0
159980.482,-40.039,-29.297,-49.316,-33.203,0.000,0
159980.486,-41.992,-28.809,-59.082,-55.176,0.000,0
159980.490,-37.109,-29.785,-73.242,-41.992,0.000,0
159980.494,-27.832,-31.250,-63.477,-19.531,0.000,0
159980.498,-37.598,-27.832,-82.031,-19.531,0.000,0
159980.502,-27.832,-27.344,-65.918,-61.035,0.000,0
159980.506,-23.438,-28.320,-41.504,-66.406,0.000,0
159980.510,-30.273,-26.367,-57.129,-17.090,0.000,0
159980.513,-27.344,-23.926,-48.340,-8.301,0.000,0
159980.517,-28.809,-26.855,-70.312,-22.949,0.000,0
159980.521,-26.367,-32.227,-60.547,-34.180,0.000,0
159980.525,-19.531,-26.855,-26.855,-52.246,0.000,0
159980.529,-16.602,-21.484,-48.828,-38.574,0.000,0
159980.533,-26.855,-30.273,-69.824,-21.973,0.000,0
159980.537,-28.320,-28.809,-54.688,-22.461,0.000,0
159980.541,-24.902,-26.855,-36.133,-4.883,0.000,0
159980.545,-28.809,-32.715,-48.828,-16.113,0.000,0
159980.549,-31.738,-31.738,-76.660,-32.715,0.000,0
159980.553,-27.832,-30.273,-59.082,-24.902,0.000,0
159980.556,-24.414,-31.250,-23.926,-19.531,0.000,0
159980.560,-30.273,-29.297,-37.109,-45.410,0.000,0
159980.564,-37.598,-31.738,-56.152,-73.730,0.000,0
159980.568,-34.668,-31.250,-70.801,-64.453,0.000,0
159980.572,-24.902,-26.367,-68.848,-34.180,0.000,0
159980.576,-22.461,-25.391,-65.918,-3.418,0.000,0
159980.580,-22.949,-25.879,-65.430,-19.043,0.000,0
159980.584,-21.484,-21.973,-46.387,-50.293,0.000,0
159980.588,-23.926,-27.344,-50.293,-48.828,0.000,0
159980.592,-33.203,-38.574,-51.758,-63.477,0.000,0
159980.596,-32.227,-32.715,-61.035,-37.598,0.000,0
159980.599,-34.668,-28.320,-55.664,-12.207,0.000,0
159980.603,-43.457,-30.762,-14.160,-32.227,0.000,0
159980.607,-33.691,-25.391,-49.805,-36.133,0.000,0
159980.611,-20.996,-21.973,-74.707,-24.902,0.000,0
159980.615,-33.691,-26.367,-65.918,-45.898,0.000,0
159980.619,-54.688,-32.715,-57.129,-72.754,0.000,0
159980.623,-42.969,-32.715,-25.391,-51.758,0.000,0
159980.627,-23.926,-28.320,-40.039,-28.809,0.000,0
159980.631,-32.715,-24.414,-62.012,-16.113,0.000,0
159980.635,-39.551,-26.367,-61.035,-13.672,0.000,0
159980.638,-38.086,-34.180,-58.594,-23.438,0.000,0
159980.642,-37.598,-38.086,-57.129,-38.574,0.000,0
159980.646,-37.598,-35.156,-50.293,-29.297,0.000,0
159980.650,-37.109,-33.691,-88.379,-18.555,0.000,0
159980.654,-37.109,-33.691,-102.051,-27.344,0.000,0
159980.658,-37.598,-33.691,-50.781,-27.832,0.000,0
159980.662,-38.086,-41.016,-1.465,-60.547,0.000,0
159980.666,-28.809,-32.227,-35.156,-58.105,0.000,0
159980.670,-21.484,-25.879,-43.945,-27.832,0.000,0
159980.674,-30.273,-29.785,-40.039,-10.254,0.000,0
159980.678,-41.016,-34.180,-36.621,-26.855,0.000,0
159980.681,-46.875,-40.039,-3.418,-50.781,0.000,0
159980.685,-34.180,-29.785,-34.180,-22.949,0.000,0
159980.689,-9.766,-25.879,-67.871,-16.602,0.000,0
159980.693,0.977,-30.762,-36.133,-9.766,0.000,0
159980.697,6.836,-27.832,-37.598,-3.906,0.000,0
159980.701,-21.484,-29.785,-41.504,-61.035,0.000,0
159980.705,-49.805,-29.785,-18.066,-85.938,0.000,0
159980.709,-38.086,-30.762,-1.465,-43.457,0.000,0
159980.713,-20.020,-32.227,-60.059,-12.695,0.000,0
159980.717,-23.926,-25.391,-61.035,-31.738,0.000,0
159980.721,-41.504,-31.250,14.648,-57.617,0.000,0
159980.724,-36.621,-36.621,-18.066,-35.645,0.000,0
159980.728,-22.949,-37.598,-57.129,-8.301,0.000,0
159980.732,-14.160,-34.180,-43.457,-6.348,0.000,0
159980.736,-15.625,-31.738,-23.926,-18.066,0.000,0
159980.740,-18.066,-30.762,-9.766,-32.227,0.000,0
159980.744,-20.508,-29.785,-41.016,-26.367,0.000,0
159980.748,-29.297,-34.180,-23.926,-41.992,0.000,0
159980.752,-22.949,-29.785,-35.156,-48.828,0.000,0
159980.756,-21.973,-36.621,-66.406,-43.945,0.000,0
159980.760,-30.762,-42.969,-43.457,-62.500,0.000,0
159980.763,-13.672,-33.691,-60.059,-34.668,0.000,0
159980.767,-10.254,-32.227,-51.758,-47.852,0.000,0
159980.771,-20.508,-29.785,-51.758,-53.223,0.000,0
159980.775,-17.578,-28.809,-45.410,-27.344,0.000,0
159980.779,-25.391,-30.762,-25.879,-59.082,0.000,0
159980.783,-31.250,-29.297,-47.852,-50.781,0.000,0
159980.787,-39.062,-34.180,-48.340,-34.668,0.000,0
159980.791,-30.273,-32.715,-66.406,-23.926,0.000,0
159980.795,-26.367,-28.809,-38.574,-9.766,0.000,0
159980.799,-34.668,-28.809,-11.230,-40.527,0.000,0
159980.803,-35.645,-28.809,-69.824,-55.176,0.000,0
159980.806,-39.062,-29.297,-66.406,-46.875,0.000,0
159980.810,-29.785,-29.297,-41.016,-40.039,0.000,0
159980.814,-29.785,-29.297,-51.758,-29.297,0.000,0
159980.818,-39.062,-30.762,-34.180,-33.203,0.000,0
159980.822,-33.203,-30.762,-24.414,-14.160,0.000,0
159980.826,-27.832,-27.832,-40.039,2.930,0.000,0
159980.830,-24.902,-29.785,-62.500,-31.738,0.000,0
159980.834,-30.273,-32.715,-45.898,-41.992,0.000,0
159980.838,-19.531,-27.832,-7.324,-20.508,0.000,0
159980.842,-21.484,-25.391,-15.137,-27.344,0.000,0
159980.846,-25.391,-30.273,-66.406,-26.855,0.000,0
159980.849,-18.066,-37.109,-49.805,-38.574,0.000,0
159980.853,-34.180,-33.691,-25.879,-52.246,0.000,0
159980.857,-28.320,-25.879,-23.926,-27.344,0.000,0
159980.861,-6.836,-24.414,-45.410,-16.113,0.000,0
159980.865,-4.395,-23.926,-92.285,-11.719,0.000,0
159980.869,-12.695,-25.391,-52.246,-9.766,0.000,0
159980.873,-13.184,-25.879,-19.043,-8.301,0.000,0
159980.877,-13.184,-23.926,-15.625,-41.016,0.000,0
159980.881,-26.855,-22.461,-29.297,-55.176,0.000,0
159980.885,-32.715,-22.949,-25.879,-34.180,0.000,0
159980.888,-22.461,-23.438,-32.715,-9.766,0.000,0
159980.892,-8.789,-23.438,-57.617,-15.625,0.000,0
159980.896,-19.531,-26.855,-40.039,-40.527,0.000,0
159980.900,-31.250,-26.367,-51.270,-12.207,0.000,0
159980.904,-16.602,-24.414,-59.570,-1.465,0.000,0
159980.908,-19.531,-26.855,-55.664,-36.133,0.000,0
159980.912,-33.691,-30.762,-52.734,-26.855,0.000,0
159980.916,-38.574,-30.273,-26.855,-31.250,0.000,0
159980.920,-34.668,-26.855,-34.180,-68.359,0.000,0
159980.924,-29.785,-26.855,-65.430,-33.203,0.000,0
159980.928,-42.480,-27.344,-51.758,-16.113,0.000,0
159980.931,-46.875,-29.297,-58.105,-37.109,0.000,0
159980.935,-34.180,-30.273,-62.500,-33.203,0.000,0
159980.939,-42.480,-32.227,-61.523,-43.457,0.000,0
159980.943,-45.410,-35.645,-51.270,-28.320,0.000,0
159980.947,-27.344,-33.691,-58.105,-19.043,0.000,0
159980.951,-26.855,-35.645,-64.941,-28.809,0.000,0
159980.955,-28.320,-34.668,-19.043,-38.086,0.000,0
159980.959,-28.809,-35.645,27.832,-88.379,0.000,0
159980.963,-28.809,-30.273,-38.574,-43.945,0.000,0
159980.967,-28.809,-26.855,-118.164,2.441,0.000,0
159980.971,-31.250,-33.203,-74.707,-28.809,0.000,0
159980.974,-35.645,-33.203,-22.461,-23.438,0.000,0
159980.978,-40.039,-30.273,-23.926,-26.855,0.000,0
159980.982,-42.969,-30.273,-62.500,-41.992,0.000,0
159980.986,-35.156,-32.227,-76.660,-44.434,0.000,0
159980.990,-31.250,-32.227,-57.129,-11.230,0.000,0
159980.994,-26.367,-31.250,-24.902,-40.527,0.000,0
159980.998,-20.996,-29.785,-37.109,-54.688,0.000,0
159981.002,-27.832,-29.297,-54.199,-15.625,0.000,0
159981.006,-27.344,-30.762,-41.016,-36.133,0.000,0
159981.010,-25.879,-31.738,-58.105,-34.180,0.000,0
159981.013,-28.809,-33.203,-40.039,-35.645,0.000,0
159981.017,-35.645,-32.715,-14.648,-60.547,0.000,0
159981.021,-32.715,-23.926,-14.648,-37.598,0.000,0
159981.025,-17.090,-20.996,-43.945,-18.555,0.000,0
159981.029,-15.625,-21.973,-94.238,-14.648,0.000,0
159981.033,-21.973,-23.438,-18.555,-43.945,0.000,0
159981.037,-31.738,-21.484,20.996,-38.574,0.000,0
159981.041,-19.531,-19.043,-53.223,-4.395,0.000,0
159981.045,5.859,-21.973,-44.922,-22.949,0.000,0
159981.049,-4.395,-21.484,-43.945,-29.297,0.000,0
159981.053,-19.531,-26.367,-20.996,-56.152,0.000,0
159981.056,-17.090,-27.832,8.301,-64.941,0.000,0
159981.060,-17.090,-22.461,-59.082,-24.902,0.000,0
159981.064,-30.762,-31.250,-76.172,-30.762,0.000,0
159981.068,-35.645,-29.785,-51.758,-16.602,0.000,0
159981.072,-23.926,-26.367,-38.086,-26.855,0.000,0
159981.076,-18.555,-29.297,-51.758,-39.551,0.000,0
159981.080,-31.250,-27.344,-46.387,-5.371,0.000,0
159981.084,-38.086,-25.879,-35.645,-25.391,0.000,0
159981.088,-31.250,-19.531,-59.570,-16.602,0.000,0
159981.092,-37.109,-25.879,-31.250,-43.457,0.000,0
159981.096,-43.945,-29.785,-6.836,-91.797,0.000,0
159981.099,-34.180,-23.438,-63.965,-50.293,0.000,0
159981.103,-29.297,-29.785,-100.098,-24.902,0.000,0
159981.107,-18.066,-32.227,-51.270,-35.156,0.000,0
159981.111,-24.902,-32.715,-14.648,-35.156,0.000,0
159981.115,-36.133,-35.156,-25.391,-39.551,0.000,0
159981.119,-33.691,-32.715,-51.758,-45.410,0.000,0
159981.123,-39.062,-32.715,-39.062,-40.527,0.000,0
159981.127,-52.734,-31.250,-30.762,-18.066,0.000,0
159981.131,-32.715,-34.180,-76.660,-31.738,0.000,0
159981.135,-19.531,-36.621,-52.734,-71.777,0.000,0
159981.138,-36.621,-30.762,-46.875,-34.180,0.000,0
159981.142,-25.879,-27.832,-61.035,-16.602,0.000,0
159981.146,-12.207,-27.832,-66.406,1.953,0.000,0
159981.150,-20.508,-27.832,-54.688,-7.324,0.000,0
159981.154,-33.203,-30.273,-27.344,-51.758,0.000,0
159981.158,-31.738,-30.762,-29.297,-63.965,0.000,0
159981.162,-28.320,-31.738,-46.875,-41.992,0.000,0
159981.166,-32.227,-37.109,-80.078,-26.367,0.000,0
159981.170,-35.645,-37.598,-65.430,-19.531,0.000,0
159981.174,-30.273,-35.156,-37.598,-24.902,0.000,0
159981.178,-20.996,-37.109,-80.078,-22.461,0.000,0
159981.181,-14.160,-32.715,-84.961,-2.441,0.000,0
159981.185,-6.348,-22.949,-52.246,9.277,0.000,0
159981.189,-13.184,-27.832,-49.316,-10.742,0.000,0
159981.193,-20.508,-38.574,-42.969,-43.945,0.000,0
159981.197,-26.367,-37.109,-41.504,-47.852,0.000,0
159981.201,-30.273,-30.273,-43.457,-30.762,0.000,0
159981.205,-22.461,-28.809,-52.734,-9.766,0.000,0
159981.209,-14.160,-23.926,-45.410,-6.348,0.000,0
159981.213,-18.555,-21.973,-9.766,-5.859,0.000,0
159981.217,-28.809,-21.484,-24.414,-33.691,0.000,0
159981.221,-21.484,-24.902,-63.477,-28.320,0.000,0
159981.224,-21.484,-29.297,-49.316,-12.207,0.000,0
159981.228,-21.973,-27.344,-32.715,-16.113,0.000,0
159981.232,-5.859,-24.414,-23.438,-25.879,0.000,0
159981.236,-1.953,-24.414,-31.738,-38.574,0.000,0
159981.240,-15.137,-20.508,-36.133,-14.648,0.000,0
159981.244,-28.320,-19.043,-38.574,-2.441,0.000,0
159981.248,-26.367,-24.414,-51.270,-21.484,0.000,0
159981.252,-24.902,-21.973,-31.738,-18.066,0.000,0
159981.256,-28.809,-20.996,-40.039,-3.906,0.000,0
159981.260,-24.414,-21.484,-13.184,-12.695,0.000,0
159981.263,-18.066,-21.484,-27.832,-11.230,0.000,0
159981.267,-9.766,-23.438,-85.938,-1.953,0.000,0
159981.271,-6.348,-21.973,-32.715,-24.902,0.000,0
159981.275,-17.578,-21.973,-28.320,-41.016,0.000,0
159981.279,-19.531,-20.020,-85.449,-20.020,0.000,0
159981.283,-5.859,-17.578,-97.168,-11.230,0.000,0
159981.287,-7.812,-17.578,-61.523,-0.488,0.000,0
159981.291,-21.484,-22.949,-8.789,-11.230,0.000,0
159981.295,-20.020,-24.414,-37.109,-41.016,0.000,0
159981.299,-23.926,-24.902,-62.500,-34.180,0.000,0
159981.303,-24.902,-21.484,-32.227,-12.207,0.000,0
159981.306,-17.090,-17.578,-34.668,-2.930,0.000,0
159981.310,-16.602,-22.461,-40.039,-38.574,0.000,0
159981.314,-16.113,-20.508,-43.457,-39.551,0.000,0
159981.318,-13.184,-14.648,-49.805,0.977,0.000,0
159981.322,-18.555,-17.090,-47.363,-1.465,0.000,0
159981.326,-12.695,-21.973,-63.965,0.000,0.000,0
159981.330,-7.812,-28.320,-43.457,-46.387,0.000,0
159981.334,-14.648,-28.809,-22.461,-51.270,0.000,0
159981.338,-16.602,-23.926,-48.340,0.488,0.000,0
159981.342,-14.160,-23.926,-71.289,0.000,0.000,0
159981.346,-14.160,-27.832,-68.359,16.602,0.000,0
159981.349,-22.461,-33.203,-24.902,4.395,0.000,0
159981.353,-28.320,-28.809,-22.461,-25.879,0.000,0
159981.357,-19.531,-29.297,-83.984,-12.695,0.000,0
159981.361,-23.438,-37.598,-58.105,-42.480,0.000,0
159981.365,-35.156,-34.668,-22.949,-38.574,0.000,0
159981.369,-28.320,-34.668,-27.832,-13.184,0.000,0
159981.373,-6.836,-32.715,-26.367,-46.875,0.000,0
159981.377,-17.578,-27.832,-35.156,-35.156,0.000,0
159981.381,-35.645,-32.715,-54.688,-12.695,0.000,0
159981.385,-24.414,-32.227,-110.352,0.977,0.000,0
159981.388,-13.184,-31.250,-74.707,-37.109,0.000,0
159981.392,-17.578,-31.250,-30.273,-36.621,0.000,0
159981.396,-32.227,-26.367,-59.082,0.000,0.000,0
159981.400,-27.832,-26.367,-81.055,-12.695,0.000,0
159981.404,-9.766,-25.879,-105.957,-13.672,0.000,0
159981.408,-21.973,-30.762,-40.039,-30.273,0.000,0
159981.412,-37.109,-32.227,4.395,-58.105,0.000,0
159981.416,-27.344,-29.297,-69.824,-56.641,0.000,0
159981.420,-31.738,-36.133,-78.613,-28.320,0.000,0
159981.424,-28.320,-37.109,-61.523,-14.160,0.000,0
159981.428,-18.066,-38.086,-39.062,-22.461,0.000,0
159981.431,-26.855,-33.203,-27.344,-42.969,0.000,0
159981.435,-17.578,-22.461,-45.898,-46.387,0.000,0
159981.439,-14.648,-21.484,-26.855,-33.691,0.000,0
159981.443,-23.438,-24.414,-27.344,-15.625,0.000,0
159981.447,-16.602,-30.273,-73.242,-33.203,0.000,0
159981.451,-28.809,-32.227,-52.246,-63.477,0.000,0
159981.455,-32.715,-26.367,-5.371,-31.250,0.000,0
159981.459,-18.066,-25.391,-54.688,-1.465,0.000,0
159981.463,-20.020,-32.227,-81.543,-17.090,0.000,0
159981.467,-26.367,-33.691,-33.203,-34.180,0.000,0
159981.471,-21.973,-30.762,-26.367,-23.438,0.000,0
159981.474,-20.020,-28.809,-51.270,-38.574,0.000,0
159981.478,-11.719,-20.996,-46.875,-52.246,0.000,0
159981.482,-16.113,-21.484,-38.086,-25.391,0.000,0
159981.486,-23.926,-26.367,-33.691,-3.906,0.000,0
159981.490,-19.531,-26.367,-12.207,-32.227,0.000,0
159981.494,-12.695,-23.926,-38.086,-20.020,0.000,0
159981.498,-20.508,-26.855,-60.547,-19.043,0.000,0
159981.502,-22.949,-29.785,-36.133,-16.113,0.000,0
159981.506,-9.766,-25.879,-42.480,-11.719,0.000,0
159981.510,-13.184,-21.484,-20.020,-47.852,0.000,0
159981.513,-23.926,-16.602,-24.414,-52.246,0.000,0
159981.517,-23.438,-20.508,-43.457,-48.340,0.000,0
159981.521,-14.648,-27.832,-51.758,-28.320,0.000,0
159981.525,-22.461,-27.832,-53.223,-23.438,0.000,0
159981.529,-26.367,-29.785,-35.156,-57.617,0.000,0
159981.533,-24.902,-29.297,-53.223,-45.410,0.000,0
159981.537,-31.250,-27.832,-54.688,-10.254,0.000,0
159981.541,-21.973,-31.250,-61.035,-59.570,0.000,0
159981.545,-25.879,-29.785,-38.086,-64.941,0.000,0
159981.549,-32.227,-25.879,-18.555,-36.133,0.000,0
159981.553,-10.742,-20.996,-51.758,-47.363,0.000,0
159981.556,-15.137,-23.438,-38.086,-23.438,0.000,0
159981.560,-21.973,-27.344,-54.688,-16.602,0.000,0
159981.564,-25.879,-23.926,-64.453,-27.344,0.000,0
159981.568,-34.180,-22.461,-37.109,-22.949,0.000,0
159981.572,-28.320,-22.949,-50.781,-32.227,0.000,0
159981.576,-15.137,-21.973,-65.918,-22.949,0.000,0
159981.580,-17.578,-20.508,-66.406,-17.578,0.000,0
159981.584,-27.832,-20.020,-35.645,-36.621,0.000,0
159981.588,-27.832,-20.996,3.418,-50.293,0.000,0
159981.592,-17.090,-20.020,-34.180,-37.598,0.000,0
159981.596,-6.836,-15.625,-98.633,-17.578,0.000,0
159981.599,-12.695,-15.137,-83.496,-23.438,0.000,0
159981.603,-24.902,-22.461,-15.137,-17.578,0.000,0
159981.607,-17.578,-22.461,-2.441,-38.086,0.000,0
159981.611,-15.137,-23.438,-37.109,-59.570,0.000,0
159981.615,-22.461,-30.762,-31.250,-27.832,0.000,0
159981.619,-23.438,-30.273,-29.297,-13.672,0.000,0
159981.623,-27.344,-25.879,-34.180,-18.555,0.000,0
159981.627,-35.156,-25.879,-11.230,-31.738,0.000,0
159981.631,-26.855,-26.367,-25.879,-28.320,0.000,0
159981.635,-13.184,-24.414,-46.387,-14.648,0.000,0
159981.638,-9.766,-24.902,-71.289,-14.160,0.000,0
159981.642,-7.812,-28.809,-64.453,-10.742,0.000,0
159981.646,-16.602,-31.250,-15.625,-42.969,0.000,0
159981.650,-23.926,-31.738,-12.695,-51.758,0.000,0
159981.654,-16.113,-32.715,-37.109,-31.250,0.000,0
159981.658,-15.137,-30.762,-48.340,-18.066,0.000,0
159981.662,-18.066,-30.273,-39.062,-15.625,0.000,0
159981.666,-26.855,-34.180,-7.812,-50.781,0.000,0
159981.670,-37.598,-31.738,-42.480,-24.414,0.000,0
159981.674,-19.531,-26.367,-83.008,-6.836,0.000,0
159981.678,-26.855,-27.832,-52.734,-21.484,0.000,0
159981.681,-24.414,-30.762,-70.801,-26.855,0.000,0
159981.685,-17.578,-36.621,-44.922,-43.945,0.000,0
159981.689,-29.297,-37.598,-20.020,-32.227,0.000,0
159981.693,-26.367,-33.691,-42.480,-28.809,0.000,0
159981.697,-24.902,-35.645,-85.449,-8.789,0.000,0
159981.701,-25.391,-36.621,-83.008,-25.879,0.000,0
159981.705,-26.855,-34.668,-27.344,-45.898,0.000,0
159981.709,-19.531,-33.691,-50.781,-17.090,0.000,0
159981.713,-18.066,-32.715,-81.543,-14.648,0.000,0
159981.717,-22.461,-32.715,-58.594,-20.996,0.000,0
159981.721,-19.043,-31.738,-29.785,-22.949,0.000,0
159981.724,-20.996,-31.738,-18.555,-31.738,0.000,0
159981.728,-17.090,-30.762,-57.129,-26.367,0.000,0
159981.732,-8.301,-31.250,-84.473,-7.812,0.000,0
159981.736,-27.344,-32.715,-37.109,17.090,0.000,0
159981.740,-35.645,-31.250,-8.301,-23.926,0.000,0
159981.744,-26.855,-29.297,-34.180,-29.297,0.000,0
159981.748,-35.645,-30.273,-66.895,0.000,0.000,0
159981.752,-34.668,-31.250,-50.781,-16.602,0.000,0
159981.756,-17.090,-28.809,-46.875,-14.160,0.000,0
159981.760,-23.438,-34.668,-42.969,-50.293,0.000,0
159981.763,-28.809,-33.203,-14.648,-61.523,0.000,0
159981.767,-26.855,-29.297,-21.973,-37.598,0.000,0
159981.771,-30.762,-31.738,-50.781,-21.484,0.000,0
159981.775,-30.273,-28.320,-81.543,-19.531,0.000,0
159981.779,-36.133,-31.738,-53.223,-19.043,0.000,0
159981.783,-28.809,-32.227,-4.883,-21.973,0.000,0
159981.787,-13.184,-29.785,-56.152,-45.410,0.000,0
159981.791,-21.484,-29.785,-62.988,-56.152,0.000,0
159981.795,-36.621,-27.832,-60.059,-14.160,0.000,0
159981.799,-28.320,-30.273,-47.852,-17.578,0.000,0
159981.803,-24.414,-28.320,-30.762,-49.805,0.000,0
159981.806,-40.039,-27.832,-58.594,-22.461,0.000,0
159981.810,-25.879,-24.414,-74.219,-11.719,0.000,0
159981.814,-18.555,-22.949,-61.523,-14.648,0.000,0
159981.818,-37.598,-26.855,-39.062,-22.949,0.000,0
159981.822,-39.551,-26.855,-23.926,-45.898,0.000,0
159981.826,-35.645,-26.367,-24.902,-45.410,0.000,0
159981.830,-22.461,-26.855,-50.293,-25.879,0.000,0
159981.834,-24.902,-26.855,-66.895,-2.930,0.000,0
159981.838,-33.203,-30.273,-38.574,-19.531,0.000,0
159981.842,-26.367,-31.738,-38.086,-36.621,0.000,0
159981.846,-20.020,-29.785,-71.777,-3.418,0.000,0
159981.849,-22.949,-26.367,-60.547,-7.812,0.000,0
159981.853,-42.969,-27.344,-41.992,-29.785,0.000,0
159981.857,-49.316,-26.855,-43.945,-30.762,0.000,0
159981.861,-41.992,-19.531,-43.457,-40.039,0.000,0
159981.865,-41.992,-23.926,-48.828,-47.852,0.000,0
159981.869,-31.738,-33.203,-25.879,-43.457,0.000,0
159981.873,-19.043,-27.832,-60.547,-18.555,0.000,0
159981.877,-12.695,-24.414,-82.520,-16.602,0.000,0
159981.881,-7.324,-21.973,-39.062,-19.531,0.000,0
159981.885,-20.508,-19.531,-50.293,-4.883,0.000,0
159981.888,-31.738,-22.949,-65.430,-19.043,0.000,0
159981.892,-36.133,-26.367,-70.312,-27.832,0.000,0
159981.896,-19.043,-29.785,-51.270,-27.832,0.000,0
159981.900,-8.789,-32.715,-34.668,-41.992,0.000,0
159981.904,-30.273,-33.203,-52.734,-38.086,0.000,0
159981.908,-42.480,-28.809,-65.918,-22.461,0.000,0
159981.912,-47.363,-28.320,-59.570,-28.320,0.000,0
159981.916,-50.781,-30.273,-24.414,-51.270,0.000,0
159981.920,-51.758,-22.461,-27.344,-30.273,0.000,0
159981.924,-39.062,-19.043,-88.867,-15.137,0.000,0
159981.928,-23.926,-27.832,-83.496,-22.949,0.000,0
159981.931,-21.484,-26.855,-41.992,-4.883,0.000,0
159981.935,-34.180,-30.762,-48.340,-14.160,0.000,0
159981.939,-28.809,-31.250,-41.504,-64.941,0.000,0
159981.943,-19.531,-22.461,-39.551,-54.688,0.000,0
159981.947,-16.602,-26.855,-54.199,-15.137,0.000,0
159981.951,-15.137,-30.273,-61.523,-21.973,0.000,0
159981.955,-23.926,-34.180,-49.805,-37.109,0.000,0
159981.959,-39.062,-38.574,-10.742,-64.941,0.000,0
159981.963,-37.598,-29.785,-41.992,-56.641,0.000,0
159981.967,-14.160,-27.344,-86.914,-36.621,0.000,0
159981.971,-13.184,-29.785,-61.523,-30.273,0.000,0
159981.974,-43.457,-31.738,-26.367,-27.832,0.000,0
159981.978,-43.945,-32.715,-25.879,-46.387,0.000,0
159981.982,-37.598,-33.691,-58.105,-35.156,0.000,0
159981.986,-47.852,-38.574,-94.727,-32.227,0.000,0
159981.990,-41.016,-38.086,-70.312,-33.691,0.000,0
159981.994,-21.973,-38.574,-55.176,-20.508,0.000,0
159981.998,-18.066,-33.691,-35.645,-46.387,0.000,0
159982.002,-27.344,-28.809,-38.086,-44.434,0.000,0
159982.006,-35.156,-33.203,-42.480,-26.855,0.000,0
159982.010,-35.645,-33.203,-79.102,-1.953,0.000,0
159982.013,-24.902,-28.320,-77.148,-21.484,0.000,0
159982.017,-20.508,-24.902,-0.977,-77.637,0.000,0
159982.021,-28.809,-22.461,0.977,-15.625,0.000,0
159982.025,-26.367,-23.926,-52.734,10.254,0.000,0
159982.029,-16.113,-23.926,-53.223,-27.344,0.000,0
159982.033,-13.184,-25.879,-20.508,-27.832,0.000,0
159982.037,-13.672,-32.715,7.324,-50.781,0.000,0
159982.041,-18.066,-26.367,-28.320,-50.781,0.000,0
159982.045,-18.066,-23.438,-70.801,-27.832,0.000,0
159982.049,-20.508,-24.902,-41.504,-17.578,0.000,0
159982.053,-20.508,-28.809,-22.461,-15.137,0.000,0
159982.056,-18.555,-30.273,-32.227,-2.930,0.000,0
159982.060,-17.090,-23.438,-59.570,-16.113,0.000,0
159982.064,-15.137,-22.461,-19.531,-14.648,0.000,0
159982.068,-15.137,-21.484,-16.113,-16.602,0.000,0
159982.072,-18.555,-23.926,-39.062,-25.391,0.000,0
159982.076,-21.484,-25.391,-9.766,-32.227,0.000,0
159982.080,-19.531,-25.879,-23.438,-62.988,0.000,0
159982.084,-15.625,-31.250,-41.992,-34.668,0.000,0
159982.088,-16.113,-33.691,-49.805,22.949,0.000,0
159982.092,-16.602,-30.762,-50.781,5.371,0.000,0
159982.096,-18.066,-30.762,-10.254,-41.992,0.000,0
159982.099,-16.602,-24.414,-18.555,-13.672,0.000,0
159982.103,-9.277,-21.973,-49.316,-7.812,0.000,0
159982.107,-21.484,-24.414,-40.527,-33.691,0.000,0
159982.111,-40.039,-24.902,-34.180,-19.043,0.000,0
159982.115,-29.785,-26.855,-29.297,-46.875,0.000,0
159982.119,-8.789,-24.414,-30.762,-74.219,0.000,0
159982.123,-8.301,-23.926,-40.527,-28.809,0.000,0
159982.127,-4.395,-22.461,-55.664,-3.418,0.000,0
159982.131,0.488,-23.926,-59.570,-5.859,0.000,0
159982.135,-8.789,-34.668,-20.020,-27.832,0.000,0
159982.138,-20.508,-33.203,-9.766,-38.574,0.000,0
159982.142,-27.832,-30.273,-44.922,-41.992,0.000,0
159982.146,-31.250,-31.250,-42.480,-31.738,0.000,0
159982.150,-29.785,-27.832,-59.570,-3.906,0.000,0
159982.154,-34.668,-26.855,-8.301,-11.719,0.000,0
159982.158,-35.156,-23.926,-6.836,-28.320,0.000,0
159982.162,-27.344,-22.949,-90.820,-26.367,0.000,0
159982.166,-25.391,-25.391,-64.941,-14.160,0.000,0
159982.170,-23.926,-23.438,-21.973,-14.648,0.000,0
159982.174,-26.367,-25.879,-16.602,-43.457,0.000,0
159982.178,-31.250,-24.414,-19.531,-65.430,0.000,0
159982.181,-16.113,-16.602,-52.246,-22.949,0.000,0
159982.185,-18.555,-27.344,-39.551,-4.883,0.000,0
159982.189,-30.762,-31.738,-52.734,-3.906,0.000,0
159982.193,-20.996,-29.785,-53.711,-18.066,0.000,0
159982.197,-24.414,-29.785,-25.879,-35.645,0.000,0
159982.201,-25.879,-23.926,-29.785,-6.348,0.000,0
159982.205,1.953,-19.043,-58.105,1.465,0.000,0
159982.209,4.883,-16.113,-65.918,-4.883,0.000,0
159982.213,-9.766,-22.949,-32.715,-14.160,0.000,0
159982.217,-16.602,-30.273,-18.066,-32.227,0.000,0
159982.221,-23.438,-27.344,-55.664,-41.016,0.000,0
159982.224,-22.949,-33.691,-62.500,-40.527,0.000,0
159982.228,-26.855,-34.180,-47.852,-8.301,0.000,0
159982.232,-17.578,-31.738,-29.297,-4.395,0.000,0
159982.236,-18.555,-33.203,-14.160,-21.484,0.000,0
159982.240,-26.367,-32.227,-33.691,0.488,0.000,0
159982.244,-26.367,-37.109,-28.320,5.859,0.000,0
159982.248,-13.672,-41.016,-32.227,-14.160,0.000,0
159982.252,-0.977,-38.574,-44.434,-31.250,0.000,0
159982.256,-16.602,-38.086,-30.762,-48.828,0.000,0
159982.260,-29.785,-32.715,-39.062,-40.527,0.000,0
159982.263,-20.020,-25.391,-52.734,-21.973,0.000,0
159982.267,-22.949,-29.297,-54.688,-19.531,0.000,0
159982.271,-24.902,-34.180,-30.762,-44.922,0.000,0
159982.275,-17.578,-29.785,-12.695,-28.809,0.000,0
159982.279,-18.066,-30.762,-24.414,-18.555,0.000,0
159982.283,-13.184,-34.668,-41.992,-30.762,0.000,0
159982.287,-19.531,-35.156,-37.109,-11.230,0.000,0
159982.291,-27.832,-40.039,-15.625,-31.250,0.000,0
159982.295,-17.578,-38.574,-40.039,-79.102,0.000,0
159982.299,-19.531,-33.203,-54.688,-45.898,0.000,0
159982.303,-28.320,-37.598,-48.828,-13.672,0.000,0
159982.306,-30.762,-36.133,-61.523,-30.273,0.000,0
159982.310,-20.996,-29.785,-54.199,-47.363,0.000,0
159982.314,-14.648,-30.273,-17.090,-71.777,0.000,0
159982.318,-24.902,-29.297,-21.973,-60.059,0.000,0
159982.322,-31.738,-32.227,-40.527,-54.688,0.000,0
159982.326,-23.438,-31.250,-61.523,-36.621,0.000,0
159982.330,-17.090,-28.320,-62.988,-3.906,0.000,0
159982.334,-30.273,-31.250,-12.207,-46.387,0.000,0
159982.338,-36.133,-28.809,-20.020,-42.480,0.000,0
159982.342,-34.668,-26.855,-58.594,-19.043,0.000,0
159982.346,-25.879,-25.879,-67.871,-27.344,0.000,0
159982.349,-30.273,-25.879,-17.090,-22.949,0.000,0
159982.353,-30.273,-31.738,2.441,-47.852,0.000,0
159982.357,-16.602,-26.855,-50.293,-48.828,0.000,0
159982.361,-19.531,-23.926,-51.270,-39.551,0.000,0
159982.365,-30.273,-24.902,-48.828,-24.414,0.000,0
159982.369,-21.973,-26.855,-50.781,-6.348,0.000,0
159982.373,-17.578,-28.809,-20.020,-47.852,0.000,0
159982.377,-14.648,-23.438,-43.945,-33.203,0.000,0
159982.381,-8.789,-24.902,-49.805,-6.836,0.000,0
159982.385,-10.254,-27.344,-20.996,-44.922,0.000,0
159982.388,-18.066,-25.391,-62.988,-52.734,0.000,0
159982.392,-25.879,-32.227,-38.086,-32.715,0.000,0
159982.396,-31.250,-31.250,-11.230,-18.066,0.000,0
159982.400,-22.461,-28.320,-60.547,-26.855,0.000,0
159982.404,-16.113,-32.715,-68.359,-9.766,0.000,0
159982.408,-15.625,-34.668,-39.551,-15.625,0.000,0
159982.412,-13.184,-34.668,0.488,-43.457,0.000,0
159982.416,-11.719,-27.344,-20.996,-17.090,0.000,0
159982.420,-10.742,-23.438,-33.203,-7.324,0.000,0
159982.424,-25.391,-25.879,-17.578,-30.762,0.000,0
159982.428,-30.762,-30.273,-36.621,-34.668,0.000,0
159982.431,-19.531,-33.203,-41.016,-38.086,0.000,0
159982.435,-25.879,-33.203,-31.250,-46.387,0.000,0
159982.439,-43.945,-36.621,-15.625,-22.461,0.000,0
159982.443,-27.344,-31.738,-52.734,-10.254,0.000,0
159982.447,-15.137,-31.738,-70.801,-32.715,0.000,0
159982.451,-15.625,-30.273,-15.625,-40.039,0.000,0
159982.455,-12.207,-21.973,-18.066,-29.297,0.000,0
159982.459,-25.879,-21.973,-65.430,-21.484,0.000,0
159982.463,-18.066,-23.926,-79.102,-22.461,0.000,0
159982.467,-15.625,-23.438,-54.688,-21.484,0.000,0
159982.471,-18.066,-22.461,0.000,-36.133,0.000,0
159982.474,-23.438,-24.414,1.953,-41.504,0.000,0
159982.478,-34.180,-28.320,-51.270,-10.742,0.000,0
159982.482,-20.508,-31.738,-54.688,-11.230,0.000,0
159982.486,-27.344,-30.273,21.973,-33.203,0.000,0
159982.490,-33.203,-25.391,-23.926,-36.133,0.000,0
159982.494,-18.066,-22.461,-76.660,-34.180,0.000,0
159982.498,-12.207,-20.020,-40.039,-29.297,0.000,0
159982.502,-24.902,-23.438,-26.367,-20.996,0.000,0
159982.506,-20.020,-22.949,-58.594,1.953,0.000,0
159982.510,-15.625,-19.043,-52.246,-16.113,0.000,0
159982.513,-30.762,-16.602,-23.926,-31.250,0.000,0
159982.517,-25.391,-17.578,-47.852,-1.465,0.000,0
159982.521,-15.137,-17.090,-39.062,4.395,0.000,0
159982.525,-15.137,-17.090,-30.762,-4.883,0.000,0
159982.529,-31.738,-26.367,-11.230,-18.555,0.000,0
159982.533,-38.086,-26.367,-20.508,-22.461,0.000,0
159982.537,-13.672,-24.902,-62.012,-24.414,0.000,0
159982.541,-23.438,-26.367,-59.082,-20.508,0.000,0
159982.545,-38.574,-21.973,-67.383,-11.719,0.000,0
159982.549,-24.902,-26.855,-59.570,-43.945,0.000,0
159982.553,-24.414,-26.367,-41.992,-34.180,0.000,0
159982.556,-21.973,-20.020,-62.012,-7.324,0.000,0
159982.560,-21.973,-20.508,-69.824,-20.996,0.000,0
159982.564,-23.438,-18.066,-62.012,-38.086,0.000,0
159982.568,-27.832,-19.531,-50.293,-49.805,0.000,0
159982.572,-42.969,-23.926,-36.133,-55.176,0.000,0
159982.576,-45.898,-19.043,-42.969,-39.062,0.000,0
159982.580,-32.227,-15.137,-83.008,-18.066,0.000,0
159982.584,-28.320,-19.531,-92.285,-5.371,0.000,0
159982.588,-32.715,-19.531,-10.742,-31.250,0.000,0
159982.592,-25.879,-13.184,5.859,-34.668,0.000,0
159982.596,-15.625,-14.648,-86.914,-16.602,0.000,0
159982.599,-18.066,-20.508,-70.801,-19.531,0.000,0
159982.603,-37.598,-18.555,-19.531,-32.715,0.000,0
159982.607,-31.738,-20.996,-21.973,-17.090,0.000,0
159982.611,-21.484,-26.367,-30.273,-18.066,0.000,0
159982.615,-22.949,-23.438,-24.414,-31.250,0.000,0
159982.619,-20.996,-20.508,-15.625,-21.484,0.000,0
159982.623,-16.113,-21.973,-47.363,-20.508,0.000,0
159982.627,-9.766,-25.391,-63.477,-26.367,0.000,0
159982.631,-16.602,-26.855,-20.996,-59.082,0.000,0
159982.635,-9.766,-27.344,-34.180,-40.039,0.000,0
159982.638,-5.859,-26.367,-53.711,-21.973,0.000,0
159982.642,-23.438,-21.484,-64.453,-27.832,0.000,0
159982.646,-36.621,-24.414,-54.199,-3.418,0.000,0
159982.650,-26.367,-24.902,-21.484,-35.156,0.000,0
159982.654,-20.508,-17.090,-41.504,-32.715,0.000,0
159982.658,-22.949,-20.020,-65.430,-1.465,0.000,0
159982.662,-22.949,-23.926,-62.012,-15.137,0.000,0
159982.666,-33.203,-29.297,-22.461,-25.879,0.000,0
159982.670,-24.414,-36.133,-21.484,-44.922,0.000,0
159982.674,-13.184,-27.832,-56.152,-44.434,0.000,0
159982.678,-23.438,-24.414,-52.246,-49.316,0.000,0
159982.681,-19.043,-28.320,-54.199,-28.320,0.000,0
159982.685,-8.301,-28.809,-57.617,-4.395,0.000,0
159982.689,-14.160,-30.762,-18.066,-32.227,0.000,0
159982.693,-25.879,-36.133,-9.277,-45.898,0.000,0
159982.697,-22.461,-32.715,-69.336,-22.461,0.000,0
159982.701,-11.719,-28.320,-104.980,1.465,0.000,0
159982.705,-14.160,-32.227,-64.941,6.836,0.000,0
159982.709,-34.180,-31.738,0.977,-39.551,0.000,0
159982.713,-33.203,-24.414,-21.973,-46.875,0.000,0
159982.717,-16.602,-25.879,-66.895,-20.996,0.000,0
159982.721,-22.461,-30.762,-65.430,-16.113,0.000,0
159982.724,-35.645,-29.297,-20.020,-36.133,0.000,0
159982.728,-32.715,-28.809,-9.766,-61.523,0.000,0
159982.732,-31.250,-22.949,-51.270,-20.996,0.000,0
159982.736,-30.762,-23.438,-53.223,-12.695,0.000,0
159982.740,-33.203,-24.414,-48.828,-33.691,0.000,0
159982.744,-31.738,-23.438,-60.059,-29.297,0.000,0
159982.748,-21.973,-25.391,-23.438,-48.828,0.000,0
159982.752,-26.367,-26.367,-25.879,-56.641,0.000,0
159982.756,-35.645,-25.879,-49.316,-38.574,0.000,0
159982.760,-31.250,-23.926,-88.379,-20.996,0.000,0
159982.763,-28.320,-24.902,-102.051,-33.203,0.000,0
159982.767,-28.320,-26.367,-23.926,-66.895,0.000,0
159982.771,-24.902,-22.949,-12.207,-31.738,0.000,0
159982.775,-19.531,-20.508,-63.965,-15.625,0.000,0
159982.779,-11.719,-20.020,-57.129,-15.137,0.000,0
159982.783,-14.648,-19.531,-28.809,-9.766,0.000,0
159982.787,-18.066,-27.832,-16.113,-41.016,0.000,0
159982.791,-18.555,-25.391,-38.574,-48.340,0.000,0
159982.795,-16.113,-26.855,-39.062,-31.738,0.000,0
159982.799,-5.859,-32.227,-30.762,-16.602,0.000,0
159982.803,-12.207,-29.785,-47.852,2.441,0.000,0
159982.806,-18.555,-29.297,-47.363,-22.461,0.000,0
159982.810,-10.742,-31.738,-48.828,-55.664,0.000,0
159982.814,-15.625,-25.879,-25.879,-49.316,0.000,0
159982.818,-17.578,-20.020,-36.133,-13.672,0.000,0
159982.822,-12.207,-23.438,-75.195,4.883,0.000,0
159982.826,-22.949,-25.879,-47.363,-44.922,0.000,0
159982.830,-28.809,-22.461,-28.809,-53.223,0.000,0
159982.834,-20.020,-22.949,-58.594,-15.137,0.000,0
159982.838,-22.949,-27.832,-66.895,-26.855,0.000,0
159982.842,-25.879,-22.461,-62.988,-11.230,0.000,0
159982.846,-23.438,-17.090,-39.551,-17.090,0.000,0
159982.849,-23.926,-20.508,-28.320,-53.223,0.000,0
159982.853,-19.043,-21.973,-46.387,-48.340,0.000,0
159982.857,-24.414,-24.902,-44.434,-30.762,0.000,0
159982.861,-47.363,-26.367,-49.316,-22.461,0.000,0
159982.865,-31.738,-28.320,-58.105,-41.992,0.000,0
159982.869,-27.344,-31.738,-37.598,-31.738,0.000,0
159982.873,-30.762,-28.809,-51.758,4.883,0.000,0
159982.877,-15.625,-25.879,-69.336,-7.324,0.000,0
159982.881,-11.719,-25.391,-62.500,-15.625,0.000,0
159982.885,-17.578,-26.855,-35.156,-19.531,0.000,0
159982.888,-22.461,-33.203,-20.996,-59.082,0.000,0
159982.892,-23.438,-32.715,-45.410,-56.641,0.000,0
159982.896,-26.855,-32.715,-44.434,-36.621,0.000,0
159982.900,-29.785,-37.598,-40.527,-27.344,0.000,0
159982.904,-37.109,-36.621,-28.320,-11.230,0.000,0
159982.908,-29.297,-34.668,-41.016,-28.809,0.000,0
159982.912,-21.484,-37.598,-83.008,-26.855,0.000,0
159982.916,-32.715,-38.574,-60.547,-14.648,0.000,0
159982.920,-29.785,-35.156,-41.992,-11.230,0.000,0
159982.924,-24.414,-41.016,-50.781,-25.879,0.000,0
159982.928,-30.273,-39.551,-43.945,-52.734,0.000,0
159982.931,-28.320,-28.809,-39.551,-34.668,0.000,0
159982.935,-15.137,-30.273,-51.270,8.789,0.000,0
159982.939,-9.766,-26.855,-66.406,-6.348,0.000,0
159982.943,-25.391,-21.973,-59.082,-33.203,0.000,0
159982.947,-26.367,-22.949,-8.301,-45.898,0.000,0
159982.951,-20.020,-23.438,-4.395,-48.828,0.000,0
159982.955,-10.254,-24.902,-56.641,-39.062,0.000,0
159982.959,-10.254,-28.320,-71.289,-33.691,0.000,0
159982.963,-20.508,-30.762,-58.105,-27.344,0.000,0
159982.967,-11.719,-26.855,-39.551,-24.414,0.000,0
159982.971,-12.695,-27.832,-62.500,-23.438,0.000,0
159982.974,-23.926,-31.250,-73.242,-16.113,0.000,0
159982.978,-24.414,-28.320,-57.617,-11.719,0.000,0
159982.982,-20.508,-28.809,-48.828,-24.414,0.000,0
159982.986,-24.414,-30.762,-26.855,-53.223,0.000,0
159982.990,-22.461,-26.855,-37.109,-45.898,0.000,0
159982.994,-10.742,-25.879,-48.340,-26.855,0.000,0
159982.998,-8.301,-27.832,-54.688,-14.648,0.000,0
159983.002,-12.207,-35.645,-42.969,-29.785,0.000,0
159983.006,-8.301,-32.715,-36.621,-39.551,0.000,0
159983.010,-7.324,-24.902,-58.105,-29.297,0.000,0
159983.013,-15.625,-29.297,-62.988,-16.113,0.000,0
159983.017,-24.414,-25.879,-60.547,6.348,0.000,0
159983.021,-28.809,-25.391,-42.969,-7.324,0.000,0
159983.025,-34.180,-28.809,-19.531,-64.453,0.000,0
159983.029,-31.738,-24.414,-48.828,-84.473,0.000,0
159983.033,-27.832,-24.902,-50.781,-42.969,0.000,0
159983.037,-40.039,-27.832,-40.039,-18.555,0.000,0
159983.041,-47.363,-29.785,-36.133,-41.992,0.000,0
159983.045,-36.621,-29.297,-24.902,-61.523,0.000,0
159983.049,-34.668,-20.996,-40.527,-28.320,0.000,0
159983.053,-29.297,-24.414,-73.242,-22.949,0.000,0
159983.056,-23.926,-29.785,-63.965,-40.527,0.000,0
159983.060,-22.949,-25.391,-52.246,-34.668,0.000,0
159983.064,-21.973,-28.320,-22.461,-54.688,0.000,0
159983.068,-35.156,-26.855,-31.250,-63.477,0.000,0
159983.072,-43.945,-29.785,-76.660,-52.734,0.000,0
159983.076,-36.621,-32.227,-104.492,-14.160,0.000,0
159983.080,-25.391,-27.344,-80.566,0.000,0.000,0
159983.084,-30.273,-30.762,6.348,-32.227,0.000,0
159983.088,-29.297,-31.250,-18.555,-32.715,0.000,0
159983.092,-16.602,-25.391,-95.703,-13.672,0.000,0
159983.096,-24.902,-31.250,-80.566,-20.020,0.000,0
159983.099,-32.715,-29.297,-9.277,-17.090,0.000,0
159983.103,-28.320,-29.297,13.672,-49.316,0.000,0
159983.107,-29.297,-28.320,-15.137,-65.430,0.000,0
159983.111,-36.133,-20.020,-41.992,-26.367,0.000,0
159983.115,-35.156,-24.902,-59.570,-14.160,0.000,0
159983.119,-24.414,-26.367,-63.965,-26.855,0.000,0
159983.123,-20.508,-23.438,-40.527,-25.391,0.000,0
159983.127,-34.668,-24.414,-57.129,-22.461,0.000,0
159983.131,-46.387,-25.391,-58.105,-13.184,0.000,0
159983.135,-34.180,-27.832,-53.711,-5.859,0.000,0
159983.138,-25.879,-31.250,-77.148,-20.508,0.000,0
159983.142,-37.109,-31.738,-31.250,-54.199,0.000,0
159983.146,-42.480,-32.715,15.137,-63.965,0.000,0
159983.150,-25.879,-31.738,-32.715,-35.156,0.000,0
159983.154,-17.578,-35.645,-48.828,-24.414,0.000,0
159983.158,-28.320,-39.062,-46.875,-39.062,0.000,0
159983.162,-28.809,-34.180,-44.434,-51.270,0.000,0
159983.166,-24.902,-29.785,-29.785,-49.316,0.000,0
159983.170,-28.809,-26.855,-58.105,-36.133,0.000,0
159983.174,-22.949,-29.785,-48.340,-37.109,0.000,0
159983.178,-25.391,-34.180,-42.480,-26.855,0.000,0
159983.181,-18.066,-34.180,-64.453,-7.812,0.000,0
159983.185,1.465,-28.320,-46.387,-41.992,0.000,0
159983.189,-4.883,-23.926,-6.836,-65.918,0.000,0
159983.193,-18.555,-24.414,-35.156,-13.672,0.000,0
159983.197,-18.066,-25.391,-60.547,-16.602,0.000,0
159983.201,-18.066,-27.344,-30.273,-40.039,0.000,0
159983.205,-18.066,-27.344,-11.230,-55.176,0.000,0
159983.209,-17.578,-26.855,-36.133,-55.176,0.000,0
159983.213,-25.879,-27.832,-82.031,-30.273,0.000,0
159983.217,-26.367,-31.738,-76.172,-13.672,0.000,0
159983.221,-13.672,-29.785,-27.832,-18.555,0.000,0
159983.224,-15.625,-31.250,-15.137,-14.160,0.000,0
159983.228,-30.762,-33.203,-50.293,-5.371,0.000,0
159983.232,-27.832,-30.762,-39.551,-25.391,0.000,0
159983.236,-23.926,-32.715,-12.207,-22.461,0.000,0
159983.240,-13.184,-31.250,-35.156,-22.461,0.000,0
159983.244,-6.836,-24.414,-45.410,-44.434,0.000,0
159983.248,-14.160,-28.809,-35.156,-36.133,0.000,0
159983.252,-13.672,-33.203,-34.180,-15.625,0.000,0
159983.256,-7.324,-27.832,-55.176,3.418,0.000,0
159983.260,-11.719,-27.832,-46.875,-13.184,0.000,0
159983.263,-12.207,-26.367,-10.742,-27.344,0.000,0
159983.267,-10.254,-27.344,-33.691,-14.648,0.000,0
159983.271,-15.625,-35.645,-44.434,-12.207,0.000,0
159983.275,-10.254,-30.762,-50.293,-17.578,0.000,0
159983.279,-19.531,-27.832,-30.762,-24.902,0.000,0
159983.283,-20.020,-29.297,-0.977,-39.551,0.000,0
159983.287,-15.137,-29.297,-38.086,-42.480,0.000,0
159983.291,-21.484,-26.855,-72.754,-18.066,0.000,0
159983.295,-18.066,-21.973,-57.617,-4.883,0.000,0
159983.299,-17.578,-27.832,-35.645,-24.414,0.000,0
159983.303,-28.320,-31.250,-37.598,-41.992,0.000,0
159983.306,-17.578,-25.391,-35.645,-11.719,0.000,0
159983.310,-15.137,-32.227,-26.855,-8.301,0.000,0
159983.314,-29.297,-34.668,-68.359,-17.578,0.000,0
159983.318,-33.203,-31.738,-43.945,-11.719,0.000,0
159983.322,-42.969,-33.691,-8.789,-38.574,0.000,0
159983.326,-47.852,-28.320,-19.043,-37.109,0.000,0
159983.330,-34.668,-24.414,-62.500,-23.926,0.000,0
159983.334,-29.785,-25.391,-71.777,-26.855,0.000,0
159983.338,-31.738,-31.738,-41.016,-24.902,0.000,0
159983.342,-27.832,-34.180,-9.277,-55.664,0.000,0
159983.346,-23.438,-26.855,-35.645,-41.016,0.000,0
159983.349,-10.254,-27.344,-62.500,-25.879,0.000,0
159983.353,-8.789,-33.691,-34.668,-15.625,0.000,0
159983.357,-20.020,-32.715,-36.133,-15.625,0.000,0
159983.361,-18.555,-32.227,-28.809,-47.852,0.000,0
159983.365,-13.184,-30.762,-32.227,-29.785,0.000,0
159983.369,-27.344,-25.879,-36.133,4.395,0.000,0
159983.373,-25.391,-25.391,-54.688,-13.184,0.000,0
159983.377,-15.625,-26.367,-72.754,-29.297,0.000,0
159983.381,-28.809,-28.809,-20.020,-37.598,0.000,0
159983.385,-29.297,-28.320,-15.137,-39.062,0.000,0
159983.388,-31.738,-31.738,-38.574,-20.020,0.000,0
159983.392,-31.250,-32.715,-55.176,0.977,0.000,0
159983.396,-23.438,-30.273,-59.082,-3.418,0.000,0
159983.400,-23.438,-31.250,-8.301,-29.297,0.000,0
159983.404,-19.531,-24.414,-27.344,-25.879,0.000,0
159983.408,-14.648,-25.879,-92.285,-26.855,0.000,0
159983.412,-22.949,-28.320,-50.293,-33.203,0.000,0
159983.416,-24.902,-22.949,16.113,-16.113,0.000,0
159983.420,-15.137,-22.461,-8.301,-38.574,0.000,0
159983.424,-7.324,-18.555,-41.992,-39.062,0.000,0
159983.428,-17.578,-19.043,-46.387,-27.344,0.000,0
159983.431,-20.020,-25.391,-52.246,-14.648,0.000,0
159983.435,-4.883,-26.367,-59.570,-9.766,0.000,0
159983.439,-3.418,-28.809,-27.832,-32.227,0.000,0
159983.443,-20.508,-27.344,-36.133,-23.438,0.000,0
159983.447,-24.902,-28.320,-64.941,-3.418,0.000,0
159983.451,-19.043,-33.691,-58.594,-7.324,0.000,0
159983.455,-29.297,-34.668,-15.625,-43.945,0.000,0
159983.459,-23.926,-31.250,-19.043,-55.664,0.000,0
159983.463,-19.043,-27.344,-48.340,-16.113,0.000,0
159983.467,-13.672,-27.832,-62.500,-13.184,0.000,0
159983.471,-15.625,-27.344,-67.383,-14.160,0.000,0
159983.474,-31.738,-27.344,-28.809,-10.742,0.000,0
159983.478,-21.973,-29.785,-42.969,-39.062,0.000,0
159983.482,-19.043,-28.809,-67.871,-31.738,0.000,0
159983.486,-33.203,-27.344,-44.922,-19.043,0.000,0
159983.490,-41.504,-27.832,-59.082,-27.832,0.000,0
159983.494,-33.691,-27.832,-83.984,-36.621,0.000,0
159983.498,-22.461,-26.855,-47.852,-51.758,0.000,0
159983.502,-32.227,-30.273,-25.391,-54.199,0.000,0
159983.506,-40.039,-32.715,-30.273,-29.785,0.000,0
159983.510,-27.832,-31.738,-81.543,-17.578,0.000,0
159983.513,-23.438,-34.180,-62.988,-41.016,0.000,0
159983.517,-40.527,-35.156,16.602,-47.363,0.000,0
159983.521,-43.945,-34.180,-17.090,-32.227,0.000,0
159983.525,-21.484,-35.645,-89.355,-54.199,0.000,0
159983.529,-11.719,-38.574,-81.543,-35.156,0.000,0
159983.533,-19.531,-32.227,-39.551,16.602,0.000,0
159983.537,-26.855,-29.785,-25.879,-24.414,0.000,0
159983.541,-31.738,-34.668,-53.223,-47.852,0.000,0
159983.545,-32.227,-32.227,-59.082,-23.438,0.000,0
159983.549,-35.645,-29.785,-41.992,-32.227,0.000,0
159983.553,-42.969,-28.320,-41.016,-24.902,0.000,0
159983.556,-34.180,-23.438,-47.852,-37.598,0.000,0
159983.560,-29.785,-21.484,-47.852,-57.617,0.000,0
159983.564,-35.156,-21.973,-18.555,-46.875,0.000,0
159983.568,-25.391,-21.973,-45.898,-22.949,0.000,0
159983.572,-25.879,-31.250,-75.684,-24.902,0.000,0
159983.576,-31.738,-37.109,-37.109,-55.664,0.000,0
159983.580,-29.297,-29.785,-47.363,-35.645,0.000,0
159983.584,-26.367,-30.762,-96.191,-4.395,0.000,0
159983.588,-31.250,-32.227,-83.496,-28.809,0.000,0
159983.592,-35.645,-28.320,-55.664,-38.086,0.000,0
159983.596,-32.715,-29.785,-20.020,-38.086,0.000,0
159983.599,-30.762,-29.297,-13.184,-50.293,0.000,0
159983.603,-29.785,-28.320,-49.805,-39.062,0.000,0
159983.607,-30.273,-29.785,-52.246,-20.020,0.000,0
159983.611,-28.320,-28.809,-37.109,-22.949,0.000,0
159983.615,-16.113,-31.250,0.488,-63.965,0.000,0
159983.619,-11.230,-27.344,-4.883,-35.645,0.000,0
159983.623,3.418,-24.902,-69.824,15.137,0.000,0
159983.627,-1.953,-27.832,-72.266,1.953,0.000,0
159983.631,-27.344,-24.414,-68.848,-14.160,0.000,0
159983.635,-32.227,-22.461,-44.922,-51.270,0.000,0
159983.638,-26.367,-15.625,-38.574,-66.406,0.000,0
159983.642,-32.227,-14.160,-72.266,-39.551,0.000,0
159983.646,-22.949,-20.996,-74.219,-39.062,0.000,0
159983.650,-27.344,-21.484,-45.410,-35.645,0.000,0
159983.654,-43.945,-18.555,-2.930,-25.391,0.000,0
159983.658,-24.902,-18.555,-40.039,-40.527,0.000,0
159983.662,-17.578,-20.508,-74.219,-43.457,0.000,0
159983.666,-25.391,-22.949,-39.551,-41.504,0.000,0
159983.670,-22.949,-22.949,-50.293,10.254,0.000,0
159983.674,-15.625,-22.949,-46.387,-11.230,0.000,0
159983.678,-16.602,-22.461,-34.668,-59.570,0.000,0
159983.681,-19.043,-21.484,-43.457,-19.043,0.000,0
159983.685,-14.648,-21.973,-48.828,-7.812,0.000,0
159983.689,-19.531,-20.508,-62.500,-33.203,0.000,0
159983.693,-31.250,-21.973,-45.410,-37.109,0.000,0
159983.697,-31.738,-23.438,-4.883,-41.504,0.000,0
159983.701,-22.461,-17.578,-36.621,-53.711,0.000,0
159983.705,-16.602,-18.555,-87.402,-28.320,0.000,0
159983.709,-25.391,-24.902,-93.750,-13.672,0.000,0
159983.713,-23.926,-22.461,-42.480,-30.762,0.000,0
159983.717,-19.531,-24.902,7.812,-66.406,0.000,0
159983.721,-22.461,-21.973,-32.715,-49.316,0.000,0
159983.724,-27.832,-19.043,-79.102,-0.977,0.000,0
159983.728,-34.668,-23.926,-57.129,-10.742,0.000,0
159983.732,-24.414,-26.367,-25.879,-57.617,0.000,0
159983.736,-24.902,-27.344,-17.090,-88.379,0.000,0
159983.740,-41.016,-21.484,-37.109,-45.410,0.000,0
159983.744,-45.898,-19.043,-41.016,-29.297,0.000,0
159983.748,-36.621,-18.555,-69.824,-10.254,0.000,0
159983.752,-20.508,-22.461,-44.922,-23.926,0.000,0
159983.756,-29.785,-22.461,-9.766,-50.781,0.000,0
159983.760,-39.551,-17.578,-64.941,-25.391,0.000,0
159983.763,-20.996,-22.461,-78.125,-30.273,0.000,0
159983.767,-20.508,-28.320,-59.570,-27.832,0.000,0
159983.771,-30.273,-32.715,-19.531,-27.344,0.000,0
159983.775,-20.996,-25.391,0.000,-54.199,0.000,0
159983.779,-15.625,-21.484,-37.109,-46.875,0.000,0
159983.783,-20.020,-30.273,-34.668,-23.438,0.000,0
159983.787,-26.855,-26.367,-28.320,0.977,0.000,0
159983.791,-23.438,-22.949,-42.480,-18.555,0.000,0
159983.795,-15.137,-24.414,-51.758,-43.945,0.000,0
159983.799,-22.949,-27.344,-59.570,-31.250,0.000,0
159983.803,-20.020,-34.180,-33.691,-27.344,0.000,0
159983.806,-24.902,-28.809,-26.367,-27.832,0.000,0
159983.810,-30.762,-27.832,-33.691,-31.738,0.000,0
159983.814,-17.090,-29.297,-3.906,-41.016,0.000,0
159983.818,-7.324,-24.414,-16.602,-59.570,0.000,0
159983.822,-14.648,-23.926,-34.668,-29.297,0.000,0
159983.826,-19.043,-24.414,-71.289,2.441,0.000,0
159983.830,-10.254,-25.391,-59.570,-17.090,0.000,0
159983.834,-10.742,-22.949,0.000,-20.996,0.000,0
159983.838,-12.695,-21.484,-12.695,-39.062,0.000,0
159983.842,-5.859,-26.367,-70.801,-42.969,0.000,0
159983.846,-20.508,-32.227,-52.246,0.000,0.000,0
159983.849,-38.086,-31.250,-15.137,18.555,0.000,0
159983.853,-28.320,-32.227,-42.480,-16.602,0.000,0
159983.857,-20.508,-33.691,-57.617,-46.387,0.000,0
159983.861,-26.855,-30.762,-58.105,-23.926,0.000,0
159983.865,-31.738,-28.320,-55.176,-20.020,0.000,0
159983.869,-27.344,-28.320,-50.293,-33.691,0.000,0
159983.873,-31.738,-29.785,-28.320,-40.039,0.000,0
159983.877,-41.016,-28.809,-26.367,-49.805,0.000,0
159983.881,-39.062,-27.344,-26.367,-37.598,0.000,0
159983.885,-12.207,-33.203,-61.035,-27.344,0.000,0
159983.888,-8.301,-35.645,-99.609,-28.809,0.000,0
159983.892,-35.156,-31.738,-30.762,-43.457,0.000,0
159983.896,-34.180,-28.809,-21.973,-28.809,0.000,0
159983.900,-15.625,-31.250,-75.684,-8.789,0.000,0
159983.904,-23.438,-32.715,-59.082,-4.883,0.000,0
159983.908,-34.180,-27.832,-47.363,-20.020,0.000,0
159983.912,-33.203,-24.902,-23.438,-44.922,0.000,0
159983.916,-29.297,-22.461,-41.016,-39.551,0.000,0
159983.920,-18.066,-25.391,-49.805,-36.133,0.000,0
159983.924,-18.066,-28.320,-14.160,-19.531,0.000,0
159983.928,-23.926,-22.949,-47.852,4.395,0.000,0
159983.931,-16.113,-24.414,-36.621,-29.785,0.000,0
159983.935,-20.020,-32.715,-14.648,-40.527,0.000,0
159983.939,-31.250,-31.250,-33.691,-23.438,0.000,0
159983.943,-17.578,-26.855,-56.152,-21.973,0.000,0
159983.947,-16.602,-28.809,-57.617,-24.902,0.000,0
159983.951,-26.855,-31.738,-21.484,-37.109,0.000,0
159983.955,-32.227,-32.227,-28.809,-44.922,0.000,0
159983.959,-32.715,-26.367,-62.012,-38.086,0.000,0
159983.963,-27.832,-18.555,-57.617,-15.625,0.000,0
159983.967,-33.691,-20.020,-46.875,-23.438,0.000,0
159983.971,-33.203,-26.367,-23.438,-42.969,0.000,0
159983.974,-37.109,-29.785,-39.551,-20.996,0.000,0
159983.978,-38.086,-27.344,-81.055,-4.883,0.000,0
159983.982,-28.320,-22.461,-33.203,-2.441,0.000,0
159983.986,-36.133,-24.902,-9.766,-7.324,0.000,0
159983.990,-26.367,-31.738,-30.762,-45.410,0.000,0
159983.994,-22.461,-32.227,-22.461,-57.617,0.000,0
159983.998,-31.250,-28.809,-41.016,-41.504,0.000,0
159984.002,-39.062,-22.949,-49.805,-28.320,0.000,0
159984.006,-31.738,-25.391,-66.406,-23.926,0.000,0
159984.010,-27.832,-33.691,-34.180,-43.457,0.000,0
159984.013,-36.621,-32.227,-14.160,-65.430,0.000,0
159984.017,-31.738,-31.250,-37.109,-58.105,0.000,0
159984.021,-25.391,-34.668,-32.715,-43.945,0.000,0
159984.025,-30.273,-31.738,-21.973,-47.363,0.000,0
159984.029,-31.738,-28.320,2.441,-32.715,0.000,0
159984.033,-8.789,-26.855,-21.484,-27.832,0.000,0
159984.037,4.883,-18.555,-44.434,-23.438,0.000,0
159984.041,-15.137,-19.531,-32.227,-16.113,0.000,0
159984.045,-13.672,-21.484,-35.645,0.977,0.000,0
159984.049,-12.207,-20.996,-9.766,-22.949,0.000,0
159984.053,-22.949,-24.414,10.742,-50.781,0.000,0
159984.056,-18.066,-27.832,-27.832,-47.852,0.000,0
159984.060,-11.230,-28.809,-46.387,-41.992,0.000,0
159984.064,-7.324,-23.438,-43.945,-0.488,0.000,0
159984.068,-11.230,-23.438,-24.902,-16.113,0.000,0
159984.072,-17.578,-20.996,-1.953,-37.109,0.000,0
159984.076,-15.625,-15.625,-27.832,-11.230,0.000,0
159984.080,-12.207,-20.020,-51.270,-9.766,0.000,0
159984.084,-18.066,-23.438,-39.062,-20.996,0.000,0
159984.088,-19.531,-27.832,-14.648,-27.344,0.000,0
159984.092,-16.113,-28.320,-15.625,-44.922,0.000,0
159984.096,-13.672,-23.438,-48.340,-41.504,0.000,0
159984.099,-10.742,-23.926,-37.598,-20.020,0.000,0
159984.103,-10.254,-23.926,-42.480,4.395,0.000,0
159984.107,-13.184,-24.902,-42.480,-39.062,0.000,0
159984.111,-19.531,-27.344,-24.902,-45.410,0.000,0
159984.115,-27.344,-27.344,-42.480,-8.301,0.000,0
159984.119,-21.484,-23.926,-52.246,-13.672,0.000,0
159984.123,0.488,-17.090,-70.801,-4.395,0.000,0
159984.127,-15.625,-25.879,-46.387,-39.551,0.000,0
159984.131,-26.367,-24.902,-5.371,-53.711,0.000,0
159984.135,-14.648,-20.996,-39.062,-16.602,0.000,0
159984.138,-14.160,-27.832,-73.730,0.000,0.000,0
159984.142,-13.672,-28.809,-66.406,8.789,0.000,0
159984.146,-21.484,-38.086,-28.809,-20.508,0.000,0
159984.150,-25.391,-36.621,-41.504,-27.344,0.000,0
159984.154,-21.484,-33.691,-70.312,-14.648,0.000,0
159984.158,-26.367,-34.180,-59.570,-25.391,0.000,0
159984.162,-33.691,-27.832,-41.016,-28.320,0.000,0
159984.166,-35.645,-33.203,-43.457,-35.645,0.000,0
159984.170,-41.016,-37.109,-40.039,-48.340,0.000,0
159984.174,-41.504,-32.227,-33.203,-36.133,0.000,0
159984.178,-36.621,-30.762,-29.297,-10.254,0.000,0
159984.181,-21.973,-35.156,-61.035,-11.719,0.000,0
159984.185,-18.555,-35.645,-58.105,-32.227,0.000,0
159984.189,-26.367,-31.738,-41.992,-42.969,0.000,0
159984.193,-19.043,-32.227,-61.523,-40.039,0.000,0
159984.197,-14.648,-33.203,-58.105,-45.898,0.000,0
159984.201,-13.184,-28.320,-57.129,-23.438,0.000,0
159984.205,-18.555,-25.391,-42.480,-17.090,0.000,0
159984.209,-35.645,-22.461,-25.879,-41.992,0.000,0
159984.213,-26.367,-17.578,-46.387,-25.391,0.000,0
159984.217,-8.301,-22.949,-68.359,-3.906,0.000,0
159984.221,-23.926,-30.273,-28.320,9.766,0.000,0
159984.224,-34.180,-32.715,-27.344,-19.531,0.000,0
159984.228,-31.250,-33.691,-47.852,-62.988,0.000,0
159984.232,-36.133,-34.668,-35.156,-57.129,0.000,0
159984.236,-32.715,-34.668,-46.875,-19.043,0.000,0
159984.240,-31.250,-30.762,-79.590,-4.883,0.000,0
159984.244,-40.039,-29.785,-56.152,-26.855,0.000,0
159984.248,-33.691,-31.738,-20.996,-37.598,0.000,0
159984.252,-23.926,-28.320,-34.180,-21.484,0.000,0
159984.256,-28.809,-25.391,-39.062,-32.227,0.000,0
159984.260,-21.484,-22.949,-69.824,-27.832,0.000,0
159984.263,-23.438,-30.273,-52.246,-27.344,0.000,0
159984.267,-35.156,-30.273,13.672,-43.457,0.000,0
159984.271,-20.508,-22.461,-26.367,-42.969,0.000,0
159984.275,-15.625,-26.855,-51.758,-32.715,0.000,0
159984.279,-25.879,-26.367,-41.016,0.000,0.000,0
159984.283,-17.090,-22.461,-24.902,-21.484,0.000,0
159984.287,-15.625,-21.973,-6.348,-50.781,0.000,0
159984.291,-19.043,-18.555,-41.992,-10.742,0.000,0
159984.295,-16.113,-20.508,-52.734,-6.836,0.000,0
159984.299,-15.137,-22.949,-30.762,-9.766,0.000,0
159984.303,-15.625,-20.996,-28.809,-12.695,0.000,0
159984.306,-17.578,-23.438,-27.832,-42.969,0.000,0
159984.310,-20.020,-23.438,-15.625,-44.434,0.000,0
159984.314,-16.602,-18.555,-30.273,-20.020,0.000,0
159984.318,-17.090,-22.461,-70.801,-14.648,0.000,0
159984.322,-17.090,-32.715,-53.711,-42.969,0.000,0
159984.326,-19.531,-29.785,-21.484,-51.758,0.000,0
159984.330,-27.832,-25.879,-62.012,-14.160,0.000,0
159984.334,-21.484,-25.879,-58.105,-15.625,0.000,0
159984.338,-10.742,-20.508,-41.016,-33.691,0.000,0
159984.342,-11.719,-20.508,-57.129,-21.973,0.000,0
159984.346,-18.555,-23.438,-26.855,-50.293,0.000,0
159984.349,-16.113,-12.695,-24.902,-56.152,0.000,0
159984.353,-19.043,-14.160,-44.434,-2.441,0.000,0
159984.357,-24.902,-21.484,-43.457,13.184,0.000,0
159984.361,-8.301,-17.578,-53.223,-10.742,0.000,0
159984.365,-7.324,-18.555,-23.926,-47.363,0.000,0
159984.369,-20.996,-16.113,-31.250,-46.875,0.000,0
159984.373,-24.414,-19.531,-46.875,-35.645,0.000,0
159984.377,-27.832,-23.926,-53.711,-26.367,0.000,0
159984.381,-28.320,-26.367,-59.082,-23.926,0.000,0
159984.385,-31.250,-27.832,-8.789,-42.969,0.000,0
159984.388,-38.086,-21.973,-30.273,-30.273,0.000,0
159984.392,-37.109,-19.531,-64.941,-24.414,0.000,0
159984.396,-33.691,-18.066,-40.527,-38.574,0.000,0
159984.400,-34.180,-20.020,-16.113,-25.879,0.000,0
159984.404,-29.785,-22.461,0.488,-37.109,0.000,0
159984.408,-22.949,-18.066,-40.039,-48.340,0.000,0
159984.412,-27.832,-22.461,-67.871,-44.922,0.000,0
159984.416,-28.809,-24.414,-42.480,-28.809,0.000,0
159984.420,-18.066,-24.902,-49.316,-26.367,0.000,0
159984.424,-28.809,-31.250,-37.109,-40.527,0.000,0
159984.428,-29.785,-28.320,-31.738,-31.738,0.000,0
159984.431,-15.625,-26.367,-49.805,-12.207,0.000,0
159984.435,-16.602,-25.879,-40.039,-13.672,0.000,0
159984.439,-37.109,-22.949,-33.203,-14.160,0.000,0
159984.443,-44.922,-26.855,-44.922,-21.484,0.000,0
159984.447,-41.992,-31.738,-41.992,-43.945,0.000,0
159984.451,-31.250,-30.273,-46.387,-48.828,0.000,0
159984.455,-29.785,-30.762,-37.598,-51.758,0.000,0
159984.459,-30.762,-28.320,-77.148,-21.484,0.000,0
159984.463,-27.344,-27.344,-39.551,-35.645,0.000,0
159984.467,-31.738,-23.926,-27.344,-26.855,0.000,0
159984.471,-26.367,-17.090,-87.402,-12.207,0.000,0
159984.474,-25.879,-21.973,-77.148,-46.875,0.000,0
159984.478,-27.832,-22.461,-40.527,-22.949,0.000,0
159984.482,-24.902,-20.020,-27.832,-30.762,0.000,0
159984.486,-28.320,-20.020,-29.785,-47.363,0.000,0
159984.490,-42.969,-17.090,-41.992,-30.762,0.000,0
159984.494,-43.457,-15.137,-69.824,-35.645,0.000,0
159984.498,-31.738,-16.602,-83.496,-32.715,0.000,0
159984.502,-19.043,-16.602,-47.363,-33.203,0.000,0
159984.506,-8.789,-18.555,-20.996,-30.273,0.000,0
159984.510,-16.113,-23.438,-43.457,-21.484,0.000,0
159984.513,-26.367,-30.273,-43.945,-29.297,0.000,0
159984.517,-36.621,-33.691,-37.598,-32.227,0.000,0
159984.521,-37.598,-35.645,-31.250,-37.109,0.000,1
159984.525,-40.039,-30.762,-31.738,-64.453,0.000,0
159984.529,-35.156,-30.273,-68.359,-43.945,0.000,0
159984.533,-21.484,-32.715,-84.961,-16.113,0.000,0
159984.537,-30.762,-31.250,-55.176,-16.113,0.000,0
159984.541,-23.438,-29.785,-36.133,-40.039,0.000,0
159984.545,-14.160,-27.832,-51.270,-53.223,0.000,0
159984.549,-25.391,-22.461,-40.527,-41.992,0.000,0
159984.553,-7.324,-15.137,-41.992,-25.879,0.000,0
159984.556,-7.812,-19.043,-85.449,-9.277,0.000,0
159984.560,-28.320,-22.949,-48.828,-44.434,0.000,0
159984.564,-30.762,-22.461,-29.785,-36.621,0.000,0
159984.568,-26.855,-27.832,-71.289,-11.719,0.000,0
159984.572,-18.066,-29.297,-88.379,-26.367,0.000,0
159984.576,-25.879,-30.273,-61.035,-21.484,0.000,0
159984.580,-27.832,-29.785,-21.484,-27.344,0.000,0
159984.584,-18.066,-24.414,-30.762,-48.340,0.000,0
159984.588,-22.461,-20.508,-53.711,-35.156,0.000,0
159984.592,-33.203,-26.367,-50.781,-6.348,0.000,0
159984.596,-33.203,-30.273,-48.340,-11.230,0.000,0
159984.599,-16.602,-31.250,-50.293,-24.414,0.000,0
159984.603,-10.254,-30.273,-64.453,-17.578,0.000,0
159984.607,-8.301,-25.879,-62.988,-13.184,0.000,0
159984.611,0.000,-22.949,-49.805,17.578,0.000,0
159984.615,-11.230,-27.344,-58.594,20.996,0.000,0
159984.619,-24.414,-30.273,-42.969,-30.273,0.000,0
159984.623,-19.043,-26.367,-48.828,-57.617,0.000,0
159984.627,-29.785,-26.855,-54.688,-34.180,0.000,0
159984.631,-31.738,-25.879,-42.480,-10.254,0.000,0
159984.635,-12.695,-26.367,-76.172,2.441,0.000,0
159984.638,-11.230,-28.320,-41.016,-16.113,0.000,0
159984.642,-22.461,-25.391,-2.930,-41.016,0.000,0
159984.646,-15.137,-19.531,-62.012,-20.996,0.000,0
159984.650,-14.160,-23.438,-86.914,-4.395,0.000,0
159984.654,-20.996,-26.367,-62.988,-22.949,0.000,0
159984.658,-12.207,-25.879,-30.762,-47.363,0.000,0
159984.662,-7.324,-27.344,-32.227,-45.898,0.000,0
159984.666,-8.301,-20.508,-37.109,-11.230,0.000,0
159984.670,-16.113,-20.996,-43.457,7.324,0.000,0
159984.674,-24.414,-22.949,-62.500,2.930,0.000,0
159984.678,-27.344,-20.508,-34.180,-17.090,0.000,0
159984.681,-32.715,-19.531,-14.648,-30.273,0.000,0
159984.685,-21.973,-14.160,-22.949,-35.645,0.000,0
159984.689,2.930,-13.672,-45.410,-33.203,0.000,0
159984.693,14.648,-17.578,-56.641,21.973,0.000,0
159984.697,-12.695,-22.949,-16.113,2.930,0.000,0
159984.701,-42.480,-23.438,-9.766,-62.012,0.000,0
159984.705,-34.180,-22.949,-88.379,-23.926,0.000,0
159984.709,-31.738,-28.809,-110.352,-14.648,0.000,0
159984.713,-40.039,-33.691,-64.453,-22.949,0.000,0
159984.717,-28.809,-32.227,-12.207,-21.484,0.000,0
159984.721,-27.832,-28.809,-16.602,-51.270,0.000,0
159984.724,-34.668,-23.926,-40.527,-47.852,0.000,0
159984.728,-29.785,-23.926,-6.836,-17.090,0.000,0
159984.732,-19.531,-29.297,-30.273,2.441,0.000,0
159984.736,-19.531,-36.621,-50.293,-15.625,0.000,0
159984.740,-31.250,-40.039,-36.133,-44.434,0.000,0
159984.744,-28.809,-40.527,-41.504,-40.527,0.000,0
159984.748,-21.973,-39.551,-39.062,-37.109,0.000,0
159984.752,-17.090,-32.227,-95.215,-20.996,0.000,0
159984.756,-20.996,-31.250,-44.434,-21.973,0.000,0
159984.760,-16.113,-30.273,17.090,-41.016,0.000,0
159984.763,2.441,-24.414,-19.531,-27.832,0.000,0
159984.767,-6.836,-25.879,-23.438,-18.066,0.000,0
159984.771,-21.973,-29.297,-43.457,-5.371,0.000,0
159984.775,-26.367,-33.203,-37.109,-28.809,0.000,0
159984.779,-20.020,-40.039,-34.180,-63.477,0.000,0
159984.783,-22.949,-38.086,-83.008,-14.160,0.000,0
159984.787,-27.344,-34.668,-77.637,-11.719,0.000,0
159984.791,-15.625,-29.297,-64.941,-31.738,0.000,0
159984.795,-14.648,-27.832,-47.363,-19.531,0.000,0
159984.799,-16.113,-28.320,-21.484,-28.320,0.000,0
159984.803,-14.648,-25.879,-31.250,-28.320,0.000,0
159984.806,-22.461,-25.391,-42.969,-28.320,0.000,0
159984.810,-20.020,-24.414,-50.781,-17.578,0.000,0
159984.814,-12.207,-25.391,-40.527,-17.090,0.000,0
159984.818,-15.137,-26.367,-18.555,-42.480,0.000,0
159984.822,-27.344,-24.414,-39.551,-45.898,0.000,0
159984.826,-41.992,-27.832,-66.895,-34.668,0.000,0
159984.830,-33.203,-27.344,-71.289,-44.922,0.000,0
159984.834,-25.391,-23.438,-18.555,-24.902,0.000,0
159984.838,-25.391,-28.320,-1.953,-43.457,0.000,0
159984.842,-19.531,-30.762,-46.387,-57.129,0.000,0
159984.846,-15.625,-30.273,-27.832,-56.641,0.000,0
159984.849,-22.461,-25.879,-17.578,-58.594,0.000,0
159984.853,-26.367,-28.809,-71.777,-20.020,0.000,0
159984.857,-26.367,-35.156,-73.730,-52.246,0.000,0
159984.861,-20.508,-34.668,-38.574,-62.988,0.000,0
159984.865,-19.043,-31.250,-6.348,-41.016,0.000,0
159984.869,-26.367,-26.367,-40.039,-34.668,0.000,0
159984.873,-24.414,-24.902,-91.797,-20.996,0.000,0
159984.877,-22.461,-20.020,-22.461,-39.551,0.000,0
159984.881,-21.973,-18.066,5.859,-51.270,0.000,0
159984.885,-13.672,-19.043,-64.941,-23.438,0.000,0
159984.888,-9.277,-18.066,-82.031,-14.648,0.000,0
159984.892,-20.020,-19.043,-39.062,-13.184,0.000,0
159984.896,-15.625,-22.949,-4.883,-28.320,0.000,0
159984.900,-9.277,-25.879,-29.785,-41.992,0.000,0
159984.904,-21.973,-29.297,-47.852,-34.180,0.000,0
159984.908,-28.320,-30.762,-44.922,-28.809,0.000,0
159984.912,-22.949,-28.809,-49.805,2.930,0.000,0
159984.916,-7.812,-25.879,-51.270,-14.648,0.000,0
159984.920,-6.836,-20.508,-62.500,-40.527,0.000,0
159984.924,-23.438,-20.508,-35.156,-15.137,0.000,0
159984.928,-23.438,-18.555,-14.160,-0.977,0.000,0
159984.931,-12.695,-18.066,-43.945,-13.672,0.000,0
159984.935,-21.973,-23.438,-21.484,-31.250,0.000,0
159984.939,-29.785,-24.902,-38.086,-45.410,0.000,0
159984.943,-21.973,-28.320,-74.219,-50.781,0.000,0
159984.947,-22.949,-31.738,-66.406,-40.527,0.000,0
159984.951,-36.621,-30.762,-40.039,-22.461,0.000,0
159984.955,-40.039,-25.391,-17.090,-35.645,0.000,0
159984.959,-36.621,-22.949,-33.203,-32.227,0.000,0
159984.963,-28.809,-21.484,-67.871,0.977,0.000,0
159984.967,-26.855,-22.949,-52.734,-2.441,0.000,0
159984.971,-38.574,-27.832,-26.855,-11.230,0.000,0
159984.974,-34.668,-32.227,-39.551,-43.457,0.000,0
159984.978,-17.578,-34.668,-39.551,-61.035,0.000,0
159984.982,-28.809,-35.156,-27.344,-49.805,0.000,0
159984.986,-42.969,-35.645,-38.574,-27.832,0.000,0
159984.990,-32.715,-36.133,-74.707,-18.066,0.000,0
159984.994,-32.227,-37.598,-23.438,-46.387,0.000,0
159984.998,-36.621,-31.738,-10.742,-37.109,0.000,0
159985.002,-32.715,-30.762,-65.918,-18.066,0.000,0
159985.006,-33.203,-36.133,-41.016,-34.668,0.000,0
159985.010,-20.996,-35.645,-54.688,-33.691,0.000,0
159985.013,-26.855,-38.086,-13.184,-49.805,0.000,0
159985.017,-40.039,-36.133,12.695,-67.383,0.000,0
159985.021,-29.785,-29.785,-68.359,-46.387,0.000,0
159985.025,-33.691,-31.738,-74.219,-22.949,0.000,0
159985.029,-37.598,-35.645,-65.430,-41.504,0.000,0
159985.033,-35.645,-34.180,-32.715,-45.410,0.000,0
159985.037,-33.691,-27.344,-25.879,-58.105,0.000,0
159985.041,-28.320,-27.344,-41.504,-66.895,0.000,0
159985.045,-39.551,-32.715,-18.066,-58.594,0.000,0
159985.049,-41.992,-28.809,-26.855,-34.180,0.000,0
159985.053,-30.273,-35.156,-30.273,-31.738,0.000,0
159985.056,-40.039,-39.551,-32.715,-70.312,0.000,0
159985.060,-47.852,-33.691,-14.160,-58.105,0.000,0
159985.064,-28.320,-27.344,-54.688,-18.066,0.000,0
159985.068,-11.230,-22.949,-109.375,7.324,0.000,0
159985.072,-22.949,-27.832,-41.992,-29.785,0.000,0
159985.076,-17.578,-25.879,-1.465,-60.547,0.000,0
159985.080,-7.324,-23.438,-39.062,-36.133,0.000,0
159985.084,-25.391,-28.320,-36.133,-36.133,0.000,0
159985.088,-30.273,-28.809,-47.363,-23.926,0.000,0
159985.092,-26.855,-29.297,-45.898,-35.645,0.000,0
159985.096,-25.391,-25.391,-17.090,-47.363,0.000,0
159985.099,-29.297,-20.020,-41.992,-23.926,0.000,0
159985.103,-40.527,-28.809,-45.410,-15.625,0.000,0
159985.107,-33.203,-34.180,-50.781,-15.625,0.000,0
159985.111,-26.367,-31.250,-49.316,-28.320,0.000,0
159985.115,-32.227,-28.809,-13.184,-43.945,0.000,0
159985.119,-38.086,-29.297,-30.273,-39.062,0.000,0
159985.123,-37.598,-31.738,-61.035,-20.508,0.000,0
159985.127,-25.879,-32.227,-83.496,-5.859,0.000,0
159985.131,-20.508,-34.180,-53.711,-35.645,0.000,0
159985.135,-30.273,-35.645,-23.926,-43.457,0.000,0
159985.138,-30.762,-32.227,-72.754,-18.555,0.000,0
159985.142,-31.250,-33.691,-77.637,-11.719,0.000,0
159985.146,-37.598,-37.109,-45.898,-20.020,0.000,1
159985.150,-40.039,-38.574,-29.297,-35.156,0.000,0
159985.154,-33.203,-36.621,-48.340,-46.875,0.000,0
159985.158,-18.555,-33.203,-71.777,-49.805,0.000,0
159985.162,-23.438,-34.668,-30.762,-44.922,0.000,0
159985.166,-34.180,-33.203,-47.363,-17.090,0.000,0
159985.170,-31.250,-31.250,-79.590,-18.066,0.000,0
159985.174,-40.039,-34.180,-56.152,-31.738,0.000,0
159985.178,-39.062,-32.715,-66.895,-18.555,0.000,0
159985.181,-32.227,-31.738,-87.402,-14.648,0.000,0
159985.185,-31.250,-30.762,-91.309,-23.438,0.000,0
159985.189,-34.180,-29.785,-72.266,-21.973,0.000,0
159985.193,-47.363,-34.668,-24.414,-41.992,0.000,0
159985.197,-45.898,-33.203,-39.551,-55.176,0.000,0
159985.201,-31.738,-28.809,-84.961,-14.648,0.000,0
159985.205,-25.879,-30.762,-92.773,-23.926,0.000,0
159985.209,-37.598,-31.738,-46.387,-58.594,0.000,0
159985.213,-33.691,-29.297,-15.625,-43.457,0.000,0
159985.217,-28.320,-21.973,-42.480,-33.691,0.000,0
159985.221,-40.039,-15.137,-40.039,-39.551,0.000,0
159985.224,-33.691,-19.531,-45.410,-23.438,0.000,0
159985.228,-27.344,-23.926,-62.012,-0.977,0.000,0
159985.232,-25.879,-22.949,-28.320,-29.297,0.000,0
159985.236,-28.809,-19.043,-29.297,-32.715,0.000,0
159985.240,-32.227,-20.020,-62.012,-10.742,0.000,0
159985.244,-23.926,-25.879,-62.500,0.488,0.000,0
159985.248,-22.949,-26.367,-52.246,-11.719,0.000,0
159985.252,-33.203,-25.391,-18.555,-37.598,0.000,0
159985.256,-34.180,-21.484,-22.949,-47.363,0.000,0
159985.260,-26.855,-19.043,-63.477,-47.852,0.000,0
159985.263,-24.414,-27.344,-29.785,-60.059,0.000,0
159985.267,-24.902,-25.879,-21.973,-20.996,0.000,0
159985.271,-27.344,-21.973,-51.758,-12.695,0.000,0
159985.275,-20.996,-19.043,-61.035,-36.133,0.000,0
159985.279,-14.648,-18.066,-65.918,-8.301,0.000,0
159985.283,-23.926,-22.949,-48.828,-0.488,0.000,0
159985.287,-36.621,-20.996,-50.781,-11.719,0.000,0
159985.291,-24.902,-23.438,-54.688,-33.691,0.000,0
159985.295,-6.348,-22.949,-41.992,-39.551,0.000,0
159985.299,-17.090,-19.043,-15.137,-17.090,0.000,0
159985.303,-26.855,-19.043,-40.527,-9.766,0.000,0
159985.306,-15.137,-20.996,-89.844,-5.859,0.000,0
159985.310,-10.254,-23.926,-43.945,-22.949,0.000,0
159985.314,-11.719,-24.414,-33.691,-24.414,0.000,0
159985.318,-19.531,-26.367,-70.312,-6.836,0.000,0
159985.322,-17.090,-25.879,-70.312,-21.973,0.000,0
159985.326,-14.160,-22.949,-50.781,-21.973,0.000,0
159985.330,-13.672,-26.855,-10.742,-42.480,0.000,0
159985.334,-16.113,-22.949,-9.766,-54.199,0.000,0
159985.338,-16.113,-18.066,-54.199,-55.664,0.000,0
159985.342,-11.230,-18.555,-58.594,-43.457,0.000,0
159985.346,-18.066,-18.555,-24.414,-13.184,0.000,0
159985.349,-20.508,-23.926,-15.137,-24.414,0.000,0
159985.353,-23.926,-23.926,-25.879,-29.297,0.000,0
159985.357,-23.926,-22.461,-52.246,-13.184,0.000,0
159985.361,-20.996,-28.809,-51.270,-11.230,0.000,0
159985.365,-19.531,-30.762,-28.809,-25.391,0.000,0
159985.369,-14.160,-26.855,-10.254,-53.711,0.000,0
159985.373,-11.230,-19.043,-37.598,-51.758,0.000,0
159985.377,-13.672,-16.113,-41.016,-30.762,0.000,0
159985.381,-22.949,-23.438,-37.109,-8.301,0.000,0
159985.385,-31.250,-27.344,-77.637,5.371,0.000,0
159985.388,-25.879,-25.879,-24.414,-21.484,0.000,0
159985.392,-20.020,-25.391,9.766,-41.992,0.000,0
159985.396,-10.254,-21.484,-58.105,-33.691,0.000,0
159985.400,-12.207,-21.484,-43.945,-40.039,0.000,0
159985.404,-22.461,-20.508,-54.688,-13.672,0.000,0
159985.408,-22.949,-25.879,-50.781,-23.438,0.000,0
159985.412,-21.973,-28.809,-14.160,-37.598,0.000,0
159985.416,-19.043,-27.832,-45.898,-21.484,0.000,0
159985.420,-14.648,-25.391,-56.641,-36.133,0.000,0
159985.424,-18.555,-23.438,-47.363,-28.320,0.000,0
159985.428,-14.648,-26.367,-31.250,-21.484,0.000,0
159985.431,-15.137,-22.949,-8.301,-42.480,0.000,0
159985.435,-23.926,-19.531,-11.230,-41.504,0.000,0
159985.439,-11.230,-21.484,-41.016,-39.551,0.000,0
159985.443,-2.441,-17.090,-64.941,-14.648,0.000,0
159985.447,-12.695,-15.625,-22.461,-28.809,0.000,0
159985.451,-13.184,-17.578,-5.859,-38.574,0.000,0
159985.455,-10.254,-21.484,-27.832,-16.113,0.000,0
159985.459,-11.230,-19.531,-44.922,-24.414,0.000,0
159985.463,-14.160,-16.602,-57.617,-13.184,0.000,0
159985.467,-19.531,-22.461,-13.672,-24.414,0.000,0
159985.471,-20.508,-21.484,-1.953,-36.621,0.000,0
159985.474,-26.855,-16.113,-24.414,-22.949,0.000,0
159985.478,-23.438,-18.066,-29.785,-23.438,0.000,0
159985.482,-20.996,-20.020,-53.711,-7.324,0.000,0
159985.486,-20.508,-22.461,-73.730,-34.668,0.000,0
159985.490,-15.625,-20.508,-50.781,-45.410,0.000,0
159985.494,-20.020,-15.625,-26.855,1.465,0.000,0
159985.498,-11.719,-21.973,-26.367,-8.301,0.000,0
159985.502,6.836,-21.973,-48.828,-15.625,0.000,0
159985.506,6.348,-17.090,-39.062,-21.484,0.000,0
159985.510,-11.230,-19.531,-21.484,-40.039,0.000,0
159985.513,-16.602,-21.973,-40.039,-19.531,0.000,0
159985.517,-17.578,-23.926,-51.270,-0.488,0.000,0
159985.521,-21.973,-25.391,-51.270,-11.719,0.000,0
159985.525,-32.227,-23.438,-41.016,-25.879,0.000,0
159985.529,-39.062,-25.391,-31.738,-21.484,0.000,0
159985.533,-32.715,-28.809,-61.035,-5.859,0.000,0
159985.537,-36.621,-25.879,-66.406,-22.461,0.000,0
159985.541,-36.133,-20.508,-40.527,-32.715,0.000,0
159985.545,-18.555,-22.461,-39.551,-10.742,0.000,0
159985.549,-19.531,-24.902,-29.785,-28.320,0.000,0
159985.553,-34.180,-22.949,-27.832,-23.926,0.000,0
159985.556,-32.227,-23.438,-53.223,-12.695,0.000,0
159985.560,-18.555,-17.578,-64.941,-10.254,0.000,0
159985.564,-20.020,-17.578,-43.457,-8.789,0.000,0
159985.568,-30.762,-20.996,-20.020,-33.203,0.000,0
159985.572,-25.879,-20.020,-23.438,-74.707,0.000,0
159985.576,-16.602,-23.926,-50.781,-48.340,0.000,0
159985.580,-10.742,-25.391,-82.520,11.230,0.000,0
159985.584,-19.531,-26.367,-48.828,6.836,0.000,0
159985.588,-25.391,-28.320,-16.113,-19.531,0.000,0
159985.592,-17.578,-24.902,-45.898,-23.926,0.000,0
159985.596,-8.301,-19.043,-66.406,-11.230,0.000,0
159985.599,-11.719,-22.461,-40.527,-11.230,0.000,0
159985.603,-20.020,-20.508,-31.738,-2.441,0.000,0
159985.607,-18.066,-16.113,-20.996,-35.156,0.000,0
159985.611,-18.066,-20.996,-16.602,-44.434,0.000,0
159985.615,-26.367,-24.414,-13.184,-24.902,0.000,0
159985.619,-24.902,-23.926,-39.062,-22.949,0.000,0
159985.623,-23.438,-25.879,-100.586,-14.648,0.000,0
159985.627,-35.156,-28.320,-41.504,-33.203,0.000,0
159985.631,-26.855,-23.926,3.906,-21.484,0.000,0
159985.635,-16.602,-16.113,-53.223,0.000,0.000,0
159985.638,-21.973,-14.648,-53.711,-6.348,0.000,0
159985.642,-24.414,-18.066,-26.367,-7.324,0.000,0
159985.646,-22.949,-24.902,9.766,-43.945,0.000,0
159985.650,-26.367,-25.391,7.812,-65.918,0.000,0
159985.654,-23.438,-23.926,-40.527,-50.781,0.000,0
159985.658,-20.996,-24.902,-41.992,-50.293,0.000,0
159985.662,-29.785,-24.414,-32.715,-26.855,0.000,0
159985.666,-20.020,-30.762,-40.527,-27.344,0.000,0
159985.670,-16.113,-31.738,-66.895,-34.668,0.000,0
159985.674,-30.762,-29.785,-35.645,-22.949,0.000,0
159985.678,-20.020,-27.832,11.719,-32.227,0.000,0
159985.681,-13.672,-28.809,-73.242,-21.484,0.000,0
159985.685,-19.531,-40.527,-51.758,-46.875,0.000,0
159985.689,-20.508,-37.109,-4.395,-73.730,0.000,0
159985.693,-29.297,-32.227,-28.809,-43.457,0.000,0
159985.697,-28.320,-30.762,-34.180,-8.301,0.000,0
159985.701,-26.367,-27.832,-36.133,-11.719,0.000,0
159985.705,-25.879,-30.762,-10.254,-39.062,0.000,0
159985.709,-25.391,-32.715,-12.207,-34.180,0.000,0
159985.713,-20.508,-29.297,-41.016,-17.578,0.000,0
159985.717,-21.973,-28.809,-17.090,-27.344,0.000,0
159985.721,-21.973,-27.832,-18.066,-29.297,0.000,1
159985.724,-11.719,-27.344,-30.273,-52.734,0.000,0
159985.728,-21.484,-25.391,-15.625,-70.312,0.000,0
159985.732,-22.949,-22.949,-19.531,-52.734,0.000,0
159985.736,-18.555,-21.973,-32.715,-21.973,0.000,0
159985.740,-19.531,-22.461,-59.082,-6.348,0.000,0
159985.744,-18.555,-28.320,-23.438,-25.391,0.000,0
159985.748,-20.508,-24.414,8.789,-39.062,0.000,0
159985.752,-25.391,-21.973,-23.926,-35.156,0.000,0
159985.756,-35.156,-27.832,-28.320,-36.621,0.000,0
159985.760,-29.785,-21.973,-65.430,-7.324,0.000,0
159985.763,-22.949,-20.508,-20.020,-6.836,0.000,0
159985.767,-27.832,-24.414,39.551,-55.176,0.000,0
159985.771,-18.555,-21.973,-55.176,-26.855,0.000,0
159985.775,-6.348,-23.926,-78.613,0.977,0.000,0
159985.779,-13.184,-23.438,-19.531,-12.207,0.000,0
159985.783,-18.555,-21.973,-24.902,-4.883,0.000,0
159985.787,-28.809,-25.391,-48.828,-40.527,0.000,0
159985.791,-40.527,-25.879,-54.688,-56.152,0.000,0
159985.795,-30.762,-30.273,-32.715,-35.156,0.000,0
159985.799,-25.391,-30.762,-41.504,-21.973,0.000,0
159985.803,-36.133,-30.762,-60.547,-15.625,0.000,0
159985.806,-38.086,-27.344,-47.363,-38.086,0.000,0
159985.810,-33.203,-25.879,-48.340,-39.062,0.000,0
159985.814,-26.855,-26.855,-76.172,-15.625,0.000,0
159985.818,-34.668,-28.320,-85.938,-27.832,0.000,0
159985.822,-43.457,-31.738,-68.359,-33.691,0.000,0
159985.826,-45.410,-35.156,-46.387,-42.969,0.000,0
159985.830,-42.480,-32.227,-70.312,-58.594,0.000,0
159985.834,-35.645,-28.320,-107.910,-52.246,0.000,0
159985.838,-35.156,-29.297,-96.680,-15.137,0.000,0
159985.842,-35.645,-34.180,-65.430,-23.926,0.000,0
159985.846,-33.203,-33.691,-45.410,-49.805,0.000,0
159985.849,-37.598,-29.297,-59.082,-13.672,0.000,0
159985.853,-39.551,-25.391,-50.293,-4.883,0.000,0
159985.857,-32.227,-24.902,-43.945,-27.832,0.000,0
159985.861,-20.020,-28.809,-66.406,-34.668,0.000,0
159985.865,-17.578,-29.785,-43.457,-52.734,0.000,0
159985.869,-13.184,-27.832,-47.852,-41.504,0.000,0
159985.873,-19.043,-25.391,-76.660,-32.715,0.000,0
159985.877,-24.902,-23.926,-79.102,-36.133,0.000,0
159985.881,-20.020,-25.391,-43.457,-22.461,0.000,0
159985.885,-23.926,-23.438,-14.648,-25.391,0.000,0
159985.888,-23.438,-22.949,-41.992,-41.016,0.000,0
159985.892,-18.555,-23.926,-48.340,-42.969,0.000,0
159985.896,-36.621,-27.344,-13.184,-27.344,0.000,0
159985.900,-38.574,-27.344,-8.301,-1.953,0.000,0
159985.904,-27.832,-23.926,-26.855,-4.395,0.000,0
159985.908,-25.391,-25.879,-56.641,-48.340,0.000,0
159985.912,-33.691,-26.367,-50.781,-34.668,0.000,0
159985.916,-36.621,-20.508,-45.898,-11.230,0.000,0
159985.920,-20.996,-13.672,-52.734,-19.043,0.000,0
159985.924,-12.207,-13.672,-30.762,-42.969,0.000,0
159985.928,-29.297,-14.160,-20.996,-46.875,0.000,0
159985.931,-33.691,-16.113,-22.461,-30.273,0.000,0
159985.935,-25.391,-20.508,-40.527,-36.621,0.000,0
159985.939,-34.668,-20.020,-52.734,-36.133,0.000,0
159985.943,-40.039,-21.973,-14.160,-43.457,0.000,0
159985.947,-32.227,-26.855,-11.719,-46.387,0.000,0
159985.951,-22.461,-24.902,-67.383,-9.277,0.000,0
159985.955,-21.973,-27.832,-62.500,-34.668,0.000,0
159985.959,-30.273,-33.203,-5.371,-53.223,0.000,0
159985.963,-27.344,-27.832,-21.484,-8.301,0.000,0
159985.967,-16.113,-20.508,-39.551,-20.020,0.000,0
159985.971,-27.344,-17.578,-38.086,-31.738,0.000,0
159985.974,-36.133,-20.508,-41.016,-22.461,0.000,0
159985.978,-26.855,-17.090,-58.594,-9.277,0.000,0
159985.982,-29.297,-23.926,-20.996,-44.434,0.000,0
159985.986,-37.109,-25.391,-11.230,-47.363,0.000,0
159985.990,-28.809,-20.020,-59.082,-9.277,0.000,0
159985.994,-16.113,-23.438,-58.105,-13.672,0.000,0
159985.998,-16.113,-24.902,-51.270,-10.742,0.000,0
159986.002,-33.691,-25.879,-10.742,-13.184,0.000,0
159986.006,-40.527,-25.879,-14.648,-28.809,0.000,0
159986.010,-30.762,-27.344,-57.129,-43.457,0.000,0
159986.013,-24.902,-26.367,-48.828,-40.039,0.000,0
159986.017,-29.785,-28.809,-41.992,-13.672,0.000,0
159986.021,-40.039,-35.156,-32.227,-37.109,0.000,0
159986.025,-28.809,-35.645,-55.664,-50.293,0.000,0
159986.029,-20.996,-30.273,-76.172,-11.230,0.000,0
159986.033,-25.879,-23.926,-22.949,-6.348,0.000,0
159986.037,-25.391,-21.973,-11.719,-18.555,0.000,0
159986.041,-20.508,-23.926,-36.133,-42.969,0.000,0
159986.045,-11.719,-20.996,-28.320,-49.316,0.000,0
159986.049,-12.207,-20.996,1.465,-27.832,0.000,0
159986.053,-13.184,-26.855,1.465,-12.207,0.000,0
159986.056,-24.414,-25.391,-54.199,-17.578,0.000,0
159986.060,-32.715,-28.809,-21.973,-41.504,0.000,0
159986.064,-29.297,-32.715,9.277,-50.781,0.000,0
159986.068,-21.973,-32.715,-39.062,-38.574,0.000,0
159986.072,-19.043,-35.156,-70.801,-25.391,0.000,0
159986.076,-27.344,-35.156,-64.941,-8.301,0.000,0
159986.080,-27.344,-39.062,-24.902,-25.879,0.000,0
159986.084,-27.832,-41.016,-9.766,-44.434,0.000,0
159986.088,-32.715,-40.039,-55.176,-37.109,0.000,0
159986.092,-23.926,-36.621,-56.152,-34.180,0.000,0
159986.096,-13.672,-27.832,-43.945,-17.578,0.000,0
159986.099,-10.254,-31.250,-38.086,-33.203,0.000,0
159986.103,-20.020,-34.668,-38.574,-66.895,0.000,0
159986.107,-30.273,-28.809,-47.363,-46.387,0.000,0
159986.111,-34.668,-30.762,-38.086,-25.879,0.000,0
159986.115,-34.180,-32.227,-62.500,-17.578,0.000,0
159986.119,-25.879,-29.297,-51.758,-25.879,0.000,0
159986.123,-25.879,-29.297,-25.391,-51.270,0.000,0
159986.127,-22.461,-27.832,-48.340,-30.273,0.000,0
159986.131,-22.949,-31.250,-48.340,-9.766,0.000,0
159986.135,-20.996,-27.832,-64.453,-21.973,0.000,0
159986.138,-23.926,-23.926,-40.527,-34.668,0.000,0
159986.142,-25.879,-24.902,-7.812,-33.203,0.000,0
159986.146,-17.090,-23.926,-54.199,-6.348,0.000,0
159986.150,-26.367,-33.203,-50.781,-4.883,0.000,0
159986.154,-27.832,-36.621,-58.594,-19.043,0.000,0
159986.158,-20.508,-35.156,-65.918,-16.113,0.000,0
159986.162,-19.043,-36.133,-37.598,-44.434,0.000,0
159986.166,-24.414,-32.715,-40.039,-39.062,0.000,0
159986.170,-21.484,-31.250,-54.688,-20.508,0.000,0
159986.174,-27.832,-30.762,-62.500,-31.738,0.000,0
159986.178,-32.227,-28.320,-54.688,-22.949,0.000,0
159986.181,-27.832,-25.879,-26.855,-29.297,0.000,0
159986.185,-25.391,-26.367,-19.531,-31.250,0.000,0
159986.189,-15.625,-28.320,-48.828,-38.086,0.000,0
159986.193,-14.648,-30.273,-55.664,-39.551,0.000,0
159986.197,-14.648,-28.809,-53.223,-7.324,0.000,0
159986.201,-17.090,-30.762,-32.715,-21.484,0.000,0
159986.205,-20.996,-27.832,-56.152,-19.531,0.000,0
159986.209,-22.949,-24.414,-63.965,-10.742,0.000,0
159986.213,-24.414,-25.879,-37.598,-29.785,0.000,0
159986.217,-27.344,-26.855,-32.227,-40.039,0.000,0
159986.221,-32.227,-29.785,-29.785,-56.152,0.000,0
159986.224,-25.879,-27.344,-39.062,-34.668,0.000,0
159986.228,-27.832,-27.832,-30.762,-23.926,0.000,0
159986.232,-28.809,-32.227,-31.738,-20.508,0.000,0
159986.236,-16.602,-32.227,-62.988,-2.441,0.000,0
159986.240,-22.949,-30.273,-40.039,-29.785,0.000,0
159986.244,-24.902,-29.297,-37.109,-48.828,0.000,0
159986.248,-19.531,-32.227,-50.293,-38.086,0.000,0
159986.252,-23.926,-35.645,-51.270,-23.926,0.000,0
159986.256,-37.598,-36.133,-65.430,-15.625,0.000,0
159986.260,-31.250,-35.645,-42.480,-36.621,0.000,0
159986.263,-22.461,-32.715,-41.504,-35.156,0.000,0
159986.267,-23.926,-26.855,-58.105,-11.230,0.000,0
159986.271,-20.996,-23.926,-51.758,-6.836,0.000,0
159986.275,-10.254,-20.508,-35.645,14.648,0.000,0
159986.279,-3.418,-27.344,-32.227,7.812,0.000,0
159986.283,-34.180,-30.273,-53.711,-42.969,0.000,0
159986.287,-52.246,-26.855,-57.617,-56.641,0.000,0
159986.291,-34.668,-22.461,-56.152,-38.086,0.000,0
159986.295,-25.879,-20.996,-59.082,-26.855,0.000,0
159986.299,-26.855,-22.949,-49.805,-41.504,0.000,0
159986.303,-35.645,-17.090,-35.645,-39.062,0.000,0
159986.306,-41.992,-15.137,-53.711,-23.926,0.000,0
159986.310,-20.508,-18.555,-56.152,-21.973,0.000,0
159986.314,-17.090,-18.555,-40.039,-1.953,0.000,0
159986.318,-36.621,-26.855,12.207,-29.297,0.000,0
159986.322,-32.715,-34.668,3.906,-60.547,0.000,1
159986.326,-15.137,-26.855,-48.340,-43.457,0.000,0
159986.330,-16.602,-22.461,-37.109,-18.555,0.000,0
159986.334,-19.531,-26.855,-40.527,-16.113,0.000,0
159986.338,-9.277,-29.785,-24.414,-54.688,0.000,0
159986.342,-5.371,-22.949,-39.551,-25.391,0.000,0
159986.346,-10.254,-18.555,-50.781,11.719,0.000,0
159986.349,-16.602,-24.902,-34.668,-3.418,0.000,0
159986.353,-24.414,-22.461,-51.758,-11.719,0.000,0
159986.357,-23.438,-20.508,-27.832,-39.062,0.000,0
159986.361,-31.250,-25.879,-8.789,-42.480,0.000,0
159986.365,-38.086,-22.461,-22.461,-15.625,0.000,0
159986.369,-27.832,-24.414,-49.316,-17.090,0.000,0
159986.373,-20.996,-25.879,-88.867,-20.508,0.000,0
159986.377,-23.438,-26.367,-16.602,-46.387,0.000,0
159986.381,-24.902,-30.762,22.461,-37.598,0.000,0
159986.385,-12.207,-31.250,-46.387,-9.766,0.000,0
159986.388,-7.812,-30.762,-56.641,-15.137,0.000,0
159986.392,-22.461,-30.273,-41.016,-19.531,0.000,0
159986.396,-26.855,-35.156,-24.414,-69.824,0.000,0
159986.400,-18.555,-33.203,-43.457,-71.289,0.000,0
159986.404,-12.695,-29.785,-78.613,-13.184,0.000,0
159986.408,-18.555,-30.273,-55.664,-4.395,0.000,0
159986.412,-16.602,-25.391,-21.484,-6.836,0.000,0
159986.416,-10.254,-27.832,-23.438,-36.621,0.000,0
159986.420,-20.508,-27.832,-24.902,-51.758,0.000,0
159986.424,-31.738,-20.508,-20.508,-24.902,0.000,0
159986.428,-26.855,-20.996,-21.484,-23.438,0.000,0
159986.431,-10.742,-19.043,-50.781,0.000,0.000,0
159986.435,-9.766,-20.020,-29.297,-18.555,0.000,0
159986.439,-14.648,-24.902,-6.348,-47.363,0.000,0
159986.443,-15.625,-22.461,-39.062,-4.395,0.000,0
159986.447,-11.719,-21.973,-70.312,8.789,0.000,0
159986.451,-6.836,-23.438,-61.523,-1.953,0.000,0
159986.455,-16.113,-27.832,-30.762,-8.789,0.000,0
159986.459,-21.484,-28.320,-29.297,-40.039,0.000,0
159986.463,-18.555,-28.809,-20.996,-56.641,0.000,0
159986.467,-23.438,-22.461,-26.367,-3.906,0.000,0
159986.471,-19.043,-18.555,-72.266,7.324,0.000,0
159986.474,-22.949,-21.973,-63.965,-36.133,0.000,0
159986.478,-14.648,-20.020,-29.785,-38.574,0.000,0
159986.482,-3.906,-21.484,-49.805,-19.531,0.000,0
159986.486,-7.812,-18.066,-61.523,-12.695,0.000,0
159986.490,-0.977,-12.207,-60.547,-2.441,0.000,0
159986.494,-9.277,-20.996,-16.113,-29.297,0.000,0
159986.498,-15.625,-26.855,-1.953,-65.918,0.000,0
159986.502,-14.160,-23.438,-51.758,-21.973,0.000,0
159986.506,-23.926,-25.391,-64.453,13.672,0.000,0
159986.510,-22.949,-27.344,-77.148,-0.488,0.000,0
159986.513,-29.297,-29.297,-26.855,-35.645,0.000,0
159986.517,-25.879,-30.762,-37.109,-32.715,0.000,0
159986.521,-14.160,-28.320,-83.496,-14.160,0.000,0
159986.525,-14.160,-24.902,-57.617,-45.898,0.000,0
159986.529,-13.672,-22.461,-43.457,-34.180,0.000,0
159986.533,-15.137,-22.461,-33.203,-10.742,0.000,0
159986.537,-20.996,-21.973,-23.926,-37.109,0.000,0
159986.541,-24.414,-23.438,-34.668,-37.109,0.000,0
159986.545,-20.020,-26.855,-52.246,-25.879,0.000,0
159986.549,-19.531,-25.879,-47.363,-28.320,0.000,0
159986.553,-25.879,-26.855,-31.250,-25.391,0.000,0
159986.556,-19.531,-24.902,-34.180,-26.367,0.000,0
159986.560,-11.719,-18.555,-35.645,-6.836,0.000,0
159986.564,-17.578,-22.461,-38.574,-10.254,0.000,0
159986.568,-20.508,-28.809,-35.645,-20.508,0.000,0
159986.572,-31.250,-32.715,-25.391,-41.016,0.000,0
159986.576,-33.203,-26.367,-19.043,-80.078,0.000,0
159986.580,-23.438,-21.484,-35.156,-44.434,0.000,0
159986.584,-26.367,-31.738,-48.828,-18.555,0.000,0
159986.588,-28.809,-29.785,-41.016,-23.926,0.000,0
159986.592,-27.832,-28.320,-34.180,-45.410,0.000,0
159986.596,-34.180,-34.668,-18.066,-66.895,0.000,0
159986.599,-24.414,-36.621,-30.273,-49.805,0.000,0
159986.603,-21.973,-38.574,-11.230,-64.941,0.000,0
159986.607,-34.668,-33.691,-63.477,-42.969,0.000,0
159986.611,-28.809,-32.227,-110.352,-25.391,0.000,0
159986.615,-31.250,-35.645,-57.129,-58.105,0.000,0
159986.619,-35.645,-33.203,-45.898,-33.691,0.000,0
159986.623,-35.645,-33.691,-63.965,-26.367,0.000,0
159986.627,-35.156,-38.086,-62.500,-19.043,0.000,0
159986.631,-30.273,-41.016,-33.691,-22.461,0.000,0
159986.635,-19.531,-36.133,-24.414,-53.711,0.000,0
159986.638,-18.555,-34.668,-56.641,-45.410,0.000,0
159986.642,-22.949,-35.156,-48.340,-38.086,0.000,0
159986.646,-25.391,-30.762,-35.645,-14.648,0.000,0
159986.650,-19.531,-28.809,-52.246,-14.160,0.000,0
159986.654,-18.066,-30.273,-38.086,-31.738,0.000,0
159986.658,-38.086,-30.273,-40.527,-13.672,0.000,0
159986.662,-38.574,-31.250,-47.852,1.465,0.000,0
159986.666,-24.902,-32.227,-49.316,-17.578,0.000,0
159986.670,-23.926,-31.250,-45.898,-48.340,0.000,0
159986.674,-30.762,-26.367,-18.555,-58.105,0.000,0
159986.678,-34.668,-23.438,-14.160,-40.527,0.000,0
159986.681,-23.926,-25.391,-23.926,-30.273,0.000,0
159986.685,-21.973,-24.902,-50.781,-23.926,0.000,0
159986.689,-30.762,-22.949,-46.875,-22.461,0.000,0
159986.693,-34.180,-24.414,3.418,-46.387,0.000,0
159986.697,-26.367,-26.855,-30.762,-32.715,0.000,0
159986.701,-21.973,-30.273,-93.750,-23.926,0.000,0
159986.705,-36.621,-33.691,-66.406,-51.758,0.000,0
159986.709,-45.410,-34.668,-6.836,-30.762,0.000,0
159986.713,-39.062,-35.156,4.395,-36.621,0.000,0
159986.717,-41.016,-30.762,-17.578,-43.945,0.000,0
159986.721,-44.922,-34.668,-54.199,-43.457,0.000,0
159986.724,-40.039,-32.715,-49.805,-25.391,0.000,0
159986.728,-38.086,-28.809,-36.621,-2.441,0.000,0
159986.732,-46.387,-36.133,-21.484,-31.738,0.000,0
159986.736,-40.527,-31.250,-43.945,-15.625,0.000,0
159986.740,-30.273,-24.414,-53.711,-13.672,0.000,0
159986.744,-24.902,-21.973,-63.965,-23.438,0.000,0
159986.748,-17.090,-25.879,-65.430,-21.973,0.000,0
159986.752,-36.621,-32.227,9.766,-44.922,0.000,0
159986.756,-50.293,-32.227,-0.488,-48.340,0.000,0
159986.760,-26.367,-29.297,-55.176,-19.531,0.000,0
159986.763,-12.207,-27.344,-39.551,-13.672,0.000,0
159986.767,-18.555,-25.391,-24.902,-40.039,0.000,0
159986.771,-27.832,-21.973,-6.836,-46.387,0.000,0
159986.775,-30.762,-18.555,-23.926,-27.832,0.000,0
159986.779,-26.367,-28.809,-62.500,-36.133,0.000,0
159986.783,-27.832,-31.738,-32.715,-37.109,0.000,0
159986.787,-27.832,-23.926,-35.645,-14.160,0.000,0
159986.791,-18.066,-22.461,-50.293,-30.762,0.000,0
159986.795,-16.113,-25.879,-44.434,-42.969,0.000,0
159986.799,-13.184,-23.926,-7.324,-13.184,0.000,0
159986.803,-6.348,-23.438,-41.016,3.906,0.000,0
159986.806,-15.137,-29.785,-58.594,-7.812,0.000,0
159986.810,-23.926,-32.227,-10.742,-19.043,0.000,0
159986.814,-20.508,-25.879,-26.367,-25.391,0.000,0
159986.818,-20.508,-28.320,-49.316,-37.598,0.000,0
159986.822,-35.156,-34.180,-55.664,-30.273,0.000,0
159986.826,-34.668,-31.738,-55.176,-17.090,0.000,0
159986.830,-24.902,-34.180,-31.250,-43.457,0.000,0
159986.834,-25.391,-31.250,-21.973,-75.684,0.000,0
159986.838,-26.855,-26.367,-58.105,-33.691,0.000,0
159986.842,-28.809,-29.297,-53.223,-17.090,0.000,0
159986.846,-21.484,-29.785,-38.574,-26.855,0.000,0
159986.849,-11.719,-34.180,-49.805,-29.785,0.000,0
159986.853,-11.719,-32.715,-44.922,-53.223,0.000,0
159986.857,-27.344,-27.832,-39.062,-44.434,0.000,0
159986.861,-35.645,-29.297,-47.363,-27.832,0.000,0
159986.865,-32.715,-29.297,-56.641,-16.602,0.000,0
159986.869,-37.109,-28.809,-62.988,-31.250,0.000,0
159986.873,-24.902,-26.367,-42.969,-29.785,0.000,0
159986.877,-12.207,-25.879,-42.480,-14.648,0.000,0
159986.881,-20.996,-26.367,-38.574,-28.320,0.000,0
159986.885,-18.555,-20.020,-30.273,-7.324,0.000,0
159986.888,-22.949,-17.578,-17.090,-32.227,0.000,0
159986.892,-23.926,-21.973,-25.391,-58.105,0.000,0
159986.896,-21.484,-26.367,-64.453,-24.902,0.000,0
159986.900,-20.020,-28.320,-75.195,0.488,0.000,0
159986.904,-17.090,-25.879,-56.641,-7.812,0.000,0
159986.908,-21.973,-27.344,-15.137,-41.016,0.000,0
159986.912,-27.344,-23.926,-20.996,-28.320,0.000,0
159986.916,-23.438,-20.996,-47.363,-19.043,0.000,0
159986.920,-19.531,-23.438,-46.875,-36.133,0.000,0
159986.924,-26.855,-25.879,-55.664,-27.832,0.000,0
159986.928,-25.879,-30.762,-14.648,-30.762,0.000,0
159986.931,-23.438,-30.762,-9.277,-34.180,0.000,0
159986.935,-27.344,-29.785,-63.965,-26.367,0.000,0
159986.939,-27.344,-27.832,-77.148,-25.879,0.000,0
159986.943,-29.785,-26.855,-43.945,-18.066,0.000,0
159986.947,-22.949,-29.297,-15.625,-11.719,0.000,0
159986.951,-18.555,-25.879,-41.504,-46.387,0.000,0
159986.955,-17.578,-21.484,-86.426,-58.594,0.000,0
159986.959,-23.926,-24.414,-62.012,-19.043,0.000,0
159986.963,-21.484,-25.391,-43.457,2.441,0.000,0
159986.967,-13.672,-23.438,-40.527,-44.434,0.000,0
159986.971,-30.762,-25.391,-45.410,-56.641,0.000,0
159986.974,-41.504,-27.832,-46.387,-26.367,0.000,0
159986.978,-31.738,-25.391,-43.945,-29.785,0.000,0
159986.982,-24.902,-24.902,-74.219,-33.691,0.000,0
159986.986,-28.809,-31.250,-54.199,-35.645,0.000,0
159986.990,-22.949,-31.738,-41.992,-40.039,0.000,0
159986.994,-28.809,-27.832,-57.617,-50.781,0.000,0
159986.998,-29.785,-23.926,-62.500,-24.902,0.000,0
159987.002,-19.531,-23.926,-70.312,7.812,0.000,0
159987.006,-25.391,-27.832,-31.738,-19.043,0.000,0
159987.010,-15.625,-22.949,-17.578,-32.227,0.000,0
159987.013,-22.949,-24.902,-47.363,-20.996,0.000,0
159987.017,-38.574,-23.926,-59.082,-34.668,0.000,0
159987.021,-36.133,-19.531,-47.852,-39.551,0.000,2
159987.025,-34.668,-27.832,-31.250,-54.688,0.000,0
159987.029,-35.645,-27.832,-50.293,-47.852,0.000,0
159987.033,-41.504,-27.832,-36.133,-25.879,0.000,0
159987.037,-47.363,-33.203,-9.277,-26.367,0.000,0
159987.041,-36.133,-29.297,-47.852,-10.742,0.000,0
159987.045,-19.531,-31.738,-24.902,-25.879,0.000,0
159987.049,-31.250,-33.203,-9.766,-47.363,0.000,0
159987.053,-37.598,-32.227,-55.176,-25.879,0.000,0
159987.056,-26.367,-30.762,-56.641,-31.250,0.000,0
159987.060,-19.043,-25.391,-43.457,-29.297,0.000,0
159987.064,-19.531,-29.297,-12.695,-37.109,0.000,0
159987.068,-30.762,-33.691,-7.324,-60.547,0.000,0
159987.072,-29.297,-29.785,-41.992,-38.086,0.000,0
159987.076,-14.648,-25.879,-43.945,1.953,0.000,0
159987.080,-18.066,-22.461,-33.203,-8.301,0.000,0
159987.084,-26.855,-22.949,-15.625,-33.691,0.000,0
159987.088,-17.578,-22.461,-33.691,-34.180,0.000,0
159987.092,-14.648,-25.879,-50.781,-30.762,0.000,0
159987.096,-28.320,-30.273,-30.273,-48.340,0.000,0
159987.099,-27.344,-28.809,-49.805,-22.461,0.000,0
159987.103,-21.484,-25.879,-53.711,3.418,0.000,0
159987.107,-21.973,-26.855,-18.066,-33.691,0.000,0
159987.111,-22.949,-27.832,-31.250,-24.902,0.000,0
159987.115,-22.461,-26.855,-47.363,-20.508,0.000,0
159987.119,-15.137,-25.879,-48.340,-34.668,0.000,0
159987.123,-22.461,-27.344,-24.902,-27.832,0.000,0
159987.127,-33.691,-29.785,4.883,-40.527,0.000,0
159987.131,-24.902,-27.832,-54.688,-41.992,0.000,0
159987.135,-24.902,-28.320,-88.379,-38.574,0.000,0
159987.138,-27.344,-30.273,-55.664,-20.508,0.000,0
159987.142,-27.832,-29.785,-24.414,-12.207,0.000,0
159987.146,-30.273,-24.902,-5.371,-42.480,0.000,0
159987.150,-32.227,-24.414,-35.645,-39.551,0.000,0
159987.154,-36.133,-29.785,-54.688,-36.621,0.000,0
159987.158,-30.762,-26.855,-44.434,-24.414,0.000,0
159987.162,-16.113,-26.367,-38.086,3.906,0.000,0
159987.166,-21.484,-28.809,-63.477,-31.738,0.000,0
159987.170,-36.133,-26.855,-56.641,-47.852,0.000,0
159987.174,-39.062,-27.344,-36.133,-23.926,0.000,0
159987.178,-30.762,-31.738,-76.660,-8.301,0.000,0
159987.181,-25.879,-38.086,-72.266,-13.184,0.000,0
159987.185,-9.766,-37.109,-41.992,-19.043,0.000,0
159987.189,-9.277,-32.715,-74.219,-23.438,0.000,0
159987.193,-27.832,-37.109,-99.609,-45.410,0.000,0
159987.197,-34.180,-36.133,-77.637,-39.551,0.000,0
159987.201,-39.551,-37.109,-59.082,-38.574,0.000,0
159987.205,-37.598,-41.504,-37.598,-45.410,0.000,0
159987.209,-47.852,-38.086,-36.621,-42.969,0.000,0
159987.213,-60.059,-33.691,-49.316,-41.504,0.000,0
159987.217,-47.852,-32.715,-48.828,-12.207,0.000,0
159987.221,-38.086,-38.086,-38.574,-56.152,0.000,0
159987.224,-31.738,-40.039,-22.461,-93.750,0.000,0
159987.228,-26.367,-35.156,-45.410,-30.273,0.000,0
159987.232,-23.926,-38.574,-47.363,-20.020,0.000,0
159987.236,-15.625,-39.062,-62.012,-42.480,0.000,0
159987.240,-19.531,-34.668,-76.660,-27.832,0.000,0
159987.244,-33.203,-33.203,-43.457,-29.785,0.000,0
159987.248,-38.574,-31.250,-44.922,-52.734,0.000,0
159987.252,-35.156,-31.250,-84.961,-20.020,0.000,0
159987.256,-32.227,-30.762,-66.895,-12.695,0.000,0
159987.260,-29.785,-25.391,-21.484,-16.602,0.000,0
159987.263,-18.555,-24.414,2.930,-12.207,0.000,0
159987.267,-7.324,-23.926,-39.062,-37.598,0.000,0
159987.271,-6.836,-23.438,-57.129,-27.832,0.000,0
159987.275,-9.277,-26.367,-42.969,-10.742,0.000,0
159987.279,-23.926,-30.762,-59.570,-17.578,0.000,0
159987.283,-30.762,-31.250,-59.082,-43.945,0.000,0
159987.287,-36.621,-30.762,-47.363,-56.152,0.000,0
159987.291,-25.879,-33.691,-56.641,-34.668,0.000,0
159987.295,-9.277,-37.109,-64.453,-20.508,0.000,0
159987.299,-25.391,-39.062,-64.941,-25.391,0.000,0
159987.303,-36.133,-37.598,-31.250,-55.176,0.000,0
159987.306,-36.133,-29.297,-6.348,-58.105,0.000,0
159987.310,-22.461,-26.855,-39.062,-40.039,0.000,0
159987.314,-11.230,-27.832,-53.223,-27.832,0.000,0
159987.318,-19.531,-21.484,-53.711,2.441,0.000,0
159987.322,-17.090,-24.902,-10.254,-24.414,0.000,0
159987.326,-13.184,-27.344,-5.859,-31.250,0.000,0
159987.330,-14.648,-23.438,-83.496,2.441,0.000,0
159987.334,-19.043,-26.367,-64.941,-16.602,0.000,0
159987.338,-23.438,-24.414,-40.527,-25.879,0.000,0
159987.342,-18.555,-25.879,-27.832,-49.316,0.000,0
159987.346,-23.438,-29.297,-21.484,-45.410,0.000,0
159987.349,-27.344,-25.879,-25.391,-31.250,0.000,0
159987.353,-29.297,-22.949,-33.203,-29.785,0.000,0
159987.357,-19.043,-22.461,-67.383,-0.488,0.000,0
159987.361,-14.648,-23.438,-23.438,-26.367,0.000,0
159987.365,-19.043,-24.902,-7.812,-25.879,0.000,0
159987.369,-17.578,-23.926,-72.266,-7.324,0.000,0
159987.373,-12.207,-26.367,-88.379,-22.949,0.000,0
159987.377,-10.742,-26.855,-60.547,-15.625,0.000,0
159987.381,-16.113,-32.715,-2.930,-21.484,0.000,0
159987.385,-15.625,-34.180,-2.441,-39.551,0.000,0
159987.388,-23.926,-29.785,-47.363,-51.270,0.000,0
159987.392,-33.203,-28.809,-38.086,-28.320,0.000,0
159987.396,-33.691,-31.738,-39.551,-7.812,0.000,0
159987.400,-39.062,-37.109,-29.785,-33.203,0.000,0
159987.404,-29.297,-37.598,-60.059,-40.039,0.000,0
159987.408,-22.949,-32.227,-66.406,-13.184,0.000,0
159987.412,-21.484,-25.391,-3.418,-7.324,0.000,0
159987.416,-17.578,-26.855,-38.086,-27.832,0.000,0
159987.420,-20.996,-28.320,-47.363,-53.711,0.000,0
159987.424,-32.227,-28.809,-12.207,-49.805,0.000,0
159987.428,-43.945,-28.809,-26.855,-32.715,0.000,0
159987.431,-32.715,-30.762,-79.102,3.418,0.000,0
159987.435,-17.578,-32.227,-104.004,1.465,0.000,0
159987.439,-31.738,-36.133,-37.598,-41.504,0.000,0
159987.443,-41.504,-36.133,0.000,-48.828,0.000,0
159987.447,-21.484,-28.809,-57.617,-57.129,0.000,0
159987.451,-23.926,-26.855,-57.129,-54.199,0.000,0
159987.455,-32.715,-25.879,-14.160,0.488,0.000,0
159987.459,-18.555,-30.762,5.371,-26.367,0.000,0
159987.463,-19.043,-28.320,-3.418,-54.688,0.000,0
159987.467,-30.762,-23.438,-76.172,-10.742,0.000,0
159987.471,-26.367,-26.367,-72.266,-8.301,0.000,0
159987.474,-17.578,-21.484,-50.293,-11.719,0.000,0
159987.478,-12.695,-20.020,-27.344,-25.879,0.000,0
159987.482,-23.438,-22.949,-36.133,-46.875,0.000,0
159987.486,-38.086,-23.438,-71.777,-48.340,0.000,0
159987.490,-42.480,-25.879,-40.039,-25.391,0.000,0
159987.494,-38.574,-23.438,-68.359,-17.578,0.000,0
159987.498,-41.016,-30.762,-49.316,-29.297,0.000,0
159987.502,-44.434,-36.133,-22.949,-39.551,0.000,0
159987.506,-28.809,-32.715,-76.172,-28.320,0.000,0
159987.510,-20.508,-34.668,-70.312,-26.367,0.000,0
159987.513,-31.250,-31.738,-48.828,-41.016,0.000,0
159987.517,-37.598,-33.691,-56.641,-53.223,0.000,0
159987.521,-31.738,-30.762,-62.012,-49.316,0.000,0
159987.525,-21.973,-24.902,-32.227,-39.551,0.000,0
159987.529,-17.578,-24.414,-37.109,-28.320,0.000,0
159987.533,-13.184,-25.391,-85.449,-6.836,0.000,0
159987.537,-11.719,-25.879,-44.434,-13.184,0.000,0
159987.541,-18.555,-23.438,-14.648,-19.043,0.000,0
159987.545,-24.902,-24.414,-17.578,-7.812,0.000,0
159987.549,-19.043,-27.344,-44.434,-17.578,0.000,0
159987.553,-8.301,-28.809,-59.570,-41.504,0.000,0
159987.556,-9.277,-26.367,-30.273,-43.945,0.000,0
159987.560,-7.812,-25.391,-11.719,-33.691,0.000,0
159987.564,-2.441,-26.855,-25.879,-23.926,0.000,0
159987.568,-19.043,-26.367,-43.945,-20.508,0.000,0
159987.572,-19.043,-26.855,-37.598,-21.973,0.000,0
159987.576,-12.695,-24.902,-23.438,-15.137,0.000,0
159987.580,-18.066,-25.879,-28.320,-25.391,0.000,0
159987.584,-14.648,-24.414,-50.293,-24.414,0.000,0
159987.588,-11.719,-24.414,-39.551,-14.160,0.000,0
159987.592,-24.414,-24.414,-30.273,-7.324,0.000,0
159987.596,-18.066,-21.973,-47.363,-23.438,0.000,0
159987.599,-17.578,-24.902,-28.320,-34.668,0.000,0
159987.603,-28.320,-28.320,-36.133,-7.812,0.000,0
159987.607,-26.855,-27.344,-55.664,2.930,0.000,0
159987.611,-21.973,-23.438,-55.176,-16.113,0.000,0
159987.615,-16.602,-20.508,-37.109,-33.691,0.000,0
159987.619,-24.902,-25.391,-25.391,-47.363,0.000,0
159987.623,-23.438,-25.879,-51.758,-34.180,0.000,0
159987.627,-7.812,-21.973,-36.621,-40.039,0.000,0
159987.631,-19.531,-24.902,-27.832,-41.992,0.000,0
159987.635,-36.133,-22.949,-29.785,-7.324,0.000,0
159987.638,-24.414,-20.996,-24.414,-27.832,0.000,0
159987.642,-11.719,-23.926,-45.898,-23.438,0.000,0
159987.646,-11.230,-24.414,-43.457,5.859,0.000,0
159987.650,-10.254,-20.020,-42.480,-4.395,0.000,0
159987.654,-7.812,-17.090,-21.484,-31.250,0.000,0
159987.658,-13.672,-16.113,-0.977,-27.832,0.000,0
159987.662,-17.578,-17.578,-27.344,-10.742,0.000,0
159987.666,-14.160,-18.066,-50.293,6.348,0.000,0
159987.670,-20.508,-17.090,-58.594,-9.277,0.000,0
159987.674,-28.809,-19.531,-18.066,-49.805,0.000,0
159987.678,-28.320,-22.949,-11.230,-36.133,0.000,0
159987.681,-34.668,-23.926,-65.918,-20.508,0.000,0
159987.685,-32.227,-27.832,-102.051,-24.414,0.000,0
159987.689,-35.645,-30.762,-74.707,-28.809,0.000,0
159987.693,-42.480,-30.762,-1.953,-46.875,0.000,0
159987.697,-25.879,-28.809,-33.203,-50.293,0.000,0
159987.701,-21.973,-25.879,-81.543,-33.691,0.000,0
159987.705,-35.645,-27.832,-54.199,-24.414,0.000,0
159987.709,-32.227,-34.668,-62.500,-16.602,0.000,0
159987.713,-30.273,-42.480,-64.941,-44.434,0.000,0
159987.717,-33.691,-35.645,-43.945,-50.781,0.000,0
159987.721,-35.645,-26.855,-52.246,-20.020,0.000,0
159987.724,-43.945,-29.785,-62.988,-42.969,0.000,1
159987.728,-30.762,-25.879,-62.500,-49.316,0.000,0
159987.732,-23.438,-23.438,-49.316,-38.574,0.000,0
159987.736,-34.668,-24.414,-20.996,-43.945,0.000,0
159987.740,-31.250,-23.438,-16.602,-19.531,0.000,0
159987.744,-31.250,-24.414,-55.664,0.000,0.000,0
159987.748,-38.086,-24.902,-68.848,-16.113,0.000,0
159987.752,-38.574,-27.832,-34.668,-50.293,0.000,0
159987.756,-36.621,-26.855,-26.855,-52.734,0.000,0
159987.760,-28.320,-24.414,-63.477,-25.879,0.000,0
159987.763,-31.738,-30.762,-59.082,-30.762,0.000,0
159987.767,-33.691,-32.227,-48.340,-34.180,0.000,0
159987.771,-27.344,-28.320,-43.945,-22.949,0.000,0
159987.775,-28.320,-28.809,-39.062,-46.387,0.000,0
159987.779,-31.738,-28.809,-38.574,-46.387,0.000,0
159987.783,-26.367,-28.809,-47.363,-18.555,0.000,0
159987.787,-17.090,-28.809,-72.266,-17.090,0.000,0
159987.791,-20.020,-34.668,-60.059,-30.273,0.000,0
159987.795,-28.809,-38.086,-25.879,-50.781,0.000,0
159987.799,-20.996,-27.832,-58.105,-51.758,0.000,0
159987.803,-23.926,-29.297,-68.848,-42.480,0.000,0
159987.806,-33.203,-32.227,-64.941,-25.879,0.000,0
159987.810,-30.273,-30.762,-55.176,-26.367,0.000,0
159987.814,-27.832,-27.832,-38.574,-32.715,0.000,0
159987.818,-26.367,-23.926,-48.340,-13.184,0.000,0
159987.822,-23.926,-28.809,-67.383,-16.113,0.000,0
159987.826,-20.020,-26.855,-42.969,-15.625,0.000,0
159987.830,-17.578,-23.926,6.836,-30.762,0.000,0
159987.834,-25.879,-33.203,-31.250,-62.500,0.000,0
159987.838,-26.855,-29.297,-36.621,-44.922,0.000,0
159987.842,-21.484,-23.438,-33.203,-6.348,0.000,0
159987.846,-29.297,-29.785,-60.059,-0.488,0.000,0
159987.849,-29.785,-32.715,-48.340,-35.156,0.000,0
159987.853,-22.461,-28.320,-15.625,-33.203,0.000,0
159987.857,-15.625,-25.879,-28.809,-6.836,0.000,0
159987.861,-15.625,-30.762,-43.945,-22.461,0.000,0
159987.865,-19.531,-31.250,-46.387,-34.668,0.000,0
159987.869,-28.809,-31.250,-31.250,-41.016,0.000,0
159987.873,-28.809,-28.809,-24.414,-41.992,0.000,0
159987.877,-23.438,-27.344,-43.945,-40.039,0.000,0
159987.881,-23.438,-29.785,-52.734,-28.809,0.000,0
159987.885,-28.320,-25.879,-32.715,-23.926,0.000,0
159987.888,-31.250,-26.855,-24.902,-34.180,0.000,0
159987.892,-22.949,-25.391,-28.809,-43.457,0.000,0
159987.896,-20.020,-23.926,-60.547,-37.109,0.000,0
159987.900,-26.855,-27.344,-56.152,-28.809,0.000,0
159987.904,-19.043,-28.320,-40.039,-27.344,0.000,0
159987.908,-4.395,-28.320,-40.039,-30.762,0.000,0
159987.912,-15.625,-29.297,-23.926,-49.805,0.000,0
159987.916,-35.156,-28.809,-21.484,-36.133,0.000,0
159987.920,-26.855,-34.180,-57.617,-10.742,0.000,0
159987.924,-17.090,-34.668,-104.492,-7.812,0.000,0
159987.928,-31.738,-36.133,-79.590,-8.301,0.000,0
159987.931,-32.715,-38.574,-4.883,-55.176,0.000,0
159987.935,-15.137,-24.414,-48.828,-48.828,0.000,0
159987.939,-15.625,-23.926,-70.312,-26.855,0.000,0
159987.943,-32.227,-31.738,-39.062,-16.602,0.000,0
159987.947,-32.227,-29.297,-34.180,-13.184,0.000,0
159987.951,-21.484,-29.297,-22.949,-42.969,0.000,0
159987.955,-23.438,-27.832,-34.180,-33.203,0.000,0
159987.959,-25.391,-22.949,-40.039,10.742,0.000,0
159987.963,-20.996,-24.902,-44.922,10.254,0.000,0
159987.967,-9.277,-26.367,-56.641,-27.832,0.000,0
159987.971,-14.160,-23.926,-28.320,-43.945,0.000,0
159987.974,-21.973,-23.438,-23.926,-25.391,0.000,0
159987.978,-11.230,-24.902,-42.969,-25.879,0.000,0
159987.982,-9.277,-26.855,-64.453,-15.625,0.000,0
159987.986,-20.020,-27.344,-45.410,-31.738,0.000,0
159987.990,-13.672,-22.461,-5.371,-45.898,0.000,0
159987.994,-5.859,-15.625,-31.250,-4.395,0.000,0
159987.998,-10.254,-17.578,-55.664,5.859,0.000,0
159988.002,-22.949,-25.391,-43.945,-17.578,0.000,0
159988.006,-30.273,-28.320,-19.531,-28.320,0.000,0
159988.010,-25.391,-28.809,-2.930,-62.012,0.000,0
159988.013,-32.227,-25.879,-33.691,-42.969,0.000,0
159988.017,-32.227,-26.855,-52.734,-20.996,0.000,0
159988.021,-30.762,-29.785,-21.484,-13.184,0.000,0
159988.025,-21.484,-28.809,-39.062,-15.137,0.000,0
159988.029,-18.066,-26.855,-35.156,-41.016,0.000,0
159988.033,-25.879,-23.438,-28.320,-33.691,0.000,0
159988.037,-28.320,-23.438,-52.734,-8.301,0.000,0
159988.041,-27.344,-24.902,-63.477,1.953,0.000,0
159988.045,-33.203,-22.461,-43.945,-20.508,0.000,0
159988.049,-32.227,-24.902,-2.930,-54.688,0.000,0
159988.053,-24.902,-22.461,-4.395,-62.500,0.000,0
159988.056,-23.438,-20.020,-44.434,-19.043,0.000,0
159988.060,-19.531,-20.020,-68.848,9.766,0.000,0
159988.064,-26.367,-19.043,-27.832,-9.277,0.000,0
159988.068,-25.391,-24.902,13.184,-38.574,0.000,0
159988.072,-12.695,-18.066,-43.945,-18.066,0.000,0
159988.076,-6.836,-17.578,-79.590,-17.578,0.000,0
159988.080,-8.301,-19.531,-42.480,-29.785,0.000,0
159988.084,-11.230,-18.555,-35.156,-34.180,0.000,0
159988.088,-9.766,-27.344,-12.695,-80.078,0.000,0
159988.092,-10.254,-30.273,-10.254,-87.891,0.000,0
159988.096,-24.414,-29.785,-38.574,-40.527,0.000,0
159988.099,-30.273,-32.227,-49.316,-33.203,0.000,0
159988.103,-22.949,-27.832,-52.246,-26.855,0.000,0
159988.107,-21.484,-26.855,-21.973,-32.715,0.000,0
159988.111,-20.996,-25.879,10.742,-36.621,0.000,0
159988.115,-24.414,-24.414,-32.227,-31.738,0.000,0
159988.119,-25.879,-25.879,-40.527,-31.738,0.000,0
159988.123,-20.020,-30.762,-35.156,-21.973,0.000,0
159988.127,-23.926,-33.691,-13.184,-39.062,0.000,0
159988.131,-30.273,-24.414,-20.020,-33.203,0.000,0
159988.135,-29.785,-21.973,-34.180,-22.461,0.000,0
159988.138,-28.320,-26.367,-34.180,-13.672,0.000,0
159988.142,-24.902,-29.785,-47.363,-0.977,0.000,0
159988.146,-22.949,-28.809,-39.062,-44.434,0.000,0
159988.150,-26.367,-29.785,-48.828,-54.688,0.000,0
159988.154,-28.320,-30.762,-23.438,-32.227,0.000,0
159988.158,-15.625,-24.414,-44.434,-15.137,0.000,0
159988.162,-11.230,-30.762,-79.102,-6.836,0.000,0
159988.166,-18.066,-35.156,-32.227,-48.340,0.000,0
159988.170,-14.160,-28.320,-34.668,-43.457,0.000,0
159988.174,-5.371,-26.367,-64.941,-9.766,0.000,0
159988.178,-12.207,-31.250,-65.918,-18.066,0.000,0
159988.181,-29.297,-32.227,-43.457,-18.066,0.000,0
159988.185,-27.832,-32.715,-13.184,-37.598,0.000,0
159988.189,-15.137,-34.180,-24.414,-47.363,0.000,0
159988.193,-6.836,-29.785,-38.086,-21.484,0.000,0
159988.197,-19.043,-26.855,-30.762,-1.465,0.000,0
159988.201,-21.973,-28.320,-26.855,-19.043,0.000,0
159988.205,-6.348,-28.320,-25.879,-37.109,0.000,0
159988.209,-6.348,-27.832,-42.480,-15.625,0.000,0
159988.213,-15.625,-29.297,-64.941,-22.461,0.000,0
159988.217,-18.555,-29.785,-55.176,-32.227,0.000,0
159988.221,-15.625,-32.227,-48.340,-15.137,0.000,0
159988.224,-16.602,-33.203,-36.621,-14.160,0.000,0
159988.228,-20.020,-28.320,-40.039,-52.246,0.000,0
159988.232,-18.555,-25.391,-54.199,-54.199,0.000,0
159988.236,-17.578,-28.809,-49.316,-5.859,0.000,0
159988.240,-31.738,-33.691,-60.059,-14.160,0.000,0
159988.244,-42.480,-39.062,-45.410,-39.062,0.000,0
159988.248,-28.809,-37.109,-72.754,-34.180,0.000,0
159988.252,-20.020,-32.227,-117.188,-12.695,0.000,0
159988.256,-28.320,-35.645,-69.824,-13.672,0.000,0
159988.260,-42.969,-40.527,-39.551,-35.156,0.000,0
159988.263,-44.922,-37.109,-49.316,-43.945,0.000,0
159988.267,-31.738,-34.180,-47.363,-46.875,0.000,0
159988.271,-25.391,-35.645,-48.828,-25.879,0.000,0
159988.275,-27.344,-35.645,-64.941,-8.789,0.000,0
159988.279,-30.762,-36.133,-82.520,-48.340,0.000,1
159988.283,-26.367,-37.598,-47.852,-58.105,0.000,0
159988.287,-30.762,-32.715,-13.672,-32.715,0.000,0
159988.291,-35.156,-28.320,-26.367,-36.133,0.000,0
159988.295,-27.344,-28.809,-48.340,-32.715,0.000,0
159988.299,-17.578,-31.250,-49.316,-11.230,0.000,0
159988.303,-14.160,-35.156,-16.113,-31.250,0.000,0
159988.306,-31.250,-32.227,-10.742,-43.945,0.000,0
159988.310,-24.414,-26.855,-73.242,-13.184,0.000,0
159988.314,-23.926,-28.809,-105.957,-10.254,0.000,0
159988.318,-29.297,-32.227,-62.988,-26.855,0.000,0
159988.322,-25.391,-36.133,-21.484,-25.879,0.000,0
159988.326,-36.133,-36.621,-41.504,-36.133,0.000,0
159988.330,-30.273,-34.668,-52.246,-59.570,0.000,0
159988.334,-31.250,-29.297,-29.297,-35.645,0.000,0
159988.338,-26.855,-30.273,-35.156,-25.391,0.000,0
159988.342,-18.066,-30.273,-38.574,-37.109,0.000,0
159988.346,-6.348,-23.438,-38.086,-20.020,0.000,0
159988.349,3.906,-25.879,-39.062,12.207,0.000,0
159988.353,-25.391,-31.738,-59.082,-17.578,0.000,0
159988.357,-41.992,-28.809,-65.430,-41.504,0.000,0
159988.361,-27.832,-24.902,-24.902,-28.809,0.000,0
159988.365,-32.715,-24.902,-12.695,-56.641,0.000,0
159988.369,-33.691,-24.414,-56.641,-46.875,0.000,0
159988.373,-24.902,-24.414,-71.777,-29.785,0.000,0
159988.377,-30.273,-26.367,-61.523,-30.273,0.000,0
159988.381,-25.391,-25.879,-27.832,-22.461,0.000,0
159988.385,-19.043,-28.809,-36.621,-35.156,0.000,0
159988.388,-15.625,-32.715,-71.777,-28.809,0.000,0
159988.392,-18.066,-32.715,-19.043,-22.461,0.000,0
159988.396,-31.250,-26.855,-4.395,-13.184,0.000,0
159988.400,-27.832,-27.832,-20.508,-40.527,0.000,0
159988.404,-20.508,-31.738,-3.418,-53.223,0.000,0
159988.408,-19.531,-30.762,-18.555,-39.551,0.000,0
159988.412,-28.320,-33.203,-37.109,-33.691,0.000,0
159988.416,-30.273,-33.203,-61.523,-7.324,0.000,0
159988.420,-21.973,-36.133,-24.414,-33.203,0.000,0
159988.424,-24.902,-33.203,-1.953,-49.805,0.000,0
159988.428,-26.367,-26.855,-48.340,-15.137,0.000,0
159988.431,-23.926,-29.297,-75.684,-22.461,0.000,0
159988.435,-24.902,-27.832,-66.406,-22.461,0.000,0
159988.439,-30.762,-24.902,0.000,-40.039,0.000,0
159988.443,-21.484,-20.508,-51.270,-47.363,0.000,0
159988.447,-7.812,-19.043,-96.191,-23.926,0.000,0
159988.451,-12.695,-20.508,-40.039,-17.090,0.000,0
159988.455,-19.531,-23.438,-30.762,-30.762,0.000,0
159988.459,-27.344,-24.414,-28.809,-47.363,0.000,0
159988.463,-24.414,-20.020,-52.734,-38.574,0.000,0
159988.467,-19.043,-18.066,-36.133,-37.109,0.000,0
159988.471,-19.531,-21.484,-25.879,-29.785,0.000,0
159988.474,-18.066,-24.414,-55.664,-14.648,0.000,0
159988.478,-17.090,-26.855,-50.781,-35.156,0.000,0
159988.482,-23.438,-24.902,-17.578,-38.574,0.000,0
159988.486,-21.973,-20.508,-49.805,-7.324,0.000,0
159988.490,-17.578,-19.531,-67.871,-26.367,0.000,0
159988.494,-22.949,-22.461,-54.688,-28.320,0.000,0
159988.498,-29.297,-31.738,-33.203,-17.578,0.000,0
159988.502,-16.602,-29.785,-28.809,-50.781,0.000,0
159988.506,-13.672,-28.809,-46.387,-36.133,0.000,0
159988.510,-30.762,-31.250,-45.410,-22.461,0.000,0
159988.513,-27.832,-25.879,-62.500,-27.344,0.000,0
159988.517,-17.090,-23.926,-49.805,-17.090,0.000,0
159988.521,-17.578,-27.832,-41.016,-29.785,0.000,0
159988.525,-28.809,-29.785,-67.383,-29.785,0.000,0
159988.529,-34.668,-24.414,-74.219,-33.691,0.000,0
159988.533,-20.020,-26.855,-81.543,-14.648,0.000,0
159988.537,-24.414,-30.762,-63.965,-14.160,0.000,0
159988.541,-40.527,-32.227,-39.062,-56.641,0.000,0
159988.545,-33.691,-30.273,-41.016,-68.359,0.000,0
159988.549,-22.949,-28.809,-85.449,-31.250,0.000,0
159988.553,-23.926,-27.344,-63.477,-5.859,0.000,0
159988.556,-26.367,-24.902,-14.160,-25.391,0.000,0
159988.560,-32.227,-24.414,-35.645,-55.664,0.000,0
159988.564,-32.227,-22.949,-51.758,-41.992,0.000,0
159988.568,-20.508,-22.949,-19.043,-18.066,0.000,0
159988.572,-20.996,-24.902,7.812,-18.066,0.000,0
159988.576,-23.926,-28.809,-11.719,-31.250,0.000,0
159988.580,-19.531,-31.250,-19.043,-48.340,0.000,0
159988.584,-19.531,-27.832,-9.277,-42.480,0.000,0
159988.588,-19.531,-24.902,-9.277,-16.113,0.000,0
159988.592,-20.508,-27.832,-27.344,-1.953,0.000,0
159988.596,-21.973,-28.809,-17.578,-8.789,0.000,0
159988.599,-25.391,-27.832,6.836,-25.391,0.000,0
159988.603,-17.090,-28.809,-36.621,-30.273,0.000,0
159988.607,-13.672,-32.227,-57.617,-29.297,0.000,0
159988.611,-24.414,-28.809,-38.086,-39.062,0.000,0
159988.615,-22.461,-31.738,7.324,-46.387,0.000,0
159988.619,-5.859,-32.227,21.973,-42.480,0.000,0
159988.623,-0.488,-21.484,-30.273,-27.344,0.000,0
159988.627,-15.137,-24.414,-50.781,-9.277,0.000,0
159988.631,-23.438,-27.344,-18.555,-20.020,0.000,0
159988.635,-15.625,-22.949,-4.883,-30.762,0.000,0
159988.638,-10.254,-23.926,-16.602,-44.434,0.000,0
159988.642,-27.832,-27.832,-33.203,-44.922,0.000,0
159988.646,-43.945,-31.738,-4.883,-67.871,0.000,0
159988.650,-36.621,-23.926,-63.477,-23.438,0.000,0
159988.654,-25.391,-27.344,-96.191,6.836,0.000,0
159988.658,-33.203,-34.668,-29.785,-40.039,0.000,0
159988.662,-44.922,-32.715,-32.715,-25.391,0.000,0
159988.666,-42.969,-33.691,-50.781,5.371,0.000,0
159988.670,-20.508,-32.227,-84.473,-18.066,0.000,0
159988.674,-11.719,-28.320,-66.406,-27.344,0.000,0
159988.678,-33.203,-28.809,5.859,-40.039,0.000,0
159988.681,-35.156,-25.879,-37.109,-52.734,0.000,0
159988.685,-22.949,-22.461,-54.199,-42.480,0.000,0
159988.689,-17.578,-26.367,-51.270,-20.020,0.000,0
159988.693,-20.996,-27.832,-53.711,-13.184,0.000,0
159988.697,-28.809,-33.691,-27.832,-48.340,0.000,0
159988.701,-34.668,-35.645,-52.246,-24.902,0.000,0
159988.705,-33.691,-31.250,-46.387,-8.789,0.000,0
159988.709,-32.715,-28.320,-47.852,-29.297,0.000,0
159988.713,-25.391,-32.715,-83.496,-32.715,0.000,0
159988.717,-26.855,-35.645,-29.785,-50.781,0.000,0
159988.721,-33.203,-33.203,0.488,-53.223,0.000,0
159988.724,-22.949,-27.344,-26.855,-43.945,0.000,0
159988.728,-20.508,-26.367,-68.359,-21.973,0.000,0
159988.732,-20.020,-32.715,-56.152,-22.461,0.000,0
159988.736,-12.695,-33.203,-2.441,-54.199,0.000,0
159988.740,-8.789,-26.855,-42.969,-11.719,0.000,0
159988.744,-10.742,-25.879,-81.543,2.930,0.000,0
159988.748,-12.207,-28.809,-42.480,-44.922,0.000,0
159988.752,-17.090,-27.832,-41.016,-8.789,0.000,0
159988.756,-15.137,-24.414,-48.828,-25.391,0.000,0
159988.760,-13.672,-23.926,-71.777,-61.035,0.000,0
159988.763,-27.344,-28.809,-61.523,-31.738,0.000,0
159988.767,-29.297,-33.203,-44.922,-15.625,0.000,0
159988.771,-14.160,-37.598,-61.523,-43.945,0.000,0
159988.775,-22.949,-36.133,-42.969,-49.805,0.000,0
159988.779,-34.668,-33.203,-71.289,-36.133,0.000,0
159988.783,-29.785,-31.250,-63.965,-44.434,0.000,0
159988.787,-25.391,-26.367,-58.594,-11.719,0.000,0
159988.791,-24.414,-28.809,-52.246,-25.879,0.000,0
159988.795,-27.344,-29.297,-32.715,-48.340,0.000,0
159988.799,-21.973,-21.484,-49.316,-29.785,0.000,0
159988.803,-21.973,-25.391,-54.199,-18.555,0.000,0
159988.806,-26.855,-31.738,-64.941,-20.508,0.000,0
159988.810,-21.973,-31.738,-45.898,-19.531,0.000,0
159988.814,-19.043,-28.809,-37.598,-45.898,0.000,0
159988.818,-26.855,-24.902,-71.777,-63.965,0.000,0
159988.822,-29.297,-23.926,-58.105,-44.922,0.000,0
159988.826,-32.715,-21.973,-64.941,-26.855,0.000,0
159988.830,-27.344,-19.043,-73.730,-13.184,0.000,0
159988.834,-22.949,-17.578,-16.602,-37.598,0.000,0
159988.838,-36.621,-18.555,-15.137,-33.691,0.000,0
159988.842,-30.762,-12.207,-50.293,-33.203,0.000,0
159988.846,-17.578,-13.184,-45.898,-37.109,0.000,0
159988.849,-23.438,-22.949,-39.551,6.836,0.000,0
159988.853,-25.879,-24.414,2.441,-35.156,0.000,0
159988.857,-27.832,-23.926,-12.207,-68.359,0.000,0
159988.861,-28.809,-28.809,-88.379,-33.203,0.000,0
159988.865,-26.367,-29.297,-80.566,-17.578,0.000,0
159988.869,-33.691,-32.715,-68.359,-20.020,0.000,0
159988.873,-32.227,-31.250,-47.363,-28.320,0.000,0
159988.877,-18.066,-22.461,-60.059,-25.391,0.000,0
159988.881,-23.926,-19.043,-55.664,-8.789,0.000,0
159988.885,-30.273,-22.461,-35.156,-9.277,0.000,0
159988.888,-32.227,-27.832,-45.898,-28.320,0.000,0
159988.892,-32.227,-28.809,-40.039,-33.691,0.000,0
159988.896,-34.668,-30.762,-38.574,-47.363,0.000,0
159988.900,-36.133,-29.785,-58.105,-47.363,0.000,0
159988.904,-25.391,-28.809,-93.262,-23.438,0.000,0
159988.908,-20.020,-31.250,-103.516,-18.555,0.000,0
159988.912,-27.344,-31.738,-44.434,-43.457,0.000,0
159988.916,-18.555,-28.809,-12.207,-40.527,0.000,0
159988.920,-6.348,-31.250,-44.434,-20.996,0.000,0
159988.924,0.000,-31.738,-46.387,-47.363,0.000,0
159988.928,-10.742,-26.367,-19.043,-41.504,0.000,0
159988.931,-28.320,-25.391,0.977,-31.250,0.000,0
159988.935,-15.625,-27.832,-27.832,-56.641,0.000,0
159988.939,-16.602,-26.855,-40.527,-35.645,0.000,0
159988.943,-28.320,-17.578,-23.926,-13.672,0.000,0
159988.947,-26.367,-20.020,-20.020,-17.578,0.000,1
159988.951,-19.531,-28.809,-18.555,-32.227,0.000,0
159988.955,-19.531,-29.297,-7.324,-46.875,0.000,0
159988.959,-15.137,-27.344,-25.879,-49.805,0.000,0
159988.963,-6.348,-26.367,-48.828,-32.227,0.000,0
159988.967,-0.977,-25.391,-50.781,-20.508,0.000,0
159988.971,-11.230,-31.250,-30.273,-35.156,0.000,0
159988.974,-24.902,-35.156,-27.344,-37.109,0.000,0
159988.978,-21.484,-27.832,-52.734,-6.836,0.000,0
159988.982,-15.137,-28.320,-58.105,6.836,0.000,0
159988.986,-18.555,-29.785,-44.922,-8.789,0.000,0
159988.990,-27.832,-29.785,-21.973,-40.039,0.000,0
159988.994,-16.602,-31.738,-42.969,-52.734,0.000,0
159988.998,-5.371,-28.809,-73.730,-28.320,0.000,0
159989.002,-18.066,-30.273,-34.668,-14.160,0.000,0
159989.006,-29.785,-32.715,-24.414,-9.766,0.000,0
159989.010,-31.250,-37.109,-36.621,-48.828,0.000,0
159989.013,-32.227,-34.668,-22.949,-47.852,0.000,0
159989.017,-29.785,-30.273,-37.598,-13.672,0.000,0
159989.021,-24.902,-36.133,-61.035,-25.391,0.000,0
159989.025,-28.320,-41.992,-83.008,-28.320,0.000,0
159989.029,-29.785,-45.898,-48.340,-35.156,0.000,0
159989.033,-24.414,-40.527,-20.508,-55.664,0.000,0
159989.037,-28.320,-35.645,-37.109,-47.852,0.000,0
159989.041,-27.344,-37.598,-66.895,-21.973,0.000,0
159989.045,-25.391,-34.180,-102.539,-5.371,0.000,0
159989.049,-40.527,-34.668,-16.113,-41.016,0.000,0
159989.053,-39.062,-36.133,11.719,-35.156,0.000,0
159989.056,-25.391,-29.785,-66.406,-1.465,0.000,0
159989.060,-25.391,-26.367,-52.734,-33.203,0.000,0
159989.064,-10.254,-20.508,-51.270,-27.832,0.000,0
159989.068,-11.719,-20.020,-41.992,-25.879,0.000,0
159989.072,-29.297,-23.926,-31.738,-44.434,0.000,0
159989.076,-32.715,-27.344,-74.707,-46.875,0.000,0
159989.080,-30.762,-30.273,-73.730,-30.273,0.000,0
159989.084,-23.926,-27.344,-55.664,-11.719,0.000,0
159989.088,-22.461,-27.344,-51.758,-39.062,0.000,0
159989.092,-20.508,-26.367,-55.176,-39.551,0.000,0
159989.096,-21.484,-25.879,-53.223,-27.832,0.000,0
159989.099,-17.090,-26.855,-61.035,-36.133,0.000,0
159989.103,-11.230,-27.832,-75.195,-29.297,0.000,0
159989.107,-18.555,-29.297,-45.898,-43.457,0.000,0
159989.111,-26.855,-29.785,-31.738,-58.105,0.000,0
159989.115,-24.902,-26.855,-51.270,-28.809,0.000,0
159989.119,-24.902,-21.973,-45.410,-2.930,0.000,0
159989.123,-19.531,-21.973,-37.109,-8.301,0.000,0
159989.127,-15.137,-23.438,-28.809,-25.391,0.000,0
159989.131,-25.391,-23.438,-9.277,-31.250,0.000,0
159989.135,-28.320,-22.461,-16.602,-52.246,0.000,0
159989.138,-38.574,-24.902,-12.207,-64.941,0.000,0
159989.142,-41.992,-28.320,-33.691,-23.438,0.000,0
159989.146,-20.508,-26.367,-61.523,-10.742,0.000,0
159989.150,-16.602,-25.391,-21.973,-31.738,0.000,0
159989.154,-20.508,-22.949,-28.320,-23.926,0.000,0
159989.158,-19.043,-25.391,-54.199,-12.207,0.000,0
159989.162,-18.066,-27.832,-43.457,-21.484,0.000,0
159989.166,-20.020,-23.438,-39.551,-36.133,0.000,0
159989.170,-20.020,-24.902,-32.227,-45.898,0.000,0
159989.174,-17.090,-24.414,-40.527,-35.645,0.000,0
159989.178,-19.043,-24.902,-58.105,-19.531,0.000,0
159989.181,-20.020,-30.273,-61.523,-11.719,0.000,0
159989.185,-30.762,-30.273,-45.898,-18.066,0.000,0
159989.189,-32.227,-23.438,-33.203,-37.598,0.000,0
159989.193,-26.855,-22.461,-67.383,-41.016,0.000,0
159989.197,-27.344,-26.367,-76.172,-26.367,0.000,0
159989.201,-31.738,-27.832,-46.875,-36.133,0.000,0
159989.205,-32.227,-28.809,-49.805,-43.945,0.000,0
159989.209,-19.531,-31.250,-52.734,-23.926,0.000,0
159989.213,-5.859,-25.391,-40.039,-11.230,0.000,0
159989.217,-33.691,-13.672,-29.785,-45.898,0.000,0
159989.221,-49.316,-11.719,-46.387,-46.875,0.000,0
159989.224,-36.621,-15.137,-67.871,-30.762,0.000,0
159989.228,-37.109,-11.230,-31.738,-45.898,0.000,0
159989.232,-30.273,-8.301,-28.320,-20.996,0.000,0
159989.236,-15.137,-12.695,-72.754,-13.672,0.000,0
159989.240,-17.090,-10.254,-63.965,-40.527,0.000,0
159989.244,-6.348,-2.930,-67.383,-19.531,0.000,0
159989.248,-9.277,-0.488,-58.105,-13.672,0.000,0
159989.252,-35.156,4.395,-60.547,-49.805,0.000,0
159989.256,-39.551,2.441,-104.004,-66.406,0.000,0
159989.260,-37.109,2.930,-96.680,-14.648,0.000,0
159989.263,-27.832,0.000,-52.734,-19.043,0.000,0
159989.267,-27.832,-11.230,-32.715,-42.480,0.000,0
159989.271,-32.227,-7.324,-33.691,-23.926,0.000,0
159989.275,-38.086,-10.742,-36.621,-22.949,0.000,0
159989.279,-28.320,-16.602,-51.758,-26.855,0.000,0
159989.283,-16.113,-13.184,-52.734,-15.625,0.000,0
159989.287,-21.484,-19.043,-18.066,-41.504,0.000,0
159989.291,-17.090,-20.508,-20.508,-54.199,0.000,0
159989.295,-22.949,-16.113,-50.293,-14.648,0.000,0
159989.299,-23.926,-20.996,-47.363,-4.883,0.000,0
159989.303,-19.531,-19.531,-26.367,-5.371,0.000,0
159989.306,-20.996,-20.996,3.906,-4.395,0.000,0
159989.310,-24.414,-28.320,-8.301,-12.695,0.000,0
159989.314,-24.902,-25.879,-30.762,-14.160,0.000,0
159989.318,-29.297,-23.438,0.488,-33.691,0.000,0
159989.322,-29.785,-26.367,-12.207,-22.461,0.000,0
159989.326,-20.020,-37.109,-41.016,-38.086,0.000,0
159989.330,-14.160,-39.551,-30.273,-53.711,0.000,0
159989.334,-15.137,-35.645,-40.039,-40.527,0.000,0
159989.338,-26.855,-36.621,-41.992,-32.715,0.000,0
159989.342,-28.320,-39.062,-50.781,-16.602,0.000,0
159989.346,-27.832,-42.480,-28.809,-51.270,0.000,0
159989.349,-32.227,-42.480,-20.020,-67.383,0.000,0
159989.353,-25.391,-40.527,-46.875,-37.109,0.000,0
159989.357,-22.949,-35.156,-51.270,-10.254,0.000,0
159989.361,-26.855,-32.715,-59.082,13.184,0.000,0
159989.365,-21.973,-37.109,-32.715,-26.855,0.000,0
159989.369,-21.973,-33.691,-21.973,-37.109,0.000,0
159989.373,-21.484,-31.738,-41.016,-35.156,0.000,0
159989.377,-15.137,-34.668,-44.922,-41.504,0.000,0
159989.381,-21.484,-32.715,-54.688,-0.977,0.000,0
159989.385,-26.855,-35.156,-39.551,-22.949,0.000,0
159989.388,-23.438,-33.203,-31.250,-40.039,0.000,0
159989.392,-14.648,-27.344,-41.504,-30.762,0.000,0
159989.396,-19.531,-27.344,-38.574,-26.367,0.000,0
159989.400,-20.996,-32.715,-80.566,-31.250,0.000,0
159989.404,-15.625,-39.551,-61.523,-61.523,0.000,0
159989.408,-20.996,-39.551,-21.484,-22.949,0.000,0
159989.412,-20.020,-29.297,-41.992,-8.301,0.000,0
159989.416,-16.602,-26.367,-65.430,-32.715,0.000,0
159989.420,-13.184,-25.879,-67.383,-19.531,0.000,0
159989.424,-28.320,-28.320,0.977,-37.598,0.000,0
159989.428,-40.039,-31.738,21.484,-52.734,0.000,0
159989.431,-23.926,-25.879,-42.969,-19.043,0.000,0
159989.435,-21.973,-27.344,-44.922,-10.742,0.000,0
159989.439,-21.484,-24.902,-50.781,-24.902,0.000,0
159989.443,-24.902,-24.414,-38.574,-35.645,0.000,0
159989.447,-24.414,-28.809,-20.020,-35.645,0.000,0
