timestamps,TP9,AF7,AF8,TP10,Right AUX,Marker0
160376.533,-22.949,-38.574,-27.344,-47.363,0.000,0
160376.537,-12.207,-38.086,-29.785,-37.598,0.000,0
160376.541,-22.461,-36.133,-32.715,-22.949,0.000,0
160376.545,-17.578,-36.133,-13.184,-45.410,0.000,0
160376.549,-12.207,-36.133,-18.555,-33.203,0.000,0
160376.553,-28.320,-39.551,-34.668,-20.020,0.000,0
160376.556,-20.508,-38.574,-45.410,-14.160,0.000,0
160376.560,-20.020,-35.645,-30.273,-6.348,0.000,0
160376.564,-32.227,-35.156,-12.695,-17.578,0.000,0
160376.568,-35.645,-34.668,-29.297,-28.809,0.000,0
160376.572,-23.926,-33.203,-42.969,-29.785,0.000,0
160376.576,-21.973,-35.645,-36.621,-21.973,0.000,0
160376.580,-25.391,-42.480,-42.969,-30.273,0.000,0
160376.584,-21.484,-41.504,-24.902,-36.621,0.000,0
160376.588,-27.344,-36.621,-18.555,-19.043,0.000,0
160376.592,-30.762,-38.574,-46.387,-16.602,0.000,0
160376.596,-24.902,-38.086,-47.363,-24.902,0.000,0
160376.599,-26.367,-37.598,-34.668,-20.508,0.000,0
160376.603,-25.879,-40.039,-22.461,-32.715,0.000,0
160376.607,-26.855,-38.086,-19.531,-31.250,0.000,0
160376.611,-27.344,-38.086,-34.180,-22.461,0.000,0
160376.615,-25.879,-44.434,-35.645,-18.066,0.000,0
160376.619,-33.691,-50.781,-34.180,-10.742,0.000,0
160376.623,-43.457,-45.898,-26.367,-27.344,0.000,0
160376.627,-47.363,-39.062,-29.785,-45.410,0.000,0
160376.631,-37.109,-41.504,-48.828,-35.156,0.000,0
160376.635,-42.969,-47.852,-37.109,-39.551,0.000,0
160376.638,-47.363,-45.898,-30.273,-27.832,0.000,0
160376.642,-33.691,-44.922,-27.344,-29.785,0.000,0
160376.646,-40.527,-42.480,-25.879,-56.152,0.000,0
160376.650,-44.922,-44.922,-31.250,-41.992,0.000,0
160376.654,-41.992,-52.246,-46.875,-17.090,0.000,0
160376.658,-33.203,-52.246,-55.664,-26.855,0.000,0
160376.662,-23.926,-48.828,-36.621,-36.133,0.000,0
160376.666,-35.645,-49.805,-34.180,-48.340,0.000,0
160376.670,-27.832,-48.340,-39.551,-38.086,0.000,0
160376.674,-22.949,-44.434,-29.785,-22.949,0.000,0
160376.678,-34.668,-47.363,-33.203,-26.855,0.000,0
160376.681,-26.855,-41.992,-28.320,-26.367,0.000,0
160376.685,-39.062,-37.598,-18.555,-35.156,0.000,0
160376.689,-52.246,-43.945,-29.297,-44.922,0.000,0
160376.693,-37.109,-39.551,-37.109,-25.879,0.000,0
160376.697,-25.879,-35.645,-32.715,-24.902,0.000,0
160376.701,-16.113,-40.527,-34.668,-26.855,0.000,0
160376.705,-14.648,-40.527,-33.691,-39.062,0.000,0
160376.709,-28.320,-39.062,-27.832,-36.133,0.000,0
160376.713,-26.855,-36.621,-25.391,-26.367,0.000,0
160376.717,-32.715,-41.016,-35.645,-32.715,0.000,0
160376.721,-34.668,-41.992,-29.297,-27.344,0.000,0
160376.724,-38.086,-40.527,-18.066,-18.555,0.000,0
160376.728,-42.969,-42.969,-38.086,-10.742,0.000,0
160376.732,-32.715,-43.945,-44.434,-32.227,0.000,0
160376.736,-35.645,-45.898,-34.668,-40.039,0.000,0
160376.740,-41.016,-50.781,-28.320,-35.645,0.000,0
160376.744,-29.297,-40.039,-27.344,-46.387,0.000,0
160376.748,-27.344,-34.668,-41.504,-36.133,0.000,0
160376.752,-26.855,-35.645,-41.504,-21.484,0.000,0
160376.756,-15.625,-33.203,-28.809,-18.555,0.000,0
160376.760,-11.230,-38.086,-29.785,-31.250,0.000,0
160376.763,-27.344,-41.016,-29.297,-43.457,0.000,0
160376.767,-28.320,-37.598,-33.203,-38.086,0.000,0
160376.771,-31.738,-41.992,-33.203,-27.832,0.000,0
160376.775,-31.738,-40.527,-31.738,-21.484,0.000,0
160376.779,-18.555,-36.621,-22.949,-29.297,0.000,0
160376.783,-17.090,-37.109,-10.254,-40.527,0.000,0
160376.787,-23.438,-37.109,-21.973,-34.668,0.000,0
160376.791,-31.250,-38.086,-32.227,-35.156,0.000,0
160376.795,-31.738,-35.156,-45.898,-21.484,0.000,0
160376.799,-23.438,-34.180,-34.180,-20.020,0.000,0
160376.803,-19.531,-29.785,-5.371,-30.762,0.000,0
160376.806,-16.602,-31.250,-34.668,-23.926,0.000,0
160376.810,-12.695,-35.645,-47.852,-33.203,0.000,0
160376.814,-28.809,-34.180,-24.414,-21.973,0.000,0
160376.818,-20.508,-32.715,-16.113,-13.672,0.000,0
160376.822,-11.719,-33.203,-16.113,-41.504,0.000,0
160376.826,-22.461,-31.250,-19.531,-39.551,0.000,0
160376.830,-28.809,-35.156,-19.531,-29.785,0.000,0
160376.834,-28.809,-33.691,-23.926,-20.996,0.000,0
160376.838,-21.484,-32.227,-38.086,-8.301,0.000,0
160376.842,-12.207,-29.297,-17.578,-14.648,0.000,0
160376.846,-9.766,-22.461,1.953,-29.297,0.000,0
160376.849,-3.418,-26.367,-16.602,-31.738,0.000,0
160376.853,-6.348,-32.715,-27.344,-24.902,0.000,0
160376.857,-20.020,-30.762,-29.785,-18.555,0.000,0
160376.861,-27.832,-29.297,-21.484,-36.133,0.000,0
160376.865,-20.508,-27.832,-24.414,-38.574,0.000,0
160376.869,-24.902,-28.809,-42.480,-20.508,0.000,0
160376.873,-27.832,-36.621,-42.480,-11.719,0.000,0
160376.877,-33.691,-39.062,-33.691,-20.020,0.000,0
160376.881,-40.039,-36.621,-21.973,-32.715,0.000,0
160376.885,-31.250,-38.086,-21.973,-33.691,0.000,0
160376.888,-31.738,-41.992,-27.344,-41.016,0.000,0
160376.892,-37.598,-42.480,-18.555,-45.410,0.000,0
160376.896,-31.738,-40.527,-39.551,-28.809,0.000,0
160376.900,-25.879,-38.574,-34.668,-40.527,0.000,0
160376.904,-28.809,-31.250,-7.324,-27.344,0.000,0
160376.908,-25.879,-34.668,-20.996,-4.395,0.000,0
160376.912,-19.531,-41.992,-34.180,-19.531,0.000,0
160376.916,2.930,-38.086,-26.855,-16.113,0.000,0
160376.920,-1.953,-35.645,-2.441,-29.297,0.000,0
160376.924,-24.414,-39.551,-14.648,-46.387,0.000,0
160376.928,-32.227,-39.551,-32.715,-46.875,0.000,0
160376.931,-32.715,-44.434,-29.297,-46.387,0.000,0
160376.935,-32.227,-46.875,-28.320,-32.227,0.000,0
160376.939,-30.762,-50.781,-29.785,-45.898,0.000,0
160376.943,-23.438,-48.828,-40.527,-46.387,0.000,0
160376.947,-18.555,-44.922,-41.504,-17.578,0.000,0
160376.951,-22.461,-47.852,-29.785,-24.414,0.000,0
160376.955,-22.949,-47.363,-33.203,-34.668,0.000,0
160376.959,-21.484,-42.480,-28.809,-25.391,0.000,0
160376.963,-29.785,-43.945,-25.879,-40.039,0.000,0
160376.967,-35.645,-44.434,-31.738,-44.922,0.000,0
160376.971,-31.738,-46.875,-40.039,-30.273,0.000,0
160376.974,-31.250,-46.875,-38.086,-28.320,0.000,0
160376.978,-27.832,-49.805,-27.832,-36.621,0.000,0
160376.982,-27.344,-48.828,-30.273,-32.715,0.000,0
160376.986,-19.531,-42.969,-42.969,-15.137,0.000,0
160376.990,-15.137,-39.551,-35.645,1.465,0.000,0
160376.994,-28.320,-38.574,-20.020,-13.184,0.000,0
160376.998,-22.949,-45.410,-22.949,-27.344,0.000,0
160377.002,-13.672,-47.852,-40.039,-30.762,0.000,0
160377.006,-14.648,-43.945,-35.645,-21.973,0.000,0
160377.010,-23.926,-44.434,-25.391,-8.301,0.000,0
160377.013,-21.484,-46.875,-28.320,-15.625,0.000,0
160377.017,-28.320,-43.945,-24.902,-29.785,0.000,0
160377.021,-38.086,-43.945,-13.184,-45.898,0.000,0
160377.025,-45.898,-34.668,-14.160,-44.434,0.000,0
160377.029,-40.527,-30.762,-28.809,-45.898,0.000,0
160377.033,-25.391,-34.668,-39.551,-20.508,0.000,0
160377.037,-16.602,-32.227,-30.762,0.977,0.000,0
160377.041,-18.066,-32.227,-20.020,-22.461,0.000,0
160377.045,-20.020,-37.109,-39.062,-36.133,0.000,0
160377.049,-18.555,-30.762,-46.387,-31.250,0.000,0
160377.053,-21.973,-22.949,-23.926,-22.461,0.000,0
160377.056,-10.254,-26.367,-10.254,-27.344,0.000,0
160377.060,-22.461,-26.855,-18.066,-41.504,0.000,0
160377.064,-41.016,-30.273,-22.949,-37.598,0.000,0
160377.068,-28.809,-35.645,-13.672,-17.090,0.000,0
160377.072,-30.762,-37.598,-12.207,-4.883,0.000,0
160377.076,-37.109,-41.016,-24.902,-30.273,0.000,0
160377.080,-29.785,-38.574,-22.461,-34.668,0.000,0
160377.084,-16.113,-40.039,-16.113,-24.414,0.000,0
160377.088,-9.277,-35.156,-17.090,-17.090,0.000,0
160377.092,-16.602,-32.715,-25.391,-5.859,0.000,0
160377.096,-17.578,-38.574,-16.113,-10.254,0.000,0
160377.099,-10.742,-35.645,5.371,-24.902,0.000,0
160377.103,-20.508,-32.227,-17.090,-12.207,0.000,0
160377.107,-14.648,-39.062,-29.785,-4.883,0.000,0
160377.111,-14.160,-43.945,-38.574,-9.766,0.000,0
160377.115,-22.949,-43.457,-27.344,-11.719,0.000,0
160377.119,-17.578,-39.551,-20.996,-22.461,0.000,0
160377.123,-20.996,-40.039,-46.875,-19.531,0.000,0
160377.127,-37.109,-43.457,-42.969,-21.484,0.000,0
160377.131,-36.621,-41.016,-17.578,-18.555,0.000,0
160377.135,-19.531,-39.062,-20.996,-21.484,0.000,0
160377.138,-19.043,-37.109,-20.996,-41.504,0.000,0
160377.142,-18.555,-35.645,-31.738,-38.086,0.000,0
160377.146,-24.902,-41.504,-39.062,-25.391,0.000,0
160377.150,-33.203,-38.574,-41.992,-16.602,0.000,0
160377.154,-33.203,-39.551,-40.527,-31.250,0.000,0
160377.158,-32.715,-41.504,-19.531,-47.852,0.000,0
160377.162,-38.086,-37.598,-30.273,-27.832,0.000,0
160377.166,-38.574,-38.086,-29.297,-27.832,0.000,0
160377.170,-29.785,-37.109,-27.832,-35.156,0.000,0
160377.174,-25.879,-40.527,-30.273,-26.367,0.000,0
160377.178,-31.738,-47.852,-13.672,-21.484,0.000,0
160377.181,-28.320,-39.062,-30.762,-27.832,0.000,0
160377.185,-29.297,-35.645,-37.598,-30.762,0.000,0
160377.189,-25.879,-38.574,-27.344,-19.043,0.000,0
160377.193,-15.137,-38.086,-28.809,-16.113,0.000,0
160377.197,-17.578,-44.922,-15.137,-48.828,0.000,0
160377.201,-27.832,-44.922,-8.301,-50.293,0.000,0
160377.205,-16.602,-39.551,-23.438,-33.691,0.000,0
160377.209,-9.766,-42.969,-29.785,-28.809,0.000,0
160377.213,-21.484,-40.527,-41.992,-18.066,0.000,0
160377.217,-19.531,-40.039,-30.762,-26.367,0.000,0
160377.221,-21.973,-40.039,-11.719,-26.855,0.000,0
160377.224,-30.762,-32.227,-29.785,-33.203,0.000,0
160377.228,-27.832,-32.715,-39.062,-38.086,0.000,0
160377.232,-32.715,-36.133,-23.926,-22.461,0.000,0
160377.236,-19.531,-36.621,-6.836,-25.391,0.000,0
160377.240,-17.090,-36.133,-26.855,-36.133,0.000,0
160377.244,-27.344,-41.992,-41.016,-23.926,0.000,0
160377.248,-31.250,-41.992,-30.762,-11.230,0.000,0
160377.252,-30.273,-38.574,-26.367,-24.414,0.000,0
160377.256,-32.715,-37.109,-22.949,-42.969,0.000,0
160377.260,-20.508,-40.039,-43.457,-39.551,0.000,0
160377.263,-10.742,-39.062,-34.180,-21.973,0.000,0
160377.267,-31.250,-34.668,-24.414,-10.742,0.000,0
160377.271,-42.969,-40.039,-32.715,-22.461,0.000,0
160377.275,-38.574,-38.574,-25.879,-41.504,0.000,0
160377.279,-22.461,-36.621,-35.156,-42.969,0.000,0
160377.283,-25.879,-40.039,-37.109,-35.156,0.000,0
160377.287,-36.621,-41.504,-44.434,-30.273,0.000,0
160377.291,-27.832,-39.062,-28.809,-31.250,0.000,0
160377.295,-32.715,-34.668,-8.301,-21.973,0.000,0
160377.299,-30.762,-37.598,-13.672,-22.949,0.000,0
160377.303,-12.207,-40.527,-20.020,-25.391,0.000,0
160377.306,-25.391,-36.621,-21.484,-14.160,0.000,0
160377.310,-41.016,-42.480,-20.020,-20.996,0.000,0
160377.314,-29.785,-40.039,-25.879,-35.156,0.000,0
160377.318,-23.438,-30.273,-26.855,-42.480,0.000,0
160377.322,-20.020,-27.832,-26.367,-30.273,0.000,0
160377.326,-25.391,-33.691,-32.227,-17.090,0.000,0
160377.330,-23.926,-38.086,-31.250,-24.414,0.000,0
160377.334,-30.762,-40.039,-21.973,-35.156,0.000,0
160377.338,-34.668,-41.504,-38.086,-26.367,0.000,0
160377.342,-39.062,-39.551,-42.480,-25.879,0.000,0
160377.346,-41.504,-39.062,-32.227,-36.621,0.000,0
160377.349,-42.480,-45.898,-28.809,-41.504,0.000,0
160377.353,-36.133,-48.828,-20.020,-46.387,0.000,0
160377.357,-23.438,-46.387,-25.879,-42.969,0.000,0
160377.361,-18.066,-49.316,-39.551,-25.391,0.000,0
160377.365,-26.367,-48.828,-41.504,-15.625,0.000,0
160377.369,-32.227,-43.457,-32.715,-14.160,0.000,0
160377.373,-17.578,-42.969,-27.832,-22.949,0.000,0
160377.377,-19.043,-43.945,-39.062,-41.016,0.000,0
160377.381,-24.902,-41.992,-30.273,-26.855,0.000,0
160377.385,-27.344,-40.527,-27.344,-20.020,0.000,0
160377.388,-30.273,-47.363,-44.434,-33.203,0.000,0
160377.392,-30.762,-47.363,-35.156,-37.598,0.000,0
160377.396,-24.414,-43.945,-30.762,-32.227,0.000,0
160377.400,-17.090,-46.387,-28.320,-32.715,0.000,0
160377.404,-18.066,-45.410,-31.738,-42.969,0.000,0
160377.408,-17.090,-48.828,-50.293,-21.484,0.000,0
160377.412,-28.320,-46.387,-20.508,-31.250,0.000,0
160377.416,-36.133,-41.016,-11.230,-43.457,0.000,0
160377.420,-24.902,-41.992,-29.785,-33.691,0.000,0
160377.424,-29.297,-39.551,-31.738,-27.832,0.000,0
160377.428,-20.020,-30.762,-32.715,-12.695,0.000,0
160377.431,-16.113,-29.297,-16.602,-22.461,0.000,0
160377.435,-18.066,-29.297,-17.090,-28.809,0.000,0
160377.439,-23.926,-32.715,-32.227,-17.090,0.000,0
160377.443,-32.715,-39.551,-36.133,-20.996,0.000,0
160377.447,-26.855,-38.086,-36.621,-29.785,0.000,0
160377.451,-22.461,-41.016,-25.391,-39.062,0.000,0
160377.455,-6.836,-38.574,-12.207,-41.016,0.000,0
160377.459,-25.879,-35.156,-17.090,-44.922,0.000,0
160377.463,-28.809,-32.715,-29.297,-29.785,0.000,0
160377.467,-10.742,-29.297,-33.203,-10.742,0.000,0
160377.471,-25.879,-29.297,-15.625,-34.668,0.000,0
160377.474,-35.156,-32.715,-18.555,-42.480,0.000,0
160377.478,-26.855,-28.320,-33.691,-24.902,0.000,0
160377.482,-31.250,-30.762,-34.180,-21.484,0.000,0
160377.486,-28.320,-33.203,-26.367,-11.719,0.000,0
160377.490,-24.902,-28.320,-14.648,-24.902,0.000,0
160377.494,-25.391,-29.297,-22.461,-47.363,0.000,0
160377.498,-18.066,-23.438,-32.715,-24.414,0.000,0
160377.502,-28.320,-26.367,-13.672,-15.625,0.000,0
160377.506,-29.785,-30.762,-7.812,-32.715,0.000,0
160377.510,-27.344,-34.180,-24.414,-43.945,0.000,0
160377.513,-32.227,-38.086,-20.020,-26.367,0.000,0
160377.517,-20.996,-31.250,-22.461,-11.719,0.000,0
160377.521,-21.484,-27.832,-26.855,-32.227,0.000,0
160377.525,-33.203,-39.062,-49.805,-28.320,0.000,0
160377.529,-36.621,-47.363,-41.016,-41.504,0.000,0
160377.533,-27.344,-43.457,-19.531,-51.758,0.000,0
160377.537,-28.809,-42.480,-28.809,-37.598,0.000,0
160377.541,-36.133,-38.574,-49.316,-39.062,0.000,0
160377.545,-36.133,-37.109,-56.641,-28.320,0.000,0
160377.549,-46.387,-44.922,-20.508,-32.715,0.000,0
160377.553,-39.062,-49.805,-21.973,-55.664,0.000,0
160377.556,-31.250,-45.410,-47.363,-50.781,0.000,0
160377.560,-34.180,-41.992,-31.250,-38.574,0.000,0
160377.564,-34.668,-41.016,-33.203,-23.926,0.000,0
160377.568,-23.926,-41.504,-31.738,-27.832,0.000,0
160377.572,-23.438,-41.504,-19.531,-30.273,0.000,0
160377.576,-40.527,-41.016,-40.039,-19.531,0.000,0
160377.580,-35.645,-40.527,-41.504,-25.391,0.000,0
160377.584,-36.133,-41.504,-36.621,-28.809,0.000,0
160377.588,-47.363,-41.016,-43.457,-32.715,0.000,0
160377.592,-40.039,-33.691,-25.879,-45.410,0.000,0
160377.596,-27.344,-29.297,-12.695,-50.293,0.000,0
160377.599,-23.438,-32.715,-28.320,-40.039,0.000,0
160377.603,-28.320,-35.156,-35.645,-23.926,0.000,0
160377.607,-41.504,-41.992,-34.180,-29.785,0.000,0
160377.611,-43.945,-38.574,-29.297,-32.715,0.000,0
160377.615,-37.598,-32.227,-34.668,-24.414,0.000,0
160377.619,-38.086,-36.133,-36.133,-26.855,0.000,0
160377.623,-35.156,-40.527,-34.668,-29.785,0.000,0
160377.627,-27.832,-38.574,-31.738,-25.391,0.000,0
160377.631,-31.250,-39.062,-27.344,-34.180,0.000,0
160377.635,-41.016,-45.410,-34.180,-35.645,0.000,0
160377.638,-36.621,-44.922,-39.062,-22.949,0.000,0
160377.642,-30.273,-43.945,-51.758,-18.066,0.000,0
160377.646,-31.738,-48.340,-55.176,-27.344,0.000,0
160377.650,-34.668,-48.828,-35.156,-36.133,0.000,0
160377.654,-30.273,-41.016,-30.273,-17.090,0.000,0
160377.658,-26.367,-41.504,-39.062,-17.090,0.000,0
160377.662,-29.297,-44.922,-39.062,-26.367,0.000,0
160377.666,-17.578,-42.969,-24.902,-17.578,0.000,0
160377.670,-20.508,-40.039,-20.020,-24.902,0.000,0
160377.674,-34.180,-35.645,-25.391,-34.668,0.000,0
160377.678,-37.109,-31.250,-26.855,-36.133,0.000,0
160377.681,-41.016,-31.738,-25.879,-27.344,0.000,0
160377.685,-33.203,-33.203,-18.555,-24.902,0.000,0
160377.689,-34.668,-35.156,-25.879,-32.227,0.000,0
160377.693,-40.527,-34.180,-36.621,-28.809,0.000,0
160377.697,-31.250,-34.668,-39.062,-21.484,0.000,0
160377.701,-18.066,-42.480,-27.832,-26.855,0.000,0
160377.705,-19.043,-42.969,-28.320,-33.203,0.000,0
160377.709,-26.367,-35.156,-13.184,-42.969,0.000,0
160377.713,-22.949,-30.762,-10.742,-29.785,0.000,0
160377.717,-16.113,-29.785,-30.762,-8.301,0.000,0
160377.721,-22.949,-30.762,-27.344,-22.461,0.000,0
160377.724,-13.184,-29.785,-17.578,-23.438,0.000,0
160377.728,-16.602,-26.367,-9.766,-32.715,0.000,0
160377.732,-30.762,-28.320,-24.414,-37.109,0.000,0
160377.736,-19.531,-31.250,-29.785,-29.785,0.000,0
160377.740,-15.625,-25.879,-25.391,-19.531,0.000,0
160377.744,-14.648,-22.461,-26.367,-15.137,0.000,0
160377.748,-28.320,-31.738,-22.461,-32.227,0.000,0
160377.752,-37.598,-36.621,-31.738,-32.715,0.000,0
160377.756,-24.414,-30.762,-36.133,-21.973,0.000,0
160377.760,-17.578,-28.320,-30.273,-18.066,0.000,0
160377.763,-12.695,-33.691,-28.320,-17.090,0.000,0
160377.767,-12.695,-29.785,-15.137,-20.996,0.000,0
160377.771,-18.555,-24.902,-13.184,-27.344,0.000,0
160377.775,-28.809,-31.250,-21.484,-34.180,0.000,0
160377.779,-38.086,-33.691,-31.738,-23.438,0.000,0
160377.783,-31.250,-33.691,-35.645,-13.184,0.000,0
160377.787,-22.949,-31.738,-18.066,-15.625,0.000,0
160377.791,-28.320,-31.738,-28.320,-24.414,0.000,0
160377.795,-40.039,-36.621,-42.969,-30.762,0.000,0
160377.799,-47.363,-37.109,-33.691,-24.902,0.000,0
160377.803,-38.574,-40.039,-32.227,-25.879,0.000,0
160377.806,-26.367,-37.598,-26.367,-27.344,0.000,0
160377.810,-32.715,-32.715,-20.508,-39.062,0.000,0
160377.814,-15.137,-30.273,-17.578,-43.945,0.000,0
160377.818,-16.113,-32.715,-24.902,-34.180,0.000,0
160377.822,-33.691,-36.621,-44.922,-37.109,0.000,0
160377.826,-20.996,-35.645,-41.016,-46.875,0.000,0
160377.830,-22.461,-37.109,-22.461,-40.527,0.000,0
160377.834,-19.531,-32.227,-14.648,-11.719,0.000,0
160377.838,-20.508,-33.203,-21.973,-14.648,0.000,0
160377.842,-25.391,-32.227,-35.156,-31.250,0.000,0
160377.846,-20.508,-35.645,-18.066,-46.875,0.000,0
160377.849,-20.020,-36.621,-12.207,-47.852,0.000,0
160377.853,-20.508,-34.180,-32.227,-30.762,0.000,0
160377.857,-23.438,-32.715,-35.645,-33.203,0.000,0
160377.861,-41.016,-34.668,-28.809,-29.785,0.000,0
160377.865,-41.992,-40.527,-14.648,-29.297,0.000,0
160377.869,-27.832,-39.551,-13.672,-34.668,0.000,0
160377.873,-24.902,-39.551,-37.109,-29.785,0.000,0
160377.877,-33.691,-39.551,-35.645,-40.527,0.000,0
160377.881,-32.715,-36.133,-22.949,-35.645,0.000,0
160377.885,-27.832,-31.738,-23.926,-28.809,0.000,0
160377.888,-30.762,-32.715,-19.043,-49.805,0.000,0
160377.892,-31.250,-32.715,-30.762,-46.875,0.000,0
160377.896,-26.855,-32.715,-34.180,-32.715,0.000,0
160377.900,-31.250,-42.969,-40.039,-26.855,0.000,0
160377.904,-39.551,-41.992,-24.902,-40.527,0.000,0
160377.908,-34.180,-32.715,-18.066,-50.293,0.000,0
160377.912,-24.902,-31.738,-30.273,-39.551,0.000,0
160377.916,-19.531,-31.250,-15.137,-39.062,0.000,0
160377.920,-28.320,-34.668,-31.250,-17.578,0.000,0
160377.924,-45.898,-37.109,-30.762,-13.184,0.000,0
160377.928,-41.016,-35.156,-16.113,-39.062,0.000,0
160377.931,-23.438,-37.598,-43.945,-31.738,0.000,0
160377.935,-28.320,-40.527,-51.270,-16.602,0.000,0
160377.939,-35.156,-41.992,-36.133,-39.062,0.000,0
160377.943,-32.715,-43.457,-28.320,-53.223,0.000,0
160377.947,-34.668,-42.480,-33.203,-44.922,0.000,0
160377.951,-40.527,-35.645,-29.785,-41.016,0.000,0
160377.955,-36.621,-35.645,-20.996,-29.297,0.000,0
160377.959,-33.691,-37.598,-31.250,-16.113,0.000,0
160377.963,-36.133,-34.668,-34.668,-24.902,0.000,0
160377.967,-38.086,-37.109,-18.066,-41.504,0.000,0
160377.971,-32.227,-37.109,-13.672,-32.715,0.000,0
160377.974,-29.297,-35.156,-40.527,-29.297,0.000,0
160377.978,-22.461,-33.203,-37.598,-22.461,0.000,0
160377.982,-20.508,-31.738,-23.926,-21.484,0.000,0
160377.986,-34.668,-31.250,-12.695,-41.992,0.000,0
160377.990,-40.527,-31.250,-24.414,-44.922,0.000,0
160377.994,-36.133,-37.109,-48.340,-33.691,0.000,0
160377.998,-20.020,-37.109,-38.086,-29.297,0.000,0
160378.002,-12.695,-33.691,-20.508,-28.320,0.000,0
160378.006,-21.973,-29.297,-17.090,-30.273,0.000,0
160378.010,-38.086,-20.508,-28.320,-23.926,0.000,0
160378.013,-25.879,-17.090,-22.461,-13.184,0.000,0
160378.017,-16.602,-20.508,-9.766,-15.625,0.000,0
160378.021,-24.902,-26.855,-32.715,-20.020,0.000,0
160378.025,-26.855,-27.344,-36.621,-26.855,0.000,0
160378.029,-22.949,-29.297,-20.508,-27.832,0.000,0
160378.033,-27.344,-30.762,-27.832,-30.762,0.000,0
160378.037,-26.367,-36.621,-33.691,-19.531,0.000,0
160378.041,-23.926,-43.945,-33.691,-10.742,0.000,0
160378.045,-25.391,-37.109,-24.902,-24.414,0.000,0
160378.049,-14.160,-36.621,-27.344,-22.461,0.000,0
160378.053,-11.719,-36.621,-33.203,-17.090,0.000,0
160378.056,-8.789,-34.668,-21.484,-23.926,0.000,0
160378.060,-3.906,-39.551,-27.344,-29.297,0.000,0
160378.064,-18.066,-40.527,-34.180,-33.203,0.000,0
160378.068,-29.297,-37.109,-31.738,-25.391,0.000,0
160378.072,-24.414,-34.668,-37.109,-11.719,0.000,0
160378.076,-14.160,-33.203,-32.227,-11.230,0.000,0
160378.080,-18.066,-30.762,-25.879,-12.695,0.000,0
160378.084,-16.602,-32.715,-20.020,-18.555,0.000,0
160378.088,-15.137,-31.738,-23.926,-22.461,0.000,0
160378.092,-18.555,-29.785,-33.691,-24.414,0.000,0
160378.096,-30.273,-39.551,-36.133,-21.973,0.000,0
160378.099,-31.738,-35.156,-34.668,-9.766,0.000,0
160378.103,-17.578,-24.414,-15.137,-11.230,0.000,0
160378.107,-21.973,-29.297,-30.273,-20.996,0.000,0
160378.111,-28.320,-30.273,-59.082,-26.367,0.000,0
160378.115,-19.043,-31.250,-39.551,-23.438,0.000,0
160378.119,-27.344,-32.715,-1.953,-30.762,0.000,0
160378.123,-24.902,-38.086,-7.812,-41.016,0.000,0
160378.127,-13.184,-36.621,-41.016,-35.156,0.000,0
160378.131,-27.344,-30.273,-25.391,-17.578,0.000,0
160378.135,-35.156,-33.691,-16.602,-3.906,0.000,0
160378.138,-31.250,-33.691,-32.715,0.000,0.000,0
160378.142,-26.855,-30.273,-18.066,-21.484,0.000,0
160378.146,-32.227,-32.227,-14.648,-29.785,0.000,0
160378.150,-31.738,-36.621,-27.344,-2.441,0.000,0
160378.154,-25.879,-38.574,-32.715,-2.930,0.000,0
160378.158,-36.133,-37.109,-45.898,-30.762,0.000,0
160378.162,-36.133,-36.133,-29.297,-37.109,0.000,0
160378.166,-28.320,-26.855,-7.812,-37.109,0.000,0
160378.170,-37.109,-26.367,-32.227,-35.156,0.000,0
160378.174,-34.668,-32.715,-43.457,-13.184,0.000,0
160378.178,-29.785,-27.344,-27.832,-12.207,0.000,0
160378.181,-32.227,-27.832,-4.395,-36.133,0.000,0
160378.185,-33.691,-26.855,-8.789,-29.297,0.000,0
160378.189,-31.738,-26.367,-29.297,-18.066,0.000,0
160378.193,-15.137,-20.020,-23.926,-15.625,0.000,0
160378.197,-5.859,-19.043,-32.715,-12.695,0.000,0
160378.201,-7.812,-20.020,-24.414,-20.508,0.000,0
160378.205,-20.508,-25.879,-17.090,-26.367,0.000,0
160378.209,-31.738,-31.250,-19.531,-26.367,0.000,0
160378.213,-27.344,-27.832,-23.926,-20.020,0.000,0
160378.217,-14.160,-40.039,-36.621,-20.508,0.000,0
160378.221,-26.367,-43.945,-18.555,-33.691,0.000,0
160378.224,-37.109,-35.645,-19.531,-38.574,0.000,0
160378.228,-33.203,-37.598,-39.551,-31.738,0.000,0
160378.232,-22.949,-40.527,-41.504,-22.461,0.000,0
160378.236,-13.672,-35.645,-36.133,-6.836,0.000,0
160378.240,-20.508,-38.574,-33.203,-19.531,0.000,0
160378.244,-27.832,-36.621,-30.762,-39.551,0.000,0
160378.248,-14.648,-30.762,-36.621,-22.949,0.000,0
160378.252,-14.648,-30.273,-17.090,-12.695,0.000,0
160378.256,-11.719,-32.715,-23.438,-18.555,0.000,0
160378.260,-7.812,-34.180,-24.414,-24.414,0.000,0
160378.263,-3.906,-27.344,-12.207,-21.973,0.000,0
160378.267,-12.207,-30.762,-23.926,-30.762,0.000,0
160378.271,-27.344,-28.320,-34.180,-22.949,0.000,0
160378.275,-17.578,-22.461,-31.738,-1.465,0.000,0
160378.279,-21.484,-26.367,-14.648,-17.578,0.000,0
160378.283,-20.020,-25.879,-11.230,-29.785,0.000,0
160378.287,-23.438,-25.391,-27.344,-21.973,0.000,0
160378.291,-26.855,-31.738,-46.875,-28.320,0.000,0
160378.295,-14.648,-34.668,-31.738,-20.020,0.000,0
160378.299,-25.391,-29.297,-2.441,-21.973,0.000,0
160378.303,-22.461,-29.297,-22.949,-31.738,0.000,0
160378.306,-15.137,-30.762,-33.203,-15.625,0.000,0
160378.310,-20.996,-31.250,-23.438,-13.184,0.000,0
160378.314,-20.508,-35.156,-26.855,-20.020,0.000,0
160378.318,-19.531,-37.109,-20.996,-32.715,0.000,0
160378.322,-21.484,-34.180,-15.137,-42.969,0.000,0
160378.326,-24.414,-36.133,-28.320,-16.602,0.000,0
160378.330,-10.742,-27.832,-25.879,-12.695,0.000,0
160378.334,-8.301,-24.902,-21.973,-25.391,0.000,0
160378.338,-29.297,-41.504,-33.203,-43.457,0.000,0
160378.342,-28.809,-42.969,-23.926,-44.922,0.000,0
160378.346,-8.789,-33.691,-32.227,-23.926,0.000,0
160378.349,-10.742,-33.691,-44.434,-20.020,0.000,0
160378.353,-24.902,-36.621,-34.180,-29.785,0.000,0
160378.357,-30.762,-37.109,-13.672,-33.203,0.000,0
160378.361,-36.133,-35.156,-16.602,-28.320,0.000,0
160378.365,-26.855,-32.227,-28.809,-20.508,0.000,0
160378.369,-27.832,-29.785,-26.855,-23.926,0.000,0
160378.373,-29.297,-30.762,-26.855,-36.133,0.000,0
160378.377,-33.203,-33.691,-29.297,-47.363,0.000,0
160378.381,-42.480,-38.086,-25.879,-57.129,0.000,0
160378.385,-34.668,-38.086,-24.414,-37.598,0.000,0
160378.388,-39.062,-36.133,-23.926,-30.762,0.000,0
160378.392,-42.480,-39.062,-41.016,-40.039,0.000,0
160378.396,-39.551,-41.016,-38.086,-39.551,0.000,0
160378.400,-43.457,-38.574,-28.320,-47.363,0.000,0
160378.404,-39.551,-39.062,-48.828,-45.898,0.000,0
160378.408,-37.598,-41.016,-55.664,-37.109,0.000,0
160378.412,-43.945,-46.387,-53.711,-37.109,0.000,0
160378.416,-44.922,-44.922,-30.762,-37.109,0.000,0
160378.420,-25.391,-30.762,-16.602,-35.645,0.000,0
160378.424,-17.090,-26.855,-21.484,-35.645,0.000,0
160378.428,-38.086,-35.645,-30.762,-21.484,0.000,0
160378.431,-49.805,-37.598,-37.109,-11.719,0.000,0
160378.435,-32.715,-34.668,-26.367,-26.855,0.000,0
160378.439,-29.297,-37.109,-29.297,-61.523,0.000,0
160378.443,-30.762,-34.180,-29.785,-61.035,0.000,0
160378.447,-27.832,-39.062,-20.508,-43.945,0.000,0
160378.451,-32.715,-41.992,-30.273,-32.715,0.000,0
160378.455,-29.785,-37.598,-35.645,-34.668,0.000,0
160378.459,-29.785,-39.062,-25.391,-37.598,0.000,0
160378.463,-34.180,-38.086,-31.250,-25.879,0.000,0
160378.467,-20.020,-30.762,-41.504,-25.879,0.000,0
160378.471,-9.766,-24.902,-36.621,-24.414,0.000,0
160378.474,-18.555,-27.344,-17.578,-26.367,0.000,0
160378.478,-32.715,-32.227,-5.371,-39.062,0.000,0
160378.482,-31.738,-27.832,-26.367,-38.574,0.000,0
160378.486,-17.090,-30.273,-34.180,-24.902,0.000,0
160378.490,-9.766,-32.715,-35.645,-6.348,0.000,0
160378.494,-10.742,-29.297,-30.273,-12.695,0.000,0
160378.498,-23.926,-27.832,-13.672,-38.086,0.000,0
160378.502,-23.926,-25.879,-24.414,-21.484,0.000,0
160378.506,-20.020,-28.320,-24.902,-11.230,0.000,0
160378.510,-25.879,-28.809,-29.785,-21.973,0.000,0
160378.513,-24.414,-29.297,-34.180,-21.484,0.000,0
160378.517,-20.996,-28.809,-18.555,-36.133,0.000,0
160378.521,-22.461,-26.855,-25.391,-33.691,0.000,0
160378.525,-20.996,-29.297,-28.809,-25.391,0.000,0
160378.529,-23.438,-28.809,-39.062,-25.391,0.000,0
160378.533,-29.297,-29.297,-46.875,-23.438,0.000,0
160378.537,-34.180,-33.203,-8.789,-26.855,0.000,0
160378.541,-23.438,-39.062,-32.227,-18.066,0.000,0
160378.545,-28.320,-37.598,-55.176,-27.832,0.000,0
160378.549,-28.320,-30.762,-31.250,-28.320,0.000,0
160378.553,-14.160,-28.809,-26.367,-7.324,0.000,0
160378.556,-8.301,-30.273,-18.555,-26.855,0.000,0
160378.560,-16.602,-30.273,-24.414,-48.340,0.000,0
160378.564,-20.996,-30.762,-29.785,-28.809,0.000,0
160378.568,-15.625,-32.715,-24.902,-10.742,0.000,0
160378.572,-7.324,-31.738,-34.668,-9.766,0.000,0
160378.576,-5.859,-30.273,-23.438,-22.949,0.000,0
160378.580,-16.602,-29.297,-7.324,-34.180,0.000,0
160378.584,-18.066,-28.320,-9.277,-28.809,0.000,0
160378.588,-20.508,-33.691,-29.785,-25.879,0.000,0
160378.592,-20.996,-39.551,-45.898,-27.832,0.000,0
160378.596,-23.438,-37.598,-16.602,-31.738,0.000,0
160378.599,-38.086,-28.320,-12.695,-44.434,0.000,0
160378.603,-31.250,-30.273,-34.668,-32.227,0.000,0
160378.607,-19.531,-32.227,-33.203,-27.832,0.000,0
160378.611,-23.926,-31.250,-22.949,-16.113,0.000,0
160378.615,-22.949,-31.738,-18.066,-9.766,0.000,0
160378.619,-19.043,-28.809,-24.902,-32.227,0.000,0
160378.623,-25.391,-31.738,-42.969,-11.230,0.000,0
160378.627,-14.648,-28.320,-9.277,0.000,0.000,0
160378.631,-8.301,-22.461,-7.324,-29.297,0.000,0
160378.635,-32.227,-28.809,-37.598,-36.621,0.000,0
160378.638,-40.039,-29.297,-26.855,-32.227,0.000,0
160378.642,-35.645,-29.297,-33.203,-29.297,0.000,0
160378.646,-29.297,-36.133,-37.109,-36.621,0.000,0
160378.650,-24.902,-40.039,-30.762,-30.273,0.000,0
160378.654,-25.879,-35.156,-27.344,-33.691,0.000,0
160378.658,-32.227,-30.273,-22.461,-47.852,0.000,0
160378.662,-30.273,-29.785,-24.414,-42.969,0.000,0
160378.666,-21.973,-34.180,-43.457,-30.762,0.000,0
160378.670,-27.344,-34.668,-45.410,-16.602,0.000,0
160378.674,-31.250,-33.691,-25.879,-25.391,0.000,0
160378.678,-18.555,-34.180,-34.668,-38.086,0.000,0
160378.681,-23.438,-36.621,-39.551,-36.133,0.000,0
160378.685,-41.992,-39.551,-29.785,-38.086,0.000,0
160378.689,-32.227,-36.133,-32.715,-40.039,0.000,0
160378.693,-22.949,-32.715,-30.273,-27.832,0.000,0
160378.697,-27.344,-32.227,-17.578,-29.785,0.000,0
160378.701,-20.996,-32.715,-15.137,-34.180,0.000,0
160378.705,-15.625,-36.621,-25.391,-28.320,0.000,0
160378.709,-24.414,-38.574,-27.832,-27.832,0.000,0
160378.713,-14.648,-39.062,-12.695,-27.344,0.000,0
160378.717,-9.766,-41.016,-4.883,-36.133,0.000,0
160378.721,-19.043,-39.062,-28.809,-41.504,0.000,0
160378.724,-22.949,-39.062,-43.457,-39.062,0.000,0
160378.728,-20.508,-36.133,-29.297,-20.508,0.000,0
160378.732,-10.742,-33.691,-11.230,-11.230,0.000,0
160378.736,-20.508,-38.086,-20.996,-25.879,0.000,0
160378.740,-23.438,-38.574,-41.504,-14.160,0.000,0
160378.744,-19.043,-40.039,-46.387,-8.301,0.000,0
160378.748,-17.090,-41.016,-32.715,-21.973,0.000,0
160378.752,-20.508,-35.645,-27.344,-19.043,0.000,0
160378.756,-30.762,-36.133,-29.297,-30.273,0.000,0
160378.760,-27.344,-36.621,-27.344,-33.203,0.000,0
160378.763,-24.414,-37.598,-27.344,-31.250,0.000,0
160378.767,-20.020,-37.598,-50.781,-24.902,0.000,0
160378.771,-24.902,-31.250,-46.387,-23.438,0.000,0
160378.775,-28.320,-30.273,-15.625,-37.109,0.000,0
160378.779,-27.344,-30.762,-13.672,-20.996,0.000,0
160378.783,-26.367,-27.344,-21.973,-25.879,0.000,0
160378.787,-22.461,-33.691,-24.414,-36.621,0.000,0
160378.791,-26.367,-39.062,-21.484,-23.438,0.000,0
160378.795,-29.297,-32.715,-12.695,-36.621,0.000,0
160378.799,-27.832,-25.879,-17.090,-51.270,0.000,0
160378.803,-35.156,-29.785,-23.438,-36.621,0.000,0
160378.806,-37.598,-28.320,-24.902,-26.367,0.000,0
160378.810,-29.785,-20.508,-20.996,-38.574,0.000,0
160378.814,-18.066,-21.484,-14.648,-41.016,0.000,0
160378.818,-20.508,-25.391,-20.508,-26.367,0.000,0
160378.822,-29.297,-34.180,-33.203,-22.461,0.000,0
160378.826,-31.250,-30.762,-36.621,-29.297,0.000,0
160378.830,-30.762,-27.344,-29.297,-34.668,0.000,0
160378.834,-37.109,-30.762,-5.859,-55.176,0.000,0
160378.838,-39.551,-27.832,-24.902,-53.223,0.000,0
160378.842,-37.109,-32.227,-45.410,-37.109,0.000,0
160378.846,-33.691,-33.203,-41.016,-24.414,0.000,0
160378.849,-39.551,-35.645,-26.855,-18.066,0.000,0
160378.853,-36.133,-32.715,-3.906,-32.227,0.000,0
160378.857,-29.785,-26.367,-32.227,-25.879,0.000,0
160378.861,-39.062,-27.344,-43.457,-33.691,0.000,0
160378.865,-37.598,-33.691,-31.738,-35.156,0.000,0
160378.869,-34.180,-38.086,-37.109,-41.992,0.000,0
160378.873,-37.109,-38.086,-26.855,-53.223,0.000,0
160378.877,-46.387,-35.645,-18.555,-40.039,0.000,0
160378.881,-43.457,-32.715,-23.438,-21.973,0.000,0
160378.885,-28.809,-25.879,-31.250,-15.625,0.000,0
160378.888,-25.879,-25.879,-30.762,-20.996,0.000,0
160378.892,-23.926,-28.809,-7.324,-33.203,0.000,0
160378.896,-17.090,-23.926,-0.488,-43.945,0.000,0
160378.900,-40.039,-27.344,-23.926,-30.762,0.000,0
160378.904,-38.086,-33.691,-40.039,-16.113,0.000,0
160378.908,-21.484,-32.715,-29.785,-19.043,0.000,0
160378.912,-22.949,-28.320,12.695,-21.973,0.000,0
160378.916,-7.812,-26.855,-0.977,-20.020,0.000,0
160378.920,-2.930,-19.043,-20.996,-11.719,0.000,0
160378.924,-4.883,-14.648,-9.766,-10.254,0.000,0
160378.928,1.953,-20.020,-9.277,-20.996,0.000,0
160378.931,0.977,-24.902,-2.930,-32.227,0.000,0
160378.935,-6.836,-25.879,-7.324,-40.039,0.000,0
160378.939,-27.832,-29.297,-15.137,-45.410,0.000,0
160378.943,-52.734,-31.738,-23.926,-26.855,0.000,0
160378.947,-40.527,-27.832,-41.992,-12.207,0.000,0
160378.951,-22.949,-25.879,-36.621,-10.254,0.000,0
160378.955,-32.227,-26.855,-23.438,-8.301,0.000,0
160378.959,-45.898,-24.902,-22.461,-4.883,0.000,0
160378.963,-25.391,-26.855,-34.180,-14.648,0.000,0
160378.967,-16.602,-26.855,-34.668,-24.414,0.000,0
160378.971,-40.527,-23.438,-21.484,-29.297,0.000,0
160378.974,-37.598,-21.973,-26.855,-31.738,0.000,0
160378.978,-19.531,-23.438,-35.645,-17.578,0.000,0
160378.982,-22.461,-23.438,-27.832,-7.812,0.000,0
160378.986,-16.113,-20.020,-29.297,-5.371,0.000,0
160378.990,-16.113,-22.949,-33.203,-11.230,0.000,0
160378.994,-23.926,-30.762,-31.738,-3.906,0.000,0
160378.998,-19.043,-34.668,-35.156,8.789,0.000,0
160379.002,-38.574,-34.668,-28.809,-15.625,0.000,0
160379.006,-32.715,-36.133,-38.574,-12.207,0.000,0
160379.010,-11.230,-41.992,-43.945,-6.836,0.000,0
160379.013,-24.902,-41.992,-30.273,-41.016,0.000,0
160379.017,-26.855,-33.691,-28.320,-40.527,0.000,0
160379.021,-14.160,-32.227,-34.668,-22.949,0.000,0
160379.025,-14.160,-33.691,-37.109,-22.949,0.000,0
160379.029,-11.230,-37.598,-21.973,-18.066,0.000,0
160379.033,-19.531,-34.668,-16.113,-12.695,0.000,0
160379.037,-28.809,-29.785,-27.832,-22.949,0.000,0
160379.041,-21.484,-26.367,-18.066,-27.344,0.000,0
160379.045,-5.859,-20.508,-8.789,8.301,0.000,0
160379.049,-2.930,-23.926,-12.207,11.230,0.000,0
160379.053,-22.461,-26.855,-24.414,-31.250,0.000,0
160379.056,-38.086,-20.996,-37.598,-39.062,0.000,0
160379.060,-31.250,-24.414,-34.668,-14.160,0.000,0
160379.064,-23.926,-22.461,-24.414,-12.695,0.000,0
160379.068,-31.738,-15.137,-19.531,-37.598,0.000,0
160379.072,-37.598,-14.648,-16.113,-45.410,0.000,0
160379.076,-30.762,-14.160,-17.090,-34.180,0.000,0
160379.080,-19.531,-15.137,-14.160,-21.973,0.000,0
160379.084,-11.719,-17.578,-17.090,-6.348,0.000,0
160379.088,-16.113,-20.508,-26.367,-14.160,0.000,0
160379.092,-22.949,-15.137,-2.441,-28.320,0.000,0
160379.096,-16.602,-16.113,-4.395,-16.113,0.000,0
160379.099,-5.371,-20.508,-21.973,-12.207,0.000,0
160379.103,-11.230,-18.555,-18.066,-18.555,0.000,0
160379.107,-12.695,-20.508,-15.137,-19.043,0.000,0
160379.111,-6.836,-20.508,-7.324,-17.578,0.000,0
160379.115,-21.484,-25.391,-17.578,-12.207,0.000,0
160379.119,-26.367,-22.949,-20.996,-30.273,0.000,0
160379.123,-10.254,-21.973,-20.508,-20.508,0.000,0
160379.127,-14.648,-25.879,-18.066,-7.812,0.000,0
160379.131,-20.020,-26.367,-2.930,-30.762,0.000,0
160379.135,-25.879,-22.461,-5.859,-10.742,0.000,0
160379.138,-25.391,-21.973,-12.695,-2.441,0.000,0
160379.142,-17.578,-30.273,-20.020,-24.414,0.000,0
160379.146,-25.391,-32.715,-29.785,-23.438,0.000,0
160379.150,-29.297,-32.227,-20.020,-38.574,0.000,0
160379.154,-24.902,-33.691,-20.508,-41.016,0.000,0
160379.158,-25.879,-37.598,-31.738,-35.156,0.000,0
160379.162,-26.367,-33.203,-27.344,-26.855,0.000,0
160379.166,-18.555,-27.832,-10.254,-18.066,0.000,0
160379.170,-17.578,-33.691,-4.395,-32.715,0.000,0
160379.174,-25.879,-30.762,-25.391,-20.508,0.000,0
160379.178,-32.227,-29.785,-33.203,-11.230,0.000,0
160379.181,-30.762,-31.250,-20.020,-25.391,0.000,0
160379.185,-21.484,-33.203,-19.043,-36.621,0.000,0
160379.189,-21.484,-35.156,-20.020,-50.293,0.000,0
160379.193,-33.203,-27.832,-19.531,-45.898,0.000,0
160379.197,-37.598,-27.344,-17.090,-29.297,0.000,0
160379.201,-32.715,-38.574,-30.762,-24.902,0.000,0
160379.205,-40.039,-36.621,-39.551,-33.203,0.000,0
160379.209,-36.133,-33.691,-23.438,-32.227,0.000,0
160379.213,-15.625,-33.203,-19.043,-28.320,0.000,0
160379.217,-15.137,-29.785,-28.320,-28.809,0.000,0
160379.221,-14.160,-28.320,-32.715,-29.297,0.000,0
160379.224,-16.113,-31.250,-38.086,-23.926,0.000,0
160379.228,-19.043,-32.715,-16.113,-25.879,0.000,0
160379.232,-21.973,-35.645,-29.785,-35.156,0.000,0
160379.236,-18.555,-36.621,-56.152,-24.414,0.000,0
160379.240,-19.043,-37.109,-48.340,-18.555,0.000,0
160379.244,-28.320,-42.480,-27.344,-31.250,0.000,0
160379.248,-33.203,-39.062,-25.391,-40.039,0.000,0
160379.252,-33.691,-29.297,-40.039,-32.227,0.000,0
160379.256,-22.949,-28.320,-28.320,-24.902,0.000,0
160379.260,-23.438,-33.691,-24.414,-9.277,0.000,0
160379.263,-24.414,-37.109,-34.668,0.000,0.000,0
160379.267,-21.973,-34.180,-23.438,-33.203,0.000,0
160379.271,-32.227,-30.273,-19.043,-41.016,0.000,0
160379.275,-23.438,-30.762,-36.133,-22.949,0.000,0
160379.279,-12.695,-29.297,-38.574,-17.578,0.000,0
160379.283,-17.578,-25.391,-23.438,-12.207,0.000,0
160379.287,-21.973,-25.879,7.812,-24.902,0.000,0
160379.291,-32.227,-31.250,-7.812,-37.598,0.000,0
160379.295,-42.480,-34.180,-37.109,-26.367,0.000,0
160379.299,-29.785,-24.902,-27.344,-25.879,0.000,0
160379.303,-17.090,-22.461,-21.484,-27.344,0.000,0
160379.306,-20.508,-25.879,-20.996,-35.156,0.000,0
160379.310,-21.484,-20.508,-16.602,-34.668,0.000,0
160379.314,-9.766,-22.949,-20.508,-13.672,0.000,0
160379.318,-14.160,-25.879,-21.484,-12.207,0.000,0
160379.322,-24.902,-27.832,-37.109,-13.672,0.000,0
160379.326,-9.766,-38.574,-39.062,-11.230,0.000,0
160379.330,-24.414,-44.434,-20.508,-21.973,0.000,0
160379.334,-29.297,-39.551,-13.184,-30.762,0.000,0
160379.338,-14.648,-33.691,-31.250,-22.949,0.000,0
160379.342,-18.555,-36.621,-33.691,-26.367,0.000,0
160379.346,-25.391,-34.668,-15.625,-36.133,0.000,0
160379.349,-29.785,-37.109,-25.879,-24.414,0.000,0
160379.353,-13.672,-33.203,-44.434,-17.090,0.000,0
160379.357,-14.648,-26.855,-35.645,-24.902,0.000,0
160379.361,-22.461,-31.738,-13.184,-25.879,0.000,0
160379.365,-24.902,-36.133,-15.137,-29.785,0.000,0
160379.369,-29.785,-30.273,-28.809,-29.785,0.000,0
160379.373,-35.645,-24.902,-8.789,-22.461,0.000,0
160379.377,-22.949,-29.785,-12.695,-19.043,0.000,0
160379.381,-14.648,-33.691,-27.344,-20.996,0.000,0
160379.385,-19.531,-31.250,-22.949,-20.996,0.000,0
160379.388,-8.301,-27.832,-24.414,-15.625,0.000,0
160379.392,-2.930,-22.461,-18.066,-4.395,0.000,0
160379.396,-10.742,-20.996,-20.508,-14.160,0.000,0
160379.400,-14.160,-27.344,-21.484,-19.531,0.000,0
160379.404,-10.742,-32.227,-12.207,-20.020,0.000,0
160379.408,-19.531,-34.180,-19.531,-25.879,0.000,0
160379.412,-23.926,-30.762,-21.973,-16.602,0.000,0
160379.416,-18.066,-25.391,-19.043,-9.277,0.000,0
160379.420,-26.367,-27.344,-17.578,-16.602,0.000,0
160379.424,-13.672,-30.273,-17.578,-32.715,0.000,0
160379.428,-9.277,-31.738,-21.484,-29.785,0.000,0
160379.431,-27.832,-36.621,-14.160,-22.461,0.000,0
160379.435,-34.180,-36.133,-19.531,-11.719,0.000,0
160379.439,-18.555,-30.273,-24.902,-11.719,0.000,0
160379.443,-15.625,-29.297,-8.301,-36.133,0.000,0
160379.447,-23.438,-29.297,-10.254,-30.273,0.000,0
160379.451,-16.113,-32.227,-31.738,-28.809,0.000,0
160379.455,-22.461,-40.039,-41.016,-37.109,0.000,0
160379.459,-34.180,-40.527,-26.367,-33.203,0.000,0
160379.463,-43.457,-42.969,-8.301,-39.551,0.000,0
160379.467,-41.992,-40.527,-30.762,-36.621,0.000,0
160379.471,-28.809,-37.598,-41.504,-47.363,0.000,0
160379.474,-35.156,-38.574,-36.133,-36.621,0.000,0
160379.478,-31.738,-35.156,-32.227,-24.902,0.000,0
160379.482,-18.066,-32.227,-21.484,-40.527,0.000,0
160379.486,-20.996,-31.250,-28.320,-28.320,0.000,0
160379.490,-25.879,-31.250,-21.484,-17.090,0.000,0
160379.494,-34.180,-32.227,-18.066,-25.391,0.000,0
160379.498,-29.785,-30.762,-24.902,-25.879,0.000,0
160379.502,-31.738,-25.879,-19.043,-34.180,0.000,0
160379.506,-39.551,-30.762,-29.785,-43.945,0.000,0
160379.510,-27.344,-40.527,-33.203,-33.203,0.000,0
160379.513,-28.320,-41.992,-45.898,-20.508,0.000,0
160379.517,-29.785,-41.504,-46.875,-26.367,0.000,0
160379.521,-31.738,-37.109,-23.438,-29.297,0.000,0
160379.525,-38.086,-31.250,-24.902,-13.184,0.000,0
160379.529,-22.461,-27.344,-39.062,-23.926,0.000,0
160379.533,-25.879,-27.344,-37.598,-24.414,0.000,0
160379.537,-27.832,-26.855,-12.695,-16.602,0.000,0
160379.541,-26.855,-29.297,0.488,-22.949,0.000,0
160379.545,-27.344,-32.227,-12.207,-25.391,0.000,0
160379.549,-28.320,-34.180,-20.508,-26.367,0.000,0
160379.553,-37.598,-36.621,-32.715,-12.207,0.000,0
160379.556,-28.809,-37.109,-37.598,-7.812,0.000,0
160379.560,-28.809,-32.715,-23.926,-34.180,0.000,0
160379.564,-34.668,-30.762,-25.391,-30.273,0.000,0
160379.568,-30.762,-37.109,-31.738,-27.344,0.000,0
160379.572,-27.344,-38.574,-35.156,-36.133,0.000,0
160379.576,-17.578,-33.203,-31.250,-34.180,0.000,0
160379.580,-17.090,-31.250,-12.207,-44.922,0.000,0
160379.584,-32.715,-28.320,-19.043,-41.016,0.000,0
160379.588,-13.672,-29.785,-40.527,-25.879,0.000,0
160379.592,-8.301,-24.902,-34.668,-33.203,0.000,0
160379.596,-21.973,-25.879,-27.832,-37.109,0.000,0
160379.599,-25.391,-27.832,-17.578,-35.156,0.000,0
160379.603,-29.297,-25.391,-12.695,-40.527,0.000,0
160379.607,-14.160,-28.320,-32.227,-37.109,0.000,0
160379.611,-21.484,-31.738,-23.926,-40.039,0.000,0
160379.615,-26.855,-32.715,-7.812,-26.367,0.000,0
160379.619,-7.324,-32.227,-21.484,-29.297,0.000,0
160379.623,-16.113,-26.855,-26.855,-38.574,0.000,0
160379.627,-28.320,-26.367,-20.996,-18.555,0.000,0
160379.631,-30.273,-32.715,-27.344,-28.809,0.000,0
160379.635,-26.367,-38.086,-47.852,-38.086,0.000,0
160379.638,-20.508,-36.621,-28.809,-29.297,0.000,0
160379.642,-23.438,-35.156,-14.160,-38.086,0.000,0
160379.646,-23.926,-38.574,-30.762,-36.621,0.000,0
160379.650,-26.367,-35.156,-34.180,-33.203,0.000,0
160379.654,-38.086,-33.203,-40.039,-19.043,0.000,0
160379.658,-45.898,-34.668,-23.438,-14.160,0.000,0
160379.662,-37.598,-39.062,-22.949,-33.691,0.000,0
160379.666,-26.855,-36.621,-38.086,-20.996,0.000,0
160379.670,-21.484,-39.062,-32.715,-8.301,0.000,0
160379.674,-26.367,-41.504,-27.344,-11.719,0.000,0
160379.678,-28.320,-34.180,-18.555,-29.297,0.000,0
160379.681,-17.578,-32.715,-18.555,-43.457,0.000,0
160379.685,-22.949,-35.156,-22.461,-39.062,0.000,0
160379.689,-28.320,-37.598,-23.438,-27.344,0.000,0
160379.693,-23.438,-36.621,-24.414,-15.625,0.000,0
160379.697,-37.598,-37.109,-26.367,-20.508,0.000,0
160379.701,-37.598,-37.598,-23.438,-24.902,0.000,0
160379.705,-29.297,-38.086,-24.902,-25.391,0.000,0
160379.709,-22.461,-37.109,-32.715,-26.855,0.000,0
160379.713,-23.926,-39.062,-28.320,-25.879,0.000,0
160379.717,-36.621,-38.574,-20.020,-32.715,0.000,0
160379.721,-27.344,-31.738,-16.113,-34.668,0.000,0
160379.724,-18.066,-26.367,-18.066,-33.691,0.000,0
160379.728,-29.785,-24.414,-23.438,-25.879,0.000,0
160379.732,-32.715,-27.832,-20.508,-28.320,0.000,0
160379.736,-23.438,-34.180,-13.672,-40.039,0.000,0
160379.740,-21.973,-32.227,-21.973,-26.367,0.000,0
160379.744,-27.832,-25.879,-20.508,-21.484,0.000,0
160379.748,-27.832,-27.832,-19.043,-26.367,0.000,0
160379.752,-30.273,-32.715,-28.320,-27.832,0.000,0
160379.756,-35.645,-35.156,-25.391,-21.484,0.000,0
160379.760,-12.695,-34.668,-23.438,-1.953,0.000,0
160379.763,-8.789,-28.809,-28.320,-9.277,0.000,0
160379.767,-26.855,-24.902,-35.645,-25.391,0.000,0
160379.771,-27.832,-19.531,-28.809,-18.555,0.000,0
160379.775,-33.203,-21.973,-11.719,-30.762,0.000,0
160379.779,-35.156,-25.879,-23.926,-40.039,0.000,0
160379.783,-30.273,-25.391,-34.180,-33.203,0.000,0
160379.787,-35.645,-34.180,-38.086,-19.531,0.000,0
160379.791,-41.016,-38.086,-37.109,-9.277,0.000,0
160379.795,-35.645,-38.574,-27.832,-36.133,0.000,0
160379.799,-32.227,-44.434,-41.504,-44.434,0.000,0
160379.803,-29.785,-41.992,-45.898,-30.273,0.000,0
160379.806,-30.273,-34.180,-35.156,-29.785,0.000,0
160379.810,-39.551,-33.203,-35.645,-20.508,0.000,0
160379.814,-31.738,-35.645,-24.414,-33.691,0.000,0
160379.818,-33.203,-34.180,-16.113,-45.898,0.000,0
160379.822,-26.855,-33.691,-27.344,-40.039,0.000,0
160379.826,-21.484,-33.691,-30.762,-28.809,0.000,0
160379.830,-24.414,-27.832,-24.902,-7.324,0.000,0
160379.834,-30.762,-25.879,-10.742,-18.066,0.000,0
160379.838,-37.109,-30.762,-10.254,-23.438,0.000,0
160379.842,-21.973,-31.738,-31.250,-10.742,0.000,0
160379.846,-21.973,-36.621,-45.410,-12.695,0.000,0
160379.849,-26.855,-34.180,-31.738,-15.625,0.000,0
160379.853,-10.742,-28.809,-5.371,-31.738,0.000,0
160379.857,-5.371,-27.832,-26.855,-34.180,0.000,0
160379.861,-4.395,-28.320,-35.645,-16.602,0.000,0
160379.865,-12.695,-28.809,-22.461,-1.465,0.000,0
160379.869,-29.785,-29.785,-25.391,-19.531,0.000,0
160379.873,-26.367,-36.133,-15.625,-43.457,0.000,0
160379.877,-26.367,-40.039,-23.926,-29.297,0.000,0
160379.881,-20.996,-34.180,-34.668,-27.344,0.000,0
160379.885,-20.020,-35.156,-40.039,-32.227,0.000,0
160379.888,-31.250,-39.062,-44.922,-31.250,0.000,0
160379.892,-29.297,-32.227,-8.301,-41.992,0.000,0
160379.896,-24.902,-23.926,3.418,-38.574,0.000,0
160379.900,-26.855,-30.273,-27.832,-20.020,0.000,0
160379.904,-35.156,-31.738,-24.414,-18.555,0.000,0
160379.908,-35.156,-26.367,-7.812,-20.020,0.000,0
160379.912,-23.438,-29.785,-1.953,-30.273,0.000,0
160379.916,-17.090,-31.250,-21.973,-36.133,0.000,0
160379.920,-11.230,-29.785,-22.461,-33.691,0.000,0
160379.924,-13.672,-36.133,-15.625,-24.902,0.000,0
160379.928,-33.691,-32.715,-31.250,-14.648,0.000,0
160379.931,-36.133,-32.715,-39.551,-28.320,0.000,0
160379.935,-5.859,-32.715,-33.691,-18.066,0.000,0
160379.939,-13.672,-32.715,-26.367,-7.812,0.000,0
160379.943,-36.133,-29.785,-37.109,-25.879,0.000,0
160379.947,-31.250,-21.484,-47.363,-23.438,0.000,0
160379.951,-28.320,-28.809,-26.367,-29.785,0.000,0
160379.955,-33.203,-30.762,-10.254,-40.039,0.000,0
160379.959,-35.156,-28.809,-40.527,-34.668,0.000,0
160379.963,-36.621,-31.250,-50.293,-30.273,0.000,0
160379.967,-26.367,-23.926,-38.574,-14.160,0.000,0
160379.971,-20.020,-24.414,-18.555,-20.996,0.000,0
160379.974,-18.066,-23.926,-11.230,-26.367,0.000,0
160379.978,-21.973,-25.879,-29.297,-7.324,0.000,0
160379.982,-29.785,-31.738,-31.738,-18.555,0.000,0
160379.986,-38.574,-31.250,-18.555,-37.109,0.000,0
160379.990,-50.781,-34.668,-27.344,-48.828,0.000,0
160379.994,-47.363,-33.203,-24.902,-53.223,0.000,0
160379.998,-36.133,-33.203,-23.926,-35.645,0.000,0
160380.002,-41.504,-38.574,-34.180,-36.133,0.000,0
160380.006,-35.156,-40.527,-42.969,-40.527,0.000,0
160380.010,-41.016,-39.062,-33.203,-38.086,0.000,0
160380.013,-43.457,-33.691,-22.949,-27.344,0.000,0
160380.017,-46.387,-32.715,-40.039,-21.973,0.000,0
160380.021,-49.805,-35.645,-42.969,-33.691,0.000,0
160380.025,-29.785,-33.203,-32.715,-25.879,0.000,0
160380.029,-29.297,-35.156,-23.438,-35.156,0.000,0
160380.033,-21.973,-39.062,-36.133,-50.293,0.000,0
160380.037,-25.879,-32.715,-47.363,-45.898,0.000,0
160380.041,-38.086,-27.344,-37.598,-31.250,0.000,0
160380.045,-35.156,-32.715,-37.598,-12.695,0.000,0
160380.049,-32.715,-31.738,-38.086,-17.578,0.000,0
160380.053,-18.066,-21.973,-23.438,-17.090,0.000,0
160380.056,-16.602,-22.461,-18.555,-12.207,0.000,0
160380.060,-21.973,-32.715,-30.273,-6.836,0.000,0
160380.064,-20.020,-27.832,-35.156,-3.418,0.000,0
160380.068,-27.832,-27.344,-29.785,-23.926,0.000,0
160380.072,-29.785,-30.273,-19.043,-32.227,0.000,0
160380.076,-25.879,-30.273,-13.672,-13.184,0.000,0
160380.080,-25.879,-35.156,-37.598,-0.977,0.000,0
160380.084,-23.438,-37.109,-42.480,-19.531,0.000,0
160380.088,-19.043,-32.227,-20.508,-30.762,0.000,0
160380.092,-22.461,-22.461,-16.602,-37.598,0.000,0
160380.096,-33.203,-27.832,-41.992,-44.434,0.000,0
160380.099,-20.020,-32.227,-39.551,-38.574,0.000,0
160380.103,-7.324,-25.391,-22.461,-13.672,0.000,0
160380.107,-34.180,-26.367,-29.785,-2.441,0.000,0
160380.111,-37.109,-29.785,-27.344,-25.879,0.000,0
160380.115,-26.855,-28.809,-32.715,-19.531,0.000,0
160380.119,-21.484,-24.902,-28.320,-9.766,0.000,0
160380.123,-20.996,-29.785,-29.297,-29.785,0.000,0
160380.127,-22.949,-33.203,-34.180,-35.645,0.000,0
160380.131,-29.297,-31.250,-24.414,-36.621,0.000,0
160380.135,-25.879,-26.367,-28.320,-40.039,0.000,0
160380.138,-21.973,-23.438,-26.367,-35.156,0.000,0
160380.142,-15.625,-23.438,-24.902,-20.508,0.000,0
160380.146,-12.695,-19.043,-20.996,-12.207,0.000,0
160380.150,-20.508,-22.949,-10.742,-16.113,0.000,0
160380.154,-19.043,-24.414,-20.508,-7.812,0.000,0
160380.158,-21.484,-20.508,-20.996,-5.371,0.000,0
160380.162,-24.902,-23.926,-13.672,-9.766,0.000,0
160380.166,-25.391,-28.809,-19.043,-6.348,0.000,0
160380.170,-21.973,-26.855,-25.391,-32.227,0.000,0
160380.174,-13.184,-25.879,-27.344,-38.086,0.000,0
160380.178,-21.973,-26.367,-28.320,-27.344,0.000,0
160380.181,-38.086,-25.879,-34.668,-21.973,0.000,0
160380.185,-32.227,-30.762,-38.574,-25.879,0.000,0
160380.189,-35.645,-32.227,-22.461,-35.156,0.000,0
160380.193,-42.969,-27.832,-24.902,-16.602,0.000,0
160380.197,-25.879,-23.438,-36.621,-9.766,0.000,0
160380.201,-18.066,-25.879,-33.691,-17.578,0.000,0
160380.205,-6.348,-23.926,-20.996,-19.531,0.000,0
160380.209,-9.277,-20.996,-0.488,-30.273,0.000,0
160380.213,-23.438,-19.531,-10.742,-17.578,0.000,0
160380.217,-25.879,-23.926,-36.621,-15.625,0.000,0
160380.221,-29.785,-34.668,-36.621,-30.762,0.000,0
160380.224,-34.668,-33.203,-5.371,-25.879,0.000,0
160380.228,-28.320,-27.832,2.441,-39.062,0.000,0
160380.232,-30.273,-22.949,-23.926,-37.598,0.000,0
160380.236,-31.250,-26.855,-40.527,-31.738,0.000,0
160380.240,-33.203,-28.320,-29.297,-33.203,0.000,0
160380.244,-37.598,-30.273,-25.879,-27.832,0.000,0
160380.248,-25.879,-27.344,-18.066,-42.480,0.000,0
160380.252,-27.832,-22.461,-19.043,-45.410,0.000,0
160380.256,-30.762,-28.809,-25.391,-27.344,0.000,0
160380.260,-24.902,-32.227,-35.645,-19.531,0.000,0
160380.263,-19.043,-27.344,-34.668,-11.230,0.000,0
160380.267,-19.043,-30.273,-10.742,-18.066,0.000,0
160380.271,-27.832,-35.645,-13.672,-26.367,0.000,0
160380.275,-24.902,-35.645,-31.738,-20.996,0.000,0
160380.279,-26.855,-36.621,-31.738,-24.902,0.000,0
160380.283,-44.922,-35.156,-38.574,-29.297,0.000,0
160380.287,-41.016,-33.203,-27.832,-39.062,0.000,0
160380.291,-25.391,-30.762,-21.973,-30.762,0.000,0
160380.295,-25.879,-32.715,-46.387,-25.391,0.000,0
160380.299,-36.621,-34.180,-40.039,-36.621,0.000,0
160380.303,-42.969,-36.133,-26.855,-37.598,0.000,0
160380.306,-46.875,-37.109,-38.574,-37.109,0.000,0
160380.310,-40.039,-36.133,-13.672,-58.594,0.000,0
160380.314,-35.645,-33.691,-8.301,-40.039,0.000,0
160380.318,-31.250,-32.715,-51.270,-18.555,0.000,0
160380.322,-36.133,-39.062,-47.363,-36.621,0.000,0
160380.326,-40.527,-37.598,-25.879,-34.668,0.000,0
160380.330,-46.387,-34.180,-33.691,-36.133,0.000,0
160380.334,-46.387,-39.551,-41.504,-28.320,0.000,0
160380.338,-41.504,-36.621,-28.320,-23.926,0.000,0
160380.342,-35.645,-33.203,-23.438,-41.504,0.000,0
160380.346,-25.391,-38.086,-22.949,-47.363,0.000,0
160380.349,-33.691,-35.645,-24.414,-48.828,0.000,0
160380.353,-32.715,-33.691,-21.484,-39.062,0.000,0
160380.357,-29.297,-36.133,-20.020,-30.273,0.000,0
160380.361,-35.645,-36.133,-19.531,-46.387,0.000,0
160380.365,-29.297,-37.109,-26.367,-52.246,0.000,0
160380.369,-25.879,-38.574,-32.715,-36.133,0.000,0
160380.373,-32.715,-38.086,-22.461,-21.973,0.000,0
160380.377,-14.160,-38.086,-17.578,-17.090,0.000,0
160380.381,-10.254,-35.645,-21.484,-22.461,0.000,0
160380.385,-21.484,-36.621,-13.672,-42.480,0.000,0
160380.388,-20.996,-40.527,-14.648,-57.617,0.000,0
160380.392,-24.414,-39.062,-25.879,-40.039,0.000,0
160380.396,-36.621,-38.574,-33.691,-28.809,0.000,0
160380.400,-24.902,-36.133,-21.973,-20.996,0.000,0
160380.404,-10.254,-35.645,-7.812,-20.996,0.000,0
160380.408,-33.203,-39.551,-39.062,-35.645,0.000,0
160380.412,-38.086,-38.086,-58.105,-47.852,0.000,0
160380.416,-30.762,-42.969,-41.016,-50.293,0.000,0
160380.420,-30.273,-43.945,-32.715,-31.738,0.000,0
160380.424,-34.668,-31.250,-23.438,-39.551,0.000,0
160380.428,-42.480,-24.414,-20.508,-54.199,0.000,0
160380.431,-51.270,-31.738,-34.180,-33.691,0.000,0
160380.435,-45.410,-35.645,-41.016,-11.719,0.000,0
160380.439,-26.367,-26.855,-31.738,-10.742,0.000,0
160380.443,-21.973,-26.367,-18.555,-34.180,0.000,0
160380.447,-35.645,-31.738,-19.043,-48.340,0.000,0
160380.451,-29.297,-24.902,-19.531,-32.715,0.000,0
160380.455,-22.949,-22.949,-25.879,-20.508,0.000,0
160380.459,-26.855,-30.273,-29.297,-23.926,0.000,0
160380.463,-28.320,-35.156,-14.160,-39.062,0.000,0
160380.467,-33.203,-31.250,-26.367,-20.996,0.000,0
160380.471,-21.484,-33.691,-46.875,-6.348,0.000,0
160380.474,-27.344,-29.785,-40.039,-20.508,0.000,0
160380.478,-29.785,-27.344,-33.203,-21.973,0.000,0
160380.482,-22.949,-29.297,-22.949,-34.668,0.000,0
160380.486,-32.227,-30.273,-27.344,-48.340,0.000,0
160380.490,-27.832,-32.227,-24.414,-40.039,0.000,0
160380.494,-32.715,-33.203,-41.504,-26.855,0.000,0
160380.498,-44.922,-39.062,-51.758,-18.066,0.000,0
160380.502,-44.434,-35.645,-19.531,-43.457,0.000,0
160380.506,-45.410,-28.809,-6.348,-44.434,0.000,0
160380.510,-44.922,-34.668,-23.438,-30.273,0.000,0
160380.513,-38.574,-32.715,-26.367,-25.391,0.000,0
160380.517,-24.414,-30.273,-17.578,-25.391,0.000,0
160380.521,-36.133,-31.738,-7.324,-38.086,0.000,0
160380.525,-49.316,-36.621,-18.066,-33.691,0.000,0
160380.529,-44.434,-33.203,-36.621,-34.668,0.000,0
160380.533,-36.621,-33.203,-38.574,-18.066,0.000,0
160380.537,-34.180,-39.062,-22.461,-13.672,0.000,0
160380.541,-39.062,-35.156,-22.949,-43.945,0.000,0
160380.545,-41.016,-32.227,-41.504,-40.039,0.000,0
160380.549,-35.156,-33.203,-31.250,-27.832,0.000,0
160380.553,-33.691,-32.227,-11.719,-34.180,0.000,0
160380.556,-33.691,-31.250,-24.902,-37.598,0.000,0
160380.560,-31.250,-32.715,-20.996,-43.457,0.000,0
160380.564,-43.457,-29.297,-7.324,-37.598,0.000,0
160380.568,-37.598,-28.320,-23.926,-22.461,0.000,0
160380.572,-33.691,-30.762,-42.480,-29.297,0.000,0
160380.576,-42.969,-35.645,-34.668,-39.062,0.000,0
160380.580,-34.668,-31.250,-2.441,-42.480,0.000,0
160380.584,-26.855,-23.438,-2.441,-29.297,0.000,0
160380.588,-25.391,-21.484,-19.531,-25.391,0.000,0
160380.592,-28.809,-27.344,-20.996,-30.273,0.000,0
160380.596,-36.621,-31.250,-16.113,-26.367,0.000,0
160380.599,-34.180,-28.320,-9.277,-42.969,0.000,0
160380.603,-37.109,-25.391,-23.438,-46.387,0.000,0
160380.607,-52.246,-29.297,-35.645,-23.926,0.000,0
160380.611,-50.781,-32.227,-38.574,-39.551,0.000,0
160380.615,-40.039,-32.227,-37.598,-49.805,0.000,0
160380.619,-36.621,-31.250,-14.160,-44.922,0.000,0
160380.623,-34.180,-33.203,-18.555,-38.574,0.000,0
160380.627,-31.250,-34.668,-33.691,-38.086,0.000,0
160380.631,-25.391,-36.133,-26.367,-42.480,0.000,0
160380.635,-17.090,-37.109,-41.016,-24.902,0.000,0
160380.638,-37.109,-37.598,-33.691,-36.133,0.000,0
160380.642,-46.875,-31.738,-18.066,-45.410,0.000,0
160380.646,-28.809,-28.320,-42.969,-36.621,0.000,0
160380.650,-25.879,-34.180,-43.945,-28.320,0.000,0
160380.654,-27.344,-33.691,-33.691,-11.230,0.000,0
160380.658,-37.109,-34.180,-28.809,-36.133,0.000,0
160380.662,-27.344,-33.691,-31.250,-51.758,0.000,0
160380.666,-27.832,-31.738,-28.809,-43.457,0.000,0
160380.670,-46.875,-28.809,-24.414,-36.621,0.000,0
160380.674,-36.133,-28.320,-36.133,-12.695,0.000,0
160380.678,-25.879,-26.855,-38.086,-10.254,0.000,0
160380.681,-32.715,-20.508,-25.391,-15.625,0.000,0
160380.685,-32.227,-17.578,-10.742,-16.113,0.000,0
160380.689,-23.926,-21.484,-22.461,-28.809,0.000,0
160380.693,-17.578,-23.438,-34.180,-35.156,0.000,0
160380.697,-18.066,-26.855,-25.391,-32.227,0.000,0
160380.701,-27.832,-30.762,-24.902,-40.039,0.000,0
160380.705,-23.438,-27.832,-36.133,-40.527,0.000,0
160380.709,-15.137,-29.297,-43.457,-27.832,0.000,0
160380.713,-19.043,-35.156,-42.969,-27.832,0.000,0
160380.717,-9.277,-34.668,-20.996,-29.297,0.000,0
160380.721,-1.953,-32.227,-12.207,-23.438,0.000,0
160380.724,-18.066,-39.551,-37.598,-10.254,0.000,0
160380.728,-30.762,-36.621,-30.762,-18.555,0.000,0
160380.732,-19.043,-28.320,-8.301,-27.832,0.000,0
160380.736,-7.324,-23.926,-29.785,-31.250,0.000,0
160380.740,-16.113,-27.832,-33.203,-48.340,0.000,0
160380.744,-13.672,-25.391,-24.902,-39.062,0.000,0
160380.748,-24.414,-22.949,-26.855,-22.949,0.000,0
160380.752,-37.109,-30.762,-36.133,-23.926,0.000,0
160380.756,-30.273,-32.227,-26.367,-27.832,0.000,0
160380.760,-37.598,-26.367,-11.230,-26.367,0.000,0
160380.763,-40.527,-23.438,-28.809,-19.531,0.000,0
160380.767,-30.273,-31.250,-37.109,-28.320,0.000,0
160380.771,-32.227,-31.738,-23.926,-14.648,0.000,0
160380.775,-37.109,-28.809,-18.066,-18.555,0.000,0
160380.779,-38.574,-33.203,-20.020,-41.504,0.000,0
160380.783,-23.926,-28.809,-27.832,-25.391,0.000,0
160380.787,-19.043,-26.367,-21.973,-13.184,0.000,0
160380.791,-14.160,-23.926,-18.066,-15.625,0.000,0
160380.795,-7.324,-31.250,-21.973,-24.414,0.000,0
160380.799,-15.137,-38.086,-15.625,-35.645,0.000,0
160380.803,-12.695,-28.320,-17.090,-18.555,0.000,0
160380.806,-17.578,-28.809,-20.996,-23.438,0.000,0
160380.810,-25.879,-31.250,-33.203,-33.691,0.000,0
160380.814,-19.043,-31.738,-36.621,-26.855,0.000,0
160380.818,-16.602,-33.203,-16.113,-38.574,0.000,0
160380.822,-24.902,-34.668,-22.461,-26.855,0.000,0
160380.826,-28.809,-32.715,-44.922,-15.137,0.000,0
160380.830,-22.461,-32.227,-51.270,-32.715,0.000,0
160380.834,-22.461,-38.086,-27.344,-28.809,0.000,0
160380.838,-15.625,-33.691,-2.441,-18.066,0.000,0
160380.842,-3.418,-29.785,-21.484,-28.320,0.000,0
160380.846,-11.719,-31.250,-25.391,-22.949,0.000,0
160380.849,-18.066,-25.391,-14.648,-1.953,0.000,0
160380.853,-15.137,-24.902,-15.137,-9.277,0.000,0
160380.857,-15.137,-25.879,-7.812,-32.227,0.000,0
160380.861,-26.855,-23.926,-23.926,-27.832,0.000,0
160380.865,-33.203,-20.508,-29.785,-19.531,0.000,0
160380.869,-24.902,-24.414,-32.227,-25.391,0.000,0
160380.873,-20.508,-30.273,-27.832,-15.625,0.000,0
160380.877,-22.949,-27.344,-17.090,-13.672,0.000,0
160380.881,-24.414,-28.320,-15.625,-31.738,0.000,0
160380.885,-11.230,-28.320,-22.949,-34.180,0.000,0
160380.888,-16.113,-22.949,-24.902,-22.461,0.000,0
160380.892,-27.832,-26.367,-24.902,-20.020,0.000,0
160380.896,-27.344,-33.691,-17.090,-43.457,0.000,0
160380.900,-23.926,-26.855,-32.227,-39.551,0.000,0
160380.904,-26.367,-26.855,-47.852,-29.785,0.000,0
160380.908,-26.367,-32.715,-33.691,-29.785,0.000,0
160380.912,-33.691,-32.227,-24.902,-34.180,0.000,0
160380.916,-30.762,-31.738,-24.902,-40.527,0.000,0
160380.920,-10.742,-29.297,-35.645,-34.180,0.000,0
160380.924,-7.812,-29.785,-31.250,-27.344,0.000,0
160380.928,-24.902,-30.273,-30.273,-24.414,0.000,0
160380.931,-25.879,-29.297,-39.062,-30.273,0.000,0
160380.935,-30.273,-25.391,-20.020,-49.316,0.000,0
160380.939,-40.527,-21.973,-24.902,-50.293,0.000,0
160380.943,-33.691,-27.832,-50.781,-42.480,0.000,0
160380.947,-29.785,-32.227,-47.363,-36.621,0.000,0
160380.951,-25.879,-29.785,-45.898,-12.207,0.000,0
160380.955,-31.738,-28.809,-23.926,-26.367,0.000,0
160380.959,-32.227,-29.785,-20.020,-42.969,0.000,0
160380.963,-16.113,-24.414,-34.180,-25.879,0.000,0
160380.967,-23.926,-26.855,-38.574,-22.461,0.000,0
160380.971,-33.203,-31.250,-17.090,-20.996,0.000,0
160380.974,-19.531,-30.762,-5.859,-21.973,0.000,0
160380.978,-22.949,-31.738,-41.504,-40.039,0.000,0
160380.982,-40.527,-40.039,-46.387,-47.363,0.000,0
160380.986,-33.203,-34.668,-21.484,-37.109,0.000,0
160380.990,-19.531,-26.367,-24.414,-21.484,0.000,0
160380.994,-25.391,-26.367,-20.020,-13.184,0.000,0
160380.998,-35.156,-29.297,-18.555,-19.531,0.000,0
160381.002,-37.109,-30.762,-29.297,-29.297,0.000,0
160381.006,-30.762,-30.762,-26.855,-26.367,0.000,0
160381.010,-38.574,-36.133,-39.551,-27.344,0.000,0
160381.013,-40.039,-32.227,-34.180,-40.527,0.000,0
160381.017,-28.320,-27.344,-12.695,-32.227,0.000,0
160381.021,-19.531,-24.414,-26.367,-20.996,0.000,0
160381.025,-7.812,-15.137,-24.414,-19.043,0.000,0
160381.029,-2.441,-19.531,-21.484,-17.578,0.000,0
160381.033,-13.184,-32.715,-24.414,-34.668,0.000,0
160381.037,-18.555,-36.621,-20.020,-35.645,0.000,0
160381.041,-20.508,-29.785,-19.531,-20.508,0.000,0
160381.045,-25.391,-25.391,-14.648,-22.949,0.000,0
160381.049,-13.184,-23.438,-20.508,-15.137,0.000,0
160381.053,-6.348,-23.438,-21.484,-18.555,0.000,0
160381.056,-2.930,-24.902,-12.695,-41.992,0.000,0
160381.060,-13.184,-26.855,-14.160,-44.922,0.000,0
160381.064,-28.809,-27.832,-23.926,-30.762,0.000,0
160381.068,-26.855,-24.902,-28.320,-25.879,0.000,0
160381.072,-20.020,-23.438,-10.742,-24.902,0.000,0
160381.076,-24.414,-27.832,-1.465,-27.832,0.000,0
160381.080,-22.461,-32.227,-41.016,-28.809,0.000,0
160381.084,-15.625,-31.250,-46.387,-35.156,0.000,0
160381.088,-25.879,-29.785,-27.344,-33.203,0.000,0
160381.092,-26.855,-35.156,-20.020,-20.996,0.000,0
160381.096,-19.043,-32.227,-25.879,-39.551,0.000,0
160381.099,-27.344,-34.180,-37.109,-51.758,0.000,0
160381.103,-41.992,-39.062,-34.180,-30.273,0.000,0
160381.107,-43.945,-37.109,-35.156,-19.043,0.000,0
160381.111,-34.180,-36.621,-41.016,-16.602,0.000,0
160381.115,-41.016,-32.715,-27.344,-23.438,0.000,0
160381.119,-22.949,-32.715,-24.414,-24.902,0.000,0
160381.123,-12.695,-37.109,-30.762,-19.043,0.000,0
160381.127,-23.438,-30.273,-40.527,-23.926,0.000,0
160381.131,-8.301,-24.902,-29.785,-9.277,0.000,0
160381.135,9.766,-24.414,-7.324,7.812,0.000,0
160381.138,-0.977,-22.949,-21.973,4.395,0.000,0
160381.142,-26.367,-21.484,-31.250,-10.742,0.000,0
160381.146,-45.898,-29.297,-35.156,-32.227,0.000,0
160381.150,-37.598,-32.715,-17.090,-33.203,0.000,0
160381.154,-22.461,-30.273,-10.254,-31.738,0.000,0
160381.158,-34.180,-32.715,-35.645,-29.785,0.000,0
160381.162,-35.156,-28.320,-24.414,-33.691,0.000,0
160381.166,-27.832,-24.414,-19.531,-27.832,0.000,0
160381.170,-24.414,-27.344,-22.949,-19.531,0.000,0
160381.174,-20.996,-23.438,-3.906,-30.762,0.000,0
160381.178,-34.668,-23.926,-14.160,-33.203,0.000,0
160381.181,-27.344,-33.203,-33.203,-26.855,0.000,0
160381.185,-14.648,-27.832,-30.762,-18.555,0.000,0
160381.189,-18.555,-21.973,-18.066,-8.789,0.000,0
160381.193,-25.879,-27.832,-10.254,-21.484,0.000,0
160381.197,-20.996,-26.367,-17.578,-34.668,0.000,0
160381.201,-23.926,-33.203,-25.879,-21.973,0.000,0
160381.205,-22.949,-35.645,-26.855,-7.812,0.000,0
160381.209,-13.184,-24.902,-10.742,-21.484,0.000,0
160381.213,-19.531,-22.949,-9.766,-27.344,0.000,0
160381.217,-25.879,-24.902,-23.438,-13.184,0.000,0
160381.221,-30.273,-28.809,-14.648,-12.695,0.000,0
160381.224,-29.785,-29.785,-17.578,-9.766,0.000,0
160381.228,-31.738,-33.691,-21.484,-34.180,0.000,0
160381.232,-45.410,-37.598,-16.113,-53.711,0.000,0
160381.236,-35.645,-32.715,-13.672,-40.527,0.000,0
160381.240,-25.391,-30.762,-20.020,-26.855,0.000,0
160381.244,-24.902,-32.715,-43.945,-14.648,0.000,0
160381.248,-23.926,-37.109,-41.992,-28.809,0.000,0
160381.252,-25.879,-33.691,-4.395,-30.273,0.000,0
160381.256,-23.926,-33.691,-8.789,-11.230,0.000,0
160381.260,-28.809,-32.715,-32.227,-21.973,0.000,0
160381.263,-31.250,-28.809,-24.414,-21.484,0.000,0
160381.267,-10.254,-27.832,-6.836,-25.391,0.000,0
160381.271,-11.230,-27.344,-5.859,-36.133,0.000,0
160381.275,-31.738,-32.715,-30.273,-25.879,0.000,0
160381.279,-35.645,-31.250,-28.320,-19.043,0.000,0
160381.283,-31.250,-31.250,-25.879,-8.789,0.000,0
160381.287,-31.250,-35.645,-26.367,-19.043,0.000,0
160381.291,-34.668,-31.738,-27.344,-23.926,0.000,0
160381.295,-34.668,-32.715,-27.832,-14.648,0.000,0
160381.299,-31.250,-31.250,-17.578,-34.180,0.000,0
160381.303,-29.785,-33.691,-41.016,-33.691,0.000,0
160381.306,-29.785,-35.156,-39.062,-32.715,0.000,0
160381.310,-19.531,-29.297,-20.508,-44.434,0.000,0
160381.314,-13.184,-30.762,-29.785,-28.809,0.000,0
160381.318,-24.902,-36.133,-36.133,-19.531,0.000,0
160381.322,-35.645,-30.762,-40.527,-28.320,0.000,0
160381.326,-41.992,-33.203,-23.438,-37.598,0.000,0
160381.330,-24.902,-39.551,-23.926,-42.969,0.000,0
160381.334,-36.133,-38.086,-31.738,-36.621,0.000,0
160381.338,-45.898,-35.645,-27.832,-29.785,0.000,0
160381.342,-37.598,-31.738,-29.785,-27.832,0.000,0
160381.346,-37.109,-28.809,-29.297,-30.762,0.000,0
160381.349,-39.062,-34.668,-32.227,-36.621,0.000,0
160381.353,-41.992,-37.109,-41.016,-21.973,0.000,0
160381.357,-47.852,-36.133,-38.086,-23.926,0.000,0
160381.361,-52.734,-37.109,-35.645,-32.715,0.000,0
160381.365,-39.062,-32.227,-26.855,-27.832,0.000,0
160381.369,-40.039,-33.203,-22.461,-33.691,0.000,0
160381.373,-42.480,-36.133,-24.902,-32.715,0.000,0
160381.377,-28.809,-35.156,-31.250,-34.668,0.000,0
160381.381,-32.715,-31.738,-36.621,-20.020,0.000,0
160381.385,-45.410,-34.668,-16.113,-39.062,0.000,0
160381.388,-40.039,-35.156,-20.996,-53.711,0.000,0
160381.392,-30.762,-28.320,-48.828,-34.180,0.000,0
160381.396,-27.832,-27.344,-37.598,-31.250,0.000,0
160381.400,-21.484,-24.902,-26.855,-22.461,0.000,0
160381.404,-16.602,-23.438,-22.949,-29.297,0.000,0
160381.408,-31.738,-25.391,-19.531,-44.434,0.000,0
160381.412,-34.180,-25.879,-25.391,-30.273,0.000,0
160381.416,-36.133,-31.738,-27.344,-8.301,0.000,0
160381.420,-37.109,-32.227,-33.691,-21.484,0.000,0
160381.424,-25.879,-33.203,-34.180,-37.109,0.000,0
160381.428,-37.109,-34.668,-22.461,-42.480,0.000,0
160381.431,-37.109,-32.715,-24.414,-37.598,0.000,0
160381.435,-19.043,-28.809,-27.832,-40.039,0.000,0
160381.439,-18.555,-30.762,-39.062,-30.273,0.000,0
160381.443,-37.109,-33.691,-39.551,-11.719,0.000,0
160381.447,-31.738,-31.250,-20.508,-40.039,0.000,0
160381.451,-23.926,-30.273,-21.973,-36.621,0.000,0
160381.455,-33.691,-28.320,-30.273,-14.160,0.000,0
160381.459,-32.227,-21.484,-30.273,-16.602,0.000,0
160381.463,-26.367,-21.484,-14.648,-12.207,0.000,0
160381.467,-20.020,-19.531,-4.883,-28.809,0.000,0
160381.471,-22.949,-16.602,-25.391,-39.551,0.000,0
160381.474,-33.691,-19.531,-28.320,-33.203,0.000,0
160381.478,-32.227,-21.973,-23.926,-17.090,0.000,0
160381.482,-22.949,-22.461,-31.738,-12.207,0.000,0
160381.486,-23.438,-16.602,-1.465,-33.691,0.000,0
160381.490,-23.926,-14.648,-7.812,-26.367,0.000,0
160381.494,-22.461,-22.949,-36.133,-25.879,0.000,0
160381.498,-13.672,-24.902,-34.668,-23.926,0.000,0
160381.502,-15.137,-26.855,-22.949,-16.113,0.000,0
160381.506,-23.438,-27.832,-11.719,-40.039,0.000,0
160381.510,-9.277,-27.344,-30.762,-44.434,0.000,0
160381.513,-20.020,-32.227,-39.551,-45.410,0.000,0
160381.517,-43.457,-31.738,-32.715,-35.645,0.000,0
160381.521,-33.691,-27.344,-23.926,-21.973,0.000,0
160381.525,-20.020,-32.715,-20.508,-36.133,0.000,0
160381.529,-31.738,-37.109,-31.250,-31.250,0.000,0
160381.533,-34.668,-36.133,-41.016,-20.020,0.000,0
160381.537,-27.344,-34.180,-24.902,-22.461,0.000,0
160381.541,-27.344,-27.344,-25.879,-31.250,0.000,0
160381.545,-30.762,-23.926,-19.531,-41.016,0.000,0
160381.549,-29.297,-23.926,-13.672,-33.691,0.000,0
160381.553,-27.832,-26.855,-26.855,-42.969,0.000,0
160381.556,-31.250,-32.715,-36.621,-39.551,0.000,0
160381.560,-30.762,-41.016,-34.180,-32.715,0.000,0
160381.564,-33.203,-39.551,-20.508,-33.691,0.000,0
160381.568,-41.016,-34.668,-32.227,-30.273,0.000,0
160381.572,-36.621,-37.109,-53.711,-37.109,0.000,0
160381.576,-31.250,-33.691,-49.805,-35.156,0.000,0
160381.580,-42.480,-31.738,-24.414,-34.180,0.000,0
160381.584,-49.316,-34.668,-2.441,-42.480,0.000,0
160381.588,-32.227,-34.180,-20.508,-41.016,0.000,0
160381.592,-27.344,-30.273,-38.086,-27.832,0.000,0
160381.596,-36.621,-29.297,-44.434,-14.160,0.000,0
160381.599,-34.668,-36.621,-42.480,-19.531,0.000,0
160381.603,-32.715,-45.898,-36.621,-35.645,0.000,0
160381.607,-38.086,-40.039,-41.992,-39.062,0.000,0
160381.611,-47.363,-31.250,-34.668,-35.645,0.000,0
160381.615,-40.039,-29.785,-29.297,-40.527,0.000,0
160381.619,-24.414,-32.715,-46.387,-36.621,0.000,0
160381.623,-22.949,-28.320,-39.062,-41.016,0.000,0
160381.627,-33.691,-27.344,-12.207,-42.969,0.000,0
160381.631,-26.855,-32.227,-27.832,-27.344,0.000,0
160381.635,-4.883,-31.250,-36.133,-19.043,0.000,0
160381.638,-23.926,-28.809,-31.738,-26.367,0.000,0
160381.642,-35.645,-31.250,-23.438,-27.832,0.000,0
160381.646,-27.344,-34.180,-20.508,-22.949,0.000,0
160381.650,-23.438,-25.879,-37.598,-23.438,0.000,0
160381.654,-19.043,-26.855,-40.527,-15.625,0.000,0
160381.658,-19.043,-24.414,-31.738,1.953,0.000,0
160381.662,-12.207,-21.484,-23.438,-12.207,0.000,0
160381.666,-9.766,-24.902,-23.438,-23.438,0.000,0
160381.670,-18.555,-27.344,-26.855,-15.625,0.000,0
160381.674,-17.090,-23.438,-16.602,-15.137,0.000,0
160381.678,-20.508,-23.438,-29.297,-10.742,0.000,0
160381.681,-29.785,-28.320,-26.855,-20.020,0.000,0
160381.685,-22.461,-25.879,-22.949,-44.434,0.000,0
160381.689,-6.836,-23.926,-29.297,-43.945,0.000,0
160381.693,-19.043,-25.879,-32.227,-30.762,0.000,0
160381.697,-25.879,-30.273,-53.711,-1.953,0.000,0
160381.701,-17.578,-34.180,-35.156,-8.301,0.000,0
160381.705,-28.320,-32.227,-25.391,-39.062,0.000,0
160381.709,-30.762,-29.297,-47.363,-34.668,0.000,0
160381.713,-35.645,-32.715,-43.457,-31.250,0.000,0
160381.717,-37.598,-36.621,-34.668,-30.762,0.000,0
160381.721,-35.156,-34.668,-35.156,-35.156,0.000,0
160381.724,-43.945,-30.762,-41.992,-47.363,0.000,1
160381.728,-39.062,-30.762,-35.156,-38.086,0.000,0
160381.732,-21.973,-26.367,-22.949,-18.555,0.000,0
160381.736,-15.137,-21.973,-34.668,-6.836,0.000,0
160381.740,-22.461,-28.320,-36.133,-20.508,0.000,0
160381.744,-29.785,-23.926,-31.738,-22.949,0.000,0
160381.748,-12.695,-17.090,-25.879,-13.672,0.000,0
160381.752,-15.625,-23.438,-24.902,-20.508,0.000,0
160381.756,-23.926,-22.949,-24.902,-23.438,0.000,0
160381.760,-20.508,-21.484,-20.020,-25.879,0.000,0
160381.763,-20.996,-25.879,-12.207,-30.273,0.000,0
160381.767,-15.137,-21.973,-24.414,-21.973,0.000,0
160381.771,-16.602,-17.578,-42.480,-22.461,0.000,0
160381.775,-24.414,-21.973,-37.109,-24.414,0.000,0
160381.779,-35.645,-21.973,-20.508,-28.809,0.000,0
160381.783,-31.738,-18.555,-16.113,-32.227,0.000,0
160381.787,-21.973,-13.672,-25.391,-21.484,0.000,0
160381.791,-28.809,-18.555,-14.648,-32.227,0.000,0
160381.795,-24.902,-26.855,-11.230,-32.227,0.000,0
160381.799,-11.719,-26.367,-40.039,-21.484,0.000,0
160381.803,-29.785,-23.926,-28.809,-32.227,0.000,0
160381.806,-50.781,-19.531,-20.508,-31.738,0.000,0
160381.810,-29.297,-20.508,-34.668,-18.066,0.000,0
160381.814,-20.996,-23.926,-39.551,-15.137,0.000,0
160381.818,-37.598,-26.367,-29.785,-20.508,0.000,0
160381.822,-41.992,-26.367,-10.254,-30.273,0.000,0
160381.826,-32.227,-21.484,-23.438,-35.645,0.000,0
160381.830,-21.484,-23.438,-38.086,-39.551,0.000,0
160381.834,-20.996,-27.832,-33.203,-31.250,0.000,0
160381.838,-27.832,-33.203,-29.297,-25.879,0.000,0
160381.842,-29.297,-34.180,-19.531,-25.879,0.000,0
160381.846,-35.645,-30.762,-20.996,-34.668,0.000,0
160381.849,-43.945,-41.504,-29.785,-39.551,0.000,0
160381.853,-27.832,-40.039,-34.180,-31.738,0.000,0
160381.857,-28.320,-30.273,-41.992,-34.180,0.000,0
160381.861,-25.879,-32.715,-32.715,-51.758,0.000,0
160381.865,-16.602,-30.762,-30.762,-43.945,0.000,0
160381.869,-34.668,-29.297,-35.156,-34.180,0.000,0
160381.873,-33.691,-33.691,-46.875,-27.344,0.000,0
160381.877,-28.320,-36.621,-50.293,-22.949,0.000,0
160381.881,-30.762,-44.434,-24.902,-32.715,0.000,0
160381.885,-29.785,-42.480,-36.133,-21.973,0.000,0
160381.888,-18.555,-36.133,-60.547,-17.578,0.000,0
160381.892,-30.273,-37.598,-52.246,-35.156,0.000,0
160381.896,-44.922,-41.016,-30.273,-25.879,0.000,0
160381.900,-36.133,-41.504,-29.785,-30.762,0.000,0
160381.904,-27.832,-39.062,-48.340,-47.852,0.000,0
160381.908,-40.039,-38.574,-47.363,-39.551,0.000,0
160381.912,-39.062,-32.227,-27.832,-20.996,0.000,0
160381.916,-26.855,-28.320,-28.320,-28.320,0.000,0
160381.920,-30.273,-36.621,-23.926,-43.945,0.000,0
160381.924,-36.133,-38.086,-34.180,-47.852,0.000,0
160381.928,-32.715,-34.668,-41.016,-38.086,0.000,0
160381.931,-24.414,-30.273,-36.133,-24.414,0.000,0
160381.935,-20.020,-30.273,-37.598,-20.020,0.000,0
160381.939,-26.855,-32.227,-29.785,-34.668,0.000,0
160381.943,-33.691,-30.762,-30.762,-35.645,0.000,0
160381.947,-28.320,-31.738,-38.086,-17.090,0.000,0
160381.951,-24.414,-27.344,-43.457,-16.113,0.000,0
160381.955,-27.832,-30.762,-42.480,-9.277,0.000,0
160381.959,-30.762,-33.203,-21.484,-16.113,0.000,0
160381.963,-18.555,-29.297,-33.203,-31.250,0.000,0
160381.967,-8.301,-34.668,-44.922,-24.902,0.000,0
160381.971,-17.090,-35.156,-34.668,-26.855,0.000,0
160381.974,-22.461,-31.250,-42.480,-13.184,0.000,0
160381.978,-30.762,-34.180,-41.504,-14.648,0.000,0
160381.982,-28.320,-33.691,-28.809,-28.320,0.000,0
160381.986,-33.203,-30.762,-25.391,-12.695,0.000,0
160381.990,-37.109,-30.762,-36.133,-10.742,0.000,0
160381.994,-35.645,-27.344,-47.363,-19.043,0.000,0
160381.998,-41.504,-24.902,-35.156,-31.250,0.000,0
160382.002,-34.668,-27.832,-14.648,-45.410,0.000,0
160382.006,-41.504,-37.109,-35.645,-52.246,0.000,0
160382.010,-40.527,-37.598,-60.547,-39.062,0.000,0
160382.013,-24.414,-34.668,-51.270,-15.137,0.000,0
160382.017,-22.461,-29.785,-25.391,-12.207,0.000,0
160382.021,-27.832,-30.273,-26.367,-28.809,0.000,0
160382.025,-32.715,-33.203,-43.457,-11.719,0.000,0
160382.029,-36.133,-32.715,-37.109,-8.301,0.000,0
160382.033,-20.508,-31.250,-26.855,-19.043,0.000,0
160382.037,-14.648,-29.297,-24.414,-19.043,0.000,0
160382.041,-7.324,-32.715,-31.738,-37.598,0.000,0
160382.045,-2.441,-32.715,-39.062,-24.902,0.000,0
160382.049,-22.949,-27.832,-21.484,-12.695,0.000,0
160382.053,-14.648,-31.738,-38.086,-20.020,0.000,0
160382.056,-21.484,-34.668,-42.480,-30.273,0.000,0
160382.060,-34.180,-30.762,-22.949,-34.668,0.000,0
160382.064,-20.508,-27.832,-36.133,-19.043,0.000,0
160382.068,-20.020,-31.738,-43.945,-28.320,0.000,0
160382.072,-27.832,-36.133,-37.598,-29.785,0.000,0
160382.076,-23.926,-29.785,-19.531,-27.344,0.000,0
160382.080,-21.484,-28.809,-13.184,-34.668,0.000,0
160382.084,-28.809,-38.086,-29.785,-29.785,0.000,0
160382.088,-21.484,-34.180,-32.227,-20.996,0.000,0
160382.092,-27.344,-28.809,-23.926,-11.230,0.000,0
160382.096,-21.973,-23.926,-17.090,-4.883,0.000,0
160382.099,-5.371,-20.996,-16.113,-6.836,0.000,0
160382.103,-10.254,-23.926,-13.672,0.977,0.000,0
160382.107,-17.578,-26.855,-13.184,-10.254,0.000,0
160382.111,-24.414,-33.691,-45.410,-25.879,0.000,0
160382.115,-26.367,-31.250,-40.039,-27.344,0.000,0
160382.119,-22.461,-22.461,-9.766,-29.297,0.000,0
160382.123,-18.555,-20.020,-15.137,-25.391,0.000,0
160382.127,-10.254,-23.438,-19.531,-6.348,0.000,0
160382.131,-17.578,-27.344,-22.461,4.395,0.000,0
160382.135,-30.762,-31.250,-22.949,-14.648,0.000,0
160382.138,-26.367,-32.227,-5.371,-29.297,0.000,0
160382.142,-16.113,-31.250,-30.762,-34.180,0.000,0
160382.146,-13.672,-31.250,-38.086,-34.180,0.000,0
160382.150,-29.785,-27.344,-23.926,-5.859,0.000,0
160382.154,-22.461,-29.785,-33.203,1.465,0.000,0
160382.158,-18.066,-35.156,-28.320,-32.715,0.000,0
160382.162,-23.438,-33.691,-17.578,-24.902,0.000,0
160382.166,-30.762,-31.738,-20.508,-6.836,0.000,0
160382.170,-29.785,-31.250,-28.320,-20.508,0.000,0
160382.174,-30.762,-34.668,-31.738,-31.738,0.000,0
160382.178,-32.715,-39.062,-20.996,-38.086,0.000,0
160382.181,-31.250,-36.133,-17.578,-40.039,0.000,0
160382.185,-24.902,-31.738,-26.855,-34.668,0.000,0
160382.189,-8.789,-33.203,-44.922,-19.043,0.000,0
160382.193,-16.602,-35.645,-44.434,-20.508,0.000,0
160382.197,-24.414,-34.668,-9.766,-35.645,0.000,0
160382.201,-22.949,-34.180,-23.438,-24.414,0.000,0
160382.205,-29.297,-32.715,-41.016,-26.855,0.000,0
160382.209,-34.668,-30.273,-21.973,-24.902,0.000,0
160382.213,-28.320,-27.832,-26.367,-9.766,0.000,0
160382.217,-22.461,-32.227,-27.344,-36.621,0.000,0
160382.221,-27.344,-31.738,-32.227,-43.945,0.000,0
160382.224,-32.227,-30.762,-34.180,-40.527,0.000,0
160382.228,-31.738,-35.645,-31.738,-31.738,0.000,0
160382.232,-23.926,-36.621,-37.598,-17.578,0.000,0
160382.236,-27.344,-34.180,-22.461,-30.762,0.000,0
160382.240,-26.855,-35.156,-25.391,-28.809,0.000,0
160382.244,-14.648,-31.738,-38.086,-22.949,0.000,0
160382.248,-14.648,-34.668,-33.691,-35.645,0.000,0
160382.252,-18.555,-41.504,-32.715,-24.902,0.000,0
160382.256,-20.996,-35.645,-18.555,-36.621,0.000,0
160382.260,-14.160,-36.621,-20.996,-43.945,0.000,0
160382.263,-12.695,-33.691,-26.855,-26.855,0.000,0
160382.267,-23.438,-23.926,-24.902,-21.484,0.000,0
160382.271,-31.250,-24.414,-27.344,-24.414,0.000,0
160382.275,-27.832,-27.344,-34.180,-37.598,0.000,1
160382.279,-31.250,-30.273,-46.387,-23.438,0.000,0
160382.283,-26.367,-30.762,-36.133,-7.812,0.000,0
160382.287,-37.598,-34.668,-14.160,-24.414,0.000,0
160382.291,-37.109,-32.227,-23.926,-35.645,0.000,0
160382.295,-24.414,-28.320,-20.020,-38.574,0.000,0
160382.299,-37.598,-31.738,-13.672,-43.945,0.000,0
160382.303,-32.715,-31.738,-23.438,-33.691,0.000,0
160382.306,-25.391,-29.785,-28.809,-25.879,0.000,0
160382.310,-24.902,-23.926,-22.461,-33.691,0.000,0
160382.314,-29.297,-21.484,-25.391,-25.391,0.000,0
160382.318,-37.109,-31.250,-20.020,-22.949,0.000,0
160382.322,-25.879,-27.832,-18.555,-27.344,0.000,0
160382.326,-15.137,-26.367,-31.738,-34.668,0.000,0
160382.330,-28.809,-31.250,-23.438,-19.043,0.000,0
160382.334,-40.039,-32.715,0.488,-17.090,0.000,0
160382.338,-40.039,-34.668,-16.113,-35.645,0.000,0
160382.342,-39.551,-34.180,-36.621,-29.297,0.000,0
160382.346,-36.133,-30.273,-26.367,-20.020,0.000,0
160382.349,-25.879,-26.367,-25.879,-18.555,0.000,0
160382.353,-34.668,-31.738,-28.320,-22.461,0.000,0
160382.357,-36.133,-34.668,-27.344,-31.738,0.000,0
160382.361,-31.250,-27.344,-27.832,-37.598,0.000,0
160382.365,-49.316,-30.762,-22.949,-41.504,0.000,0
160382.369,-34.668,-30.762,-31.250,-28.320,0.000,0
160382.373,-24.902,-28.320,-29.785,-26.367,0.000,0
160382.377,-39.062,-24.902,-6.836,-37.109,0.000,0
160382.381,-11.719,-15.137,-14.160,-12.207,0.000,0
160382.385,19.043,-13.672,-19.531,-3.418,0.000,0
160382.388,-13.672,-20.020,-16.602,-24.902,0.000,0
160382.392,-45.410,-18.555,-16.602,-40.527,0.000,0
160382.396,-39.551,-16.602,-13.672,-43.945,0.000,0
160382.400,-19.531,-17.090,-12.695,-27.344,0.000,0
160382.404,-10.742,-23.438,-15.625,-22.461,0.000,0
160382.408,-19.043,-21.484,-20.020,-32.227,0.000,0
160382.412,-22.949,-23.926,-13.184,-30.273,0.000,0
160382.416,-16.113,-30.273,-13.184,-16.602,0.000,0
160382.420,-29.785,-27.344,-19.043,-30.273,0.000,0
160382.424,-34.180,-28.320,-23.438,-40.039,0.000,0
160382.428,-18.555,-30.273,-34.180,-22.949,0.000,0
160382.431,-3.906,-29.297,-23.438,-10.742,0.000,0
160382.435,-1.953,-26.367,-10.254,-27.832,0.000,0
160382.439,-3.906,-26.855,-23.438,-33.203,0.000,0
160382.443,-14.160,-27.344,-33.691,-16.602,0.000,0
160382.447,-27.832,-30.273,-32.715,-7.324,0.000,0
160382.451,-29.785,-28.320,-16.602,-12.207,0.000,0
160382.455,-26.367,-22.949,-8.789,-29.297,0.000,0
160382.459,-18.555,-23.438,-22.949,-26.855,0.000,0
160382.463,-14.648,-24.414,-30.273,-20.508,0.000,0
160382.467,-20.508,-23.926,-17.578,-16.113,0.000,0
160382.471,-15.137,-27.344,-21.484,-24.414,0.000,0
160382.474,-17.578,-24.902,-23.926,-47.852,0.000,0
160382.478,-29.297,-22.461,-23.926,-32.715,0.000,0
160382.482,-36.133,-23.926,-29.297,-18.555,0.000,0
160382.486,-29.297,-25.391,-33.203,-28.809,0.000,0
160382.490,-17.578,-25.879,-27.344,-29.297,0.000,0
160382.494,-20.020,-22.461,-5.371,-40.039,0.000,0
160382.498,-8.301,-23.438,-14.648,-37.109,0.000,0
160382.502,-22.949,-30.273,-28.320,-24.902,0.000,0
160382.506,-34.668,-26.367,-30.273,-25.391,0.000,0
160382.510,-31.738,-27.344,-31.738,-26.367,0.000,0
160382.513,-39.551,-31.738,-6.836,-31.250,0.000,0
160382.517,-24.902,-27.344,-17.090,-19.043,0.000,0
160382.521,-18.066,-24.414,-24.902,-11.230,0.000,0
160382.525,-25.391,-20.508,-19.043,-6.348,0.000,0
160382.529,-18.066,-23.926,-30.273,-7.812,0.000,0
160382.533,-22.949,-28.320,-19.531,-36.133,0.000,0
160382.537,-20.508,-25.879,-24.414,-33.203,0.000,0
160382.541,-22.949,-27.832,-34.668,-32.715,0.000,0
160382.545,-33.691,-30.762,-38.574,-34.180,0.000,0
160382.549,-17.090,-32.227,-43.457,-27.832,0.000,0
160382.553,-24.902,-32.715,-33.203,-34.180,0.000,0
160382.556,-44.922,-32.715,-27.832,-36.133,0.000,0
160382.560,-26.367,-33.691,-37.109,-22.461,0.000,0
160382.564,-13.672,-29.785,-35.156,-19.531,0.000,0
160382.568,-26.367,-24.414,-19.043,-24.902,0.000,0
160382.572,-35.156,-26.855,-7.324,-39.062,0.000,0
160382.576,-28.809,-29.785,-23.926,-43.457,0.000,0
160382.580,-20.508,-27.832,-26.367,-35.156,0.000,0
160382.584,-22.461,-23.926,-19.531,-24.414,0.000,0
160382.588,-24.902,-26.855,-27.832,-14.648,0.000,0
160382.592,-22.949,-28.809,-19.043,-26.367,0.000,0
160382.596,-30.273,-29.785,-29.297,-31.738,0.000,0
160382.599,-44.434,-34.180,-40.527,-19.043,0.000,0
160382.603,-35.156,-33.203,-21.973,-20.996,0.000,0
160382.607,-25.391,-34.180,-37.598,-33.203,0.000,0
160382.611,-33.203,-34.180,-32.715,-29.785,0.000,0
160382.615,-34.180,-34.668,-23.926,-35.645,0.000,0
160382.619,-35.645,-34.180,-40.039,-33.691,0.000,0
160382.623,-34.668,-22.949,-36.621,-23.926,0.000,0
160382.627,-19.043,-20.508,-25.391,-31.738,0.000,0
160382.631,-24.902,-27.344,-25.879,-38.086,0.000,0
160382.635,-39.062,-24.414,-31.738,-32.227,0.000,0
160382.638,-28.809,-17.578,-36.621,-22.949,0.000,0
160382.642,-20.020,-18.066,-25.391,-18.066,0.000,0
160382.646,-32.715,-20.996,-22.461,-22.949,0.000,0
160382.650,-30.273,-26.855,-27.344,-37.598,0.000,0
160382.654,-23.926,-25.391,-23.438,-42.480,0.000,0
160382.658,-33.691,-23.438,-34.668,-25.879,0.000,0
160382.662,-26.367,-24.414,-31.738,-22.461,0.000,0
160382.666,-15.625,-29.785,-29.785,-24.414,0.000,0
160382.670,-23.438,-29.785,-29.785,-29.297,0.000,0
160382.674,-26.367,-22.461,-25.391,-32.715,0.000,0
160382.678,-32.715,-30.273,-37.109,-38.086,0.000,0
160382.681,-29.297,-33.203,-45.410,-47.852,0.000,0
160382.685,-24.414,-29.785,-44.922,-23.438,0.000,0
160382.689,-33.203,-27.344,-39.062,-13.184,0.000,0
160382.693,-18.555,-24.902,-24.414,-33.203,0.000,0
160382.697,0.488,-24.414,-29.297,-14.648,0.000,0
160382.701,-25.391,-23.926,-50.293,-21.973,0.000,0
160382.705,-43.945,-18.066,-37.109,-45.410,0.000,0
160382.709,-34.180,-16.602,-8.789,-34.668,0.000,0
160382.713,-26.855,-20.020,-11.719,-35.645,0.000,0
160382.717,-33.691,-19.043,-26.367,-37.598,0.000,0
160382.721,-28.809,-18.066,-23.926,-27.344,0.000,0
160382.724,-31.250,-19.043,-16.113,-18.555,0.000,0
160382.728,-36.133,-15.625,-4.395,-28.320,0.000,0
160382.732,-14.160,-14.160,-8.301,-27.344,0.000,0
160382.736,-14.648,-14.160,-17.090,-14.648,0.000,0
160382.740,-32.715,-17.578,-28.809,-13.184,0.000,0
160382.744,-30.273,-20.020,-40.527,-18.066,0.000,0
160382.748,-30.762,-20.996,-28.320,-18.066,0.000,0
160382.752,-35.156,-20.996,-0.488,-23.438,0.000,0
160382.756,-32.227,-18.066,-18.555,-30.273,0.000,0
160382.760,-15.625,-25.879,-35.645,-25.879,0.000,0
160382.763,-28.809,-27.344,-28.809,-12.207,0.000,0
160382.767,-36.621,-28.809,-23.438,-17.578,0.000,0
160382.771,-32.227,-29.785,-17.578,-27.832,0.000,0
160382.775,-39.551,-28.320,-32.715,-24.902,0.000,0
160382.779,-36.621,-27.832,-37.598,-25.391,0.000,0
160382.783,-29.297,-27.344,-18.066,-14.160,0.000,0
160382.787,-18.555,-27.832,-8.301,-39.551,0.000,0
160382.791,-23.926,-28.809,-23.438,-54.688,0.000,0
160382.795,-31.250,-31.738,-24.414,-33.203,0.000,0
160382.799,-17.090,-30.273,-23.438,-21.973,0.000,0
160382.803,-17.578,-31.250,-40.039,-26.855,0.000,0
160382.806,-33.691,-35.645,-20.508,-38.574,0.000,0
160382.810,-38.574,-29.297,-15.137,-45.410,0.000,0
160382.814,-40.039,-28.809,-34.180,-45.898,0.000,0
160382.818,-31.738,-28.320,-28.320,-43.457,0.000,0
160382.822,-23.926,-21.973,-30.762,-26.855,0.000,0
160382.826,-29.785,-33.691,-24.414,-29.297,0.000,0
160382.830,-29.297,-42.969,-17.578,-38.086,0.000,0
160382.834,-29.297,-36.621,-40.039,-20.996,0.000,0
160382.838,-27.344,-29.785,-41.992,-6.836,0.000,0
160382.842,-24.902,-32.715,-32.227,-5.371,0.000,0
160382.846,-7.812,-36.133,-27.344,-26.367,0.000,0
160382.849,-12.207,-33.203,-29.785,-35.645,0.000,0
160382.853,-21.973,-28.809,-28.320,-12.207,0.000,0
160382.857,-18.066,-33.691,-25.879,-16.602,0.000,0
160382.861,-28.320,-41.016,-38.574,-29.297,0.000,0
160382.865,-33.203,-42.969,-27.344,-35.156,0.000,0
160382.869,-40.039,-38.574,-16.602,-46.875,0.000,0
160382.873,-30.273,-31.250,-30.273,-27.344,0.000,0
160382.877,-24.902,-30.273,-31.250,-17.090,0.000,0
160382.881,-36.133,-26.855,-26.367,-14.160,0.000,0
160382.885,-39.551,-28.320,-9.766,-15.625,0.000,0
160382.888,-24.414,-34.180,-13.672,-31.738,0.000,0
160382.892,-15.137,-31.250,-45.410,-37.598,0.000,0
160382.896,-14.160,-22.949,-37.598,-28.809,0.000,0
160382.900,-7.812,-22.949,-24.414,0.977,0.000,0
160382.904,-13.672,-25.879,-22.949,-1.953,0.000,0
160382.908,-16.602,-28.320,-21.973,-26.855,0.000,0
160382.912,-20.996,-35.156,-29.297,-24.414,0.000,0
160382.916,-27.832,-36.621,-29.297,-22.949,0.000,0
160382.920,-20.996,-32.715,-31.738,-25.879,0.000,0
160382.924,-28.809,-26.367,-28.320,-24.902,0.000,0
160382.928,-35.645,-23.438,-18.555,-32.227,0.000,0
160382.931,-19.531,-28.809,-12.207,-41.504,0.000,0
160382.935,-15.137,-28.320,-32.227,-26.367,0.000,0
160382.939,-17.578,-23.926,-51.758,-19.531,0.000,0
160382.943,-10.254,-28.320,-18.066,-25.879,0.000,0
160382.947,-15.625,-22.461,7.812,-21.484,0.000,0
160382.951,-19.531,-16.602,-23.926,-20.508,0.000,0
160382.955,-20.508,-23.926,-44.922,-25.391,0.000,2
160382.959,-23.438,-28.809,-28.809,-20.020,0.000,0
160382.963,-32.227,-34.180,-19.531,-17.090,0.000,0
160382.967,-37.109,-36.133,-24.414,-34.180,0.000,0
160382.971,-22.461,-33.691,-18.555,-37.598,0.000,0
160382.974,-25.879,-29.297,-12.695,-23.926,0.000,0
160382.978,-27.832,-29.297,-29.785,-22.461,0.000,0
160382.982,-21.973,-36.133,-37.598,-29.785,0.000,0
160382.986,-25.391,-36.133,-27.344,-40.039,0.000,0
160382.990,-25.879,-33.203,-22.461,-41.016,0.000,0
160382.994,-36.621,-31.738,-20.020,-42.969,0.000,0
160382.998,-28.809,-35.156,-27.344,-29.785,0.000,0
160383.002,-16.602,-35.156,-24.414,-2.930,0.000,0
160383.006,-13.672,-27.344,-11.230,-26.367,0.000,0
160383.010,-19.531,-28.320,-18.555,-37.598,0.000,0
160383.013,-24.902,-30.273,-34.180,-25.391,0.000,0
160383.017,-23.438,-33.203,-35.156,-33.203,0.000,0
160383.021,-23.438,-33.691,-18.066,-35.156,0.000,0
160383.025,-20.508,-30.762,-21.484,-44.922,0.000,0
160383.029,-27.832,-34.180,-38.574,-56.641,0.000,0
160383.033,-30.273,-33.203,-6.836,-46.875,0.000,0
160383.037,-27.344,-29.297,-1.465,-23.438,0.000,0
160383.041,-23.438,-29.297,-36.621,-5.859,0.000,0
160383.045,-24.414,-30.273,-22.461,-16.113,0.000,0
160383.049,-23.438,-32.227,-18.555,-33.691,0.000,0
160383.053,-24.414,-30.273,-31.738,-32.715,0.000,0
160383.056,-32.715,-26.367,-34.180,-29.297,0.000,0
160383.060,-24.902,-27.344,-26.367,-27.832,0.000,0
160383.064,-18.555,-28.809,-12.695,-30.273,0.000,0
160383.068,-30.762,-30.762,-18.066,-36.621,0.000,0
160383.072,-26.367,-32.227,-23.926,-36.133,0.000,0
160383.076,-24.414,-29.297,-33.203,-34.668,0.000,0
160383.080,-23.926,-20.996,-20.996,-19.531,0.000,0
160383.084,-22.461,-19.531,-6.348,-25.879,0.000,0
160383.088,-27.344,-20.508,-32.715,-42.969,0.000,0
160383.092,-20.508,-20.020,-34.180,-33.691,0.000,0
160383.096,-19.531,-24.902,-25.879,-26.855,0.000,0
160383.099,-29.297,-25.879,-28.809,-15.137,0.000,0
160383.103,-27.832,-27.344,-25.879,-21.973,0.000,0
160383.107,-27.344,-30.762,-30.273,-39.062,0.000,0
160383.111,-31.250,-31.738,-30.273,-23.926,0.000,0
160383.115,-27.832,-25.391,-28.320,-10.742,0.000,0
160383.119,-13.672,-18.066,-36.133,-16.602,0.000,0
160383.123,-14.648,-22.949,-27.832,-30.762,0.000,0
160383.127,-27.344,-23.926,-20.508,-33.203,0.000,0
160383.131,-30.273,-24.902,-45.898,-17.090,0.000,0
160383.135,-22.461,-25.391,-28.809,-25.391,0.000,0
160383.138,-30.762,-23.438,-23.438,-28.809,0.000,0
160383.142,-48.340,-27.832,-35.645,-35.156,0.000,0
160383.146,-34.668,-23.926,-26.367,-41.504,0.000,0
160383.150,-19.043,-20.996,-26.367,-21.973,0.000,0
160383.154,-20.020,-22.949,-28.320,-16.113,0.000,0
160383.158,-16.113,-23.438,-28.320,-7.812,0.000,0
160383.162,-14.160,-26.855,-19.531,-16.602,0.000,0
160383.166,-23.438,-30.273,-28.320,-42.480,0.000,0
160383.170,-32.715,-28.320,-26.367,-38.574,0.000,0
160383.174,-35.156,-23.438,-20.508,-26.367,0.000,0
160383.178,-24.414,-20.996,-33.691,-20.020,0.000,0
160383.181,-17.090,-26.855,-25.391,-20.020,0.000,0
160383.185,-21.973,-25.391,-8.301,-23.438,0.000,0
160383.189,-17.578,-20.508,-25.879,-23.926,0.000,0
160383.193,-14.648,-27.344,-43.457,-16.602,0.000,0
160383.197,-12.207,-29.297,-27.832,-3.906,0.000,0
160383.201,-19.043,-29.785,-4.395,-23.926,0.000,0
160383.205,-24.902,-34.668,-16.113,-41.016,0.000,0
160383.209,-22.949,-32.715,-27.344,-29.785,0.000,0
160383.213,-34.668,-34.668,-16.602,-39.062,0.000,0
160383.217,-23.926,-34.180,-24.902,-25.879,0.000,0
160383.221,-18.066,-36.133,-32.715,-16.602,0.000,0
160383.224,-26.367,-38.086,-25.391,-30.762,0.000,0
160383.228,-25.391,-33.203,-28.809,-23.438,0.000,0
160383.232,-23.926,-27.832,-30.762,-15.625,0.000,0
160383.236,-22.461,-25.879,-23.438,-24.902,0.000,0
160383.240,-21.484,-24.902,-8.301,-26.367,0.000,0
160383.244,-28.809,-29.785,-21.484,-33.203,0.000,0
160383.248,-25.391,-29.785,-28.809,-29.297,0.000,0
160383.252,-12.207,-24.902,-21.484,-10.742,0.000,0
160383.256,-21.484,-24.902,-31.250,-8.301,0.000,0
160383.260,-29.297,-27.832,-19.043,-16.113,0.000,0
160383.263,-26.367,-29.785,-8.789,-31.250,0.000,0
160383.267,-30.273,-27.344,-33.203,-27.832,0.000,0
160383.271,-36.133,-37.598,-38.086,-24.902,0.000,0
160383.275,-44.434,-41.016,-34.668,-40.039,0.000,0
160383.279,-40.527,-29.785,-25.391,-49.805,0.000,0
160383.283,-25.879,-29.297,-20.996,-38.086,0.000,0
160383.287,-26.367,-34.180,-29.785,-29.297,0.000,0
160383.291,-24.902,-29.297,-30.273,-21.973,0.000,0
160383.295,-22.461,-31.250,-30.273,-20.508,0.000,0
160383.299,-33.203,-36.133,-21.973,-29.297,0.000,0
160383.303,-19.043,-25.879,-10.742,-32.227,0.000,0
160383.306,-13.672,-27.832,-16.602,-32.227,0.000,0
160383.310,-25.391,-32.715,-25.391,-36.621,0.000,0
160383.314,-25.391,-30.762,-38.086,-38.086,0.000,0
160383.318,-29.785,-30.273,-29.785,-15.137,0.000,0
160383.322,-31.738,-29.297,-10.742,-13.672,0.000,0
160383.326,-34.180,-27.344,-23.438,-32.715,0.000,0
160383.330,-33.203,-26.855,-30.762,-26.367,0.000,0
160383.334,-31.250,-30.273,-34.668,-29.297,0.000,0
160383.338,-29.785,-38.574,-33.691,-37.598,0.000,0
160383.342,-31.250,-40.527,-30.273,-28.320,0.000,0
160383.346,-27.832,-37.109,-42.480,-36.621,0.000,0
160383.349,-21.973,-41.016,-40.039,-33.203,0.000,0
160383.353,-34.668,-39.062,-51.758,-17.090,0.000,0
160383.357,-33.203,-37.109,-49.805,-33.691,0.000,0
160383.361,-28.809,-38.086,-19.043,-31.250,0.000,0
160383.365,-30.273,-36.621,-12.695,-15.137,0.000,0
160383.369,-23.438,-31.250,-30.273,-26.367,0.000,0
160383.373,-14.648,-29.297,-32.227,-27.832,0.000,0
160383.377,-21.973,-33.203,-19.531,-28.320,0.000,0
160383.381,-27.832,-33.203,-18.555,-40.527,0.000,0
160383.385,-31.738,-32.227,-34.180,-35.645,0.000,0
160383.388,-42.969,-33.203,-39.551,-23.926,0.000,0
160383.392,-40.527,-32.227,-33.691,-22.949,0.000,0
160383.396,-34.668,-30.762,-30.762,-22.461,0.000,0
160383.400,-33.203,-36.621,-31.250,-40.527,0.000,0
160383.404,-30.762,-38.574,-46.387,-32.715,0.000,0
160383.408,-33.691,-35.645,-28.320,-14.160,0.000,0
160383.412,-32.227,-33.691,-23.438,-21.973,0.000,0
160383.416,-29.297,-34.668,-29.785,-16.602,0.000,0
160383.420,-34.668,-32.715,-17.090,-30.273,0.000,0
160383.424,-35.156,-34.668,-22.949,-49.316,0.000,0
160383.428,-27.832,-33.691,-24.902,-37.598,0.000,0
160383.431,-22.461,-31.738,-38.574,-28.320,0.000,0
160383.435,-24.414,-35.156,-33.691,-25.391,0.000,0
160383.439,-34.668,-36.621,-11.719,-31.738,0.000,0
160383.443,-33.691,-34.668,-20.020,-21.973,0.000,0
160383.447,-35.156,-34.668,-31.738,-22.949,0.000,0
160383.451,-41.992,-39.551,-33.203,-29.785,0.000,0
160383.455,-38.574,-41.504,-21.973,-22.949,0.000,0
160383.459,-34.668,-37.598,-17.578,-32.227,0.000,0
160383.463,-25.391,-36.621,-27.832,-29.297,0.000,0
160383.467,-24.902,-38.086,-27.832,-8.301,0.000,0
160383.471,-22.461,-34.180,-33.203,-19.043,0.000,0
160383.474,-26.855,-30.273,-31.250,-29.297,0.000,0
160383.478,-29.785,-29.785,-10.742,-24.902,0.000,0
160383.482,-29.785,-27.344,-20.996,-22.461,0.000,0
160383.486,-32.715,-25.391,-32.227,-24.902,0.000,0
160383.490,-27.344,-22.949,-30.762,-21.973,0.000,0
160383.494,-12.207,-20.996,-28.809,-13.184,0.000,0
160383.498,-9.766,-25.879,-4.395,-28.809,0.000,0
160383.502,-19.043,-23.926,-14.160,-35.156,0.000,0
160383.506,-21.973,-20.996,-33.203,-26.367,0.000,0
160383.510,-21.484,-24.902,-28.320,-16.602,0.000,0
160383.513,-20.996,-28.809,-18.066,-7.812,0.000,0
160383.517,-17.578,-27.832,-13.184,-33.691,0.000,0
160383.521,-19.531,-25.391,-31.250,-40.527,0.000,0
160383.525,-22.949,-25.391,-26.367,-32.227,0.000,0
160383.529,-15.625,-24.414,-17.578,-20.508,0.000,0
160383.533,-9.766,-26.855,-29.785,-8.301,0.000,0
160383.537,-15.625,-34.180,-29.297,-25.391,0.000,0
160383.541,-20.508,-28.320,-22.461,-21.973,0.000,0
160383.545,-23.926,-28.809,-11.719,-19.531,0.000,0
160383.549,-23.926,-29.297,-41.504,-21.973,0.000,0
160383.553,-3.906,-30.273,-60.547,-14.648,0.000,0
160383.556,-4.395,-32.715,-20.996,-22.461,0.000,0
160383.560,-28.320,-26.855,-16.113,-42.480,0.000,0
160383.564,-29.297,-33.691,-34.180,-47.852,0.000,0
160383.568,-19.531,-38.086,-38.574,-26.855,0.000,0
160383.572,-34.668,-28.320,-32.227,-25.391,0.000,0
160383.576,-43.945,-27.832,-17.578,-51.270,0.000,0
160383.580,-41.016,-29.297,-25.391,-40.039,0.000,0
160383.584,-37.109,-31.250,-36.621,-21.484,0.000,0
160383.588,-21.973,-28.320,-29.785,-19.531,0.000,0
160383.592,-12.207,-30.762,-32.715,-6.348,0.000,0
160383.596,-14.160,-41.016,-31.738,-23.438,0.000,0
160383.599,-32.715,-34.180,-20.996,-33.203,0.000,0
160383.603,-29.297,-30.762,-25.391,-28.809,0.000,0
160383.607,-24.414,-34.668,-36.133,-27.832,0.000,0
160383.611,-36.621,-31.738,-29.785,-17.090,0.000,0
160383.615,-26.855,-33.691,-14.160,-28.809,0.000,0
160383.619,-27.832,-37.109,-22.949,-34.180,0.000,0
160383.623,-38.086,-40.527,-37.109,-28.320,0.000,2
160383.627,-34.180,-38.574,-30.273,-32.227,0.000,0
160383.631,-41.016,-39.551,-26.855,-32.227,0.000,0
160383.635,-50.293,-44.434,-22.949,-36.621,0.000,0
160383.638,-38.086,-42.480,-38.086,-41.504,0.000,0
160383.642,-33.203,-40.527,-51.758,-37.598,0.000,0
160383.646,-35.156,-41.992,-33.691,-39.551,0.000,0
160383.650,-40.527,-44.434,-34.668,-31.738,0.000,0
160383.654,-39.062,-38.574,-39.551,-33.203,0.000,0
160383.658,-23.926,-37.109,-29.785,-40.039,0.000,0
160383.662,-19.531,-38.086,-29.785,-27.832,0.000,0
160383.666,-35.645,-34.180,-30.762,-23.926,0.000,0
160383.670,-30.273,-28.320,-37.109,-10.254,0.000,0
160383.674,-16.602,-23.926,-25.391,-15.625,0.000,0
160383.678,-21.484,-24.414,-9.277,-26.367,0.000,0
160383.681,-20.996,-28.809,-26.855,-25.391,0.000,0
160383.685,-18.066,-34.668,-50.781,-33.203,0.000,0
160383.689,-23.438,-28.809,-41.504,-31.250,0.000,0
160383.693,-27.344,-23.438,-7.812,-28.320,0.000,0
160383.697,-26.367,-27.832,-18.555,-34.668,0.000,0
160383.701,-31.250,-29.297,-37.109,-39.551,0.000,0
160383.705,-37.109,-31.738,-26.855,-32.227,0.000,0
160383.709,-31.250,-36.133,-29.297,-16.602,0.000,0
160383.713,-23.926,-31.738,-30.273,-26.855,0.000,0
160383.717,-31.250,-25.391,-23.438,-37.109,0.000,0
160383.721,-35.645,-26.367,-30.273,-33.203,0.000,0
160383.724,-30.762,-30.273,-37.109,-33.691,0.000,0
160383.728,-30.762,-32.715,-47.363,-44.922,0.000,0
160383.732,-26.367,-36.133,-35.645,-53.711,0.000,0
160383.736,-14.160,-37.109,-15.137,-42.480,0.000,0
160383.740,-20.020,-36.133,-30.762,-36.133,0.000,0
160383.744,-32.227,-39.551,-48.340,-41.992,0.000,0
160383.748,-24.902,-36.621,-35.156,-33.691,0.000,0
160383.752,-32.227,-27.832,-21.484,-17.090,0.000,0
160383.756,-40.039,-29.297,-30.762,-25.391,0.000,0
160383.760,-37.598,-35.156,-44.434,-37.109,0.000,0
160383.763,-37.598,-37.109,-39.551,-33.691,0.000,0
160383.767,-39.062,-36.621,-30.273,-33.203,0.000,0
160383.771,-29.785,-34.668,-34.668,-36.133,0.000,0
160383.775,-24.902,-35.156,-30.273,-40.527,0.000,0
160383.779,-24.902,-31.738,-26.855,-55.176,0.000,0
160383.783,-28.809,-35.645,-20.996,-54.199,0.000,0
160383.787,-36.621,-40.527,-37.598,-41.992,0.000,0
160383.791,-31.738,-34.180,-38.086,-44.434,0.000,0
160383.795,-32.715,-33.203,-14.160,-39.551,0.000,0
160383.799,-27.832,-38.086,-26.367,-19.531,0.000,0
160383.803,-15.625,-34.180,-33.691,-18.555,0.000,0
160383.806,-30.762,-30.762,-33.691,-25.879,0.000,0
160383.810,-36.621,-33.203,-31.250,-30.273,0.000,0
160383.814,-26.367,-30.762,-12.207,-37.109,0.000,0
160383.818,-21.973,-21.973,-15.137,-33.203,0.000,0
160383.822,-29.785,-27.832,-39.062,-28.320,0.000,0
160383.826,-35.156,-36.133,-37.598,-31.738,0.000,0
160383.830,-41.504,-29.297,-13.184,-38.086,0.000,0
160383.834,-32.715,-29.297,-13.184,-37.598,0.000,0
160383.838,-25.391,-29.785,-31.250,-30.762,0.000,0
160383.842,-28.320,-28.809,-38.574,-43.457,0.000,0
160383.846,-27.344,-31.250,-28.320,-46.387,0.000,0
160383.849,-25.391,-29.785,-32.715,-29.297,0.000,0
160383.853,-22.461,-28.320,-33.203,-23.438,0.000,0
160383.857,-23.926,-28.320,-28.809,-22.461,0.000,0
160383.861,-23.926,-22.461,-29.297,-13.672,0.000,0
160383.865,-17.578,-22.949,-27.344,-19.043,0.000,0
160383.869,-13.672,-27.344,-24.902,-27.832,0.000,0
160383.873,-20.020,-32.715,-9.766,-41.016,0.000,0
160383.877,-34.180,-37.598,-21.484,-34.180,0.000,0
160383.881,-29.297,-33.691,-38.574,-32.227,0.000,0
160383.885,-24.902,-27.344,-29.785,-26.855,0.000,0
160383.888,-32.227,-35.156,-34.180,-16.602,0.000,0
160383.892,-24.902,-40.039,-23.438,-29.785,0.000,0
160383.896,-23.926,-29.297,-24.414,-25.391,0.000,0
160383.900,-27.344,-32.227,-51.758,-13.184,0.000,0
160383.904,-17.578,-35.156,-42.480,-18.066,0.000,0
160383.908,-13.184,-33.203,-31.250,-15.625,0.000,0
160383.912,-35.645,-39.551,-34.180,-31.250,0.000,0
160383.916,-30.273,-39.062,-29.785,-36.621,0.000,0
160383.920,-26.855,-30.273,-27.344,-19.531,0.000,0
160383.924,-38.086,-32.227,-43.457,-22.949,0.000,0
160383.928,-26.367,-36.621,-45.410,-27.344,0.000,0
160383.931,-27.832,-39.551,-22.949,-38.086,0.000,0
160383.935,-23.926,-40.039,-27.832,-36.621,0.000,0
160383.939,-14.160,-38.086,-45.410,-20.996,0.000,0
160383.943,-28.809,-33.203,-39.551,-27.832,0.000,0
160383.947,-28.320,-27.832,-24.902,-24.414,0.000,0
160383.951,-10.742,-24.902,-16.602,-21.484,0.000,0
160383.955,-27.344,-25.879,-29.785,-19.531,0.000,0
160383.959,-25.391,-31.738,-35.645,-12.207,0.000,0
160383.963,-18.066,-39.062,-22.461,-12.207,0.000,0
160383.967,-23.438,-31.250,-28.809,-9.766,0.000,0
160383.971,-16.602,-27.832,-35.156,-20.508,0.000,0
160383.974,-22.949,-33.203,-30.273,-19.043,0.000,0
160383.978,-29.785,-33.691,-34.668,-14.648,0.000,0
160383.982,-28.320,-33.691,-37.109,-22.949,0.000,0
160383.986,-21.973,-34.668,-40.527,-15.137,0.000,0
160383.990,-16.602,-29.297,-28.320,-16.602,0.000,0
160383.994,-27.344,-33.691,-21.484,-36.621,0.000,0
160383.998,-29.297,-32.715,-28.320,-28.320,0.000,0
160384.002,-20.996,-24.414,-30.273,-18.066,0.000,0
160384.006,-29.297,-24.414,-28.809,-16.113,0.000,0
160384.010,-29.785,-20.996,-4.395,-16.602,0.000,0
160384.013,-13.672,-27.344,-14.648,-27.832,0.000,0
160384.017,-20.996,-31.738,-37.598,-20.508,0.000,0
160384.021,-25.879,-35.156,-36.621,-29.297,0.000,0
160384.025,-28.809,-27.832,-30.762,-32.227,0.000,0
160384.029,-24.902,-24.414,-24.414,-27.832,0.000,0
160384.033,-28.809,-30.273,-22.949,-34.180,0.000,0
160384.037,-32.715,-27.344,-25.879,-17.578,0.000,0
160384.041,-18.066,-23.926,-25.879,-14.160,0.000,0
160384.045,-20.508,-25.391,-29.297,-24.414,0.000,0
160384.049,-34.180,-28.320,-23.438,-24.414,0.000,0
160384.053,-34.668,-25.391,-6.348,-41.992,0.000,0
160384.056,-41.016,-30.762,-23.438,-44.434,0.000,0
160384.060,-32.227,-36.621,-39.062,-35.156,0.000,0
160384.064,-23.438,-32.227,-31.738,-33.203,0.000,0
160384.068,-28.809,-24.414,-15.625,-27.344,0.000,0
160384.072,-27.344,-23.438,-19.043,-20.508,0.000,0
160384.076,-33.203,-29.297,-50.293,-22.949,0.000,0
160384.080,-36.621,-32.227,-51.270,-31.738,0.000,0
160384.084,-41.992,-29.297,-30.273,-20.996,0.000,0
160384.088,-40.527,-28.809,-24.414,-25.391,0.000,0
160384.092,-31.738,-27.344,-21.973,-30.762,0.000,0
160384.096,-37.109,-28.320,-26.367,-31.738,0.000,0
160384.099,-41.504,-29.297,-23.438,-33.691,0.000,0
160384.103,-34.668,-26.855,-33.203,-26.855,0.000,0
160384.107,-22.461,-27.832,-41.504,-29.297,0.000,0
160384.111,-21.484,-27.344,-18.066,-34.668,0.000,0
160384.115,-31.738,-26.367,-10.254,-26.367,0.000,0
160384.119,-27.344,-24.414,-34.668,-26.855,0.000,0
160384.123,-19.531,-20.996,-39.551,-24.902,0.000,0
160384.127,-22.949,-27.344,-26.855,-28.320,0.000,0
160384.131,-21.973,-32.715,-18.066,-40.527,0.000,0
160384.135,-36.133,-27.832,-28.320,-37.598,0.000,0
160384.138,-41.504,-27.832,-45.410,-39.062,0.000,0
160384.142,-36.133,-29.785,-31.738,-28.809,0.000,0
160384.146,-36.621,-27.344,-11.230,-25.391,0.000,0
160384.150,-33.203,-26.855,-39.062,-25.879,0.000,0
160384.154,-28.809,-29.297,-42.969,-18.066,0.000,0
160384.158,-30.762,-31.738,-18.555,-21.484,0.000,0
160384.162,-31.250,-33.203,-31.738,-15.137,0.000,0
160384.166,-34.180,-26.855,-28.809,-25.391,0.000,0
160384.170,-30.762,-22.461,-25.879,-41.016,0.000,0
160384.174,-20.996,-26.367,-32.715,-27.832,0.000,0
160384.178,-31.738,-29.785,-35.156,-18.066,0.000,0
160384.181,-40.527,-35.645,-35.156,-18.555,0.000,0
160384.185,-33.203,-32.715,-15.137,-24.902,0.000,0
160384.189,-9.766,-27.832,-9.766,-33.691,0.000,0
160384.193,-11.719,-35.645,-28.320,-42.480,0.000,0
160384.197,-34.668,-34.668,-29.297,-42.969,0.000,0
160384.201,-34.180,-32.227,-28.320,-26.367,0.000,0
160384.205,-36.621,-31.250,-27.832,-35.156,0.000,0
160384.209,-35.645,-29.297,-28.809,-47.363,0.000,0
160384.213,-21.484,-36.621,-32.227,-24.902,0.000,0
160384.217,-21.484,-39.062,-29.785,-20.020,0.000,0
160384.221,-27.344,-29.297,-32.715,-24.414,0.000,0
160384.224,-23.926,-32.227,-29.785,-27.344,0.000,0
160384.228,-24.414,-30.762,-14.160,-45.898,0.000,0
160384.232,-34.668,-27.344,-24.414,-46.875,0.000,0
160384.236,-44.922,-30.762,-40.527,-39.551,0.000,0
160384.240,-44.434,-32.715,-39.551,-20.020,0.000,0
160384.244,-40.527,-40.039,-27.832,-25.391,0.000,0
160384.248,-37.109,-41.504,-12.207,-40.039,0.000,0
160384.252,-28.320,-37.109,-40.527,-20.020,0.000,0
160384.256,-28.320,-35.156,-48.828,-26.367,0.000,1
160384.260,-38.574,-29.297,-15.137,-34.668,0.000,0
160384.263,-34.180,-26.367,-2.441,-29.785,0.000,0
160384.267,-26.367,-25.879,-11.230,-36.621,0.000,0
160384.271,-28.809,-23.438,-31.738,-34.180,0.000,0
160384.275,-26.855,-24.902,-32.227,-25.391,0.000,0
160384.279,-22.949,-31.250,-29.785,-10.254,0.000,0
160384.283,-26.855,-32.715,-32.227,-10.742,0.000,0
160384.287,-24.902,-27.344,-23.926,-25.879,0.000,0
160384.291,-30.273,-29.297,-21.973,-10.742,0.000,0
160384.295,-31.250,-36.621,-29.785,-4.883,0.000,0
160384.299,-20.996,-36.621,-41.992,-33.691,0.000,0
160384.303,-30.762,-37.598,-42.480,-45.410,0.000,0
160384.306,-44.434,-38.086,-27.832,-49.316,0.000,0
160384.310,-35.645,-33.203,-31.250,-56.641,0.000,0
160384.314,-24.414,-36.133,-46.387,-45.410,0.000,0
160384.318,-27.832,-37.598,-44.434,-26.367,0.000,0
160384.322,-32.715,-31.250,-24.414,-31.738,0.000,0
160384.326,-23.926,-30.273,-20.020,-33.203,0.000,0
160384.330,-17.578,-36.621,-40.039,-29.785,0.000,0
160384.334,-24.902,-29.785,-39.062,-31.738,0.000,0
160384.338,-39.062,-22.461,-28.809,-25.879,0.000,0
160384.342,-48.828,-27.832,-32.715,-25.879,0.000,0
160384.346,-39.551,-28.320,-30.273,-30.273,0.000,0
160384.349,-29.785,-20.508,-20.020,-29.297,0.000,0
160384.353,-43.945,-22.949,-30.273,-25.879,0.000,0
160384.357,-34.180,-26.367,-42.969,-16.602,0.000,0
160384.361,-33.203,-26.367,-34.668,-15.137,0.000,0
160384.365,-44.434,-26.855,-26.855,-23.926,0.000,0
160384.369,-31.738,-33.203,-25.879,-42.480,0.000,0
160384.373,-27.832,-36.133,-35.645,-44.922,0.000,0
160384.377,-17.090,-25.879,-44.434,-15.137,0.000,0
160384.381,-10.742,-21.973,-24.902,1.953,0.000,0
160384.385,-23.926,-26.367,-27.832,-20.508,0.000,0
160384.388,-27.344,-27.344,-47.852,-43.945,0.000,0
160384.392,-26.367,-25.879,-40.527,-29.297,0.000,0
160384.396,-24.902,-26.855,-27.344,-22.949,0.000,0
160384.400,-28.809,-28.320,-27.832,-22.949,0.000,0
160384.404,-23.438,-26.367,-23.438,-27.344,0.000,0
160384.408,-23.926,-29.785,-20.508,-27.344,0.000,0
160384.412,-32.227,-30.762,-23.438,-22.949,0.000,0
160384.416,-28.809,-24.414,-30.762,-28.809,0.000,0
160384.420,-25.879,-25.391,-40.039,-25.391,0.000,0
160384.424,-21.484,-27.832,-21.484,-28.809,0.000,0
160384.428,-22.949,-26.855,-16.113,-31.738,0.000,0
160384.431,-26.855,-22.461,-31.250,-16.602,0.000,0
160384.435,-20.020,-20.996,-41.992,-17.090,0.000,0
160384.439,-20.508,-25.879,-36.133,-18.555,0.000,0
160384.443,-25.391,-27.832,-12.207,-24.414,0.000,0
160384.447,-16.602,-20.020,-22.461,-38.086,0.000,0
160384.451,-13.672,-19.531,-30.762,-32.715,0.000,0
160384.455,-13.184,-26.855,-27.832,-15.625,0.000,0
160384.459,-23.438,-35.156,-37.598,-12.695,0.000,0
160384.463,-40.039,-35.645,-32.227,-48.828,0.000,0
160384.467,-35.156,-33.691,-29.297,-42.480,0.000,0
160384.471,-24.414,-28.320,-31.738,-19.043,0.000,0
160384.474,-29.785,-24.414,-21.973,-41.992,0.000,0
160384.478,-30.273,-26.367,-25.391,-43.945,0.000,0
160384.482,-29.785,-24.902,-25.391,-39.551,0.000,0
160384.486,-24.414,-20.508,-16.113,-32.715,0.000,0
160384.490,-18.555,-27.832,-29.297,-16.602,0.000,0
160384.494,-22.461,-30.273,-35.645,-13.184,0.000,0
160384.498,-27.832,-25.391,-25.391,-24.414,0.000,0
160384.502,-28.320,-25.879,-17.578,-30.762,0.000,0
160384.506,-28.320,-24.902,-31.738,-15.625,0.000,0
160384.510,-24.414,-28.809,-31.738,-18.555,0.000,0
160384.513,-15.137,-32.227,-15.625,-24.902,0.000,0
160384.517,-15.625,-31.738,-22.949,-28.320,0.000,0
160384.521,-13.672,-35.156,-29.297,-35.156,0.000,0
160384.525,-21.973,-31.738,-20.508,-28.809,0.000,0
160384.529,-26.855,-27.344,-23.438,-16.113,0.000,0
160384.533,-24.414,-30.762,-44.922,-26.855,0.000,0
160384.537,-35.156,-39.551,-37.598,-52.246,0.000,0
160384.541,-24.414,-35.156,-18.555,-41.016,0.000,0
160384.545,-20.020,-32.227,-29.785,-17.090,0.000,0
160384.549,-22.949,-36.621,-37.109,-12.207,0.000,0
160384.553,-22.461,-36.133,-43.457,-8.301,0.000,0
160384.556,-26.367,-40.039,-29.785,-32.715,0.000,0
160384.560,-25.879,-38.086,-23.926,-51.758,0.000,0
160384.564,-26.855,-31.738,-41.504,-29.297,0.000,0
160384.568,-25.391,-28.809,-40.039,-20.996,0.000,0
160384.572,-15.625,-29.785,-12.695,-30.273,0.000,0
160384.576,-10.254,-32.715,-3.906,-32.715,0.000,0
160384.580,-16.602,-26.367,-28.809,-25.879,0.000,0
160384.584,-27.832,-22.949,-34.668,-27.832,0.000,0
160384.588,-25.879,-26.855,-28.320,-27.344,0.000,0
160384.592,-16.113,-26.855,-35.156,-12.207,0.000,0
160384.596,-20.996,-23.926,-31.738,-15.625,0.000,0
160384.599,-8.301,-21.973,-16.113,-14.160,0.000,0
160384.603,10.742,-19.531,-22.949,7.812,0.000,0
160384.607,1.465,-14.648,-25.879,10.742,0.000,0
160384.611,-8.789,-19.043,-23.438,-6.348,0.000,0
160384.615,-22.949,-25.391,-24.414,-15.625,0.000,0
160384.619,-27.832,-24.414,-19.043,-25.391,0.000,0
160384.623,-24.414,-26.367,-26.367,-37.109,0.000,0
160384.627,-39.551,-32.715,-32.715,-41.016,0.000,0
160384.631,-34.668,-32.227,-36.133,-20.996,0.000,0
160384.635,-16.602,-26.855,-32.715,-12.695,0.000,0
160384.638,-21.973,-23.438,-23.926,-33.203,0.000,0
160384.642,-30.273,-26.855,-38.574,-38.086,0.000,0
160384.646,-26.855,-29.297,-39.062,-25.879,0.000,0
160384.650,-22.461,-30.762,-33.691,-25.879,0.000,0
160384.654,-27.344,-35.645,-35.156,-41.016,0.000,0
160384.658,-26.855,-27.832,-23.926,-39.551,0.000,0
160384.662,-28.320,-26.367,-29.297,-39.551,0.000,0
160384.666,-34.180,-29.785,-43.457,-24.414,0.000,0
160384.670,-29.785,-29.297,-51.758,-8.789,0.000,0
160384.674,-28.809,-30.273,-36.621,-31.250,0.000,0
160384.678,-24.414,-28.320,-2.930,-37.598,0.000,0
160384.681,-24.414,-29.297,-19.531,-31.250,0.000,0
160384.685,-35.156,-30.762,-35.156,-40.527,0.000,0
160384.689,-29.785,-32.227,-24.414,-27.344,0.000,0
160384.693,-22.949,-37.109,-24.414,-6.348,0.000,0
160384.697,-35.645,-38.086,-25.879,-25.391,0.000,0
160384.701,-25.391,-33.203,-26.855,-28.320,0.000,0
160384.705,-16.602,-32.227,-30.762,-3.418,0.000,0
160384.709,-22.949,-35.156,-27.344,-5.371,0.000,0
160384.713,-28.809,-33.203,-38.086,-19.043,0.000,0
160384.717,-30.273,-33.203,-43.457,-29.297,0.000,0
160384.721,-27.832,-31.738,-16.113,-30.762,0.000,0
160384.724,-24.902,-23.438,-11.230,-19.531,0.000,0
160384.728,-31.738,-28.320,-17.090,-31.250,0.000,0
160384.732,-34.668,-28.320,-25.391,-18.066,0.000,0
160384.736,-27.344,-26.855,-26.367,1.953,0.000,0
160384.740,-24.902,-26.855,-17.578,-12.695,0.000,0
160384.744,-23.438,-20.020,-26.855,-23.926,0.000,0
160384.748,-22.461,-20.996,-26.855,-31.738,0.000,0
160384.752,-28.809,-20.996,-14.648,-20.996,0.000,0
160384.756,-19.043,-16.602,2.930,-15.625,0.000,0
160384.760,-1.953,-17.090,-8.301,-28.320,0.000,0
160384.763,-22.949,-23.438,-30.762,-39.062,0.000,0
160384.767,-35.156,-28.809,-12.207,-30.762,0.000,0
160384.771,-31.250,-25.391,-9.766,-19.531,0.000,0
160384.775,-21.484,-18.555,-18.066,-27.344,0.000,0
160384.779,-18.555,-19.531,-12.695,-25.879,0.000,0
160384.783,-29.297,-23.926,-22.461,-14.160,0.000,0
160384.787,-34.668,-25.391,-34.180,-11.719,0.000,0
160384.791,-24.414,-26.855,-24.414,-15.625,0.000,0
160384.795,-19.531,-29.785,-10.254,-24.902,0.000,0
160384.799,-20.996,-30.762,-19.043,-35.156,0.000,0
160384.803,-20.508,-31.250,-25.391,-34.180,0.000,0
160384.806,-28.320,-31.250,-38.574,-28.809,0.000,0
160384.810,-37.109,-26.367,-36.621,-21.484,0.000,0
160384.814,-30.273,-20.996,-3.906,-24.414,0.000,0
160384.818,-20.996,-24.902,-23.438,-26.855,0.000,0
160384.822,-31.738,-30.273,-39.062,-32.715,0.000,0
160384.826,-34.180,-32.227,-23.438,-43.945,0.000,0
160384.830,-41.016,-35.645,-32.715,-39.062,0.000,0
160384.834,-44.434,-36.621,-34.180,-56.152,0.000,0
160384.838,-37.109,-32.715,-28.809,-67.871,0.000,0
160384.842,-37.109,-31.250,-36.621,-57.129,0.000,0
160384.846,-39.551,-30.762,-39.551,-55.176,0.000,0
160384.849,-49.316,-35.156,-47.852,-46.875,0.000,0
160384.853,-41.992,-40.039,-37.598,-47.852,0.000,0
160384.857,-28.320,-33.203,-13.184,-42.480,0.000,0
160384.861,-26.855,-24.902,-26.367,-30.273,0.000,0
160384.865,-33.203,-28.320,-45.898,-52.246,0.000,0
160384.869,-33.691,-32.227,-40.527,-43.457,0.000,0
160384.873,-39.551,-33.691,-25.391,-41.992,0.000,0
160384.877,-43.457,-33.691,-28.809,-58.594,0.000,0
160384.881,-38.086,-33.691,-39.551,-51.270,0.000,0
160384.885,-36.133,-31.250,-25.879,-39.062,0.000,0
160384.888,-39.062,-20.996,-30.273,-22.949,0.000,0
160384.892,-41.992,-23.926,-33.203,-27.832,0.000,0
160384.896,-45.410,-33.691,-31.250,-49.805,0.000,0
160384.900,-46.387,-38.086,-34.180,-49.316,0.000,0
160384.904,-34.180,-36.133,-29.785,-41.016,0.000,0
160384.908,-31.738,-41.504,-42.480,-29.785,0.000,0
160384.912,-35.645,-41.016,-37.598,-33.691,0.000,0
160384.916,-25.879,-38.086,-19.043,-51.270,0.000,0
160384.920,-31.738,-33.203,-32.227,-36.621,0.000,0
160384.924,-36.621,-25.879,-35.156,-26.367,0.000,0
160384.928,-35.645,-31.738,-37.598,-25.391,0.000,0
160384.931,-36.621,-31.738,-33.691,-31.250,0.000,0
160384.935,-33.203,-30.762,-27.344,-49.805,0.000,0
160384.939,-24.414,-31.738,-30.273,-36.621,0.000,0
160384.943,-25.879,-39.062,-35.156,-13.672,0.000,0
160384.947,-52.734,-31.738,-35.645,-32.227,0.000,0
160384.951,-53.711,-26.855,-27.344,-41.016,0.000,0
160384.955,-40.039,-30.273,-24.902,-36.133,0.000,0
160384.959,-40.039,-28.809,-31.250,-30.762,0.000,0
160384.963,-37.598,-28.809,-38.574,-26.855,0.000,0
160384.967,-41.992,-23.926,-40.039,-44.922,0.000,0
160384.971,-46.387,-22.461,-32.715,-51.270,0.000,0
160384.974,-37.109,-23.926,-20.996,-50.781,0.000,1
160384.978,-29.785,-25.391,-26.367,-41.016,0.000,0
160384.982,-34.668,-29.297,-32.715,-29.785,0.000,0
160384.986,-23.926,-31.250,-29.785,-24.414,0.000,0
160384.990,-14.160,-29.785,-30.762,-9.277,0.000,0
160384.994,-16.113,-24.902,-26.367,-11.230,0.000,0
160384.998,-12.695,-22.461,-39.062,-14.648,0.000,0
160385.002,-20.508,-25.879,-38.086,-18.555,0.000,0
160385.006,-27.344,-22.461,-16.602,-29.297,0.000,0
160385.010,-24.902,-22.949,-19.043,-24.414,0.000,0
160385.013,-29.785,-29.785,-27.344,-35.156,0.000,0
160385.017,-24.902,-29.785,-30.273,-42.480,0.000,0
160385.021,-19.043,-32.715,-34.180,-27.832,0.000,0
160385.025,-17.578,-37.109,-32.715,-27.344,0.000,0
160385.029,-13.672,-33.691,-30.273,-25.879,0.000,0
160385.033,-15.625,-34.180,-25.391,-42.480,0.000,0
160385.037,-17.090,-32.715,-21.484,-46.875,0.000,0
160385.041,-10.254,-25.879,-20.996,-34.668,0.000,0
160385.045,-16.113,-25.879,-32.227,-29.785,0.000,0
160385.049,-16.113,-24.902,-35.645,-21.484,0.000,0
160385.053,-9.277,-25.879,-23.438,-30.273,0.000,0
160385.056,-22.461,-26.367,-23.926,-31.250,0.000,0
160385.060,-24.414,-29.297,-35.645,-32.715,0.000,0
160385.064,-17.090,-33.203,-40.039,-26.855,0.000,0
160385.068,-23.926,-36.133,-34.180,-20.996,0.000,0
160385.072,-36.621,-39.062,-23.438,-51.270,0.000,0
160385.076,-36.133,-37.598,-28.809,-56.641,0.000,0
160385.080,-33.691,-32.715,-37.109,-50.781,0.000,0
160385.084,-25.391,-26.855,-35.156,-39.551,0.000,0
160385.088,-29.297,-24.902,-34.668,-10.742,0.000,0
160385.092,-37.109,-29.785,-38.086,-38.574,0.000,0
160385.096,-33.691,-26.855,-30.273,-45.410,0.000,0
160385.099,-41.504,-22.949,-21.484,-19.531,0.000,0
160385.103,-29.785,-27.832,-33.691,-21.484,0.000,0
160385.107,-9.277,-25.879,-25.879,-14.648,0.000,0
160385.111,-23.926,-27.344,-8.789,-22.461,0.000,0
160385.115,-34.668,-31.738,-21.484,-35.645,0.000,0
160385.119,-29.297,-32.715,-41.016,-41.504,0.000,0
160385.123,-25.879,-33.203,-37.109,-25.879,0.000,0
160385.127,-20.020,-35.645,-25.879,-10.742,0.000,0
160385.131,-25.879,-34.180,-16.113,-29.297,0.000,0
160385.135,-23.438,-34.668,-30.762,-23.438,0.000,0
160385.138,-43.457,-36.133,-30.762,-17.090,0.000,0
160385.142,-51.758,-31.250,-24.902,-20.020,0.000,0
160385.146,-31.250,-28.320,-30.762,-29.785,0.000,0
160385.150,-31.250,-29.785,-25.391,-35.645,0.000,0
160385.154,-20.996,-33.691,-26.855,-19.531,0.000,0
160385.158,-13.672,-27.344,-25.879,-4.395,0.000,0
160385.162,-20.020,-23.438,-35.156,-9.277,0.000,0
160385.166,-21.973,-27.344,-32.227,-23.438,0.000,0
160385.170,-24.902,-26.855,-7.324,-26.367,0.000,0
160385.174,-30.762,-25.391,-22.461,-13.672,0.000,0
160385.178,-42.480,-29.785,-30.762,-18.555,0.000,0
160385.181,-42.969,-32.715,-32.227,-12.695,0.000,0
160385.185,-33.203,-30.762,-23.926,-10.742,0.000,0
160385.189,-21.484,-25.391,-9.277,-29.297,0.000,0
160385.193,-29.297,-28.320,-38.574,-31.738,0.000,0
160385.197,-29.297,-33.691,-46.387,-23.438,0.000,0
160385.201,-15.625,-30.762,-35.645,-17.090,0.000,0
160385.205,-22.461,-32.227,-35.645,-13.672,0.000,0
160385.209,-34.180,-32.227,-22.461,-28.809,0.000,0
160385.213,-27.344,-29.785,-35.156,-36.133,0.000,0
160385.217,-31.250,-31.738,-45.898,-27.832,0.000,0
160385.221,-29.297,-33.203,-40.039,-24.414,0.000,0
160385.224,-38.086,-28.809,-37.598,-23.438,0.000,0
160385.228,-34.668,-24.902,-30.273,-16.113,0.000,0
160385.232,-23.438,-26.855,-20.996,-5.859,0.000,0
160385.236,-28.809,-28.320,-36.133,-13.672,0.000,0
160385.240,-20.996,-34.180,-45.410,-22.461,0.000,0
160385.244,-22.461,-36.133,-44.922,-29.785,0.000,0
160385.248,-39.062,-41.016,-34.668,-39.551,0.000,0
160385.252,-36.621,-42.969,-33.691,-31.738,0.000,0
160385.256,-28.320,-36.621,-47.852,-31.738,0.000,0
160385.260,-29.297,-38.086,-46.875,-27.344,0.000,0
160385.263,-27.832,-39.062,-45.898,-16.113,0.000,0
160385.267,-24.902,-30.762,-33.691,-27.832,0.000,0
160385.271,-28.320,-27.832,-29.297,-21.484,0.000,0
160385.275,-23.438,-26.855,-31.738,-11.230,0.000,0
160385.279,-17.578,-25.879,-38.086,-17.578,0.000,0
160385.283,-26.855,-26.855,-49.316,-19.043,0.000,0
160385.287,-26.367,-31.250,-21.973,-25.879,0.000,0
160385.291,-23.926,-37.598,-14.648,-31.250,0.000,0
160385.295,-20.996,-28.320,-37.598,-21.973,0.000,0
160385.299,-22.461,-26.855,-35.156,-17.578,0.000,0
160385.303,-33.203,-32.715,-19.043,-29.785,0.000,0
160385.306,-24.414,-24.414,-27.344,-28.320,0.000,0
160385.310,-22.461,-19.043,-42.969,-27.832,0.000,0
160385.314,-29.297,-25.391,-42.480,-25.391,0.000,0
160385.318,-35.645,-28.809,-19.531,-20.996,0.000,0
160385.322,-30.273,-29.785,-15.137,-29.785,0.000,0
160385.326,-26.367,-33.203,-24.902,-39.062,0.000,0
160385.330,-27.832,-37.598,-37.109,-36.133,0.000,0
160385.334,-21.973,-37.598,-33.203,-20.996,0.000,0
160385.338,-31.250,-32.227,-29.785,-20.508,0.000,0
160385.342,-26.367,-35.645,-38.574,-26.855,0.000,0
160385.346,-25.391,-37.109,-33.691,-28.809,0.000,0
160385.349,-38.574,-32.715,-35.156,-17.090,0.000,0
160385.353,-29.785,-32.227,-38.574,-11.230,0.000,0
160385.357,-21.484,-29.297,-33.203,-12.695,0.000,0
160385.361,-26.367,-27.832,-32.227,-14.160,0.000,0
160385.365,-20.508,-29.297,-26.855,-33.691,0.000,0
160385.369,-18.066,-31.250,-30.273,-34.180,0.000,0
160385.373,-22.461,-34.180,-36.621,-22.461,0.000,0
160385.377,-22.461,-34.180,-30.762,-26.855,0.000,0
160385.381,-28.320,-34.668,-31.738,-33.203,0.000,0
160385.385,-31.738,-36.133,-38.574,-40.039,0.000,0
160385.388,-32.227,-36.133,-26.855,-45.898,0.000,0
160385.392,-29.297,-31.738,-26.855,-46.387,0.000,0
160385.396,-20.508,-25.879,-41.504,-37.598,0.000,0
160385.400,-16.602,-27.344,-41.016,-23.926,0.000,0
160385.404,-26.367,-31.738,-31.738,-33.691,0.000,0
160385.408,-31.250,-25.879,-28.809,-29.297,0.000,0
160385.412,-28.809,-20.996,-28.320,-9.766,0.000,0
160385.416,-21.973,-24.902,-36.133,-20.020,0.000,0
160385.420,-16.113,-29.785,-44.434,-24.414,0.000,0
160385.424,-18.066,-29.785,-9.766,-23.926,0.000,0
160385.428,-21.973,-20.508,-14.648,-26.367,0.000,0
160385.431,-19.043,-21.973,-43.457,-22.461,0.000,0
160385.435,1.465,-23.926,-26.855,-14.648,0.000,0
160385.439,0.977,-16.602,-15.137,3.418,0.000,0
160385.443,-27.344,-24.414,-18.066,-10.742,0.000,0
160385.447,-27.832,-28.809,-32.227,-27.344,0.000,0
160385.451,-21.973,-22.461,-34.180,-16.113,0.000,0
160385.455,-28.809,-26.367,-25.391,-20.996,0.000,0
160385.459,-34.668,-27.832,-26.367,-21.484,0.000,0
160385.463,-33.691,-25.391,-31.738,-27.832,0.000,0
160385.467,-30.273,-26.367,-24.902,-38.086,0.000,0
160385.471,-27.344,-25.391,-5.371,-26.855,0.000,0
160385.474,-19.531,-29.785,-23.926,-18.066,0.000,0
160385.478,-25.879,-32.715,-39.551,-21.973,0.000,0
160385.482,-34.180,-36.621,-15.137,-29.785,0.000,0
160385.486,-28.320,-39.551,-22.461,-31.738,0.000,0
160385.490,-28.809,-39.551,-40.527,-41.992,0.000,0
160385.494,-19.531,-38.086,-40.039,-30.762,0.000,0
160385.498,-20.996,-33.203,-39.062,-15.625,0.000,0
160385.502,-34.668,-37.109,-19.531,-36.133,0.000,0
160385.506,-26.367,-31.250,-19.043,-42.969,0.000,0
160385.510,-23.438,-24.902,-35.645,-40.039,0.000,0
160385.513,-24.414,-30.273,-27.344,-29.297,0.000,0
160385.517,-22.461,-25.879,-28.320,-19.043,0.000,0
160385.521,-23.926,-21.484,-25.879,-21.484,0.000,0
160385.525,-19.043,-26.367,-18.555,-20.020,0.000,0
160385.529,-16.602,-24.902,-31.738,-28.320,0.000,0
160385.533,-20.508,-23.438,-29.297,-38.574,0.000,0
160385.537,-14.160,-27.344,-37.109,-25.879,0.000,0
160385.541,-22.461,-36.133,-35.156,-20.020,0.000,0
160385.545,-36.133,-38.086,-21.484,-34.180,0.000,0
160385.549,-40.527,-33.691,-38.574,-31.250,0.000,0
160385.553,-33.203,-36.133,-40.039,-29.785,0.000,0
160385.556,-26.367,-27.832,-31.738,-28.809,0.000,0
160385.560,-37.109,-28.320,-18.555,-36.133,0.000,0
160385.564,-38.086,-31.738,-20.996,-45.898,0.000,0
160385.568,-40.527,-32.715,-28.320,-42.969,0.000,0
160385.572,-39.062,-37.109,-19.043,-39.551,0.000,0
160385.576,-32.715,-27.832,-32.227,-26.367,0.000,0
160385.580,-29.297,-26.855,-33.203,-36.621,0.000,0
160385.584,-23.438,-32.227,-22.461,-42.969,0.000,0
160385.588,-27.344,-29.297,-28.809,-29.297,0.000,0
160385.592,-33.691,-25.879,-21.484,-33.203,0.000,0
160385.596,-14.160,-26.855,-16.113,-38.574,0.000,0
160385.599,-28.320,-25.879,-22.949,-21.973,0.000,0
160385.603,-43.945,-23.438,-10.254,-21.484,0.000,0
160385.607,-27.344,-16.602,-17.090,-36.133,0.000,0
160385.611,-21.484,-13.184,-33.691,-32.715,0.000,0
160385.615,-22.949,-24.414,-34.668,-21.484,0.000,0
160385.619,-22.461,-25.879,-23.438,-24.902,0.000,0
160385.623,-12.695,-17.090,-13.672,-28.809,0.000,0
160385.627,-10.742,-12.207,-34.180,-18.555,0.000,0
160385.631,-22.949,-19.531,-42.969,-14.648,0.000,0
160385.635,-18.555,-18.555,-31.738,-11.230,0.000,0
160385.638,-5.371,-11.719,-28.320,-4.395,0.000,0
160385.642,-17.578,-16.602,-26.367,-22.461,0.000,0
160385.646,-41.016,-13.672,-20.508,-37.598,0.000,0
160385.650,-46.387,-8.301,-22.949,-33.203,0.000,1
160385.654,-19.043,-6.348,-45.410,-33.691,0.000,0
160385.658,-2.441,-1.953,-53.223,-22.461,0.000,0
160385.662,-20.020,6.348,-35.645,-13.184,0.000,0
160385.666,-24.414,6.836,-38.574,-1.953,0.000,0
160385.670,-31.250,7.324,-57.129,-9.766,0.000,0
160385.674,-40.527,17.090,-52.734,-22.461,0.000,0
160385.678,-35.156,21.484,-37.598,-21.973,0.000,0
160385.681,-36.621,20.020,-30.273,-26.367,0.000,0
160385.685,-27.344,18.066,-31.738,-29.785,0.000,0
160385.689,-23.438,19.531,-35.156,-18.555,0.000,0
160385.693,-39.551,17.090,-29.785,-24.902,0.000,0
160385.697,-47.852,10.254,-31.250,-43.945,0.000,0
160385.701,-28.809,17.090,-33.691,-38.574,0.000,0
160385.705,-23.438,20.996,-27.344,-32.227,0.000,0
160385.709,-47.363,12.695,-23.438,-33.203,0.000,0
160385.713,-44.922,1.953,-23.926,-35.645,0.000,0
160385.717,-39.062,-0.977,-31.738,-24.414,0.000,0
160385.721,-43.457,2.441,-20.508,-36.133,0.000,0
160385.724,-33.691,-4.395,-23.926,-30.273,0.000,0
160385.728,-32.715,-9.766,-33.691,-17.578,0.000,0
160385.732,-41.016,-14.648,-31.738,-25.391,0.000,0
160385.736,-25.879,-17.090,-25.879,-4.883,0.000,0
160385.740,-22.461,-18.555,-10.742,-21.484,0.000,0
160385.744,-30.273,-25.879,-17.090,-59.570,0.000,0
