timestamps,TP9,AF7,AF8,TP10,Right AUX,Marker0
216222.961,30.762,32.227,32.227,32.227,61.523,2
216222.965,34.668,31.738,17.090,42.969,46.387,0
216222.969,37.598,34.180,19.531,44.434,38.574,0
216222.973,45.898,35.645,37.109,37.598,24.902,0
216222.977,50.293,38.574,43.457,41.504,19.043,0
216222.981,42.969,36.621,38.574,43.457,4.395,0
216222.984,34.668,23.926,28.809,33.691,2.441,0
216222.988,34.180,29.785,24.902,26.855,3.906,0
216222.992,33.203,36.133,24.902,21.484,-15.137,0
216222.996,28.320,10.254,23.926,28.320,13.184,0
216223.000,34.668,12.695,31.250,40.527,42.969,0
216223.004,34.668,38.574,31.738,43.945,10.742,0
216223.008,32.227,42.480,31.250,45.898,16.113,0
216223.012,43.945,46.387,35.645,47.363,30.762,0
216223.016,43.945,49.805,32.227,50.293,29.297,0
216223.020,30.273,38.086,29.785,43.457,42.969,0
216223.024,24.414,22.949,24.414,34.668,33.203,0
216223.027,27.344,20.020,15.625,28.809,-6.348,0
216223.031,28.320,20.020,18.555,29.297,-34.668,0
216223.035,23.926,24.414,31.250,21.973,-41.992,0
216223.039,23.926,29.785,30.762,11.719,-19.043,0
216223.043,27.832,25.879,36.621,25.879,-4.395,0
216223.047,28.809,29.297,46.387,33.203,22.949,0
216223.051,25.879,39.551,39.062,33.203,62.012,0
216223.055,32.715,34.180,25.879,39.551,14.648,0
216223.059,36.621,33.691,27.344,34.668,30.762,0
216223.063,23.926,40.527,28.320,29.297,67.383,0
216223.067,27.344,38.086,39.062,36.133,58.105,0
216223.070,39.551,39.551,41.504,36.621,58.594,0
216223.074,34.668,40.527,27.344,23.926,61.523,0
216223.078,33.691,38.086,29.297,12.207,83.984,0
216223.082,30.762,32.227,20.508,12.207,61.035,0
216223.086,24.414,37.109,20.996,25.879,44.922,0
216223.090,28.809,35.645,37.598,31.738,87.402,0
216223.094,24.414,22.949,37.598,20.020,92.773,0
216223.098,18.555,24.902,41.992,21.484,74.219,0
216223.102,24.414,33.203,37.109,30.762,60.059,0
216223.106,27.832,33.203,23.438,30.762,43.457,0
216223.109,31.250,24.414,27.344,36.133,23.438,0
216223.113,35.156,19.043,32.715,41.504,38.086,0
216223.117,41.992,28.809,31.738,42.969,48.828,0
216223.121,39.062,32.715,28.320,43.945,15.137,0
216223.125,33.203,34.180,22.949,33.691,13.672,0
216223.129,32.715,42.480,29.297,24.414,14.160,0
216223.133,24.414,34.668,41.016,21.973,46.875,0
216223.137,22.949,32.227,23.438,17.090,40.039,0
216223.141,28.809,39.551,17.090,19.531,-15.625,0
216223.145,31.250,35.645,28.320,29.785,7.324,0
216223.149,32.715,24.902,28.320,29.785,34.180,0
216223.152,30.273,28.320,30.273,30.762,-6.836,0
216223.156,37.109,33.691,27.344,40.527,-24.902,0
216223.160,40.039,23.438,31.250,41.504,4.883,0
216223.164,28.320,22.949,37.598,34.668,12.207,0
216223.168,22.461,31.250,32.715,38.574,23.438,0
216223.172,22.949,28.809,23.438,37.109,28.320,0
216223.176,30.273,27.832,18.066,36.621,21.484,0
216223.180,30.273,32.227,18.555,31.738,52.734,0
216223.184,21.484,38.574,28.809,18.066,51.270,0
216223.188,17.090,33.691,36.133,10.742,71.777,0
216223.192,20.508,24.902,38.086,16.113,85.938,0
216223.195,26.367,28.320,31.250,20.508,63.477,0
216223.199,23.926,19.531,21.973,17.578,35.156,0
216223.203,30.273,12.207,23.438,24.902,13.184,0
216223.207,40.527,32.227,26.367,38.086,27.832,0
216223.211,31.250,46.875,31.738,39.551,41.504,0
216223.215,23.926,36.133,27.832,41.016,17.578,0
216223.219,25.879,29.785,25.879,45.898,1.465,0
216223.223,26.367,30.762,34.180,34.668,22.461,0
216223.227,24.902,27.832,41.016,19.043,43.945,0
216223.231,19.531,27.832,34.180,11.230,-3.906,0
216223.234,17.090,24.414,29.785,14.160,-18.066,0
216223.238,30.762,30.273,24.902,31.738,18.066,0
216223.242,36.133,20.020,10.742,37.598,-7.812,0
216223.246,26.855,12.695,20.508,25.879,-13.184,0
216223.250,19.531,28.320,35.645,22.949,11.230,0
216223.254,23.926,19.531,38.086,28.320,-5.371,0
216223.258,29.785,24.414,41.504,40.039,-1.465,0
216223.262,35.156,52.246,32.227,49.316,-25.391,0
216223.266,40.039,54.688,18.555,44.434,2.930,0
216223.270,32.227,35.645,23.438,36.133,23.438,0
216223.274,29.297,30.762,30.273,27.832,-15.625,0
216223.277,26.367,30.273,27.344,22.461,-31.250,0
216223.281,22.949,27.344,23.926,32.715,-33.203,0
216223.285,25.391,23.926,29.297,32.227,-3.418,0
216223.289,26.855,18.555,41.016,25.391,9.277,0
216223.293,29.297,21.484,44.922,25.391,5.371,0
216223.297,38.574,24.414,45.410,31.250,10.742,0
216223.301,44.922,22.949,45.410,41.504,32.227,0
216223.305,34.180,32.715,35.156,34.668,14.160,0
216223.309,21.973,35.645,32.227,20.508,5.371,0
216223.313,24.414,27.344,34.668,24.414,-9.766,0
216223.317,34.668,30.762,19.043,30.273,5.371,0
216223.320,34.668,32.227,19.043,30.273,38.086,0
216223.324,28.320,30.762,40.039,34.668,-12.695,0
216223.328,29.785,36.621,40.527,36.621,11.719,0
216223.332,27.344,33.691,38.574,30.273,11.719,0
216223.336,29.297,26.855,37.109,37.109,-21.484,0
216223.340,25.879,21.484,36.133,43.457,32.227,0
216223.344,17.578,24.902,32.715,31.738,44.434,0
216223.348,22.949,33.691,22.949,26.855,20.020,0
216223.352,30.762,37.598,21.973,36.133,8.301,0
216223.356,31.738,32.715,31.250,41.504,5.371,0
216223.359,32.715,17.090,29.785,40.527,46.875,0
216223.363,43.945,21.973,28.320,46.387,87.891,0
216223.367,31.738,37.598,35.645,30.273,60.547,0
216223.371,11.719,24.414,38.086,11.230,55.176,0
216223.375,25.879,19.531,34.180,25.391,56.641,0
216223.379,35.645,30.762,26.855,35.645,8.789,0
216223.383,31.738,28.320,22.461,23.926,16.602,0
216223.387,31.738,35.645,26.367,21.484,44.434,0
216223.391,23.438,38.086,29.297,21.973,46.387,0
216223.395,21.973,32.227,29.297,14.648,30.273,0
216223.399,30.762,30.762,27.344,17.578,41.504,0
216223.402,35.156,33.203,24.414,30.273,26.367,0
216223.406,31.738,33.203,30.762,39.062,26.367,0
216223.410,32.227,36.133,24.902,38.086,34.180,0
216223.414,34.180,41.016,20.996,41.016,0.000,0
216223.418,25.391,32.715,33.691,31.738,9.277,0
216223.422,25.879,26.855,36.621,25.391,28.809,0
216223.426,32.227,26.855,38.086,27.344,15.137,0
216223.430,32.715,22.949,36.133,17.090,35.645,0
216223.434,24.902,12.695,37.598,13.184,57.129,0
216223.438,30.273,20.020,39.551,23.926,28.320,0
216223.442,40.527,36.133,29.297,42.969,3.906,0
216223.445,32.715,41.016,23.926,35.645,21.484,0
216223.449,23.926,42.480,24.902,17.090,7.324,0
216223.453,27.344,39.551,26.367,22.949,-30.273,0
216223.457,30.762,33.691,27.832,22.461,-42.969,0
216223.461,33.203,32.715,39.062,21.973,-7.324,0
216223.465,38.574,27.832,42.969,32.227,11.230,0
216223.469,36.621,15.625,36.133,26.855,-5.371,0
216223.473,32.227,16.602,39.062,26.855,18.555,0
216223.477,30.762,27.832,42.480,42.480,16.113,0
216223.481,31.738,37.109,32.715,48.340,1.465,0
216223.484,37.109,35.645,33.691,46.387,13.672,0
216223.488,36.133,25.879,39.551,45.898,42.480,0
216223.492,27.832,18.066,35.645,39.062,77.148,0
216223.496,32.227,29.785,29.297,36.133,76.660,0
216223.500,35.645,29.297,24.414,38.574,24.414,2
216223.504,29.785,22.461,33.691,26.367,-10.742,0
216223.508,33.203,33.691,45.410,23.926,16.113,0
216223.512,34.668,27.832,42.480,28.809,67.871,0
216223.516,34.668,26.367,36.133,31.250,74.219,0
216223.520,41.504,41.992,36.133,37.598,34.180,0
216223.524,30.762,36.133,32.715,34.668,20.508,0
216223.527,29.785,27.344,15.625,38.086,2.930,0
216223.531,40.039,37.109,15.137,41.504,12.207,0
216223.535,34.668,32.227,30.273,28.320,35.645,0
216223.539,27.832,23.926,37.109,27.344,-4.883,0
216223.543,30.762,24.902,43.457,28.809,-57.129,0
216223.547,28.809,18.066,44.434,20.020,-44.922,0
216223.551,28.320,22.461,40.039,25.879,-23.438,0
216223.555,33.203,26.855,37.598,33.203,-5.371,0
216223.559,39.062,33.691,38.086,39.062,32.715,0
216223.563,45.410,43.945,37.598,46.387,51.758,0
216223.567,41.504,37.598,22.949,46.387,41.504,0
216223.570,33.691,27.832,21.484,41.992,33.203,0
216223.574,28.809,21.484,33.203,25.879,42.480,0
216223.578,25.391,27.344,39.551,26.367,23.926,0
216223.582,23.926,34.180,43.457,29.785,49.316,0
216223.586,37.598,31.250,35.645,30.762,86.914,0
216223.590,39.062,30.762,34.668,38.574,48.340,0
216223.594,23.926,26.367,39.062,22.949,13.672,0
216223.598,26.855,21.484,37.109,20.996,31.738,0
216223.602,32.227,27.832,33.203,30.273,17.578,0
216223.606,23.926,38.574,37.109,23.438,16.113,0
216223.609,20.508,38.086,36.621,20.996,21.973,0
216223.613,23.926,27.344,34.180,25.879,38.574,0
216223.617,24.414,22.949,34.668,22.949,66.406,0
216223.621,24.414,27.344,39.551,23.438,34.180,0
216223.625,19.043,30.273,38.086,24.414,24.414,0
216223.629,22.461,33.691,31.250,27.832,64.941,0
216223.633,32.227,34.180,43.945,40.527,28.320,0
216223.637,36.133,33.691,46.875,49.316,-4.395,0
216223.641,30.762,32.227,29.785,35.645,19.043,0
216223.645,26.855,28.320,24.414,25.391,40.527,0
216223.649,30.273,26.855,20.508,26.367,39.062,0
216223.652,33.203,21.484,27.832,18.555,-16.113,0
216223.656,34.668,26.855,43.457,20.508,5.371,0
216223.660,37.109,41.016,40.527,26.367,41.992,0
216223.664,35.156,44.922,34.180,27.832,40.039,0
216223.668,40.039,45.410,33.203,35.156,62.500,0
216223.672,45.410,41.504,35.156,39.551,62.988,0
216223.676,46.875,38.574,26.855,39.551,74.219,0
216223.680,45.410,34.668,10.742,34.668,90.332,0
216223.684,34.668,38.574,24.414,20.508,73.242,0
216223.688,23.438,43.457,39.551,0.488,69.824,0
216223.692,16.602,39.551,41.992,-5.859,64.453,0
216223.695,2.441,41.504,32.715,-10.742,35.156,0
216223.699,-4.395,44.922,23.438,-18.555,24.902,0
216223.703,0.000,47.852,25.879,-8.789,51.758,0
216223.707,-8.789,52.246,24.414,-6.836,58.594,0
216223.711,-23.438,43.945,24.902,-20.020,50.781,0
216223.715,-33.691,42.480,30.273,-35.156,25.391,0
216223.719,-26.855,57.617,23.926,-32.227,-11.719,0
216223.723,-41.016,52.734,22.949,-42.480,0.000,0
216223.727,-67.383,40.039,37.109,-74.219,16.113,0
216223.731,-71.289,47.852,44.922,-78.125,19.043,0
216223.734,-72.754,61.035,42.480,-79.590,46.875,0
216223.738,-73.242,66.406,31.250,-84.473,32.715,0
216223.742,-78.613,60.059,34.180,-86.426,0.488,0
216223.746,-94.238,57.617,32.715,-96.680,22.949,0
216223.750,-93.262,64.453,27.344,-83.496,33.691,0
216223.754,-92.285,53.223,33.691,-82.520,33.203,0
216223.758,-101.074,48.828,37.598,-103.516,32.715,0
216223.762,-100.098,56.641,34.668,-102.051,46.387,0
216223.766,-86.426,52.734,35.645,-78.125,29.297,0
216223.770,-86.426,48.828,41.992,-77.148,17.090,0
216223.774,-94.238,46.875,37.598,-93.262,43.457,0
216223.777,-83.984,49.805,22.461,-85.938,36.621,0
216223.781,-61.035,59.082,21.484,-57.129,49.316,0
216223.785,-41.016,64.453,31.738,-38.574,24.902,0
216223.789,-48.340,56.152,21.973,-46.875,-28.809,0
216223.793,-48.828,46.387,21.484,-40.527,5.859,0
216223.797,-28.809,42.969,22.949,-17.090,23.926,0
216223.801,-15.625,43.457,12.207,-0.488,15.625,0
216223.805,-11.719,39.551,18.555,1.953,22.461,0
216223.809,-1.953,30.762,29.297,11.719,16.113,0
216223.813,14.160,23.926,23.926,22.949,31.738,0
216223.817,26.855,31.738,19.531,18.555,55.664,0
216223.820,17.578,38.574,14.648,14.648,52.734,0
216223.824,18.066,40.039,15.625,23.926,40.527,0
216223.828,38.574,45.410,24.414,41.016,41.992,0
216223.832,38.574,41.992,29.297,42.480,27.344,0
216223.836,32.227,26.855,20.508,36.621,18.555,0
216223.840,41.504,20.508,13.672,41.504,30.762,0
216223.844,52.246,25.391,13.672,48.340,37.598,0
216223.848,53.223,21.484,16.113,55.176,2.441,0
216223.852,62.500,11.230,28.320,69.336,10.254,0
216223.856,75.684,12.207,32.227,71.777,70.801,0
216223.859,74.707,29.785,30.762,71.777,74.219,0
216223.863,76.172,33.203,23.438,73.242,49.316,0
216223.867,87.891,23.438,25.879,74.219,65.918,0
216223.871,94.727,26.367,39.062,85.449,71.289,0
216223.875,89.355,29.785,33.203,83.008,12.207,0
216223.879,84.961,28.809,25.391,82.031,-30.273,0
216223.883,88.379,19.531,26.855,86.914,12.695,0
216223.887,85.449,13.184,28.809,81.543,75.195,0
216223.891,82.520,8.301,32.227,83.984,63.477,0
216223.895,88.379,16.602,41.016,85.449,13.184,0
216223.899,87.402,22.949,31.250,91.309,41.504,0
216223.902,89.355,9.277,22.949,88.867,53.223,0
216223.906,88.867,5.859,25.879,74.219,57.129,0
216223.910,84.961,11.719,31.738,71.777,72.754,0
216223.914,84.473,17.090,37.598,73.730,77.637,0
216223.918,86.914,23.926,35.156,84.473,74.219,0
216223.922,86.914,22.949,33.691,83.496,8.301,0
216223.926,83.984,17.090,28.809,76.660,-34.180,0
216223.930,84.473,22.949,32.715,85.449,42.969,0
216223.934,83.984,24.414,46.875,83.008,69.336,0
216223.938,77.148,12.207,46.875,71.289,58.105,0
216223.942,72.754,13.672,39.551,72.754,94.238,0
216223.945,77.637,19.531,27.832,79.590,117.188,0
216223.949,79.102,14.648,28.320,73.730,91.309,0
216223.953,76.172,8.789,36.621,64.941,65.430,0
216223.957,73.242,14.648,31.738,67.383,54.199,0
216223.961,79.590,24.414,31.738,74.707,3.418,0
216223.965,77.637,18.066,35.156,73.730,-6.348,0
216223.969,62.500,14.648,33.203,71.289,23.438,0
216223.973,66.895,18.066,33.691,81.543,65.430,0
216223.977,70.801,20.020,33.203,76.660,83.008,0
216223.981,60.059,24.414,32.227,59.570,70.312,0
216223.984,62.500,23.926,34.180,59.082,67.871,0
216223.988,67.383,20.996,33.203,69.336,56.152,0
216223.992,61.523,20.020,34.668,72.754,49.316,0
216223.996,55.664,21.484,42.969,66.406,31.250,0
216224.000,58.594,24.414,41.016,64.941,4.395,0
216224.004,62.012,20.996,30.762,69.336,-5.371,0
216224.008,60.059,16.602,29.785,75.684,24.902,0
216224.012,62.500,17.090,23.926,70.801,71.289,0
216224.016,71.777,26.367,20.020,56.641,67.871,0
216224.020,69.336,37.598,30.273,54.199,67.383,0
216224.024,54.688,36.621,36.621,49.316,12.695,0
216224.027,50.781,33.691,35.645,30.273,-14.648,0
216224.031,51.270,31.738,36.133,36.133,21.973,0
216224.035,45.410,19.531,32.715,49.316,33.691,0
216224.039,40.527,11.719,24.414,48.828,51.758,0
216224.043,45.898,20.996,22.949,51.270,32.227,0
216224.047,49.316,31.738,15.137,58.105,53.223,0
216224.051,53.711,26.367,18.066,69.336,69.336,0
216224.055,58.594,20.020,33.203,62.012,24.414,0
216224.059,60.059,25.391,29.785,55.176,31.250,0
216224.063,63.965,30.762,31.250,70.312,61.035,0
216224.067,48.340,15.137,38.086,59.082,38.086,2
216224.070,45.410,11.230,36.621,39.062,22.949,0
216224.074,52.734,24.414,32.227,45.898,10.742,0
216224.078,47.363,21.973,28.320,52.734,19.531,0
216224.082,38.574,15.137,27.344,50.293,53.711,0
216224.086,39.062,20.996,35.645,54.688,44.922,0
216224.090,41.504,28.320,37.109,57.129,54.199,0
216224.094,35.645,20.020,31.738,46.875,57.129,0
216224.098,30.273,11.230,19.043,39.062,33.691,0
216224.102,36.621,7.324,18.066,39.551,56.641,0
216224.106,44.434,23.438,30.762,53.223,56.641,0
216224.109,43.457,32.227,25.391,57.129,-10.742,0
216224.113,42.480,26.367,19.043,38.086,-36.133,0
216224.117,42.969,33.691,26.367,25.391,-29.785,0
216224.121,39.062,35.156,35.156,27.832,2.441,0
216224.125,38.574,25.879,42.969,41.992,14.160,0
216224.129,44.922,22.461,43.945,48.340,15.625,0
216224.133,39.551,28.809,24.902,37.109,5.859,0
216224.137,35.156,27.344,17.578,37.109,18.066,0
216224.141,39.062,28.809,22.949,52.734,37.598,0
216224.145,40.527,34.180,24.902,43.945,21.484,0
216224.149,46.387,31.250,26.855,36.621,29.785,0
216224.152,47.363,31.250,25.391,49.316,42.969,0
216224.156,41.016,33.203,31.250,45.410,32.227,0
216224.160,40.527,28.809,28.320,42.969,19.531,0
216224.164,44.922,36.621,32.715,57.617,29.785,0
216224.168,40.039,39.062,34.668,55.176,50.293,0
216224.172,30.762,21.484,16.113,30.273,25.391,0
216224.176,32.227,16.113,15.625,27.344,11.719,0
216224.180,29.785,21.484,37.109,34.668,24.414,0
216224.184,28.320,26.855,30.273,38.574,46.875,0
216224.188,38.086,27.344,17.090,45.410,36.133,0
216224.192,39.551,23.438,23.926,38.086,8.301,0
216224.195,41.992,29.785,29.297,41.016,36.621,0
216224.199,41.992,34.180,32.227,52.734,42.969,0
216224.203,38.574,27.344,39.062,51.758,26.855,0
216224.207,41.016,20.996,42.480,41.992,-9.277,0
216224.211,41.504,24.902,35.156,40.039,-27.344,0
216224.215,42.480,24.902,31.738,58.594,22.461,0
216224.219,42.480,23.438,29.297,60.059,0.488,0
216224.223,39.551,22.949,23.438,32.715,9.766,0
216224.227,31.738,13.672,25.879,21.484,43.457,0
216224.231,28.809,21.973,33.691,24.414,56.152,0
216224.234,26.367,28.320,37.598,20.508,67.383,0
216224.238,29.785,22.461,35.645,36.133,50.781,0
216224.242,44.434,31.250,37.598,49.316,37.598,0
216224.246,47.363,32.715,33.203,39.062,48.340,0
216224.250,42.969,25.391,20.508,28.809,6.348,0
216224.254,35.156,14.648,24.902,16.602,-28.809,0
216224.258,32.715,14.160,24.902,27.832,25.391,0
216224.262,37.598,28.320,21.484,39.551,52.734,0
216224.266,33.203,24.414,28.809,36.621,13.184,0
216224.270,22.949,21.973,26.855,28.809,11.230,0
216224.274,24.902,40.527,29.785,25.391,14.648,0
216224.277,31.738,42.969,32.715,30.762,-24.902,0
216224.281,32.227,22.461,23.438,33.203,7.812,0
216224.285,32.715,24.902,17.578,31.738,27.832,0
216224.289,29.785,25.879,27.344,22.461,-14.648,0
216224.293,24.902,18.066,31.250,21.973,-3.906,0
216224.297,27.344,27.344,25.391,22.461,12.207,0
216224.301,35.156,31.738,28.320,21.973,3.906,0
216224.305,42.480,32.715,41.504,29.785,33.203,0
216224.309,36.621,32.715,26.855,26.367,8.301,0
216224.313,34.180,17.578,5.371,36.621,13.184,0
216224.317,38.574,5.859,21.484,36.133,76.172,0
216224.320,32.715,16.113,32.715,19.531,89.844,0
216224.324,35.156,26.367,27.344,23.438,91.797,0
216224.328,35.156,29.785,25.879,20.020,69.336,0
216224.332,36.133,28.320,26.855,20.996,47.363,0
216224.336,37.598,24.902,31.738,25.879,62.012,0
216224.340,36.133,27.832,40.039,24.902,37.109,0
216224.344,40.527,25.879,36.621,27.344,16.113,0
216224.348,39.551,17.090,25.879,35.156,72.754,0
216224.352,42.969,20.996,25.391,41.992,92.285,0
216224.356,44.922,40.039,22.461,38.086,63.477,0
216224.359,38.574,49.805,23.926,42.969,50.781,0
216224.363,35.156,42.480,25.879,47.363,49.316,0
216224.367,32.227,30.762,29.785,20.996,40.527,0
216224.371,41.016,35.645,47.363,18.555,51.758,0
216224.375,41.016,36.621,51.270,28.320,75.684,0
216224.379,23.438,22.461,34.180,18.066,78.613,0
216224.383,18.555,15.625,23.438,20.508,45.410,0
216224.387,20.020,16.113,26.855,21.484,18.555,0
216224.391,17.090,24.902,25.879,13.672,30.273,0
216224.395,27.344,43.945,21.484,23.926,42.480,0
216224.399,33.203,41.016,21.973,29.297,36.133,0
216224.402,30.762,28.320,24.902,21.973,34.668,0
216224.406,37.109,21.484,31.738,36.133,61.523,0
216224.410,42.480,13.672,36.133,41.504,56.152,0
216224.414,47.363,33.203,34.180,39.062,61.523,0
216224.418,46.875,51.758,35.156,45.898,76.660,0
216224.422,43.945,48.340,34.180,44.922,52.734,0
216224.426,44.922,44.922,29.785,41.016,84.961,0
216224.430,52.246,45.410,28.809,46.875,92.285,0
216224.434,56.152,39.551,37.109,53.223,6.348,0
216224.438,47.852,21.484,23.926,41.992,-26.855,0
216224.442,43.945,20.996,21.484,40.039,-14.160,0
216224.445,46.387,28.809,46.387,38.574,-34.668,0
216224.449,40.527,31.250,48.340,29.785,-79.590,0
216224.453,42.969,36.133,41.016,41.992,-32.227,0
216224.457,51.758,37.598,31.738,51.758,31.738,0
216224.461,45.898,27.832,18.555,42.480,7.812,0
216224.465,40.039,23.438,20.020,32.227,10.742,0
216224.469,37.598,30.273,32.715,32.227,24.414,0
216224.473,37.598,28.809,43.945,33.203,19.043,0
216224.477,41.016,24.414,45.410,39.062,0.488,0
216224.481,39.551,25.391,42.480,38.086,-20.996,0
216224.484,35.645,35.645,34.668,33.691,10.254,0
216224.488,38.086,38.574,29.297,36.621,39.551,0
216224.492,33.691,29.297,32.227,28.320,22.461,0
216224.496,35.645,29.297,29.297,32.715,44.434,0
216224.500,44.434,28.809,29.785,50.781,86.426,0
216224.504,44.922,24.902,30.762,58.105,55.176,0
216224.508,30.273,28.320,25.391,38.574,36.621,0
216224.512,21.973,32.227,29.297,23.438,41.016,0
216224.516,30.762,29.297,39.551,32.227,29.297,0
216224.520,41.992,24.902,45.410,38.574,44.922,0
216224.524,40.039,27.832,41.504,37.109,66.895,0
216224.527,32.715,32.715,35.645,31.738,59.082,0
216224.531,34.180,30.762,34.668,30.762,62.500,0
216224.535,43.457,28.809,34.668,33.691,53.711,0
216224.539,53.223,28.809,26.367,35.645,25.879,0
216224.543,46.875,24.902,25.879,41.504,5.371,0
216224.547,35.156,29.297,26.367,46.875,33.203,0
216224.551,34.668,39.062,21.484,43.457,50.293,0
216224.555,39.062,26.855,31.738,44.434,68.848,0
216224.559,38.574,19.531,34.180,40.039,87.402,0
216224.563,36.621,34.668,37.598,34.180,68.848,0
216224.567,30.273,33.691,37.109,32.715,74.707,0
216224.570,27.832,30.273,31.250,38.574,93.262,0
216224.574,35.156,31.738,29.297,46.387,82.520,0
216224.578,33.691,25.879,26.855,40.527,33.691,0
216224.582,31.250,28.809,26.367,25.879,-19.043,0
216224.586,40.039,35.645,26.855,32.715,21.973,0
216224.590,41.992,33.691,20.020,54.688,59.570,0
216224.594,35.156,27.344,12.695,54.199,-34.180,0
216224.598,35.156,30.762,29.785,40.527,-19.531,0
216224.602,33.203,40.039,36.133,33.691,16.113,0
216224.606,32.227,40.527,23.926,35.156,15.625,0
216224.609,35.156,34.668,25.879,36.133,7.812,0
216224.613,34.668,29.297,33.203,29.785,-40.039,0
216224.617,40.039,27.344,30.762,29.297,-5.859,0
216224.621,36.621,29.785,27.832,28.809,71.777,0
216224.625,34.180,32.715,30.762,27.832,62.012,0
216224.629,42.480,36.621,30.273,37.598,15.137,0
216224.633,46.875,42.480,24.414,44.922,38.086,0
216224.637,40.039,40.039,34.180,41.504,74.219,0
216224.641,37.109,33.691,38.574,44.922,72.754,0
216224.645,43.457,28.320,40.039,42.969,84.961,0
216224.649,42.480,27.344,36.133,34.668,97.656,0
216224.652,41.992,34.668,18.555,41.016,79.102,0
216224.656,39.062,34.668,19.043,35.156,51.758,0
216224.660,32.227,25.879,30.762,27.344,48.340,0
216224.664,39.551,27.344,34.180,36.621,38.086,0
216224.668,44.434,43.457,34.668,45.410,40.527,0
216224.672,38.574,46.875,34.180,49.805,19.043,0
216224.676,44.434,51.270,33.691,60.059,-19.043,0
216224.680,42.969,40.527,37.109,42.969,43.457,0
216224.684,27.344,16.602,27.832,15.137,109.375,0
216224.688,21.484,26.367,21.973,9.766,104.980,0
216224.692,24.902,43.945,37.109,17.090,45.898,0
216224.695,32.227,44.922,32.715,21.484,36.133,0
216224.699,32.715,36.621,23.926,26.855,27.832,0
216224.703,31.738,36.133,29.297,32.715,-0.488,0
216224.707,32.227,39.551,32.227,32.227,11.719,0
216224.711,35.645,29.297,42.969,43.945,1.953,0
216224.715,40.039,22.949,44.434,47.852,-15.625,0
216224.719,35.645,28.320,29.297,26.367,-41.992,0
216224.723,31.738,34.668,24.902,27.344,-8.789,0
216224.727,42.480,37.109,37.598,37.109,41.016,0
216224.731,43.945,36.133,38.574,31.738,-39.062,0
216224.734,36.621,33.691,28.320,30.273,-23.926,0
216224.738,43.945,31.738,33.691,42.969,52.734,0
216224.742,44.922,29.785,33.691,45.898,47.852,0
216224.746,40.527,34.668,28.809,46.387,59.082,0
216224.750,41.016,36.133,34.180,39.062,44.434,0
216224.754,39.062,32.715,34.668,40.527,52.734,0
216224.758,45.898,26.855,32.227,52.246,73.242,0
216224.762,41.992,18.555,31.250,41.016,59.570,0
216224.766,28.320,24.414,34.668,32.227,42.969,0
216224.770,30.762,34.180,40.039,33.203,32.227,2
216224.774,36.133,26.855,35.645,40.527,35.645,0
216224.777,39.551,25.391,28.320,38.574,21.484,0
216224.781,41.016,38.086,33.691,36.133,25.391,0
216224.785,39.551,40.039,35.645,44.922,38.086,0
216224.789,36.621,33.691,26.367,33.691,47.363,0
216224.793,32.227,37.598,29.297,32.227,52.734,0
216224.797,30.273,41.992,35.156,36.621,26.367,0
216224.801,34.180,33.203,35.156,28.320,13.672,0
216224.805,32.715,24.414,36.621,27.832,-20.020,0
216224.809,30.762,23.438,38.574,32.715,-15.625,0
216224.813,36.133,31.250,40.039,46.875,24.414,0
216224.817,45.410,47.363,39.551,62.012,38.086,0
216224.820,42.480,52.246,33.203,50.293,18.066,0
216224.824,22.949,33.691,32.715,23.438,4.395,0
216224.828,18.555,22.461,41.504,18.066,41.992,0
216224.832,35.156,23.438,34.180,24.902,40.527,0
216224.836,38.086,24.414,32.227,29.785,33.691,0
216224.840,27.832,23.438,25.391,35.645,36.133,0
216224.844,32.715,20.020,14.160,41.992,41.992,0
216224.848,35.645,24.414,26.367,38.574,47.363,0
216224.852,39.062,30.762,36.133,38.086,44.434,0
216224.856,49.805,34.668,34.180,47.852,39.062,0
216224.859,46.875,31.250,32.227,47.852,51.270,0
216224.863,37.109,21.484,41.992,36.133,24.902,0
216224.867,35.645,28.809,40.527,25.879,-15.625,0
216224.871,38.086,40.527,31.250,33.691,55.176,0
216224.875,39.062,41.016,31.738,41.992,97.168,0
216224.879,33.203,32.715,32.227,37.109,78.125,0
216224.883,29.297,25.879,31.738,37.598,78.125,0
216224.887,34.668,26.367,32.227,29.297,86.426,0
216224.891,36.621,29.297,25.391,24.414,82.031,0
216224.895,33.203,32.715,27.344,29.785,39.551,0
216224.899,36.133,32.227,35.156,38.086,75.195,0
216224.902,35.156,26.855,35.645,30.273,107.422,0
216224.906,37.598,31.250,40.039,28.320,87.402,0
216224.910,40.039,31.738,40.039,39.062,67.383,0
216224.914,37.598,20.020,33.203,35.645,48.828,0
216224.918,40.039,22.461,31.250,37.598,100.586,0
216224.922,39.062,33.691,25.391,50.293,123.535,0
216224.926,41.504,34.668,22.461,45.410,80.078,0
216224.930,36.621,35.645,30.762,41.504,24.414,0
216224.934,30.762,33.203,36.621,45.898,28.320,0
216224.938,38.086,26.855,33.691,42.480,29.297,0
216224.942,34.668,25.391,32.715,32.715,34.180,0
216224.945,30.273,28.809,32.715,30.273,49.316,0
216224.949,32.227,28.320,26.855,35.645,41.016,0
216224.953,42.480,37.109,36.133,37.109,66.406,0
216224.957,39.551,41.016,36.133,28.320,55.176,0
216224.961,25.391,21.484,28.809,23.438,70.801,0
216224.965,19.043,10.742,27.832,20.508,93.262,0
216224.969,15.137,21.973,18.066,16.602,80.566,0
216224.973,18.555,28.809,26.367,18.066,51.758,0
216224.977,21.484,25.391,38.086,22.461,76.660,0
216224.981,21.973,26.855,30.273,20.996,89.844,0
216224.984,22.461,32.227,26.367,11.719,51.758,0
216224.988,22.949,34.668,25.391,11.230,44.922,0
216224.992,25.879,35.645,33.691,21.484,30.273,0
216224.996,32.715,38.086,42.969,29.297,32.715,0
216225.000,24.902,26.367,22.461,25.879,50.293,0
216225.004,16.113,20.508,16.113,17.090,-27.832,0
216225.008,20.508,23.926,25.879,17.090,-49.805,0
216225.012,20.020,19.043,32.715,23.926,-2.930,0
216225.016,26.855,26.367,47.852,24.902,-20.508,0
216225.020,39.062,36.621,48.340,28.320,-47.852,0
216225.024,39.062,33.691,33.203,27.344,-38.086,0
216225.027,34.668,29.297,25.391,28.320,-13.672,0
216225.031,35.156,32.715,30.762,39.551,-6.348,0
216225.035,37.598,25.391,24.902,36.621,-19.043,0
216225.039,33.203,18.555,20.508,26.367,-8.789,0
216225.043,28.320,32.227,33.691,28.809,4.395,0
216225.047,23.926,36.133,37.598,24.414,-48.828,0
216225.051,27.344,31.250,35.156,35.156,-38.086,0
216225.055,35.645,20.508,39.551,42.969,20.020,0
216225.059,40.039,22.461,37.598,30.762,6.348,0
216225.063,35.645,33.203,38.086,28.809,2.441,0
216225.067,36.133,30.273,40.039,29.785,58.105,0
216225.070,40.527,31.250,29.785,37.109,51.270,0
216225.074,40.039,36.133,18.066,35.156,31.738,0
216225.078,46.387,39.062,22.949,32.715,22.461,0
216225.082,43.945,30.762,26.367,39.062,11.719,0
216225.086,33.691,22.461,25.879,36.621,3.906,0
216225.090,33.203,20.996,36.621,28.320,-18.066,0
216225.094,35.645,19.043,38.574,29.785,-20.020,0
216225.098,34.180,26.367,38.574,37.109,7.324,0
216225.102,37.109,34.180,36.133,41.504,37.109,0
216225.106,34.668,42.969,30.273,35.645,19.531,0
216225.109,41.016,46.387,24.414,38.574,-21.484,0
216225.113,41.504,40.527,16.113,46.387,1.953,0
216225.117,24.414,27.344,28.320,32.715,11.230,0
216225.121,24.902,18.066,42.480,26.855,-11.230,0
216225.125,31.250,31.738,42.969,37.598,-3.906,0
216225.129,23.926,35.156,33.691,31.250,9.766,0
216225.133,23.926,35.645,23.438,30.273,-4.883,0
216225.137,33.203,42.480,23.926,38.086,-26.367,0
216225.141,29.297,41.992,27.832,36.621,-19.531,0
216225.145,25.391,40.527,27.344,41.992,0.977,0
216225.149,30.762,37.598,32.715,46.387,3.418,0
216225.152,39.062,41.504,38.574,33.203,33.691,0
216225.156,38.086,39.062,31.738,21.484,73.730,0
216225.160,42.969,35.156,25.879,32.715,59.082,0
216225.164,45.898,47.852,25.391,43.945,42.969,0
216225.168,37.109,39.551,30.273,32.227,48.340,0
216225.172,40.527,21.484,38.086,25.391,18.066,0
216225.176,38.574,25.391,37.109,29.785,13.672,0
216225.180,24.902,34.180,35.645,28.320,31.738,0
216225.184,33.691,33.691,40.527,44.434,71.777,0
216225.188,44.922,37.109,38.574,52.246,95.703,0
216225.192,31.250,41.016,31.250,30.762,67.383,0
216225.195,24.414,37.598,30.762,27.832,59.570,0
216225.199,29.297,40.039,40.039,35.645,58.594,0
216225.203,27.832,30.762,50.293,43.457,89.355,0
216225.207,27.832,23.438,40.039,41.504,88.867,0
216225.211,26.855,26.367,30.762,32.227,30.273,0
216225.215,28.320,26.367,38.574,36.621,4.395,0
216225.219,36.133,29.297,37.109,40.039,17.578,0
216225.223,34.668,26.855,35.156,33.691,30.762,0
216225.227,30.273,29.297,36.621,29.297,48.340,0
216225.231,34.180,27.832,36.133,27.832,30.762,0
216225.234,33.691,20.508,36.133,31.250,29.297,0
216225.238,25.879,30.273,39.062,32.227,21.484,0
216225.242,27.832,38.574,39.062,27.832,-20.020,0
216225.246,32.715,40.039,29.785,35.645,23.438,0
216225.250,33.203,38.574,22.461,45.898,57.617,0
216225.254,31.250,37.109,22.949,43.945,51.270,0
216225.258,30.273,36.621,41.992,37.598,28.320,0
216225.262,29.785,27.832,48.340,25.879,17.578,0
216225.266,30.273,25.879,35.645,20.020,9.766,0
216225.270,35.156,29.297,36.133,22.949,1.953,0
216225.274,34.180,24.414,26.855,23.438,32.715,0
216225.277,33.203,27.832,15.625,27.344,20.508,0
216225.281,34.180,28.809,24.414,29.297,13.184,0
216225.285,35.645,25.391,29.297,22.461,17.578,0
216225.289,37.598,28.320,23.438,23.926,-4.883,0
216225.293,37.109,27.344,28.320,31.738,3.906,0
216225.297,37.598,36.621,39.062,39.062,58.105,0
216225.301,36.621,36.133,38.086,34.668,51.758,0
216225.305,37.109,32.715,33.203,41.016,25.391,0
216225.309,42.969,41.016,34.668,57.129,74.219,0
216225.313,39.551,38.574,34.668,46.387,89.355,0
216225.317,34.668,29.297,36.133,33.691,85.449,0
216225.320,34.668,18.555,25.391,29.297,67.383,0
216225.324,38.086,23.438,20.508,36.621,58.105,0
216225.328,43.457,33.691,30.273,46.875,82.031,0
216225.332,40.039,34.668,32.715,44.434,47.852,0
216225.336,34.180,29.785,32.227,34.668,20.020,0
216225.340,40.039,28.809,40.039,41.992,39.062,0
216225.344,49.316,26.367,43.945,46.875,31.250,0
216225.348,57.129,24.902,28.809,38.574,32.227,0
216225.352,48.828,26.855,20.996,36.621,64.941,0
216225.356,39.062,27.832,25.391,28.809,65.918,0
216225.359,41.992,35.645,20.996,25.391,42.969,0
216225.363,37.598,31.738,18.066,27.344,26.367,1
216225.367,29.785,21.973,32.715,23.926,20.996,0
216225.371,28.809,30.762,39.551,26.367,37.598,0
216225.375,33.691,39.551,35.645,31.738,24.902,0
216225.379,40.527,37.598,34.180,34.180,11.230,0
216225.383,42.969,28.809,36.133,37.109,64.453,0
216225.387,37.109,33.203,33.691,33.691,65.918,0
216225.391,42.480,41.016,28.809,41.992,48.340,0
216225.395,51.270,40.039,33.203,56.152,64.941,0
216225.399,43.457,42.480,33.203,41.992,62.500,0
216225.402,39.551,44.922,32.715,34.668,33.691,0
216225.406,46.875,41.992,37.109,37.598,8.789,0
216225.410,41.504,29.297,29.785,32.715,36.133,0
216225.414,33.691,26.367,27.344,34.180,75.195,0
216225.418,37.598,27.344,34.180,35.645,-0.488,0
216225.422,37.598,26.367,29.297,23.926,-53.711,0
216225.426,30.273,32.227,22.949,18.066,-27.344,0
216225.430,33.691,39.551,27.832,29.297,-4.883,0
216225.434,45.410,42.969,35.645,34.668,10.254,0
216225.438,45.410,37.598,35.645,29.785,15.625,0
216225.442,45.410,35.645,36.133,36.621,43.945,0
216225.445,47.363,41.992,33.691,33.203,37.598,0
216225.449,36.133,38.086,32.715,22.461,13.672,0
216225.453,34.668,27.832,32.715,28.809,13.184,0
216225.457,36.621,25.391,27.344,31.738,16.602,0
216225.461,29.785,25.391,27.832,28.320,15.137,0
216225.465,28.809,31.250,28.809,32.227,18.555,0
216225.469,31.738,36.621,31.738,37.109,28.809,0
216225.473,32.227,36.621,38.574,38.574,46.875,0
216225.477,34.180,31.250,32.227,39.551,20.508,0
216225.481,38.574,26.855,34.180,43.457,5.859,0
216225.484,37.598,24.902,38.574,39.062,20.508,0
216225.488,30.762,26.855,29.297,33.691,30.273,0
216225.492,26.367,33.203,23.438,28.320,40.039,0
216225.496,22.949,35.645,28.809,18.555,18.066,0
216225.500,27.832,40.039,33.691,22.461,26.367,0
216225.504,27.344,36.621,24.414,27.344,31.738,0
216225.508,18.555,28.809,18.066,19.043,4.395,0
216225.512,21.484,30.762,29.297,15.137,17.090,0
216225.516,25.391,32.715,31.250,22.461,-0.977,0
216225.520,28.809,32.227,36.621,39.062,5.859,0
216225.524,35.156,29.785,35.156,41.016,5.371,0
216225.527,35.645,32.715,26.855,33.691,-12.207,0
216225.531,29.785,33.203,26.855,29.785,-0.977,0
216225.535,26.367,31.738,21.973,28.809,16.113,0
216225.539,29.297,32.227,23.438,29.297,48.340,0
216225.543,27.832,33.691,29.785,23.926,53.223,0
216225.547,28.809,27.344,35.156,27.832,38.086,0
216225.551,28.320,19.043,32.715,29.785,-0.488,0
216225.555,27.832,27.344,27.344,29.297,8.789,0
216225.559,32.227,36.133,20.020,34.180,20.996,0
216225.563,31.250,32.715,22.949,36.621,35.645,0
216225.567,31.250,31.738,27.344,37.598,75.684,0
216225.570,34.668,34.180,19.043,45.410,49.805,0
216225.574,33.691,30.762,15.625,38.574,26.855,0
216225.578,30.273,27.832,20.020,27.344,25.879,0
216225.582,27.344,32.227,25.391,26.855,-6.836,0
216225.586,23.438,35.156,36.621,27.832,31.250,0
216225.590,31.250,35.645,37.598,38.574,48.828,0
216225.594,32.715,37.598,29.297,42.480,17.090,0
216225.598,26.367,32.227,28.809,34.668,26.855,0
216225.602,26.855,30.273,27.832,33.203,14.648,0
216225.606,32.227,38.574,23.438,45.410,50.293,0
216225.609,38.574,39.551,30.273,47.363,29.297,0
216225.613,29.785,23.438,29.297,33.691,-28.320,0
216225.617,31.738,13.672,15.625,25.391,-2.441,0
216225.621,36.621,14.648,13.672,20.508,23.438,0
216225.625,23.926,23.926,30.762,20.996,37.109,0
216225.629,23.926,35.156,34.668,24.902,30.762,0
216225.633,31.250,33.691,23.438,29.297,43.945,0
216225.637,32.715,26.855,23.438,29.297,66.895,0
216225.641,34.668,32.227,28.809,34.180,67.383,0
216225.645,37.598,40.527,34.180,41.504,31.738,0
216225.649,33.203,35.156,39.551,39.551,-15.625,0
216225.652,30.762,25.879,25.391,37.109,-36.621,0
216225.656,31.250,20.996,16.113,26.855,-24.902,0
216225.660,35.645,32.715,26.855,28.320,-29.297,0
216225.664,39.551,37.109,32.715,29.785,-41.992,0
216225.668,52.246,36.133,33.691,30.762,-13.184,0
216225.672,49.805,38.574,24.414,27.344,6.836,0
216225.676,32.715,32.715,19.043,24.414,-12.207,0
216225.680,31.250,29.297,26.367,28.809,-26.855,0
216225.684,31.250,36.621,35.645,23.926,-41.016,0
216225.688,37.109,40.039,30.273,23.926,-56.641,0
216225.692,47.852,39.551,19.531,29.297,0.977,0
216225.695,34.668,43.457,23.926,30.273,37.109,0
216225.699,27.344,37.598,37.598,35.645,21.484,0
216225.703,33.203,28.809,43.457,40.527,39.551,0
216225.707,21.973,29.785,40.527,29.785,16.602,0
216225.711,21.973,35.156,36.133,31.250,-9.766,0
216225.715,31.250,31.738,30.762,36.133,-4.883,0
216225.719,27.344,30.273,27.832,30.273,11.230,0
216225.723,33.691,44.922,35.645,41.016,54.688,0
216225.727,32.715,52.246,36.621,36.133,37.109,0
216225.731,19.531,40.039,24.414,12.695,36.133,0
216225.734,19.531,34.180,20.996,18.555,42.480,0
216225.738,22.949,37.598,27.344,26.367,27.832,0
216225.742,34.180,31.250,36.133,27.832,-12.695,0
216225.746,36.621,26.367,38.574,31.738,4.395,0
216225.750,26.367,28.320,39.551,34.668,23.438,0
216225.754,25.391,22.949,24.902,32.715,10.254,0
216225.758,24.902,26.855,18.555,33.691,58.594,0
216225.762,31.738,30.762,41.016,36.621,70.312,0
216225.766,27.832,25.391,44.434,26.367,82.520,0
216225.770,28.320,27.344,32.715,31.738,107.422,0
216225.774,41.016,16.602,20.996,47.363,98.145,0
216225.777,36.621,18.066,27.344,33.691,70.801,0
216225.781,41.992,40.039,30.273,41.992,40.039,0
216225.785,54.199,40.527,23.438,59.082,31.250,0
216225.789,28.809,26.367,36.133,33.691,52.246,0
216225.793,13.672,27.344,42.480,25.879,62.988,0
216225.797,21.484,30.273,31.738,31.738,16.113,0
216225.801,20.996,23.438,26.855,23.926,15.137,0
216225.805,35.156,23.438,36.621,42.480,52.246,0
216225.809,38.574,19.531,35.156,41.016,27.832,0
216225.813,27.832,17.578,26.855,26.855,29.785,0
216225.817,25.879,21.973,28.809,33.203,50.781,0
216225.820,29.785,34.668,24.414,36.621,68.848,0
216225.824,41.016,44.434,22.461,44.922,42.480,0
216225.828,45.410,42.969,38.574,42.969,3.906,0
216225.832,35.156,31.250,45.410,34.180,47.363,0
216225.836,24.414,19.043,35.645,31.738,20.508,0
216225.840,26.367,23.926,23.438,29.785,-75.195,0
216225.844,35.156,31.250,27.832,38.086,-31.250,0
216225.848,41.504,34.668,37.598,42.969,22.461,0
216225.852,37.598,31.250,37.598,31.738,-27.344,0
216225.856,29.785,25.879,43.457,25.391,-63.965,0
216225.859,33.691,23.926,48.828,26.367,-40.039,0
216225.863,39.062,26.855,46.387,31.250,-10.742,0
216225.867,37.109,35.645,40.039,39.551,-7.324,0
216225.871,38.086,23.926,33.203,36.621,-8.789,0
216225.875,23.438,21.973,33.203,29.297,25.879,0
216225.879,15.625,33.203,44.922,38.574,48.828,0
216225.883,24.902,25.879,40.527,39.062,18.066,0
216225.887,31.250,26.855,32.715,32.715,12.207,0
216225.891,38.086,34.180,33.203,35.645,4.395,0
216225.895,36.133,31.738,34.180,31.250,22.461,0
216225.899,32.715,27.832,41.016,31.250,0.488,0
216225.902,32.227,26.367,37.598,29.297,-73.730,0
216225.906,39.062,42.480,33.203,34.180,-15.625,0
216225.910,43.945,47.363,36.133,40.527,60.547,0
216225.914,36.621,36.133,44.922,34.668,89.355,0
216225.918,34.180,36.621,42.480,33.691,52.246,0
216225.922,42.969,30.273,36.133,42.969,27.832,0
216225.926,43.945,20.020,35.645,39.062,43.945,0
216225.930,32.715,20.508,32.227,24.902,49.805,0
216225.934,31.250,31.250,31.250,25.879,69.336,0
216225.938,38.086,38.574,23.926,34.180,89.355,0
216225.942,45.898,44.434,27.832,49.316,68.848,0
216225.945,42.480,43.457,36.133,47.363,18.066,0
216225.949,35.156,32.227,41.016,24.414,-0.488,0
216225.953,40.527,25.879,44.922,23.438,20.020,0
216225.957,31.738,20.020,30.762,21.973,27.344,2
216225.961,20.508,21.484,20.020,18.066,23.926,0
216225.965,30.273,29.785,24.414,38.574,24.902,0
216225.969,32.715,41.016,38.574,38.574,80.078,0
216225.973,32.715,45.898,36.621,26.367,84.473,0
216225.977,40.527,43.457,32.227,31.250,8.789,0
216225.981,36.133,41.992,34.668,35.156,-20.508,0
216225.984,41.992,42.480,35.156,41.992,2.930,0
216225.988,43.945,38.574,33.203,40.039,46.387,0
216225.992,26.855,30.762,27.344,25.879,9.277,0
216225.996,26.855,26.855,29.297,27.832,23.438,0
216226.000,25.391,26.855,28.809,23.926,74.707,0
216226.004,20.508,35.156,32.715,20.020,60.059,0
216226.008,26.367,39.551,29.785,21.973,64.453,0
216226.012,28.809,36.621,20.508,27.832,86.426,0
216226.016,27.344,32.227,23.926,31.738,107.422,0
216226.020,28.809,31.738,29.297,31.250,108.398,0
216226.024,37.598,35.645,30.762,44.434,52.734,0
216226.027,44.922,38.086,26.855,51.270,31.738,0
216226.031,40.527,37.109,19.531,37.109,39.551,0
216226.035,30.762,26.855,24.902,25.391,9.277,0
216226.039,30.273,11.719,27.832,22.949,4.883,0
216226.043,34.668,19.531,37.598,28.809,48.828,0
216226.047,40.527,34.180,44.434,39.062,77.148,0
216226.051,45.410,35.645,41.504,43.457,72.266,0
216226.055,37.109,33.203,34.180,37.598,68.848,0
216226.059,28.320,28.809,25.391,29.785,81.055,0
216226.063,29.785,27.344,35.645,33.203,102.051,0
216226.067,34.180,35.645,41.016,40.527,99.121,0
216226.070,38.574,42.969,35.156,47.363,54.199,0
216226.074,30.273,30.273,27.344,44.434,39.062,0
216226.078,21.484,26.367,18.066,33.203,46.875,0
216226.082,23.926,23.926,16.113,26.855,41.992,0
216226.086,22.949,17.090,32.715,24.902,23.926,0
216226.090,22.949,21.484,42.480,30.273,56.152,0
216226.094,23.926,16.113,29.297,29.785,64.453,0
216226.098,19.531,15.137,21.973,23.438,53.223,0
216226.102,24.414,28.320,26.855,29.297,100.586,0
216226.106,36.133,40.527,31.738,42.969,90.820,0
216226.109,35.645,43.945,27.344,49.316,44.922,0
216226.113,22.949,30.762,21.973,38.086,66.406,0
216226.117,20.996,33.203,32.227,38.086,99.121,0
216226.121,23.438,29.297,38.574,44.922,85.449,0
216226.125,20.996,22.949,37.109,33.203,75.195,0
216226.129,20.020,24.414,32.715,20.020,15.137,0
216226.133,23.926,23.438,32.227,31.738,21.973,0
216226.137,33.691,27.832,34.668,42.480,59.570,0
216226.141,40.527,29.297,29.785,38.086,44.434,0
216226.145,35.645,39.062,22.461,34.668,30.762,0
216226.149,34.180,42.480,27.832,38.086,12.695,0
216226.152,31.250,35.156,33.203,39.062,36.133,0
216226.156,33.203,35.156,34.180,39.062,40.039,0
216226.160,34.668,26.855,33.691,35.645,48.828,0
216226.164,26.855,21.973,27.344,34.668,53.711,0
216226.168,24.414,27.344,29.785,32.227,5.371,0
216226.172,30.762,27.344,39.551,28.809,-17.578,0
216226.176,42.480,28.320,45.410,32.227,4.883,0
216226.180,41.016,30.273,35.156,36.133,25.391,0
216226.184,38.086,35.645,33.691,43.945,52.246,0
216226.188,39.551,44.434,35.156,43.457,22.949,0
216226.192,41.504,42.969,36.621,39.062,29.785,0
216226.195,34.668,33.691,46.875,32.715,55.664,0
216226.199,26.367,32.715,41.504,28.320,42.480,0
216226.203,34.668,25.879,33.691,32.227,33.203,0
216226.207,41.992,30.273,35.645,41.016,44.922,0
216226.211,34.668,38.574,41.504,34.180,46.875,0
216226.215,31.738,32.715,46.387,20.508,54.688,0
216226.219,33.691,39.062,44.922,20.020,56.152,0
216226.223,30.762,45.410,38.574,30.273,51.758,0
216226.227,31.250,43.457,32.715,43.945,50.781,0
216226.231,34.668,42.480,27.344,38.574,32.227,0
216226.234,38.086,42.969,30.273,34.180,30.762,0
216226.238,31.250,32.715,29.785,31.250,51.758,0
216226.242,16.113,15.625,26.367,17.090,48.340,0
216226.246,13.184,14.160,30.273,12.695,41.016,0
216226.250,17.090,28.809,27.832,20.996,60.059,0
216226.254,16.602,34.668,13.184,24.902,30.273,0
216226.258,19.043,32.715,16.113,16.602,38.086,0
216226.262,23.926,35.156,34.668,11.719,40.527,0
216226.266,34.668,29.297,41.016,26.855,45.898,0
216226.270,35.156,25.391,32.227,28.809,39.551,0
216226.274,28.320,26.855,23.926,23.926,38.574,0
216226.277,26.855,29.297,26.367,27.344,49.805,0
216226.281,24.414,42.969,30.762,20.996,54.199,0
216226.285,33.203,51.270,34.668,25.391,60.547,0
216226.289,35.645,43.945,27.832,31.738,15.137,0
216226.293,28.809,38.086,18.555,21.484,11.719,0
216226.297,27.832,37.598,26.855,28.809,29.297,0
216226.301,29.785,29.297,28.809,37.109,17.090,0
216226.305,30.273,28.809,28.809,20.020,4.883,0
216226.309,26.855,41.016,36.133,16.602,-16.602,0
216226.313,34.180,47.852,38.574,29.785,-4.883,0
216226.317,28.320,47.852,39.062,19.531,-11.719,0
216226.320,6.836,47.363,36.621,-8.301,-50.781,0
216226.324,3.418,41.992,34.180,-13.184,-26.367,0
216226.328,5.371,39.062,26.367,-9.277,11.719,0
216226.332,10.254,45.410,23.926,-6.836,33.691,0
216226.336,6.348,52.246,39.062,-3.906,35.645,0
216226.340,-6.348,52.246,36.133,-14.648,42.969,0
216226.344,-13.184,51.270,25.879,-20.020,65.430,0
216226.348,-22.949,46.875,30.762,-16.113,58.105,0
216226.352,-30.762,33.203,39.062,-20.020,13.184,0
216226.356,-32.227,43.945,33.203,-39.551,41.504,0
216226.359,-29.297,67.871,31.738,-43.457,36.621,0
216226.363,-37.109,76.172,45.898,-41.992,16.113,0
216226.367,-52.246,69.824,50.781,-56.641,26.855,0
216226.371,-62.500,59.082,40.039,-66.895,38.574,0
216226.375,-59.570,58.105,35.645,-71.777,77.148,0
216226.379,-69.824,53.223,21.484,-80.566,39.062,0
216226.383,-78.613,47.852,20.996,-81.543,-16.113,0
216226.387,-69.824,55.664,35.645,-64.453,48.828,0
216226.391,-66.895,55.664,30.273,-64.941,76.660,0
216226.395,-68.848,45.410,26.367,-74.219,61.523,0
216226.399,-68.848,44.434,37.109,-67.871,80.566,0
216226.402,-69.824,54.199,32.715,-70.801,85.938,0
216226.406,-73.242,59.570,20.996,-76.172,63.477,0
216226.410,-55.664,48.340,23.438,-64.941,37.598,0
216226.414,-40.527,37.598,25.391,-51.270,10.742,0
216226.418,-42.480,45.410,22.949,-36.621,19.531,0
216226.422,-41.992,54.199,19.043,-30.273,17.578,0
216226.426,-29.297,60.547,9.766,-22.949,-10.254,0
216226.430,-20.508,50.781,7.812,-17.090,17.090,0
216226.434,-21.484,37.109,22.949,-10.254,75.684,0
216226.438,-12.207,35.156,35.645,-8.789,109.375,0
216226.442,-4.883,30.762,39.062,-10.254,85.938,0
216226.445,-2.441,26.367,37.598,4.883,77.148,0
216226.449,6.836,35.645,39.551,14.160,59.570,0
216226.453,10.742,31.250,38.086,13.184,43.457,0
216226.457,12.695,26.367,37.109,15.625,29.785,0
216226.461,21.484,27.344,39.551,26.367,27.832,0
216226.465,26.367,16.113,21.973,34.180,66.895,0
216226.469,32.227,27.832,11.719,31.738,37.598,0
216226.473,42.480,43.457,21.484,35.645,28.809,0
216226.477,44.922,37.598,24.902,48.828,48.828,0
216226.481,47.852,32.227,19.043,61.035,32.715,0
216226.484,54.199,33.691,24.414,63.477,19.043,0
216226.488,54.199,25.879,36.621,56.641,15.625,0
216226.492,54.199,19.043,31.738,53.223,37.598,0
216226.496,61.035,21.484,34.180,59.082,32.227,0
216226.500,68.848,23.438,44.434,62.988,-2.930,0
216226.504,72.266,24.414,34.180,62.500,-3.418,0
216226.508,68.848,20.020,27.344,63.965,23.926,0
216226.512,66.406,10.742,26.367,62.500,62.988,0
216226.516,68.848,9.277,31.250,65.430,64.941,0
216226.520,64.941,13.672,36.621,66.406,60.059,0
216226.524,61.035,16.113,34.668,63.477,81.543,0
216226.527,77.637,20.996,31.250,86.426,57.129,0
216226.531,81.055,20.996,28.809,89.844,38.574,0
216226.535,72.754,17.090,38.574,82.031,26.367,0
216226.539,78.125,20.996,47.363,88.867,32.715,0
216226.543,76.660,17.090,41.504,77.148,46.387,0
216226.547,65.430,11.719,32.227,59.570,37.109,1
216226.551,70.312,13.184,23.926,67.383,28.809,0
216226.555,70.312,12.207,23.438,72.754,23.438,0
216226.559,63.965,6.836,27.344,58.105,19.531,0
216226.563,59.570,4.395,33.203,52.734,26.367,0
216226.567,64.453,17.090,37.109,58.105,40.527,0
216226.570,72.754,26.367,32.227,63.965,53.711,0
216226.574,76.172,34.668,27.344,69.824,30.273,0
216226.578,86.426,34.668,30.762,88.379,17.090,0
216226.582,83.008,18.555,24.902,88.379,18.555,0
216226.586,71.777,20.996,16.113,69.336,24.902,0
216226.590,64.941,28.320,16.113,55.664,-1.465,0
216226.594,62.500,28.809,22.949,54.688,17.090,0
216226.598,62.500,20.508,30.273,54.688,67.871,0
216226.602,60.059,17.578,27.344,53.711,57.129,0
216226.606,61.035,25.391,22.461,62.988,61.035,0
216226.609,57.129,21.484,19.531,55.664,53.711,0
216226.613,52.246,20.020,25.391,44.922,26.855,0
216226.617,60.547,25.879,33.691,54.688,58.594,0
216226.621,58.594,22.461,31.738,59.570,64.453,0
216226.625,53.223,20.508,25.391,59.082,15.137,0
216226.629,61.523,17.090,15.625,73.242,14.648,0
216226.633,64.941,8.789,14.648,69.824,15.137,0
216226.637,54.688,9.766,26.855,50.781,-11.230,0
216226.641,49.805,9.766,39.551,46.875,7.812,0
216226.645,53.711,8.789,46.387,54.199,51.758,0
216226.649,59.082,12.207,41.504,59.570,68.848,0
216226.652,64.941,16.602,36.133,57.129,53.223,0
216226.656,69.336,24.414,40.039,66.406,23.438,0
216226.660,65.430,23.438,41.016,72.266,20.020,0
216226.664,57.129,10.254,30.762,62.988,9.766,0
216226.668,59.082,6.836,21.484,61.523,-8.789,0
216226.672,69.336,15.137,23.438,60.547,15.625,0
216226.676,67.383,15.137,34.180,62.988,48.828,0
216226.680,57.129,12.695,33.203,68.359,48.340,0
216226.684,55.176,19.531,29.297,57.617,-4.883,0
216226.688,59.082,28.320,46.875,54.688,7.812,0
216226.692,54.688,27.344,50.781,53.223,52.734,0
216226.695,49.316,24.902,41.504,37.109,-12.695,0
216226.699,53.223,30.762,40.527,30.273,-74.219,0
216226.703,56.641,35.645,32.227,38.574,11.230,0
216226.707,56.152,35.156,17.578,46.875,74.219,0
216226.711,54.688,26.855,20.996,42.480,20.996,0
216226.715,52.246,23.926,28.320,36.133,13.672,0
216226.719,53.711,21.484,38.086,48.340,34.668,0
216226.723,57.129,20.996,43.457,59.082,17.090,0
216226.727,50.293,22.461,28.320,42.480,9.766,0
216226.731,45.410,28.320,31.738,34.180,-12.207,0
216226.734,41.016,30.273,38.574,36.621,1.953,0
216226.738,41.016,21.484,29.297,35.156,36.621,0
216226.742,41.504,23.926,14.160,35.156,-1.465,0
216226.746,34.668,31.738,15.625,40.039,-12.207,0
216226.750,38.086,35.156,34.668,51.758,33.203,0
216226.754,40.527,36.133,40.039,46.387,40.039,0
216226.758,41.016,34.668,37.109,47.363,22.461,0
216226.762,54.688,33.691,39.551,61.523,50.781,0
216226.766,56.152,26.855,39.062,52.246,36.133,0
216226.770,38.574,23.926,24.414,38.574,-20.508,0
216226.774,35.645,27.344,14.160,47.363,-5.859,0
216226.777,42.969,27.344,21.973,49.805,22.461,0
216226.781,46.875,25.879,37.109,45.898,8.789,0
216226.785,45.898,28.809,40.527,50.781,5.371,0
216226.789,43.945,29.785,32.715,46.387,37.598,0
216226.793,46.875,18.555,45.410,44.434,42.480,0
216226.797,41.992,13.672,51.270,45.898,-6.348,0
216226.801,38.574,34.180,44.434,44.434,-38.086,0
216226.805,40.527,39.062,47.363,50.293,-11.719,0
216226.809,43.945,21.973,33.691,51.270,4.883,0
216226.813,42.480,14.648,30.762,52.734,31.738,0
216226.817,30.273,18.066,41.992,50.781,71.777,0
216226.820,33.691,23.926,37.598,45.410,32.715,0
216226.824,41.504,26.855,37.109,48.340,14.160,0
216226.828,35.156,21.973,34.180,49.316,17.090,0
216226.832,35.645,19.531,22.461,49.805,5.371,0
216226.836,48.340,26.367,21.484,50.293,-4.395,0
216226.840,52.246,28.809,33.691,47.363,-39.062,0
216226.844,46.875,32.715,38.086,44.922,-22.461,0
216226.848,49.316,37.109,37.109,42.480,7.324,0
216226.852,54.199,28.809,28.320,46.387,31.250,0
216226.856,56.641,30.273,25.391,52.246,22.949,0
216226.859,47.363,36.621,36.133,42.969,-15.625,0
216226.863,46.387,41.016,31.250,48.828,-22.949,0
216226.867,53.711,42.480,21.973,57.129,-9.766,0
216226.871,47.852,30.762,30.273,47.363,2.441,0
216226.875,43.457,30.273,37.598,44.922,-14.160,0
216226.879,41.992,38.574,29.785,34.180,5.859,0
216226.883,40.039,32.715,21.973,32.227,45.898,0
216226.887,42.969,35.645,28.320,41.992,59.082,0
216226.891,38.574,28.809,33.203,34.668,40.039,0
216226.895,31.738,23.926,29.297,30.762,41.992,0
216226.899,34.180,34.668,30.762,37.109,18.555,0
216226.902,33.203,40.039,33.691,34.180,-3.418,0
216226.906,25.879,36.621,26.855,29.785,-0.488,0
216226.910,29.785,30.273,23.438,28.809,3.906,0
216226.914,32.227,36.133,33.203,30.273,-11.719,0
216226.918,33.203,41.016,30.273,44.434,-3.418,0
216226.922,40.039,38.086,16.602,49.316,-4.883,0
216226.926,41.504,37.598,26.855,37.109,-14.160,0
216226.930,42.969,30.273,41.016,27.344,27.344,0
216226.934,49.805,34.180,37.109,37.109,14.160,0
216226.938,44.922,33.691,34.180,40.527,-0.977,0
216226.942,32.227,20.508,29.785,27.832,36.133,0
216226.945,33.203,26.367,21.973,30.762,47.852,0
216226.949,37.109,35.645,19.531,31.738,12.695,0
216226.953,39.551,34.180,27.832,35.645,16.113,0
216226.957,43.945,20.508,28.320,46.387,36.133,0
216226.961,38.086,20.508,27.832,46.387,30.273,0
216226.965,36.133,26.855,39.062,38.574,-22.461,0
216226.969,38.574,21.484,41.992,39.551,-44.434,0
216226.973,38.086,16.602,35.645,39.551,-10.254,0
216226.977,35.645,27.832,37.598,46.387,13.672,0
216226.981,31.738,36.621,41.992,47.363,25.391,0
216226.984,40.039,40.527,49.805,43.457,8.789,0
216226.988,43.945,36.133,43.945,46.387,24.414,0
216226.992,35.156,27.832,23.926,39.551,38.086,0
216226.996,35.156,31.250,32.227,42.969,20.996,0
216227.000,36.133,33.203,42.969,47.363,29.297,0
216227.004,29.297,20.996,33.691,40.039,43.945,0
216227.008,39.551,22.461,39.551,43.457,41.016,0
216227.012,46.387,35.156,41.016,48.340,62.500,0
216227.016,30.762,28.809,25.391,40.039,65.430,0
216227.020,26.367,25.391,28.809,37.598,86.914,0
216227.024,37.109,30.762,34.668,33.203,74.707,0
216227.027,30.273,30.762,25.391,20.020,11.230,0
216227.031,26.855,27.832,25.391,22.949,9.766,0
216227.035,31.250,25.879,27.832,37.109,25.391,0
216227.039,27.344,24.414,24.414,41.504,36.621,0
216227.043,29.297,26.855,28.320,41.992,70.801,0
216227.047,25.879,24.414,30.762,34.668,55.664,0
216227.051,23.926,23.926,28.809,29.785,58.594,0
216227.055,33.691,25.391,34.668,37.598,74.707,0
216227.059,33.203,28.320,29.297,37.109,27.344,0
216227.063,33.691,33.203,23.926,38.574,42.969,0
216227.067,38.086,32.715,29.297,45.410,73.242,0
216227.070,34.180,32.227,22.949,31.738,17.578,0
216227.074,37.109,32.227,22.461,26.855,-1.953,0
216227.078,35.645,31.738,29.785,34.668,41.016,0
216227.082,30.762,33.203,33.691,37.109,44.922,1
216227.086,32.715,35.645,30.762,41.504,46.875,0
216227.090,32.715,36.133,26.367,42.969,66.895,0
216227.094,23.926,29.297,27.832,36.621,75.684,0
216227.098,20.508,25.391,22.949,25.391,57.617,0
216227.102,25.391,22.949,17.578,22.949,85.938,0
216227.106,28.809,20.020,16.602,31.738,84.961,0
216227.109,28.809,29.785,12.695,31.250,64.941,0
216227.113,35.645,41.504,20.020,28.809,53.223,0
216227.117,39.551,43.945,32.227,28.320,4.395,0
216227.121,40.039,28.809,33.203,24.414,37.598,0
216227.125,48.340,17.090,36.621,27.344,70.801,0
216227.129,40.039,28.809,31.250,22.949,44.922,0
216227.133,32.227,37.598,30.273,26.367,33.691,0
216227.137,38.086,29.297,33.203,33.203,32.715,0
216227.141,30.762,31.250,24.902,23.926,48.340,0
216227.145,31.738,41.016,14.160,24.414,50.293,0
216227.149,49.316,46.387,15.137,40.039,55.176,0
216227.152,54.688,42.480,20.508,42.969,55.176,0
216227.156,50.293,33.691,32.227,44.434,54.688,0
216227.160,51.270,39.551,39.551,39.062,22.461,0
216227.164,46.875,37.598,44.434,30.273,-11.230,0
216227.168,38.574,26.367,42.480,40.527,21.973,0
216227.172,40.527,23.926,38.086,44.434,35.645,0
216227.176,34.180,14.648,35.156,32.715,18.066,0
216227.180,23.438,14.648,31.738,29.785,-4.883,0
216227.184,25.879,31.250,22.949,30.273,13.184,0
216227.188,35.156,32.227,19.043,23.926,4.883,0
216227.192,35.645,32.715,34.180,28.320,-22.949,0
216227.195,26.855,31.738,37.598,28.809,27.832,0
216227.199,32.715,33.203,37.109,32.715,39.062,0
216227.203,39.062,39.062,39.551,38.574,18.066,0
216227.207,35.156,32.227,39.551,41.504,4.883,0
216227.211,35.156,29.785,38.086,40.527,13.672,0
216227.215,36.621,29.785,31.250,31.738,62.500,0
216227.219,36.621,27.832,33.691,24.902,44.922,0
216227.223,35.645,27.832,38.574,25.391,33.203,0
216227.227,38.086,25.879,31.738,30.762,77.148,0
216227.231,40.527,27.832,23.438,34.180,80.078,0
216227.234,36.621,32.227,20.508,30.762,40.527,0
216227.238,34.180,31.738,24.902,25.391,39.062,0
216227.242,36.133,25.391,38.086,29.297,70.801,0
216227.246,34.668,25.879,38.086,36.133,77.637,0
216227.250,37.598,33.203,40.039,35.156,11.230,0
216227.254,32.715,27.344,36.621,24.902,1.465,0
216227.258,18.066,17.578,28.320,23.926,27.344,0
216227.262,12.695,22.461,31.738,38.574,32.227,0
216227.266,16.113,31.738,23.926,36.621,40.527,0
216227.270,18.555,30.273,12.695,23.926,7.324,0
216227.274,14.160,25.391,23.438,23.438,20.508,0
216227.277,13.184,31.250,32.715,21.484,24.902,0
216227.281,18.555,36.621,32.227,23.926,10.742,0
216227.285,28.320,39.062,37.598,36.621,36.133,0
216227.289,34.668,43.457,37.109,44.434,33.691,0
216227.293,27.344,32.227,26.367,36.133,11.719,0
216227.297,29.785,24.902,31.250,25.391,0.000,0
216227.301,45.898,28.320,42.480,35.645,62.012,0
216227.305,45.410,24.902,43.945,44.922,57.129,0
216227.309,42.480,28.809,38.574,44.434,-7.324,0
216227.313,41.016,34.668,35.156,39.062,12.207,0
216227.317,38.086,32.715,33.691,41.016,54.688,0
216227.320,34.180,28.809,30.762,45.898,69.824,0
216227.324,38.086,26.855,32.227,41.992,72.266,0
216227.328,49.805,33.691,33.691,45.410,57.129,0
216227.332,45.898,34.668,40.039,45.410,40.527,0
216227.336,37.598,28.320,44.922,33.691,49.316,0
216227.340,43.945,31.738,42.969,28.320,30.273,0
216227.344,44.922,37.109,43.945,27.832,32.227,0
216227.348,35.645,31.738,44.434,31.738,52.246,0
216227.352,38.574,29.785,46.875,33.691,42.969,0
216227.356,44.434,38.574,41.016,32.715,49.316,0
216227.359,34.180,31.738,28.809,31.250,1.953,0
216227.363,27.832,24.902,32.715,39.062,-12.207,0
216227.367,35.156,29.785,38.574,48.340,24.902,0
216227.371,31.738,27.344,32.715,40.527,8.789,0
216227.375,30.762,29.785,24.414,34.668,-3.418,0
216227.379,35.156,33.203,32.227,38.574,7.812,0
216227.383,27.344,31.250,32.715,26.855,37.109,0
216227.387,26.855,36.133,29.297,24.414,27.344,0
216227.391,24.414,37.109,27.832,20.996,34.668,0
216227.395,24.414,37.598,29.785,21.484,51.758,0
216227.399,35.156,40.039,35.645,30.273,17.090,0
216227.402,36.133,26.367,35.156,21.973,19.531,0
216227.406,26.855,22.461,30.273,21.973,5.371,0
216227.410,27.344,31.738,20.508,35.645,-11.230,0
216227.414,32.227,30.762,13.672,33.691,33.203,0
216227.418,28.320,26.367,12.207,20.508,13.672,0
216227.422,31.250,24.902,24.414,24.902,20.996,0
216227.426,30.762,25.879,32.715,21.973,32.715,0
216227.430,27.832,29.785,24.414,21.484,34.180,0
216227.434,37.598,31.250,21.973,33.203,31.738,0
216227.438,40.527,31.250,27.344,31.738,3.418,0
216227.442,30.762,23.926,32.715,28.809,25.391,0
216227.445,29.297,19.531,27.344,28.809,-0.488,0
216227.449,34.668,30.762,26.855,27.832,-36.133,0
216227.453,41.016,40.039,33.691,45.410,-2.930,0
216227.457,44.434,30.762,27.832,58.105,3.906,0
216227.461,47.852,25.879,25.879,46.387,-12.695,0
216227.465,34.180,28.809,25.879,31.250,11.230,0
216227.469,22.949,29.785,33.203,30.273,31.250,0
216227.473,29.785,35.156,44.922,36.133,26.855,0
216227.477,30.273,38.086,46.387,34.180,28.809,0
216227.481,33.203,40.039,46.875,40.039,52.246,0
216227.484,39.551,35.156,41.504,53.223,65.918,0
216227.488,40.039,32.715,35.156,52.734,58.105,0
216227.492,40.039,33.691,37.598,37.598,24.902,0
216227.496,37.598,27.832,36.621,34.180,33.691,0
216227.500,35.645,36.133,32.715,47.852,67.383,0
216227.504,36.621,41.016,34.668,44.434,59.570,0
216227.508,40.039,35.156,28.809,32.227,24.902,0
216227.512,46.875,39.551,31.738,43.457,20.996,0
216227.516,48.340,39.551,40.039,48.828,36.621,0
216227.520,48.340,34.180,30.273,46.387,2.930,0
216227.524,48.340,35.156,32.227,41.016,18.555,0
216227.527,44.922,34.668,36.133,41.504,50.293,0
216227.531,47.852,38.574,33.691,47.363,41.016,0
216227.535,53.711,43.945,38.086,44.434,48.828,0
216227.539,54.199,39.551,38.574,46.387,59.570,0
216227.543,48.828,34.180,22.949,52.246,63.477,0
216227.547,44.922,38.574,17.090,43.457,48.340,0
216227.551,42.480,43.457,29.297,28.809,30.762,0
216227.555,32.227,37.598,33.691,20.020,42.969,0
216227.559,33.691,30.762,24.414,18.066,75.195,0
216227.563,35.645,26.367,21.484,21.973,63.965,0
216227.567,28.320,33.691,26.367,25.391,63.477,0
216227.570,36.133,46.387,36.621,30.273,64.941,0
216227.574,38.574,41.992,33.203,25.391,41.992,0
216227.578,37.598,27.832,19.531,34.668,54.688,0
216227.582,36.621,25.391,19.043,35.645,21.973,0
216227.586,25.391,33.691,27.832,22.949,15.625,0
216227.590,21.973,38.574,35.156,20.020,73.730,0
216227.594,20.508,29.297,30.762,24.414,82.520,0
216227.598,19.531,21.973,30.762,28.809,63.965,0
216227.602,17.090,24.414,29.785,26.855,54.199,0
216227.606,24.902,33.203,36.621,28.809,41.992,0
216227.609,37.598,35.645,40.039,33.691,33.691,0
216227.613,34.180,22.949,28.320,36.133,49.805,0
216227.617,27.344,19.531,39.062,38.574,78.125,0
216227.621,21.484,22.461,43.457,36.621,40.039,0
216227.625,16.113,19.043,30.273,24.414,6.836,0
216227.629,19.043,16.113,33.691,19.531,11.230,0
216227.633,26.855,21.973,38.086,28.320,16.602,0
216227.637,29.785,22.461,28.320,31.738,14.160,0
216227.641,32.227,19.531,30.762,29.297,10.254,0
216227.645,32.227,28.320,35.645,28.809,30.273,0
216227.649,25.879,37.598,28.809,31.250,58.594,0
216227.652,29.297,43.945,30.762,39.062,13.184,0
216227.656,37.109,38.086,21.973,40.527,-10.254,0
216227.660,31.738,29.785,21.484,30.273,9.766,0
216227.664,28.320,31.738,47.363,28.809,32.227,0
216227.668,29.297,31.250,43.945,29.297,21.484,0
216227.672,25.879,33.691,33.203,24.902,-15.625,0
216227.676,28.320,30.273,39.551,30.273,17.578,0
216227.680,32.715,30.273,39.551,34.180,66.406,0
216227.684,36.133,38.574,32.715,36.133,72.754,0
216227.688,41.504,38.574,32.715,38.086,60.547,0
216227.692,39.062,32.715,29.297,41.992,84.961,0
216227.695,30.762,27.832,22.461,38.086,83.984,0
216227.699,33.691,23.926,33.203,33.203,59.570,0
216227.703,34.180,27.344,37.598,38.574,57.617,0
216227.707,32.715,31.250,31.250,37.109,29.297,0
216227.711,37.598,25.391,35.156,41.992,34.668,0
216227.715,38.574,29.785,35.645,37.598,17.090,0
216227.719,30.762,36.621,36.133,22.949,2.930,0
216227.723,19.043,31.250,37.109,23.926,53.223,0
216227.727,22.461,24.902,39.551,29.785,64.941,0
216227.731,36.621,24.902,38.086,41.992,71.289,0
216227.734,41.504,33.691,28.320,48.340,90.820,0
216227.738,40.039,41.504,21.973,43.945,81.055,0
216227.742,47.852,39.062,27.832,42.480,71.289,0
216227.746,59.082,49.805,40.039,51.270,68.848,1
216227.750,56.641,56.152,45.898,46.387,61.035,0
216227.754,43.457,48.340,47.363,39.062,46.387,0
216227.758,43.457,51.270,53.711,48.828,2.441,0
216227.762,55.176,48.828,51.758,55.176,-11.719,0
216227.766,63.965,50.781,50.293,58.594,18.555,0
216227.770,63.965,53.711,56.152,61.523,39.062,0
216227.774,63.477,51.270,47.852,56.641,33.203,0
216227.777,59.082,49.805,38.086,46.387,1.953,0
216227.781,55.664,49.805,45.410,51.270,-7.812,0
216227.785,59.570,48.340,49.805,66.406,20.996,0
216227.789,55.664,41.504,45.410,59.082,30.273,0
216227.793,49.316,33.203,47.852,37.109,27.832,0
216227.797,44.922,25.391,45.898,33.203,36.133,0
216227.801,41.504,15.625,37.598,36.621,52.734,0
216227.805,41.992,15.137,34.668,34.668,54.199,0
216227.809,42.969,18.555,39.062,32.227,25.391,0
216227.813,43.945,26.855,42.480,37.109,21.484,0
216227.817,42.480,31.250,38.086,41.016,43.945,0
216227.820,38.086,26.855,28.809,28.809,-3.418,0
216227.824,40.039,32.227,13.184,25.391,-20.020,0
216227.828,42.969,36.133,16.113,38.086,43.945,0
216227.832,43.457,31.738,27.344,41.992,20.996,0
216227.836,44.922,27.344,36.133,36.133,10.742,0
216227.840,50.293,26.367,40.039,43.457,40.039,0
216227.844,47.852,28.809,33.203,44.434,50.781,0
216227.848,46.387,31.250,37.598,43.457,22.949,0
216227.852,43.457,36.621,29.297,41.504,0.000,0
216227.856,36.133,38.086,15.137,30.273,17.090,0
216227.859,37.598,29.297,23.926,31.250,28.809,0
216227.863,37.598,26.855,20.508,34.180,41.016,0
216227.867,34.180,30.273,16.602,29.297,24.414,0
216227.871,33.691,21.484,30.762,38.574,35.156,0
216227.875,31.250,20.020,36.621,44.434,50.293,0
216227.879,24.414,25.391,31.250,25.879,10.254,0
216227.883,20.508,22.461,25.879,22.949,36.621,0
216227.887,17.090,22.949,18.555,20.996,46.387,0
216227.891,18.555,24.414,14.160,24.414,32.227,0
216227.895,20.020,22.949,20.508,26.855,46.387,0
216227.899,20.020,23.438,25.879,22.461,13.184,0
216227.902,22.461,27.832,20.508,25.391,23.926,0
216227.906,27.344,28.809,21.484,29.785,62.500,0
216227.910,33.691,25.879,26.855,32.715,37.598,0
216227.914,33.691,30.762,31.738,34.668,8.301,0
216227.918,27.832,32.227,26.367,32.715,57.129,0
216227.922,24.902,25.391,17.090,26.367,64.453,0
216227.926,26.367,20.996,22.461,26.855,40.039,0
216227.930,21.973,21.484,31.738,19.531,8.301,0
216227.934,20.508,19.043,33.203,18.555,5.859,0
216227.938,25.391,21.973,33.691,28.320,30.762,0
216227.942,28.320,20.996,34.180,34.180,47.852,0
216227.945,34.180,20.020,26.855,43.457,87.891,0
216227.949,33.203,26.367,26.367,46.387,104.004,0
216227.953,24.414,21.484,19.531,31.738,86.426,0
216227.957,28.320,10.254,18.066,26.367,56.641,0
216227.961,39.062,7.812,38.574,38.574,34.668,0
216227.965,37.109,12.207,44.434,38.574,24.902,0
216227.969,26.855,14.160,37.109,23.926,-0.977,0
216227.973,17.578,15.625,32.227,29.297,-10.254,0
216227.977,15.625,16.113,23.438,31.250,30.762,0
216227.981,21.973,14.648,18.066,26.367,100.098,0
216227.984,28.809,9.277,24.902,26.855,89.844,0
216227.988,32.227,13.672,38.086,32.715,33.203,0
216227.992,27.344,22.461,41.992,30.762,46.387,0
216227.996,19.043,12.695,30.273,19.043,40.527,0
216228.000,13.672,8.789,20.508,15.137,0.488,0
216228.004,8.789,6.836,21.973,10.254,-10.254,0
216228.008,15.625,15.137,27.832,16.113,29.785,0
216228.012,22.461,25.879,26.855,22.949,47.852,0
216228.016,18.066,21.973,21.484,19.043,41.504,0
216228.020,17.578,20.996,26.855,18.555,36.133,0
216228.024,24.902,22.949,30.273,23.438,12.207,0
216228.027,27.832,24.414,19.043,28.320,40.527,0
216228.031,31.738,29.297,15.625,31.250,36.133,0
216228.035,30.762,31.738,15.625,25.391,19.531,0
216228.039,25.391,31.250,17.578,12.695,27.344,0
216228.043,22.461,21.973,20.996,4.395,24.414,0
216228.047,26.367,18.066,18.555,6.348,5.859,0
216228.051,30.273,21.484,25.391,14.648,6.836,0
216228.055,37.109,30.273,26.367,23.926,20.996,0
216228.059,42.480,38.574,18.066,23.926,-14.648,0
216228.063,40.527,33.691,20.508,22.461,-2.930,0
216228.067,35.645,31.738,26.367,23.438,60.059,0
216228.070,37.109,36.133,22.461,33.203,73.730,0
216228.074,34.668,35.156,18.555,38.086,32.227,0
216228.078,28.809,26.855,20.508,29.785,8.789,0
216228.082,28.809,24.414,29.297,28.320,33.691,0
216228.086,20.508,20.508,33.203,32.227,37.598,0
216228.090,18.066,19.531,29.785,29.785,-24.414,0
216228.094,29.785,24.902,26.855,34.180,-7.324,0
216228.098,43.457,17.578,23.926,49.805,61.523,0
216228.102,29.297,12.207,29.785,36.133,69.824,0
216228.106,8.301,13.672,34.668,15.625,71.777,0
216228.109,13.672,15.137,32.227,21.973,57.617,0
216228.113,23.926,12.207,27.832,33.691,-2.441,0
216228.117,23.926,3.906,24.902,36.621,1.465,0
216228.121,22.461,9.766,31.738,38.574,36.133,0
216228.125,20.996,17.090,40.039,37.109,30.273,0
216228.129,26.855,20.508,36.621,46.875,65.918,0
216228.133,38.086,22.949,36.621,56.152,60.059,0
216228.137,41.504,24.414,32.715,44.434,17.578,0
216228.141,42.969,24.414,35.156,39.551,-0.977,0
216228.145,41.992,19.043,43.457,38.574,-18.066,0
216228.149,41.504,6.836,47.852,40.039,14.648,0
216228.152,31.250,8.789,41.504,34.180,-20.508,0
216228.156,17.578,18.555,35.645,24.902,-59.082,0
216228.160,21.973,12.695,39.062,35.645,21.484,0
216228.164,27.832,8.789,38.086,38.574,42.480,0
216228.168,25.879,15.625,34.180,34.668,26.855,0
216228.172,22.949,23.926,34.180,30.762,51.758,0
216228.176,22.949,21.973,37.109,25.391,49.805,0
216228.180,24.414,18.555,36.133,27.832,38.574,0
216228.184,23.926,22.949,26.855,26.855,23.926,0
216228.188,26.367,30.762,27.344,28.320,31.738,0
216228.192,25.391,36.133,32.715,32.227,83.496,0
216228.195,21.484,28.809,20.020,20.508,94.727,0
216228.199,22.949,18.555,10.254,13.184,66.406,0
216228.203,21.973,26.855,13.672,25.879,73.242,0
216228.207,19.531,36.133,20.020,29.297,66.406,0
216228.211,23.438,34.180,21.973,25.879,37.109,0
216228.215,27.344,37.598,20.508,30.762,37.598,0
216228.219,34.668,38.086,19.043,26.855,35.645,0
216228.223,43.457,39.062,28.809,30.762,10.254,0
216228.227,41.016,41.504,33.691,35.645,-6.348,0
216228.231,39.062,37.109,30.762,35.156,16.602,0
216228.234,44.434,30.762,36.621,40.527,38.574,0
216228.238,45.410,22.949,28.809,35.645,5.859,0
216228.242,45.898,23.438,20.020,36.133,-4.883,0
216228.246,46.875,32.227,23.438,43.945,56.152,0
216228.250,45.410,32.227,25.879,43.457,86.426,0
216228.254,43.457,26.855,31.738,42.969,50.781,0
216228.258,45.410,29.785,35.645,43.945,15.137,0
216228.262,54.199,36.133,44.922,46.875,48.828,0
216228.266,53.223,30.762,53.223,47.852,73.242,0
216228.270,49.805,22.461,42.969,47.852,20.508,0
216228.274,46.875,14.648,41.504,42.480,-18.066,0
216228.277,41.992,14.160,43.457,40.039,11.230,0
216228.281,40.039,8.789,33.691,38.574,33.691,0
216228.285,36.621,11.230,29.297,30.273,30.273,0
216228.289,47.363,32.715,35.645,39.062,21.973,0
216228.293,52.734,29.785,43.457,52.734,13.672,0
216228.297,41.504,20.996,44.922,44.922,19.043,0
216228.301,41.016,25.879,42.969,45.410,21.484,0
216228.305,41.016,21.973,42.480,48.340,31.738,0
216228.309,40.039,27.832,45.898,43.945,64.453,0
216228.313,41.504,32.227,43.457,44.922,62.988,0
216228.317,30.762,16.602,40.039,31.250,34.180,0
216228.320,29.785,19.531,40.039,28.809,53.711,0
216228.324,33.691,30.762,33.691,29.297,67.383,0
216228.328,22.461,26.855,41.016,13.184,41.504,0
216228.332,19.043,20.508,40.039,9.766,6.836,0
216228.336,23.926,18.555,32.227,20.020,0.977,0
216228.340,25.879,28.809,35.645,30.273,20.020,0
216228.344,27.344,40.039,38.086,29.297,41.504,0
216228.348,27.832,28.320,37.598,28.320,36.133,0
216228.352,36.133,22.461,39.062,38.086,26.855,0
216228.356,38.574,31.250,30.762,37.598,66.895,0
216228.359,29.785,27.832,20.996,32.715,82.031,0
216228.363,28.320,20.020,19.043,32.715,66.895,1
216228.367,24.902,15.137,21.973,35.156,56.641,0
216228.371,19.043,19.043,21.484,25.391,28.320,0
216228.375,23.926,33.203,18.066,15.625,-15.137,0
216228.379,32.227,38.086,22.461,23.926,1.465,0
216228.383,35.156,32.715,25.391,30.273,92.285,0
216228.387,33.691,36.133,26.367,34.668,112.793,0
216228.391,29.297,43.457,22.949,32.227,55.176,0
216228.395,22.461,40.527,11.719,18.555,27.344,0
216228.399,26.367,29.785,17.090,21.973,50.781,0
216228.402,34.668,32.715,16.602,28.809,43.457,0
216228.406,31.250,41.992,5.859,20.996,13.184,0
216228.410,36.133,47.363,15.137,26.855,-6.836,0
216228.414,39.062,46.875,20.020,32.715,17.090,0
216228.418,34.668,37.109,12.207,26.855,20.020,0
216228.422,38.574,35.156,20.020,21.973,-20.020,0
216228.426,38.574,34.668,29.297,27.344,-21.484,0
216228.430,38.574,31.738,27.344,37.109,-3.906,0
216228.434,41.016,36.621,12.695,37.598,-11.230,0
216228.438,29.785,36.621,5.859,29.297,-16.602,0
216228.442,33.203,32.715,18.555,34.668,20.020,0
216228.445,39.062,32.715,22.949,41.016,27.832,0
216228.449,37.598,35.645,25.879,41.016,-11.719,0
216228.453,42.480,42.480,28.320,42.969,-23.438,0
216228.457,37.598,36.621,28.320,39.062,-0.488,0
216228.461,29.297,22.949,32.227,32.715,15.137,0
216228.465,26.367,31.250,29.785,27.344,-9.766,0
216228.469,26.367,35.645,26.367,16.602,-1.953,0
216228.473,29.785,35.645,30.762,21.484,14.160,0
216228.477,35.645,52.734,32.227,27.344,15.137,0
216228.481,25.391,49.316,21.973,19.043,20.508,0
216228.484,12.207,35.645,16.113,16.602,58.594,0
216228.488,18.555,31.250,18.555,23.926,91.797,0
216228.492,32.715,29.785,27.832,31.738,74.219,0
216228.496,28.320,30.762,35.156,23.926,57.617,0
216228.500,19.043,29.785,35.645,16.602,62.500,0
216228.504,23.926,31.250,28.320,26.367,77.637,0
216228.508,22.461,31.250,21.484,24.414,94.727,0
216228.512,18.066,29.785,23.926,15.137,72.266,0
216228.516,29.297,31.250,32.715,27.832,47.852,0
216228.520,27.344,31.738,31.738,31.738,62.988,0
216228.524,18.555,24.414,18.066,26.367,91.309,0
216228.527,20.996,21.484,9.766,19.043,56.641,0
216228.531,20.508,27.832,18.066,13.672,41.016,0
216228.535,21.973,27.832,20.996,26.367,72.266,0
216228.539,25.879,28.320,15.625,34.668,64.453,0
216228.543,27.344,33.203,23.438,30.273,42.480,0
216228.547,28.809,29.785,32.715,24.414,52.246,0
216228.551,29.785,24.902,33.691,26.855,75.684,0
216228.555,30.273,28.320,36.133,24.902,69.824,0
216228.559,29.297,28.809,30.762,23.438,44.922,0
216228.563,30.762,30.762,24.414,23.438,34.668,0
216228.567,33.203,33.203,25.879,31.250,58.105,0
216228.570,35.645,28.320,20.996,33.203,57.129,0
216228.574,33.203,27.832,22.461,18.555,29.297,0
216228.578,33.691,31.738,27.832,24.414,53.711,0
216228.582,42.969,30.273,27.344,31.250,56.641,0
216228.586,46.875,24.902,36.133,32.227,29.297,0
216228.590,39.062,30.273,37.109,36.621,66.895,0
216228.594,33.691,34.180,26.855,37.598,86.426,0
216228.598,37.598,39.062,24.414,41.016,64.453,0
216228.602,36.133,41.016,28.320,34.180,54.199,0
216228.606,35.156,38.574,37.598,34.180,26.367,0
216228.609,34.668,33.691,44.434,36.133,22.949,0
216228.613,28.320,33.691,32.715,31.738,41.016,0
216228.617,34.180,30.273,20.996,20.996,-22.461,0
216228.621,35.645,16.602,23.926,18.555,-37.598,0
216228.625,24.902,19.531,27.344,24.414,7.812,0
216228.629,26.855,30.762,27.344,30.762,-17.578,0
216228.633,32.715,31.250,34.668,41.992,3.906,0
216228.637,31.250,33.203,37.109,40.527,56.641,0
216228.641,31.250,37.598,38.574,35.156,48.340,0
216228.645,31.250,35.156,35.156,33.691,15.137,0
216228.649,35.645,35.645,31.250,37.598,5.371,0
216228.652,35.645,30.762,28.809,35.156,17.578,0
216228.656,31.738,20.508,29.297,25.391,-6.348,0
216228.660,29.297,20.020,35.645,20.996,-11.719,0
216228.664,28.320,18.066,27.344,21.484,-7.812,0
216228.668,36.133,29.297,20.020,31.738,-10.742,0
216228.672,34.668,40.039,29.785,35.156,51.758,0
216228.676,30.273,37.598,32.227,34.180,70.312,0
216228.680,31.738,37.109,33.691,36.133,35.645,0
216228.684,30.762,33.691,37.109,45.898,65.918,0
216228.688,29.297,24.414,39.062,37.109,46.387,0
216228.692,20.996,19.531,36.133,17.090,17.090,0
216228.695,22.949,21.484,29.785,23.438,51.270,0
216228.699,30.762,23.438,28.809,32.227,43.945,0
216228.703,22.949,24.414,25.879,30.273,19.043,0
216228.707,19.043,28.320,29.297,20.020,-1.953,0
216228.711,22.461,31.738,34.180,19.043,6.836,0
216228.715,25.391,27.344,21.484,26.855,35.645,0
216228.719,32.227,19.531,20.996,32.715,22.461,0
216228.723,31.738,22.949,40.039,35.645,12.695,0
216228.727,36.621,36.133,49.316,36.133,16.113,0
216228.731,32.715,28.809,41.016,31.250,56.152,0
216228.734,15.625,10.742,30.273,28.809,76.660,0
216228.738,20.508,18.555,30.273,24.902,33.203,0
216228.742,41.992,34.668,36.133,34.180,29.785,0
216228.746,44.922,41.016,34.668,41.992,47.363,0
216228.750,25.879,37.598,28.320,22.461,36.133,0
216228.754,25.391,36.133,30.273,22.461,9.277,0
216228.758,33.691,41.504,33.203,36.621,-10.254,0
216228.762,27.832,32.227,31.738,32.227,-15.137,0
216228.766,27.832,24.902,34.180,26.367,-32.227,0
216228.770,26.855,28.320,32.227,28.809,-50.293,0
216228.774,20.020,31.250,25.391,25.879,-59.082,0
216228.777,21.973,27.344,28.809,22.461,-71.289,0
216228.781,28.320,26.855,38.086,24.414,-37.109,0
216228.785,29.297,30.273,41.992,27.344,-16.602,0
216228.789,29.297,25.391,31.738,28.809,-12.695,0
216228.793,32.227,24.902,23.438,33.691,-14.160,0
216228.797,31.738,28.320,31.738,39.551,-37.109,0
216228.801,28.320,20.508,34.180,37.109,-27.832,0
216228.805,23.438,20.996,25.879,30.762,-2.930,0
216228.809,26.855,29.297,21.484,31.250,24.902,0
216228.813,25.879,24.902,22.461,26.855,21.973,0
216228.817,23.438,25.879,21.484,26.855,-6.836,0
216228.820,23.438,32.227,32.227,31.738,20.996,0
216228.824,22.461,34.668,41.992,25.391,33.691,0
216228.828,23.438,31.250,31.250,21.484,-7.324,0
216228.832,29.297,27.832,27.832,30.273,8.789,0
216228.836,30.273,28.809,27.832,30.273,30.762,0
216228.840,38.086,37.109,25.391,33.203,-0.977,0
216228.844,46.875,36.133,28.320,36.621,-32.227,0
216228.848,37.598,18.555,27.344,25.879,0.000,0
216228.852,34.668,18.555,29.297,30.762,19.531,0
216228.856,40.039,32.227,32.227,41.016,31.250,0
216228.859,37.109,31.250,37.598,41.016,46.875,0
216228.863,32.227,23.438,35.645,44.434,42.969,0
216228.867,28.809,18.555,27.344,41.504,17.090,0
216228.871,22.949,17.578,27.344,33.203,-5.859,0
216228.875,25.879,26.855,33.203,35.156,20.020,0
216228.879,30.762,32.227,32.715,33.691,63.965,0
216228.883,31.250,26.367,20.020,35.645,54.199,0
216228.887,29.785,27.344,25.391,30.273,43.945,0
216228.891,26.367,31.250,37.598,20.020,51.270,0
216228.895,29.785,32.715,32.715,27.344,34.668,0
216228.899,37.109,34.180,34.668,41.016,27.344,0
216228.902,37.598,34.180,35.645,32.227,3.906,0
216228.906,36.133,33.691,32.715,22.949,30.273,0
216228.910,37.598,32.715,32.227,30.762,61.035,0
216228.914,39.062,34.180,28.809,32.227,66.406,0
216228.918,40.527,34.668,20.996,31.738,62.012,0
216228.922,36.133,25.879,21.973,24.902,72.754,0
216228.926,33.203,24.414,32.715,19.531,75.684,0
216228.930,33.203,30.273,38.574,20.508,78.613,0
216228.934,32.227,33.203,37.598,23.926,85.449,0
216228.938,31.738,33.203,36.621,26.367,80.078,0
216228.942,27.344,28.320,33.691,27.832,60.059,0
216228.945,30.762,24.902,26.367,35.156,7.324,0
216228.949,29.785,18.066,22.949,27.832,-13.672,0
216228.953,21.973,21.484,25.879,25.391,48.340,0
216228.957,19.043,23.926,21.973,29.297,84.473,0
216228.961,18.066,16.113,20.508,24.414,62.988,0
216228.965,17.578,17.578,23.438,17.090,7.812,0
216228.969,15.137,28.320,21.484,20.020,20.020,0
216228.973,17.578,33.691,29.297,29.785,56.152,0
216228.977,18.066,31.250,36.133,23.926,32.227,0
216228.981,17.578,31.250,30.762,18.555,41.504,0
216228.984,19.531,27.344,20.996,17.578,43.945,0
216228.988,18.555,25.879,23.926,18.066,29.785,0
216228.992,19.531,28.320,28.320,20.020,6.348,0
216228.996,15.625,14.648,26.855,16.602,16.113,0
216229.000,20.020,14.160,26.855,12.207,30.273,0
216229.004,34.668,29.297,26.367,22.461,22.949,0
216229.008,34.668,33.203,24.414,30.273,42.480,0
216229.012,37.109,32.227,16.602,40.039,64.453,0
216229.016,49.316,27.832,20.996,47.363,57.617,0
216229.020,45.410,24.414,37.598,39.551,34.180,0
216229.024,41.504,28.809,35.645,36.621,10.742,0
216229.027,46.875,41.504,33.203,47.852,-17.090,0
216229.031,45.410,45.898,34.180,52.246,-0.977,0
216229.035,41.504,39.551,27.832,41.016,-1.953,1
216229.039,39.062,36.133,22.949,35.156,-25.879,0
216229.043,41.504,35.645,28.809,45.410,-6.348,0
216229.047,45.898,34.180,41.504,55.176,11.719,0
216229.051,39.551,34.180,41.992,41.016,25.391,0
216229.055,32.227,28.809,35.156,26.367,44.922,0
216229.059,28.320,27.832,39.062,26.855,48.828,0
216229.063,31.738,34.668,32.227,30.762,34.180,0
216229.067,38.574,31.738,25.879,37.109,12.695,0
216229.070,36.133,32.227,35.156,39.551,27.832,0
216229.074,40.527,41.992,42.480,46.875,56.152,0
216229.078,38.574,47.852,45.898,51.270,49.805,0
216229.082,27.832,40.039,36.621,30.273,-20.020,0
216229.086,21.973,32.227,25.391,21.973,-11.719,0
216229.090,14.648,29.785,23.438,27.832,53.223,0
216229.094,14.648,25.391,25.879,27.344,51.758,0
216229.098,22.461,28.809,26.855,28.809,42.969,0
216229.102,23.438,32.227,27.832,26.855,42.969,0
216229.106,23.438,29.297,21.973,26.855,30.273,0
216229.109,24.414,29.297,18.555,27.344,42.969,0
216229.113,18.555,29.785,24.414,26.855,41.016,0
216229.117,16.113,26.855,30.762,30.762,29.297,0
216229.121,14.648,17.578,23.926,29.297,-9.277,0
216229.125,18.066,15.137,12.207,19.531,-46.875,0
216229.129,24.902,26.367,17.578,23.926,-51.758,0
216229.133,21.973,33.203,34.668,41.016,-0.977,0
216229.137,18.555,32.715,36.133,35.156,21.973,0
216229.141,19.043,26.855,30.273,25.879,9.766,0
216229.145,20.508,21.484,33.691,21.973,41.504,0
216229.149,21.973,26.855,29.297,26.855,21.484,0
216229.152,23.926,35.645,24.902,31.738,24.902,0
216229.156,25.879,32.715,29.785,27.344,41.504,0
216229.160,24.414,30.273,28.809,28.320,10.254,0
216229.164,27.832,32.715,23.926,35.156,-3.906,0
216229.168,30.273,32.227,26.367,40.039,2.930,0
216229.172,32.715,32.715,33.203,30.762,-31.250,0
216229.176,35.156,37.598,42.969,34.180,3.418,0
216229.180,35.645,36.621,40.039,41.504,45.898,0
216229.184,39.062,34.668,31.250,37.598,18.555,0
216229.188,40.527,33.203,29.297,32.715,36.133,0
216229.192,46.387,36.621,24.902,38.574,51.270,0
216229.195,45.898,41.504,32.227,44.922,50.781,0
216229.199,41.016,38.574,41.992,35.645,31.738,0
216229.203,40.039,36.133,39.551,33.203,19.043,0
216229.207,43.457,36.621,35.156,38.574,55.664,0
216229.211,44.922,40.039,27.344,36.621,89.844,0
216229.215,41.992,38.574,23.926,33.691,49.805,0
216229.219,47.363,38.086,37.598,36.133,12.695,0
216229.223,47.852,40.039,46.875,43.945,62.012,0
216229.227,45.410,38.574,37.598,50.293,78.613,0
216229.231,46.875,38.086,20.996,50.781,56.641,0
216229.234,41.992,35.156,16.113,42.480,14.648,0
216229.238,36.133,33.691,28.320,31.738,6.348,0
216229.242,34.668,38.574,36.621,27.832,41.016,0
216229.246,34.180,39.551,37.109,30.273,49.805,0
216229.250,32.715,40.039,31.250,32.715,60.059,0
216229.254,28.320,43.457,20.996,27.832,79.590,0
216229.258,28.320,42.480,23.438,26.367,47.852,0
216229.262,32.715,40.039,31.250,36.133,10.254,0
216229.266,36.621,40.039,30.762,38.086,41.504,0
216229.270,33.691,38.086,26.367,33.203,65.430,0
216229.274,30.762,28.809,23.926,30.273,28.809,0
216229.277,33.203,29.785,25.879,27.344,-9.277,0
216229.281,33.203,37.109,27.832,31.738,11.719,0
216229.285,34.180,41.016,25.879,40.527,61.523,0
216229.289,34.668,31.738,26.367,43.457,78.125,0
216229.293,33.203,23.438,29.785,40.039,74.219,0
216229.297,37.598,24.902,23.926,44.922,76.660,0
216229.301,46.387,24.902,10.254,53.223,89.844,0
216229.305,54.688,34.180,20.020,50.293,29.785,0
216229.309,48.340,38.574,39.551,41.504,25.391,0
216229.313,37.598,35.156,42.480,39.062,48.828,0
216229.317,40.039,35.645,40.039,41.504,48.828,0
216229.320,39.551,33.203,37.598,34.180,17.578,0
216229.324,30.273,26.367,34.668,23.438,-15.625,0
216229.328,29.297,21.484,34.668,26.855,15.137,0
216229.332,42.480,25.391,33.203,38.574,36.133,0
216229.336,44.434,36.133,28.320,44.922,0.977,0
216229.340,41.992,40.527,24.902,48.340,5.371,0
216229.344,49.805,41.016,30.273,52.246,14.160,0
216229.348,48.340,37.109,28.320,46.875,18.066,0
216229.352,42.480,33.691,36.621,50.293,44.922,0
216229.356,47.852,39.551,53.711,54.199,48.828,0
216229.359,47.363,38.086,42.969,37.109,52.246,0
216229.363,42.480,31.250,37.109,34.180,55.664,0
216229.367,41.504,33.203,39.551,35.645,26.855,0
216229.371,39.551,33.203,33.203,35.156,14.160,0
216229.375,44.434,33.203,35.645,45.410,59.082,0
216229.379,50.293,36.133,33.691,44.922,37.109,0
216229.383,51.270,38.086,26.367,44.434,38.086,0
216229.387,52.734,41.016,28.809,54.688,65.430,0
216229.391,47.852,34.180,35.645,54.199,57.617,0
216229.395,41.992,30.273,39.551,47.363,76.172,0
216229.399,38.086,35.156,43.457,51.270,52.246,0
216229.402,35.645,39.551,41.504,49.805,55.176,0
216229.406,34.180,39.551,39.551,38.086,91.797,0
216229.410,27.344,37.109,33.691,29.785,48.828,0
216229.414,28.320,39.551,29.785,28.320,23.926,0
216229.418,32.227,32.227,26.855,36.133,34.668,0
216229.422,25.391,26.855,20.020,42.480,33.203,0
216229.426,23.926,33.203,19.043,38.086,39.062,0
216229.430,27.832,36.133,24.414,26.855,30.762,0
216229.434,22.461,26.367,27.832,17.090,41.992,0
216229.438,23.438,20.996,28.809,23.926,59.570,0
216229.442,29.297,30.762,36.133,31.738,20.996,0
216229.445,29.297,34.668,29.297,31.738,7.324,0
216229.449,29.785,33.203,18.066,32.715,8.789,0
216229.453,30.273,35.645,29.297,32.715,-20.508,0
216229.457,25.391,30.273,40.527,30.762,-29.785,0
216229.461,30.762,23.926,42.480,38.086,1.953,0
216229.465,37.109,29.785,33.203,45.898,13.672,0
216229.469,30.762,31.250,25.391,42.969,5.859,0
216229.473,28.809,26.855,27.832,40.527,7.812,0
216229.477,27.344,24.902,29.297,38.086,41.992,0
216229.481,24.902,27.344,26.855,32.715,58.105,0
216229.484,27.832,31.250,28.320,28.809,12.207,0
216229.488,31.738,27.832,27.344,30.273,20.020,0
216229.492,29.297,23.438,29.297,29.297,19.531,0
216229.496,29.785,16.602,30.762,34.180,-6.836,0
216229.500,28.809,21.973,25.879,28.320,16.113,0
216229.504,21.484,31.738,27.344,14.160,15.625,0
216229.508,16.113,25.879,31.738,17.090,34.180,0
216229.512,16.602,23.438,33.691,21.973,46.387,0
216229.516,22.461,32.227,41.016,22.949,59.570,0
216229.520,20.996,32.715,37.109,21.484,64.941,0
216229.524,18.555,20.020,22.949,21.973,24.902,0
216229.527,19.531,19.043,21.973,28.809,26.367,0
216229.531,19.531,24.414,19.043,23.438,46.875,0
216229.535,28.320,26.855,20.020,20.020,33.691,0
216229.539,36.133,27.344,30.762,25.879,9.766,0
216229.543,33.203,29.785,24.414,21.484,-13.672,0
216229.547,32.227,27.344,22.949,22.949,-30.273,0
216229.551,29.785,22.461,41.504,27.344,-56.641,0
216229.555,20.508,24.414,44.434,21.973,-14.160,0
216229.559,14.160,25.391,28.809,15.625,19.531,0
216229.563,16.113,31.738,26.855,19.043,-15.625,0
216229.567,18.555,31.250,23.438,18.555,-32.715,0
216229.570,21.973,27.344,18.066,15.137,-31.738,0
216229.574,28.320,30.762,20.996,20.508,-22.461,0
216229.578,26.367,29.785,20.020,21.973,1.953,0
216229.582,24.902,21.484,22.949,27.344,26.367,0
216229.586,34.180,19.531,25.879,47.363,63.965,0
216229.590,34.668,23.926,13.672,44.434,62.988,0
216229.594,29.785,30.762,19.531,19.043,38.574,0
216229.598,28.809,38.574,39.062,24.414,53.711,0
216229.602,30.273,40.039,41.016,32.715,59.570,0
216229.606,31.738,36.621,33.691,24.902,60.547,0
216229.609,28.809,33.203,23.926,25.879,35.645,0
216229.613,34.180,36.133,20.508,29.297,66.406,0
216229.617,39.551,34.180,24.902,26.855,76.660,0
216229.621,34.668,29.785,18.555,21.973,41.992,0
216229.625,27.344,25.391,13.184,29.297,34.180,0
216229.629,27.832,20.020,21.484,45.410,39.062,0
216229.633,31.250,21.973,26.855,40.527,14.648,0
216229.637,28.809,22.949,28.320,33.691,-20.508,0
216229.641,29.785,20.020,33.203,36.133,-6.348,0
216229.645,30.762,20.508,39.062,34.180,9.277,0
216229.649,33.691,31.738,37.109,39.551,-12.695,0
216229.652,33.203,29.785,34.180,40.527,-52.246,0
216229.656,31.738,19.531,32.715,36.621,-21.484,1
216229.660,32.715,22.949,27.832,37.598,52.246,0
216229.664,34.668,25.391,23.438,35.645,48.340,0
216229.668,37.598,27.832,20.020,36.133,49.805,0
216229.672,42.969,34.668,22.461,40.527,76.660,0
216229.676,42.969,38.086,30.762,40.527,59.082,0
216229.680,39.551,37.598,36.133,41.504,33.691,0
216229.684,42.480,32.715,39.062,39.551,12.207,0
216229.688,40.527,25.879,36.133,43.945,18.066,0
216229.692,33.691,22.949,30.762,49.805,29.297,0
216229.695,33.691,23.438,30.762,32.227,25.879,0
216229.699,35.156,22.949,28.320,25.879,9.766,0
216229.703,34.668,27.832,25.391,37.598,59.570,0
216229.707,31.738,34.668,22.461,36.133,85.938,0
216229.711,29.297,29.297,20.020,29.297,47.363,0
216229.715,33.203,23.926,26.855,32.227,51.270,0
216229.719,31.738,23.438,35.645,30.762,58.105,0
216229.723,21.484,25.391,31.250,26.855,32.715,0
216229.727,17.090,29.785,25.391,27.344,19.531,0
216229.731,18.066,27.832,29.297,24.902,25.391,0
216229.734,21.973,29.297,30.273,30.273,12.207,0
216229.738,25.391,30.762,19.531,35.156,-11.230,0
216229.742,30.273,30.762,22.461,31.738,-34.180,0
216229.746,40.527,34.668,39.062,40.527,-38.086,0
216229.750,39.551,31.738,34.180,41.992,-37.109,0
216229.754,27.832,27.344,12.207,32.227,-48.828,0
216229.758,24.414,22.461,15.137,27.344,-18.066,0
216229.762,29.785,24.902,34.180,28.320,22.949,0
216229.766,32.227,31.738,30.273,29.785,68.359,0
216229.770,31.738,28.320,23.926,23.926,38.086,0
216229.774,34.180,19.531,28.320,26.367,22.949,0
216229.777,38.574,12.695,30.762,35.645,39.551,0
216229.781,48.828,23.926,32.715,45.410,20.508,0
216229.785,60.547,42.969,32.227,49.805,13.184,0
216229.789,54.199,49.805,21.484,37.598,-0.488,0
216229.793,45.898,49.316,21.484,40.527,-6.836,0
216229.797,45.410,46.875,24.902,46.387,17.578,0
216229.801,41.504,38.574,28.320,39.551,23.438,0
216229.805,40.527,27.344,41.992,39.062,8.789,0
216229.809,32.227,19.043,49.805,33.203,16.602,0
216229.813,22.949,22.461,37.109,20.020,30.762,0
216229.817,31.250,34.180,28.809,24.414,30.762,0
216229.820,39.062,41.504,35.156,34.180,23.926,0
216229.824,35.645,38.086,36.621,35.156,26.367,0
216229.828,34.180,28.809,25.391,36.621,32.227,0
216229.832,37.109,27.832,28.320,35.645,39.551,0
216229.836,35.156,32.227,34.668,31.738,41.992,0
216229.840,28.809,28.320,29.785,32.227,45.898,0
216229.844,24.902,20.996,26.367,30.762,28.809,0
216229.848,27.344,23.438,18.555,27.832,-23.926,0
216229.852,30.762,22.461,34.668,32.715,-36.621,0
216229.856,38.086,25.391,47.852,38.086,-4.883,0
216229.859,41.504,32.715,37.109,40.527,24.902,0
216229.863,37.598,29.297,31.250,37.109,59.082,0
216229.867,33.203,24.414,29.297,25.879,69.824,0
216229.871,36.621,21.973,20.996,28.320,51.270,0
216229.875,37.109,23.926,19.043,32.715,-1.953,0
216229.879,36.621,23.438,29.785,31.250,-26.855,0
216229.883,37.598,22.949,36.621,37.109,24.902,0
216229.887,32.227,34.668,32.227,35.645,54.199,0
216229.891,43.457,41.016,26.367,41.016,43.945,0
216229.895,56.152,37.598,25.391,53.711,66.406,0
216229.899,33.691,39.551,27.832,37.598,78.125,0
216229.902,8.301,35.645,30.762,17.090,43.457,0
216229.906,16.602,27.344,30.273,20.508,-3.418,0
216229.910,19.531,24.414,23.438,26.367,22.949,0
216229.914,16.602,26.367,23.926,25.391,81.055,0
216229.918,18.066,27.832,23.438,30.762,84.473,0
216229.922,22.461,31.738,11.719,39.062,21.484,0
216229.926,31.738,45.898,22.461,38.574,10.254,0
216229.930,27.832,50.293,37.598,28.320,55.176,0
216229.934,24.902,41.992,29.785,21.484,80.078,0
216229.938,27.832,31.738,24.414,23.438,63.965,0
216229.942,27.344,32.227,30.762,25.879,52.246,0
216229.945,23.926,31.738,30.762,25.391,12.207,0
216229.949,28.320,18.066,34.668,28.809,0.488,0
216229.953,41.992,20.996,29.785,39.551,48.340,0
216229.957,40.527,27.832,17.578,45.410,33.691,0
216229.961,33.691,23.438,30.762,46.387,26.367,0
216229.965,39.551,32.715,41.992,43.945,2.441,0
216229.969,47.852,34.180,39.551,43.457,25.879,0
216229.973,46.875,17.090,27.832,40.039,45.898,0
216229.977,36.133,10.254,29.785,37.109,45.410,0
216229.981,30.273,18.066,39.551,41.016,61.523,0
216229.984,32.715,27.344,33.691,42.969,35.156,0
216229.988,26.855,27.344,17.090,36.621,42.480,0
216229.992,21.484,24.414,18.555,34.668,42.969,0
216229.996,24.414,23.926,30.762,45.898,-10.254,0
216230.000,25.391,20.020,31.738,37.109,1.953,0
216230.004,28.320,19.043,33.203,25.391,42.969,0
216230.008,35.645,29.785,39.062,31.738,27.344,0
216230.012,37.109,36.621,49.805,37.109,8.301,0
216230.016,34.668,27.344,36.133,32.715,76.660,0
216230.020,28.809,26.855,24.414,25.391,113.770,0
216230.024,26.855,25.391,20.020,20.508,84.473,0
216230.027,27.832,20.020,23.926,12.695,52.246,0
216230.031,22.949,20.996,35.645,17.090,51.270,0
216230.035,24.414,28.320,30.273,22.461,62.988,0
216230.039,36.133,39.551,24.902,27.344,19.531,0
216230.043,30.762,34.180,28.809,26.855,7.812,0
216230.047,20.508,27.832,31.250,16.602,64.453,0
216230.051,25.879,29.297,23.926,20.996,86.914,0
216230.055,34.668,26.855,20.996,27.344,76.172,0
216230.059,35.156,21.973,24.902,30.762,93.750,0
216230.063,29.785,32.227,23.926,30.273,65.918,0
216230.067,36.621,39.062,23.926,27.832,43.457,0
216230.070,41.016,31.738,25.879,27.832,56.152,0
216230.074,30.762,35.645,27.832,24.902,21.973,0
216230.078,23.926,40.039,24.414,26.855,4.883,0
216230.082,23.926,30.273,22.461,25.879,36.133,0
216230.086,25.879,25.391,24.902,22.949,43.945,0
216230.090,30.273,28.809,17.578,21.484,57.129,0
216230.094,41.504,37.109,14.160,28.320,73.242,0
216230.098,39.551,40.527,26.367,31.738,75.684,0
216230.102,30.273,34.668,21.973,20.508,75.195,0
216230.106,31.738,34.180,12.695,17.090,6.836,0
216230.109,29.785,33.691,20.020,22.461,-23.926,0
216230.113,25.879,32.715,28.320,30.273,-2.441,0
216230.117,23.438,23.438,21.973,19.043,-18.555,0
216230.121,26.367,21.973,18.555,13.184,-4.883,0
216230.125,31.738,29.785,30.762,28.320,17.578,0
216230.129,32.227,30.273,31.250,29.297,6.348,0
216230.133,34.180,29.297,21.973,25.391,11.719,0
216230.137,40.039,33.203,20.996,34.668,13.672,0
216230.141,42.480,35.645,28.809,42.969,1.953,0
216230.145,40.527,27.344,27.832,33.203,10.254,0
216230.149,44.922,21.973,26.367,35.645,23.926,0
216230.152,44.434,27.344,21.484,43.457,36.133,0
216230.156,34.668,23.926,21.973,39.551,-3.418,0
216230.160,30.762,17.578,35.645,35.645,-15.137,0
216230.164,30.762,21.484,37.598,30.762,5.859,0
216230.168,29.297,24.902,37.598,36.621,26.367,0
216230.172,32.227,28.809,36.621,43.945,59.570,0
216230.176,39.062,34.668,30.762,50.293,44.434,0
216230.180,41.992,33.691,35.645,53.711,19.531,0
216230.184,43.945,31.250,34.180,42.480,-17.090,0
216230.188,41.504,27.832,23.438,39.062,3.418,0
216230.192,33.691,27.344,20.020,38.086,43.945,0
216230.195,24.414,32.227,23.926,27.832,36.133,0
216230.199,27.344,31.738,27.344,28.809,17.090,0
216230.203,35.156,31.250,31.250,40.039,-4.395,0
216230.207,32.715,32.715,26.367,27.832,-13.184,0
216230.211,26.367,32.227,22.461,13.184,-14.160,0
216230.215,28.320,32.715,32.715,21.973,13.184,0
216230.219,40.039,31.250,34.668,31.738,35.156,0
216230.223,40.039,30.762,23.438,30.762,18.555,0
216230.227,25.391,31.738,15.625,31.738,34.668,0
216230.231,23.926,32.715,14.160,40.039,70.801,0
216230.234,25.391,29.785,27.344,38.086,60.547,0
216230.238,25.879,26.855,42.480,30.273,50.781,0
216230.242,31.738,27.832,36.133,30.762,80.566,0
216230.246,36.133,23.438,34.668,36.133,84.473,0
216230.250,37.109,29.785,38.574,39.062,19.043,1
216230.254,43.945,46.875,33.691,43.945,-23.926,0
216230.258,45.898,41.504,29.785,44.434,20.508,0
216230.262,40.527,29.297,24.414,39.062,39.062,0
216230.266,32.715,25.391,27.344,31.250,7.324,0
216230.270,34.668,27.344,27.832,27.832,13.184,0
216230.274,42.480,34.668,22.461,43.457,56.152,0
216230.277,41.016,42.480,20.996,44.922,43.457,0
216230.281,37.109,42.480,21.973,28.320,9.766,0
216230.285,30.762,36.133,21.973,24.902,48.828,0
216230.289,35.156,33.203,18.555,29.785,12.207,0
216230.293,32.227,25.391,28.809,30.273,-15.625,0
216230.297,23.926,21.973,38.574,18.066,-12.695,0
216230.301,32.227,27.344,35.156,22.949,0.000,0
216230.305,41.016,28.809,29.297,37.598,60.059,0
216230.309,36.621,26.367,30.762,37.109,61.523,0
216230.313,32.715,23.926,32.715,40.039,41.992,0
216230.317,31.250,25.879,38.086,39.551,76.660,0
216230.320,32.227,30.762,36.133,26.855,88.867,0
216230.324,32.227,31.250,29.297,23.438,48.828,0
216230.328,34.668,34.668,24.414,30.762,26.367,0
216230.332,36.133,36.133,25.391,34.180,29.785,0
216230.336,39.551,32.227,31.738,35.645,20.508,0
216230.340,42.969,27.832,35.156,41.016,11.719,0
216230.344,43.457,28.320,35.156,41.992,44.434,0
216230.348,41.992,32.715,30.762,42.480,50.781,0
216230.352,35.156,33.203,28.809,41.504,22.949,0
216230.356,32.227,30.762,36.621,29.297,-20.996,0
216230.359,31.250,28.809,39.062,28.320,-0.488,0
216230.363,31.250,26.367,29.297,37.109,42.480,0
216230.367,33.691,21.973,23.438,41.016,-0.488,0
216230.371,37.109,26.367,21.973,48.340,5.371,0
216230.375,32.715,31.738,26.855,43.457,37.109,0
216230.379,27.832,26.855,31.738,31.738,57.129,0
216230.383,32.227,33.691,30.762,27.832,67.383,0
216230.387,33.691,38.574,29.297,31.250,11.719,0
216230.391,35.645,36.621,21.484,35.156,7.812,0
216230.395,36.133,36.621,26.855,38.574,63.477,0
216230.399,31.250,32.227,28.809,41.504,32.227,0
216230.402,29.297,29.297,15.625,26.855,-25.391,0
216230.406,30.273,23.438,22.949,24.414,-27.344,0
216230.410,27.344,23.926,39.062,32.715,15.137,0
216230.414,20.020,27.832,41.016,21.484,39.551,0
216230.418,23.926,22.949,39.062,21.484,39.551,0
216230.422,31.250,23.926,33.203,27.832,33.691,0
216230.426,32.227,27.832,30.762,33.203,51.270,0
216230.430,40.039,29.785,26.367,34.180,26.855,0
216230.434,41.504,30.273,21.973,26.367,32.227,0
216230.438,38.086,30.273,23.926,26.367,38.086,0
216230.442,39.551,25.879,22.461,31.250,59.082,0
216230.445,35.156,24.414,18.555,36.621,74.219,0
216230.449,32.227,31.250,23.438,28.809,41.992,0
216230.453,37.109,31.250,34.180,18.066,28.320,0
216230.457,40.039,20.996,33.691,20.020,25.391,0
216230.461,42.480,24.414,25.879,33.203,14.648,0
216230.465,44.922,30.273,23.926,42.480,3.906,0
216230.469,39.062,31.738,20.508,34.668,17.090,0
216230.473,32.715,37.598,18.555,29.785,29.785,0
216230.477,34.180,35.645,20.996,35.645,57.617,0
216230.481,42.969,39.551,30.273,49.805,63.965,0
216230.484,35.645,32.715,36.133,42.969,38.086,0
216230.488,26.855,18.555,26.855,32.227,48.340,0
216230.492,28.809,15.137,25.391,28.320,47.852,0
216230.496,29.785,23.438,30.273,27.344,57.617,0
216230.500,26.855,24.414,24.902,35.645,95.703,0
216230.504,24.902,24.902,24.902,35.645,100.586,0
216230.508,28.809,32.715,32.715,25.879,88.867,0
216230.512,28.809,31.738,30.762,21.484,101.074,0
216230.516,35.156,28.809,21.973,28.809,104.980,0
216230.520,45.898,35.156,26.855,38.086,53.223,0
216230.524,46.875,36.133,30.273,44.922,35.645,0
216230.527,35.645,25.879,22.949,31.250,48.828,0
216230.531,30.273,20.020,25.879,21.973,51.758,0
216230.535,33.203,24.902,29.785,26.367,50.781,0
216230.539,34.180,31.738,36.621,25.879,10.254,0
216230.543,37.598,28.320,44.434,26.855,39.062,0
216230.547,31.250,19.531,33.203,21.484,41.992,0
216230.551,26.367,23.926,26.855,21.973,32.715,0
216230.555,30.762,39.062,33.203,27.344,55.664,0
216230.559,33.691,37.109,25.391,32.227,49.805,0
216230.563,34.180,27.344,21.484,32.227,53.711,0
216230.567,24.414,25.879,30.762,26.367,58.105,0
216230.570,22.461,27.832,28.809,20.020,45.410,0
216230.574,24.902,29.785,25.391,18.066,29.297,0
216230.578,17.090,27.832,23.926,18.066,43.945,0
216230.582,21.973,35.156,20.508,19.043,17.578,0
216230.586,29.297,34.668,33.203,23.926,19.531,0
216230.590,36.621,22.461,39.062,38.574,90.820,0
216230.594,41.992,29.297,34.668,44.922,79.590,0
216230.598,46.875,36.133,39.551,34.668,41.504,0
216230.602,49.316,23.438,42.480,32.227,59.570,0
216230.606,42.969,22.461,34.180,37.109,37.598,0
216230.609,38.574,33.203,21.973,44.434,43.945,0
216230.613,30.762,28.320,20.508,33.203,31.738,0
216230.617,37.109,31.250,28.320,33.691,-13.672,0
216230.621,44.922,41.992,35.156,44.922,-9.766,0
216230.625,35.156,33.691,33.203,27.344,11.719,0
216230.629,23.926,22.461,31.738,12.695,35.156,0
216230.633,19.531,20.996,29.297,9.277,14.160,0
216230.637,16.113,28.809,20.508,4.395,27.344,0
216230.641,17.578,35.645,25.879,11.719,61.523,0
216230.645,19.043,34.180,31.738,23.926,29.785,0
216230.649,21.484,32.715,29.297,36.133,29.785,0
216230.652,23.438,33.203,24.902,37.109,37.109,0
216230.656,20.020,25.391,31.250,29.297,-13.672,0
216230.660,17.090,20.996,32.715,37.109,-8.789,0
216230.664,18.066,24.414,28.809,47.363,45.410,0
216230.668,27.344,29.785,29.785,36.133,52.734,0
216230.672,28.809,30.273,28.809,23.926,18.555,0
216230.676,18.555,25.391,30.273,22.461,-8.789,0
216230.680,23.438,26.367,35.645,30.273,7.812,0
216230.684,29.297,26.367,37.598,32.715,13.672,0
216230.688,25.391,22.461,31.738,30.762,15.625,0
216230.692,30.273,24.902,34.180,31.250,21.973,0
216230.695,43.457,27.344,40.527,36.621,47.363,0
216230.699,50.293,32.715,41.016,43.945,33.203,0
216230.703,49.316,37.598,31.250,41.992,15.137,0
216230.707,55.176,36.621,26.367,51.270,50.293,0
216230.711,51.758,32.715,36.621,57.617,52.734,0
216230.715,24.902,28.809,40.527,29.297,16.602,0
216230.719,15.625,25.391,38.574,6.836,-8.789,0
216230.723,34.668,20.996,34.668,22.949,19.531,0
216230.727,43.945,28.809,39.551,33.203,34.180,0
216230.731,50.293,43.945,41.016,41.016,3.418,0
216230.734,58.594,49.805,27.832,51.758,-11.719,0
216230.738,56.152,41.992,27.344,47.363,-0.977,0
216230.742,48.340,26.367,27.832,40.039,13.184,0
216230.746,34.668,12.695,19.043,42.969,28.809,0
216230.750,25.391,1.953,21.973,37.598,12.695,0
216230.754,20.508,10.254,35.645,20.020,-7.324,0
216230.758,22.949,31.250,33.691,22.461,20.996,0
216230.762,27.344,31.250,32.227,30.273,13.184,0
216230.766,31.738,22.461,32.715,33.691,4.395,0
216230.770,40.039,25.391,28.809,35.156,24.902,0
216230.774,48.828,35.156,24.902,38.086,-2.930,0
216230.777,57.129,40.039,22.949,44.434,-59.570,0
216230.781,63.477,46.875,36.133,47.852,-37.598,0
216230.785,60.547,49.805,40.039,45.898,50.293,0
216230.789,51.270,35.156,31.250,34.180,67.383,0
216230.793,55.176,23.926,31.250,35.156,36.621,0
216230.797,54.199,26.855,35.645,39.062,45.898,0
216230.801,48.340,32.715,35.645,39.551,70.801,0
216230.805,49.805,39.551,35.645,43.457,62.500,0
216230.809,50.781,42.480,32.227,42.480,43.945,0
216230.813,47.363,29.785,28.809,36.133,39.551,0
216230.817,44.922,22.461,30.273,28.809,-17.578,0
216230.820,49.316,40.039,33.691,31.250,-29.297,0
216230.824,45.410,47.852,34.668,25.879,1.953,0
216230.828,41.016,33.691,33.203,27.832,-17.578,1
216230.832,46.387,21.973,26.367,37.598,-21.484,0
216230.836,37.109,20.508,25.391,33.203,15.137,0
216230.840,24.414,20.020,34.180,20.996,23.438,0
216230.844,25.879,21.973,35.156,18.066,43.945,0
216230.848,18.555,24.902,27.344,20.020,52.734,0
216230.852,12.695,25.879,29.785,21.973,53.711,0
216230.856,20.020,24.414,25.879,29.297,7.324,0
216230.859,30.762,25.391,20.508,38.086,-4.395,0
216230.863,39.062,23.438,23.438,43.945,18.066,0
216230.867,42.969,31.250,25.391,44.922,-17.578,0
216230.871,41.992,34.180,28.809,38.574,-8.301,0
216230.875,39.551,28.320,32.715,36.133,49.316,0
216230.879,37.109,32.715,36.133,32.715,54.688,0
216230.883,30.762,28.809,33.203,29.785,-11.719,0
216230.887,30.273,24.414,36.133,34.668,-2.441,0
216230.891,37.109,23.926,37.598,42.969,46.387,0
216230.895,41.504,20.020,31.250,43.945,63.477,0
216230.899,37.598,25.391,24.902,32.715,60.059,0
216230.902,32.227,27.344,20.508,27.832,28.320,0
216230.906,25.391,24.902,16.113,21.484,46.875,0
216230.910,28.320,42.480,9.766,21.973,44.922,0
216230.914,29.297,45.410,15.625,20.508,22.949,0
216230.918,19.531,27.344,21.973,12.207,34.180,0
216230.922,18.066,15.137,21.973,17.578,46.387,0
216230.926,26.367,7.324,31.738,29.785,35.156,0
216230.930,28.320,22.461,38.574,32.227,11.230,0
216230.934,17.578,38.086,37.598,22.949,43.945,0
216230.938,17.090,39.551,32.227,26.367,58.594,0
216230.942,23.438,32.227,25.391,31.738,17.090,0
216230.945,35.156,33.691,22.949,43.945,22.949,0
216230.949,36.133,40.527,20.020,45.410,47.363,0
216230.953,27.344,37.598,20.508,36.133,31.738,0
216230.957,24.902,31.250,23.438,31.250,-4.395,0
216230.961,30.762,28.320,27.344,37.109,20.996,0
216230.965,45.898,32.227,41.016,56.641,78.125,0
216230.969,42.480,23.438,36.621,57.129,88.867,0
216230.973,30.273,17.090,22.949,40.039,83.984,0
216230.977,36.133,32.227,18.066,37.109,80.078,0
216230.981,34.180,35.156,13.184,36.133,43.945,0
216230.984,30.762,24.414,22.461,31.250,9.766,0
216230.988,34.668,25.879,26.855,35.156,26.367,0
216230.992,30.762,30.762,20.020,33.691,42.480,0
216230.996,26.367,25.391,24.902,25.879,68.359,0
216231.000,37.109,30.762,31.738,25.879,54.199,0
216231.004,41.504,29.785,33.203,33.203,30.273,0
216231.008,37.109,26.367,32.227,36.621,33.691,0
216231.012,35.645,33.203,26.367,37.598,33.203,0
216231.016,33.203,32.715,26.855,34.180,26.367,0
216231.020,38.574,34.180,32.715,40.039,17.090,0
216231.024,42.969,35.156,36.133,56.641,50.781,0
216231.027,34.180,21.973,31.250,49.316,72.754,0
216231.031,31.738,22.461,22.461,40.527,55.664,0
216231.035,31.250,30.273,16.602,32.715,58.594,0
216231.039,22.949,23.438,22.461,23.926,79.102,0
216231.043,25.879,18.555,24.414,28.809,46.387,0
216231.047,32.227,27.344,25.391,32.715,-15.137,0
216231.051,27.344,33.203,30.762,33.691,-22.461,0
216231.055,24.902,35.156,30.762,34.668,31.738,0
216231.059,33.203,31.250,23.438,34.180,40.039,0
216231.063,39.062,26.855,27.344,31.250,10.742,0
216231.067,42.480,37.598,21.484,33.203,12.207,0
216231.070,40.039,32.715,8.789,43.945,48.828,0
216231.074,39.551,26.855,16.602,47.852,32.715,0
216231.078,43.945,32.715,33.203,36.133,3.906,0
216231.082,36.133,33.691,40.527,32.227,50.293,0
216231.086,24.902,23.438,33.691,31.250,67.871,0
216231.090,29.297,23.926,27.344,27.344,49.805,0
216231.094,29.297,32.715,31.250,20.508,24.414,0
216231.098,26.855,31.738,37.598,28.809,27.832,0
216231.102,37.598,32.227,26.855,46.387,50.293,0
216231.106,37.598,33.203,23.438,42.480,45.410,0
216231.109,27.832,23.438,33.691,23.926,38.574,0
216231.113,25.391,17.578,26.367,22.949,80.078,0
216231.117,28.320,22.461,21.973,30.762,66.406,0
216231.121,27.832,23.438,33.203,27.832,43.945,0
216231.125,25.391,20.020,24.902,24.414,45.410,0
216231.129,24.414,15.137,23.926,21.973,47.852,0
216231.133,25.391,18.066,31.738,23.438,52.734,0
216231.137,24.902,20.020,17.578,20.020,46.387,0
216231.141,19.043,18.555,13.184,19.531,26.367,0
216231.145,26.855,19.531,25.391,35.156,46.875,0
216231.149,31.738,6.348,27.832,37.598,77.637,0
216231.152,21.484,6.348,24.414,20.508,24.414,0
216231.156,22.949,25.879,29.297,24.902,11.719,0
216231.160,35.156,40.039,35.156,43.945,80.078,0
216231.164,37.598,40.039,30.762,42.969,65.918,0
216231.168,34.180,37.598,33.203,29.297,49.316,0
216231.172,34.668,32.227,29.785,26.855,45.898,0
216231.176,36.133,24.414,24.414,37.109,17.090,0
216231.180,32.715,25.391,29.297,33.203,11.719,0
216231.184,29.785,24.902,33.691,22.461,22.461,0
216231.188,40.039,25.879,28.320,27.344,51.758,0
216231.192,41.504,21.973,23.926,31.250,71.777,0
216231.195,35.156,25.391,18.066,27.344,20.996,0
216231.199,38.086,34.668,21.973,25.391,25.391,0
216231.203,39.062,20.996,26.855,33.203,77.637,0
216231.207,31.738,19.043,23.926,30.762,56.152,0
216231.211,27.832,34.180,22.949,19.043,15.137,0
216231.215,26.367,33.691,20.020,17.578,-12.207,0
216231.219,31.250,35.645,29.785,26.855,12.695,0
216231.223,50.293,47.852,39.062,35.645,51.270,0
216231.227,41.016,36.621,30.273,25.879,54.199,0
216231.231,25.391,22.461,18.555,18.555,22.949,0
216231.234,30.762,31.738,13.672,22.949,36.133,0
216231.238,30.273,37.598,20.020,29.785,29.785,0
216231.242,34.668,29.785,26.367,30.273,9.277,0
216231.246,37.109,29.785,26.367,21.484,20.508,0
216231.250,33.203,36.621,25.879,29.297,32.715,0
216231.254,39.062,32.227,24.902,42.969,44.922,0
216231.258,39.062,27.344,30.273,45.410,51.270,0
216231.262,27.832,27.344,29.297,36.133,43.457,0
216231.266,26.855,31.250,28.809,35.156,32.715,0
216231.270,34.180,31.738,33.691,35.645,32.715,0
216231.274,30.762,25.391,24.902,32.715,5.859,0
216231.277,29.297,27.832,22.461,35.645,30.273,0
216231.281,35.156,40.039,38.574,42.480,41.504,0
216231.285,30.273,40.527,39.551,33.691,16.602,0
216231.289,27.344,34.668,35.645,25.391,15.137,0
216231.293,28.320,25.391,35.156,30.762,72.754,0
216231.297,29.297,21.973,32.715,33.203,78.613,0
216231.301,36.621,32.715,25.879,36.133,43.945,0
216231.305,39.551,37.598,27.344,41.504,40.527,0
216231.309,26.855,23.926,26.367,32.715,37.598,0
216231.313,20.020,20.996,22.461,24.902,38.574,0
216231.317,21.484,31.738,25.879,27.832,50.781,0
216231.320,25.391,35.645,28.320,24.414,27.344,0
216231.324,29.297,28.320,32.227,17.090,-4.883,0
216231.328,19.531,19.043,22.949,15.137,25.879,0
216231.332,19.531,25.391,16.113,16.113,-3.418,0
216231.336,27.832,24.902,22.461,23.438,-41.992,0
216231.340,29.297,20.996,32.227,27.832,-20.020,0
216231.344,34.180,35.645,27.344,29.297,-19.531,0
216231.348,37.598,39.062,24.902,30.273,-15.625,0
216231.352,32.715,26.367,35.156,26.367,0.977,0
216231.356,26.855,25.391,36.133,31.738,28.320,0
216231.359,28.809,33.203,33.203,37.598,41.992,0
216231.363,35.156,34.180,29.785,32.715,28.320,0
216231.367,30.762,30.762,21.484,29.785,38.574,0
216231.371,26.367,25.879,16.113,34.180,13.672,0
216231.375,23.926,17.578,19.043,33.691,-12.207,0
216231.379,26.367,18.555,27.832,31.738,36.621,0
216231.383,32.715,32.715,34.180,35.645,77.148,0
216231.387,33.203,41.504,30.762,41.992,93.750,0
216231.391,29.297,39.062,30.273,36.621,111.816,0
216231.395,27.832,38.574,36.133,30.273,94.238,0
216231.399,28.320,36.133,34.180,35.645,80.566,0
216231.402,28.809,26.367,33.691,41.504,84.473,0
216231.406,30.762,23.438,36.621,39.062,31.250,0
216231.410,28.809,25.879,30.273,29.785,12.207,0
216231.414,24.902,22.949,24.902,30.273,51.758,0
216231.418,29.785,23.926,25.879,35.156,27.344,1
216231.422,28.809,21.484,23.926,23.438,-20.508,0
216231.426,20.508,21.973,26.367,16.602,16.602,0
216231.430,21.973,28.809,29.785,25.879,79.102,0
216231.434,28.320,26.367,26.367,35.645,64.941,0
216231.438,32.715,23.438,28.809,40.527,44.434,0
216231.442,32.227,31.738,36.133,34.668,78.125,0
216231.445,27.344,28.809,33.691,23.438,83.496,0
216231.449,24.414,25.391,32.227,25.879,52.246,0
216231.453,29.297,30.273,36.133,27.832,71.777,0
216231.457,33.691,29.297,31.250,27.344,80.078,0
216231.461,35.156,25.391,29.297,30.762,50.781,0
216231.465,33.203,24.902,33.691,30.762,24.902,0
216231.469,35.156,27.832,33.203,25.391,17.090,0
216231.473,36.621,30.273,28.809,28.809,56.152,0
216231.477,34.180,31.738,22.949,31.250,59.570,0
216231.481,34.180,29.785,26.367,25.879,49.316,0
216231.484,32.227,26.367,28.320,29.785,53.223,0
216231.488,30.762,24.902,25.391,36.133,54.688,0
216231.492,35.156,24.902,28.809,38.574,55.664,0
216231.496,38.574,28.320,37.598,34.180,67.383,0
216231.500,34.668,27.344,42.480,27.344,55.176,0
216231.504,35.645,23.926,36.621,28.809,35.156,0
216231.508,41.992,29.785,26.367,32.715,2.441,0
216231.512,40.039,33.203,31.738,30.273,20.996,0
216231.516,41.016,29.785,36.621,27.832,39.551,0
216231.520,41.504,25.391,34.180,31.738,-3.906,0
216231.524,37.598,28.320,42.480,36.621,3.906,0
216231.527,44.922,29.785,43.457,42.969,11.719,0
216231.531,47.852,30.762,36.621,43.457,26.855,0
216231.535,38.574,35.156,35.645,34.180,56.152,0
216231.539,36.133,31.250,32.715,36.133,43.457,0
216231.543,38.086,28.320,27.832,37.598,25.879,0
216231.547,35.156,23.926,33.691,30.762,42.480,0
216231.551,32.227,26.855,36.621,31.738,48.340,0
216231.555,33.203,31.738,35.645,31.738,30.273,0
216231.559,37.109,31.250,41.992,34.180,17.090,0
216231.563,41.992,35.645,45.898,34.180,10.742,0
216231.567,45.898,42.480,43.945,33.691,-27.832,0
216231.570,43.457,35.156,40.527,34.668,-27.832,0
216231.574,42.480,29.297,45.898,38.086,11.230,0
216231.578,44.434,37.598,52.734,47.363,40.039,0
216231.582,43.457,40.039,51.270,46.387,36.133,0
216231.586,46.387,32.715,39.551,41.992,16.602,0
216231.590,43.945,28.809,33.203,42.480,7.324,0
216231.594,36.133,29.297,36.133,39.062,-18.066,0
216231.598,40.039,30.762,36.133,32.715,-12.207,0
216231.602,43.945,29.785,41.992,31.738,15.137,0
216231.606,39.062,23.438,49.805,35.645,24.902,0
216231.609,35.156,23.438,48.828,52.246,35.645,0
216231.613,33.691,26.367,38.574,46.875,1.953,0
216231.617,36.133,28.809,38.574,23.926,-11.719,0
216231.621,37.598,30.762,46.875,29.785,52.734,0
216231.625,43.945,28.320,43.457,45.410,75.684,0
216231.629,48.340,34.668,39.551,45.410,86.426,0
216231.633,41.504,43.457,40.527,36.133,72.754,0
216231.637,34.180,38.574,40.527,30.273,59.570,0
216231.641,29.785,34.180,36.621,30.273,90.820,0
216231.645,26.855,26.367,21.484,29.297,52.246,0
216231.649,27.832,19.531,21.973,30.762,-16.113,0
216231.652,27.344,26.367,41.992,36.133,-0.977,0
216231.656,25.879,28.320,50.293,39.551,74.219,0
216231.660,30.273,25.879,45.410,37.109,76.172,0
216231.664,32.715,28.809,49.805,31.738,46.387,0
216231.668,28.809,31.250,60.547,35.645,94.727,0
216231.672,27.832,34.668,56.641,41.016,93.750,0
216231.676,29.297,32.227,42.969,33.203,51.270,0
216231.680,27.832,28.320,27.832,27.344,50.293,0
216231.684,32.227,30.762,31.250,38.086,56.152,0
216231.688,37.598,34.668,35.645,41.504,36.621,0
216231.692,38.574,40.039,39.062,34.668,27.344,0
216231.695,35.156,38.086,39.062,33.691,83.008,0
216231.699,34.668,30.273,34.668,34.180,47.363,0
216231.703,29.297,23.926,43.945,34.668,25.391,0
216231.707,22.949,20.508,40.527,31.250,4.883,0
216231.711,22.949,22.461,30.762,23.438,-38.086,0
216231.715,26.855,22.949,34.180,29.297,20.020,0
216231.719,31.250,29.785,31.738,41.504,18.555,0
216231.723,31.250,29.785,28.320,37.109,-5.859,0
216231.727,29.785,27.344,36.133,31.250,4.883,0
216231.731,27.832,33.203,32.227,30.762,12.695,0
216231.734,30.273,35.645,24.414,29.785,62.500,0
216231.738,38.086,39.551,30.273,37.598,63.965,0
216231.742,42.480,38.574,34.180,35.156,56.641,0
216231.746,34.668,29.785,30.762,30.273,17.090,0
216231.750,30.762,25.879,32.715,32.715,-36.621,0
216231.754,33.691,21.973,33.691,26.855,-31.738,0
216231.758,34.668,22.461,38.574,31.250,7.812,0
216231.762,35.156,29.297,41.992,38.086,0.488,0
216231.766,36.133,30.762,35.645,35.156,-16.113,0
216231.770,30.273,32.227,28.320,29.785,-24.414,0
216231.774,23.926,27.832,22.461,28.809,-7.812,0
216231.777,28.320,18.066,25.391,31.738,20.020,0
216231.781,34.180,18.066,24.902,38.086,-27.344,0
216231.785,31.738,19.531,17.578,35.156,-51.758,0
216231.789,28.809,26.855,27.832,32.227,-18.555,0
216231.793,36.133,33.691,33.203,36.133,-28.809,0
216231.797,35.156,37.109,27.344,23.438,-41.992,0
216231.801,26.855,40.039,33.203,18.066,44.434,0
216231.805,27.832,34.668,36.133,27.832,83.008,0
216231.809,31.738,33.203,29.297,32.715,67.871,0
216231.813,29.785,29.297,21.484,30.762,84.961,0
216231.817,27.344,15.625,26.855,24.414,97.168,0
216231.820,21.973,21.973,35.645,23.926,116.211,0
216231.824,28.320,38.574,31.738,26.855,74.219,0
216231.828,37.598,42.480,28.320,32.715,25.391,0
216231.832,35.645,35.156,33.691,31.250,63.477,0
216231.836,34.668,26.367,31.250,26.367,103.027,0
216231.840,23.926,30.273,27.832,26.367,33.203,0
216231.844,15.137,32.227,22.461,29.785,-21.484,0
216231.848,23.926,29.785,20.996,34.668,20.508,0
216231.852,33.203,36.621,27.344,41.016,89.355,0
216231.856,31.250,39.551,27.344,41.504,79.590,0
216231.859,23.438,26.855,24.902,26.367,25.879,0
216231.863,25.391,18.555,26.855,20.996,-5.371,0
216231.867,26.367,22.461,26.367,25.879,20.020,0
216231.871,25.391,23.926,20.020,21.484,17.090,0
216231.875,26.367,31.250,25.391,27.832,11.230,0
216231.879,29.297,31.250,35.156,31.738,43.457,0
216231.883,28.809,26.855,36.621,20.020,18.555,0
216231.887,25.391,27.832,25.879,17.090,33.691,0
216231.891,30.762,33.691,17.578,32.715,35.645,0
216231.895,33.203,30.273,24.414,38.574,4.395,0
216231.899,27.832,27.832,27.344,22.461,26.367,0
216231.902,18.555,30.762,28.320,12.695,3.418,0
216231.906,16.602,25.879,28.809,19.043,1.465,0
216231.910,22.461,25.879,25.879,20.996,33.691,0
216231.914,24.414,32.715,19.043,21.973,38.574,0
216231.918,28.320,30.762,18.066,26.855,24.414,0
216231.922,34.668,22.461,26.855,32.227,26.367,0
216231.926,33.691,29.297,31.738,32.227,26.855,0
216231.930,32.715,32.227,27.344,32.227,14.648,0
216231.934,34.180,29.297,20.020,36.621,20.020,0
216231.938,26.855,30.273,25.391,27.832,50.293,0
216231.942,21.484,28.320,36.621,21.484,84.961,0
216231.945,23.438,28.320,34.180,22.461,59.570,0
216231.949,23.926,31.250,32.227,20.020,30.273,0
216231.953,23.438,30.273,34.180,24.902,70.312,0
216231.957,28.809,30.762,34.180,29.785,85.938,0
216231.961,28.320,30.762,31.250,31.250,70.312,0
216231.965,26.855,27.344,27.344,31.738,63.477,0
216231.969,39.551,32.715,33.691,42.480,42.480,0
216231.973,40.527,34.180,31.738,46.387,15.137,0
216231.977,33.691,23.926,30.273,40.039,39.551,0
216231.981,28.320,20.508,28.320,33.691,47.852,0
216231.984,25.391,28.809,19.531,30.762,33.691,0
216231.988,33.203,35.645,28.809,46.875,42.480,0
216231.992,35.156,37.109,31.250,43.457,5.371,0
216231.996,28.320,35.156,31.738,26.855,-33.203,0
216232.000,29.297,32.715,34.668,40.527,-26.367,0
216232.004,30.762,27.832,32.715,44.434,8.301,0
216232.008,29.297,22.949,37.109,32.715,13.184,0
216232.012,34.180,27.832,30.762,38.574,10.742,0
216232.016,36.133,31.738,23.926,41.016,37.109,0
216232.020,30.273,31.250,24.414,30.273,46.387,0
216232.024,34.668,35.645,30.273,33.691,62.012,0
216232.027,34.180,27.344,26.367,41.504,73.242,0
216232.031,27.344,21.484,23.438,37.109,78.125,0
216232.035,27.832,22.461,28.809,35.156,60.059,0
216232.039,19.531,18.555,26.367,26.367,21.484,2
216232.043,23.438,29.785,26.855,25.391,5.859,0
216232.047,31.250,38.574,28.809,33.691,29.297,0
216232.051,26.855,30.762,23.438,35.645,28.320,0
216232.055,29.785,25.879,28.809,34.668,32.715,0
216232.059,33.203,28.809,36.133,37.598,51.758,0
216232.063,38.086,32.715,28.320,39.062,2.441,0
216232.067,41.016,36.133,27.344,40.527,41.504,0
216232.070,35.645,34.668,25.879,38.086,75.195,0
216232.074,34.180,29.785,18.555,34.668,37.598,0
216232.078,36.621,26.367,25.391,43.945,13.672,0
216232.082,38.086,21.973,35.156,46.387,-5.859,0
216232.086,36.133,18.555,36.133,39.062,17.578,0
216232.090,38.574,24.902,28.320,41.504,42.480,0
216232.094,41.016,29.785,25.879,45.898,61.035,0
216232.098,38.574,26.855,25.879,41.016,39.062,0
216232.102,45.410,27.344,25.391,41.016,5.859,0
216232.106,46.387,35.156,26.367,51.270,46.875,0
216232.109,29.297,32.715,12.695,41.992,38.574,0
216232.113,23.438,26.367,22.461,28.320,-14.160,0
216232.117,25.879,18.066,39.062,29.297,-24.414,0
216232.121,27.344,18.066,25.879,32.227,-2.930,0
216232.125,30.273,30.273,20.508,27.344,-18.555,0
216232.129,32.227,30.762,21.973,27.832,-25.879,0
216232.133,30.762,27.832,18.555,34.668,36.621,0
216232.137,30.762,26.855,26.855,31.250,46.387,0
216232.141,27.344,22.461,35.156,27.344,15.137,0
216232.145,24.902,22.461,29.785,29.785,10.254,0
216232.149,29.297,29.785,28.320,36.133,34.668,0
216232.152,29.785,26.855,33.691,35.156,44.922,0
216232.156,30.762,14.648,26.367,35.156,58.105,0
216232.160,29.297,8.789,27.832,32.227,35.156,0
216232.164,25.879,8.301,31.250,24.902,32.227,0
216232.168,29.785,18.555,23.926,31.738,32.227,0
216232.172,26.855,29.297,20.508,28.809,-45.898,0
216232.176,26.855,36.133,33.691,26.367,-52.246,0
216232.180,31.738,33.691,41.016,42.480,28.809,0
216232.184,29.297,27.344,32.715,32.227,45.898,0
216232.188,30.273,27.344,34.668,22.949,28.809,0
216232.192,36.621,26.855,35.156,34.668,17.090,0
216232.195,34.180,26.367,22.949,35.645,15.625,0
216232.199,23.438,25.879,20.020,29.785,47.852,0
216232.203,26.367,20.996,20.508,23.438,41.016,0
216232.207,30.273,16.113,29.297,22.461,57.617,0
216232.211,27.832,20.508,31.738,28.809,104.004,0
216232.215,29.297,24.414,25.391,23.438,52.734,0
216232.219,31.250,24.902,26.367,18.555,-16.602,0
216232.223,32.715,28.809,31.250,27.344,17.578,0
216232.227,36.133,24.902,36.133,33.691,20.508,0
216232.231,37.109,22.949,29.297,30.762,15.137,0
216232.234,35.645,30.273,22.461,35.156,43.457,0
216232.238,35.156,32.227,25.391,32.227,58.105,0
216232.242,32.227,28.809,35.156,19.043,49.316,0
216232.246,29.297,22.461,37.109,23.926,10.742,0
216232.250,27.832,20.996,28.809,26.367,-16.113,0
216232.254,28.809,28.320,23.926,20.020,12.695,0
216232.258,33.203,30.762,23.926,21.484,24.902,0
216232.262,30.762,32.227,28.809,27.832,-2.930,0
216232.266,34.180,34.668,30.762,39.062,-6.836,0
216232.270,41.504,34.180,28.809,49.805,18.066,0
216232.274,33.691,32.715,28.809,30.762,29.297,0
216232.277,21.973,33.691,28.809,6.348,-27.344,0
216232.281,20.508,36.621,30.273,11.719,-42.969,0
216232.285,28.320,39.062,29.297,26.855,31.250,0
216232.289,26.367,32.227,26.367,33.203,55.664,0
216232.293,16.602,23.926,25.879,22.461,30.273,0
216232.297,20.996,22.461,24.414,16.602,87.891,0
216232.301,23.926,26.367,16.602,25.391,71.777,0
216232.305,24.414,28.809,21.484,28.320,14.648,0
216232.309,24.414,22.949,34.668,20.020,40.039,0
216232.313,23.438,25.391,41.504,15.625,27.832,0
216232.317,26.855,30.273,36.621,23.926,40.039,0
216232.320,40.039,32.227,30.762,36.621,59.570,0
216232.324,47.363,40.039,28.320,35.156,53.711,0
216232.328,43.457,45.410,18.555,34.180,20.020,0
216232.332,39.062,36.621,20.508,36.133,-0.977,0
216232.336,38.086,29.785,36.133,34.668,9.277,0
216232.340,40.527,33.203,39.551,39.551,20.996,0
216232.344,34.668,27.832,37.598,34.668,76.660,0
216232.348,24.414,20.996,34.668,24.902,79.590,0
216232.352,24.902,25.879,26.367,29.297,13.672,0
216232.356,36.621,29.297,18.555,40.039,27.832,0
216232.359,37.109,27.832,24.902,35.156,48.828,0
216232.363,26.855,25.391,25.879,21.973,47.363,0
216232.367,33.691,33.203,25.879,25.391,-1.953,0
216232.371,39.062,30.762,28.809,33.691,-8.301,0
216232.375,29.297,23.438,25.391,30.273,41.992,0
216232.379,24.902,28.809,23.926,26.367,14.160,0
216232.383,30.273,33.691,28.320,30.762,15.137,0
216232.387,31.250,27.832,24.902,32.715,24.902,0
216232.391,25.391,27.344,29.297,34.180,12.207,0
216232.395,20.508,28.809,32.227,34.180,25.879,0
216232.399,25.879,30.273,29.297,33.203,44.922,0
216232.402,32.715,37.109,36.621,36.133,27.344,0
216232.406,30.273,33.203,34.668,36.621,41.016,0
216232.410,31.250,27.832,26.855,40.527,58.105,0
216232.414,31.250,34.668,30.273,35.156,21.973,0
216232.418,29.297,36.621,32.715,33.203,39.551,0
216232.422,28.809,29.297,33.203,41.504,77.148,0
216232.426,29.297,24.902,26.855,45.898,83.008,0
216232.430,27.832,21.973,25.879,39.551,81.543,0
216232.434,24.902,24.414,37.598,29.297,97.656,0
216232.438,24.414,29.297,32.227,21.973,50.293,0
216232.442,29.785,38.086,21.973,25.879,-5.859,0
216232.445,31.738,38.574,19.531,31.250,8.301,0
216232.449,36.621,32.715,19.043,33.691,27.832,0
216232.453,41.992,32.227,27.832,34.180,32.715,0
216232.457,37.109,30.273,38.086,26.855,11.719,0
216232.461,36.133,31.250,40.039,26.855,29.785,0
216232.465,30.762,27.344,30.273,20.996,68.848,0
216232.469,29.297,25.879,26.855,19.043,51.758,0
216232.473,29.785,26.855,34.180,20.020,34.668,0
216232.477,26.367,32.715,30.762,21.484,36.133,0
216232.481,34.180,42.969,28.809,38.574,38.086,0
216232.484,35.645,40.527,29.297,42.480,41.992,0
216232.488,33.203,41.016,33.691,34.180,47.852,0
216232.492,32.715,38.086,18.066,34.180,80.078,0
216232.496,33.691,26.367,5.859,44.434,104.492,0
216232.500,39.551,28.809,30.273,43.457,80.566,0
216232.504,32.715,33.203,45.898,20.996,43.945,0
216232.508,23.926,26.855,38.086,18.555,87.891,0
216232.512,31.250,29.297,38.574,31.250,104.980,0
216232.516,35.156,33.203,40.039,39.551,29.785,0
216232.520,26.367,29.297,28.809,40.039,38.574,0
216232.524,26.367,24.414,24.902,37.109,62.500,0
216232.527,30.273,21.973,21.484,33.203,54.688,0
216232.531,28.320,30.273,25.879,29.785,34.668,0
216232.535,20.996,37.598,26.855,25.391,31.738,0
216232.539,20.020,37.109,20.508,21.484,33.691,0
216232.543,29.785,38.574,31.250,29.297,29.297,0
216232.547,35.156,38.086,30.762,35.645,13.672,0
216232.551,33.203,35.645,22.461,31.738,0.977,0
216232.555,31.250,33.203,24.414,30.762,41.992,0
216232.559,31.738,33.203,27.832,34.180,52.246,0
216232.563,28.320,36.133,31.738,33.203,30.273,0
216232.567,25.391,30.273,30.762,29.785,43.945,0
216232.570,25.391,27.832,28.809,34.180,68.848,0
216232.574,30.762,29.785,25.879,38.086,48.828,0
216232.578,35.645,29.297,22.949,37.598,14.648,0
216232.582,36.133,37.109,30.762,42.480,22.461,0
216232.586,31.738,41.016,39.062,39.551,59.082,0
216232.590,26.855,36.621,34.668,34.180,30.762,0
216232.594,29.297,38.574,31.738,32.227,21.973,0
216232.598,28.320,35.156,29.785,25.879,52.734,0
216232.602,28.320,29.785,24.414,27.344,67.871,1
216232.606,28.320,28.320,24.902,26.367,48.828,0
216232.609,27.832,25.391,22.461,20.020,-4.395,0
216232.613,36.621,36.133,18.066,29.297,-19.043,0
216232.617,42.480,40.039,28.320,35.645,9.766,0
216232.621,43.457,37.109,33.203,41.992,-2.441,0
216232.625,45.898,37.598,28.809,44.922,-14.648,0
216232.629,40.039,28.809,28.809,28.809,25.391,0
216232.633,41.504,30.762,29.785,27.832,35.645,0
216232.637,51.758,37.109,27.344,37.109,27.344,0
216232.641,50.781,23.926,26.855,38.086,22.949,0
216232.645,46.387,20.508,27.832,48.340,22.461,0
216232.649,41.016,32.227,25.391,48.828,-7.812,0
216232.652,38.086,35.645,28.320,43.457,-39.551,0
216232.656,37.598,37.598,27.832,41.992,-20.020,0
216232.660,32.715,35.645,29.785,46.875,23.438,0
216232.664,36.133,37.109,32.227,60.059,42.969,0
216232.668,36.133,35.156,22.461,44.922,13.672,0
216232.672,37.598,33.691,26.855,36.133,6.836,0
216232.676,36.133,33.691,35.156,37.598,26.367,0
216232.680,27.832,23.926,29.785,28.809,22.949,0
216232.684,23.926,18.555,34.180,23.926,11.230,0
216232.688,23.926,16.113,43.945,23.926,24.902,0
216232.692,29.297,20.020,38.086,30.273,67.383,0
216232.695,32.227,23.438,19.531,32.715,35.645,0
216232.699,33.203,24.414,20.020,37.109,2.930,0
216232.703,34.668,27.832,26.855,39.062,20.996,0
216232.707,38.574,33.203,25.391,41.016,8.789,0
