timestamps,TP9,AF7,AF8,TP10,Right AUX,Marker0
215960.930,25.879,33.691,48.340,49.805,42.480,1
215960.934,22.949,34.668,39.551,25.879,28.809,0
215960.938,26.367,31.250,38.574,26.855,26.367,0
215960.942,27.344,27.344,26.367,35.156,52.246,0
215960.945,24.414,23.926,16.602,30.273,25.879,0
215960.949,21.484,26.367,28.320,20.020,-6.836,0
215960.953,21.484,28.809,31.738,17.090,14.648,0
215960.957,23.926,31.250,27.832,24.902,41.504,0
215960.961,22.461,21.484,30.762,21.973,50.293,0
215960.965,32.227,20.508,33.691,31.738,19.043,0
215960.969,50.781,33.691,31.250,57.617,0.488,0
215960.973,56.641,36.133,34.668,60.547,32.715,0
215960.977,39.551,28.809,31.250,37.109,36.621,0
215960.981,23.438,22.949,32.715,10.254,14.648,0
215960.985,25.391,25.391,34.668,15.137,47.363,0
215960.988,31.738,34.180,28.809,29.785,63.477,0
215960.992,34.668,30.273,35.156,21.484,20.996,0
215960.996,26.367,23.438,39.062,9.277,-4.395,0
215961.000,32.227,30.273,35.645,25.391,3.418,0
215961.004,44.922,29.785,36.621,41.992,14.648,0
215961.008,36.621,25.391,38.574,28.809,0.488,0
215961.012,37.109,28.320,48.340,22.949,-25.879,0
215961.016,41.016,24.902,48.828,36.133,-21.973,0
215961.020,34.668,20.996,30.762,39.062,11.230,0
215961.024,36.133,29.297,24.902,55.176,-9.277,0
215961.027,40.039,38.086,34.668,51.270,-40.039,0
215961.031,30.762,32.715,36.133,24.414,7.812,0
215961.035,28.320,29.297,39.551,20.996,48.340,0
215961.039,32.715,30.273,43.945,20.508,36.133,0
215961.043,32.715,24.414,37.109,22.461,15.137,0
215961.047,30.273,19.531,29.297,25.391,40.527,0
215961.051,32.715,24.414,34.668,28.809,74.219,0
215961.055,33.203,31.738,31.738,19.043,41.016,0
215961.059,26.367,35.645,30.762,17.090,-1.465,0
215961.063,28.809,31.738,46.387,36.133,31.738,0
215961.067,36.133,28.320,45.898,40.039,53.223,0
215961.070,35.156,29.297,28.809,38.574,25.391,0
215961.074,36.133,30.762,30.762,46.387,29.297,0
215961.078,40.039,28.320,44.922,52.734,77.148,0
215961.082,43.945,21.973,39.551,43.945,77.637,0
215961.086,29.785,22.461,31.738,33.203,61.523,0
215961.090,20.020,24.902,35.645,33.203,84.473,0
215961.094,31.250,20.020,42.969,23.926,76.660,0
215961.098,36.133,20.996,41.992,18.555,44.922,0
215961.102,30.762,25.391,41.504,22.461,-20.996,0
215961.106,24.902,26.367,41.016,24.902,-26.855,0
215961.110,26.855,21.973,34.668,32.227,16.602,0
215961.113,28.809,20.996,34.180,34.668,12.207,0
215961.117,30.273,19.043,37.109,26.855,-10.254,0
215961.121,29.297,22.461,41.504,25.391,2.930,0
215961.125,22.461,28.809,43.945,33.203,20.020,0
215961.129,19.043,30.273,41.016,36.621,22.461,0
215961.133,20.996,31.738,28.320,38.574,12.207,0
215961.137,22.949,31.250,23.438,38.086,-11.719,0
215961.141,28.809,27.832,34.668,41.504,15.137,0
215961.145,30.762,23.438,39.551,28.320,-4.883,0
215961.149,34.180,26.367,37.598,21.973,-71.777,0
215961.152,48.340,29.297,28.809,33.691,-62.500,0
215961.156,43.457,27.832,34.180,29.785,16.113,0
215961.160,29.785,25.391,47.363,31.250,11.719,0
215961.164,30.273,25.391,48.340,29.297,-16.602,0
215961.168,31.250,21.973,42.480,29.785,-7.812,0
215961.172,31.738,24.414,34.668,27.344,-21.973,0
215961.176,27.344,29.785,25.879,22.949,-4.883,0
215961.180,23.926,28.320,20.996,16.113,-5.371,0
215961.184,32.227,25.879,28.809,25.391,9.277,0
215961.188,35.645,27.344,31.250,39.551,6.348,0
215961.192,33.203,34.180,34.180,23.926,-26.855,0
215961.195,35.156,38.574,36.621,24.414,9.766,0
215961.199,35.645,36.133,27.832,38.574,26.855,0
215961.203,33.203,30.273,30.762,32.715,27.832,0
215961.207,36.621,28.320,33.203,37.109,50.781,0
215961.211,38.086,29.785,32.715,30.273,32.715,0
215961.215,34.668,36.621,33.691,26.855,46.387,0
215961.219,38.574,33.203,27.344,36.621,52.734,0
215961.223,38.574,24.902,24.902,38.574,19.043,0
215961.227,29.785,33.203,26.855,33.203,15.137,0
215961.231,39.551,33.691,34.180,30.273,20.996,0
215961.235,42.480,26.855,39.062,31.250,43.945,0
215961.238,28.809,28.320,38.086,14.648,41.992,0
215961.242,26.855,25.879,41.992,17.090,56.152,0
215961.246,34.180,24.414,36.621,34.180,79.102,0
215961.250,42.969,32.227,24.902,38.086,10.254,0
215961.254,44.922,34.668,30.273,29.297,32.227,0
215961.258,41.992,32.715,41.016,29.785,46.387,0
215961.262,43.457,38.086,38.574,38.574,37.598,0
215961.266,46.875,40.039,29.297,36.621,67.871,0
215961.270,41.504,31.738,23.438,31.250,40.039,0
215961.274,39.062,28.320,25.391,29.785,22.461,0
215961.277,43.457,28.320,18.555,37.598,71.289,0
215961.281,42.480,31.250,16.602,29.785,55.664,0
215961.285,43.457,36.133,35.645,24.902,48.828,0
215961.289,46.875,35.156,42.969,43.457,50.293,0
215961.293,45.898,34.668,31.738,35.645,61.035,0
215961.297,41.504,33.203,21.484,20.020,95.215,0
215961.301,40.039,29.785,24.414,22.461,88.867,0
215961.305,42.480,36.621,35.645,28.809,44.922,0
215961.309,41.504,43.945,31.738,28.809,31.250,0
215961.313,33.691,39.551,19.531,22.461,42.480,0
215961.317,39.551,31.738,20.996,31.250,72.266,0
215961.320,41.992,28.320,24.414,49.805,114.258,0
215961.324,35.156,31.250,28.320,31.738,86.914,0
215961.328,31.250,32.715,35.156,19.043,48.340,0
215961.332,28.320,34.668,33.691,26.367,42.969,0
215961.336,35.156,37.109,26.855,28.320,39.062,0
215961.340,36.133,31.738,22.461,28.809,58.105,0
215961.344,26.855,28.320,19.531,28.809,68.359,0
215961.348,22.949,30.273,15.137,32.227,94.727,0
215961.352,28.809,27.832,24.902,32.715,99.121,0
215961.356,27.344,21.973,40.039,24.414,62.012,1
215961.360,15.137,20.020,33.691,24.414,64.453,0
215961.363,18.066,25.879,27.832,33.691,89.844,0
215961.367,20.996,25.391,31.738,35.645,69.336,0
215961.371,27.344,27.832,32.715,36.133,50.781,0
215961.375,24.414,35.156,27.832,23.926,65.918,0
215961.379,14.160,29.297,26.855,16.602,67.871,0
215961.383,28.809,27.344,34.180,28.809,61.523,0
215961.387,28.320,23.438,31.250,19.531,47.363,0
215961.391,20.020,24.902,33.203,20.996,45.898,0
215961.395,20.996,23.926,38.574,25.391,69.336,0
215961.399,23.438,18.066,36.621,23.926,64.453,0
215961.402,30.273,22.461,26.367,29.297,50.781,0
215961.406,28.320,25.391,26.855,35.156,41.992,0
215961.410,33.203,27.344,31.250,49.316,42.480,0
215961.414,38.574,30.273,30.762,42.969,51.758,0
215961.418,35.645,21.973,29.297,36.133,91.309,0
215961.422,25.879,14.160,23.926,39.062,95.215,0
215961.426,17.578,21.973,22.461,32.715,72.754,0
215961.430,23.926,29.297,27.832,20.996,48.828,0
215961.434,29.297,35.645,31.250,30.762,50.293,0
215961.438,26.367,34.180,26.855,40.039,79.590,0
215961.442,26.855,33.203,22.461,32.715,59.082,0
215961.445,33.691,34.180,23.926,44.434,62.012,0
215961.449,35.645,34.668,31.738,43.945,74.219,0
215961.453,36.133,40.527,40.039,35.156,94.238,0
215961.457,41.504,39.551,33.691,35.645,65.918,0
215961.461,42.480,28.320,25.879,35.156,27.344,0
215961.465,37.109,22.461,25.879,38.086,39.551,0
215961.469,34.668,31.250,17.090,37.109,31.250,0
215961.473,31.250,34.668,11.719,41.016,-34.668,0
215961.477,21.973,26.367,24.902,37.109,-17.090,0
215961.481,16.602,20.996,26.367,21.973,36.621,0
215961.485,18.555,21.484,20.996,27.832,17.090,0
215961.488,21.484,21.973,25.391,32.715,-10.254,0
215961.492,24.414,31.250,27.832,28.320,-27.832,0
215961.496,27.832,35.156,18.066,25.391,-27.832,0
215961.500,34.668,32.227,24.414,26.855,10.254,0
215961.504,38.574,34.180,31.738,36.621,30.762,0
215961.508,30.273,31.738,21.484,24.414,30.273,0
215961.512,25.879,31.738,12.207,16.602,41.016,0
215961.516,28.320,27.832,18.066,29.297,40.527,0
215961.520,27.832,20.020,27.832,26.367,29.785,0
215961.524,23.926,20.996,24.414,28.320,3.906,0
215961.527,27.832,29.785,21.973,38.086,28.809,0
215961.531,30.273,35.645,26.367,34.668,32.227,0
215961.535,30.762,34.668,25.391,40.527,33.691,0
215961.539,38.574,39.062,29.297,47.363,44.434,0
215961.543,38.086,35.156,27.832,30.762,20.508,0
215961.547,27.344,22.949,16.602,24.414,33.203,0
215961.551,29.785,22.461,15.137,31.738,41.504,0
215961.555,33.203,29.297,20.996,34.668,43.945,0
215961.559,34.180,33.203,25.879,34.180,42.969,0
215961.563,35.156,31.250,26.367,39.551,7.324,0
215961.567,26.855,29.785,28.809,25.391,-11.719,0
215961.570,23.926,29.785,25.879,15.137,-22.461,0
215961.574,28.320,28.320,21.973,22.949,-18.555,0
215961.578,36.133,27.344,20.996,29.785,13.672,0
215961.582,40.039,35.156,17.090,36.133,46.875,0
215961.586,33.203,38.086,12.695,43.945,49.805,0
215961.590,24.414,35.645,16.113,37.109,26.855,0
215961.594,23.438,32.715,23.926,24.902,9.277,0
215961.598,22.949,23.926,26.367,21.484,31.738,0
215961.602,19.531,19.043,20.020,19.531,40.039,0
215961.606,19.531,26.855,13.184,22.949,31.738,0
215961.610,26.855,36.133,22.461,23.438,-5.371,0
215961.613,27.832,35.645,29.297,19.043,-10.254,0
215961.617,27.344,36.621,23.926,23.926,9.766,0
215961.621,28.320,38.086,14.160,23.926,10.254,0
215961.625,32.715,33.691,16.602,17.090,43.945,0
215961.629,40.039,22.949,20.996,21.973,29.785,0
215961.633,29.785,17.578,20.996,38.086,1.953,0
215961.637,17.578,28.320,18.555,29.785,-2.441,0
215961.641,20.508,37.109,14.648,23.926,-6.836,0
215961.645,23.926,40.039,24.902,32.715,32.227,0
215961.649,25.879,37.598,30.273,30.273,24.414,0
215961.652,29.297,28.809,16.602,27.832,2.441,0
215961.656,30.762,28.320,15.137,28.320,-18.555,0
215961.660,28.320,29.785,26.855,29.297,-0.977,0
215961.664,21.484,21.484,29.785,25.391,50.781,0
215961.668,22.949,16.602,26.367,16.602,38.086,0
215961.672,21.484,17.090,24.414,7.324,41.016,0
215961.676,20.996,19.531,20.508,5.859,56.641,0
215961.680,28.320,22.461,4.883,21.484,24.902,0
215961.684,29.785,22.949,10.742,31.250,-16.113,0
215961.688,23.926,26.367,28.320,27.832,-10.742,0
215961.692,20.508,25.391,29.297,36.133,6.836,0
215961.695,19.043,22.461,27.344,36.133,-21.973,0
215961.699,21.484,17.578,30.273,33.691,-35.156,0
215961.703,23.926,14.160,28.809,25.879,-26.367,0
215961.707,29.785,20.996,23.438,22.949,-31.738,0
215961.711,26.367,21.973,20.020,27.832,-6.836,0
215961.715,20.020,16.602,18.555,22.949,-6.348,0
215961.719,17.090,13.672,13.184,21.484,-13.184,0
215961.723,14.648,16.602,11.719,22.461,-2.930,0
215961.727,23.438,23.926,17.578,27.832,4.395,0
215961.731,31.738,24.414,19.531,29.785,26.367,0
215961.735,34.668,20.508,22.461,35.645,46.875,0
215961.738,38.086,26.855,28.809,37.109,35.645,0
215961.742,34.180,32.715,31.250,29.785,-0.488,0
215961.746,33.691,30.762,20.996,27.344,-0.977,0
215961.750,36.133,23.926,14.160,23.438,26.855,0
215961.754,36.621,17.578,19.531,38.574,21.973,0
215961.758,40.527,21.484,19.531,58.594,2.441,0
215961.762,36.621,23.926,0.000,46.875,19.531,0
215961.766,32.715,25.391,3.906,32.715,42.969,0
215961.770,32.715,28.809,29.297,34.180,46.875,0
215961.774,34.668,32.715,27.832,29.297,40.527,0
215961.777,38.574,35.645,22.949,25.879,41.504,0
215961.781,29.785,31.250,20.020,23.926,62.012,0
215961.785,21.973,26.367,13.184,15.137,15.137,0
215961.789,19.531,25.391,10.742,9.766,-47.852,0
215961.793,25.391,28.809,12.207,16.113,-28.320,0
215961.797,26.367,28.320,5.371,20.996,-22.461,0
215961.801,18.555,26.367,-9.766,26.367,-10.742,0
215961.805,25.391,21.484,2.441,17.090,-10.254,0
215961.809,17.090,17.578,25.391,17.090,-28.809,0
215961.813,0.000,22.949,30.762,33.203,5.371,0
215961.817,0.977,27.344,20.508,25.391,38.574,0
215961.820,8.301,28.320,13.184,24.414,60.059,0
215961.824,12.695,25.391,22.461,27.832,44.434,0
215961.828,20.996,20.020,30.762,28.320,50.293,0
215961.832,25.391,21.484,20.508,28.320,41.016,0
215961.836,25.391,29.297,17.578,29.785,18.555,0
215961.840,27.344,28.809,25.879,31.738,21.973,0
215961.844,29.785,19.531,21.484,32.715,19.043,0
215961.848,33.691,22.949,28.320,36.621,26.367,0
215961.852,27.832,26.367,31.250,28.809,32.715,0
215961.856,21.484,23.926,26.367,30.273,38.086,0
215961.860,27.344,24.414,28.809,39.062,53.711,0
215961.863,31.738,26.855,23.926,32.715,7.324,0
215961.867,34.180,33.691,20.508,23.926,-23.438,0
215961.871,32.715,32.227,20.020,23.926,8.789,0
215961.875,33.691,35.645,24.414,30.762,26.855,0
215961.879,40.039,37.598,21.973,34.180,36.621,0
215961.883,36.621,25.879,10.742,30.273,54.688,0
215961.887,27.344,25.879,16.602,27.344,20.996,0
215961.891,28.320,37.109,20.508,23.926,18.066,0
215961.895,23.438,32.227,17.578,23.438,32.715,0
215961.899,17.578,23.926,20.508,15.137,24.414,0
215961.902,22.461,29.785,17.090,25.391,24.414,0
215961.906,19.043,31.738,13.184,26.367,13.184,0
215961.910,13.184,33.691,19.043,11.719,43.945,0
215961.914,20.508,35.645,27.344,23.926,49.316,0
215961.918,30.762,40.527,33.203,40.039,39.551,0
215961.922,33.203,44.434,29.785,35.645,25.879,0
215961.926,32.715,32.715,25.391,31.250,5.859,0
215961.930,28.320,18.066,30.273,33.203,-14.648,0
215961.934,30.273,25.391,23.438,30.273,-3.906,0
215961.938,37.109,37.109,17.578,35.645,30.273,0
215961.942,37.109,36.621,20.020,38.086,9.766,0
215961.945,41.016,36.621,20.020,35.156,26.367,0
215961.949,43.945,37.109,23.926,47.852,79.590,0
215961.953,36.621,38.086,27.832,40.527,52.734,0
215961.957,32.715,31.250,28.809,26.855,22.949,0
215961.961,39.551,28.320,26.855,34.668,63.477,0
215961.965,41.016,27.832,22.949,38.574,103.027,0
215961.969,35.645,22.461,25.879,35.645,78.613,0
215961.973,30.762,18.555,35.645,30.762,33.203,0
215961.977,30.762,23.926,37.109,30.273,12.207,0
215961.981,35.645,29.785,32.715,33.691,27.832,0
215961.985,35.156,27.344,27.344,36.621,-8.789,0
215961.988,38.086,27.832,27.832,38.086,-36.621,0
215961.992,42.969,28.320,23.438,39.551,23.926,0
215961.996,47.852,24.902,18.066,52.246,-1.465,0
215962.000,54.199,25.879,28.809,48.828,-31.738,0
215962.004,50.781,33.691,30.273,33.691,0.488,0
215962.008,43.945,33.203,23.438,31.250,21.484,0
215962.012,42.480,25.391,25.391,35.156,-5.371,0
215962.016,42.969,25.391,32.715,34.180,-0.488,0
215962.020,38.086,30.273,32.715,36.133,17.578,0
215962.024,39.551,32.715,29.785,49.805,4.395,0
215962.027,48.828,31.250,24.902,58.105,-13.672,0
215962.031,54.688,33.691,16.113,44.922,-6.836,0
215962.035,53.711,37.598,17.578,50.781,22.949,0
215962.039,47.852,36.133,34.668,51.270,14.160,0
215962.043,32.715,32.227,38.086,22.949,23.926,0
215962.047,26.367,26.855,21.973,20.020,6.836,0
215962.051,26.367,24.414,20.996,26.855,20.996,0
215962.055,25.391,25.879,21.973,20.508,38.574,0
215962.059,32.715,28.320,17.578,24.902,0.977,1
215962.063,34.668,31.250,15.137,32.227,6.836,0
215962.067,34.668,35.156,15.625,35.156,52.734,0
215962.070,40.039,39.551,24.414,38.086,63.965,0
215962.074,33.691,37.109,23.438,29.297,41.992,0
215962.078,26.367,31.250,13.672,24.902,43.457,0
215962.082,34.668,34.668,11.230,46.387,50.781,0
215962.086,39.551,34.180,16.113,56.641,60.547,0
215962.090,28.809,25.879,16.113,38.574,25.879,0
215962.094,24.902,27.344,8.301,27.832,-1.465,0
215962.098,24.902,29.297,7.812,20.996,10.254,0
215962.102,25.879,24.414,19.043,21.484,7.812,0
215962.106,28.809,18.555,25.879,34.668,38.574,0
215962.110,28.809,17.578,25.391,43.945,67.383,0
215962.113,31.738,24.902,22.949,45.410,80.566,0
215962.117,32.715,31.738,24.902,36.621,59.570,0
215962.121,30.762,29.785,21.973,37.598,24.414,0
215962.125,29.297,28.809,19.043,37.109,13.184,0
215962.129,22.949,22.461,23.438,28.809,25.391,0
215962.133,20.020,14.648,23.438,25.879,44.434,0
215962.137,24.902,19.043,17.578,21.484,11.719,0
215962.141,19.043,17.090,18.066,22.461,37.109,0
215962.145,19.531,13.672,25.391,24.902,71.289,0
215962.149,30.762,20.020,28.320,22.949,39.062,0
215962.152,29.297,21.484,22.461,34.180,45.898,0
215962.156,28.809,22.461,19.531,36.133,74.707,0
215962.160,25.391,25.391,18.555,27.344,65.430,0
215962.164,16.602,26.367,24.902,16.602,77.148,0
215962.168,20.996,27.344,28.320,27.344,82.520,0
215962.172,36.133,26.367,30.273,43.945,62.988,0
215962.176,47.363,34.668,39.551,49.316,30.273,0
215962.180,25.879,32.715,31.250,26.855,-4.395,0
215962.184,13.672,23.438,15.625,0.000,-17.578,0
215962.188,20.020,28.320,15.137,14.160,25.879,0
215962.192,18.066,28.320,14.160,23.438,8.301,0
215962.195,26.855,34.180,17.090,20.996,-34.668,0
215962.199,28.809,43.457,21.484,21.973,20.996,0
215962.203,22.949,37.598,13.672,17.090,53.711,0
215962.207,22.949,32.227,10.742,13.672,36.621,0
215962.211,25.391,32.227,14.648,18.555,32.227,0
215962.215,21.973,34.668,17.090,27.344,-30.273,0
215962.219,23.438,39.551,16.602,33.691,-69.336,0
215962.223,25.391,38.574,7.812,22.461,-27.344,0
215962.227,30.762,39.551,1.953,13.184,-64.941,0
215962.231,40.527,34.668,9.277,29.297,-44.922,0
215962.235,37.598,26.367,21.973,32.715,-13.184,0
215962.238,28.320,27.832,30.762,18.555,18.066,0
215962.242,30.273,27.344,30.273,23.438,105.469,0
215962.246,36.133,28.320,16.602,33.203,85.449,0
215962.250,35.156,34.668,11.230,28.809,36.133,0
215962.254,38.086,38.086,23.438,30.762,77.148,0
215962.258,41.504,38.086,26.367,38.086,105.469,0
215962.262,34.180,37.109,5.859,32.227,90.332,0
215962.266,28.809,28.809,9.766,35.645,97.656,0
215962.270,33.203,21.484,22.461,36.133,54.688,0
215962.274,32.227,24.414,19.531,30.762,9.766,0
215962.277,30.762,26.855,25.879,26.855,64.941,0
215962.281,36.621,25.879,32.715,14.160,104.004,0
215962.285,35.156,29.297,31.250,18.066,103.027,0
215962.289,35.156,36.621,19.043,34.668,76.172,0
215962.293,32.227,36.133,9.766,27.832,47.852,0
215962.297,23.926,29.297,14.648,18.066,89.844,0
215962.301,20.020,22.461,20.996,21.973,100.098,0
215962.305,24.414,23.438,20.996,21.973,90.820,0
215962.309,29.297,24.902,21.973,24.414,82.520,0
215962.313,32.227,22.461,25.879,30.762,69.336,0
215962.317,36.133,29.785,21.484,29.297,61.035,0
215962.320,37.109,34.668,22.949,35.156,71.777,0
215962.324,39.551,34.180,25.879,45.898,94.238,0
215962.328,41.504,32.227,21.484,39.062,85.449,0
215962.332,33.691,31.250,23.926,26.855,83.496,0
215962.336,26.855,31.738,24.902,21.973,63.965,0
215962.340,30.273,32.715,24.902,25.391,57.129,0
215962.344,30.762,33.691,25.391,23.438,64.941,0
215962.348,31.250,33.691,23.926,25.391,76.660,0
215962.352,29.785,35.645,21.973,35.156,76.172,0
215962.356,30.273,35.156,13.184,34.180,65.918,0
215962.360,36.621,29.785,14.648,29.297,56.641,0
215962.363,34.668,29.785,25.391,20.508,13.672,0
215962.367,35.645,32.715,25.879,26.367,21.973,0
215962.371,34.668,36.133,16.113,36.621,48.828,0
215962.375,29.297,36.133,10.254,30.762,45.898,0
215962.379,29.785,30.762,10.254,29.297,50.293,0
215962.383,30.762,31.250,17.578,31.250,67.871,0
215962.387,23.438,29.785,25.391,33.203,50.293,0
215962.391,23.926,29.297,23.438,37.109,37.109,0
215962.395,34.180,29.785,24.414,40.527,82.520,0
215962.399,25.879,21.484,29.297,30.762,94.727,0
215962.402,19.043,20.508,26.367,21.484,75.684,0
215962.406,24.902,29.297,22.949,29.785,21.973,0
215962.410,22.949,26.367,18.555,36.133,0.977,0
215962.414,19.043,24.902,14.648,21.484,7.812,0
215962.418,22.461,31.250,20.020,16.602,12.695,0
215962.422,26.855,30.762,20.996,25.879,46.875,0
215962.426,29.785,24.414,21.973,32.227,64.453,0
215962.430,41.504,28.320,32.715,41.992,80.078,0
215962.434,43.945,33.203,31.738,46.387,50.293,0
215962.438,34.180,23.438,27.344,46.875,58.594,0
215962.442,29.785,19.531,20.996,45.898,94.727,0
215962.445,29.297,22.949,13.672,39.551,70.312,0
215962.449,30.762,22.461,21.484,41.504,47.363,0
215962.453,28.320,19.531,19.531,35.156,24.414,0
215962.457,25.391,18.066,19.531,25.879,6.348,0
215962.461,28.320,19.531,25.391,26.367,17.578,0
215962.465,30.762,27.832,20.996,27.344,-6.348,0
215962.469,30.273,33.691,23.438,28.320,-20.996,0
215962.473,31.250,36.133,19.043,25.391,33.203,0
215962.477,35.645,39.062,10.742,32.227,60.547,0
215962.481,27.344,29.297,19.043,39.551,36.621,0
215962.485,21.484,26.855,28.320,34.668,11.230,0
215962.488,26.367,31.738,33.203,34.180,37.598,0
215962.492,24.902,24.902,32.715,31.738,61.035,0
215962.496,23.926,20.996,30.762,31.738,61.035,0
215962.500,25.391,24.902,34.180,33.691,26.855,0
215962.504,22.461,24.902,35.156,37.109,33.691,0
215962.508,22.461,26.855,30.762,28.809,27.344,0
215962.512,31.250,36.133,22.949,28.320,-13.672,0
215962.516,36.621,39.062,20.508,39.551,13.672,0
215962.520,41.992,34.180,24.902,42.480,15.137,0
215962.524,42.969,32.715,29.297,41.016,-3.906,0
215962.527,27.344,35.645,24.414,20.508,-12.207,0
215962.531,25.879,35.645,14.160,14.648,-13.672,0
215962.535,40.527,35.645,13.184,29.297,-33.203,0
215962.539,41.504,35.645,24.902,39.551,6.836,0
215962.543,35.156,30.762,26.855,35.645,94.727,0
215962.547,35.156,24.414,22.949,25.391,95.215,0
215962.551,36.621,27.832,18.555,27.344,79.590,0
215962.555,39.062,32.715,16.602,27.832,45.898,0
215962.559,42.480,30.762,22.461,32.227,-4.395,0
215962.563,37.109,29.785,24.902,41.016,1.465,0
215962.567,34.668,30.762,20.508,36.621,38.574,0
215962.570,36.133,30.762,11.719,35.645,18.555,0
215962.574,29.785,24.902,21.484,35.156,6.348,0
215962.578,25.391,20.996,30.762,32.715,45.410,0
215962.582,31.738,24.414,25.391,31.250,25.879,0
215962.586,34.180,23.438,13.672,30.273,-1.953,0
215962.590,33.203,28.320,11.719,33.203,-2.930,0
215962.594,32.715,33.203,18.555,39.062,16.113,0
215962.598,33.691,30.273,28.809,33.203,21.484,0
215962.602,35.645,24.902,41.016,14.648,-5.371,0
215962.606,31.250,21.484,38.574,20.996,29.785,0
215962.610,27.344,21.484,33.691,33.203,73.242,0
215962.613,29.297,22.461,32.715,32.227,41.504,0
215962.617,37.598,26.367,30.273,39.551,7.324,0
215962.621,41.016,34.180,37.109,41.992,48.828,0
215962.625,44.922,33.691,39.551,44.434,87.891,0
215962.629,49.805,30.273,30.762,48.828,78.613,0
215962.633,46.387,33.203,23.926,39.551,64.941,0
215962.637,41.016,33.203,27.832,33.691,39.551,0
215962.641,45.898,33.203,29.785,45.410,34.668,0
215962.645,47.852,33.691,29.297,43.457,15.137,0
215962.649,47.363,38.574,35.156,36.621,-10.254,0
215962.652,51.758,38.086,35.645,36.621,47.363,0
215962.656,48.340,29.785,31.250,24.414,50.781,0
215962.660,43.457,26.855,30.273,32.227,-4.883,2
215962.664,41.504,30.273,29.785,40.527,-6.348,0
215962.668,34.180,29.785,22.461,26.367,8.301,0
215962.672,28.809,25.391,18.555,22.949,-4.883,0
215962.676,32.715,31.250,18.066,30.762,-8.789,0
215962.680,32.227,38.086,20.996,28.809,-0.977,0
215962.684,24.414,34.668,28.320,23.926,-20.996,0
215962.688,28.809,34.668,27.832,22.949,-51.758,0
215962.692,41.016,41.504,25.391,20.020,-67.383,0
215962.695,42.480,38.086,19.531,23.438,-81.543,0
215962.699,33.203,35.156,16.113,31.738,-46.387,0
215962.703,36.621,43.457,21.484,34.180,-6.348,0
215962.707,40.039,39.551,24.414,33.203,-0.488,0
215962.711,38.086,36.621,20.996,36.133,26.855,0
215962.715,41.992,38.574,11.719,37.109,27.344,0
215962.719,38.086,30.762,2.441,38.574,26.855,0
215962.723,38.574,23.926,8.301,36.621,21.484,0
215962.727,39.551,22.461,18.066,34.668,25.879,0
215962.731,31.250,24.902,20.996,34.180,15.137,0
215962.735,34.180,27.832,22.949,32.715,-22.949,0
215962.738,40.527,32.715,22.461,35.156,-30.762,0
215962.742,40.039,33.203,24.414,38.086,20.996,0
215962.746,35.156,26.855,25.879,30.762,58.594,0
215962.750,30.762,24.902,26.367,23.438,17.090,0
215962.754,33.203,28.809,28.809,28.320,16.113,0
215962.758,35.156,27.344,20.508,39.062,26.367,0
215962.762,31.738,24.414,6.836,39.551,-10.742,0
215962.766,33.203,26.855,20.996,38.574,21.484,0
215962.770,30.273,22.949,29.297,35.645,66.895,0
215962.774,28.809,22.949,20.996,40.039,69.824,0
215962.777,43.457,33.203,30.762,46.387,43.457,0
215962.781,41.016,31.250,31.738,31.250,-27.832,0
215962.785,26.367,22.949,21.484,27.832,-19.531,0
215962.789,28.320,23.438,21.484,28.320,41.504,0
215962.793,33.203,20.996,28.320,26.855,12.695,0
215962.797,20.508,17.090,24.414,30.273,29.785,0
215962.801,20.020,22.949,15.137,35.156,56.641,0
215962.805,37.598,33.691,18.555,43.457,26.855,0
215962.809,40.039,33.203,20.020,46.875,24.414,0
215962.813,33.691,24.902,14.160,46.387,42.480,0
215962.817,37.109,25.391,11.230,49.805,40.527,0
215962.820,40.039,33.203,19.531,41.992,-23.926,0
215962.824,40.039,33.691,28.809,39.551,-41.504,0
215962.828,35.156,27.832,26.855,35.156,-26.367,0
215962.832,33.203,27.344,24.414,35.645,8.789,0
215962.836,37.598,31.250,24.902,46.387,29.297,0
215962.840,41.992,34.668,26.367,41.992,-9.766,0
215962.844,43.945,35.645,25.391,36.133,8.789,0
215962.848,42.969,38.086,17.090,34.668,39.551,0
215962.852,43.945,39.062,17.578,35.645,13.184,0
215962.856,43.457,35.156,19.043,29.785,-7.324,0
215962.860,45.410,33.203,13.184,39.551,10.254,0
215962.863,49.805,36.133,19.531,55.176,26.367,0
215962.867,47.852,42.969,21.484,45.410,13.184,0
215962.871,44.922,43.945,12.695,36.133,-13.672,0
215962.875,43.945,39.551,16.602,33.691,3.906,0
215962.879,39.551,35.156,15.137,27.832,34.668,0
215962.883,33.203,33.203,10.254,27.344,34.180,0
215962.887,30.273,33.203,11.230,16.602,14.160,0
215962.891,28.320,27.344,14.160,21.973,29.785,0
215962.895,27.832,25.391,20.020,37.109,52.246,0
215962.899,30.273,33.203,25.879,25.391,46.387,0
215962.902,26.855,31.250,33.691,21.484,36.133,0
215962.906,20.996,30.273,32.715,25.879,37.109,0
215962.910,19.531,32.715,33.691,18.066,32.715,0
215962.914,25.391,38.574,38.086,26.855,37.109,0
215962.918,20.996,44.922,32.227,24.414,24.902,0
215962.922,1.465,34.668,29.785,-2.441,37.598,0
215962.926,-11.719,30.273,29.297,-13.184,21.973,0
215962.930,-3.418,40.039,32.715,-5.859,-13.184,0
215962.934,-7.324,44.434,35.645,-5.859,3.418,0
215962.938,-41.992,39.551,31.738,-41.992,10.742,0
215962.942,-54.199,44.434,36.621,-58.105,10.742,0
215962.945,-49.316,50.293,34.668,-40.039,27.832,0
215962.949,-57.617,52.246,35.156,-42.969,40.039,0
215962.953,-73.730,56.152,42.969,-61.035,18.066,0
215962.957,-84.961,63.965,45.898,-79.590,21.484,0
215962.961,-101.074,66.406,42.480,-100.098,36.133,0
215962.965,-113.770,59.082,38.086,-117.676,37.598,0
215962.969,-116.211,62.012,43.457,-113.281,39.062,0
215962.973,-118.164,67.871,42.480,-120.605,33.203,0
215962.977,-121.582,64.941,36.621,-136.230,14.160,0
215962.981,-127.441,59.082,33.691,-127.441,8.789,0
215962.985,-122.559,59.570,25.879,-123.535,45.898,0
215962.988,-111.816,65.430,25.879,-126.465,43.945,0
215962.992,-115.723,58.105,28.320,-126.465,4.883,0
215962.996,-115.234,48.828,31.250,-118.652,6.836,0
215963.000,-108.887,58.105,35.156,-110.352,46.875,0
215963.004,-101.562,65.918,24.902,-109.375,52.246,0
215963.008,-92.773,63.965,14.160,-101.074,66.406,0
215963.012,-84.473,62.988,21.484,-96.191,81.055,0
215963.016,-76.172,60.547,22.461,-94.238,44.434,0
215963.020,-66.406,54.688,14.648,-86.914,14.160,0
215963.024,-63.477,50.781,11.230,-86.426,23.438,0
215963.027,-55.176,56.152,8.301,-77.148,30.273,0
215963.031,-34.180,62.012,4.883,-55.176,11.230,0
215963.035,-26.367,59.082,0.488,-47.852,35.645,0
215963.039,-30.762,49.805,-4.395,-41.016,34.668,0
215963.043,-24.902,48.340,0.000,-20.020,-12.695,0
215963.047,-14.160,42.969,6.836,-19.531,-39.062,0
215963.051,-14.648,36.621,4.395,-24.414,-33.691,0
215963.055,-12.695,35.645,2.441,-5.371,-27.832,0
215963.059,-3.906,33.691,-0.977,0.000,-26.367,0
215963.063,2.930,32.227,-7.324,-6.348,0.488,0
215963.067,6.348,30.273,-2.930,2.441,-9.277,0
215963.070,16.113,34.668,10.254,14.160,-37.109,0
215963.074,25.391,32.227,17.578,28.320,-25.879,0
215963.078,28.320,20.996,12.695,22.461,-1.465,0
215963.082,33.691,16.602,6.348,21.484,7.324,0
215963.086,34.668,20.020,8.789,31.250,28.809,0
215963.090,40.527,27.832,14.160,47.363,12.695,0
215963.094,52.246,26.855,9.766,55.664,3.906,0
215963.098,51.270,20.508,0.977,48.828,57.617,0
215963.102,50.781,20.020,5.371,62.012,44.434,0
215963.106,57.617,19.043,13.184,67.871,40.527,0
215963.110,59.570,12.695,15.625,67.871,1.953,0
215963.113,66.406,10.254,16.113,83.984,-11.230,0
215963.117,67.871,16.113,18.066,93.750,40.039,0
215963.121,64.941,20.508,12.207,93.750,17.578,0
215963.125,67.383,20.020,6.836,97.656,17.090,0
215963.129,70.801,11.719,8.789,100.586,14.648,0
215963.133,81.055,11.719,10.742,96.680,22.949,0
215963.137,90.820,20.020,7.812,86.914,66.406,0
215963.141,83.496,14.648,5.371,79.590,51.758,0
215963.145,84.473,10.742,18.066,82.520,43.457,0
215963.149,93.750,11.230,26.855,87.402,53.711,0
215963.152,90.332,12.695,20.996,94.238,58.105,0
215963.156,93.750,16.113,17.578,93.262,52.734,0
215963.160,90.820,11.719,18.066,91.797,38.574,0
215963.164,83.984,7.812,17.090,95.703,63.477,0
215963.168,85.449,11.719,11.719,98.145,83.008,0
215963.172,83.008,15.137,5.371,95.703,55.176,0
215963.176,81.543,17.090,8.789,93.262,49.805,0
215963.180,83.496,22.949,16.113,105.469,56.152,0
215963.184,82.031,17.578,16.113,99.121,38.574,0
215963.188,83.984,19.043,16.602,84.961,57.129,0
215963.192,87.891,24.414,15.625,83.008,44.922,0
215963.195,81.055,16.602,10.254,78.613,24.902,0
215963.199,77.148,13.184,8.301,77.148,21.973,0
215963.203,77.637,11.719,12.695,65.430,4.395,0
215963.207,81.055,12.695,14.648,71.289,22.461,0
215963.211,81.543,19.531,11.230,86.914,31.250,0
215963.215,82.031,21.973,1.953,79.590,-16.602,0
215963.219,84.961,23.438,-8.789,75.195,0.488,0
215963.223,83.496,22.949,-3.906,76.172,13.184,0
215963.227,76.660,14.160,13.672,68.848,3.418,0
215963.231,76.172,11.230,28.809,71.289,22.461,0
215963.235,77.637,9.277,28.809,81.543,17.578,0
215963.238,71.777,5.371,18.066,82.031,-9.766,0
215963.242,76.660,10.254,8.301,70.801,22.949,0
215963.246,83.496,16.602,0.488,67.383,13.672,0
215963.250,72.754,19.043,0.977,75.195,-18.555,0
215963.254,66.406,13.672,3.418,80.078,57.617,0
215963.258,73.730,13.672,4.883,66.895,62.988,0
215963.262,75.684,15.137,16.602,55.176,9.277,0
215963.266,70.312,9.277,21.484,52.246,15.137,0
215963.270,61.035,9.277,20.996,58.594,23.926,0
215963.274,54.199,12.207,27.344,62.988,23.438,0
215963.277,59.082,13.672,28.320,64.453,-1.953,0
215963.281,62.012,17.090,18.555,66.406,-17.578,0
215963.285,61.035,18.555,12.695,63.477,12.207,0
215963.289,65.430,17.090,14.160,69.824,56.152,0
215963.293,66.406,19.531,2.441,70.801,31.250,0
215963.297,60.547,23.438,1.465,71.289,5.371,0
215963.301,63.965,28.320,14.648,76.660,13.184,0
215963.305,74.707,32.227,19.531,62.012,29.297,0
215963.309,74.707,29.297,21.973,53.711,37.598,0
215963.313,69.824,20.996,22.949,60.059,59.082,0
215963.317,68.848,14.648,21.484,59.082,74.219,0
215963.320,65.430,18.066,14.648,50.781,47.852,0
215963.324,67.871,18.066,9.766,59.082,50.781,0
215963.328,71.777,10.254,18.066,74.707,88.379,2
215963.332,72.754,14.160,13.672,66.406,107.422,0
215963.336,78.125,33.203,12.695,67.871,85.938,0
215963.340,77.148,45.410,21.973,66.406,54.688,0
215963.344,66.406,39.551,17.578,56.641,50.293,0
215963.348,58.594,33.691,11.230,54.199,71.289,0
215963.352,51.758,29.785,8.789,37.598,50.293,0
215963.356,46.387,24.902,12.207,34.180,57.129,0
215963.360,49.316,24.414,13.672,42.969,72.754,0
215963.363,55.664,27.344,10.254,42.969,29.297,0
215963.367,48.828,24.414,12.207,40.527,2.930,0
215963.371,39.551,20.508,15.137,44.434,42.480,0
215963.375,40.527,20.020,14.160,49.316,40.039,0
215963.379,44.922,20.996,8.789,52.734,21.484,0
215963.383,40.527,20.996,-1.465,44.434,37.598,0
215963.387,32.227,19.043,-0.488,31.738,35.645,0
215963.391,33.691,22.461,12.207,42.969,34.668,0
215963.395,42.969,28.320,18.555,41.504,-6.836,0
215963.399,45.898,28.320,21.973,35.156,-20.508,0
215963.402,41.016,16.113,20.996,42.969,17.090,0
215963.406,42.969,11.230,15.137,53.711,7.324,0
215963.410,47.363,21.484,14.648,59.082,0.000,0
215963.414,48.340,20.020,18.066,58.105,18.555,0
215963.418,44.922,17.578,20.508,56.641,5.859,0
215963.422,40.039,20.508,21.973,49.805,29.785,0
215963.426,40.039,20.020,18.555,53.711,46.875,0
215963.430,42.969,23.438,8.301,55.176,34.668,0
215963.434,43.457,24.902,2.441,42.969,11.230,0
215963.438,44.922,25.391,12.207,43.945,-24.414,0
215963.442,45.898,28.320,12.695,44.434,-14.160,0
215963.445,45.898,22.461,3.906,49.316,43.457,0
215963.449,42.480,24.414,14.648,53.711,43.457,0
215963.453,40.527,24.902,20.996,45.898,-14.160,0
215963.457,42.480,20.508,19.531,52.734,-8.789,0
215963.461,50.781,28.809,21.484,60.547,38.086,0
215963.465,49.316,28.320,20.508,50.781,36.133,0
215963.469,42.969,22.461,26.855,50.781,9.766,0
215963.473,50.781,24.414,21.973,55.176,-6.348,0
215963.477,45.898,24.414,13.184,48.828,0.977,0
215963.481,38.086,24.902,19.531,46.387,25.391,0
215963.485,43.945,27.344,18.555,47.363,0.000,0
215963.488,47.852,25.391,12.695,46.387,-6.348,0
215963.492,46.387,27.832,20.020,49.316,40.039,0
215963.496,44.434,33.203,25.391,50.293,48.828,0
215963.500,37.109,27.344,20.020,47.363,21.973,0
215963.504,30.762,22.949,14.160,41.504,8.301,0
215963.508,33.691,30.273,12.207,42.480,12.207,0
215963.512,36.621,34.668,16.602,53.711,36.621,0
215963.516,36.621,30.273,15.137,44.434,82.031,0
215963.520,32.227,22.461,7.812,26.367,82.031,0
215963.524,44.434,25.879,7.812,39.551,75.684,0
215963.527,52.246,31.250,2.441,39.551,69.336,0
215963.531,36.133,26.367,3.906,18.066,28.809,0
215963.535,29.785,24.414,15.625,21.973,52.734,0
215963.539,35.156,27.832,20.996,39.062,103.516,0
215963.543,35.645,28.809,21.973,30.762,86.426,0
215963.547,42.480,29.785,13.184,28.320,54.688,0
215963.551,46.387,32.227,6.348,41.016,43.457,0
215963.555,41.504,29.297,7.324,41.504,57.129,0
215963.559,38.086,21.973,-1.953,40.039,26.367,0
215963.563,39.062,20.508,1.465,41.992,6.836,0
215963.567,40.527,24.414,20.020,45.898,33.691,0
215963.570,34.180,27.344,21.484,38.574,39.551,0
215963.574,37.598,32.227,14.160,32.227,12.695,0
215963.578,50.293,31.738,14.160,39.551,-28.809,0
215963.582,42.480,21.973,22.461,35.156,-19.531,0
215963.586,28.320,18.066,22.949,27.832,-13.672,0
215963.590,28.320,28.809,16.113,29.297,-17.578,0
215963.594,39.062,40.039,14.160,37.109,30.762,0
215963.598,41.504,31.738,4.883,43.457,33.203,0
215963.602,30.273,23.438,0.488,35.156,33.203,0
215963.606,33.203,32.227,16.113,35.156,56.641,0
215963.610,40.039,38.574,22.949,33.203,24.902,0
215963.613,37.598,31.250,20.020,24.414,5.859,0
215963.617,42.969,28.320,26.855,33.691,15.137,0
215963.621,44.434,32.227,23.438,38.086,14.160,0
215963.625,38.574,26.855,15.625,33.203,19.531,0
215963.629,35.645,15.137,13.184,31.738,21.973,0
215963.633,30.762,18.555,18.555,32.715,-17.578,0
215963.637,32.715,34.668,25.879,34.180,-38.086,0
215963.641,37.109,38.574,21.973,35.645,-4.395,0
215963.645,32.227,34.668,20.996,32.715,13.672,0
215963.649,32.227,33.691,17.578,39.551,18.066,0
215963.652,36.621,32.715,16.602,44.922,25.879,0
215963.656,33.691,23.438,20.996,32.227,17.578,0
215963.660,28.809,19.531,17.578,23.926,36.621,0
215963.664,31.738,25.879,21.973,27.832,50.781,0
215963.668,31.250,24.414,20.996,34.668,43.945,0
215963.672,24.902,22.949,14.160,30.273,29.785,0
215963.676,24.414,21.973,15.137,25.879,77.148,0
215963.680,29.785,23.926,20.020,29.297,78.613,0
215963.684,33.691,30.762,23.438,31.250,30.273,0
215963.688,34.180,34.668,21.484,31.738,54.199,0
215963.692,35.645,35.156,10.742,30.762,46.387,0
215963.695,36.621,33.203,8.301,44.922,20.508,0
215963.699,32.715,33.691,21.484,39.551,5.371,0
215963.703,27.832,26.855,25.879,31.250,35.156,0
215963.707,26.367,20.020,27.832,37.598,15.137,0
215963.711,27.832,22.949,30.273,31.738,-24.414,0
215963.715,32.715,28.320,26.855,38.086,55.664,0
215963.719,36.621,28.809,24.902,49.805,53.223,0
215963.723,36.133,24.902,26.367,45.898,13.672,0
215963.727,39.062,19.531,29.785,40.527,15.625,0
215963.731,43.457,22.461,32.715,43.457,14.648,0
215963.735,38.574,28.320,20.508,39.551,40.527,0
215963.738,35.156,30.273,18.555,35.156,30.762,0
215963.742,40.039,31.250,30.273,40.039,49.805,0
215963.746,41.016,28.320,31.250,45.898,68.359,0
215963.750,42.480,32.227,27.344,40.527,43.457,0
215963.754,44.922,33.203,29.785,30.273,28.809,0
215963.758,46.387,32.227,28.320,32.227,35.156,0
215963.762,42.480,30.273,21.973,32.227,42.480,0
215963.766,31.738,25.391,21.484,32.227,15.137,0
215963.770,29.297,24.902,18.066,21.484,19.043,0
215963.774,37.598,13.672,18.066,14.648,64.453,0
215963.777,35.645,4.395,19.531,21.484,125.488,0
215963.781,25.391,18.555,17.578,32.715,111.328,0
215963.785,23.926,37.598,20.996,44.434,100.098,0
215963.789,23.438,47.363,21.973,37.598,97.656,0
215963.793,23.438,38.574,14.648,21.973,59.570,0
215963.797,30.273,31.738,14.160,20.020,36.133,0
215963.801,44.922,40.527,13.184,38.574,29.297,0
215963.805,42.969,39.062,9.766,41.504,83.008,0
215963.809,19.531,33.203,17.578,20.508,70.312,0
215963.813,11.230,26.367,21.973,3.418,24.414,0
215963.817,22.949,21.973,24.902,16.113,57.617,0
215963.820,26.367,28.320,24.902,28.320,63.965,0
215963.824,25.391,31.738,14.648,32.227,105.469,0
215963.828,30.273,33.203,15.137,37.109,102.539,0
215963.832,36.621,35.645,24.902,40.527,68.359,0
215963.836,39.551,33.203,29.785,54.688,80.566,0
215963.840,36.133,29.297,27.344,49.805,93.750,0
215963.844,35.156,26.367,18.555,44.434,58.105,0
215963.848,39.551,22.949,23.438,52.734,13.672,0
215963.852,48.828,27.832,34.180,54.688,26.367,0
215963.856,47.852,32.715,28.809,45.898,32.715,0
215963.860,36.133,24.902,22.461,31.738,17.090,0
215963.863,37.109,29.785,28.320,42.969,14.648,0
215963.867,41.504,35.645,30.762,51.758,18.555,0
215963.871,35.645,24.902,22.461,44.922,65.918,0
215963.875,33.203,20.020,28.320,49.316,51.270,0
215963.879,35.645,24.414,41.504,44.922,25.879,0
215963.883,41.992,23.926,44.434,45.410,63.477,0
215963.887,41.504,17.578,35.156,45.898,73.730,0
215963.891,32.227,18.555,27.344,37.598,93.750,0
215963.895,38.086,28.809,30.762,48.340,105.957,0
215963.899,45.410,33.691,27.344,52.734,86.426,1
215963.902,41.016,32.227,15.137,43.945,47.852,0
215963.906,38.086,34.180,6.348,48.340,18.555,0
215963.910,31.250,34.180,1.465,47.363,50.293,0
215963.914,22.461,25.391,11.719,42.969,60.547,0
215963.918,22.949,21.484,33.203,42.480,33.203,0
215963.922,28.320,27.344,41.016,41.992,18.555,0
215963.926,33.203,30.273,38.086,42.480,17.578,0
215963.930,34.668,29.297,34.180,36.621,40.527,0
215963.934,27.344,23.926,25.879,29.297,31.250,0
215963.938,27.344,20.020,21.973,29.297,33.691,0
215963.942,30.762,25.391,24.902,31.738,35.156,0
215963.945,31.250,29.785,18.555,32.227,31.250,0
215963.949,25.391,18.555,8.789,22.949,28.809,0
215963.953,20.020,11.230,15.137,18.555,13.184,0
215963.957,26.855,18.555,23.438,27.832,24.902,0
215963.961,30.273,22.949,22.949,29.785,32.227,0
215963.965,33.203,27.832,18.555,35.156,12.207,0
215963.969,34.668,33.691,19.043,40.527,-5.371,0
215963.973,29.297,34.668,26.367,33.203,7.812,0
215963.977,34.668,35.156,24.902,32.715,29.297,0
215963.981,41.504,36.621,20.996,45.410,0.488,0
215963.985,36.133,30.273,24.902,43.457,-1.465,0
215963.988,31.738,22.949,26.367,32.227,34.180,0
215963.992,38.086,24.414,26.855,29.297,23.926,0
215963.996,43.457,29.785,21.484,32.227,35.645,0
215964.000,45.898,33.691,19.043,38.086,22.949,0
215964.004,47.852,34.180,26.855,45.898,-2.441,0
215964.008,46.875,37.598,28.320,52.246,7.324,0
215964.012,47.363,42.480,30.273,41.992,-22.949,0
215964.016,45.410,42.969,39.551,35.645,14.648,0
215964.020,45.898,41.016,35.645,38.574,60.547,0
215964.024,43.945,33.203,23.438,35.156,65.430,0
215964.027,39.062,30.273,20.996,35.645,74.219,0
215964.031,44.922,36.621,21.484,45.410,68.359,0
215964.035,41.992,33.203,23.438,46.875,57.129,0
215964.039,36.621,30.762,26.855,41.016,46.387,0
215964.043,38.086,37.109,30.762,31.250,40.039,0
215964.047,39.062,40.527,28.320,31.250,31.738,0
215964.051,40.039,41.016,25.879,34.180,20.020,0
215964.055,44.434,35.645,28.320,34.668,-15.625,0
215964.059,45.410,31.250,30.762,29.297,16.113,0
215964.063,37.109,30.762,30.762,31.250,46.875,0
215964.067,33.691,34.668,24.414,36.133,-4.883,0
215964.070,39.551,38.574,16.602,35.156,-19.531,0
215964.074,42.969,38.574,14.160,36.133,-30.273,0
215964.078,41.016,36.133,22.949,40.039,-37.598,0
215964.082,36.133,31.250,24.902,37.109,0.488,0
215964.086,30.762,25.391,13.672,28.320,2.930,0
215964.090,27.344,28.320,19.043,32.227,8.789,0
215964.094,25.879,30.273,26.367,32.715,14.648,0
215964.098,26.855,22.949,20.020,37.109,21.484,0
215964.102,24.902,20.508,21.973,33.203,18.555,0
215964.106,20.020,20.996,27.344,20.996,0.000,0
215964.110,23.926,24.902,28.320,24.414,38.574,0
215964.113,27.832,31.738,20.508,29.297,42.969,0
215964.117,23.438,30.273,15.137,21.973,50.781,0
215964.121,20.508,28.320,15.625,26.367,123.047,0
215964.125,22.949,32.715,12.207,27.832,126.465,0
215964.129,23.926,26.855,11.719,16.602,64.453,0
215964.133,24.414,24.414,22.461,19.043,45.898,0
215964.137,26.855,32.227,25.391,28.809,41.504,0
215964.141,28.320,32.715,19.531,36.133,69.824,0
215964.145,31.738,33.203,10.254,36.621,62.012,0
215964.149,32.227,34.668,16.602,26.367,-3.418,0
215964.152,33.691,30.762,30.273,32.227,38.574,0
215964.156,37.598,31.738,29.297,30.762,66.895,0
215964.160,35.156,33.691,22.949,32.227,45.410,0
215964.164,34.668,34.180,22.949,48.828,60.547,0
215964.168,39.062,33.691,22.949,42.969,64.941,0
215964.172,38.574,29.785,20.996,38.086,63.965,0
215964.176,35.645,32.715,20.508,41.992,20.508,0
215964.180,35.645,37.109,24.414,41.504,1.465,0
215964.184,37.598,36.621,30.273,52.734,17.090,0
215964.188,36.133,39.062,26.855,45.410,23.926,0
215964.192,29.297,34.180,27.344,19.043,0.488,0
215964.195,35.645,29.785,27.344,27.832,21.973,0
215964.199,33.691,26.855,24.902,33.691,88.379,0
215964.203,20.996,17.578,24.902,20.020,41.992,0
215964.207,19.531,18.066,24.414,19.531,-18.066,0
215964.211,18.555,23.926,24.902,20.996,35.645,0
215964.215,20.508,28.320,25.391,22.949,55.664,0
215964.219,24.902,31.738,23.438,29.785,19.043,0
215964.223,27.344,30.762,18.555,24.414,20.996,0
215964.227,34.668,35.156,17.090,27.832,38.086,0
215964.231,31.738,34.180,17.578,34.180,41.504,0
215964.235,24.414,28.320,16.113,19.043,-0.977,0
215964.238,27.344,28.809,19.531,13.184,-29.785,0
215964.242,36.133,28.809,25.879,28.809,-12.207,0
215964.246,33.203,24.902,23.438,29.297,11.719,0
215964.250,23.926,22.949,16.602,25.879,33.691,0
215964.254,21.973,17.090,14.648,22.461,23.438,0
215964.258,20.020,9.766,17.090,21.484,34.180,0
215964.262,28.320,15.137,17.578,22.461,27.832,0
215964.266,34.180,22.949,17.578,16.113,-8.301,0
215964.270,31.250,31.250,20.020,18.066,16.602,0
215964.274,30.273,30.762,19.531,16.602,30.273,0
215964.277,26.855,21.973,15.137,13.672,18.066,0
215964.281,26.855,23.926,13.672,17.578,21.484,0
215964.285,16.113,24.902,17.578,20.020,60.547,0
215964.289,6.348,19.531,16.113,22.949,39.551,0
215964.293,7.324,20.996,16.113,19.531,-7.324,0
215964.297,3.418,20.508,21.484,24.902,24.414,0
215964.301,7.324,22.461,23.926,32.715,56.152,0
215964.305,20.996,30.762,21.484,33.203,48.340,0
215964.309,29.785,35.645,18.555,42.480,55.664,0
215964.313,37.109,35.156,18.066,44.434,44.922,0
215964.317,39.551,38.086,20.020,37.598,45.898,0
215964.320,40.527,38.574,19.043,33.203,60.547,0
215964.324,40.039,35.645,16.602,27.832,59.082,0
215964.328,39.062,35.645,17.090,21.973,24.414,0
215964.332,41.016,36.133,23.926,25.391,2.930,0
215964.336,41.016,34.180,32.227,38.086,28.320,0
215964.340,44.434,37.109,33.203,38.086,-1.953,0
215964.344,48.340,41.016,20.020,38.086,-35.645,0
215964.348,48.828,41.992,21.484,43.457,19.531,0
215964.352,44.434,42.480,36.621,41.504,54.688,0
215964.356,39.551,35.156,39.062,37.598,12.695,0
215964.360,39.062,28.809,37.598,39.062,0.488,0
215964.363,44.434,31.738,34.180,40.039,13.672,0
215964.367,44.922,34.668,34.180,31.738,8.301,0
215964.371,25.879,29.785,32.715,12.695,2.441,0
215964.375,16.113,29.785,30.273,-1.953,16.602,0
215964.379,23.438,37.109,30.762,7.812,9.766,0
215964.383,17.578,38.086,30.273,14.648,0.977,0
215964.387,9.277,37.109,26.855,0.488,0.488,0
215964.391,14.160,37.598,31.250,7.324,-1.465,0
215964.395,22.461,32.227,32.227,19.043,15.625,0
215964.399,27.832,30.273,21.973,28.320,38.086,0
215964.402,24.414,32.715,18.066,27.832,32.227,0
215964.406,19.531,26.367,24.902,16.602,20.996,0
215964.410,25.879,29.785,32.715,13.184,41.504,0
215964.414,28.809,31.250,22.461,7.812,17.578,0
215964.418,24.414,27.344,12.695,19.043,-6.836,0
215964.422,17.578,32.715,23.438,20.508,2.441,0
215964.426,14.160,27.344,27.832,9.277,14.160,1
215964.430,15.625,20.508,25.391,9.766,-17.090,0
215964.434,19.043,22.461,28.809,17.090,-58.105,0
215964.438,20.508,27.344,28.320,25.391,10.742,0
215964.442,23.926,26.855,24.414,28.320,14.160,0
215964.445,28.809,23.926,24.902,34.668,10.742,0
215964.449,30.273,21.973,20.508,33.691,51.270,0
215964.453,30.273,23.438,19.043,24.414,50.293,0
215964.457,24.414,22.949,20.020,15.625,34.668,0
215964.461,19.531,23.926,17.578,19.531,54.688,0
215964.465,21.484,24.902,21.973,26.855,93.262,0
215964.469,27.344,20.996,24.414,20.996,89.844,0
215964.473,32.715,20.996,18.555,21.484,53.223,0
215964.477,31.738,28.809,16.602,24.902,16.602,0
215964.481,30.273,33.203,26.855,28.809,33.203,0
215964.485,27.344,33.691,23.438,26.367,65.430,0
215964.488,25.391,30.762,14.160,20.508,24.414,0
215964.492,25.879,26.367,22.949,25.391,-18.066,0
215964.496,28.320,29.297,30.273,30.762,20.996,0
215964.500,29.297,32.715,25.879,37.109,28.320,0
215964.504,30.273,29.297,17.578,39.551,36.621,0
215964.508,40.039,26.367,19.043,39.551,12.695,0
215964.512,45.898,24.902,27.832,38.086,-16.602,0
215964.516,43.457,31.250,27.832,41.016,-11.230,0
215964.520,44.922,38.574,20.020,38.086,-10.254,0
215964.524,40.527,35.156,20.508,28.809,-4.395,0
215964.527,33.203,32.715,22.461,34.180,25.391,0
215964.531,36.621,29.785,24.902,32.227,64.941,0
215964.535,41.992,26.855,28.320,28.320,53.223,0
215964.539,42.480,30.273,30.762,34.668,69.336,0
215964.543,39.062,29.785,34.668,32.715,87.891,0
215964.547,35.645,30.273,26.855,39.551,53.223,0
215964.551,38.086,35.645,16.113,44.922,23.438,0
215964.555,40.039,34.668,17.578,41.992,41.992,0
215964.559,40.527,31.738,19.531,41.016,86.914,0
215964.563,44.922,35.156,21.484,37.598,44.922,0
215964.567,45.410,34.180,21.973,31.250,-1.465,0
215964.570,40.527,23.926,24.414,26.855,43.457,0
215964.574,38.086,22.461,23.926,37.598,11.719,0
215964.578,34.180,23.438,20.508,44.922,-58.105,0
215964.582,27.832,21.973,21.973,30.273,-44.434,0
215964.586,23.438,19.531,24.902,24.902,-29.785,0
215964.590,22.461,18.066,19.043,33.203,-11.230,0
215964.594,21.484,22.949,16.113,37.109,17.090,0
215964.598,22.949,24.902,24.414,33.203,20.996,0
215964.602,26.367,20.996,21.484,34.668,11.230,0
215964.606,24.414,18.066,19.043,31.250,11.719,0
215964.610,23.438,17.090,25.879,31.250,-0.977,0
215964.613,26.855,20.996,29.297,27.344,33.691,0
215964.617,25.879,20.996,28.809,27.832,102.539,0
215964.621,30.273,19.043,27.344,34.668,105.957,0
215964.625,31.250,20.996,27.344,30.762,63.965,0
215964.629,29.297,22.461,29.297,31.250,60.547,0
215964.633,29.297,24.414,31.250,37.598,82.031,0
215964.637,30.273,27.832,29.297,41.992,105.469,0
215964.641,35.645,29.297,28.320,39.551,109.863,0
215964.645,37.598,26.855,30.762,35.645,105.469,0
215964.649,36.621,26.367,27.832,37.598,93.262,0
215964.652,32.227,27.344,21.484,39.551,55.176,0
215964.656,27.344,28.320,16.602,30.273,5.371,0
215964.660,36.621,34.180,11.230,37.109,18.066,0
215964.664,46.875,37.598,13.672,61.035,33.203,0
215964.668,43.945,31.738,18.555,49.805,19.043,0
215964.672,45.898,30.273,19.043,49.316,24.414,0
215964.676,48.828,31.250,19.043,51.758,56.641,0
215964.680,39.551,24.414,15.625,26.855,68.359,0
215964.684,36.621,25.391,19.043,20.996,49.316,0
215964.688,34.668,31.738,28.809,25.879,49.316,0
215964.692,26.367,32.715,28.320,23.438,56.152,0
215964.695,27.832,27.832,20.996,23.926,41.016,0
215964.699,30.273,27.344,17.090,30.273,16.602,0
215964.703,25.879,30.273,22.461,26.367,21.973,0
215964.707,24.902,27.832,22.461,26.367,24.902,0
215964.711,26.855,20.996,16.113,32.715,36.621,0
215964.715,31.738,24.414,15.137,30.762,14.160,0
215964.719,34.180,30.762,27.832,32.227,14.160,0
215964.723,23.926,27.832,27.344,29.297,46.387,0
215964.727,20.996,24.414,20.508,30.273,57.617,0
215964.731,28.320,22.949,25.879,30.762,54.199,0
215964.735,23.926,19.043,27.344,23.926,79.102,0
215964.738,20.020,18.066,25.391,28.809,57.617,0
215964.742,28.320,25.879,30.273,34.180,41.992,0
215964.746,30.762,26.855,27.344,25.879,32.715,0
215964.750,25.879,21.484,22.461,25.391,-5.371,0
215964.754,28.809,22.461,29.785,35.645,16.602,0
215964.758,30.762,28.809,37.598,32.227,22.949,0
215964.762,32.227,26.855,39.062,30.273,48.828,0
215964.766,38.086,29.297,33.691,39.062,71.777,0
215964.770,34.668,32.715,25.879,35.645,63.965,0
215964.774,31.738,32.715,21.973,29.785,38.086,0
215964.777,32.227,26.367,29.785,28.320,-4.395,0
215964.781,34.668,18.555,41.992,30.762,3.906,0
215964.785,40.039,22.949,38.574,36.133,24.414,0
215964.789,45.898,27.832,30.273,33.691,18.555,0
215964.793,41.992,26.855,26.855,28.320,23.926,0
215964.797,34.668,29.785,26.855,27.344,8.301,0
215964.801,44.434,38.086,38.086,29.785,-11.719,0
215964.805,47.852,36.133,32.715,33.691,-15.625,0
215964.809,44.922,29.297,20.996,43.945,3.418,0
215964.813,47.363,32.715,34.180,45.410,13.184,0
215964.817,46.875,38.574,39.062,33.203,-18.555,0
215964.820,46.387,36.133,27.344,21.973,-31.250,0
215964.824,40.039,33.203,19.043,24.414,15.625,0
215964.828,34.180,32.715,16.602,37.109,26.367,0
215964.832,34.668,34.180,30.762,37.109,-5.859,0
215964.836,40.039,36.133,37.598,39.062,2.930,0
215964.840,44.922,39.551,30.762,41.016,-0.488,0
215964.844,43.945,37.598,32.715,36.133,-16.602,0
215964.848,37.598,29.785,31.250,26.855,0.977,0
215964.852,38.574,29.297,30.273,19.043,-3.906,0
215964.856,33.691,28.320,33.203,19.043,-26.367,0
215964.860,32.227,23.926,31.250,32.715,2.930,0
215964.863,46.875,22.461,20.020,47.363,4.883,0
215964.867,35.156,24.902,20.996,33.203,-1.465,0
215964.871,11.719,24.902,35.645,7.812,24.414,0
215964.875,18.555,26.855,40.527,20.508,27.832,0
215964.879,26.367,28.809,34.180,37.598,39.551,0
215964.883,29.785,32.227,23.926,36.621,50.293,0
215964.887,31.738,29.785,23.926,32.227,27.832,0
215964.891,25.879,21.973,23.926,22.949,14.160,0
215964.895,29.297,23.926,26.855,30.762,21.484,0
215964.899,46.387,33.691,42.480,50.293,15.137,0
215964.902,50.781,28.320,40.527,39.062,20.996,0
215964.906,36.133,21.484,28.320,29.297,18.066,0
215964.910,27.832,29.297,26.855,40.527,-2.441,0
215964.914,33.203,35.156,22.461,40.527,0.977,0
215964.918,38.574,34.668,22.949,43.457,10.742,0
215964.922,40.039,33.691,31.738,42.480,-18.555,0
215964.926,36.133,36.621,37.109,41.504,-18.555,0
215964.930,28.809,31.738,39.062,42.480,33.203,0
215964.934,28.320,24.414,40.039,39.062,28.320,0
215964.938,39.551,30.273,42.480,44.434,-4.883,0
215964.942,45.898,35.156,33.691,43.945,-13.672,0
215964.945,43.945,30.273,20.996,37.598,-1.465,0
215964.949,43.457,35.156,32.715,47.363,30.273,0
215964.953,39.062,40.039,38.086,45.898,41.016,0
215964.957,34.668,34.668,28.320,38.086,32.715,0
215964.961,31.250,30.762,27.832,36.621,35.645,0
215964.965,27.832,25.879,31.250,38.086,45.410,0
215964.969,27.832,20.996,29.297,40.527,48.828,0
215964.973,27.832,24.414,30.273,35.156,65.430,0
215964.977,24.414,27.344,29.297,36.621,79.102,0
215964.981,29.297,30.762,26.855,43.945,60.059,0
215964.985,32.227,33.203,32.715,33.691,49.316,0
215964.988,28.809,30.273,32.715,18.555,37.598,0
215964.992,26.367,29.785,30.273,38.086,53.711,0
215964.996,32.227,33.691,26.367,48.828,83.008,0
215965.000,31.250,32.715,20.996,24.414,73.730,0
215965.004,27.832,29.297,18.555,21.484,72.266,0
215965.008,30.762,34.668,26.855,29.297,70.801,0
215965.012,20.508,31.250,32.715,23.438,65.430,2
215965.016,18.555,27.832,33.203,17.578,77.148,0
215965.020,23.438,28.809,40.039,20.996,98.633,0
215965.024,18.555,24.414,34.668,22.949,87.891,0
215965.027,14.648,23.926,24.902,26.855,23.926,0
215965.031,21.973,27.344,20.996,20.020,-3.418,0
215965.035,34.180,27.344,23.438,26.367,13.672,0
215965.039,40.527,24.902,24.414,40.039,27.344,0
215965.043,43.457,29.297,24.902,31.738,-20.996,0
215965.047,44.922,32.715,29.785,42.969,-41.016,0
215965.051,46.875,30.273,32.227,57.129,13.184,0
215965.055,46.387,34.180,25.391,47.363,17.578,0
215965.059,44.434,36.133,20.020,35.645,-8.301,0
215965.063,42.480,27.344,25.879,35.645,-2.930,0
215965.067,37.109,20.996,29.785,35.156,-10.742,0
215965.070,38.574,24.414,27.832,31.738,0.000,0
215965.074,42.969,28.320,18.555,31.738,19.531,0
215965.078,41.504,31.738,21.973,33.691,7.324,0
215965.082,38.086,36.133,34.668,43.945,10.742,0
215965.086,38.086,38.574,33.203,47.852,6.836,0
215965.090,38.574,34.668,26.855,41.504,4.395,0
215965.094,40.039,33.691,23.438,39.551,47.363,0
215965.098,41.992,35.645,25.391,48.340,77.637,0
215965.102,33.691,34.668,24.414,42.969,59.570,0
215965.106,32.715,27.832,26.367,27.344,42.480,0
215965.110,34.180,22.949,25.391,23.438,72.266,0
215965.113,24.902,27.344,21.973,22.949,88.867,0
215965.117,25.391,29.297,20.020,30.273,41.504,0
215965.121,26.855,25.879,18.066,34.180,19.043,0
215965.125,30.273,24.902,25.391,37.598,18.555,0
215965.129,34.668,24.414,25.879,44.922,17.090,0
215965.133,33.203,22.461,17.578,38.086,22.461,0
215965.137,31.738,25.391,23.926,28.320,37.598,0
215965.141,31.738,27.344,25.879,33.691,9.766,0
215965.145,31.738,26.855,21.484,23.926,11.230,0
215965.149,25.879,23.926,22.461,23.438,41.016,0
215965.152,25.879,20.508,19.531,26.367,40.039,0
215965.156,31.738,27.832,19.043,22.461,58.105,0
215965.160,30.762,35.645,27.832,22.949,48.828,0
215965.164,28.320,29.297,32.227,22.949,43.457,0
215965.168,26.855,19.531,27.344,20.020,27.832,0
215965.172,24.902,22.461,19.531,19.043,-5.371,0
215965.176,23.926,28.320,16.602,29.785,33.691,0
215965.180,27.832,32.227,22.949,29.785,20.020,0
215965.184,29.297,31.738,22.949,23.438,-24.902,0
215965.188,24.902,24.414,20.508,29.297,24.414,0
215965.192,24.902,24.902,28.809,33.203,39.062,0
215965.195,27.344,25.391,33.203,20.996,27.832,0
215965.199,26.855,25.391,30.762,19.531,58.594,0
215965.203,26.367,31.250,29.297,30.762,45.898,0
215965.207,26.367,32.227,27.344,28.320,0.000,0
215965.211,28.809,26.855,22.461,23.438,37.598,0
215965.215,34.180,27.832,22.461,27.832,32.227,0
215965.219,36.621,32.715,22.949,35.645,-3.418,0
215965.223,44.922,41.504,21.484,44.434,-33.691,0
215965.227,36.621,41.504,22.949,37.598,-78.125,0
215965.231,19.043,29.297,18.555,21.484,-34.180,0
215965.235,20.996,26.855,22.949,17.090,35.156,0
215965.238,25.879,22.461,34.180,18.066,57.617,0
215965.242,27.832,20.996,38.574,27.344,43.457,0
215965.246,30.762,27.344,33.203,41.016,52.734,0
215965.250,34.180,31.738,30.273,40.039,63.477,0
215965.254,33.203,32.227,32.715,40.039,25.391,0
215965.258,31.250,33.691,31.738,43.457,48.340,0
215965.262,26.367,32.715,28.320,37.598,96.680,0
215965.266,16.113,23.926,29.785,21.484,79.590,0
215965.270,18.555,20.996,25.879,20.996,56.152,0
215965.274,30.762,26.367,16.602,27.832,54.199,0
215965.277,25.391,25.879,17.090,15.137,35.156,0
215965.281,22.949,24.902,20.508,16.113,23.438,0
215965.285,24.414,26.367,25.391,27.832,7.324,0
215965.289,19.043,26.855,25.391,26.855,18.066,0
215965.293,18.066,29.785,23.438,33.691,54.199,0
215965.297,23.926,35.156,24.414,32.715,75.195,0
215965.301,27.832,35.156,28.809,28.320,110.840,0
215965.305,27.832,36.621,34.180,30.273,96.680,0
215965.309,24.902,34.668,25.879,22.949,65.918,0
215965.313,22.949,32.227,14.648,25.391,62.012,0
215965.317,26.855,36.621,22.461,20.996,25.879,0
215965.320,29.297,36.621,30.762,16.113,-0.977,0
215965.324,25.391,35.645,19.531,27.832,40.527,0
215965.328,23.438,38.086,9.766,27.344,40.527,0
215965.332,28.809,36.133,15.625,23.438,21.484,0
215965.336,31.250,36.621,24.902,25.879,51.270,0
215965.340,27.832,36.621,25.879,35.156,78.125,0
215965.344,39.551,38.086,32.715,40.527,67.871,0
215965.348,44.434,40.527,33.691,39.551,57.129,0
215965.352,35.156,33.691,23.438,31.738,54.688,0
215965.356,38.086,31.250,28.320,35.156,-16.602,0
215965.360,39.551,36.133,35.156,36.621,-31.738,0
215965.363,35.156,37.109,37.598,34.668,12.207,0
215965.367,35.645,32.227,37.109,41.504,21.973,0
215965.371,34.180,29.297,33.203,33.691,47.363,0
215965.375,32.715,28.809,34.668,30.762,72.754,0
215965.379,32.715,29.297,29.785,31.250,80.078,0
215965.383,33.203,31.250,23.438,30.762,108.398,0
215965.387,31.250,32.227,26.855,28.320,86.914,0
215965.391,28.320,30.762,28.809,24.414,68.848,0
215965.395,31.250,25.879,22.949,35.645,86.426,0
215965.399,37.598,28.320,20.020,36.621,108.398,0
215965.402,48.340,29.785,27.344,37.598,92.773,0
215965.406,40.527,29.785,32.715,32.715,68.848,0
215965.410,18.555,30.273,31.250,13.184,85.938,0
215965.414,24.414,28.320,26.367,17.090,98.145,0
215965.418,34.668,31.250,19.531,25.391,88.867,0
215965.422,28.809,31.250,23.926,19.531,69.824,0
215965.426,30.762,29.297,34.668,22.461,59.570,0
215965.430,35.156,27.832,33.203,22.461,59.082,0
215965.434,34.180,26.855,31.738,23.926,42.969,0
215965.438,37.109,31.738,29.297,39.062,-2.930,0
215965.442,40.527,34.668,16.113,39.551,4.883,0
215965.445,39.062,31.250,18.555,49.805,26.367,0
215965.449,37.109,21.484,27.344,42.969,-3.906,0
215965.453,37.598,15.137,31.250,26.367,-3.418,0
215965.457,35.156,25.391,36.133,32.715,27.832,0
215965.461,28.809,35.645,24.414,30.273,16.113,0
215965.465,25.391,35.156,15.625,31.250,4.395,0
215965.469,28.809,31.738,24.902,30.273,-19.531,0
215965.473,32.715,28.809,30.762,30.273,11.230,0
215965.477,33.691,27.832,30.273,30.762,40.527,0
215965.481,33.203,30.273,27.832,30.273,-0.977,0
215965.485,39.062,33.203,33.203,40.527,-9.277,0
215965.488,41.016,29.785,32.227,40.039,0.488,0
215965.492,31.738,26.855,24.414,35.156,28.809,0
215965.496,31.250,32.227,27.344,39.551,34.668,0
215965.500,39.062,39.551,33.203,41.992,40.527,0
215965.504,41.016,38.086,36.621,40.527,92.285,0
215965.508,43.945,34.180,32.227,37.598,40.527,0
215965.512,42.480,33.203,32.715,33.203,-66.895,0
215965.516,35.645,32.715,40.527,37.109,-50.781,0
215965.520,35.645,32.227,37.598,41.504,16.602,0
215965.524,40.039,30.273,23.438,35.156,6.836,0
215965.527,44.434,35.156,23.926,50.293,-25.879,0
215965.531,40.039,38.086,36.621,59.570,6.836,0
215965.535,38.086,32.715,37.109,44.434,18.555,0
215965.539,35.645,28.320,38.086,35.645,5.859,0
215965.543,29.297,24.902,40.527,39.062,-20.020,0
215965.547,32.715,23.926,41.016,44.922,-40.039,0
215965.551,33.691,23.926,29.785,39.062,-7.324,0
215965.555,33.691,23.926,19.531,37.109,-19.531,0
215965.559,33.203,24.902,27.344,24.902,-33.691,1
215965.563,30.762,27.344,32.715,24.414,-9.277,0
215965.567,32.227,30.762,27.344,37.598,5.371,0
215965.570,33.203,31.738,28.809,40.527,-14.160,0
215965.574,35.645,32.227,30.762,45.898,-28.809,0
215965.578,43.945,36.133,24.414,39.551,-0.977,0
215965.582,41.016,33.691,24.414,36.621,-22.461,0
215965.586,32.715,27.832,31.250,34.180,0.488,0
215965.590,30.762,23.926,28.320,39.062,32.227,0
215965.594,33.203,21.484,23.438,54.688,5.859,0
215965.598,40.039,24.902,27.344,56.641,17.578,0
215965.602,41.504,29.785,30.762,52.246,-17.578,0
215965.606,41.504,30.762,24.902,45.410,-2.930,0
215965.610,38.086,26.367,16.602,42.969,67.871,0
215965.613,42.480,27.832,18.066,41.504,64.941,0
215965.617,47.852,28.809,32.227,42.969,51.758,0
215965.621,41.992,29.297,39.062,35.645,53.711,0
215965.625,37.598,32.227,32.715,26.855,9.766,0
215965.629,30.762,27.344,22.949,28.320,2.441,0
215965.633,33.691,29.297,23.438,33.691,61.523,0
215965.637,37.109,33.691,27.344,36.621,51.758,0
215965.641,32.715,33.691,23.926,37.598,-0.488,0
215965.645,34.180,34.668,18.066,37.109,-10.742,0
215965.649,42.969,36.621,15.625,30.273,14.648,0
215965.652,43.945,38.574,19.043,38.574,32.227,0
215965.656,37.109,37.598,15.137,47.852,29.785,0
215965.660,35.645,36.133,15.137,39.551,57.129,0
215965.664,42.480,38.086,31.250,30.762,84.961,0
215965.668,39.551,31.738,34.180,34.180,85.449,0
215965.672,25.879,24.902,26.855,28.809,90.332,0
215965.676,25.879,28.320,14.648,24.902,57.617,0
215965.680,37.109,34.180,12.207,31.738,16.113,0
215965.684,37.598,35.156,29.297,35.645,15.625,0
215965.688,31.250,30.762,33.203,28.809,-16.602,0
215965.692,32.715,27.832,32.715,31.250,-38.574,0
215965.695,32.227,31.250,28.809,27.832,33.203,0
215965.699,25.879,28.320,21.973,17.578,60.547,0
215965.703,26.855,23.926,21.484,21.484,47.363,0
215965.707,32.227,28.809,27.344,18.555,33.691,0
215965.711,31.738,30.762,33.203,20.020,11.719,0
215965.715,29.297,25.879,30.273,19.043,37.109,0
215965.719,28.809,22.461,31.738,16.602,61.523,0
215965.723,29.785,24.414,33.691,19.531,36.133,0
215965.727,32.227,30.762,30.762,24.414,38.086,0
215965.731,29.785,31.250,28.809,29.785,68.848,0
215965.735,33.203,29.785,26.367,32.715,43.457,0
215965.738,34.668,30.762,22.949,18.066,1.465,0
215965.742,36.621,32.715,24.902,32.715,3.418,0
215965.746,39.551,36.133,23.438,59.082,-10.254,0
215965.750,39.062,36.133,20.996,37.109,3.418,0
215965.754,35.645,32.715,28.320,22.461,14.648,0
215965.758,36.621,27.344,36.621,25.391,25.879,0
215965.762,31.250,23.926,31.250,24.414,43.457,0
215965.766,27.344,27.832,27.344,18.066,17.090,0
215965.770,32.227,30.762,32.715,22.949,8.301,0
215965.774,26.855,28.809,30.762,32.715,9.277,0
215965.777,28.320,30.273,22.949,30.273,5.371,0
215965.781,37.598,39.062,26.367,25.879,37.598,0
215965.785,32.715,37.598,29.785,23.438,59.082,0
215965.789,28.809,32.715,22.949,34.180,52.734,0
215965.793,33.203,36.621,20.508,45.410,38.086,0
215965.797,29.785,34.180,30.762,42.480,19.531,0
215965.801,27.344,28.809,34.180,32.227,-11.230,0
215965.805,27.344,22.949,31.250,26.367,6.836,0
215965.809,26.367,20.020,32.715,27.832,40.039,0
215965.813,26.367,20.508,31.250,37.109,22.949,0
215965.817,27.344,23.438,33.691,35.645,10.742,0
215965.820,31.738,26.855,33.203,41.504,31.250,0
215965.824,37.109,30.762,30.762,47.852,-1.953,0
215965.828,36.133,30.273,35.645,41.016,-5.859,0
215965.832,40.527,28.809,36.133,41.992,31.738,0
215965.836,48.340,33.691,30.273,44.922,28.320,0
215965.840,38.086,32.227,29.785,49.805,34.668,0
215965.844,28.320,24.414,29.297,50.293,29.785,0
215965.848,25.879,22.461,27.344,41.992,44.922,0
215965.852,28.809,22.461,27.832,39.551,40.527,0
215965.856,34.668,27.344,31.250,41.504,39.062,0
215965.860,30.273,25.879,31.250,36.133,65.918,0
215965.863,28.320,22.949,30.762,41.504,46.875,0
215965.867,31.250,26.855,28.809,47.852,29.785,0
215965.871,30.762,29.785,24.902,29.785,52.246,0
215965.875,27.832,33.691,27.832,22.461,53.223,0
215965.879,25.391,31.250,20.996,27.344,43.945,0
215965.883,21.484,24.902,14.648,17.090,17.090,0
215965.887,21.484,23.438,16.113,12.695,-41.504,0
215965.891,26.855,20.020,19.043,24.902,-26.855,0
215965.895,28.320,20.996,20.508,36.621,-43.945,0
215965.899,25.879,29.297,18.555,29.297,-73.730,0
215965.902,25.879,32.715,18.066,26.367,-67.383,0
215965.906,27.344,33.203,23.926,30.273,-27.344,0
215965.910,22.949,30.762,32.715,26.367,-13.184,0
215965.914,21.484,27.344,34.668,27.832,-41.992,0
215965.918,29.297,31.250,36.133,36.133,-30.273,0
215965.922,28.320,31.738,28.320,31.250,-9.277,0
215965.926,26.855,29.297,22.949,22.949,33.203,0
215965.930,30.273,33.203,29.785,21.484,21.484,0
215965.934,34.668,34.668,32.715,19.043,2.441,0
215965.938,31.250,28.320,23.438,28.809,28.320,0
215965.942,29.297,22.949,17.090,23.438,14.160,0
215965.945,34.668,22.461,13.672,27.832,1.953,0
215965.949,30.762,21.973,16.113,39.062,27.832,0
215965.953,33.203,25.879,26.855,32.715,56.152,0
215965.957,33.203,30.273,34.668,26.855,65.430,0
215965.961,30.273,28.320,36.133,21.973,92.773,0
215965.965,31.250,26.367,26.855,24.902,62.988,0
215965.969,28.809,28.320,25.879,30.273,19.531,0
215965.973,23.926,26.367,32.227,30.762,55.176,0
215965.977,27.832,24.902,26.855,23.926,34.668,0
215965.981,36.621,27.344,26.367,31.250,49.805,0
215965.985,37.598,30.273,30.762,38.086,72.754,0
215965.988,34.668,32.715,29.297,34.668,36.621,0
215965.992,26.855,28.809,28.809,27.832,32.227,0
215965.996,20.020,26.855,23.438,30.762,52.734,0
215966.000,11.230,26.855,10.742,34.180,69.824,0
215966.004,12.695,22.949,13.184,19.043,44.922,0
215966.008,20.020,20.508,27.344,12.207,56.152,0
215966.012,18.555,25.391,36.621,8.789,75.195,0
215966.016,23.926,29.297,43.457,20.996,53.711,0
215966.020,38.086,29.785,36.133,34.668,31.738,0
215966.024,35.156,33.203,29.297,27.344,8.301,0
215966.027,21.973,28.320,33.203,23.926,33.691,0
215966.031,17.578,23.438,32.227,24.902,50.293,0
215966.035,15.625,23.926,26.855,20.508,35.156,0
215966.039,20.508,29.297,23.926,28.320,55.664,0
215966.043,25.879,30.273,22.461,40.039,57.129,0
215966.047,29.297,23.926,22.949,40.527,15.625,0
215966.051,29.297,25.391,28.809,37.109,18.066,0
215966.055,31.250,28.809,30.762,23.926,12.695,0
215966.059,33.691,28.320,25.879,21.484,0.000,0
215966.063,36.621,31.738,20.020,23.438,11.230,0
215966.067,44.922,36.621,26.855,31.250,-8.301,0
215966.070,45.898,37.109,33.203,38.086,-7.324,0
215966.074,43.457,36.133,27.832,39.551,46.875,0
215966.078,37.109,32.227,29.297,31.250,65.430,0
215966.082,28.809,28.320,33.203,26.367,78.125,0
215966.086,30.273,29.785,34.668,40.527,74.219,0
215966.090,38.574,28.809,36.133,50.781,56.641,0
215966.094,39.551,25.879,29.297,45.410,32.715,0
215966.098,28.809,25.391,23.438,26.855,35.645,0
215966.102,30.273,26.367,26.855,27.344,83.496,0
215966.106,37.598,33.203,31.738,39.551,35.645,0
215966.110,30.762,32.715,33.203,26.367,-21.973,0
215966.113,25.391,25.391,27.832,11.230,8.789,0
215966.117,24.902,21.484,28.809,18.066,46.875,0
215966.121,24.414,21.484,35.645,20.020,15.625,0
215966.125,23.438,23.926,40.039,30.762,7.812,0
215966.129,26.367,21.484,37.598,39.551,40.039,0
215966.133,30.762,18.555,36.621,38.086,52.246,0
215966.137,31.250,21.484,31.250,40.039,58.594,0
215966.141,36.621,29.785,20.996,41.992,30.273,0
215966.145,44.434,33.203,25.879,35.156,41.504,0
215966.149,36.621,27.832,26.367,27.344,62.500,0
215966.152,28.320,26.855,23.438,25.391,36.621,0
215966.156,32.227,31.250,35.645,24.902,-23.438,0
215966.160,33.691,30.762,39.062,34.180,-18.555,2
215966.164,32.715,25.879,33.203,45.898,46.387,0
215966.168,40.527,26.855,39.062,45.410,33.203,0
215966.172,41.016,29.785,44.922,40.527,39.551,0
215966.176,38.086,27.344,39.551,38.574,69.336,0
215966.180,37.598,25.391,34.668,40.527,67.383,0
215966.184,36.621,26.367,31.250,42.969,57.617,0
215966.188,41.504,26.367,27.832,46.875,40.039,0
215966.192,45.898,30.762,32.715,45.410,60.547,0
215966.195,49.805,39.551,32.227,50.293,72.754,0
215966.199,55.664,40.039,29.297,50.781,52.734,0
215966.203,52.246,37.598,34.180,42.969,48.828,0
215966.207,45.410,37.598,27.832,41.504,58.594,0
215966.211,40.039,35.645,27.832,37.109,77.637,0
215966.215,37.109,30.273,34.668,32.715,59.082,0
215966.219,31.738,26.367,30.273,23.926,76.172,0
215966.223,29.297,28.320,23.926,27.344,101.074,0
215966.227,38.086,30.273,19.043,40.039,96.191,0
215966.231,41.504,34.180,19.043,42.969,75.684,0
215966.235,41.504,38.574,23.438,37.598,22.461,0
215966.238,37.598,33.691,20.508,35.645,32.715,0
215966.242,37.598,35.156,22.461,34.180,38.574,0
215966.246,38.086,36.133,31.250,24.902,43.945,0
215966.250,29.785,32.227,29.785,20.020,50.781,0
215966.254,28.809,31.738,27.832,24.902,23.926,0
215966.258,29.785,29.297,28.320,33.691,29.297,0
215966.262,29.297,27.832,31.738,40.039,7.324,0
215966.266,31.250,26.367,38.574,32.715,27.344,0
215966.270,35.156,25.391,33.691,34.668,34.668,0
215966.274,30.762,26.855,30.273,41.016,19.043,0
215966.277,28.809,32.715,26.367,39.062,50.781,0
215966.281,36.133,35.645,26.367,39.551,32.227,0
215966.285,30.762,32.715,28.320,34.668,28.809,0
215966.289,26.367,26.855,26.367,41.016,46.875,0
215966.293,31.738,25.391,32.227,33.691,17.090,0
215966.297,28.809,26.367,36.621,22.949,20.996,0
215966.301,31.250,30.762,32.715,29.297,37.109,0
215966.305,36.133,34.180,29.297,30.273,3.418,0
215966.309,28.809,28.320,34.180,35.156,-7.324,0
215966.313,27.832,24.902,32.227,38.574,21.484,0
215966.317,31.250,26.367,28.809,36.621,-11.719,0
215966.320,32.715,25.391,29.297,38.574,0.977,0
215966.324,37.109,24.902,28.320,43.945,25.391,0
215966.328,40.039,29.785,28.320,50.781,-13.184,0
215966.332,40.039,30.273,23.438,41.992,-9.766,0
215966.336,37.598,30.762,23.926,29.297,25.879,0
215966.340,31.250,29.785,31.738,25.391,21.973,0
215966.344,27.344,22.461,40.039,23.926,20.996,0
215966.348,27.832,21.484,41.992,30.762,25.391,0
215966.352,26.855,24.414,34.668,16.113,39.062,0
215966.356,30.273,25.879,30.273,18.555,26.855,0
215966.360,36.133,28.320,34.668,38.574,20.508,0
215966.363,36.133,28.320,36.621,34.668,37.598,0
215966.367,34.668,23.926,35.156,34.668,40.527,0
215966.371,35.645,26.367,36.133,39.062,63.477,0
215966.375,31.250,28.809,25.879,41.992,66.895,0
215966.379,29.297,27.832,20.508,32.227,64.941,0
215966.383,32.715,30.762,30.273,29.785,37.109,0
215966.387,26.367,23.926,28.809,28.320,38.574,0
215966.391,24.902,22.461,20.996,29.785,61.523,0
215966.395,25.391,27.832,17.578,24.414,46.875,0
215966.399,28.809,32.227,25.879,17.090,60.059,0
215966.402,33.691,33.691,30.273,24.414,63.965,0
215966.406,33.691,30.762,22.949,25.391,47.852,0
215966.410,34.180,30.273,27.832,28.809,45.410,0
215966.414,31.738,30.762,35.645,30.273,28.320,0
215966.418,32.715,33.203,32.227,26.367,46.875,0
215966.422,34.180,36.133,20.996,33.203,64.453,0
215966.426,24.902,29.297,25.391,33.691,-9.277,0
215966.430,17.090,23.926,37.109,21.484,-18.066,0
215966.434,14.160,25.391,36.621,21.973,-9.766,0
215966.438,18.066,23.438,31.738,20.996,-6.836,0
215966.442,28.320,24.414,31.738,20.020,-1.953,0
215966.445,35.645,30.273,34.668,36.621,20.996,0
215966.449,40.039,34.668,34.180,48.828,35.645,0
215966.453,31.250,32.715,27.344,32.227,33.203,0
215966.457,26.367,28.809,20.996,29.785,52.246,0
215966.461,27.832,27.344,29.297,31.738,61.035,0
215966.465,25.879,28.320,27.832,35.645,30.273,0
215966.469,30.762,28.809,27.832,40.527,18.555,0
215966.473,37.598,29.297,35.156,33.691,31.250,0
215966.477,39.551,25.879,36.133,31.250,25.879,0
215966.481,33.203,26.855,31.738,29.297,17.090,0
215966.485,32.227,32.715,26.367,23.438,-16.113,0
215966.488,34.668,29.297,27.832,19.043,-18.555,0
215966.492,29.785,27.344,26.367,24.414,18.066,0
215966.496,27.832,30.273,30.273,29.297,35.156,0
215966.500,31.250,31.738,38.086,36.621,22.949,0
215966.504,33.203,32.715,34.668,33.691,0.000,0
215966.508,34.668,27.344,27.344,34.668,39.062,0
215966.512,37.598,29.785,23.926,48.828,76.660,0
215966.516,34.668,33.691,22.461,39.551,64.453,0
215966.520,34.668,28.320,20.508,22.949,64.941,0
215966.524,37.598,28.320,26.367,27.832,54.688,0
215966.527,34.668,34.180,30.273,34.180,63.477,0
215966.531,33.203,34.668,20.020,17.578,67.383,0
215966.535,37.109,34.180,22.949,24.414,68.359,0
215966.539,40.527,32.715,26.855,46.875,98.633,0
215966.543,41.504,32.227,22.461,33.691,89.844,0
215966.547,37.598,27.832,35.156,28.320,53.711,0
215966.551,40.039,26.367,34.180,35.645,50.781,0
215966.555,41.992,32.227,23.438,36.621,58.105,0
215966.559,31.250,27.832,26.855,25.391,67.871,0
215966.563,28.320,26.367,28.809,23.926,56.152,0
215966.567,33.203,31.250,27.832,28.320,32.715,0
215966.570,31.250,28.809,24.902,27.344,65.918,0
215966.574,30.273,28.320,26.367,29.785,112.305,0
215966.578,35.156,35.156,29.297,17.578,82.520,0
215966.582,35.645,37.109,19.043,16.602,56.152,0
215966.586,41.504,39.062,11.230,25.391,50.781,0
215966.590,46.387,41.504,17.090,23.438,-4.883,0
215966.594,36.133,36.133,17.090,20.508,11.230,0
215966.598,29.785,33.691,10.254,20.996,62.500,0
215966.602,26.367,30.762,18.066,21.973,37.598,0
215966.606,25.879,24.414,32.227,16.602,24.902,0
215966.610,23.926,19.043,31.250,13.672,28.320,0
215966.613,27.832,22.461,26.855,15.137,65.918,0
215966.617,40.527,34.668,25.879,34.668,31.250,0
215966.621,35.156,34.180,24.902,37.109,-21.484,0
215966.625,34.180,27.344,24.414,30.762,-8.301,0
215966.629,46.387,29.785,29.297,49.316,4.883,0
215966.633,30.762,31.738,29.785,34.668,20.996,0
215966.637,12.695,31.250,29.785,7.812,29.297,0
215966.641,18.066,25.391,35.156,17.578,59.570,0
215966.645,28.809,21.973,25.879,32.227,38.574,0
215966.649,28.809,23.438,20.020,24.414,24.414,0
215966.652,27.344,27.832,24.414,24.414,30.762,0
215966.656,30.273,26.367,25.879,24.902,-0.488,0
215966.660,27.832,24.414,34.668,20.508,7.812,0
215966.664,24.902,29.297,32.715,29.297,42.969,0
215966.668,24.414,29.785,22.461,28.809,37.109,0
215966.672,27.344,26.367,22.461,19.043,12.695,0
215966.676,33.203,29.297,18.555,30.762,28.809,0
215966.680,35.156,34.668,11.230,30.273,-33.691,0
215966.684,32.227,34.180,18.555,25.391,-57.617,0
215966.688,30.273,31.250,25.879,33.691,-6.836,0
215966.692,36.621,26.855,24.902,38.574,10.742,0
215966.695,43.457,27.832,27.832,32.715,-10.254,0
215966.699,44.922,34.180,24.902,42.480,-1.953,0
215966.703,41.504,34.668,23.926,48.828,31.738,0
215966.707,37.109,33.203,25.879,42.969,13.672,0
215966.711,37.598,30.273,25.879,51.758,2.930,0
215966.715,38.086,27.832,29.297,49.316,-24.414,0
215966.719,30.273,25.879,28.809,41.992,-8.301,0
215966.723,22.461,25.879,29.297,39.551,-3.906,0
215966.727,30.273,28.320,32.227,36.621,-57.617,0
215966.731,32.715,26.367,33.691,35.156,-49.805,0
215966.735,24.902,25.391,25.391,34.180,57.129,0
215966.738,27.832,28.809,20.020,39.062,68.848,0
215966.742,29.785,31.250,29.785,37.598,36.621,0
215966.746,28.320,27.344,31.250,39.551,91.797,0
215966.750,34.668,25.879,30.762,49.805,87.402,0
215966.754,42.969,33.691,35.156,42.480,25.391,2
215966.758,41.016,32.715,32.227,36.621,30.762,0
215966.762,37.109,26.367,28.320,35.645,52.734,0
215966.766,34.668,25.391,32.227,41.016,68.359,0
215966.770,32.715,22.949,31.250,40.527,34.180,0
215966.774,32.227,17.090,29.785,32.227,46.387,0
215966.777,33.203,16.113,25.879,35.156,99.121,0
215966.781,36.621,19.043,17.578,37.598,66.406,0
215966.785,37.109,20.508,28.809,36.621,59.570,0
215966.789,38.086,27.832,45.410,45.410,31.250,0
215966.793,41.992,30.762,41.992,50.781,19.531,0
215966.797,41.504,24.902,32.715,48.340,20.020,0
215966.801,43.457,26.855,29.785,38.574,16.113,0
215966.805,44.434,26.855,25.391,35.645,36.621,0
215966.809,37.109,20.020,27.344,38.574,33.203,0
215966.813,32.715,17.090,30.762,33.203,11.230,0
215966.817,34.668,22.949,25.879,38.086,17.090,0
215966.820,35.156,26.855,32.715,46.387,22.461,0
215966.824,36.621,28.320,37.598,40.039,26.367,0
215966.828,45.410,30.762,36.621,45.898,43.945,0
215966.832,44.922,28.809,34.180,43.457,56.641,0
215966.836,38.086,22.461,23.438,41.504,49.805,0
215966.840,35.156,19.531,19.043,39.062,2.441,0
215966.844,32.715,27.344,27.344,33.691,-23.926,0
215966.848,33.203,31.250,34.180,38.574,-7.324,0
215966.852,34.180,27.832,34.180,31.250,-2.930,0
215966.856,32.227,31.250,30.273,25.391,11.230,0
215966.860,35.156,37.109,26.855,25.879,-21.484,0
215966.863,37.109,34.180,30.273,24.902,-53.223,0
215966.867,36.621,29.297,35.645,21.484,-11.719,0
215966.871,37.598,31.250,37.598,26.855,25.391,0
215966.875,38.086,31.738,35.645,35.156,34.668,0
215966.879,33.691,28.809,31.738,26.855,13.672,0
215966.883,27.344,29.297,33.691,22.461,18.066,0
215966.887,31.250,33.691,36.621,31.738,28.809,0
215966.891,33.691,31.738,36.621,40.039,11.719,0
215966.895,33.203,30.762,37.598,33.203,-6.348,0
215966.899,37.109,36.621,31.738,33.203,-2.441,0
215966.902,45.410,40.527,31.738,27.344,-6.836,0
215966.906,42.480,38.086,44.922,19.531,-19.531,0
215966.910,37.109,37.109,44.434,31.738,-2.930,0
215966.914,35.156,40.527,46.387,36.621,29.297,0
215966.918,29.297,35.156,49.805,33.203,30.273,0
215966.922,25.879,26.367,41.504,25.879,33.203,0
215966.926,21.484,20.020,36.621,21.973,31.738,0
215966.930,27.832,24.902,31.738,33.203,37.109,0
215966.934,39.062,33.691,35.156,37.598,29.785,0
215966.938,40.039,33.203,34.180,39.062,46.387,0
215966.942,35.645,28.809,29.297,46.387,65.918,0
215966.945,36.133,28.809,37.598,44.922,43.457,0
215966.949,39.062,30.762,45.410,49.805,4.883,0
215966.953,33.691,27.344,40.039,39.062,-7.324,0
215966.957,28.320,29.297,24.902,33.203,51.758,0
215966.961,24.902,31.738,24.414,37.598,57.129,0
215966.965,25.879,24.414,37.109,27.832,29.297,0
215966.969,29.297,24.902,35.645,24.414,4.395,0
215966.973,33.203,34.668,35.645,34.180,4.883,0
215966.977,39.062,36.621,35.645,35.645,30.273,0
215966.981,39.551,29.785,32.715,37.598,9.766,0
215966.985,41.016,30.762,40.039,49.316,19.043,0
215966.988,37.109,35.156,34.180,41.992,36.133,0
215966.992,29.785,30.273,26.855,31.250,-16.602,0
215966.996,31.250,29.785,32.227,33.691,-27.832,0
215967.000,33.691,33.203,32.715,33.691,-4.395,0
215967.004,29.785,33.203,32.227,32.715,25.879,0
215967.008,25.879,30.762,29.297,29.297,22.461,0
215967.012,22.461,29.785,20.508,19.043,-19.043,0
215967.016,23.926,32.715,22.461,25.391,-16.113,0
215967.020,32.227,36.133,27.832,48.340,7.812,0
215967.024,32.715,37.109,29.297,47.852,31.738,0
215967.027,25.879,30.273,32.715,33.203,37.598,0
215967.031,19.531,25.879,32.227,30.273,49.805,0
215967.035,15.137,21.973,31.738,29.297,34.180,0
215967.039,15.137,22.949,37.598,28.320,9.766,0
215967.043,25.879,27.344,40.527,26.855,12.695,0
215967.047,26.855,25.391,34.180,30.273,3.418,0
215967.051,21.973,23.438,29.785,30.762,39.062,0
215967.055,30.762,29.297,29.297,16.113,43.457,0
215967.059,31.250,40.527,33.691,22.949,20.508,0
215967.063,20.508,39.062,36.621,35.156,42.969,0
215967.067,21.484,30.762,32.227,26.367,43.945,0
215967.070,31.250,31.738,28.809,38.574,16.113,0
215967.074,29.297,29.785,25.391,41.992,0.977,0
215967.078,25.391,21.484,28.320,35.156,69.336,0
215967.082,32.715,26.367,35.156,41.016,78.613,0
215967.086,36.621,34.180,44.922,46.875,73.242,0
215967.090,35.156,30.762,43.457,43.457,65.918,0
215967.094,34.180,29.785,36.621,25.879,19.043,0
215967.098,34.668,31.250,38.086,25.879,8.301,0
215967.102,29.297,27.344,32.227,34.668,-28.809,0
215967.106,28.809,27.344,28.320,33.691,47.852,0
215967.110,27.344,24.902,27.832,23.926,102.539,0
215967.113,31.738,19.531,31.250,21.973,60.547,0
215967.117,36.133,19.043,32.227,31.250,55.664,0
215967.121,28.320,22.461,29.297,31.738,33.691,0
215967.125,34.668,29.297,33.691,38.086,72.266,0
215967.129,43.457,31.250,34.180,44.922,100.098,0
215967.133,26.855,31.738,32.227,23.926,67.871,0
215967.137,16.113,33.691,22.949,21.484,65.918,0
215967.141,22.949,29.297,15.137,31.738,62.500,0
215967.145,21.973,29.785,20.020,11.719,22.461,0
215967.149,22.949,35.156,31.250,11.230,2.930,0
215967.152,23.438,30.762,37.598,27.344,52.734,0
215967.156,26.855,26.367,33.203,33.691,47.363,0
215967.160,29.785,29.297,24.414,27.832,30.762,0
215967.164,28.320,31.250,17.090,19.531,56.641,0
215967.168,30.762,32.715,25.391,23.438,27.344,0
215967.172,30.762,32.715,35.156,26.367,9.277,0
215967.176,28.320,33.203,30.762,20.996,-0.977,0
215967.180,27.344,37.109,24.414,33.203,6.836,0
215967.184,29.297,33.691,25.879,46.875,31.738,0
215967.188,29.785,26.367,28.809,36.621,48.828,0
215967.192,28.809,25.391,27.832,20.020,0.488,0
215967.195,30.273,24.902,34.668,24.902,15.137,0
215967.199,32.715,23.926,35.645,35.156,83.008,0
215967.203,32.715,24.902,26.855,32.227,83.496,0
215967.207,38.574,29.297,27.832,29.785,77.637,0
215967.211,38.086,31.738,25.391,42.969,93.262,0
215967.215,35.156,29.785,25.879,52.246,84.473,0
215967.219,44.434,27.344,33.691,43.457,66.406,0
215967.223,45.410,25.879,35.156,36.133,40.039,0
215967.227,35.156,24.414,30.762,38.574,32.715,0
215967.231,27.344,32.227,29.785,40.039,14.160,0
215967.235,21.973,32.227,27.832,26.855,-2.441,0
215967.238,19.531,25.391,29.297,24.902,-6.348,0
215967.242,25.879,27.832,32.715,25.879,-10.742,0
215967.246,30.762,29.297,29.785,27.344,11.230,0
215967.250,30.273,28.320,28.809,35.156,41.016,0
215967.254,35.156,31.738,20.508,32.715,24.414,0
215967.258,41.016,33.691,8.301,34.180,2.441,0
215967.262,40.039,31.738,17.090,38.574,-29.297,0
215967.266,36.133,32.227,29.785,39.551,-25.879,0
215967.270,35.156,27.344,38.574,32.715,22.949,0
215967.274,30.762,20.996,40.039,31.250,31.738,0
215967.277,29.785,25.879,33.203,43.457,40.527,0
215967.281,31.250,28.320,30.762,30.762,3.418,0
215967.285,29.785,27.344,31.738,22.461,2.441,0
215967.289,27.832,29.297,31.250,30.273,29.785,0
215967.293,28.320,31.250,23.926,28.809,10.742,0
215967.297,26.855,31.250,17.090,19.043,16.602,0
215967.301,25.879,27.832,18.066,19.043,21.484,0
215967.305,24.902,26.367,22.461,17.090,19.531,0
215967.309,26.367,28.320,27.344,26.367,4.883,0
215967.313,34.180,29.297,28.809,32.227,-18.066,0
215967.317,29.297,22.461,27.832,22.949,29.785,0
215967.320,22.949,18.066,27.344,13.184,82.031,0
215967.324,32.227,24.902,28.320,28.809,59.082,0
215967.328,33.691,23.438,24.414,43.945,20.020,0
215967.332,31.250,19.043,20.020,37.109,63.477,0
215967.336,34.180,24.414,26.855,28.809,76.172,0
215967.340,28.320,25.879,35.156,15.625,61.523,0
215967.344,25.391,26.367,34.668,13.184,88.379,0
215967.348,29.297,31.738,32.715,14.160,75.684,0
215967.352,27.344,31.738,33.203,24.414,44.922,0
215967.356,25.879,26.367,32.715,25.879,35.645,0
215967.360,26.367,23.438,31.738,19.043,19.531,0
215967.363,23.438,23.438,30.762,21.484,24.414,0
215967.367,25.879,24.902,24.414,28.320,21.973,0
215967.371,33.691,30.273,29.297,30.762,-1.953,1
215967.375,35.156,30.762,39.551,27.344,0.977,0
215967.379,36.133,24.414,37.598,25.879,54.688,0
215967.383,34.180,16.602,28.320,36.133,52.734,0
215967.387,32.715,18.066,25.391,35.156,13.672,0
215967.391,37.598,19.043,29.785,32.227,46.387,0
215967.395,47.363,18.555,35.156,46.387,51.758,0
215967.399,42.969,25.391,25.391,43.457,35.156,0
215967.402,34.180,30.762,21.973,32.227,16.602,0
215967.406,34.180,31.738,34.668,30.762,18.066,0
215967.410,32.715,30.762,36.621,30.762,48.828,0
215967.414,43.945,34.180,31.738,34.668,61.523,0
215967.418,53.223,33.691,29.785,42.969,40.527,0
215967.422,44.922,30.273,29.297,43.457,32.715,0
215967.426,37.598,27.832,37.109,39.062,57.129,0
215967.430,32.715,25.879,36.133,32.715,32.227,0
215967.434,38.086,28.320,36.133,34.668,21.484,0
215967.438,41.992,31.738,36.621,45.410,67.383,0
215967.442,33.203,30.273,22.461,33.203,16.602,0
215967.445,27.832,26.855,22.461,21.973,14.160,0
215967.449,31.250,30.273,29.785,17.578,65.430,0
215967.453,29.297,28.809,28.809,20.996,56.641,0
215967.457,30.273,29.297,30.273,40.039,77.637,0
215967.461,33.691,31.738,34.668,35.156,61.035,0
215967.465,24.902,25.391,30.273,19.531,6.348,0
215967.469,16.113,21.484,24.414,15.137,6.836,0
215967.473,16.602,16.602,24.414,17.578,9.766,0
215967.477,21.973,20.996,30.273,25.391,0.000,0
215967.481,21.484,24.414,27.344,27.344,48.828,0
215967.485,23.926,21.973,23.438,19.531,62.988,0
215967.488,30.762,26.367,26.855,29.297,34.668,0
215967.492,31.738,27.832,31.738,35.156,16.113,0
215967.496,25.391,22.461,38.574,25.879,40.039,0
215967.500,25.879,16.602,35.645,30.273,57.129,0
215967.504,33.691,20.508,32.715,35.645,40.039,0
215967.508,35.645,25.391,34.180,31.738,49.316,0
215967.512,37.109,28.809,34.180,25.391,38.086,0
215967.516,40.039,33.203,30.273,27.832,41.992,0
215967.520,37.109,32.715,27.344,19.531,1.465,0
215967.524,33.691,35.156,24.902,16.602,-46.875,0
215967.527,39.062,37.109,25.391,35.645,15.625,0
215967.531,40.039,35.156,29.785,38.574,36.621,0
215967.535,33.691,30.273,26.367,31.250,21.484,0
215967.539,29.785,26.855,26.367,27.344,35.645,0
215967.543,29.297,27.344,31.738,31.250,51.758,0
215967.547,29.785,31.738,33.203,27.344,43.457,0
215967.551,37.598,37.109,36.133,29.785,-1.953,0
215967.555,43.945,41.992,39.062,41.992,-7.812,0
215967.559,34.668,38.086,37.598,27.344,-15.625,0
215967.563,29.785,31.738,34.668,24.902,-14.648,0
215967.567,35.156,34.180,33.203,41.016,-3.418,0
215967.570,35.645,34.180,33.203,41.016,20.020,0
215967.574,34.668,32.715,28.809,34.668,38.574,0
215967.578,28.809,32.715,30.273,25.879,42.969,0
215967.582,28.320,30.762,31.738,28.809,68.359,0
215967.586,31.250,27.344,31.250,30.762,56.152,0
215967.590,29.297,29.297,35.156,27.344,23.926,0
215967.594,27.344,32.715,34.668,24.902,14.648,0
215967.598,29.785,33.691,39.551,36.621,27.344,0
215967.602,37.598,35.645,44.434,38.086,30.762,0
215967.606,39.062,31.738,42.480,29.785,35.645,0
215967.610,33.691,20.996,39.062,28.320,20.996,0
215967.613,35.645,20.020,39.551,37.109,17.090,0
215967.617,40.039,26.855,41.992,40.039,63.965,0
215967.621,40.527,24.902,39.062,36.133,57.129,0
215967.625,40.039,26.367,36.621,34.668,27.344,0
215967.629,33.203,28.809,36.133,34.180,45.898,0
215967.633,30.273,27.832,30.273,35.645,62.988,0
215967.637,39.062,31.738,30.762,33.203,19.531,0
215967.641,40.527,36.133,41.504,36.133,2.930,0
215967.645,38.086,33.691,51.758,40.039,35.645,0
215967.649,37.109,27.344,53.223,39.551,62.012,0
215967.652,36.133,25.879,44.434,35.156,37.598,0
215967.656,37.598,29.297,37.598,25.879,14.648,0
215967.660,36.621,32.715,30.273,32.227,10.254,0
215967.664,39.551,38.574,26.855,31.738,6.348,0
215967.668,45.410,37.598,29.297,30.762,-5.859,0
215967.672,41.992,30.762,33.691,38.086,-48.828,0
215967.676,34.668,31.738,39.551,32.715,-22.461,0
215967.680,41.016,37.109,40.527,36.621,45.898,0
215967.684,41.992,36.621,35.645,34.180,57.617,0
215967.688,27.832,35.645,34.668,24.414,5.371,0
215967.692,23.926,37.109,33.691,19.043,-14.648,0
215967.695,29.297,37.598,31.250,27.832,5.859,0
215967.699,31.250,40.039,30.273,30.273,44.922,0
215967.703,32.715,40.039,33.203,36.621,71.289,0
215967.707,32.227,40.039,37.598,51.270,85.938,0
215967.711,27.344,37.598,37.109,44.434,82.031,0
215967.715,21.484,34.668,36.133,31.250,33.203,0
215967.719,22.949,36.133,32.227,30.762,31.738,0
215967.723,27.832,35.645,26.855,35.156,43.457,0
215967.727,29.297,35.156,25.391,35.645,24.902,0
215967.731,25.391,29.297,25.879,25.879,27.832,0
215967.735,19.531,25.879,34.180,27.344,42.480,0
215967.738,22.949,29.297,41.992,39.551,51.270,0
215967.742,31.250,30.762,41.504,37.598,14.160,0
215967.746,32.227,26.367,39.062,39.062,-13.672,0
215967.750,25.391,25.391,36.621,37.109,-8.789,0
215967.754,21.484,29.297,36.621,39.551,37.109,0
215967.758,20.508,29.297,37.598,41.992,50.781,0
215967.762,20.020,23.926,37.109,36.133,-7.812,0
215967.766,23.438,20.020,39.062,41.016,28.320,0
215967.770,31.250,24.414,39.062,46.875,101.074,0
215967.774,35.156,24.902,34.668,34.180,56.641,0
215967.777,29.297,22.461,33.203,26.367,18.066,0
215967.781,27.344,24.902,30.762,31.250,49.805,0
215967.785,30.273,28.809,30.762,31.250,59.570,0
215967.789,25.391,28.809,28.809,29.785,57.129,0
215967.793,23.438,26.367,21.484,28.809,33.203,0
215967.797,28.320,26.855,25.879,23.926,0.488,0
215967.801,32.227,28.809,33.203,32.715,34.180,0
215967.805,34.180,29.785,28.809,35.156,1.953,0
215967.809,34.180,28.809,32.715,25.391,-0.977,0
215967.813,34.180,27.832,38.574,32.715,59.082,0
215967.817,33.203,27.344,40.039,37.109,54.199,0
215967.820,31.738,31.250,38.574,39.062,48.340,0
215967.824,30.273,35.156,28.320,41.016,33.691,0
215967.828,35.156,34.668,20.996,37.109,33.691,0
215967.832,39.062,32.715,28.809,33.691,32.227,0
215967.836,29.785,32.715,32.227,34.180,27.344,0
215967.840,29.785,36.621,27.344,30.273,38.574,0
215967.844,37.598,41.992,27.344,31.738,49.805,0
215967.848,33.203,38.086,27.832,29.297,48.828,0
215967.852,31.738,30.762,31.250,21.973,37.598,0
215967.856,37.109,33.203,31.250,29.785,49.805,0
215967.860,40.039,36.621,28.320,39.551,64.941,0
215967.863,37.598,30.762,22.461,38.574,43.945,0
215967.867,32.227,28.809,16.602,32.227,35.645,0
215967.871,32.715,35.156,23.926,42.480,54.688,0
215967.875,35.156,40.527,28.320,52.246,42.480,0
215967.879,31.738,37.109,30.273,29.785,31.738,0
215967.883,26.855,30.762,32.715,21.973,26.367,0
215967.887,24.414,27.344,39.062,20.020,11.230,0
215967.891,20.996,24.414,41.016,24.902,21.973,0
215967.895,20.996,18.066,31.250,32.715,23.438,0
215967.899,28.320,16.602,31.250,32.227,44.434,0
215967.902,31.738,18.555,38.086,41.992,67.871,0
215967.906,31.738,19.531,35.645,41.992,45.410,0
215967.910,34.668,26.855,28.809,36.621,38.574,0
215967.914,39.062,30.273,29.785,38.086,42.480,0
215967.918,38.574,28.809,34.180,38.086,72.266,0
215967.922,34.668,29.297,29.297,41.504,14.160,0
215967.926,35.645,29.785,23.438,40.039,-42.969,1
215967.930,33.203,25.879,30.762,29.297,34.668,0
215967.934,28.809,22.949,38.574,28.320,31.738,0
215967.938,29.297,19.531,37.598,28.809,-11.230,0
215967.942,29.297,19.043,30.762,27.344,17.090,0
215967.945,32.227,28.809,29.297,37.109,13.184,0
215967.949,35.156,36.133,32.227,46.387,16.113,0
215967.953,33.691,38.574,36.621,25.391,19.531,0
215967.957,31.250,34.180,37.109,20.996,-46.875,0
215967.961,31.250,25.879,28.809,29.785,-59.570,0
215967.965,35.156,23.926,27.344,24.902,1.953,0
215967.969,30.762,28.809,28.320,15.625,6.348,0
215967.973,25.391,32.227,21.484,19.531,3.906,0
215967.977,35.645,33.203,19.531,34.180,19.043,0
215967.981,45.898,37.109,21.484,27.344,16.113,0
215967.985,41.504,32.715,16.113,17.578,-23.926,0
215967.988,37.109,29.785,21.973,24.902,-41.016,0
215967.992,34.668,32.227,26.367,23.926,14.160,0
215967.996,31.250,37.109,27.344,23.926,58.105,0
215968.000,33.691,38.574,27.344,33.203,50.293,0
215968.004,39.551,39.551,29.785,33.691,-6.348,0
215968.008,42.969,38.574,32.227,35.156,-13.672,0
215968.012,46.387,31.250,28.809,34.668,15.625,0
215968.016,46.875,27.344,32.227,38.086,-5.859,0
215968.020,41.504,25.879,29.785,38.086,-28.809,0
215968.024,41.504,31.250,25.879,35.645,-23.926,0
215968.027,42.969,33.203,23.438,34.180,8.301,0
215968.031,41.504,25.391,20.020,41.992,-2.441,0
215968.035,40.039,28.320,27.344,46.875,-13.184,0
215968.039,40.527,37.109,25.879,41.016,60.059,0
215968.043,34.668,34.668,22.461,30.762,52.246,0
215968.047,26.367,29.297,29.297,25.391,-4.395,0
215968.051,28.320,27.344,31.738,29.297,30.762,0
215968.055,29.785,28.320,30.762,28.320,34.180,0
215968.059,30.762,26.367,34.668,24.902,12.207,0
215968.063,34.180,21.484,33.691,30.273,56.152,0
215968.067,35.156,29.297,32.227,46.387,51.758,0
215968.070,29.785,30.273,23.438,42.480,63.965,0
215968.074,24.414,24.414,18.066,28.320,60.547,0
215968.078,24.414,26.855,26.367,25.879,22.461,0
215968.082,21.484,24.902,31.738,28.320,31.738,0
215968.086,20.996,24.902,35.645,34.668,36.133,0
215968.090,26.855,31.738,30.762,31.250,35.645,0
215968.094,24.414,33.203,24.414,24.414,46.875,0
215968.098,23.438,31.738,28.809,23.926,72.754,0
215968.102,32.715,30.273,29.297,29.297,50.293,0
215968.106,32.715,28.809,21.973,34.180,41.992,0
215968.110,33.203,27.344,21.484,36.621,68.359,0
215968.113,43.457,28.320,26.367,51.758,42.480,0
215968.117,43.457,31.738,27.344,47.852,29.297,0
215968.121,36.621,33.203,27.344,38.086,34.668,0
215968.125,34.180,28.809,21.484,38.574,54.199,0
215968.129,33.691,25.391,20.508,42.969,97.656,0
215968.133,32.715,20.996,28.320,36.133,72.266,0
215968.137,31.250,18.066,32.715,30.273,15.137,0
215968.141,28.809,20.996,31.250,34.668,34.668,0
215968.145,36.133,27.344,29.785,33.203,44.922,0
215968.149,41.016,32.227,26.855,29.785,33.691,0
215968.152,36.621,35.645,24.414,28.809,18.555,0
215968.156,36.133,34.668,22.949,25.879,31.250,0
215968.160,40.039,30.273,22.461,31.738,63.965,0
215968.164,40.527,31.250,27.832,34.180,34.180,0
215968.168,40.039,34.180,34.668,28.809,22.461,0
215968.172,40.039,32.227,38.086,34.668,26.367,0
215968.176,32.715,26.855,29.297,38.574,26.855,0
215968.180,22.461,26.367,21.484,23.926,21.484,0
215968.184,20.508,26.367,26.367,26.855,33.203,0
215968.188,23.438,21.484,27.344,37.598,39.062,0
215968.192,27.344,24.902,24.902,36.621,10.742,0
215968.195,33.203,29.785,29.785,35.645,14.160,0
215968.199,32.227,24.414,33.203,39.551,38.574,0
215968.203,27.832,18.066,28.809,26.855,80.078,0
215968.207,23.926,18.555,32.227,21.484,63.477,0
215968.211,18.555,19.531,40.039,26.855,7.812,0
215968.215,15.137,19.043,35.645,22.949,46.875,0
215968.219,16.602,18.066,36.133,23.438,64.453,0
215968.223,27.344,20.508,37.109,28.320,44.434,0
215968.227,31.738,21.973,33.691,25.879,51.758,0
215968.231,25.879,20.996,36.133,21.484,67.383,0
215968.235,24.414,18.066,32.227,26.367,54.199,0
215968.238,32.715,20.996,27.344,32.715,8.301,0
215968.242,45.898,34.180,26.855,39.062,11.230,0
215968.246,44.434,34.180,26.367,48.340,54.199,0
215968.250,35.156,26.367,28.809,42.969,42.969,0
215968.254,31.738,23.438,36.621,26.367,28.320,0
215968.258,32.227,20.996,36.621,28.320,18.066,0
215968.262,40.039,29.785,36.133,39.551,16.113,0
215968.266,45.898,33.203,35.156,43.457,44.922,0
215968.270,44.434,25.391,26.855,34.180,23.438,0
215968.274,39.551,26.855,25.391,33.203,-27.832,0
215968.277,38.574,34.668,34.668,42.480,-11.230,0
215968.281,38.574,36.621,40.039,39.062,31.250,0
215968.285,35.156,32.227,37.109,28.809,34.180,0
215968.289,33.691,29.785,36.621,25.879,43.457,0
215968.293,37.598,31.738,38.086,32.715,63.477,0
215968.297,48.828,37.598,35.645,42.969,45.410,0
215968.301,48.340,42.480,34.180,38.086,44.922,0
215968.305,36.133,41.504,32.715,35.645,114.258,0
215968.309,33.203,36.133,26.855,33.691,105.469,0
215968.313,34.668,33.691,24.902,29.785,65.430,0
215968.317,33.203,33.203,31.250,22.949,73.730,0
215968.320,35.156,38.574,38.574,30.762,66.406,0
215968.324,39.062,35.156,36.621,45.410,55.176,0
215968.328,34.668,23.438,36.621,33.203,21.484,0
215968.332,34.180,28.809,32.227,27.832,8.789,0
215968.336,43.457,40.039,30.273,35.156,31.250,0
215968.340,44.922,39.062,35.645,35.156,29.785,0
215968.344,32.227,30.273,35.645,24.414,18.555,0
215968.348,41.016,29.297,34.180,30.273,40.039,0
215968.352,51.758,33.203,34.668,47.852,52.734,0
215968.356,34.668,32.715,35.156,21.973,42.480,0
215968.360,24.414,29.785,32.715,0.000,3.418,0
215968.363,34.668,29.785,38.574,20.508,10.742,0
215968.367,37.109,29.297,42.480,25.879,59.082,0
215968.371,35.156,28.809,38.086,24.414,87.402,0
215968.375,31.738,27.832,34.180,24.414,80.078,0
215968.379,25.879,25.879,33.203,22.461,41.504,0
215968.383,27.344,28.320,30.762,31.738,59.082,0
215968.387,28.320,30.762,26.855,33.691,80.566,0
215968.391,22.461,30.273,20.508,18.066,84.961,0
215968.395,23.926,31.250,20.020,12.207,81.055,0
215968.399,29.785,32.715,26.367,29.785,70.312,0
215968.402,28.320,35.645,30.273,43.457,61.523,0
215968.406,26.367,33.203,31.738,29.785,19.531,0
215968.410,26.855,29.297,37.109,18.555,32.715,0
215968.414,25.879,32.227,41.992,22.949,70.312,0
215968.418,24.414,35.645,40.039,28.320,57.129,0
215968.422,26.367,38.574,36.133,35.645,45.410,0
215968.426,28.320,34.668,32.227,29.297,75.195,0
215968.430,26.367,31.250,29.297,31.250,72.754,0
215968.434,26.367,33.203,25.391,40.527,15.137,0
215968.438,28.320,34.668,21.484,34.180,14.648,0
215968.442,24.902,32.715,17.090,30.273,28.809,0
215968.445,23.926,31.250,20.020,29.297,60.547,0
215968.449,29.297,34.180,24.414,29.297,43.457,0
215968.453,26.367,35.645,30.273,26.367,-15.137,0
215968.457,22.461,35.156,35.156,26.855,-10.742,0
215968.461,23.926,32.715,27.832,27.832,15.625,0
215968.465,19.043,28.809,24.414,26.855,29.785,0
215968.469,13.184,26.855,27.832,20.508,21.484,0
215968.473,13.672,27.832,29.297,21.973,47.852,0
215968.477,12.695,31.250,29.785,16.113,57.129,0
215968.481,17.090,30.762,23.926,15.625,11.719,0
215968.485,20.996,26.855,23.438,30.762,14.648,0
215968.488,17.578,29.785,26.855,29.297,53.223,0
215968.492,19.531,34.668,28.320,26.367,34.180,0
215968.496,25.879,33.691,31.250,19.043,-9.277,0
215968.500,23.438,32.715,30.273,20.996,-7.812,0
215968.504,19.531,27.344,28.320,29.297,54.199,0
215968.508,21.973,22.461,24.414,20.508,41.016,0
215968.512,23.926,21.973,25.879,13.672,-21.484,0
215968.516,28.809,23.926,29.297,21.973,5.859,0
215968.520,30.762,24.414,27.344,36.133,37.598,0
215968.524,33.203,22.949,29.297,38.086,18.555,0
215968.527,42.480,24.414,32.227,43.945,41.016,0
215968.531,46.387,27.344,32.715,45.410,75.684,0
215968.535,38.086,28.320,31.250,37.598,49.316,0
215968.539,31.250,26.367,25.879,22.461,47.852,0
215968.543,32.227,24.902,22.949,20.020,59.082,0
215968.547,28.809,24.414,23.926,26.855,58.594,0
215968.551,29.297,24.902,25.879,23.926,72.266,0
215968.555,37.598,27.832,32.227,21.973,34.668,0
215968.559,45.410,29.297,26.855,21.484,35.156,0
215968.563,50.293,30.762,27.832,35.645,96.191,0
215968.567,48.828,34.180,29.785,42.969,58.105,0
215968.570,48.828,34.668,27.344,51.758,58.105,0
215968.574,52.246,33.691,32.715,54.688,87.891,0
215968.578,53.223,37.598,31.738,45.410,56.641,0
215968.582,44.922,36.133,25.879,41.504,26.367,0
215968.586,38.574,29.297,23.926,33.203,13.184,0
215968.590,38.086,27.344,22.949,26.855,6.348,0
215968.594,40.039,30.273,23.926,31.738,16.602,0
215968.598,42.480,28.320,25.879,35.156,7.324,0
215968.602,42.480,27.832,28.320,28.809,-37.598,0
215968.606,42.480,31.738,31.738,31.738,2.441,0
215968.610,41.992,36.133,29.297,36.621,48.828,0
215968.613,42.480,38.086,30.273,38.086,24.414,0
215968.617,41.504,37.109,33.203,34.180,-0.977,0
215968.621,41.016,39.062,31.738,43.945,-14.648,0
215968.625,32.227,33.691,28.809,43.457,19.531,0
215968.629,23.438,27.344,29.785,23.438,40.039,2
215968.633,26.855,24.902,31.250,19.043,46.387,0
215968.637,32.715,23.926,26.367,23.438,14.160,0
215968.641,30.762,26.855,26.367,31.738,-4.883,0
215968.645,29.785,28.320,27.832,36.133,4.883,0
215968.649,34.668,26.367,26.367,33.203,42.480,0
215968.652,35.645,25.879,33.203,35.645,68.848,0
215968.656,31.250,27.344,35.156,38.574,34.668,0
215968.660,29.297,21.484,29.785,37.109,27.832,0
215968.664,32.227,19.043,29.297,37.109,19.043,0
215968.668,32.715,22.461,27.344,25.391,0.977,0
215968.672,29.297,20.996,23.926,19.043,34.180,0
215968.676,30.762,22.461,22.461,31.250,55.664,0
215968.680,40.527,29.297,22.461,38.574,45.898,0
215968.684,43.945,34.668,22.949,40.039,37.598,0
215968.688,32.227,29.297,19.043,32.715,28.809,0
215968.692,25.879,26.855,19.531,29.297,18.555,0
215968.695,25.391,26.855,33.203,39.551,26.367,0
215968.699,20.508,16.113,40.039,41.016,59.082,0
215968.703,20.508,14.160,38.574,24.902,65.430,0
215968.707,21.484,20.020,33.203,26.855,45.410,0
215968.711,17.090,19.531,22.949,41.504,90.820,0
215968.715,19.531,23.438,20.996,44.434,115.234,0
215968.719,30.273,30.762,19.043,41.504,34.180,0
215968.723,33.203,32.227,19.043,27.832,27.832,0
215968.727,30.762,27.832,24.902,23.438,43.457,0
215968.731,31.250,22.461,30.273,35.645,20.996,0
215968.735,29.785,24.414,37.109,38.086,-20.020,0
215968.738,27.832,21.973,36.621,33.691,-37.109,0
215968.742,31.250,20.508,32.715,42.480,30.762,0
215968.746,32.227,25.391,35.156,40.039,49.805,0
215968.750,27.832,23.926,32.227,33.203,44.434,0
215968.754,27.344,22.461,28.320,39.062,37.109,0
215968.758,27.344,24.414,28.809,32.227,20.996,0
215968.762,23.926,25.391,26.855,22.949,50.781,0
215968.766,31.738,26.855,28.320,29.785,55.176,0
215968.770,41.016,33.691,34.668,30.762,17.090,0
215968.774,41.016,38.086,32.227,29.297,6.836,0
215968.777,36.621,30.762,21.484,35.645,10.742,0
215968.781,34.180,27.344,17.090,23.926,-14.160,0
215968.785,35.156,30.273,22.461,26.855,-12.695,0
215968.789,36.621,30.273,27.832,42.480,48.828,0
215968.793,31.738,31.738,30.762,31.738,27.344,0
215968.797,24.902,30.273,28.809,28.320,-7.812,0
215968.801,20.996,27.832,21.484,33.691,59.082,0
215968.805,23.438,29.785,16.113,26.367,57.617,0
215968.809,27.344,29.297,19.531,18.066,9.766,0
215968.813,25.391,26.855,23.438,19.531,34.180,0
215968.817,25.391,23.926,18.066,23.926,47.363,0
215968.820,28.320,23.438,15.625,15.137,70.312,0
215968.824,30.762,28.809,22.949,12.207,55.176,0
215968.828,31.738,31.738,28.320,26.367,11.230,0
215968.832,32.227,27.832,36.133,33.691,36.133,0
215968.836,25.391,21.973,28.320,35.645,74.707,0
215968.840,20.996,20.508,23.438,28.809,54.199,0
215968.844,20.508,16.113,33.203,24.902,44.434,0
215968.848,13.184,15.625,31.250,28.809,75.195,0
215968.852,15.137,18.555,28.809,32.227,53.711,0
215968.856,22.949,16.113,31.250,36.133,49.316,0
215968.860,22.949,16.602,28.809,30.273,66.895,0
215968.863,19.531,23.926,28.320,18.066,64.453,0
215968.867,22.949,27.832,30.762,16.602,45.410,0
215968.871,26.367,30.762,30.273,24.902,-9.766,0
215968.875,27.344,33.203,32.715,26.855,-41.016,0
215968.879,29.297,30.273,33.203,29.785,3.906,0
215968.883,33.691,33.691,31.738,35.645,40.527,0
215968.887,36.133,32.227,29.297,34.180,20.508,0
215968.891,30.273,23.926,27.832,29.297,16.113,0
215968.895,29.297,27.832,29.785,26.855,27.832,0
215968.899,29.297,29.297,27.344,26.367,27.832,0
215968.902,23.438,25.879,27.832,22.949,10.254,0
215968.906,19.531,20.020,31.250,17.090,16.602,0
215968.910,21.973,19.531,32.227,29.297,16.113,0
215968.914,26.367,27.344,20.508,29.297,2.441,0
215968.918,33.203,33.203,18.066,23.926,0.488,0
215968.922,42.480,37.598,32.715,31.250,5.371,0
215968.926,42.969,39.551,36.621,36.621,33.203,0
215968.930,43.457,38.086,33.203,36.133,-28.809,0
215968.934,41.504,35.645,26.855,29.785,-33.691,0
215968.938,38.086,35.645,24.414,37.598,-7.324,0
215968.942,35.645,37.598,32.227,41.992,-39.551,0
215968.945,31.738,32.715,31.250,35.645,-8.301,0
215968.949,31.250,29.297,25.391,20.508,-20.020,0
215968.953,34.180,29.297,26.367,22.461,22.461,0
215968.957,35.645,32.715,29.785,40.039,48.340,0
215968.961,35.156,35.645,37.598,38.086,2.930,0
215968.965,32.715,31.250,40.527,27.344,16.113,0
215968.969,30.762,28.809,36.621,21.973,46.875,0
215968.973,33.203,31.250,32.715,34.180,27.344,0
215968.977,34.180,33.691,28.809,34.180,-6.348,0
215968.981,32.227,32.227,35.645,26.855,-14.648,0
215968.985,30.273,25.391,41.504,34.180,39.062,0
215968.988,23.438,17.578,38.086,20.020,54.688,0
215968.992,24.414,19.531,42.969,22.949,26.855,0
215968.996,32.227,24.414,44.434,44.434,27.832,0
215969.000,29.297,24.902,36.621,37.109,63.965,0
215969.004,28.320,27.344,34.668,33.203,74.219,0
215969.008,30.762,30.273,35.156,34.180,54.199,0
215969.012,33.203,32.715,28.809,33.203,54.688,0
215969.016,37.598,32.227,29.785,38.574,34.668,0
215969.020,35.645,29.297,35.645,29.785,-6.836,0
215969.024,32.227,25.879,38.574,18.555,4.883,0
215969.027,36.621,24.902,37.109,27.832,34.180,0
215969.031,38.086,26.367,30.762,38.574,38.574,0
215969.035,36.133,29.297,34.668,40.527,53.223,0
215969.039,38.574,37.598,43.457,43.945,60.547,0
215969.043,36.133,36.133,40.527,39.551,75.195,0
215969.047,32.715,31.250,32.715,35.645,67.383,0
215969.051,33.203,34.180,26.855,41.992,67.383,0
215969.055,40.039,40.039,32.227,42.969,50.781,0
215969.059,39.551,37.109,40.527,37.598,-21.484,0
215969.063,33.203,32.227,41.016,31.738,1.465,0
215969.067,32.227,31.250,39.062,32.227,26.367,0
215969.070,33.691,26.855,37.598,38.086,5.371,0
215969.074,35.645,26.855,33.691,36.133,-14.160,0
215969.078,37.598,32.715,29.297,38.086,-24.902,0
215969.082,40.039,33.203,28.809,42.480,14.648,0
215969.086,39.062,29.785,30.762,41.992,57.129,0
215969.090,39.062,31.250,32.227,50.781,60.059,0
215969.094,41.992,36.133,32.715,48.828,43.945,0
215969.098,37.598,35.156,27.344,38.574,24.902,0
215969.102,34.668,28.809,28.320,33.691,17.578,0
215969.106,35.156,28.320,33.691,33.203,51.758,0
215969.110,28.809,22.461,27.832,20.996,34.668,0
215969.113,28.809,20.020,27.344,12.207,-2.930,0
215969.117,31.738,23.926,31.250,23.438,24.902,0
215969.121,33.691,26.855,24.414,29.785,50.293,0
215969.125,35.156,29.785,17.090,30.762,21.973,0
215969.129,30.762,31.738,21.973,17.578,31.738,0
215969.133,26.367,30.273,32.715,19.531,68.359,0
215969.137,20.996,26.367,33.203,28.320,12.207,0
215969.141,20.508,26.855,28.320,19.043,-8.789,0
215969.145,20.996,28.320,27.344,20.508,31.738,0
215969.149,21.484,24.902,28.320,27.832,30.762,0
215969.152,27.832,24.902,28.809,31.250,-3.906,0
215969.156,29.297,27.832,26.367,23.926,-24.902,0
215969.160,22.949,26.855,24.414,22.949,3.906,0
215969.164,18.555,22.461,25.879,25.391,52.246,0
215969.168,20.508,21.484,26.367,23.926,32.715,0
215969.172,27.344,25.879,25.879,25.879,-5.371,0
215969.176,29.785,26.367,23.438,33.691,-0.488,0
215969.180,28.320,25.879,23.438,42.480,21.973,0
215969.184,37.598,29.785,30.762,37.109,27.344,0
215969.188,44.434,29.297,33.203,39.062,25.879,0
215969.192,36.621,28.320,33.691,35.645,1.953,0
215969.195,31.738,27.832,35.156,22.949,8.301,0
215969.199,35.156,24.902,28.320,22.949,21.973,0
215969.203,37.109,26.855,26.855,30.273,3.418,0
215969.207,34.180,27.832,22.949,30.273,14.648,0
215969.211,31.738,26.855,23.926,25.391,12.695,0
215969.215,36.621,25.879,36.133,29.785,1.953,0
215969.219,34.668,25.879,34.668,30.273,37.598,0
215969.223,24.902,28.320,29.785,39.551,81.543,0
215969.227,27.344,31.250,34.668,43.945,38.574,0
215969.231,29.297,28.320,35.645,35.645,3.418,0
215969.235,28.809,26.855,33.203,32.715,24.902,0
215969.238,34.180,28.809,30.273,37.109,62.988,0
215969.242,34.668,29.297,23.438,40.039,76.660,0
215969.246,31.738,30.273,20.508,36.133,49.316,0
215969.250,35.645,32.227,23.438,40.527,39.551,0
215969.254,34.180,33.203,27.832,38.086,64.453,0
215969.258,32.715,32.227,30.762,27.344,52.246,0
215969.262,33.691,29.785,26.367,23.926,23.926,0
215969.266,30.273,28.809,22.949,20.996,36.133,0
215969.270,31.738,30.762,29.785,31.738,31.738,0
215969.274,30.762,26.855,33.691,34.668,32.227,0
215969.277,31.250,22.949,33.203,34.668,44.434,0
215969.281,31.738,25.391,36.133,39.062,59.570,0
215969.285,32.227,30.273,33.691,37.598,79.102,2
215969.289,31.738,30.273,31.250,43.945,77.637,0
215969.293,30.273,25.391,27.344,40.039,55.176,0
215969.297,31.738,25.391,25.391,31.738,89.844,0
215969.301,30.762,29.785,24.414,38.086,102.051,0
215969.305,27.344,28.809,21.973,33.203,21.973,0
215969.309,24.902,24.414,21.973,22.461,5.859,0
215969.313,25.391,25.391,29.297,21.973,45.898,0
215969.317,28.809,22.949,30.762,34.180,45.898,0
215969.320,30.762,17.578,31.738,39.551,23.926,0
215969.324,29.297,20.508,37.109,27.344,13.672,0
215969.328,31.738,28.320,35.645,32.227,30.762,0
215969.332,33.203,30.762,36.621,43.945,41.016,0
215969.336,29.297,23.926,35.645,34.668,45.410,0
215969.340,29.785,23.438,31.738,31.738,9.277,0
215969.344,35.156,25.879,32.715,38.086,15.137,0
215969.348,36.621,25.391,33.203,35.156,49.316,0
215969.352,35.156,24.414,30.273,28.809,-4.883,0
215969.356,32.715,22.461,32.715,30.762,-30.273,0
215969.360,30.762,25.879,30.762,41.992,-0.977,0
215969.363,29.785,27.344,22.949,37.598,6.348,0
215969.367,32.715,29.297,25.391,37.109,-20.996,0
215969.371,30.273,30.762,29.297,40.039,28.320,0
215969.375,22.949,28.809,28.320,35.645,61.523,0
215969.379,21.973,29.785,30.273,34.668,17.090,0
215969.383,34.668,33.203,27.832,45.410,15.625,0
215969.387,43.945,31.250,25.879,48.828,46.387,0
215969.391,33.691,27.344,32.715,31.738,41.504,0
215969.395,24.902,29.297,35.645,28.320,10.254,0
215969.399,21.973,27.344,37.109,28.320,-18.066,0
215969.402,18.555,24.902,35.645,17.578,-7.324,0
215969.406,20.508,23.438,29.785,16.113,33.203,0
215969.410,24.414,25.391,27.832,13.672,41.016,0
215969.414,29.785,28.809,25.391,21.484,31.250,0
215969.418,31.738,23.926,30.273,38.086,14.160,0
215969.422,20.996,26.855,34.668,21.973,4.883,0
215969.426,9.277,34.668,33.203,11.230,68.359,0
215969.430,7.324,33.203,33.691,17.090,82.520,0
215969.434,5.859,35.156,34.180,17.578,33.691,0
215969.438,-2.930,35.156,41.504,9.766,27.344,0
215969.442,-2.441,34.180,47.363,9.277,-0.977,0
215969.445,-5.371,34.668,41.016,2.441,-1.465,0
215969.449,-10.254,38.086,38.086,-12.207,25.879,0
215969.453,-10.742,43.945,35.645,-12.207,41.504,0
215969.457,-21.484,41.992,39.062,-17.090,29.297,0
215969.461,-32.227,41.016,43.945,-22.461,11.719,0
215969.465,-35.645,45.898,39.062,-17.578,41.992,0
215969.469,-41.016,49.805,30.762,-23.926,35.645,0
215969.473,-47.852,45.898,33.203,-38.574,9.277,0
215969.477,-59.570,43.945,43.945,-52.734,-10.254,0
215969.481,-65.918,48.340,49.805,-60.547,28.809,0
215969.485,-63.477,56.641,50.293,-69.336,42.480,0
215969.488,-69.824,61.035,42.969,-84.473,-4.883,0
215969.492,-76.660,59.082,37.598,-86.426,30.762,0
215969.496,-77.637,55.176,37.109,-81.543,74.707,0
215969.500,-80.566,49.316,37.109,-81.055,69.824,0
215969.504,-77.637,47.852,37.109,-75.684,51.270,0
215969.508,-72.266,51.758,35.645,-76.172,35.156,0
215969.512,-65.918,53.223,34.180,-75.684,34.180,0
215969.516,-57.129,57.617,35.156,-61.035,24.902,0
215969.520,-58.594,57.617,38.086,-55.176,-7.324,0
215969.524,-56.641,54.688,35.645,-52.246,-18.066,0
215969.527,-50.293,52.734,27.344,-46.875,-21.484,0
215969.531,-52.246,52.246,29.785,-50.781,-18.555,0
215969.535,-58.594,47.852,31.738,-56.152,21.973,0
215969.539,-49.316,42.969,30.273,-39.551,70.312,0
215969.543,-33.691,44.922,35.156,-25.391,65.430,0
215969.547,-37.598,37.598,28.809,-34.668,44.434,0
215969.551,-34.668,35.645,23.438,-31.738,49.316,0
215969.555,-15.137,46.875,24.414,-19.531,29.297,0
215969.559,-8.789,48.828,27.344,-14.648,39.062,0
215969.563,-8.789,42.480,25.879,-15.625,54.688,0
215969.567,4.883,41.992,22.461,-3.906,46.387,0
215969.570,13.672,43.945,22.949,1.953,38.574,0
215969.574,16.113,42.969,26.855,4.883,20.996,0
215969.578,18.555,41.016,25.879,18.066,15.625,0
215969.582,26.855,39.062,30.762,26.367,19.531,0
215969.586,27.344,32.715,31.738,29.297,31.738,0
215969.590,28.809,30.762,26.855,23.438,2.441,0
215969.594,30.762,30.273,29.297,20.996,15.137,0
215969.598,28.809,27.832,29.785,33.691,59.082,0
215969.602,33.691,28.320,28.320,41.016,37.598,0
215969.606,38.086,23.926,26.855,40.039,20.508,0
215969.610,41.992,20.508,25.391,38.086,29.297,0
215969.613,49.805,24.902,27.344,45.898,62.988,0
215969.617,52.246,26.367,32.227,52.246,25.879,0
215969.621,51.270,26.367,33.691,49.805,-30.273,0
215969.625,51.758,23.926,31.250,55.176,-6.348,0
215969.629,48.340,19.531,24.414,58.105,29.785,0
215969.633,52.246,18.555,22.461,63.477,-4.395,0
215969.637,53.223,17.090,31.738,61.035,-27.344,0
215969.641,48.828,15.137,37.109,55.176,-9.766,0
215969.645,55.664,17.578,32.227,61.035,-10.742,0
215969.649,60.547,20.508,32.227,67.871,-7.812,0
215969.652,62.500,20.508,33.203,69.336,-24.902,0
215969.656,62.500,17.090,35.156,64.453,-20.508,0
215969.660,65.430,19.043,40.039,66.406,-10.742,0
215969.664,68.359,21.484,40.039,69.336,5.859,0
215969.668,66.406,15.137,37.598,61.523,30.762,0
215969.672,68.359,11.719,39.062,66.895,28.320,0
215969.676,69.824,15.625,36.621,79.590,6.836,0
215969.680,69.336,16.113,28.809,74.707,-12.207,0
215969.684,70.312,14.648,32.227,74.219,9.277,0
215969.688,76.660,15.137,42.969,78.613,43.945,0
215969.692,84.473,19.043,42.969,80.078,11.719,0
215969.695,86.914,24.902,38.086,88.379,-6.836,0
215969.699,85.449,29.297,37.109,93.262,8.301,0
215969.703,81.055,22.949,41.992,85.938,12.695,0
215969.707,78.613,17.090,43.457,81.055,25.391,0
215969.711,79.102,22.461,43.945,80.566,20.508,0
215969.715,77.637,20.508,39.062,78.613,1.465,0
215969.719,76.660,20.508,34.668,77.637,8.301,0
215969.723,74.707,24.414,38.086,76.660,36.133,0
215969.727,68.848,26.367,41.504,60.547,9.766,0
215969.731,67.871,28.809,44.922,63.965,23.438,0
215969.735,70.801,21.484,40.039,84.961,108.398,0
215969.738,72.754,21.484,29.785,79.102,119.629,0
215969.742,71.777,32.227,28.320,72.754,77.637,0
215969.746,69.336,30.273,35.645,69.824,104.004,0
215969.750,62.500,24.902,38.574,66.406,106.934,0
215969.754,57.617,25.879,32.715,61.035,86.914,0
215969.758,61.523,29.297,33.691,61.035,98.145,0
215969.762,64.453,30.762,37.109,63.477,67.871,0
215969.766,60.547,27.344,33.203,65.918,55.664,0
215969.770,60.059,22.461,28.320,53.223,22.461,0
215969.774,61.035,23.926,31.738,48.340,30.762,0
215969.777,56.152,21.484,33.203,61.035,90.820,0
215969.781,53.711,21.484,29.297,59.570,56.641,0
215969.785,53.711,27.344,29.297,58.594,61.523,0
215969.789,48.340,24.414,32.715,54.688,92.773,0
215969.793,41.016,17.578,31.250,48.340,81.543,0
215969.797,44.922,18.555,22.461,51.758,81.543,0
215969.801,44.434,16.113,20.508,46.875,59.082,0
215969.805,38.086,14.160,32.227,30.762,57.617,0
215969.809,38.574,19.531,36.133,30.273,65.430,0
215969.813,41.504,19.043,34.180,35.156,9.766,0
215969.817,50.293,25.391,32.227,38.086,-7.812,0
215969.820,51.758,26.855,31.738,36.133,43.457,0
215969.824,41.992,17.090,33.203,41.504,57.617,1
215969.828,35.645,12.695,29.297,43.457,22.949,0
215969.832,37.598,16.113,20.996,38.574,33.203,0
215969.836,39.062,20.508,18.555,47.363,64.941,0
215969.840,49.805,25.879,32.715,61.523,27.344,0
215969.844,56.152,20.508,40.039,55.664,5.859,0
215969.848,46.875,15.625,39.551,53.223,13.184,0
215969.852,44.434,22.461,38.086,57.129,38.086,0
215969.856,47.363,27.344,34.180,53.223,53.223,0
215969.860,53.223,27.344,30.762,48.828,18.066,0
215969.863,48.828,25.879,31.250,45.898,7.812,0
215969.867,42.969,22.461,30.273,44.434,37.598,0
215969.871,46.875,22.949,25.391,47.363,57.617,0
215969.875,48.828,20.996,27.344,48.828,45.410,0
215969.879,48.340,17.090,29.297,49.316,25.879,0
215969.883,48.340,25.879,22.461,47.363,39.551,0
215969.887,46.875,34.180,23.438,41.016,51.758,0
215969.891,47.363,35.645,31.250,41.016,51.758,0
215969.895,48.340,32.715,34.668,36.133,63.965,0
215969.899,51.270,32.715,34.180,36.621,43.945,0
215969.902,56.152,34.180,33.203,39.551,15.137,0
215969.906,53.223,29.785,31.250,37.598,-26.855,0
215969.910,51.758,30.762,31.250,43.457,-16.602,0
215969.914,53.223,30.273,32.227,46.875,77.148,0
215969.918,51.758,26.855,28.809,44.434,42.480,0
215969.922,51.758,32.715,30.273,49.805,-8.789,0
215969.926,48.340,34.180,37.109,54.688,22.461,0
215969.930,46.875,30.273,32.227,54.688,32.715,0
215969.934,49.316,28.809,27.344,54.199,50.293,0
215969.938,47.852,27.344,27.344,51.758,43.457,0
215969.942,45.898,25.391,25.391,54.688,20.020,0
215969.945,46.875,27.832,28.809,53.223,29.785,0
215969.949,45.898,27.832,32.227,49.805,23.438,0
215969.953,42.969,26.367,34.180,43.457,11.719,0
215969.957,34.668,25.391,37.109,37.598,49.316,0
215969.961,33.203,24.902,41.016,39.062,63.965,0
215969.965,34.180,22.461,40.527,34.180,46.387,0
215969.969,31.250,19.531,36.621,34.180,41.504,0
215969.973,37.109,21.484,36.133,43.457,20.508,0
215969.977,41.016,25.391,33.203,39.062,41.992,0
215969.981,36.621,23.926,28.320,29.297,57.617,0
215969.985,35.645,23.926,32.227,21.973,32.227,0
215969.988,38.086,27.344,33.203,30.273,31.738,0
215969.992,36.621,27.344,28.320,38.574,19.043,0
215969.996,33.203,24.414,24.414,34.668,1.465,0
215970.000,38.086,24.414,23.926,39.062,18.555,0
215970.004,47.363,30.762,30.762,39.062,54.199,0
215970.008,49.316,34.180,39.062,41.992,51.270,0
215970.012,45.410,29.785,34.668,41.504,2.441,0
215970.016,44.922,31.250,34.668,45.410,-7.324,0
215970.020,40.039,29.785,42.969,47.852,20.996,0
215970.024,30.273,21.973,40.527,37.598,32.227,0
215970.027,37.109,26.367,35.156,39.062,42.969,0
215970.031,45.898,34.180,34.668,44.434,31.738,0
215970.035,44.434,34.180,38.574,52.734,26.367,0
215970.039,39.551,28.809,36.621,45.410,24.902,0
215970.043,38.086,27.344,39.062,42.969,-2.930,0
215970.047,41.504,34.668,45.410,54.688,3.418,0
215970.051,43.945,35.156,40.527,46.387,21.973,0
215970.055,43.945,24.414,37.598,42.969,23.926,0
215970.059,36.621,20.508,37.598,40.039,17.090,0
215970.063,34.668,25.391,37.109,27.832,42.480,0
215970.067,40.527,29.785,33.203,39.062,34.180,0
215970.070,43.945,31.738,29.785,42.969,-35.645,0
215970.074,49.805,32.715,31.738,36.133,-36.133,0
215970.078,53.711,32.227,32.715,40.039,18.555,0
215970.082,54.199,37.109,33.691,47.852,41.992,0
215970.086,50.781,38.086,39.551,50.781,31.738,0
215970.090,38.086,27.344,39.551,41.504,24.414,0
215970.094,30.273,24.902,35.645,34.180,43.945,0
215970.098,34.180,31.250,36.133,37.598,45.410,0
215970.102,41.504,32.227,30.273,39.062,-3.906,0
215970.106,35.156,30.762,27.832,36.621,6.836,0
215970.110,28.320,28.320,32.227,44.434,46.387,0
215970.113,32.715,24.902,32.227,42.480,26.367,0
215970.117,29.297,22.949,29.785,21.484,29.297,0
215970.121,21.973,25.391,30.273,22.949,79.590,0
215970.125,25.879,24.414,30.273,34.668,73.242,0
215970.129,32.227,19.531,24.902,38.086,25.879,0
215970.133,32.715,23.438,26.367,37.598,36.133,0
215970.137,35.645,25.879,30.273,31.738,23.438,0
215970.141,41.016,28.320,30.273,37.109,13.184,0
215970.145,37.109,32.227,29.297,38.086,6.348,0
215970.149,34.668,31.738,26.855,32.715,4.395,0
215970.152,38.574,29.785,26.855,47.363,73.242,0
215970.156,33.203,24.902,28.320,40.039,96.191,0
215970.160,30.762,20.020,31.250,22.949,58.105,0
215970.164,31.738,21.973,35.156,34.668,36.621,0
215970.168,28.320,24.414,36.133,37.598,30.273,0
215970.172,30.762,23.438,38.086,34.180,46.387,0
215970.176,35.156,25.391,35.156,34.180,76.172,0
215970.180,33.691,27.832,22.461,34.668,76.172,0
215970.184,37.109,26.367,20.996,34.180,58.594,0
215970.188,38.574,24.414,24.414,28.809,38.086,0
215970.192,32.227,24.902,27.832,15.137,24.414,0
215970.195,30.273,26.855,36.621,17.090,45.898,0
215970.199,36.133,26.855,34.180,26.855,40.527,0
215970.203,37.109,27.344,31.738,24.414,3.906,0
215970.207,33.691,29.297,30.762,29.297,30.762,0
215970.211,37.598,31.250,28.809,34.668,3.906,0
215970.215,44.922,25.879,26.367,35.156,20.508,0
215970.219,47.852,20.508,31.250,40.527,61.523,0
215970.223,37.109,25.879,39.062,36.133,23.438,0
215970.227,24.902,30.762,38.574,26.367,15.137,0
215970.231,24.902,32.715,32.227,34.668,29.297,0
215970.235,22.461,29.297,18.555,28.809,15.625,0
215970.238,19.531,24.414,17.578,20.020,12.207,0
215970.242,20.020,22.461,24.414,24.902,46.387,0
215970.246,30.273,25.879,27.832,30.762,47.363,0
215970.250,45.410,31.250,33.691,41.016,35.645,0
215970.254,46.387,28.320,38.574,55.176,-1.465,0
215970.258,46.875,23.438,42.969,48.340,-23.438,0
215970.262,51.270,26.855,42.480,46.875,-14.648,0
215970.266,54.199,36.133,37.598,55.176,-22.949,0
215970.270,49.316,35.645,31.738,29.297,-35.156,0
215970.274,40.527,28.809,28.320,21.973,-42.480,0
215970.277,37.109,29.297,29.785,39.551,0.000,0
215970.281,39.551,30.273,29.297,33.691,-7.812,0
215970.285,41.504,29.785,28.320,37.109,11.719,0
215970.289,43.945,34.668,33.691,49.316,50.781,0
215970.293,42.480,40.527,39.551,49.316,34.180,0
215970.297,43.945,41.992,41.504,48.828,9.766,0
215970.301,36.621,35.156,39.551,41.992,-6.836,0
215970.305,23.926,29.785,35.156,35.156,36.133,0
215970.309,25.391,29.785,34.668,40.039,66.406,0
215970.313,34.180,31.250,42.480,36.621,60.059,0
215970.317,41.992,37.598,46.387,43.457,80.566,0
215970.320,48.340,40.039,40.527,48.828,70.801,0
215970.324,46.875,37.109,35.645,29.785,35.156,0
215970.328,47.363,38.574,34.668,26.367,2.441,0
215970.332,52.734,42.480,38.086,41.992,35.156,0
215970.336,57.617,43.945,41.992,55.664,61.035,0
215970.340,57.129,44.922,44.922,55.176,24.902,0
215970.344,51.270,44.922,46.387,51.758,32.715,0
215970.348,43.945,38.574,39.551,56.641,29.297,0
215970.352,42.969,34.668,38.574,58.594,47.363,0
215970.356,50.293,41.504,43.945,57.129,66.406,0
215970.360,50.781,46.875,45.898,55.176,51.270,0
215970.363,50.781,45.410,47.363,54.199,64.453,0
215970.367,48.828,42.480,42.480,55.176,55.664,0
215970.371,41.992,39.551,31.738,54.199,28.320,1
215970.375,43.457,37.598,31.250,45.898,37.109,0
215970.379,44.922,36.621,39.551,41.504,61.523,0
215970.383,42.969,36.621,36.621,34.180,80.078,0
215970.387,47.852,36.133,30.273,33.203,36.133,0
215970.391,50.781,40.527,33.691,47.363,58.594,0
215970.395,45.410,36.621,37.109,46.875,91.309,0
215970.399,42.480,29.785,39.062,46.387,43.457,0
215970.402,42.969,37.598,34.668,45.898,51.270,0
215970.406,41.504,38.574,25.879,39.551,60.547,0
215970.410,42.969,35.645,26.855,38.574,56.152,0
215970.414,41.992,35.645,31.738,41.992,56.641,0
215970.418,35.156,29.297,33.203,38.086,53.223,0
215970.422,36.621,30.762,30.762,40.039,24.902,0
215970.426,38.574,36.621,31.250,50.781,28.809,0
215970.430,38.574,33.691,34.668,45.410,45.410,0
215970.434,41.504,34.180,33.203,18.555,18.555,0
215970.438,37.598,33.691,28.809,18.555,14.648,0
215970.442,35.156,33.203,30.273,36.133,12.695,0
215970.445,32.715,36.621,34.668,29.785,38.574,0
215970.449,25.879,35.645,32.715,21.484,96.191,0
215970.453,29.297,35.156,25.879,26.367,74.707,0
215970.457,35.645,40.039,22.949,31.738,5.371,0
215970.461,39.551,39.551,32.715,34.668,-13.672,0
215970.465,36.621,33.203,37.109,37.109,-21.973,0
215970.469,26.855,27.832,37.109,27.832,7.812,0
215970.473,26.367,25.879,34.180,27.832,24.902,0
215970.477,32.227,28.320,30.762,31.738,-27.832,0
215970.481,31.250,27.344,35.645,30.273,-9.277,0
215970.485,29.785,28.809,34.180,33.691,28.809,0
215970.488,34.668,38.574,35.156,45.410,25.391,0
215970.492,36.621,40.039,36.133,52.246,31.250,0
215970.496,32.715,34.668,34.668,43.457,8.301,0
215970.500,34.180,32.715,33.691,45.410,-22.949,0
215970.504,37.109,30.762,35.156,42.969,-26.855,0
215970.508,37.598,30.762,37.598,32.715,-0.488,0
215970.512,36.133,28.320,39.551,41.016,34.180,0
215970.516,34.180,27.344,40.527,39.551,32.227,0
215970.520,31.738,27.344,37.109,34.180,-28.320,0
215970.524,27.344,32.227,40.527,29.785,-43.457,0
215970.527,22.461,37.598,40.527,33.691,12.695,0
215970.531,20.020,34.668,32.715,36.621,29.785,0
215970.535,17.090,28.320,29.785,35.645,37.109,0
215970.539,20.996,27.344,24.902,44.922,38.574,0
215970.543,30.273,31.738,25.879,41.992,45.898,0
215970.547,36.621,32.715,32.227,31.250,48.340,0
215970.551,42.969,32.227,36.621,36.621,59.570,0
215970.555,38.086,28.320,39.551,38.086,53.223,0
215970.559,29.785,31.250,33.203,33.691,34.180,0
215970.563,28.320,37.109,32.227,34.668,33.203,0
215970.567,30.273,36.621,33.203,28.809,10.254,0
215970.570,34.180,41.992,31.738,31.738,-39.062,0
215970.574,34.180,37.598,26.855,38.086,-38.086,0
215970.578,34.668,31.250,25.879,30.273,-1.465,0
215970.582,41.016,34.668,35.156,32.227,14.648,0
215970.586,38.574,35.156,36.621,36.133,12.207,0
215970.590,32.715,31.250,30.273,34.668,49.316,0
215970.594,37.109,32.715,22.461,38.086,77.148,0
215970.598,36.133,34.668,22.949,32.715,43.457,0
215970.602,33.203,31.738,22.949,15.625,49.805,0
215970.606,31.738,28.320,25.879,24.414,59.570,0
215970.610,28.809,31.738,35.645,28.809,44.434,0
215970.613,29.297,32.227,39.062,22.949,12.207,0
215970.617,28.809,27.832,38.086,25.879,7.324,0
215970.621,26.367,24.902,30.762,27.344,34.180,0
215970.625,25.391,23.438,23.926,23.926,33.203,0
215970.629,25.879,25.391,23.926,15.625,13.672,0
215970.633,25.879,29.297,23.926,19.043,0.488,0
215970.637,27.832,28.809,27.832,26.855,16.602,0
215970.641,32.227,28.809,25.879,30.762,30.273,0
215970.645,33.691,31.738,25.391,34.668,-0.977,0
215970.649,30.273,29.785,35.156,32.227,-5.371,0
215970.652,31.738,25.391,28.809,25.391,32.715,0
215970.656,32.227,25.391,24.902,26.367,37.598,0
215970.660,32.227,24.902,25.879,33.691,41.016,0
215970.664,43.457,28.809,28.320,41.016,67.383,0
215970.668,48.828,31.738,37.598,46.875,33.691,0
215970.672,43.945,29.297,41.992,39.551,0.000,0
215970.676,44.922,25.391,44.922,31.738,24.902,0
