timestamps,TP9,AF7,AF8,TP10,Right AUX,Marker0
215704.055,26.367,27.832,30.762,31.738,40.527,2
215704.059,33.691,24.414,39.062,34.668,47.363,0
215704.063,36.133,23.926,34.180,33.203,24.902,0
215704.067,29.785,28.809,42.480,27.832,18.066,0
215704.070,35.645,29.785,49.316,25.879,25.879,0
215704.074,41.992,27.832,40.039,23.926,32.227,0
215704.078,38.574,18.555,35.156,31.738,41.016,0
215704.082,41.992,23.438,30.762,41.992,50.781,0
215704.086,36.621,33.203,23.438,30.762,41.504,0
215704.090,28.320,35.645,31.738,25.391,19.531,0
215704.094,30.273,37.109,40.527,28.809,30.273,0
215704.098,33.203,31.250,34.668,33.691,37.598,0
215704.102,39.062,29.297,35.645,42.480,20.996,0
215704.106,42.480,35.645,47.363,40.527,-2.930,0
215704.110,38.086,38.086,45.898,35.645,-2.441,0
215704.113,37.109,30.762,36.133,37.109,37.598,0
215704.117,42.969,22.949,32.227,39.551,64.453,0
215704.121,36.133,22.461,33.691,40.039,37.109,0
215704.125,31.738,27.832,37.109,38.574,12.695,0
215704.129,30.762,29.297,40.039,34.180,5.371,0
215704.133,25.879,30.762,41.016,31.250,-1.953,0
215704.137,27.832,27.344,41.992,37.598,46.875,0
215704.141,33.691,27.832,40.527,41.992,64.453,0
215704.145,39.062,25.879,40.039,41.992,44.922,0
215704.149,37.109,19.043,32.715,42.969,62.012,0
215704.152,41.992,24.902,30.762,55.176,58.105,0
215704.156,47.852,26.367,35.645,54.688,23.438,0
215704.160,39.062,27.832,34.180,41.992,22.949,0
215704.164,34.668,35.156,35.645,33.691,31.250,0
215704.168,39.551,39.551,44.434,33.691,9.766,0
215704.172,39.551,31.738,46.387,29.785,10.254,0
215704.176,30.273,21.484,40.039,21.973,7.812,0
215704.180,27.832,23.926,35.645,30.762,19.531,0
215704.184,25.391,28.320,31.250,32.227,26.855,0
215704.188,33.691,29.297,39.062,34.180,-11.719,0
215704.192,49.316,38.086,43.457,46.387,45.410,0
215704.195,42.969,42.969,33.691,39.551,95.215,0
215704.199,38.574,38.086,36.133,28.809,106.445,0
215704.203,41.016,36.621,40.527,33.203,112.793,0
215704.207,34.180,35.156,32.715,39.062,79.102,0
215704.211,41.992,32.715,34.668,41.992,73.242,0
215704.215,57.617,29.297,41.504,52.734,95.703,0
215704.219,49.805,33.203,45.410,45.410,54.199,0
215704.223,20.508,32.715,49.316,20.508,29.297,0
215704.227,24.902,30.762,49.805,34.180,77.148,0
215704.231,51.758,32.227,47.363,57.617,67.383,0
215704.235,50.781,32.227,43.457,56.641,20.020,0
215704.238,56.641,34.180,44.434,61.035,39.551,0
215704.242,63.965,33.691,46.387,67.871,62.012,0
215704.246,53.223,27.344,42.480,61.035,60.059,0
215704.250,63.965,28.809,43.945,52.734,21.973,0
215704.254,73.242,32.227,45.898,50.293,20.996,0
215704.258,61.523,32.715,42.480,50.293,61.035,0
215704.262,51.270,34.668,41.504,47.852,38.574,0
215704.266,42.969,33.691,35.645,40.039,14.160,0
215704.270,43.945,30.762,34.668,42.969,31.250,0
215704.274,41.016,32.227,42.969,44.922,25.391,0
215704.277,34.180,37.109,46.875,42.480,4.395,0
215704.281,34.668,38.086,40.039,49.805,20.020,0
215704.285,45.410,32.715,36.133,47.363,20.508,0
215704.289,55.664,30.273,38.086,48.340,17.090,0
215704.293,44.434,30.273,38.086,52.246,24.414,0
215704.297,33.691,22.461,41.016,41.504,33.203,0
215704.301,38.574,20.996,45.898,36.621,25.391,0
215704.305,41.016,29.785,43.945,38.086,41.016,0
215704.309,42.480,39.551,42.480,36.621,48.340,2
215704.313,47.852,40.527,41.992,36.621,-7.324,0
215704.317,38.574,32.715,41.992,27.832,-29.297,0
215704.320,31.738,29.297,46.387,33.691,-7.812,0
215704.324,41.016,31.250,51.270,44.434,-33.691,0
215704.328,39.551,27.344,49.316,39.551,-36.621,0
215704.332,35.645,22.461,41.016,42.480,1.465,0
215704.336,40.039,23.438,38.086,47.852,-4.395,0
215704.340,47.363,23.926,37.109,43.457,7.324,0
215704.344,52.246,27.832,35.156,36.133,7.812,0
215704.348,42.969,32.715,40.039,35.156,-7.324,0
215704.352,37.598,26.855,37.598,36.621,-6.836,0
215704.356,41.992,28.320,33.691,34.668,-26.367,0
215704.360,41.016,34.180,34.180,36.621,-22.949,0
215704.363,35.645,32.227,32.715,47.852,-4.395,0
215704.367,30.762,27.832,31.250,43.945,-18.066,0
215704.371,32.715,26.367,41.504,37.598,-23.926,0
215704.375,36.133,27.832,48.340,52.734,12.207,0
215704.379,34.180,29.785,42.969,52.734,54.199,0
215704.383,35.156,26.855,45.410,34.668,56.152,0
215704.387,33.203,25.879,46.387,24.902,46.387,0
215704.391,41.992,32.715,38.086,31.250,21.973,0
215704.395,47.852,36.133,34.668,35.645,36.133,0
215704.399,45.410,40.039,40.527,37.598,60.547,0
215704.402,47.363,42.480,41.992,40.527,81.055,0
215704.406,40.527,31.738,33.203,36.621,57.617,0
215704.410,29.297,17.578,37.109,30.273,49.805,0
215704.414,27.344,17.578,45.410,24.414,22.949,0
215704.418,31.250,25.879,47.363,23.438,-22.461,0
215704.422,36.133,28.809,46.387,26.855,18.066,0
215704.426,39.551,30.273,42.480,32.227,16.602,0
215704.430,39.551,31.250,42.969,33.691,41.504,0
215704.434,40.527,28.809,41.992,32.715,69.824,0
215704.438,45.410,29.785,37.598,43.945,75.195,0
215704.442,41.992,33.691,32.715,42.969,50.293,0
215704.445,38.574,33.691,39.062,26.855,-5.371,0
215704.449,36.621,29.297,39.551,20.020,15.137,0
215704.453,30.762,26.367,35.156,17.578,57.129,0
215704.457,27.832,29.785,38.574,17.578,20.996,0
215704.461,25.391,29.785,42.480,18.555,-18.066,0
215704.465,25.391,29.785,44.434,26.855,0.977,0
215704.469,27.832,33.203,38.086,39.062,47.363,0
215704.473,34.668,32.715,33.203,37.598,46.387,0
215704.477,33.203,30.273,34.180,21.973,36.133,0
215704.481,32.715,28.320,29.785,21.973,77.148,0
215704.485,41.016,26.855,31.738,39.062,83.496,0
215704.488,44.434,21.973,42.480,36.133,68.359,0
215704.492,43.945,20.996,44.434,29.297,41.504,0
215704.496,44.922,34.668,43.457,35.645,37.598,0
215704.500,40.039,40.527,35.645,28.320,59.570,0
215704.504,34.668,39.551,27.344,18.066,22.949,0
215704.508,38.574,41.992,37.109,27.344,24.902,0
215704.512,37.109,32.715,42.969,36.621,97.168,0
215704.516,27.344,25.879,40.527,24.414,81.055,0
215704.520,34.668,28.809,38.574,26.367,18.066,0
215704.524,44.922,32.227,41.992,38.574,32.227,0
215704.527,39.551,32.715,45.410,51.758,80.566,0
215704.531,33.691,26.855,40.039,49.316,89.355,0
215704.535,26.367,21.973,35.645,24.902,81.543,0
215704.539,24.902,23.438,34.668,25.879,66.406,0
215704.543,26.367,24.902,38.086,36.621,34.668,0
215704.547,28.320,26.367,41.504,31.250,19.043,0
215704.551,28.320,30.762,35.156,26.855,13.184,0
215704.555,24.902,32.227,40.039,41.016,48.340,0
215704.559,24.414,30.273,50.293,44.434,74.219,0
215704.563,29.297,30.762,42.480,35.156,66.406,0
215704.567,36.133,34.668,44.922,36.133,110.840,0
215704.570,35.156,31.738,50.781,35.156,121.094,0
215704.574,33.203,33.691,49.805,35.645,86.426,0
215704.578,35.645,31.738,43.945,35.156,62.012,0
215704.582,39.551,23.926,41.016,40.039,47.363,0
215704.586,34.180,25.391,40.039,36.133,55.176,0
215704.590,26.855,25.391,32.227,26.855,56.152,0
215704.594,27.344,20.508,34.180,31.250,27.344,0
215704.598,26.855,27.344,36.133,30.762,0.488,0
215704.602,29.297,37.598,40.039,35.645,34.668,0
215704.606,32.227,37.598,41.992,45.410,48.340,0
215704.610,31.738,38.086,40.527,45.410,5.859,0
215704.613,31.250,36.621,41.504,34.668,8.789,0
215704.617,32.227,33.203,38.086,35.645,38.086,0
215704.621,34.180,24.414,42.480,34.668,26.855,0
215704.625,34.180,22.949,43.945,27.832,34.180,0
215704.629,33.203,34.668,43.457,31.738,39.551,0
215704.633,29.785,39.551,41.504,29.785,0.488,0
215704.637,25.391,40.527,30.273,19.043,-8.789,0
215704.641,29.785,37.109,31.250,25.879,2.441,0
215704.645,36.133,39.551,45.410,39.062,-2.930,0
215704.649,35.156,43.945,49.805,38.086,-12.207,0
215704.652,32.227,33.691,38.086,31.738,-21.973,0
215704.656,30.273,27.344,34.668,30.273,-9.277,0
215704.660,25.879,27.344,43.457,32.227,7.812,0
215704.664,25.879,31.738,48.828,33.691,29.785,0
215704.668,29.297,35.156,50.293,35.645,50.781,0
215704.672,35.645,33.203,50.781,41.992,34.668,0
215704.676,19.043,29.785,48.340,23.926,34.668,0
215704.680,6.348,30.762,42.969,12.207,52.246,0
215704.684,19.043,36.133,41.504,22.949,25.391,0
215704.688,31.738,41.504,34.180,35.156,-6.836,0
215704.692,27.832,32.715,29.785,26.855,-6.836,0
215704.695,8.301,23.438,35.645,-0.488,-3.906,0
215704.699,3.418,31.250,41.016,-8.789,-8.789,0
215704.703,5.371,32.227,47.363,-10.742,19.043,0
215704.707,13.184,27.832,45.898,0.488,46.387,0
215704.711,16.113,28.809,39.551,14.160,31.738,0
215704.715,6.836,25.391,35.645,13.672,-15.625,0
215704.719,7.812,31.250,30.273,21.973,-28.320,0
215704.723,9.277,37.598,32.715,17.090,-16.113,0
215704.727,4.883,25.391,37.109,8.789,-18.066,0
215704.731,8.789,22.949,38.574,22.461,-32.227,0
215704.735,10.742,33.203,41.016,25.879,-34.668,0
215704.738,18.066,39.062,41.992,28.809,-33.203,0
215704.742,28.809,41.504,42.969,32.715,-19.531,0
215704.746,29.785,36.621,41.504,31.738,54.199,0
215704.750,30.762,37.109,33.203,45.410,70.312,0
215704.754,37.109,41.504,31.738,48.828,42.480,0
215704.758,37.109,34.668,39.551,37.598,44.434,0
215704.762,32.715,31.738,44.922,31.738,29.785,0
215704.766,28.809,35.645,45.898,32.227,16.113,0
215704.770,24.902,35.645,41.992,30.273,34.668,0
215704.774,25.391,34.668,41.504,22.461,40.039,0
215704.777,32.227,33.691,42.969,28.320,10.742,0
215704.781,35.156,30.762,42.969,38.086,12.207,0
215704.785,38.086,30.273,40.527,35.156,8.301,0
215704.789,45.898,31.250,37.109,33.691,-40.039,0
215704.793,43.945,32.227,39.551,41.504,-4.883,0
215704.797,43.457,39.551,40.039,54.688,62.500,0
215704.801,41.016,39.062,34.668,54.688,29.297,0
215704.805,41.016,29.297,37.109,41.016,4.395,0
215704.809,32.715,23.926,37.598,31.738,33.691,0
215704.813,15.137,26.855,39.551,29.297,63.477,0
215704.817,16.113,34.668,40.527,25.879,34.668,0
215704.820,20.508,38.574,34.180,26.855,7.324,0
215704.824,20.996,34.668,32.715,27.832,0.977,0
215704.828,27.344,35.645,36.133,33.691,9.277,0
215704.832,37.109,45.410,36.621,38.574,35.645,0
215704.836,36.621,37.598,38.086,34.668,9.277,0
215704.840,33.203,21.973,36.133,39.062,-6.348,0
215704.844,28.320,21.484,38.086,39.551,31.738,0
215704.848,23.926,23.926,43.457,26.367,54.688,0
215704.852,25.391,25.391,44.434,25.879,76.660,0
215704.856,24.414,26.855,42.480,32.715,78.613,0
215704.860,31.250,28.320,42.969,36.133,84.473,0
215704.863,40.039,29.785,41.016,40.039,82.520,0
215704.867,39.062,30.762,38.086,39.062,64.941,0
215704.871,39.551,34.668,36.621,41.992,39.551,0
215704.875,34.668,38.086,42.969,39.551,41.992,0
215704.879,32.227,31.738,47.363,34.180,46.387,0
215704.883,34.180,29.785,42.969,38.574,54.199,0
215704.887,37.598,38.574,41.992,41.992,80.078,0
215704.891,45.898,41.504,47.363,54.688,92.773,0
215704.895,45.898,36.621,47.852,61.035,76.660,0
215704.899,36.621,35.645,41.016,33.691,62.988,0
215704.902,32.715,36.621,39.062,29.297,56.152,0
215704.906,33.203,34.180,39.551,33.203,-1.465,0
215704.910,34.668,36.621,42.969,27.344,8.789,0
215704.914,35.156,37.598,41.504,33.691,40.039,2
215704.918,29.785,28.809,30.273,39.551,52.734,0
215704.922,26.855,26.855,32.715,35.156,23.926,0
215704.926,37.109,35.156,38.086,36.621,32.715,0
215704.930,39.551,39.062,31.250,41.016,43.457,0
215704.934,36.133,39.551,37.598,40.527,13.184,0
215704.938,40.039,37.598,45.898,34.668,27.832,0
215704.942,43.945,40.039,42.480,32.715,54.688,0
215704.945,49.316,40.039,39.062,45.410,29.785,0
215704.949,43.945,28.809,36.133,40.039,-9.277,0
215704.953,31.738,22.461,35.645,28.809,-5.371,0
215704.957,33.691,26.855,43.457,29.785,30.762,0
215704.961,40.527,27.832,39.551,30.762,26.855,0
215704.965,37.598,25.391,34.668,34.668,48.828,0
215704.969,33.203,25.391,36.621,31.738,51.758,0
215704.973,32.715,27.344,38.086,23.926,13.672,0
215704.977,26.367,26.367,34.668,25.391,50.781,0
215704.981,22.949,24.902,34.180,27.832,92.285,0
215704.985,32.715,27.344,41.992,40.527,73.242,0
215704.988,41.016,33.691,45.898,53.711,58.105,0
215704.992,37.109,32.715,45.898,43.457,70.801,0
215704.996,27.344,22.461,39.551,25.879,76.172,0
215705.000,24.902,24.902,35.156,18.555,64.453,0
215705.004,23.926,29.297,36.621,19.531,70.801,0
215705.008,21.973,24.414,34.668,23.926,79.590,0
215705.012,27.832,21.484,35.645,30.273,57.129,0
215705.016,31.738,22.949,38.574,28.320,26.367,0
215705.020,28.320,32.715,41.992,27.832,54.199,0
215705.024,33.203,40.527,38.574,35.645,80.078,0
215705.027,39.062,39.062,29.297,40.527,79.590,0
215705.031,45.410,37.109,29.297,42.480,68.359,0
215705.035,44.434,32.227,37.109,35.645,26.367,0
215705.039,42.480,37.109,44.434,32.715,25.879,0
215705.043,41.992,35.645,45.410,37.109,46.875,0
215705.047,34.180,24.902,40.527,36.133,22.461,0
215705.051,30.273,26.367,34.668,34.668,-2.441,0
215705.055,33.203,28.809,31.738,31.250,10.742,0
215705.059,37.598,27.832,35.645,30.762,28.320,0
215705.063,33.691,25.391,33.691,27.832,34.668,0
215705.067,35.645,23.926,29.785,25.879,50.781,0
215705.070,41.992,25.879,29.785,33.691,79.590,0
215705.074,38.574,30.273,30.762,27.832,41.016,0
215705.078,34.180,30.273,30.762,23.926,28.809,0
215705.082,37.598,29.785,39.551,37.598,42.969,0
215705.086,40.527,29.297,43.457,48.340,-16.602,0
215705.090,36.133,24.902,37.598,44.922,18.555,0
215705.094,35.156,25.879,34.180,43.945,53.223,0
215705.098,37.109,31.250,37.598,38.574,17.090,0
215705.102,31.738,33.691,35.156,25.391,6.348,0
215705.106,27.832,27.832,24.414,22.461,12.207,0
215705.110,26.855,26.855,30.762,23.926,16.602,0
215705.113,31.738,27.832,39.551,23.438,2.441,0
215705.117,38.574,29.297,39.062,22.461,-17.090,0
215705.121,30.762,31.738,38.086,22.461,-38.574,0
215705.125,27.344,35.156,38.574,25.879,-8.301,0
215705.129,31.250,39.551,38.574,32.715,9.277,0
215705.133,30.762,38.574,33.691,34.180,-9.277,0
215705.137,31.738,35.645,31.250,28.809,-16.602,0
215705.141,34.668,31.738,38.086,27.344,-1.465,0
215705.145,38.574,25.391,41.992,34.668,-7.324,0
215705.149,40.527,24.902,39.062,39.062,6.348,0
215705.152,40.527,29.297,37.598,29.785,18.555,0
215705.156,36.133,32.227,40.039,32.227,-8.789,0
215705.160,26.367,35.645,41.016,35.156,14.648,0
215705.164,23.926,36.621,40.039,28.320,-21.484,0
215705.168,30.273,39.062,38.086,38.574,-3.418,0
215705.172,27.344,37.109,32.715,51.758,51.270,0
215705.176,30.762,31.738,33.203,44.922,60.547,0
215705.180,35.645,30.273,39.062,31.738,91.797,0
215705.184,24.902,27.344,39.551,22.949,74.707,0
215705.188,23.438,21.484,37.598,19.043,65.430,0
215705.192,28.320,23.926,35.156,24.414,33.691,0
215705.195,36.621,27.832,38.574,25.391,19.531,0
215705.199,42.480,30.273,34.180,26.367,18.066,0
215705.203,36.621,40.039,23.926,31.738,21.973,0
215705.207,28.320,38.574,22.949,21.973,17.090,0
215705.211,26.855,32.715,36.621,15.625,-31.250,0
215705.215,28.809,29.297,44.922,28.320,13.184,0
215705.219,29.297,26.367,39.062,37.109,34.668,0
215705.223,29.297,22.949,36.621,37.598,17.578,0
215705.227,29.297,20.996,34.668,41.504,39.062,0
215705.231,30.273,24.414,39.551,45.410,65.430,0
215705.235,22.949,32.715,38.574,32.227,78.125,0
215705.238,24.902,38.086,35.156,33.203,60.059,0
215705.242,29.785,28.809,37.109,36.621,48.828,0
215705.246,27.344,21.973,41.504,36.621,49.316,0
215705.250,30.762,25.879,42.969,36.133,51.270,0
215705.254,26.855,20.996,40.039,21.484,16.113,0
215705.258,22.461,20.996,42.969,20.508,20.020,0
215705.262,22.949,22.461,41.016,26.855,64.453,0
215705.266,25.879,17.578,31.250,24.902,47.363,0
215705.270,30.762,21.973,32.227,20.996,29.785,0
215705.274,33.203,27.344,40.527,21.484,22.461,0
215705.277,27.832,21.973,38.086,18.555,20.020,0
215705.281,25.879,22.461,33.203,18.555,5.859,0
215705.285,15.137,21.484,26.855,13.184,-0.977,0
215705.289,3.418,20.020,20.020,17.578,43.945,0
215705.293,13.672,29.297,30.273,29.297,59.082,0
215705.297,21.973,29.297,40.527,21.973,24.902,0
215705.301,22.949,20.996,43.945,22.461,17.090,0
215705.305,24.414,24.902,44.434,25.391,40.527,0
215705.309,24.414,28.320,34.668,21.973,52.734,0
215705.313,33.203,24.414,27.344,26.367,24.902,0
215705.317,41.504,29.785,34.668,34.668,-5.371,0
215705.320,31.250,35.156,38.086,30.762,23.926,0
215705.324,27.832,32.227,32.715,23.438,33.203,0
215705.328,35.645,36.621,25.391,27.344,46.875,0
215705.332,38.574,36.133,18.066,29.785,63.477,0
215705.336,37.598,20.996,27.344,34.668,48.828,0
215705.340,31.738,15.625,38.574,41.992,56.152,0
215705.344,26.855,18.555,41.992,29.297,35.156,0
215705.348,28.809,19.043,50.293,23.926,16.602,0
215705.352,42.480,22.461,57.129,37.598,7.812,0
215705.356,47.852,25.391,49.316,48.828,-15.137,0
215705.360,47.363,23.926,45.898,49.805,-1.465,0
215705.363,51.270,25.879,41.992,47.363,28.320,0
215705.367,42.969,25.879,39.062,41.016,1.465,0
215705.371,33.691,24.414,45.898,32.227,-6.348,0
215705.375,37.598,22.461,50.781,35.156,-1.953,0
215705.379,36.621,19.043,49.316,32.715,-22.461,0
215705.383,31.738,22.461,39.062,32.227,-26.855,0
215705.387,39.062,28.320,36.133,36.133,4.883,0
215705.391,45.410,34.668,38.086,31.738,3.418,0
215705.395,33.691,32.715,38.086,31.738,-16.113,0
215705.399,19.043,23.438,37.109,29.785,12.695,0
215705.402,27.344,20.020,29.297,36.133,12.207,0
215705.406,39.062,29.297,30.273,37.109,-13.184,0
215705.410,44.922,33.203,37.109,36.133,-1.953,0
215705.414,31.250,20.508,37.598,33.203,12.207,0
215705.418,20.020,21.973,40.527,28.320,43.457,0
215705.422,26.367,31.738,41.504,30.762,38.086,0
215705.426,23.926,23.926,37.598,31.250,8.789,0
215705.430,22.461,19.043,35.645,32.227,2.441,0
215705.434,31.250,25.391,34.180,36.133,3.906,0
215705.438,37.109,30.273,30.273,36.621,-13.184,0
215705.442,32.227,31.738,29.297,33.203,-8.301,0
215705.445,34.180,30.762,28.320,40.039,14.160,0
215705.449,38.086,34.180,20.996,47.852,8.789,0
215705.453,39.062,37.109,31.250,35.156,45.410,0
215705.457,34.668,35.156,42.969,26.855,59.570,0
215705.461,28.320,34.180,41.504,23.438,16.602,0
215705.465,22.949,29.297,45.898,17.578,11.230,0
215705.469,14.648,26.367,40.039,16.602,39.551,1
215705.473,16.113,29.297,32.715,25.879,47.363,0
215705.477,20.996,28.320,34.668,33.203,4.395,0
215705.481,23.438,24.902,39.062,32.715,6.348,0
215705.485,15.137,21.484,43.457,32.715,13.672,0
215705.488,16.113,31.250,44.434,36.621,10.742,0
215705.492,28.809,43.457,44.922,39.062,34.180,0
215705.496,29.785,34.180,35.645,32.227,-9.277,0
215705.500,29.785,28.809,37.109,23.438,-22.949,0
215705.504,36.133,40.527,35.645,26.855,12.207,0
215705.508,37.109,48.828,24.902,37.109,27.832,0
215705.512,34.180,42.480,37.598,42.969,25.879,0
215705.516,36.133,36.621,48.828,42.480,25.879,0
215705.520,32.715,36.133,46.387,27.344,20.996,0
215705.524,29.785,38.574,46.387,25.391,34.180,0
215705.527,31.250,41.992,43.457,33.203,51.270,0
215705.531,31.250,39.062,41.016,27.344,48.340,0
215705.535,35.645,36.621,32.227,28.809,42.480,0
215705.539,41.016,37.598,27.344,40.039,24.902,0
215705.543,43.945,40.527,38.574,42.969,44.434,0
215705.547,44.922,42.480,44.434,40.527,70.801,0
215705.551,42.480,38.574,37.109,38.574,46.875,0
215705.555,38.574,32.227,32.227,34.668,3.418,0
215705.559,35.645,32.227,37.109,39.062,-10.742,0
215705.563,30.762,33.203,38.574,39.551,3.906,0
215705.567,24.414,30.273,30.762,26.855,-8.301,0
215705.570,26.855,31.738,37.598,24.414,-41.992,0
215705.574,28.320,32.227,40.039,31.250,-25.879,0
215705.578,36.621,32.227,34.668,35.645,0.977,0
215705.582,36.621,31.250,34.180,34.180,-37.109,0
215705.586,27.832,28.809,40.527,27.344,-70.312,0
215705.590,34.180,31.738,51.270,28.320,-3.906,0
215705.594,35.645,34.668,50.293,38.086,40.527,0
215705.598,36.621,35.645,43.945,36.621,27.344,0
215705.602,42.480,40.527,41.016,34.668,63.477,0
215705.606,47.852,41.992,36.133,41.992,115.234,0
215705.610,44.922,35.156,28.320,42.969,104.980,0
215705.613,34.668,29.297,34.668,40.527,70.801,0
215705.617,28.809,22.949,41.992,35.156,53.223,0
215705.621,37.109,26.855,34.180,39.062,-1.953,0
215705.625,47.363,34.668,39.551,51.758,-9.277,0
215705.629,44.434,36.133,47.363,44.922,19.043,0
215705.633,39.551,40.527,41.992,42.480,25.391,0
215705.637,35.156,37.109,43.457,57.617,52.246,0
215705.641,34.180,31.738,46.875,56.152,36.621,0
215705.645,33.691,33.691,46.875,39.062,34.668,0
215705.649,39.062,40.039,52.246,41.016,60.547,0
215705.652,41.504,38.574,46.875,43.945,75.684,0
215705.656,36.621,28.320,34.668,28.809,81.543,0
215705.660,29.297,21.973,34.668,20.020,56.152,0
215705.664,29.297,24.414,29.785,27.832,51.758,0
215705.668,34.668,30.762,30.273,35.645,45.898,0
215705.672,28.320,33.203,39.062,22.949,2.930,0
215705.676,31.250,36.133,41.504,15.625,1.953,0
215705.680,37.598,31.738,33.691,22.949,49.316,0
215705.684,39.062,23.926,28.809,23.438,43.945,0
215705.688,37.109,26.855,38.086,24.414,21.484,0
215705.692,34.180,40.527,42.969,31.250,39.062,0
215705.695,36.133,48.828,45.410,41.504,62.012,0
215705.699,35.645,43.945,43.457,40.527,58.105,0
215705.703,33.203,37.109,41.992,28.320,49.316,0
215705.707,28.320,29.785,33.203,20.996,34.180,0
215705.711,29.297,27.832,25.391,20.508,-1.953,0
215705.715,29.297,28.320,28.320,20.996,25.391,0
215705.719,31.250,27.832,28.809,20.020,28.809,0
215705.723,39.551,32.227,28.809,27.832,9.766,0
215705.727,49.316,32.227,31.250,41.504,50.293,0
215705.731,40.039,31.250,24.902,42.969,61.523,0
215705.735,32.715,32.715,24.414,37.598,21.973,0
215705.738,33.691,28.809,34.180,38.086,0.488,0
215705.742,27.832,26.855,38.086,34.180,45.898,0
215705.746,32.227,25.879,38.086,32.715,53.223,0
215705.750,33.691,18.555,37.109,39.062,33.691,0
215705.754,26.367,16.602,35.645,36.621,21.484,0
215705.758,25.391,20.996,29.297,34.180,7.324,0
215705.762,24.902,21.484,23.438,35.156,15.137,0
215705.766,31.250,26.367,32.227,24.902,1.465,0
215705.770,37.598,35.645,42.480,30.762,3.906,0
215705.774,35.645,30.273,37.598,35.645,59.082,0
215705.777,27.832,22.461,30.273,24.902,14.160,0
215705.781,24.414,31.738,34.668,31.738,-20.996,0
215705.785,27.832,37.109,35.645,32.715,0.488,0
215705.789,27.344,30.762,35.645,24.414,23.438,0
215705.793,26.367,27.832,33.691,22.949,46.387,0
215705.797,24.414,24.414,23.926,24.414,67.383,0
215705.801,17.578,16.602,25.391,22.461,55.176,0
215705.805,23.438,16.113,33.691,22.461,20.020,0
215705.809,30.273,21.484,34.180,28.809,28.320,0
215705.813,27.832,25.879,38.086,22.949,2.930,0
215705.817,30.762,29.297,37.109,20.020,-0.488,0
215705.820,32.715,37.109,30.273,34.668,4.883,0
215705.824,35.645,43.457,26.855,28.320,-37.109,0
215705.828,36.133,39.551,31.250,20.996,-1.953,0
215705.832,36.133,40.039,40.527,31.250,66.895,0
215705.836,36.621,41.992,38.086,27.832,65.918,0
215705.840,29.785,35.156,33.203,20.020,55.176,0
215705.844,24.414,24.902,28.809,26.855,52.734,0
215705.848,22.461,24.414,17.578,22.949,72.754,0
215705.852,28.809,28.809,27.344,18.066,75.195,0
215705.856,35.645,24.414,34.180,31.738,78.613,0
215705.860,34.180,23.926,23.926,35.645,71.777,0
215705.863,29.785,23.438,31.738,37.109,69.336,0
215705.867,34.180,26.367,40.527,43.945,52.734,0
215705.871,40.039,33.691,34.180,40.527,5.371,0
215705.875,34.180,28.809,31.738,30.273,42.969,0
215705.879,32.715,25.879,38.086,37.109,114.746,0
215705.883,33.203,28.809,39.551,44.434,81.055,0
215705.887,30.762,27.832,39.551,32.227,73.242,0
215705.891,29.785,28.809,38.574,30.762,72.266,0
215705.895,35.645,35.645,36.621,40.527,73.730,0
215705.899,34.180,30.273,37.598,32.715,98.633,0
215705.902,31.738,20.020,34.668,26.367,79.590,0
215705.906,31.250,20.996,29.785,30.762,62.988,0
215705.910,32.715,26.855,28.809,40.039,45.898,0
215705.914,41.504,32.227,39.062,38.574,-5.859,0
215705.918,40.527,31.250,50.293,26.855,-39.062,0
215705.922,39.062,30.762,43.945,36.133,-20.020,0
215705.926,42.969,36.133,30.762,46.875,-21.484,0
215705.930,33.691,34.180,33.691,37.598,-37.109,0
215705.934,27.344,25.391,39.062,32.227,-0.977,0
215705.938,34.668,25.879,37.598,35.156,-31.250,0
215705.942,30.273,28.320,34.668,28.320,-68.848,0
215705.945,21.484,20.508,31.738,25.879,-45.898,0
215705.949,25.879,12.695,28.809,36.621,-31.738,0
215705.953,33.203,22.461,30.762,46.875,4.883,0
215705.957,39.551,33.203,42.480,38.086,6.836,0
215705.961,38.574,34.180,42.480,26.855,-22.461,0
215705.965,31.250,32.227,35.645,25.391,-3.906,0
215705.969,27.344,33.203,26.855,25.391,15.625,0
215705.973,26.855,36.621,18.555,20.996,19.043,0
215705.977,30.762,34.668,21.973,20.508,26.855,0
215705.981,34.668,32.715,24.902,22.949,66.406,0
215705.985,36.621,32.715,25.391,25.879,83.496,0
215705.988,40.039,34.180,34.668,28.320,62.012,0
215705.992,40.039,34.180,37.598,30.762,66.895,0
215705.996,38.574,28.320,38.574,37.109,53.223,0
215706.000,41.016,25.391,39.062,36.621,21.973,0
215706.004,42.969,27.832,33.691,28.809,17.578,0
215706.008,40.527,33.203,36.621,26.855,51.758,0
215706.012,36.621,33.691,38.086,29.785,83.496,0
215706.016,39.551,35.645,35.156,33.691,56.641,0
215706.020,37.109,33.691,31.250,31.250,43.457,0
215706.024,33.691,27.344,23.438,24.902,46.387,0
215706.027,40.527,25.391,28.809,43.945,55.176,0
215706.031,38.574,27.832,27.832,53.223,66.406,0
215706.035,29.297,27.832,27.344,31.738,67.871,0
215706.039,27.344,30.273,44.922,34.180,78.125,0
215706.043,34.180,36.133,50.293,39.551,78.125,0
215706.047,34.180,27.344,44.922,28.320,39.551,0
215706.051,34.668,22.949,41.504,23.926,-6.836,0
215706.055,37.109,30.762,40.039,30.762,11.719,0
215706.059,34.180,32.227,37.109,40.527,44.434,0
215706.063,34.668,27.344,35.156,42.969,29.297,0
215706.067,38.086,27.832,39.062,40.527,16.602,0
215706.070,36.133,32.227,40.039,34.668,-8.301,0
215706.074,38.574,37.598,37.598,32.227,-0.488,0
215706.078,41.504,37.598,40.527,36.621,30.762,0
215706.082,35.645,29.785,40.527,31.738,0.977,0
215706.086,31.250,28.320,35.156,28.809,4.883,0
215706.090,39.551,33.203,29.297,35.156,9.277,0
215706.094,40.039,36.621,32.715,29.297,-46.875,0
215706.098,36.621,34.180,31.738,31.738,-11.719,1
215706.102,41.504,34.180,35.645,42.969,55.176,0
215706.106,40.527,41.992,41.992,40.039,38.574,0
215706.110,35.645,39.062,30.762,29.785,25.879,0
215706.113,32.715,31.738,29.297,23.926,43.457,0
215706.117,33.203,34.180,34.668,24.902,30.273,0
215706.121,35.156,33.691,28.320,29.297,59.082,0
215706.125,29.297,33.203,32.227,39.062,68.359,0
215706.129,28.809,35.645,43.945,36.621,68.359,0
215706.133,34.180,35.645,41.504,38.086,91.309,0
215706.137,29.785,33.691,33.203,36.621,50.293,0
215706.141,27.832,31.250,35.156,19.531,0.000,0
215706.145,29.785,29.297,42.480,25.879,12.695,0
215706.149,27.832,26.855,45.410,38.086,17.090,0
215706.152,27.832,26.855,40.527,28.809,-20.020,0
215706.156,26.855,24.902,38.086,26.367,-39.551,0
215706.160,23.926,24.902,28.320,37.598,-33.691,0
215706.164,30.273,27.832,20.508,38.574,-8.301,0
215706.168,36.133,31.250,36.621,40.527,-35.645,0
215706.172,41.992,33.203,44.922,50.781,-20.996,0
215706.176,41.992,28.809,43.457,43.945,31.738,0
215706.180,30.762,23.926,44.434,29.297,13.184,0
215706.184,28.320,21.973,46.875,25.391,32.227,0
215706.188,37.598,27.832,47.852,33.203,44.922,0
215706.192,42.969,32.227,49.805,43.457,3.418,0
215706.195,46.387,35.645,47.363,52.734,28.320,0
215706.199,45.410,35.645,41.016,50.781,13.184,0
215706.203,41.504,29.297,43.457,43.945,4.395,0
215706.207,39.062,33.691,44.434,47.363,85.449,0
215706.211,36.133,40.039,41.016,42.969,81.055,0
215706.215,34.668,37.109,39.062,41.504,54.199,0
215706.219,35.645,33.203,32.227,46.387,49.805,0
215706.223,45.898,35.156,42.969,50.293,43.457,0
215706.227,47.852,32.227,47.363,45.410,31.738,0
215706.231,30.762,23.438,28.809,37.109,1.465,0
215706.235,18.555,19.043,30.273,29.297,-41.504,0
215706.238,20.996,19.531,42.969,23.438,-16.602,0
215706.242,22.949,24.902,36.133,24.902,5.859,0
215706.246,18.555,25.879,30.273,20.020,-34.668,0
215706.250,17.090,23.926,33.691,17.090,-1.465,0
215706.254,22.461,27.832,37.109,23.438,32.715,0
215706.258,26.855,32.227,40.527,30.762,30.762,0
215706.262,25.879,28.320,37.598,32.715,-6.836,0
215706.266,28.320,30.762,35.645,32.715,-5.859,0
215706.270,27.832,33.691,35.156,33.203,-20.508,0
215706.274,27.344,26.367,36.621,26.855,-35.645,0
215706.277,25.391,24.902,33.691,21.484,-20.020,0
215706.281,19.531,28.320,26.367,24.902,-29.785,0
215706.285,20.020,28.320,31.250,26.855,0.488,0
215706.289,19.043,25.879,36.621,20.508,-27.344,0
215706.293,20.508,21.973,40.039,32.227,-29.297,0
215706.297,22.949,23.438,36.621,47.363,39.551,0
215706.301,23.438,25.879,26.367,29.785,50.293,0
215706.305,23.438,21.484,33.691,27.344,44.434,0
215706.309,20.508,19.531,45.410,36.621,22.949,0
215706.313,20.508,24.902,40.527,27.832,31.250,0
215706.317,21.484,29.297,39.551,31.250,56.152,0
215706.320,24.414,31.250,41.016,39.062,75.195,0
215706.324,30.273,33.691,37.598,41.016,91.797,0
215706.328,27.344,31.250,36.621,41.016,62.500,0
215706.332,21.484,25.879,30.762,28.809,15.625,0
215706.336,24.902,29.297,25.391,20.020,-23.926,0
215706.340,30.762,33.203,36.133,30.762,20.996,0
215706.344,30.273,28.809,35.645,32.715,81.055,0
215706.348,30.762,28.320,34.180,34.668,87.891,0
215706.352,36.133,28.320,32.715,36.621,78.613,0
215706.356,41.992,24.414,28.809,26.855,77.637,0
215706.360,41.016,20.996,31.250,28.320,72.266,0
215706.363,37.598,21.973,34.180,35.645,72.266,0
215706.367,42.480,31.250,34.180,40.527,78.613,0
215706.371,45.410,37.598,24.414,36.133,66.406,0
215706.375,48.828,32.227,33.203,30.762,49.805,0
215706.379,41.992,27.344,43.945,24.902,47.852,0
215706.383,37.598,31.738,45.410,29.785,-4.395,0
215706.387,34.180,30.273,38.574,40.527,-0.977,0
215706.391,28.320,25.879,34.668,37.109,36.133,0
215706.395,28.320,29.297,43.945,30.273,40.527,0
215706.399,25.391,32.715,46.387,28.809,21.973,0
215706.402,28.320,30.273,41.504,38.086,20.020,0
215706.406,29.297,28.809,41.992,36.621,-1.953,0
215706.410,27.344,35.645,45.410,30.273,-16.602,0
215706.414,37.598,34.180,37.598,37.109,37.109,0
215706.418,34.668,25.879,29.297,34.668,39.062,0
215706.422,24.902,31.250,35.645,32.227,-3.906,0
215706.426,27.832,36.133,34.668,31.250,3.906,0
215706.430,28.809,35.156,32.227,29.785,43.457,0
215706.434,28.809,34.668,33.203,29.297,45.410,0
215706.438,28.320,36.621,26.855,23.926,2.930,0
215706.442,29.785,40.527,29.785,21.973,-11.230,0
215706.445,29.785,30.762,37.598,20.508,14.648,0
215706.449,29.297,28.809,41.992,22.949,36.133,0
215706.453,34.668,30.273,30.273,25.391,26.855,0
215706.457,48.340,27.344,23.438,35.156,6.348,0
215706.461,41.992,29.297,34.180,39.062,18.066,0
215706.465,33.203,24.414,32.227,27.344,20.020,0
215706.469,33.203,20.020,32.227,17.090,34.180,0
215706.473,27.344,19.531,45.410,20.508,69.336,0
215706.477,33.691,31.738,47.363,43.457,74.707,0
215706.481,27.832,32.227,31.250,34.180,36.133,0
215706.485,16.113,24.902,29.297,13.672,18.555,0
215706.488,20.996,26.855,42.969,18.066,12.695,0
215706.492,20.996,27.832,46.387,25.391,18.066,0
215706.496,22.949,29.785,45.898,35.645,18.555,0
215706.500,33.203,32.227,47.363,42.480,6.348,0
215706.504,34.180,28.320,46.387,41.016,35.156,0
215706.508,25.391,25.391,38.574,40.527,19.043,0
215706.512,19.531,27.344,31.738,33.691,-28.320,0
215706.516,21.973,26.367,37.598,29.785,-33.203,0
215706.520,28.809,24.414,41.992,35.645,16.113,0
215706.524,32.227,21.484,43.945,40.039,50.781,0
215706.527,36.133,25.391,46.387,46.387,17.090,0
215706.531,32.715,31.738,39.062,46.875,25.879,0
215706.535,34.668,30.273,31.250,34.668,31.250,0
215706.539,45.898,27.832,32.715,35.156,25.391,0
215706.543,51.270,33.691,35.645,43.457,28.809,0
215706.547,50.293,39.551,38.086,41.992,1.953,0
215706.551,46.387,36.133,36.621,42.480,8.301,0
215706.555,40.039,32.715,39.551,40.527,22.949,0
215706.559,38.574,33.203,41.504,30.762,-19.043,0
215706.563,46.387,37.598,39.062,34.668,-51.270,0
215706.567,45.410,32.227,38.574,39.551,-16.113,0
215706.570,45.410,21.973,33.691,36.133,23.926,0
215706.574,47.852,27.832,29.785,31.738,27.344,0
215706.578,38.574,36.621,34.180,33.203,26.855,0
215706.582,30.273,37.109,39.551,22.949,46.875,0
215706.586,34.180,40.039,37.598,16.602,53.711,0
215706.590,34.668,41.504,31.738,23.926,45.898,0
215706.594,35.645,44.434,34.180,37.598,43.457,0
215706.598,37.598,45.410,38.574,39.551,81.543,0
215706.602,24.902,40.039,32.227,21.973,91.797,0
215706.606,19.043,35.156,27.832,18.066,77.637,0
215706.610,21.973,30.762,27.344,11.719,61.035,0
215706.613,23.926,26.367,27.832,7.324,54.199,0
215706.617,32.715,30.762,32.715,17.090,56.152,0
215706.621,30.273,34.180,32.715,20.996,39.551,0
215706.625,23.438,31.738,28.809,22.949,62.012,0
215706.629,31.738,32.227,21.973,25.879,47.363,0
215706.633,29.785,29.785,27.832,24.902,53.223,0
215706.637,25.879,24.902,35.645,30.762,90.820,0
215706.641,29.297,26.855,38.086,33.203,86.914,0
215706.645,35.156,29.297,46.875,33.691,62.500,0
215706.649,33.203,27.832,49.316,33.691,82.031,0
215706.652,25.391,24.414,44.434,31.738,81.055,0
215706.656,29.297,14.648,44.434,39.551,42.480,0
215706.660,27.344,13.672,43.457,36.133,6.836,0
215706.664,19.043,22.461,33.203,20.020,-10.742,0
215706.668,15.625,26.855,26.367,21.484,6.348,0
215706.672,29.785,27.344,28.320,32.227,47.852,0
215706.676,37.598,26.855,32.715,33.691,58.105,0
215706.680,28.320,27.832,39.062,33.203,49.316,0
215706.684,29.297,30.273,39.062,35.156,41.016,0
215706.688,34.668,32.715,29.297,34.668,25.391,0
215706.692,33.203,30.762,33.203,30.273,25.391,0
215706.695,29.297,25.879,40.527,28.809,17.578,0
215706.699,30.762,26.367,37.598,35.645,29.297,0
215706.703,28.809,24.414,34.180,32.715,54.688,0
215706.707,29.297,21.973,37.598,26.855,50.781,0
215706.711,36.621,26.855,40.039,33.691,36.621,0
215706.715,35.156,26.855,35.156,37.109,51.270,0
215706.719,33.203,23.438,26.367,40.039,66.895,0
215706.723,34.668,21.484,30.762,42.480,43.457,0
215706.727,35.645,26.367,35.645,42.969,51.758,0
215706.731,31.250,26.367,32.227,33.203,69.824,0
215706.735,25.391,24.414,32.227,20.020,65.918,0
215706.738,29.785,30.762,28.809,23.438,56.641,2
215706.742,29.297,29.297,31.250,28.809,78.613,0
215706.746,27.832,30.273,33.691,41.016,74.219,0
215706.750,31.738,30.762,27.832,41.504,54.199,0
215706.754,28.320,22.949,26.367,21.484,56.641,0
215706.758,26.367,22.949,31.250,19.043,54.688,0
215706.762,20.508,25.879,30.762,20.020,40.527,0
215706.766,21.484,30.762,27.832,21.973,23.438,0
215706.770,26.855,28.320,30.762,28.320,47.363,0
215706.774,21.973,23.438,32.715,24.414,58.105,0
215706.777,23.438,30.273,31.250,26.367,27.832,0
215706.781,30.273,30.762,32.715,25.879,2.930,0
215706.785,33.691,31.250,32.227,29.297,19.043,0
215706.789,29.785,30.273,21.484,34.668,32.715,0
215706.793,27.832,24.414,19.043,28.809,-7.324,0
215706.797,32.227,24.414,29.785,27.832,-28.809,0
215706.801,26.367,25.391,31.250,30.762,-38.574,0
215706.805,20.996,25.391,32.227,33.203,-18.555,0
215706.809,26.855,23.438,37.109,31.738,36.133,0
215706.813,30.762,24.414,36.621,41.016,37.109,0
215706.817,27.832,24.902,35.645,40.527,57.617,0
215706.820,24.902,19.043,33.203,21.484,42.969,0
215706.824,24.414,17.578,34.668,24.902,-13.184,0
215706.828,23.926,21.973,34.668,31.250,13.672,0
215706.832,27.344,26.855,30.273,20.996,39.551,0
215706.836,31.738,26.855,27.344,22.461,35.156,0
215706.840,34.668,20.508,28.320,30.273,46.387,0
215706.844,29.785,17.578,24.902,23.926,31.738,0
215706.848,29.297,28.320,29.297,26.855,-11.719,0
215706.852,35.156,34.180,36.133,33.691,-7.812,0
215706.856,30.273,30.762,33.203,33.203,10.742,0
215706.860,28.320,28.320,35.645,35.156,31.250,0
215706.863,26.367,24.414,35.645,24.414,34.668,0
215706.867,20.508,17.578,33.691,20.996,55.176,0
215706.871,26.367,19.531,26.367,28.320,59.082,0
215706.875,36.621,25.391,17.578,27.344,29.785,0
215706.879,41.992,21.973,24.414,28.809,15.625,0
215706.883,40.039,20.996,38.574,32.715,47.363,0
215706.887,32.715,29.785,32.227,30.762,20.020,0
215706.891,27.832,28.320,28.320,33.203,-20.996,0
215706.895,33.203,24.414,41.504,37.109,-0.488,0
215706.899,36.133,27.344,44.434,34.668,36.621,0
215706.902,25.391,23.438,36.621,22.461,27.344,0
215706.906,25.391,19.043,34.668,17.090,31.250,0
215706.910,33.203,19.531,31.738,20.020,78.613,0
215706.914,28.320,20.996,28.320,18.555,67.383,0
215706.918,20.996,25.879,31.250,19.043,32.227,0
215706.922,20.996,27.344,35.156,22.461,33.203,0
215706.926,22.949,27.344,34.668,21.484,44.922,0
215706.930,25.391,26.855,28.809,25.879,43.945,0
215706.934,31.250,24.414,23.926,35.645,16.113,0
215706.938,37.109,30.762,23.926,42.969,1.465,0
215706.942,41.992,36.621,32.715,39.062,-20.996,0
215706.945,38.574,32.715,31.250,25.391,-11.719,0
215706.949,28.320,28.809,25.879,15.625,-8.301,0
215706.953,24.902,27.832,35.645,15.625,39.062,0
215706.957,25.879,24.902,36.133,17.578,82.031,0
215706.961,31.738,26.367,35.156,19.043,68.359,0
215706.965,35.156,32.227,30.762,23.926,43.945,0
215706.969,37.598,36.621,29.785,28.809,51.270,0
215706.973,36.133,36.133,35.645,30.762,70.312,0
215706.977,37.598,34.668,31.250,27.344,37.109,0
215706.981,47.852,37.109,32.227,38.574,41.504,0
215706.985,47.363,37.598,37.109,38.574,67.871,0
215706.988,41.992,32.715,41.992,41.992,71.777,0
215706.992,42.480,30.762,42.969,55.176,47.852,0
215706.996,39.062,27.344,36.621,31.250,13.672,0
215707.000,37.109,20.996,31.250,16.602,47.363,0
215707.004,36.133,21.973,26.367,17.578,66.895,0
215707.008,35.645,25.391,27.344,14.648,28.320,0
215707.012,39.551,16.113,28.809,22.461,25.391,0
215707.016,37.598,3.906,32.227,28.809,33.203,0
215707.020,25.879,5.859,36.133,31.250,33.691,0
215707.024,20.020,21.973,39.551,39.062,27.832,0
215707.027,29.297,33.203,43.945,47.852,41.504,0
215707.031,37.109,35.156,44.434,49.805,30.762,0
215707.035,26.367,29.785,43.457,41.504,13.184,0
215707.039,18.066,25.879,38.086,25.879,66.895,0
215707.043,23.926,16.113,32.715,24.414,58.594,0
215707.047,30.762,-0.977,25.391,37.109,66.406,0
215707.051,34.180,20.020,23.438,50.293,85.449,0
215707.055,34.180,51.270,36.133,48.828,47.852,0
215707.059,26.367,50.293,41.504,29.785,47.363,0
215707.063,22.949,38.574,37.109,21.973,30.762,0
215707.067,28.809,37.598,41.016,35.156,8.301,0
215707.070,37.109,38.574,44.922,51.758,16.113,0
215707.074,41.504,37.598,39.551,47.363,17.578,0
215707.078,34.180,33.691,37.109,39.062,29.785,0
215707.082,27.344,24.414,36.133,38.574,3.906,0
215707.086,38.574,32.227,38.086,43.457,-25.391,0
215707.090,40.039,38.086,35.645,47.852,17.090,0
215707.094,26.367,31.738,28.320,36.133,57.617,0
215707.098,23.926,29.297,31.738,30.762,46.387,0
215707.102,28.809,28.809,33.203,34.180,1.953,0
215707.106,31.250,29.785,37.598,38.574,10.742,0
215707.110,31.738,28.320,32.715,38.574,40.527,0
215707.113,34.180,21.484,22.949,37.109,20.020,0
215707.117,39.551,14.160,31.738,49.805,25.879,0
215707.121,34.668,19.531,37.598,43.457,15.137,0
215707.125,25.879,31.738,44.434,29.785,-37.598,0
215707.129,34.668,40.039,45.410,34.180,-56.152,0
215707.133,43.945,44.922,48.340,40.039,-61.523,0
215707.137,38.086,39.551,50.293,43.457,-54.688,0
215707.141,38.574,32.227,36.621,50.293,-36.133,0
215707.145,48.828,33.691,39.062,62.500,-5.371,0
215707.149,46.387,28.809,48.340,51.270,15.137,0
215707.152,34.180,22.949,47.852,37.109,-1.953,0
215707.156,36.621,29.785,46.387,42.480,2.441,0
215707.160,34.668,28.809,40.527,47.852,37.109,0
215707.164,34.180,23.438,37.109,39.062,54.688,0
215707.168,46.387,27.344,35.645,40.039,46.875,0
215707.172,41.992,34.180,29.297,42.969,46.387,0
215707.176,31.250,38.086,31.250,26.367,40.527,0
215707.180,39.062,34.180,39.551,33.203,45.898,0
215707.184,44.434,32.715,36.621,42.480,62.500,0
215707.188,41.504,38.086,33.691,36.133,49.316,0
215707.192,48.340,45.410,41.992,42.969,41.504,0
215707.195,43.457,41.504,40.039,38.086,30.762,0
215707.199,40.527,38.086,37.598,30.273,17.578,0
215707.203,45.410,41.016,41.016,35.156,11.719,0
215707.207,39.062,36.133,35.645,31.250,13.184,0
215707.211,37.598,37.598,36.621,30.762,48.828,0
215707.215,41.016,42.969,41.016,39.062,62.988,0
215707.219,38.574,33.203,39.062,31.738,7.812,0
215707.223,37.109,25.879,38.086,26.855,-14.648,0
215707.227,43.457,36.621,36.133,36.133,18.555,0
215707.231,46.387,42.480,30.273,37.109,5.371,0
215707.235,45.410,35.645,27.832,34.668,2.441,0
215707.238,45.898,31.738,29.785,35.156,28.320,0
215707.242,48.828,36.621,29.785,37.598,-4.395,0
215707.246,51.758,37.598,32.715,37.598,-14.648,0
215707.250,46.387,28.320,34.180,38.086,21.973,0
215707.254,38.574,28.320,33.691,47.363,65.430,0
215707.258,29.785,36.621,38.086,41.504,55.664,0
215707.262,20.996,40.039,44.922,25.391,41.992,0
215707.266,12.695,31.738,43.457,11.719,82.031,0
215707.270,8.301,23.438,39.062,15.625,55.664,0
215707.274,14.648,25.391,35.156,18.066,17.578,0
215707.277,25.391,26.855,32.227,13.672,50.781,0
215707.281,25.391,24.414,29.297,27.344,5.859,0
215707.285,18.066,20.508,32.227,24.902,-2.930,0
215707.289,17.578,20.508,37.109,18.555,15.625,0
215707.293,17.578,23.438,37.598,28.809,32.227,0
215707.297,14.648,16.602,35.156,24.902,56.641,0
215707.301,18.066,20.020,40.039,30.762,30.273,0
215707.305,22.949,26.855,41.504,45.898,15.625,0
215707.309,15.137,20.020,37.598,31.738,4.395,0
215707.313,17.578,20.508,41.992,23.926,6.348,0
215707.317,18.555,25.879,41.016,27.832,24.902,0
215707.320,22.461,33.691,43.457,31.250,13.672,0
215707.324,30.273,35.645,42.480,33.203,-8.301,0
215707.328,32.227,42.969,41.016,43.457,42.480,0
215707.332,34.668,46.387,32.227,53.711,82.031,0
215707.336,31.738,30.762,23.926,37.598,75.684,0
215707.340,29.297,21.973,35.156,28.320,86.914,0
215707.344,31.250,23.438,36.133,33.203,72.266,0
215707.348,37.109,30.273,31.250,37.598,58.594,0
215707.352,38.086,34.668,32.227,37.598,96.191,0
215707.356,35.645,29.785,33.203,31.738,113.281,0
215707.360,36.133,31.738,38.086,31.738,104.980,0
215707.363,43.457,39.551,38.086,38.086,81.055,0
215707.367,46.875,36.621,30.273,40.039,55.176,0
215707.371,45.410,33.691,29.297,40.527,16.602,0
215707.375,49.805,43.457,34.180,49.805,54.688,0
215707.379,46.387,36.621,22.461,44.434,55.176,0
215707.383,43.945,29.785,31.738,38.086,40.039,0
215707.387,41.992,37.109,46.387,43.945,67.871,0
215707.391,30.273,29.297,39.062,38.574,66.406,0
215707.395,28.809,22.949,34.668,33.203,51.758,0
215707.399,34.180,27.344,36.621,40.039,40.527,0
215707.402,25.879,28.320,42.969,31.738,33.691,0
215707.406,21.484,27.832,48.340,24.902,50.781,0
215707.410,32.227,29.785,41.016,27.832,73.242,0
215707.414,42.480,36.621,39.062,25.391,34.180,0
215707.418,38.086,34.668,45.410,25.391,12.695,0
215707.422,37.109,33.203,46.387,35.645,47.363,0
215707.426,37.109,36.621,40.039,35.645,59.570,0
215707.430,35.156,32.715,35.156,30.762,67.871,0
215707.434,37.598,27.832,36.621,32.715,72.266,0
215707.438,36.133,28.320,37.109,31.738,58.594,0
215707.442,36.621,26.855,34.668,31.738,41.504,2
215707.445,31.738,22.949,30.762,28.320,40.039,0
215707.449,28.809,22.949,32.227,25.391,23.438,0
215707.453,30.273,23.438,34.180,27.344,18.066,0
215707.457,33.691,25.879,34.180,28.320,11.719,0
215707.461,31.738,18.066,37.109,26.367,-2.441,0
215707.465,26.367,9.766,42.969,27.344,32.227,0
215707.469,31.250,23.926,35.645,34.180,28.320,0
215707.473,28.809,32.715,22.461,26.855,7.324,0
215707.477,26.367,22.461,22.949,26.367,23.438,0
215707.481,36.133,26.367,34.668,43.457,56.152,0
215707.485,42.480,32.227,44.434,38.086,35.156,0
215707.488,41.016,22.949,45.410,23.438,29.785,0
215707.492,28.809,20.508,41.016,23.438,43.457,0
215707.496,25.391,25.879,31.250,25.391,45.898,0
215707.500,37.109,30.762,33.203,33.691,-11.719,0
215707.504,38.574,29.785,37.109,33.691,-51.270,0
215707.508,41.016,31.738,33.203,34.180,-5.371,0
215707.512,49.805,37.109,29.785,40.039,7.812,0
215707.516,42.969,38.086,31.738,41.016,-5.371,0
215707.520,34.668,31.738,32.715,33.691,0.977,0
215707.524,28.809,26.367,35.156,21.973,16.113,0
215707.527,29.297,28.809,35.645,23.926,15.137,0
215707.531,35.156,29.785,35.645,33.203,40.527,0
215707.535,39.551,30.762,40.039,41.992,42.480,0
215707.539,39.062,30.762,36.621,40.527,23.926,0
215707.543,36.621,27.344,35.156,34.668,25.879,0
215707.547,37.109,27.832,39.062,27.344,16.602,0
215707.551,35.645,34.668,42.969,27.344,-33.203,0
215707.555,36.133,41.992,39.062,41.504,37.598,0
215707.559,33.203,38.086,33.203,46.387,93.262,0
215707.563,28.320,25.879,25.879,30.273,35.156,0
215707.567,27.832,21.973,17.578,27.344,40.039,0
215707.570,30.273,25.391,20.996,35.645,50.293,0
215707.574,31.250,23.926,27.832,43.457,56.152,0
215707.578,34.668,23.438,33.691,41.016,57.617,0
215707.582,38.086,31.738,37.109,34.668,31.250,0
215707.586,32.227,34.180,41.504,33.691,35.156,0
215707.590,27.832,31.250,39.062,35.156,37.598,0
215707.594,31.250,30.762,37.598,32.227,1.465,0
215707.598,32.227,27.344,40.527,33.203,3.906,0
215707.602,32.715,26.855,40.527,45.410,26.367,0
215707.606,30.273,25.879,41.992,42.480,20.996,0
215707.610,23.926,18.066,37.598,32.227,12.207,0
215707.613,25.391,17.090,31.738,33.203,14.648,0
215707.617,30.762,20.508,30.273,39.062,26.855,0
215707.621,32.227,21.973,32.715,31.738,16.113,0
215707.625,33.203,24.902,35.156,32.715,11.719,0
215707.629,31.250,27.344,36.621,35.645,28.809,0
215707.633,31.738,29.297,41.992,29.297,43.457,0
215707.637,37.109,29.297,41.504,33.203,52.246,0
215707.641,40.527,31.250,35.645,36.133,15.137,0
215707.645,41.992,29.785,33.203,36.621,8.301,0
215707.649,40.527,29.785,41.016,34.668,52.734,0
215707.652,36.133,32.715,41.504,39.551,24.414,0
215707.656,27.344,24.414,25.391,30.762,8.301,0
215707.660,19.531,24.902,27.344,28.320,51.270,0
215707.664,22.949,34.180,41.992,43.457,64.941,0
215707.668,27.832,35.156,40.039,33.691,57.129,0
215707.672,26.855,28.320,36.133,13.672,73.730,0
215707.676,26.367,22.949,38.086,12.695,74.707,0
215707.680,27.832,25.879,38.574,20.996,62.500,0
215707.684,32.715,30.273,36.133,27.832,49.805,0
215707.688,31.738,32.715,34.668,26.367,34.180,0
215707.692,30.762,32.227,31.250,28.320,36.621,0
215707.695,34.668,32.715,21.973,29.297,40.039,0
215707.699,32.227,36.133,17.578,20.508,48.340,0
215707.703,26.367,30.762,26.855,20.020,51.758,0
215707.707,30.273,26.367,33.203,28.320,62.500,0
215707.711,35.645,30.273,39.551,37.109,64.453,0
215707.715,35.645,30.273,36.133,38.086,56.152,0
215707.719,32.227,25.879,24.902,31.250,65.918,0
215707.723,32.227,24.902,32.715,35.645,83.984,0
215707.727,34.180,24.414,39.062,35.156,56.152,0
215707.731,26.855,20.508,29.785,30.273,30.762,0
215707.735,23.926,19.043,26.855,29.785,56.641,0
215707.738,23.438,22.461,31.250,28.320,71.777,0
215707.742,20.020,26.367,36.133,21.973,34.180,0
215707.746,21.484,27.832,38.574,16.602,28.809,0
215707.750,22.461,26.367,36.133,21.484,41.016,0
215707.754,20.508,23.438,34.180,24.902,35.645,0
215707.758,20.996,23.438,35.156,27.832,30.273,0
215707.762,20.020,19.043,28.809,31.250,48.340,0
215707.766,19.043,22.461,20.996,38.086,67.871,0
215707.770,28.809,30.273,26.855,32.227,35.156,0
215707.774,31.250,26.367,32.715,20.508,28.320,0
215707.777,21.484,22.949,32.715,20.508,35.156,0
215707.781,20.508,20.996,27.344,20.508,40.527,0
215707.785,25.879,23.926,27.344,17.578,45.410,0
215707.789,29.297,27.832,32.227,11.719,34.668,0
215707.793,26.367,30.762,36.133,13.184,20.508,0
215707.797,23.438,27.832,38.086,23.438,40.527,0
215707.801,25.391,21.973,33.203,25.879,93.750,0
215707.805,24.902,26.855,30.762,28.320,93.750,0
215707.809,26.367,29.785,32.227,31.738,73.730,0
215707.813,19.531,26.367,27.832,31.738,85.449,0
215707.817,17.578,29.297,21.973,25.391,50.781,0
215707.820,25.391,32.715,23.438,26.855,17.090,0
215707.824,26.855,31.250,25.391,33.691,1.465,0
215707.828,27.832,30.762,27.832,32.227,-3.906,0
215707.832,28.809,29.297,28.809,33.691,27.832,0
215707.836,24.902,27.344,29.785,28.809,22.461,0
215707.840,25.391,33.203,38.086,32.715,38.574,0
215707.844,31.250,34.668,39.062,40.039,59.082,0
215707.848,20.020,26.855,31.738,22.461,19.531,0
215707.852,16.602,30.273,29.785,18.066,-13.184,0
215707.856,24.414,34.668,28.809,26.855,0.977,0
215707.860,20.508,26.855,25.391,22.949,0.000,0
215707.863,17.578,23.926,32.227,23.438,10.742,0
215707.867,20.508,25.879,39.551,34.180,36.133,0
215707.871,22.461,24.902,37.598,35.645,6.348,0
215707.875,23.926,25.879,33.691,32.227,9.277,0
215707.879,26.367,26.855,30.273,26.855,-6.348,0
215707.883,25.391,26.367,35.156,18.555,-21.973,0
215707.887,26.367,25.879,38.086,27.832,-13.184,0
215707.891,27.344,27.832,34.180,31.250,-12.695,0
215707.895,25.391,31.738,32.715,26.367,-4.395,0
215707.899,23.438,27.344,33.203,26.367,22.949,0
215707.902,24.902,21.973,35.156,32.227,30.273,0
215707.906,30.273,20.020,42.480,38.086,-13.184,0
215707.910,30.273,22.949,41.504,38.574,-4.395,0
215707.914,26.367,27.832,35.645,38.574,35.645,0
215707.918,20.508,22.461,32.227,31.250,50.781,0
215707.922,17.090,22.461,29.297,29.785,38.086,0
215707.926,20.508,25.391,32.227,30.762,10.254,0
215707.930,20.508,23.926,33.691,29.297,-4.395,0
215707.934,26.367,22.461,32.715,25.391,-12.207,0
215707.938,27.344,21.973,36.621,18.555,18.066,0
215707.942,20.508,19.043,42.969,25.391,25.391,0
215707.945,27.344,17.090,41.504,37.598,-5.859,0
215707.949,25.879,21.973,29.785,26.855,30.273,0
215707.953,21.484,22.461,29.785,14.160,49.316,0
215707.957,29.785,24.902,30.273,14.648,51.758,0
215707.961,38.086,27.832,23.926,17.578,56.641,0
215707.965,35.645,32.227,28.809,26.367,10.742,0
215707.969,23.438,35.156,26.367,16.602,-27.832,0
215707.973,16.113,29.297,20.996,10.742,-7.324,0
215707.977,20.020,26.367,26.855,27.832,44.434,0
215707.981,22.949,32.715,28.320,30.273,67.871,2
215707.985,21.973,33.691,21.973,23.926,33.203,0
215707.988,23.926,27.344,26.855,28.320,-12.695,0
215707.992,25.879,24.414,33.691,32.227,7.324,0
215707.996,28.320,26.367,27.832,32.227,1.465,0
215708.000,34.668,27.344,28.809,33.691,-8.301,0
215708.004,35.645,27.832,35.645,34.180,-13.672,0
215708.008,30.273,36.133,33.691,31.250,41.016,0
215708.012,25.879,39.551,30.762,31.250,60.059,0
215708.016,27.832,33.691,27.344,27.344,1.953,0
215708.020,30.273,32.227,26.367,27.832,24.902,0
215708.024,34.668,34.668,29.785,43.457,35.156,0
215708.027,34.668,27.344,29.297,35.156,21.973,0
215708.031,22.949,17.090,26.855,21.484,11.230,0
215708.035,23.926,20.020,32.715,31.250,41.504,0
215708.039,26.855,24.902,39.062,28.320,67.871,0
215708.043,27.832,27.832,36.621,20.508,44.922,0
215708.047,32.227,34.180,29.297,25.391,34.180,0
215708.051,30.762,35.156,32.227,29.297,41.016,0
215708.055,25.879,26.855,36.621,25.879,63.477,0
215708.059,26.367,21.484,29.785,25.391,20.996,0
215708.063,28.320,20.020,36.621,33.203,-10.742,0
215708.067,30.762,21.484,39.062,34.180,5.371,0
215708.070,30.273,20.996,31.738,28.320,40.527,0
215708.074,29.785,14.160,35.156,24.414,14.648,0
215708.078,30.273,18.555,41.992,29.785,11.719,0
215708.082,32.227,29.297,45.410,36.621,48.340,0
215708.086,35.645,31.250,41.992,30.762,33.691,0
215708.090,32.227,25.879,34.180,26.855,65.430,0
215708.094,30.762,22.949,29.785,26.855,67.383,0
215708.098,28.809,25.391,27.832,23.926,35.645,0
215708.102,23.438,24.414,28.320,20.020,45.898,0
215708.106,22.461,21.484,26.367,23.438,39.062,0
215708.110,23.926,22.949,31.250,33.203,11.230,0
215708.113,21.484,22.949,32.227,32.715,14.160,0
215708.117,19.531,19.531,29.785,22.949,47.852,0
215708.121,27.832,24.902,37.598,20.996,15.625,0
215708.125,34.180,30.273,41.016,31.738,36.621,0
215708.129,36.621,30.273,34.180,42.969,57.617,0
215708.133,43.457,33.203,30.273,48.340,0.977,0
215708.137,41.504,34.180,41.504,46.387,-0.488,0
215708.141,33.203,28.320,44.434,40.527,32.715,0
215708.145,34.180,26.855,41.992,39.551,54.688,0
215708.149,31.738,24.414,41.016,33.203,57.129,0
215708.152,29.785,25.391,38.086,32.227,51.758,0
215708.156,36.621,35.645,37.598,43.457,47.852,0
215708.160,33.203,34.668,36.133,40.527,64.453,0
215708.164,28.320,34.180,33.203,34.668,29.785,0
215708.168,32.715,39.062,39.551,38.086,16.602,0
215708.172,31.250,29.297,45.410,38.574,48.828,0
215708.176,25.879,25.879,41.016,29.297,70.312,0
215708.180,28.809,30.273,40.039,31.738,77.148,0
215708.184,35.645,31.250,41.992,41.016,66.895,0
215708.188,35.645,27.832,35.645,41.504,71.289,0
215708.192,40.039,31.250,25.391,39.062,67.383,0
215708.195,44.922,37.598,25.879,38.574,76.660,0
215708.199,50.293,32.715,27.344,42.969,53.223,0
215708.203,45.898,25.391,33.691,43.457,28.320,0
215708.207,34.180,26.367,40.527,33.691,33.203,0
215708.211,31.738,33.691,41.992,25.391,11.719,0
215708.215,31.250,33.203,37.598,25.879,25.391,0
215708.219,25.391,32.227,32.715,39.062,33.691,0
215708.223,22.949,32.227,35.156,45.410,-8.789,0
215708.227,27.832,27.832,41.016,37.109,18.555,0
215708.231,29.297,26.855,41.504,35.645,43.945,0
215708.235,32.227,27.344,41.504,39.551,45.410,0
215708.238,35.156,24.902,42.480,42.969,47.363,0
215708.242,36.133,28.320,31.738,43.945,51.758,0
215708.246,34.668,32.227,24.414,40.039,51.758,0
215708.250,33.203,32.227,27.832,40.039,22.949,0
215708.254,38.574,32.227,31.250,44.922,-29.297,0
215708.258,39.062,30.762,38.574,40.527,-48.340,0
215708.262,38.086,30.273,39.551,40.527,-21.973,0
215708.266,37.109,28.320,37.109,39.062,-6.836,0
215708.270,33.203,23.438,38.574,39.062,-2.930,0
215708.274,34.180,22.949,37.598,37.109,24.902,0
215708.277,31.250,26.367,36.133,32.715,17.090,0
215708.281,32.715,31.738,35.156,36.621,-14.648,0
215708.285,36.621,31.738,37.598,38.574,-23.438,0
215708.289,36.133,31.250,39.551,42.480,20.020,0
215708.293,43.457,34.180,39.062,48.340,47.852,0
215708.297,39.551,29.297,33.203,38.086,63.965,0
215708.301,32.227,27.832,31.738,27.344,36.133,0
215708.305,35.645,28.809,41.992,32.715,8.301,0
215708.309,38.086,26.855,49.316,36.133,66.406,0
215708.313,34.180,29.297,46.875,32.227,74.707,0
215708.317,41.504,36.621,43.457,34.180,42.480,0
215708.320,42.969,34.180,36.621,40.039,42.969,0
215708.324,38.574,31.738,38.086,37.109,47.852,0
215708.328,49.316,34.180,40.039,40.039,28.809,0
215708.332,52.246,32.227,34.668,41.016,15.137,0
215708.336,51.758,35.156,34.180,34.180,47.852,0
215708.340,49.805,34.180,28.320,41.992,44.434,0
215708.344,40.527,31.250,22.461,33.203,17.578,0
215708.348,26.367,31.250,25.879,16.113,21.973,0
215708.352,21.484,30.762,30.762,23.438,73.730,0
215708.356,27.344,33.203,32.715,30.762,85.938,0
215708.360,21.484,33.691,33.691,24.414,80.078,0
215708.363,16.113,30.273,27.832,20.020,62.012,0
215708.367,18.066,27.344,24.902,27.344,45.898,0
215708.371,24.414,32.227,31.738,32.227,61.523,0
215708.375,27.832,32.227,33.203,33.691,45.410,0
215708.379,24.414,22.461,31.738,28.809,2.441,0
215708.383,20.508,24.414,35.645,18.555,-12.695,0
215708.387,21.484,28.320,33.203,18.555,-9.277,0
215708.391,22.949,29.785,25.391,13.672,7.812,0
215708.395,28.809,32.715,26.855,18.555,36.133,0
215708.399,38.086,32.715,34.180,33.203,47.363,0
215708.402,32.715,27.832,30.762,28.320,-0.977,0
215708.406,22.949,21.484,25.391,17.578,18.066,0
215708.410,26.367,18.066,27.832,20.996,51.758,0
215708.414,29.785,26.367,34.180,38.086,7.812,0
215708.418,23.438,22.461,33.691,36.133,63.965,0
215708.422,20.020,18.555,30.762,20.996,82.031,0
215708.426,22.949,26.367,40.039,21.484,85.938,0
215708.430,24.902,28.809,41.504,18.555,102.051,0
215708.434,23.926,28.809,35.156,18.555,54.688,0
215708.438,23.438,25.879,29.785,25.391,14.648,0
215708.442,20.996,20.996,26.855,23.926,7.324,0
215708.445,24.414,20.508,34.668,22.949,34.668,0
215708.449,30.762,25.879,42.480,24.902,42.480,0
215708.453,36.133,28.320,39.551,25.879,18.555,0
215708.457,42.480,31.738,28.809,34.180,20.996,0
215708.461,45.410,29.297,23.438,41.016,27.344,0
215708.465,44.434,18.555,26.367,39.062,41.992,0
215708.469,40.039,22.949,32.715,23.926,40.039,0
215708.473,41.992,32.715,36.621,23.438,29.297,0
215708.477,39.062,32.715,32.715,26.855,39.062,0
215708.481,42.969,32.715,34.180,28.809,9.277,0
215708.485,52.246,32.227,31.250,35.156,12.695,0
215708.488,47.852,27.832,35.645,32.715,60.547,0
215708.492,42.969,25.879,42.480,29.785,21.484,0
215708.496,41.992,31.250,37.109,27.832,-11.719,0
215708.500,38.086,32.715,31.738,27.344,19.531,0
215708.504,27.832,25.391,28.809,22.949,44.434,0
215708.508,27.832,19.531,28.809,24.902,21.484,0
215708.512,34.180,33.203,29.785,41.016,14.160,0
215708.516,33.691,43.457,34.180,38.574,18.066,0
215708.520,29.297,35.156,28.809,27.832,-8.789,0
215708.524,27.832,31.250,28.809,31.738,4.395,0
215708.527,33.691,34.180,31.250,33.691,-20.996,0
215708.531,39.551,32.227,32.227,33.691,-20.996,0
215708.535,40.039,29.785,38.574,33.691,21.484,0
215708.539,39.062,29.785,39.551,27.344,-6.836,0
215708.543,30.762,27.832,43.457,29.297,11.719,0
215708.547,26.367,27.344,44.434,40.527,76.172,0
215708.551,34.668,25.879,36.621,45.898,51.270,0
215708.555,31.738,26.855,38.086,40.527,38.086,0
215708.559,29.297,29.297,39.551,34.668,50.781,0
215708.563,34.668,35.156,33.691,41.504,50.293,0
215708.567,32.227,37.109,28.809,41.016,22.461,0
215708.570,34.668,32.227,34.180,41.992,14.160,0
215708.574,40.527,33.691,46.875,50.293,46.387,0
215708.578,32.715,31.250,48.828,41.992,44.434,0
215708.582,25.879,25.391,38.574,35.645,24.902,0
215708.586,28.320,26.367,29.785,38.574,-22.461,0
215708.590,38.086,30.762,28.809,41.504,-38.086,0
215708.594,41.504,28.809,24.414,41.992,-12.695,0
215708.598,38.086,27.832,26.855,38.086,35.156,0
215708.602,37.109,32.227,38.086,41.016,58.594,0
215708.606,37.598,33.203,43.945,45.410,61.523,0
215708.610,39.062,32.227,46.387,42.969,64.941,0
215708.613,40.039,38.574,44.434,44.922,71.777,0
215708.617,38.574,43.457,38.574,49.805,30.273,0
215708.621,32.227,37.109,30.273,45.898,31.738,0
215708.625,27.832,30.762,29.785,32.227,120.605,0
215708.629,32.715,27.832,37.109,28.320,105.957,0
215708.633,32.715,28.320,38.574,27.344,88.867,0
215708.637,25.391,31.250,34.180,25.391,74.707,1
215708.641,30.273,30.273,31.738,30.762,65.918,0
215708.645,31.250,28.320,23.926,26.855,25.391,0
215708.649,26.855,33.203,20.020,29.785,25.879,0
215708.652,30.273,37.109,23.926,42.480,68.359,0
215708.656,34.180,40.039,34.180,42.969,54.688,0
215708.660,32.227,38.574,34.180,40.527,59.570,0
215708.664,22.461,28.809,30.762,34.180,59.570,0
215708.668,22.461,31.250,38.574,25.391,55.176,0
215708.672,26.367,34.668,40.039,20.508,37.109,0
215708.676,26.855,33.203,37.598,18.555,26.367,0
215708.680,29.297,38.574,40.527,26.367,31.250,0
215708.684,30.762,41.016,40.527,36.133,68.848,0
215708.688,30.762,38.086,35.156,35.156,62.012,0
215708.692,26.367,33.691,35.645,30.273,49.805,0
215708.695,25.879,27.832,39.062,29.785,58.594,0
215708.699,27.832,29.297,33.691,31.250,25.879,0
215708.703,25.391,31.250,34.180,29.297,22.949,0
215708.707,24.902,28.320,32.227,34.668,18.066,0
215708.711,27.832,25.879,27.832,39.062,14.160,0
215708.715,29.297,22.949,32.227,36.133,49.805,0
215708.719,35.156,23.926,31.250,38.574,36.133,0
215708.723,37.109,25.879,35.645,38.574,7.324,0
215708.727,27.832,27.344,40.039,39.551,11.719,0
215708.731,25.879,27.832,40.039,43.457,8.789,0
215708.735,30.273,28.809,41.992,47.363,18.066,0
215708.738,35.156,33.203,41.992,44.922,-7.324,0
215708.742,35.645,34.668,41.016,43.945,-6.348,0
215708.746,33.203,31.250,37.598,40.527,-10.254,0
215708.750,36.621,27.832,33.691,37.109,-24.902,0
215708.754,39.062,27.832,38.574,39.062,0.000,0
215708.758,36.621,28.320,37.598,35.645,6.348,0
215708.762,35.645,27.344,30.273,37.109,10.254,0
215708.766,37.109,28.320,22.949,42.480,26.367,0
215708.770,41.992,32.227,27.344,36.133,46.875,0
215708.774,42.480,31.250,30.273,30.273,43.945,0
215708.777,35.645,29.785,24.414,30.273,-4.883,0
215708.781,38.574,32.715,24.902,33.691,3.418,0
215708.785,37.109,30.762,29.785,36.621,51.270,0
215708.789,34.180,29.297,31.250,31.738,58.105,0
215708.793,36.621,28.320,27.344,22.461,33.691,0
215708.797,38.574,26.367,27.832,21.973,50.293,0
215708.801,41.504,27.344,31.250,31.250,71.289,0
215708.805,33.691,27.344,24.414,32.227,56.152,0
215708.809,25.391,23.926,22.461,32.227,41.504,0
215708.813,27.832,28.809,30.762,32.715,30.273,0
215708.817,37.109,33.691,36.133,23.438,21.484,0
215708.820,42.969,32.227,31.250,25.879,20.996,0
215708.824,40.039,34.668,31.250,29.785,21.484,0
215708.828,33.691,33.691,41.504,29.297,23.926,0
215708.832,31.738,27.832,41.016,31.250,34.668,0
215708.836,40.039,24.902,35.156,36.621,46.875,0
215708.840,47.852,30.762,30.273,43.945,55.176,0
215708.844,47.363,36.133,33.203,43.457,75.195,0
215708.848,37.598,33.691,40.527,34.180,106.445,0
215708.852,31.250,28.809,35.156,34.668,102.051,0
215708.856,31.250,27.832,30.273,42.480,87.891,0
215708.860,28.809,22.949,37.598,28.320,69.824,0
215708.863,28.320,23.926,45.410,21.973,39.062,0
215708.867,29.785,28.809,40.039,22.461,21.973,0
215708.871,27.832,22.949,27.344,24.902,18.066,0
215708.875,31.250,22.461,19.531,29.785,33.203,0
215708.879,31.738,27.832,32.715,32.715,58.105,0
215708.883,26.855,24.902,46.387,29.297,73.730,0
215708.887,27.832,22.949,44.434,21.484,59.082,0
215708.891,32.227,27.832,44.434,26.367,34.180,0
215708.895,30.762,29.785,42.969,25.391,34.668,0
215708.899,32.227,28.320,35.156,25.391,42.480,0
215708.902,50.781,32.227,35.156,45.898,17.090,0
215708.906,43.457,31.738,37.109,45.898,21.484,0
215708.910,22.949,25.391,35.645,29.297,47.852,0
215708.914,25.391,23.926,38.574,26.855,26.367,0
215708.918,30.762,28.809,38.574,31.738,59.570,0
215708.922,25.879,31.738,34.180,28.809,69.336,0
215708.926,21.484,31.250,30.273,26.367,14.648,0
215708.930,21.484,29.785,33.203,26.367,-32.227,0
215708.934,21.484,23.438,42.480,25.391,-4.395,0
215708.938,19.531,18.066,41.992,30.273,61.035,0
215708.942,22.461,20.996,38.086,27.832,76.660,0
215708.945,22.461,24.902,39.062,28.320,71.289,0
215708.949,15.625,28.320,36.133,31.250,60.547,0
215708.953,17.090,32.227,39.062,35.156,48.828,0
215708.957,18.555,28.809,35.156,40.039,1.953,0
215708.961,20.508,26.855,25.391,30.762,-15.137,0
215708.965,27.344,32.715,29.785,30.273,20.508,0
215708.969,28.320,33.203,37.109,34.180,4.883,0
215708.973,27.344,27.344,39.551,20.508,-29.297,0
215708.977,32.715,24.902,39.551,20.020,-10.254,0
215708.981,31.250,26.367,31.738,27.832,35.645,0
215708.985,31.250,23.438,26.367,28.320,48.340,0
215708.988,30.273,19.531,27.344,33.203,43.457,0
215708.992,22.949,20.508,32.715,34.668,62.500,0
215708.996,24.902,27.832,42.480,28.809,61.523,0
215709.000,31.738,34.180,44.922,34.180,24.902,0
215709.004,35.645,30.273,40.039,38.086,-32.715,0
215709.008,30.762,24.414,35.645,35.156,-29.785,0
215709.012,31.738,15.625,37.598,34.668,16.602,0
215709.016,39.551,11.719,39.062,37.109,36.133,0
215709.020,36.133,20.508,38.086,36.133,33.203,0
215709.024,32.715,24.414,39.551,37.598,35.156,0
215709.027,31.738,24.414,35.645,36.621,32.227,0
215709.031,35.645,24.902,36.133,35.156,11.230,0
215709.035,35.645,23.438,36.621,34.668,-19.531,0
215709.039,27.832,27.344,25.879,30.762,0.000,0
215709.043,33.203,29.785,25.391,32.227,29.297,0
215709.047,40.039,28.320,35.156,35.645,0.488,0
215709.051,35.645,28.809,37.109,38.086,-24.414,0
215709.055,25.391,22.461,36.621,26.855,-6.836,0
215709.059,24.414,21.973,39.062,20.020,33.203,0
215709.063,27.344,24.902,36.133,23.926,45.898,0
215709.067,27.344,24.414,38.574,28.320,44.434,0
215709.070,27.344,27.344,34.668,28.320,9.277,0
215709.074,28.320,27.832,21.484,23.438,10.742,0
215709.078,27.832,24.414,19.531,17.578,7.812,0
215709.082,25.879,24.414,20.996,16.602,-35.645,0
215709.086,27.832,24.902,29.297,20.020,3.418,0
215709.090,30.762,23.926,36.133,21.973,9.766,0
215709.094,26.855,26.855,39.062,17.090,-20.508,0
215709.098,28.809,26.367,40.527,17.578,7.812,0
215709.102,35.645,28.320,37.598,32.227,18.555,0
215709.106,31.250,28.320,23.926,27.832,14.648,0
215709.110,25.879,19.531,19.531,26.367,24.902,0
215709.113,26.855,16.113,32.227,35.156,29.297,0
215709.117,31.250,19.531,36.621,31.738,51.758,0
215709.121,34.668,24.902,29.785,24.902,65.430,0
215709.125,32.227,32.715,28.809,35.645,48.340,0
215709.129,31.738,34.668,29.297,35.156,33.203,0
215709.133,36.133,37.109,28.320,24.414,36.133,0
215709.137,34.180,36.133,33.691,28.809,22.461,0
215709.141,34.180,33.203,38.086,26.855,11.719,0
215709.145,41.504,37.109,48.828,34.180,35.645,0
215709.149,41.016,37.109,52.246,42.480,47.363,0
215709.152,35.645,33.203,43.945,37.598,43.457,0
215709.156,33.203,25.391,35.645,32.715,23.438,0
215709.160,29.785,22.949,29.785,29.297,24.414,0
215709.164,28.320,29.785,32.715,25.879,27.832,0
215709.168,29.297,31.738,29.785,27.832,20.508,0
215709.172,28.320,27.344,22.949,29.785,-4.883,0
215709.176,36.133,25.879,38.086,37.109,2.441,0
215709.180,40.039,27.832,49.805,48.340,47.363,0
215709.184,30.273,27.344,44.434,45.898,24.414,0
215709.188,34.668,21.973,46.875,48.340,51.758,0
215709.192,40.527,20.996,46.875,56.152,54.199,0
215709.195,31.250,26.855,39.062,45.898,24.902,0
215709.199,30.273,31.738,41.992,38.574,41.992,0
215709.203,34.668,30.273,44.434,38.574,1.953,0
215709.207,32.715,25.879,38.574,37.598,-3.906,0
215709.211,37.598,30.762,34.180,36.133,1.465,0
215709.215,41.992,32.715,40.039,36.621,0.488,0
215709.219,35.156,29.785,41.504,35.645,32.227,0
215709.223,23.926,27.832,38.574,33.691,24.902,0
215709.227,28.320,26.367,37.109,40.039,26.855,1
215709.231,33.203,24.414,37.598,42.969,39.551,0
215709.235,28.809,22.461,39.551,31.738,14.648,0
215709.238,36.621,22.949,41.992,37.109,-5.371,0
215709.242,45.410,26.367,44.434,49.805,8.789,0
215709.246,43.457,31.738,44.434,44.922,-1.953,0
215709.250,41.016,34.668,41.016,44.434,-6.348,0
215709.254,44.434,37.598,32.227,51.758,8.789,0
215709.258,43.457,36.133,27.344,53.711,20.996,0
215709.262,33.691,27.344,29.297,42.480,34.668,0
215709.266,29.297,24.902,39.062,33.203,37.598,0
215709.270,28.809,28.809,44.922,35.645,55.176,0
215709.274,29.297,27.344,43.945,29.297,23.926,0
215709.277,32.715,20.508,39.062,25.391,-23.438,0
215709.281,37.598,24.902,36.133,28.809,15.137,0
215709.285,38.086,27.344,39.062,33.203,37.109,0
215709.289,38.574,20.508,37.598,39.551,-1.953,0
215709.293,43.945,24.902,34.668,37.109,-14.648,0
215709.297,45.410,35.156,32.715,35.645,20.508,0
215709.301,42.480,34.668,23.926,32.715,33.203,0
215709.305,38.574,30.762,21.484,22.949,14.160,0
215709.309,39.551,30.273,27.344,20.996,25.391,0
215709.313,33.691,31.250,26.855,29.785,68.848,0
215709.317,26.855,26.855,20.996,33.691,40.527,0
215709.320,31.250,22.949,29.785,25.879,-19.531,0
215709.324,38.574,28.320,37.109,29.297,-47.852,0
215709.328,42.480,35.645,38.574,31.738,-1.953,0
215709.332,37.598,36.133,41.016,37.109,40.039,0
215709.336,29.297,30.762,40.527,38.086,24.414,0
215709.340,31.250,26.367,42.969,26.855,29.785,0
215709.344,37.109,27.832,37.109,29.297,31.738,0
215709.348,34.668,32.227,29.297,32.715,51.270,0
215709.352,27.344,30.762,31.250,26.367,51.270,0
215709.356,23.438,25.879,34.668,25.391,49.805,0
215709.360,32.715,27.344,28.809,35.645,61.035,0
215709.363,43.457,33.203,26.855,37.109,61.523,0
215709.367,38.086,29.297,32.227,29.297,61.035,0
215709.371,30.762,22.461,36.621,23.438,48.828,0
215709.375,30.273,21.973,32.227,18.555,36.133,0
215709.379,34.668,25.391,27.344,25.879,21.484,0
215709.383,41.504,27.832,29.785,33.203,11.230,0
215709.387,42.969,30.273,33.203,25.879,18.555,0
215709.391,42.969,33.691,34.668,26.367,54.199,0
215709.395,40.527,30.762,35.156,28.320,47.852,0
215709.399,35.156,26.855,24.902,26.855,23.926,0
215709.402,33.203,34.668,21.484,25.391,7.324,0
215709.406,32.715,39.551,35.645,20.508,-14.160,0
215709.410,34.180,38.086,41.016,20.996,32.227,0
215709.414,35.645,40.527,40.527,29.785,49.316,0
215709.418,33.203,36.133,39.551,27.832,4.883,0
215709.422,28.809,31.738,36.133,24.902,20.020,0
215709.426,28.809,32.715,38.086,19.531,45.898,0
215709.430,24.414,31.738,43.457,12.695,55.664,0
215709.434,18.066,30.762,41.016,18.066,60.059,0
215709.438,20.020,34.180,38.574,21.973,46.875,0
215709.442,18.555,38.574,37.598,19.043,59.082,0
215709.445,17.578,40.527,35.645,20.020,74.219,0
215709.449,15.137,40.527,37.598,19.531,46.875,0
215709.453,5.371,41.016,40.039,9.277,39.062,0
215709.457,-0.488,42.480,38.574,7.812,41.504,0
215709.461,-1.465,43.457,35.645,11.230,31.738,0
215709.465,-6.836,44.922,37.598,-0.488,21.484,0
215709.469,-26.855,44.922,42.480,-27.832,17.090,0
215709.473,-37.598,44.922,39.062,-40.039,6.348,0
215709.477,-34.668,52.246,32.715,-28.809,13.184,0
215709.481,-32.715,59.570,34.180,-28.320,58.105,0
215709.485,-40.039,59.570,45.898,-39.062,57.617,0
215709.488,-55.664,56.641,43.945,-41.016,43.945,0
215709.492,-63.965,54.688,39.062,-48.828,71.777,0
215709.496,-74.707,47.363,49.316,-66.895,54.688,0
215709.500,-82.520,41.504,49.316,-73.242,17.578,0
215709.504,-71.777,50.293,45.410,-65.430,-2.441,0
215709.508,-67.871,60.059,55.176,-62.012,-17.578,0
215709.512,-77.148,48.340,53.711,-65.918,12.207,0
215709.516,-74.707,40.527,45.898,-75.195,13.672,0
215709.520,-74.219,46.875,37.598,-78.125,-5.859,0
215709.524,-80.078,48.828,22.461,-74.219,12.695,0
215709.527,-75.195,47.363,24.902,-67.871,37.598,0
215709.531,-62.012,41.504,36.621,-60.547,29.785,0
215709.535,-58.594,33.691,36.621,-59.082,-6.836,0
215709.539,-53.711,31.738,32.715,-43.945,0.977,0
215709.543,-41.504,29.785,29.785,-40.039,-3.906,0
215709.547,-30.273,30.762,28.809,-36.133,-1.465,0
215709.551,-21.973,33.691,27.832,-23.438,38.574,0
215709.555,-14.648,34.668,29.785,-16.602,30.762,0
215709.559,-8.301,34.180,32.227,-12.207,16.602,0
215709.563,-9.277,31.250,24.902,-3.906,38.086,0
215709.567,3.906,34.180,17.090,7.812,64.453,0
215709.570,13.672,37.598,19.043,11.719,61.523,0
215709.574,15.625,34.668,23.438,7.812,28.320,0
215709.578,29.297,30.273,21.973,6.836,28.320,0
215709.582,28.809,25.391,21.484,14.648,49.805,0
215709.586,26.855,20.020,27.344,17.090,47.852,0
215709.590,36.133,20.020,23.926,22.949,42.480,0
215709.594,44.434,21.973,14.648,33.691,44.922,0
215709.598,52.246,18.066,15.137,41.992,58.105,0
215709.602,57.129,16.602,24.414,46.387,56.152,0
215709.606,61.523,22.461,24.902,58.594,33.203,0
215709.610,63.477,24.414,24.902,64.941,56.641,0
215709.613,57.617,22.461,32.715,51.758,100.098,0
215709.617,57.129,23.926,34.180,43.457,91.309,0
215709.621,57.617,19.043,27.832,43.945,75.684,0
215709.625,56.152,16.113,26.855,50.293,105.469,0
215709.629,61.523,20.020,23.926,57.129,104.492,0
215709.633,63.477,13.672,16.113,62.500,51.270,0
215709.637,64.941,12.695,17.578,66.406,10.254,0
215709.641,62.012,15.625,20.996,60.059,-5.371,0
215709.645,56.641,12.207,17.090,58.105,14.160,0
215709.649,59.570,16.113,13.184,61.035,-1.953,0
215709.652,67.383,18.555,23.438,58.594,-30.273,0
215709.656,66.895,10.742,37.598,59.570,-32.227,0
215709.660,67.383,11.230,41.992,65.430,-44.922,0
215709.664,66.406,17.090,36.621,61.523,-63.965,0
215709.668,66.895,15.137,30.762,56.641,-37.598,0
215709.672,65.430,12.695,30.273,63.965,35.645,0
215709.676,62.988,14.648,30.273,64.941,56.152,0
215709.680,68.359,17.578,31.250,73.730,39.062,0
215709.684,69.824,18.066,32.715,80.566,19.531,0
215709.688,67.383,16.113,30.762,72.754,45.410,0
215709.692,63.965,10.254,23.926,67.383,50.781,0
215709.695,65.430,11.719,26.367,64.941,42.480,0
215709.699,62.988,18.066,38.574,70.801,73.242,0
215709.703,66.895,15.137,43.945,74.219,63.477,0
215709.707,70.312,13.184,37.598,75.684,18.555,0
215709.711,67.871,19.531,36.133,70.312,-31.738,0
215709.715,65.918,15.625,40.527,64.941,-37.109,0
215709.719,61.523,19.531,34.668,72.266,6.348,0
215709.723,66.895,28.320,30.273,74.219,23.438,0
215709.727,65.918,22.949,36.133,70.801,39.062,0
215709.731,57.617,20.508,37.109,65.918,50.781,0
215709.735,57.129,24.902,32.715,62.012,32.715,0
215709.738,61.035,24.902,32.715,67.871,26.367,0
215709.742,62.500,20.508,28.809,62.988,27.344,0
215709.746,56.641,20.020,29.297,52.734,31.250,0
215709.750,46.387,20.508,34.668,58.594,11.230,0
215709.754,50.293,23.438,29.785,49.316,2.930,0
215709.758,53.223,26.367,30.762,42.480,-3.906,0
215709.762,44.434,19.531,36.621,51.270,20.508,0
215709.766,41.992,19.531,32.227,47.363,41.992,0
215709.770,50.781,23.926,24.902,47.363,23.926,0
215709.774,49.316,20.996,24.902,49.316,42.480,0
215709.777,48.828,22.949,32.715,58.105,53.223,0
215709.781,50.781,24.902,38.086,66.895,64.453,0
215709.785,45.410,20.996,37.598,53.223,90.820,0
215709.789,38.086,18.066,38.574,46.875,64.453,0
215709.793,35.645,17.090,37.109,49.805,11.719,0
215709.797,42.480,20.020,35.645,49.805,50.781,0
215709.801,43.457,24.414,36.133,50.293,69.824,0
215709.805,42.480,23.438,35.645,51.270,32.715,0
215709.809,52.734,25.879,29.785,55.176,62.500,0
215709.813,59.082,30.762,29.785,57.129,62.988,0
215709.817,55.176,26.367,34.668,60.547,30.273,0
215709.820,48.828,22.949,36.621,48.340,44.922,0
215709.824,39.551,24.414,41.504,39.062,41.992,0
215709.828,44.922,26.367,43.945,44.434,36.621,0
215709.832,49.316,27.832,35.645,40.039,52.246,0
215709.836,44.922,22.461,30.762,41.504,50.781,0
215709.840,45.898,18.555,36.133,44.434,54.688,0
215709.844,44.434,17.090,37.598,42.480,33.203,0
215709.848,42.969,18.555,32.715,46.387,34.668,0
215709.852,47.363,27.832,30.762,49.316,50.293,0
215709.856,46.387,29.785,36.621,43.945,40.527,0
215709.860,47.363,28.809,39.062,43.457,40.039,0
215709.863,47.363,31.250,41.504,52.246,43.457,0
215709.867,50.293,31.738,43.945,50.781,66.406,0
215709.871,50.781,28.809,40.527,45.410,68.359,0
215709.875,46.387,28.809,38.574,43.945,32.227,0
215709.879,47.852,33.691,29.785,40.039,14.160,0
215709.883,46.387,33.691,27.832,34.668,19.531,0
215709.887,43.457,32.227,35.645,35.645,24.414,0
215709.891,41.992,37.598,30.273,43.945,12.207,0
215709.895,38.086,37.598,26.367,40.527,11.719,0
215709.899,39.062,31.738,31.738,35.156,34.180,0
215709.902,42.480,30.273,32.715,42.969,16.113,0
215709.906,41.504,32.227,33.691,39.551,30.762,0
215709.910,39.551,31.250,41.016,35.156,34.668,0
215709.914,34.668,31.250,43.945,41.992,3.418,0
215709.918,34.180,28.809,35.156,48.340,0.977,0
215709.922,45.410,33.691,37.109,53.223,-27.344,0
215709.926,45.410,39.062,39.062,43.945,-25.391,0
215709.930,41.504,34.180,30.762,38.574,-13.184,0
215709.934,38.574,33.203,30.762,37.598,13.184,0
215709.938,31.250,32.227,31.738,31.738,42.480,0
215709.942,26.855,24.414,34.668,28.320,24.902,0
215709.945,26.855,26.855,34.180,28.320,-1.465,0
215709.949,28.809,30.273,27.344,28.809,5.371,2
215709.953,29.297,25.391,25.879,32.715,14.648,0
215709.957,38.574,31.738,35.156,49.316,29.785,0
215709.961,51.270,41.992,41.016,55.176,37.598,0
215709.965,45.898,35.156,34.668,42.480,-20.020,0
215709.969,33.691,22.949,34.668,38.574,-41.016,0
215709.973,30.762,20.508,39.551,35.156,14.648,0
215709.977,26.855,18.066,32.227,35.156,28.809,0
215709.981,28.320,21.973,29.297,43.945,25.879,0
215709.985,35.645,30.273,33.691,39.551,49.805,0
215709.988,38.086,26.855,26.855,36.133,37.598,0
215709.992,35.156,20.996,30.273,37.109,8.301,0
215709.996,35.156,25.391,41.992,33.691,-7.324,0
215710.000,34.180,30.762,43.945,37.109,17.578,0
215710.004,35.645,32.715,44.922,38.086,52.246,0
215710.008,27.344,28.320,40.039,33.691,19.043,0
215710.012,20.996,22.461,35.156,32.227,5.859,0
215710.016,28.809,27.832,30.762,28.809,18.066,0
215710.020,32.227,30.762,26.855,37.598,25.879,0
215710.024,27.832,21.973,25.879,44.434,46.875,0
215710.027,25.879,15.137,33.691,29.785,38.574,0
215710.031,26.855,20.508,43.457,24.414,51.758,0
215710.035,25.879,28.320,39.062,26.855,55.664,0
215710.039,23.926,30.273,29.297,16.602,21.484,0
215710.043,23.438,28.320,32.227,11.719,29.785,0
215710.047,24.902,27.832,41.016,20.996,28.320,0
215710.051,30.273,28.809,41.504,29.297,53.223,0
215710.055,38.574,22.461,38.086,32.227,67.871,0
215710.059,40.039,20.020,35.156,30.273,2.930,0
215710.063,45.898,31.250,33.203,38.574,-14.160,0
215710.067,47.363,36.621,30.273,49.316,-2.441,0
215710.070,36.133,34.180,24.902,41.504,10.254,0
215710.074,37.598,32.227,34.180,37.109,31.738,0
215710.078,41.016,33.691,39.551,41.992,4.883,0
215710.082,36.621,32.227,34.180,35.645,-9.766,0
215710.086,36.621,28.320,39.551,28.809,7.324,0
215710.090,36.621,21.973,43.945,32.715,6.836,0
215710.094,34.180,17.578,41.016,34.180,23.926,0
215710.098,31.738,20.508,37.598,39.062,36.133,0
215710.102,32.715,24.414,31.250,43.945,30.273,0
215710.106,36.621,26.367,26.855,29.297,55.176,0
215710.110,40.527,32.227,35.156,32.715,68.848,0
215710.113,39.062,38.574,43.945,45.410,73.242,0
215710.117,27.344,30.273,35.156,38.086,54.688,0
215710.121,16.113,18.555,26.367,19.043,52.734,0
215710.125,15.137,17.578,32.227,14.648,70.312,0
215710.129,23.438,18.555,38.574,21.484,36.621,0
215710.133,31.738,16.602,38.574,31.738,2.930,0
215710.137,33.203,18.555,33.203,37.109,30.762,0
215710.141,33.203,21.973,32.227,39.062,89.844,0
215710.145,33.203,21.973,36.133,37.109,84.473,0
215710.149,29.297,20.020,38.086,34.180,61.035,0
215710.152,34.180,14.160,41.992,36.621,76.660,0
215710.156,48.340,17.578,41.016,40.527,73.242,0
215710.160,42.480,25.391,37.598,48.340,66.406,0
215710.164,33.203,17.578,40.527,47.363,61.035,0
215710.168,35.645,15.137,41.016,41.016,51.758,0
215710.172,39.551,20.996,44.434,37.598,53.711,0
215710.176,40.039,19.043,43.457,31.250,26.855,0
215710.180,31.250,16.602,39.551,37.109,36.133,0
215710.184,26.855,15.625,39.551,42.480,104.980,0
215710.188,25.879,15.625,36.133,43.457,88.379,0
215710.192,33.203,20.508,33.203,47.852,37.109,0
215710.195,38.574,24.414,34.180,42.480,41.016,0
215710.199,36.133,21.484,35.645,38.086,58.594,0
215710.203,47.363,28.320,38.086,48.340,39.062,0
215710.207,47.363,32.715,36.133,50.781,16.113,0
215710.211,36.133,26.367,31.250,39.551,62.500,0
215710.215,39.062,25.879,36.133,38.086,79.590,0
215710.219,36.133,21.973,41.992,37.598,36.133,0
215710.223,34.668,24.414,40.039,32.715,28.320,0
215710.227,40.039,29.297,37.109,37.109,50.781,0
215710.231,42.969,31.738,36.133,44.434,61.523,0
215710.235,38.086,28.320,39.062,45.410,55.176,0
215710.238,37.598,21.484,38.574,45.410,75.195,0
215710.242,44.922,33.691,30.762,42.969,92.773,0
215710.246,38.086,41.016,26.367,41.016,65.918,0
215710.250,30.273,31.250,32.227,37.598,59.570,0
215710.254,33.691,32.715,38.574,32.227,51.270,0
215710.258,36.133,40.039,43.457,32.715,46.387,0
215710.262,37.109,35.156,37.109,34.668,32.715,0
215710.266,40.527,31.738,25.391,33.203,-13.672,0
215710.270,41.016,35.156,27.344,34.180,-1.953,0
215710.274,38.086,34.668,35.156,39.062,8.301,0
215710.277,40.527,37.598,40.039,43.945,-27.344,0
215710.281,43.457,41.992,41.504,41.992,-16.113,0
215710.285,42.480,38.086,46.387,33.691,-12.207,0
215710.289,40.039,35.645,46.387,31.250,-13.184,0
215710.293,35.645,32.715,33.691,28.809,-17.090,0
215710.297,31.738,28.809,27.832,29.785,-40.039,0
215710.301,34.668,27.344,28.809,37.109,-17.578,0
215710.305,34.180,22.949,30.273,44.434,-0.977,0
215710.309,27.832,29.297,30.762,39.062,14.648,0
215710.313,28.320,34.180,36.621,38.086,11.230,0
215710.317,28.320,26.855,39.551,40.527,-7.324,0
215710.320,33.203,23.438,33.691,38.574,-20.020,0
215710.324,37.109,24.414,38.574,41.016,-62.012,0
215710.328,34.668,25.391,45.898,47.363,-50.293,0
215710.332,36.133,28.809,47.852,48.340,0.000,0
215710.336,33.203,32.227,47.852,46.875,21.484,0
215710.340,26.855,27.832,41.504,41.992,-22.949,0
215710.344,20.996,21.484,31.250,29.297,-5.371,0
215710.348,20.996,19.043,30.273,32.227,68.848,0
215710.352,29.297,23.926,39.062,40.527,78.613,0
215710.356,26.367,32.715,45.898,33.203,45.898,0
215710.360,22.461,34.668,40.527,31.250,26.367,0
215710.363,28.809,33.203,39.062,41.016,42.969,0
215710.367,27.832,28.809,45.898,32.227,41.504,0
215710.371,24.414,24.414,49.316,24.902,-14.160,0
215710.375,25.879,21.484,43.945,29.785,5.371,0
215710.379,19.531,20.508,33.203,23.438,37.598,0
215710.383,18.066,19.531,36.133,24.902,-1.953,0
215710.387,20.508,22.461,33.691,28.809,-13.672,0
215710.391,25.879,31.250,29.785,36.621,15.137,0
215710.395,34.180,36.621,34.180,41.992,25.879,0
215710.399,31.738,35.156,35.645,34.668,19.043,0
215710.402,36.621,35.645,37.109,33.203,3.906,0
215710.406,36.621,37.109,38.086,36.621,6.348,0
215710.410,32.227,35.645,36.621,32.715,18.555,0
215710.414,38.086,41.016,31.250,26.367,28.320,0
215710.418,32.715,39.551,24.414,22.461,56.152,0
215710.422,27.344,39.062,28.320,27.832,78.613,0
215710.426,32.227,44.922,29.785,35.645,62.012,0
215710.430,33.203,41.016,32.715,28.320,60.059,0
215710.434,27.832,37.109,33.691,19.043,63.965,0
215710.438,27.344,33.691,26.855,21.973,73.242,0
215710.442,36.133,34.180,27.344,26.367,51.758,0
215710.445,40.039,40.039,30.273,32.227,29.297,0
215710.449,34.668,37.598,24.902,30.762,-14.648,0
215710.453,33.203,32.715,19.531,27.344,-7.324,0
215710.457,35.156,33.691,22.461,33.203,42.969,0
215710.461,32.227,34.180,33.691,29.785,34.180,0
215710.465,32.715,29.785,43.457,34.180,51.758,0
215710.469,39.062,27.832,43.457,35.156,47.852,0
215710.473,37.109,24.902,40.039,30.273,62.988,0
215710.477,28.320,21.973,37.598,35.156,113.770,0
215710.481,28.809,23.926,36.133,41.016,86.914,0
215710.485,33.203,28.320,36.133,41.504,29.785,0
215710.488,37.109,29.297,36.133,41.016,44.922,2
215710.492,35.645,29.297,36.621,40.039,44.922,0
215710.496,31.738,31.250,30.762,39.062,20.996,0
215710.500,29.785,27.344,28.809,39.062,11.230,0
215710.504,23.438,20.020,42.480,32.715,-27.832,0
215710.508,21.484,19.531,49.316,29.785,12.695,0
215710.512,25.391,20.996,50.781,35.156,54.199,0
215710.516,32.715,25.879,51.270,38.086,49.316,0
215710.520,32.715,32.715,43.457,37.109,57.617,0
215710.524,29.297,31.738,35.156,36.621,75.195,0
215710.527,25.391,27.832,30.273,31.250,79.590,0
215710.531,26.367,25.879,32.715,27.344,33.691,0
215710.535,32.227,26.855,37.598,35.156,20.508,0
215710.539,37.109,28.809,37.598,45.410,41.504,0
215710.543,40.039,27.344,34.668,43.457,41.992,0
215710.547,35.156,22.949,29.297,34.668,11.230,0
215710.551,30.273,20.020,29.785,36.133,-8.789,0
215710.555,28.320,19.531,36.133,42.480,24.902,0
215710.559,22.949,19.043,41.504,34.668,48.340,0
215710.563,26.855,23.926,42.969,24.414,15.137,0
215710.567,36.621,25.879,40.039,24.902,4.883,0
215710.570,33.203,23.438,33.691,25.391,41.504,0
215710.574,27.344,24.902,25.879,28.320,47.363,0
215710.578,26.367,25.391,23.438,33.691,19.531,0
215710.582,25.391,29.785,33.203,32.227,-9.766,0
215710.586,24.902,31.250,41.504,32.227,31.738,0
215710.590,30.273,32.715,41.504,33.691,62.988,0
215710.594,33.691,30.762,37.109,34.180,43.457,0
215710.598,25.391,23.926,25.879,30.762,28.809,0
215710.602,20.508,23.926,31.250,26.367,36.621,0
215710.606,20.020,26.855,33.691,23.438,40.039,0
215710.610,19.043,25.879,32.227,24.902,11.230,0
215710.613,20.996,24.902,35.156,29.297,13.184,0
215710.617,22.949,23.438,23.926,32.227,16.113,0
215710.621,25.879,21.484,22.461,34.668,2.441,0
215710.625,27.344,22.949,27.344,27.344,5.371,0
215710.629,29.297,26.855,28.809,29.297,60.059,0
215710.633,24.902,30.762,32.715,36.621,108.398,0
215710.637,19.043,34.668,26.855,30.273,54.199,0
215710.641,26.855,39.551,21.484,22.461,27.344,0
215710.645,30.762,36.133,25.391,21.484,81.055,0
215710.649,22.461,26.367,27.344,26.855,92.773,0
215710.652,19.043,21.973,28.320,26.855,79.102,0
215710.656,16.602,19.043,28.320,16.113,80.566,0
215710.660,13.672,18.066,31.250,12.695,67.383,0
215710.664,16.602,20.020,34.180,23.926,62.012,0
215710.668,17.578,20.508,33.203,23.926,75.684,0
215710.672,22.461,23.438,36.133,17.090,75.684,0
215710.676,25.391,24.414,35.645,20.996,79.102,0
215710.680,21.973,21.973,36.621,24.414,83.496,0
215710.684,27.344,26.367,37.109,26.367,39.551,0
215710.688,29.297,29.297,38.086,23.438,-3.418,0
215710.692,29.785,31.738,42.969,24.414,24.902,0
215710.695,31.738,34.180,41.992,26.367,43.945,0
215710.699,30.762,30.762,35.156,29.785,33.203,0
215710.703,31.738,34.668,33.203,31.250,33.691,0
215710.707,34.180,37.598,29.785,33.691,25.879,0
215710.711,35.156,31.250,22.461,39.062,17.090,0
215710.715,33.691,27.344,24.902,31.738,-26.367,0
215710.719,33.203,25.391,30.273,24.414,-9.766,0
215710.723,35.156,29.297,29.297,30.273,31.738,0
215710.727,37.109,30.762,32.227,34.668,0.000,0
215710.731,38.574,29.785,33.691,29.785,-49.805,0
215710.735,40.527,30.273,31.738,27.832,-57.617,0
215710.738,39.551,29.785,35.645,32.715,-34.668,0
215710.742,41.016,30.273,32.227,35.645,-19.043,0
215710.746,38.086,29.785,30.273,31.738,-47.363,0
215710.750,34.180,32.227,34.180,30.273,-32.227,0
215710.754,41.504,35.156,32.227,38.086,-24.902,0
215710.758,36.621,32.715,31.738,32.227,-61.523,0
215710.762,34.180,31.738,36.133,27.344,9.277,0
215710.766,37.598,27.832,36.133,40.039,35.645,0
215710.770,32.227,20.020,34.180,40.039,6.836,0
215710.774,27.344,17.578,33.691,34.180,12.695,0
215710.777,33.691,24.902,30.762,40.527,20.996,0
215710.781,41.016,27.344,31.250,45.898,26.855,0
215710.785,38.086,24.902,37.109,48.340,31.250,0
215710.789,43.945,27.344,34.180,44.434,6.348,0
215710.793,48.828,28.809,32.227,40.039,-25.879,0
215710.797,36.133,25.391,34.180,36.621,18.555,0
215710.801,27.344,23.926,32.715,33.203,-3.906,0
215710.805,23.926,26.855,29.785,26.367,-11.230,0
215710.809,20.508,26.855,32.715,28.809,34.668,0
215710.813,20.508,25.879,41.504,43.945,47.363,0
215710.817,30.273,24.902,39.551,42.480,41.504,0
215710.820,35.645,25.391,33.691,30.762,73.730,0
215710.824,30.762,22.461,37.109,26.855,89.844,0
215710.828,29.297,22.949,44.434,29.785,86.426,0
215710.832,33.203,27.344,35.156,34.180,65.918,0
215710.836,39.551,32.715,35.645,34.180,36.133,0
215710.840,41.504,31.738,49.805,37.109,59.082,0
215710.844,33.203,23.926,43.457,34.668,97.168,0
215710.848,37.598,23.438,33.691,33.203,84.473,0
215710.852,43.945,25.879,36.621,37.598,83.496,0
215710.856,33.203,28.809,43.457,34.668,46.875,0
215710.860,31.250,31.250,46.387,30.762,24.902,0
215710.863,34.668,29.297,44.434,30.273,45.410,0
215710.867,33.691,30.762,41.992,30.273,34.668,0
215710.871,30.762,31.738,35.156,26.855,39.062,0
215710.875,35.645,30.762,30.762,41.992,29.297,0
215710.879,40.527,30.762,35.156,42.969,28.809,0
215710.883,32.715,28.809,32.227,18.066,12.695,0
215710.887,28.809,29.297,26.855,18.555,11.719,0
215710.891,29.297,26.367,27.832,24.902,21.484,0
215710.895,21.973,18.066,36.621,19.043,31.738,0
215710.899,19.043,23.926,38.086,18.066,66.895,0
215710.902,22.949,30.273,35.156,24.902,57.129,0
215710.906,23.926,25.879,32.227,17.578,39.062,0
215710.910,24.414,28.320,30.273,14.648,37.598,0
215710.914,26.367,29.785,34.668,21.484,57.617,0
215710.918,24.414,29.785,29.785,24.414,83.496,0
215710.922,20.020,32.227,20.508,26.367,55.176,0
215710.926,18.555,33.691,21.484,13.184,19.043,0
215710.930,16.113,32.715,27.344,6.348,31.738,0
215710.934,20.020,27.832,35.156,20.508,49.805,0
215710.938,20.996,26.367,39.551,26.367,29.785,0
215710.942,15.137,28.320,33.691,22.461,15.625,0
215710.945,13.184,24.414,35.156,27.832,33.203,0
215710.949,14.160,21.484,30.762,29.785,45.410,0
215710.953,16.113,19.043,29.785,24.902,19.043,0
215710.957,17.578,20.996,39.551,26.367,6.836,0
215710.961,21.484,27.344,40.527,26.367,-5.859,0
215710.965,24.902,29.297,31.250,29.785,-18.066,0
215710.969,23.438,26.855,19.043,24.902,-7.324,0
215710.973,23.926,26.367,22.461,20.508,3.906,0
215710.977,29.297,29.785,36.621,27.344,64.941,0
215710.981,31.250,24.414,39.062,24.414,87.891,0
215710.985,27.832,19.531,40.039,21.484,55.664,0
215710.988,23.438,20.996,34.668,19.043,41.016,0
215710.992,22.949,24.902,26.367,18.066,29.785,0
215710.996,24.902,31.738,30.762,21.484,14.160,0
215711.000,18.066,30.762,35.156,22.949,19.531,0
215711.004,16.602,27.344,33.691,24.414,5.859,0
215711.008,20.996,23.926,37.598,23.926,14.648,0
215711.012,25.879,20.508,37.109,18.066,0.000,0
215711.016,27.344,28.320,25.391,14.160,-45.410,0
215711.020,27.832,35.156,27.344,23.438,-25.391,0
215711.024,28.809,33.203,31.250,31.738,-2.930,0
215711.027,28.809,27.832,27.344,25.391,28.809,0
215711.031,29.297,27.344,33.203,16.602,7.812,0
215711.035,28.320,33.691,36.621,15.625,-26.855,0
215711.039,26.367,32.715,29.785,13.672,9.277,0
215711.043,23.438,21.973,26.855,11.719,29.785,0
215711.047,24.902,25.391,28.320,20.020,40.039,0
215711.051,31.738,34.668,27.832,24.414,25.391,0
215711.055,31.250,32.227,30.273,23.926,18.066,0
215711.059,33.691,31.250,27.344,25.391,0.977,0
215711.063,42.480,36.621,24.414,25.879,11.719,2
215711.067,39.551,37.598,36.621,27.832,29.785,0
215711.070,38.086,38.574,41.016,33.203,35.156,0
215711.074,37.598,41.504,32.227,27.344,30.762,0
215711.078,41.016,41.504,31.250,36.133,22.461,0
215711.082,41.016,38.574,32.227,40.527,24.414,0
215711.086,35.645,32.227,26.855,25.391,34.180,0
215711.090,41.992,37.598,27.344,27.832,62.500,0
215711.094,40.527,41.504,29.785,30.762,62.500,0
215711.098,35.645,36.133,30.273,31.250,65.430,0
215711.102,39.062,32.715,33.691,37.598,57.617,0
215711.106,36.133,26.855,33.203,37.598,42.480,0
215711.110,38.574,26.367,30.273,39.551,55.176,0
215711.113,40.527,30.762,40.527,42.480,63.965,0
215711.117,35.645,28.320,41.992,31.250,57.617,0
215711.121,34.668,24.414,35.645,24.414,7.812,0
215711.125,37.598,27.832,39.551,34.180,21.973,0
215711.129,45.898,33.203,41.016,49.316,46.387,0
215711.133,49.805,33.691,41.504,59.570,40.527,0
215711.137,49.316,33.691,41.992,60.547,44.922,0
215711.141,44.922,36.133,41.992,56.641,49.805,0
215711.145,38.574,31.250,33.691,49.316,56.641,0
215711.149,45.410,28.809,30.762,41.504,34.668,0
215711.152,51.758,32.715,41.504,38.574,-0.488,0
215711.156,39.551,29.297,45.898,35.156,-9.766,0
215711.160,30.273,26.367,40.527,33.203,6.836,0
215711.164,32.227,30.273,30.762,37.598,1.465,0
215711.168,37.109,34.668,31.250,41.016,-11.719,0
215711.172,36.133,36.621,31.250,41.016,15.137,0
215711.176,29.297,31.250,33.203,37.598,-0.977,0
215711.180,30.273,24.414,38.086,40.039,19.043,0
215711.184,38.086,30.762,40.039,42.969,34.180,0
215711.188,41.504,34.668,36.133,41.016,9.277,0
215711.192,46.875,33.691,29.785,43.945,-26.367,0
215711.195,43.945,38.086,32.715,41.992,-53.711,0
215711.199,36.621,36.621,33.691,35.645,-1.465,0
215711.203,33.691,28.809,30.762,32.715,3.418,0
215711.207,35.156,32.227,30.273,36.133,6.836,0
215711.211,41.016,37.598,28.809,34.180,-19.531,0
215711.215,41.504,32.715,35.645,41.504,-26.855,0
215711.219,40.039,32.715,34.668,58.594,27.832,0
215711.223,38.086,37.109,23.438,41.992,9.277,0
215711.227,36.133,36.621,26.855,26.367,0.977,0
215711.231,41.016,37.598,39.062,36.621,-8.301,0
215711.235,42.480,36.133,43.945,41.504,-26.367,0
215711.238,39.551,28.809,41.992,32.227,4.883,0
215711.242,41.504,26.855,40.039,29.297,11.230,0
215711.246,46.875,32.715,39.062,40.039,17.090,0
215711.250,54.688,39.551,38.574,46.387,52.734,0
215711.254,55.664,35.645,37.109,45.898,42.480,0
215711.258,48.340,27.832,33.691,43.457,10.254,0
215711.262,46.875,31.250,32.227,47.363,54.688,0
215711.266,46.875,35.156,34.668,52.734,47.852,0
215711.270,45.898,37.598,43.457,51.270,20.996,0
215711.274,41.504,31.250,43.457,43.945,41.504,0
215711.277,39.551,22.461,41.504,40.527,28.320,0
215711.281,46.875,20.996,45.898,48.828,15.625,0
215711.285,51.270,27.344,49.316,47.363,37.109,0
215711.289,40.039,31.738,43.457,34.668,70.312,0
215711.293,33.691,26.367,41.016,34.180,34.668,0
215711.297,33.691,20.508,39.551,39.062,-4.883,0
215711.301,34.668,22.949,36.133,34.668,-12.207,0
215711.305,43.457,26.855,41.016,37.598,21.973,0
215711.309,42.480,24.902,42.480,41.504,30.273,0
215711.313,36.621,27.832,39.551,39.062,21.973,0
215711.317,38.086,36.133,36.133,43.945,33.203,0
215711.320,39.062,32.227,33.691,51.270,55.176,0
215711.324,45.410,26.367,47.363,60.059,39.551,0
215711.328,42.480,30.273,52.734,48.828,32.715,0
215711.332,30.762,28.320,44.922,34.668,75.684,0
215711.336,31.738,24.902,40.039,37.109,66.895,0
215711.340,33.203,26.367,34.180,40.527,45.410,0
215711.344,34.180,30.273,26.367,36.621,17.578,0
215711.348,36.621,32.715,27.832,42.969,-4.883,0
215711.352,34.180,29.297,35.156,49.316,39.062,0
215711.356,31.738,30.273,35.645,39.551,72.266,0
215711.360,34.180,32.715,33.203,34.180,60.059,0
215711.363,33.203,32.715,37.598,32.227,48.340,0
215711.367,34.180,35.156,46.387,33.203,53.711,0
215711.371,33.691,36.133,45.898,42.969,90.332,0
215711.375,31.738,35.645,37.598,44.434,105.957,0
215711.379,30.762,33.691,33.203,29.785,84.473,0
215711.383,26.367,29.297,35.156,26.367,104.980,0
215711.387,25.391,21.973,36.133,30.273,54.688,0
215711.391,25.391,24.902,31.738,23.438,0.000,0
215711.395,29.297,29.297,21.973,24.414,41.016,0
215711.399,29.297,25.391,17.090,34.668,45.898,0
215711.402,30.273,27.832,26.367,34.668,24.414,0
215711.406,33.203,38.574,37.598,39.062,28.809,0
215711.410,31.250,37.598,44.922,50.781,50.293,0
215711.414,26.367,31.738,44.922,47.363,9.277,0
215711.418,17.090,29.297,38.086,31.738,-9.277,0
215711.422,12.207,26.367,37.598,26.855,0.488,0
215711.426,20.996,27.344,38.086,36.621,-24.414,0
215711.430,18.066,24.414,34.668,40.527,-5.371,0
215711.434,13.672,20.508,37.598,32.227,17.090,0
215711.438,21.484,19.531,35.156,34.180,-7.324,0
215711.442,30.762,16.113,36.133,46.875,-4.395,0
215711.445,27.344,19.531,46.875,50.293,17.578,0
215711.449,11.719,27.832,48.828,25.391,-10.742,0
215711.453,7.812,28.809,48.828,9.277,-7.812,0
215711.457,17.578,23.438,50.293,22.949,39.062,0
215711.461,17.578,22.461,35.156,20.996,77.148,0
215711.465,11.719,21.973,29.785,16.113,81.543,0
215711.469,20.508,23.926,39.062,32.715,87.891,0
215711.473,24.414,24.902,37.109,32.227,89.844,0
215711.477,21.484,22.461,31.738,20.508,66.895,0
215711.481,21.973,16.113,26.367,20.508,89.355,0
215711.485,23.438,11.719,26.367,19.531,67.871,0
215711.488,20.508,14.160,31.738,19.043,56.641,0
215711.492,17.578,23.926,30.273,22.461,57.617,0
215711.496,19.043,32.715,34.668,25.879,17.578,0
215711.500,17.090,29.297,41.992,26.367,17.578,0
215711.504,20.020,27.344,40.039,26.855,61.035,0
215711.508,22.949,31.738,36.621,30.273,25.391,0
215711.512,20.020,36.133,31.738,23.926,0.000,0
215711.516,15.137,29.785,28.809,17.578,59.082,0
215711.520,12.695,25.391,27.832,16.602,47.363,0
215711.524,16.602,35.156,27.832,20.996,67.383,0
215711.527,19.531,41.016,24.414,22.949,69.336,0
215711.531,19.043,39.062,30.273,20.508,65.918,0
215711.535,22.461,34.180,33.203,23.926,70.312,0
215711.539,26.367,32.227,26.367,20.996,41.016,0
215711.543,23.926,33.203,26.855,20.020,73.242,0
215711.547,27.832,32.715,24.414,36.133,72.754,0
215711.551,31.738,31.738,19.043,44.922,38.086,0
215711.555,25.879,27.832,23.438,24.902,77.148,0
215711.559,28.320,25.391,38.574,19.043,106.934,0
215711.563,30.273,29.785,41.504,19.531,103.516,0
215711.567,23.926,35.645,36.621,15.137,84.961,0
215711.570,28.809,34.668,35.156,23.438,95.703,0
215711.574,27.832,25.391,31.738,19.531,117.188,0
215711.578,18.066,23.926,29.297,12.695,85.938,0
215711.582,25.391,30.273,25.879,17.090,60.059,0
215711.586,30.762,31.738,22.949,20.508,46.387,0
215711.590,30.273,29.785,21.973,25.879,36.621,0
215711.594,35.156,27.344,25.391,30.273,68.848,0
215711.598,34.180,28.809,37.598,29.785,71.289,0
215711.602,26.855,30.762,37.109,24.902,23.438,0
215711.606,21.973,25.391,33.203,22.461,1.953,0
215711.610,21.973,24.902,37.109,29.297,4.883,0
215711.613,21.973,27.832,41.504,28.320,15.625,0
215711.617,28.320,26.855,39.062,26.855,30.762,0
215711.621,34.180,28.320,34.668,30.273,26.855,0
215711.625,31.738,30.273,35.645,26.367,15.137,0
215711.629,29.297,28.809,31.250,23.438,-13.672,0
215711.633,27.832,29.297,25.391,25.879,-32.227,0
215711.637,29.297,21.484,29.297,29.785,12.207,0
215711.641,31.738,18.066,35.156,29.297,4.395,0
215711.645,28.320,27.344,33.691,31.250,-3.418,0
215711.649,28.809,32.715,32.227,37.598,42.480,0
215711.652,31.250,29.785,31.250,35.645,8.789,0
215711.656,24.902,27.832,35.645,31.250,-3.906,0
215711.660,24.414,28.320,39.062,33.691,43.945,0
215711.664,27.832,29.785,35.645,30.273,60.547,0
215711.668,23.926,30.273,31.250,25.391,61.035,0
215711.672,25.879,32.715,30.762,26.855,42.969,0
215711.676,31.738,33.691,32.227,30.762,6.348,0
215711.680,38.086,30.273,30.762,33.203,19.043,0
215711.684,42.969,25.879,29.785,31.738,29.785,0
215711.688,42.480,23.438,29.297,30.273,26.855,0
215711.692,41.504,29.297,31.738,34.668,38.086,0
215711.695,39.062,30.762,32.227,37.598,28.809,0
215711.699,41.504,31.250,30.762,46.387,46.875,0
215711.703,40.527,34.180,21.973,45.410,80.566,0
215711.707,35.645,32.227,22.461,41.504,82.520,0
215711.711,39.062,35.156,28.809,38.574,51.270,0
215711.715,35.156,35.156,33.691,29.785,53.711,0
215711.719,30.273,28.809,39.551,27.344,57.617,0
215711.723,36.133,27.344,44.434,29.297,43.457,0
215711.727,39.062,32.715,48.828,43.457,100.098,0
215711.731,34.180,26.367,41.016,41.992,84.961,0
215711.735,31.250,19.043,32.227,33.203,52.734,0
215711.738,33.203,28.809,32.715,38.086,73.242,0
215711.742,34.180,35.645,39.551,43.457,83.008,2
215711.746,30.762,38.574,37.109,41.992,75.684,0
215711.750,28.809,36.621,32.227,26.367,64.941,0
215711.754,34.180,33.691,38.086,25.879,70.801,0
215711.758,32.715,32.715,45.898,39.062,61.523,0
215711.762,29.785,28.320,42.969,38.574,52.734,0
215711.766,37.109,27.344,39.062,28.809,20.020,0
215711.770,49.316,35.156,41.504,29.297,28.320,0
215711.774,58.105,37.109,38.574,39.551,60.547,0
215711.777,51.758,35.156,35.645,41.504,42.480,0
215711.781,38.574,35.645,38.086,36.133,38.574,0
215711.785,34.668,31.738,38.086,28.809,58.105,0
215711.789,35.156,28.320,37.598,27.832,28.320,0
215711.793,33.203,28.809,37.109,27.832,-1.953,0
215711.797,34.668,30.762,35.156,29.785,-5.859,0
215711.801,35.156,31.738,36.133,34.668,-16.113,0
215711.805,32.715,32.715,46.875,31.738,-27.344,0
215711.809,25.391,29.785,47.363,27.832,-37.109,0
215711.813,23.926,24.902,40.527,32.227,-50.781,0
215711.817,26.855,28.320,42.480,30.273,-41.016,0
215711.820,26.855,32.715,39.062,28.320,-32.227,0
215711.824,26.855,33.203,36.621,19.531,-39.551,0
215711.828,26.367,36.133,38.086,17.090,-11.719,0
215711.832,28.809,35.156,33.691,23.926,34.668,0
215711.836,34.668,36.621,28.320,23.438,25.879,0
215711.840,33.691,33.691,28.809,28.320,-18.555,0
215711.844,31.738,23.926,29.297,41.504,-10.254,0
215711.848,34.180,23.926,31.250,47.852,27.344,0
215711.852,32.715,30.762,33.203,37.598,33.691,0
215711.856,29.785,31.738,28.809,27.344,33.203,0
215711.860,22.461,28.320,24.414,16.602,53.223,0
215711.863,14.648,26.367,24.902,16.602,59.082,0
215711.867,22.949,29.785,27.832,20.996,31.250,0
215711.871,31.250,33.691,32.227,15.625,23.438,0
215711.875,35.156,33.203,33.203,27.344,52.246,0
215711.879,41.992,30.762,34.668,35.645,80.078,0
215711.883,32.715,27.832,30.762,23.926,74.707,0
215711.887,27.832,32.227,24.902,22.461,56.152,0
215711.891,34.180,36.133,23.926,27.832,89.355,0
215711.895,37.109,33.203,24.902,34.180,84.961,0
215711.899,36.133,33.691,29.297,36.621,68.848,0
215711.902,29.785,32.715,33.691,28.320,49.805,0
215711.906,22.461,23.926,32.715,29.785,22.461,0
215711.910,21.973,28.320,36.621,37.109,16.113,0
215711.914,30.762,31.738,36.133,31.250,0.000,0
215711.918,31.738,20.996,33.203,23.438,2.930,0
215711.922,28.320,21.484,36.133,26.367,33.691,0
215711.926,34.180,29.297,39.551,32.227,52.246,0
215711.930,39.551,29.785,38.574,35.156,27.832,0
215711.934,36.133,27.832,35.645,36.621,26.367,0
215711.938,30.273,20.020,31.738,29.297,50.781,0
215711.942,26.367,16.113,31.250,21.484,37.598,0
215711.945,24.414,20.508,33.691,31.250,23.438,0
215711.949,21.973,23.926,28.320,30.762,22.949,0
215711.953,20.996,25.879,27.344,25.879,40.527,0
215711.957,26.367,23.926,35.156,27.832,51.270,0
215711.961,31.250,21.973,39.551,19.043,14.648,0
215711.965,32.227,21.973,39.551,22.461,25.391,0
215711.969,26.855,20.996,32.715,31.738,49.805,0
215711.973,30.762,23.926,32.715,34.180,30.762,0
215711.977,33.691,22.949,38.086,38.574,19.043,0
215711.981,25.879,17.578,35.156,36.133,21.973,0
215711.985,17.578,17.578,37.598,32.227,14.160,0
215711.988,19.043,22.461,37.598,29.297,16.602,0
215711.992,21.484,30.273,34.180,30.273,62.012,0
215711.996,21.973,33.691,33.691,34.180,59.082,0
215712.000,24.414,25.879,37.109,31.250,75.684,0
215712.004,24.414,23.926,30.273,25.879,70.801,0
215712.008,22.949,27.344,29.785,27.832,36.621,0
215712.012,23.438,29.297,38.574,34.668,35.156,0
215712.016,26.367,30.762,36.133,37.598,26.367,0
215712.020,29.297,30.762,35.156,34.180,0.000,0
215712.024,34.668,31.738,39.062,31.738,22.461,0
215712.027,34.180,35.645,39.062,36.621,59.082,0
215712.031,28.809,39.551,37.109,33.203,41.992,0
215712.035,27.832,37.109,35.156,29.785,38.574,0
215712.039,27.832,34.668,29.297,33.203,36.621,0
215712.043,33.691,29.297,24.902,35.156,19.043,0
215712.047,42.480,27.832,30.762,37.109,26.855,0
215712.051,40.039,28.809,39.551,34.180,36.133,0
215712.055,38.086,28.809,41.504,36.621,21.484,0
215712.059,35.156,25.879,37.109,40.039,62.988,0
215712.063,31.250,22.461,30.273,34.180,48.340,0
215712.067,37.598,28.320,34.668,32.227,6.836,0
215712.070,43.457,33.691,38.086,34.668,7.324,0
215712.074,45.898,36.133,41.992,34.180,11.719,0
215712.078,41.504,35.156,42.969,31.250,17.090,0
215712.082,38.086,32.227,38.086,32.227,11.719,0
215712.086,40.039,35.645,37.598,36.621,17.090,0
215712.090,40.527,37.598,34.668,49.316,10.742,0
215712.094,35.645,32.227,38.574,45.410,-20.508,0
215712.098,32.227,27.832,46.387,29.297,-32.715,0
215712.102,33.691,30.762,44.922,33.203,13.672,0
215712.106,34.668,34.180,41.016,35.645,10.254,0
215712.110,35.156,31.250,33.691,33.691,-4.395,0
215712.113,38.086,29.785,28.809,33.203,42.969,0
215712.117,41.016,28.809,35.645,38.574,37.109,0
215712.121,38.574,27.344,39.062,44.922,38.086,0
215712.125,35.645,30.273,36.133,43.945,22.949,0
215712.129,36.621,33.691,44.434,41.016,12.207,0
215712.133,33.691,30.273,48.828,44.434,29.785,0
215712.137,44.434,29.785,39.551,49.316,26.855,0
215712.141,41.504,30.762,35.645,28.809,-22.461,0
215712.145,21.973,23.926,35.645,12.695,-33.691,0
215712.149,23.438,22.949,39.062,21.973,9.277,0
215712.152,28.320,28.320,38.086,25.391,23.438,0
215712.156,35.645,32.227,40.527,31.738,41.992,0
215712.160,34.668,32.227,46.387,34.668,75.684,0
215712.164,26.367,27.344,41.992,34.180,74.707,0
215712.168,34.668,26.367,40.039,38.574,51.758,0
215712.172,39.551,30.273,39.551,39.551,21.973,0
215712.176,33.691,33.203,36.133,38.086,2.930,0
215712.180,35.156,35.645,35.156,41.992,1.465,0
215712.184,40.527,39.551,36.621,42.969,-15.625,0
215712.188,44.922,42.480,37.109,34.668,-6.348,0
215712.192,40.039,39.551,35.645,35.645,31.250,0
215712.195,36.133,32.227,34.180,41.016,50.293,0
215712.199,41.992,30.273,31.738,39.062,27.344,0
215712.203,38.574,33.691,31.738,37.109,20.020,0
215712.207,32.715,36.133,21.484,40.039,51.758,0
215712.211,38.086,39.551,16.602,39.062,27.832,0
215712.215,39.551,41.992,42.969,38.086,3.906,0
215712.219,36.621,40.039,55.664,38.574,-8.301,0
215712.223,33.691,34.668,49.805,37.109,-19.531,0
215712.227,36.133,25.879,45.898,37.598,9.277,0
215712.231,38.086,22.461,42.480,31.738,11.719,0
215712.235,33.691,25.391,42.480,36.133,25.879,0
215712.238,38.086,31.250,49.316,48.828,50.781,0
215712.242,39.551,33.203,42.480,42.969,21.973,0
215712.246,29.297,30.762,33.203,25.879,-0.977,0
215712.250,22.461,34.180,37.598,23.438,-26.367,0
215712.254,27.344,34.180,38.086,30.273,-27.832,0
215712.258,31.250,27.832,32.227,29.785,16.113,0
215712.262,23.438,25.879,36.133,24.902,50.781,0
215712.266,25.391,23.438,45.898,29.785,52.734,0
215712.270,30.762,22.949,41.992,34.180,37.109,0
215712.274,27.344,23.438,39.551,26.367,6.348,0
215712.277,28.809,21.484,44.922,26.367,8.301,0
215712.281,29.785,22.949,45.410,34.180,15.625,0
215712.285,30.762,25.879,48.340,40.527,14.648,0
215712.289,28.809,28.809,45.410,27.344,-4.883,0
215712.293,29.297,33.203,42.969,19.531,-4.395,0
215712.297,28.809,33.691,39.062,30.273,40.527,0
215712.301,30.273,34.180,36.621,33.691,38.574,0
215712.305,31.250,32.715,38.574,30.273,2.930,0
215712.309,26.855,26.367,30.762,20.020,-10.742,0
215712.313,36.133,28.320,36.133,22.949,41.504,0
215712.317,36.621,29.785,36.621,27.344,43.945,0
215712.320,35.156,29.297,34.668,27.344,35.645,0
215712.324,41.016,30.273,38.574,27.832,20.996,0
215712.328,35.156,31.250,33.691,29.297,21.484,0
215712.332,32.715,36.133,33.691,32.715,30.762,0
215712.336,35.645,39.062,41.504,32.227,25.391,0
215712.340,31.250,34.668,45.410,39.551,65.430,0
215712.344,33.691,33.203,40.039,42.969,2.930,0
215712.348,33.691,35.156,41.016,31.738,-14.648,0
215712.352,32.227,34.668,43.457,29.785,44.434,0
215712.356,35.156,33.691,42.480,33.691,32.227,0
215712.360,30.273,35.156,31.738,27.832,27.344,0
215712.363,28.809,29.297,24.414,25.879,-2.441,2
215712.367,34.180,22.461,37.109,28.809,4.395,0
215712.371,34.668,29.297,37.109,27.344,31.250,0
215712.375,35.156,37.109,32.715,28.809,66.406,0
215712.379,36.621,37.109,27.344,24.902,57.617,0
215712.383,36.621,37.109,23.926,32.715,21.484,0
215712.387,38.086,38.574,32.715,48.340,92.285,0
215712.391,33.203,36.133,34.668,33.691,92.285,0
215712.395,31.250,32.715,28.320,21.973,62.500,0
215712.399,32.715,33.203,24.902,23.438,77.637,0
215712.402,35.645,33.691,29.297,24.414,78.613,0
215712.406,38.086,32.227,30.762,25.879,56.641,0
215712.410,39.062,32.715,23.926,29.297,60.547,0
215712.414,41.992,38.086,24.902,37.109,79.102,0
215712.418,46.387,41.016,29.785,41.504,68.359,0
215712.422,44.434,38.086,34.668,37.109,36.621,0
215712.426,38.574,31.738,37.598,25.879,8.789,0
215712.430,38.574,30.273,38.574,27.832,7.812,0
215712.434,39.062,29.297,41.504,40.039,33.691,0
215712.438,31.738,22.461,39.062,32.715,51.758,0
215712.442,30.273,25.879,28.320,29.785,29.297,0
215712.445,34.180,33.203,30.762,36.621,29.297,0
215712.449,37.109,31.738,39.062,38.574,56.152,0
215712.453,31.250,26.367,29.785,32.715,38.574,0
215712.457,23.438,23.926,27.344,26.855,3.906,0
215712.461,26.855,23.438,34.668,28.320,25.879,0
215712.465,24.902,27.344,34.668,33.691,20.020,0
215712.469,17.578,32.715,33.203,28.320,9.277,0
215712.473,18.066,31.738,30.273,20.020,25.879,0
215712.477,26.367,30.273,27.832,30.762,37.598,0
215712.481,29.785,28.320,30.762,45.410,22.461,0
215712.485,19.043,25.391,35.645,26.855,7.812,0
215712.488,11.230,25.879,33.691,6.836,28.320,0
215712.492,22.461,31.250,30.762,25.391,46.387,0
215712.496,28.320,36.133,28.320,27.344,54.688,0
215712.500,24.902,33.691,20.996,15.137,42.480,0
215712.504,25.391,31.738,15.625,21.973,11.230,0
215712.508,29.785,33.691,18.066,29.785,26.855,0
215712.512,30.273,33.691,21.484,34.668,53.711,0
215712.516,27.344,31.250,27.344,30.273,11.230,0
215712.520,30.762,27.832,35.156,27.832,-3.906,0
215712.524,37.598,28.809,36.133,36.621,28.320,0
215712.527,40.527,28.809,30.273,39.062,46.387,0
215712.531,34.668,28.320,28.320,34.668,58.105,0
215712.535,33.691,29.785,32.227,40.527,52.734,0
215712.539,36.621,30.273,32.715,45.410,29.785,0
215712.543,38.574,34.668,31.738,38.086,49.316,0
215712.547,36.133,32.715,32.227,30.762,48.340,0
215712.551,33.691,29.297,32.715,35.156,44.434,0
215712.555,35.156,28.320,32.715,44.434,48.828,0
215712.559,36.133,28.809,34.668,41.016,28.320,0
215712.563,42.969,32.227,33.691,42.969,6.348,0
215712.567,46.387,35.156,33.691,51.758,46.875,0
215712.570,38.574,33.691,32.227,41.016,66.406,0
215712.574,34.180,34.668,36.133,37.598,33.203,0
215712.578,32.715,26.855,36.621,36.133,27.832,0
215712.582,36.133,23.926,36.133,29.297,83.496,0
215712.586,41.504,34.668,35.645,35.645,77.148,0
215712.590,43.945,35.645,32.227,45.410,24.414,0
215712.594,44.434,37.598,38.086,41.992,51.758,0
215712.598,39.062,38.574,41.504,36.133,81.543,0
215712.602,29.785,29.785,38.086,29.297,51.758,0
215712.606,27.344,26.855,35.645,24.414,5.371,0
215712.610,27.344,24.902,35.645,24.414,39.062,0
215712.613,26.855,25.879,34.180,24.902,24.414,0
215712.617,28.809,23.438,30.762,24.902,0.977,0
215712.621,24.902,17.090,30.762,23.438,16.113,0
215712.625,18.555,20.996,31.738,18.555,20.996,0
215712.629,26.367,24.902,32.227,24.902,34.180,0
215712.633,31.250,24.414,30.273,26.367,51.758,0
215712.637,30.273,26.367,32.227,30.273,61.523,0
215712.641,36.621,25.879,34.180,42.969,44.434,0
215712.645,40.039,27.832,29.297,44.922,49.316,0
215712.649,36.621,30.762,29.785,45.410,46.875,0
215712.652,32.715,29.785,34.668,38.086,34.180,0
215712.656,25.879,26.367,35.645,29.297,10.254,0
215712.660,23.926,24.414,30.762,29.297,-3.906,0
215712.664,23.438,20.020,24.902,23.926,33.691,0
215712.668,19.043,21.484,31.738,20.508,30.273,0
215712.672,27.832,30.273,41.016,29.297,24.414,0
215712.676,31.250,29.785,36.621,30.273,22.461,0
215712.680,22.461,27.832,35.645,26.367,19.043,0
215712.684,19.531,28.809,34.180,30.273,43.945,0
215712.688,27.832,28.320,33.691,37.598,49.316,0
215712.692,29.297,28.320,37.109,38.086,22.949,0
215712.695,26.855,30.762,32.715,37.598,8.301,0
215712.699,27.832,31.250,22.949,31.250,-3.418,0
215712.703,29.297,34.668,27.832,29.785,32.227,0
215712.707,31.738,33.691,31.738,32.227,40.527,0
215712.711,31.250,28.809,24.902,31.738,6.836,0
215712.715,31.250,28.809,25.391,35.156,24.902,0
215712.719,32.227,27.344,25.391,34.180,41.016,0
215712.723,32.227,28.320,25.879,32.715,33.691,0
215712.727,30.762,27.344,35.645,31.250,56.152,0
215712.731,36.621,24.902,42.480,36.133,68.359,0
215712.735,41.992,27.344,41.504,38.086,25.879,0
215712.738,40.039,30.762,36.621,37.598,-27.344,0
215712.742,35.156,32.715,31.738,35.156,3.418,0
215712.746,25.391,29.785,30.762,27.832,7.812,0
215712.750,27.344,26.855,28.809,32.227,-8.789,0
215712.754,34.668,30.273,27.832,25.879,-15.137,0
215712.758,35.645,33.203,25.879,20.996,-48.340,0
215712.762,33.203,30.762,28.809,29.785,-22.949,0
215712.766,35.156,32.715,40.527,32.715,14.160,0
215712.770,35.645,28.809,42.480,32.715,-4.395,0
215712.774,32.715,22.949,39.062,35.645,-5.859,0
215712.777,30.762,26.855,41.016,39.062,27.832,0
215712.781,27.832,31.738,38.574,32.715,29.297,0
215712.785,26.855,30.762,29.785,25.391,-24.414,0
215712.789,32.227,25.879,27.344,29.297,6.836,0
215712.793,32.715,25.879,30.762,29.785,36.621,0
215712.797,28.809,26.855,38.086,28.809,5.859,0
215712.801,25.879,27.832,36.133,24.414,-3.906,0
215712.805,25.391,27.832,29.785,26.367,17.578,0
215712.809,28.320,25.391,37.598,23.438,38.574,0
215712.813,25.391,22.949,42.480,16.113,44.434,0
215712.817,26.367,25.879,35.645,31.250,51.758,0
215712.820,28.809,26.855,27.344,32.227,82.031,0
215712.824,26.855,26.855,33.691,18.555,50.293,0
215712.828,28.320,29.785,43.457,21.973,9.766,0
215712.832,32.227,36.133,45.410,29.297,64.941,0
215712.836,27.832,34.668,36.621,29.785,83.008,0
215712.840,22.949,31.738,32.227,29.297,50.293,0
215712.844,23.926,31.738,36.621,28.320,36.133,0
215712.848,26.367,27.832,35.156,28.320,38.086,0
215712.852,28.320,28.809,38.574,36.621,69.824,0
215712.856,32.715,33.691,44.922,41.016,60.547,0
215712.860,39.551,34.668,44.922,40.039,34.668,0
215712.863,42.480,31.738,40.039,40.039,10.742,0
215712.867,36.133,31.250,37.598,42.969,27.832,0
215712.871,41.504,35.645,37.598,46.875,52.734,0
215712.875,46.875,36.133,29.297,41.504,22.461,0
215712.879,38.574,29.785,28.320,38.086,23.438,0
215712.883,38.086,26.367,38.574,40.527,16.113,0
215712.887,44.434,25.879,41.016,38.086,0.488,0
215712.891,48.828,33.203,41.992,36.133,27.344,0
215712.895,50.293,41.016,48.340,44.922,67.871,1
215712.899,48.828,37.598,45.410,43.457,65.430,0
215712.902,45.410,34.668,35.645,33.691,7.324,0
215712.906,44.434,37.109,39.551,36.133,-3.906,0
215712.910,41.992,34.668,45.898,38.086,10.254,0
215712.914,39.551,30.762,44.434,37.598,16.602,0
215712.918,43.457,34.180,46.387,41.016,6.836,0
215712.922,40.527,25.879,41.992,36.133,-27.832,0
215712.926,31.250,16.113,37.598,31.250,-15.137,0
215712.930,31.738,22.461,42.480,34.668,2.441,0
215712.934,29.785,29.785,38.086,36.133,-29.297,0
215712.938,31.738,34.180,35.156,37.598,-30.762,0
215712.942,34.668,36.621,42.969,40.527,32.227,0
215712.945,27.832,35.645,40.527,31.738,40.527,0
215712.949,25.391,30.273,34.668,22.461,28.320,0
215712.953,30.273,28.320,38.574,25.879,79.590,0
215712.957,34.668,30.273,46.387,31.738,66.895,0
215712.961,35.645,30.273,46.875,36.133,3.906,0
215712.965,31.738,28.320,43.457,29.297,14.648,0
215712.969,24.902,23.438,39.551,20.508,62.012,0
215712.973,25.391,24.902,36.621,21.484,81.055,0
215712.977,26.367,29.297,36.621,19.531,92.285,0
215712.981,26.367,31.250,35.156,29.297,95.703,0
215712.985,27.344,33.203,29.785,33.203,69.336,0
215712.988,30.273,36.621,33.691,27.832,83.008,0
215712.992,35.645,36.621,43.945,30.762,93.262,0
215712.996,30.762,31.738,37.109,25.391,41.504,0
215713.000,23.926,29.785,31.738,26.855,80.566,0
215713.004,26.855,26.855,36.133,27.344,78.125,0
215713.008,24.902,28.320,25.879,21.484,33.691,0
215713.012,27.344,28.320,15.625,25.391,72.266,0
215713.016,32.227,32.715,27.344,26.367,53.223,0
215713.020,27.344,40.039,39.062,27.832,50.781,0
215713.024,28.809,39.551,35.645,28.809,47.363,0
215713.027,31.738,36.621,28.809,26.367,59.082,0
215713.031,31.738,35.645,28.809,24.902,45.410,0
215713.035,34.180,37.109,34.668,29.297,-4.883,0
215713.039,34.180,35.645,26.367,27.344,-54.688,0
215713.043,34.668,28.320,20.508,21.973,-72.754,0
215713.047,36.621,33.691,33.691,29.297,-13.184,0
215713.051,34.668,40.039,34.668,33.691,30.762,0
215713.055,32.715,35.645,30.762,27.832,21.484,0
215713.059,32.715,33.691,33.203,33.691,8.789,0
215713.063,33.691,33.691,30.762,39.551,30.762,0
215713.067,41.016,35.156,32.715,31.738,14.160,0
215713.070,35.156,32.715,30.273,25.879,-5.371,0
215713.074,32.227,27.344,23.438,33.203,13.672,0
215713.078,35.156,28.320,32.227,41.992,29.297,0
215713.082,28.809,26.855,32.227,37.598,49.805,0
215713.086,27.344,22.949,22.461,28.809,13.672,0
215713.090,28.320,26.367,29.785,22.949,-30.762,0
215713.094,25.879,25.391,36.133,23.926,-0.488,0
215713.098,28.809,24.902,31.738,28.320,43.457,0
215713.102,38.086,36.133,33.203,35.156,60.059,0
215713.106,35.156,38.574,35.645,34.668,75.195,0
215713.110,24.414,29.785,31.250,30.273,81.543,0
215713.113,21.973,26.855,28.320,33.203,31.738,0
215713.117,28.320,29.785,37.109,42.969,18.555,0
215713.121,27.344,24.414,42.969,42.969,38.086,0
215713.125,22.461,19.043,38.086,38.574,66.406,0
215713.129,22.461,20.020,27.832,37.109,77.148,0
215713.133,23.438,20.508,29.785,34.668,42.969,0
215713.137,32.715,26.855,43.457,37.109,66.406,0
215713.141,32.715,29.785,43.457,34.668,92.773,0
215713.145,26.367,24.414,39.551,40.039,84.473,0
215713.149,30.273,24.414,41.992,47.363,91.797,0
215713.152,31.738,28.320,44.434,47.852,85.449,0
215713.156,35.156,25.879,38.574,47.852,42.480,0
215713.160,36.133,24.902,32.715,45.898,18.555,0
215713.164,39.062,32.227,34.180,44.434,37.598,0
215713.168,48.340,34.180,33.691,45.898,53.223,0
215713.172,43.945,26.855,32.715,42.969,25.391,0
215713.176,38.086,24.414,38.086,41.016,8.301,0
215713.180,40.527,30.273,34.668,45.898,38.574,0
215713.184,43.945,35.645,26.855,47.363,22.949,0
215713.188,46.875,36.621,35.645,43.945,8.789,0
215713.192,44.434,38.086,42.969,47.852,7.812,0
215713.195,41.504,35.156,41.016,45.898,17.578,0
215713.199,40.527,31.250,40.039,35.645,65.918,0
215713.203,47.363,36.133,32.715,38.574,40.527,0
215713.207,62.012,43.945,33.691,48.340,23.926,0
215713.211,64.941,41.504,38.086,49.316,108.887,0
215713.215,55.176,36.621,26.367,43.945,130.859,0
215713.219,45.410,35.645,22.949,42.480,64.453,0
215713.223,39.062,35.645,28.320,32.227,42.969,0
215713.227,39.062,35.645,34.668,29.785,83.984,0
215713.231,37.598,31.738,36.133,36.133,71.777,0
215713.235,37.598,31.250,32.715,33.691,18.555,0
215713.238,35.645,32.227,30.273,26.367,39.551,0
215713.242,31.738,29.785,32.715,26.367,63.965,0
215713.246,35.156,30.762,29.297,32.715,11.230,0
215713.250,31.738,22.461,25.391,28.809,0.977,0
215713.254,25.879,15.137,33.203,25.391,21.484,0
215713.258,33.691,25.391,38.086,37.109,41.016,0
215713.262,44.922,31.250,31.250,44.434,50.781,0
215713.266,38.086,27.344,31.250,35.156,-2.441,0
215713.270,14.648,25.391,29.785,24.414,9.766,0
215713.274,13.184,21.973,35.645,22.461,43.457,0
215713.277,25.879,20.508,42.480,31.738,49.805,0
215713.281,29.297,23.926,38.574,36.621,43.457,0
215713.285,25.879,28.809,33.203,34.180,36.621,0
215713.289,24.414,26.855,33.691,35.645,7.324,0
215713.293,29.785,21.973,36.621,31.250,11.230,0
215713.297,35.156,18.555,34.668,29.297,28.320,0
215713.301,29.297,16.602,29.785,28.809,34.668,0
215713.305,25.879,22.461,32.227,27.344,44.434,0
215713.309,34.180,26.855,32.715,27.832,24.414,0
215713.313,33.203,26.367,29.785,28.320,13.672,0
215713.317,31.738,30.273,33.691,45.898,44.922,0
215713.320,37.598,28.809,32.715,49.316,64.941,0
215713.324,32.227,19.531,32.227,27.344,29.785,0
215713.328,24.902,14.648,32.715,25.391,32.227,0
215713.332,25.391,20.020,33.691,31.250,73.242,0
215713.336,25.879,22.461,32.227,30.762,70.801,0
215713.340,30.762,25.391,34.180,32.715,30.273,0
215713.344,27.344,30.762,40.039,36.133,21.484,0
215713.348,26.367,26.367,42.480,35.645,0.977,0
215713.352,33.203,23.438,39.551,35.156,-58.594,0
215713.356,28.809,24.414,35.156,32.715,-24.414,0
215713.360,30.273,23.438,32.715,37.109,8.789,0
215713.363,26.855,20.020,29.785,41.016,-4.395,0
215713.367,24.414,16.602,37.598,29.785,-38.086,0
215713.371,26.855,19.531,38.086,24.414,-18.066,0
215713.375,23.926,30.762,36.621,23.926,38.086,0
215713.379,31.738,36.621,38.086,31.738,57.129,0
215713.383,38.086,37.109,32.227,35.645,52.246,0
215713.387,39.062,39.062,27.832,33.691,-2.930,0
215713.391,30.762,32.715,24.414,32.227,-28.809,0
215713.395,22.461,27.832,30.273,25.391,-20.508,0
215713.399,19.043,28.809,37.109,21.484,2.441,0
215713.402,19.043,29.785,31.250,26.367,-21.484,0
215713.406,21.484,28.809,28.809,32.227,-10.254,0
215713.410,21.973,30.762,34.668,35.645,16.602,0
215713.414,25.879,31.738,30.273,30.762,-20.020,0
215713.418,23.926,26.855,26.855,25.391,-44.434,0
215713.422,20.020,27.832,30.762,25.391,15.137,0
215713.426,21.484,27.344,31.250,20.996,83.496,0
215713.430,20.508,22.461,28.320,23.926,43.945,0
215713.434,20.996,24.414,25.879,28.320,37.109,0
215713.438,25.391,24.414,29.297,30.273,37.598,0
215713.442,30.762,24.414,34.180,34.668,31.738,0
215713.445,32.715,29.785,30.762,36.133,44.434,0
215713.449,25.879,31.738,27.832,40.527,59.570,0
215713.453,18.066,28.809,30.762,31.738,68.359,0
215713.457,24.414,31.250,33.203,24.414,44.922,0
215713.461,29.785,32.715,32.715,24.414,24.902,0
215713.465,27.344,29.785,38.086,17.578,28.809,0
215713.469,35.156,29.785,45.898,24.902,10.254,0
215713.473,43.945,32.227,45.410,38.086,-7.812,0
215713.477,42.969,34.668,44.922,35.645,-9.766,0
215713.481,40.527,35.156,41.016,32.227,9.277,0
215713.485,37.109,35.156,33.691,32.715,6.836,0
215713.488,43.457,34.180,34.180,36.133,24.902,0
215713.492,52.246,30.762,33.691,40.527,29.297,0
215713.496,42.969,24.902,35.156,38.574,-39.551,0
215713.500,35.156,22.949,41.016,40.527,-45.898,0
215713.504,34.668,26.367,40.039,30.273,-14.648,0
215713.508,35.156,33.203,37.109,21.484,-59.082,0
215713.512,33.203,37.598,38.086,31.250,-36.621,0
215713.516,30.762,33.691,36.621,35.645,4.395,0
215713.520,33.691,30.762,32.715,36.621,6.836,0
215713.524,34.668,34.180,31.250,38.086,39.551,0
215713.527,34.180,35.156,31.250,43.945,65.918,0
215713.531,30.762,33.691,30.273,43.945,52.246,0
215713.535,27.832,33.203,30.762,36.133,31.250,0
215713.539,23.438,31.738,30.273,33.203,37.598,0
215713.543,24.414,32.715,27.344,35.645,36.133,0
215713.547,32.227,32.227,20.996,40.039,14.160,0
215713.551,29.785,36.621,16.602,36.133,-18.555,0
215713.555,25.391,44.434,29.297,27.832,0.488,0
215713.559,27.832,42.969,38.574,29.297,43.457,0
215713.563,26.367,36.621,31.738,27.344,54.688,0
215713.567,24.902,32.227,31.250,24.414,43.945,0
215713.570,26.367,33.203,34.180,33.691,15.137,0
215713.574,25.879,31.250,24.902,32.715,-5.371,0
215713.578,25.879,25.879,25.879,26.367,-1.465,0
215713.582,30.273,22.949,31.250,33.691,8.789,0
215713.586,28.320,21.973,29.297,38.086,-6.348,0
215713.590,19.043,21.484,31.738,37.598,-38.574,1
215713.594,19.531,25.879,34.180,39.062,-40.039,0
215713.598,27.344,27.832,39.062,28.809,-24.414,0
215713.602,29.297,24.902,42.480,30.762,43.457,0
215713.606,28.320,25.391,37.598,36.133,66.406,0
215713.610,29.297,24.414,31.250,33.691,21.973,0
215713.613,27.832,28.809,26.855,41.504,20.508,0
215713.617,28.320,31.738,31.738,37.109,13.184,0
215713.621,32.715,27.344,35.645,33.691,11.230,0
215713.625,28.320,26.855,31.738,35.645,0.488,0
215713.629,23.926,31.738,37.598,32.227,18.555,0
215713.633,29.785,35.156,39.062,41.504,52.246,0
215713.637,28.809,34.180,30.762,41.992,27.832,0
215713.641,28.320,35.156,32.715,29.297,-9.277,0
215713.645,35.156,36.133,41.016,30.762,-2.930,0
215713.649,35.156,35.156,43.457,30.762,15.625,0
215713.652,34.180,34.180,41.504,22.461,18.555,0
215713.656,38.574,31.738,35.156,23.926,-4.395,0
215713.660,39.062,27.344,28.809,32.227,-1.465,0
215713.664,38.574,28.320,29.297,33.691,17.578,0
215713.668,48.828,34.668,33.691,29.785,6.348,0
215713.672,53.711,37.109,41.504,35.645,32.227,0
215713.676,49.805,40.527,34.180,38.574,45.898,0
215713.680,47.852,37.598,22.461,38.086,25.391,0
215713.684,44.922,34.668,31.250,35.645,-10.254,0
215713.688,42.480,33.691,41.016,24.414,-11.719,0
215713.692,41.016,33.691,42.969,27.344,28.320,0
215713.695,41.016,34.668,43.945,40.527,19.043,0
215713.699,43.457,31.738,42.969,49.316,49.805,0
215713.703,41.992,29.297,38.574,38.086,39.551,0
215713.707,41.992,31.738,38.086,29.785,-5.371,0
215713.711,40.527,34.668,37.109,31.738,1.953,0
215713.715,37.109,37.598,33.691,25.879,1.953,0
215713.719,37.598,38.086,33.691,29.785,8.789,0
215713.723,37.109,36.621,34.668,37.109,48.340,0
215713.727,33.691,38.574,35.156,32.227,54.199,0
215713.731,25.879,32.715,33.203,20.508,12.695,0
215713.735,21.484,29.785,33.691,15.137,-2.930,0
215713.738,22.461,32.227,36.133,16.113,15.137,0
215713.742,26.367,28.320,36.133,18.555,39.551,0
215713.746,25.391,24.414,31.738,20.508,20.996,0
215713.750,28.809,25.879,31.738,26.367,-6.836,0
215713.754,33.691,24.902,25.879,21.973,13.184,0
215713.758,34.180,28.809,25.391,15.137,30.762,0
215713.762,35.156,30.273,31.738,18.066,19.531,0
215713.766,31.738,29.297,32.227,21.973,12.207,0
215713.770,29.297,34.180,31.250,30.762,61.035,0
215713.774,31.250,36.621,32.715,34.668,76.172,0
215713.777,30.762,30.762,34.180,30.762,49.805,0
215713.781,28.320,23.926,29.785,32.715,50.293,0
215713.785,36.621,23.438,32.227,41.992,79.590,0
215713.789,43.457,28.809,37.109,41.016,71.289,0
215713.793,44.922,31.250,36.621,36.621,53.223,0
215713.797,50.781,30.762,46.387,47.852,108.398,0
215713.801,53.223,30.273,48.828,52.734,127.441,0
215713.805,55.176,32.227,40.039,49.805,105.469,0
