timestamps,TP9,AF7,AF8,TP10,Right AUX,Marker0
215833.289,28.809,31.250,16.602,24.414,44.922,0
215833.293,32.227,30.273,22.949,25.879,27.344,0
215833.297,35.645,28.809,32.715,33.691,38.086,0
215833.301,41.992,27.832,23.438,36.133,63.965,0
215833.305,42.480,29.785,16.602,26.855,85.938,0
215833.309,47.363,28.809,21.973,39.551,117.188,0
215833.313,42.480,18.066,17.090,48.828,101.074,0
215833.317,31.738,15.625,13.184,28.320,51.758,0
215833.320,33.203,29.297,24.414,19.043,-1.953,1
215833.324,30.273,34.668,27.344,20.996,-6.836,0
215833.328,32.227,27.832,23.926,29.297,15.137,0
215833.332,34.668,22.461,30.762,35.645,27.832,0
215833.336,36.133,24.414,34.668,32.715,27.832,0
215833.340,38.574,25.879,29.785,30.273,16.602,0
215833.344,39.551,29.297,24.414,37.109,35.645,0
215833.348,37.598,33.203,13.672,41.504,30.762,0
215833.352,35.645,32.715,13.184,42.969,34.668,0
215833.356,39.551,29.297,24.414,42.480,27.344,0
215833.360,35.645,22.949,25.391,37.109,12.207,0
215833.363,35.645,24.414,25.391,39.062,12.207,0
215833.367,29.785,24.414,28.320,28.809,15.137,0
215833.371,17.090,20.996,26.367,17.090,3.906,0
215833.375,22.949,24.902,25.391,22.949,-69.824,0
215833.379,28.809,28.320,23.926,29.785,-78.613,0
215833.383,31.738,28.320,16.602,40.039,-40.527,0
215833.387,40.527,32.227,19.531,36.621,15.137,0
215833.391,35.156,31.738,21.973,22.461,31.738,0
215833.395,29.785,28.809,7.812,22.949,0.000,0
215833.399,37.109,35.645,8.301,26.855,-2.441,0
215833.402,41.992,36.133,22.461,26.855,-22.461,0
215833.406,39.551,27.832,26.855,31.250,-28.809,0
215833.410,30.762,26.855,26.367,25.391,-31.738,0
215833.414,33.203,33.691,26.367,26.367,-38.574,0
215833.418,36.621,36.133,24.414,42.480,-11.719,0
215833.422,37.598,34.668,20.508,43.457,0.977,0
215833.426,44.922,31.738,22.461,42.969,-13.184,0
215833.430,45.410,26.855,29.785,43.457,-35.645,0
215833.434,23.438,24.414,29.785,30.273,-7.324,0
215833.438,17.090,25.391,26.855,27.832,21.973,0
215833.442,26.855,25.391,27.832,37.598,8.789,0
215833.445,26.855,22.949,35.645,45.410,-11.719,0
215833.449,18.555,22.461,37.598,38.086,-11.719,0
215833.453,11.719,25.391,36.133,21.973,-3.418,0
215833.457,7.324,21.484,34.180,13.672,-8.301,0
215833.461,14.648,21.484,30.273,32.227,12.695,0
215833.465,25.879,26.855,34.180,45.410,45.410,0
215833.469,36.133,28.809,36.133,40.039,24.902,0
215833.473,36.133,33.203,27.344,37.598,21.484,0
215833.477,30.273,34.180,24.902,35.645,38.574,0
215833.481,32.715,28.320,21.484,36.133,16.602,0
215833.485,25.879,27.832,11.719,26.855,0.000,0
215833.488,26.855,25.391,18.555,26.367,1.953,0
215833.492,29.297,15.625,33.691,29.785,10.254,0
215833.496,26.855,16.602,35.645,31.738,5.371,0
215833.500,29.297,20.020,34.668,26.367,-7.812,0
215833.504,33.691,19.043,37.109,28.320,-15.625,0
215833.508,29.297,23.926,30.762,41.016,0.488,0
215833.512,26.367,30.273,22.949,43.457,27.344,0
215833.516,31.250,31.250,16.113,41.992,34.668,0
215833.520,26.367,30.762,14.160,38.086,55.176,0
215833.524,28.320,28.320,18.555,37.109,74.219,0
215833.527,41.504,30.273,20.996,44.922,39.551,0
215833.531,44.434,36.133,27.344,47.363,34.180,0
215833.535,37.109,32.715,32.715,38.574,48.340,0
215833.539,34.180,25.879,27.344,30.762,65.430,0
215833.543,32.227,22.949,24.414,25.879,77.637,0
215833.547,24.414,24.414,25.879,22.949,29.297,0
215833.551,18.066,24.414,26.367,21.973,69.336,0
215833.555,20.020,19.043,23.926,23.438,84.473,0
215833.559,25.879,22.949,25.879,30.762,68.848,0
215833.563,29.297,30.273,26.855,29.785,104.980,0
215833.567,32.227,33.203,18.555,31.738,83.984,0
215833.570,32.227,34.180,21.973,31.738,62.012,0
215833.574,29.297,31.250,25.879,23.926,83.008,0
215833.578,31.250,27.832,25.879,28.320,102.539,0
215833.582,35.156,24.902,22.949,35.156,92.285,0
215833.586,32.715,24.902,14.160,36.621,86.914,0
215833.590,31.250,27.832,16.113,34.668,88.867,0
215833.594,34.668,26.855,22.461,39.551,69.824,0
215833.598,33.691,25.391,21.973,30.762,76.660,0
215833.602,36.133,29.785,18.066,23.926,72.266,0
215833.606,34.668,26.855,21.973,36.133,9.766,0
215833.610,33.203,21.973,26.855,38.574,26.367,0
215833.613,40.039,28.320,17.578,45.898,58.594,0
215833.617,39.551,28.809,13.672,39.551,53.711,0
215833.621,35.645,27.344,31.738,32.715,52.734,0
215833.625,38.086,26.855,32.715,38.574,46.875,0
215833.629,32.715,17.090,24.414,35.156,57.129,0
215833.633,24.902,13.672,26.367,33.203,52.246,0
215833.637,28.809,21.484,22.949,34.668,36.621,0
215833.641,38.574,29.785,21.973,30.762,28.320,0
215833.645,44.434,34.180,24.414,41.016,42.480,0
215833.649,38.574,28.809,19.043,54.688,57.129,0
215833.652,37.109,28.320,16.113,35.645,6.348,0
215833.656,38.086,29.297,18.555,20.996,24.414,0
215833.660,36.621,28.320,20.020,32.715,52.734,0
215833.664,36.133,30.273,26.367,30.762,21.973,0
215833.668,31.250,27.832,35.645,20.996,9.277,0
215833.672,28.320,25.879,38.086,25.391,50.781,0
215833.676,37.598,31.250,30.762,31.738,57.129,0
215833.680,39.062,36.133,25.391,32.715,38.086,0
215833.684,35.156,31.250,29.297,32.227,49.805,0
215833.688,31.738,23.926,24.902,34.180,45.410,0
215833.692,30.762,19.043,14.648,35.156,66.406,0
215833.695,31.738,14.648,11.719,25.879,35.156,0
215833.699,30.273,19.531,19.531,29.785,24.902,0
215833.703,28.809,23.926,28.320,36.133,57.617,0
215833.707,33.691,22.461,22.461,34.180,39.062,0
215833.711,40.039,26.855,24.902,40.527,78.613,0
215833.715,30.762,30.762,37.598,38.086,138.672,0
215833.719,20.996,27.832,39.551,31.738,133.301,0
215833.723,20.020,24.902,34.668,30.762,111.328,0
215833.727,25.391,25.879,33.203,35.645,124.512,0
215833.731,33.203,24.902,26.855,43.457,100.098,0
215833.735,35.156,22.461,18.066,38.086,73.730,0
215833.738,38.574,23.926,23.926,28.320,60.547,0
215833.742,37.598,23.926,33.691,26.855,45.410,0
215833.746,27.344,19.531,26.855,29.785,97.168,0
215833.750,22.949,15.625,23.438,32.227,75.684,0
215833.754,23.926,17.090,32.715,31.738,41.992,0
215833.758,27.832,21.973,22.949,26.855,27.832,0
215833.762,34.180,23.438,19.531,25.879,6.348,0
215833.766,28.320,30.273,29.297,22.949,-18.555,0
215833.770,20.508,30.762,27.344,24.414,-20.020,0
215833.774,22.949,31.250,18.066,41.016,75.195,0
215833.777,21.484,31.738,20.020,44.434,62.500,0
215833.781,21.973,25.391,29.785,31.250,-1.953,0
215833.785,21.484,24.902,35.156,17.578,-6.348,0
215833.789,21.973,23.926,35.156,15.625,32.715,0
215833.793,23.926,18.555,27.344,25.391,83.496,0
215833.797,25.391,20.996,20.020,24.414,47.363,0
215833.801,30.762,25.391,21.484,20.996,52.246,0
215833.805,25.879,22.949,23.438,18.555,24.414,0
215833.809,25.879,22.949,12.695,21.484,-62.500,0
215833.813,32.227,29.297,10.742,27.832,-44.434,0
215833.817,33.203,32.227,20.020,32.715,-28.320,0
215833.820,39.551,26.855,20.020,33.203,3.418,0
215833.824,50.781,27.344,22.949,35.156,13.184,0
215833.828,51.758,30.762,20.020,41.992,2.930,0
215833.832,40.527,26.367,14.160,31.250,19.043,0
215833.836,32.715,22.461,23.438,29.297,80.566,0
215833.840,36.133,23.438,26.855,40.039,151.367,0
215833.844,39.551,28.809,23.438,37.598,125.977,0
215833.848,31.738,33.203,21.973,32.715,75.195,0
215833.852,31.250,31.738,16.113,41.016,73.730,0
215833.856,31.250,28.320,15.625,40.039,88.379,0
215833.860,30.762,27.832,24.414,22.949,86.426,0
215833.863,32.227,25.391,25.879,21.973,76.660,0
215833.867,32.227,27.832,22.461,25.879,85.938,0
215833.871,30.762,31.250,24.414,20.020,89.844,0
215833.875,26.855,28.320,30.762,18.066,65.430,0
215833.879,29.297,29.785,38.574,26.367,56.641,0
215833.883,35.645,32.715,38.086,24.414,56.152,0
215833.887,40.527,34.668,30.273,24.414,58.594,0
215833.891,36.621,34.668,25.391,30.273,42.969,0
215833.895,31.250,27.344,22.949,25.879,21.484,0
215833.899,30.762,28.320,25.391,28.320,28.809,0
215833.902,29.297,27.344,29.297,32.715,34.668,0
215833.906,31.738,22.949,30.762,40.527,27.832,0
215833.910,35.156,23.926,34.668,43.457,35.645,0
215833.914,30.273,24.902,35.645,32.715,57.617,0
215833.918,28.809,27.832,34.180,32.715,32.715,0
215833.922,31.250,27.832,30.273,43.457,24.902,0
215833.926,34.180,28.320,31.250,52.734,43.945,0
215833.930,35.645,26.367,37.598,39.551,24.414,0
215833.934,36.133,23.926,45.898,26.855,24.902,0
215833.938,34.668,26.855,45.898,21.973,55.176,0
215833.942,32.715,33.203,40.527,25.879,77.148,0
215833.945,37.109,29.785,37.598,29.297,57.617,0
215833.949,40.527,24.414,29.785,26.367,48.340,0
215833.953,38.574,28.320,28.809,27.344,56.152,0
215833.957,32.715,27.344,30.273,27.832,5.371,0
215833.961,32.227,24.414,26.855,31.738,20.020,0
215833.965,34.668,30.273,18.555,36.133,52.246,0
215833.969,39.551,31.738,21.484,33.203,5.371,0
215833.973,40.039,28.320,38.574,31.250,20.508,0
215833.977,38.086,34.668,28.320,48.340,32.227,0
215833.981,41.016,36.621,14.648,39.551,-9.277,0
215833.985,41.016,26.855,32.227,20.508,39.551,0
215833.988,35.645,22.461,46.875,23.926,63.477,0
215833.992,37.109,23.438,41.016,25.391,50.781,0
215833.996,41.016,19.043,37.109,28.320,76.172,0
215834.000,41.016,20.508,40.039,39.062,92.285,0
215834.004,40.039,28.809,35.156,45.410,96.680,0
215834.008,39.062,27.832,33.203,38.086,86.914,0
215834.012,44.922,33.691,33.203,42.480,67.871,0
215834.016,51.758,42.480,29.297,53.223,25.391,0
215834.020,50.293,38.574,29.785,47.363,-2.441,0
215834.024,43.457,33.203,35.645,34.668,7.324,0
215834.027,34.668,27.344,38.574,26.367,25.879,2
215834.031,29.785,27.344,40.527,33.203,38.086,0
215834.035,33.203,31.250,39.551,41.992,32.227,0
215834.039,36.133,27.832,33.203,38.086,43.457,0
215834.043,39.062,28.320,26.367,40.527,63.477,0
215834.047,39.062,34.668,24.902,46.387,69.336,0
215834.051,35.645,33.691,26.367,37.109,56.641,0
215834.055,38.086,35.645,29.785,36.133,52.246,0
215834.059,42.480,33.203,30.273,39.062,44.434,0
215834.063,40.527,24.902,30.273,37.598,15.625,0
215834.067,34.180,20.996,33.203,34.180,17.090,0
215834.070,23.926,24.902,32.715,28.320,19.043,0
215834.074,26.367,36.133,32.715,34.668,-13.672,0
215834.078,36.621,34.180,28.809,39.062,2.441,0
215834.082,29.785,27.832,20.020,27.344,-14.648,0
215834.086,23.926,28.809,21.484,21.484,-36.133,0
215834.090,27.832,27.832,21.973,33.203,-6.836,0
215834.094,32.227,30.762,20.020,31.250,-24.902,0
215834.098,31.738,29.297,26.855,22.461,-59.570,0
215834.102,29.785,27.344,30.762,23.926,-84.473,0
215834.106,25.879,29.297,25.391,28.809,-67.871,0
215834.110,23.438,26.367,19.531,28.809,-53.223,0
215834.113,22.949,25.391,16.113,21.973,-62.500,0
215834.117,31.738,29.785,17.090,19.531,-65.430,0
215834.121,40.039,32.715,27.832,34.668,-39.551,0
215834.125,39.062,31.250,40.527,43.457,-12.207,0
215834.129,42.969,30.762,36.621,39.062,23.926,0
215834.133,44.434,36.133,25.391,41.504,51.270,0
215834.137,44.434,41.016,25.879,50.781,45.410,0
215834.141,41.504,36.621,30.273,42.480,10.254,0
215834.145,32.227,26.367,33.691,31.738,-8.301,0
215834.149,22.461,25.879,29.297,29.785,8.301,0
215834.152,25.879,26.367,28.809,38.086,-9.766,0
215834.156,28.809,16.602,32.227,41.992,-36.621,0
215834.160,28.320,12.207,23.438,35.156,-65.430,0
215834.164,33.691,22.461,26.367,30.273,-55.176,0
215834.168,38.574,33.691,28.809,31.250,13.672,0
215834.172,40.527,36.621,20.996,41.992,21.484,0
215834.176,42.969,34.668,24.414,50.293,7.324,0
215834.180,38.086,27.832,33.203,50.293,21.484,0
215834.184,38.086,29.785,41.016,50.293,-5.859,0
215834.188,42.480,29.785,35.645,47.363,-39.062,0
215834.192,33.691,24.414,21.484,43.457,-32.227,0
215834.195,31.738,25.391,28.809,39.062,12.695,0
215834.199,35.156,23.438,38.086,33.691,43.945,0
215834.203,35.645,22.461,32.227,37.109,39.062,0
215834.207,37.109,21.973,34.668,32.227,36.133,0
215834.211,36.133,23.926,34.668,30.762,51.270,0
215834.215,36.133,30.273,37.598,38.086,46.387,0
215834.219,35.645,33.203,40.527,36.621,17.578,0
215834.223,36.133,31.250,40.039,36.621,-7.324,0
215834.227,36.133,26.855,39.062,40.039,-15.625,0
215834.231,30.762,24.414,31.738,42.969,-11.230,0
215834.235,25.391,22.949,33.691,40.039,-25.391,0
215834.238,27.344,21.973,39.551,37.109,-12.695,0
215834.242,37.109,24.414,37.109,39.551,13.672,0
215834.246,45.898,27.832,30.273,41.992,16.602,0
215834.250,56.641,24.902,27.832,49.316,16.602,0
215834.254,64.941,24.902,29.785,65.918,17.090,0
215834.258,50.293,28.809,38.086,58.594,15.137,0
215834.262,35.156,26.367,41.992,33.691,34.180,0
215834.266,47.363,22.461,36.621,33.203,35.645,0
215834.270,49.805,14.160,34.180,39.062,56.152,0
215834.274,41.504,12.695,35.645,41.504,96.191,0
215834.277,46.387,22.461,36.621,44.922,65.430,0
215834.281,47.852,22.461,30.273,44.434,64.941,0
215834.285,45.898,20.508,23.926,45.898,92.285,0
215834.289,40.527,14.648,28.320,50.781,90.332,0
215834.293,39.062,4.883,20.508,49.805,37.109,0
215834.297,40.527,9.277,27.832,51.270,-12.695,0
215834.301,43.945,22.949,41.016,55.664,-3.418,0
215834.305,45.898,26.367,37.598,46.875,13.672,0
215834.309,42.480,23.926,35.645,41.504,50.293,0
215834.313,44.922,27.832,35.645,41.504,45.898,0
215834.317,52.734,32.227,35.156,40.527,24.902,0
215834.320,52.246,37.109,36.133,40.039,9.277,0
215834.324,44.434,31.250,34.668,44.434,45.898,0
215834.328,40.527,21.973,25.879,41.016,113.281,0
215834.332,41.016,21.484,26.367,36.621,94.727,0
215834.336,42.480,20.020,29.297,37.598,72.266,0
215834.340,41.504,18.066,30.762,27.832,53.711,0
215834.344,37.109,18.066,31.738,27.832,74.707,0
215834.348,39.062,24.902,33.203,36.621,73.242,0
215834.352,42.969,25.879,38.574,41.992,30.762,0
215834.356,37.598,20.508,28.809,32.227,6.348,0
215834.360,35.156,25.391,25.879,24.414,32.715,0
215834.363,33.203,26.855,30.273,28.809,98.145,0
215834.367,27.344,27.344,33.691,26.855,73.730,0
215834.371,30.762,31.250,29.297,27.344,33.691,0
215834.375,35.156,32.715,30.273,33.203,58.594,0
215834.379,33.203,26.855,33.203,37.598,68.848,0
215834.383,34.180,19.531,35.156,33.203,58.594,0
215834.387,26.367,17.090,42.480,24.902,51.758,0
215834.391,20.508,23.926,39.062,25.879,54.199,0
215834.395,32.227,32.715,32.715,38.086,65.918,0
215834.399,32.227,31.250,28.809,34.668,61.035,0
215834.402,25.879,22.461,27.344,38.574,35.645,0
215834.406,25.879,19.043,27.344,39.551,50.781,0
215834.410,22.949,22.461,30.273,19.531,23.926,0
215834.414,15.625,23.926,28.809,17.578,0.977,0
215834.418,19.043,25.879,27.832,30.762,4.395,0
215834.422,22.949,26.367,31.738,32.715,23.926,0
215834.426,23.926,29.785,33.691,29.297,19.043,0
215834.430,25.879,28.320,38.574,27.832,-32.715,0
215834.434,28.320,26.367,39.062,25.879,-20.996,0
215834.438,28.809,29.785,33.691,25.391,2.930,0
215834.442,21.484,28.320,26.367,25.879,30.273,0
215834.445,20.508,26.367,19.531,18.555,37.598,0
215834.449,30.762,31.250,20.996,24.902,8.789,0
215834.453,34.668,35.645,15.137,36.621,4.395,0
215834.457,34.180,33.203,18.066,28.809,-9.766,0
215834.461,36.621,24.414,31.250,27.344,-10.742,0
215834.465,39.062,34.668,33.691,44.434,-21.484,0
215834.469,37.598,46.875,36.621,44.434,-53.223,0
215834.473,29.297,33.203,37.109,17.090,-33.203,0
215834.477,34.180,23.438,32.227,19.043,-23.926,0
215834.481,35.645,28.809,34.180,36.621,-20.996,0
215834.485,24.414,34.668,36.621,32.715,-13.672,0
215834.488,18.555,39.551,35.645,14.648,-35.156,0
215834.492,22.949,40.039,34.668,15.137,-18.555,0
215834.496,27.832,39.551,37.109,31.738,4.883,0
215834.500,27.344,41.992,27.344,29.297,33.203,0
215834.504,31.250,39.551,22.949,18.555,34.668,0
215834.508,35.645,32.227,26.367,24.902,62.012,0
215834.512,36.133,33.203,21.973,40.527,61.035,0
215834.516,33.203,32.227,21.973,46.387,17.578,0
215834.520,21.973,19.043,31.250,36.621,15.137,0
215834.524,18.066,20.508,36.133,30.273,-2.930,0
215834.527,19.043,34.180,31.738,39.551,0.488,0
215834.531,19.043,41.016,37.598,38.574,26.367,0
215834.535,18.066,41.016,36.133,17.578,6.348,0
215834.539,19.043,38.086,30.273,17.090,-15.137,0
215834.543,15.625,33.691,27.344,19.531,21.973,0
215834.547,11.719,32.715,21.484,14.160,30.273,0
215834.551,18.555,31.738,18.066,18.066,23.926,0
215834.555,21.973,32.227,14.648,20.508,60.547,0
215834.559,23.926,31.738,19.531,29.297,73.730,0
215834.563,26.855,36.133,20.996,30.762,18.555,0
215834.567,30.273,37.109,22.461,19.043,1.953,0
215834.570,29.297,33.203,26.855,18.555,16.602,0
215834.574,25.879,33.203,20.020,19.531,1.953,0
215834.578,31.250,31.738,17.578,19.043,1.465,0
215834.582,35.645,36.621,24.902,20.508,5.371,0
215834.586,32.227,36.621,20.996,30.762,9.766,0
215834.590,37.109,23.926,20.020,36.133,14.160,0
215834.594,39.551,24.414,19.043,31.250,45.410,0
215834.598,41.504,36.621,13.184,38.086,53.711,0
215834.602,37.109,37.598,19.531,32.715,67.383,0
215834.606,30.273,29.297,27.832,27.344,97.656,0
215834.610,30.762,26.855,31.738,36.621,65.918,0
215834.613,34.180,31.738,33.691,37.598,69.336,0
215834.617,37.109,41.016,34.668,38.086,109.375,1
215834.621,37.598,39.062,35.156,41.504,75.684,0
215834.625,38.086,30.273,36.621,38.086,56.641,0
215834.629,31.738,30.273,38.086,32.227,74.707,0
215834.633,31.250,33.691,35.645,34.180,69.824,0
215834.637,41.016,41.504,26.367,39.062,53.223,0
215834.641,34.180,36.621,23.438,33.691,22.949,0
215834.645,25.391,27.832,37.598,30.273,33.691,0
215834.649,19.531,24.902,41.504,31.738,27.344,0
215834.652,22.949,25.391,41.992,34.668,0.000,0
215834.656,29.297,25.879,45.410,41.016,46.875,0
215834.660,27.344,21.484,43.457,39.551,69.336,0
215834.664,32.227,23.438,42.480,47.852,47.852,0
215834.668,34.180,27.344,37.598,51.270,27.344,0
215834.672,32.227,26.367,34.180,43.457,37.109,0
215834.676,34.668,21.973,39.551,45.898,63.477,0
215834.680,34.668,24.414,39.551,42.480,47.363,0
215834.684,37.598,28.809,37.598,40.039,18.066,0
215834.688,43.457,27.344,37.109,43.945,46.875,0
215834.692,40.039,28.320,32.715,37.109,77.637,0
215834.695,32.715,31.738,24.902,24.414,47.852,0
215834.699,24.902,27.832,29.785,19.043,14.160,0
215834.703,22.949,20.996,34.180,21.973,-37.109,0
215834.707,26.367,24.902,32.227,19.531,-15.625,0
215834.711,28.809,36.133,32.227,20.020,49.316,0
215834.715,30.762,33.691,24.414,28.809,34.668,0
215834.719,33.203,28.809,22.461,25.879,-16.113,0
215834.723,36.133,34.180,31.250,24.414,-3.418,0
215834.727,29.297,38.086,31.738,23.926,48.340,0
215834.731,25.391,37.598,28.320,18.555,58.105,0
215834.735,34.668,36.621,27.832,24.902,58.594,0
215834.738,39.551,33.203,28.809,32.715,42.480,0
215834.742,35.645,31.250,23.438,27.832,9.766,0
215834.746,35.645,37.109,16.113,20.996,34.180,0
215834.750,42.969,40.039,24.902,30.273,67.871,0
215834.754,49.316,38.574,30.762,34.668,24.902,0
215834.758,47.363,36.133,17.090,32.715,-14.160,0
215834.762,42.480,33.691,15.625,33.691,-5.859,0
215834.766,41.992,35.645,29.297,41.992,-12.207,0
215834.770,44.922,43.457,33.203,44.922,24.902,0
215834.774,45.898,41.992,33.691,35.645,42.969,0
215834.777,36.133,36.133,27.832,27.344,37.109,0
215834.781,32.227,35.156,27.832,24.902,70.801,0
215834.785,37.598,29.297,30.273,32.227,47.363,0
215834.789,42.969,33.691,26.855,36.133,-17.578,0
215834.793,40.039,41.016,29.785,29.297,22.949,0
215834.797,27.832,38.086,33.203,20.020,71.777,0
215834.801,26.367,35.156,31.250,16.602,5.859,0
215834.805,31.250,36.133,26.855,20.020,11.719,0
215834.809,38.086,44.922,22.461,30.273,10.742,0
215834.813,40.527,47.852,24.902,34.180,-13.184,0
215834.817,37.598,39.062,30.762,30.762,28.809,0
215834.820,36.621,30.762,27.832,25.391,44.434,0
215834.824,30.273,31.738,34.180,21.973,47.363,0
215834.828,29.785,35.156,36.621,23.926,48.828,0
215834.832,24.902,28.320,27.344,18.066,38.086,0
215834.836,27.832,29.297,26.855,16.602,34.668,0
215834.840,29.297,37.109,28.320,19.043,42.969,0
215834.844,23.926,30.762,27.832,20.508,79.590,0
215834.848,35.156,27.344,24.902,23.438,86.914,0
215834.852,35.156,28.809,25.879,29.297,47.852,0
215834.856,21.973,27.832,25.391,38.086,42.480,0
215834.860,18.555,25.879,17.578,33.203,53.223,0
215834.863,25.879,26.367,21.484,19.043,28.809,0
215834.867,24.414,26.367,31.738,10.742,-27.832,0
215834.871,22.461,24.414,35.645,19.531,-17.090,0
215834.875,25.391,23.438,33.203,25.391,36.133,0
215834.879,25.391,24.414,30.762,22.949,8.301,0
215834.883,23.926,26.367,38.086,23.926,-3.418,0
215834.887,25.879,27.344,43.945,29.785,53.223,0
215834.891,28.809,27.832,39.551,34.180,25.879,0
215834.895,27.832,27.832,37.109,38.086,26.855,0
215834.899,33.203,27.832,36.621,40.039,74.707,0
215834.902,27.832,23.926,32.715,30.762,57.129,0
215834.906,20.020,20.508,29.785,25.391,32.227,0
215834.910,29.785,28.320,31.738,22.949,38.086,0
215834.914,35.645,35.645,33.691,22.461,57.617,0
215834.918,31.738,37.109,35.645,34.180,61.035,0
215834.922,28.809,35.156,34.668,30.273,80.078,0
215834.926,23.438,30.762,25.879,13.184,74.219,0
215834.930,22.949,26.855,20.508,16.113,98.145,0
215834.934,24.902,25.391,23.438,18.555,99.121,0
215834.938,23.438,28.809,28.809,11.230,64.941,0
215834.942,32.227,35.645,32.227,15.137,28.809,0
215834.945,32.715,38.086,33.691,15.625,18.066,0
215834.949,29.297,35.156,28.320,11.719,35.156,0
215834.953,31.250,37.109,28.320,16.113,-6.348,0
215834.957,31.250,40.039,33.691,17.090,-33.203,0
215834.961,34.180,40.527,33.691,24.902,21.484,0
215834.965,33.203,37.109,31.250,33.691,20.020,0
215834.969,31.250,36.133,30.762,23.438,-7.324,0
215834.973,29.785,38.086,29.297,12.695,18.555,0
215834.977,31.738,38.574,26.855,18.555,39.062,0
215834.981,34.180,37.109,25.879,20.508,37.598,0
215834.985,23.438,32.227,22.461,9.277,16.113,0
215834.988,17.578,30.273,21.973,4.883,50.781,0
215834.992,25.879,32.715,24.902,14.648,77.637,0
215834.996,34.180,35.156,31.738,27.832,22.461,0
215835.000,34.668,37.598,34.180,25.879,8.789,0
215835.004,16.602,37.109,35.645,6.348,5.859,0
215835.008,0.977,35.645,33.691,-5.371,15.625,0
215835.012,6.348,38.574,28.320,-0.488,17.090,0
215835.016,7.812,40.527,25.391,4.883,12.695,0
215835.020,-0.977,38.574,22.949,2.930,22.949,0
215835.024,-9.766,35.156,20.508,-6.836,23.438,0
215835.027,-12.207,33.691,27.832,-5.859,32.715,0
215835.031,-12.695,30.762,33.203,-9.277,58.594,0
215835.035,-14.648,34.180,36.133,-13.672,72.754,0
215835.039,-8.301,31.738,34.180,-3.906,62.988,0
215835.043,-2.441,34.180,28.809,-3.418,23.926,0
215835.047,-5.371,37.109,28.809,2.441,6.836,0
215835.051,-5.371,21.484,31.738,20.996,1.465,0
215835.055,9.277,29.785,29.785,20.996,-8.789,0
215835.059,13.672,41.992,24.414,6.836,-4.395,0
215835.063,8.789,39.062,25.879,6.348,-9.766,0
215835.067,10.742,36.621,30.762,12.207,15.625,0
215835.070,8.789,34.180,27.832,10.742,25.391,0
215835.074,14.160,36.133,30.273,19.043,-2.441,0
215835.078,26.855,36.133,26.855,29.785,17.090,0
215835.082,30.762,31.250,20.996,32.715,34.180,0
215835.086,29.785,30.762,20.996,29.297,16.113,0
215835.090,37.598,38.086,21.973,37.109,-4.395,0
215835.094,41.016,42.969,26.367,41.504,0.977,0
215835.098,38.086,38.086,27.832,33.203,21.484,0
215835.102,32.227,33.691,26.855,29.297,10.742,0
215835.106,30.273,30.762,23.438,25.391,-4.395,0
215835.110,32.227,30.273,26.367,29.785,9.766,0
215835.113,28.809,33.691,35.645,36.133,24.414,0
215835.117,30.273,35.156,41.992,41.504,35.156,0
215835.121,39.551,35.156,40.527,44.922,63.965,0
215835.125,41.992,34.668,29.785,38.574,28.809,0
215835.129,37.109,30.273,24.414,37.109,21.973,0
215835.133,38.574,29.297,23.438,43.945,40.039,0
215835.137,35.645,30.762,27.832,43.457,16.602,0
215835.141,29.785,22.949,33.691,37.598,28.809,0
215835.145,30.762,18.555,37.109,40.039,62.988,0
215835.149,32.227,19.531,31.738,33.691,68.359,0
215835.152,35.645,18.555,25.879,30.273,29.785,0
215835.156,39.551,18.555,26.855,41.016,4.395,0
215835.160,37.598,22.949,25.879,53.223,0.977,0
215835.164,33.691,28.809,22.461,54.688,-27.344,0
215835.168,35.156,22.949,30.273,50.293,-49.316,0
215835.172,37.109,19.043,38.086,56.152,-52.734,0
215835.176,45.410,26.367,44.922,61.035,-66.406,0
215835.180,45.898,21.973,38.086,47.852,-58.594,0
215835.184,47.363,20.508,25.391,42.480,-24.414,0
215835.188,55.664,28.809,28.809,52.246,-10.742,0
215835.192,47.852,26.855,29.297,49.805,-3.418,0
215835.195,43.945,23.438,32.227,39.551,-40.527,0
215835.199,44.922,23.438,35.156,43.457,-66.406,0
215835.203,44.922,19.043,36.621,48.828,-6.348,0
215835.207,44.434,17.090,39.062,44.922,7.812,0
215835.211,45.898,23.926,35.645,52.246,15.625,0
215835.215,48.340,26.367,29.297,59.082,-1.953,0
215835.219,39.062,20.020,27.832,52.734,-23.438,0
215835.223,39.551,20.508,30.273,57.617,-5.371,0
215835.227,42.480,25.879,27.344,60.547,-3.418,0
215835.231,36.133,24.902,19.531,47.363,10.254,0
215835.235,34.180,25.391,30.273,37.109,14.648,0
215835.238,34.668,28.320,39.062,29.297,-23.438,0
215835.242,38.086,28.320,33.691,27.832,-62.012,0
215835.246,42.480,30.762,32.715,48.828,-21.973,0
215835.250,43.945,30.273,26.855,48.828,33.691,0
215835.254,42.480,27.344,22.461,32.227,41.016,0
215835.258,42.480,27.344,27.832,33.691,54.199,0
215835.262,39.062,26.855,28.320,35.645,48.340,0
215835.266,40.527,30.762,28.809,40.527,47.363,0
215835.270,49.316,38.574,30.273,41.016,20.508,0
215835.274,45.898,35.645,28.320,34.180,-15.137,0
215835.277,46.387,30.762,34.180,33.691,-7.324,0
215835.281,47.852,36.621,29.785,37.598,0.488,0
215835.285,46.387,41.992,19.531,34.668,1.953,0
215835.289,41.992,39.551,22.461,31.250,12.695,0
215835.293,35.645,29.785,26.855,30.762,20.996,0
215835.297,37.109,27.832,31.738,27.344,2.441,0
215835.301,38.086,31.738,34.668,24.414,-1.953,0
215835.305,37.598,29.785,33.203,26.367,17.090,0
215835.309,36.133,32.227,34.180,32.227,52.734,0
215835.313,35.645,34.180,26.855,29.785,47.363,0
215835.317,34.668,27.344,19.043,27.344,64.941,0
215835.320,38.086,23.926,24.414,29.785,88.867,0
215835.324,38.086,22.949,36.133,34.180,39.551,0
215835.328,31.738,21.484,35.645,41.016,20.508,0
215835.332,35.645,26.367,27.832,33.691,15.137,0
215835.336,42.969,28.320,31.250,36.133,27.344,0
215835.340,41.992,25.879,37.109,43.945,31.738,0
215835.344,37.598,26.367,34.180,39.551,20.996,2
215835.348,35.156,26.367,26.855,36.621,23.926,0
215835.352,37.598,25.391,33.203,38.574,22.949,0
215835.356,42.480,29.297,43.457,39.062,33.203,0
215835.360,41.992,28.320,47.363,37.598,32.715,0
215835.363,41.016,27.832,43.945,44.434,30.762,0
215835.367,41.016,31.738,39.551,50.293,50.293,0
215835.371,43.945,30.273,43.945,38.574,28.809,0
215835.375,41.016,30.273,39.551,27.832,60.059,0
215835.379,36.133,35.156,29.297,32.227,110.840,0
215835.383,35.156,33.203,29.785,41.504,87.891,0
215835.387,30.762,29.297,34.180,38.574,63.965,0
215835.391,34.180,27.832,38.086,32.227,30.273,0
215835.395,31.250,21.973,36.621,30.762,48.340,0
215835.399,30.273,22.949,32.227,35.645,101.562,0
215835.402,37.109,28.320,35.156,33.691,96.680,0
215835.406,36.621,31.738,37.109,21.973,50.781,0
215835.410,38.086,32.227,36.133,28.809,42.969,0
215835.414,42.480,29.785,30.273,32.227,67.383,0
215835.418,39.062,32.227,23.438,20.020,53.711,0
215835.422,41.016,39.062,34.180,24.414,41.992,0
215835.426,50.293,38.086,46.875,39.551,49.805,0
215835.430,44.434,31.250,39.551,41.504,77.637,0
215835.434,40.527,33.691,27.344,39.551,79.590,0
215835.438,42.969,40.527,32.227,36.621,56.641,0
215835.442,33.691,39.551,34.668,27.832,70.312,0
215835.445,31.738,40.039,29.785,29.297,77.148,0
215835.449,34.180,40.039,28.809,31.250,38.086,0
215835.453,28.809,33.203,32.715,25.879,37.109,0
215835.457,30.762,28.320,31.738,33.203,56.641,0
215835.461,33.691,31.250,27.344,38.574,36.133,0
215835.465,33.203,34.668,27.344,39.062,43.457,0
215835.469,37.109,32.715,24.414,37.598,17.090,0
215835.473,37.109,32.227,26.367,36.621,-15.137,0
215835.477,28.809,29.297,27.832,37.109,-8.301,0
215835.481,29.297,24.902,29.785,24.902,-30.762,0
215835.485,28.320,24.902,40.039,21.484,-51.758,0
215835.488,27.344,27.344,38.086,37.109,4.883,0
215835.492,34.668,30.273,30.762,34.668,-7.812,0
215835.496,35.156,24.414,33.203,32.715,-18.066,0
215835.500,35.645,26.855,37.598,30.273,1.953,0
215835.504,40.527,36.133,39.551,28.809,-55.176,0
215835.508,32.227,32.227,33.203,31.738,-65.918,0
215835.512,25.879,26.855,30.762,32.715,-38.086,0
215835.516,29.297,25.879,36.133,35.156,4.883,0
215835.520,34.668,31.738,38.086,34.180,11.230,0
215835.524,32.227,38.574,30.762,31.738,-22.461,0
215835.527,26.855,35.645,20.996,33.203,4.395,0
215835.531,31.738,22.461,24.902,41.992,32.227,0
215835.535,39.062,21.484,39.062,49.316,52.734,0
215835.539,34.668,30.762,42.969,45.898,35.645,0
215835.543,30.273,30.273,33.691,43.945,42.480,0
215835.547,39.062,32.227,34.668,41.992,83.984,0
215835.551,38.574,35.645,42.480,32.715,56.641,0
215835.555,26.855,33.691,33.691,26.855,53.223,0
215835.559,22.461,33.691,30.273,26.367,35.645,0
215835.563,29.297,36.133,34.180,40.039,40.527,0
215835.567,38.574,37.109,32.715,42.480,61.523,0
215835.570,31.250,30.273,29.297,21.973,17.578,0
215835.574,28.809,24.414,33.203,23.926,28.809,0
215835.578,41.992,29.297,42.480,43.457,48.340,0
215835.582,32.227,29.297,38.574,37.109,57.129,0
215835.586,12.207,24.414,32.227,15.137,78.613,0
215835.590,15.625,25.879,30.273,20.508,77.637,0
215835.594,23.438,32.715,28.320,32.715,106.934,0
215835.598,22.949,30.762,33.691,29.297,133.301,0
215835.602,25.879,23.438,31.250,32.715,123.047,0
215835.606,32.715,32.715,29.297,35.645,88.867,0
215835.610,24.902,38.574,31.738,20.996,63.477,0
215835.613,20.020,33.203,30.762,19.043,33.691,0
215835.617,28.809,36.133,33.691,28.809,-10.254,0
215835.621,33.691,41.504,34.668,31.738,14.648,0
215835.625,37.109,39.062,26.855,31.738,41.992,0
215835.629,44.922,38.574,18.555,36.133,35.645,0
215835.633,45.410,36.133,22.949,45.898,26.367,0
215835.637,39.551,35.156,30.273,42.480,29.785,0
215835.641,44.922,38.574,27.832,37.598,46.875,0
215835.645,38.574,31.250,19.043,40.039,22.461,0
215835.649,26.367,29.297,18.555,28.320,8.789,0
215835.652,35.645,30.762,30.762,25.391,-11.230,0
215835.656,42.969,26.855,42.969,36.133,-39.551,0
215835.660,46.387,28.320,40.527,42.480,-41.992,0
215835.664,46.875,31.250,37.109,46.387,-24.414,0
215835.668,44.434,29.785,40.527,43.945,24.902,0
215835.672,46.875,29.297,44.434,49.805,32.715,0
215835.676,50.293,32.715,47.363,61.523,28.809,0
215835.680,48.340,30.762,47.852,52.246,47.363,0
215835.684,45.898,29.297,40.039,42.480,34.180,0
215835.688,40.039,31.250,35.156,42.969,35.156,0
215835.692,39.551,24.902,45.410,45.410,28.320,0
215835.695,45.410,22.949,41.992,45.898,20.508,0
215835.699,42.969,27.832,31.250,44.922,33.691,0
215835.703,42.480,28.809,37.109,45.898,41.504,0
215835.707,41.504,29.297,45.410,41.992,26.367,0
215835.711,45.898,29.297,47.852,48.828,41.016,0
215835.715,44.922,26.855,43.945,49.316,49.805,0
215835.719,42.969,29.785,42.480,39.551,18.066,0
215835.723,40.527,33.691,40.039,41.504,31.250,0
215835.727,33.691,30.762,38.574,48.340,64.941,0
215835.731,34.668,21.973,41.016,43.945,38.574,0
215835.735,28.320,21.973,41.016,34.180,26.367,0
215835.738,22.461,25.391,37.598,22.461,54.688,0
215835.742,26.367,22.461,34.668,24.902,45.898,0
215835.746,32.227,25.879,37.598,29.297,-0.977,0
215835.750,28.809,30.762,41.992,19.043,-64.453,0
215835.754,23.438,30.273,49.316,24.414,-31.738,0
215835.758,33.691,34.668,44.434,45.410,34.668,0
215835.762,34.180,34.180,27.344,40.039,30.273,0
215835.766,29.297,29.297,27.832,25.391,58.105,0
215835.770,32.715,26.367,35.156,25.879,38.574,0
215835.774,35.645,28.320,32.715,25.391,30.762,0
215835.777,37.109,26.855,33.691,24.414,65.430,0
215835.781,37.109,17.090,35.156,27.832,42.480,0
215835.785,38.574,19.043,36.133,26.367,62.988,0
215835.789,39.062,27.832,33.691,26.367,80.078,0
215835.793,39.062,29.785,27.832,29.297,61.035,0
215835.797,37.598,27.832,26.855,32.715,84.961,0
215835.801,39.551,33.691,25.391,40.527,102.539,0
215835.805,41.992,39.551,24.902,47.852,106.934,0
215835.809,41.992,38.086,29.297,33.203,77.148,0
215835.813,40.039,35.156,32.227,20.508,46.875,0
215835.817,38.574,35.156,32.227,32.227,57.617,0
215835.820,39.062,33.691,27.832,34.668,69.824,0
215835.824,40.039,32.227,27.344,33.691,66.406,0
215835.828,39.062,31.738,26.855,31.738,46.875,0
215835.832,34.180,33.203,27.832,25.391,29.785,0
215835.836,34.180,30.762,27.832,21.973,37.598,0
215835.840,36.133,26.855,24.902,25.391,43.945,0
215835.844,31.738,32.715,32.715,27.832,21.484,0
215835.848,25.391,27.832,36.133,20.020,41.992,0
215835.852,26.367,19.531,37.109,26.367,63.965,0
215835.856,38.086,26.855,33.691,38.574,47.852,0
215835.860,40.527,28.809,29.785,38.574,15.625,0
215835.863,33.691,22.461,35.645,36.133,13.672,0
215835.867,35.645,29.297,40.527,37.598,9.277,0
215835.871,38.086,31.738,34.180,39.551,-26.367,0
215835.875,34.180,22.461,27.832,37.109,-11.719,0
215835.879,33.203,19.531,33.203,40.527,34.180,0
215835.883,33.203,19.531,36.621,37.598,0.488,0
215835.887,33.203,21.973,34.668,35.645,-32.715,0
215835.891,29.785,22.461,34.180,35.156,-21.973,0
215835.895,27.344,20.508,33.203,34.180,-14.160,0
215835.899,36.621,28.320,23.438,32.715,-3.418,1
215835.902,41.016,32.715,23.926,31.738,-15.625,0
215835.906,27.832,26.855,28.809,39.062,-21.973,0
215835.910,22.949,26.367,30.273,39.062,-5.371,0
215835.914,25.391,30.273,40.039,26.855,-14.160,0
215835.918,20.020,30.762,38.574,18.066,30.762,0
215835.922,17.578,26.367,28.809,22.949,37.109,0
215835.926,12.695,20.508,28.320,20.020,11.719,0
215835.930,18.066,23.926,31.738,22.461,9.766,0
215835.934,28.320,22.949,37.109,29.785,-2.441,0
215835.938,31.250,27.344,37.598,30.273,0.488,0
215835.942,41.992,41.504,37.598,42.480,-24.902,0
215835.945,40.527,38.086,31.738,43.457,-64.941,0
215835.949,33.203,27.832,28.320,35.645,-78.125,0
215835.953,32.715,25.879,29.785,29.297,-68.359,0
215835.957,30.273,27.832,27.344,23.926,-48.828,0
215835.961,28.320,28.809,26.367,25.391,4.883,0
215835.965,31.250,26.367,31.250,28.320,50.781,0
215835.969,36.133,27.832,35.645,26.855,41.016,0
215835.973,41.016,30.273,36.621,25.391,29.297,0
215835.977,47.363,32.715,30.273,33.691,63.965,0
215835.981,50.293,33.203,27.832,47.852,73.242,0
215835.985,45.898,27.344,39.062,41.992,62.988,0
215835.988,41.016,27.344,41.504,31.738,54.199,0
215835.992,42.480,32.227,40.527,35.156,37.598,0
215835.996,37.109,25.391,44.434,34.668,54.199,0
215836.000,30.762,19.531,42.969,32.227,84.473,0
215836.004,28.320,21.973,34.180,33.203,72.266,0
215836.008,25.391,21.484,33.691,32.715,58.594,0
215836.012,23.438,22.461,39.062,34.668,70.801,0
215836.016,21.973,27.344,38.086,39.062,53.711,0
215836.020,21.973,28.320,29.785,37.109,23.438,0
215836.024,26.367,26.855,31.250,29.297,17.578,0
215836.027,33.691,28.809,42.969,31.250,66.406,0
215836.031,29.785,30.273,40.039,30.762,49.316,0
215836.035,16.602,28.809,34.668,19.531,-0.977,0
215836.039,16.602,20.020,41.992,20.020,30.273,0
215836.043,27.344,20.508,41.992,28.320,60.547,0
215836.047,25.391,27.344,31.250,23.926,38.574,0
215836.051,17.090,25.391,22.461,20.020,1.953,0
215836.055,27.344,29.297,26.855,32.227,51.270,0
215836.059,39.551,34.180,28.320,40.039,105.469,0
215836.063,32.227,25.879,25.391,32.227,71.777,0
215836.067,29.785,21.484,27.344,26.855,60.547,0
215836.070,34.668,27.344,33.691,29.297,102.051,0
215836.074,32.715,29.297,40.527,31.250,90.820,0
215836.078,33.203,24.902,39.551,28.809,29.785,0
215836.082,29.785,21.973,36.133,18.066,25.391,0
215836.086,28.320,22.461,31.738,21.484,20.508,0
215836.090,29.785,21.484,22.949,27.832,25.879,0
215836.094,34.180,24.414,20.508,28.320,19.531,0
215836.098,36.621,28.320,31.738,35.156,28.320,0
215836.102,26.855,24.414,37.598,33.691,69.824,0
215836.106,29.785,26.367,33.691,33.691,62.988,0
215836.110,38.086,33.691,34.180,36.621,59.082,0
215836.113,34.668,24.414,33.691,30.273,65.918,0
215836.117,41.016,19.531,30.273,33.203,13.672,0
215836.121,47.363,28.809,33.203,39.062,2.441,0
215836.125,28.320,25.391,40.039,20.508,-5.859,0
215836.129,15.137,27.832,43.945,19.043,-8.301,0
215836.133,19.531,30.273,42.969,33.691,69.336,0
215836.137,24.414,30.762,40.527,34.180,38.574,0
215836.141,30.273,35.156,41.016,38.086,43.945,0
215836.145,31.250,34.180,30.273,40.039,58.594,0
215836.149,34.668,26.367,23.438,36.621,40.039,0
215836.152,38.574,13.672,32.227,25.391,40.527,0
215836.156,32.227,16.602,36.133,31.738,25.391,0
215836.160,34.180,33.203,38.086,45.898,31.250,0
215836.164,38.574,35.645,42.969,41.016,28.809,0
215836.168,32.715,28.809,41.992,31.250,17.090,0
215836.172,29.297,24.414,34.668,28.320,-4.395,0
215836.176,30.762,24.902,34.180,33.691,36.621,0
215836.180,36.621,31.738,37.109,37.598,63.965,0
215836.184,33.203,31.250,36.621,36.133,33.691,0
215836.188,28.809,25.879,35.645,32.715,-2.930,0
215836.192,34.180,30.273,32.227,39.062,-22.461,0
215836.195,34.668,28.809,34.668,39.062,38.574,0
215836.199,38.574,35.156,42.480,41.016,53.223,0
215836.203,39.551,37.598,41.504,51.270,42.480,0
215836.207,27.832,26.855,37.598,37.598,71.777,0
215836.211,28.809,29.785,36.621,34.668,56.641,0
215836.215,34.180,38.086,38.574,41.504,-3.906,0
215836.219,32.227,34.180,42.969,28.809,-33.203,0
215836.223,28.320,24.902,38.574,22.949,14.648,0
215836.227,26.367,24.414,33.203,22.949,28.809,0
215836.231,30.273,26.855,39.062,16.602,7.812,0
215836.235,37.598,36.621,43.945,30.762,42.969,0
215836.238,35.645,41.504,40.039,36.621,93.262,0
215836.242,28.809,32.227,32.715,26.367,76.660,0
215836.246,31.250,30.273,39.062,30.273,17.578,0
215836.250,34.668,33.691,38.086,36.133,23.926,0
215836.254,36.133,32.715,31.738,33.203,47.852,0
215836.258,39.062,34.180,26.367,31.738,22.461,0
215836.262,39.062,37.109,20.020,35.156,-8.301,0
215836.266,35.645,37.109,26.367,31.250,-10.254,0
215836.270,30.273,29.297,29.785,27.344,-0.977,0
215836.274,32.227,25.879,27.832,25.391,-28.320,0
215836.277,33.203,31.250,28.809,28.809,-9.277,0
215836.281,31.250,29.297,38.086,39.062,53.711,0
215836.285,35.645,30.762,46.875,32.227,20.508,0
215836.289,37.598,32.715,42.969,24.414,-5.859,0
215836.293,27.344,26.855,35.645,25.391,17.578,0
215836.297,20.996,26.855,33.691,28.320,52.246,0
215836.301,28.809,30.762,34.668,32.227,62.988,0
215836.305,27.832,31.738,24.414,28.809,5.859,0
215836.309,26.855,30.273,18.555,23.926,-19.531,0
215836.313,30.273,29.297,30.762,26.855,32.227,0
215836.317,27.344,31.738,34.180,29.785,48.828,0
215836.320,24.414,31.738,25.391,22.949,27.832,0
215836.324,30.762,32.227,18.066,25.879,54.199,0
215836.328,30.273,32.227,26.367,33.691,89.844,0
215836.332,27.832,29.297,37.598,34.668,62.500,0
215836.336,35.156,26.367,35.645,39.551,31.738,0
215836.340,33.203,19.043,26.367,36.133,31.250,0
215836.344,26.855,19.531,30.273,21.484,18.066,0
215836.348,29.297,26.367,30.762,21.973,15.625,0
215836.352,27.344,28.809,29.297,25.391,21.484,0
215836.356,24.902,30.762,36.133,23.926,24.902,0
215836.360,33.203,37.109,36.133,31.738,51.758,0
215836.363,39.062,37.598,28.320,24.902,35.156,0
215836.367,35.156,34.668,34.668,20.020,43.457,0
215836.371,28.320,31.738,35.156,26.367,77.637,0
215836.375,31.250,26.855,21.973,28.320,67.871,0
215836.379,38.574,29.785,25.391,30.273,36.133,0
215836.383,30.273,31.250,35.645,27.832,6.836,0
215836.387,25.391,25.879,43.457,36.621,10.254,0
215836.391,32.227,26.855,36.621,38.086,16.113,0
215836.395,34.180,33.691,18.066,32.715,0.488,0
215836.399,32.227,36.133,22.461,30.273,3.906,0
215836.402,37.109,42.480,34.180,28.320,26.367,0
215836.406,43.457,45.898,34.180,37.109,18.066,0
215836.410,37.598,35.156,29.297,31.250,-0.977,0
215836.414,30.762,33.203,30.762,23.926,25.879,0
215836.418,33.203,35.156,37.109,34.668,66.406,0
215836.422,29.297,27.344,34.668,32.227,37.109,0
215836.426,23.926,20.996,36.133,31.250,18.066,0
215836.430,25.879,19.531,38.574,32.715,20.508,0
215836.434,30.762,20.996,39.551,30.273,16.113,0
215836.438,35.645,23.926,37.598,31.738,28.320,0
215836.442,35.156,29.785,37.109,35.156,37.598,0
215836.445,37.598,38.574,35.645,42.969,32.227,0
215836.449,39.062,38.574,28.809,40.039,7.324,0
215836.453,25.391,26.855,30.762,17.090,-14.160,0
215836.457,19.043,20.996,32.227,11.230,-28.809,0
215836.461,30.273,19.531,29.785,24.414,34.668,0
215836.465,40.527,15.625,24.414,27.832,48.340,0
215836.469,31.250,17.578,26.367,26.855,32.715,0
215836.473,18.555,23.926,33.203,25.879,48.828,0
215836.477,22.461,25.879,33.691,27.832,46.387,0
215836.481,26.367,30.762,37.109,27.344,32.715,0
215836.485,28.809,39.062,44.434,34.180,20.996,0
215836.488,29.785,37.598,44.922,39.551,17.578,0
215836.492,26.367,34.180,37.598,32.715,24.902,0
215836.496,22.949,25.391,28.809,23.438,31.738,0
215836.500,29.785,26.367,28.809,29.785,-11.719,0
215836.504,31.250,30.273,34.180,41.504,15.137,0
215836.508,20.020,24.414,38.574,37.598,27.832,0
215836.512,23.438,24.902,40.039,31.250,9.766,0
215836.516,35.156,28.809,31.250,24.902,33.203,0
215836.520,35.645,24.902,22.949,25.391,36.621,0
215836.524,33.203,21.973,31.250,24.414,48.340,0
215836.527,24.902,20.996,34.668,16.113,70.312,0
215836.531,16.602,24.414,27.832,14.648,42.969,0
215836.535,17.578,24.902,31.250,16.602,26.855,0
215836.539,15.137,18.555,34.668,15.625,24.414,0
215836.543,17.090,24.902,31.250,18.555,13.672,0
215836.547,23.926,32.715,31.738,23.438,19.531,0
215836.551,28.809,29.297,27.832,31.738,34.668,2
215836.555,33.203,25.879,30.273,32.715,24.902,0
215836.559,39.062,29.785,38.086,30.762,22.949,0
215836.563,42.969,37.598,36.621,34.180,45.410,0
215836.567,37.598,34.180,34.180,32.227,46.387,0
215836.570,33.203,30.273,31.738,41.992,44.434,0
215836.574,35.645,31.738,26.855,46.875,27.832,0
215836.578,32.227,32.227,17.578,30.273,13.672,0
215836.582,34.668,32.227,26.855,30.762,17.578,0
215836.586,39.551,34.180,43.457,38.086,52.734,0
215836.590,37.598,37.109,40.039,35.645,70.312,0
215836.594,40.039,40.039,35.645,40.039,79.102,0
215836.598,38.086,36.621,39.062,40.039,66.406,0
215836.602,27.832,32.227,36.621,33.203,53.711,0
215836.606,28.320,28.809,40.039,32.227,53.223,0
215836.610,32.227,25.391,45.898,36.133,47.852,0
215836.613,27.344,26.367,36.133,29.785,49.316,0
215836.617,24.902,28.320,25.391,24.902,65.918,0
215836.621,30.762,30.273,25.391,32.715,67.383,0
215836.625,34.668,33.203,35.156,38.574,67.871,0
215836.629,38.086,29.785,38.574,39.551,80.078,0
215836.633,40.039,26.367,35.156,49.316,57.617,0
215836.637,43.457,33.203,39.551,48.340,11.230,0
215836.641,40.039,31.250,37.598,33.203,9.277,0
215836.645,36.133,26.855,39.062,36.133,63.965,0
215836.649,40.039,28.809,47.852,33.203,40.039,0
215836.652,34.180,25.879,43.457,16.113,11.719,0
215836.656,31.738,20.508,40.039,17.090,56.152,0
215836.660,32.227,24.414,41.016,22.461,54.199,0
215836.664,28.809,29.297,42.480,24.902,58.105,0
215836.668,31.738,29.297,37.598,32.715,61.523,0
215836.672,36.133,32.715,23.926,41.016,57.617,0
215836.676,37.109,34.180,25.391,40.527,35.156,0
215836.680,34.180,25.879,32.715,35.645,24.902,0
215836.684,35.156,26.367,39.062,41.992,56.152,0
215836.688,33.691,31.250,45.898,34.180,52.246,0
215836.692,31.738,25.391,36.621,27.344,28.809,0
215836.695,34.180,25.391,27.344,26.855,6.348,0
215836.699,28.809,31.738,36.133,31.738,6.348,0
215836.703,21.973,27.344,38.086,31.250,26.855,0
215836.707,19.531,22.461,31.738,19.043,29.785,0
215836.711,21.484,24.414,28.320,27.832,4.883,0
215836.715,22.949,25.879,29.785,28.809,-19.043,0
215836.719,23.926,24.414,30.273,28.320,21.973,0
215836.723,27.832,23.438,30.762,30.273,4.395,0
215836.727,23.438,24.902,36.621,29.785,0.000,0
215836.731,19.043,25.391,36.133,36.133,16.113,0
215836.735,21.484,29.785,40.527,28.809,-7.812,0
215836.738,29.297,31.738,40.039,21.484,2.930,0
215836.742,34.180,31.250,33.203,26.367,8.789,0
215836.746,35.645,36.621,34.180,31.250,44.922,0
215836.750,39.551,38.574,30.762,34.668,82.031,0
215836.754,42.969,40.039,19.043,36.621,71.777,0
215836.758,38.574,42.969,17.090,37.598,49.316,0
215836.762,38.086,40.039,24.902,36.133,60.059,0
215836.766,40.039,39.062,27.832,39.551,65.430,0
215836.770,37.598,35.645,28.809,36.621,46.875,0
215836.774,38.574,27.832,35.645,34.180,41.992,0
215836.777,41.992,26.855,38.574,38.086,31.738,0
215836.781,46.875,33.203,33.691,42.480,18.555,0
215836.785,38.574,33.691,31.738,32.227,-3.906,0
215836.789,26.367,30.762,27.832,19.043,4.883,0
215836.793,31.738,32.227,28.809,26.367,21.973,0
215836.797,40.039,35.156,26.855,36.133,9.277,0
215836.801,38.086,34.180,24.414,27.832,17.090,0
215836.805,33.691,31.738,26.855,25.391,28.809,0
215836.809,36.621,33.203,23.438,37.109,35.645,0
215836.813,41.016,38.086,24.414,41.504,23.438,0
215836.817,45.410,39.062,35.645,54.688,-1.953,0
215836.820,40.527,33.203,40.039,57.129,-16.113,0
215836.824,28.809,24.414,37.109,38.574,-25.879,0
215836.828,28.320,23.438,31.738,32.715,-43.945,0
215836.832,31.738,28.320,30.273,35.645,-16.113,0
215836.836,28.320,28.320,41.992,32.227,15.625,0
215836.840,25.879,25.879,46.875,33.691,38.086,0
215836.844,28.320,28.809,41.992,28.809,47.363,0
215836.848,29.785,31.738,38.574,27.344,15.625,0
215836.852,24.902,32.715,36.133,34.668,12.207,0
215836.856,20.996,27.344,31.738,33.203,3.418,0
215836.860,15.137,24.902,36.133,25.879,17.578,0
215836.863,15.625,26.855,36.621,25.391,9.277,0
215836.867,28.320,29.785,31.250,36.621,7.812,0
215836.871,37.109,35.156,32.715,35.156,29.785,0
215836.875,31.250,32.227,26.855,20.020,24.414,0
215836.879,29.785,32.227,27.832,25.391,21.973,0
215836.883,41.504,35.156,31.738,41.992,41.992,0
215836.887,43.945,33.203,29.297,34.180,40.039,0
215836.891,49.316,35.645,37.598,26.855,41.016,0
215836.895,51.270,37.109,41.016,36.621,60.059,0
215836.899,50.293,41.504,38.086,39.062,48.340,0
215836.902,49.805,41.992,33.203,38.574,52.246,0
215836.906,43.457,34.180,33.203,35.645,79.102,0
215836.910,40.039,34.668,40.039,34.180,67.871,0
215836.914,40.039,40.527,41.504,37.109,52.734,0
215836.918,43.457,39.062,33.203,35.156,38.574,0
215836.922,40.527,33.203,30.762,31.250,6.836,0
215836.926,34.668,32.227,33.691,34.180,8.789,0
215836.930,31.250,33.691,28.809,27.344,26.855,0
215836.934,29.297,35.156,35.156,24.414,20.996,0
215836.938,26.855,35.645,42.480,30.273,39.551,0
215836.942,29.297,35.645,40.527,34.668,38.086,0
215836.945,23.926,29.785,36.133,25.391,39.551,0
215836.949,19.043,24.902,34.180,19.043,27.344,0
215836.953,23.926,27.832,38.086,26.855,23.926,0
215836.957,28.809,26.855,36.621,37.109,18.555,0
215836.961,34.668,33.691,40.527,40.039,-12.207,0
215836.965,36.621,38.086,35.156,36.621,16.602,0
215836.969,36.133,27.832,21.484,33.203,32.715,0
215836.973,32.227,20.996,28.809,28.809,20.996,0
215836.977,33.691,24.414,40.039,26.855,13.672,0
215836.981,41.992,31.250,40.527,26.855,-17.578,0
215836.985,38.574,33.691,39.062,28.809,-25.879,0
215836.988,37.109,35.645,34.180,31.250,-20.020,0
215836.992,39.551,36.133,35.156,30.762,-14.160,0
215836.996,30.273,34.180,39.551,28.320,-28.809,0
215837.000,30.762,36.621,42.969,30.273,-34.668,0
215837.004,33.691,37.109,38.574,31.250,22.461,0
215837.008,29.785,34.668,24.902,31.250,56.641,0
215837.012,29.297,36.133,28.809,28.809,40.039,0
215837.016,28.320,40.527,43.945,34.668,33.203,0
215837.020,26.855,38.086,42.480,31.738,30.273,0
215837.024,29.297,32.227,29.785,11.719,-6.836,0
215837.027,37.598,38.086,32.227,15.137,-15.625,0
215837.031,31.738,40.039,39.062,25.879,36.133,0
215837.035,25.879,31.738,36.621,26.855,68.359,0
215837.039,36.621,35.645,45.898,34.180,27.344,0
215837.043,33.203,38.574,48.340,40.527,16.602,0
215837.047,28.320,32.227,33.203,43.945,76.172,0
215837.051,33.203,28.809,26.855,37.109,43.457,0
215837.055,28.809,25.391,32.227,31.738,-0.488,0
215837.059,30.273,28.320,36.133,41.016,47.852,0
215837.063,37.109,32.715,33.203,41.504,83.984,0
215837.067,35.156,32.715,31.738,33.691,75.195,0
215837.070,34.668,36.133,38.574,27.832,45.410,0
215837.074,35.645,37.109,30.273,32.715,28.809,0
215837.078,36.621,38.574,20.996,45.410,53.223,0
215837.082,36.133,41.016,28.320,47.363,56.641,0
215837.086,31.250,39.062,38.574,39.551,25.391,0
215837.090,32.715,32.227,37.109,37.109,46.387,0
215837.094,28.809,22.949,23.926,34.668,58.105,0
215837.098,23.438,24.902,22.949,29.785,12.695,0
215837.102,25.879,29.785,31.738,23.438,1.953,0
215837.106,20.508,25.879,25.879,12.207,17.578,0
215837.110,16.113,25.879,19.531,12.207,48.828,0
215837.113,18.555,27.344,19.531,20.508,73.730,0
215837.117,21.973,29.297,21.973,18.555,5.859,0
215837.121,28.809,28.809,32.227,26.367,21.484,0
215837.125,32.715,27.344,32.715,38.086,80.566,0
215837.129,29.785,28.809,29.785,41.016,50.781,0
215837.133,28.809,23.438,32.715,42.969,37.598,0
215837.137,33.691,24.902,33.203,46.387,64.453,0
215837.141,44.434,24.902,40.039,49.805,88.379,0
215837.145,42.969,20.508,42.969,41.016,78.125,0
215837.149,39.551,26.855,48.340,40.039,83.496,0
215837.152,44.922,29.785,47.363,47.363,93.750,0
215837.156,42.480,24.414,33.691,46.875,79.590,0
215837.160,35.645,23.926,27.344,31.738,-10.254,0
215837.164,37.598,24.902,34.180,32.227,-14.160,0
215837.168,38.574,25.391,40.039,38.086,60.547,0
215837.172,38.086,27.344,39.551,32.227,52.246,0
215837.176,38.574,28.320,36.133,31.250,46.387,0
215837.180,41.016,31.250,33.203,36.133,61.035,0
215837.184,42.969,31.250,33.691,37.598,39.062,0
215837.188,41.992,30.273,32.227,36.133,39.062,0
215837.192,35.645,27.832,27.832,29.785,32.227,0
215837.195,29.785,27.344,18.066,26.367,7.812,0
215837.199,30.273,34.180,22.461,24.414,-4.883,0
215837.203,34.668,35.156,35.645,21.973,-45.410,0
215837.207,39.062,33.203,39.551,27.344,-50.293,0
215837.211,33.691,29.297,37.598,30.762,-14.648,0
215837.215,27.832,24.414,29.297,26.367,11.719,0
215837.219,29.297,26.855,23.926,26.855,4.395,0
215837.223,31.250,31.738,23.926,30.762,16.602,0
215837.227,34.180,33.691,28.809,38.574,43.457,0
215837.231,37.598,29.785,28.809,46.875,36.621,0
215837.235,32.715,28.320,28.320,37.598,39.062,0
215837.238,27.832,30.273,32.227,32.715,28.320,0
215837.242,25.879,30.762,30.273,28.320,28.809,0
215837.246,23.926,35.156,27.832,21.484,17.578,1
215837.250,27.832,38.574,27.344,27.344,-17.090,0
215837.254,25.879,32.227,24.414,25.391,-10.742,0
215837.258,27.832,30.273,27.832,28.809,4.883,0
215837.262,36.621,33.203,35.645,37.109,47.852,0
215837.266,38.574,32.227,27.832,33.691,45.410,0
215837.270,40.039,25.391,29.297,30.762,31.738,0
215837.274,38.574,21.973,34.668,32.227,38.574,0
215837.277,31.250,27.832,27.344,32.227,51.270,0
215837.281,32.715,31.250,31.738,33.203,50.293,0
215837.285,43.457,35.156,46.387,38.574,28.809,0
215837.289,43.457,37.598,43.945,40.039,12.695,0
215837.293,35.645,34.668,35.156,40.527,-17.090,0
215837.297,34.180,32.227,32.227,43.457,-34.668,0
215837.301,32.227,32.715,34.180,37.598,0.977,0
215837.305,31.250,31.250,33.203,28.809,37.109,0
215837.309,31.738,28.320,30.273,29.785,41.992,0
215837.313,28.320,23.926,38.574,26.367,4.395,0
215837.317,28.320,17.578,40.527,30.762,-4.883,0
215837.320,35.645,17.578,36.133,38.574,-0.977,0
215837.324,36.133,19.531,38.086,39.062,7.812,0
215837.328,41.016,24.902,38.086,43.457,17.090,0
215837.332,49.316,29.785,33.203,45.410,28.320,0
215837.336,38.574,28.320,32.715,43.457,46.875,0
215837.340,26.367,25.879,35.645,34.180,23.438,0
215837.344,27.344,23.438,42.969,24.902,-8.301,0
215837.348,23.438,21.484,41.992,26.367,25.879,0
215837.352,20.508,20.508,38.086,25.879,54.688,0
215837.356,27.832,17.578,39.551,32.227,27.832,0
215837.360,34.180,17.578,38.086,42.480,10.254,0
215837.363,32.227,22.461,32.715,45.410,45.898,0
215837.367,32.715,28.809,31.250,45.410,67.871,0
215837.371,36.621,36.621,32.715,37.598,75.195,0
215837.375,37.598,39.062,39.551,35.156,56.641,0
215837.379,31.250,36.133,40.039,29.297,15.137,0
215837.383,29.297,31.250,36.621,26.855,25.391,0
215837.387,27.344,31.250,33.691,28.320,13.184,0
215837.391,24.414,33.691,25.391,29.785,0.977,0
215837.395,30.762,35.156,26.367,38.086,14.648,0
215837.399,40.039,36.621,27.832,34.668,-17.578,0
215837.402,40.039,28.809,28.320,19.043,-62.012,0
215837.406,37.598,31.738,29.297,21.973,-37.109,0
215837.410,42.480,44.922,30.762,36.133,20.020,0
215837.414,39.062,45.410,30.273,32.227,47.363,0
215837.418,26.855,35.645,22.949,20.020,31.250,0
215837.422,21.973,27.344,27.832,22.949,55.176,0
215837.426,22.461,22.949,26.855,28.320,95.215,0
215837.430,22.461,22.949,22.949,29.297,83.496,0
215837.434,26.367,26.855,29.297,29.785,83.496,0
215837.438,22.949,25.879,33.203,27.344,56.641,0
215837.442,15.137,23.926,35.156,23.926,42.480,0
215837.445,21.484,28.809,35.156,20.508,24.414,0
215837.449,21.484,26.855,23.926,22.949,32.715,0
215837.453,13.672,20.508,30.273,24.902,93.262,0
215837.457,16.602,15.625,37.109,22.461,62.500,0
215837.461,20.996,15.625,37.598,24.902,33.691,0
215837.465,22.949,18.066,44.434,29.785,61.523,0
215837.469,23.926,18.066,41.504,30.273,56.641,0
215837.473,31.250,22.461,34.668,35.156,45.898,0
215837.477,40.527,20.020,31.250,45.898,39.062,0
215837.481,41.504,20.020,31.250,44.922,50.781,0
215837.485,38.574,23.438,30.273,36.133,64.941,0
215837.488,31.250,24.414,27.832,29.785,40.527,0
215837.492,32.227,29.297,33.691,24.902,42.480,0
215837.496,36.621,26.367,38.574,27.832,99.121,0
215837.500,25.879,19.531,34.668,28.320,112.793,0
215837.504,22.461,20.020,35.156,33.203,69.824,0
215837.508,36.133,23.926,38.574,41.016,89.844,0
215837.512,40.039,22.461,35.645,34.180,97.168,0
215837.516,30.273,21.973,32.715,28.809,46.875,0
215837.520,28.809,28.320,32.715,32.227,64.453,0
215837.524,34.180,30.762,32.715,33.691,84.473,0
215837.527,36.621,31.738,28.320,33.691,47.852,0
215837.531,35.645,32.227,27.344,37.109,41.504,0
215837.535,34.668,31.738,34.668,31.250,-1.953,0
215837.539,29.785,29.785,37.109,21.484,20.508,0
215837.543,24.902,30.762,38.574,25.879,101.074,0
215837.547,30.273,37.598,33.203,30.273,87.402,0
215837.551,32.715,39.062,26.367,27.344,18.066,0
215837.555,31.738,32.715,32.227,26.367,3.906,0
215837.559,30.762,25.391,35.645,27.832,26.367,0
215837.563,31.738,28.320,33.691,28.320,5.859,0
215837.567,29.785,33.203,35.645,26.367,-21.484,0
215837.570,28.320,34.668,31.738,22.949,-4.883,0
215837.574,27.344,31.738,20.996,20.020,10.742,0
215837.578,31.738,35.645,20.508,17.578,-16.602,0
215837.582,45.898,37.598,25.879,26.855,-24.414,0
215837.586,54.688,30.273,27.832,47.363,21.484,0
215837.590,36.133,28.809,20.508,30.762,45.410,0
215837.594,14.648,26.855,16.602,8.789,41.992,0
215837.598,22.461,23.926,24.414,21.973,26.367,0
215837.602,29.297,28.320,31.738,29.297,17.578,0
215837.606,19.531,32.715,32.715,20.996,25.879,0
215837.610,12.207,28.809,26.367,14.648,25.879,0
215837.613,17.090,24.902,24.902,17.578,7.812,0
215837.617,20.996,27.832,32.227,21.484,-20.508,0
215837.621,21.973,28.809,31.738,20.508,-34.180,0
215837.625,23.926,23.438,23.438,17.578,-14.160,0
215837.629,23.438,19.043,21.973,18.555,-7.324,0
215837.633,30.762,18.555,24.414,31.250,5.371,0
215837.637,35.156,19.531,25.879,31.738,-6.348,0
215837.641,31.250,23.926,27.832,20.020,-0.488,0
215837.645,31.250,30.273,33.691,21.973,36.133,0
215837.649,27.832,32.227,36.133,21.484,17.578,0
215837.652,29.297,32.227,35.156,19.531,14.648,0
215837.656,33.691,32.227,38.086,23.926,-1.953,0
215837.660,27.832,27.832,34.180,20.508,-12.207,0
215837.664,26.367,28.320,26.367,20.020,-1.953,0
215837.668,32.715,33.691,22.461,23.926,-54.688,0
215837.672,27.832,29.297,22.949,19.531,-53.223,0
215837.676,27.344,22.949,36.133,23.438,15.625,0
215837.680,31.250,24.902,47.363,35.645,37.598,0
215837.684,25.391,24.902,45.410,42.969,36.621,0
215837.688,27.832,26.855,33.691,35.645,38.086,0
215837.692,28.809,27.832,28.320,20.508,59.082,0
215837.695,28.809,31.738,34.180,23.926,52.734,0
215837.699,34.180,34.668,39.551,36.621,40.527,0
215837.703,29.785,29.785,31.250,36.133,26.855,0
215837.707,28.320,28.809,24.414,30.273,45.898,0
215837.711,37.598,30.273,29.297,31.250,37.598,0
215837.715,43.945,34.180,31.738,31.738,31.250,0
215837.719,41.504,41.504,22.949,34.668,32.715,0
215837.723,37.109,37.109,17.090,29.785,20.996,0
215837.727,35.645,32.715,25.879,28.809,56.152,0
215837.731,33.203,31.250,30.273,26.367,32.715,0
215837.735,29.297,29.297,30.762,16.602,18.066,0
215837.738,30.273,33.203,32.715,23.926,63.965,0
215837.742,31.738,35.645,32.715,36.621,65.918,0
215837.746,29.785,29.297,25.391,31.738,33.203,0
215837.750,33.203,25.879,20.508,24.902,35.645,0
215837.754,38.086,29.297,23.438,25.391,21.973,0
215837.758,44.922,33.691,36.621,29.785,21.973,0
215837.762,47.852,41.016,44.922,36.621,23.926,0
215837.766,42.969,36.621,34.668,31.738,8.789,0
215837.770,36.621,20.996,31.250,28.320,40.039,0
215837.774,33.203,16.113,31.250,22.461,35.156,0
215837.777,36.621,18.555,26.367,25.391,7.324,0
215837.781,37.598,25.391,31.738,40.039,38.086,0
215837.785,42.480,31.250,41.992,37.598,32.227,0
215837.789,43.945,29.297,38.086,32.227,6.836,0
215837.793,37.109,22.461,30.273,27.832,40.039,0
215837.797,40.039,19.531,36.133,32.227,63.965,0
215837.801,48.340,23.926,41.992,41.504,46.875,0
215837.805,42.480,29.297,40.527,41.016,43.457,0
215837.809,36.621,27.344,37.109,38.086,15.137,0
215837.813,41.992,26.367,34.180,44.434,17.578,0
215837.817,41.504,31.738,29.785,49.805,37.598,0
215837.820,35.645,28.809,31.738,39.062,7.812,0
215837.824,36.621,26.855,37.109,42.480,20.020,0
215837.828,42.480,30.762,32.227,52.734,21.484,0
215837.832,44.434,34.180,32.227,46.387,5.371,0
215837.836,43.945,37.109,41.992,41.504,-2.441,0
215837.840,40.039,33.691,44.922,38.574,32.227,0
215837.844,42.480,34.668,44.922,33.203,76.172,0
215837.848,43.457,40.039,41.504,34.668,54.199,0
215837.852,41.992,38.086,34.668,40.527,47.363,0
215837.856,43.457,38.574,39.062,43.945,56.641,0
215837.860,43.945,39.062,38.086,43.945,48.340,0
215837.863,47.852,41.504,33.691,41.016,22.461,0
215837.867,48.828,40.039,33.203,34.668,4.395,0
215837.871,45.898,34.668,36.133,40.039,69.336,0
215837.875,41.504,33.691,33.691,41.504,81.543,0
215837.879,36.133,35.645,26.855,39.062,17.578,0
215837.883,34.668,32.715,35.645,41.016,6.348,0
215837.887,38.086,33.203,43.945,43.945,41.504,0
215837.891,43.945,35.156,34.668,49.805,35.156,0
215837.895,41.504,33.691,32.715,42.969,55.176,0
215837.899,37.598,28.320,32.227,35.156,72.754,0
215837.902,44.922,29.785,37.598,40.527,12.695,0
215837.906,41.016,28.809,46.387,41.016,6.348,0
215837.910,35.156,26.855,35.645,37.109,21.973,0
215837.914,37.109,30.273,30.273,39.551,56.641,0
215837.918,34.668,31.250,33.691,37.109,93.750,0
215837.922,32.227,30.762,37.109,36.621,99.609,0
215837.926,29.297,30.273,34.180,37.109,69.824,0
215837.930,27.344,28.809,34.668,30.273,62.500,0
215837.934,27.832,22.461,42.480,33.203,100.586,0
215837.938,35.156,20.996,41.504,35.645,105.469,0
215837.942,36.133,26.855,34.668,40.039,92.285,0
215837.945,29.785,27.832,33.203,46.875,60.059,0
215837.949,29.785,25.879,34.668,35.645,62.012,0
215837.953,31.738,25.879,32.227,26.855,70.312,0
215837.957,31.250,26.855,37.109,24.902,1.953,0
215837.961,26.855,25.879,41.016,27.832,2.441,0
215837.965,25.391,25.391,36.621,29.785,28.320,2
215837.969,24.902,22.461,33.691,31.250,25.879,0
215837.973,24.414,20.996,31.250,38.574,46.387,0
215837.977,30.762,20.996,33.203,38.086,52.734,0
215837.981,29.785,19.531,28.809,36.133,19.043,0
215837.985,33.691,27.344,22.949,42.969,-0.488,0
215837.988,40.527,34.180,26.367,46.875,24.414,0
215837.992,37.598,38.086,31.250,46.387,39.551,0
215837.996,34.180,31.738,34.180,38.574,38.574,0
215838.000,34.668,25.391,38.574,36.133,36.133,0
215838.004,32.715,31.738,44.434,41.504,54.688,0
215838.008,32.715,32.227,41.016,40.039,73.730,0
215838.012,34.180,23.438,31.250,28.809,30.762,0
215838.016,34.180,24.902,23.926,21.484,1.953,0
215838.020,32.715,34.668,26.855,26.855,35.156,0
215838.024,32.715,38.086,27.344,39.062,38.574,0
215838.027,37.109,36.621,28.809,33.691,24.414,0
215838.031,40.039,36.133,37.109,31.738,26.855,0
215838.035,36.621,36.133,34.668,38.574,22.949,0
215838.039,30.762,34.180,28.809,30.762,21.484,0
215838.043,32.227,33.203,30.273,20.996,-12.695,0
215838.047,29.785,28.320,31.250,20.996,-52.734,0
215838.051,25.879,22.949,23.438,23.438,2.441,0
215838.055,35.156,28.320,22.461,28.320,22.949,0
215838.059,36.133,32.227,29.785,31.250,10.254,0
215838.063,34.668,34.180,33.691,32.715,0.488,0
215838.067,43.945,36.133,35.645,42.480,11.230,0
215838.070,51.270,38.574,23.926,39.551,32.715,0
215838.074,37.109,37.598,20.996,25.879,22.461,0
215838.078,27.344,31.738,32.227,17.578,23.926,0
215838.082,32.227,30.273,35.156,20.508,7.812,0
215838.086,34.668,32.715,41.016,28.320,-1.953,0
215838.090,30.762,32.715,40.039,28.809,10.742,0
215838.094,20.996,32.715,30.273,21.484,24.902,0
215838.098,20.508,27.344,26.367,19.043,49.805,0
215838.102,23.926,24.902,24.902,21.973,67.871,0
215838.106,25.879,30.273,21.484,23.438,79.590,0
215838.110,31.250,27.344,22.949,29.297,96.191,0
215838.113,30.762,26.367,23.926,35.156,83.008,0
215838.117,26.855,30.762,24.414,30.273,103.027,0
215838.121,25.879,26.367,31.250,23.926,121.582,0
215838.125,28.320,28.320,37.109,37.598,73.242,0
215838.129,36.621,37.598,38.086,44.922,31.738,0
215838.133,34.180,34.180,33.691,23.438,40.039,0
215838.137,27.832,26.367,32.227,16.602,61.523,0
215838.141,27.344,22.461,32.227,22.949,60.059,0
215838.145,23.438,20.996,27.344,22.949,65.918,0
215838.149,23.438,24.414,28.320,29.297,18.555,0
215838.152,28.320,26.855,32.715,34.668,2.441,0
215838.156,32.715,24.902,31.250,31.738,65.430,0
215838.160,34.668,22.461,28.320,33.203,53.223,0
215838.164,35.156,27.344,30.273,35.645,46.387,0
215838.168,34.668,33.203,34.180,33.203,67.383,0
215838.172,31.738,32.715,41.992,28.320,53.223,0
215838.176,32.227,27.832,40.039,28.320,65.430,0
215838.180,26.855,24.902,30.762,27.344,56.152,0
215838.184,27.344,28.320,27.344,31.738,72.754,0
215838.188,42.480,26.367,27.344,41.504,112.793,0
215838.192,40.039,23.438,32.227,49.805,59.082,0
215838.195,23.926,25.391,35.156,26.855,14.160,0
215838.199,21.484,28.809,39.551,7.324,25.391,0
215838.203,23.926,32.715,36.133,16.602,60.547,0
215838.207,29.785,35.645,32.227,24.902,50.781,0
215838.211,30.273,36.133,36.621,21.484,9.277,0
215838.215,29.785,36.621,39.062,14.160,10.742,0
215838.219,28.320,32.715,36.133,21.484,17.090,0
215838.223,30.273,32.227,30.762,24.902,9.277,0
215838.227,32.715,38.086,31.738,26.855,14.648,0
215838.231,28.320,35.645,31.250,32.227,36.133,0
215838.235,36.133,38.086,29.785,39.551,34.668,0
215838.238,41.504,45.410,28.320,46.387,15.137,0
215838.242,43.457,40.039,27.832,38.086,15.625,0
215838.246,41.016,34.180,28.809,29.297,25.879,0
215838.250,35.156,31.250,33.203,26.367,40.039,0
215838.254,38.574,28.809,41.992,24.902,20.508,0
215838.258,34.668,27.344,41.992,21.484,41.992,0
215838.262,26.367,27.344,37.598,21.484,77.637,0
215838.266,25.879,27.832,33.691,22.949,51.758,0
215838.270,29.785,27.344,34.668,24.902,44.434,0
215838.274,29.785,29.297,30.762,38.086,71.777,0
215838.277,33.203,33.203,26.367,44.434,62.988,0
215838.281,36.621,30.273,33.203,38.086,51.758,0
215838.285,32.227,24.902,33.691,32.715,57.129,0
215838.289,29.785,23.438,33.203,29.785,95.215,0
215838.293,34.668,23.438,41.504,36.133,94.727,0
215838.297,36.621,26.367,41.504,35.156,62.500,0
215838.301,34.180,26.367,36.621,32.715,52.734,0
215838.305,32.715,26.367,37.598,34.180,53.223,0
215838.309,27.832,24.414,35.156,29.297,39.062,0
215838.313,31.250,25.879,28.809,37.598,13.184,0
215838.317,40.527,29.785,29.297,50.293,28.809,0
215838.320,40.527,28.320,38.086,50.293,26.367,0
215838.324,34.668,22.461,37.109,44.922,9.766,0
215838.328,33.691,20.020,38.086,33.203,24.902,0
215838.332,38.086,26.855,42.969,26.367,4.883,0
215838.336,39.551,33.691,43.457,40.039,31.738,0
215838.340,41.016,30.273,36.621,45.898,70.801,0
215838.344,47.363,27.832,26.367,44.434,63.965,0
215838.348,46.875,28.320,28.320,47.852,18.555,0
215838.352,34.180,24.902,33.203,40.527,-47.852,0
215838.356,31.738,23.438,31.738,36.621,-18.555,0
215838.360,33.203,23.438,25.879,50.293,21.484,0
215838.363,27.344,26.367,32.227,44.434,22.949,0
215838.367,22.949,25.391,39.062,31.738,-0.977,0
215838.371,26.855,29.297,35.156,34.668,-6.348,0
215838.375,33.203,34.668,32.715,29.297,-7.812,0
215838.379,32.715,29.297,33.691,26.367,-37.109,0
215838.383,30.762,29.297,33.203,31.738,18.555,0
215838.387,34.180,34.180,33.691,35.645,49.805,0
215838.391,35.645,40.527,27.832,40.039,36.621,0
215838.395,38.086,41.504,22.461,37.109,41.992,0
215838.399,36.133,33.691,32.227,30.273,70.801,0
215838.402,27.344,25.879,36.133,33.203,50.293,0
215838.406,28.320,30.273,38.574,39.551,26.855,0
215838.410,30.273,28.320,43.945,32.227,50.293,0
215838.414,32.227,23.926,41.504,31.250,54.688,0
215838.418,31.738,33.691,33.691,31.738,31.738,0
215838.422,35.645,40.039,32.715,30.762,13.672,0
215838.426,43.457,39.551,33.203,33.691,55.664,0
215838.430,38.086,36.133,32.227,38.086,66.406,0
215838.434,34.668,32.715,34.180,42.480,10.254,0
215838.438,35.645,30.762,35.156,33.203,-11.719,0
215838.442,32.227,26.367,30.273,28.809,35.156,0
215838.445,35.645,27.344,28.320,30.762,64.941,0
215838.449,41.016,35.156,34.668,34.668,42.480,0
215838.453,34.180,33.691,41.016,39.062,27.344,0
215838.457,26.855,27.832,36.621,36.133,23.926,0
215838.461,27.832,26.855,29.297,24.902,-9.277,0
215838.465,29.297,25.391,27.832,23.438,-5.859,0
215838.469,28.809,27.832,33.691,33.691,17.578,0
215838.473,27.344,26.367,40.039,39.551,34.668,0
215838.477,27.832,18.066,41.016,35.156,25.391,0
215838.481,28.809,16.113,39.551,23.438,-22.461,0
215838.485,26.367,20.996,33.691,23.438,15.625,0
215838.488,25.391,30.273,21.484,30.762,40.039,0
215838.492,28.809,34.668,23.438,38.574,-26.367,0
215838.496,27.832,30.273,29.785,41.992,-35.156,0
215838.500,30.273,27.344,37.598,40.039,20.508,0
215838.504,32.715,26.855,45.898,35.156,66.895,0
215838.508,28.320,28.809,41.504,33.203,51.758,0
215838.512,27.832,27.832,40.527,32.227,-7.812,2
215838.516,28.320,22.949,41.016,29.297,17.578,0
215838.520,28.809,22.949,40.039,33.203,58.594,0
215838.524,32.227,28.809,33.203,31.738,13.672,0
215838.527,33.203,28.809,20.996,19.043,-33.691,0
215838.531,36.133,31.738,21.973,27.832,4.395,0
215838.535,40.527,34.668,28.320,41.992,17.578,0
215838.539,37.109,32.715,30.273,29.785,21.484,0
215838.543,31.738,34.668,29.785,20.508,24.902,0
215838.547,31.250,39.062,31.738,23.926,-1.465,0
215838.551,34.668,35.156,31.738,23.926,5.371,0
215838.555,31.250,32.715,29.785,26.367,-10.742,0
215838.559,27.344,35.156,31.738,33.203,-51.758,0
215838.563,26.367,33.691,31.250,35.156,-9.277,0
215838.567,29.297,31.738,26.367,28.809,55.176,0
215838.570,34.180,34.180,21.973,20.020,10.254,0
215838.574,33.203,30.762,29.297,20.508,-11.230,0
215838.578,30.762,29.785,35.645,35.645,46.875,0
215838.582,35.156,35.156,29.785,41.504,45.898,0
215838.586,33.691,34.668,28.320,28.809,26.855,0
215838.590,25.879,26.367,31.738,22.461,34.180,0
215838.594,30.762,24.902,34.668,24.414,59.570,0
215838.598,34.180,25.391,38.086,24.902,81.543,0
215838.602,34.668,25.879,35.645,32.715,72.266,0
215838.606,36.621,28.809,31.250,37.109,26.855,0
215838.610,44.922,30.273,41.016,39.551,32.227,0
215838.613,44.922,30.273,44.434,40.527,49.805,0
215838.617,36.133,31.250,38.086,41.016,40.039,0
215838.621,41.504,36.621,41.016,50.781,74.707,0
215838.625,46.387,35.156,42.969,60.059,80.566,0
215838.629,47.363,30.762,38.574,55.176,67.871,0
215838.633,50.293,35.645,37.598,49.316,89.355,0
215838.637,45.898,34.180,33.203,52.734,84.473,0
215838.641,35.645,28.809,31.250,44.922,80.566,0
215838.645,36.133,26.855,40.527,34.180,97.656,0
215838.649,37.109,29.297,44.922,29.297,70.801,0
215838.652,33.691,32.715,42.969,30.273,19.043,0
215838.656,37.598,34.668,37.109,36.621,29.297,0
215838.660,46.875,33.203,35.156,42.480,64.941,0
215838.664,48.340,33.203,44.922,47.852,93.750,0
215838.668,39.062,39.551,41.992,47.363,85.449,0
215838.672,40.527,41.504,28.809,44.922,66.895,0
215838.676,38.574,37.598,29.297,33.203,66.895,0
215838.680,30.762,30.273,34.180,28.320,69.824,0
215838.684,35.156,33.203,35.645,34.180,83.008,0
215838.688,37.598,36.133,37.598,35.156,66.406,0
215838.692,34.180,26.855,39.551,37.598,49.316,0
215838.695,33.203,22.949,34.180,34.180,33.203,0
215838.699,35.645,31.738,37.598,31.250,30.273,0
215838.703,39.551,40.527,49.316,31.250,32.715,0
215838.707,38.086,42.969,39.062,37.109,24.414,0
215838.711,33.691,41.504,26.855,39.062,36.621,0
215838.715,31.250,33.691,33.203,30.762,54.199,0
215838.719,26.855,27.832,36.133,29.297,67.383,0
215838.723,22.949,26.367,25.391,27.344,54.199,0
215838.727,21.973,22.949,28.809,29.297,68.848,0
215838.731,21.484,25.391,29.785,31.250,86.914,0
215838.735,29.785,28.809,27.344,37.598,81.543,0
215838.738,33.203,31.250,38.086,39.551,85.449,0
215838.742,25.391,33.203,42.969,26.855,95.215,0
215838.746,23.926,26.367,36.621,22.461,70.312,0
215838.750,21.484,20.020,29.785,13.184,25.391,0
215838.754,25.879,21.484,26.855,17.578,54.199,0
215838.758,29.785,24.414,25.879,36.133,89.355,0
215838.762,25.879,27.832,25.391,30.273,35.156,0
215838.766,24.414,21.484,30.762,24.902,18.066,0
215838.770,24.414,15.137,37.598,28.809,31.738,0
215838.774,25.391,19.531,38.086,31.738,13.184,0
215838.777,23.926,23.438,41.016,40.527,15.137,0
215838.781,22.949,25.879,40.039,37.598,3.418,0
215838.785,26.367,25.391,30.273,31.250,-4.395,0
215838.789,25.879,28.320,29.297,36.133,28.320,0
215838.793,21.973,27.832,28.320,31.738,27.344,0
215838.797,24.902,28.320,29.297,27.344,1.465,0
215838.801,37.598,31.250,37.598,41.992,32.715,0
215838.805,36.133,26.855,40.039,47.363,38.574,0
215838.809,33.203,26.855,38.574,42.969,27.832,0
215838.813,33.203,28.809,30.273,35.645,43.457,0
215838.817,35.645,28.320,30.273,35.156,48.340,0
215838.820,40.039,28.809,35.645,32.715,39.062,0
215838.824,34.180,29.785,34.668,31.250,16.113,0
215838.828,28.320,30.273,36.621,35.645,9.766,0
215838.832,26.855,29.297,38.574,31.250,25.391,0
215838.836,28.809,29.785,31.250,28.320,31.738,0
215838.840,39.551,41.504,27.832,31.738,20.508,0
215838.844,43.457,45.898,32.715,39.551,31.250,0
215838.848,41.504,39.551,32.227,36.621,25.391,0
215838.852,41.504,37.598,28.320,26.855,12.695,0
215838.856,38.086,34.668,22.461,19.531,-3.906,0
215838.860,39.062,32.227,29.297,29.297,9.277,0
215838.863,39.062,32.227,38.574,40.527,42.969,0
215838.867,33.691,33.203,31.738,24.414,18.066,0
215838.871,33.203,33.203,29.297,25.391,-0.488,0
215838.875,33.691,33.203,33.203,30.273,3.906,0
215838.879,34.668,35.645,30.273,25.879,19.043,0
215838.883,31.738,38.086,31.250,28.809,25.879,0
215838.887,27.344,36.133,36.621,28.320,-19.043,0
215838.891,27.344,33.203,37.598,21.973,-14.160,0
215838.895,29.297,30.273,38.086,22.949,29.785,0
215838.899,36.621,34.668,41.504,39.551,17.578,0
215838.902,19.531,35.156,36.133,20.996,17.090,0
215838.906,-5.371,31.738,31.738,-0.488,22.949,0
215838.910,-7.324,32.227,34.668,2.441,-19.043,0
215838.914,-4.883,33.691,37.598,-1.953,-13.672,0
215838.918,-7.324,39.062,40.039,-6.836,27.832,0
215838.922,-18.066,39.551,34.180,-15.137,68.359,0
215838.926,-31.250,42.480,27.344,-31.738,42.969,0
215838.930,-38.086,47.852,32.227,-40.527,45.410,0
215838.934,-40.527,51.758,43.457,-40.527,54.688,0
215838.938,-43.457,53.223,51.758,-36.133,42.969,0
215838.942,-50.293,52.246,48.340,-38.086,38.574,0
215838.945,-62.988,53.711,38.086,-58.594,-11.230,0
215838.949,-68.848,47.852,42.480,-71.289,-20.020,0
215838.953,-70.312,43.945,52.246,-68.359,20.996,0
215838.957,-77.148,51.270,48.828,-73.242,20.996,0
215838.961,-78.613,58.594,46.875,-77.637,32.715,0
215838.965,-79.102,62.500,48.340,-73.730,38.086,0
215838.969,-89.844,60.059,47.363,-88.867,63.477,0
215838.973,-82.520,62.012,48.340,-93.262,65.430,0
215838.977,-75.195,63.965,52.246,-84.961,38.086,0
215838.981,-93.262,57.129,45.410,-98.145,44.434,0
215838.985,-100.098,52.734,40.527,-102.051,6.836,0
215838.988,-99.609,52.734,42.969,-101.074,-49.316,0
215838.992,-108.887,55.176,42.969,-112.305,-40.527,0
215838.996,-109.863,53.711,39.551,-107.422,38.574,0
215839.000,-96.680,56.152,31.250,-83.496,48.828,0
215839.004,-84.473,67.383,33.691,-78.613,12.207,0
215839.008,-85.449,69.824,53.223,-93.750,44.434,0
215839.012,-84.473,66.406,59.570,-89.355,71.289,0
215839.016,-74.219,61.035,56.152,-71.777,46.387,0
215839.020,-70.801,59.570,58.594,-67.383,20.996,0
215839.024,-77.148,56.641,56.152,-70.312,30.273,0
215839.027,-74.707,44.922,47.852,-71.777,44.922,0
215839.031,-67.383,47.363,36.133,-72.266,33.203,0
215839.035,-62.988,60.059,26.367,-61.035,11.230,0
215839.039,-46.875,61.523,32.715,-46.875,21.484,0
215839.043,-48.340,49.805,42.969,-50.781,41.992,0
215839.047,-52.734,45.410,34.180,-55.664,5.859,0
215839.051,-40.039,45.898,23.926,-45.410,5.859,0
215839.055,-32.715,42.480,33.203,-32.715,64.453,0
215839.059,-24.902,37.109,40.527,-21.484,99.609,0
215839.063,-15.137,34.668,29.297,-10.742,129.395,0
215839.067,-12.207,36.133,28.320,-4.395,94.238,0
215839.070,-6.836,41.016,30.762,0.977,65.430,0
215839.074,3.906,43.945,26.855,17.090,82.031,0
215839.078,14.160,41.504,26.367,17.090,48.828,0
215839.082,13.672,35.156,25.879,7.324,20.020,0
215839.086,7.812,25.879,31.250,12.695,21.484,0
215839.090,15.625,20.020,34.668,20.996,32.227,0
215839.094,30.762,23.438,33.203,37.109,52.246,0
215839.098,37.598,30.762,29.785,44.922,36.133,0
215839.102,41.504,30.762,30.273,48.828,-5.371,0
215839.106,51.270,27.832,26.855,50.781,-7.812,0
215839.110,62.012,25.879,20.508,51.270,26.367,0
215839.113,63.965,25.879,18.555,53.711,22.461,0
215839.117,65.430,32.715,22.949,64.941,14.648,0
215839.121,69.336,31.738,21.973,73.730,23.926,0
215839.125,64.941,22.949,20.020,59.570,-8.789,0
215839.129,65.918,23.926,24.414,62.012,-40.039,0
215839.133,77.148,29.297,19.531,89.844,1.465,0
215839.137,83.984,30.762,14.160,84.473,23.438,0
215839.141,78.613,25.879,22.949,72.754,26.367,0
215839.145,79.102,25.879,30.762,76.660,16.113,0
215839.149,83.984,27.344,31.738,81.543,-5.371,0
215839.152,79.590,23.926,29.297,81.543,-6.348,0
215839.156,82.520,21.973,29.297,79.590,0.488,0
215839.160,96.680,25.391,35.645,90.820,51.270,0
215839.164,94.238,24.902,30.762,91.797,82.031,0
215839.168,92.285,21.484,24.414,87.402,49.805,0
215839.172,99.121,20.996,27.832,86.914,10.742,0
215839.176,99.609,16.113,34.180,103.516,37.109,0
215839.180,100.586,18.066,33.203,108.398,94.238,0
215839.184,96.680,20.508,27.344,85.938,95.703,0
215839.188,97.168,19.043,25.391,83.984,70.801,0
215839.192,99.121,20.996,32.227,90.332,65.918,0
215839.195,101.562,21.484,33.691,87.891,43.457,0
215839.199,104.004,20.508,27.344,89.355,24.902,0
215839.203,95.703,13.184,28.320,81.543,17.090,0
215839.207,93.750,10.254,29.785,81.055,5.371,0
215839.211,97.656,14.648,32.227,90.332,33.691,0
215839.215,94.727,10.254,30.273,90.820,35.156,0
215839.219,86.914,6.348,27.344,82.520,41.016,0
215839.223,85.449,7.324,29.297,92.285,58.105,0
215839.227,87.402,4.395,27.344,98.145,34.668,0
215839.231,83.496,9.277,22.949,74.707,13.672,0
215839.235,83.984,18.066,29.785,77.148,14.160,1
215839.238,82.031,13.672,31.250,89.355,44.434,0
215839.242,85.449,11.719,28.320,88.379,18.066,0
215839.246,83.984,15.625,34.668,92.285,9.277,0
215839.250,76.660,16.113,28.320,84.473,19.043,0
215839.254,80.566,11.230,25.879,79.102,21.484,0
215839.258,77.148,10.254,31.250,80.566,22.461,0
215839.262,71.289,18.555,38.086,75.195,9.277,0
215839.266,68.848,17.578,43.945,76.660,49.805,0
215839.270,65.918,13.184,39.551,82.031,56.152,0
215839.274,73.730,18.066,37.598,77.148,17.578,0
215839.277,78.125,21.973,36.621,73.242,-4.883,0
215839.281,75.195,14.160,33.203,75.684,38.574,0
215839.285,69.336,9.277,34.668,72.266,74.707,0
215839.289,61.035,7.812,32.715,64.453,54.688,0
215839.293,64.941,8.789,34.668,65.918,59.082,0
215839.297,67.383,14.160,36.621,73.242,65.430,0
215839.301,65.430,19.043,34.180,76.660,36.621,0
215839.305,66.406,14.160,36.133,69.824,28.320,0
215839.309,62.500,10.254,38.086,65.918,49.316,0
215839.313,65.430,18.555,35.645,76.660,41.992,0
215839.317,70.312,19.531,29.297,75.684,48.340,0
215839.320,65.918,18.066,24.414,59.570,4.395,0
215839.324,65.918,27.344,29.785,56.152,-49.316,0
215839.328,64.941,26.855,30.273,61.035,-2.930,0
215839.332,55.664,16.113,28.809,56.152,7.812,0
215839.336,51.270,15.625,36.621,48.340,-0.488,0
215839.340,54.688,20.020,39.551,51.758,31.250,0
215839.344,64.453,26.855,41.992,58.594,48.828,0
215839.348,65.918,26.855,53.711,62.012,10.254,0
215839.352,48.340,14.160,52.734,51.758,-14.648,0
215839.356,46.875,12.695,33.691,41.504,8.301,0
215839.360,52.246,17.578,30.273,40.527,-2.441,0
215839.363,47.852,15.137,31.738,41.992,-43.945,0
215839.367,41.992,15.137,25.391,37.109,-8.301,0
215839.371,41.016,18.555,22.949,41.992,54.688,0
215839.375,38.574,21.484,20.508,47.363,56.152,0
215839.379,37.109,15.625,27.832,41.992,23.926,0
215839.383,39.551,11.230,33.203,47.852,14.160,0
215839.387,41.016,21.973,34.180,50.781,35.156,0
215839.391,42.480,27.344,37.598,41.016,22.461,0
215839.395,40.527,21.484,38.574,38.574,14.648,0
215839.399,38.574,19.531,33.203,42.480,38.574,0
215839.402,39.551,22.461,32.227,47.363,62.012,0
215839.406,43.457,24.414,41.016,48.828,32.227,0
215839.410,42.969,20.996,39.551,40.039,34.180,0
215839.414,43.457,18.555,34.668,33.691,70.312,0
215839.418,47.852,23.438,38.574,48.828,59.570,0
215839.422,47.363,20.508,29.297,51.270,36.621,0
215839.426,42.480,18.555,23.438,41.504,34.668,0
215839.430,44.922,25.879,40.527,42.480,73.242,0
215839.434,44.922,26.367,42.480,44.434,66.406,0
215839.438,38.574,19.043,27.344,38.086,16.602,0
215839.442,47.852,20.996,32.227,42.969,-3.906,0
215839.445,55.176,25.391,42.480,49.316,-6.348,0
215839.449,39.062,21.484,33.691,37.109,29.297,0
215839.453,30.762,21.484,27.832,28.809,7.812,0
215839.457,33.691,23.438,30.762,26.855,-41.504,0
215839.461,32.227,24.902,31.738,32.715,6.836,0
215839.465,32.227,21.973,30.762,43.457,22.461,0
215839.469,32.715,19.043,24.902,39.551,8.789,0
215839.473,33.691,24.902,22.949,34.180,23.926,0
215839.477,34.180,26.367,28.320,41.016,38.086,0
215839.481,33.203,19.043,30.273,40.039,48.828,0
215839.485,36.621,19.043,35.156,44.434,57.129,0
215839.488,43.457,32.227,37.109,56.641,62.500,0
215839.492,34.180,31.738,33.691,41.016,76.172,0
215839.496,26.367,25.391,32.715,29.297,82.031,0
215839.500,30.762,24.902,28.320,28.809,50.293,0
215839.504,34.180,26.367,27.832,35.156,33.691,0
215839.508,41.504,28.320,27.344,43.945,49.805,0
215839.512,43.457,22.461,25.879,41.016,54.688,0
215839.516,43.457,22.461,26.855,42.480,10.254,0
215839.520,48.340,27.344,36.133,47.363,-1.465,0
215839.524,45.410,22.461,39.551,39.551,36.621,0
215839.527,44.434,25.391,34.668,36.621,59.082,0
215839.531,42.480,27.344,32.227,44.922,56.152,0
215839.535,36.133,15.625,26.855,38.574,28.320,0
215839.539,37.598,15.625,25.391,31.250,9.277,0
215839.543,37.109,19.531,31.250,29.785,6.836,0
215839.547,32.227,21.484,32.715,30.762,-11.230,0
215839.551,34.668,29.297,30.762,40.039,5.859,0
215839.555,40.039,29.297,21.484,47.852,32.715,0
215839.559,41.504,27.344,26.367,41.016,30.762,0
215839.563,41.504,29.785,39.551,35.645,30.762,0
215839.567,47.852,30.762,42.480,41.016,39.062,0
215839.570,51.270,32.227,36.133,44.922,80.078,0
215839.574,49.805,32.715,30.762,49.805,107.910,0
215839.578,49.805,30.762,36.621,50.293,67.383,0
215839.582,50.781,32.227,40.039,46.387,58.105,0
215839.586,47.852,37.598,32.227,36.621,79.102,0
215839.590,44.434,36.133,27.344,36.133,52.734,0
215839.594,42.969,32.227,35.645,45.410,32.715,0
215839.598,43.457,29.785,35.156,42.969,26.367,0
215839.602,48.340,32.715,37.598,43.945,56.152,0
215839.606,48.828,35.645,40.527,43.945,59.082,0
215839.610,49.316,33.691,45.898,43.945,47.363,0
215839.613,49.805,30.762,52.734,46.875,70.312,0
215839.617,38.086,27.344,39.062,42.969,34.180,0
215839.621,34.180,29.297,30.273,39.062,10.254,0
215839.625,38.086,33.691,32.227,39.062,39.062,0
215839.629,45.410,33.691,25.879,42.969,44.434,0
215839.633,48.828,37.109,24.902,38.086,44.922,0
215839.637,42.480,40.527,33.691,39.062,41.992,0
215839.641,40.039,32.715,36.133,42.969,41.992,0
215839.645,45.410,28.809,32.227,48.828,39.551,0
215839.649,33.203,32.715,29.297,35.645,50.781,0
215839.652,18.066,33.203,33.203,7.324,53.711,0
215839.656,26.855,34.180,38.086,16.602,41.992,0
215839.660,33.691,33.691,34.668,29.785,26.855,0
215839.664,23.926,32.227,30.273,21.484,32.715,0
215839.668,25.879,35.156,20.508,34.668,88.867,0
215839.672,36.133,35.645,19.531,43.457,61.523,0
215839.676,26.855,25.879,30.273,31.250,34.668,0
215839.680,23.926,20.020,30.273,32.227,53.711,0
215839.684,29.297,21.484,28.809,33.203,29.785,0
215839.688,27.832,21.484,37.598,30.273,-4.395,0
215839.692,31.250,20.508,39.551,33.203,28.320,0
215839.695,32.715,21.484,31.738,23.926,2.930,0
215839.699,32.715,21.973,27.344,23.926,-24.902,0
215839.703,35.156,22.949,25.391,39.551,0.977,0
215839.707,36.133,25.391,27.344,40.527,12.207,0
215839.711,37.598,24.902,37.109,40.527,36.133,0
215839.715,36.133,25.391,36.133,35.645,45.410,0
215839.719,39.062,28.809,30.273,38.086,39.551,0
215839.723,43.457,35.645,27.832,51.270,12.207,0
215839.727,42.969,36.133,20.996,46.875,27.832,0
215839.731,36.621,23.926,25.391,33.203,30.762,0
215839.735,27.832,22.949,34.180,36.621,7.812,0
215839.738,26.855,31.250,29.297,35.645,-9.277,0
215839.742,27.832,27.344,27.832,24.902,-23.438,0
215839.746,29.785,20.020,36.621,31.250,7.324,0
215839.750,33.203,27.344,37.109,34.668,46.387,0
215839.754,34.180,36.133,37.109,33.203,62.500,0
215839.758,38.574,39.551,31.738,37.598,8.789,0
215839.762,38.086,37.598,25.879,34.668,32.227,0
215839.766,35.645,32.715,30.762,33.203,71.777,0
215839.770,35.156,31.738,37.598,35.645,42.480,1
215839.774,41.016,32.227,38.086,31.250,41.016,0
215839.777,47.852,31.738,31.250,26.855,43.945,0
215839.781,45.410,35.156,30.273,29.297,63.477,0
215839.785,43.945,40.039,34.668,20.508,21.484,0
215839.789,37.598,34.668,34.180,16.113,-7.812,0
215839.793,34.180,29.785,30.273,26.367,28.320,0
215839.797,35.645,33.203,26.855,27.832,37.598,0
215839.801,38.086,36.133,25.391,28.809,34.668,0
215839.805,38.574,33.203,22.949,33.203,-2.441,0
215839.809,34.180,27.832,25.391,39.551,14.160,0
215839.813,32.715,26.367,35.645,40.039,0.488,0
215839.817,35.156,31.738,42.480,33.691,-16.602,0
215839.820,36.133,32.227,40.527,33.203,18.555,0
215839.824,38.086,32.227,35.645,34.180,57.129,0
215839.828,41.504,32.715,34.668,30.762,28.809,0
215839.832,39.062,25.879,35.645,23.438,-3.906,0
215839.836,35.156,20.020,35.156,25.879,37.598,0
215839.840,37.598,22.949,35.156,41.016,49.316,0
215839.844,40.527,27.344,37.598,42.480,46.875,0
215839.848,35.156,25.879,41.016,35.156,17.090,0
215839.852,30.273,18.555,40.527,32.715,1.465,0
215839.856,33.203,18.555,33.691,31.250,-8.789,0
215839.860,31.738,19.531,31.250,30.762,15.625,0
215839.863,31.738,19.531,33.203,36.133,16.113,0
215839.867,44.434,28.320,34.668,53.223,20.996,0
215839.871,46.387,31.250,29.785,56.641,64.453,0
215839.875,36.133,24.902,36.621,41.992,30.762,0
215839.879,35.156,21.973,46.387,41.016,35.645,0
215839.883,36.621,23.438,41.992,45.898,76.172,0
215839.887,42.969,27.832,38.574,45.410,45.410,0
215839.891,50.293,27.832,39.062,50.781,51.270,0
215839.895,44.922,22.949,39.062,48.340,76.172,0
215839.899,38.574,22.949,34.668,34.668,68.848,0
215839.902,32.227,25.391,36.621,28.320,31.738,0
215839.906,23.926,24.414,36.133,27.344,32.715,0
215839.910,29.297,30.762,37.598,34.668,63.477,0
215839.914,37.598,35.156,39.062,42.969,6.348,0
215839.918,27.832,32.227,24.902,27.832,-16.602,0
215839.922,22.949,29.297,22.461,21.484,-14.648,0
215839.926,30.273,26.855,33.203,28.809,-8.789,0
215839.930,28.809,30.762,34.668,27.832,41.504,0
215839.934,33.203,36.133,34.180,32.227,32.227,0
215839.938,33.691,34.180,28.809,35.156,9.766,0
215839.942,28.809,30.273,25.879,30.273,-5.859,0
215839.945,34.668,31.738,32.227,29.785,7.324,0
215839.949,33.691,27.344,34.668,22.461,48.340,0
215839.953,40.039,27.832,37.598,31.738,32.227,0
215839.957,43.457,34.180,40.527,41.992,30.273,0
215839.961,32.715,30.762,36.621,35.156,62.012,0
215839.965,23.926,25.391,31.738,24.414,42.969,0
215839.969,21.973,22.949,33.203,20.996,34.668,0
215839.973,27.344,21.973,37.109,40.039,87.402,0
215839.977,28.320,20.996,38.086,43.945,42.480,0
215839.981,32.227,22.949,37.109,30.762,2.441,0
215839.985,31.738,24.414,36.621,37.598,25.391,0
215839.988,28.809,22.949,36.621,39.551,9.766,0
215839.992,29.297,20.996,36.133,26.367,-15.625,0
215839.996,33.203,26.367,32.227,34.180,5.859,0
215840.000,39.062,26.367,30.273,41.016,32.227,0
215840.004,41.504,20.020,31.250,35.645,39.062,0
215840.008,42.480,18.555,33.203,36.621,-3.418,0
215840.012,40.527,20.508,33.691,35.645,-17.578,0
215840.016,41.992,23.926,32.227,31.738,21.973,0
215840.020,43.457,25.879,37.598,34.180,48.340,0
215840.024,41.016,25.879,37.598,36.133,44.922,0
215840.027,46.875,28.809,35.156,38.086,15.625,0
215840.031,50.293,30.762,41.016,44.922,33.691,0
215840.035,47.363,30.762,43.945,47.363,43.945,0
215840.039,53.223,30.273,44.434,48.340,50.293,0
215840.043,56.641,27.344,41.504,47.852,52.734,0
215840.047,53.711,31.250,32.715,51.270,49.316,0
215840.051,48.340,33.203,31.738,62.012,43.457,0
215840.055,41.504,30.273,40.527,56.641,58.105,0
215840.059,40.527,27.344,35.156,41.992,38.574,0
215840.063,43.945,27.344,26.367,49.805,64.453,0
215840.067,41.992,27.344,35.645,47.852,92.773,0
215840.070,37.598,25.879,44.434,34.180,15.137,0
215840.074,37.598,27.832,49.316,40.039,-3.906,0
215840.078,38.086,31.738,45.898,49.316,9.766,0
215840.082,36.621,26.855,36.621,38.574,3.906,0
215840.086,32.715,23.438,36.621,30.762,8.789,0
215840.090,26.367,25.879,31.738,31.738,43.457,0
215840.094,27.344,29.297,32.227,25.391,53.223,0
215840.098,27.344,30.762,39.551,21.973,61.523,0
215840.102,25.391,32.715,36.133,25.391,90.820,0
215840.106,27.832,35.156,32.227,31.738,66.895,0
215840.110,20.020,26.855,31.250,22.949,50.781,0
215840.113,20.508,28.320,24.902,15.137,20.996,0
215840.117,21.484,30.273,27.344,9.766,5.859,0
215840.121,20.020,27.832,30.273,11.719,26.855,0
215840.125,27.832,34.180,24.414,24.902,24.902,0
215840.129,30.762,36.621,18.066,26.367,1.953,0
215840.133,33.691,36.133,16.602,27.832,16.113,0
215840.137,37.109,36.621,26.855,30.273,58.105,0
215840.141,31.250,35.156,32.715,21.973,26.855,0
215840.145,28.809,32.227,30.762,16.113,-7.324,0
215840.149,30.273,24.902,27.832,16.602,5.371,0
215840.152,33.203,20.508,32.227,23.926,32.227,0
215840.156,36.133,27.344,35.645,32.227,84.473,0
215840.160,38.086,28.320,32.227,28.320,69.824,0
215840.164,34.668,20.508,28.809,24.414,39.551,0
215840.168,27.832,16.113,31.738,23.926,56.641,0
215840.172,26.855,16.113,26.367,22.461,96.680,0
215840.176,27.344,20.508,21.973,30.762,71.777,0
215840.180,29.297,20.020,35.156,29.297,31.738,0
215840.184,30.273,17.578,43.945,27.344,26.855,0
215840.188,27.832,16.602,44.434,29.297,2.930,0
215840.192,26.855,19.531,38.574,27.832,-22.461,0
215840.195,31.250,26.855,43.457,37.598,5.859,0
215840.199,31.738,23.926,46.387,37.109,19.531,0
215840.203,31.738,19.043,41.992,30.762,7.812,0
215840.207,33.203,20.508,39.062,28.320,-10.742,0
215840.211,41.016,20.996,38.574,43.457,10.742,0
215840.215,41.504,20.996,39.551,47.852,32.227,0
215840.219,29.297,26.367,39.062,27.344,-9.766,0
215840.223,24.414,24.902,41.016,29.785,7.324,0
215840.227,34.180,22.949,47.363,48.828,51.270,0
215840.231,41.016,27.832,48.828,47.852,27.832,0
215840.235,32.715,27.344,43.945,38.574,0.000,0
215840.238,23.438,25.391,35.645,37.598,8.301,0
215840.242,22.949,21.973,29.785,33.691,17.578,0
215840.246,24.902,20.020,33.203,28.809,-3.906,0
215840.250,25.879,23.438,41.016,26.367,-40.039,0
215840.254,24.414,26.367,34.668,26.855,-48.340,0
215840.258,22.949,26.855,22.461,35.156,-15.137,0
215840.262,25.391,29.785,27.832,38.574,-22.461,0
215840.266,23.438,29.785,31.250,32.715,17.578,0
215840.270,23.438,29.785,31.250,28.320,43.457,0
215840.274,29.785,35.156,38.086,33.203,34.668,0
215840.277,32.227,34.180,32.715,35.156,21.484,0
215840.281,28.320,30.762,22.461,32.227,14.648,0
215840.285,24.902,32.715,24.902,28.809,4.883,0
215840.289,19.531,30.762,30.273,22.949,12.207,0
215840.293,17.578,28.809,24.414,18.066,29.785,0
215840.297,20.020,30.273,22.461,10.254,-6.348,2
215840.301,18.555,30.762,26.367,10.742,8.789,0
215840.305,22.949,28.809,26.367,20.508,34.180,0
215840.309,28.320,31.250,25.391,25.391,21.973,0
215840.313,27.832,32.715,24.902,28.320,14.160,0
215840.317,34.180,32.715,29.785,39.551,41.016,0
215840.320,35.156,35.156,21.484,38.086,34.180,0
215840.324,25.879,32.715,16.113,25.879,24.414,0
215840.328,20.996,25.879,28.809,25.879,18.066,0
215840.332,21.973,20.996,33.203,30.273,9.766,0
215840.336,26.367,24.902,29.297,33.203,30.762,0
215840.340,28.809,27.832,31.250,34.180,12.695,0
215840.344,25.879,23.926,30.273,29.785,11.719,0
215840.348,27.832,24.414,25.879,31.250,35.156,0
215840.352,32.715,30.273,33.203,39.062,44.922,0
215840.356,32.715,31.250,41.992,35.645,34.668,0
215840.360,34.180,27.832,40.039,35.156,41.016,0
215840.363,31.250,25.879,32.227,37.109,73.730,0
215840.367,30.762,23.926,33.691,25.391,69.336,0
215840.371,31.250,23.438,37.598,21.484,71.777,0
215840.375,28.320,26.855,35.645,25.391,54.199,0
215840.379,30.762,27.344,38.086,22.461,66.895,0
215840.383,34.668,27.832,36.133,24.414,79.102,0
215840.387,39.551,32.715,29.785,38.574,91.309,0
215840.391,44.434,33.691,30.762,40.527,104.980,0
215840.395,48.340,36.133,33.691,39.551,87.891,0
215840.399,48.340,39.062,32.227,39.062,104.004,0
215840.402,38.086,35.645,32.715,30.273,89.355,0
215840.406,31.250,33.691,40.039,37.109,64.453,0
215840.410,34.668,39.551,38.086,36.621,63.965,0
215840.414,35.156,38.574,33.203,25.879,84.961,0
215840.418,29.785,34.180,31.738,25.879,65.918,0
215840.422,29.785,34.180,25.391,30.762,62.012,0
215840.426,37.109,36.133,26.855,33.691,66.895,0
215840.430,37.109,34.668,30.762,29.297,43.457,0
215840.434,33.203,33.691,33.691,27.344,54.199,0
215840.438,28.320,34.180,37.109,28.809,67.871,0
215840.442,25.391,29.785,36.621,26.367,38.086,0
215840.445,24.414,30.762,34.668,25.391,34.180,0
215840.449,24.414,29.785,39.551,24.902,64.941,0
215840.453,27.344,30.273,40.039,38.086,53.223,0
215840.457,23.926,32.227,33.691,44.434,25.879,0
215840.461,15.137,27.832,28.809,26.367,33.691,0
215840.465,17.578,24.902,21.973,18.066,46.875,0
215840.469,22.461,25.879,23.438,21.973,30.273,0
215840.473,20.996,27.832,26.855,24.414,35.645,0
215840.477,19.531,26.855,23.926,25.879,43.457,0
215840.481,22.949,25.391,28.320,26.367,29.297,0
215840.485,30.273,23.438,31.738,27.832,0.488,0
215840.488,30.273,27.344,25.391,25.879,-68.359,0
215840.492,27.344,30.762,27.344,28.320,-83.496,0
215840.496,34.668,30.762,32.227,47.852,-1.465,0
215840.500,38.086,31.738,28.320,48.340,15.625,0
215840.504,41.016,27.832,29.297,40.039,0.977,0
215840.508,45.410,23.438,35.156,43.945,2.930,0
215840.512,41.016,20.508,36.133,44.922,1.953,0
215840.516,38.574,29.297,31.738,47.363,6.836,0
215840.520,46.875,36.621,31.738,50.293,18.066,0
215840.524,46.387,35.645,32.715,41.016,3.906,0
215840.527,48.828,35.645,34.180,43.457,-37.109,0
215840.531,54.199,34.668,39.062,50.781,-16.113,0
215840.535,51.270,35.156,36.621,47.363,-41.016,0
215840.539,55.176,33.691,31.250,44.922,-29.785,0
215840.543,53.711,35.156,34.668,47.852,75.195,0
215840.547,46.387,41.016,42.480,41.016,71.777,0
215840.551,43.457,38.574,45.898,33.691,37.109,0
215840.555,38.574,30.273,33.691,27.832,69.824,0
215840.559,37.598,28.809,31.738,25.391,44.922,0
215840.563,41.016,33.203,41.504,31.738,-8.789,0
215840.567,36.621,27.344,39.062,30.762,-27.832,0
215840.570,31.250,21.973,23.926,32.227,-23.438,0
215840.574,25.391,18.555,18.066,42.480,-22.949,0
215840.578,20.020,20.996,31.250,35.156,-73.242,0
215840.582,20.020,28.809,36.621,18.555,-60.059,0
215840.586,22.461,31.250,46.387,22.949,-7.812,0
215840.590,21.973,31.250,50.293,28.809,-35.645,0
215840.594,25.391,34.180,42.969,30.273,-41.992,0
215840.598,31.738,37.598,38.574,37.109,0.977,0
215840.602,24.902,34.180,30.273,34.180,-6.348,0
215840.606,25.391,29.785,24.414,30.273,-28.809,0
215840.610,29.297,26.855,28.320,30.762,-8.789,0
215840.613,30.762,22.949,27.832,29.785,-6.836,0
215840.617,29.785,22.949,26.367,32.715,13.672,0
215840.621,26.367,24.902,28.809,35.645,44.434,0
215840.625,30.762,28.809,23.926,31.250,33.203,0
215840.629,34.180,31.738,24.902,35.645,13.184,0
215840.633,35.645,30.762,30.273,39.062,20.508,0
215840.637,33.203,25.391,29.297,27.344,44.922,0
215840.641,33.691,27.344,27.832,33.691,58.105,0
215840.645,38.574,31.250,29.785,42.480,64.941,0
215840.649,40.527,34.668,36.133,39.062,41.504,0
215840.652,41.992,35.645,41.504,38.574,15.625,0
215840.656,45.898,35.156,41.016,42.969,10.742,0
215840.660,40.527,35.645,36.621,39.062,32.715,0
215840.664,31.250,29.785,33.203,33.203,49.805,0
215840.668,29.297,25.879,31.738,34.668,16.113,0
215840.672,32.227,28.809,32.715,33.203,-20.020,0
215840.676,36.133,32.227,35.156,39.062,8.789,0
215840.680,35.645,29.785,32.227,42.480,14.160,0
215840.684,29.785,28.320,30.273,31.738,2.930,0
215840.688,29.785,29.785,31.738,31.250,-3.418,0
215840.692,34.180,27.832,39.062,35.645,-18.555,0
215840.695,38.086,25.879,33.691,40.527,-9.277,0
215840.699,40.039,29.297,26.855,37.109,10.254,0
215840.703,30.273,32.715,36.621,22.949,14.160,0
215840.707,21.484,27.344,34.668,17.578,29.297,0
215840.711,25.879,24.414,34.180,27.344,56.641,0
215840.715,28.809,33.203,36.621,31.250,36.133,0
215840.719,33.203,36.621,34.180,27.344,63.965,0
215840.723,39.551,30.762,26.367,29.297,65.918,0
215840.727,35.645,25.879,20.020,22.461,31.738,0
215840.731,34.180,23.926,26.855,15.625,16.113,0
215840.735,30.762,24.414,33.691,18.066,0.000,0
215840.738,24.414,28.320,37.598,23.926,8.789,0
215840.742,24.902,32.715,37.109,26.855,15.625,0
215840.746,27.344,33.203,29.785,29.785,35.645,0
215840.750,25.879,34.180,27.832,32.227,29.297,0
215840.754,26.367,30.762,30.273,32.227,34.180,0
215840.758,34.180,28.320,30.762,30.762,49.805,0
215840.762,36.133,28.809,28.320,36.133,57.617,0
215840.766,29.785,21.973,26.367,35.645,90.332,0
215840.770,26.855,26.367,32.227,31.250,99.121,0
215840.774,31.738,35.156,34.180,31.250,74.219,0
215840.777,35.156,34.668,31.250,26.855,71.777,0
215840.781,31.738,32.227,36.133,36.621,142.578,0
215840.785,30.273,32.715,35.645,41.504,126.953,0
215840.789,32.227,31.250,29.297,27.832,101.562,0
215840.793,37.598,26.855,29.297,30.762,98.633,0
215840.797,34.180,22.949,27.344,36.133,82.520,0
215840.801,31.738,23.438,26.367,37.598,117.188,0
215840.805,35.156,21.973,34.180,48.828,91.309,0
215840.809,32.227,20.508,37.598,50.293,26.367,0
215840.813,34.668,26.367,38.574,40.039,22.461,0
215840.817,32.715,29.297,31.250,31.738,23.438,0
215840.820,35.156,25.391,35.645,35.156,2.441,0
215840.824,41.016,22.461,42.969,37.598,-41.992,0
215840.828,43.457,27.344,38.086,40.039,-56.152,0
215840.832,44.922,29.785,35.645,42.969,-62.500,0
215840.836,41.016,28.320,32.227,42.480,-58.594,0
215840.840,37.109,31.738,31.250,40.527,-38.086,0
215840.844,35.156,29.297,31.738,38.086,-30.762,0
215840.848,31.250,29.297,35.645,37.109,6.348,0
215840.852,27.832,33.203,38.574,36.621,7.812,0
215840.856,28.809,32.227,29.297,40.039,-19.043,0
215840.860,25.879,29.297,30.273,41.992,-24.414,0
215840.863,24.902,22.949,28.809,28.809,-26.367,0
215840.867,28.320,24.414,20.020,21.973,-42.480,0
215840.871,30.273,39.062,22.461,29.785,16.113,0
215840.875,37.598,43.457,30.273,39.062,78.125,0
215840.879,38.574,34.180,35.156,35.156,5.371,0
215840.883,35.645,29.785,37.109,28.320,1.953,0
215840.887,34.180,32.715,30.762,38.086,57.617,0
215840.891,35.645,34.180,24.902,38.086,59.082,0
215840.895,35.645,36.133,23.926,31.250,82.031,0
215840.899,31.250,34.668,25.879,41.992,77.637,0
215840.902,34.668,34.180,24.902,42.480,64.453,0
215840.906,33.203,34.180,20.996,26.367,83.496,0
215840.910,29.785,33.203,20.020,20.508,60.059,0
215840.914,33.203,30.762,28.320,26.367,73.242,0
215840.918,38.086,32.227,39.062,37.109,125.488,0
215840.922,37.598,33.203,32.227,30.762,102.539,0
215840.926,32.715,32.715,21.484,27.832,52.246,0
215840.930,25.879,29.297,26.367,29.785,42.969,0
215840.934,20.996,17.578,36.133,25.391,54.688,0
215840.938,21.973,18.066,40.039,28.809,40.527,0
215840.942,27.832,30.273,31.738,36.133,46.387,0
215840.945,32.715,34.668,20.020,45.898,58.594,1
215840.949,40.527,31.250,21.484,55.664,54.199,0
215840.953,47.852,30.762,26.855,43.945,23.926,0
215840.957,41.504,29.297,33.691,33.203,4.883,0
215840.961,38.086,23.438,38.086,44.434,53.223,0
215840.965,35.645,20.020,36.621,47.852,55.176,0
215840.969,32.715,23.438,43.457,43.945,44.434,0
215840.973,34.180,23.926,46.387,45.410,52.246,0
215840.977,33.691,23.438,38.574,40.527,61.035,0
215840.981,37.598,26.855,30.273,38.086,65.918,0
215840.985,41.992,30.762,26.855,42.969,39.551,0
215840.988,45.410,35.156,29.785,46.387,2.441,0
215840.992,39.551,31.250,40.527,39.551,26.367,0
215840.996,28.809,24.414,37.598,34.180,76.172,0
215841.000,26.367,22.949,30.762,26.855,29.297,0
215841.004,26.367,20.508,38.574,28.320,22.949,0
215841.008,29.785,24.902,34.668,33.691,50.293,0
215841.012,39.062,32.227,29.297,31.738,15.137,0
215841.016,41.504,35.156,30.762,30.762,-25.391,0
215841.020,41.016,37.598,39.551,32.715,-36.133,0
215841.024,37.598,36.133,39.551,32.227,-11.230,0
215841.027,34.668,34.180,37.109,20.996,-3.906,0
215841.031,39.062,35.156,41.992,21.484,-36.133,0
215841.035,38.086,35.156,39.062,29.297,-10.254,0
215841.039,35.156,31.738,29.785,33.691,12.207,0
215841.043,33.203,28.320,14.648,33.203,-44.922,0
215841.047,34.668,31.738,20.020,31.738,-59.082,0
215841.051,33.203,39.062,36.133,31.250,7.324,0
215841.055,28.320,36.621,37.598,24.414,50.781,0
215841.059,26.367,28.809,33.203,29.297,44.434,0
215841.063,23.926,32.227,30.762,31.250,37.109,0
215841.067,21.484,28.320,26.855,18.555,40.527,0
215841.070,24.902,23.438,24.902,20.508,28.320,0
215841.074,30.273,29.297,28.809,23.926,-6.836,0
215841.078,33.691,27.344,32.715,26.855,6.348,0
215841.082,35.645,28.809,33.203,29.297,31.738,0
215841.086,30.762,31.250,30.762,29.785,29.297,0
215841.090,22.461,27.832,27.344,33.203,-6.348,0
215841.094,24.414,29.785,32.715,34.180,-20.996,0
215841.098,29.297,31.250,37.109,26.855,-14.160,0
215841.102,30.762,26.855,35.645,28.809,18.066,0
215841.106,34.180,27.344,35.645,40.039,-13.184,0
215841.110,37.109,34.180,35.156,41.992,-11.230,0
215841.113,37.598,31.738,30.273,38.086,46.387,0
215841.117,34.668,25.391,25.879,38.086,21.484,0
215841.121,29.297,24.902,27.344,39.551,15.137,0
215841.125,28.320,28.809,32.715,39.062,4.395,0
215841.129,28.809,29.297,37.109,37.109,32.715,0
215841.133,28.809,32.715,35.156,41.016,53.711,0
215841.137,31.738,30.273,30.273,37.598,15.625,0
215841.141,34.180,29.785,29.785,34.180,7.324,0
215841.145,31.250,34.180,38.574,33.691,57.129,0
215841.149,23.926,29.785,40.039,16.113,50.293,0
215841.152,19.043,24.414,33.691,8.789,4.883,0
215841.156,21.973,24.414,33.691,20.020,52.734,0
215841.160,20.508,25.391,32.715,21.484,70.801,0
215841.164,13.184,20.020,33.691,19.531,14.160,0
215841.168,15.137,20.020,33.691,21.973,25.879,0
215841.172,21.484,30.762,31.738,23.926,38.574,0
215841.176,22.461,33.691,24.414,27.344,11.230,0
215841.180,21.484,30.273,14.160,28.809,3.418,0
215841.184,27.344,32.715,23.926,30.762,-18.066,0
215841.188,31.738,36.133,36.621,27.344,-32.227,0
215841.192,27.344,33.203,33.691,20.508,-19.043,0
215841.195,23.926,33.203,28.320,16.602,-33.691,0
215841.199,23.438,31.738,33.203,12.695,-33.203,0
215841.203,26.855,29.297,36.133,19.043,14.160,0
215841.207,27.344,25.391,26.855,20.020,40.527,0
215841.211,25.391,29.785,23.926,20.996,56.152,0
215841.215,29.297,35.156,33.691,26.855,44.922,0
215841.219,24.414,30.762,33.691,35.156,52.246,0
215841.223,19.043,26.367,24.902,29.785,33.691,0
215841.227,34.180,23.438,21.973,29.785,18.066,0
215841.231,43.457,21.484,26.855,45.410,20.508,0
215841.235,25.391,22.461,33.203,38.086,-18.555,0
215841.238,9.277,17.090,29.297,22.949,-24.414,0
215841.242,19.043,9.277,28.809,24.902,-19.043,0
215841.246,26.855,16.602,36.621,38.574,-10.254,0
215841.250,20.996,21.973,39.551,32.227,34.668,0
215841.254,20.508,16.602,39.551,16.113,34.180,0
215841.258,19.043,18.555,40.039,19.531,-1.953,0
215841.262,11.719,20.996,40.039,24.902,30.273,0
215841.266,11.230,18.066,31.738,29.297,88.379,0
215841.270,21.484,21.973,25.879,33.691,83.984,0
215841.274,25.879,28.320,31.738,27.832,20.508,0
215841.277,31.250,28.809,38.086,28.320,-4.883,0
215841.281,27.832,20.020,32.227,30.762,0.000,0
215841.285,22.949,19.043,24.414,31.250,-18.555,0
215841.289,31.250,25.391,35.645,34.668,-27.832,0
215841.293,33.203,25.879,45.898,36.133,19.531,0
215841.297,26.855,24.414,41.016,35.156,37.109,0
215841.301,25.391,25.879,34.668,25.879,-12.207,0
215841.305,33.203,29.785,41.992,30.762,1.953,0
215841.309,32.227,26.855,48.340,38.086,20.020,0
215841.313,32.715,22.949,40.527,32.227,-3.906,0
215841.317,39.062,26.855,30.273,30.273,-0.977,0
215841.320,37.598,26.855,27.344,32.715,0.000,0
215841.324,37.598,26.855,35.645,37.109,0.488,0
215841.328,40.527,28.809,41.992,40.039,4.395,0
215841.332,42.480,32.227,40.039,41.016,-0.977,0
215841.336,39.062,33.691,39.062,41.016,13.672,0
215841.340,33.691,32.227,41.016,36.621,53.223,0
215841.344,37.598,32.715,42.480,34.180,48.340,0
215841.348,44.434,34.180,40.527,41.504,22.461,0
215841.352,46.387,34.668,30.273,47.363,-1.465,0
215841.356,42.969,33.691,19.043,38.574,-2.441,0
215841.360,39.551,35.645,27.832,27.344,20.020,0
215841.363,32.227,33.203,35.156,21.484,38.574,0
215841.367,30.762,33.691,41.016,23.926,54.199,0
215841.371,33.203,32.227,38.086,25.879,26.855,0
215841.375,29.785,31.250,27.832,16.113,-18.066,0
215841.379,25.879,32.227,29.785,14.648,-11.230,0
215841.383,32.715,33.691,34.180,24.414,46.387,0
215841.387,37.598,34.668,38.086,26.855,41.504,0
215841.391,28.809,33.691,34.668,31.250,9.277,0
215841.395,28.320,33.203,34.180,38.086,62.988,0
215841.399,33.691,29.297,37.598,31.250,83.984,0
215841.402,30.762,28.320,35.156,24.902,56.152,0
215841.406,27.832,29.785,30.762,24.902,19.531,0
215841.410,29.297,33.203,32.227,23.438,28.809,0
215841.414,23.926,32.715,28.320,18.066,75.195,0
215841.418,27.344,26.855,23.926,19.043,55.664,0
215841.422,34.668,26.367,32.715,26.367,15.625,0
215841.426,32.227,32.227,41.992,36.133,57.129,0
215841.430,36.133,37.109,40.527,44.922,88.379,0
215841.434,27.832,30.762,26.855,33.203,16.113,0
215841.438,20.020,23.926,22.461,28.809,46.875,0
215841.442,24.902,26.367,34.668,44.434,81.543,0
215841.445,24.902,25.391,37.109,37.598,54.199,0
215841.449,27.832,25.879,32.227,24.902,65.430,0
215841.453,27.832,27.344,38.574,27.344,39.062,0
215841.457,24.902,28.320,40.527,30.273,38.574,0
215841.461,29.785,32.715,39.062,34.180,63.965,0
215841.465,33.203,35.645,35.156,31.250,-4.883,0
215841.469,34.180,34.668,24.414,39.062,-24.414,0
215841.473,37.109,30.762,23.438,38.086,18.066,0
215841.477,34.668,21.973,31.250,26.855,45.410,0
215841.481,34.180,23.926,38.086,25.391,49.316,0
215841.485,37.109,31.250,42.480,33.203,28.809,0
215841.488,35.156,33.203,41.504,40.527,18.555,0
215841.492,35.645,34.180,37.109,33.691,15.625,0
215841.496,36.133,31.738,31.738,31.738,34.668,0
215841.500,36.133,33.203,31.250,38.574,24.902,0
215841.504,38.574,35.645,35.645,46.387,30.762,0
215841.508,46.387,35.156,33.691,46.387,52.734,0
215841.512,48.340,33.203,26.367,43.457,31.738,0
215841.516,41.504,26.367,23.926,41.016,27.344,0
215841.520,41.992,24.414,28.809,41.992,33.203,0
215841.524,47.363,28.320,33.691,41.504,22.949,0
215841.527,38.086,28.809,36.621,41.504,41.992,0
215841.531,27.344,30.762,34.668,45.898,80.078,0
215841.535,29.297,27.832,26.367,34.668,45.410,0
215841.539,37.598,28.320,29.297,35.645,25.391,0
215841.543,35.645,33.691,39.062,40.527,72.754,0
215841.547,24.902,30.762,39.551,31.250,116.699,0
215841.551,24.414,28.809,38.086,30.762,96.191,0
215841.555,31.250,28.320,35.645,34.180,40.039,0
215841.559,33.691,30.273,28.320,34.668,51.270,0
215841.563,35.645,31.738,26.855,34.668,65.918,0
215841.567,32.715,23.926,22.949,28.320,63.965,0
215841.570,36.621,24.902,18.555,27.344,40.527,0
215841.574,38.086,26.367,23.926,35.645,39.062,2
215841.578,35.156,23.926,27.832,37.109,81.055,0
215841.582,35.156,22.949,29.297,29.297,73.242,0
215841.586,34.668,23.926,31.738,30.762,38.086,0
215841.590,44.434,29.785,27.832,39.062,30.273,0
215841.594,46.875,31.738,25.879,37.109,57.617,0
215841.598,37.109,29.785,37.109,33.691,35.156,0
215841.602,33.691,29.297,39.551,37.598,-4.883,0
215841.606,33.691,31.250,37.598,39.551,43.945,0
215841.610,29.297,29.297,35.645,38.574,43.945,0
215841.613,24.902,25.391,32.227,30.273,16.602,0
215841.617,22.949,24.414,29.297,17.578,-11.719,0
215841.621,19.043,22.949,30.762,15.137,-13.184,0
215841.625,20.020,24.902,32.715,23.926,38.086,0
215841.629,22.461,28.320,23.926,31.738,34.668,0
215841.633,25.391,33.203,25.391,29.297,35.645,0
215841.637,24.414,27.832,35.156,24.414,69.824,0
215841.641,28.320,26.367,37.598,30.762,77.637,0
215841.645,32.227,35.645,37.109,31.738,59.570,0
215841.649,26.855,31.738,32.715,21.484,71.289,0
215841.652,22.949,25.879,32.715,21.484,97.168,0
215841.656,24.902,23.926,29.297,23.438,31.738,0
215841.660,27.344,23.438,22.949,21.973,-11.230,0
215841.664,29.297,25.391,32.715,23.926,38.086,0
215841.668,28.320,28.320,36.133,23.438,65.918,0
215841.672,29.785,29.785,30.273,23.438,51.270,0
215841.676,30.762,28.809,26.367,29.785,27.344,0
215841.680,24.414,25.879,25.391,26.855,32.715,0
215841.684,29.297,24.414,34.180,25.391,46.387,0
215841.688,36.133,24.414,40.039,32.715,26.367,0
215841.692,34.668,30.273,36.621,30.762,50.781,0
215841.695,39.551,36.621,32.715,31.738,78.125,0
215841.699,44.434,35.645,30.762,33.203,42.480,0
215841.703,37.598,30.762,16.602,24.414,19.043,0
215841.707,27.832,30.273,14.160,26.367,36.133,0
215841.711,29.785,27.832,24.414,33.691,64.941,0
215841.715,34.180,24.902,32.227,30.273,30.762,0
215841.719,28.809,23.926,35.645,27.344,33.691,0
215841.723,31.738,24.414,34.180,34.668,81.055,0
215841.727,32.715,25.879,35.645,38.574,69.824,0
215841.731,28.320,22.461,30.762,30.273,48.828,0
215841.735,39.062,23.926,33.691,29.785,24.902,0
215841.738,44.434,32.227,40.039,34.180,11.230,0
215841.742,35.645,32.227,36.621,31.738,51.758,0
215841.746,33.691,26.367,34.180,30.273,74.707,0
215841.750,34.668,24.902,33.203,24.414,49.316,0
215841.754,33.203,23.438,33.203,23.926,37.598,0
215841.758,26.367,25.879,34.668,29.297,43.457,0
215841.762,26.367,29.785,24.414,30.273,52.734,0
215841.766,34.180,26.367,21.973,43.457,45.898,0
215841.770,33.691,28.809,34.180,42.969,54.688,0
215841.774,32.227,28.320,34.180,27.344,93.750,0
215841.777,27.344,27.344,25.879,26.855,82.520,0
215841.781,26.367,29.785,31.250,30.762,35.645,0
215841.785,32.715,26.855,39.551,41.504,31.250,0
215841.789,32.715,25.879,40.527,45.410,77.148,0
215841.793,23.926,22.461,34.668,30.273,45.410,0
215841.797,18.555,18.555,29.297,23.926,-6.348,0
215841.801,20.020,20.996,32.715,28.320,26.855,0
215841.805,25.391,21.484,32.227,29.785,57.617,0
215841.809,24.902,22.949,20.996,26.855,18.555,0
215841.813,23.438,28.809,21.484,22.949,-56.152,0
215841.817,27.832,29.785,31.250,26.367,-49.316,0
215841.820,24.902,23.926,35.156,29.297,-21.973,0
215841.824,26.367,24.902,39.551,35.645,10.742,0
215841.828,32.715,32.715,41.504,35.645,33.691,0
215841.832,28.809,30.273,37.598,26.367,18.555,0
215841.836,23.926,24.414,33.203,22.949,32.227,0
215841.840,21.973,26.367,32.227,21.973,-7.324,0
215841.844,19.531,28.320,31.250,21.973,10.742,0
215841.848,25.879,30.762,29.785,26.855,29.297,0
215841.852,29.297,32.227,29.785,27.344,11.719,0
215841.856,29.297,28.320,31.738,20.996,0.977,0
215841.860,35.156,28.809,35.645,33.691,-0.488,0
215841.863,35.645,29.785,31.738,41.992,9.277,0
215841.867,31.250,27.344,23.926,27.344,6.836,0
215841.871,33.691,32.227,32.715,29.297,4.883,0
215841.875,31.250,31.250,39.551,36.621,-15.625,0
215841.879,27.832,25.391,29.785,39.062,-3.418,0
215841.883,33.203,27.832,22.949,36.621,14.160,0
215841.887,41.992,32.715,30.762,31.738,-14.648,0
215841.891,42.969,27.832,39.551,31.738,16.602,0
215841.895,38.574,24.414,39.551,36.133,14.160,0
215841.899,35.156,33.691,40.527,37.109,-20.508,0
215841.902,31.250,34.180,41.992,25.879,-19.531,0
215841.906,30.273,27.832,38.086,34.180,-2.930,0
215841.910,34.180,24.414,35.645,49.805,20.996,0
215841.914,34.668,27.832,30.762,34.180,16.113,0
215841.918,29.297,32.227,25.391,19.043,21.484,0
215841.922,30.273,32.227,21.973,23.926,80.078,0
215841.926,35.645,34.668,15.137,24.902,85.938,0
215841.930,41.992,41.016,21.973,28.809,32.715,0
215841.934,38.086,38.086,28.320,25.879,-0.488,0
215841.938,28.320,24.902,23.438,20.996,6.836,0
215841.942,26.855,26.367,26.367,22.949,18.555,0
215841.945,23.926,34.668,22.949,15.625,20.508,0
215841.949,25.879,33.691,20.020,25.879,31.738,0
215841.953,28.320,31.250,28.320,39.062,121.582,0
215841.957,28.320,28.809,29.785,31.250,158.203,0
215841.961,34.180,29.785,28.320,26.367,100.586,0
215841.965,31.250,26.855,25.879,22.949,86.426,0
215841.969,29.785,28.320,29.297,23.438,94.727,0
215841.973,33.691,36.621,27.344,31.738,85.938,0
215841.977,38.086,34.668,23.926,38.086,65.918,0
215841.981,35.645,28.809,25.879,34.668,30.273,0
215841.985,23.926,23.926,30.762,25.879,44.434,0
215841.988,19.531,23.438,35.645,20.996,18.555,0
215841.992,22.461,25.879,34.180,27.832,-13.184,0
215841.996,25.879,28.809,33.691,37.598,28.809,0
215842.000,26.367,31.250,35.156,34.180,69.336,0
215842.004,25.879,28.809,32.715,28.809,120.605,0
215842.008,25.879,28.809,26.367,26.367,77.148,0
215842.012,27.344,27.832,25.879,29.297,39.062,0
215842.016,29.297,28.320,26.367,35.156,50.293,0
215842.020,24.902,31.250,23.438,31.250,41.504,0
215842.024,21.484,34.180,24.414,23.926,37.109,0
215842.027,23.926,34.180,27.832,22.949,53.711,0
215842.031,29.297,29.785,28.320,27.832,64.453,0
215842.035,34.180,29.785,25.879,30.273,2.930,0
215842.039,38.574,27.832,28.809,36.621,-1.465,0
215842.043,37.109,20.020,36.133,32.715,62.012,0
215842.047,35.156,21.973,38.086,29.785,47.852,0
215842.051,40.039,35.645,40.039,47.852,28.320,0
215842.055,37.109,44.922,36.621,41.016,35.645,0
215842.059,26.367,40.527,29.297,27.832,77.637,0
215842.063,25.391,38.086,30.273,32.715,36.133,0
215842.067,25.879,36.133,35.645,34.668,16.113,0
215842.070,27.344,28.809,34.180,30.273,77.637,0
215842.074,34.180,27.344,34.668,30.762,83.008,0
215842.078,39.551,32.227,34.668,32.227,65.430,0
215842.082,43.945,35.156,30.762,33.203,20.508,0
215842.086,42.480,29.785,34.180,41.016,37.598,0
215842.090,40.527,27.832,35.645,41.504,56.641,0
215842.094,39.551,35.156,25.391,30.762,33.691,0
215842.098,37.598,41.504,27.832,24.414,32.715,0
215842.102,34.180,38.086,42.480,24.902,35.156,0
215842.106,28.320,30.762,42.480,27.344,53.223,0
215842.110,29.297,30.273,40.039,26.855,60.059,0
215842.113,32.227,28.320,34.668,31.250,71.289,0
215842.117,34.180,29.785,29.297,34.668,60.059,0
215842.121,37.109,34.180,30.273,32.227,58.594,0
215842.125,39.062,31.250,36.621,22.949,43.945,0
215842.129,39.551,32.715,42.480,23.926,13.184,0
215842.133,43.457,39.062,40.039,43.457,26.855,0
215842.137,42.969,37.598,35.645,48.340,43.457,0
215842.141,43.945,35.645,36.621,45.410,53.223,0
215842.145,50.293,35.156,37.598,45.898,88.867,0
215842.149,51.758,33.691,37.598,49.316,64.453,0
215842.152,41.016,30.762,31.250,42.969,10.254,0
215842.156,37.598,28.809,31.250,38.086,20.996,0
215842.160,42.969,27.832,40.527,39.551,33.203,0
215842.164,41.016,27.344,42.969,39.062,41.992,0
215842.168,41.504,32.715,37.109,41.016,26.367,0
215842.172,45.410,36.133,32.227,38.574,42.969,0
215842.176,44.922,37.109,30.273,46.387,74.707,0
215842.180,42.969,36.621,33.203,50.781,81.055,0
215842.184,39.551,33.691,41.504,39.551,83.008,0
215842.188,37.598,34.668,41.016,39.062,65.430,2
215842.192,35.156,30.762,37.109,41.504,104.004,0
215842.195,27.344,18.066,33.203,29.785,133.301,0
215842.199,23.438,14.648,28.320,25.391,111.816,0
215842.203,30.273,23.926,27.832,30.762,92.773,0
215842.207,35.156,30.762,26.855,35.645,101.074,0
215842.211,30.762,31.250,24.902,37.109,94.727,0
215842.215,28.809,29.297,29.297,37.109,48.340,0
215842.219,32.227,32.227,39.062,33.203,13.184,0
215842.223,30.762,32.227,39.551,26.367,33.203,0
215842.227,24.902,23.926,33.203,24.414,46.875,0
215842.231,24.414,17.578,27.344,23.438,42.969,0
215842.235,27.832,21.973,26.855,27.344,36.621,0
215842.238,21.973,22.461,33.691,33.203,61.523,0
215842.242,27.344,24.902,35.156,36.621,41.016,0
215842.246,37.598,31.738,34.668,38.574,51.270,0
215842.250,34.668,30.762,31.738,41.504,77.148,0
215842.254,28.809,26.367,30.762,34.668,45.898,0
215842.258,28.320,24.414,32.227,20.508,35.645,0
215842.262,37.109,28.809,34.668,23.926,10.254,0
215842.266,38.086,34.668,26.367,30.273,25.879,0
215842.270,34.668,26.367,17.578,31.250,23.438,0
215842.274,39.062,23.438,25.391,38.086,0.977,0
215842.277,37.109,28.320,33.203,31.250,3.906,0
215842.281,33.691,31.250,34.668,25.391,21.484,0
215842.285,32.227,34.668,35.645,31.250,56.152,0
215842.289,28.320,33.203,33.691,36.133,39.062,0
215842.293,27.832,32.227,32.715,35.156,-4.395,0
215842.297,30.273,32.715,34.668,31.250,35.645,0
215842.301,29.297,28.809,31.250,26.367,39.062,0
215842.305,24.902,28.809,27.344,25.879,23.926,0
215842.309,24.414,29.785,26.367,29.297,27.344,0
215842.313,22.949,28.320,27.832,24.414,43.457,0
215842.317,19.531,25.879,28.809,20.996,54.688,0
215842.320,17.090,24.414,27.832,15.625,20.020,0
215842.324,23.438,24.902,33.203,16.113,29.297,0
215842.328,32.715,24.902,36.133,32.715,61.523,0
215842.332,39.062,30.762,29.297,44.434,33.203,0
215842.336,40.039,32.715,29.785,41.016,25.391,0
215842.340,33.691,26.855,36.621,40.039,30.762,0
215842.344,35.156,31.738,30.762,30.762,15.137,0
215842.348,36.621,37.598,26.367,20.996,9.277,0
215842.352,36.133,34.180,28.320,26.367,-18.066,0
215842.356,36.621,29.785,28.320,29.785,-15.137,0
215842.360,33.203,24.902,32.227,25.391,-23.438,0
215842.363,36.133,20.508,34.668,24.414,-39.062,0
215842.367,40.039,23.926,33.203,29.785,-28.320,0
215842.371,38.086,29.785,36.133,37.109,-7.324,0
215842.375,38.574,37.109,37.598,38.574,11.719,0
215842.379,35.156,36.621,37.109,41.016,29.297,0
215842.383,34.180,37.109,36.133,42.969,-1.953,0
215842.387,42.969,42.480,40.039,42.480,-20.508,0
215842.391,32.715,31.738,37.598,29.785,2.441,0
215842.395,23.438,21.973,28.320,19.043,24.414,0
215842.399,24.902,22.461,30.273,16.113,-1.953,0
215842.402,24.902,20.508,30.273,16.113,-8.301,0
215842.406,25.879,20.996,27.832,21.973,22.461,0
215842.410,31.738,27.832,30.762,20.996,-3.906,0
215842.414,36.133,36.133,34.668,20.508,-4.883,0
215842.418,34.180,38.086,30.762,31.250,41.992,0
215842.422,31.738,33.203,25.391,33.203,40.527,0
215842.426,29.785,29.297,28.809,26.367,2.441,0
215842.430,34.668,31.738,32.715,27.344,2.930,0
215842.434,36.621,27.344,33.691,28.320,19.531,0
215842.438,28.320,17.578,31.250,30.273,-7.324,0
215842.442,26.855,20.020,26.855,33.203,3.906,0
215842.445,34.180,26.367,28.809,29.785,3.418,0
215842.449,34.668,28.320,35.645,28.809,-3.418,0
215842.453,31.738,25.391,39.062,25.879,13.184,0
215842.457,33.203,24.414,37.109,22.461,-4.883,0
215842.461,33.203,25.879,42.480,34.180,28.320,0
215842.465,30.273,26.855,37.109,46.387,41.992,0
215842.469,29.297,28.809,28.809,34.180,3.418,0
215842.473,35.645,29.785,33.691,33.203,15.625,0
215842.477,42.480,32.227,37.598,39.062,57.617,0
215842.481,39.062,36.621,31.738,29.785,68.359,0
215842.485,38.086,39.551,26.367,33.691,44.922,0
215842.488,37.598,32.715,29.785,32.715,45.898,0
215842.492,30.762,28.320,29.297,24.414,42.480,0
215842.496,29.297,31.738,29.785,26.367,27.344,0
215842.500,31.250,26.367,35.156,26.855,-0.488,0
215842.504,27.344,21.973,38.574,30.762,-42.480,0
215842.508,23.438,23.438,40.039,33.203,19.531,0
215842.512,27.832,23.926,43.945,38.086,67.871,0
215842.516,32.715,27.344,47.852,44.434,54.688,0
215842.520,30.762,31.250,38.574,38.086,49.316,0
215842.524,30.273,32.227,32.227,36.133,15.625,0
215842.527,33.203,32.715,33.691,40.039,12.207,0
215842.531,31.738,28.809,30.273,38.086,67.383,0
215842.535,36.133,24.414,26.855,43.945,77.148,0
215842.539,39.062,27.344,24.414,50.293,58.105,0
215842.543,36.133,28.320,20.508,43.457,53.711,0
215842.547,31.250,28.809,28.809,30.762,25.391,0
215842.551,28.809,33.203,40.527,37.109,50.781,0
215842.555,29.785,32.227,37.109,49.316,103.516,0
215842.559,28.809,26.855,32.227,39.062,39.551,0
215842.563,34.668,30.273,40.527,34.180,-18.555,0
215842.567,33.203,30.762,39.551,37.598,-1.465,0
215842.570,26.855,23.926,28.809,34.180,-1.465,0
215842.574,28.320,29.297,27.344,37.109,17.090,0
215842.578,28.320,29.785,30.762,41.016,-2.441,0
215842.582,27.832,23.926,32.715,36.133,-7.324,0
215842.586,28.809,21.973,30.273,25.879,-3.906,0
215842.590,26.855,23.438,31.250,26.855,0.000,0
215842.594,24.414,28.320,37.598,29.785,39.551,0
215842.598,21.973,25.391,35.156,27.344,71.777,0
215842.602,19.043,20.996,33.691,29.297,66.895,0
215842.606,20.020,24.414,31.250,26.855,20.508,0
215842.610,21.973,24.902,23.438,22.461,25.879,0
215842.613,23.926,22.949,21.484,22.461,57.129,0
215842.617,24.414,25.391,26.367,27.344,59.082,0
215842.621,26.367,28.320,35.156,34.668,70.312,0
215842.625,25.391,28.809,39.551,36.621,61.035,0
215842.629,26.855,26.367,36.621,40.039,18.066,0
215842.633,30.273,25.391,30.762,41.016,11.719,0
215842.637,30.273,26.367,31.738,40.039,31.250,0
215842.641,30.273,24.414,33.691,42.480,16.602,0
215842.645,27.832,24.414,29.297,37.598,-6.836,0
215842.649,30.762,27.832,34.180,33.691,1.465,0
215842.652,31.250,29.785,37.109,37.109,2.441,0
215842.656,27.832,26.367,34.180,34.180,24.414,0
215842.660,31.738,24.414,30.762,35.156,70.801,0
215842.664,28.320,26.855,29.785,38.086,83.984,0
215842.668,20.996,24.902,31.250,34.180,6.836,0
215842.672,20.508,27.832,29.785,28.809,-8.789,0
215842.676,24.414,32.715,22.461,22.949,39.551,0
215842.680,24.414,25.391,17.090,22.461,11.230,0
215842.684,24.902,23.926,23.926,26.855,-50.293,0
215842.688,26.855,29.785,30.762,29.297,-40.039,0
215842.692,26.367,28.809,26.367,37.598,8.789,0
215842.695,29.297,26.367,23.926,30.273,-30.762,0
215842.699,36.133,24.902,27.832,22.461,-41.992,0
215842.703,36.621,23.926,32.227,31.250,16.113,0
215842.707,29.785,22.949,32.715,31.738,3.906,0
215842.711,26.855,23.926,31.250,32.227,-15.625,0
215842.715,30.762,24.414,31.738,27.344,10.254,0
215842.719,32.227,20.020,27.832,25.391,39.551,0
215842.723,24.902,22.949,23.438,24.414,22.949,0
215842.727,24.414,27.832,23.438,23.438,9.277,0
215842.731,32.715,30.273,25.391,31.738,5.859,0
215842.735,30.762,36.133,26.855,35.156,34.180,0
215842.738,28.809,36.133,26.855,32.227,38.574,0
215842.742,30.762,29.297,29.297,29.785,-21.484,0
215842.746,30.273,30.273,42.480,32.227,1.953,0
215842.750,27.832,30.762,44.434,27.344,57.129,0
215842.754,22.949,24.414,32.227,18.066,64.941,0
215842.758,21.973,22.461,29.785,12.207,26.367,0
215842.762,19.531,21.973,28.809,13.672,36.621,0
215842.766,24.414,24.902,24.902,21.484,62.988,0
215842.770,29.785,26.367,26.855,21.484,30.273,0
215842.774,35.156,25.391,31.250,24.902,41.016,0
215842.777,39.062,27.832,30.762,30.762,40.039,0
215842.781,35.156,34.180,34.180,35.156,8.301,0
215842.785,29.785,34.180,37.109,33.203,-5.859,0
215842.789,38.086,33.691,40.039,37.598,-24.902,0
215842.793,46.387,37.109,37.598,45.410,-23.438,0
215842.797,44.922,34.668,30.762,38.574,4.883,0
215842.801,50.781,35.645,35.156,35.156,32.227,0
215842.805,47.363,39.062,32.227,35.156,0.977,0
215842.809,37.109,37.109,24.414,31.738,-25.879,0
215842.813,32.715,29.785,23.438,29.785,-14.648,0
215842.817,29.785,25.879,32.715,30.762,35.156,0
215842.820,33.691,30.273,49.805,41.992,46.387,0
215842.824,32.715,27.832,51.270,44.434,9.277,0
215842.828,32.227,26.367,43.945,28.809,-11.719,1
215842.832,37.598,32.227,38.086,21.973,-30.762,0
215842.836,28.320,28.809,39.551,24.902,15.625,0
215842.840,20.508,26.367,42.969,24.902,30.762,0
215842.844,29.785,30.762,36.133,27.832,22.949,0
215842.848,31.738,28.809,28.320,32.715,55.176,0
215842.852,29.297,26.367,27.832,33.203,77.637,0
215842.856,32.227,35.156,33.691,35.156,63.965,0
215842.860,36.133,41.992,36.621,32.227,11.230,0
215842.863,38.086,37.109,31.738,28.320,42.969,0
215842.867,35.156,33.203,27.832,38.086,87.891,0
215842.871,34.668,30.273,23.438,41.016,39.551,0
215842.875,36.133,29.785,22.461,25.391,0.488,0
215842.879,36.133,34.180,33.203,19.531,-10.742,0
215842.883,36.133,33.203,38.086,29.297,-11.719,0
215842.887,37.109,33.691,40.527,38.574,9.277,0
215842.891,39.062,36.621,41.504,33.691,21.973,0
215842.895,39.551,36.621,43.945,28.320,23.438,0
215842.899,39.551,38.086,43.945,32.715,50.781,0
215842.902,41.016,35.645,36.133,30.762,49.805,0
215842.906,37.109,33.691,32.715,30.273,32.227,0
215842.910,34.668,34.180,36.133,27.832,43.945,0
215842.914,33.691,33.203,31.250,31.250,20.020,0
215842.918,28.809,35.156,32.227,31.738,24.902,0
215842.922,27.832,33.203,40.039,19.043,55.176,0
215842.926,25.879,24.414,40.039,19.531,56.152,0
215842.930,22.949,23.926,37.598,26.367,87.402,0
215842.934,22.949,26.855,35.156,30.273,94.727,0
215842.938,25.879,29.297,34.668,31.250,102.051,0
215842.942,31.250,33.691,38.086,35.645,135.254,0
215842.945,32.715,32.715,41.016,41.504,136.719,0
215842.949,33.203,29.785,38.086,33.691,104.980,0
215842.953,34.180,31.250,36.133,31.250,80.566,0
215842.957,35.156,35.156,36.621,38.086,65.430,0
215842.961,39.062,34.668,37.109,40.039,53.711,0
215842.965,43.457,31.250,31.738,31.250,51.270,0
215842.969,42.480,34.180,33.691,35.645,63.477,0
215842.973,41.016,35.156,40.039,41.992,72.754,0
215842.977,42.969,28.809,33.691,29.785,62.012,0
215842.981,46.875,25.391,31.250,26.855,46.875,0
215842.985,46.875,29.297,37.598,35.645,41.504,0
215842.988,44.922,31.738,34.180,42.480,12.695,0
215842.992,46.387,29.297,29.785,40.039,5.371,0
215842.996,45.410,24.902,31.738,39.062,15.137,0
215843.000,38.086,19.531,22.949,40.527,10.254,0
215843.004,33.691,27.832,22.949,43.457,-7.812,0
215843.008,38.086,40.039,37.109,49.805,-28.320,0
215843.012,42.969,41.016,44.434,44.922,-33.203,0
215843.016,32.715,32.715,38.086,33.203,-35.645,0
215843.020,21.484,25.879,33.203,24.414,-0.977,0
215843.024,23.926,25.879,28.320,20.020,-1.953,0
215843.027,24.902,30.273,29.297,20.508,-34.668,0
215843.031,27.344,31.250,32.227,30.762,-9.766,0
