timestamps,TP9,AF7,AF8,TP10,Right AUX,Marker0
28077.494,-43.457,-42.480,79.590,-73.730,0.000,0
28077.498,-25.391,-37.109,-50.781,-67.871,0.000,0
28077.502,-30.273,-29.785,-31.250,-34.180,0.000,0
28077.506,-46.875,-31.738,4.883,-9.277,0.000,0
28077.510,-40.527,-35.156,-82.520,7.812,0.000,0
28077.514,-61.035,-37.598,-42.480,-32.227,0.000,0
28077.518,-67.383,-36.133,44.434,-64.453,0.000,0
28077.522,-66.895,-31.738,61.035,-30.762,0.000,0
28077.525,-17.578,-28.320,-110.840,-3.418,0.000,0
28077.529,-11.230,-33.691,-164.062,-15.625,0.000,0
28077.533,-44.922,-41.992,39.551,-67.383,0.000,0
28077.537,-33.203,-43.945,23.926,-74.219,0.000,0
28077.541,5.859,-44.434,-151.367,-33.203,0.000,0
28077.545,6.348,-42.969,-206.055,12.695,0.000,0
28077.549,-27.344,-38.574,-104.492,38.086,0.000,0
28077.553,-32.715,-40.039,115.234,-16.113,0.000,0
28077.557,-14.648,-36.621,28.809,1.953,0.000,0
28077.561,-25.879,-28.809,-63.965,52.246,0.000,0
28077.565,-56.641,-27.344,-2.441,29.297,0.000,0
28077.568,-52.246,-35.156,-4.883,28.320,0.000,0
28077.572,-4.395,-35.645,-11.230,-9.277,0.000,0
28077.576,-1.953,-34.668,-18.555,-40.527,0.000,0
28077.580,-39.062,-28.320,-37.598,8.301,0.000,0
28077.584,-24.414,-28.809,-91.309,40.039,0.000,0
28077.588,-0.488,-34.180,-108.887,35.156,0.000,0
28077.592,-29.297,-39.551,10.254,-5.371,0.000,0
28077.596,-64.941,-45.410,-19.043,-9.766,0.000,0
28077.600,-43.945,-45.410,-130.859,5.859,0.000,0
28077.604,-10.742,-43.945,-78.613,-4.395,0.000,0
28077.607,-33.203,-35.645,-18.066,9.277,0.000,0
28077.611,-67.383,-33.203,64.941,-18.066,0.000,0
28077.615,-18.066,-30.762,-48.340,-54.199,0.000,0
28077.619,18.066,-26.367,-74.219,-34.180,0.000,0
28077.623,-1.465,-34.668,25.391,-30.273,0.000,0
28077.627,-6.348,-32.227,-103.516,16.113,0.000,0
28077.631,-13.184,-30.762,-118.652,-2.441,0.000,0
28077.635,11.230,-32.715,-83.984,-56.641,0.000,0
28077.639,21.973,-24.902,-43.945,-31.738,0.000,0
28077.643,3.906,-21.484,0.000,-10.742,0.000,0
28077.647,1.465,-25.391,-127.930,22.949,0.000,0
28077.650,-1.465,-27.344,-56.641,10.742,0.000,0
28077.654,-24.414,-24.902,64.941,-25.879,0.000,0
28077.658,-35.645,-23.926,-39.551,17.578,0.000,0
28077.662,-20.508,-20.996,-105.957,26.367,0.000,0
28077.666,-20.508,-24.414,-107.422,9.277,0.000,0
28077.670,-50.781,-33.691,51.270,-13.672,0.000,0
28077.674,-23.926,-31.250,37.109,-58.594,0.000,0
28077.678,4.395,-19.531,-92.773,-48.340,0.000,0
28077.682,-25.391,-18.555,-40.039,-25.879,0.000,0
28077.686,-32.227,-21.484,-15.137,19.531,0.000,0
28077.690,-13.672,-19.043,-20.996,6.836,0.000,0
28077.693,-10.254,-20.508,-13.672,-44.922,0.000,0
28077.697,-17.090,-16.602,-93.262,10.742,0.000,0
28077.701,-34.180,-15.625,-20.996,32.227,0.000,0
28077.705,-26.367,-30.762,-30.273,3.906,0.000,0
28077.709,-24.414,-41.992,-54.199,-22.949,0.000,0
28077.713,-59.082,-31.738,48.828,-69.824,0.000,0
28077.717,-74.219,-25.391,42.480,-48.340,0.000,0
28077.721,-32.715,-34.668,-30.762,-28.809,0.000,0
28077.725,-21.484,-34.180,-15.137,-39.062,0.000,0
28077.729,-41.016,-34.180,-128.906,-15.137,0.000,0
28077.732,-57.129,-35.645,-50.293,-39.551,0.000,0
28077.736,-27.344,-26.855,-64.453,-1.465,0.000,0
28077.740,-15.625,-29.297,-91.309,16.602,0.000,0
28077.744,-50.781,-27.832,-44.922,-2.441,0.000,0
28077.748,-75.684,-23.926,-12.207,-15.137,0.000,0
28077.752,-38.574,-24.902,34.180,-70.312,0.000,0
28077.756,-17.090,-29.785,-38.086,-53.711,0.000,0
28077.760,-69.824,-36.621,-1.953,-9.766,0.000,0
28077.764,-83.984,-38.574,-71.289,1.465,0.000,0
28077.768,-34.180,-49.316,-105.957,-13.672,0.000,0
28077.772,-42.480,-49.805,96.680,-74.707,0.000,0
28077.775,-67.871,-45.898,123.047,-108.398,0.000,0
28077.779,-56.152,-40.527,-70.801,-71.777,0.000,0
28077.783,-28.320,-35.645,-157.227,-15.625,0.000,0
28077.787,-32.715,-38.086,-63.477,12.207,0.000,0
28077.791,-57.617,-40.039,99.609,-52.246,0.000,0
28077.795,-70.312,-31.250,1.953,-51.270,0.000,0
28077.799,-49.805,-30.273,-145.020,3.906,0.000,0
28077.803,-20.020,-32.227,-85.449,5.859,0.000,0
28077.807,-64.941,-31.250,84.961,-4.883,0.000,0
28077.811,-55.664,-28.320,69.824,-74.707,0.000,0
28077.815,-16.113,-17.090,-88.379,-71.289,0.000,0
28077.818,-27.344,-20.508,-46.387,-34.668,0.000,0
28077.822,-44.434,-29.297,-37.109,0.977,0.000,0
28077.826,-30.273,-24.902,-1.953,-11.230,0.000,0
28077.830,-33.203,-24.414,37.598,-68.848,0.000,0
28077.834,-43.945,-19.043,-27.832,-21.484,0.000,0
28077.838,-13.672,-9.766,-70.312,38.086,0.000,0
28077.842,-14.160,-8.301,-48.828,39.062,0.000,0
28077.846,-41.992,-14.648,-49.316,17.578,0.000,0
28077.850,-61.035,-22.461,110.352,-53.223,0.000,0
28077.854,-26.367,-21.484,58.105,-65.430,0.000,0
28077.857,38.574,-21.484,-116.699,-36.133,0.000,0
28077.861,6.836,-22.949,-126.465,-9.277,0.000,0
28077.865,-24.902,-23.926,-67.871,6.836,0.000,0
28077.869,-19.043,-30.762,75.195,-61.035,0.000,0
28077.873,-14.160,-29.785,-27.832,-43.945,0.000,0
28077.877,-22.949,-34.180,-120.117,-0.977,0.000,0
28077.881,-46.387,-41.504,-67.871,-19.043,0.000,0
28077.885,-17.578,-39.551,-56.152,-2.930,0.000,0
28077.889,-12.695,-39.551,-4.883,-21.484,0.000,0
28077.893,-44.922,-41.016,21.973,-74.219,0.000,0
28077.897,-76.172,-38.086,31.738,-57.617,0.000,0
28077.900,-30.762,-39.062,-84.473,-13.184,0.000,0
28077.904,9.277,-41.016,-123.535,-18.555,0.000,0
28077.908,-15.137,-30.762,32.715,-51.270,0.000,0
28077.912,-25.879,-22.461,-30.273,-21.973,0.000,0
28077.916,-14.160,-23.438,-121.094,0.977,0.000,0
28077.920,7.812,-23.438,-39.062,-1.953,0.000,0
28077.924,13.672,-22.461,20.508,0.488,0.000,0
28077.928,5.371,-25.391,79.590,-64.453,0.000,0
28077.932,-27.344,-28.320,-2.441,-59.570,0.000,0
28077.936,-26.367,-31.250,-5.371,1.953,0.000,0
28077.940,-14.160,-30.273,21.973,5.859,0.000,0
28077.943,-12.695,-26.367,-73.730,8.789,0.000,0
28077.947,-12.695,-36.621,-25.879,-34.668,0.000,0
28077.951,-53.711,-41.992,33.203,-62.012,0.000,0
28077.955,-38.086,-37.109,-10.254,-44.434,0.000,0
28077.959,3.906,-35.156,-109.863,-18.066,0.000,0
28077.963,34.668,-34.180,-168.457,11.719,0.000,0
28077.967,-11.230,-37.109,-16.113,-54.688,0.000,0
28077.971,-42.969,-37.598,-36.621,-46.387,0.000,0
28077.975,-18.555,-33.203,-175.781,4.395,0.000,0
28077.979,-27.832,-26.855,-184.570,-6.348,0.000,0
28077.982,-78.125,-26.855,-27.832,-5.859,0.000,0
28077.986,-81.543,-34.180,55.176,-47.363,0.000,0
28077.990,18.555,-26.855,-126.953,-65.430,0.000,0
28077.994,-3.906,-27.344,-151.855,-48.828,0.000,0
28077.998,-74.707,-37.109,-99.609,-36.133,0.000,0
28078.002,-30.273,-28.809,-113.770,3.418,0.000,0
28078.006,-33.691,-23.438,-27.832,-25.391,0.000,0
28078.010,-68.359,-24.414,-33.203,-12.207,0.000,0
28078.014,-6.836,-22.461,-105.957,14.160,0.000,0
28078.018,73.730,-25.391,-107.422,-6.836,0.000,0
28078.022,-14.160,-29.297,-65.430,17.578,0.000,0
28078.025,-91.797,-35.156,4.395,-25.879,0.000,0
28078.029,-57.129,-34.668,6.348,-83.008,0.000,0
28078.033,-29.785,-26.855,41.992,-56.152,0.000,0
28078.037,-42.969,-24.414,-55.664,15.625,0.000,0
28078.041,-27.832,-26.367,-38.086,52.246,0.000,0
28078.045,24.902,-34.668,104.980,-34.668,0.000,0
28078.049,-41.504,-41.504,16.602,-48.828,0.000,0
28078.053,-46.387,-42.480,-96.191,3.906,0.000,0
28078.057,8.789,-43.945,29.785,-8.301,0.000,0
28078.061,-54.199,-39.062,156.738,19.531,0.000,0
28078.065,-18.555,-36.133,181.152,-24.414,0.000,0
28078.068,41.016,-34.180,240.723,-67.383,0.000,0
28078.072,-34.668,-33.203,166.504,-25.879,0.000,0
28078.076,-57.129,-22.461,113.281,25.391,0.000,0
28078.080,108.887,30.273,112.305,110.840,0.000,0
28078.084,52.734,75.684,303.223,88.379,0.000,0
28078.088,24.902,106.445,502.441,94.238,0.000,0
28078.092,89.355,133.789,461.914,165.039,0.000,0
28078.096,143.555,131.836,389.160,145.020,0.000,0
28078.100,112.305,121.094,467.773,153.809,0.000,0
28078.104,112.793,117.676,646.973,78.613,0.000,0
28078.107,126.465,119.141,660.645,25.879,0.000,0
28078.111,135.254,123.535,530.762,132.324,0.000,0
28078.115,91.309,126.465,562.500,172.852,0.000,0
28078.119,-16.113,119.141,623.047,139.648,0.000,0
28078.123,23.926,106.445,659.180,91.797,0.000,0
28078.127,39.551,101.562,572.754,64.941,0.000,0
28078.131,22.949,110.840,498.535,72.754,0.000,0
28078.135,46.387,114.258,618.652,60.547,0.000,0
28078.139,90.332,115.723,320.312,122.559,0.000,0
28078.143,25.391,95.215,185.059,96.680,0.000,0
28078.147,-40.527,75.684,333.496,10.742,0.000,0
28078.150,-54.199,75.195,242.188,62.988,0.000,0
28078.154,-18.066,63.965,202.148,96.191,0.000,0
28078.158,-29.785,52.734,228.027,59.082,0.000,0
28078.162,-80.078,29.785,413.086,-5.371,0.000,0
28078.166,-67.383,17.090,566.895,-44.922,0.000,0
28078.170,-140.625,21.973,502.930,-4.395,0.000,0
28078.174,-101.562,10.742,472.168,5.859,0.000,0
28078.178,-131.348,9.766,551.758,43.945,0.000,0
28078.182,-157.227,10.254,796.387,20.508,0.000,0
28078.186,-89.355,2.930,803.711,-37.598,0.000,0
28078.190,-182.129,1.953,656.738,7.812,0.000,0
28078.193,-227.051,1.465,626.953,6.836,0.000,0
28078.197,-191.406,5.371,679.199,31.250,0.000,0
28078.201,-118.164,-4.395,818.848,6.836,0.000,0
28078.205,-119.629,-12.695,915.039,-65.430,0.000,0
28078.209,-155.273,-7.324,876.953,-29.785,0.000,0
28078.213,-207.520,-10.254,825.684,-8.301,0.000,0
28078.217,-216.797,-12.695,864.258,21.973,0.000,0
28078.221,-162.598,-12.207,966.797,13.672,0.000,0
28078.225,-172.363,-15.137,938.965,-43.457,0.000,0
28078.229,-49.805,-14.648,783.203,-20.996,0.000,0
28078.232,-101.074,-16.602,841.309,31.250,0.000,0
28078.236,-252.930,-20.020,967.285,-8.789,0.000,0
28078.240,-193.359,-17.090,884.766,-11.230,0.000,0
28078.244,-239.258,-22.949,913.574,-31.738,0.000,0
28078.248,-286.621,-24.414,985.352,-83.984,0.000,0
28078.252,-244.629,-20.508,973.145,-33.203,0.000,0
28078.256,-230.469,-30.273,932.129,8.789,0.000,0
28078.260,-248.047,-42.969,911.621,-26.367,0.000,0
28078.264,-298.340,-43.457,962.402,-61.035,0.000,0
28078.268,-340.332,-33.691,976.074,-51.270,0.000,0
28078.272,-368.164,-26.367,928.711,-50.293,0.000,0
28078.275,-309.570,-23.438,790.039,-53.223,0.000,0
28078.279,-361.816,-26.855,720.703,-0.977,0.000,0
28078.283,-390.137,-38.086,771.484,-43.457,0.000,0
28078.287,-334.961,-39.062,755.371,-61.035,0.000,0
28078.291,-420.410,-40.527,721.191,-27.344,0.000,0
28078.295,-539.062,-42.480,674.805,-57.617,0.000,0
28078.299,-557.129,-53.223,722.656,-74.219,0.000,0
28078.303,-512.695,-63.477,803.223,-108.887,0.000,0
28078.307,-526.855,-55.664,757.812,-94.238,0.000,0
28078.311,-526.855,-35.645,679.199,-66.895,0.000,0
28078.315,-542.969,-17.578,656.250,-25.879,0.000,0
28078.318,-521.973,-7.812,560.547,14.648,0.000,0
28078.322,-542.969,-4.883,555.176,-52.734,0.000,0
28078.326,-536.133,-2.441,569.824,-58.105,0.000,0
28078.330,-524.414,-7.324,503.906,-5.371,0.000,0
28078.334,-536.133,-16.602,434.570,-8.789,0.000,0
28078.338,-556.641,-24.902,591.797,-49.316,0.000,0
28078.342,-620.605,-24.902,757.324,-97.168,0.000,0
28078.346,-539.551,-18.555,554.688,-75.684,0.000,0
28078.350,-442.383,-25.879,496.582,-47.363,0.000,0
28078.354,-485.840,-34.668,521.484,-58.105,0.000,0
28078.357,-521.973,-31.250,547.363,-26.367,0.000,0
28078.361,-477.539,-31.738,609.375,-61.035,0.000,0
28078.365,-380.859,-33.691,445.801,-76.172,0.000,0
28078.369,-384.766,-39.062,338.379,-27.832,0.000,0
28078.373,-410.645,-45.410,392.578,-29.785,0.000,0
28078.377,-331.543,-44.922,361.328,-25.391,0.000,0
28078.381,-310.059,-45.898,414.062,-59.082,0.000,0
28078.385,-270.508,-42.969,444.824,-59.570,0.000,0
28078.389,-273.926,-38.574,425.781,-36.621,0.000,0
28078.393,-303.223,-33.203,352.051,-1.953,0.000,0
28078.397,-236.816,-34.180,249.023,52.246,0.000,0
28078.400,-203.125,-46.387,419.922,-18.066,0.000,0
28078.404,-158.203,-35.156,451.172,-25.391,0.000,0
28078.408,-166.504,-29.785,265.625,39.062,0.000,0
28078.412,-185.547,-41.504,202.148,8.789,0.000,0
28078.416,-107.910,-44.922,299.316,-3.418,0.000,0
28078.420,-63.965,-58.105,455.566,-55.664,0.000,0
28078.424,-98.633,-65.918,344.727,-90.332,0.000,0
28078.428,-193.359,-62.988,148.438,-38.086,0.000,0
28078.432,-177.734,-60.059,120.605,-27.344,0.000,0
28078.436,-116.211,-64.941,259.766,-64.453,0.000,0
28078.440,-92.285,-82.520,368.652,-131.836,0.000,0
28078.443,-123.047,-75.195,24.414,-68.848,0.000,0
28078.447,-117.676,-69.824,63.965,-39.062,0.000,0
28078.451,-103.516,-72.266,235.352,-45.898,0.000,0
28078.455,-112.305,-79.102,157.715,-42.969,0.000,0
28078.459,-44.922,-84.961,245.605,-118.652,0.000,0
28078.463,-69.824,-85.449,256.348,-105.957,0.000,0
28078.467,-5.371,-90.820,59.082,-48.828,0.000,0
28078.471,-9.277,-83.496,7.812,-31.738,0.000,0
28078.475,-40.527,-76.660,44.434,-45.898,0.000,0
28078.479,-12.695,-78.125,236.328,-104.004,0.000,0
28078.482,61.035,-71.777,206.543,-87.402,0.000,0
28078.486,112.305,-70.801,84.961,-55.664,0.000,0
28078.490,106.934,-68.848,64.941,-26.367,0.000,0
28078.494,173.340,-66.895,-9.277,-0.977,0.000,0
28078.498,194.336,-62.500,112.793,-43.945,0.000,0
28078.502,161.133,-60.547,131.836,-38.086,0.000,0
28078.506,158.691,-63.477,81.055,9.766,0.000,0
28078.510,207.031,-61.035,-44.922,-4.395,0.000,0
28078.514,258.301,-72.266,34.668,-71.289,0.000,0
28078.518,276.855,-75.195,200.195,-109.863,0.000,0
28078.522,264.648,-62.012,17.578,-75.195,0.000,0
28078.525,300.293,-59.570,-109.863,-41.504,0.000,0
28078.529,340.820,-59.082,-139.648,3.418,0.000,0
28078.533,292.480,-53.711,62.500,-11.719,0.000,0
28078.537,262.207,-47.852,180.664,-39.062,0.000,0
28078.541,288.086,-44.922,-42.480,-14.648,0.000,0
28078.545,416.016,-42.480,-91.797,17.090,0.000,0
28078.549,440.430,-41.992,22.949,29.297,0.000,0
28078.553,360.840,-53.711,89.844,-32.715,0.000,0
28078.557,421.875,-62.012,-55.176,-61.035,0.000,0
28078.561,441.895,-53.711,-116.211,-43.945,0.000,0
28078.565,464.844,-49.316,-41.016,-10.254,0.000,0
28078.568,470.215,-50.293,-115.723,37.598,0.000,0
28078.572,401.367,-52.246,-75.684,-7.324,0.000,0
28078.576,416.992,-51.270,30.273,-36.133,0.000,0
28078.580,423.340,-50.293,-56.641,0.977,0.000,0
28078.584,431.152,-54.199,-101.562,-22.461,0.000,0
28078.588,398.438,-58.105,-57.129,-48.828,0.000,0
28078.592,392.090,-63.477,-37.598,-40.039,0.000,0
28078.596,383.301,-62.988,78.125,-63.965,0.000,0
28078.600,378.906,-51.758,46.875,-58.594,0.000,0
28078.604,406.738,-49.316,-126.953,-26.367,0.000,0
28078.607,368.652,-52.246,-108.887,-40.039,0.000,0
28078.611,357.422,-43.945,13.184,-18.066,0.000,0
28078.615,374.512,-42.969,59.570,-38.574,0.000,0
28078.619,408.203,-43.945,-11.230,-74.219,0.000,0
28078.623,400.391,-41.016,11.230,-44.434,0.000,0
28078.627,388.184,-41.016,11.719,-6.348,0.000,0
28078.631,381.348,-35.156,-46.875,34.180,0.000,0
28078.635,327.637,-33.691,55.664,-20.020,0.000,0
28078.639,334.473,-39.551,100.098,-48.828,0.000,0
28078.643,291.992,-46.387,61.035,-28.320,0.000,0
28078.647,323.242,-42.480,-102.051,-13.184,0.000,0
28078.650,382.324,-33.691,-104.004,3.906,0.000,0
28078.654,369.141,-34.668,65.430,-31.250,0.000,0
28078.658,289.062,-35.156,-20.020,-53.223,0.000,0
28078.662,329.590,-30.762,-74.707,-29.297,0.000,0
28078.666,326.172,-36.133,-41.504,2.930,0.000,0
28078.670,263.672,-38.086,-66.895,24.414,0.000,0
28078.674,300.781,-41.504,-49.805,-37.598,0.000,0
28078.678,305.664,-33.691,-75.684,-36.133,0.000,0
28078.682,285.645,-24.902,-70.801,14.648,0.000,0
28078.686,211.426,-28.320,-5.859,-5.371,0.000,0
28078.690,199.219,-28.320,-27.832,-10.742,0.000,0
28078.693,273.438,-38.086,-23.926,-51.270,0.000,0
28078.697,260.254,-35.645,42.969,-60.547,0.000,0
28078.701,191.406,-37.598,84.961,-42.969,0.000,0
28078.705,193.359,-41.016,-92.285,-32.227,0.000,0
28078.709,179.688,-48.828,-193.359,-13.184,0.000,0
28078.713,157.227,-61.523,49.805,-96.680,0.000,0
28078.717,132.812,-47.852,68.359,-101.074,0.000,0
28078.721,227.051,-45.898,-126.465,-60.059,0.000,0
28078.725,261.230,-51.758,-171.387,-47.852,0.000,0
28078.729,115.234,-54.688,-12.207,-49.805,0.000,0
28078.732,131.836,-64.453,139.648,-144.043,0.000,0
28078.736,222.168,-55.664,-157.227,-107.422,0.000,0
28078.740,143.066,-54.199,-145.996,-48.340,0.000,0
28078.744,71.777,-66.406,104.980,-73.242,0.000,0
28078.748,127.441,-61.035,-48.828,-75.195,0.000,0
28078.752,168.945,-53.711,-70.312,-83.496,0.000,0
28078.756,210.449,-45.898,-190.918,-13.672,0.000,0
28078.760,117.188,-52.246,-189.453,-29.297,0.000,0
28078.764,60.547,-65.918,-135.254,-59.082,0.000,0
28078.768,116.699,-74.707,-99.121,-48.828,0.000,0
28078.772,172.363,-60.059,40.527,-101.074,0.000,0
28078.775,188.477,-51.758,-30.273,-81.543,0.000,0
28078.779,93.750,-62.012,-107.910,-36.621,0.000,0
28078.783,83.984,-51.270,-62.500,-43.457,0.000,0
28078.787,82.031,-42.480,-3.418,-31.250,0.000,0
28078.791,107.422,-56.641,40.527,-83.008,0.000,0
28078.795,228.516,-61.523,-147.949,-71.289,0.000,0
28078.799,198.730,-51.758,-108.887,-43.945,0.000,0
28078.803,97.168,-50.293,-37.598,-31.738,0.000,0
28078.807,85.938,-52.734,-181.152,2.930,0.000,0
28078.811,137.695,-56.641,-9.277,-71.289,0.000,0
28078.815,134.277,-43.457,1.953,-56.641,0.000,0
28078.818,78.125,-30.273,-112.793,9.766,0.000,0
28078.822,162.598,-30.273,-158.691,3.418,0.000,0
28078.826,234.863,-38.574,-92.773,0.488,0.000,0
28078.830,77.148,-49.805,21.484,-48.340,0.000,0
28078.834,-11.230,-53.223,92.773,-89.355,0.000,0
28078.838,58.594,-49.316,-96.680,-59.570,0.000,0
28078.842,96.191,-45.410,-155.762,-27.344,0.000,0
28078.846,128.906,-52.734,46.387,-71.289,0.000,0
28078.850,129.395,-47.852,12.695,-83.984,0.000,0
28078.854,110.352,-37.598,-156.250,-48.828,0.000,0
28078.857,72.266,-40.527,-192.871,-4.395,0.000,0
28078.861,69.824,-46.387,-58.594,-6.836,0.000,0
28078.865,41.504,-48.828,34.180,-19.531,0.000,0
28078.869,93.750,-55.176,125.000,-74.219,0.000,0
28078.873,101.074,-50.293,38.086,-81.543,0.000,0
28078.877,65.430,-40.039,31.738,-41.504,0.000,0
28078.881,76.172,-29.297,9.766,-7.812,0.000,0
28078.885,93.750,-17.090,-131.348,33.691,0.000,0
28078.889,85.449,-26.367,55.176,-50.293,0.000,0
28078.893,64.941,-32.227,62.012,-53.711,0.000,0
28078.897,96.680,-22.949,-73.730,19.531,0.000,0
28078.900,120.117,-24.902,-65.430,-1.953,0.000,0
28078.904,83.008,-26.855,-21.484,6.348,0.000,0
28078.908,98.145,-32.227,148.438,-27.344,0.000,0
28078.912,192.383,-38.086,93.750,-57.129,0.000,0
28078.916,125.000,-29.297,15.625,-40.527,0.000,0
28078.920,28.320,-24.902,40.527,-11.719,0.000,0
28078.924,34.668,-24.902,84.473,-2.930,0.000,0
28078.928,96.680,-29.785,98.145,-39.551,0.000,0
28078.932,133.789,-24.902,-1.953,-24.414,0.000,0
28078.936,125.000,-21.973,-18.555,1.953,0.000,0
28078.940,141.602,-24.902,2.930,-1.465,0.000,0
28078.943,134.766,-25.391,4.883,7.812,0.000,0
28078.947,146.484,-23.438,214.355,-36.133,0.000,0
28078.951,123.535,-12.207,237.305,-42.969,0.000,0
28078.955,55.664,-10.254,29.785,0.000,0.000,0
28078.959,104.492,-16.602,-10.254,18.066,0.000,0
28078.963,163.574,-23.926,34.180,25.391,0.000,0
28078.967,98.633,-26.855,170.898,2.441,0.000,0
28078.971,84.473,-26.855,140.137,-44.434,0.000,0
28078.975,108.887,-22.949,10.254,-35.645,0.000,0
28078.979,128.418,-24.414,97.656,-11.230,0.000,0
28078.982,122.070,-31.250,140.137,32.227,0.000,0
28078.986,147.949,-27.832,114.746,9.766,0.000,0
28078.990,153.320,-26.855,101.562,-58.594,0.000,0
28078.994,98.145,-24.414,109.375,3.906,0.000,0
28078.998,107.910,-23.438,170.410,36.133,0.000,0
28079.002,111.816,-20.996,106.445,21.484,0.000,0
28079.006,93.262,-22.461,130.371,3.418,0.000,0
28079.010,86.914,-28.809,236.816,-44.922,0.000,0
28079.014,88.379,-30.273,210.938,-55.664,0.000,0
28079.018,113.281,-26.855,143.066,-28.809,0.000,0
28079.022,136.230,-18.555,-17.578,31.738,0.000,0
28079.025,130.371,-26.367,84.473,17.090,0.000,0
28079.029,41.992,-34.668,293.945,-49.805,0.000,0
28079.033,52.246,-25.879,62.988,5.371,0.000,0
28079.037,105.957,-23.926,-26.367,28.320,0.000,0
28079.041,75.684,-32.227,36.621,2.930,0.000,0
28079.045,99.609,-34.180,90.820,0.977,0.000,0
28079.049,133.301,-31.250,199.707,-68.359,0.000,0
28079.053,91.309,-26.855,23.926,-61.035,0.000,0
28079.057,88.867,-22.461,-73.730,-2.930,0.000,0
28079.061,83.984,-22.949,78.613,16.113,0.000,0
28079.065,102.539,-26.855,95.215,-5.859,0.000,0
28079.068,105.469,-31.738,169.434,-53.223,0.000,0
28079.072,85.449,-27.344,98.145,-5.371,0.000,0
28079.076,77.637,-30.762,38.086,13.672,0.000,0
28079.080,130.371,-29.297,-29.297,7.812,0.000,0
28079.084,114.746,-24.902,74.707,-9.277,0.000,0
28079.088,25.879,-31.250,206.543,-75.195,0.000,0
28079.092,52.246,-27.344,74.219,-64.453,0.000,0
28079.096,108.887,-25.391,16.113,-2.441,0.000,0
28079.100,69.824,-25.879,36.133,24.414,0.000,0
28079.104,52.734,-28.809,184.082,-39.551,0.000,1
28079.107,31.250,-24.414,167.969,-36.621,0.000,0
28079.111,40.039,-18.555,38.086,9.277,0.000,0
28079.115,16.602,-28.320,170.898,-5.371,0.000,0
28079.119,25.391,-20.996,131.836,11.719,0.000,0
28079.123,81.055,-20.020,106.445,-31.738,0.000,0
28079.127,0.977,-30.273,255.859,-59.082,0.000,0
28079.131,9.766,-28.320,97.168,-13.672,0.000,0
28079.135,55.664,-23.926,-5.371,18.066,0.000,0
28079.139,83.008,-26.367,-21.484,30.273,0.000,0
28079.143,65.430,-36.621,193.848,-44.922,0.000,0
28079.147,27.832,-36.621,248.047,-83.984,0.000,0
28079.150,46.387,-26.855,110.352,-55.176,0.000,0
28079.154,15.625,-21.973,106.934,-20.996,0.000,0
28079.158,46.387,-23.438,58.594,45.898,0.000,0
28079.162,93.262,-33.203,234.863,-11.230,0.000,0
28079.166,100.098,-31.738,206.055,-70.312,0.000,0
28079.170,76.172,-22.949,-64.941,7.324,0.000,0
28079.174,30.762,-25.391,73.730,13.672,0.000,0
28079.178,20.020,-28.809,122.559,-8.789,0.000,0
28079.182,30.273,-39.551,150.391,-39.062,0.000,0
28079.186,3.906,-48.828,208.984,-80.566,0.000,0
28079.190,-21.973,-48.340,105.957,-64.941,0.000,0
28079.193,23.926,-44.922,86.426,-27.832,0.000,0
28079.197,108.398,-46.875,23.926,1.953,0.000,0
28079.201,57.617,-46.875,47.852,-9.766,0.000,0
28079.205,-59.570,-46.387,179.199,-31.250,0.000,0
28079.209,-77.148,-49.805,139.160,-19.043,0.000,0
28079.213,22.461,-46.387,-14.160,5.859,0.000,0
28079.217,24.414,-44.922,15.137,0.000,0.000,0
28079.221,16.113,-47.852,118.164,-25.391,0.000,0
28079.225,27.344,-44.434,206.055,-77.148,0.000,0
28079.229,-9.766,-37.109,119.141,-56.641,0.000,0
28079.232,-3.418,-34.180,103.516,-10.742,0.000,0
28079.236,-8.789,-34.180,25.879,6.836,0.000,0
28079.240,24.902,-41.992,87.891,-25.391,0.000,0
28079.244,5.859,-51.758,212.891,-62.012,0.000,0
28079.248,-23.926,-42.480,93.750,-21.973,0.000,0
28079.252,1.465,-40.527,229.492,-46.875,0.000,0
28079.256,-24.902,-42.480,122.070,-43.457,0.000,0
28079.260,1.465,-40.527,-14.160,-14.160,0.000,0
28079.264,-9.766,-41.504,202.637,-76.660,0.000,0
28079.268,-23.926,-39.551,151.855,-72.754,0.000,0
28079.272,-18.066,-40.039,2.441,-9.766,0.000,0
28079.275,23.438,-39.062,15.625,2.930,0.000,0
28079.279,30.273,-40.039,166.504,-25.879,0.000,0
28079.283,-38.574,-36.133,237.305,-64.941,0.000,0
28079.287,-16.602,-35.645,58.105,-61.035,0.000,0
28079.291,-11.230,-37.109,108.398,-40.039,0.000,0
28079.295,-60.547,-31.250,245.605,-20.020,0.000,0
28079.299,-35.645,-24.414,141.113,12.695,0.000,0
28079.303,5.859,-27.832,75.195,-31.250,0.000,0
28079.307,-25.391,-34.668,102.539,-40.039,0.000,0
28079.311,-5.371,-36.133,37.109,-3.418,0.000,0
28079.315,-3.906,-38.574,44.434,-12.695,0.000,0
28079.318,-9.766,-40.039,-16.602,-15.625,0.000,0
28079.322,-13.672,-44.922,-26.367,-60.059,0.000,0
28079.326,-21.973,-44.434,141.602,-78.613,0.000,0
28079.330,-27.832,-35.156,199.219,-55.664,0.000,0
28079.334,-34.180,-38.086,85.938,-20.508,0.000,0
28079.338,-56.641,-42.480,35.156,23.926,0.000,0
28079.342,-62.012,-45.410,225.586,-48.340,0.000,0
28079.346,-62.012,-38.574,183.594,-55.664,0.000,0
28079.350,30.273,-32.227,-8.789,9.277,0.000,0
28079.354,27.832,-39.062,172.852,-61.523,0.000,0
28079.357,-79.102,-38.086,270.508,-54.688,0.000,0
28079.361,-22.461,-31.250,146.973,-22.949,0.000,0
28079.365,0.977,-38.574,125.000,-55.664,0.000,0
28079.369,22.949,-38.086,115.723,-38.086,0.000,0
28079.373,-4.883,-30.762,90.820,-12.207,0.000,0
28079.377,-41.504,-30.273,29.785,21.973,0.000,0
28079.381,-25.879,-31.250,179.688,-14.160,0.000,0
28079.385,-38.574,-29.785,159.180,-43.945,0.000,0
28079.389,-36.133,-28.320,67.383,-9.766,0.000,0
28079.393,18.066,-31.738,66.406,-5.371,0.000,0
28079.397,42.480,-32.227,29.297,-0.977,0.000,0
28079.400,-31.250,-41.992,216.309,-55.664,0.000,0
28079.404,-89.355,-34.180,190.430,-83.496,0.000,0
28079.408,-55.664,-23.926,17.578,-29.297,0.000,0
28079.412,-23.926,-32.715,38.086,1.953,0.000,0
28079.416,-23.926,-40.039,10.254,18.555,0.000,0
28079.420,-59.570,-43.945,123.047,-38.574,0.000,0
28079.424,-59.082,-41.504,122.070,-35.645,0.000,0
28079.428,-29.785,-38.574,-24.414,17.090,0.000,0
28079.432,-33.691,-25.391,75.195,5.859,0.000,0
28079.436,-66.406,-20.020,103.027,25.391,0.000,0
28079.440,-103.516,-43.457,112.305,-30.762,0.000,0
28079.443,-109.863,-53.711,156.250,-79.102,0.000,0
28079.447,-103.027,-43.457,144.531,-18.066,0.000,0
28079.451,-70.801,-36.133,-48.828,31.738,0.000,0
28079.455,-88.867,-42.969,-31.250,-3.906,0.000,0
28079.459,-131.836,-54.688,297.363,-67.871,0.000,0
28079.463,-117.676,-47.852,170.410,-69.824,0.000,0
28079.467,-89.844,-33.203,-42.969,-36.621,0.000,0
28079.471,-92.773,-30.273,7.324,-31.250,0.000,0
28079.475,-95.215,-33.691,20.508,5.371,0.000,0
28079.479,-118.652,-44.434,128.906,-22.461,0.000,0
28079.482,-124.512,-43.945,179.199,-68.848,0.000,0
28079.486,-83.984,-29.297,-29.785,10.254,0.000,0
28079.490,-98.145,-31.738,45.410,29.297,0.000,0
28079.494,-90.332,-36.621,68.848,13.672,0.000,0
28079.498,-88.867,-37.598,45.410,-38.574,0.000,0
28079.502,-80.078,-32.227,81.543,-78.125,0.000,0
28079.506,-45.898,-33.203,-32.715,-40.527,0.000,0
28079.510,-47.363,-38.086,13.184,-34.180,0.000,0
28079.514,-25.391,-26.367,-81.543,17.090,0.000,0
28079.518,-73.242,-35.645,18.555,6.836,0.000,0
28079.522,-120.605,-38.574,143.555,-63.965,0.000,0
28079.525,-82.520,-26.367,-15.625,-13.184,0.000,0
28079.529,-82.031,-25.391,4.883,31.738,0.000,0
28079.533,-30.273,-25.879,5.371,20.996,0.000,0
28079.537,-85.938,-33.691,94.238,-22.461,0.000,0
28079.541,-152.344,-41.992,125.000,-68.848,0.000,0
28079.545,-74.707,-42.969,-45.898,-56.641,0.000,0
28079.549,-90.332,-40.527,-38.574,-34.668,0.000,0
28079.553,-109.375,-30.762,-111.328,19.043,0.000,0
28079.557,-65.430,-38.574,-67.383,-6.348,0.000,0
28079.561,-108.398,-45.410,121.582,-65.430,0.000,0
28079.565,-84.473,-31.738,-16.602,2.930,0.000,0
28079.568,-29.297,-35.156,-91.309,16.602,0.000,0
28079.572,-80.566,-41.016,-62.988,9.277,0.000,0
28079.576,-105.957,-41.992,7.324,2.441,0.000,0
28079.580,-74.219,-46.387,146.484,-62.500,0.000,0
28079.584,-79.590,-44.434,101.562,-70.801,0.000,0
28079.588,-76.660,-41.992,-133.301,-23.438,0.000,0
28079.592,-37.598,-47.852,-106.445,0.000,0.000,0
28079.596,-51.758,-54.688,42.480,-41.504,0.000,0
28079.600,-46.387,-54.199,80.078,-58.105,0.000,0
28079.604,-59.082,-44.922,-84.961,-8.301,0.000,0
28079.607,-73.730,-41.016,-71.777,-21.484,0.000,0
28079.611,0.977,-44.922,14.648,-41.016,0.000,0
28079.615,8.789,-45.410,-0.977,-29.297,0.000,0
28079.619,-93.262,-38.086,55.176,-71.289,0.000,0
28079.623,-118.652,-29.297,49.805,-64.453,0.000,0
28079.627,-104.004,-32.227,55.176,-4.883,0.000,0
28079.631,-32.715,-38.574,-51.758,2.930,0.000,0
28079.635,-21.973,-42.969,-146.973,-5.859,0.000,0
28079.639,-60.547,-45.410,8.301,-40.527,0.000,0
28079.643,-39.551,-41.016,23.438,-56.641,0.000,0
28079.647,-42.969,-39.062,-57.617,-38.086,0.000,0
28079.650,-55.176,-40.039,-121.094,-11.230,0.000,0
28079.654,-97.656,-35.645,-114.746,12.695,0.000,0
28079.658,-91.309,-38.086,10.254,-43.945,0.000,0
28079.662,14.648,-43.457,46.387,-75.684,0.000,0
28079.666,-46.387,-41.992,-44.922,-33.203,0.000,0
28079.670,-173.340,-35.645,-124.023,13.184,0.000,0
28079.674,-130.371,-39.551,-33.203,-2.441,0.000,0
28079.678,-54.199,-39.062,-45.898,-60.059,0.000,0
28079.682,-4.883,-29.785,-68.359,-63.477,0.000,0
28079.686,-34.668,-31.738,-82.520,-49.316,0.000,0
28079.690,-41.992,-30.762,-121.094,-24.414,0.000,0
28079.693,-62.500,-26.367,-126.465,10.742,0.000,0
28079.697,-101.562,-26.367,15.625,-47.852,0.000,1
28079.701,-84.473,-23.926,-41.992,-51.270,0.000,0
28079.705,-26.367,-19.531,-161.621,5.371,0.000,0
28079.709,-27.344,-31.250,-110.352,4.395,0.000,0
28079.713,-93.750,-44.922,-6.836,-13.184,0.000,0
28079.717,-61.523,-30.273,62.500,-53.711,0.000,0
28079.721,-74.707,-20.996,8.301,-50.293,0.000,0
28079.725,-54.199,-31.738,-20.508,-16.602,0.000,0
28079.729,-47.363,-31.738,-20.508,12.207,0.000,0
28079.732,-53.223,-37.598,-17.090,-12.207,0.000,0
28079.736,-86.426,-46.387,-42.480,-68.359,0.000,0
28079.740,-58.105,-43.457,-173.340,-36.621,0.000,0
28079.744,-28.320,-42.480,-23.438,-14.160,0.000,0
28079.748,-49.316,-36.621,11.719,-5.859,0.000,0
28079.752,-82.520,-40.039,-50.781,-20.508,0.000,0
28079.756,-59.570,-41.992,106.934,-73.242,0.000,0
28079.760,-87.402,-33.203,89.844,-66.895,0.000,0
28079.764,-128.418,-34.668,-8.789,-11.230,0.000,0
28079.768,-48.828,-31.250,-99.609,8.301,0.000,0
28079.772,-74.219,-32.715,7.812,-16.113,0.000,0
28079.775,-125.977,-40.039,174.316,-31.250,0.000,0
28079.779,-77.637,-34.668,-117.676,-8.789,0.000,0
28079.783,-57.129,-29.297,-146.484,-31.738,0.000,0
28079.787,-72.754,-33.203,-45.898,-37.109,0.000,0
28079.791,-21.973,-33.691,-87.402,3.906,0.000,0
28079.795,-28.320,-43.457,51.758,-81.543,0.000,0
28079.799,-104.492,-41.504,-40.527,-83.984,0.000,0
28079.803,-81.543,-38.574,-136.230,-6.348,0.000,0
28079.807,-71.777,-41.992,-102.051,-9.277,0.000,0
28079.811,-64.941,-43.457,-7.324,-23.926,0.000,0
28079.815,-82.031,-50.293,108.398,-89.844,0.000,0
28079.818,-102.539,-46.387,31.738,-94.238,0.000,0
28079.822,-70.312,-39.062,5.859,-59.570,0.000,0
28079.826,-55.176,-39.062,-98.633,-32.227,0.000,0
28079.830,-32.227,-41.992,-117.188,13.672,0.000,0
28079.834,-86.914,-43.457,134.766,-72.266,0.000,0
28079.838,-104.980,-31.738,60.547,-66.406,0.000,0
28079.842,-39.551,-35.156,-118.652,7.812,0.000,0
28079.846,-8.789,-45.410,-57.129,-5.859,0.000,0
28079.850,-47.852,-47.363,4.395,-37.109,0.000,0
28079.854,-83.008,-46.875,89.844,-114.258,0.000,0
28079.857,-61.523,-36.133,69.336,-96.680,0.000,0
28079.861,-43.457,-24.902,44.434,-37.109,0.000,0
28079.865,-76.660,-31.738,71.289,-7.812,0.000,0
28079.869,-51.758,-37.109,-62.500,-1.465,0.000,0
28079.873,-49.805,-24.902,0.977,-31.250,0.000,0
28079.877,-28.320,-15.137,-57.129,-20.508,0.000,0
28079.881,11.230,-20.020,-77.148,12.207,0.000,0
28079.885,-33.203,-21.484,-62.988,10.254,0.000,0
28079.889,-39.551,-24.902,-52.734,-5.859,0.000,0
28079.893,-32.715,-32.715,156.738,-61.035,0.000,0
28079.897,-51.270,-30.762,113.281,-78.613,0.000,0
28079.900,-77.148,-29.297,-76.172,-49.316,0.000,0
28079.904,-65.430,-29.785,-79.590,5.859,0.000,0
28079.908,-58.105,-27.344,13.184,33.691,0.000,0
28079.912,-68.848,-28.320,136.230,-6.348,0.000,0
28079.916,-67.871,-25.879,-66.406,18.555,0.000,0
28079.920,-71.777,-19.531,-168.457,43.457,0.000,0
28079.924,-62.500,-22.461,49.316,33.203,0.000,0
28079.928,-41.504,-29.297,16.602,41.504,0.000,0
28079.932,-28.320,-27.344,5.371,5.859,0.000,0
28079.936,-34.180,-28.809,31.738,-26.367,0.000,0
28079.940,-33.203,-22.949,34.180,2.930,0.000,0
28079.943,-54.688,-20.020,-22.949,52.246,0.000,0
28079.947,-81.543,-30.273,-63.477,39.551,0.000,0
28079.951,-113.770,-35.645,43.457,-12.207,0.000,0
28079.955,-115.234,-34.180,163.574,-60.547,0.000,0
28079.959,-36.133,-27.344,62.988,-55.664,0.000,0
28079.963,-24.414,-30.273,-23.926,-55.664,0.000,0
28079.967,-75.684,-29.785,-99.609,-4.395,0.000,0
28079.971,-87.402,-31.250,8.789,-20.020,0.000,0
28079.975,-46.387,-33.203,162.598,-108.887,0.000,0
28079.979,-12.695,-21.973,-146.484,-27.344,0.000,0
28079.982,-44.434,-21.973,-185.059,20.996,0.000,0
28079.986,-56.641,-22.461,-4.883,12.207,0.000,0
28079.990,-17.578,-28.809,63.477,-1.953,0.000,0
28079.994,-20.020,-27.832,58.105,-42.480,0.000,0
28079.998,-99.609,-22.461,74.219,-30.762,0.000,0
28080.002,-114.746,-18.555,80.566,-22.949,0.000,0
28080.006,-28.320,-20.508,-87.402,10.742,0.000,0
28080.010,-29.785,-28.809,3.906,0.488,0.000,0
28080.014,-69.336,-35.156,136.719,-63.477,0.000,0
28080.018,-20.020,-33.691,-108.887,-26.855,0.000,0
28080.022,28.320,-27.832,-202.637,-9.766,0.000,0
28080.025,-31.738,-25.391,-25.879,-3.906,0.000,0
28080.029,-107.422,-17.578,222.168,1.465,0.000,0
28080.033,-65.430,-15.625,165.039,-66.406,0.000,0
28080.037,-30.762,-21.484,12.207,-82.520,0.000,0
28080.041,-35.645,-29.785,95.215,-65.918,0.000,0
28080.045,-31.250,-26.367,84.473,-4.883,0.000,0
28080.049,33.203,-29.297,33.203,-21.973,0.000,0
28080.053,30.762,-30.762,15.137,-68.848,0.000,0
28080.057,-77.637,-26.367,-6.348,-7.324,0.000,0
28080.061,-83.496,-24.902,130.371,9.766,0.000,0
28080.065,0.977,-14.160,25.391,22.461,0.000,0
28080.068,25.391,-11.719,-32.715,27.344,0.000,0
28080.072,-10.742,-15.625,139.160,-63.477,0.000,0
28080.076,-13.672,-19.043,186.035,-106.445,0.000,0
28080.080,0.000,-19.043,-30.273,-8.789,0.000,0
28080.084,-38.574,-20.996,-187.012,44.922,0.000,0
28080.088,-18.555,-29.297,46.387,-32.227,0.000,0
28080.092,29.297,-25.391,91.797,-25.879,0.000,0
28080.096,25.391,-26.855,-132.812,10.254,0.000,0
28080.100,-32.715,-29.297,-99.609,2.441,0.000,0
28080.104,-144.043,-26.367,44.434,15.137,0.000,0
28080.107,-87.402,-35.156,65.430,-39.062,0.000,0
28080.111,-3.418,-29.297,-16.113,-74.707,0.000,0
28080.115,-39.551,-16.602,-84.473,-18.555,0.000,0
28080.119,11.230,-23.438,-81.055,5.859,0.000,0
28080.123,23.438,-30.273,-137.207,-6.836,0.000,0
28080.127,-40.527,-39.062,38.574,-60.059,0.000,0
28080.131,-23.926,-30.762,92.773,-87.402,0.000,0
28080.135,-57.617,-20.020,-77.148,-46.875,0.000,0
28080.139,-65.918,-26.367,18.555,-45.410,0.000,0
28080.143,0.488,-22.949,-91.797,4.395,0.000,0
28080.147,-26.367,-26.855,60.059,-12.695,0.000,0
28080.150,-55.664,-32.715,124.023,-75.195,0.000,0
28080.154,29.785,-34.668,-197.754,-15.625,0.000,0
28080.158,-9.766,-35.156,-126.465,22.461,0.000,0
28080.162,-47.363,-29.297,-98.145,11.719,0.000,0
28080.166,-47.363,-29.785,-19.043,-37.109,0.000,0
28080.170,-48.828,-30.273,-3.418,-76.172,0.000,0
28080.174,-59.082,-29.297,0.488,-72.754,0.000,0
28080.178,-93.262,-29.785,85.449,-76.660,0.000,0
28080.182,-80.566,-20.508,-186.035,13.672,0.000,0
28080.186,-49.805,-25.391,-87.891,-3.906,0.000,0
28080.190,-60.059,-34.180,74.707,-76.172,0.000,0
28080.193,-123.047,-35.645,-29.297,-44.922,0.000,0
28080.197,-68.359,-32.715,-147.461,-28.809,0.000,0
28080.201,-27.344,-29.785,-220.215,-30.273,0.000,0
28080.205,-78.613,-41.016,20.020,-55.176,0.000,0
28080.209,-68.359,-42.969,119.629,-102.539,0.000,0
28080.213,-80.078,-31.250,-109.863,-107.422,0.000,0
28080.217,-71.777,-25.391,-147.461,-69.336,0.000,0
28080.221,-73.730,-22.949,-117.188,-16.113,0.000,0
28080.225,-74.219,-29.785,-6.348,-51.758,0.000,0
28080.229,-88.867,-28.809,30.273,-80.078,0.000,0
28080.232,-141.113,-17.578,-149.902,-29.785,0.000,0
28080.236,-120.117,-24.902,-67.383,-23.438,0.000,0
28080.240,-116.211,-31.738,-19.043,-28.809,0.000,0
28080.244,-87.891,-30.273,-102.051,-46.387,0.000,0
28080.248,-92.773,-40.039,-22.461,-104.004,0.000,0
28080.252,-81.543,-38.086,-100.098,-83.008,0.000,0
28080.256,-53.223,-32.715,-143.555,-32.715,0.000,0
28080.260,-85.449,-39.551,-208.496,-16.602,0.000,0
28080.264,-90.820,-40.039,-150.879,-56.152,0.000,0
28080.268,-81.055,-32.715,-78.125,-85.449,0.000,0
28080.272,-58.105,-31.738,-183.594,-35.645,0.000,0
28080.275,-97.168,-34.668,-132.324,-29.297,0.000,0
28080.279,-124.512,-34.180,-70.801,-44.922,0.000,0
28080.283,-146.973,-30.273,-40.039,-62.988,0.000,0
28080.287,-86.426,-29.785,-87.402,-92.773,0.000,0
28080.291,-22.461,-33.691,-199.219,-86.426,0.000,0
28080.295,-96.680,-34.180,-147.949,-40.039,0.000,0
28080.299,-127.930,-26.367,-155.762,-19.531,0.000,0
28080.303,-78.125,-23.438,-125.000,-38.574,0.000,0
28080.307,-73.242,-23.438,-23.438,-56.152,0.000,0
28080.311,-102.051,-33.203,192.871,-119.629,0.000,0
28080.315,-29.297,-41.504,149.902,-141.602,0.000,0
28080.318,-32.227,-23.926,-270.508,0.488,0.000,0
28080.322,-91.797,-27.344,-149.902,43.457,0.000,0
28080.326,-110.840,-33.691,106.934,-33.691,0.000,0
28080.330,-86.426,-22.461,9.277,-32.715,0.000,0
28080.334,-32.715,-27.344,-180.176,7.812,0.000,0
28080.338,-49.805,-41.992,-116.699,4.395,0.000,0
28080.342,-4.395,-36.133,73.730,11.230,0.000,0
28080.346,-11.230,-33.203,107.422,-57.129,0.000,0
28080.350,-93.262,-33.691,-38.574,-83.496,0.000,0
28080.354,-39.551,-35.645,11.719,-58.594,0.000,0
28080.357,-37.109,-41.504,50.781,-43.945,0.000,0
28080.361,-74.219,-38.086,-6.836,-7.812,0.000,0
28080.365,-60.547,-34.668,90.820,-52.246,0.000,0
28080.369,-23.926,-25.391,117.676,-47.363,0.000,0
28080.373,7.812,-16.113,133.301,30.762,0.000,0
28080.377,31.738,-13.184,93.750,24.902,0.000,0
28080.381,20.020,-21.973,-25.879,11.230,0.000,0
28080.385,-14.648,-35.645,175.781,-48.340,0.000,0
28080.389,-4.395,-29.785,218.750,-75.195,0.000,1
28080.393,5.371,-22.461,64.453,-25.391,0.000,0
28080.397,16.602,-20.508,12.695,1.465,0.000,0
28080.400,-24.414,-20.996,4.883,24.902,0.000,0
28080.404,-14.160,-38.574,161.621,-31.250,0.000,0
28080.408,34.668,-42.969,58.594,-40.527,0.000,0
28080.412,18.066,-31.738,-55.176,5.859,0.000,0
28080.416,-31.250,-28.320,2.930,-13.672,0.000,0
28080.420,-28.320,-35.156,39.062,-12.695,0.000,0
28080.424,25.391,-39.062,130.371,-57.617,0.000,0
28080.428,-8.301,-34.668,111.816,-98.633,0.000,0
28080.432,-24.414,-30.273,83.984,-31.738,0.000,0
28080.436,-15.625,-33.203,-1.953,0.977,0.000,0
28080.440,38.086,-36.133,-138.184,-3.418,0.000,0
28080.443,11.230,-38.574,50.781,-41.016,0.000,0
28080.447,-49.805,-32.227,6.348,-32.227,0.000,0
28080.451,12.695,-21.973,-149.414,18.555,0.000,0
28080.455,4.883,-23.926,-53.711,-8.789,0.000,0
28080.459,-38.574,-20.996,-9.277,0.977,0.000,0
28080.463,-33.203,-22.461,115.723,-32.715,0.000,0
28080.467,-30.273,-18.555,81.543,-73.242,0.000,0
28080.471,-24.414,-16.113,-84.473,-19.043,0.000,0
28080.475,-16.113,-21.973,-66.406,7.812,0.000,0
28080.479,-48.828,-27.344,-16.602,14.160,0.000,0
28080.482,-56.641,-32.227,17.578,-41.504,0.000,0
28080.486,-39.062,-37.109,61.523,-88.379,0.000,0
28080.490,-63.965,-42.969,53.711,-81.055,0.000,0
28080.494,-35.645,-40.039,-0.977,-43.945,0.000,0
28080.498,-10.254,-40.527,-190.918,17.090,0.000,0
28080.502,-24.902,-50.781,-59.082,-40.527,0.000,0
28080.506,-3.906,-56.152,125.000,-81.543,0.000,0
28080.510,-42.969,-52.246,-19.531,-13.672,0.000,0
28080.514,-104.492,-54.688,-89.355,-11.230,0.000,0
28080.518,-90.820,-58.105,-180.176,-20.996,0.000,0
28080.522,-104.980,-58.594,92.773,-43.457,0.000,0
28080.525,-88.379,-53.223,192.383,-92.773,0.000,0
28080.529,-34.668,-43.945,-157.715,-72.754,0.000,0
28080.533,-64.453,-35.156,-145.508,-36.133,0.000,0
28080.537,-38.086,-30.273,-132.812,13.672,0.000,0
28080.541,-12.695,-40.527,-36.133,-16.602,0.000,0
28080.545,-58.594,-43.457,84.473,-60.059,0.000,0
28080.549,-61.523,-30.762,-138.672,-9.766,0.000,0
28080.553,-52.734,-37.598,-167.480,4.883,0.000,0
28080.557,-29.297,-41.992,-7.812,-3.906,0.000,0
28080.561,-47.852,-35.156,-4.883,-2.441,0.000,0
28080.565,-18.066,-26.855,-17.090,-55.664,0.000,0
28080.568,-25.879,-17.090,46.875,-64.453,0.000,0
28080.572,-61.035,-20.508,-68.848,-21.484,0.000,0
28080.576,-4.395,-27.832,-200.195,-7.812,0.000,0
28080.580,-41.016,-26.855,-70.312,-10.742,0.000,0
28080.584,-36.621,-28.809,-89.844,-38.086,0.000,0
28080.588,2.930,-22.949,-264.648,-28.809,0.000,0
28080.592,4.395,-24.902,-76.660,-54.199,0.000,0
28080.596,10.254,-26.855,64.941,-46.875,0.000,0
28080.600,-49.805,-22.949,-38.574,-23.438,0.000,0
28080.604,-90.820,-32.715,8.789,-77.148,0.000,0
28080.607,-51.758,-28.320,-4.395,-68.848,0.000,0
28080.611,-73.730,-24.902,1.953,-16.113,0.000,0
28080.615,-68.359,-25.879,-105.957,18.066,0.000,0
28080.619,-12.695,-31.250,-197.266,5.371,0.000,0
28080.623,6.836,-36.133,-70.801,-28.320,0.000,0
28080.627,-20.020,-26.367,-130.371,2.441,0.000,0
28080.631,-80.566,-27.344,-173.340,2.930,0.000,0
28080.635,-106.445,-38.574,-181.641,-16.113,0.000,0
28080.639,-87.891,-38.086,-131.836,1.465,0.000,0
28080.643,-67.383,-42.480,-43.945,-40.039,0.000,0
28080.647,-90.820,-50.781,-123.535,-54.199,0.000,0
28080.650,-116.211,-48.828,-211.426,-12.695,0.000,0
28080.654,-104.980,-55.176,-165.527,-14.160,0.000,0
28080.658,-115.234,-54.688,-60.059,-1.953,0.000,0
28080.662,-94.238,-42.480,-41.504,-31.250,0.000,0
28080.666,-80.566,-31.250,-198.242,-59.570,0.000,0
28080.670,-104.980,-30.762,-167.480,-50.781,0.000,0
28080.674,-95.215,-38.086,-139.648,-30.762,0.000,0
28080.678,-80.566,-42.969,-237.793,4.395,0.000,0
28080.682,-97.656,-41.016,-172.363,-52.734,0.000,0
28080.686,-153.809,-39.551,-116.211,-63.965,0.000,0
28080.690,-109.375,-43.945,-167.480,-4.395,0.000,0
28080.693,-69.824,-45.898,-57.617,-67.383,0.000,0
28080.697,-97.168,-38.574,-20.508,-53.711,0.000,0
28080.701,-125.488,-35.156,-25.879,-30.762,0.000,0
28080.705,-106.934,-39.551,-0.977,-88.867,0.000,0
28080.709,-40.039,-36.133,-129.395,-65.430,0.000,0
28080.713,-48.828,-36.133,-146.973,-19.043,0.000,0
28080.717,-64.941,-43.457,-182.129,-5.371,0.000,0
28080.721,-56.641,-43.457,-27.344,-55.176,0.000,0
28080.725,-44.922,-33.691,-20.996,-52.734,0.000,0
28080.729,-28.320,-30.762,-160.156,-11.230,0.000,0
28080.732,-77.637,-36.621,-137.207,-19.531,0.000,0
28080.736,-84.473,-34.668,-93.750,-5.371,0.000,0
28080.740,-42.480,-32.715,0.000,-37.109,0.000,0
28080.744,-26.855,-27.344,11.230,-83.984,0.000,0
28080.748,-74.707,-28.320,-29.297,-49.805,0.000,0
28080.752,-55.664,-32.227,-107.422,1.953,0.000,0
28080.756,-28.320,-28.809,-143.555,0.000,0.000,0
28080.760,-83.984,-29.785,80.566,-63.477,0.000,0
28080.764,-86.914,-22.949,72.754,-42.480,0.000,0
28080.768,-17.090,-13.184,-170.898,20.996,0.000,0
28080.772,11.719,-18.555,-124.512,2.930,0.000,0
28080.775,-4.883,-24.902,-15.625,-21.484,0.000,0
28080.779,-61.035,-35.156,74.707,-83.008,0.000,0
28080.783,-113.770,-28.809,-7.324,-103.027,0.000,0
28080.787,-67.383,-23.438,-5.371,-70.801,0.000,0
28080.791,-53.223,-28.320,-69.824,-28.320,0.000,0
28080.795,-58.594,-29.785,-148.438,7.812,0.000,0
28080.799,-60.547,-32.715,-71.777,-52.734,0.000,0
28080.803,-52.246,-37.598,-172.852,-65.430,0.000,0
28080.807,-71.289,-32.715,-29.297,-33.203,0.000,0
28080.811,-53.711,-27.344,-104.004,-11.230,0.000,0
28080.815,-50.781,-23.438,-254.395,24.414,0.000,0
28080.818,-62.500,-20.996,-1.953,-37.109,0.000,0
28080.822,-19.531,-20.996,-55.664,-32.715,0.000,0
28080.826,8.789,-24.414,-187.500,5.371,0.000,0
28080.830,-29.785,-17.578,-208.008,-4.883,0.000,0
28080.834,-84.961,-17.090,-125.977,-16.602,0.000,0
28080.838,-79.590,-35.156,73.730,-84.961,0.000,0
28080.842,-30.273,-30.762,-20.996,-85.449,0.000,0
28080.846,-59.570,-24.414,-126.465,-55.176,0.000,0
28080.850,-96.191,-22.461,-132.324,-22.949,0.000,0
28080.854,-52.246,-18.555,-138.672,7.812,0.000,0
28080.857,-41.992,-24.902,-50.781,-55.176,0.000,0
28080.861,-61.523,-21.973,-112.793,-46.387,0.000,0
28080.865,-75.195,-22.461,-180.664,-1.465,0.000,0
28080.869,-59.570,-34.180,-193.359,-4.883,0.000,0
28080.873,-16.602,-37.598,-173.340,-5.859,0.000,0
28080.877,-60.059,-41.992,10.254,-75.195,0.000,0
28080.881,-126.465,-44.922,-80.566,-89.844,0.000,0
28080.885,-102.539,-49.805,-183.105,-47.363,0.000,0
28080.889,-110.352,-50.293,-157.715,-7.324,0.000,0
28080.893,-92.773,-46.387,-188.965,6.836,0.000,0
28080.897,-133.301,-44.922,36.133,-58.105,0.000,0
28080.900,-118.652,-32.227,-35.645,-69.824,0.000,0
28080.904,-35.156,-25.879,-249.512,-22.949,0.000,0
28080.908,-40.039,-34.668,-238.770,-19.531,0.000,0
28080.912,-118.652,-38.574,-196.777,-34.668,0.000,0
28080.916,-135.742,-36.133,-97.656,-81.055,0.000,0
28080.920,-69.824,-30.762,-88.379,-98.145,0.000,0
28080.924,-66.895,-23.926,-111.328,-63.965,0.000,0
28080.928,-62.012,-18.555,-157.227,-17.578,0.000,0
28080.932,-29.297,-22.461,-209.473,7.324,0.000,0
28080.936,-62.012,-27.832,-69.824,-37.109,0.000,0
28080.940,-74.707,-15.625,5.859,-48.340,0.000,0
28080.943,-51.270,-7.812,-40.039,-20.996,0.000,0
28080.947,-40.039,-9.766,-159.668,-28.320,0.000,0
28080.951,-42.480,-12.695,-127.930,-26.855,0.000,0
28080.955,-42.480,-25.391,69.824,-59.082,0.000,0
28080.959,-52.734,-26.855,65.430,-81.055,0.000,0
28080.963,-45.410,-19.043,-123.535,-30.273,0.000,0
28080.967,-47.852,-24.414,-161.133,0.000,0.000,0
28080.971,-47.363,-32.715,-44.922,-14.160,0.000,0
28080.975,-19.531,-29.297,-20.020,-41.504,0.000,0
28080.979,-40.527,-30.762,-66.406,-68.359,0.000,0
28080.982,-68.848,-31.250,-83.984,-62.988,0.000,0
28080.986,-68.848,-35.156,50.781,-63.965,0.000,0
28080.990,-40.527,-39.062,-97.168,-20.508,0.000,0
28080.994,-36.133,-35.645,-149.902,-19.531,0.000,0
28080.998,-71.289,-27.832,-65.918,-62.500,0.000,0
28081.002,-58.105,-22.461,-54.688,-32.227,0.000,0
28081.006,-15.137,-22.461,-56.641,-8.789,0.000,0
28081.010,-15.137,-25.879,-149.414,2.441,0.000,0
28081.014,-34.180,-28.809,-61.035,-16.602,0.000,0
28081.018,-56.641,-29.785,27.344,-63.965,0.000,0
28081.022,-21.484,-30.762,-49.805,-51.758,0.000,0
28081.025,10.254,-34.668,-75.195,-31.738,0.000,0
28081.029,-29.785,-33.203,-73.242,8.789,0.000,0
28081.033,-71.289,-35.645,6.836,-4.395,0.000,0
28081.037,-9.766,-41.016,-23.926,-68.359,0.000,0
28081.041,19.043,-35.156,-118.164,-22.949,0.000,0
28081.045,-11.230,-38.086,-54.199,-14.160,0.000,0
28081.049,4.883,-41.016,-76.172,-20.996,0.000,1
28081.053,5.371,-43.945,-26.855,-27.832,0.000,0
28081.057,-10.742,-39.551,81.543,-78.125,0.000,0
28081.061,17.090,-24.902,92.773,-55.664,0.000,0
28081.065,33.203,-22.949,-2.930,-19.531,0.000,0
28081.068,23.926,-28.320,-89.355,12.207,0.000,0
28081.072,39.062,-35.156,45.410,7.324,0.000,0
28081.076,40.527,-38.574,261.719,-58.105,0.000,0
28081.080,19.531,-26.855,45.898,-16.602,0.000,0
28081.084,15.625,-27.344,-45.898,-3.906,0.000,0
28081.088,44.434,-37.109,59.570,-21.484,0.000,0
28081.092,25.879,-37.598,196.777,-21.484,0.000,0
28081.096,46.875,-35.156,139.160,-80.566,0.000,0
28081.100,123.047,-26.855,-9.766,-54.688,0.000,0
28081.104,85.938,-28.809,90.332,-26.855,0.000,0
28081.107,44.434,-32.227,102.539,-6.836,0.000,0
28081.111,92.773,-32.227,45.410,11.230,0.000,0
28081.115,79.102,-39.551,111.816,-41.504,0.000,0
28081.119,82.520,-34.180,61.035,7.812,0.000,0
28081.123,100.586,-27.344,116.211,19.531,0.000,0
28081.127,129.883,-29.785,65.918,-2.930,0.000,0
28081.131,122.070,-30.762,38.574,-11.719,0.000,0
28081.135,70.312,-36.621,285.645,-74.219,0.000,0
28081.139,65.918,-34.668,141.113,-53.223,0.000,0
28081.143,122.559,-28.320,-107.910,12.207,0.000,0
28081.147,130.859,-27.344,-66.895,8.301,0.000,0
28081.150,45.410,-32.715,173.340,-10.742,0.000,0
28081.154,50.293,-35.645,340.820,-61.035,0.000,0
28081.158,85.449,-35.156,124.512,-63.477,0.000,0
28081.162,53.711,-31.250,86.426,-38.574,0.000,0
28081.166,-0.977,-34.668,136.230,-17.578,0.000,0
28081.170,23.926,-36.621,78.125,24.414,0.000,0
28081.174,64.941,-37.109,165.527,-37.109,0.000,0
28081.178,50.781,-33.203,102.051,-41.016,0.000,0
28081.182,-11.230,-28.320,88.379,29.297,0.000,0
28081.186,25.879,-31.250,-5.371,7.812,0.000,0
28081.190,72.266,-28.320,-13.672,-12.207,0.000,0
28081.193,48.828,-30.762,210.449,-55.664,0.000,0
28081.197,34.180,-31.250,103.516,-65.918,0.000,0
28081.201,41.016,-28.320,-18.066,-35.156,0.000,0
28081.205,66.406,-26.367,68.848,-16.113,0.000,0
28081.209,78.613,-31.250,129.395,-21.484,0.000,0
28081.213,52.734,-29.297,59.082,-54.199,0.000,0
28081.217,13.184,-25.391,57.617,-37.109,0.000,0
28081.221,38.086,-29.297,26.855,5.859,0.000,0
28081.225,47.852,-32.227,69.336,0.977,0.000,0
28081.229,46.875,-24.414,94.727,-19.531,0.000,0
28081.232,70.801,-25.391,78.613,-82.520,0.000,0
28081.236,76.172,-27.832,58.105,-86.914,0.000,0
28081.240,55.664,-29.785,93.262,-43.945,0.000,0
28081.244,62.988,-31.738,7.812,3.418,0.000,0
28081.248,77.148,-26.367,-84.473,16.602,0.000,0
28081.252,50.293,-28.809,153.809,-41.504,0.000,0
28081.256,24.414,-29.785,140.137,-23.926,0.000,0
28081.260,49.805,-34.668,-20.508,8.789,0.000,0
28081.264,41.504,-40.039,-9.277,-25.391,0.000,0
28081.268,34.668,-36.621,-8.789,-15.625,0.000,0
28081.272,3.906,-34.180,228.027,-51.758,0.000,0
28081.275,-16.602,-29.785,122.070,-90.820,0.000,0
28081.279,11.230,-26.367,-95.703,-53.223,0.000,0
28081.283,-1.953,-28.809,-79.590,-12.207,0.000,0
28081.287,7.812,-34.668,-46.387,-13.184,0.000,0
28081.291,10.254,-40.527,46.875,-46.875,0.000,0
28081.295,22.949,-39.551,-25.879,-38.086,0.000,0
28081.299,32.715,-35.645,-96.191,-10.254,0.000,0
28081.303,20.020,-41.504,-17.090,-19.531,0.000,0
28081.307,4.395,-48.828,-13.672,-39.062,0.000,0
28081.311,-21.973,-51.758,10.742,-48.828,0.000,0
28081.315,-35.156,-42.969,55.664,-74.219,0.000,0
28081.318,-32.715,-40.527,181.641,-91.309,0.000,0
28081.322,29.785,-32.227,-31.250,-27.344,0.000,0
28081.326,44.922,-25.879,-153.809,8.301,0.000,0
28081.330,-5.371,-26.367,32.227,-28.809,0.000,0
28081.334,9.277,-19.043,2.930,-59.570,0.000,0
28081.338,40.527,-20.020,-70.312,-53.223,0.000,0
28081.342,3.906,-27.344,-15.625,-41.016,0.000,0
28081.346,-32.715,-27.344,-42.480,4.395,0.000,0
28081.350,-9.766,-28.809,-82.031,-1.465,0.000,0
28081.354,5.859,-26.855,-15.625,-48.340,0.000,0
28081.357,-31.738,-22.461,-36.133,-22.461,0.000,0
28081.361,-40.527,-26.855,-4.395,-10.254,0.000,0
28081.365,-15.137,-26.855,-134.766,-18.555,0.000,0
28081.369,-1.953,-22.949,-83.984,-35.645,0.000,0
28081.373,-7.324,-26.855,54.199,-62.500,0.000,0
28081.377,12.207,-23.926,-58.594,-41.992,0.000,0
28081.381,-7.324,-20.508,-127.441,-32.227,0.000,0
28081.385,-25.879,-29.297,-161.133,9.277,0.000,0
28081.389,-23.926,-41.504,-60.059,0.000,0.000,0
28081.393,-30.273,-45.410,-5.371,-53.711,0.000,0
28081.397,-42.480,-35.156,-171.387,-12.207,0.000,0
28081.400,-42.480,-39.062,-167.480,0.977,0.000,0
28081.404,-47.363,-40.039,-35.156,-6.348,0.000,0
28081.408,-69.336,-28.320,66.895,-10.742,0.000,0
28081.412,-22.949,-33.203,-69.824,-64.941,0.000,0
28081.416,-33.203,-41.504,-196.289,-52.734,0.000,0
28081.420,-94.727,-39.062,18.555,-43.945,0.000,0
28081.424,-72.754,-28.809,-110.840,2.441,0.000,0
28081.428,-42.969,-32.227,-219.238,3.418,0.000,0
28081.432,-92.285,-37.109,-54.688,-61.523,0.000,0
28081.436,-91.309,-30.762,-121.094,-13.672,0.000,0
28081.440,-34.668,-39.062,-175.293,-9.277,0.000,0
28081.443,-50.293,-46.387,-198.242,-22.461,0.000,0
28081.447,-63.477,-44.922,-155.273,-10.254,0.000,0
28081.451,-84.961,-44.434,83.496,-78.613,0.000,0
28081.455,-83.008,-40.039,-17.090,-77.637,0.000,0
28081.459,-33.203,-41.016,-223.633,-7.812,0.000,0
28081.463,-62.012,-37.598,-217.285,15.625,0.000,0
28081.467,-102.539,-32.227,-10.742,-19.531,0.000,0
28081.471,-79.590,-37.109,61.035,-79.590,0.000,0
28081.475,-41.016,-38.574,-122.070,-61.035,0.000,0
28081.479,-40.527,-33.203,-121.094,-48.828,0.000,0
28081.482,-34.180,-27.832,-115.234,-30.762,0.000,0
28081.486,-27.832,-30.273,-139.648,10.742,0.000,0
28081.490,-42.969,-37.598,61.035,-60.059,0.000,0
28081.494,-46.387,-32.715,11.230,-69.336,0.000,0
28081.498,-41.504,-33.691,-140.625,-4.395,0.000,0
28081.502,-60.547,-33.203,-129.395,-0.977,0.000,0
28081.506,-33.691,-31.250,-45.898,-13.184,0.000,0
28081.510,-22.949,-35.645,206.543,-62.500,0.000,0
28081.514,-34.668,-30.273,82.520,-67.383,0.000,0
28081.518,7.324,-31.250,-106.934,-50.293,0.000,0
28081.522,10.742,-38.086,-15.625,-31.250,0.000,0
28081.525,-17.578,-34.668,22.461,2.441,0.000,0
28081.529,-9.277,-27.832,76.172,-58.105,0.000,0
28081.533,2.930,-19.043,-34.180,-52.734,0.000,0
28081.537,10.742,-11.719,-66.406,20.508,0.000,0
28081.541,13.672,-5.371,50.781,23.438,0.000,0
28081.545,-2.441,-11.230,19.531,18.066,0.000,0
28081.549,18.066,-18.066,69.824,-34.668,0.000,0
28081.553,51.758,-17.578,93.750,-48.828,0.000,0
28081.557,2.441,-15.137,127.441,-28.809,0.000,0
28081.561,10.742,-7.324,-54.688,2.441,0.000,0
28081.565,37.109,-0.977,-172.363,25.879,0.000,0
28081.568,14.160,-10.742,113.770,-50.781,0.000,0
28081.572,23.926,-14.648,74.707,-43.945,0.000,0
28081.576,54.199,-13.184,-99.609,11.230,0.000,0
28081.580,35.645,-18.066,-88.867,-3.418,0.000,0
28081.584,-21.973,-21.973,-36.133,-6.348,0.000,0
28081.588,-16.113,-22.949,130.859,-50.781,0.000,0
28081.592,12.695,-19.043,104.492,-66.406,0.000,0
28081.596,-7.324,-20.508,-35.645,-32.715,0.000,0
28081.600,-20.508,-22.461,-39.062,4.395,0.000,0
28081.604,-20.508,-26.367,-0.977,9.277,0.000,0
28081.607,31.738,-34.668,17.090,-29.297,0.000,0
28081.611,30.762,-27.344,-12.207,-6.348,0.000,0
28081.615,12.207,-15.625,-87.891,2.930,0.000,0
28081.619,5.859,-12.695,-74.219,-7.324,0.000,0
28081.623,-8.789,-20.508,-21.484,-7.324,0.000,0
28081.627,-17.578,-30.273,52.246,-40.527,0.000,0
28081.631,-29.297,-24.902,5.859,-59.570,0.000,0
28081.635,-7.812,-17.090,-53.711,-20.996,0.000,0
28081.639,10.254,-19.043,-63.965,29.785,0.000,0
28081.643,-15.625,-19.531,-44.922,28.809,0.000,0
28081.647,-32.227,-15.137,77.637,-1.465,0.000,0
28081.650,0.977,-14.648,-34.668,-46.387,0.000,0
28081.654,-0.488,-16.113,-137.695,-28.809,0.000,0
28081.658,-18.555,-20.020,-41.992,-32.715,0.000,0
28081.662,-34.668,-13.184,-124.023,6.836,0.000,0
28081.666,-26.367,-10.254,-137.207,16.113,0.000,0
28081.670,-40.527,-18.066,-1.953,-42.969,0.000,0
28081.674,-21.484,-23.926,-55.664,-13.184,0.000,0
28081.678,-8.789,-24.902,-187.012,5.859,0.000,0
28081.682,-56.641,-26.855,-221.680,5.859,0.000,1
28081.686,-85.938,-36.133,-32.227,-35.156,0.000,0
28081.690,-93.262,-38.086,112.793,-83.984,0.000,0
28081.693,-87.891,-31.738,-23.926,-65.918,0.000,0
28081.697,-49.316,-32.715,-223.145,-53.711,0.000,0
28081.701,-45.898,-30.273,-256.836,0.977,0.000,0
28081.705,-61.035,-30.273,-83.008,4.883,0.000,0
28081.709,-45.898,-33.203,-62.012,-60.059,0.000,0
28081.713,-23.926,-28.320,-237.305,-13.184,0.000,0
28081.717,-13.672,-24.902,-203.125,15.625,0.000,0
28081.721,-80.566,-25.391,-84.961,6.836,0.000,0
28081.725,-110.840,-35.156,0.977,-48.828,0.000,0
28081.729,-72.266,-36.621,45.898,-112.305,0.000,0
28081.732,-82.031,-21.484,-101.562,-40.527,0.000,0
28081.736,-113.770,-31.738,-83.984,-13.672,0.000,0
28081.740,-61.035,-32.715,-142.090,10.742,0.000,0
28081.744,-35.645,-26.855,-160.645,6.836,0.000,0
28081.748,-72.754,-33.691,-52.246,-54.199,0.000,0
28081.752,-97.656,-31.250,-14.648,-6.348,0.000,0
28081.756,-31.738,-30.273,-116.211,12.695,0.000,0
28081.760,-51.270,-39.062,-180.176,-10.742,0.000,0
28081.764,-98.633,-43.457,-98.145,-29.785,0.000,0
28081.768,-59.570,-33.691,-4.395,-72.754,0.000,0
28081.772,-42.480,-25.879,-58.105,-50.781,0.000,0
28081.775,-45.410,-27.832,-103.027,-15.625,0.000,0
28081.779,-87.891,-30.273,-115.234,10.742,0.000,0
28081.783,-88.379,-26.855,11.719,-13.672,0.000,0
28081.787,-41.504,-25.391,50.293,-46.875,0.000,0
28081.791,-33.691,-24.902,-50.293,-4.395,0.000,0
28081.795,-46.387,-20.996,-83.496,-1.953,0.000,0
28081.799,-37.109,-16.602,-202.148,7.812,0.000,0
28081.803,-35.156,-29.297,-148.926,-13.672,0.000,0
28081.807,-42.480,-39.062,14.160,-65.918,0.000,0
28081.811,-39.062,-28.809,-20.020,-18.066,0.000,0
28081.815,-17.090,-8.789,-156.250,15.137,0.000,0
28081.818,-5.371,-4.395,-195.312,2.441,0.000,0
28081.822,-4.883,-15.137,-54.688,-15.137,0.000,0
28081.826,-63.477,-26.367,147.461,-81.055,0.000,0
28081.830,-68.359,-25.879,6.348,-79.102,0.000,0
28081.834,-15.137,-21.484,-128.906,-55.176,0.000,0
28081.838,-29.785,-22.949,-131.348,-18.066,0.000,0
28081.842,-52.734,-29.297,-12.207,17.578,0.000,0
28081.846,-18.066,-34.180,28.809,-57.129,0.000,0
28081.850,-58.594,-28.320,-88.867,-42.969,0.000,0
28081.854,-42.969,-21.484,-128.418,19.043,0.000,0
28081.857,-3.906,-24.902,-146.973,5.371,0.000,0
28081.861,-36.133,-35.156,-137.207,-20.996,0.000,0
28081.865,-41.016,-40.527,13.672,-83.496,0.000,0
28081.869,-21.484,-31.250,-27.344,-72.266,0.000,0
28081.873,-41.992,-27.344,-22.461,-31.250,0.000,0
28081.877,-20.020,-28.320,-87.891,4.883,0.000,0
28081.881,24.902,-26.367,-199.707,25.879,0.000,0
28081.885,-49.316,-36.621,119.629,-59.082,0.000,0
28081.889,-51.270,-38.086,94.238,-45.898,0.000,0
28081.893,7.324,-27.832,-193.848,30.762,0.000,0
28081.897,-24.414,-29.297,-162.109,10.254,0.000,0
28081.900,-41.992,-30.273,-46.875,-10.254,0.000,0
28081.904,-30.762,-35.156,108.887,-52.734,0.000,0
28081.908,-15.137,-30.762,29.297,-59.570,0.000,0
28081.912,14.648,-28.809,-127.930,-30.762,0.000,0
28081.916,-19.043,-30.273,-81.055,-4.883,0.000,0
28081.920,-48.340,-28.809,-46.387,22.949,0.000,0
28081.924,-19.043,-34.180,24.414,-35.645,0.000,0
28081.928,3.418,-31.250,-55.664,-41.504,0.000,0
28081.932,-72.754,-32.715,-8.301,-15.625,0.000,0
28081.936,-49.805,-42.480,0.977,-41.504,0.000,0
28081.940,12.695,-40.039,-225.586,-0.977,0.000,0
28081.943,-29.297,-39.551,-53.711,-37.598,0.000,0
28081.947,-40.527,-39.551,33.203,-68.848,0.000,0
28081.951,-26.367,-43.945,-67.871,-32.227,0.000,0
28081.955,-20.020,-44.434,-76.660,-2.930,0.000,0
28081.959,-6.836,-40.039,-67.383,13.184,0.000,0
28081.963,-37.598,-41.992,11.230,-12.207,0.000,0
28081.967,-52.246,-41.504,-21.484,-25.391,0.000,0
28081.971,-12.695,-39.062,-73.730,-4.395,0.000,0
28081.975,-4.395,-33.691,9.277,-7.812,0.000,0
28081.979,-29.297,-28.320,2.441,-13.184,0.000,0
28081.982,0.000,-21.484,-113.281,-34.180,0.000,0
28081.986,40.527,-19.043,-43.457,-66.895,0.000,0
28081.990,28.809,-17.578,15.137,-36.133,0.000,0
28081.994,2.930,-14.160,-93.262,-12.695,0.000,0
28081.998,12.207,-18.555,-181.641,-19.531,0.000,0
28082.002,0.488,-27.832,-20.020,-34.180,0.000,0
28082.006,-24.902,-33.203,91.797,-66.406,0.000,0
28082.010,-19.531,-35.156,-47.363,-61.035,0.000,0
28082.014,-24.414,-39.062,-90.820,-49.805,0.000,0
28082.018,-50.293,-42.480,-131.348,-6.836,0.000,0
28082.022,-71.777,-38.086,31.250,-10.742,0.000,0
28082.025,-53.711,-30.273,35.645,-71.777,0.000,0
28082.029,-20.020,-21.484,-228.516,-20.996,0.000,0
28082.033,-3.418,-25.391,-151.367,-17.578,0.000,0
28082.037,-2.441,-30.762,38.086,-63.965,0.000,0
28082.041,-17.578,-25.879,-76.660,-30.273,0.000,0
28082.045,-10.742,-25.879,-108.398,-64.453,0.000,0
28082.049,-5.859,-26.367,-96.191,-67.383,0.000,0
28082.053,-21.973,-29.297,-77.637,-52.734,0.000,0
28082.057,-11.719,-35.645,-146.484,-16.113,0.000,0
28082.061,-28.320,-41.504,-48.340,-39.551,0.000,0
28082.065,-78.125,-36.621,75.684,-86.914,0.000,0
28082.068,-60.059,-26.855,-55.176,-33.203,0.000,0
28082.072,-11.230,-26.367,-170.898,-21.484,0.000,0
28082.076,-24.902,-31.738,-147.949,-27.344,0.000,0
28082.080,-64.941,-36.621,-53.711,-35.156,0.000,0
28082.084,-78.613,-38.086,11.719,-76.172,0.000,0
28082.088,-66.895,-32.227,-37.109,-55.664,0.000,0
28082.092,-56.152,-33.203,-87.402,-44.434,0.000,0
28082.096,-82.520,-31.250,-125.000,-16.602,0.000,0
28082.100,-56.152,-28.809,-120.605,-27.832,0.000,0
28082.104,-57.129,-31.250,-29.297,-75.684,0.000,0
28082.107,-84.473,-25.879,-82.520,-20.020,0.000,0
28082.111,-88.867,-20.020,-33.691,3.418,0.000,0
28082.115,-44.434,-23.438,-153.809,-12.695,0.000,0
28082.119,-44.922,-35.156,-158.691,-33.691,0.000,0
28082.123,-66.895,-36.621,34.180,-83.984,0.000,0
28082.127,-63.477,-19.043,-21.484,-58.105,0.000,0
28082.131,-53.223,-16.113,-168.945,0.000,0.000,0
28082.135,-22.461,-22.461,-162.109,4.883,0.000,0
28082.139,-17.578,-29.785,71.289,-46.387,0.000,0
28082.143,-27.344,-27.344,92.773,-55.176,0.000,0
28082.147,-9.766,-15.137,-78.613,-25.879,0.000,0
28082.150,-9.766,-17.578,-119.629,-26.855,0.000,0
28082.154,-45.898,-20.020,-29.785,-7.812,0.000,0
28082.158,-62.012,-20.996,12.695,17.090,0.000,0
28082.162,-29.297,-22.949,-22.461,-55.176,0.000,0
28082.166,-38.086,-17.578,-134.766,-49.805,0.000,0
28082.170,-41.992,-19.531,-98.633,26.855,0.000,0
28082.174,-27.832,-26.855,-105.957,39.062,0.000,0
28082.178,-25.879,-27.344,-115.723,10.254,0.000,0
28082.182,-69.824,-33.203,48.340,-61.523,0.000,0
28082.186,-83.496,-26.367,25.391,-57.129,0.000,0
28082.190,-67.871,-22.949,-52.246,-31.250,0.000,0
28082.193,-52.734,-27.832,-107.422,-17.578,0.000,0
28082.197,-32.715,-28.320,-166.504,18.066,0.000,0
28082.201,-116.699,-31.738,85.449,-33.691,0.000,0
28082.205,-129.883,-25.879,65.918,-37.109,0.000,0
28082.209,-67.871,-24.902,-145.508,21.973,0.000,0
28082.213,-56.152,-28.320,-167.480,16.113,0.000,0
28082.217,-81.055,-23.438,-70.312,1.953,0.000,0
28082.221,-62.988,-35.645,29.297,-62.012,0.000,0
28082.225,-46.875,-29.785,-87.891,-71.777,0.000,0
28082.229,-60.059,-22.949,-143.066,-41.504,0.000,0
28082.232,-59.082,-26.367,-184.570,-16.602,0.000,0
28082.236,-60.059,-24.902,-220.215,13.184,0.000,0
28082.240,-62.988,-33.691,31.250,-63.965,0.000,0
28082.244,-72.266,-25.879,-16.602,-53.711,0.000,0
28082.248,-90.332,-17.090,-234.375,24.902,0.000,0
28082.252,-61.523,-24.902,-203.613,6.836,0.000,0
28082.256,-27.344,-28.809,-168.457,3.906,0.000,0
28082.260,-64.453,-36.621,35.645,-37.109,0.000,0
28082.264,-112.305,-35.156,0.000,-67.383,0.000,0
28082.268,-69.336,-32.227,-188.477,-30.762,0.000,0
28082.272,-28.320,-30.762,-269.043,3.906,0.000,0
28082.275,-59.082,-31.738,-162.598,10.254,0.000,0
28082.279,-78.613,-36.621,5.371,-30.762,0.000,0
28082.283,-47.852,-33.691,-154.297,-24.414,0.000,0
28082.287,-35.156,-27.832,-179.199,11.719,0.000,0
28082.291,-64.453,-27.344,-24.414,-3.418,0.000,0
28082.295,-87.891,-25.879,-55.176,-2.930,0.000,0
28082.299,-67.383,-31.250,-84.473,-40.039,0.000,0
28082.303,-38.086,-29.297,-55.176,-71.777,0.000,0
28082.307,-65.918,-25.879,23.926,-33.203,0.000,0
28082.311,-30.762,-28.809,-146.484,-0.488,0.000,0
28082.315,-17.578,-25.391,-278.320,0.000,0.000,0
28082.318,-47.363,-29.297,-69.824,-31.738,0.000,0
28082.322,-56.152,-27.832,19.043,-59.082,0.000,0
28082.326,-33.203,-27.344,-100.586,-49.805,0.000,0
28082.330,-17.090,-32.227,-151.855,-47.852,0.000,0
28082.334,-36.133,-27.344,-168.457,3.906,0.000,0
28082.338,-33.691,-23.926,-76.660,-1.953,0.000,0
28082.342,-53.223,-22.949,-9.277,-53.223,0.000,0
28082.346,-63.965,-23.926,-86.914,-36.133,0.000,0
28082.350,-61.523,-28.320,-89.844,-27.832,0.000,0
28082.354,-35.156,-23.926,-89.355,1.465,0.000,0
28082.357,5.371,-23.438,-123.047,-10.254,0.000,1
28082.361,-22.461,-23.926,-110.840,-60.059,0.000,0
28082.365,-47.852,-24.414,-87.891,-43.945,0.000,0
28082.369,-27.344,-29.297,-85.938,-22.949,0.000,0
28082.373,0.977,-20.508,-167.969,23.438,0.000,0
28082.377,-9.766,-17.578,-89.355,11.230,0.000,0
28082.381,-56.152,-16.602,-14.648,-33.203,0.000,0
28082.385,-61.035,-20.020,-128.418,5.859,0.000,0
28082.389,-30.762,-27.832,-121.582,19.043,0.000,0
28082.393,-33.691,-23.926,-91.797,16.602,0.000,0
28082.397,-89.355,-21.973,11.230,-14.648,0.000,0
28082.400,-63.477,-25.391,-74.219,-65.430,0.000,0
28082.404,-11.719,-22.461,-173.340,-57.617,0.000,0
28082.408,-31.250,-19.531,-75.684,-27.832,0.000,0
28082.412,-56.152,-20.020,-153.320,12.207,0.000,0
28082.416,-43.457,-20.508,-162.598,-12.695,0.000,0
28082.420,-15.625,-18.066,-34.668,-55.176,0.000,0
28082.424,-24.414,-10.254,-98.633,3.906,0.000,0
28082.428,-31.738,-16.602,-119.141,13.672,0.000,0
28082.432,-52.246,-19.043,-137.207,-4.395,0.000,0
28082.436,-62.988,-22.949,-52.734,-2.930,0.000,0
28082.440,-50.293,-29.785,158.691,-71.289,0.000,0
28082.443,-85.449,-16.113,39.062,-57.129,0.000,0
28082.447,-50.781,-18.555,-150.391,-30.273,0.000,0
28082.451,-16.113,-28.809,-17.090,-46.387,0.000,0
28082.455,-31.738,-19.043,10.742,-22.949,0.000,0
28082.459,-39.062,-16.602,-24.414,-48.340,0.000,0
28082.463,-45.898,-19.043,-177.734,-14.160,0.000,0
28082.467,-72.754,-20.508,-138.184,-2.441,0.000,0
28082.471,-53.711,-15.625,21.484,-7.324,0.000,0
28082.475,-21.484,-10.742,22.461,-4.883,0.000,0
28082.479,-59.570,-14.160,53.223,-61.523,0.000,0
28082.482,-87.891,-14.648,-17.578,-46.875,0.000,0
28082.486,-87.402,-18.066,17.090,6.348,0.000,0
28082.490,-36.621,-16.602,-67.383,18.555,0.000,0
28082.494,-17.578,-18.555,-104.980,-9.277,0.000,0
28082.498,-63.477,-25.391,106.934,-79.590,0.000,0
28082.502,-83.496,-23.438,32.227,-65.430,0.000,0
28082.506,-46.875,-25.879,-39.062,-45.898,0.000,0
28082.510,-19.531,-30.273,-51.270,-23.926,0.000,0
28082.514,-45.410,-26.367,-87.402,13.672,0.000,0
28082.518,-64.453,-28.320,98.145,-55.664,0.000,0
28082.522,-27.832,-29.297,48.340,-47.852,0.000,0
28082.525,-10.254,-31.250,-38.574,9.766,0.000,0
28082.529,-42.969,-32.227,25.879,2.441,0.000,0
28082.533,-100.586,-28.320,110.840,-11.230,0.000,0
28082.537,-63.965,-31.738,161.621,-79.102,0.000,0
28082.541,-14.648,-26.367,49.316,-84.961,0.000,0
28082.545,-50.293,-25.391,34.180,-38.574,0.000,0
28082.549,-51.270,-29.785,1.953,-10.254,0.000,0
28082.553,-25.391,-31.738,93.262,-42.969,0.000,0
28082.557,-28.809,-28.809,156.250,-75.684,0.000,0
28082.561,-47.852,-19.043,86.914,-18.066,0.000,0
28082.565,-45.898,-15.137,-17.578,22.949,0.000,0
28082.568,-7.324,-19.531,-11.719,16.113,0.000,0
28082.572,-8.301,-23.438,103.027,14.648,0.000,0
28082.576,-74.219,-25.879,310.547,-35.156,0.000,0
28082.580,-52.734,-20.020,171.875,-62.500,0.000,0
28082.584,-30.273,-22.949,-8.301,-44.922,0.000,0
28082.588,-27.344,-25.391,65.918,-3.418,0.000,0
28082.592,-37.598,-19.043,148.438,20.020,0.000,0
28082.596,-35.645,-24.414,187.500,-46.875,0.000,0
28082.600,-18.555,-21.484,72.266,-31.250,0.000,0
28082.604,18.555,-22.949,30.762,6.836,0.000,0
28082.607,15.625,-20.996,92.285,-6.836,0.000,0
28082.611,-5.371,-24.902,50.293,1.953,0.000,0
28082.615,-45.898,-33.203,139.160,-46.387,0.000,0
28082.619,-49.316,-30.273,184.082,-67.383,0.000,0
28082.623,-5.371,-24.414,118.164,-27.832,0.000,0
28082.627,5.859,-13.672,33.203,14.160,0.000,0
28082.631,27.832,-12.695,-54.688,35.156,0.000,0
28082.635,5.371,-23.926,174.805,-13.184,0.000,0
28082.639,-18.066,-24.902,204.102,-15.137,0.000,0
28082.643,60.059,-17.578,-30.762,22.461,0.000,0
28082.647,27.344,-20.508,-20.020,4.883,0.000,0
28082.650,-30.273,-23.438,91.797,-1.953,0.000,0
28082.654,-0.488,-22.949,223.145,-44.922,0.000,0
28082.658,11.230,-18.555,31.738,-43.457,0.000,0
28082.662,-14.160,-17.578,-67.383,13.184,0.000,0
28082.666,-43.945,-29.785,90.332,16.113,0.000,0
28082.670,-12.207,-36.133,108.398,0.000,0.000,0
28082.674,-13.672,-36.621,145.020,-48.828,0.000,0
28082.678,-47.852,-28.809,125.000,-58.594,0.000,0
28082.682,-43.945,-28.320,79.102,-41.504,0.000,0
28082.686,10.254,-35.156,-50.293,-16.113,0.000,0
28082.690,-6.836,-33.203,-46.387,18.066,0.000,0
28082.693,-40.527,-33.203,73.730,-40.039,0.000,0
28082.697,-21.484,-26.855,-31.738,-41.992,0.000,0
28082.701,-10.254,-20.996,-98.145,20.508,0.000,0
28082.705,-3.418,-23.926,-43.945,13.184,0.000,0
28082.709,-21.484,-21.484,-19.043,3.418,0.000,0
28082.713,-60.059,-26.367,1.953,-44.922,0.000,0
28082.717,-64.453,-26.367,-16.602,-74.219,0.000,0
28082.721,-11.719,-10.254,-15.625,-34.668,0.000,0
28082.725,-24.902,-13.672,42.480,11.230,0.000,0
28082.729,-60.547,-27.832,-117.676,32.715,0.000,0
28082.732,-56.152,-32.227,-94.238,-42.969,0.000,0
28082.736,-69.824,-23.438,7.812,-36.621,0.000,0
28082.740,-51.270,-22.461,-117.188,13.672,0.000,0
28082.744,-42.969,-23.926,-170.410,-12.207,0.000,0
28082.748,-61.035,-16.113,-137.207,-5.859,0.000,0
28082.752,-62.500,-17.578,62.500,-43.457,0.000,0
28082.756,-65.918,-24.414,87.891,-88.379,0.000,0
28082.760,-58.594,-13.672,-91.309,-32.715,0.000,0
28082.764,-77.148,-3.906,-169.922,17.578,0.000,0
28082.768,-101.562,-11.230,-95.703,21.484,0.000,0
28082.772,-104.980,-15.137,70.312,-39.062,0.000,0
28082.775,-57.617,-13.184,-126.465,-37.598,0.000,0
28082.779,-29.297,-17.578,-246.582,4.883,0.000,0
28082.783,-69.824,-26.367,-102.051,-20.020,0.000,0
28082.787,-78.613,-19.043,-82.031,-9.277,0.000,0
28082.791,-66.895,-15.137,-7.324,-46.875,0.000,0
28082.795,-85.938,-20.020,12.207,-82.031,0.000,0
28082.799,-83.008,-20.020,-65.918,-44.434,0.000,0
28082.803,-53.711,-21.484,-155.762,1.465,0.000,0
28082.807,-68.359,-25.391,-168.945,17.578,0.000,0
28082.811,-90.332,-26.855,30.762,-27.832,0.000,0
28082.815,-103.027,-17.578,133.301,-70.312,0.000,0
28082.818,-95.703,-12.207,-38.574,-45.410,0.000,0
28082.822,-49.805,-15.625,-91.309,-36.133,0.000,0
28082.826,-72.266,-16.602,-87.891,-15.137,0.000,0
28082.830,-91.309,-21.973,3.906,-32.715,0.000,0
28082.834,-65.430,-27.832,48.340,-82.031,0.000,0
28082.838,-41.992,-20.020,-80.078,-20.020,0.000,0
28082.842,-51.758,-21.973,-46.875,15.137,0.000,0
28082.846,-81.543,-25.391,-70.312,0.488,0.000,0
28082.850,-66.895,-26.367,52.734,-33.691,0.000,0
28082.854,-34.668,-20.996,141.113,-49.805,0.000,0
28082.857,-24.414,-12.207,24.902,-17.578,0.000,0
28082.861,-73.730,-19.531,68.848,-46.875,0.000,0
28082.865,-40.527,-23.438,-157.715,10.742,0.000,0
28082.869,-1.465,-19.043,-57.617,15.625,0.000,0
28082.873,-16.602,-20.996,127.930,-64.941,0.000,0
28082.877,-26.367,-19.531,-97.656,-0.488,0.000,0
28082.881,-15.137,-21.973,-154.785,34.180,0.000,0
28082.885,-5.371,-23.926,-82.520,22.949,0.000,0
28082.889,-38.574,-23.926,92.773,-19.043,0.000,0
28082.893,-30.762,-23.438,93.750,-57.129,0.000,0
28082.897,-7.812,-17.578,-99.121,-30.762,0.000,0
28082.900,-31.250,-23.438,-17.090,-27.832,0.000,0
28082.904,-45.898,-27.344,-7.324,14.648,0.000,0
28082.908,-19.531,-30.273,-3.418,-8.789,0.000,2
28082.912,-31.738,-32.227,26.367,-65.918,0.000,0
28082.916,-62.500,-26.855,-69.824,-4.883,0.000,0
28082.920,-30.762,-22.949,-87.402,12.207,0.000,0
28082.924,-4.395,-16.113,-130.371,0.977,0.000,0
28082.928,-15.625,-14.648,-71.777,-15.137,0.000,0
28082.932,-32.227,-23.926,50.293,-73.730,0.000,0
28082.936,-19.043,-21.484,-7.324,-54.688,0.000,0
28082.940,-8.301,-13.672,-113.281,-10.742,0.000,0
28082.943,-42.480,-11.230,-181.641,21.973,0.000,0
28082.947,-54.688,-19.531,-61.523,-10.742,0.000,0
28082.951,-50.293,-25.879,0.977,-20.020,0.000,0
28082.955,-26.367,-27.832,-166.504,18.066,0.000,0
28082.959,-36.133,-31.738,-131.836,-13.672,0.000,0
28082.963,-85.938,-28.320,11.230,-21.484,0.000,0
28082.967,-48.828,-32.715,-43.457,-19.043,0.000,0
28082.971,-31.738,-31.738,-86.914,-51.758,0.000,0
28082.975,-63.965,-18.555,-136.719,-25.391,0.000,0
28082.979,-57.129,-12.207,-204.590,14.648,0.000,0
28082.982,-16.602,-15.625,-188.477,20.508,0.000,0
28082.986,-14.648,-21.973,-64.941,-6.836,0.000,0
28082.990,-45.898,-19.043,-90.332,-5.371,0.000,0
28082.994,-49.805,-20.996,-198.730,14.648,0.000,0
28082.998,-36.621,-24.902,-114.746,0.488,0.000,0
28083.002,-31.250,-25.391,-104.980,4.395,0.000,0
28083.006,-55.664,-25.391,-55.176,-12.207,0.000,0
28083.010,-86.426,-21.973,-6.836,-61.523,0.000,0
28083.014,-48.828,-24.902,-194.824,-41.504,0.000,0
28083.018,-20.020,-34.668,-192.383,-5.859,0.000,0
28083.022,-37.598,-35.645,-105.469,-7.324,0.000,0
28083.025,-60.547,-34.180,-87.891,-32.715,0.000,0
28083.029,-61.035,-32.227,-73.242,-65.918,0.000,0
28083.033,-31.738,-31.738,-109.375,-53.223,0.000,0
28083.037,-40.039,-30.762,-57.617,-42.480,0.000,0
28083.041,-48.828,-28.320,-133.301,0.000,0.000,0
28083.045,-61.523,-37.109,-136.719,-23.926,0.000,0
28083.049,-61.035,-43.457,-31.250,-82.031,0.000,0
28083.053,-57.129,-31.738,-11.230,-29.297,0.000,0
28083.057,-40.527,-24.902,-165.039,3.418,0.000,0
28083.061,-33.203,-28.809,-207.031,-27.344,0.000,0
28083.065,-67.383,-27.832,31.250,-68.848,0.000,0
28083.068,-62.500,-22.949,-3.418,-68.359,0.000,0
28083.072,-23.438,-19.531,-144.043,-44.434,0.000,0
28083.076,-43.457,-26.367,-150.391,-37.598,0.000,0
28083.080,-70.312,-29.785,-165.527,-3.418,0.000,0
28083.084,-58.105,-32.227,-88.379,-16.113,0.000,0
28083.088,-55.664,-34.668,1.953,-66.406,0.000,0
28083.092,-67.383,-33.203,-125.977,-13.672,0.000,0
28083.096,-74.707,-34.180,-138.184,-3.906,0.000,0
28083.100,-62.988,-30.273,-41.504,-17.090,0.000,0
28083.104,-16.113,-31.738,-95.215,-27.344,0.000,0
28083.107,-24.414,-36.621,-103.027,-83.008,0.000,0
28083.111,-57.617,-29.297,-89.844,-58.105,0.000,0
28083.115,-42.969,-25.391,-85.449,-15.625,0.000,0
28083.119,-16.113,-21.484,-183.594,14.648,0.000,0
28083.123,-34.668,-25.879,-111.816,-5.859,0.000,0
28083.127,-78.613,-31.738,4.883,-52.734,0.000,0
28083.131,-59.570,-28.809,-165.527,-16.602,0.000,0
28083.135,-35.645,-27.832,-175.293,-6.348,0.000,0
28083.139,-55.664,-26.855,-86.426,0.977,0.000,0
28083.143,-89.355,-32.715,-22.949,-50.293,0.000,0
28083.147,-75.195,-34.180,-44.922,-94.238,0.000,0
28083.150,-27.344,-20.508,-140.137,-25.391,0.000,0
28083.154,-30.273,-17.090,-127.441,8.789,0.000,0
28083.158,-26.855,-17.090,-205.078,10.742,0.000,0
28083.162,-33.203,-29.785,-18.066,-61.035,0.000,0
28083.166,-61.523,-40.039,162.109,-122.070,0.000,0
28083.170,-37.598,-33.691,-94.727,-45.410,0.000,0
28083.174,-41.504,-35.645,-147.949,-41.504,0.000,0
28083.178,-51.758,-36.133,-181.152,-20.508,0.000,0
28083.182,-40.527,-35.645,-41.016,-24.414,0.000,0
28083.186,-51.270,-35.645,58.594,-78.125,0.000,0
28083.190,-61.035,-30.762,-112.305,-28.809,0.000,0
28083.193,-32.715,-28.809,-189.453,2.930,0.000,0
28083.197,-11.230,-23.438,-141.113,9.766,0.000,0
28083.201,-50.293,-20.996,151.855,-25.391,0.000,0
28083.205,-53.711,-25.879,122.559,-67.383,0.000,0
28083.209,-7.812,-26.367,-161.621,-35.156,0.000,0
28083.213,-12.695,-32.715,-64.453,-38.574,0.000,0
28083.217,2.930,-28.809,-76.172,11.719,0.000,0
28083.221,11.230,-29.785,-47.852,-5.371,0.000,0
28083.225,-27.832,-31.738,21.484,-64.941,0.000,0
28083.229,-44.922,-34.180,-80.078,0.977,0.000,0
28083.232,-49.316,-41.992,-28.320,7.324,0.000,0
28083.236,-17.578,-38.574,-91.797,-5.371,0.000,0
28083.240,-8.301,-42.969,-64.941,-38.086,0.000,0
28083.244,-39.062,-45.410,125.000,-89.844,0.000,0
28083.248,-30.273,-42.969,54.688,-62.500,0.000,0
28083.252,-0.977,-45.898,-125.000,-39.062,0.000,0
28083.256,-20.508,-42.969,-187.988,4.883,0.000,0
28083.260,-5.371,-41.504,-66.895,-5.371,0.000,0
28083.264,-10.742,-39.551,57.617,-50.781,0.000,0
28083.268,-47.363,-36.621,14.160,-48.828,0.000,0
28083.272,-23.438,-41.504,-107.910,-20.508,0.000,0
28083.275,-24.414,-37.109,-184.082,11.719,0.000,0
28083.279,-54.199,-39.551,-57.617,10.254,0.000,0
28083.283,-13.184,-39.062,-27.344,-31.738,0.000,0
28083.287,8.789,-34.668,-66.406,-73.730,0.000,0
28083.291,-52.246,-34.668,-2.441,-38.086,0.000,0
28083.295,-20.996,-31.250,-106.934,12.695,0.000,0
28083.299,40.039,-36.133,-110.352,0.488,0.000,0
28083.303,1.465,-39.551,54.688,-29.785,0.000,0
28083.307,-17.090,-32.715,-72.754,-3.418,0.000,0
28083.311,1.465,-32.227,-145.020,-2.930,0.000,0
28083.315,5.859,-32.227,-58.594,-11.230,0.000,0
28083.318,-17.578,-38.574,45.898,-10.254,0.000,0
28083.322,-32.715,-45.410,93.750,-65.430,0.000,0
28083.326,-36.133,-38.086,-1.953,-77.148,0.000,0
28083.330,-27.832,-34.180,-43.457,-26.367,0.000,0
28083.334,-11.719,-32.715,-9.766,-2.441,0.000,0
28083.338,-11.230,-31.738,11.230,-0.977,0.000,0
28083.342,23.438,-31.738,-74.219,-49.805,0.000,0
28083.346,44.922,-35.156,-73.242,-67.383,0.000,0
28083.350,28.809,-33.691,4.395,-35.645,0.000,0
28083.354,8.789,-36.133,-37.598,-25.391,0.000,0
28083.357,-7.812,-40.039,-144.043,-6.348,0.000,0
28083.361,-14.160,-41.504,-41.504,-57.617,0.000,0
28083.365,-5.371,-44.434,-42.969,-44.434,0.000,0
28083.369,-2.441,-49.316,-20.996,-31.738,0.000,0
28083.373,-17.578,-48.340,-8.301,-54.688,0.000,0
28083.377,-23.438,-37.598,-116.211,5.859,0.000,0
28083.381,-25.391,-34.180,51.758,-36.133,0.000,0
28083.385,-10.254,-26.367,-13.672,-62.012,0.000,0
28083.389,23.438,-21.973,-161.621,-47.852,0.000,0
28083.393,14.160,-18.555,-129.395,-2.930,0.000,0
28083.397,10.742,-20.996,-100.586,42.969,0.000,0
28083.400,2.930,-30.273,-38.086,-40.527,0.000,0
28083.404,-6.348,-26.855,-87.402,-45.410,0.000,0
28083.408,-15.137,-24.902,-125.488,24.902,0.000,0
28083.412,-34.668,-27.344,-90.820,15.625,0.000,0
28083.416,-36.133,-30.273,-80.566,-14.160,0.000,0
28083.420,-44.922,-31.738,-1.465,-72.266,0.000,0
28083.424,-59.082,-30.273,-7.324,-53.223,0.000,0
28083.428,-44.434,-34.668,-98.145,-28.320,0.000,0
28083.432,-21.973,-35.156,-210.938,2.441,0.000,0
28083.436,-22.949,-32.715,-111.816,0.488,0.000,0
28083.440,-53.711,-36.621,-6.348,-47.363,0.000,0
28083.443,-62.500,-31.250,-146.484,-1.953,0.000,0
28083.447,-19.531,-31.250,-174.316,3.906,0.000,0
28083.451,-40.039,-34.668,-130.859,-15.625,0.000,0
28083.455,-74.219,-35.645,-70.801,-26.855,0.000,0
28083.459,-35.156,-32.227,-26.367,-67.871,0.000,0
28083.463,-15.625,-27.832,-89.355,-44.434,0.000,0
28083.467,-61.035,-36.133,-64.453,-15.137,0.000,0
28083.471,-80.566,-29.297,4.395,-17.090,0.000,0
28083.475,-32.227,-21.973,-104.004,-19.531,0.000,0
28083.479,-11.719,-22.461,-83.496,-35.156,0.000,0
28083.482,-45.898,-24.414,-101.074,1.953,0.000,0
28083.486,-44.922,-29.785,-151.855,8.301,0.000,0
28083.490,-40.527,-22.461,-182.617,0.488,0.000,0
28083.494,-41.992,-20.508,-124.023,-1.953,0.000,0
28083.498,-59.570,-24.902,98.633,-80.078,0.000,0
28083.502,-65.918,-22.949,-19.043,-70.312,0.000,0
28083.506,-34.180,-20.020,-241.211,-2.930,0.000,0
28083.510,-36.133,-23.926,-204.102,4.395,0.000,0
28083.514,-69.336,-27.832,-50.293,-7.324,0.000,0
28083.518,-43.945,-23.926,51.270,-60.059,0.000,0
28083.522,-9.277,-19.531,-151.855,-59.570,0.000,0
28083.525,-51.758,-31.738,-168.945,-47.363,0.000,0
28083.529,-100.586,-33.203,0.488,-19.043,0.000,0
28083.533,-48.340,-27.344,-135.254,27.832,0.000,0
28083.537,3.418,-36.621,-180.176,-48.828,0.000,0
28083.541,-20.996,-30.273,-222.168,-50.293,0.000,0
28083.545,-47.852,-26.855,-136.230,16.113,0.000,0
28083.549,-36.621,-32.715,-110.840,14.160,0.000,0
28083.553,-24.414,-31.250,-111.328,-0.488,0.000,0
28083.557,-41.504,-32.715,-3.906,-56.152,0.000,0
28083.561,-30.762,-31.738,-39.551,-58.594,0.000,0
28083.565,-20.508,-30.762,-30.762,-35.645,0.000,1
28083.568,-22.949,-36.621,-97.656,-10.742,0.000,0
28083.572,-34.668,-41.992,-118.652,9.277,0.000,0
28083.576,-62.500,-46.387,61.523,-67.383,0.000,0
28083.580,-4.883,-34.180,-108.887,-41.992,0.000,0
28083.584,13.672,-27.344,-187.012,19.531,0.000,0
28083.588,-9.766,-28.320,-85.938,4.883,0.000,0
28083.592,11.230,-28.320,-113.281,-1.465,0.000,0
28083.596,-0.977,-32.715,22.461,-64.941,0.000,0
28083.600,11.230,-27.832,41.016,-85.449,0.000,0
28083.604,-14.648,-24.414,8.789,-53.711,0.000,0
28083.607,-62.012,-31.738,-63.965,-20.996,0.000,0
28083.611,-14.648,-33.691,-150.391,1.953,0.000,0
28083.615,2.441,-39.551,20.996,-43.945,0.000,0
28083.619,-26.855,-33.203,56.641,-26.367,0.000,0
28083.623,5.859,-24.414,-161.621,25.391,0.000,0
28083.627,36.133,-30.273,-147.461,11.230,0.000,0
28083.631,-5.371,-26.855,-33.203,1.465,0.000,0
28083.635,-12.207,-26.367,42.969,-31.250,0.000,0
28083.639,19.531,-25.879,-48.340,-46.875,0.000,0
28083.643,0.000,-23.438,-101.074,-21.973,0.000,0
28083.647,-6.836,-22.949,-78.613,15.137,0.000,0
28083.650,11.230,-18.555,-53.223,22.949,0.000,0
28083.654,-5.371,-20.020,-28.320,-20.508,0.000,0
28083.658,-2.441,-22.949,-116.211,-1.953,0.000,0
28083.662,-42.480,-29.785,0.000,17.090,0.000,0
28083.666,-51.758,-32.715,-32.227,6.348,0.000,0
28083.670,-9.766,-26.855,-145.996,0.977,0.000,0
28083.674,-24.902,-29.785,41.016,-76.660,0.000,0
28083.678,-27.344,-22.949,52.734,-66.406,0.000,0
28083.682,-20.020,-19.043,-91.309,23.438,0.000,0
28083.686,-6.348,-19.531,-178.223,19.531,0.000,0
28083.690,-29.785,-18.555,-80.566,8.789,0.000,0
28083.693,-18.066,-26.367,31.738,-28.320,0.000,0
28083.697,-4.395,-24.414,-51.270,-37.109,0.000,0
28083.701,-28.809,-18.555,-59.082,-14.160,0.000,0
28083.705,-46.387,-19.531,-44.922,8.301,0.000,0
28083.709,-52.734,-20.996,-69.336,43.457,0.000,0
28083.713,-3.906,-21.973,-107.910,-4.883,0.000,0
28083.717,7.812,-20.020,-106.934,-15.137,0.000,0
28083.721,-24.902,-11.719,-134.277,47.363,0.000,0
28083.725,-12.207,-9.766,-136.230,42.480,0.000,0
28083.729,2.441,-16.113,-101.074,37.109,0.000,0
28083.732,-31.250,-19.531,37.109,0.977,0.000,0
28083.736,-35.156,-20.996,-72.754,-32.715,0.000,0
28083.740,0.977,-25.879,-241.211,-23.438,0.000,0
28083.744,1.953,-33.203,-127.930,-0.977,0.000,0
28083.748,-41.992,-30.762,-7.324,41.504,0.000,0
28083.752,-96.680,-33.691,139.648,-18.555,0.000,0
28083.756,-65.918,-34.180,-16.113,-31.738,0.000,0
28083.760,5.371,-24.414,-193.359,30.762,0.000,0
28083.764,-8.789,-25.879,-67.383,22.949,0.000,0
28083.768,-24.414,-33.691,-31.738,21.973,0.000,0
28083.772,-29.297,-41.992,-62.012,-31.250,0.000,0
28083.775,-40.527,-45.898,15.625,-101.074,0.000,0
28083.779,-46.387,-29.785,36.621,-54.199,0.000,0
28083.783,-46.387,-20.020,-111.816,23.926,0.000,0
28083.787,-24.414,-31.250,-231.445,27.344,0.000,0
28083.791,-44.434,-41.504,-58.594,-40.039,0.000,0
28083.795,-62.500,-37.109,-11.230,-33.203,0.000,0
28083.799,-52.246,-36.621,-107.910,7.812,0.000,0
28083.803,-62.988,-34.180,-78.125,-19.043,0.000,0
28083.807,-35.645,-25.391,-214.844,16.602,0.000,0
28083.811,-56.152,-34.180,23.438,-17.578,0.000,0
28083.815,-71.777,-32.227,76.172,-67.383,0.000,0
28083.818,-28.809,-23.438,-213.867,-21.973,0.000,0
28083.822,-46.387,-30.273,-230.957,9.277,0.000,0
28083.826,-52.734,-28.809,-180.176,20.508,0.000,0
28083.830,-61.523,-34.180,-16.113,-37.109,0.000,0
28083.834,-60.059,-38.574,-93.750,-51.270,0.000,0
28083.838,-55.176,-24.414,-225.098,4.395,0.000,0
28083.842,-71.289,-25.391,-85.938,-7.324,0.000,0
28083.846,-34.668,-25.879,-182.617,-8.301,0.000,0
28083.850,-1.465,-22.461,-133.301,-53.711,0.000,0
28083.854,-32.227,-20.508,52.246,-89.355,0.000,0
28083.857,-52.246,-16.602,-55.664,-30.273,0.000,0
28083.861,-24.414,-22.949,-150.879,-14.160,0.000,0
28083.865,-7.812,-28.320,-193.848,-13.184,0.000,0
28083.869,-53.223,-34.668,14.648,-64.453,0.000,0
28083.873,-70.312,-27.832,24.414,-91.797,0.000,0
28083.877,-23.438,-24.902,-7.324,-86.914,0.000,0
28083.881,-7.324,-25.879,-16.602,-87.402,0.000,0
28083.885,-11.230,-20.996,-237.793,14.160,0.000,0
28083.889,-46.875,-28.320,-9.277,-2.441,0.000,0
28083.893,-47.363,-29.297,9.766,-77.148,0.000,0
28083.897,0.977,-20.508,-234.375,-27.344,0.000,0
28083.900,-20.996,-24.414,-66.895,8.789,0.000,0
28083.904,-59.570,-26.855,-22.949,3.418,0.000,0
28083.908,-18.555,-32.227,-74.707,-34.668,0.000,0
28083.912,-25.879,-43.945,67.383,-86.426,0.000,0
28083.916,-32.715,-40.039,-38.574,-54.688,0.000,0
28083.920,-16.113,-35.645,-105.469,-29.297,0.000,0
28083.924,7.812,-30.762,-172.363,16.602,0.000,0
28083.928,4.395,-33.203,-33.691,-0.488,0.000,0
28083.932,-21.484,-32.227,120.117,-56.152,0.000,0
28083.936,-27.344,-18.555,-34.668,-3.418,0.000,0
28083.940,-21.484,-16.602,-131.836,7.324,0.000,0
28083.943,7.324,-23.438,-111.816,-1.953,0.000,0
28083.947,-40.527,-27.832,104.492,-20.996,0.000,0
28083.951,-45.410,-25.879,72.266,-75.195,0.000,0
28083.955,-19.043,-22.461,-124.023,-65.430,0.000,0
28083.959,-40.039,-29.297,-74.219,-34.668,0.000,0
28083.963,-19.531,-26.367,-82.031,4.395,0.000,0
28083.967,5.859,-18.066,-50.293,-6.836,0.000,0
28083.971,-28.809,-23.438,-1.465,-55.664,0.000,0
28083.975,-55.664,-18.555,-71.289,-14.160,0.000,0
28083.979,-30.273,-19.531,-66.895,0.000,0.000,0
28083.982,-9.277,-22.949,-57.129,-5.859,0.000,0
28083.986,-20.508,-20.996,-59.082,-28.809,0.000,0
28083.990,-71.289,-25.879,10.742,-73.730,0.000,0
28083.994,-61.523,-24.414,-26.855,-53.223,0.000,0
28083.998,-6.836,-23.438,-173.828,-11.719,0.000,0
28084.002,-3.418,-18.555,-206.543,11.230,0.000,0
28084.006,-40.527,-26.367,-132.812,0.000,0.000,0
28084.010,-40.039,-41.992,-41.016,-61.035,0.000,0
28084.014,-17.578,-45.410,-99.121,-85.449,0.000,0
28084.018,-37.109,-47.852,-102.539,-64.453,0.000,0
28084.022,-57.617,-43.457,-128.906,-52.734,0.000,0
28084.025,-60.547,-38.086,-153.809,-15.137,0.000,0
28084.029,-60.547,-33.691,-21.484,-42.969,0.000,0
28084.033,-49.316,-29.297,-22.949,-51.270,0.000,0
28084.037,-77.148,-36.133,-88.379,0.488,0.000,0
28084.041,-67.871,-43.945,-175.781,0.488,0.000,0
28084.045,-36.621,-49.316,-208.008,-8.789,0.000,0
28084.049,-43.457,-43.457,-58.105,-51.270,0.000,0
28084.053,-39.062,-32.715,-92.773,-64.453,0.000,0
28084.057,-41.992,-34.180,-176.270,-50.293,0.000,0
28084.061,-44.434,-35.156,-167.480,-35.645,0.000,0
28084.065,-71.289,-37.598,-143.555,3.906,0.000,0
28084.068,-73.730,-39.062,-75.195,-39.551,0.000,0
28084.072,-63.965,-31.250,-160.156,-37.598,0.000,0
28084.076,-72.754,-27.344,-175.781,14.648,0.000,0
28084.080,-74.219,-30.762,-87.402,-2.930,0.000,0
28084.084,-79.102,-27.832,-72.266,-11.719,0.000,0
28084.088,-31.738,-31.250,-35.156,-97.656,0.000,0
28084.092,-12.695,-30.273,-49.805,-98.145,0.000,0
28084.096,-42.480,-26.855,-133.789,-32.227,0.000,0
28084.100,-55.176,-28.809,-181.152,-13.184,0.000,0
28084.104,-5.859,-25.879,-257.812,41.992,0.000,0
28084.107,-8.301,-33.203,-105.957,-20.020,0.000,0
28084.111,-73.730,-31.738,-77.148,-46.875,0.000,0
28084.115,-75.684,-24.902,-186.523,2.930,0.000,0
28084.119,-61.523,-30.273,-164.062,-12.207,0.000,0
28084.123,-92.773,-38.574,-139.648,-24.414,0.000,0
28084.127,-98.633,-40.527,49.805,-72.754,0.000,0
28084.131,-38.086,-31.250,-6.836,-87.402,0.000,0
28084.135,-28.809,-32.227,-208.008,-47.363,0.000,0
28084.139,-64.941,-32.227,-169.922,-22.949,0.000,0
28084.143,-43.945,-31.250,-151.367,3.418,0.000,0
28084.147,-39.062,-44.434,-25.391,-47.363,0.000,0
28084.150,-54.199,-38.086,-31.738,-41.504,0.000,0
28084.154,-59.570,-26.855,-169.434,8.789,0.000,0
28084.158,-62.500,-30.762,-108.887,-12.695,0.000,0
28084.162,-33.691,-31.738,-119.141,1.953,0.000,0
28084.166,2.930,-25.879,-11.719,-43.945,0.000,0
28084.170,-51.270,-20.996,48.340,-92.285,0.000,0
28084.174,-94.238,-24.414,-97.656,-42.480,0.000,0
28084.178,-24.902,-21.973,-212.891,-10.742,0.000,0
28084.182,14.160,-13.184,-201.660,-3.418,0.000,0
28084.186,-19.531,-8.789,-22.949,-41.016,0.000,0
28084.190,-50.781,-8.789,99.609,-119.629,0.000,0
28084.193,-32.715,-7.812,-74.219,-99.121,0.000,0
28084.197,-46.875,-9.277,-260.742,-42.969,0.000,0
28084.201,-62.988,-7.324,-175.781,-0.977,0.000,0
28084.205,-29.297,-8.301,-11.719,-17.090,0.000,0
28084.209,-21.973,-10.742,63.965,-78.125,0.000,0
28084.213,-59.570,-4.395,-59.570,-24.414,0.000,0
28084.217,-88.867,-6.836,-25.391,2.930,0.000,0
28084.221,-61.035,-13.184,-99.609,0.488,0.000,0
28084.225,11.230,-19.043,-55.176,-41.992,0.000,0
28084.229,5.859,-23.438,80.566,-85.449,0.000,0
28084.232,-26.367,-22.949,-40.527,-50.293,0.000,0
28084.236,-33.203,-20.508,-72.754,-38.086,0.000,0
28084.240,-2.930,-16.602,-161.133,20.508,0.000,0
28084.244,6.836,-25.391,27.832,4.883,0.000,0
28084.248,-14.160,-28.320,159.180,-61.035,0.000,0
28084.252,17.578,-17.578,-104.004,-1.465,0.000,0
28084.256,21.484,-13.184,-148.926,33.203,0.000,0
28084.260,10.742,-15.137,-22.461,18.066,0.000,0
28084.264,-11.230,-22.949,46.387,9.277,0.000,0
28084.268,-35.645,-24.902,46.387,-30.273,0.000,0
28084.272,-23.438,-20.020,-29.785,-55.176,0.000,0
28084.275,-38.086,-26.367,6.348,-23.438,0.000,0
28084.279,-22.949,-23.926,-20.996,21.973,0.000,1
28084.283,28.809,-24.414,-72.754,1.953,0.000,0
28084.287,14.648,-25.879,-5.371,-36.133,0.000,0
28084.291,9.277,-20.508,-32.715,-2.930,0.000,0
28084.295,30.762,-29.297,13.672,-11.230,0.000,0
28084.299,31.738,-26.855,-178.223,11.230,0.000,0
28084.303,4.395,-27.344,-149.414,9.277,0.000,0
28084.307,-37.598,-36.133,65.430,-47.852,0.000,0
28084.311,-39.551,-37.598,82.031,-42.969,0.000,0
28084.315,-17.090,-38.086,-20.996,0.977,0.000,0
28084.318,-2.930,-36.133,-142.090,14.648,0.000,0
28084.322,-38.574,-35.156,-2.930,-4.883,0.000,0
28084.326,-31.250,-42.969,73.242,-27.832,0.000,0
28084.330,7.812,-41.016,-125.000,6.348,0.000,0
28084.334,-6.348,-33.691,-129.395,22.949,0.000,0
28084.338,-45.898,-33.203,-78.613,3.906,0.000,0
28084.342,-23.926,-39.062,-81.055,-4.883,0.000,0
28084.346,4.395,-41.992,-32.715,-44.434,0.000,0
28084.350,-30.273,-42.969,-3.418,-55.176,0.000,0
28084.354,-52.734,-42.480,-55.176,-9.766,0.000,0
28084.357,-51.270,-39.551,-116.211,6.836,0.000,0
28084.361,-15.625,-35.156,-88.867,4.883,0.000,0
28084.365,-23.926,-30.273,62.012,-27.832,0.000,0
28084.369,-65.430,-25.879,26.855,-47.852,0.000,0
28084.373,-32.227,-29.785,-176.758,-49.805,0.000,0
28084.377,-28.320,-37.109,-110.352,-27.344,0.000,0
28084.381,-26.855,-37.598,-73.242,25.391,0.000,0
28084.385,-21.484,-38.086,-34.180,-30.762,0.000,0
28084.389,-50.293,-31.738,-79.590,-48.340,0.000,0
28084.393,-17.578,-27.344,-145.996,8.301,0.000,0
28084.397,-18.555,-30.273,-93.750,8.301,0.000,0
28084.400,-33.691,-30.273,-93.262,7.324,0.000,0
28084.404,-24.902,-33.203,-49.805,-52.246,0.000,0
28084.408,-41.992,-27.832,26.367,-48.340,0.000,0
28084.412,-38.574,-25.391,43.457,-5.371,0.000,0
28084.416,9.277,-27.344,-162.109,24.902,0.000,0
28084.420,-4.395,-31.738,-154.785,2.930,0.000,0
28084.424,-29.785,-33.203,29.297,-44.434,0.000,0
28084.428,5.859,-24.902,-64.941,3.418,0.000,0
28084.432,4.395,-20.020,-130.371,17.578,0.000,0
28084.436,-25.391,-20.020,-101.074,12.207,0.000,0
28084.440,-25.879,-25.391,37.598,-0.977,0.000,0
28084.443,-17.578,-27.832,94.238,-50.293,0.000,0
28084.447,-31.250,-22.949,1.953,-43.457,0.000,0
28084.451,-45.410,-26.855,-25.391,-15.625,0.000,0
28084.455,-46.875,-25.879,-42.480,27.832,0.000,0
28084.459,-16.602,-28.320,-55.176,5.371,0.000,0
28084.463,6.836,-35.156,-23.438,-55.176,0.000,0
28084.467,-14.160,-30.273,-97.656,-8.301,0.000,0
28084.471,-50.293,-35.645,-123.535,10.254,0.000,0
28084.475,-35.645,-40.039,-105.957,1.953,0.000,0
28084.479,-26.367,-36.621,-31.250,-23.926,0.000,0
28084.482,-48.340,-40.039,45.898,-90.332,0.000,0
28084.486,-49.805,-35.645,-57.617,-72.266,0.000,0
28084.490,-41.992,-39.062,-91.309,-31.738,0.000,0
28084.494,-14.648,-36.621,-104.492,-4.883,0.000,0
28084.498,-29.297,-34.180,12.695,-32.715,0.000,0
28084.502,-84.473,-33.691,58.594,-87.402,0.000,0
28084.506,-49.805,-33.691,-121.582,-52.734,0.000,0
28084.510,-22.461,-37.598,-78.125,-40.039,0.000,0
28084.514,-21.484,-29.297,-101.074,-3.906,0.000,0
28084.518,-15.137,-34.180,-90.820,-22.461,0.000,0
28084.522,-27.832,-41.016,-12.207,-80.078,0.000,0
28084.525,-48.828,-36.133,-57.129,-29.297,0.000,0
28084.529,-42.480,-37.598,-71.289,3.418,0.000,0
28084.533,-17.578,-34.180,-185.547,14.648,0.000,0
28084.537,-24.902,-32.715,-16.113,-29.297,0.000,0
28084.541,-36.621,-31.738,121.582,-60.059,0.000,0
28084.545,-53.223,-29.297,3.418,-25.391,0.000,0
28084.549,-40.527,-30.273,-49.316,-37.109,0.000,0
28084.553,-8.789,-27.832,-173.828,9.277,0.000,0
28084.557,-45.410,-38.574,49.316,-17.578,0.000,0
28084.561,-90.820,-40.039,171.387,-85.449,0.000,0
28084.565,-24.414,-39.062,-172.363,-18.066,0.000,0
28084.568,-34.668,-45.898,-199.707,4.395,0.000,0
28084.572,-64.941,-47.852,-119.629,-15.137,0.000,0
28084.576,-52.246,-48.828,7.812,-44.922,0.000,0
28084.580,-37.598,-45.898,41.992,-84.961,0.000,0
28084.584,-37.109,-40.039,-122.070,-59.570,0.000,0
28084.588,-62.012,-43.457,-53.711,-37.109,0.000,0
28084.592,-41.504,-35.156,-65.430,12.695,0.000,0
28084.596,-18.066,-30.273,-50.781,12.695,0.000,0
28084.600,-34.668,-32.227,102.539,-90.332,0.000,0
28084.604,-44.922,-16.602,3.418,-27.344,0.000,0
28084.607,-20.508,-19.531,-161.133,42.969,0.000,0
28084.611,3.906,-28.809,-185.059,20.508,0.000,0
28084.615,-38.574,-25.879,0.000,-18.066,0.000,0
28084.619,-41.992,-22.949,24.902,-56.152,0.000,0
28084.623,2.441,-23.438,-98.145,-27.832,0.000,0
28084.627,-4.883,-21.973,-94.238,10.254,0.000,0
28084.631,-39.062,-27.832,-78.613,22.461,0.000,0
28084.635,-43.457,-41.016,4.883,-29.297,0.000,0
28084.639,-49.316,-41.016,-11.230,-35.156,0.000,0
28084.643,-45.410,-34.668,-90.332,4.883,0.000,0
28084.647,-45.410,-29.785,-10.742,-2.930,0.000,0
28084.650,-41.504,-22.461,-126.465,-3.906,0.000,0
28084.654,-17.578,-28.320,-87.891,-38.574,0.000,0
28084.658,-12.695,-30.762,-1.953,-78.125,0.000,0
28084.662,-19.043,-21.484,-81.055,-42.969,0.000,0
28084.666,-20.508,-22.461,-175.781,-3.906,0.000,0
28084.670,-29.297,-25.879,-157.715,-2.441,0.000,0
28084.674,-35.645,-20.508,-4.395,-20.996,0.000,0
28084.678,-40.527,-19.043,-18.555,-30.762,0.000,0
28084.682,-37.598,-20.020,-159.180,-9.277,0.000,0
28084.686,-47.363,-20.020,-107.422,-14.160,0.000,0
28084.690,-62.988,-20.508,19.043,-19.043,0.000,0
28084.693,-56.152,-13.184,40.039,-32.227,0.000,0
28084.697,-23.438,-18.066,-75.195,-84.961,0.000,0
28084.701,-41.016,-26.855,21.973,-98.633,0.000,0
28084.705,-44.434,-18.555,-43.945,-9.766,0.000,0
28084.709,-10.742,-17.090,-159.668,20.996,0.000,0
28084.713,-6.836,-15.625,-89.844,-7.812,0.000,0
28084.717,-22.461,-17.578,-64.453,-51.270,0.000,0
28084.721,-44.922,-24.902,-7.812,-57.617,0.000,0
28084.725,-20.508,-28.320,-41.992,-51.270,0.000,0
28084.729,-18.555,-29.785,-159.668,-4.883,0.000,0
28084.732,-71.777,-29.297,-88.379,11.230,0.000,0
28084.736,-89.844,-31.738,65.430,-52.734,0.000,0
28084.740,-39.062,-27.832,-108.887,-23.438,0.000,0
28084.744,17.578,-20.508,-216.309,18.066,0.000,0
28084.748,-22.949,-21.973,-129.883,3.418,0.000,0
28084.752,-74.707,-30.273,-5.859,-31.250,0.000,0
28084.756,-46.387,-26.367,17.578,-67.871,0.000,0
28084.760,-11.230,-16.602,-62.012,-46.387,0.000,0
28084.764,-41.504,-20.020,-67.871,-29.297,0.000,0
28084.768,-59.082,-26.367,-133.789,4.883,0.000,0
28084.772,-30.273,-34.668,-80.078,-12.695,0.000,0
28084.775,-28.320,-34.180,5.859,-58.105,0.000,0
28084.779,-54.688,-23.926,-64.453,5.859,0.000,0
28084.783,-66.406,-23.438,-55.664,19.531,0.000,0
28084.787,-12.207,-20.996,-112.793,3.906,0.000,0
28084.791,-6.836,-24.902,-33.691,-10.742,0.000,0
28084.795,-33.691,-24.902,46.387,-54.688,0.000,0
28084.799,-61.523,-22.461,5.371,-57.617,0.000,0
28084.803,-46.875,-23.438,174.316,-94.238,0.000,0
28084.807,-17.578,-13.672,-33.203,20.996,0.000,0
28084.811,-22.461,-21.484,-68.848,40.527,0.000,0
28084.815,-21.973,-32.715,12.695,-58.105,0.000,0
28084.818,-9.766,-23.438,-155.273,2.930,0.000,0
28084.822,-10.254,-31.250,-82.031,16.113,0.000,0
28084.826,-31.738,-30.273,5.859,10.254,0.000,0
28084.830,-21.484,-20.508,-13.184,8.301,0.000,0
28084.834,-6.836,-27.344,9.277,-68.359,0.000,0
28084.838,-19.531,-29.785,3.418,-61.523,0.000,0
28084.842,-67.871,-28.809,73.730,-9.277,0.000,0
28084.846,-37.109,-37.598,-108.398,2.930,0.000,0
28084.850,-16.113,-39.551,-143.555,-26.855,0.000,0
28084.854,-41.504,-32.715,134.277,-67.871,0.000,0
28084.857,-28.320,-30.762,6.348,-20.508,0.000,0
28084.861,-14.160,-37.598,-197.754,-21.973,0.000,0
28084.865,-30.273,-42.969,-185.547,-47.852,0.000,0
28084.869,-52.246,-49.805,-73.242,-44.434,0.000,0
28084.873,-63.477,-51.758,172.852,-92.773,0.000,0
28084.877,-50.293,-41.504,87.891,-89.844,0.000,0
28084.881,-35.645,-32.227,-137.695,-22.949,0.000,0
28084.885,-58.105,-29.785,-67.383,-0.977,0.000,0
28084.889,-58.594,-28.320,32.227,-9.277,0.000,0
28084.893,-24.902,-35.156,87.891,-70.801,0.000,0
28084.897,-23.926,-32.227,-35.156,-76.172,0.000,0
28084.900,-52.246,-33.203,-33.203,-59.082,0.000,0
28084.904,-50.781,-37.598,35.645,-55.176,0.000,0
28084.908,-28.320,-31.738,-129.883,-11.230,0.000,0
28084.912,-39.551,-41.504,-96.191,-59.570,0.000,0
28084.916,-78.125,-37.109,-8.789,-65.918,0.000,0
28084.920,-73.730,-26.855,-72.266,-2.441,0.000,0
28084.924,-49.316,-32.715,-113.281,-15.625,0.000,0
28084.928,-44.922,-32.227,-91.797,-25.879,0.000,0
28084.932,-103.027,-32.227,149.902,-73.242,0.000,0
28084.936,-59.570,-23.438,-14.160,-87.402,0.000,0
28084.940,-6.836,-17.578,-134.766,-48.340,0.000,0
28084.943,-34.180,-22.461,-66.895,-12.207,0.000,0
28084.947,-46.387,-21.973,-141.113,4.395,0.000,0
28084.951,-37.109,-24.414,-35.645,-56.641,0.000,0
28084.955,-25.391,-21.973,-34.668,-43.945,0.000,0
28084.959,-43.945,-18.555,-127.441,6.348,0.000,0
28084.963,-61.035,-20.996,-104.980,-16.602,0.000,1
28084.967,-68.848,-12.695,-94.238,-3.906,0.000,0
28084.971,-41.016,-19.043,11.230,-30.273,0.000,0
28084.975,-26.367,-26.855,50.293,-62.500,0.000,0
28084.979,-49.316,-19.531,-9.766,-32.715,0.000,0
28084.982,-13.184,-15.625,-187.988,9.277,0.000,0
28084.986,3.906,-14.648,-184.570,14.160,0.000,0
28084.990,-32.715,-20.996,56.152,-30.762,0.000,0
28084.994,-32.227,-25.879,-11.719,-24.902,0.000,0
28084.998,-9.277,-16.113,-194.336,8.789,0.000,0
28085.002,-31.250,-16.113,-105.469,0.000,0.000,0
28085.006,-59.570,-23.438,52.734,0.000,0.000,0
28085.010,-52.734,-26.855,39.551,-25.879,0.000,0
28085.014,-52.246,-25.879,-58.594,-52.246,0.000,0
28085.018,-59.082,-24.414,-66.406,-25.879,0.000,0
28085.022,-49.316,-24.414,-2.441,7.812,0.000,0
28085.025,-22.461,-25.391,-89.355,8.789,0.000,0
28085.029,-29.297,-24.902,-79.590,-17.090,0.000,0
28085.033,-63.965,-22.949,5.859,-49.805,0.000,0
28085.037,-47.363,-21.484,-41.992,-41.504,0.000,0
28085.041,-26.367,-22.949,-54.199,-39.062,0.000,0
28085.045,-32.715,-29.785,-118.652,-4.395,0.000,0
28085.049,-58.594,-31.738,-115.234,-3.906,0.000,0
28085.053,-60.059,-31.738,-30.762,-55.176,0.000,0
28085.057,-51.758,-26.855,-56.152,-28.320,0.000,0
28085.061,-57.129,-24.414,-75.195,4.395,0.000,0
28085.065,-64.453,-19.531,-59.570,8.789,0.000,0
28085.068,-76.172,-21.973,38.574,-18.066,0.000,0
28085.072,-28.320,-30.762,-17.578,-73.730,0.000,0
28085.076,-21.484,-33.203,-83.984,-67.871,0.000,0
28085.080,-45.898,-26.855,-14.648,-41.992,0.000,0
28085.084,-45.898,-19.531,-97.656,7.812,0.000,0
28085.088,-40.527,-23.926,-77.148,6.348,0.000,0
28085.092,-41.992,-20.996,73.730,-40.039,0.000,0
28085.096,-45.410,-11.230,-3.418,6.836,0.000,0
28085.100,-36.621,-19.531,-126.953,19.531,0.000,0
28085.104,-24.414,-22.949,-100.586,15.625,0.000,0
28085.107,-42.480,-16.113,62.012,17.090,0.000,0
28085.111,-57.129,-24.902,299.805,-86.426,0.000,0
28085.115,-29.297,-19.043,-17.090,-58.594,0.000,0
28085.119,2.441,-16.113,-184.570,7.324,0.000,0
28085.123,8.789,-27.832,-89.844,34.668,0.000,0
28085.127,-8.301,-29.297,-23.926,24.414,0.000,0
28085.131,-9.277,-30.762,-4.395,-50.781,0.000,0
28085.135,-7.812,-26.367,-130.371,-9.766,0.000,0
28085.139,-9.766,-22.461,-61.523,14.160,0.000,0
28085.143,-16.113,-16.113,-20.020,11.719,0.000,0
28085.147,-17.578,-11.230,-9.766,-1.953,0.000,0
28085.150,-30.273,-15.137,73.242,-67.383,0.000,0
28085.154,-45.410,-19.043,35.645,-57.617,0.000,0
28085.158,-48.340,-22.461,-5.371,-18.555,0.000,0
28085.162,-19.531,-19.531,-136.719,16.113,0.000,0
28085.166,-26.367,-20.508,-118.164,-14.648,0.000,0
28085.170,-66.406,-26.367,121.582,-78.613,0.000,0
28085.174,-43.457,-20.508,1.953,-14.648,0.000,0
28085.178,2.441,-18.066,-137.207,13.672,0.000,0
28085.182,-35.645,-19.043,-115.723,-2.930,0.000,0
28085.186,-79.590,-23.438,-5.371,-4.883,0.000,0
28085.190,-48.340,-26.367,95.703,-71.777,0.000,0
28085.193,-30.762,-21.973,-47.363,-64.941,0.000,0
28085.197,-61.523,-19.531,-120.605,-3.906,0.000,0
28085.201,-96.680,-27.344,-84.961,4.883,0.000,0
28085.205,-68.359,-38.086,-41.504,-20.020,0.000,0
28085.209,-43.945,-38.086,74.219,-78.125,0.000,0
28085.213,-61.523,-32.227,14.160,-83.008,0.000,0
28085.217,-67.871,-25.391,-8.301,-68.848,0.000,0
28085.221,-51.270,-23.926,-120.117,-29.785,0.000,0
28085.225,-15.137,-29.297,-277.344,13.184,0.000,0
28085.229,-27.832,-30.762,-95.703,-45.898,0.000,0
28085.232,-82.520,-25.879,-23.926,-55.176,0.000,0
28085.236,-66.895,-30.273,-128.418,-0.488,0.000,0
28085.240,-42.969,-31.738,-111.816,-1.465,0.000,0
28085.244,-58.105,-29.297,-71.777,-14.648,0.000,0
28085.248,-73.242,-26.367,-3.906,-58.594,0.000,0
28085.252,-43.945,-21.484,-44.434,-59.082,0.000,0
28085.256,-7.812,-26.367,-34.180,-29.297,0.000,0
28085.260,-45.898,-29.785,1.465,7.324,0.000,0
28085.264,-53.223,-31.738,-51.270,-7.324,0.000,0
28085.268,-32.715,-29.297,15.137,-63.965,0.000,0
28085.272,-38.574,-25.391,-29.297,-22.949,0.000,0
28085.275,-15.625,-24.414,-91.309,3.418,0.000,0
28085.279,-9.277,-24.414,-152.344,-4.883,0.000,0
28085.283,-22.949,-29.785,-66.895,-25.391,0.000,0
28085.287,-28.809,-26.855,115.234,-66.895,0.000,0
28085.291,-36.133,-23.438,35.645,-62.500,0.000,0
28085.295,-54.199,-26.367,-41.504,-37.598,0.000,0
28085.299,-38.086,-23.926,-135.742,6.348,0.000,0
28085.303,-33.691,-21.484,11.719,17.090,0.000,0
28085.307,-59.082,-19.531,231.934,-62.012,0.000,0
28085.311,-21.973,-20.508,-23.926,-86.914,0.000,0
28085.315,-38.574,-21.973,-89.355,-30.273,0.000,0
28085.318,-42.480,-17.090,-107.910,24.414,0.000,0
28085.322,-22.461,-18.066,-65.918,2.441,0.000,0
28085.326,-50.781,-26.855,-13.672,-57.617,0.000,0
28085.330,-54.688,-24.414,-138.184,-30.762,0.000,0
28085.334,-29.785,-21.484,-135.254,15.137,0.000,0
28085.338,-15.137,-18.066,-90.332,34.668,0.000,0
28085.342,-34.668,-16.113,-41.504,16.602,0.000,0
28085.346,-64.941,-19.531,-20.508,-6.836,0.000,0
28085.350,-54.199,-15.137,3.418,3.418,0.000,0
28085.354,-2.930,-8.301,-82.031,-6.348,0.000,0
28085.357,-10.254,-9.766,-87.891,-4.395,0.000,0
28085.361,-54.688,-19.043,4.883,-23.926,0.000,0
28085.365,-50.293,-26.367,4.883,-72.266,0.000,0
28085.369,-22.949,-18.555,-46.875,-34.180,0.000,0
28085.373,-19.531,-8.789,-50.293,24.902,0.000,0
28085.377,-34.668,-10.742,-22.461,28.320,0.000,0
28085.381,-30.273,-21.484,0.000,-6.348,0.000,0
28085.385,-27.344,-22.461,48.340,-36.133,0.000,0
28085.389,-26.855,-13.672,26.367,-18.066,0.000,0
28085.393,-35.645,-15.625,53.223,-13.184,0.000,0
28085.397,-27.832,-18.066,-98.633,18.066,0.000,0
28085.400,5.859,-18.555,-118.652,17.578,0.000,0
28085.404,-1.953,-20.508,42.480,-43.457,0.000,0
28085.408,-32.227,-19.531,-49.805,-11.230,0.000,0
28085.412,-19.043,-16.602,-137.207,10.742,0.000,0
28085.416,-10.742,-15.137,30.273,-50.781,0.000,0
28085.420,-23.926,-18.066,-46.875,-31.738,0.000,0
28085.424,-22.461,-22.461,-62.500,-42.480,0.000,0
28085.428,-25.391,-21.973,-81.055,-52.246,0.000,0
28085.432,-34.668,-16.602,-90.332,-29.785,0.000,0
28085.436,-45.898,-8.301,-37.109,17.578,0.000,0
28085.440,-58.594,-13.184,29.297,20.020,0.000,0
28085.443,-43.945,-21.973,-9.766,-41.992,0.000,0
28085.447,-49.805,-22.461,-122.070,-7.812,0.000,0
28085.451,-36.133,-26.367,-82.520,12.695,0.000,0
28085.455,-23.438,-32.227,-73.242,1.953,0.000,0
28085.459,-32.715,-37.109,-57.129,-19.043,0.000,0
28085.463,-40.527,-42.969,-11.719,-73.242,0.000,0
28085.467,-48.340,-38.574,15.625,-54.688,0.000,0
28085.471,-42.480,-32.227,-8.301,-25.391,0.000,0
28085.475,-33.203,-24.902,-135.742,7.324,0.000,0
28085.479,-49.805,-29.785,-104.004,-4.395,0.000,0
28085.482,-70.801,-39.551,142.090,-67.383,0.000,0
28085.486,-48.340,-27.832,4.883,-24.414,0.000,0
28085.490,-6.836,-21.973,-147.949,4.883,0.000,0
28085.494,-29.785,-24.902,-96.191,-4.883,0.000,0
28085.498,-73.730,-25.879,67.383,-11.230,0.000,0
28085.502,-35.645,-22.461,108.398,-58.594,0.000,0
28085.506,-13.672,-15.625,-13.672,-44.434,0.000,0
28085.510,-11.719,-13.672,-81.055,3.418,0.000,0
28085.514,-24.902,-12.207,-157.227,32.227,0.000,0
28085.518,-29.785,-20.508,8.301,-7.812,0.000,0
28085.522,-25.391,-26.855,72.266,-61.035,0.000,0
28085.525,-12.695,-17.578,-117.676,-46.387,0.000,0
28085.529,-50.781,-14.160,-6.836,-32.715,0.000,0
28085.533,-32.715,-16.113,6.348,-22.949,0.000,0
28085.537,5.859,-18.555,-74.707,15.137,0.000,0
28085.541,-29.785,-24.414,143.066,-39.551,0.000,0
28085.545,-58.105,-20.996,62.988,-42.969,0.000,0
28085.549,-14.648,-10.742,-133.789,22.949,0.000,0
28085.553,9.766,-10.254,-80.566,29.297,0.000,0
28085.557,-18.555,-22.949,32.227,6.836,0.000,0
28085.561,-33.203,-28.809,144.043,-50.781,0.000,0
28085.565,-20.508,-19.531,25.391,-42.969,0.000,0
28085.568,4.395,-19.043,-15.137,-17.578,0.000,0
28085.572,-15.137,-23.926,56.641,-14.160,0.000,0
28085.576,-44.922,-26.367,-35.645,24.902,0.000,0
28085.580,-25.879,-32.227,18.555,-35.645,0.000,1
28085.584,5.859,-30.273,5.859,-47.852,0.000,0
28085.588,-25.879,-31.250,29.297,21.484,0.000,0
28085.592,-13.184,-33.203,-70.312,30.273,0.000,0
28085.596,8.789,-26.367,-134.766,20.996,0.000,0
28085.600,-19.531,-31.250,116.211,-35.645,0.000,0
28085.604,-12.207,-25.391,75.195,-44.922,0.000,0
28085.607,0.977,-23.926,-47.363,-21.484,0.000,0
28085.611,-17.578,-25.391,-68.359,-3.418,0.000,0
28085.615,-17.578,-19.043,-85.938,41.504,0.000,0
28085.619,-8.789,-20.508,107.910,-29.297,0.000,0
28085.623,-11.719,-15.625,66.406,-41.992,0.000,0
28085.627,-14.648,-10.254,-142.090,46.387,0.000,0
28085.631,-13.184,-12.695,-72.754,38.574,0.000,0
28085.635,-5.371,-13.672,6.348,32.227,0.000,0
28085.639,25.879,-14.160,9.766,-7.324,0.000,0
28085.643,18.555,-19.043,-13.672,-50.293,0.000,0
28085.647,-21.484,-21.484,-30.273,-35.645,0.000,0
28085.650,-8.789,-21.484,-66.406,-4.883,0.000,0
28085.654,14.160,-21.484,-123.535,18.555,0.000,0
28085.658,-19.531,-29.785,11.719,-35.156,0.000,0
28085.662,-58.594,-26.855,27.832,-49.316,0.000,0
28085.666,-30.762,-28.809,-90.332,-8.301,0.000,0
28085.670,-44.922,-37.598,-45.410,-8.789,0.000,0
28085.674,-51.758,-33.691,-91.797,-4.395,0.000,0
28085.678,-75.195,-32.715,78.125,-31.250,0.000,0
28085.682,-61.523,-34.668,63.477,-63.477,0.000,0
28085.686,11.719,-29.297,-107.422,-30.762,0.000,0
28085.690,9.277,-27.344,-77.148,16.113,0.000,0
28085.693,-15.137,-30.273,-102.539,19.531,0.000,0
28085.697,-20.508,-30.762,-70.312,-12.207,0.000,0
28085.701,-8.789,-28.809,-35.645,-21.484,0.000,0
28085.705,0.000,-26.367,-61.523,4.883,0.000,0
28085.709,-15.137,-25.879,-49.805,-9.766,0.000,0
28085.713,-24.902,-26.367,-59.082,-17.090,0.000,0
28085.717,-28.809,-33.691,-7.324,-27.344,0.000,0
28085.721,-39.062,-37.598,111.328,-82.520,0.000,0
28085.725,-53.223,-25.391,77.148,-56.152,0.000,0
28085.729,-11.230,-19.531,-183.594,13.672,0.000,0
28085.732,4.883,-30.273,-158.203,-0.488,0.000,0
28085.736,-31.250,-35.645,33.691,-24.414,0.000,0
28085.740,-53.711,-29.297,72.754,-52.734,0.000,0
28085.744,-29.785,-18.555,-78.613,-43.457,0.000,0
28085.748,-12.207,-26.367,-97.656,-30.762,0.000,0
28085.752,-32.227,-35.645,-39.551,5.859,0.000,0
28085.756,-21.484,-38.086,-74.219,3.906,0.000,0
28085.760,-26.367,-38.574,-68.359,-57.129,0.000,0
28085.764,-62.012,-41.016,-85.938,-20.020,0.000,0
28085.768,-59.082,-48.828,-8.301,11.719,0.000,0
28085.772,-19.531,-40.527,-73.242,1.953,0.000,0
28085.775,-7.324,-28.320,-96.680,-9.766,0.000,0
28085.779,-22.949,-26.367,-7.324,-59.082,0.000,0
28085.783,-20.020,-24.414,-18.555,-46.387,0.000,0
28085.787,-5.371,-26.367,-47.363,-29.297,0.000,0
28085.791,-4.883,-28.809,-126.953,3.906,0.000,0
28085.795,-25.391,-31.250,-85.449,-3.418,0.000,0
28085.799,-57.129,-27.344,49.316,-54.688,0.000,0
28085.803,-42.480,-22.949,52.246,-27.344,0.000,0
28085.807,21.484,-8.301,-68.848,18.066,0.000,0
28085.811,-6.836,2.930,-117.188,39.062,0.000,0
28085.815,-61.523,-9.766,73.730,5.371,0.000,0
28085.818,3.418,-23.438,-0.488,-42.969,0.000,0
28085.822,35.645,-21.484,-44.922,-60.547,0.000,0
28085.826,-2.930,-17.090,40.039,-53.711,0.000,0
28085.830,11.719,-14.648,-270.996,31.250,0.000,0
28085.834,35.156,-17.090,-215.332,15.625,0.000,0
28085.838,14.160,-20.996,20.996,-59.570,0.000,0
28085.842,-21.973,-17.090,11.230,-1.953,0.000,0
28085.846,-23.438,-11.719,-17.578,20.508,0.000,0
28085.850,3.418,-9.277,-54.199,3.418,0.000,0
28085.854,-14.160,-18.555,20.020,1.465,0.000,0
28085.857,-41.504,-27.832,196.777,-67.871,0.000,0
28085.861,-54.688,-20.020,50.781,-70.801,0.000,0
28085.865,-47.852,-17.578,-69.824,-19.043,0.000,0
28085.869,-21.973,-26.855,-75.195,-3.418,0.000,0
28085.873,-60.059,-31.250,49.316,-32.715,0.000,0
28085.877,-56.641,-35.645,62.500,-83.496,0.000,0
28085.881,-13.184,-31.250,-152.832,-39.062,0.000,0
28085.885,-27.832,-34.180,-82.520,-23.438,0.000,0
28085.889,-40.039,-36.133,-26.855,-28.320,0.000,0
28085.893,-21.973,-29.297,-75.195,-20.996,0.000,0
28085.897,-8.789,-22.461,51.270,-75.684,0.000,0
28085.900,0.977,-11.719,29.297,-56.641,0.000,0
28085.904,-32.227,-19.043,-30.762,-1.953,0.000,0
28085.908,-30.762,-31.738,-86.914,-9.277,0.000,0
28085.912,-12.207,-28.320,-115.234,-22.949,0.000,0
28085.916,-49.805,-30.273,168.945,-82.520,0.000,0
28085.920,-48.340,-26.367,114.258,-65.430,0.000,0
28085.924,12.207,-20.996,-66.406,-45.410,0.000,0
28085.928,-4.395,-25.879,60.059,-82.520,0.000,0
28085.932,-40.039,-27.344,-49.805,1.953,0.000,0
28085.936,-13.184,-34.668,20.020,-38.086,0.000,0
28085.940,13.672,-26.855,11.230,-55.176,0.000,0
28085.943,2.930,-18.555,-110.840,12.695,0.000,0
28085.947,-37.598,-22.461,-25.879,2.930,0.000,0
28085.951,-36.133,-20.020,20.508,-3.418,0.000,0
28085.955,-11.230,-26.855,77.637,-50.781,0.000,0
28085.959,-2.930,-17.090,4.883,-64.941,0.000,0
28085.963,-45.410,-6.348,52.246,-32.227,0.000,0
28085.967,-24.414,-18.555,-34.668,-8.301,0.000,0
28085.971,9.766,-32.227,-164.551,15.137,0.000,0
28085.975,-11.230,-45.410,11.719,-35.645,0.000,0
28085.979,-35.645,-37.598,-6.348,-53.223,0.000,0
28085.982,-21.973,-20.020,-137.695,-5.371,0.000,0
28085.986,-1.953,-24.902,-104.980,-18.555,0.000,0
28085.990,-22.461,-31.250,-67.383,-17.578,0.000,0
28085.994,-42.969,-29.297,-17.578,-44.434,0.000,0
28085.998,-44.922,-24.414,-7.324,-83.008,0.000,0
28086.002,-32.715,-26.855,-60.059,-59.082,0.000,0
28086.006,-32.227,-31.250,-81.543,-18.066,0.000,0
28086.010,-63.477,-32.715,-66.406,-0.977,0.000,0
28086.014,-25.879,-40.527,-89.355,-40.527,0.000,0
28086.018,4.883,-34.668,-76.660,-41.504,0.000,0
28086.022,-31.738,-28.809,-68.848,-5.859,0.000,0
28086.025,-23.926,-35.645,-71.777,-18.066,0.000,0
28086.029,-20.996,-40.039,12.207,-56.152,0.000,0
28086.033,-12.695,-37.109,-31.738,-44.434,0.000,0
28086.037,-12.207,-27.832,1.465,-46.875,0.000,0
28086.041,-34.668,-21.973,9.277,-46.875,0.000,0
28086.045,-44.922,-23.926,-112.305,-4.883,0.000,0
28086.049,-36.133,-26.367,-80.566,10.742,0.000,0
28086.053,-69.824,-33.203,100.098,-24.414,0.000,0
28086.057,-60.547,-39.551,22.461,-73.730,0.000,0
28086.061,-12.207,-36.133,-158.203,-54.688,0.000,0
28086.065,-20.020,-33.203,-57.617,-47.363,0.000,0
28086.068,-28.320,-26.367,-33.203,-8.301,0.000,0
28086.072,-15.625,-27.832,-59.570,14.160,0.000,0
28086.076,-13.184,-24.414,-28.320,-40.527,0.000,0
28086.080,-30.273,-15.137,-50.781,-20.996,0.000,0
28086.084,-16.113,-22.949,-58.105,18.555,0.000,0
28086.088,-8.789,-34.668,-64.453,-0.488,0.000,0
28086.092,-37.109,-35.645,-16.113,-12.207,0.000,0
28086.096,-25.879,-32.227,71.289,-61.523,0.000,0
28086.100,-38.086,-28.809,78.613,-55.664,0.000,0
28086.104,-2.441,-24.902,-27.832,-19.531,0.000,0
28086.107,19.043,-18.066,-106.934,20.020,0.000,0
28086.111,-16.113,-18.066,-45.410,20.508,0.000,0
28086.115,-17.090,-19.531,27.832,-41.016,0.000,0
28086.119,-0.977,-15.625,-61.035,-2.441,0.000,0
28086.123,-5.371,-23.438,-88.379,28.320,0.000,0
28086.127,-43.945,-28.320,-20.508,14.160,0.000,0
28086.131,-49.316,-32.227,62.988,-40.527,0.000,0
28086.135,-25.391,-31.738,5.371,-61.523,0.000,0
28086.139,-53.223,-28.320,31.738,-20.508,0.000,0
28086.143,-64.941,-24.902,9.766,-2.441,0.000,0
28086.147,-10.742,-20.508,-179.199,19.531,0.000,0
28086.150,-9.277,-22.949,29.297,-36.621,0.000,0
28086.154,-31.250,-19.043,47.363,-34.180,0.000,0
28086.158,-10.254,-16.602,-229.492,28.320,0.000,0
28086.162,0.488,-21.973,-201.172,3.906,0.000,0
28086.166,-1.465,-25.391,-88.867,10.254,0.000,1
28086.170,-21.973,-25.879,120.605,-29.297,0.000,0
28086.174,-36.133,-22.949,102.539,-62.988,0.000,0
28086.178,-27.832,-22.461,-67.383,-23.926,0.000,0
28086.182,-42.480,-25.879,-5.371,0.000,0.000,0
28086.186,-64.941,-21.973,0.488,19.531,0.000,0
28086.190,-39.062,-27.832,-20.508,-39.062,0.000,0
28086.193,-21.973,-32.715,-125.977,-48.340,0.000,0
28086.197,-32.715,-24.414,-151.855,10.742,0.000,0
28086.201,-42.969,-23.438,46.875,2.930,0.000,0
28086.205,-34.180,-22.949,-20.020,9.766,0.000,0
28086.209,-36.621,-25.879,24.902,-42.480,0.000,0
28086.213,-70.801,-32.715,130.371,-93.750,0.000,0
28086.217,-56.641,-35.645,-5.371,-32.227,0.000,0
28086.221,-30.273,-40.039,-93.750,1.953,0.000,0
28086.225,-34.180,-38.086,-149.902,5.371,0.000,0
28086.229,-67.383,-38.086,61.523,-32.715,0.000,0
28086.232,-76.172,-39.551,185.547,-70.312,0.000,0
28086.236,-40.039,-34.180,86.914,-73.730,0.000,0
28086.240,-29.785,-26.855,-9.766,-66.406,0.000,0
28086.244,-68.359,-25.391,-109.375,4.883,0.000,0
28086.248,-87.891,-39.062,40.039,-11.230,0.000,0
28086.252,-23.926,-40.527,-4.883,-68.848,0.000,0
28086.256,-5.859,-29.297,-147.461,-16.113,0.000,0
28086.260,-42.480,-28.809,-127.441,16.113,0.000,0
28086.264,-31.250,-22.949,-109.375,14.648,0.000,0
28086.268,-12.207,-24.414,20.996,-18.066,0.000,0
28086.272,-32.715,-35.156,115.234,-77.637,0.000,0
28086.275,-49.316,-27.344,-44.922,-55.176,0.000,0
28086.279,-56.641,-25.879,-11.719,-33.691,0.000,0
28086.283,-41.504,-27.832,-43.457,10.742,0.000,0
28086.287,-13.672,-33.203,-48.340,0.488,0.000,0
28086.291,-61.523,-38.574,134.277,-67.871,0.000,0
28086.295,-53.711,-33.691,-69.824,-19.043,0.000,0
28086.299,13.672,-36.621,-169.434,8.789,0.000,0
28086.303,2.441,-32.227,-33.691,-4.395,0.000,0
28086.307,-23.438,-33.691,40.039,-12.207,0.000,0
28086.311,-14.160,-28.809,31.738,-54.688,0.000,0
28086.315,21.484,-16.602,-29.785,-46.875,0.000,0
28086.318,1.953,-18.555,33.691,-12.695,0.000,0
28086.322,-40.039,-26.367,11.230,10.742,0.000,0
28086.326,-45.410,-32.715,-48.828,0.977,0.000,0
28086.330,-49.316,-35.645,45.410,-41.992,0.000,0
28086.334,-44.434,-27.344,31.738,-5.859,0.000,0
28086.338,-41.504,-34.180,91.309,-29.297,0.000,0
28086.342,-8.789,-40.039,-84.473,-54.199,0.000,0
28086.346,8.301,-36.133,-255.371,-1.465,0.000,0
28086.350,-19.531,-43.945,30.762,-56.641,0.000,0
28086.354,-21.973,-27.344,57.617,-52.734,0.000,0
28086.357,-20.020,-13.184,-66.406,-11.230,0.000,0
28086.361,-36.621,-22.949,-98.633,-0.488,0.000,0
28086.365,-38.086,-29.297,-9.766,-4.883,0.000,0
28086.369,-46.875,-30.273,74.219,-24.902,0.000,0
28086.373,-43.457,-28.320,-19.531,-8.301,0.000,0
28086.377,-24.414,-26.855,-103.516,1.465,0.000,0
28086.381,-58.594,-25.391,61.035,-1.953,0.000,0
28086.385,-45.410,-25.391,55.664,-7.812,0.000,0
28086.389,-13.184,-29.297,-24.902,-54.688,0.000,0
28086.393,-60.059,-31.250,-1.953,-64.941,0.000,0
28086.397,-46.875,-28.809,-61.523,-22.949,0.000,0
28086.400,-3.906,-25.391,-81.055,0.977,0.000,0
28086.404,0.000,-35.645,-58.105,0.000,0.000,0
28086.408,-47.852,-46.875,37.109,-50.293,0.000,0
28086.412,-65.918,-37.598,7.812,-73.242,0.000,0
28086.416,-28.320,-34.668,-23.926,-44.922,0.000,0
28086.420,-34.180,-31.738,4.883,-21.484,0.000,0
28086.424,-63.965,-21.484,-17.578,21.484,0.000,0
28086.428,-66.406,-24.414,28.320,-15.625,0.000,0
28086.432,-16.602,-23.926,-51.758,-42.480,0.000,0
28086.436,1.465,-17.578,-120.605,19.531,0.000,0
28086.440,-22.949,-23.926,-4.883,8.789,0.000,0
28086.443,-40.527,-22.461,6.836,-16.602,0.000,0
28086.447,-18.066,-20.996,-58.105,-12.207,0.000,0
28086.451,-28.320,-23.926,14.160,-33.691,0.000,0
28086.455,-27.832,-20.508,-32.715,-25.879,0.000,0
28086.459,-24.902,-18.066,-113.770,-12.207,0.000,0
28086.463,-28.320,-17.578,-149.414,28.809,0.000,0
28086.467,-38.574,-30.762,58.594,-32.227,0.000,0
28086.471,-68.848,-33.691,164.062,-61.035,0.000,0
28086.475,-42.480,-23.926,-96.191,15.137,0.000,0
28086.479,-4.395,-32.715,-207.031,-0.488,0.000,0
28086.482,-31.250,-34.180,-67.871,-6.836,0.000,0
28086.486,-41.504,-32.715,102.539,-38.086,0.000,0
28086.490,-16.602,-26.855,-14.648,-71.289,0.000,0
28086.494,-8.789,-21.973,-172.852,-57.129,0.000,0
28086.498,-36.621,-19.531,-34.668,-21.973,0.000,0
28086.502,-44.922,-19.043,-3.906,15.625,0.000,0
28086.506,-33.203,-27.832,48.340,-48.828,0.000,0
28086.510,-56.641,-23.926,-1.953,-56.641,0.000,0
28086.514,-63.965,-17.578,-73.242,6.836,0.000,0
28086.518,-58.105,-23.926,16.602,-3.418,0.000,0
28086.522,-22.461,-21.973,-110.840,4.395,0.000,0
28086.525,-13.672,-26.367,-39.062,-40.039,0.000,0
28086.529,-45.410,-29.785,63.477,-90.332,0.000,0
28086.533,-31.250,-24.414,-34.668,-55.664,0.000,0
28086.537,-9.766,-24.414,-99.121,-20.508,0.000,0
28086.541,-26.855,-30.273,-134.766,-7.324,0.000,0
28086.545,-53.223,-35.645,40.039,-58.105,0.000,0
28086.549,-38.574,-31.738,29.297,-37.598,0.000,0
28086.553,-8.301,-27.832,-152.344,11.230,0.000,0
28086.557,-22.949,-26.367,-65.918,-11.230,0.000,0
28086.561,-76.172,-25.391,-20.020,-6.348,0.000,0
28086.565,-45.410,-34.180,-30.273,-48.828,0.000,0
28086.568,-15.625,-33.691,65.430,-93.750,0.000,0
28086.572,-38.086,-27.344,-31.738,-43.457,0.000,0
28086.576,-31.738,-30.273,-130.371,-15.137,0.000,0
28086.580,-13.672,-24.902,-129.395,-9.766,0.000,0
28086.584,-11.719,-21.973,21.973,-40.039,0.000,0
28086.588,-37.109,-30.762,121.582,-82.031,0.000,0
28086.592,-42.480,-28.320,-44.434,-57.617,0.000,0
28086.596,-32.227,-25.879,-73.730,-51.758,0.000,0
28086.600,-21.973,-24.902,-61.523,-14.648,0.000,0
28086.604,-21.973,-29.297,-41.016,17.090,0.000,0
28086.607,-52.246,-40.039,45.898,-41.992,0.000,0
28086.611,-60.059,-34.180,-29.785,-39.551,0.000,0
28086.615,-16.113,-32.715,-118.164,5.371,0.000,0
28086.619,-28.320,-33.203,-0.488,0.488,0.000,0
28086.623,-45.410,-30.273,104.980,-19.043,0.000,0
28086.627,-27.832,-28.809,19.531,-62.012,0.000,0
28086.631,-35.156,-21.973,-46.387,-48.340,0.000,0
28086.635,-22.949,-22.949,1.465,-28.809,0.000,0
28086.639,-12.695,-22.949,-86.426,21.484,0.000,0
28086.643,-2.441,-20.020,-87.891,19.531,0.000,0
28086.647,-17.578,-15.625,127.441,-67.871,0.000,0
28086.650,-3.418,-1.465,20.020,-1.465,0.000,0
28086.654,6.836,-7.324,-59.570,47.852,0.000,0
28086.658,3.906,-18.555,-82.031,10.742,0.000,0
28086.662,7.812,-26.367,-62.500,-7.324,0.000,0
28086.666,-32.227,-37.109,167.969,-62.012,0.000,0
28086.670,-2.930,-31.738,46.387,-59.570,0.000,0
28086.674,27.832,-26.855,-122.559,-17.578,0.000,0
28086.678,-13.672,-26.367,-100.098,9.766,0.000,0
28086.682,-6.348,-26.855,-3.906,-2.441,0.000,0
28086.686,-3.906,-30.273,87.891,-51.270,0.000,0
28086.690,-8.301,-24.902,-27.344,-20.020,0.000,0
28086.693,-5.371,-18.066,-80.078,8.301,0.000,0
28086.697,-18.555,-15.137,19.043,-10.254,0.000,0
28086.701,-17.090,-15.137,27.344,-7.324,0.000,0
28086.705,-8.789,-20.020,27.344,-49.316,0.000,0
28086.709,-30.762,-21.973,67.383,-79.102,0.000,0
28086.713,-42.480,-21.484,23.926,-29.785,0.000,0
28086.717,18.066,-20.508,-121.582,1.953,0.000,0
28086.721,22.461,-24.902,-59.570,-7.812,0.000,0
28086.725,-25.879,-26.855,19.531,-27.832,0.000,0
28086.729,-20.996,-25.391,-98.633,-12.695,0.000,0
28086.732,7.324,-25.879,-97.656,-1.465,0.000,0
28086.736,-2.441,-24.414,-6.836,-13.672,0.000,0
28086.740,-19.043,-24.414,0.488,-12.695,0.000,0
28086.744,-30.273,-23.926,29.297,-53.223,0.000,0
28086.748,-28.320,-18.066,55.176,-60.547,0.000,0
28086.752,-20.996,-13.672,-8.789,-8.789,0.000,0
28086.756,-37.109,-20.020,21.973,-11.719,0.000,0
28086.760,-36.133,-17.578,-86.914,-3.418,0.000,0
28086.764,-9.277,-21.973,-125.488,-39.062,0.000,0
28086.768,-6.836,-20.996,-13.672,-72.754,0.000,0
28086.772,-16.113,-18.066,-12.695,-51.270,0.000,0
28086.775,-28.320,-23.926,-100.098,-41.992,0.000,1
28086.779,-29.785,-15.137,-143.555,3.906,0.000,0
28086.783,-31.250,-14.648,52.734,-35.645,0.000,0
28086.787,-30.273,-19.531,56.152,-59.082,0.000,0
28086.791,-20.508,-15.137,-106.445,8.789,0.000,0
28086.795,-33.203,-19.043,-89.844,14.160,0.000,0
28086.799,-45.410,-24.414,33.203,-4.883,0.000,0
28086.803,-61.523,-25.391,122.070,-36.621,0.000,0
28086.807,-32.715,-27.344,51.758,-85.938,0.000,0
28086.811,-0.977,-20.996,-9.277,-75.684,0.000,0
28086.815,3.418,-11.719,-83.984,8.789,0.000,0
28086.818,18.555,-9.766,-91.797,53.223,0.000,0
28086.822,17.578,-10.742,3.906,-20.020,0.000,0
28086.826,1.465,-7.812,-30.273,-31.738,0.000,0
28086.830,0.488,-9.766,-83.496,33.203,0.000,0
28086.834,16.602,-12.207,-39.062,10.742,0.000,0
28086.838,-4.395,-12.207,-11.719,7.812,0.000,0
28086.842,-24.902,-17.578,52.246,-34.180,0.000,0
28086.846,-28.320,-15.625,114.258,-83.496,0.000,0
28086.850,-27.344,-10.742,65.918,-45.410,0.000,0
28086.854,16.602,-14.160,-73.242,-7.812,0.000,0
28086.857,0.488,-12.207,-34.668,-0.977,0.000,0
28086.861,-11.719,-9.766,32.715,-42.480,0.000,0
28086.865,-5.371,-15.137,38.086,-35.645,0.000,0
28086.869,5.859,-17.578,-56.152,18.555,0.000,0
28086.873,7.812,-20.020,-36.621,3.418,0.000,0
28086.877,-14.648,-20.996,-32.227,-1.953,0.000,0
28086.881,-4.883,-32.227,33.691,-47.852,0.000,0
28086.885,4.395,-36.621,94.238,-83.496,0.000,0
28086.889,-19.043,-25.391,20.508,-32.227,0.000,0
28086.893,-44.922,-22.461,-26.367,4.395,0.000,0
28086.897,2.930,-27.832,-164.551,19.043,0.000,0
28086.900,10.254,-34.668,15.137,-36.133,0.000,0
28086.904,-19.531,-35.645,93.750,-50.293,0.000,0
28086.908,-17.578,-24.902,-77.148,10.254,0.000,0
28086.912,-1.953,-22.949,-120.117,-3.906,0.000,0
28086.916,22.949,-27.344,-175.293,-1.953,0.000,0
28086.920,-6.348,-31.250,63.477,-33.203,0.000,0
28086.924,-47.363,-29.785,200.684,-83.008,0.000,0
28086.928,-32.715,-23.438,-59.570,-28.320,0.000,0
28086.932,-10.742,-28.320,-83.496,12.207,0.000,0
28086.936,-48.340,-26.855,1.465,16.113,0.000,0
28086.940,-43.457,-30.762,-0.977,-29.785,0.000,0
28086.943,-8.789,-29.785,-44.434,-77.148,0.000,0
28086.947,-1.465,-18.555,-79.102,-44.922,0.000,0
28086.951,-29.785,-25.391,49.316,-45.410,0.000,0
28086.955,-20.996,-32.715,-48.828,-16.113,0.000,0
28086.959,-20.996,-42.480,5.371,-50.781,0.000,0
28086.963,-55.664,-34.668,62.012,-65.918,0.000,0
28086.967,-13.672,-22.949,-105.957,12.207,0.000,0
28086.971,-8.301,-32.715,-113.281,-4.883,0.000,0
28086.975,-46.875,-31.250,-88.867,-14.648,0.000,0
28086.979,-71.777,-32.227,126.465,-42.480,0.000,0
28086.982,-57.129,-34.180,113.770,-66.406,0.000,0
28086.986,-41.504,-29.297,-5.371,-40.039,0.000,0
28086.990,-56.641,-31.250,-27.832,-9.766,0.000,0
28086.994,-62.500,-31.738,-13.184,22.949,0.000,0
28086.998,-15.137,-29.297,49.316,-18.555,0.000,0
28087.002,11.719,-26.367,-27.344,-41.016,0.000,0
28087.006,-23.926,-29.297,-118.164,3.906,0.000,0
28087.010,-41.992,-35.645,-90.820,-4.395,0.000,0
28087.014,-10.742,-31.250,-66.895,3.418,0.000,0
28087.018,0.000,-26.367,33.203,-21.484,0.000,0
