timestamps,TP9,AF7,AF8,TP10,Right AUX,Marker0
27816.307,-97.656,-78.125,-166.504,-84.473,0.000,0
27816.311,-71.289,-56.641,-464.355,-39.551,0.000,0
27816.315,-85.938,-53.711,-362.305,-22.949,0.000,0
27816.318,-134.277,-101.074,136.230,-134.766,0.000,0
27816.322,-107.910,-99.609,146.484,-204.590,0.000,0
27816.326,-91.309,-66.406,-82.031,-124.023,0.000,0
27816.330,-125.000,-74.707,34.180,-74.707,0.000,0
27816.334,-100.098,-73.242,-47.852,-5.371,0.000,0
27816.338,-50.293,-86.914,-63.477,-100.098,0.000,0
27816.342,-62.500,-84.473,38.574,-155.762,0.000,0
27816.346,-51.758,-56.641,-243.652,-25.391,0.000,0
27816.350,-47.363,-76.660,-145.020,-48.340,0.000,0
27816.354,-20.996,-70.312,-97.168,-44.922,0.000,0
27816.358,-33.691,-76.172,49.316,-97.656,0.000,0
27816.361,-86.914,-78.125,214.355,-206.055,0.000,0
27816.365,-43.457,-50.781,41.992,-126.953,0.000,0
27816.369,-17.090,-51.758,-20.508,-34.668,0.000,0
27816.373,-62.012,-52.734,-55.664,3.418,0.000,0
27816.377,-101.562,-58.105,121.582,-44.922,0.000,0
27816.381,-73.242,-70.801,106.445,-91.797,0.000,0
27816.385,-2.441,-52.246,-216.309,-14.648,0.000,0
27816.389,-29.785,-45.898,-35.645,-14.648,0.000,0
27816.393,-47.852,-39.551,-38.086,-26.855,0.000,0
27816.397,-28.320,-48.828,-109.375,-46.875,0.000,0
27816.400,-32.715,-70.312,98.633,-153.320,0.000,0
27816.404,-39.062,-41.016,63.477,-93.262,0.000,0
27816.408,-47.363,-33.691,116.699,-45.898,0.000,0
27816.412,13.672,-5.371,-256.836,-2.441,0.000,0
27816.416,20.996,-6.836,-327.148,59.570,0.000,0
27816.420,-60.547,-49.316,243.164,-68.359,0.000,0
27816.424,-38.086,-17.090,152.344,-86.426,0.000,0
27816.428,-2.441,14.160,-43.945,-20.020,0.000,0
27816.432,21.973,9.766,-144.531,36.621,0.000,0
27816.436,-36.621,-19.043,24.414,70.801,0.000,0
27816.440,-62.012,-43.945,140.137,-59.570,0.000,0
27816.443,29.297,-7.812,-214.355,-11.719,0.000,0
27816.447,24.414,2.441,-227.539,96.191,0.000,0
27816.451,-9.766,-27.832,-94.238,42.480,0.000,0
27816.455,-26.367,-40.039,-37.109,28.320,0.000,0
27816.459,-17.090,-35.645,-11.230,-42.480,0.000,0
27816.463,-13.672,-27.832,-56.152,-78.613,0.000,0
27816.467,-56.641,-34.180,103.027,-41.016,0.000,0
27816.471,-36.133,-29.785,6.348,29.785,0.000,0
27816.475,-1.465,-28.809,-205.566,62.500,0.000,0
27816.479,-66.406,-56.152,2.930,-71.289,0.000,0
27816.483,-85.938,-47.852,75.195,-42.969,0.000,0
27816.486,-13.184,-11.719,-82.031,67.383,0.000,0
27816.490,30.273,-3.418,-232.422,43.945,0.000,0
27816.494,-4.395,-9.277,-140.137,40.527,0.000,0
27816.498,-44.922,-35.156,189.941,-49.316,0.000,0
27816.502,-2.441,-40.527,85.449,-110.840,0.000,0
27816.506,6.836,-19.531,-33.203,-13.672,0.000,0
27816.510,-38.574,-32.227,103.027,-30.762,0.000,0
27816.514,-43.945,-30.762,137.207,-31.250,0.000,0
27816.518,-9.766,-9.277,139.160,-5.859,0.000,0
27816.522,28.809,4.883,-2.930,17.090,0.000,0
27816.525,-0.488,16.113,-51.758,82.031,0.000,0
27816.529,-25.879,0.488,23.926,34.180,0.000,0
27816.533,44.922,-5.371,-173.828,38.574,0.000,0
27816.537,5.859,-33.691,90.820,-65.918,0.000,0
27816.541,-17.090,-28.320,56.152,-111.328,0.000,0
27816.545,19.531,-1.465,-322.754,0.977,0.000,0
27816.549,16.113,-20.020,-320.801,45.410,0.000,0
27816.553,-8.301,-41.016,-173.340,16.113,0.000,0
27816.557,-68.848,-62.500,175.293,-83.496,0.000,0
27816.561,-80.078,-34.668,86.914,-48.828,0.000,0
27816.565,-18.066,-6.836,-162.598,29.297,0.000,0
27816.568,-5.859,-21.973,-15.137,-1.953,0.000,0
27816.572,-60.547,-28.809,91.797,-3.418,0.000,0
27816.576,-57.617,-50.781,-41.504,-127.930,0.000,0
27816.580,-26.367,-47.363,-143.066,-182.129,0.000,0
27816.584,-30.273,-18.066,-91.309,-32.227,0.000,0
27816.588,-35.156,-21.973,-111.816,13.672,0.000,0
27816.592,-21.484,-25.879,-297.852,8.301,0.000,0
27816.596,-61.035,-41.016,-58.105,-99.609,0.000,0
27816.600,-66.406,-32.715,105.469,-152.832,0.000,0
27816.604,-8.301,1.953,-12.695,-73.242,0.000,0
27816.608,-19.043,10.254,-55.664,-18.066,0.000,0
27816.611,-25.391,6.348,-149.902,13.672,0.000,0
27816.615,-60.059,-33.691,269.043,-123.535,0.000,0
27816.619,-48.828,-7.812,259.277,-95.215,0.000,0
27816.623,43.945,39.062,-255.371,61.035,0.000,0
27816.627,17.578,15.625,-258.301,47.363,0.000,0
27816.631,-8.301,-7.812,-172.852,25.391,0.000,0
27816.635,-25.391,-44.434,96.191,-83.008,0.000,0
27816.639,-19.531,-44.922,128.418,-171.875,0.000,0
27816.643,-16.113,-20.996,-71.777,-88.379,0.000,0
27816.647,-50.293,-38.574,-52.246,-54.688,0.000,0
27816.650,-31.738,-32.715,-91.309,37.109,0.000,0
27816.654,-38.574,-50.781,84.961,-50.781,0.000,0
27816.658,-42.969,-45.410,142.090,-126.953,0.000,0
27816.662,-26.367,1.953,45.898,37.109,0.000,0
27816.666,21.484,-6.348,-6.348,44.434,0.000,0
27816.670,42.969,-25.391,-71.777,28.320,0.000,0
27816.674,-26.855,-58.594,269.043,-58.105,0.000,0
27816.678,-26.367,-55.664,350.586,-143.555,0.000,0
27816.682,42.969,-22.949,53.223,-46.875,0.000,0
27816.686,27.344,-28.809,88.867,22.461,0.000,0
27816.690,-4.883,-32.227,64.453,83.496,0.000,0
27816.693,-21.973,-41.992,163.574,1.953,0.000,0
27816.697,-25.879,-41.992,247.070,-59.082,0.000,0
27816.701,-10.254,-22.949,59.570,56.152,0.000,0
27816.705,-29.785,-30.273,189.941,46.387,0.000,0
27816.709,-23.926,-24.414,145.020,46.387,0.000,0
27816.713,34.180,-23.926,-22.461,25.879,0.000,0
27816.717,7.812,-57.617,287.109,-121.582,0.000,0
27816.721,19.043,-19.531,163.574,-21.484,0.000,0
27816.725,55.664,12.207,-81.543,115.234,0.000,0
27816.729,49.316,2.930,-201.172,98.145,0.000,0
27816.733,24.414,-20.508,0.000,35.156,0.000,0
27816.736,1.953,-30.762,270.508,-67.383,0.000,0
27816.740,29.297,0.488,40.527,-42.969,0.000,0
27816.744,3.906,-11.230,-23.438,-36.133,0.000,0
27816.748,-41.016,-25.391,32.227,-6.348,0.000,0
27816.752,-54.688,-30.762,109.863,51.270,0.000,0
27816.756,-28.320,-53.711,128.418,-73.242,0.000,0
27816.760,18.066,-25.879,-161.621,-47.852,0.000,0
27816.764,-20.020,-26.367,-125.000,50.781,0.000,0
27816.768,-44.922,-58.594,-38.086,20.508,0.000,0
27816.772,-32.715,-54.688,-75.684,10.742,0.000,0
27816.775,-59.570,-57.129,50.293,-72.754,0.000,0
27816.779,-62.988,-59.570,13.184,-106.934,0.000,0
27816.783,-41.992,-50.293,0.488,-69.336,0.000,0
27816.787,-12.695,-48.340,-121.094,-7.324,0.000,0
27816.791,-26.367,-61.035,-194.824,45.410,0.000,0
27816.795,-96.680,-78.613,49.805,-80.078,0.000,0
27816.799,-37.598,-54.688,-61.523,-62.988,0.000,0
27816.803,34.180,-31.250,-263.672,53.223,0.000,0
27816.807,21.973,-37.109,-221.680,17.090,0.000,0
27816.811,-60.547,-41.504,43.945,-4.395,0.000,0
27816.815,-62.988,-50.293,160.645,-73.242,0.000,0
27816.818,10.742,-45.410,127.930,-161.621,0.000,0
27816.822,9.766,-14.648,-9.277,-62.988,0.000,0
27816.826,20.508,5.859,-278.809,89.355,0.000,0
27816.830,1.953,-12.695,-161.621,73.242,0.000,0
27816.834,-31.250,-42.480,96.191,-66.895,0.000,0
27816.838,-33.203,-38.574,71.289,-33.691,0.000,0
27816.842,-38.574,-31.738,-117.188,50.781,0.000,0
27816.846,-50.293,-45.898,-175.293,4.883,0.000,0
27816.850,-27.344,-62.012,-198.242,-11.719,0.000,0
27816.854,-45.898,-63.477,74.707,-89.355,0.000,0
27816.858,-48.828,-38.086,160.645,-113.281,0.000,0
27816.861,-2.441,-7.812,-133.789,-20.020,0.000,0
27816.865,17.578,-10.254,-200.684,46.875,0.000,0
27816.869,-20.020,-31.250,-23.926,38.574,0.000,0
27816.873,-44.922,-53.223,137.695,-79.590,0.000,0
27816.877,5.859,-27.832,-123.047,-35.645,0.000,0
27816.881,18.066,-20.020,-195.312,40.039,0.000,0
27816.885,-33.203,-54.199,17.578,-4.395,0.000,0
27816.889,-55.664,-61.523,95.703,-34.668,0.000,0
27816.893,-38.086,-58.594,96.191,-146.484,0.000,0
27816.897,-50.293,-44.434,125.000,-97.168,0.000,0
27816.900,-56.152,-30.762,189.941,20.508,0.000,0
27816.904,23.438,-16.113,-111.816,38.086,0.000,0
27816.908,20.020,-23.438,-158.203,13.184,0.000,0
27816.912,-48.340,-52.734,203.613,-97.168,0.000,0
27816.916,-8.789,-56.152,147.949,-142.090,0.000,0
27816.920,-4.395,-64.453,176.270,-166.504,0.000,0
27816.924,33.203,-15.137,-193.359,-19.043,0.000,0
27816.928,2.930,-32.715,-75.684,-22.461,0.000,0
27816.932,-37.598,-65.430,127.930,-114.258,0.000,0
27816.936,-20.508,-27.344,72.266,-10.254,0.000,0
27816.940,-15.137,-22.949,-58.594,61.035,0.000,0
27816.943,-58.105,-44.434,-71.777,40.527,0.000,0
27816.947,-90.820,-68.359,99.609,-16.113,0.000,0
27816.951,-41.992,-76.660,187.500,-144.043,0.000,0
27816.955,-33.691,-40.039,113.281,-98.145,0.000,0
27816.959,-43.945,-18.066,30.273,-35.645,0.000,0
27816.963,-6.836,-8.789,-101.074,30.273,0.000,0
27816.967,28.320,-8.789,-133.301,70.312,0.000,0
27816.971,-33.691,-57.617,220.703,-122.070,0.000,0
27816.975,-53.223,-40.039,85.449,-65.918,0.000,0
27816.979,0.488,-7.812,-148.438,64.941,0.000,0
27816.983,-15.625,-31.738,-56.152,24.414,0.000,0
27816.986,-45.410,-47.852,117.676,3.418,0.000,0
27816.990,-75.684,-56.641,449.707,-117.188,0.000,0
27816.994,10.742,-10.254,54.688,-81.055,0.000,0
27816.998,54.199,-5.371,-101.562,-10.254,0.000,0
27817.002,20.508,-16.113,-18.555,41.992,0.000,0
27817.006,25.391,-2.441,-72.754,72.266,0.000,0
27817.010,-23.438,-40.039,201.660,-100.586,0.000,0
27817.014,-34.180,-26.367,103.027,-42.969,0.000,0
27817.018,11.230,-0.488,-25.391,52.734,0.000,0
27817.022,-19.043,-40.039,207.520,-101.074,0.000,0
27817.025,-2.930,-16.113,-67.871,-18.555,0.000,0
27817.029,-8.301,-18.066,97.656,-34.668,0.000,0
27817.033,-48.340,-36.133,284.668,-88.379,0.000,0
27817.037,-11.719,-20.508,-28.809,17.090,0.000,0
27817.041,39.551,-4.395,-282.227,78.125,0.000,0
27817.045,-6.348,-35.156,85.938,-10.742,0.000,0
27817.049,-32.227,-55.176,297.363,-80.078,0.000,0
27817.053,31.250,-20.996,-94.238,35.156,0.000,0
27817.057,24.902,-32.227,-140.137,22.949,0.000,0
27817.061,-16.602,-44.434,47.852,1.953,0.000,0
27817.065,-6.348,-50.293,190.918,-17.090,0.000,0
27817.068,10.742,-53.711,236.816,-124.512,0.000,0
27817.072,2.930,-25.879,120.117,-75.195,0.000,0
27817.076,-14.160,-12.207,142.578,38.574,0.000,0
27817.080,-4.395,-37.109,88.379,31.250,0.000,0
27817.084,36.621,-45.898,-40.039,-7.324,0.000,0
27817.088,12.695,-45.410,133.301,-86.914,0.000,0
27817.092,9.766,-41.992,30.273,-83.008,0.000,0
27817.096,28.809,-40.039,26.367,-44.434,0.000,0
27817.100,43.457,-27.344,-14.160,18.066,0.000,0
27817.104,23.926,-24.414,-81.055,79.590,0.000,0
27817.108,-21.973,-44.922,58.105,-54.199,0.000,0
27817.111,-4.395,-38.574,0.000,-51.758,0.000,0
27817.115,34.180,-16.113,-104.980,61.523,0.000,0
27817.119,15.625,-20.508,-39.551,30.762,0.000,0
27817.123,-48.828,-41.016,51.758,0.488,0.000,0
27817.127,-51.758,-51.758,109.375,-75.195,0.000,0
27817.131,3.906,-26.367,82.031,-88.867,0.000,0
27817.135,10.742,-5.859,166.992,-69.824,0.000,0
27817.139,7.324,10.742,-29.297,28.809,0.000,0
27817.143,25.879,2.930,-295.898,105.469,0.000,0
27817.147,3.418,-41.504,-67.871,-59.570,0.000,0
27817.150,-10.254,-30.273,41.992,-39.551,0.000,0
27817.154,0.488,-12.695,-83.984,68.848,0.000,0
27817.158,7.812,-22.461,-204.590,23.926,0.000,0
27817.162,1.465,-34.668,-77.637,16.113,0.000,0
27817.166,-28.809,-48.828,159.668,-67.383,0.000,0
27817.170,-32.227,-30.762,155.762,-100.586,0.000,0
27817.174,1.465,-1.465,-19.043,-21.484,0.000,0
27817.178,26.855,-3.418,-149.414,35.645,0.000,0
27817.182,-15.625,-21.973,49.805,50.293,0.000,0
27817.186,-55.176,-30.762,285.645,-62.500,0.000,0
27817.190,14.648,-1.465,-71.777,-29.297,0.000,0
27817.193,59.082,5.859,-272.461,62.012,0.000,0
27817.197,16.113,-24.414,-80.078,3.418,0.000,0
27817.201,-11.719,-37.598,-38.086,-3.418,0.000,0
27817.205,-21.484,-50.293,-5.371,-89.844,0.000,0
27817.209,-14.648,-40.527,32.715,-130.371,0.000,0
27817.213,-14.648,-33.203,86.426,-23.926,0.000,0
27817.217,-22.949,-30.273,40.039,54.199,0.000,0
27817.221,11.230,-17.090,-139.160,59.570,0.000,1
27817.225,-21.973,-37.598,49.805,-56.152,0.000,0
27817.229,-70.801,-40.039,187.012,-44.434,0.000,0
27817.233,-0.488,-19.531,-100.586,33.203,0.000,0
27817.236,-9.277,-31.738,-36.621,-41.504,0.000,0
27817.240,-42.969,-20.020,-85.938,12.695,0.000,0
27817.244,-51.270,-49.316,97.168,-68.848,0.000,0
27817.248,-60.547,-66.406,202.148,-152.832,0.000,0
27817.252,-26.855,-34.668,-45.410,-31.738,0.000,0
27817.256,-20.996,-24.902,-159.668,39.062,0.000,0
27817.260,-50.293,-41.504,-3.418,-12.207,0.000,0
27817.264,-51.758,-64.453,193.359,-159.180,0.000,0
27817.268,-17.578,-39.062,50.781,-104.492,0.000,0
27817.272,-56.152,-32.715,128.418,-62.500,0.000,0
27817.275,-29.785,-32.227,-76.172,-20.020,0.000,0
27817.279,7.812,-44.434,-204.102,22.949,0.000,0
27817.283,-46.875,-79.590,156.250,-146.484,0.000,0
27817.287,-45.410,-49.805,-53.223,-94.727,0.000,0
27817.291,-15.625,-34.668,-266.113,30.273,0.000,0
27817.295,-5.859,-51.758,-189.453,1.953,0.000,0
27817.299,-22.461,-53.223,-43.945,-32.715,0.000,0
27817.303,-63.965,-63.965,188.477,-155.273,0.000,0
27817.307,-55.176,-34.668,33.691,-123.047,0.000,0
27817.311,-34.180,-24.414,-18.066,-51.758,0.000,0
27817.315,-33.203,-14.648,-9.277,19.531,0.000,0
27817.318,-26.855,-4.395,-98.633,49.805,0.000,0
27817.322,-3.906,-17.578,-9.766,-106.934,0.000,0
27817.326,8.789,6.348,-55.664,-46.387,0.000,0
27817.330,-18.066,2.930,-94.727,72.754,0.000,0
27817.334,-11.719,-21.484,-40.039,-2.441,0.000,0
27817.338,-22.949,-20.508,-62.500,-51.758,0.000,0
27817.342,-29.297,-28.320,-52.246,-86.914,0.000,0
27817.346,-32.715,-38.086,97.168,-91.309,0.000,0
27817.350,-14.160,-33.691,19.531,-39.062,0.000,0
27817.354,13.184,-16.113,-190.430,41.504,0.000,0
27817.358,-26.855,-25.391,-106.934,58.594,0.000,0
27817.361,-97.168,-66.406,408.203,-87.891,0.000,0
27817.365,-37.109,-37.109,114.258,-36.133,0.000,0
27817.369,45.410,-5.371,-293.945,55.664,0.000,0
27817.373,8.789,-24.414,-156.250,-2.930,0.000,0
27817.377,-31.738,-42.969,-53.711,-12.695,0.000,0
27817.381,-30.273,-53.223,123.047,-101.074,0.000,0
27817.385,-8.301,-22.949,55.664,-128.906,0.000,0
27817.389,-28.320,0.000,-79.590,-40.039,0.000,0
27817.393,-37.598,-17.578,-105.957,22.949,0.000,0
27817.397,-6.348,-25.879,-140.625,30.762,0.000,0
27817.400,-24.414,-42.969,57.129,-61.035,0.000,0
27817.404,-65.918,-33.203,51.758,-28.809,0.000,0
27817.408,-53.223,-19.531,-53.711,35.156,0.000,0
27817.412,14.648,-17.578,-100.586,-4.395,0.000,0
27817.416,17.578,-17.090,-77.148,4.395,0.000,0
27817.420,-35.645,-40.527,157.227,-72.266,0.000,0
27817.424,-55.664,-45.410,162.109,-152.344,0.000,0
27817.428,-16.602,-32.227,-53.711,-52.734,0.000,0
27817.432,14.648,-21.484,-125.488,34.180,0.000,0
27817.436,-15.625,-20.996,16.113,-1.465,0.000,0
27817.440,-56.641,-51.758,234.863,-140.625,0.000,0
27817.443,-3.418,-47.852,-85.449,-143.066,0.000,0
27817.447,22.461,-24.902,-194.824,-56.152,0.000,0
27817.451,-63.965,-49.316,141.602,-57.617,0.000,0
27817.455,-56.641,-28.809,-103.027,43.457,0.000,0
27817.459,-49.316,-46.875,-145.508,4.395,0.000,0
27817.463,-73.730,-67.871,97.656,-113.770,0.000,0
27817.467,-87.891,-31.738,110.840,10.742,0.000,0
27817.471,-30.273,-5.371,-188.965,72.266,0.000,0
27817.475,-11.719,-14.160,-235.352,43.945,0.000,0
27817.479,-59.082,-46.387,45.898,-3.906,0.000,0
27817.483,-70.312,-50.293,116.699,-85.938,0.000,0
27817.486,-31.250,-30.273,-81.055,-72.266,0.000,0
27817.490,-17.578,-31.250,-137.695,-42.969,0.000,0
27817.494,-28.320,-39.551,-107.422,31.250,0.000,0
27817.498,-67.383,-66.406,59.570,-22.949,0.000,0
27817.502,-59.570,-76.660,103.027,-160.156,0.000,0
27817.506,-6.836,-36.621,-234.863,-34.668,0.000,0
27817.510,-47.852,-44.922,-38.574,6.348,0.000,0
27817.514,-67.383,-55.664,34.180,-22.461,0.000,0
27817.518,-21.484,-48.828,-125.000,-31.738,0.000,0
27817.522,-32.227,-48.828,-44.922,-125.977,0.000,0
27817.525,-71.289,-54.199,52.246,-116.699,0.000,0
27817.529,-66.406,-63.477,-19.043,-49.316,0.000,0
27817.533,-26.855,-47.363,-221.191,34.180,0.000,0
27817.537,-69.824,-69.336,-135.742,-31.738,0.000,0
27817.541,-130.371,-88.379,97.656,-135.742,0.000,0
27817.545,-86.426,-46.387,-55.664,13.184,0.000,0
27817.549,-62.988,-52.734,-77.637,8.789,0.000,0
27817.553,-74.707,-78.125,131.348,-130.371,0.000,0
27817.557,-78.125,-36.133,140.137,-44.434,0.000,0
27817.561,-0.488,-9.766,23.438,-81.055,0.000,0
27817.565,39.551,-1.953,-102.051,-71.777,0.000,0
27817.568,15.137,14.648,-109.863,43.457,0.000,0
27817.572,33.203,35.156,-219.727,99.609,0.000,0
27817.576,22.461,0.000,-88.867,25.391,0.000,0
27817.580,0.000,-28.320,99.609,-63.477,0.000,0
27817.584,26.855,10.742,-67.871,40.527,0.000,0
27817.588,15.625,14.648,-124.023,47.852,0.000,0
27817.592,-20.996,-1.953,-55.664,27.832,0.000,0
27817.596,-4.395,-19.043,-12.207,-10.254,0.000,0
27817.600,-45.898,-52.734,224.609,-162.109,0.000,0
27817.604,-60.547,-20.508,62.988,-95.703,0.000,0
27817.608,10.742,11.719,-257.812,37.598,0.000,0
27817.611,7.324,-8.301,-166.992,32.227,0.000,0
27817.615,-35.645,-20.508,86.426,-4.883,0.000,0
27817.619,-41.992,-36.133,189.453,-119.629,0.000,0
27817.623,6.348,-11.719,-105.957,-83.008,0.000,0
27817.627,-9.277,-14.648,-34.668,-41.504,0.000,0
27817.631,-42.480,-13.672,73.242,7.324,0.000,0
27817.635,-8.301,5.859,-110.352,71.289,0.000,0
27817.639,-24.414,-21.973,11.719,-98.633,0.000,0
27817.643,-43.457,-5.371,143.066,-64.941,0.000,0
27817.647,-37.598,10.742,144.043,79.590,0.000,0
27817.650,22.461,-2.441,-104.492,56.641,0.000,0
27817.654,2.441,-31.250,43.457,-77.637,0.000,0
27817.658,-31.250,-27.344,172.363,-130.859,0.000,0
27817.662,1.465,9.277,40.039,-22.461,0.000,0
27817.666,19.043,2.441,-24.414,-0.488,0.000,0
27817.670,21.973,9.277,-197.266,60.059,0.000,0
27817.674,1.953,5.859,-159.180,95.215,0.000,0
27817.678,-20.996,-44.922,199.219,-76.660,0.000,0
27817.682,-3.418,-31.250,65.430,-38.086,0.000,0
27817.686,-13.672,-18.555,-151.367,58.594,0.000,0
27817.690,-47.852,-33.691,-45.898,14.648,0.000,0
27817.693,-47.852,-38.574,28.320,-1.953,0.000,0
27817.697,-4.395,-56.152,79.102,-115.723,0.000,0
27817.701,12.695,-30.762,8.301,-117.676,0.000,0
27817.705,-28.809,-7.324,-19.043,-38.086,0.000,0
27817.709,-16.602,-14.648,-120.117,29.297,0.000,0
27817.713,5.371,-33.691,-196.777,43.945,0.000,0
27817.717,-45.410,-59.570,103.516,-86.914,0.000,0
27817.721,-51.270,-14.648,21.484,-28.809,0.000,0
27817.725,0.488,8.301,-217.773,68.848,0.000,0
27817.729,3.906,-18.555,-136.719,25.391,0.000,0
27817.733,-59.082,-33.203,19.531,20.996,0.000,0
27817.736,-95.215,-42.969,298.340,-59.570,0.000,0
27817.740,-8.301,-8.789,49.805,-94.727,0.000,0
27817.744,40.527,0.488,-136.719,-15.137,0.000,0
27817.748,22.461,-15.137,-78.125,45.410,0.000,0
27817.752,-0.977,-11.719,-141.113,44.922,0.000,0
27817.756,-24.902,-17.090,24.414,-63.477,0.000,0
27817.760,3.906,-11.230,-48.828,-68.848,0.000,0
27817.764,13.672,-5.859,-58.105,-26.855,0.000,0
27817.768,-14.160,-13.672,-19.043,-2.930,0.000,0
27817.772,-15.625,-25.879,-165.039,62.012,0.000,0
27817.775,-36.133,-51.270,81.543,-54.199,0.000,0
27817.779,-62.012,-51.270,134.277,-79.102,0.000,0
27817.783,-68.359,-46.387,-56.152,20.508,0.000,0
27817.787,-35.156,-47.363,-269.531,14.160,0.000,0
27817.791,-58.105,-62.500,-54.199,-10.254,0.000,0
27817.795,-109.863,-81.055,276.367,-98.633,0.000,0
27817.799,-29.785,-63.477,-34.668,-121.094,0.000,0
27817.803,0.488,-49.316,-200.195,-76.172,0.000,0
27817.807,-52.734,-56.641,-52.734,-28.809,0.000,0
27817.811,-48.828,-62.988,-59.082,44.434,0.000,0
27817.815,-42.969,-82.031,-41.016,-68.359,0.000,0
27817.818,-46.387,-67.871,-136.230,-72.754,0.000,0
27817.822,-64.453,-51.758,-148.926,22.949,0.000,0
27817.826,-73.242,-65.430,-45.898,-8.301,0.000,0
27817.830,-36.621,-60.059,-94.727,-18.555,0.000,0
27817.834,-54.688,-62.500,0.000,-95.215,0.000,0
27817.838,-99.609,-54.688,125.000,-115.723,0.000,0
27817.842,-80.566,-39.551,107.910,-65.918,0.000,0
27817.846,0.000,-19.043,-136.230,10.254,0.000,0
27817.850,4.395,-11.230,-223.633,71.777,0.000,0
27817.854,-48.828,-33.691,-62.988,-53.223,0.000,0
27817.858,-60.547,-40.527,25.391,-84.473,0.000,0
27817.861,-0.488,-17.578,-338.867,55.176,0.000,0
27817.865,23.926,-9.766,-378.418,43.457,0.000,0
27817.869,-37.598,-7.324,-45.898,35.645,0.000,0
27817.873,-62.012,-29.785,224.121,-53.223,0.000,0
27817.877,-20.508,-31.250,208.496,-135.254,0.000,0
27817.881,-3.906,-0.977,42.969,-28.809,0.000,0
27817.885,-36.621,0.488,46.387,49.316,0.000,0
27817.889,-3.418,-7.324,-218.262,70.312,0.000,0
27817.893,-8.789,-46.875,-7.812,-57.617,0.000,0
27817.897,-39.062,-50.781,121.094,-36.621,0.000,0
27817.900,-7.812,-25.391,-147.949,62.500,0.000,0
27817.904,-24.414,-33.691,-217.285,-5.371,0.000,0
27817.908,-35.645,-44.922,-150.879,-10.254,0.000,0
27817.912,-64.453,-66.406,134.766,-114.258,0.000,1
27817.916,-73.242,-65.430,149.414,-189.941,0.000,0
27817.920,-61.035,-32.715,-122.070,-51.758,0.000,0
27817.924,-61.035,-56.641,-40.039,-67.871,0.000,0
27817.928,-82.520,-85.938,195.801,-120.117,0.000,0
27817.932,-95.703,-82.520,171.875,-88.379,0.000,0
27817.936,-23.438,-58.594,-187.012,-56.641,0.000,0
27817.940,-11.230,-47.852,-287.598,8.301,0.000,0
27817.943,-46.387,-67.871,-54.688,-34.668,0.000,0
27817.947,-44.434,-59.082,-123.047,-15.137,0.000,0
27817.951,-49.316,-70.801,2.441,-107.910,0.000,0
27817.955,-64.453,-69.336,176.270,-182.617,0.000,0
27817.959,-38.574,-45.410,42.969,-62.500,0.000,0
27817.963,-15.137,-34.668,-71.289,32.715,0.000,0
27817.967,-19.531,-34.668,-192.383,57.129,0.000,0
27817.971,-71.289,-65.430,74.219,-71.777,0.000,0
27817.975,-94.727,-80.078,259.766,-157.227,0.000,0
27817.979,-20.996,-53.223,-95.215,-70.312,0.000,0
27817.983,-5.859,-52.246,-169.434,-54.199,0.000,0
27817.986,-57.129,-48.828,-200.195,31.250,0.000,0
27817.990,-79.590,-76.172,29.297,-54.199,0.000,0
27817.994,-62.012,-90.332,127.930,-174.316,0.000,0
27817.998,-36.621,-49.316,-164.551,-16.113,0.000,0
27818.002,-76.660,-49.316,-138.672,15.625,0.000,0
27818.006,-82.031,-65.430,-115.234,-39.551,0.000,0
27818.010,-44.434,-57.617,-84.473,-33.203,0.000,0
27818.014,-53.711,-49.316,70.801,-108.398,0.000,0
27818.018,-77.148,-41.992,140.137,-137.207,0.000,0
27818.022,-68.359,-31.250,10.254,-52.246,0.000,0
27818.025,8.789,-22.949,-285.645,36.133,0.000,0
27818.029,-17.090,-52.734,-26.367,-50.293,0.000,0
27818.033,-57.129,-58.105,173.340,-142.090,0.000,0
27818.037,-28.320,-22.949,-207.520,2.441,0.000,0
27818.041,-22.949,-43.945,-208.496,7.324,0.000,0
27818.045,-32.715,-46.875,-89.844,-5.371,0.000,0
27818.049,-55.176,-50.293,75.684,-36.133,0.000,0
27818.053,-55.176,-43.457,97.168,-131.348,0.000,0
27818.057,-34.180,-18.555,-40.039,-76.172,0.000,0
27818.061,-45.898,-24.414,56.152,5.859,0.000,0
27818.065,-56.641,-18.555,67.383,44.434,0.000,0
27818.068,-16.602,-3.906,-66.406,35.645,0.000,0
27818.072,-4.395,-7.324,-30.762,-0.977,0.000,0
27818.076,-28.320,-10.742,-34.668,55.664,0.000,0
27818.080,-7.324,-14.160,-76.660,59.082,0.000,0
27818.084,0.488,-22.949,-158.691,26.367,0.000,0
27818.088,-33.203,-41.504,-123.535,-12.695,0.000,0
27818.092,-54.199,-48.340,188.477,-108.398,0.000,0
27818.096,-24.414,-28.809,146.973,-91.797,0.000,0
27818.100,6.836,-20.996,-109.863,5.859,0.000,0
27818.104,-6.836,-30.762,-205.078,27.832,0.000,0
27818.108,-83.984,-56.152,97.656,-17.090,0.000,0
27818.111,-95.703,-67.383,274.414,-102.539,0.000,0
27818.115,-4.883,-37.109,-82.520,-89.355,0.000,0
27818.119,-19.531,-31.250,-140.625,-63.477,0.000,0
27818.123,-70.801,-45.410,-79.102,-37.598,0.000,0
27818.127,-54.199,-52.734,-140.137,32.227,0.000,0
27818.131,-59.570,-68.359,-23.926,-77.637,0.000,0
27818.135,-86.914,-47.363,14.160,-88.379,0.000,0
27818.139,-50.781,-24.902,-146.484,27.832,0.000,0
27818.143,-22.461,-39.062,-212.402,22.461,0.000,0
27818.147,-50.293,-59.570,-128.906,-3.906,0.000,0
27818.150,-81.543,-63.477,48.340,-83.008,0.000,0
27818.154,-80.078,-44.922,46.387,-110.840,0.000,0
27818.158,-30.273,-34.180,-25.391,-64.453,0.000,0
27818.162,-2.930,-27.344,-89.355,-9.766,0.000,0
27818.166,-49.805,-31.738,-20.020,20.996,0.000,0
27818.170,-69.336,-37.109,9.277,-48.828,0.000,0
27818.174,-27.832,-25.391,-62.012,-10.254,0.000,0
27818.178,10.254,-18.066,-263.184,83.984,0.000,0
27818.182,-20.020,-36.621,-169.922,41.992,0.000,0
27818.186,-73.242,-43.945,125.488,28.809,0.000,0
27818.190,-46.875,-41.992,70.801,-44.922,0.000,0
27818.193,-35.156,-45.898,61.035,-94.727,0.000,0
27818.197,-46.387,-47.852,66.406,-55.176,0.000,0
27818.201,-65.918,-44.922,-35.645,-1.953,0.000,0
27818.205,-36.133,-34.180,-246.094,51.270,0.000,0
27818.209,-32.715,-56.641,-52.734,-81.543,0.000,0
27818.213,-69.824,-41.992,165.039,-66.895,0.000,0
27818.217,-45.410,-6.836,23.438,62.500,0.000,0
27818.221,18.555,-3.906,-242.676,17.578,0.000,0
27818.225,3.418,-21.484,-120.117,0.000,0.000,0
27818.229,-42.480,-58.594,107.910,-101.562,0.000,0
27818.233,-32.227,-52.734,24.902,-145.996,0.000,0
27818.236,-17.578,-28.809,-119.629,-48.340,0.000,0
27818.240,-26.367,-34.668,-107.422,1.953,0.000,0
27818.244,-22.949,-28.809,-59.570,39.062,0.000,0
27818.248,-53.711,-52.734,197.266,-72.266,0.000,0
27818.252,-49.805,-52.246,109.863,-89.844,0.000,0
27818.256,-31.738,-27.344,-132.812,32.227,0.000,0
27818.260,-68.848,-57.129,65.918,-18.555,0.000,0
27818.264,-20.020,-51.270,-119.141,-2.930,0.000,0
27818.268,-15.625,-75.684,-8.789,-137.207,0.000,0
27818.272,-73.242,-82.031,188.965,-214.355,0.000,0
27818.275,-36.133,-46.387,-88.379,-18.555,0.000,0
27818.279,-0.977,-51.270,-193.848,29.785,0.000,0
27818.283,2.441,-51.270,-237.305,17.090,0.000,0
27818.287,-72.266,-86.914,95.703,-98.145,0.000,0
27818.291,-71.289,-82.031,244.141,-159.668,0.000,0
27818.295,-3.906,-29.785,19.043,-51.270,0.000,0
27818.299,-0.977,-29.297,-2.441,-56.152,0.000,0
27818.303,-26.367,-22.461,-43.457,25.391,0.000,0
27818.307,-61.035,-55.176,145.996,-39.062,0.000,0
27818.311,-12.207,-62.500,141.113,-143.066,0.000,0
27818.315,26.855,-25.391,-106.934,3.906,0.000,0
27818.318,11.230,-27.344,-219.727,42.480,0.000,0
27818.322,10.742,-29.297,-250.977,31.250,0.000,0
27818.326,0.977,-53.711,50.781,-62.500,0.000,0
27818.330,-21.484,-67.383,186.523,-147.949,0.000,0
27818.334,-4.395,-41.016,-66.406,-62.500,0.000,0
27818.338,-34.180,-47.852,-39.551,-49.805,0.000,0
27818.342,-46.387,-51.758,-112.305,29.785,0.000,0
27818.346,-31.738,-70.801,64.941,-38.574,0.000,0
27818.350,-68.359,-77.148,333.984,-153.809,0.000,0
27818.354,-18.555,-22.949,-116.699,5.859,0.000,0
27818.358,20.996,-30.762,-253.418,32.227,0.000,0
27818.361,-18.555,-54.688,-51.758,4.395,0.000,0
27818.365,-32.715,-55.664,168.945,-50.781,0.000,0
27818.369,-27.832,-48.340,153.809,-133.301,0.000,0
27818.373,-28.320,-65.430,84.473,-156.738,0.000,0
27818.377,-31.738,-71.289,71.289,-67.383,0.000,0
27818.381,14.648,-29.297,-184.570,86.426,0.000,0
27818.385,9.766,-38.574,-179.688,36.133,0.000,0
27818.389,-36.621,-57.129,-19.531,-46.387,0.000,0
27818.393,-45.898,-49.316,82.520,-5.371,0.000,0
27818.397,-13.672,-40.039,48.340,32.227,0.000,0
27818.400,37.598,-29.785,-192.871,18.555,0.000,0
27818.404,-10.254,-37.598,-61.035,-19.043,0.000,0
27818.408,-40.039,-64.941,160.645,-125.000,0.000,0
27818.412,-1.953,-49.805,17.090,-99.609,0.000,0
27818.416,27.344,-29.785,-76.172,-2.441,0.000,0
27818.420,16.113,-23.926,-175.293,62.012,0.000,0
27818.424,-16.602,-48.828,3.418,-5.859,0.000,0
27818.428,-27.832,-65.918,192.871,-62.988,0.000,0
27818.432,-16.602,-44.434,1.953,33.203,0.000,0
27818.436,-6.836,-39.551,-89.844,41.016,0.000,0
27818.440,-46.387,-52.734,56.641,-1.953,0.000,0
27818.443,-32.227,-55.664,40.527,-19.531,0.000,0
27818.447,13.184,-51.270,-22.461,-108.887,0.000,0
27818.451,-10.742,-32.227,21.484,-101.562,0.000,0
27818.455,-20.508,-20.996,-46.387,14.648,0.000,0
27818.459,5.859,-31.250,-149.902,39.062,0.000,0
27818.463,-10.742,-50.293,-86.914,-0.488,0.000,0
27818.467,-55.176,-58.594,126.953,-83.008,0.000,0
27818.471,-33.691,-27.344,11.230,-71.289,0.000,0
27818.475,-28.320,-44.922,97.656,-134.277,0.000,0
27818.479,-18.066,-48.828,-10.254,-72.754,0.000,0
27818.483,-31.738,-26.367,-125.000,96.680,0.000,0
27818.486,-87.891,-46.387,142.578,-38.574,0.000,0
27818.490,-27.344,-36.133,-84.961,-53.711,0.000,0
27818.494,5.859,-37.109,-231.934,37.598,0.000,0
27818.498,-25.879,-59.082,-191.895,5.859,0.000,0
27818.502,-45.898,-56.152,-191.406,-6.348,0.000,1
27818.506,-46.387,-51.758,-94.727,-78.125,0.000,0
27818.510,-20.508,-40.039,-64.453,-114.746,0.000,0
27818.514,-37.598,-41.992,-46.875,-83.008,0.000,0
27818.518,-57.617,-47.852,-145.020,-41.992,0.000,0
27818.522,-33.691,-39.062,-305.664,33.203,0.000,0
27818.525,-55.176,-61.035,-25.391,-85.449,0.000,0
27818.529,-56.641,-41.016,58.105,-82.520,0.000,0
27818.533,-16.602,-10.254,-179.688,41.992,0.000,0
27818.537,0.488,-13.184,-259.277,13.672,0.000,0
27818.541,-41.504,-38.574,-79.102,-3.906,0.000,0
27818.545,-86.426,-50.293,227.539,-90.820,0.000,0
27818.549,-27.344,-13.184,64.941,-102.051,0.000,0
27818.553,19.043,4.883,-163.086,-40.527,0.000,0
27818.557,-22.949,-19.531,-53.711,-3.418,0.000,0
27818.561,-31.738,-34.180,-30.273,38.574,0.000,0
27818.565,-19.531,-52.734,33.203,-100.098,0.000,0
27818.568,-18.066,-36.133,-45.410,-98.633,0.000,0
27818.572,-33.691,-18.066,-129.883,27.832,0.000,0
27818.576,-52.734,-40.527,87.891,-25.879,0.000,0
27818.580,-36.133,-32.715,123.047,-51.270,0.000,0
27818.584,-15.625,-29.785,-12.207,-80.078,0.000,0
27818.588,-62.012,-45.410,113.770,-117.676,0.000,0
27818.592,-72.754,-48.828,117.676,-55.664,0.000,0
27818.596,-18.066,-46.387,-117.676,7.324,0.000,0
27818.600,-7.324,-45.410,-331.055,23.926,0.000,0
27818.604,-42.480,-65.430,-83.984,-103.027,0.000,0
27818.608,-90.332,-69.824,179.199,-99.121,0.000,0
27818.611,-31.250,-47.852,-97.656,7.812,0.000,0
27818.615,-15.625,-50.781,-78.613,-35.645,0.000,0
27818.619,-59.570,-43.457,-82.031,-22.461,0.000,0
27818.623,-77.148,-63.477,110.840,-106.445,0.000,0
27818.627,-56.641,-71.289,192.871,-187.500,0.000,0
27818.631,-24.414,-40.039,-59.570,-51.270,0.000,0
27818.635,-56.152,-35.645,-9.277,12.695,0.000,0
27818.639,-37.109,-36.621,-190.430,5.371,0.000,0
27818.643,-39.551,-80.566,-10.254,-116.699,0.000,0
27818.647,-63.965,-86.914,241.699,-184.082,0.000,0
27818.650,-22.949,-34.668,-2.930,-78.613,0.000,0
27818.654,-21.973,-36.133,-91.797,-84.473,0.000,0
27818.658,-23.438,-39.062,-150.879,2.441,0.000,0
27818.662,-61.523,-69.336,141.602,-50.781,0.000,0
27818.666,-79.102,-69.824,307.617,-154.785,0.000,0
27818.670,-33.203,-20.020,-70.801,9.766,0.000,0
27818.674,-21.484,-35.645,-137.207,59.082,0.000,0
27818.678,-42.480,-55.664,42.480,19.531,0.000,0
27818.682,-76.172,-64.941,232.422,-54.199,0.000,0
27818.686,-7.324,-42.480,-36.133,-94.238,0.000,0
27818.690,48.340,-15.137,-193.359,-42.480,0.000,0
27818.693,-8.789,-41.016,-33.203,-31.250,0.000,0
27818.697,-11.230,-37.598,-176.758,55.176,0.000,0
27818.701,0.488,-48.828,-82.031,2.441,0.000,0
27818.705,-44.922,-73.730,128.418,-135.742,0.000,0
27818.709,-32.227,-47.852,-85.449,-12.207,0.000,0
27818.713,-23.926,-44.434,-86.914,36.133,0.000,0
27818.717,-38.574,-39.062,-88.379,24.902,0.000,0
27818.721,-44.434,-38.086,7.324,-11.719,0.000,0
27818.725,-81.543,-62.012,316.406,-119.629,0.000,0
27818.729,-24.414,-38.574,45.410,-66.895,0.000,0
27818.733,17.578,-26.855,-190.918,6.836,0.000,0
27818.736,-31.738,-41.504,-211.914,48.340,0.000,0
27818.740,-67.871,-70.312,-0.977,-30.762,0.000,0
27818.744,-62.012,-78.125,100.098,-110.840,0.000,0
27818.748,-17.578,-35.156,-152.344,15.625,0.000,0
27818.752,-34.668,-23.438,-97.656,39.551,0.000,0
27818.756,-46.875,-37.109,-24.902,-6.836,0.000,0
27818.760,-36.133,-45.898,0.488,-1.465,0.000,0
27818.764,-37.598,-42.969,111.328,-70.312,0.000,0
27818.768,-39.062,-15.137,201.172,-81.055,0.000,0
27818.772,-32.715,9.766,76.660,12.207,0.000,0
27818.775,42.480,12.695,-271.973,82.520,0.000,0
27818.779,-7.324,-40.527,1.953,-51.758,0.000,0
27818.783,-73.242,-55.664,60.547,-105.957,0.000,0
27818.787,-45.898,-24.902,-241.699,39.551,0.000,0
27818.791,-20.020,-46.875,-190.918,9.277,0.000,0
27818.795,-16.113,-47.363,-111.816,-3.906,0.000,0
27818.799,-47.852,-50.293,-85.449,-34.180,0.000,0
27818.803,-50.293,-51.758,-86.426,-113.281,0.000,0
27818.807,-27.832,-37.109,-87.402,-35.645,0.000,0
27818.811,-60.547,-40.527,-29.297,30.762,0.000,0
27818.815,-76.172,-38.574,-28.320,21.973,0.000,0
27818.818,-29.297,-40.527,-141.602,-19.531,0.000,0
27818.822,-28.320,-52.246,-62.500,-102.051,0.000,0
27818.826,-50.293,-42.480,46.387,-80.566,0.000,0
27818.830,-34.668,-28.809,-24.414,-51.270,0.000,0
27818.834,4.883,1.465,-247.559,52.734,0.000,0
27818.838,-11.230,-5.371,-82.031,33.203,0.000,0
27818.842,-45.898,-23.438,172.852,-75.195,0.000,0
27818.846,-0.977,9.766,-38.086,28.809,0.000,0
27818.850,27.832,14.648,-228.516,64.453,0.000,0
27818.854,-17.090,-9.277,-156.738,14.648,0.000,0
27818.858,-98.633,-61.035,105.469,-75.195,0.000,0
27818.861,-88.867,-72.754,140.137,-156.738,0.000,0
27818.865,-24.902,-31.250,-130.859,-100.098,0.000,0
27818.869,-74.707,-40.039,-99.609,-82.520,0.000,0
27818.873,-125.000,-50.293,96.191,-8.789,0.000,0
27818.877,-43.457,-34.180,-63.965,10.742,0.000,0
27818.881,-20.020,-35.156,18.066,-125.000,0.000,0
27818.885,-43.945,-16.113,34.668,-80.566,0.000,0
27818.889,-9.277,-2.930,-185.059,62.500,0.000,0
27818.893,0.000,-21.973,-170.410,41.016,0.000,0
27818.897,-15.625,-26.855,-0.977,-18.555,0.000,0
27818.900,-24.902,-24.414,95.703,-104.980,0.000,0
27818.904,-24.902,-18.066,41.016,-82.520,0.000,0
27818.908,-21.484,-27.832,68.848,-21.973,0.000,0
27818.912,40.527,-11.230,-152.344,66.895,0.000,0
27818.916,-5.859,-18.066,17.578,19.531,0.000,0
27818.920,-70.312,-42.969,200.195,-104.980,0.000,0
27818.924,41.504,-2.930,-202.148,43.945,0.000,0
27818.928,29.297,-21.973,-24.414,10.742,0.000,0
27818.932,-33.203,-41.992,32.715,-28.320,0.000,0
27818.936,-21.973,-27.344,-141.602,15.137,0.000,0
27818.940,-30.762,-56.641,60.059,-140.625,0.000,0
27818.943,-26.367,-40.039,52.734,-102.051,0.000,0
27818.947,-50.293,-25.391,43.945,11.719,0.000,0
27818.951,-65.430,-34.180,-128.906,39.062,0.000,0
27818.955,-44.922,-56.152,-93.750,-31.738,0.000,0
27818.959,-74.707,-87.402,187.500,-132.812,0.000,0
27818.963,-98.145,-66.406,128.418,-34.180,0.000,0
27818.967,-8.789,-30.273,-155.273,12.207,0.000,0
27818.971,20.996,-18.555,-225.586,3.906,0.000,0
27818.975,-14.648,-33.691,19.043,-22.461,0.000,0
27818.979,-18.066,-50.781,219.238,-140.625,0.000,0
27818.983,6.836,-32.715,42.969,-115.234,0.000,0
27818.986,-20.020,-48.828,53.223,-101.074,0.000,0
27818.990,7.324,-36.133,-185.059,10.742,0.000,0
27818.994,13.184,-31.738,-111.328,45.410,0.000,0
27818.998,-29.785,-55.176,177.246,-109.863,0.000,0
27819.002,-8.301,-26.855,29.785,-84.473,0.000,0
27819.006,-34.668,-33.203,107.422,-67.383,0.000,0
27819.010,-51.758,-33.691,125.000,-35.645,0.000,0
27819.014,26.855,-11.719,-178.223,62.988,0.000,0
27819.018,-18.066,-44.434,90.332,-99.609,0.000,0
27819.022,-42.480,-35.156,74.707,-89.844,0.000,0
27819.025,30.762,-9.277,-294.434,62.012,0.000,0
27819.029,38.086,-28.809,-335.938,41.016,0.000,0
27819.033,-7.812,-39.062,-172.363,15.137,0.000,0
27819.037,-70.801,-61.523,366.211,-104.980,0.000,0
27819.041,-18.555,-36.621,277.344,-96.680,0.000,0
27819.045,2.441,-11.719,85.449,-18.066,0.000,0
27819.049,-20.020,-14.648,72.266,30.273,0.000,0
27819.053,-51.270,-32.227,52.734,60.059,0.000,0
27819.057,-42.969,-81.543,179.199,-101.562,0.000,0
27819.061,28.320,-48.828,5.371,-66.895,0.000,0
27819.065,27.832,-10.742,-150.391,72.754,0.000,0
27819.068,-8.789,-24.414,-131.836,27.832,0.000,0
27819.072,15.625,-15.625,-119.629,23.926,0.000,0
27819.076,3.418,-27.832,165.527,-62.500,0.000,0
27819.080,-24.414,-28.809,160.645,-101.074,0.000,0
27819.084,10.742,-3.418,-111.328,-16.602,0.000,0
27819.088,7.812,-28.809,57.617,-38.574,0.000,0
27819.092,-12.207,-34.668,-36.133,49.316,0.000,0
27819.096,-43.457,-34.668,67.871,28.320,0.000,0
27819.100,-44.434,-18.555,86.426,-5.371,0.000,0
27819.104,33.691,12.207,-314.453,89.355,0.000,0
27819.108,20.508,-19.043,-176.270,32.227,0.000,1
27819.111,-29.297,-33.691,32.227,22.461,0.000,0
27819.115,-32.227,-40.527,50.781,-42.480,0.000,0
27819.119,6.348,-24.902,-50.293,-104.980,0.000,0
27819.123,19.531,-8.301,-27.344,-23.926,0.000,0
27819.127,-16.602,-16.113,42.480,43.945,0.000,0
27819.131,2.441,-14.648,-127.441,50.781,0.000,0
27819.135,-10.742,-37.109,-90.820,-23.438,0.000,0
27819.139,-54.688,-52.734,107.910,-107.422,0.000,0
27819.143,-58.105,-40.039,167.480,-75.195,0.000,0
27819.147,-19.531,-37.598,13.184,-52.734,0.000,0
27819.150,7.812,-19.043,-236.816,27.344,0.000,0
27819.154,-20.508,-22.949,-121.582,29.785,0.000,0
27819.158,-37.598,-55.176,45.410,-90.820,0.000,0
27819.162,-6.836,-43.457,-96.191,-17.578,0.000,0
27819.166,13.184,-14.160,-200.684,71.777,0.000,0
27819.170,-4.883,-12.695,-170.410,56.152,0.000,0
27819.174,-34.668,-40.039,19.043,-3.418,0.000,0
27819.178,-19.531,-53.711,41.016,-88.379,0.000,0
27819.182,-8.301,-46.875,-88.379,-78.613,0.000,0
27819.186,-70.312,-45.410,-12.695,-53.711,0.000,0
27819.190,-70.312,-32.715,111.328,-5.371,0.000,0
27819.193,1.465,-20.508,-24.414,-3.418,0.000,0
27819.197,-12.695,-24.414,-38.574,-61.035,0.000,0
27819.201,-34.180,-17.578,-113.770,9.766,0.000,0
27819.205,-3.418,-25.391,-234.863,39.551,0.000,0
27819.209,7.324,-36.133,-203.125,12.207,0.000,0
27819.213,-30.762,-45.410,-26.367,-22.949,0.000,0
27819.217,-62.012,-54.688,121.094,-122.559,0.000,0
27819.221,-29.297,-47.852,-56.641,-91.309,0.000,0
27819.225,-26.367,-64.453,-66.895,-50.781,0.000,0
27819.229,-35.645,-60.059,-91.309,24.414,0.000,0
27819.233,-83.008,-61.523,-17.578,22.949,0.000,0
27819.236,-105.957,-86.426,157.227,-121.094,0.000,0
27819.240,-34.668,-63.965,-117.676,-44.434,0.000,0
27819.244,-31.250,-65.430,-175.781,11.719,0.000,0
27819.248,-99.609,-68.848,63.477,-22.461,0.000,0
27819.252,-62.500,-46.387,-101.562,-37.598,0.000,0
27819.256,-66.406,-73.242,25.879,-157.227,0.000,0
27819.260,-72.754,-65.918,88.379,-124.023,0.000,0
27819.264,-26.367,-41.016,-89.355,-36.133,0.000,0
27819.268,-8.301,-35.156,-308.594,35.156,0.000,0
27819.272,-26.855,-68.848,-191.895,-25.391,0.000,0
27819.275,-62.500,-88.867,126.953,-145.508,0.000,0
27819.279,-49.316,-41.016,-1.953,-13.184,0.000,0
27819.283,-20.508,-29.297,-179.688,31.250,0.000,0
27819.287,-17.090,-49.316,-217.285,-15.625,0.000,0
27819.291,-81.055,-75.684,79.102,-41.992,0.000,0
27819.295,-102.539,-79.590,325.684,-149.414,0.000,0
27819.299,-5.371,-34.180,-88.379,-91.309,0.000,0
27819.303,-15.137,-31.738,-220.703,12.207,0.000,0
27819.307,-70.801,-66.895,-65.918,7.812,0.000,0
27819.311,-62.500,-75.195,-57.129,-34.668,0.000,0
27819.315,-84.473,-87.402,171.387,-167.480,0.000,0
27819.318,-97.656,-69.336,65.430,-140.137,0.000,0
27819.322,-77.637,-65.430,-1.465,-95.703,0.000,0
27819.326,-65.430,-60.059,14.160,-63.965,0.000,0
27819.330,-23.438,-36.621,-151.855,35.156,0.000,0
27819.334,-47.852,-68.359,31.250,-106.445,0.000,0
27819.338,-105.957,-67.383,169.922,-107.422,0.000,0
27819.342,-34.180,-44.434,-129.395,30.273,0.000,0
27819.346,2.441,-50.781,-266.113,33.203,0.000,0
27819.350,-37.109,-54.688,-133.789,-3.418,0.000,0
27819.354,-67.871,-71.777,140.137,-135.742,0.000,0
27819.358,-21.973,-44.922,-4.883,-104.004,0.000,0
27819.361,11.719,-27.832,-92.285,-32.227,0.000,0
27819.365,-16.602,-33.203,-42.480,-15.625,0.000,0
27819.369,-31.738,-24.414,-184.082,55.664,0.000,0
27819.373,-58.594,-55.664,-67.383,-17.578,0.000,0
27819.377,-66.406,-74.707,42.480,-95.703,0.000,0
27819.381,-66.895,-52.246,-23.438,0.488,0.000,0
27819.385,-77.148,-57.617,-113.281,-4.883,0.000,0
27819.389,-26.367,-64.941,-265.137,-21.973,0.000,0
27819.393,-53.711,-96.191,132.812,-158.203,0.000,0
27819.397,-65.918,-84.961,170.410,-222.168,0.000,0
27819.400,-25.879,-41.504,-371.582,-64.453,0.000,0
27819.404,-40.039,-62.988,-452.148,-9.277,0.000,0
27819.408,-47.363,-78.613,-283.691,16.602,0.000,0
27819.412,-99.609,-98.633,274.902,-101.562,0.000,0
27819.416,-94.727,-82.031,151.855,-105.469,0.000,0
27819.420,-61.523,-52.734,-190.918,15.625,0.000,0
27819.424,-65.430,-58.594,5.859,-2.930,0.000,0
27819.428,-76.660,-47.852,148.926,10.254,0.000,0
27819.432,-51.758,-54.688,79.102,-63.477,0.000,0
27819.436,-36.621,-57.129,-48.828,-131.348,0.000,0
27819.440,-34.180,-58.105,-93.750,-77.637,0.000,0
27819.443,-24.902,-60.547,-158.203,0.488,0.000,0
27819.447,-20.020,-57.617,-239.746,34.180,0.000,0
27819.451,-48.828,-76.660,-74.219,-73.730,0.000,0
27819.455,-44.434,-54.199,-28.809,-61.035,0.000,0
27819.459,-12.695,-38.086,-160.645,24.414,0.000,0
27819.463,-22.949,-53.711,-100.098,-14.160,0.000,0
27819.467,-59.082,-46.387,-66.406,-9.277,0.000,0
27819.471,-87.891,-55.176,80.078,-48.340,0.000,0
27819.475,-74.707,-60.547,187.012,-131.836,0.000,0
27819.479,-1.465,-38.574,-91.797,-61.035,0.000,0
27819.483,-0.977,-39.062,-218.262,24.902,0.000,0
27819.486,-40.527,-42.480,-116.699,7.812,0.000,0
27819.490,-58.594,-53.223,9.766,-53.711,0.000,0
27819.494,-54.688,-45.410,104.004,-106.934,0.000,0
27819.498,-42.969,-47.363,222.168,-165.039,0.000,0
27819.502,-50.781,-47.852,22.461,-105.957,0.000,0
27819.506,-41.016,-41.504,-238.281,20.996,0.000,0
27819.510,-36.133,-53.223,-172.363,15.137,0.000,0
27819.514,-69.824,-79.102,62.988,-135.254,0.000,0
27819.518,-105.469,-60.547,112.305,-78.613,0.000,0
27819.522,-58.105,-42.969,-166.504,24.902,0.000,0
27819.525,-10.254,-49.316,-237.793,-3.418,0.000,0
27819.529,-33.203,-39.062,-18.066,-32.715,0.000,0
27819.533,-57.129,-29.785,20.508,-111.328,0.000,0
27819.537,-27.344,-15.625,-99.609,-85.938,0.000,0
27819.541,-22.949,-30.273,-41.504,-60.547,0.000,0
27819.545,-40.527,-41.992,-110.840,22.461,0.000,0
27819.549,-52.246,-51.758,-108.887,8.789,0.000,0
27819.553,-87.402,-65.918,39.062,-127.930,0.000,0
27819.557,-71.777,-43.457,-44.922,-24.902,0.000,0
27819.561,-44.434,-30.273,-53.223,43.457,0.000,0
27819.565,-47.852,-27.344,26.367,23.438,0.000,0
27819.568,-8.789,-17.090,-107.910,-5.859,0.000,0
27819.572,1.953,-23.438,-9.277,-100.098,0.000,0
27819.576,0.000,-6.348,96.191,-58.594,0.000,0
27819.580,2.441,0.977,25.879,-12.695,0.000,0
27819.584,18.066,16.113,-211.426,71.289,0.000,0
27819.588,-5.859,-3.418,-94.727,32.715,0.000,0
27819.592,-41.504,-31.250,243.164,-86.914,0.000,0
27819.596,10.742,7.812,-56.641,45.410,0.000,0
27819.600,23.438,15.137,-70.312,31.250,0.000,0
27819.604,-1.953,21.484,-46.875,20.020,0.000,0
27819.608,-21.973,6.836,9.766,59.570,0.000,0
27819.611,-31.738,-36.133,312.988,-109.375,0.000,0
27819.615,-10.254,-7.324,77.637,-89.844,0.000,0
27819.619,-5.859,14.160,-65.918,10.742,0.000,0
27819.623,-29.785,-8.301,60.547,52.734,0.000,0
27819.627,8.789,-20.508,4.883,3.906,0.000,0
27819.631,17.578,-32.227,71.777,-111.328,0.000,0
27819.635,-0.488,-18.555,-125.977,-3.418,0.000,0
27819.639,-11.719,-28.809,-125.488,19.043,0.000,0
27819.643,2.441,-33.691,-64.453,-6.836,0.000,0
27819.647,6.836,-26.855,-28.809,0.488,0.000,0
27819.650,-36.133,-47.852,185.059,-132.324,0.000,0
27819.654,-53.223,-35.645,111.816,-102.539,0.000,0
27819.658,-49.316,-38.574,-1.953,4.883,0.000,0
27819.662,-3.906,-39.551,-179.199,37.598,0.000,0
27819.666,-30.273,-46.875,-6.836,8.789,0.000,0
27819.670,-118.652,-81.543,367.188,-154.297,0.000,0
27819.674,-32.715,-43.457,65.918,-112.793,0.000,0
27819.678,34.668,-16.602,-46.875,-37.109,0.000,0
27819.682,-8.789,-18.555,48.340,-23.926,0.000,0
27819.686,-13.184,-17.090,-138.672,40.039,0.000,0
27819.690,-20.996,-66.895,65.918,-120.605,0.000,0
27819.693,-17.578,-54.199,84.473,-120.117,0.000,0
27819.697,-27.344,-18.066,-53.223,42.969,0.000,0
27819.701,-47.852,-33.203,-73.242,24.902,0.000,0
27819.705,-57.129,-75.195,115.723,-123.535,0.000,0
27819.709,-57.617,-82.520,239.746,-164.062,0.000,0
27819.713,-74.707,-52.734,172.363,-85.449,0.000,0
27819.717,-39.062,-33.203,-99.121,-52.246,0.000,0
27819.721,-17.578,-38.574,-233.398,-9.766,0.000,0
27819.725,-25.879,-49.316,-172.363,62.500,0.000,0
27819.729,-69.336,-80.078,145.508,-92.285,0.000,0
27819.733,-77.637,-56.641,77.148,-101.562,0.000,0
27819.736,-19.043,-20.020,-239.258,54.199,0.000,0
27819.740,-18.555,-44.434,-135.254,18.066,0.000,0
27819.744,-40.039,-54.199,-51.270,-7.812,0.000,0
27819.748,-60.059,-45.898,22.949,-39.062,0.000,0
27819.752,-37.109,-36.133,3.418,-104.492,0.000,0
27819.756,-20.020,-39.551,55.664,-70.312,0.000,0
27819.760,-49.316,-38.086,62.012,2.930,0.000,0
27819.764,-6.836,-22.461,-248.047,34.668,0.000,0
27819.768,-30.762,-42.969,-47.852,-85.449,0.000,0
27819.772,-57.129,-36.621,136.230,-88.867,0.000,0
27819.775,-6.836,-18.555,-102.051,21.973,0.000,0
27819.779,1.465,-30.762,-153.320,-11.230,0.000,0
27819.783,-18.555,-21.484,-97.656,10.254,0.000,0
27819.787,-53.711,-24.902,160.156,-28.809,0.000,0
27819.791,-41.504,-33.203,193.848,-104.004,0.000,0
27819.795,-8.789,-23.438,28.320,-42.969,0.000,0
27819.799,-10.254,-9.766,-59.082,54.688,0.000,0
27819.803,-31.250,-11.230,-42.969,77.637,0.000,0
27819.807,-37.598,-45.410,161.621,-51.758,0.000,0
27819.811,10.254,-17.090,-15.137,-26.855,0.000,0
27819.815,79.590,35.645,-383.301,111.816,0.000,0
27819.818,37.109,15.625,-142.090,72.266,0.000,0
27819.822,7.324,-6.836,-33.203,52.734,0.000,0
27819.826,5.371,-24.414,-2.930,-7.812,0.000,0
27819.830,-6.836,-27.344,75.195,-102.539,0.000,0
27819.834,-10.742,-19.531,-67.871,-52.246,0.000,1
27819.838,2.930,-18.066,-170.410,27.832,0.000,0
27819.842,-11.719,-27.832,-91.309,29.297,0.000,0
27819.846,-47.363,-49.316,89.355,-29.785,0.000,0
27819.850,-71.777,-52.246,107.910,-115.723,0.000,0
27819.854,-15.625,-40.527,-169.922,-89.844,0.000,0
27819.858,-7.812,-62.012,-145.020,-81.543,0.000,0
27819.861,-43.457,-53.711,-49.805,0.977,0.000,0
27819.865,-37.109,-41.992,-115.723,20.508,0.000,0
27819.869,-5.859,-42.480,-148.926,-88.867,0.000,0
27819.873,0.000,-27.832,-115.234,-15.625,0.000,0
27819.877,-17.578,-27.832,-24.902,50.781,0.000,0
27819.881,13.184,-29.297,-134.277,35.156,0.000,0
27819.885,7.812,-22.949,-169.922,19.043,0.000,0
27819.889,-49.316,-56.641,67.871,-128.906,0.000,0
27819.893,-64.941,-56.152,194.824,-114.258,0.000,0
27819.897,-18.066,-32.227,-37.598,-37.109,0.000,0
27819.900,12.207,-24.414,-325.684,31.738,0.000,0
27819.904,-41.504,-55.176,-210.938,14.648,0.000,0
27819.908,-100.586,-97.656,114.746,-148.926,0.000,0
27819.912,-61.523,-72.754,111.328,-115.723,0.000,0
27819.916,0.488,-25.391,-261.230,43.945,0.000,0
27819.920,-24.902,-34.668,-313.965,46.387,0.000,0
27819.924,-61.523,-65.430,-38.086,-34.180,0.000,0
27819.928,-34.180,-66.406,11.230,-119.141,0.000,0
27819.932,-22.461,-52.734,-85.449,-106.934,0.000,0
27819.936,-73.242,-52.734,-1.953,-59.570,0.000,0
27819.940,-58.105,-33.691,-75.684,84.961,0.000,0
27819.943,1.465,-32.715,-143.555,53.223,0.000,0
27819.947,-25.391,-62.500,-19.531,-106.934,0.000,0
27819.951,-56.641,-45.410,-147.461,0.488,0.000,0
27819.955,-40.527,-38.086,-171.387,38.086,0.000,0
27819.959,-16.602,-41.504,-145.020,11.719,0.000,0
27819.963,-35.645,-45.898,-19.531,-10.742,0.000,0
27819.967,-68.359,-49.316,230.469,-134.766,0.000,0
27819.971,-40.527,-16.113,103.516,-87.891,0.000,0
27819.975,18.066,-5.859,-58.105,17.578,0.000,0
27819.979,1.465,-23.438,-133.301,38.574,0.000,0
27819.983,-70.312,-41.992,-25.391,-7.812,0.000,0
27819.986,-76.172,-60.547,160.156,-104.980,0.000,0
27819.990,-7.324,-32.227,-86.914,-19.531,0.000,0
27819.994,-4.395,-23.926,-97.656,27.832,0.000,0
27819.998,-71.289,-33.691,125.977,-10.254,0.000,0
27820.002,-46.875,-23.438,-59.570,-24.902,0.000,0
27820.006,-40.527,-55.176,80.566,-159.180,0.000,0
27820.010,-26.367,-42.969,92.773,-111.328,0.000,0
27820.014,-52.246,-46.875,146.973,-72.266,0.000,0
27820.018,-30.762,-28.320,-292.969,12.695,0.000,0
27820.022,-3.418,-25.391,-408.203,51.758,0.000,0
27820.025,-62.988,-68.848,177.246,-104.004,0.000,0
27820.029,-65.430,-49.805,185.059,-88.379,0.000,0
27820.033,-50.781,-27.344,63.965,-42.969,0.000,0
27820.037,-34.668,-22.461,-20.996,-12.207,0.000,0
27820.041,-29.297,-29.297,-27.344,63.965,0.000,0
27820.045,-83.496,-75.195,258.301,-106.445,0.000,0
27820.049,-20.996,-54.688,-80.566,-110.840,0.000,0
27820.053,-0.977,-30.273,-301.758,30.762,0.000,0
27820.057,-52.734,-54.688,-83.496,11.719,0.000,0
27820.061,-42.969,-57.129,-70.801,0.000,0.000,0
27820.065,-47.363,-75.684,92.285,-118.652,0.000,0
27820.068,-36.621,-48.828,-1.465,-128.418,0.000,0
27820.072,-41.504,-26.855,29.785,-57.129,0.000,0
27820.076,-54.199,-40.039,81.543,-16.602,0.000,0
27820.080,-14.160,-17.090,-118.164,72.754,0.000,0
27820.084,-20.020,-30.273,12.695,-53.223,0.000,0
27820.088,-82.031,-42.969,165.527,-88.379,0.000,0
27820.092,-9.766,-15.625,-113.281,54.688,0.000,0
27820.096,32.715,-30.762,-229.004,32.715,0.000,0
27820.100,-39.551,-55.176,-168.945,1.465,0.000,0
27820.104,-73.730,-70.312,40.039,-78.613,0.000,0
27820.108,-28.809,-58.594,49.805,-116.211,0.000,0
27820.111,-6.836,-38.086,-91.797,-38.086,0.000,0
27820.115,-36.621,-42.969,13.184,-40.039,0.000,0
27820.119,-18.555,-12.695,-132.812,41.016,0.000,0
27820.123,-30.273,-30.762,-56.641,29.297,0.000,0
27820.127,-38.574,-48.340,29.785,-33.691,0.000,0
27820.131,-12.695,-16.602,-82.031,55.176,0.000,0
27820.135,-37.598,-26.367,-32.227,32.227,0.000,0
27820.139,-14.648,-36.621,-168.457,12.207,0.000,0
27820.143,-28.809,-53.711,3.418,-38.086,0.000,0
27820.147,-50.781,-55.176,113.770,-107.422,0.000,0
27820.150,-23.438,-27.832,-102.539,-47.852,0.000,0
27820.154,-8.301,-34.668,-248.535,26.855,0.000,0
27820.158,-24.902,-55.176,-158.691,28.320,0.000,0
27820.162,-50.293,-56.152,110.352,-23.926,0.000,0
27820.166,-28.809,-31.250,-38.574,-21.484,0.000,0
27820.170,-29.785,-24.902,-190.430,21.484,0.000,0
27820.174,-64.941,-54.199,5.371,-15.137,0.000,0
27820.178,-102.051,-68.848,147.461,-31.738,0.000,0
27820.182,-55.664,-63.477,-2.930,-66.895,0.000,0
27820.186,1.465,-41.016,-174.316,-98.633,0.000,0
27820.190,-63.965,-72.266,151.855,-164.551,0.000,0
27820.193,-93.262,-91.309,363.770,-216.309,0.000,0
27820.197,-5.371,-17.090,-220.215,51.758,0.000,0
27820.201,-36.133,-25.391,-184.570,42.969,0.000,0
27820.205,-86.426,-53.223,104.492,-91.309,0.000,0
27820.209,-30.273,-30.762,9.277,-44.434,0.000,0
27820.213,-24.902,-33.691,-17.090,-30.273,0.000,0
27820.217,-47.852,-27.832,-82.520,52.734,0.000,0
27820.221,-79.102,-56.641,252.930,-63.965,0.000,0
27820.225,-90.820,-64.941,311.523,-139.648,0.000,0
27820.229,-0.488,-22.949,-164.551,31.250,0.000,0
27820.233,22.461,-20.020,-238.770,71.289,0.000,0
27820.236,-23.438,-24.902,-115.234,50.781,0.000,0
27820.240,-34.668,-37.109,31.250,13.672,0.000,0
27820.244,-18.555,-46.387,48.340,-83.496,0.000,0
27820.248,-23.438,-37.109,-51.270,-75.195,0.000,0
27820.252,-73.242,-45.898,34.180,-61.523,0.000,0
27820.256,-34.668,-29.785,-100.098,34.668,0.000,0
27820.260,-18.066,-47.852,-130.859,25.391,0.000,0
27820.264,-67.871,-91.797,103.027,-154.785,0.000,0
27820.268,-84.473,-46.387,54.199,-43.457,0.000,0
27820.272,-35.156,-27.344,-128.418,36.133,0.000,0
27820.275,8.789,-38.574,-176.270,-0.488,0.000,0
27820.279,-37.598,-52.734,18.066,-25.879,0.000,0
27820.283,-66.406,-62.988,124.023,-128.906,0.000,0
27820.287,-26.367,-33.203,-69.336,-93.262,0.000,0
27820.291,-3.418,-36.621,-47.363,-43.457,0.000,0
27820.295,-3.418,-30.273,-106.934,41.504,0.000,0
27820.299,-35.645,-37.109,-66.895,6.836,0.000,0
27820.303,-49.316,-58.594,69.336,-129.395,0.000,0
27820.307,-10.742,-35.156,-117.676,-12.695,0.000,0
27820.311,-38.574,-32.715,-20.020,27.832,0.000,0
27820.315,-54.199,-20.508,94.727,7.812,0.000,0
27820.318,22.949,5.371,-109.375,23.926,0.000,0
27820.322,15.625,-31.738,271.484,-178.223,0.000,0
27820.326,-6.836,-8.789,233.398,-121.094,0.000,0
27820.330,23.438,16.602,-70.801,66.895,0.000,0
27820.334,42.480,1.465,-234.863,83.008,0.000,0
27820.338,17.578,-11.230,-120.605,32.715,0.000,0
27820.342,-23.438,-20.508,335.938,-73.730,0.000,0
27820.346,22.949,13.672,38.086,28.320,0.000,0
27820.350,31.738,0.000,-195.312,51.758,0.000,0
27820.354,-10.742,-30.273,-84.473,-6.836,0.000,0
27820.358,-50.293,-38.086,103.516,-16.113,0.000,0
27820.361,-38.574,-59.082,292.480,-138.672,0.000,0
27820.365,12.695,-30.762,22.949,-120.117,0.000,0
27820.369,-9.277,-5.371,-115.234,14.648,0.000,0
27820.373,-60.547,-28.809,128.906,21.973,0.000,0
27820.377,-0.488,-25.391,8.789,2.441,0.000,0
27820.381,-23.438,-44.434,180.664,-132.324,0.000,0
27820.385,-52.246,-22.949,131.836,-123.047,0.000,0
27820.389,-3.906,-9.277,-31.738,-51.758,0.000,0
27820.393,9.277,-24.902,-5.371,-31.250,0.000,0
27820.397,26.367,-16.602,-110.352,61.035,0.000,0
27820.400,-7.812,-47.852,96.680,-71.777,0.000,0
27820.404,-36.621,-40.039,99.609,-102.539,0.000,0
27820.408,-7.812,-23.926,-109.863,31.250,0.000,0
27820.412,18.555,-36.621,-171.875,15.137,0.000,0
27820.416,-26.855,-36.133,-16.602,-5.859,0.000,0
27820.420,-83.496,-56.641,234.863,-97.168,0.000,0
27820.424,-4.883,-49.316,144.043,-160.645,0.000,0
27820.428,10.742,-30.273,-70.312,-80.078,0.000,0
27820.432,-17.578,-19.531,-109.863,27.344,0.000,0
27820.436,-12.695,-19.531,-165.039,75.684,0.000,0
27820.440,-31.738,-57.617,35.645,-48.828,0.000,0
27820.443,-66.406,-66.895,175.781,-89.355,0.000,0
27820.447,-41.992,-40.527,-40.527,34.180,0.000,0
27820.451,-35.645,-41.504,-98.145,11.719,0.000,0
27820.455,-25.391,-42.969,-174.805,-4.395,0.000,0
27820.459,-22.461,-57.617,51.270,-70.312,0.000,0
27820.463,-46.875,-42.969,301.758,-121.582,0.000,0
27820.467,16.113,0.977,-48.340,-38.086,0.000,0
27820.471,44.922,4.395,-231.934,41.504,0.000,2
27820.475,18.066,-13.672,-111.816,63.477,0.000,0
27820.479,-5.859,-36.133,76.172,-23.926,0.000,0
27820.483,-3.418,-36.621,-26.855,-42.969,0.000,0
27820.486,4.395,-25.391,-225.586,32.227,0.000,0
27820.490,-25.391,-48.828,-87.402,-4.395,0.000,0
27820.494,-39.551,-48.828,-5.371,-13.184,0.000,0
27820.498,-40.039,-33.691,60.547,-29.785,0.000,0
27820.502,-26.855,-18.066,74.219,-92.285,0.000,0
27820.506,-21.484,-12.695,94.238,-49.316,0.000,0
27820.510,-21.973,-18.066,60.547,38.574,0.000,0
27820.514,24.414,-22.461,-192.871,50.293,0.000,0
27820.518,-2.930,-41.016,-132.812,-17.090,0.000,0
27820.522,-26.367,-41.016,-27.832,-17.578,0.000,0
27820.525,-4.883,-31.738,1.953,10.254,0.000,0
27820.529,-2.441,-29.785,-56.641,-5.859,0.000,0
27820.533,20.508,-23.926,-359.375,43.945,0.000,0
27820.537,-36.133,-47.363,-1.953,-4.395,0.000,0
27820.541,-49.805,-68.848,189.941,-114.746,0.000,0
27820.545,-28.320,-51.270,40.527,-58.105,0.000,0
27820.549,-36.133,-32.715,-22.461,31.738,0.000,0
27820.553,-62.500,-35.645,19.043,20.996,0.000,0
27820.557,-47.852,-57.617,-13.184,-36.621,0.000,0
27820.561,-32.715,-66.406,22.461,-119.141,0.000,0
27820.565,-24.414,-50.293,-1.953,-90.820,0.000,0
27820.568,-32.227,-44.434,-102.051,-69.336,0.000,0
27820.572,-10.742,-28.809,-206.543,24.902,0.000,0
27820.576,7.812,-29.297,-110.840,32.715,0.000,0
27820.580,-25.391,-39.551,74.219,-104.492,0.000,0
27820.584,-26.367,-19.531,-108.398,-12.207,0.000,0
27820.588,-9.277,-26.367,-197.754,51.270,0.000,0
27820.592,-21.973,-37.109,-57.617,21.973,0.000,0
27820.596,-62.012,-46.875,160.645,-11.230,0.000,0
27820.600,-87.891,-52.246,219.238,-118.652,0.000,0
27820.604,-12.695,-30.762,-144.531,-99.609,0.000,0
27820.608,-1.465,-44.922,-112.793,-70.801,0.000,0
27820.611,-26.367,-34.668,-40.527,32.227,0.000,0
27820.615,-18.555,-28.320,-69.336,21.973,0.000,0
27820.619,-51.758,-58.105,66.895,-138.672,0.000,0
27820.623,-59.570,-42.969,-35.645,-11.230,0.000,0
27820.627,-56.152,-54.688,24.414,0.000,0.000,0
27820.631,-60.059,-62.500,43.945,-74.707,0.000,0
27820.635,-46.387,-35.156,-228.516,8.301,0.000,0
27820.639,-77.148,-71.777,21.973,-127.441,0.000,0
27820.643,-97.656,-63.477,245.605,-127.930,0.000,0
27820.647,-44.434,-30.273,16.113,-23.926,0.000,0
27820.650,9.277,-11.230,-299.805,52.246,0.000,0
27820.654,-37.109,-39.551,-132.324,14.648,0.000,0
27820.658,-76.172,-82.031,226.074,-135.742,0.000,0
27820.662,-12.207,-42.969,-95.215,-19.043,0.000,0
27820.666,-1.953,-33.203,-246.582,33.691,0.000,0
27820.670,-29.297,-45.898,-160.156,1.465,0.000,0
27820.674,-24.902,-49.316,-35.156,12.207,0.000,0
27820.678,-32.227,-61.035,240.234,-129.395,0.000,0
27820.682,-32.227,-24.414,125.977,-105.469,0.000,0
27820.686,-36.621,-1.953,-1.953,17.578,0.000,0
27820.690,-42.969,-9.766,33.203,46.387,0.000,0
27820.693,10.742,-5.371,-66.406,17.578,0.000,0
27820.697,-14.160,-30.273,129.883,-98.145,0.000,0
27820.701,-32.227,-19.531,-20.508,-24.902,0.000,0
27820.705,-15.625,-17.090,-106.934,24.902,0.000,0
27820.709,10.254,-16.113,-179.688,9.766,0.000,0
27820.713,27.344,-1.465,-199.219,22.461,0.000,0
27820.717,-41.016,-26.367,323.730,-124.023,0.000,0
27820.721,-13.184,2.441,200.684,-88.867,0.000,0
27820.725,39.062,17.578,-63.965,58.105,0.000,0
27820.729,17.578,-11.719,-19.043,43.945,0.000,0
27820.733,-26.855,-11.719,71.777,29.297,0.000,0
27820.736,-47.852,-30.273,301.270,-99.609,0.000,0
27820.740,-13.672,-20.508,158.691,-97.656,0.000,0
27820.744,4.395,1.953,71.289,-4.883,0.000,0
27820.748,-26.855,0.488,166.504,5.371,0.000,0
27820.752,11.230,14.160,-192.383,87.891,0.000,0
27820.756,15.137,-27.832,-19.043,-35.645,0.000,0
27820.760,-3.906,-29.785,111.328,-72.266,0.000,0
27820.764,2.930,-6.836,-134.766,58.105,0.000,0
27820.768,-7.324,-24.414,-210.449,34.180,0.000,0
27820.772,-35.645,-48.828,-179.688,-0.977,0.000,0
27820.775,-79.590,-84.473,124.023,-102.051,0.000,0
27820.779,-83.496,-79.590,162.598,-157.715,0.000,0
27820.783,-55.176,-52.246,-90.332,-89.355,0.000,0
27820.787,-28.320,-35.156,-199.219,-18.555,0.000,0
27820.791,-35.645,-26.855,-85.938,45.898,0.000,0
27820.795,-80.078,-39.062,244.629,-48.340,0.000,0
27820.799,-38.574,-14.160,81.055,-64.453,0.000,0
27820.803,-0.488,0.977,-241.699,46.875,0.000,0
27820.807,-23.438,-40.527,-89.355,1.953,0.000,0
27820.811,-32.227,-53.711,-69.824,-10.742,0.000,0
27820.815,-23.926,-52.246,-65.430,-39.551,0.000,0
27820.818,-18.555,-43.457,-19.043,-114.258,0.000,0
27820.822,-56.152,-55.176,24.902,-88.379,0.000,0
27820.826,-78.613,-65.918,18.555,-15.137,0.000,0
27820.830,-20.508,-48.828,-199.707,30.273,0.000,0
27820.834,-40.527,-63.965,-89.355,-55.176,0.000,0
27820.838,-134.766,-103.516,382.324,-194.824,0.000,0
27820.842,-44.434,-60.059,-71.289,-30.762,0.000,0
27820.846,17.578,-36.621,-304.199,43.945,0.000,0
27820.850,-36.133,-53.223,-107.422,0.000,0.000,0
27820.854,-61.035,-51.758,-23.438,-34.180,0.000,0
27820.858,-62.012,-63.965,112.793,-121.094,0.000,0
27820.861,-35.645,-58.105,15.137,-74.219,0.000,0
27820.865,-18.555,-53.223,-148.926,2.930,0.000,0
27820.869,-38.574,-62.500,-215.332,6.348,0.000,0
27820.873,-68.359,-80.078,-9.766,-34.668,0.000,0
27820.877,-60.547,-95.703,201.172,-162.109,0.000,0
27820.881,-49.316,-64.453,70.801,-125.000,0.000,0
27820.885,-96.680,-56.152,61.035,-75.195,0.000,0
27820.889,-34.668,-43.457,-152.344,-2.930,0.000,0
27820.893,-2.930,-32.715,-135.742,31.250,0.000,0
27820.897,-58.594,-55.664,113.281,-109.375,0.000,0
27820.900,-39.551,-36.621,-68.848,-48.340,0.000,0
27820.904,5.371,-23.438,-227.539,41.504,0.000,0
27820.908,-1.953,-42.969,-130.859,20.020,0.000,0
27820.912,-59.570,-61.035,112.793,-31.250,0.000,0
27820.916,-60.059,-50.781,147.949,-106.934,0.000,0
27820.920,-20.996,-22.949,-12.695,-59.570,0.000,0
27820.924,-16.113,-34.180,52.246,-29.785,0.000,0
27820.928,-30.273,-27.832,86.914,43.457,0.000,0
27820.932,0.488,-16.602,-110.840,46.387,0.000,0
27820.936,1.465,-53.711,-81.543,-132.812,0.000,0
27820.940,-49.316,-71.777,79.102,-122.559,0.000,0
27820.943,-26.367,-37.109,-105.469,25.391,0.000,0
27820.947,38.086,-10.254,-321.777,91.797,0.000,0
27820.951,-2.930,-37.598,-192.383,26.367,0.000,0
27820.955,-62.012,-85.449,8.301,-121.582,0.000,0
27820.959,-43.457,-74.707,-45.410,-93.750,0.000,0
27820.963,-31.738,-63.965,-57.129,-40.039,0.000,0
27820.967,-30.273,-38.574,-169.434,59.082,0.000,0
27820.971,-54.688,-46.875,-48.828,31.250,0.000,0
27820.975,-92.773,-77.637,249.023,-122.070,0.000,0
27820.979,1.953,-27.344,-164.062,10.254,0.000,0
27820.983,42.480,-20.508,-324.707,59.082,0.000,0
27820.986,-13.672,-37.598,-152.344,9.277,0.000,0
27820.990,-32.715,-40.039,-37.109,-7.812,0.000,0
27820.994,-27.832,-54.688,115.234,-138.184,0.000,0
27820.998,-9.277,-26.367,-2.930,-105.469,0.000,0
27821.002,-32.715,-5.859,-1.953,-10.254,0.000,0
27821.006,-5.859,-8.301,-115.234,61.035,0.000,0
27821.010,21.973,-21.484,-122.070,38.574,0.000,0
27821.014,-19.531,-45.898,132.324,-101.074,0.000,0
27821.018,-48.828,-18.066,70.801,-1.953,0.000,0
27821.022,-24.414,-19.043,-102.051,47.363,0.000,0
27821.025,6.836,-43.945,-170.410,-5.371,0.000,0
27821.029,-21.484,-43.457,-55.664,-13.184,0.000,0
27821.033,-73.242,-57.129,247.070,-158.203,0.000,1
27821.037,-39.062,-14.160,68.848,-103.027,0.000,0
27821.041,2.441,-14.160,-78.613,-10.742,0.000,0
27821.045,-19.043,-40.039,-7.812,-34.668,0.000,0
27821.049,-20.996,-22.949,-147.949,18.555,0.000,0
27821.053,-40.039,-48.340,49.805,-111.816,0.000,0
27821.057,-20.508,-44.922,-23.438,-124.512,0.000,0
27821.061,-41.992,-43.945,-17.090,-68.848,0.000,0
27821.065,-78.125,-38.086,134.277,-55.664,0.000,0
27821.068,4.395,-8.789,-238.770,52.246,0.000,0
27821.072,-15.137,-62.500,-34.180,-81.543,0.000,0
27821.076,-46.387,-72.754,73.242,-120.605,0.000,0
27821.080,-7.812,-31.738,-166.992,38.574,0.000,0
27821.084,2.930,-23.926,-248.535,47.363,0.000,0
27821.088,-7.324,-36.621,-173.828,25.879,0.000,0
27821.092,-79.590,-79.590,265.137,-87.402,0.000,0
27821.096,-83.984,-70.312,159.180,-122.070,0.000,0
27821.100,-28.809,-43.945,-180.176,-62.988,0.000,0
27821.104,-39.551,-41.992,-144.043,-33.691,0.000,0
27821.108,-58.105,-26.367,-64.941,53.223,0.000,0
27821.111,-38.574,-35.156,97.656,-41.016,0.000,0
27821.115,-0.977,-27.832,-48.828,-83.984,0.000,0
27821.119,-2.441,-6.836,-212.402,50.781,0.000,0
27821.123,-54.688,-29.297,57.129,42.480,0.000,0
27821.127,-22.461,-30.762,-40.039,29.785,0.000,0
27821.131,4.883,-32.715,-180.664,-40.527,0.000,0
27821.135,-8.789,-37.109,-188.477,-125.977,0.000,0
27821.139,-39.062,-38.086,-58.594,-72.266,0.000,0
27821.143,-39.062,-41.016,39.551,-28.809,0.000,0
27821.147,-37.109,-52.734,73.730,-64.941,0.000,0
27821.150,-18.555,-33.203,-125.488,-36.133,0.000,0
27821.154,-38.574,-25.391,0.000,-19.531,0.000,0
27821.158,-42.480,-30.762,14.160,41.016,0.000,0
27821.162,-7.324,-24.902,-100.586,39.551,0.000,0
27821.166,-27.832,-19.043,-42.480,27.344,0.000,0
27821.170,-81.055,-26.367,108.398,-15.625,0.000,0
27821.174,-4.395,-24.414,-16.602,-99.121,0.000,0
27821.178,25.391,-18.066,-95.703,-56.641,0.000,0
27821.182,-20.020,-16.602,-65.918,35.645,0.000,0
27821.186,-20.020,-21.973,-206.543,40.527,0.000,0
27821.190,-29.297,-48.340,-107.910,-40.039,0.000,0
27821.193,-25.391,-43.945,-30.273,-47.363,0.000,0
27821.197,-39.551,-35.156,-52.246,19.043,0.000,0
27821.201,-72.266,-49.805,-79.590,-7.324,0.000,0
27821.205,-49.316,-48.340,-173.340,-17.090,0.000,0
27821.209,-40.527,-56.152,-51.270,-61.523,0.000,0
27821.213,-78.125,-61.523,147.949,-140.625,0.000,0
27821.217,-18.066,-25.391,-250.977,-67.871,0.000,0
27821.221,29.297,-23.926,-500.488,14.648,0.000,0
27821.225,-9.277,-55.176,-257.324,2.441,0.000,0
27821.229,-61.523,-67.871,68.359,-45.898,0.000,0
27821.233,-50.781,-50.293,81.543,-110.840,0.000,0
27821.236,-10.742,-17.090,-78.613,-62.012,0.000,0
27821.240,-8.301,-28.809,5.371,-42.480,0.000,0
27821.244,-11.230,-34.180,-48.340,8.789,0.000,0
27821.248,-37.598,-42.480,-108.398,46.387,0.000,0
27821.252,-57.129,-72.754,140.137,-161.621,0.000,0
27821.256,-49.805,-48.340,157.715,-141.602,0.000,0
27821.260,-42.480,-23.926,-40.039,59.570,0.000,0
27821.264,0.977,-30.762,-260.254,37.598,0.000,0
27821.268,-29.785,-45.410,-191.406,-37.109,0.000,0
27821.272,-82.520,-70.801,55.664,-143.555,0.000,0
27821.275,-31.250,-43.945,-14.160,-99.121,0.000,0
27821.279,4.395,-30.762,-80.566,-44.434,0.000,0
27821.283,-22.461,-35.156,-208.984,34.668,0.000,0
27821.287,-65.430,-53.223,-52.734,17.090,0.000,0
27821.291,-54.199,-63.477,137.207,-118.652,0.000,0
27821.295,-24.902,-24.902,-46.387,-5.371,0.000,0
27821.299,-29.297,-22.461,-90.332,54.199,0.000,0
27821.303,-56.152,-30.273,0.488,19.531,0.000,0
27821.307,-44.922,-44.922,13.184,-6.348,0.000,0
27821.311,-23.438,-80.078,35.156,-131.836,0.000,0
27821.315,-24.414,-53.223,-22.949,-101.562,0.000,0
27821.318,-31.250,-29.297,-44.922,-38.574,0.000,0
27821.322,1.465,-21.973,-190.918,39.062,0.000,0
27821.326,2.930,-34.180,-122.070,19.043,0.000,0
27821.330,-61.523,-72.754,249.512,-130.371,0.000,0
27821.334,-46.875,-33.203,-84.961,-10.742,0.000,0
27821.338,8.301,-19.043,-351.562,47.852,0.000,0
27821.342,-33.691,-50.293,-2.441,-5.371,0.000,0
27821.346,-79.590,-48.828,221.680,-18.066,0.000,0
27821.350,-85.938,-48.828,315.430,-118.164,0.000,0
27821.354,-31.250,-51.270,28.809,-146.484,0.000,0
27821.358,-51.758,-74.707,28.320,-140.137,0.000,0
27821.361,-31.738,-44.434,-207.520,35.156,0.000,0
27821.365,-25.391,-48.340,-169.434,33.691,0.000,0
27821.369,-65.430,-86.426,78.613,-127.930,0.000,0
27821.373,-44.922,-69.824,-111.328,-25.879,0.000,0
27821.377,-58.105,-61.523,-62.500,22.461,0.000,0
27821.381,-44.434,-70.801,-73.242,-28.809,0.000,0
27821.385,-41.504,-55.664,-180.176,-2.441,0.000,0
27821.389,-71.777,-56.641,-4.395,-41.992,0.000,0
27821.393,-86.426,-66.895,230.469,-115.234,0.000,0
27821.397,-56.152,-38.574,54.688,-17.578,0.000,0
27821.400,11.230,-16.602,-305.176,45.898,0.000,0
27821.404,-18.555,-35.156,-178.711,8.301,0.000,0
27821.408,-76.660,-66.895,293.945,-120.605,0.000,0
27821.412,-31.250,-45.410,104.492,-119.629,0.000,0
27821.416,5.859,-17.578,-123.535,-50.293,0.000,0
27821.420,-11.230,-17.578,-48.828,-34.668,0.000,0
27821.424,-16.602,-18.555,-68.359,61.523,0.000,0
27821.428,-23.926,-48.828,127.441,-49.805,0.000,0
27821.432,-21.973,-49.316,28.809,-103.516,0.000,0
27821.436,-58.594,-42.480,-125.977,21.484,0.000,0
27821.440,-95.703,-72.266,57.129,4.395,0.000,0
27821.443,-30.273,-69.824,-112.305,-9.277,0.000,0
27821.447,-53.711,-91.309,72.754,-103.027,0.000,0
27821.451,-85.938,-85.449,19.531,-138.184,0.000,0
27821.455,-41.992,-78.613,-83.008,-104.980,0.000,0
27821.459,-60.059,-104.980,186.523,-168.457,0.000,0
27821.463,-23.438,-59.082,-347.168,19.043,0.000,0
27821.467,-47.363,-62.500,-110.352,-17.090,0.000,0
27821.471,-77.637,-73.242,117.188,-110.840,0.000,0
27821.475,-21.484,-47.852,-201.660,30.273,0.000,0
27821.479,-25.391,-46.387,-86.914,26.367,0.000,0
27821.483,-77.637,-41.016,-9.277,9.277,0.000,0
27821.486,-60.059,-49.316,-144.531,-44.922,0.000,0
27821.490,3.418,-43.457,-201.172,-107.422,0.000,0
27821.494,-16.602,-45.898,-70.312,-69.824,0.000,0
27821.498,-75.684,-61.035,124.512,-6.836,0.000,0
27821.502,-44.922,-47.363,-112.305,42.480,0.000,0
27821.506,-45.410,-62.012,-4.883,-39.551,0.000,0
27821.510,-69.336,-65.430,165.039,-76.660,0.000,0
27821.514,-23.438,-41.992,-93.750,21.973,0.000,0
27821.518,-8.789,-44.434,-197.754,2.441,0.000,0
27821.522,-20.508,-45.898,-142.578,-10.742,0.000,0
27821.525,-28.809,-41.504,38.086,-20.508,0.000,0
27821.529,-31.738,-38.574,153.320,-84.473,0.000,0
27821.533,-30.273,-24.902,-6.348,-46.387,0.000,0
27821.537,5.859,-14.648,-220.703,41.016,0.000,0
27821.541,-2.441,-25.879,-76.660,51.270,0.000,0
27821.545,-57.129,-33.691,187.500,-15.625,0.000,0
27821.549,-1.953,-9.277,-64.453,-20.508,0.000,0
27821.553,25.879,5.371,-404.785,38.086,0.000,0
27821.557,-18.066,-28.320,-147.461,-6.836,0.000,0
27821.561,-55.176,-63.477,256.836,-102.539,0.000,0
27821.565,-24.414,-46.875,-110.352,-53.711,0.000,0
27821.568,-47.363,-35.156,-84.473,-71.777,0.000,0
27821.572,-75.684,-38.574,148.438,-71.777,0.000,2
27821.576,-64.453,-45.898,-6.836,13.672,0.000,0
27821.580,-29.297,-43.457,-147.949,26.367,0.000,0
27821.584,-21.484,-53.711,-131.836,-28.809,0.000,0
27821.588,-109.375,-79.102,195.801,-124.023,0.000,0
27821.592,-56.641,-52.246,20.508,-73.730,0.000,0
27821.596,5.371,-35.156,-124.512,-48.828,0.000,0
27821.600,-17.090,-28.809,-146.484,19.043,0.000,0
27821.604,-26.367,-35.645,-111.816,31.250,0.000,0
27821.608,-35.645,-65.430,49.805,-111.328,0.000,0
27821.611,-25.879,-54.688,-56.641,-41.504,0.000,0
27821.615,-20.020,-41.016,-136.719,46.875,0.000,0
27821.619,-43.457,-44.434,-146.484,26.367,0.000,0
27821.623,-60.059,-55.176,36.621,-3.418,0.000,0
27821.627,-44.922,-69.824,244.141,-129.395,0.000,0
27821.631,-32.715,-37.598,119.629,-98.145,0.000,0
27821.635,-49.805,-12.207,83.008,-26.367,0.000,0
27821.639,23.926,13.672,-186.035,75.195,0.000,0
27821.643,47.363,8.789,-119.629,65.918,0.000,0
27821.647,-17.090,-29.785,218.262,-97.168,0.000,0
27821.650,-6.836,-2.930,-67.383,10.254,0.000,0
27821.654,10.742,5.371,-209.473,65.430,0.000,0
27821.658,-19.531,-31.250,-79.590,3.418,0.000,0
27821.662,-58.594,-49.805,185.547,-33.691,0.000,0
27821.666,-38.574,-34.668,249.512,-92.285,0.000,0
27821.670,-21.973,-13.672,0.977,-73.242,0.000,0
27821.674,-39.062,-10.742,53.711,-22.461,0.000,0
27821.678,-39.062,5.371,96.191,66.406,0.000,0
27821.682,-8.301,4.883,-60.059,44.922,0.000,0
27821.686,-31.250,-33.691,64.453,-125.000,0.000,0
27821.690,-59.570,-26.367,30.762,-32.227,0.000,0
27821.693,-33.203,-17.090,-83.984,27.344,0.000,0
27821.697,-24.902,-31.250,-142.578,-24.902,0.000,0
27821.701,-55.664,-36.133,-130.859,-42.969,0.000,0
27821.705,-69.824,-50.293,166.504,-167.969,0.000,0
27821.709,-31.250,-39.062,102.539,-147.461,0.000,0
27821.713,-18.066,-31.250,-39.551,-50.293,0.000,0
27821.717,-45.898,-28.809,-128.906,1.465,0.000,0
27821.721,-76.172,-44.434,-18.555,-26.855,0.000,0
27821.725,-100.098,-65.430,370.117,-145.996,0.000,0
27821.729,-2.930,-31.738,-54.688,-55.664,0.000,0
27821.733,24.902,-20.020,-270.996,6.348,0.000,0
27821.736,-30.762,-32.227,-100.098,-37.109,0.000,0
27821.740,-31.250,-49.805,-80.566,-44.922,0.000,0
27821.744,-39.062,-81.543,173.828,-166.992,0.000,0
27821.748,-47.852,-60.547,118.652,-157.227,0.000,0
27821.752,-33.691,-21.973,-99.121,-13.672,0.000,0
27821.756,18.066,-12.695,-133.301,13.672,0.000,0
27821.760,15.625,-20.020,-74.219,-1.953,0.000,0
27821.764,-51.270,-41.992,59.082,-41.992,0.000,0
27821.768,-76.660,-50.293,207.031,-156.250,0.000,0
27821.772,-70.312,-49.805,175.781,-183.105,0.000,0
27821.775,-3.906,-27.832,-126.953,-45.898,0.000,0
27821.779,0.488,-23.926,-180.664,54.688,0.000,0
27821.783,-62.988,-54.199,94.238,-60.059,0.000,0
27821.787,-57.129,-62.012,-13.672,-127.441,0.000,0
27821.791,-17.578,-47.363,-200.195,1.465,0.000,0
27821.795,-29.785,-60.547,-103.027,-13.672,0.000,0
27821.799,-48.340,-63.965,-98.633,-37.598,0.000,0
27821.803,-48.828,-61.523,34.180,-95.215,0.000,0
27821.807,-47.852,-56.641,109.863,-143.555,0.000,0
27821.811,-48.828,-47.363,104.980,-89.355,0.000,0
27821.815,-77.637,-50.293,159.668,-44.434,0.000,0
27821.818,-17.090,-30.762,-228.027,31.250,0.000,0
27821.822,-4.883,-48.340,-85.449,-52.734,0.000,0
27821.826,-26.855,-52.246,137.207,-108.887,0.000,0
27821.830,-9.766,-26.367,-92.285,11.230,0.000,0
27821.834,-6.836,-29.297,-179.688,9.766,0.000,0
27821.838,-31.250,-42.969,-125.000,-10.742,0.000,0
27821.842,-68.359,-54.199,133.789,-47.852,0.000,0
27821.846,-51.758,-43.945,132.812,-118.652,0.000,0
27821.850,-39.551,-28.320,-72.754,-80.566,0.000,0
27821.854,-58.105,-29.297,-97.656,0.977,0.000,0
27821.858,-56.641,-20.996,23.438,62.500,0.000,0
27821.861,-46.387,-27.344,134.277,-12.695,0.000,0
27821.865,-47.852,-30.273,12.695,-39.551,0.000,0
27821.869,-46.875,-24.414,-88.867,1.953,0.000,0
27821.873,-53.223,-52.734,43.457,-73.730,0.000,0
27821.877,-22.949,-40.039,-110.840,11.719,0.000,0
27821.881,8.301,-27.344,-90.332,17.578,0.000,0
27821.885,7.324,-19.531,27.344,-76.172,0.000,0
27821.889,-3.906,-11.719,21.973,-30.273,0.000,0
27821.893,20.508,-9.766,-67.383,59.570,0.000,0
27821.897,19.531,-20.020,-114.746,58.594,0.000,0
27821.900,-19.531,-26.367,-67.871,26.367,0.000,0
27821.904,-50.293,-41.504,138.184,-87.891,0.000,0
27821.908,-41.504,-41.992,153.320,-81.055,0.000,0
27821.912,-14.160,-36.133,-29.785,-43.945,0.000,0
27821.916,-42.480,-27.344,-34.180,0.977,0.000,0
27821.920,-74.707,-27.832,63.477,38.574,0.000,0
27821.924,-52.246,-51.758,55.664,-93.262,0.000,0
27821.928,-61.035,-54.199,-76.660,-62.012,0.000,0
27821.932,-66.895,-49.316,-127.441,28.320,0.000,0
27821.936,-58.594,-52.246,-256.348,36.621,0.000,0
27821.940,-65.430,-93.262,-28.320,-93.750,0.000,0
27821.943,-88.379,-116.699,365.723,-270.020,0.000,0
27821.947,-45.410,-31.738,71.777,-71.777,0.000,0
27821.951,-29.785,-5.371,-77.148,23.438,0.000,0
27821.955,-10.742,-24.414,-207.031,47.852,0.000,0
27821.959,-11.230,-49.805,-155.273,34.668,0.000,0
27821.963,-84.473,-74.707,281.738,-126.953,0.000,0
27821.967,-21.484,-17.090,-69.336,0.977,0.000,0
27821.971,22.461,-17.090,-277.832,54.688,0.000,0
27821.975,-29.297,-60.547,47.852,-80.566,0.000,0
27821.979,-11.719,-37.109,57.617,-3.418,0.000,0
27821.983,-17.578,-42.480,89.844,-78.613,0.000,0
27821.986,-32.715,-39.062,-9.277,-85.449,0.000,0
27821.990,-4.883,-44.434,-45.898,-25.879,0.000,0
27821.994,6.836,-32.715,-99.121,55.664,0.000,0
27821.998,-25.879,-29.297,-39.551,56.641,0.000,0
27822.002,-37.109,-49.316,118.164,-104.004,0.000,0
27822.006,-10.254,-26.367,-22.461,-0.977,0.000,0
27822.010,-46.387,-36.133,50.293,56.641,0.000,0
27822.014,3.418,-38.574,-125.488,19.043,0.000,0
27822.018,3.906,-33.203,-144.043,1.465,0.000,0
27822.022,-51.758,-61.523,215.820,-138.184,0.000,0
27822.025,-17.578,-54.688,83.496,-119.141,0.000,0
27822.029,-4.395,-45.410,-65.918,-56.152,0.000,0
27822.033,-2.441,-26.367,-158.203,23.926,0.000,0
27822.037,-23.438,-37.109,-17.578,11.230,0.000,0
27822.041,-51.270,-80.078,273.926,-140.625,0.000,0
27822.045,-38.086,-59.570,32.227,-41.992,0.000,0
27822.049,-42.480,-51.758,-100.586,17.090,0.000,0
27822.053,-75.684,-59.570,7.812,-26.367,0.000,0
27822.057,-77.637,-73.242,-35.156,-52.246,0.000,0
27822.061,-52.734,-104.492,62.012,-190.918,0.000,0
27822.065,-57.617,-96.680,30.762,-177.734,0.000,0
27822.068,-73.730,-66.895,-104.492,-40.527,0.000,0
27822.072,-35.645,-58.105,-156.738,7.812,0.000,0
27822.076,-43.945,-84.473,125.977,-94.727,0.000,0
27822.080,-75.684,-76.172,181.152,-130.859,0.000,0
27822.084,-47.363,-38.574,-65.430,-61.523,0.000,0
27822.088,-35.645,-33.203,-54.688,-44.434,0.000,0
27822.092,-52.246,-42.969,34.668,-34.668,0.000,0
27822.096,-39.062,-33.203,2.441,60.547,0.000,0
27822.100,-66.406,-42.480,275.391,-38.086,0.000,0
27822.104,1.953,-13.672,58.594,-71.289,0.000,0
27822.108,61.523,3.418,-220.215,58.594,0.000,0
27822.111,23.438,-23.438,-110.352,46.875,0.000,0
27822.115,14.160,-30.762,-123.047,22.949,0.000,0
27822.119,-29.297,-53.711,44.922,-74.219,0.000,0
27822.123,-33.691,-64.941,56.641,-121.094,0.000,0
27822.127,-32.227,-56.152,72.754,-69.824,0.000,0
27822.131,-27.832,-46.875,36.133,-41.504,0.000,0
27822.135,-12.207,-28.320,-191.895,51.758,0.000,0
27822.139,-60.547,-58.105,-16.113,-24.414,0.000,0
27822.143,-84.961,-66.895,217.773,-106.934,0.000,0
27822.147,-32.715,-25.391,-13.184,25.879,0.000,0
27822.150,8.301,-15.625,-233.398,45.410,0.000,0
27822.154,-43.457,-38.574,-119.141,-5.371,0.000,0
27822.158,-109.375,-72.754,175.781,-83.496,0.000,0
27822.162,-86.914,-51.758,179.688,-125.000,0.000,0
27822.166,-34.668,-11.719,-38.574,-59.570,0.000,0
27822.170,-46.875,-18.066,-89.844,-5.371,0.000,0
27822.174,-54.688,-38.086,-88.379,38.574,0.000,0
27822.178,-68.359,-51.758,106.445,-76.172,0.000,0
27822.182,-49.805,-18.555,-78.125,-25.391,0.000,0
27822.186,-64.453,-15.137,-87.402,59.570,0.000,0
27822.190,-74.219,-42.480,36.133,-7.324,0.000,0
27822.193,-8.301,-30.762,-94.238,1.953,0.000,1
27822.197,-22.461,-27.832,26.367,-75.684,0.000,0
27822.201,-41.016,-19.531,18.555,-112.793,0.000,0
27822.205,-17.090,-18.066,-42.969,-37.109,0.000,0
27822.209,22.949,-18.555,-137.207,27.344,0.000,0
27822.213,0.488,-31.250,-73.242,4.883,0.000,0
27822.217,-60.547,-41.016,138.184,-68.848,0.000,0
27822.221,-16.602,-21.484,9.277,-13.672,0.000,0
27822.225,33.203,-33.203,-157.715,12.207,0.000,0
27822.229,-19.531,-63.477,-42.969,-40.039,0.000,0
27822.233,-82.520,-66.895,9.766,-32.715,0.000,0
27822.236,-67.871,-80.078,-42.480,-120.605,0.000,0
27822.240,-0.977,-74.219,-132.812,-159.180,0.000,0
27822.244,-35.156,-55.176,15.137,-46.875,0.000,0
27822.248,-97.168,-54.688,28.320,-6.348,0.000,0
27822.252,-41.504,-54.199,-252.930,-19.043,0.000,0
27822.256,-42.480,-69.336,-51.270,-108.887,0.000,0
27822.260,-61.523,-51.758,59.082,-134.766,0.000,0
27822.264,-40.527,-27.832,-80.078,-76.660,0.000,0
27822.268,-52.734,-32.715,-146.973,-71.777,0.000,0
27822.272,-50.293,-32.227,-153.320,16.113,0.000,0
27822.275,-71.777,-49.316,52.246,-62.988,0.000,0
27822.279,-86.426,-33.203,96.680,-118.164,0.000,0
27822.283,-52.246,-1.465,-87.402,27.344,0.000,0
27822.287,-35.645,-32.715,46.387,-43.457,0.000,0
27822.291,-44.434,-17.578,144.531,-23.438,0.000,0
27822.295,-27.344,-9.766,83.496,-11.719,0.000,0
27822.299,32.715,-12.207,-123.047,-78.613,0.000,0
27822.303,28.809,-5.371,-84.473,-40.039,0.000,0
27822.307,-6.348,-14.648,44.922,-20.020,0.000,0
27822.311,14.648,-1.953,-153.320,78.125,0.000,0
27822.315,18.066,-20.996,-36.621,-28.809,0.000,0
27822.318,-9.277,-16.113,97.656,-88.379,0.000,0
27822.322,8.789,12.695,27.344,58.594,0.000,0
27822.326,20.508,5.859,6.348,60.547,0.000,0
27822.330,30.273,10.742,-88.867,49.316,0.000,0
27822.334,-23.438,-10.254,185.547,-61.035,0.000,0
27822.338,-50.293,-21.973,286.621,-122.559,0.000,0
27822.342,38.086,3.418,-59.570,-35.645,0.000,0
27822.346,39.551,-2.441,-98.633,3.418,0.000,0
27822.350,-5.859,-1.953,-151.367,81.055,0.000,0
27822.354,-38.574,-45.410,99.121,-54.688,0.000,0
27822.358,-20.508,-53.223,115.723,-105.957,0.000,0
27822.361,13.672,-12.207,-134.277,58.105,0.000,0
27822.365,-2.930,-20.508,-101.562,38.086,0.000,0
27822.369,-21.484,-22.461,-53.223,37.598,0.000,0
27822.373,-29.785,-30.762,116.699,-23.438,0.000,0
27822.377,-15.137,-36.621,164.062,-110.352,0.000,0
27822.381,-43.457,-11.230,211.426,-47.363,0.000,0
27822.385,-9.766,19.043,-23.438,57.617,0.000,0
27822.389,55.176,0.488,-46.875,15.137,0.000,0
27822.393,-16.602,-40.039,248.535,-90.332,0.000,0
27822.397,-48.828,-29.297,36.133,-62.988,0.000,0
27822.400,1.953,-15.625,-123.047,-40.527,0.000,0
27822.404,16.602,-21.484,-74.707,-19.043,0.000,0
27822.408,-36.133,-31.738,15.625,46.387,0.000,0
27822.412,-38.574,-59.570,94.238,-56.152,0.000,0
27822.416,-20.020,-58.594,-47.363,-100.098,0.000,0
27822.420,-41.504,-39.551,-37.598,34.180,0.000,0
27822.424,-41.016,-35.645,50.293,75.684,0.000,0
27822.428,-9.277,-31.738,-109.375,54.688,0.000,0
27822.432,-2.441,-45.898,4.883,-71.289,0.000,0
27822.436,-16.113,-55.176,62.500,-104.980,0.000,0
27822.440,-17.090,-45.410,12.207,-55.176,0.000,0
27822.443,3.418,-32.227,-61.035,-44.922,0.000,0
27822.447,6.836,-23.438,-241.699,50.781,0.000,0
27822.451,-23.438,-53.711,39.551,-41.016,0.000,0
27822.455,-47.363,-62.012,159.668,-99.121,0.000,0
27822.459,-12.695,-41.016,-181.641,28.320,0.000,0
27822.463,6.348,-41.016,-289.062,26.367,0.000,0
27822.467,-67.383,-53.223,-52.734,0.488,0.000,0
27822.471,-124.512,-69.824,363.770,-73.242,0.000,0
27822.475,-26.855,-52.734,95.703,-104.980,0.000,0
27822.479,2.930,-39.551,-146.973,-65.918,0.000,0
27822.483,-58.105,-41.504,-20.020,-37.109,0.000,0
27822.486,-34.180,-40.039,-117.676,45.410,0.000,0
27822.490,-60.059,-72.266,163.574,-95.215,0.000,0
27822.494,-67.383,-48.340,82.520,-117.188,0.000,0
27822.498,-25.879,-7.812,-231.934,66.406,0.000,0
27822.502,-34.668,-38.086,-83.984,43.945,0.000,0
27822.506,-29.785,-46.875,-97.656,21.973,0.000,0
27822.510,-50.293,-46.387,42.969,-13.184,0.000,0
27822.514,-63.477,-34.180,137.695,-79.590,0.000,0
27822.518,-37.109,-17.090,64.453,-34.180,0.000,0
27822.522,-23.926,-27.344,11.719,16.113,0.000,0
27822.525,2.930,-36.621,-124.023,52.246,0.000,0
27822.529,-49.805,-49.316,118.652,-20.508,0.000,0
27822.533,-28.809,-38.574,31.250,-70.801,0.000,0
27822.537,29.297,-27.832,-241.211,28.809,0.000,0
27822.541,-12.695,-43.457,-111.328,10.742,0.000,0
27822.545,-30.273,-45.898,-82.031,-15.137,0.000,0
27822.549,-34.668,-63.965,-117.676,-42.969,0.000,0
27822.553,-58.105,-95.215,-47.852,-149.414,0.000,0
27822.557,-55.176,-83.008,-39.551,-118.652,0.000,0
27822.561,-66.895,-59.570,-66.406,-6.836,0.000,0
27822.565,-40.039,-40.527,-282.715,28.809,0.000,0
27822.568,-24.414,-51.270,-176.758,-50.781,0.000,0
27822.572,-79.590,-64.941,135.254,-78.613,0.000,0
27822.576,-79.102,-57.129,61.035,-7.324,0.000,0
27822.580,-25.391,-59.082,-208.008,-24.902,0.000,0
27822.584,-37.109,-67.871,-183.594,-41.504,0.000,0
27822.588,-66.406,-75.684,8.301,-58.105,0.000,0
27822.592,-78.613,-89.355,198.730,-186.035,0.000,0
27822.596,-50.781,-58.105,-104.980,-111.328,0.000,0
27822.600,0.977,-27.832,-484.863,54.688,0.000,0
27822.604,-28.809,-42.969,-53.223,53.223,0.000,0
27822.608,-56.152,-47.852,187.988,25.391,0.000,0
27822.611,-57.129,-61.523,212.891,-122.559,0.000,0
27822.615,-35.645,-43.457,-15.625,-111.328,0.000,0
27822.619,-69.824,-42.480,141.113,-56.152,0.000,0
27822.623,-41.504,-35.645,0.000,-3.906,0.000,0
27822.627,14.648,-33.691,-232.422,22.949,0.000,0
27822.631,-44.434,-53.711,55.176,-119.629,0.000,0
27822.635,-42.480,-40.527,-13.184,-57.129,0.000,0
27822.639,-4.883,-40.039,-166.504,36.133,0.000,0
27822.643,-8.789,-40.039,-185.059,24.902,0.000,0
27822.647,-49.805,-48.828,-85.449,-29.297,0.000,0
27822.650,-69.824,-62.500,77.148,-142.578,0.000,0
27822.654,-31.738,-36.133,43.945,-94.238,0.000,0
27822.658,-0.977,-21.484,-43.945,-39.062,0.000,0
27822.662,-8.301,-5.371,-134.277,51.270,0.000,0
27822.666,-68.359,-20.508,51.270,41.992,0.000,0
27822.670,-28.809,-48.828,103.516,-127.930,0.000,0
27822.674,27.344,-9.277,-110.840,-22.949,0.000,0
27822.678,-2.441,-9.766,-115.234,53.223,0.000,0
27822.682,-30.273,-41.016,-168.457,-1.953,0.000,0
27822.686,-30.762,-53.711,-89.355,-27.832,0.000,0
27822.690,-38.574,-59.570,217.773,-140.625,0.000,0
27822.693,-25.391,-26.855,172.363,-121.582,0.000,0
27822.697,-10.742,-9.766,3.906,-48.340,0.000,0
27822.701,-2.441,-0.977,-184.570,80.078,0.000,0
27822.705,17.090,-17.578,-105.957,73.730,0.000,0
27822.709,-36.133,-49.316,333.984,-100.586,0.000,0
27822.713,11.230,-0.488,-52.734,11.719,0.000,0
27822.717,82.520,16.113,-338.379,86.426,0.000,0
27822.721,33.691,-26.855,-106.934,21.973,0.000,0
27822.725,-25.391,-49.316,23.926,-4.395,0.000,0
27822.729,-15.137,-54.199,135.254,-125.000,0.000,0
27822.733,22.949,-29.297,-58.105,-100.098,0.000,0
27822.736,-0.977,-34.180,-37.598,-21.484,0.000,0
27822.740,-20.508,-49.316,-51.758,20.508,0.000,0
27822.744,-1.953,-38.086,-132.324,27.344,0.000,0
27822.748,-17.578,-40.039,18.555,-72.754,0.000,0
27822.752,-32.715,-32.227,32.227,-22.949,0.000,0
27822.756,-61.035,-44.922,80.078,20.020,0.000,0
27822.760,-21.973,-52.734,-108.398,-15.625,0.000,0
27822.764,-15.137,-50.293,-212.402,-13.184,0.000,0
27822.768,-67.871,-82.520,131.836,-135.742,0.000,0
27822.772,-42.969,-70.312,104.492,-144.043,0.000,0
27822.775,-6.348,-39.062,-125.488,-2.930,0.000,0
27822.779,-12.207,-34.668,-199.219,35.156,0.000,0
27822.783,-40.527,-39.551,-88.379,15.625,0.000,0
27822.787,-57.129,-72.266,203.125,-106.445,0.000,0
27822.791,-24.414,-59.570,44.922,-117.676,0.000,0
27822.795,-39.551,-42.969,49.316,-97.656,0.000,0
27822.799,-85.449,-59.570,257.812,-150.391,0.000,0
27822.803,-39.551,-44.434,-91.309,15.625,0.000,0
27822.807,-23.438,-56.641,-24.902,-64.941,0.000,0
27822.811,-42.969,-33.691,-37.598,-49.316,0.000,0
27822.815,-30.762,-21.484,-163.086,56.152,0.000,0
27822.818,-19.531,-43.457,-217.773,16.602,0.000,0
27822.822,-2.930,-39.551,-247.070,6.836,0.000,0
27822.826,-37.598,-34.668,113.281,-74.707,0.000,0
27822.830,-28.320,-12.207,70.801,-70.312,0.000,0
27822.834,-20.996,-23.438,-12.207,-37.109,0.000,0
27822.838,-33.691,-39.062,-6.348,15.625,0.000,0
27822.842,-82.031,-45.898,59.570,45.410,0.000,0
27822.846,-57.617,-40.039,-20.508,-60.059,0.000,0
27822.850,11.719,-24.902,-272.949,-27.832,0.000,0
27822.854,-11.719,-34.180,-204.590,42.969,0.000,0
27822.858,-23.926,-31.250,22.461,11.230,0.000,0
27822.861,-16.602,-19.531,20.996,12.207,0.000,0
27822.865,-32.227,-25.879,80.078,-66.406,0.000,0
27822.869,-44.434,-31.250,187.988,-109.375,0.000,0
27822.873,-22.949,-25.879,91.797,-39.551,0.000,0
27822.877,-9.766,-27.832,-141.602,31.738,0.000,0
27822.881,-26.367,-41.016,-196.289,20.508,0.000,0
27822.885,-75.684,-74.707,81.055,-106.934,0.000,0
27822.889,-89.844,-59.082,115.723,-67.871,0.000,0
27822.893,-32.715,-37.598,-248.047,19.531,0.000,0
27822.897,-22.461,-74.219,-214.355,-121.094,0.000,0
27822.900,-90.820,-74.707,184.570,-94.238,0.000,0
27822.904,-79.590,-58.594,212.891,-54.688,0.000,1
27822.908,0.000,-50.293,-72.754,-110.352,0.000,0
27822.912,-15.625,-45.410,-205.078,-28.809,0.000,0
27822.916,-57.617,-63.477,-149.902,11.230,0.000,0
27822.920,-32.227,-60.059,-109.375,0.977,0.000,0
27822.924,-24.414,-46.387,11.230,-45.410,0.000,0
27822.928,-41.016,-30.273,-62.012,-11.230,0.000,0
27822.932,-33.203,-32.227,-166.016,17.090,0.000,0
27822.936,-70.801,-50.293,-27.344,-8.789,0.000,0
27822.940,-73.730,-63.477,71.777,-57.617,0.000,0
27822.943,-53.223,-72.754,118.164,-184.570,0.000,0
27822.947,-74.219,-38.574,124.512,-140.137,0.000,0
27822.951,-45.410,-15.625,-36.133,1.465,0.000,0
27822.955,0.488,-26.367,-269.043,27.344,0.000,0
27822.959,-17.090,-32.715,-151.855,11.230,0.000,0
27822.963,-50.781,-54.199,53.711,-91.309,0.000,0
27822.967,-47.852,-61.035,-4.883,-134.277,0.000,0
27822.971,-17.578,-48.340,-68.359,-78.125,0.000,0
27822.975,-20.020,-29.297,6.348,-14.160,0.000,0
27822.979,-38.086,-20.508,20.996,38.574,0.000,0
27822.983,-31.250,-47.363,138.184,-90.820,0.000,0
27822.986,-13.184,-18.066,92.285,-22.461,0.000,0
27822.990,-12.695,11.230,23.926,98.145,0.000,0
27822.994,18.066,8.789,-125.488,67.871,0.000,0
27822.998,10.742,-32.715,96.191,-71.289,0.000,0
27823.002,-18.555,-47.852,140.625,-123.535,0.000,0
27823.006,-2.930,-18.066,-30.762,-37.109,0.000,0
27823.010,-3.418,-18.066,-63.477,-21.973,0.000,0
27823.014,2.441,-18.066,-205.078,49.316,0.000,0
27823.018,-1.465,-35.645,-73.242,49.316,0.000,0
27823.022,-41.016,-69.336,212.402,-118.164,0.000,0
27823.025,-21.484,-35.156,-64.941,-23.926,0.000,0
27823.029,-9.277,-8.789,-177.734,65.918,0.000,0
27823.033,-17.578,-5.859,21.484,34.668,0.000,0
27823.037,-46.875,-12.695,196.289,14.648,0.000,0
27823.041,-22.949,-34.668,198.730,-119.629,0.000,0
27823.045,-8.789,-12.695,-1.953,-99.609,0.000,0
27823.049,-9.766,-1.465,1.953,-23.438,0.000,0
27823.053,23.438,2.930,-95.703,53.711,0.000,0
27823.057,34.668,-2.930,-154.297,48.340,0.000,0
27823.061,-23.438,-47.852,111.816,-124.023,0.000,0
27823.065,-47.852,-38.086,65.430,-41.016,0.000,0
27823.068,-16.113,-22.461,-80.078,45.410,0.000,0
27823.072,-26.367,-40.039,-68.359,-12.207,0.000,0
27823.076,-62.500,-45.410,-57.129,-18.066,0.000,0
27823.080,-119.141,-76.172,251.953,-136.719,0.000,0
27823.084,-71.777,-67.383,148.438,-163.574,0.000,0
27823.088,7.812,-37.109,-149.902,-38.086,0.000,0
27823.092,-34.180,-51.270,-162.598,4.395,0.000,0
27823.096,-70.312,-56.152,-108.398,-12.695,0.000,0
27823.100,-49.316,-67.871,162.598,-121.582,0.000,0
27823.104,-35.645,-35.645,60.547,-59.082,0.000,0
27823.108,-48.828,-11.719,-107.422,46.387,0.000,0
27823.111,-42.969,-27.344,-131.836,4.883,0.000,0
27823.115,-13.672,-31.738,-145.020,12.207,0.000,0
27823.119,-30.273,-48.828,134.277,-93.262,0.000,0
27823.123,-67.871,-45.898,190.918,-131.836,0.000,0
27823.127,-88.867,-27.344,82.031,-8.789,0.000,0
27823.131,-1.953,-15.137,-132.812,32.715,0.000,0
27823.135,33.691,-19.043,-153.320,29.297,0.000,0
27823.139,-33.691,-45.410,196.777,-56.641,0.000,0
27823.143,-12.207,-19.043,90.332,-77.637,0.000,0
27823.147,24.902,5.859,-110.840,-17.090,0.000,0
27823.150,7.324,-17.578,-7.324,-27.832,0.000,0
27823.154,1.465,-11.230,-8.301,54.199,0.000,0
27823.158,-14.160,-11.230,76.660,-2.441,0.000,0
27823.162,-41.504,-17.578,65.918,-80.078,0.000,0
27823.166,-35.645,-30.273,-154.297,15.625,0.000,0
27823.170,-58.594,-53.711,-26.367,11.230,0.000,0
27823.174,-38.574,-39.551,-53.223,0.000,0.000,0
27823.178,-25.391,-42.480,-132.812,-50.293,0.000,0
27823.182,-40.527,-52.734,17.090,-115.234,0.000,0
27823.186,-49.805,-53.223,65.430,-83.008,0.000,0
27823.190,-19.043,-40.039,-28.809,-30.762,0.000,0
27823.193,22.461,-5.859,-210.938,62.012,0.000,0
27823.197,-8.789,-22.461,-56.641,22.949,0.000,0
27823.201,-20.996,-32.715,186.523,-82.520,0.000,0
27823.205,12.695,-2.441,27.344,-2.930,0.000,0
27823.209,58.105,11.230,-380.371,86.914,0.000,0
27823.213,32.227,-5.371,-285.156,61.523,0.000,0
27823.217,-28.809,-23.926,173.828,0.488,0.000,0
27823.221,-18.066,-19.043,257.812,-60.547,0.000,0
27823.225,-10.254,-2.930,115.723,-22.949,0.000,0
27823.229,-36.621,-1.465,70.312,37.598,0.000,0
27823.233,-48.828,-20.020,63.965,45.898,0.000,0
27823.236,-16.113,-35.645,-28.809,-0.488,0.000,0
27823.240,-11.230,-44.922,-21.484,-126.465,0.000,0
27823.244,0.488,-10.742,-61.523,-83.496,0.000,0
27823.248,6.836,-4.395,40.039,-25.879,0.000,0
27823.252,27.832,0.000,-0.977,3.906,0.000,0
27823.256,21.484,15.137,-41.992,61.523,0.000,0
27823.260,-27.344,1.953,109.375,-37.109,0.000,0
27823.264,-10.254,19.043,87.891,-17.090,0.000,0
27823.268,32.227,14.648,-117.676,64.941,0.000,0
27823.272,34.180,3.418,-154.785,75.684,0.000,0
27823.275,-37.598,2.930,152.344,17.578,0.000,0
27823.279,-56.152,0.488,89.844,-31.250,0.000,0
27823.283,28.320,11.230,-188.965,36.133,0.000,0
27823.287,30.762,1.953,-76.660,23.438,0.000,0
27823.291,-20.508,-11.230,-29.297,0.977,0.000,0
27823.295,-19.531,-17.578,-77.637,-34.180,0.000,0
27823.299,-20.020,-35.645,23.926,-135.742,0.000,0
27823.303,-21.973,-30.762,111.328,-125.977,0.000,0
27823.307,-30.762,-28.320,158.203,-95.703,0.000,0
27823.311,-26.855,10.742,-109.375,35.156,0.000,0
27823.315,-33.691,0.000,-72.754,16.113,0.000,0
27823.318,-34.668,-26.367,148.926,-122.559,0.000,0
27823.322,-39.551,3.418,147.461,-70.801,0.000,0
27823.326,3.418,17.578,-104.492,-39.062,0.000,0
27823.330,8.789,16.602,-242.188,25.391,0.000,0
27823.334,-29.785,-17.090,-67.871,26.855,0.000,0
27823.338,-56.641,-54.199,173.340,-132.324,0.000,0
27823.342,-32.715,-16.602,-22.949,-36.133,0.000,0
27823.346,7.324,-6.836,-226.074,54.688,0.000,0
27823.350,-8.301,-24.414,-52.246,22.949,0.000,0
27823.354,-5.859,-23.438,13.184,20.508,0.000,0
27823.358,-11.230,-40.039,95.215,-100.586,0.000,0
27823.361,-8.789,-20.020,55.176,-81.543,0.000,0
27823.365,-21.973,-9.766,138.672,-19.043,0.000,0
27823.369,15.625,8.789,-70.312,58.594,0.000,0
27823.373,63.477,17.090,-207.520,69.336,0.000,0
27823.377,-11.230,-28.809,134.277,-113.281,0.000,0
27823.381,-31.250,-15.625,15.625,-20.996,0.000,0
27823.385,24.414,5.371,-144.043,72.266,0.000,0
27823.389,25.879,-3.418,-117.676,25.879,0.000,0
27823.393,-19.531,-11.719,-43.945,11.719,0.000,0
27823.397,-67.871,-46.875,222.656,-131.348,0.000,0
27823.400,-42.480,-36.621,149.414,-118.164,0.000,0
27823.404,-22.949,-15.625,24.414,-18.066,0.000,0
27823.408,-40.527,-10.742,-0.977,29.785,0.000,0
27823.412,-46.875,2.441,22.461,38.574,0.000,0
27823.416,-4.395,-14.160,73.730,-59.082,0.000,0
27823.420,25.391,-11.230,-144.043,-2.441,0.000,0
27823.424,19.043,-0.977,-180.664,62.500,0.000,0
27823.428,5.371,7.324,-136.230,21.484,0.000,0
27823.432,5.859,2.441,-116.699,19.043,0.000,0
27823.436,-3.418,-23.438,173.340,-90.820,0.000,0
27823.440,-23.926,-18.555,174.316,-106.934,0.000,0
27823.443,-20.020,-3.418,-93.750,3.906,0.000,0
27823.447,-1.465,-3.418,-147.949,53.223,0.000,0
27823.451,-15.137,-23.926,-43.457,55.664,0.000,0
27823.455,-63.477,-49.316,164.551,-5.371,0.000,0
27823.459,-63.477,-47.363,114.746,-93.750,0.000,0
27823.463,9.277,-29.785,-168.945,-63.477,0.000,0
27823.467,15.137,-46.387,-86.426,-39.551,0.000,0
27823.471,-19.531,-50.781,-56.641,32.227,0.000,0
27823.475,-20.020,-58.105,-34.668,-25.391,0.000,0
27823.479,-12.207,-51.270,-78.613,-89.844,0.000,0
27823.483,-25.879,-43.945,-138.184,18.555,0.000,0
27823.486,-41.016,-63.965,-83.496,22.949,0.000,0
27823.490,-38.574,-67.383,-169.922,5.859,0.000,0
27823.494,-73.730,-79.102,-32.715,-58.594,0.000,0
27823.498,-93.262,-80.078,109.863,-111.816,0.000,0
27823.502,-98.145,-67.871,151.855,-64.453,0.000,0
27823.506,-43.457,-53.223,-77.637,-30.273,0.000,0
27823.510,-12.207,-35.156,-240.234,38.574,0.000,0
27823.514,-48.828,-46.387,27.832,-5.859,0.000,0
27823.518,-37.109,-31.738,62.012,-27.344,0.000,0
27823.522,5.371,-4.395,-211.914,70.312,0.000,0
27823.525,1.953,-5.859,-288.574,55.664,0.000,0
27823.529,-40.039,-21.973,-130.371,34.180,0.000,0
27823.533,-60.059,-49.316,-2.441,-6.836,0.000,0
27823.537,-27.832,-47.363,-49.805,-95.703,0.000,0
27823.541,-10.742,-20.508,-108.398,-70.801,0.000,0
27823.545,-77.148,-22.461,-6.836,-18.066,0.000,0
27823.549,-51.270,-27.832,-119.141,46.387,0.000,0
27823.553,-4.883,-37.598,-163.086,-6.348,0.000,0
27823.557,-37.109,-41.992,-25.879,-84.961,0.000,0
27823.561,-52.734,-23.438,-125.977,8.789,0.000,0
27823.565,-26.855,-22.461,-185.547,19.531,0.000,0
27823.568,-4.395,-19.531,-138.184,13.184,0.000,0
27823.572,-35.156,-34.668,-43.945,-23.926,0.000,0
27823.576,-85.938,-44.922,61.035,-118.164,0.000,0
27823.580,-38.086,-19.531,-56.152,-68.848,0.000,0
27823.584,-3.418,-16.113,-152.344,15.625,0.000,0
27823.588,-29.297,-20.508,-156.250,44.922,0.000,0
27823.592,-73.242,-32.715,-85.938,0.977,0.000,0
27823.596,-97.656,-65.918,59.082,-144.043,0.000,0
27823.600,-36.133,-56.152,-82.031,-112.305,0.000,0
27823.604,-43.457,-59.570,-12.695,-74.219,0.000,0
27823.608,-96.191,-53.711,91.309,-33.203,0.000,0
27823.611,-45.898,-56.152,-119.141,-36.133,0.000,0
27823.615,-61.035,-93.750,139.648,-215.332,0.000,0
27823.619,-47.363,-43.457,-5.371,-62.988,0.000,0
27823.623,-14.648,-20.020,-263.184,74.707,0.000,0
27823.627,-29.785,-40.039,-340.332,34.180,0.000,0
27823.631,-70.312,-69.824,-174.805,-44.434,0.000,0
27823.635,-109.863,-89.844,119.629,-149.414,0.000,1
27823.639,-68.359,-55.664,20.508,-87.891,0.000,0
27823.643,-29.297,-31.250,-70.801,-53.223,0.000,0
27823.647,-13.184,-20.996,-134.277,7.324,0.000,0
27823.650,-41.504,-28.809,66.895,46.875,0.000,0
27823.654,-24.414,-29.297,141.602,-80.566,0.000,0
27823.658,37.598,12.207,-147.949,-12.695,0.000,0
27823.662,8.301,5.859,-298.828,68.848,0.000,0
27823.666,-9.277,-18.066,-127.930,47.852,0.000,0
27823.670,2.930,-18.555,51.758,8.789,0.000,0
27823.674,2.930,-21.484,135.742,-94.238,0.000,0
27823.678,20.508,5.371,0.488,-59.082,0.000,0
27823.682,0.977,-1.953,46.875,-35.645,0.000,0
27823.686,-19.531,9.277,37.109,47.852,0.000,0
27823.690,25.879,20.508,-78.125,82.031,0.000,0
27823.693,-9.277,-18.555,160.645,-97.656,0.000,0
27823.697,-54.688,-11.230,165.039,-30.762,0.000,0
27823.701,26.855,0.488,-135.742,76.172,0.000,0
27823.705,39.062,-9.766,-167.969,41.016,0.000,0
27823.709,-5.859,-0.977,-8.789,36.133,0.000,0
27823.713,-19.531,-17.578,224.121,-98.633,0.000,0
27823.717,20.996,-16.113,285.645,-166.016,0.000,0
27823.721,54.199,15.137,-80.566,-21.484,0.000,0
27823.725,10.254,11.230,-173.340,92.773,0.000,0
27823.729,-41.504,-37.109,-27.832,25.391,0.000,0
27823.733,-33.691,-46.875,40.527,-39.062,0.000,0
27823.736,-12.207,-6.836,108.887,46.387,0.000,0
27823.740,-5.371,10.254,52.246,67.871,0.000,0
27823.744,34.668,19.531,-139.648,74.707,0.000,0
27823.748,32.715,-11.230,107.910,-9.766,0.000,0
27823.752,-0.488,-29.785,314.941,-108.398,0.000,0
27823.756,28.809,10.742,47.363,-15.625,0.000,0
27823.760,47.363,16.113,-84.961,42.969,0.000,0
27823.764,48.828,6.836,-126.465,91.797,0.000,0
27823.768,14.160,-14.160,176.758,3.418,0.000,0
27823.772,16.602,-2.441,218.262,-41.016,0.000,0
27823.775,37.598,23.926,-112.793,65.918,0.000,0
27823.779,-9.766,-13.184,3.418,29.297,0.000,0
27823.783,-37.598,-20.508,175.781,24.414,0.000,0
27823.787,-18.066,-11.719,231.445,0.000,0.000,0
27823.791,50.781,-1.465,89.355,-80.078,0.000,0
27823.795,41.992,15.137,0.000,-9.277,0.000,0
27823.799,20.020,11.230,35.645,78.125,0.000,0
27823.803,41.016,19.043,-79.590,89.844,0.000,0
27823.807,37.109,19.043,20.508,42.969,0.000,0
27823.811,-26.367,-7.812,219.238,-68.848,0.000,0
27823.815,-2.441,-3.906,33.203,-80.078,0.000,0
27823.818,27.344,-4.883,47.852,-95.703,0.000,0
27823.822,22.461,10.742,-95.215,16.602,0.000,0
27823.826,-17.578,7.324,-7.812,100.586,0.000,0
27823.830,-54.199,-18.555,271.484,-34.668,0.000,0
27823.834,25.391,0.977,15.137,-30.273,0.000,0
27823.838,56.641,15.625,-145.020,66.895,0.000,0
27823.842,-9.277,4.883,-64.453,40.527,0.000,0
27823.846,-43.457,-19.043,44.922,5.371,0.000,0
27823.850,-9.766,-22.949,142.578,-72.266,0.000,0
27823.854,13.672,-4.883,42.480,-62.988,0.000,0
27823.858,-15.625,-7.324,31.250,-32.715,0.000,0
27823.861,-24.414,-9.766,-48.828,25.879,0.000,0
27823.865,-3.906,-21.484,-94.727,71.777,0.000,0
27823.869,-41.016,-52.734,114.746,-53.711,0.000,0
27823.873,-43.945,-31.738,4.883,-18.555,0.000,0
27823.877,-21.484,-4.883,-111.328,84.473,0.000,0
27823.881,9.766,-11.719,-58.594,61.523,0.000,0
27823.885,19.043,-17.090,-54.199,48.340,0.000,0
27823.889,-75.195,-43.945,218.750,-62.988,0.000,0
27823.893,-37.109,-20.996,73.242,-85.938,0.000,0
27823.897,36.621,-1.465,-121.582,-4.883,0.000,0
27823.900,12.695,-11.719,-21.973,59.082,0.000,0
27823.904,7.812,-18.066,-19.531,72.266,0.000,0
27823.908,-23.926,-44.434,-14.160,-53.711,0.000,0
27823.912,-16.602,-31.738,-81.055,-25.391,0.000,0
27823.916,4.395,-20.508,-34.180,72.266,0.000,0
27823.920,-4.883,-24.902,81.055,55.664,0.000,0
27823.924,-2.930,-12.695,50.781,26.367,0.000,0
27823.928,1.465,-6.348,43.457,-24.414,0.000,0
27823.932,-4.395,-10.254,160.645,-39.551,0.000,0
27823.936,-7.812,-15.625,99.121,18.555,0.000,0
27823.940,42.969,-6.836,-175.293,68.848,0.000,0
27823.943,20.020,-18.555,-112.793,21.973,0.000,0
27823.947,-36.621,-36.621,-0.488,-17.090,0.000,0
27823.951,-8.301,-28.320,-32.715,32.227,0.000,0
27823.955,25.391,-23.438,-152.832,59.082,0.000,0
27823.959,-12.695,-39.551,-165.039,24.902,0.000,0
27823.963,-54.688,-55.664,31.738,-17.090,0.000,0
27823.967,-63.965,-71.777,259.277,-145.020,0.000,0
27823.971,-19.043,-47.363,-40.039,-89.844,0.000,0
27823.975,-22.461,-32.715,-137.207,20.996,0.000,0
27823.979,-73.242,-45.410,81.543,20.508,0.000,0
27823.983,-12.207,-37.598,-7.812,-12.695,0.000,0
27823.986,-36.133,-49.316,133.789,-124.023,0.000,0
27823.990,-65.430,-47.852,38.574,-105.957,0.000,0
27823.994,-2.441,-33.691,-38.574,-62.988,0.000,0
27823.998,29.785,-20.020,-80.566,14.648,0.000,0
27824.002,19.531,-26.367,-81.543,38.574,0.000,0
27824.006,-38.574,-42.480,175.293,-118.164,0.000,0
27824.010,-20.996,-23.438,18.555,-51.270,0.000,0
27824.014,-16.602,-33.691,-59.570,38.574,0.000,0
27824.018,-17.578,-27.832,-40.527,34.180,0.000,0
27824.022,-35.645,-24.414,144.043,-0.488,0.000,0
27824.025,-45.898,-46.875,297.852,-155.762,0.000,0
27824.029,38.574,-17.090,-86.426,-75.684,0.000,0
27824.033,28.809,-20.020,-85.938,-14.648,0.000,0
27824.037,-11.230,-20.508,-68.848,36.621,0.000,0
27824.041,12.695,-21.484,-198.242,53.223,0.000,0
27824.045,-21.484,-69.336,184.082,-120.117,0.000,0
27824.049,-44.922,-46.875,170.898,-31.250,0.000,0
27824.053,-23.926,-35.645,-110.840,51.270,0.000,0
27824.057,-24.414,-53.711,-183.594,1.953,0.000,0
27824.061,-57.617,-63.477,-39.551,-3.906,0.000,0
27824.065,-79.590,-83.008,301.270,-116.699,0.000,0
27824.068,-70.801,-63.477,242.188,-120.605,0.000,0
27824.072,-12.207,-32.227,-134.277,-43.945,0.000,0
27824.076,5.859,-35.156,-242.188,19.531,0.000,0
27824.080,-17.578,-52.246,-58.105,14.160,0.000,0
27824.084,-27.344,-63.477,216.309,-117.676,0.000,0
27824.088,21.973,-15.625,-67.383,-20.508,0.000,0
27824.092,38.574,0.977,-195.312,61.035,0.000,0
27824.096,-29.297,-38.574,45.898,-5.371,0.000,0
27824.100,-18.066,-34.180,59.082,14.160,0.000,0
27824.104,10.742,-35.645,211.426,-87.891,0.000,0
27824.108,-40.039,-25.879,167.969,-117.188,0.000,0
27824.111,-50.781,-19.531,147.461,-11.230,0.000,0
27824.115,16.602,-11.230,33.203,55.664,0.000,0
27824.119,62.012,3.418,-174.805,68.848,0.000,0
27824.123,-17.578,-40.039,194.336,-85.938,0.000,0
27824.127,-53.711,-40.527,319.824,-111.816,0.000,0
27824.131,39.551,4.883,-82.031,70.312,0.000,0
27824.135,54.199,-13.184,-107.422,53.711,0.000,0
27824.139,-8.789,-26.367,-49.316,20.508,0.000,0
27824.143,-40.527,-46.387,155.273,-62.012,0.000,0
27824.147,1.953,-40.527,137.207,-102.539,0.000,0
27824.150,17.578,-19.531,-38.574,7.812,0.000,0
27824.154,-30.273,-25.391,-4.395,42.969,0.000,0
27824.158,-56.152,-28.320,90.332,39.062,0.000,0
27824.162,-13.672,-35.645,158.691,-27.832,0.000,0
27824.166,-5.859,-30.762,150.391,-77.637,0.000,0
27824.170,11.230,-11.230,59.570,-27.344,0.000,0
27824.174,33.691,-2.441,-65.918,-9.766,0.000,0
27824.178,41.992,-4.395,-170.410,69.824,0.000,0
27824.182,44.922,-10.254,30.762,31.738,0.000,0
27824.186,18.555,-6.836,165.527,-45.898,0.000,0
27824.190,22.461,4.883,-111.816,55.176,0.000,0
27824.193,30.273,-8.789,-182.617,62.500,0.000,0
27824.197,10.742,-30.273,-62.012,29.785,0.000,0
27824.201,-41.016,-34.668,175.293,-11.719,0.000,0
27824.205,-15.625,-4.395,141.113,-85.938,0.000,0
27824.209,53.711,20.508,-91.309,-55.664,0.000,0
27824.213,6.836,-6.836,18.066,-28.809,0.000,0
27824.217,-27.344,-13.184,58.105,40.527,0.000,0
27824.221,-12.695,-21.973,-28.320,3.418,0.000,0
27824.225,-41.016,-33.691,26.367,-88.379,0.000,0
27824.229,-24.902,-32.227,67.383,-69.824,0.000,0
27824.233,11.230,-17.090,-52.734,25.391,0.000,0
27824.236,14.648,-10.254,-179.199,72.754,0.000,0
27824.240,-10.254,-13.672,-103.027,18.555,0.000,0
27824.244,-14.648,-18.066,18.555,-54.688,0.000,0
27824.248,-22.461,-16.602,83.008,-37.109,0.000,0
27824.252,-15.137,-11.230,-23.438,29.297,0.000,0
27824.256,19.531,-3.418,-273.438,83.496,0.000,0
27824.260,-33.691,-34.180,-43.945,13.184,0.000,0
27824.264,-76.660,-45.410,210.938,-56.641,0.000,1
27824.268,22.949,-7.324,-143.066,53.711,0.000,0
27824.272,44.434,0.977,-210.938,59.082,0.000,0
27824.275,-9.277,-12.695,-64.453,23.926,0.000,0
27824.279,-12.695,-27.832,23.438,-4.395,0.000,0
27824.283,0.488,-30.762,104.980,-93.262,0.000,0
27824.287,0.488,-17.090,36.621,-51.270,0.000,0
27824.291,9.277,-4.395,-54.688,43.457,0.000,0
27824.295,6.836,-12.695,-47.852,60.547,0.000,0
27824.299,-15.625,-29.785,25.879,-7.324,0.000,0
27824.303,-1.953,-19.043,9.766,-50.293,0.000,0
27824.307,-13.184,1.465,0.000,36.133,0.000,0
27824.311,-0.488,3.906,-47.852,38.086,0.000,0
27824.315,40.039,8.301,-133.789,29.297,0.000,0
27824.318,-3.906,-14.160,27.832,-6.348,0.000,0
27824.322,-56.152,-35.156,127.930,-131.836,0.000,0
27824.326,-5.371,-11.230,-83.496,-64.453,0.000,0
27824.330,9.766,-10.254,44.434,-22.949,0.000,0
27824.334,-20.508,-12.207,-87.402,12.695,0.000,0
27824.338,-33.691,-19.531,-165.039,49.805,0.000,0
27824.342,-50.781,-42.969,111.816,-98.633,0.000,0
27824.346,-29.297,-32.227,76.172,-90.332,0.000,0
27824.350,-37.109,-32.715,98.145,-49.316,0.000,0
27824.354,-55.176,-32.715,87.891,15.625,0.000,0
27824.358,-4.883,-32.227,-167.969,48.340,0.000,0
27824.361,-15.137,-67.871,32.715,-124.512,0.000,0
27824.365,-27.344,-52.734,61.035,-57.129,0.000,0
27824.369,-5.371,-31.250,-98.633,67.383,0.000,0
27824.373,2.441,-25.879,-216.309,59.082,0.000,0
27824.377,-21.484,-37.109,-67.383,24.902,0.000,0
27824.381,-58.105,-70.801,318.359,-111.816,0.000,0
27824.385,-28.320,-51.758,96.680,-85.938,0.000,0
27824.389,-37.598,-40.039,-52.246,-30.762,0.000,0
27824.393,-32.227,-26.367,-65.430,45.898,0.000,0
27824.397,-32.715,-33.203,86.426,62.500,0.000,0
27824.400,-45.898,-58.594,292.480,-98.633,0.000,0
27824.404,8.789,-13.184,-41.504,-1.465,0.000,0
27824.408,27.832,9.766,-192.383,97.656,0.000,0
27824.412,9.277,-11.230,-31.738,48.828,0.000,0
27824.416,19.531,-19.043,-9.766,41.992,0.000,0
27824.420,2.441,-40.527,163.086,-89.844,0.000,0
27824.424,-11.719,-34.180,31.738,-104.492,0.000,0
27824.428,-19.531,-36.621,-45.410,-29.297,0.000,0
27824.432,-10.742,-37.109,-30.273,8.301,0.000,0
27824.436,-15.625,-23.926,-59.082,35.645,0.000,0
27824.440,-49.316,-25.391,131.836,-24.902,0.000,0
27824.443,-56.641,-18.555,138.672,-2.930,0.000,0
27824.447,17.090,-14.160,-151.367,58.594,0.000,0
27824.451,18.555,-36.621,-151.367,11.719,0.000,0
27824.455,-40.527,-46.387,-63.965,5.859,0.000,0
27824.459,-49.805,-52.246,130.371,-95.703,0.000,0
27824.463,-36.133,-49.805,128.906,-134.277,0.000,0
27824.467,-29.785,-51.270,-49.316,-61.035,0.000,0
27824.471,-58.105,-63.477,-88.379,-14.160,0.000,0
27824.475,-52.246,-55.664,-156.738,-8.789,0.000,0
27824.479,-45.898,-58.594,73.730,-89.355,0.000,0
27824.483,-33.691,-34.668,78.125,-41.504,0.000,0
27824.486,-20.996,-17.578,19.531,23.926,0.000,0
27824.490,-7.812,-27.344,-55.664,-25.391,0.000,0
27824.494,16.602,-27.832,-187.988,-23.438,0.000,0
27824.498,-16.113,-56.641,115.723,-94.238,0.000,0
27824.502,-41.504,-64.941,225.098,-144.531,0.000,0
27824.506,-2.441,-21.973,-96.191,-17.578,0.000,0
27824.510,25.879,-21.973,-184.082,20.020,0.000,0
27824.514,8.301,-43.945,-67.871,0.488,0.000,0
27824.518,-29.785,-51.758,182.617,-43.945,0.000,0
27824.522,-35.645,-48.340,158.691,-92.285,0.000,0
27824.525,-18.066,-50.293,-60.547,-86.914,0.000,0
27824.529,-22.949,-50.781,43.945,-62.500,0.000,0
27824.533,-56.641,-50.293,153.320,2.930,0.000,0
27824.537,-35.645,-60.059,16.113,-57.129,0.000,0
27824.541,2.441,-32.715,-166.016,-76.660,0.000,0
27824.545,-13.184,-27.832,-166.992,19.043,0.000,0
27824.549,-16.113,-43.945,-117.676,15.137,0.000,0
27824.553,-15.137,-45.898,-144.043,-9.766,0.000,0
27824.557,-51.270,-60.547,-65.430,-52.246,0.000,0
27824.561,-60.059,-69.824,72.754,-128.418,0.000,0
27824.565,-33.691,-60.547,26.367,-103.516,0.000,0
27824.568,-21.973,-55.176,-51.758,-44.922,0.000,0
27824.572,-27.344,-35.645,-170.410,44.922,0.000,0
27824.576,-69.336,-41.016,51.270,-12.207,0.000,0
27824.580,-53.711,-32.715,219.238,-82.520,0.000,0
27824.584,11.719,0.977,-57.129,39.551,0.000,0
27824.588,10.742,-12.207,-150.879,41.992,0.000,0
27824.592,-50.781,-45.898,-38.574,-5.371,0.000,0
27824.596,-44.434,-57.617,-10.742,-38.574,0.000,0
27824.600,5.371,-41.992,6.836,-115.723,0.000,0
27824.604,-5.859,-23.926,20.508,-81.543,0.000,0
27824.608,-57.617,-32.715,-41.992,-10.742,0.000,0
27824.611,-21.484,-27.344,-148.438,50.293,0.000,0
27824.615,-24.902,-46.387,-29.785,-8.789,0.000,0
27824.619,-56.152,-58.594,79.102,-77.148,0.000,0
27824.623,-60.547,-26.367,-83.008,15.625,0.000,0
27824.627,-47.363,-32.715,-105.469,0.488,0.000,0
27824.631,-6.348,-33.203,-130.859,-0.488,0.000,0
27824.635,-43.457,-38.086,244.141,-80.078,0.000,0
27824.639,-97.656,-55.664,603.027,-250.977,0.000,0
27824.643,-18.555,-2.930,17.090,-63.477,0.000,0
27824.647,19.043,6.836,-204.590,85.938,0.000,0
27824.650,28.809,-7.324,-116.699,73.242,0.000,0
27824.654,12.207,-23.926,-65.918,12.695,0.000,0
27824.658,-21.484,-43.945,3.906,-108.398,0.000,0
27824.662,7.324,-28.809,-60.547,-60.547,0.000,0
27824.666,-25.391,-39.551,106.934,-41.992,0.000,0
27824.670,-58.105,-33.203,67.871,-0.977,0.000,0
27824.674,-15.137,-22.461,-135.742,47.363,0.000,0
27824.678,-2.441,-38.574,88.379,-76.660,0.000,0
27824.682,-33.203,-23.438,242.676,-26.367,0.000,0
27824.686,-14.160,-15.137,-4.395,69.824,0.000,0
27824.690,37.109,-9.277,-263.184,67.383,0.000,0
27824.693,1.465,-20.996,-39.551,15.625,0.000,0
27824.697,-63.965,-58.594,318.359,-125.000,0.000,0
27824.701,-30.273,-33.203,119.141,-80.566,0.000,0
27824.705,20.020,-2.930,-67.383,-13.672,0.000,0
27824.709,12.207,1.465,-93.262,41.016,0.000,0
27824.713,0.000,-14.648,-58.105,66.895,0.000,0
27824.717,-20.996,-51.758,166.016,-96.680,0.000,0
27824.721,-21.484,-29.785,70.312,-43.945,0.000,0
27824.725,-11.230,-6.348,-59.570,73.730,0.000,0
27824.729,-6.348,-7.812,98.633,56.152,0.000,0
27824.733,32.227,-11.230,-15.137,34.668,0.000,0
27824.736,15.625,-40.039,104.980,-95.215,0.000,0
27824.740,0.488,-31.738,220.215,-148.926,0.000,0
27824.744,11.719,-17.090,20.996,-44.922,0.000,0
27824.748,34.180,-11.719,-208.496,89.355,0.000,0
27824.752,25.391,-21.973,-138.672,71.777,0.000,0
27824.756,-47.363,-49.316,222.168,-93.750,0.000,0
27824.760,-45.898,-27.344,98.633,-18.066,0.000,0
27824.764,-14.648,-29.297,-94.727,59.570,0.000,0
27824.768,-12.695,-41.992,-88.379,7.812,0.000,0
27824.772,-52.246,-31.738,77.148,16.602,0.000,0
27824.775,-53.711,-47.363,208.496,-105.957,0.000,0
27824.779,25.391,-29.785,-41.016,-115.234,0.000,0
27824.783,-1.953,-24.414,-34.668,-40.527,0.000,0
27824.787,-30.762,-21.973,-44.922,22.461,0.000,0
27824.791,11.719,10.742,-167.969,56.152,0.000,0
27824.795,7.812,-4.883,129.883,-60.547,0.000,0
27824.799,2.441,-0.488,82.520,-2.930,0.000,0
27824.803,9.766,7.812,-72.754,68.359,0.000,1
27824.807,4.395,-10.254,-81.055,14.648,0.000,0
27824.811,-39.062,-26.855,-24.414,12.695,0.000,0
27824.815,-68.848,-58.105,217.285,-110.840,0.000,0
27824.818,-75.684,-49.316,271.484,-157.715,0.000,0
27824.822,-14.160,-14.160,-97.656,-32.227,0.000,0
27824.826,2.441,-25.879,-246.094,14.648,0.000,0
27824.830,-27.344,-38.574,-83.496,6.836,0.000,0
27824.834,-40.527,-48.340,145.508,-78.613,0.000,0
27824.838,-20.020,-48.340,-6.348,-111.816,0.000,0
27824.842,-17.578,-43.457,-72.266,-89.844,0.000,0
27824.846,-35.645,-37.109,102.051,-72.266,0.000,0
27824.850,6.836,-12.207,-159.180,74.707,0.000,0
27824.854,-4.395,-34.668,-87.402,14.648,0.000,0
27824.858,-41.504,-39.062,35.156,-80.078,0.000,0
27824.861,-34.668,-22.461,28.320,33.691,0.000,0
27824.865,-0.488,-27.832,-52.734,60.059,0.000,0
27824.869,25.391,-28.809,-213.379,26.367,0.000,0
27824.873,-25.391,-59.570,-41.504,-38.086,0.000,0
27824.877,-62.988,-79.590,105.469,-120.117,0.000,0
27824.881,-29.785,-62.988,22.949,-93.262,0.000,0
27824.885,3.906,-53.711,-68.848,-65.430,0.000,0
27824.889,0.488,-28.809,-153.320,35.645,0.000,0
27824.893,-28.320,-36.133,-24.902,4.883,0.000,0
27824.897,-4.395,-56.152,26.855,-99.121,0.000,0
27824.900,15.137,-39.551,-121.582,1.953,0.000,0
27824.904,-23.926,-33.691,-61.035,21.973,0.000,0
27824.908,-58.594,-36.621,69.336,-9.277,0.000,0
27824.912,-20.020,-53.711,15.137,-45.898,0.000,0
27824.916,3.906,-53.223,-17.578,-118.652,0.000,0
27824.920,-10.254,-35.645,-17.090,-92.285,0.000,0
27824.924,-24.414,-31.250,-65.430,-28.320,0.000,0
27824.928,-13.184,-40.039,-178.711,28.320,0.000,0
27824.932,-24.414,-61.523,-37.109,-49.316,0.000,0
27824.936,-57.129,-57.129,164.062,-119.629,0.000,0
27824.940,-25.391,-19.531,-159.668,16.602,0.000,0
27824.943,-18.066,-42.969,-160.156,-36.621,0.000,0
27824.947,-44.922,-65.918,130.371,-132.324,0.000,0
27824.951,-48.340,-43.945,20.020,-69.824,0.000,0
27824.955,-28.320,-46.875,-125.977,-103.027,0.000,0
27824.959,6.348,-47.363,-236.816,-43.945,0.000,0
27824.963,-28.320,-53.223,-55.664,18.555,0.000,0
27824.967,-29.785,-45.410,13.672,26.367,0.000,0
27824.971,-6.348,-47.363,-68.848,-61.035,0.000,0
27824.975,-13.184,-39.551,-121.094,-41.016,0.000,0
27824.979,-15.625,-36.133,-77.148,37.109,0.000,0
27824.983,-37.109,-62.500,-19.043,0.488,0.000,0
27824.986,-27.832,-60.059,-146.484,0.000,0.000,0
27824.990,-36.133,-57.129,49.805,-82.520,0.000,0
27824.994,-32.715,-39.551,198.730,-108.398,0.000,0
27824.998,-5.859,-8.789,52.734,16.602,0.000,0
27825.002,-1.465,-15.137,-105.957,50.781,0.000,0
27825.006,22.461,-18.555,-242.676,36.133,0.000,0
27825.010,-62.012,-58.594,233.887,-89.844,0.000,0
27825.014,-67.871,-69.824,228.516,-142.090,0.000,0
27825.018,32.227,-42.480,-188.477,-57.617,0.000,0
27825.022,3.906,-40.527,-83.008,-54.199,0.000,0
27825.025,-14.648,-41.016,-97.168,36.133,0.000,0
27825.029,-15.625,-65.430,22.949,-35.156,0.000,0
27825.033,-16.113,-64.453,49.316,-120.605,0.000,0
27825.037,-26.855,-32.715,-113.770,12.207,0.000,0
27825.041,-48.828,-32.715,-40.039,50.293,0.000,0
27825.045,-44.434,-39.062,-34.668,47.852,0.000,0
27825.049,-41.016,-51.758,170.410,-75.195,0.000,0
27825.053,-41.992,-33.203,183.594,-109.863,0.000,0
27825.057,-51.270,-15.625,-43.945,-11.230,0.000,0
27825.061,-5.371,-33.203,-120.605,-6.836,0.000,0
27825.065,35.645,-21.484,-213.379,91.309,0.000,0
27825.068,-27.344,-47.852,82.520,-9.277,0.000,0
27825.072,-44.434,-44.922,154.297,-96.191,0.000,0
27825.076,33.691,4.395,-128.906,73.242,0.000,0
27825.080,45.898,-9.766,-72.754,83.496,0.000,0
27825.084,5.371,-20.020,-39.551,52.246,0.000,0
27825.088,-24.902,-27.344,94.727,-18.066,0.000,0
27825.092,-25.391,-32.715,192.871,-100.586,0.000,0
27825.096,-7.324,-16.113,59.082,-34.180,0.000,0
27825.100,-40.527,-14.160,179.688,21.484,0.000,0
27825.104,-25.391,7.812,-82.031,99.609,0.000,0
27825.108,-1.465,-19.043,-104.980,-6.348,0.000,0
27825.111,-47.363,-49.316,181.152,-91.797,0.000,0
27825.115,-18.555,-22.949,-74.707,53.711,0.000,0
27825.119,-10.254,-36.621,-158.203,40.039,0.000,0
27825.123,-33.691,-45.898,-181.641,19.531,0.000,0
27825.127,-57.617,-58.105,104.004,-27.344,0.000,0
27825.131,-39.062,-51.758,285.156,-116.211,0.000,0
27825.135,13.672,-17.090,39.551,-50.293,0.000,0
27825.139,-18.066,-25.391,-18.066,19.531,0.000,0
27825.143,-38.086,-31.250,-46.875,66.895,0.000,0
27825.147,-49.805,-49.805,175.293,-1.953,0.000,0
27825.150,-41.016,-69.824,273.438,-126.465,0.000,0
27825.154,11.230,-30.273,-271.484,7.812,0.000,0
27825.158,3.418,-32.227,-236.328,68.848,0.000,0
27825.162,-18.066,-55.176,93.262,20.020,0.000,0
27825.166,9.277,-54.688,25.391,4.395,0.000,0
27825.170,-12.207,-60.547,161.621,-92.285,0.000,0
27825.174,-20.996,-37.109,125.977,-48.340,0.000,0
27825.178,-1.465,-41.504,-29.297,59.082,0.000,0
27825.182,-10.254,-62.988,-49.805,50.781,0.000,0
27825.186,-54.199,-77.637,29.297,15.625,0.000,0
27825.190,-98.633,-78.613,134.277,-30.762,0.000,0
27825.193,-81.543,-94.727,383.301,-188.477,0.000,0
27825.197,-5.859,-80.078,254.395,-208.496,0.000,0
27825.201,30.762,-10.742,-235.352,84.473,0.000,0
27825.205,-3.906,-11.719,-252.441,158.691,0.000,0
27825.209,-33.691,-47.852,-39.551,-10.254,0.000,0
27825.213,-12.207,-48.340,-75.195,-14.648,0.000,0
27825.217,10.742,-27.832,-91.797,86.426,0.000,0
27825.221,0.000,-19.531,-57.617,74.219,0.000,0
27825.225,-6.836,-31.738,-66.895,51.270,0.000,0
27825.229,-17.090,-51.270,139.648,-36.133,0.000,0
27825.233,-24.414,-36.621,164.062,-49.316,0.000,0
27825.236,-14.160,-25.391,89.355,-10.254,0.000,0
27825.240,24.902,-14.160,-68.848,50.781,0.000,0
27825.244,48.828,-14.648,-120.117,100.586,0.000,0
27825.248,-7.812,-42.480,167.969,-5.859,0.000,0
27825.252,-38.086,-44.434,369.629,-83.496,0.000,0
27825.256,34.180,-14.648,-72.754,14.160,0.000,0
27825.260,69.824,-5.859,-345.703,92.285,0.000,0
27825.264,6.348,-39.062,30.273,45.898,0.000,0
27825.268,-30.762,-54.199,175.293,-39.551,0.000,0
27825.272,-3.906,-29.297,-30.273,-62.012,0.000,0
27825.275,-14.160,-23.438,30.273,-12.207,0.000,0
27825.279,-59.082,-25.879,210.449,48.340,0.000,0
27825.283,-20.996,-21.484,-50.293,62.012,0.000,0
27825.287,2.930,-27.832,-30.762,-41.016,0.000,0
27825.291,-33.691,-21.484,182.617,-4.395,0.000,0
27825.295,0.977,-18.555,41.504,65.430,0.000,0
27825.299,34.668,-29.297,-43.457,29.297,0.000,0
27825.303,15.625,-28.320,-87.402,20.508,0.000,0
27825.307,-16.602,-31.250,62.500,-71.777,0.000,0
27825.311,10.742,-20.996,167.969,-96.680,0.000,0
27825.315,40.527,-11.719,22.461,3.418,0.000,0
27825.318,35.645,-11.230,-98.633,45.898,0.000,0
27825.322,15.625,2.930,-90.820,52.734,0.000,0
27825.326,-15.137,-15.625,140.625,-36.133,0.000,0
27825.330,-2.930,-30.762,226.074,-125.000,0.000,0
27825.334,51.270,-5.371,7.324,-42.480,0.000,0
27825.338,31.738,5.371,78.613,-14.648,0.000,0
27825.342,-5.859,5.859,118.652,51.270,0.000,0
27825.346,23.926,-27.832,32.715,-21.484,0.000,0
27825.350,11.230,-34.180,66.895,-86.914,0.000,0
27825.354,5.859,-3.418,128.906,-30.273,0.000,0
27825.358,27.344,9.766,77.148,7.324,0.000,0
27825.361,70.801,25.879,-195.801,115.723,0.000,0
27825.365,29.785,-12.695,101.074,-30.762,0.000,0
27825.369,-0.488,-13.672,165.527,-104.980,0.000,0
27825.373,13.184,5.859,-13.184,-36.621,0.000,1
27825.377,20.508,-18.555,19.043,-50.781,0.000,0
27825.381,44.434,-16.113,-120.605,44.434,0.000,0
27825.385,-25.879,-40.527,247.559,-36.133,0.000,0
27825.389,-25.879,-27.344,301.270,-136.719,0.000,0
27825.393,72.266,3.418,-150.879,7.812,0.000,0
27825.397,56.641,-14.160,-32.227,39.062,0.000,0
27825.400,50.781,5.371,-3.906,45.410,0.000,0
27825.404,44.922,1.465,121.582,-41.016,0.000,0
27825.408,20.996,-9.277,230.957,-125.977,0.000,0
27825.412,36.621,1.465,104.492,-56.641,0.000,0
27825.416,29.785,-6.348,135.742,-28.320,0.000,0
27825.420,23.926,5.859,-44.434,63.965,0.000,0
27825.424,22.949,-20.508,36.621,-33.203,0.000,0
27825.428,2.441,-45.410,307.617,-131.348,0.000,0
27825.432,0.000,-19.531,134.766,20.508,0.000,0
27825.436,41.016,-15.137,-151.855,22.949,0.000,0
27825.440,39.062,-16.602,-211.426,-3.906,0.000,0
27825.443,-20.996,-53.711,168.945,-82.520,0.000,0
27825.447,-32.227,-77.637,280.273,-190.918,0.000,0
27825.451,10.742,-50.293,-113.281,-117.676,0.000,0
27825.455,-6.348,-41.992,-52.734,-68.359,0.000,0
27825.459,-27.344,-47.363,-4.395,-46.875,0.000,0
27825.463,-9.277,-41.504,-185.547,1.465,0.000,0
27825.467,-23.926,-41.016,63.965,-36.133,0.000,0
27825.471,-25.391,-30.762,-17.090,-12.695,0.000,0
27825.475,-48.828,-38.574,27.344,-7.324,0.000,0
27825.479,-22.461,-43.457,65.430,-27.832,0.000,0
27825.483,35.645,-50.781,-54.688,-51.270,0.000,0
27825.486,14.648,-55.664,77.637,-144.531,0.000,0
27825.490,14.648,-27.832,-8.301,-111.328,0.000,0
27825.494,25.879,-31.250,-74.219,-34.668,0.000,0
27825.498,31.738,-38.086,-187.988,6.348,0.000,0
27825.502,-6.348,-54.199,-17.578,-48.828,0.000,0
27825.506,-30.762,-49.316,85.938,-86.914,0.000,0
27825.510,11.719,-18.555,-118.652,13.672,0.000,0
27825.514,-9.766,-38.574,-49.805,8.789,0.000,0
27825.518,-54.199,-55.176,29.785,-29.785,0.000,0
27825.522,-59.082,-46.875,49.805,-33.203,0.000,0
27825.525,-26.855,-50.781,82.520,-116.699,0.000,0
27825.529,-8.301,-40.527,18.555,-85.938,0.000,0
27825.533,-6.348,-22.461,-60.059,25.391,0.000,0
27825.537,6.348,-11.719,-172.363,40.527,0.000,0
27825.541,11.230,-21.973,-187.012,11.230,0.000,0
27825.545,2.441,-37.109,41.992,-73.730,0.000,0
27825.549,-8.301,-32.227,51.758,-87.402,0.000,0
27825.553,-15.137,-31.250,-64.941,-59.570,0.000,0
27825.557,-5.371,-17.090,-86.914,-8.789,0.000,0
27825.561,-27.832,-19.043,-128.906,82.031,0.000,0
27825.565,-89.844,-63.965,256.348,-74.219,0.000,0
27825.568,-68.848,-46.387,288.574,-107.910,0.000,0
27825.572,19.043,2.930,-358.887,94.727,0.000,0
27825.576,1.953,-30.273,-271.973,55.176,0.000,0
27825.580,-24.902,-46.875,-74.219,17.090,0.000,0
27825.584,-47.852,-50.781,44.922,-57.617,0.000,0
27825.588,-51.758,-40.527,-51.758,-95.703,0.000,0
27825.592,-34.180,-45.898,-72.266,-66.406,0.000,0
27825.596,-37.109,-62.500,-33.691,-16.113,0.000,0
27825.600,-27.832,-53.711,-170.410,39.551,0.000,0
27825.604,-55.176,-58.105,-40.039,-70.312,0.000,0
27825.608,-76.660,-48.828,13.184,-57.617,0.000,0
27825.611,-62.988,-41.992,10.742,43.457,0.000,0
27825.615,-31.738,-61.035,-96.680,-1.465,0.000,0
27825.619,-29.297,-59.082,-169.922,-8.301,0.000,0
27825.623,-73.242,-54.199,78.125,-69.336,0.000,0
27825.627,-53.223,-58.594,116.699,-105.469,0.000,0
27825.631,-24.902,-55.176,-10.254,-45.410,0.000,0
27825.635,-29.297,-43.945,-75.684,21.484,0.000,0
27825.639,-34.180,-42.480,-104.492,50.781,0.000,0
27825.643,-58.105,-60.059,133.301,-60.059,0.000,0
27825.647,-57.129,-41.504,120.605,-37.109,0.000,0
27825.650,-24.414,-16.602,-69.336,62.500,0.000,0
27825.654,-48.828,-5.371,63.477,37.109,0.000,0
27825.658,-40.039,0.488,61.523,42.969,0.000,0
27825.662,5.859,-28.809,7.324,-53.223,0.000,0
27825.666,-3.418,-33.691,75.195,-117.676,0.000,0
27825.670,-20.508,-14.648,-41.992,-41.016,0.000,0
27825.674,3.418,7.324,-312.988,78.125,0.000,0
27825.678,24.414,2.441,-304.688,97.168,0.000,0
27825.682,-41.504,-43.457,27.832,-47.852,0.000,0
27825.686,-74.219,-38.574,33.691,-30.273,0.000,0
27825.690,-26.855,-1.953,-200.684,70.312,0.000,0
27825.693,-9.277,-3.418,-109.375,41.992,0.000,0
27825.697,-29.297,-1.953,4.395,55.664,0.000,0
27825.701,-40.527,-8.301,76.660,1.465,0.000,0
27825.705,-38.086,-13.672,77.148,-83.496,0.000,0
27825.709,-34.668,-3.906,-35.645,17.090,0.000,0
27825.713,-43.457,-19.043,-23.438,61.035,0.000,0
27825.717,-58.594,-25.391,-78.125,46.875,0.000,0
27825.721,-47.852,-39.062,-94.727,-47.363,0.000,0
27825.725,-21.973,-28.809,-43.457,-112.305,0.000,0
27825.729,-16.602,-2.930,-81.543,-23.926,0.000,0
27825.733,-41.504,-6.836,-33.203,-1.465,0.000,0
27825.736,-24.414,9.277,-274.414,99.609,0.000,0
27825.740,-47.852,-12.207,-128.906,8.301,0.000,0
27825.744,-83.008,-22.461,123.047,-102.539,0.000,0
27825.748,-60.059,14.648,-84.473,55.664,0.000,0
27825.752,-24.902,6.836,-241.699,86.914,0.000,0
27825.756,-21.973,-2.930,-324.707,74.219,0.000,0
27825.760,-112.793,-38.574,138.184,-22.461,0.000,0
27825.764,-130.859,-46.875,280.273,-104.492,0.000,0
27825.768,-31.250,-3.906,-145.508,-19.531,0.000,0
27825.772,-65.918,-16.113,-102.051,-32.715,0.000,0
27825.775,-53.711,-1.953,-287.109,84.473,0.000,0
27825.779,-24.902,-13.672,-151.367,43.945,0.000,0
27825.783,-50.781,-37.598,27.832,-79.102,0.000,0
27825.787,-44.434,-9.766,-245.117,53.223,0.000,0
27825.791,-60.059,-7.812,-137.207,63.965,0.000,0
27825.795,-79.590,-29.297,-70.801,37.598,0.000,0
27825.799,-74.219,-38.086,-2.441,-15.625,0.000,0
27825.803,-62.988,-16.113,131.348,-96.191,0.000,0
27825.807,-78.613,0.000,41.016,-45.898,0.000,0
27825.811,-42.969,-14.648,-171.875,14.160,0.000,0
27825.815,-13.184,-12.207,-299.316,81.055,0.000,0
27825.818,-74.219,-36.133,-28.809,-0.977,0.000,0
27825.822,-114.258,-42.480,104.492,-73.242,0.000,0
27825.826,-63.477,-21.973,-208.008,39.551,0.000,0
27825.830,-35.156,-46.387,-235.352,46.387,0.000,0
27825.834,-70.801,-61.523,-113.281,-1.465,0.000,0
27825.838,-100.098,-44.922,-124.023,3.418,0.000,0
27825.842,-105.957,-56.152,-48.828,-81.055,0.000,0
