timestamps,TP9,AF7,AF8,TP10,Right AUX,Marker0
33575.887,-24.902,-31.738,26.367,-34.668,0.000,0
33575.891,-16.113,-24.902,-39.062,-36.621,0.000,0
33575.895,-24.902,-18.555,-94.238,-26.855,0.000,0
33575.899,-48.340,-29.785,-22.949,-29.785,0.000,0
33575.903,-46.387,-32.227,26.367,-36.621,0.000,0
33575.907,-29.785,-23.438,-23.438,-14.648,0.000,0
33575.911,-10.742,-20.508,-104.004,1.465,0.000,0
33575.915,-4.883,-20.020,-40.039,-20.996,0.000,0
33575.918,-31.738,-27.832,32.715,-47.852,0.000,0
33575.922,-34.668,-30.762,-0.488,-30.273,0.000,0
33575.926,-0.977,-17.090,-75.195,2.441,0.000,0
33575.930,2.930,-16.113,-57.617,-2.930,0.000,0
33575.934,-23.926,-22.949,23.926,-26.855,0.000,0
33575.938,-30.273,-21.973,20.508,-34.180,0.000,0
33575.942,-13.672,-22.949,-54.199,-4.883,0.000,0
33575.946,-16.602,-24.414,-79.102,3.418,0.000,0
33575.950,-27.344,-26.855,12.207,-27.832,0.000,0
33575.954,-31.250,-26.367,31.250,-36.621,0.000,0
33575.958,-14.648,-30.273,-42.480,-2.441,0.000,0
33575.961,-10.742,-26.855,-100.098,-2.930,0.000,0
33575.965,-27.832,-28.809,-13.184,-30.273,0.000,0
33575.969,-26.367,-34.180,33.203,-41.016,0.000,0
33575.973,-16.602,-30.762,-26.367,-19.043,0.000,0
33575.977,-28.809,-31.738,-89.844,-20.996,0.000,0
33575.981,-42.969,-36.621,-24.414,-48.340,0.000,0
33575.985,-45.898,-33.203,22.949,-39.062,0.000,0
33575.989,-30.762,-25.879,-11.719,-12.695,0.000,0
33575.993,-10.254,-20.996,-84.473,4.395,0.000,0
33575.997,-13.672,-21.973,-71.777,-7.812,0.000,0
33576.001,-25.879,-27.832,25.879,-35.156,0.000,0
33576.004,-25.879,-22.949,-8.301,-35.645,0.000,0
33576.008,-27.344,-18.066,-95.215,-18.066,0.000,0
33576.012,-19.043,-23.438,-47.852,-21.973,0.000,0
33576.016,-8.301,-24.414,28.320,-33.203,0.000,0
33576.020,-17.578,-21.484,4.395,-19.531,0.000,0
33576.024,-20.020,-18.555,-85.449,-5.859,0.000,0
33576.028,-20.020,-18.555,-76.172,-16.602,0.000,0
33576.032,-21.973,-20.996,22.461,-26.367,0.000,0
33576.036,-24.414,-26.855,28.320,-22.949,0.000,0
33576.040,-40.527,-22.949,-105.957,-25.879,0.000,0
33576.043,-60.059,-7.324,-187.988,-24.902,0.000,0
33576.047,-23.926,-16.113,41.016,5.371,0.000,0
33576.051,2.441,-25.391,154.297,4.883,0.000,0
33576.055,3.906,-13.672,-15.625,-0.488,0.000,0
33576.059,-20.508,-4.883,-203.125,-24.414,0.000,0
33576.063,-10.254,-12.695,-26.855,-18.555,0.000,0
33576.067,16.602,-23.926,161.621,11.719,0.000,0
33576.071,3.906,-23.926,35.645,14.648,0.000,0
33576.075,-31.250,-15.625,-205.566,-28.320,0.000,0
33576.079,-33.203,-18.555,-111.816,-50.293,0.000,0
33576.083,-0.488,-30.762,133.789,-18.066,0.000,0
33576.086,0.488,-34.180,75.684,-1.953,0.000,0
33576.090,-39.551,-25.879,-172.363,-21.973,0.000,0
33576.094,-48.828,-17.578,-178.711,-25.879,0.000,0
33576.098,-5.859,-21.484,95.215,-21.484,0.000,0
33576.102,2.930,-27.832,132.324,-16.602,0.000,0
33576.106,-23.926,-23.926,-93.262,-14.648,0.000,0
33576.110,-46.875,-14.160,-210.938,-35.645,0.000,0
33576.114,-11.719,-20.508,22.949,-26.855,0.000,0
33576.118,11.230,-33.203,155.762,-15.625,0.000,0
33576.122,-6.836,-29.297,-10.742,-20.508,0.000,0
33576.126,-45.898,-20.020,-215.820,-39.551,0.000,0
33576.129,-27.832,-21.973,-59.570,-21.484,0.000,0
33576.133,8.789,-32.227,141.602,2.441,0.000,0
33576.137,3.418,-34.180,44.434,-5.371,0.000,0
33576.141,-29.785,-19.043,-193.848,-28.320,0.000,0
33576.145,-29.785,-14.648,-139.160,-30.273,0.000,0
33576.149,15.625,-26.367,111.816,5.371,0.000,0
33576.153,20.996,-31.250,99.609,18.555,0.000,0
33576.157,-17.090,-21.484,-135.742,-12.695,0.000,0
33576.161,-47.852,-14.160,-188.965,-30.762,0.000,0
33576.165,-18.066,-27.832,59.082,-12.695,0.000,0
33576.168,-4.395,-37.598,129.395,-15.625,0.000,0
33576.172,-24.902,-28.320,-69.336,-21.973,0.000,0
33576.176,-49.805,-17.090,-210.449,-41.504,0.000,0
33576.180,-29.297,-25.879,1.953,-34.180,0.000,0
33576.184,2.930,-38.086,152.832,-2.930,0.000,0
33576.188,-18.066,-30.273,1.953,0.977,0.000,0
33576.192,-60.059,-18.555,-219.238,-28.809,0.000,0
33576.196,-34.668,-22.461,-82.031,-24.902,0.000,0
33576.200,1.465,-29.785,143.555,-5.859,0.000,0
33576.204,-4.395,-29.785,66.406,-7.324,0.000,0
33576.208,-29.785,-16.602,-181.641,-27.344,0.000,0
33576.211,-30.273,-8.789,-150.391,-29.785,0.000,0
33576.215,8.789,-20.996,111.328,-3.906,0.000,0
33576.219,16.113,-23.438,120.605,-0.977,0.000,0
33576.223,-14.648,-16.602,-123.535,-14.648,0.000,0
33576.227,-39.062,-17.090,-208.008,-33.691,0.000,0
33576.231,-10.742,-22.461,55.176,-13.184,0.000,0
33576.235,9.277,-24.902,144.043,3.418,0.000,0
33576.239,-14.648,-19.531,-52.246,-15.137,0.000,0
33576.243,-51.758,-13.672,-218.262,-41.992,0.000,0
33576.247,-21.973,-19.043,-11.719,-23.438,0.000,0
33576.251,13.184,-23.926,159.668,-0.488,0.000,0
33576.254,0.488,-20.996,24.902,-5.371,0.000,0
33576.258,-42.480,-13.672,-202.637,-34.668,0.000,0
33576.262,-46.387,-16.113,-97.656,-33.691,0.000,0
33576.266,-10.742,-27.832,127.930,-9.277,0.000,0
33576.270,-6.348,-33.203,62.500,-7.812,0.000,0
33576.274,-42.969,-22.461,-176.758,-32.715,0.000,0
33576.278,-51.758,-11.230,-167.969,-50.293,0.000,0
33576.282,-9.277,-16.602,96.680,-32.227,0.000,0
33576.286,0.488,-26.855,126.953,-16.113,0.000,0
33576.290,-26.855,-26.367,-108.398,-17.090,0.000,0
33576.293,-47.852,-15.625,-204.590,-39.551,0.000,0
33576.297,-11.230,-25.391,44.434,-33.203,0.000,0
33576.301,16.113,-36.621,149.414,-6.836,0.000,0
33576.305,1.953,-27.832,-31.250,-7.812,0.000,0
33576.309,-36.133,-16.113,-216.797,-42.969,0.000,0
33576.313,-14.648,-19.531,-32.715,-33.203,0.000,0
33576.317,21.484,-31.250,164.551,2.930,0.000,0
33576.321,2.930,-32.227,42.969,-3.906,0.000,0
33576.325,-40.039,-21.973,-200.195,-37.109,0.000,0
33576.329,-38.086,-24.414,-118.652,-38.086,0.000,0
33576.333,1.953,-35.645,126.465,-11.719,0.000,0
33576.336,-2.441,-36.621,95.215,-2.930,0.000,0
33576.340,-42.480,-22.949,-153.320,-26.367,0.000,0
33576.344,-48.340,-15.625,-184.082,-42.480,0.000,0
33576.348,-5.859,-23.926,78.613,-16.602,0.000,0
33576.352,6.836,-29.785,129.883,-9.277,0.000,0
33576.356,-23.438,-28.320,-82.031,-27.832,0.000,0
33576.360,-55.176,-18.555,-211.426,-39.062,0.000,0
33576.364,-24.414,-20.508,17.578,-21.973,0.000,0
33576.368,4.883,-29.785,154.785,-7.812,0.000,0
33576.372,-1.465,-24.902,-8.789,-3.906,0.000,0
33576.376,-40.039,-16.113,-214.355,-38.086,0.000,0
33576.379,-28.809,-20.996,-59.082,-35.156,0.000,0
33576.383,10.254,-29.297,154.297,-7.812,0.000,0
33576.387,5.371,-28.809,51.270,-5.859,0.000,0
33576.391,-31.250,-20.020,-193.848,-24.414,0.000,0
33576.395,-36.621,-19.043,-141.602,-37.109,0.000,0
33576.399,-4.883,-27.344,105.469,-8.789,0.000,0
33576.403,4.395,-31.250,86.426,-8.789,0.000,0
33576.407,-29.785,-21.973,-151.367,-31.250,0.000,0
33576.411,-48.828,-11.230,-188.965,-41.992,0.000,0
33576.415,-10.254,-19.043,73.730,-23.926,0.000,0
33576.418,1.465,-31.250,117.676,-15.137,0.000,0
33576.422,-22.461,-29.785,-66.406,-27.344,0.000,0
33576.426,-53.711,-17.578,-213.867,-33.203,0.000,0
33576.430,-25.391,-16.602,-10.742,-16.113,0.000,0
33576.434,7.324,-27.344,152.344,-7.324,0.000,0
33576.438,-2.930,-32.227,-0.977,-17.090,0.000,0
33576.442,-45.898,-23.926,-211.914,-45.898,0.000,0
33576.446,-39.551,-23.926,-80.078,-41.016,0.000,0
33576.450,-3.418,-31.738,141.602,-11.230,0.000,0
33576.454,-5.859,-30.273,72.754,-14.648,0.000,0
33576.458,-41.016,-23.926,-181.152,-41.016,0.000,0
33576.461,-42.969,-20.508,-162.598,-47.363,0.000,0
33576.465,-1.953,-24.902,98.633,-9.277,0.000,0
33576.469,0.977,-30.762,110.352,0.488,0.000,0
33576.473,-35.645,-25.391,-115.723,-30.762,0.000,0
33576.477,-43.945,-15.137,-197.754,-46.875,0.000,0
33576.481,0.488,-20.996,51.270,-16.602,0.000,0
33576.485,16.113,-26.367,153.809,9.277,0.000,0
33576.489,-4.395,-19.043,-30.762,-0.977,0.000,0
33576.493,-43.457,-15.137,-203.613,-37.109,0.000,0
33576.497,-24.414,-26.367,-20.508,-36.621,0.000,0
33576.501,9.766,-29.785,150.879,-5.859,0.000,0
33576.504,-7.324,-21.484,25.879,-0.977,0.000,0
33576.508,-43.457,-13.184,-200.195,-39.551,0.000,0
33576.512,-34.180,-19.531,-94.238,-53.223,0.000,0
33576.516,-4.395,-28.809,140.625,-23.438,0.000,0
33576.520,-13.184,-34.180,80.566,-10.254,0.000,0
33576.524,-51.758,-28.809,-170.898,-35.645,0.000,0
33576.528,-53.711,-17.578,-176.758,-39.551,0.000,0
33576.532,-10.254,-24.414,94.727,-14.160,0.000,0
33576.536,-1.465,-27.832,127.441,-7.324,0.000,0
33576.540,-28.809,-19.043,-104.980,-15.137,0.000,0
33576.543,-35.645,-16.113,-184.570,-27.344,0.000,0
33576.547,1.465,-21.484,48.340,-13.184,0.000,0
33576.551,-3.418,-28.320,87.891,-21.484,0.000,0
33576.555,-21.484,-24.414,-48.340,-25.391,0.000,0
33576.559,-16.113,-17.578,-108.887,-19.043,0.000,0
33576.563,-14.160,-22.461,-19.531,-20.508,0.000,0
33576.567,-22.461,-30.762,24.902,-21.484,0.000,0
33576.571,-17.578,-27.832,-22.949,-19.043,0.000,0
33576.575,-18.066,-23.438,-95.215,-10.742,0.000,0
33576.579,-18.555,-22.949,-52.246,-3.418,0.000,0
33576.583,-20.020,-23.926,31.250,-26.367,0.000,0
33576.586,-29.785,-28.320,8.789,-35.645,0.000,0
33576.590,-26.855,-23.926,-64.941,-16.602,0.000,0
33576.594,-18.555,-19.531,-67.383,-21.973,0.000,0
33576.598,-23.926,-28.320,11.230,-35.156,0.000,0
33576.602,-29.785,-28.809,17.090,-33.691,0.000,0
33576.606,-22.949,-24.414,-44.922,-11.719,0.000,0
33576.610,-20.508,-21.484,-85.938,-10.742,0.000,0
33576.614,-19.043,-23.438,-3.418,-27.832,0.000,0
33576.618,-28.320,-29.297,27.344,-27.344,0.000,0
33576.622,-25.879,-31.738,-17.578,-0.977,0.000,0
33576.626,-22.461,-26.367,-86.426,4.395,0.000,0
33576.629,-25.391,-20.996,-34.668,-13.184,0.000,0
33576.633,-37.598,-20.020,30.273,-33.203,0.000,0
33576.637,-30.762,-20.508,-0.488,-24.414,0.000,0
33576.641,-17.578,-17.090,-82.520,-7.812,0.000,0
33576.645,-16.602,-16.602,-64.453,-8.301,0.000,0
33576.649,-22.461,-22.461,23.926,-27.832,0.000,0
33576.653,-25.879,-24.414,16.113,-35.156,0.000,0
33576.657,-17.090,-22.949,-68.359,-10.742,0.000,0
33576.661,-11.230,-20.996,-89.355,-13.184,0.000,0
33576.665,-11.230,-24.414,2.441,-25.391,0.000,0
33576.668,-26.855,-27.344,30.762,-29.785,0.000,0
33576.672,-20.996,-25.879,-33.691,-28.320,0.000,0
33576.676,-6.348,-18.066,-92.773,-20.020,0.000,0
33576.680,-10.742,-20.508,-15.137,-24.414,0.000,0
33576.684,-29.785,-29.297,26.367,-41.504,0.000,0
33576.688,-23.438,-27.832,-18.555,-29.785,0.000,0
33576.692,-16.602,-16.113,-85.449,-17.090,0.000,0
33576.696,-17.578,-13.184,-43.457,-19.531,0.000,0
33576.700,-25.391,-24.414,21.484,-33.203,0.000,0
33576.704,-30.273,-25.879,-4.883,-22.461,0.000,0
33576.708,-18.555,-21.973,-88.867,1.465,0.000,0
33576.711,-11.719,-23.926,-72.754,-6.836,0.000,0
33576.715,-19.531,-23.926,18.066,-16.602,0.000,0
33576.719,-21.973,-27.344,6.836,-4.883,0.000,0
33576.723,-18.066,-28.809,-67.383,-2.441,0.000,0
33576.727,-17.090,-21.973,-88.867,-17.578,0.000,0
33576.731,-8.301,-24.902,11.230,-30.762,0.000,0
33576.735,-14.160,-25.879,32.227,-41.992,0.000,0
33576.739,-13.672,-21.484,-27.344,-29.297,0.000,0
33576.743,-14.160,-19.531,-89.844,-12.695,0.000,0
33576.747,-11.719,-24.414,-25.391,-20.996,0.000,0
33576.751,-22.949,-32.715,30.762,-52.246,0.000,0
33576.754,-23.438,-29.297,-8.789,-38.574,0.000,0
33576.758,-12.695,-25.391,-92.285,-15.625,0.000,0
33576.762,-2.930,-24.902,-59.082,-16.113,0.000,0
33576.766,-6.348,-28.809,25.391,-21.973,0.000,0
33576.770,-16.602,-30.273,12.207,-24.414,0.000,0
33576.774,-20.508,-23.438,-73.242,2.930,0.000,0
33576.778,-17.090,-20.020,-78.613,-4.395,0.000,0
33576.782,-18.066,-26.367,11.719,-19.043,0.000,0
33576.786,-32.715,-30.273,19.531,-26.855,0.000,0
33576.790,-27.832,-28.809,-44.922,-28.320,0.000,0
33576.793,-23.926,-23.926,-90.820,-18.555,0.000,0
33576.797,-26.367,-25.391,-4.395,-28.809,0.000,0
33576.801,-35.645,-33.203,32.715,-47.363,0.000,0
33576.805,-28.320,-35.156,-35.156,-30.762,0.000,0
33576.809,-23.926,-29.297,-103.516,-29.785,0.000,0
33576.813,-21.484,-28.809,-27.832,-34.180,0.000,0
33576.817,-30.273,-36.133,31.250,-39.551,0.000,0
33576.821,-32.715,-35.645,-12.695,-37.109,0.000,0
33576.825,-27.344,-30.273,-98.145,-26.855,0.000,0
33576.829,-26.367,-30.762,-64.941,-32.715,0.000,0
33576.833,-32.227,-30.762,17.090,-44.434,0.000,0
33576.836,-34.668,-28.809,-3.418,-50.781,0.000,0
33576.840,-22.461,-23.438,-80.078,-28.320,0.000,0
33576.844,-29.785,-24.902,-93.262,-25.879,0.000,0
33576.848,-41.016,-36.133,0.977,-46.875,0.000,0
33576.852,-38.574,-35.645,17.090,-44.434,0.000,0
33576.856,-33.691,-30.273,-52.734,-29.785,0.000,0
33576.860,-31.250,-28.809,-102.539,-37.598,0.000,0
33576.864,-25.879,-29.297,-17.090,-38.574,0.000,0
33576.868,-36.133,-34.180,27.832,-47.852,0.000,0
33576.872,-25.879,-28.809,-20.508,-36.621,0.000,0
33576.876,-16.113,-19.043,-91.797,-17.090,0.000,0
33576.879,-15.137,-18.555,-32.715,-16.602,0.000,0
33576.883,-20.020,-25.391,29.785,-22.461,0.000,0
33576.887,-18.066,-29.297,-3.418,-12.207,0.000,0
33576.891,-17.578,-27.344,-74.707,-1.953,0.000,0
33576.895,-16.602,-25.391,-64.453,-6.348,0.000,0
33576.899,-12.695,-27.344,13.184,-18.555,0.000,0
33576.903,-18.555,-28.320,10.254,-30.273,0.000,0
33576.907,-19.531,-28.809,-59.570,-15.625,0.000,0
33576.911,-17.090,-28.320,-83.008,-12.207,0.000,0
33576.915,-17.578,-31.250,2.930,-22.461,0.000,0
33576.918,-25.391,-33.691,23.438,-29.297,0.000,0
33576.922,-20.508,-24.902,-30.273,-13.184,0.000,0
33576.926,-13.184,-17.578,-68.359,-2.930,0.000,0
33576.930,-9.766,-20.020,-1.465,-8.789,0.000,0
33576.934,-23.926,-21.973,30.273,-10.254,0.000,0
33576.938,-29.785,-21.484,-9.277,-8.789,0.000,0
33576.942,-22.461,-19.043,-86.914,-10.742,0.000,0
33576.946,-16.113,-22.949,-43.457,-18.066,0.000,0
33576.950,-23.926,-29.785,31.250,-34.180,0.000,0
33576.954,-20.508,-22.949,7.812,-31.250,0.000,0
33576.958,-7.324,-18.555,-78.613,-4.395,0.000,0
33576.961,-7.324,-21.973,-72.754,-0.488,0.000,0
33576.965,-16.602,-23.926,24.414,-27.344,0.000,0
33576.969,-31.250,-29.785,17.090,-37.109,0.000,0
33576.973,-26.855,-31.738,-65.430,-8.301,0.000,0
33576.977,-25.879,-27.344,-94.238,-11.230,0.000,0
33576.981,-30.273,-29.785,-2.930,-31.738,0.000,0
33576.985,-35.645,-33.203,27.344,-36.621,0.000,0
33576.989,-26.367,-33.203,-27.344,-26.855,0.000,0
33576.993,-20.020,-25.879,-94.727,-9.277,0.000,0
33576.997,-24.902,-24.902,-26.367,-9.766,0.000,0
33577.001,-38.086,-35.156,18.066,-34.668,0.000,0
33577.004,-27.344,-34.180,-22.461,-29.785,0.000,0
33577.008,-19.531,-28.809,-87.402,-12.695,0.000,0
33577.012,-26.367,-26.855,-55.664,-21.484,0.000,0
33577.016,-33.691,-27.832,23.926,-43.457,0.000,0
33577.020,-29.297,-27.344,9.277,-34.180,0.000,0
33577.024,-18.555,-20.508,-73.242,-5.371,0.000,0
33577.028,-20.508,-19.043,-75.195,-12.695,0.000,0
33577.032,-26.855,-22.949,14.648,-31.738,0.000,0
33577.036,-28.809,-23.438,18.555,-31.250,0.000,0
33577.040,-19.531,-18.555,-49.805,-14.648,0.000,0
33577.043,-24.414,-17.578,-81.055,-10.742,0.000,0
33577.047,-19.531,-21.484,4.883,-23.926,0.000,0
33577.051,-22.461,-20.508,33.691,-41.992,0.000,0
33577.055,-20.508,-19.531,-20.996,-32.227,0.000,0
33577.059,-19.531,-19.531,-90.332,-15.137,0.000,0
33577.063,-20.508,-15.625,-27.832,-25.879,0.000,0
33577.067,-28.320,-14.648,42.480,-51.758,0.000,0
33577.071,-25.879,-12.695,6.348,-33.691,0.000,0
33577.075,-16.602,-15.625,-85.449,-12.207,0.000,0
33577.079,-17.578,-16.113,-66.895,-13.672,0.000,0
33577.083,-22.949,-15.137,22.949,-18.555,0.000,0
33577.086,-20.996,-17.578,20.508,-20.996,0.000,0
33577.090,-4.395,-10.742,-60.547,-1.953,0.000,0
33577.094,-4.883,-13.184,-85.449,-6.836,0.000,0
33577.098,-15.137,-25.391,4.395,-20.996,0.000,0
33577.102,-19.043,-24.902,21.484,-9.277,0.000,0
33577.106,-13.184,-20.020,-47.852,5.859,0.000,0
33577.110,-16.113,-19.531,-95.215,-3.418,0.000,0
33577.114,-26.367,-24.414,-13.184,-10.254,0.000,0
33577.118,-29.297,-24.414,25.879,-24.902,0.000,0
33577.122,-20.508,-23.926,-20.020,-23.438,0.000,0
33577.126,-19.531,-23.926,-82.520,-12.207,0.000,0
33577.129,-22.461,-24.902,-35.156,-22.949,0.000,0
33577.133,-32.227,-24.902,35.156,-30.762,0.000,0
33577.137,-29.297,-22.949,4.395,-16.602,0.000,0
33577.141,-25.391,-23.438,-87.402,-7.324,0.000,0
33577.145,-23.926,-24.902,-64.941,-19.043,0.000,0
33577.149,-23.438,-27.344,21.973,-26.855,0.000,0
33577.153,-29.297,-27.344,10.254,-33.203,0.000,0
33577.157,-22.461,-25.391,-63.477,-18.066,0.000,0
33577.161,-19.043,-22.949,-87.891,-10.742,0.000,0
33577.165,-21.973,-30.762,4.395,-30.762,0.000,0
33577.168,-26.367,-34.668,24.902,-35.156,0.000,0
33577.172,-20.508,-28.320,-41.504,-5.371,0.000,0
33577.176,-22.949,-28.809,-99.121,-9.766,0.000,0
33577.180,-19.531,-30.762,-21.484,-31.738,0.000,0
33577.184,-27.344,-30.273,29.297,-47.852,0.000,0
33577.188,-35.156,-26.367,-13.672,-37.598,0.000,0
33577.192,-28.320,-21.973,-89.844,-17.090,0.000,0
33577.196,-22.949,-23.926,-51.758,-20.996,0.000,0
33577.200,-31.250,-31.738,17.090,-27.832,0.000,0
33577.204,-32.715,-31.250,-0.977,-35.156,0.000,0
33577.208,-27.344,-23.926,-83.008,-26.367,0.000,0
33577.211,-27.344,-22.461,-73.242,-18.066,0.000,0
33577.215,-29.785,-31.738,20.020,-28.320,0.000,0
33577.219,-40.527,-34.180,13.672,-29.785,0.000,0
33577.223,-39.062,-26.367,-52.246,-9.766,0.000,0
33577.227,-28.809,-22.949,-87.402,1.953,0.000,0
33577.231,-21.973,-27.832,-7.812,-23.926,0.000,0
33577.235,-32.715,-34.180,16.113,-48.828,0.000,0
33577.239,-31.738,-32.715,-39.062,-16.113,0.000,0
33577.243,-21.973,-27.344,-98.145,1.465,0.000,0
33577.247,-23.926,-31.738,-31.738,-17.090,0.000,0
33577.251,-39.551,-35.645,23.926,-32.715,0.000,0
33577.254,-35.156,-30.273,-12.695,-28.809,0.000,0
33577.258,-18.555,-18.555,-89.355,-12.695,0.000,0
33577.262,-16.602,-16.113,-49.805,-17.578,0.000,0
33577.266,-30.762,-23.926,33.691,-40.527,0.000,0
33577.270,-32.715,-23.438,8.301,-35.156,0.000,0
33577.274,-25.879,-18.066,-80.566,-11.230,0.000,0
33577.278,-21.484,-20.020,-87.402,-1.465,0.000,0
33577.282,-22.461,-22.949,20.996,-22.949,0.000,0
33577.286,-30.762,-21.484,35.156,-41.016,0.000,0
33577.290,-22.949,-19.043,-48.340,-31.250,0.000,0
33577.293,-20.508,-13.672,-89.355,-25.391,0.000,0
33577.297,-22.461,-17.090,-0.488,-28.320,0.000,0
33577.301,-28.809,-22.461,33.691,-40.527,0.000,0
33577.305,-25.879,-22.949,-14.160,-33.203,0.000,0
33577.309,-23.438,-19.043,-85.938,-26.855,0.000,0
33577.313,-15.137,-15.137,-29.785,-27.344,0.000,0
33577.317,-25.879,-23.438,35.645,-42.480,0.000,0
33577.321,-37.109,-28.320,-5.371,-38.574,0.000,0
33577.325,-26.367,-20.508,-85.449,-18.555,0.000,0
33577.329,-20.508,-20.508,-59.570,-20.508,0.000,0
33577.333,-25.879,-27.832,23.438,-39.062,0.000,0
33577.336,-29.785,-22.461,13.184,-37.109,0.000,0
33577.340,-20.996,-18.066,-66.406,-18.555,0.000,0
33577.344,-17.578,-16.113,-80.078,-26.367,0.000,0
33577.348,-25.879,-15.625,7.324,-32.227,0.000,0
33577.352,-27.344,-18.066,23.438,-27.832,0.000,0
33577.356,-16.602,-16.602,-36.133,-16.602,0.000,0
33577.360,-16.113,-16.602,-87.402,-19.043,0.000,0
33577.364,-22.461,-25.879,-8.789,-41.016,0.000,0
33577.368,-29.785,-27.832,29.297,-56.152,0.000,0
33577.372,-26.855,-27.344,-12.695,-47.852,0.000,0
33577.376,-20.020,-20.508,-87.402,-26.367,0.000,0
33577.379,-9.277,-20.020,-44.922,-19.043,0.000,0
33577.383,-19.043,-31.738,31.738,-34.668,0.000,0
33577.387,-27.832,-31.250,6.348,-26.367,0.000,0
33577.391,-22.949,-25.879,-84.473,-2.930,0.000,0
33577.395,-23.438,-25.391,-75.195,-20.508,0.000,0
33577.399,-34.180,-26.367,18.555,-41.504,0.000,0
33577.403,-34.180,-22.949,23.438,-45.410,0.000,0
33577.407,-20.996,-17.090,-59.570,-25.879,0.000,0
33577.411,-23.438,-19.043,-90.820,-17.090,0.000,0
33577.415,-29.785,-26.855,-3.418,-29.297,0.000,0
33577.418,-37.109,-31.250,22.461,-42.480,0.000,0
33577.422,-23.926,-27.344,-38.086,-15.625,0.000,0
33577.426,-13.672,-20.996,-101.562,-2.930,0.000,0
33577.430,-8.301,-21.484,-25.879,-11.719,0.000,0
33577.434,-14.648,-20.020,30.762,-7.324,0.000,0
33577.438,-20.508,-17.090,-11.719,0.000,0.000,0
33577.442,-18.555,-16.602,-88.379,-8.789,0.000,0
33577.446,-17.578,-17.578,-47.363,-20.020,0.000,0
33577.450,-23.438,-26.367,23.438,-29.297,0.000,0
33577.454,-33.203,-32.715,-2.930,-25.879,0.000,0
33577.458,-33.203,-27.344,-87.891,-19.043,0.000,0
33577.461,-24.902,-23.438,-75.684,-32.227,0.000,0
33577.465,-31.250,-23.926,15.625,-40.039,0.000,0
33577.469,-41.992,-26.855,8.789,-36.621,0.000,0
33577.473,-26.855,-29.297,-60.547,-12.695,0.000,0
33577.477,-26.855,-24.414,-87.402,-5.859,0.000,0
33577.481,-38.086,-28.320,2.441,-26.855,0.000,0
33577.485,-42.480,-36.621,22.949,-40.039,0.000,0
33577.489,-32.227,-31.250,-30.762,-26.367,0.000,0
33577.493,-31.250,-22.461,-86.914,-12.695,0.000,0
33577.497,-27.832,-24.414,-21.484,-13.672,0.000,0
33577.501,-32.227,-29.297,31.738,-31.738,0.000,0
33577.504,-35.645,-31.738,-3.906,-23.926,0.000,0
33577.508,-26.367,-30.273,-82.520,-4.395,0.000,0
33577.512,-15.625,-30.762,-58.594,-20.020,0.000,0
33577.516,-24.414,-35.645,19.043,-36.621,0.000,0
33577.520,-28.809,-38.574,-4.883,-29.785,0.000,0
33577.524,-26.855,-37.598,-83.008,-16.113,0.000,0
33577.528,-29.297,-31.250,-85.938,-9.277,0.000,0
33577.532,-27.832,-27.832,5.859,-17.578,0.000,0
33577.536,-31.738,-32.715,18.555,-28.809,0.000,0
33577.540,-21.973,-33.203,-45.410,-20.508,0.000,0
33577.543,-15.625,-27.344,-92.773,-21.484,0.000,0
33577.547,-15.625,-27.344,-9.277,-27.832,0.000,0
33577.551,-28.320,-30.762,29.785,-33.691,0.000,0
33577.555,-23.438,-29.785,-27.832,-10.254,0.000,0
33577.559,-11.719,-27.832,-100.098,2.441,0.000,0
33577.563,-10.742,-31.250,-40.527,-25.879,0.000,0
33577.567,-19.531,-29.297,28.809,-37.598,0.000,0
33577.571,-18.555,-27.344,-5.859,-16.602,0.000,0
33577.575,-16.113,-31.738,-93.750,-6.348,0.000,0
33577.579,-21.484,-27.832,-60.547,-20.996,0.000,0
33577.583,-21.973,-24.414,26.367,-38.574,0.000,0
33577.586,-20.020,-24.902,9.766,-35.645,0.000,0
33577.590,-14.648,-20.996,-63.477,-9.277,0.000,0
33577.594,-8.789,-17.578,-77.637,4.883,0.000,0
33577.598,-12.207,-22.461,12.695,-11.230,0.000,0
33577.602,-24.414,-25.879,27.344,-27.344,0.000,0
33577.606,-20.508,-24.902,-41.016,-10.742,0.000,0
33577.610,-25.391,-21.973,-93.750,-15.137,0.000,0
33577.614,-26.367,-21.973,-13.184,-31.738,0.000,0
33577.618,-33.203,-27.344,26.367,-40.039,0.000,0
33577.622,-25.879,-24.902,-23.438,-28.809,0.000,0
33577.626,-18.555,-21.484,-89.844,-11.719,0.000,0
33577.629,-24.902,-24.414,-40.527,-19.531,0.000,0
33577.633,-29.785,-26.855,26.367,-38.574,0.000,0
33577.637,-28.320,-26.855,0.000,-30.762,0.000,0
33577.641,-21.484,-25.879,-76.660,-20.996,0.000,0
33577.645,-24.902,-23.438,-65.430,-22.461,0.000,0
33577.649,-29.785,-27.344,15.137,-25.391,0.000,0
33577.653,-25.879,-29.297,15.137,-25.879,0.000,0
33577.657,-20.996,-30.762,-52.246,-22.949,0.000,0
33577.661,-15.137,-28.809,-81.543,-26.855,0.000,0
33577.665,-18.555,-25.391,4.395,-38.086,0.000,0
33577.668,-23.926,-25.391,24.414,-41.504,0.000,0
33577.672,-17.090,-28.809,-37.109,-22.461,0.000,0
33577.676,-23.926,-26.855,-87.891,-17.090,0.000,0
33577.680,-29.785,-27.832,-14.160,-26.367,0.000,0
33577.684,-37.598,-30.762,33.691,-38.086,0.000,0
33577.688,-36.621,-30.273,-6.836,-29.297,0.000,0
33577.692,-28.320,-27.832,-89.844,-15.625,0.000,0
33577.696,-22.461,-24.902,-55.664,-26.855,0.000,0
33577.700,-21.973,-29.785,27.832,-42.969,0.000,0
33577.704,-24.414,-34.180,7.812,-38.086,0.000,0
33577.708,-23.438,-26.367,-77.637,-13.672,0.000,0
33577.711,-21.973,-24.902,-75.195,-7.324,0.000,0
33577.715,-28.320,-31.738,20.508,-36.621,0.000,0
33577.719,-37.598,-29.297,27.344,-55.664,0.000,0
33577.723,-24.902,-22.949,-52.246,-28.809,0.000,0
33577.727,-23.438,-20.508,-91.797,-25.879,0.000,0
33577.731,-27.344,-24.414,-6.836,-40.527,0.000,0
33577.735,-38.574,-30.762,24.414,-42.969,0.000,0
33577.739,-37.598,-31.738,-29.297,-35.156,0.000,0
33577.743,-31.738,-28.320,-100.586,-20.996,0.000,0
33577.747,-31.738,-28.809,-26.367,-27.832,0.000,0
33577.751,-35.156,-31.250,39.062,-41.992,0.000,0
33577.754,-28.320,-30.762,-5.371,-35.645,0.000,0
33577.758,-21.973,-27.832,-82.031,-24.414,0.000,0
33577.762,-23.438,-22.461,-52.246,-28.320,0.000,0
33577.766,-23.926,-22.949,24.902,-46.875,0.000,0
33577.770,-26.855,-27.832,5.859,-33.691,0.000,0
33577.774,-27.344,-22.949,-72.754,-5.371,0.000,0
33577.778,-24.902,-19.043,-71.777,-12.695,0.000,0
33577.782,-18.066,-21.484,17.090,-18.066,0.000,0
33577.786,-20.508,-25.391,20.996,-25.879,0.000,0
33577.790,-20.508,-24.902,-45.410,-24.902,0.000,0
33577.793,-18.555,-20.020,-80.566,-13.672,0.000,0
33577.797,-20.996,-24.902,-2.441,-30.762,0.000,0
33577.801,-38.086,-27.832,31.250,-47.852,0.000,0
33577.805,-33.203,-26.367,-18.066,-27.832,0.000,0
33577.809,-22.949,-28.320,-95.215,-5.371,0.000,0
33577.813,-28.320,-28.809,-41.504,-12.695,0.000,0
33577.817,-40.527,-30.762,31.250,-43.945,0.000,0
33577.821,-35.645,-30.762,-5.371,-29.297,0.000,0
33577.825,-23.926,-29.785,-89.355,-9.766,0.000,0
33577.829,-19.531,-25.879,-66.895,-10.742,0.000,0
33577.833,-28.320,-26.855,12.207,-17.578,0.000,0
33577.836,-35.645,-32.715,10.742,-30.273,0.000,0
33577.840,-27.344,-28.809,-65.918,-25.879,0.000,0
33577.844,-26.855,-25.879,-100.098,-23.926,0.000,0
33577.848,-30.762,-32.227,-3.418,-26.367,0.000,0
33577.852,-38.086,-32.227,19.531,-32.715,0.000,0
33577.856,-30.762,-27.832,-41.504,-30.273,0.000,0
33577.860,-20.508,-21.973,-90.332,-26.855,0.000,0
33577.864,-19.531,-21.973,-11.230,-35.156,0.000,0
33577.868,-26.855,-26.367,33.691,-41.992,0.000,0
33577.872,-24.414,-28.320,-18.066,-23.438,0.000,0
33577.876,-19.531,-25.391,-84.473,-16.602,0.000,0
33577.879,-22.949,-21.973,-39.551,-19.043,0.000,0
33577.883,-26.367,-22.949,23.438,-19.531,0.000,0
33577.887,-18.555,-26.367,0.000,-21.973,0.000,0
33577.891,-10.254,-21.973,-83.496,-16.602,0.000,0
33577.895,-16.113,-21.484,-66.895,-15.137,0.000,0
33577.899,-28.809,-25.391,36.133,-26.367,0.000,0
33577.903,-30.273,-25.879,17.090,-28.809,0.000,0
33577.907,-22.949,-27.344,-63.965,-28.809,0.000,0
33577.911,-22.461,-26.855,-87.891,-23.926,0.000,0
33577.915,-25.879,-31.738,-2.441,-34.668,0.000,0
33577.918,-31.738,-36.133,21.973,-51.758,0.000,0
33577.922,-24.414,-32.715,-37.109,-25.391,0.000,0
33577.926,-25.391,-28.809,-89.844,-14.648,0.000,0
33577.930,-26.367,-27.832,-17.578,-24.902,0.000,0
33577.934,-31.250,-30.762,19.531,-40.527,0.000,0
33577.938,-31.738,-34.180,-22.461,-40.039,0.000,0
33577.942,-22.949,-31.250,-97.656,-21.973,0.000,0
33577.946,-20.020,-26.367,-60.547,-17.578,0.000,0
33577.950,-25.879,-29.297,15.625,-30.762,0.000,0
33577.954,-23.438,-31.250,0.977,-38.086,0.000,0
33577.958,-10.742,-27.832,-71.777,-12.207,0.000,0
33577.961,-10.254,-22.461,-74.219,-5.859,0.000,0
33577.965,-39.062,-26.367,12.695,-46.875,0.000,0
33577.969,-50.293,-27.832,16.602,-50.781,0.000,0
33577.973,-39.551,-25.879,-54.688,-25.391,0.000,0
33577.977,-35.156,-25.391,-102.051,-21.484,0.000,0
33577.981,-25.391,-26.855,-16.113,-27.832,0.000,0
33577.985,-37.109,-29.297,19.043,-47.363,0.000,0
33577.989,-36.133,-29.297,-40.039,-31.738,0.000,0
33577.993,-25.391,-30.273,-107.910,-15.137,0.000,0
33577.997,-26.855,-30.762,-41.504,-27.832,0.000,0
33578.001,-37.598,-29.297,16.113,-40.039,0.000,0
33578.004,-30.273,-25.879,-16.113,-29.297,0.000,0
33578.008,-21.973,-22.461,-93.750,-13.672,0.000,0
33578.012,-20.996,-24.902,-63.965,-18.555,0.000,0
33578.016,-28.320,-30.273,26.855,-36.133,0.000,0
33578.020,-30.273,-30.762,9.766,-28.809,0.000,0
33578.024,-23.926,-31.738,-83.984,-15.137,0.000,0
33578.028,-21.484,-26.855,-84.473,-20.996,0.000,0
33578.032,-21.973,-25.879,18.555,-29.297,0.000,0
33578.036,-30.762,-25.879,25.879,-31.250,0.000,0
33578.040,-19.531,-22.461,-49.316,-14.160,0.000,0
33578.043,-16.602,-24.414,-102.051,-20.020,0.000,0
33578.047,-19.531,-24.902,-10.742,-32.227,0.000,0
33578.051,-21.484,-25.391,34.668,-39.551,0.000,0
33578.055,-14.648,-24.414,-12.207,-34.668,0.000,0
33578.059,-15.625,-17.578,-84.961,-19.531,0.000,0
33578.063,-14.648,-20.996,-34.180,-18.555,0.000,0
33578.067,-15.625,-25.879,28.809,-32.715,0.000,0
33578.071,-15.137,-23.926,-1.953,-36.133,0.000,0
33578.075,-14.160,-20.996,-79.590,-20.508,0.000,0
33578.079,-22.461,-21.484,-61.523,-26.855,0.000,0
33578.083,-29.297,-31.738,17.578,-52.246,0.000,0
33578.086,-29.785,-33.691,4.883,-41.504,0.000,0
33578.090,-25.391,-26.367,-70.801,-20.508,0.000,0
33578.094,-22.949,-25.391,-84.961,-27.344,0.000,0
33578.098,-24.902,-24.414,1.465,-22.949,0.000,0
33578.102,-31.250,-25.879,17.090,-26.367,0.000,0
33578.106,-17.090,-23.438,-38.086,-21.484,0.000,0
33578.110,-9.766,-14.648,-88.867,-6.348,0.000,0
33578.114,-17.090,-17.090,-10.742,-25.391,0.000,0
33578.118,-30.273,-20.020,33.691,-41.016,0.000,0
33578.122,-24.414,-18.555,-12.207,-20.996,0.000,0
33578.126,-18.555,-22.461,-93.262,-8.301,0.000,0
33578.129,-21.973,-26.855,-51.270,-23.438,0.000,0
33578.133,-25.879,-29.785,34.180,-27.344,0.000,0
33578.137,-16.602,-26.855,-32.715,-6.348,0.000,0
33578.141,-13.184,-25.879,-101.074,-0.977,0.000,0
33578.145,-16.602,-24.414,-15.137,-1.465,0.000,0
33578.149,-23.926,-26.367,40.039,-23.438,0.000,0
33578.153,-26.855,-26.367,-4.395,-38.574,0.000,0
33578.157,-19.043,-24.414,-83.496,-21.484,0.000,0
33578.161,-11.719,-26.855,-44.434,-17.090,0.000,0
33578.165,-22.949,-23.438,33.203,-31.250,0.000,0
33578.168,-17.578,-23.926,10.742,-21.484,0.000,0
33578.172,-3.906,-22.461,-70.801,-0.488,0.000,0
33578.176,-16.602,-21.973,-76.660,-6.348,0.000,0
33578.180,-21.973,-31.738,10.254,-21.484,0.000,0
33578.184,-16.113,-30.273,19.531,-24.414,0.000,0
33578.188,-5.859,-25.879,-53.711,-13.184,0.000,0
33578.192,-10.742,-20.996,-86.914,-17.090,0.000,0
33578.196,-12.207,-20.996,2.930,-22.949,0.000,0
33578.200,-18.555,-26.367,26.855,-24.902,0.000,0
33578.204,-16.113,-22.949,-32.227,-3.418,0.000,0
33578.208,-16.602,-22.461,-96.680,-5.859,0.000,0
33578.211,-19.043,-27.832,-22.461,-29.785,0.000,0
33578.215,-30.273,-31.738,33.203,-47.852,0.000,0
33578.219,-32.715,-36.621,-18.555,-42.969,0.000,0
33578.223,-25.391,-31.738,-93.262,-17.578,0.000,0
33578.227,-15.625,-24.414,-52.734,-8.301,0.000,0
33578.231,-23.926,-29.785,23.926,-35.645,0.000,0
33578.235,-35.156,-32.715,7.324,-47.363,0.000,0
33578.239,-19.043,-28.809,-68.359,-16.602,0.000,0
33578.243,-24.902,-26.855,-86.426,-8.301,0.000,0
33578.247,-33.691,-33.691,9.277,-30.273,0.000,0
33578.251,-31.250,-35.645,-0.488,-38.086,0.000,0
33578.254,-29.297,-28.809,-93.750,-23.438,0.000,0
33578.258,-26.367,-26.855,-64.941,-25.391,0.000,0
33578.262,-31.738,-32.715,13.672,-42.969,0.000,0
33578.266,-33.691,-30.273,8.789,-44.434,0.000,0
33578.270,-22.461,-21.484,-65.918,-28.320,0.000,0
33578.274,-22.461,-22.949,-91.797,-22.949,0.000,0
33578.278,-21.484,-26.367,2.930,-25.391,0.000,0
33578.282,-32.227,-27.832,17.090,-34.668,0.000,0
33578.286,-28.320,-29.297,-53.223,-30.273,0.000,0
33578.290,-15.625,-21.484,-92.285,-20.996,0.000,0
33578.293,-16.113,-21.484,-13.184,-27.832,0.000,0
33578.297,-26.855,-26.367,23.438,-36.621,0.000,0
33578.301,-20.996,-23.438,-20.996,-12.695,0.000,0
33578.305,-20.020,-21.484,-94.727,-1.953,0.000,0
33578.309,-27.832,-22.949,-43.945,-19.531,0.000,0
33578.313,-33.203,-27.832,23.438,-26.367,0.000,0
33578.317,-29.297,-31.738,-1.953,-19.043,0.000,0
33578.321,-23.438,-30.273,-86.426,-19.531,0.000,0
33578.325,-26.367,-31.738,-71.289,-24.902,0.000,0
33578.329,-36.621,-33.691,25.879,-42.480,0.000,0
33578.333,-41.992,-27.832,18.555,-43.457,0.000,0
33578.336,-28.809,-29.785,-59.570,-20.508,0.000,0
33578.340,-20.508,-27.832,-84.473,-8.301,0.000,0
33578.344,-25.391,-24.414,8.301,-18.555,0.000,0
33578.348,-30.273,-27.832,34.180,-41.504,0.000,0
33578.352,-19.531,-24.902,-29.297,-24.902,0.000,0
33578.356,-22.461,-21.484,-84.473,-21.484,0.000,0
33578.360,-22.461,-21.973,-3.906,-15.625,0.000,0
33578.364,-24.414,-21.973,38.086,-16.602,0.000,0
33578.368,-19.531,-22.949,-4.395,-22.949,0.000,0
33578.372,-14.160,-19.043,-82.520,-16.602,0.000,0
33578.376,-21.484,-21.484,-50.781,-18.555,0.000,0
33578.379,-35.645,-30.273,21.484,-32.715,0.000,0
33578.383,-35.156,-28.809,2.441,-37.109,0.000,0
33578.387,-20.020,-21.484,-71.777,-33.691,0.000,1
33578.391,-18.555,-19.043,-67.871,-28.320,0.000,0
33578.395,-27.344,-22.949,18.555,-28.320,0.000,0
33578.399,-35.645,-22.461,15.625,-32.715,0.000,0
33578.403,-23.926,-18.066,-55.176,-12.695,0.000,0
33578.407,-21.973,-15.625,-75.195,-1.465,0.000,0
33578.411,-31.250,-18.066,4.395,-17.090,0.000,0
33578.415,-34.180,-21.973,23.438,-35.156,0.000,0
33578.418,-23.438,-20.508,-23.438,-20.020,0.000,0
33578.422,-23.926,-19.531,-83.984,-13.672,0.000,0
33578.426,-30.273,-25.391,-16.602,-34.180,0.000,0
33578.430,-28.809,-25.879,35.645,-41.992,0.000,0
33578.434,-27.344,-25.879,-5.859,-24.414,0.000,0
33578.438,-34.668,-27.832,-91.797,-13.672,0.000,0
33578.442,-32.227,-27.832,-58.105,-16.602,0.000,0
33578.446,-34.180,-27.832,29.785,-26.367,0.000,0
33578.450,-31.250,-24.414,11.719,-21.973,0.000,0
33578.454,-22.949,-21.973,-78.125,-14.160,0.000,0
33578.458,-23.438,-21.484,-83.008,-18.555,0.000,0
33578.461,-27.832,-24.902,15.625,-25.879,0.000,0
33578.465,-33.691,-21.973,33.691,-33.203,0.000,0
33578.469,-19.043,-18.066,-42.480,-21.484,0.000,0
33578.473,-11.230,-19.043,-94.238,-17.578,0.000,0
33578.477,-21.484,-15.137,-3.418,-21.973,0.000,0
33578.481,-38.574,-20.020,31.250,-38.086,0.000,0
33578.485,-39.062,-20.508,-63.965,-28.809,0.000,0
33578.489,-31.250,-13.184,-78.613,-6.348,0.000,0
33578.493,-27.344,-17.090,13.672,-22.461,0.000,0
33578.497,-29.785,-19.043,27.832,-38.574,0.000,0
33578.501,-23.926,-17.578,-42.969,-19.531,0.000,0
33578.504,-22.461,-11.719,-91.309,-17.578,0.000,0
33578.508,-24.414,-17.090,-11.230,-26.367,0.000,0
33578.512,-34.668,-25.879,26.855,-29.297,0.000,0
33578.516,-30.273,-23.438,-24.902,-7.812,0.000,0
33578.520,-31.738,-26.367,-97.168,-4.883,0.000,0
33578.524,-32.227,-28.320,-34.180,-16.602,0.000,0
33578.528,-41.504,-24.414,24.902,-23.926,0.000,0
33578.532,-37.109,-22.461,-10.742,-27.832,0.000,0
33578.536,-20.508,-22.461,-79.102,-15.137,0.000,0
33578.540,-15.625,-22.461,-55.664,-14.648,0.000,0
33578.543,-17.090,-26.855,28.320,-33.691,0.000,0
33578.547,-4.883,-26.855,15.625,-14.648,0.000,0
33578.551,0.977,-29.297,-61.523,8.301,0.000,0
33578.555,-26.855,-31.738,-82.520,-22.949,0.000,0
33578.559,-36.133,-29.297,5.859,-44.434,0.000,0
33578.563,-39.062,-30.762,24.414,-47.363,0.000,0
33578.567,-31.738,-30.273,-51.270,-29.785,0.000,0
33578.571,-30.273,-20.020,-104.004,-20.020,0.000,0
33578.575,-30.273,-19.043,-22.949,-22.461,0.000,0
33578.579,-33.203,-24.414,24.902,-15.137,0.000,0
33578.583,-27.344,-22.461,-10.742,-1.953,0.000,0
33578.586,-18.555,-18.066,-85.449,0.000,0.000,0
33578.590,-19.043,-22.461,-48.340,-16.113,0.000,0
33578.594,-33.691,-29.785,23.438,-35.645,0.000,0
33578.598,-31.738,-25.391,10.254,-20.020,0.000,0
33578.602,-14.160,-12.695,-65.918,-1.953,0.000,0
33578.606,-13.184,-12.695,-61.523,-7.812,0.000,0
33578.610,-22.461,-20.996,30.273,-18.555,0.000,0
33578.614,-25.391,-23.438,29.297,-17.090,0.000,0
33578.618,-18.555,-27.832,-51.270,-1.465,0.000,0
33578.622,-15.625,-26.855,-84.473,-8.301,0.000,0
33578.626,-18.066,-25.879,4.395,-20.020,0.000,0
33578.629,-24.414,-27.344,26.855,-21.973,0.000,0
33578.633,-15.625,-24.414,-37.598,-14.160,0.000,0
33578.637,-15.137,-19.043,-99.121,-14.648,0.000,0
33578.641,-24.902,-26.367,-22.949,-28.320,0.000,0
33578.645,-40.039,-32.715,30.273,-36.133,0.000,0
33578.649,-32.227,-31.250,-13.672,-32.715,0.000,0
33578.653,-23.438,-26.855,-95.703,-20.020,0.000,0
33578.657,-20.996,-21.484,-54.199,-15.137,0.000,0
33578.661,-23.438,-25.391,31.738,-29.785,0.000,0
33578.665,-27.832,-25.879,11.719,-25.391,0.000,0
33578.668,-22.461,-24.902,-68.359,-12.207,0.000,0
33578.672,-18.555,-25.391,-64.453,-17.578,0.000,0
33578.676,-22.461,-25.391,21.973,-28.320,0.000,0
33578.680,-27.832,-33.691,21.484,-35.156,0.000,0
33578.684,-17.090,-33.203,-51.758,-28.809,0.000,0
33578.688,-16.113,-23.926,-86.426,-21.484,0.000,0
33578.692,-18.555,-27.344,-1.953,-23.438,0.000,0
33578.696,-30.762,-31.738,24.414,-28.320,0.000,0
33578.700,-24.902,-28.320,-20.508,-22.949,0.000,0
33578.704,-19.531,-21.484,-89.355,-21.484,0.000,0
33578.708,-17.578,-21.973,-37.598,-26.855,0.000,0
33578.711,-27.832,-27.344,26.367,-35.645,0.000,0
33578.715,-28.320,-24.902,-2.441,-13.672,0.000,0
33578.719,-15.137,-22.461,-78.125,-5.859,0.000,0
33578.723,-14.648,-21.484,-50.293,-21.973,0.000,0
33578.727,-22.949,-19.531,20.508,-22.949,0.000,0
33578.731,-24.414,-21.973,6.836,-22.461,0.000,0
33578.735,-15.625,-26.367,-62.012,-17.090,0.000,0
33578.739,-19.531,-25.391,-75.684,-23.438,0.000,0
33578.743,-23.926,-28.320,12.207,-33.691,0.000,0
33578.747,-30.273,-28.809,21.973,-33.691,0.000,0
33578.751,-33.203,-27.832,-41.016,-21.973,0.000,0
33578.754,-31.738,-20.020,-99.121,-4.883,0.000,0
33578.758,-26.367,-17.090,-19.531,-22.461,0.000,0
33578.762,-33.691,-23.926,34.180,-37.598,0.000,0
33578.766,-30.762,-25.879,-23.438,-9.277,0.000,0
33578.770,-25.391,-20.508,-99.121,-7.812,0.000,0
33578.774,-21.973,-18.555,-40.039,-22.461,0.000,0
33578.778,-36.621,-28.809,31.250,-48.828,0.000,0
33578.782,-35.645,-29.297,0.000,-43.945,0.000,0
33578.786,-17.090,-25.391,-88.867,-21.484,0.000,0
33578.790,-12.207,-22.461,-61.523,-20.996,0.000,0
33578.793,-20.996,-22.461,25.391,-23.438,0.000,0
33578.797,-29.297,-27.832,12.695,-24.414,0.000,0
33578.801,-17.090,-23.926,-59.570,-13.672,0.000,0
33578.805,-17.578,-20.996,-91.309,-10.742,0.000,0
33578.809,-27.344,-26.367,1.465,-29.297,0.000,0
33578.813,-28.320,-24.414,22.949,-43.945,0.000,0
33578.817,-21.484,-21.484,-60.547,-31.738,0.000,0
33578.821,-22.949,-16.602,-72.266,-24.414,0.000,0
33578.825,-23.926,-20.996,13.184,-35.645,0.000,0
33578.829,-28.809,-26.855,7.324,-33.203,0.000,0
33578.833,-27.832,-20.508,-71.777,-0.977,0.000,0
33578.836,-21.973,-14.160,-83.984,2.441,0.000,0
33578.840,-27.832,-19.531,5.859,-22.949,0.000,0
33578.844,-41.504,-21.484,25.391,-42.969,0.000,0
33578.848,-32.227,-20.020,-23.926,-28.809,0.000,0
33578.852,-23.438,-19.043,-86.914,-19.531,0.000,0
33578.856,-22.461,-22.461,-25.879,-32.715,0.000,0
33578.860,-32.227,-24.902,23.438,-45.410,0.000,0
33578.864,-20.996,-22.949,-15.625,-30.273,0.000,0
33578.868,-11.719,-21.484,-95.703,-14.160,0.000,0
33578.872,-15.137,-20.996,-54.199,-16.602,0.000,0
33578.876,-18.555,-17.578,33.691,-20.996,0.000,0
33578.879,-25.391,-19.043,11.230,-23.438,0.000,0
33578.883,-20.020,-20.996,-79.102,-15.625,0.000,0
33578.887,-15.625,-13.672,-78.613,-15.137,0.000,0
33578.891,-24.414,-15.625,8.789,-23.926,0.000,0
33578.895,-28.320,-20.508,16.602,-20.996,0.000,0
33578.899,-19.043,-19.531,-51.270,-4.883,0.000,0
33578.903,-21.973,-16.602,-89.844,-0.977,0.000,0
33578.907,-27.832,-19.043,0.977,-8.301,0.000,0
33578.911,-33.691,-25.391,35.645,-15.137,0.000,0
33578.915,-23.926,-24.414,-20.508,-3.418,0.000,0
33578.918,-24.414,-20.996,-85.449,-16.113,0.000,0
33578.922,-25.879,-27.832,-23.438,-27.344,0.000,0
33578.926,-32.227,-32.715,25.391,-38.574,0.000,0
33578.930,-22.461,-25.879,-11.719,-24.414,0.000,0
33578.934,-16.113,-24.414,-87.891,-10.742,0.000,0
33578.938,-15.137,-20.508,-54.688,-20.508,0.000,0
33578.942,-20.996,-17.090,29.297,-30.762,0.000,0
33578.946,-28.320,-18.066,13.184,-33.203,0.000,0
33578.950,-21.484,-14.160,-64.941,-13.672,0.000,0
33578.954,-28.320,-13.672,-49.805,-8.789,0.000,0
33578.958,-38.086,-20.508,23.926,-24.902,0.000,0
33578.961,-33.691,-19.043,16.602,-36.133,0.000,0
33578.965,-25.879,-15.137,-44.434,-21.484,0.000,0
33578.969,-30.273,-17.090,-87.891,-14.160,0.000,0
33578.973,-26.367,-22.461,0.977,-22.949,0.000,0
33578.977,-34.180,-32.715,34.180,-30.762,0.000,0
33578.981,-30.762,-34.180,-21.973,-23.438,0.000,0
33578.985,-28.320,-28.809,-90.820,-23.438,0.000,0
33578.989,-25.391,-27.344,-38.574,-24.902,0.000,0
33578.993,-28.320,-31.738,26.855,-32.715,0.000,0
33578.997,-23.438,-31.250,5.859,-38.086,0.000,0
33579.001,-19.043,-23.438,-79.590,-19.043,0.000,0
33579.004,-16.602,-25.879,-57.617,0.488,0.000,0
33579.008,-9.766,-28.320,31.250,-19.531,0.000,0
33579.012,-14.648,-24.902,18.066,-40.039,0.000,0
33579.016,-25.391,-25.391,-52.246,-23.438,0.000,0
33579.020,-22.461,-21.973,-82.520,-13.672,0.000,0
33579.024,-19.043,-23.438,1.953,-26.855,0.000,0
33579.028,-36.133,-26.855,21.973,-33.691,0.000,0
33579.032,-25.391,-25.879,-41.016,-7.324,0.000,0
33579.036,-13.184,-22.949,-87.891,-11.719,0.000,0
33579.040,-15.137,-23.438,-6.348,-22.461,0.000,0
33579.043,-31.250,-26.367,32.715,-25.879,0.000,0
33579.047,-35.645,-25.879,-20.020,-15.137,0.000,0
33579.051,-22.461,-25.879,-97.656,-8.301,0.000,0
33579.055,-14.160,-25.391,-45.898,-21.973,0.000,0
33579.059,-22.461,-21.973,32.227,-28.320,0.000,0
33579.063,-24.414,-25.879,1.953,-26.855,0.000,0
33579.067,-14.648,-28.809,-87.891,-14.648,0.000,0
33579.071,-9.766,-22.949,-68.359,-16.602,0.000,0
33579.075,-19.043,-20.996,28.320,-41.016,0.000,0
33579.079,-22.949,-20.020,15.625,-46.387,0.000,0
33579.083,-11.230,-20.508,-63.965,-15.625,0.000,0
33579.086,-10.254,-20.508,-87.402,0.000,0.000,1
33579.090,-10.254,-22.461,6.348,-22.949,0.000,0
33579.094,-15.137,-23.926,30.762,-37.109,0.000,0
33579.098,-18.555,-21.973,-27.344,-17.090,0.000,0
33579.102,-19.531,-20.020,-91.309,-13.184,0.000,0
33579.106,-12.207,-20.996,-20.996,-6.836,0.000,0
33579.110,-18.066,-23.926,26.367,-13.184,0.000,0
33579.114,-14.648,-28.320,-10.742,-20.996,0.000,0
33579.118,-7.324,-23.438,-89.355,0.977,0.000,0
33579.122,-8.789,-20.020,-49.316,-5.371,0.000,0
33579.126,-14.648,-26.855,34.668,-22.461,0.000,0
33579.129,-20.508,-29.297,8.301,-15.137,0.000,0
33579.133,-21.484,-21.484,-69.824,-14.160,0.000,0
33579.137,-17.090,-19.043,-69.336,-19.531,0.000,0
33579.141,-21.484,-24.902,12.207,-28.320,0.000,0
33579.145,-25.879,-26.367,14.648,-26.855,0.000,0
33579.149,-16.602,-26.367,-52.734,-4.883,0.000,0
33579.153,-14.648,-20.508,-78.613,-10.742,0.000,0
33579.157,-16.113,-23.926,7.324,-24.414,0.000,0
33579.161,-23.926,-29.297,27.344,-28.320,0.000,0
33579.165,-19.043,-26.855,-23.438,-19.043,0.000,0
33579.168,-16.602,-22.949,-88.867,-9.277,0.000,0
33579.172,-17.578,-22.461,-23.438,-21.973,0.000,0
33579.176,-33.203,-29.785,32.227,-42.480,0.000,0
33579.180,-30.273,-32.227,-15.137,-27.344,0.000,0
33579.184,-21.484,-22.461,-96.680,-6.836,0.000,0
33579.188,-29.297,-24.414,-66.406,-20.508,0.000,0
33579.192,-31.250,-30.273,17.578,-45.410,0.000,0
33579.196,-29.297,-28.809,8.301,-37.109,0.000,0
33579.200,-18.066,-23.438,-75.684,-14.160,0.000,0
33579.204,-12.207,-18.555,-85.449,-19.043,0.000,0
33579.208,-18.555,-24.902,7.812,-20.508,0.000,0
33579.211,-30.273,-28.809,20.996,-28.809,0.000,0
33579.215,-25.391,-28.320,-44.922,-25.879,0.000,0
33579.219,-17.578,-22.461,-93.262,-12.695,0.000,0
33579.223,-22.949,-20.020,-7.324,-19.531,0.000,0
33579.227,-31.738,-23.926,29.785,-31.250,0.000,0
33579.231,-20.996,-22.461,-24.902,-19.531,0.000,0
33579.235,-18.555,-17.578,-90.332,-7.812,0.000,0
33579.239,-10.254,-16.602,-31.250,-3.418,0.000,0
33579.243,-24.414,-23.438,22.461,-20.508,0.000,0
33579.247,-43.457,-22.949,-13.184,-22.949,0.000,0
33579.251,-36.133,-15.137,-83.008,-6.836,0.000,0
33579.254,-36.133,-18.555,-62.500,-31.250,0.000,0
33579.258,-34.668,-26.855,14.648,-41.016,0.000,0
33579.262,-35.645,-27.832,-5.371,-34.668,0.000,0
33579.266,-25.391,-24.414,-80.566,-20.996,0.000,0
33579.270,-11.230,-22.949,-89.844,-8.301,0.000,0
33579.274,-15.137,-27.832,1.465,-21.484,0.000,0
33579.278,-25.391,-30.273,18.555,-37.598,0.000,0
33579.282,-23.438,-27.344,-37.598,-20.508,0.000,0
33579.286,-19.531,-17.090,-83.984,-0.488,0.000,0
33579.290,-16.113,-16.602,-13.184,-17.578,0.000,0
33579.293,-34.180,-25.879,25.391,-42.480,0.000,0
33579.297,-28.809,-27.344,-19.531,-18.555,0.000,0
33579.301,-16.113,-25.879,-92.285,-3.906,0.000,0
33579.305,-13.672,-25.879,-46.387,-18.066,0.000,0
33579.309,-18.066,-30.273,23.926,-31.738,0.000,0
33579.313,-19.531,-29.297,3.906,-31.250,0.000,0
33579.317,-16.113,-22.949,-75.684,-19.043,0.000,0
33579.321,-15.625,-21.973,-69.824,-17.578,0.000,0
33579.325,-19.531,-23.438,19.043,-23.926,0.000,0
33579.329,-37.598,-24.902,17.578,-33.203,0.000,0
33579.333,-28.809,-23.438,-57.129,-19.043,0.000,0
33579.336,-12.695,-18.555,-91.309,-7.812,0.000,0
33579.340,-18.066,-19.531,-0.488,-24.902,0.000,0
33579.344,-29.785,-23.438,29.785,-37.598,0.000,0
33579.348,-12.695,-22.461,-25.391,-11.719,0.000,0
33579.352,-13.184,-20.020,-82.031,-15.137,0.000,0
33579.356,-24.902,-28.809,-20.020,-35.156,0.000,0
33579.360,-33.203,-34.668,32.227,-45.898,0.000,0
33579.364,-25.879,-26.367,-12.695,-26.367,0.000,0
33579.368,-16.113,-17.090,-92.285,-13.672,0.000,0
33579.372,-20.996,-23.438,-50.293,-31.738,0.000,0
33579.376,-29.297,-28.320,25.879,-41.504,0.000,0
33579.379,-29.297,-22.949,10.742,-35.645,0.000,0
33579.383,-18.555,-22.461,-78.613,-11.719,0.000,0
33579.387,-12.207,-20.996,-81.543,-12.207,0.000,0
33579.391,-20.020,-21.484,29.297,-32.227,0.000,0
33579.395,-26.855,-27.344,26.367,-20.996,0.000,0
33579.399,-18.555,-26.367,-56.152,-12.695,0.000,0
33579.403,-20.020,-20.996,-89.355,-23.438,0.000,0
33579.407,-16.602,-24.414,1.953,-30.273,0.000,0
33579.411,-12.695,-25.879,40.527,-40.039,0.000,0
33579.415,-5.371,-16.602,-14.648,-22.949,0.000,0
33579.418,-9.277,-14.160,-86.426,-18.555,0.000,0
33579.422,-10.254,-20.020,-24.902,-23.926,0.000,0
33579.426,-14.160,-22.949,32.227,-33.203,0.000,0
33579.430,-13.184,-24.902,-4.395,-38.086,0.000,0
33579.434,-13.184,-21.973,-82.520,-11.230,0.000,0
33579.438,-16.113,-20.020,-52.734,-7.812,0.000,0
33579.442,-13.672,-21.973,24.414,-34.180,0.000,0
33579.446,-16.113,-27.344,6.836,-34.180,0.000,0
33579.450,-16.113,-33.203,-67.871,-18.066,0.000,0
33579.454,-16.113,-26.367,-75.195,-10.254,0.000,0
33579.458,-22.461,-28.809,13.672,-12.695,0.000,0
33579.461,-36.133,-37.598,22.461,-17.578,0.000,0
33579.465,-29.297,-28.809,-43.945,-1.953,0.000,0
33579.469,-24.414,-23.926,-79.590,-5.859,0.000,0
33579.473,-33.203,-31.738,-5.371,-23.926,0.000,0
33579.477,-42.480,-35.156,26.855,-35.645,0.000,0
33579.481,-25.391,-29.785,-14.160,-21.484,0.000,0
33579.485,-15.137,-26.855,-93.262,-10.254,0.000,0
33579.489,-15.625,-26.367,-37.598,-24.902,0.000,0
33579.493,-23.926,-30.273,34.180,-37.109,0.000,0
33579.497,-29.297,-32.227,-1.953,-29.785,0.000,0
33579.501,-27.832,-24.902,-89.844,-14.648,0.000,0
33579.504,-26.855,-25.391,-74.707,-20.020,0.000,0
33579.508,-36.621,-30.762,17.578,-41.504,0.000,0
33579.512,-41.016,-31.250,7.324,-44.434,0.000,0
33579.516,-33.203,-34.668,-71.777,-25.879,0.000,0
33579.520,-29.297,-31.250,-84.473,-18.555,0.000,0
33579.524,-30.762,-27.832,5.859,-26.855,0.000,0
33579.528,-38.574,-32.715,26.855,-36.133,0.000,0
33579.532,-30.273,-31.738,-34.180,-21.973,0.000,0
33579.536,-30.273,-32.227,-101.074,-8.789,0.000,0
33579.540,-36.133,-35.645,-20.996,0.000,0.000,0
33579.543,-44.922,-37.109,32.715,-26.367,0.000,0
33579.547,-41.016,-38.086,-15.137,-41.992,0.000,0
33579.551,-35.156,-32.227,-88.867,-29.297,0.000,0
33579.555,-30.273,-28.320,-43.457,-31.738,0.000,0
33579.559,-37.598,-32.227,24.414,-44.922,0.000,0
33579.563,-37.109,-24.902,1.465,-32.227,0.000,0
33579.567,-23.926,-19.043,-70.312,-20.508,0.000,0
33579.571,-20.508,-24.414,-59.082,-19.043,0.000,0
33579.575,-22.949,-29.297,21.973,-23.926,0.000,0
33579.579,-34.668,-30.273,16.113,-30.762,0.000,0
33579.583,-32.227,-28.320,-55.664,-13.184,0.000,0
33579.586,-26.367,-29.785,-74.707,-10.742,0.000,0
33579.590,-31.738,-31.738,4.395,-33.691,0.000,0
33579.594,-41.016,-30.762,17.578,-50.293,0.000,0
33579.598,-27.344,-31.738,-34.180,-26.855,0.000,0
33579.602,-11.719,-31.738,-94.727,-5.371,0.000,0
33579.606,-7.812,-30.762,-23.438,-7.812,0.000,0
33579.610,-20.020,-31.250,31.250,-27.832,0.000,0
33579.614,-20.020,-29.297,-12.695,-9.277,0.000,0
33579.618,-12.695,-20.996,-86.426,7.812,0.000,0
33579.622,-18.555,-22.461,-57.129,-20.020,0.000,0
33579.626,-35.156,-31.250,23.926,-36.133,0.000,0
33579.629,-31.250,-29.785,13.672,-27.344,0.000,0
33579.633,-21.973,-20.996,-76.660,-14.648,0.000,0
33579.637,-22.461,-20.508,-79.102,-14.648,0.000,0
33579.641,-26.367,-21.973,13.184,-29.785,0.000,0
33579.645,-28.809,-19.531,25.391,-39.551,0.000,0
33579.649,-21.484,-21.973,-43.945,-20.996,0.000,0
33579.653,-29.785,-20.508,-92.773,-17.578,0.000,0
33579.657,-34.668,-22.461,-5.371,-34.180,0.000,0
33579.661,-34.668,-26.367,31.250,-40.527,0.000,0
33579.665,-21.973,-29.785,-28.320,-30.762,0.000,0
33579.668,-15.137,-26.367,-89.355,-30.273,0.000,0
33579.672,-18.066,-27.832,-32.715,-27.832,0.000,0
33579.676,-29.297,-38.086,19.531,-36.133,0.000,0
33579.680,-27.832,-36.621,-8.301,-28.809,0.000,0
33579.684,-18.066,-27.832,-87.402,1.953,0.000,0
33579.688,-18.066,-28.320,-58.105,0.000,0.000,0
33579.692,-26.855,-30.762,22.949,-42.969,0.000,0
33579.696,-27.344,-30.762,8.789,-55.664,0.000,0
33579.700,-16.602,-28.320,-70.312,-23.926,0.000,0
33579.704,-17.578,-25.879,-77.148,-12.207,0.000,0
33579.708,-24.902,-31.250,21.484,-34.180,0.000,0
33579.711,-35.645,-34.668,18.555,-48.340,0.000,0
33579.715,-21.973,-33.691,-60.547,-22.461,0.000,0
33579.719,-17.578,-30.273,-99.609,-12.207,0.000,0
33579.723,-25.879,-31.250,-10.254,-29.297,0.000,0
33579.727,-33.691,-34.668,29.297,-47.363,0.000,0
33579.731,-26.855,-35.645,-22.461,-38.574,0.000,0
33579.735,-22.461,-33.691,-91.309,-24.902,0.000,0
33579.739,-24.902,-34.180,-43.945,-35.645,0.000,0
33579.743,-34.180,-39.062,23.926,-45.410,0.000,2
33579.747,-29.785,-39.551,-0.488,-32.715,0.000,0
33579.751,-17.090,-33.203,-89.844,-10.254,0.000,0
33579.754,-20.996,-33.203,-78.613,-8.789,0.000,0
33579.758,-22.949,-36.133,13.184,-16.602,0.000,0
33579.762,-24.414,-32.227,15.625,-23.926,0.000,0
33579.766,-25.391,-27.344,-54.688,-12.207,0.000,0
33579.770,-25.391,-28.809,-84.473,-14.160,0.000,0
33579.774,-26.367,-28.809,4.395,-36.133,0.000,0
33579.778,-24.902,-25.391,20.996,-37.598,0.000,0
33579.782,-20.020,-26.855,-39.551,-25.391,0.000,0
33579.786,-20.020,-24.902,-89.355,-30.273,0.000,0
33579.790,-13.184,-23.926,-13.672,-22.461,0.000,0
33579.793,-22.949,-25.391,36.133,-24.414,0.000,0
33579.797,-30.273,-24.902,-10.742,-25.391,0.000,0
33579.801,-22.949,-23.926,-95.215,-17.090,0.000,0
33579.805,-19.043,-23.926,-50.781,-24.414,0.000,0
33579.809,-35.645,-28.320,27.832,-40.039,0.000,0
33579.813,-41.992,-32.227,5.371,-35.645,0.000,0
33579.817,-27.344,-29.785,-86.914,-14.160,0.000,0
33579.821,-17.090,-25.391,-75.195,-10.254,0.000,0
33579.825,-20.996,-27.832,21.484,-32.227,0.000,0
33579.829,-21.973,-31.250,11.230,-32.227,0.000,0
33579.833,-8.789,-27.344,-66.895,-1.465,0.000,0
33579.836,-8.301,-25.879,-99.609,0.000,0.000,0
33579.840,-11.230,-27.832,4.883,-20.020,0.000,0
33579.844,-23.926,-36.621,18.555,-35.156,0.000,0
33579.848,-20.996,-34.668,-86.914,-30.273,0.000,0
33579.852,-17.578,-25.391,-80.566,-19.043,0.000,0
33579.856,-27.832,-26.855,7.812,-27.344,0.000,0
33579.860,-23.438,-27.344,16.602,-26.855,0.000,0
33579.864,-16.113,-23.438,-44.922,-12.695,0.000,0
33579.868,-14.160,-15.625,-83.008,-14.160,0.000,0
33579.872,-11.719,-17.090,6.348,-25.879,0.000,0
33579.876,-22.949,-22.461,32.227,-30.762,0.000,0
33579.879,-20.020,-22.949,-33.203,-11.230,0.000,0
33579.883,-17.578,-19.043,-88.867,-4.883,0.000,0
33579.887,-17.090,-18.066,-23.438,-14.648,0.000,0
33579.891,-19.043,-21.484,29.785,-20.020,0.000,0
33579.895,-20.020,-21.973,-12.695,-13.672,0.000,0
33579.899,-21.973,-19.043,-89.355,-3.906,0.000,0
33579.903,-19.531,-21.484,-53.223,-15.625,0.000,0
33579.907,-16.602,-25.391,27.344,-23.438,0.000,0
33579.911,-21.973,-23.438,19.043,-22.461,0.000,0
33579.915,-20.020,-20.996,-61.523,-14.648,0.000,0
33579.918,-20.020,-21.973,-77.148,-22.461,0.000,0
33579.922,-20.996,-24.414,22.949,-42.969,0.000,0
33579.926,-22.949,-18.066,37.598,-46.387,0.000,0
33579.930,-10.254,-13.672,-39.551,-25.879,0.000,0
33579.934,-6.348,-16.113,-94.727,-20.508,0.000,0
33579.938,-12.695,-18.555,-13.672,-32.227,0.000,0
33579.942,-22.949,-20.020,30.273,-43.945,0.000,0
33579.946,-19.531,-21.484,-27.832,-35.645,0.000,0
33579.950,-18.066,-21.973,-104.492,-26.367,0.000,0
33579.954,-24.414,-20.996,-37.109,-28.320,0.000,0
33579.958,-33.203,-27.344,26.855,-38.574,0.000,0
33579.961,-29.785,-36.133,-5.859,-31.250,0.000,0
33579.965,-16.113,-29.785,-82.520,-13.672,0.000,0
33579.969,-8.789,-26.367,-62.012,-18.066,0.000,0
33579.973,-23.438,-36.621,24.902,-33.691,0.000,0
33579.977,-30.273,-41.016,11.719,-25.391,0.000,0
33579.981,-23.926,-37.598,-67.871,-12.695,0.000,0
33579.985,-28.320,-31.738,-82.520,-25.879,0.000,0
33579.989,-31.738,-29.297,7.324,-31.738,0.000,0
33579.993,-34.668,-28.809,23.438,-32.715,0.000,0
33579.997,-26.367,-29.297,-44.922,-19.043,0.000,0
33580.001,-20.996,-21.484,-88.867,-7.812,0.000,0
33580.004,-18.555,-21.484,-10.254,-7.812,0.000,0
33580.008,-20.508,-26.855,24.902,-26.855,0.000,0
33580.012,-15.137,-27.832,-22.461,-27.832,0.000,0
33580.016,-8.789,-23.438,-93.750,-13.184,0.000,0
33580.020,-9.766,-22.461,-35.645,-21.484,0.000,0
33580.024,-23.926,-26.367,33.203,-45.410,0.000,0
33580.028,-29.297,-24.902,-0.488,-41.016,0.000,0
33580.032,-21.973,-23.438,-78.613,-12.695,0.000,0
33580.036,-18.066,-24.414,-68.359,-6.836,0.000,0
33580.040,-23.438,-31.738,20.508,-31.738,0.000,0
33580.043,-28.809,-33.691,22.949,-41.016,0.000,0
33580.047,-21.484,-26.855,-55.664,-20.020,0.000,0
33580.051,-20.996,-23.926,-89.844,-14.648,0.000,0
33580.055,-22.949,-26.855,-1.465,-20.996,0.000,0
33580.059,-31.738,-35.156,24.902,-41.992,0.000,0
33580.063,-26.367,-33.203,-37.598,-26.855,0.000,0
33580.067,-18.066,-20.996,-94.727,1.465,0.000,0
33580.071,-11.230,-20.996,-21.484,-5.859,0.000,0
33580.075,-20.508,-25.879,40.039,-29.785,0.000,0
33580.079,-18.066,-30.762,-31.250,-17.090,0.000,0
33580.083,-6.348,-30.762,-88.379,-11.719,0.000,0
33580.086,-15.137,-31.250,-5.371,-36.133,0.000,0
33580.090,-28.320,-36.133,26.367,-34.180,0.000,0
33580.094,-21.484,-38.086,-31.738,-13.184,0.000,0
33580.098,-14.648,-36.133,-93.750,-9.766,0.000,0
33580.102,-7.812,-28.809,-20.508,-14.160,0.000,0
33580.106,-13.184,-27.832,39.062,-22.949,0.000,0
33580.110,-14.648,-32.227,-1.953,-18.555,0.000,0
33580.114,-15.137,-30.273,-82.520,-10.742,0.000,0
33580.118,-14.160,-26.855,-45.898,-17.090,0.000,0
33580.122,-21.973,-28.809,30.273,-27.344,0.000,0
33580.126,-32.227,-30.762,11.230,-36.133,0.000,0
33580.129,-21.973,-27.344,-76.172,-19.043,0.000,0
33580.133,-15.137,-25.391,-85.449,-11.719,0.000,0
33580.137,-22.461,-26.367,23.438,-23.438,0.000,0
33580.141,-21.484,-28.809,28.809,-21.484,0.000,0
33580.145,-8.789,-27.344,-40.527,-7.812,0.000,0
33580.149,-8.789,-21.484,-69.336,3.906,0.000,0
33580.153,-12.207,-23.438,7.812,-7.812,0.000,0
33580.157,-18.555,-27.344,34.668,-39.062,0.000,0
33580.161,-12.695,-22.461,-14.160,-28.809,0.000,0
33580.165,-15.625,-20.996,-89.355,-13.184,0.000,0
33580.168,-19.531,-24.902,-35.156,-19.043,0.000,0
33580.172,-25.391,-24.902,33.691,-31.738,0.000,0
33580.176,-19.043,-23.438,-1.465,-28.809,0.000,0
33580.180,-10.254,-20.996,-83.496,-14.160,0.000,0
33580.184,-18.066,-17.090,-61.523,-21.973,0.000,0
33580.188,-23.926,-25.879,19.043,-36.621,0.000,0
33580.192,-27.832,-31.250,10.742,-29.297,0.000,0
33580.196,-21.484,-29.785,-62.012,-13.184,0.000,0
33580.200,-9.766,-24.414,-69.824,-7.812,0.000,0
33580.204,-11.230,-26.855,13.672,-13.184,0.000,0
33580.208,-18.066,-28.320,20.508,-10.742,0.000,0
33580.211,-9.277,-20.508,-40.527,9.277,0.000,0
33580.215,-7.324,-19.531,-82.520,-7.324,0.000,0
33580.219,-10.742,-23.926,-4.883,-23.926,0.000,0
33580.223,-27.832,-25.391,29.785,-38.574,0.000,0
33580.227,-27.344,-23.926,-12.695,-32.715,0.000,0
33580.231,-24.902,-23.926,-96.680,-13.184,0.000,0
33580.235,-29.785,-25.879,-44.434,-20.508,0.000,0
33580.239,-37.598,-26.367,29.297,-39.551,0.000,0
33580.243,-32.227,-23.926,-5.371,-31.250,0.000,0
33580.247,-20.996,-19.531,-83.984,-13.184,0.000,0
33580.251,-18.066,-18.066,-67.871,-14.160,0.000,0
33580.254,-29.297,-25.879,22.461,-31.738,0.000,0
33580.258,-36.621,-26.855,15.137,-37.109,0.000,0
33580.262,-22.461,-20.020,-63.477,-11.719,0.000,0
33580.266,-24.414,-21.973,-87.402,-10.254,0.000,0
33580.270,-30.273,-26.367,2.441,-20.508,0.000,0
33580.274,-33.691,-24.414,28.320,-29.785,0.000,0
33580.278,-18.066,-20.020,-21.973,-22.461,0.000,0
33580.282,-8.789,-15.137,-86.914,-5.371,0.000,0
33580.286,-8.789,-15.625,-20.996,-13.184,0.000,0
33580.290,-21.484,-21.484,31.250,-38.574,0.000,0
33580.293,-25.391,-24.414,-5.859,-28.809,0.000,0
33580.297,-19.531,-18.066,-77.148,-9.766,0.000,0
33580.301,-27.344,-19.531,-43.457,-23.926,0.000,0
33580.305,-32.715,-27.344,23.438,-43.457,0.000,0
33580.309,-25.879,-28.320,-3.906,-35.156,0.000,0
33580.313,-21.973,-21.484,-76.660,-16.113,0.000,0
33580.317,-25.391,-19.043,-67.383,-17.578,0.000,0
33580.321,-25.879,-28.320,13.672,-27.344,0.000,0
33580.325,-29.785,-32.715,12.695,-34.668,0.000,0
33580.329,-24.902,-29.297,-57.129,-21.484,0.000,0
33580.333,-19.531,-23.926,-87.891,-21.973,0.000,0
33580.336,-19.043,-21.973,6.836,-38.086,0.000,0
33580.340,-23.926,-27.344,32.715,-35.645,0.000,0
33580.344,-16.113,-26.367,-23.438,-13.184,0.000,0
33580.348,-20.508,-23.438,-85.449,-10.742,0.000,0
33580.352,-24.414,-24.414,-22.949,-22.461,0.000,0
33580.356,-33.691,-25.879,38.086,-34.668,0.000,0
33580.360,-33.203,-25.879,-2.930,-29.785,0.000,0
33580.364,-22.949,-22.461,-86.426,-17.578,0.000,0
33580.368,-26.367,-21.484,-54.688,-19.043,0.000,0
33580.372,-31.738,-27.832,22.461,-32.227,0.000,0
33580.376,-32.715,-30.273,14.648,-36.621,0.000,0
33580.379,-27.832,-23.438,-62.500,-22.461,0.000,0
33580.383,-24.414,-24.902,-78.613,-18.066,0.000,0
33580.387,-21.484,-30.273,7.812,-27.344,0.000,0
33580.391,-27.832,-30.273,26.367,-34.668,0.000,0
33580.395,-21.484,-29.785,-37.109,-24.414,0.000,0
33580.399,-22.949,-27.832,-94.238,-18.555,0.000,1
33580.403,-24.414,-28.320,-5.371,-20.020,0.000,0
33580.407,-35.645,-31.250,36.133,-29.297,0.000,0
33580.411,-31.250,-27.344,-21.973,-17.090,0.000,0
33580.415,-26.367,-29.785,-88.867,-17.090,0.000,0
33580.418,-25.879,-28.320,-32.715,-26.367,0.000,0
33580.422,-30.762,-23.438,27.832,-30.762,0.000,0
33580.426,-25.391,-26.855,-10.254,-21.973,0.000,0
33580.430,-12.695,-26.367,-92.285,1.953,0.000,0
33580.434,-16.602,-24.902,-59.570,0.488,0.000,0
33580.438,-26.367,-33.203,21.484,-35.645,0.000,0
33580.442,-33.691,-34.668,5.859,-51.270,0.000,0
33580.446,-26.367,-28.809,-72.754,-19.531,0.000,0
33580.450,-30.273,-28.320,-85.449,-18.066,0.000,0
33580.454,-45.410,-31.738,6.348,-48.828,0.000,0
33580.458,-43.945,-36.133,-7.812,-43.945,0.000,0
33580.461,-29.297,-30.762,-90.332,-23.438,0.000,0
33580.465,-29.785,-24.414,-53.711,-25.391,0.000,0
33580.469,-35.645,-30.273,25.879,-48.340,0.000,0
33580.473,-34.180,-33.691,14.648,-45.410,0.000,0
33580.477,-26.367,-25.879,-53.223,-17.578,0.000,0
33580.481,-20.996,-16.602,-75.684,-22.461,0.000,0
33580.485,-26.367,-20.996,-3.906,-36.621,0.000,0
33580.489,-33.203,-27.832,15.625,-49.316,0.000,0
33580.493,-23.926,-26.367,-41.016,-36.133,0.000,0
33580.497,-18.555,-19.531,-102.539,-24.902,0.000,0
33580.501,-21.973,-23.438,-25.391,-26.367,0.000,0
33580.504,-34.668,-26.855,21.484,-29.297,0.000,0
33580.508,-29.297,-26.855,-26.855,-26.855,0.000,0
33580.512,-20.508,-23.438,-97.168,-23.438,0.000,0
33580.516,-19.531,-21.973,-54.688,-28.809,0.000,0
33580.520,-19.531,-29.297,17.578,-28.320,0.000,0
33580.524,-13.184,-25.879,-1.953,-15.625,0.000,0
33580.528,-13.184,-21.484,-78.125,-9.766,0.000,0
33580.532,-19.043,-22.949,-62.988,-15.625,0.000,0
33580.536,-26.367,-26.367,22.461,-26.855,0.000,0
33580.540,-28.809,-25.391,19.043,-34.668,0.000,0
33580.543,-18.066,-22.949,-54.199,-13.184,0.000,0
33580.547,-17.090,-22.461,-85.449,-5.859,0.000,0
33580.551,-18.555,-23.438,4.883,-32.715,0.000,0
33580.555,-30.273,-27.344,28.809,-40.527,0.000,0
33580.559,-27.344,-27.344,-38.086,-17.578,0.000,0
33580.563,-23.926,-21.973,-103.516,-14.648,0.000,0
33580.567,-28.809,-26.367,-28.809,-23.438,0.000,0
33580.571,-39.551,-31.738,30.762,-36.621,0.000,0
33580.575,-37.598,-29.785,-22.461,-25.879,0.000,0
33580.579,-33.203,-31.250,-93.262,-6.836,0.000,0
33580.583,-31.738,-31.738,-42.969,-10.742,0.000,0
33580.586,-39.062,-31.250,16.113,-30.762,0.000,0
33580.590,-40.527,-35.645,-2.930,-41.016,0.000,0
33580.594,-26.855,-31.250,-74.707,-20.996,0.000,0
33580.598,-30.762,-23.926,-78.125,-7.324,0.000,0
33580.602,-41.016,-28.320,11.719,-24.902,0.000,0
33580.606,-43.457,-32.227,14.160,-41.016,0.000,0
33580.610,-26.367,-26.855,-52.734,-20.020,0.000,0
33580.614,-21.484,-21.484,-90.332,-24.414,0.000,0
33580.618,-19.531,-20.020,-2.930,-40.039,0.000,0
33580.622,-27.832,-23.438,31.250,-41.504,0.000,0
33580.626,-31.738,-21.973,-28.320,-26.855,0.000,0
33580.629,-20.996,-13.184,-91.797,-9.766,0.000,0
33580.633,-13.672,-16.602,-27.832,-11.230,0.000,0
33580.637,-20.996,-20.996,30.762,-26.367,0.000,0
33580.641,-19.531,-16.602,0.488,-16.602,0.000,0
33580.645,-13.672,-11.230,-75.684,10.742,0.000,0
33580.649,-14.160,-14.160,-43.457,0.488,0.000,0
33580.653,-23.438,-22.461,36.133,-37.598,0.000,0
33580.657,-30.762,-25.879,11.719,-39.551,0.000,0
33580.661,-18.555,-26.367,-62.500,-10.742,0.000,0
33580.665,-11.719,-22.949,-72.266,-11.719,0.000,0
33580.668,-22.461,-28.320,23.438,-30.273,0.000,0
33580.672,-30.273,-26.855,39.551,-31.738,0.000,0
33580.676,-21.973,-24.902,-37.109,-19.531,0.000,0
33580.680,-23.438,-25.391,-96.680,-26.855,0.000,0
33580.684,-28.320,-25.879,-11.230,-40.039,0.000,0
33580.688,-33.691,-30.762,32.227,-39.062,0.000,0
33580.692,-30.762,-26.855,-23.438,-32.227,0.000,0
33580.696,-30.762,-19.043,-98.633,-35.156,0.000,0
33580.700,-24.414,-15.137,-37.598,-34.180,0.000,0
33580.704,-30.762,-16.113,36.621,-30.273,0.000,0
33580.708,-36.133,-21.973,9.766,-26.855,0.000,0
33580.711,-33.203,-24.414,-74.219,-23.926,0.000,0
33580.715,-26.855,-25.391,-66.406,-18.066,0.000,0
33580.719,-28.809,-25.879,22.949,-32.227,0.000,0
33580.723,-40.039,-25.879,11.719,-43.945,0.000,0
33580.727,-29.297,-26.367,-62.500,-20.996,0.000,0
33580.731,-22.949,-21.973,-79.590,-7.324,0.000,0
33580.735,-26.855,-20.508,10.254,-25.879,0.000,0
33580.739,-35.156,-26.367,26.367,-43.945,0.000,0
33580.743,-28.320,-27.344,-48.340,-23.438,0.000,0
33580.747,-22.461,-23.438,-99.609,-14.648,0.000,0
33580.751,-27.832,-27.344,-13.184,-34.668,0.000,0
33580.754,-34.668,-33.203,29.297,-49.316,0.000,0
33580.758,-22.949,-32.227,-19.043,-30.273,0.000,0
33580.762,-19.531,-25.391,-91.797,-9.766,0.000,0
33580.766,-18.555,-24.902,-37.598,-23.438,0.000,0
33580.770,-21.973,-27.344,37.109,-37.109,0.000,0
33580.774,-23.438,-27.344,0.000,-24.414,0.000,0
33580.778,-8.789,-24.902,-83.008,-4.883,0.000,0
33580.782,-9.766,-25.391,-75.684,-4.395,0.000,0
33580.786,-17.578,-28.809,25.391,-27.832,0.000,0
33580.790,-15.625,-24.414,1.465,-22.949,0.000,0
33580.793,-19.043,-21.484,-87.402,-8.301,0.000,0
33580.797,-24.414,-24.902,-52.734,-8.789,0.000,0
33580.801,-32.715,-26.855,19.043,-18.555,0.000,0
33580.805,-31.738,-32.227,7.812,-23.926,0.000,0
33580.809,-25.391,-25.391,-72.754,-0.488,0.000,0
33580.813,-22.949,-18.555,-75.195,2.441,0.000,0
33580.817,-24.902,-22.949,13.672,-19.043,0.000,0
33580.821,-32.715,-24.902,14.160,-36.621,0.000,0
33580.825,-32.715,-27.344,-53.711,-31.738,0.000,0
33580.829,-24.414,-20.020,-86.914,-20.996,0.000,0
33580.833,-23.926,-20.996,-2.930,-18.066,0.000,0
33580.836,-41.016,-31.738,24.414,-32.715,0.000,0
33580.840,-35.645,-34.668,-33.691,-28.809,0.000,0
33580.844,-24.902,-32.227,-98.633,-25.391,0.000,0
33580.848,-30.273,-37.598,-35.645,-40.527,0.000,0
33580.852,-38.574,-36.621,27.832,-52.246,0.000,0
33580.856,-27.344,-29.785,-2.441,-41.016,0.000,0
33580.860,-20.020,-28.809,-91.309,-12.695,0.000,0
33580.864,-25.879,-30.273,-63.477,-17.578,0.000,0
33580.868,-30.762,-32.715,22.949,-46.387,0.000,0
33580.872,-27.344,-31.250,7.324,-39.062,0.000,0
33580.876,-20.508,-23.926,-78.613,-17.090,0.000,0
33580.879,-20.996,-21.973,-85.938,-13.672,0.000,0
33580.883,-30.273,-30.273,19.531,-27.832,0.000,0
33580.887,-35.645,-32.227,27.832,-46.875,0.000,0
33580.891,-22.949,-27.344,-42.969,-37.109,0.000,0
33580.895,-21.973,-26.855,-89.355,-22.949,0.000,0
33580.899,-23.438,-29.297,-11.230,-23.438,0.000,0
33580.903,-27.832,-32.227,26.367,-40.039,0.000,0
33580.907,-17.090,-30.762,-22.949,-22.461,0.000,0
33580.911,-14.160,-24.414,-97.168,-2.441,0.000,0
33580.915,-18.555,-20.508,-33.203,-12.695,0.000,0
33580.918,-25.879,-23.926,39.062,-29.785,0.000,0
33580.922,-28.320,-27.344,-12.695,-23.926,0.000,0
33580.926,-22.461,-27.344,-94.238,-18.555,0.000,0
33580.930,-23.926,-28.320,-70.801,-20.020,0.000,0
33580.934,-27.832,-35.156,6.836,-25.879,0.000,0
33580.938,-32.227,-36.133,0.488,-34.180,0.000,0
33580.942,-22.949,-33.691,-63.965,-12.207,0.000,0
33580.946,-23.438,-30.762,-73.730,-16.602,0.000,0
33580.950,-34.668,-29.785,5.859,-40.039,0.000,0
33580.954,-33.691,-31.250,16.113,-40.527,0.000,0
33580.958,-21.973,-33.203,-38.086,-18.555,0.000,0
33580.961,-18.066,-26.855,-85.938,-11.230,0.000,0
33580.965,-18.555,-25.391,-6.348,-25.879,0.000,0
33580.969,-33.203,-33.203,31.250,-37.598,0.000,0
33580.973,-25.879,-26.367,-12.207,-20.020,0.000,0
33580.977,-17.090,-20.508,-84.961,-5.859,0.000,0
33580.981,-19.531,-27.344,-41.016,-15.137,0.000,0
33580.985,-28.320,-33.691,28.320,-32.715,0.000,0
33580.989,-24.414,-28.809,4.395,-33.691,0.000,0
33580.993,-15.625,-25.879,-69.336,-17.578,0.000,0
33580.997,-14.648,-26.855,-65.918,-10.742,0.000,0
33581.001,-17.090,-23.926,24.902,-28.809,0.000,0
33581.004,-19.531,-24.414,28.809,-33.691,0.000,0
33581.008,-15.625,-25.879,-62.500,-18.555,0.000,0
33581.012,-18.555,-29.297,-100.098,-18.066,0.000,0
33581.016,-17.578,-33.691,-2.930,-16.113,0.000,0
33581.020,-24.414,-32.227,30.273,-25.391,0.000,0
33581.024,-13.184,-31.250,-22.461,-20.020,0.000,0
33581.028,-5.371,-26.855,-89.355,-2.441,0.000,0
33581.032,-14.648,-27.832,-17.090,-13.672,0.000,0
33581.036,-27.344,-32.715,33.203,-29.297,0.000,0
33581.040,-24.902,-29.785,-12.207,-17.090,0.000,0
33581.043,-20.996,-26.367,-82.031,-14.648,0.000,0
33581.047,-25.879,-24.414,-43.457,-20.020,0.000,0
33581.051,-34.668,-26.855,29.297,-32.227,0.000,0
33581.055,-30.762,-31.738,5.371,-35.156,0.000,0
33581.059,-19.531,-33.203,-70.312,-16.602,0.000,0
33581.063,-20.020,-28.320,-28.809,-28.320,0.000,0
33581.067,-34.180,-27.344,32.715,-50.781,0.000,0
33581.071,-29.297,-23.438,-14.160,-37.109,0.000,0
33581.075,-19.043,-13.184,-81.543,-5.859,0.000,0
33581.079,-22.461,-15.625,-34.668,-9.277,0.000,0
33581.083,-32.715,-26.367,39.551,-28.320,0.000,0
33581.086,-33.203,-26.855,15.137,-26.855,0.000,0
33581.090,-25.391,-23.926,-57.129,-25.391,0.000,1
33581.094,-26.367,-18.555,-61.523,-18.555,0.000,0
33581.098,-32.227,-21.484,19.531,-27.832,0.000,0
33581.102,-41.016,-26.367,28.320,-40.039,0.000,0
33581.106,-34.180,-23.926,-39.062,-20.996,0.000,0
33581.110,-33.203,-22.461,-85.449,-18.555,0.000,0
33581.114,-36.133,-27.832,-4.395,-26.855,0.000,0
33581.118,-42.969,-32.715,31.738,-34.180,0.000,0
33581.122,-34.180,-26.367,-13.184,-11.230,0.000,0
33581.126,-25.391,-20.020,-85.938,2.441,0.000,0
33581.129,-30.762,-21.973,-30.762,-22.949,0.000,0
33581.133,-41.992,-24.902,38.574,-39.062,0.000,0
33581.137,-40.527,-25.391,4.883,-30.273,0.000,0
33581.141,-29.785,-20.996,-80.078,-23.438,0.000,0
33581.145,-21.484,-16.113,-60.547,-23.438,0.000,0
33581.149,-25.879,-21.973,20.508,-28.809,0.000,0
33581.153,-30.273,-25.391,10.254,-20.996,0.000,0
33581.157,-21.484,-20.020,-61.523,-10.742,0.000,0
33581.161,-22.949,-18.066,-78.613,-19.043,0.000,0
33581.165,-26.855,-21.484,11.719,-25.391,0.000,0
33581.168,-25.391,-21.484,24.902,-31.250,0.000,0
33581.172,-12.207,-19.043,-47.363,-8.789,0.000,0
33581.176,-11.719,-16.602,-97.168,6.836,0.000,0
33581.180,-17.090,-22.949,-11.719,-9.766,0.000,0
33581.184,-27.344,-27.832,33.203,-25.879,0.000,0
33581.188,-23.438,-24.902,-24.414,-21.973,0.000,0
33581.192,-21.973,-20.996,-97.168,-22.461,0.000,0
33581.196,-19.043,-23.926,-36.133,-28.320,0.000,0
33581.200,-22.949,-29.785,25.879,-39.062,0.000,0
33581.204,-23.438,-30.273,0.488,-26.367,0.000,0
33581.208,-17.578,-26.367,-69.336,-1.953,0.000,0
33581.211,-23.926,-25.879,-57.617,-7.812,0.000,0
33581.215,-27.344,-27.344,20.996,-27.344,0.000,0
33581.219,-28.320,-26.367,13.672,-33.691,0.000,0
33581.223,-22.461,-22.949,-57.617,-7.812,0.000,0
33581.227,-20.020,-22.949,-90.332,-6.836,0.000,0
33581.231,-22.949,-21.484,-2.441,-20.020,0.000,0
33581.235,-26.367,-20.996,22.461,-27.832,0.000,0
33581.239,-22.949,-24.902,-40.527,-31.738,0.000,0
33581.243,-24.414,-21.973,-97.168,-29.297,0.000,0
33581.247,-28.320,-24.902,-25.879,-34.668,0.000,0
33581.251,-37.109,-27.832,21.973,-37.598,0.000,0
33581.254,-23.926,-20.996,-16.602,-18.066,0.000,0
33581.258,-17.090,-14.160,-79.102,-8.789,0.000,0
33581.262,-18.555,-21.973,-34.668,-15.625,0.000,0
33581.266,-29.785,-31.738,33.691,-31.250,0.000,0
33581.270,-25.879,-29.785,7.812,-27.832,0.000,0
33581.274,-12.207,-25.391,-70.801,-2.930,0.000,0
33581.278,-21.973,-25.391,-70.312,-18.555,0.000,0
33581.282,-29.297,-30.762,16.602,-33.691,0.000,0
33581.286,-29.297,-28.320,26.855,-20.508,0.000,0
33581.290,-20.508,-25.879,-51.758,8.301,0.000,0
33581.293,-16.602,-26.855,-79.102,-1.465,0.000,0
33581.297,-20.508,-27.832,23.926,-35.645,0.000,0
33581.301,-21.973,-24.414,41.992,-29.297,0.000,0
33581.305,-6.836,-16.602,-24.414,-3.906,0.000,0
33581.309,1.953,-14.160,-99.121,6.836,0.000,0
33581.313,-0.977,-16.602,-26.855,-1.953,0.000,0
33581.317,-22.949,-25.391,40.527,-36.133,0.000,0
33581.321,-23.926,-28.809,-1.953,-35.645,0.000,0
33581.325,-16.113,-25.391,-84.473,-14.160,0.000,0
33581.329,-20.996,-27.832,-49.316,-23.926,0.000,0
33581.333,-24.902,-30.273,26.855,-40.039,0.000,0
33581.336,-21.973,-29.297,8.301,-40.039,0.000,0
33581.340,-16.113,-28.809,-68.359,-29.297,0.000,0
33581.344,-17.578,-30.762,-79.102,-26.367,0.000,0
33581.348,-29.785,-33.203,10.742,-40.039,0.000,0
33581.352,-34.180,-31.250,18.066,-42.969,0.000,0
33581.356,-24.414,-29.297,-50.781,-28.320,0.000,0
33581.360,-24.902,-25.391,-95.215,-25.879,0.000,0
33581.364,-20.020,-18.066,-11.719,-22.461,0.000,0
33581.368,-24.902,-23.438,22.461,-35.156,0.000,0
33581.372,-28.320,-29.297,-35.156,-35.156,0.000,0
33581.376,-25.391,-25.879,-96.680,-28.809,0.000,0
33581.379,-27.344,-22.461,-28.320,-35.156,0.000,0
33581.383,-32.227,-24.902,30.762,-47.852,0.000,0
33581.387,-30.273,-24.902,-4.395,-34.180,0.000,0
33581.391,-24.902,-21.484,-86.426,-1.953,0.000,0
33581.395,-14.648,-19.531,-58.594,-6.836,0.000,0
33581.399,-15.137,-20.508,29.785,-20.508,0.000,0
33581.403,-23.926,-21.484,9.766,-23.438,0.000,0
33581.407,-19.531,-23.438,-56.641,-19.531,0.000,0
33581.411,-21.484,-25.879,-68.359,-9.766,0.000,0
33581.415,-24.414,-21.973,8.301,-13.672,0.000,0
33581.418,-25.391,-20.508,16.602,-31.250,0.000,0
33581.422,-15.137,-22.949,-52.246,-20.020,0.000,0
33581.426,-12.207,-20.508,-105.957,-9.766,0.000,0
33581.430,-13.672,-23.926,-19.043,-15.137,0.000,0
33581.434,-15.625,-27.344,32.227,-26.367,0.000,0
33581.438,-15.137,-23.926,-60.547,-8.789,0.000,0
33581.442,-17.578,-25.391,-87.402,-1.953,0.000,0
33581.446,-20.020,-30.762,4.395,-28.320,0.000,0
33581.450,-25.391,-30.762,35.645,-37.109,0.000,0
33581.454,-16.602,-26.855,-27.344,-19.531,0.000,0
33581.458,-13.672,-22.949,-90.820,-18.066,0.000,0
33581.461,-11.230,-22.949,-5.859,-20.508,0.000,0
33581.465,-21.973,-25.879,36.133,-23.926,0.000,0
33581.469,-20.508,-25.879,-18.066,-19.531,0.000,0
33581.473,-12.695,-23.438,-87.402,-13.184,0.000,0
33581.477,-20.020,-27.344,-44.922,-17.578,0.000,0
33581.481,-29.785,-30.762,19.531,-31.738,0.000,0
33581.485,-30.273,-23.438,0.488,-17.578,0.000,0
33581.489,-26.855,-22.461,-88.379,-8.301,0.000,0
33581.493,-26.367,-26.855,-77.148,-40.039,0.000,0
33581.497,-35.156,-26.367,18.066,-52.246,0.000,0
33581.501,-34.668,-26.855,6.348,-35.645,0.000,0
33581.504,-18.066,-24.414,-60.547,-11.719,0.000,0
33581.508,-20.020,-20.020,-83.984,-10.742,0.000,0
33581.512,-29.297,-23.926,0.977,-28.320,0.000,0
33581.516,-34.668,-26.855,23.438,-38.086,0.000,0
33581.520,-28.809,-23.926,-35.645,-21.484,0.000,0
33581.524,-29.785,-24.902,-94.727,-14.160,0.000,0
33581.528,-28.320,-24.902,-28.320,-15.625,0.000,0
33581.532,-34.668,-26.855,22.949,-34.180,0.000,0
33581.536,-31.738,-26.855,-11.230,-34.180,0.000,0
33581.540,-23.926,-24.414,-89.355,-11.719,0.000,0
33581.543,-22.949,-24.902,-54.688,-18.555,0.000,0
33581.547,-29.297,-25.879,25.391,-26.855,0.000,0
33581.551,-24.902,-26.367,10.254,-21.973,0.000,0
33581.555,-18.555,-21.973,-70.801,-23.926,0.000,0
33581.559,-17.090,-20.508,-76.172,-29.297,0.000,0
33581.563,-20.020,-28.320,14.648,-35.156,0.000,0
33581.567,-24.414,-29.297,19.531,-27.344,0.000,0
33581.571,-17.090,-24.414,-50.293,-11.719,0.000,0
33581.575,-14.648,-23.926,-88.379,-15.625,0.000,0
33581.579,-21.973,-28.320,-4.883,-21.484,0.000,0
33581.583,-34.668,-30.762,24.902,-30.762,0.000,0
33581.586,-25.391,-33.203,-29.785,-13.672,0.000,0
33581.590,-18.066,-30.273,-96.191,-10.254,0.000,0
33581.594,-25.879,-27.832,-32.715,-36.133,0.000,0
33581.598,-38.086,-28.809,26.367,-44.434,0.000,0
33581.602,-33.203,-24.902,-11.230,-28.320,0.000,0
33581.606,-27.832,-21.973,-92.285,-13.184,0.000,0
33581.610,-30.273,-27.832,-52.734,-20.508,0.000,0
33581.614,-34.180,-31.738,32.227,-37.109,0.000,0
33581.618,-35.156,-25.391,2.441,-30.762,0.000,0
33581.622,-27.832,-20.508,-82.520,-11.719,0.000,0
33581.626,-28.809,-20.508,-88.867,-17.090,0.000,0
33581.629,-34.180,-25.879,11.230,-33.691,0.000,0
33581.633,-35.156,-25.879,24.902,-41.504,0.000,0
33581.637,-19.043,-21.484,-44.922,-19.531,0.000,0
33581.641,-16.602,-14.648,-88.379,-9.766,0.000,0
33581.645,-22.461,-15.625,-8.301,-23.438,0.000,0
33581.649,-28.809,-21.484,28.320,-40.527,0.000,0
33581.653,-24.902,-24.414,-16.602,-34.180,0.000,0
33581.657,-20.020,-18.555,-89.355,-18.066,0.000,0
33581.661,-17.578,-18.555,-37.598,-28.809,0.000,0
33581.665,-26.367,-24.902,30.273,-48.340,0.000,0
33581.668,-21.484,-21.973,3.418,-37.109,0.000,0
33581.672,-14.160,-17.090,-68.359,-17.578,0.000,0
33581.676,-14.160,-19.043,-55.176,-17.578,0.000,0
33581.680,-21.973,-21.973,20.996,-28.809,0.000,0
33581.684,-24.902,-17.578,16.113,-22.949,0.000,0
33581.688,-13.184,-16.602,-55.176,-10.742,0.000,0
33581.692,-14.648,-16.113,-70.801,-15.625,0.000,0
33581.696,-19.043,-17.578,19.531,-28.320,0.000,0
33581.700,-27.344,-25.391,29.785,-42.969,0.000,0
33581.704,-25.879,-26.855,-38.574,-21.973,0.000,0
33581.708,-15.625,-23.438,-88.379,-4.883,0.000,0
33581.711,-13.672,-28.320,-3.906,-28.320,0.000,0
33581.715,-18.555,-27.344,35.645,-33.691,0.000,0
33581.719,-12.207,-25.879,-14.648,-6.836,0.000,0
33581.723,-15.625,-27.832,-90.332,-7.812,0.000,0
33581.727,-16.602,-26.855,-44.434,-22.461,0.000,0
33581.731,-23.438,-29.785,33.203,-41.016,0.000,0
33581.735,-30.762,-29.785,4.395,-37.109,0.000,0
33581.739,-27.832,-27.832,-85.449,-20.508,0.000,0
33581.743,-26.367,-30.273,-75.195,-17.578,0.000,0
33581.747,-28.809,-34.180,19.043,-29.297,0.000,0
33581.751,-31.738,-34.668,21.484,-42.480,0.000,0
33581.754,-22.461,-28.320,-55.664,-16.113,0.000,1
33581.758,-19.043,-23.926,-86.426,-4.395,0.000,0
33581.762,-30.273,-25.391,6.348,-32.227,0.000,0
33581.766,-46.875,-31.250,24.414,-49.805,0.000,0
33581.770,-39.551,-30.762,-31.738,-29.297,0.000,0
33581.774,-28.809,-20.996,-90.332,-16.602,0.000,0
33581.778,-21.973,-18.555,-18.066,-25.391,0.000,0
33581.782,-30.273,-25.391,38.574,-28.320,0.000,0
33581.786,-26.855,-29.297,-6.348,-18.066,0.000,0
33581.790,-25.391,-26.367,-84.473,-30.273,0.000,0
33581.793,-32.227,-26.367,-54.199,-42.480,0.000,0
33581.797,-33.691,-30.273,17.090,-46.875,0.000,0
33581.801,-32.227,-35.645,-4.883,-46.875,0.000,0
33581.805,-25.391,-31.250,-84.473,-21.973,0.000,0
33581.809,-24.414,-24.902,-74.219,-16.602,0.000,0
33581.813,-30.273,-28.809,17.090,-39.062,0.000,0
33581.817,-33.203,-28.809,16.602,-38.086,0.000,0
33581.821,-20.996,-24.902,-54.688,-9.766,0.000,0
33581.825,-17.578,-18.555,-89.355,-3.418,0.000,0
33581.829,-24.902,-22.949,-0.488,-29.785,0.000,0
33581.833,-33.203,-28.809,27.832,-41.016,0.000,0
33581.836,-24.902,-23.926,-27.832,-22.461,0.000,0
33581.840,-21.973,-21.973,-91.309,-17.578,0.000,0
33581.844,-21.484,-25.879,-28.809,-22.949,0.000,0
33581.848,-32.227,-26.855,32.227,-41.504,0.000,0
33581.852,-28.320,-25.879,-1.953,-36.133,0.000,0
33581.856,-11.230,-19.531,-84.473,-4.883,0.000,0
33581.860,-13.184,-21.973,-63.965,-8.789,0.000,0
33581.864,-29.785,-28.809,19.043,-26.367,0.000,0
33581.868,-30.762,-26.855,10.742,-21.484,0.000,0
33581.872,-21.484,-22.949,-70.801,-26.855,0.000,0
33581.876,-15.137,-20.020,-85.449,-33.203,0.000,0
33581.879,-13.672,-20.508,14.160,-24.414,0.000,0
33581.883,-21.973,-24.414,26.855,-30.273,0.000,0
33581.887,-10.254,-25.879,-41.016,-24.902,0.000,0
33581.891,-9.277,-18.555,-78.613,-17.578,0.000,0
33581.895,-18.555,-18.066,3.418,-29.785,0.000,0
33581.899,-25.879,-23.926,25.879,-42.480,0.000,0
33581.903,-19.531,-24.902,-20.996,-20.996,0.000,0
33581.907,-18.555,-23.926,-72.754,-6.836,0.000,0
33581.911,-17.578,-25.391,-27.832,-18.066,0.000,0
33581.915,-24.902,-26.855,32.227,-38.086,0.000,0
33581.918,-31.250,-27.344,-6.836,-36.133,0.000,0
33581.922,-23.926,-24.902,-91.797,-20.508,0.000,0
33581.926,-18.066,-23.438,-71.777,-19.043,0.000,0
33581.930,-20.996,-22.949,20.996,-28.320,0.000,0
33581.934,-22.461,-25.391,8.789,-31.738,0.000,0
33581.938,-11.230,-26.367,-70.801,-14.648,0.000,0
33581.942,-15.625,-25.391,-88.379,-12.207,0.000,0
33581.946,-27.344,-30.762,7.324,-32.227,0.000,0
33581.950,-29.785,-28.809,9.277,-37.598,0.000,0
33581.954,-22.461,-20.996,-85.938,-18.066,0.000,0
33581.958,-17.578,-20.508,-62.012,-7.324,0.000,0
33581.961,-18.555,-24.414,22.949,-10.254,0.000,0
33581.965,-21.484,-27.344,18.066,-26.855,0.000,0
33581.969,-14.648,-26.855,-54.199,-15.625,0.000,0
33581.973,-10.742,-25.391,-84.473,-0.977,0.000,0
33581.977,-19.043,-32.715,-2.930,-25.879,0.000,0
33581.981,-20.996,-34.668,21.973,-39.062,0.000,0
33581.985,-7.324,-31.250,-32.715,-21.973,0.000,0
33581.989,-17.578,-28.809,-94.238,-14.160,0.000,0
33581.993,-20.020,-31.250,-23.926,-22.461,0.000,0
33581.997,-19.531,-30.273,26.367,-32.715,0.000,0
33582.001,-18.555,-26.855,-17.090,-17.578,0.000,0
33582.004,-8.301,-25.391,-82.031,-11.719,0.000,0
33582.008,-1.465,-22.461,-32.715,-16.113,0.000,0
33582.012,-11.230,-22.949,31.738,-26.855,0.000,0
33582.016,-17.090,-26.367,13.184,-29.297,0.000,0
33582.020,-10.742,-23.438,-59.082,-3.906,0.000,0
33582.024,-6.348,-18.555,-62.012,3.906,0.000,0
33582.028,-10.254,-22.949,25.391,-17.090,0.000,0
33582.032,-17.578,-26.367,26.367,-19.531,0.000,0
33582.036,-8.301,-18.555,-43.945,5.371,0.000,0
33582.040,-5.859,-10.742,-83.496,12.207,0.000,0
33582.043,-11.230,-18.555,5.371,-14.160,0.000,0
33582.047,-32.715,-26.367,33.691,-38.086,0.000,0
33582.051,-33.203,-24.414,-30.273,-9.277,0.000,0
33582.055,-24.902,-23.926,-98.633,-5.371,0.000,0
33582.059,-19.531,-26.855,-33.203,-30.273,0.000,0
33582.063,-31.738,-29.785,33.203,-54.688,0.000,0
33582.067,-34.180,-28.320,-7.812,-48.828,0.000,0
33582.071,-20.508,-21.973,-92.285,-19.531,0.000,0
33582.075,-13.672,-24.414,-51.270,-17.090,0.000,0
33582.079,-23.926,-32.227,33.203,-28.320,0.000,0
33582.083,-32.715,-36.133,13.672,-37.598,0.000,0
33582.086,-22.949,-34.668,-60.547,-32.227,0.000,0
33582.090,-19.531,-27.344,-70.312,-19.531,0.000,0
33582.094,-33.203,-32.715,7.324,-33.691,0.000,0
33582.098,-41.504,-34.668,5.859,-36.621,0.000,0
33582.102,-25.391,-29.297,-56.152,-16.113,0.000,0
33582.106,-27.832,-30.273,-93.262,-23.438,0.000,0
33582.110,-35.645,-34.668,-16.113,-34.180,0.000,0
33582.114,-42.480,-34.668,20.996,-44.922,0.000,0
33582.118,-37.109,-30.273,-35.156,-23.926,0.000,0
33582.122,-29.297,-26.855,-93.750,-13.672,0.000,0
33582.126,-27.344,-30.273,-25.391,-31.738,0.000,0
33582.129,-33.691,-29.297,25.391,-46.875,0.000,0
33582.133,-28.809,-26.367,-5.859,-31.250,0.000,0
33582.137,-24.414,-30.273,-90.332,-3.418,0.000,0
33582.141,-31.738,-26.367,-65.918,-8.789,0.000,0
33582.145,-39.062,-24.414,22.461,-37.109,0.000,0
33582.149,-43.945,-28.320,9.277,-41.504,0.000,0
33582.153,-37.598,-29.297,-67.871,-17.578,0.000,0
33582.157,-32.715,-27.832,-89.355,-15.625,0.000,0
33582.161,-37.109,-33.203,-5.371,-34.180,0.000,0
33582.165,-42.969,-39.062,12.695,-44.922,0.000,0
33582.168,-31.250,-33.691,-47.852,-26.367,0.000,0
33582.172,-20.508,-22.461,-98.145,-13.184,0.000,0
33582.176,-24.414,-27.344,-19.531,-24.902,0.000,0
33582.180,-43.457,-31.738,26.855,-42.480,0.000,0
33582.184,-39.551,-29.785,-23.438,-25.879,0.000,0
33582.188,-25.391,-26.855,-103.027,-10.254,0.000,0
33582.192,-20.508,-25.391,-45.898,-26.855,0.000,0
33582.196,-28.320,-27.832,30.273,-40.039,0.000,0
33582.200,-26.855,-28.809,5.859,-27.832,0.000,0
33582.204,-15.625,-28.320,-74.219,-24.414,0.000,0
33582.208,-12.207,-23.926,-65.918,-28.809,0.000,0
33582.211,-20.508,-25.391,21.973,-26.855,0.000,0
33582.215,-25.879,-29.785,16.113,-25.391,0.000,0
33582.219,-14.648,-30.273,-57.617,-20.996,0.000,0
33582.223,-18.066,-28.809,-76.660,-31.738,0.000,0
33582.227,-32.227,-30.273,0.977,-49.805,0.000,0
33582.231,-36.621,-28.320,19.043,-49.805,0.000,0
33582.235,-27.344,-23.926,-34.180,-26.367,0.000,0
33582.239,-27.832,-25.391,-103.516,-22.949,0.000,0
33582.243,-28.320,-23.438,-22.461,-29.785,0.000,0
33582.247,-34.180,-22.949,33.691,-35.645,0.000,0
33582.251,-28.809,-27.344,-20.508,-24.902,0.000,0
33582.254,-21.484,-22.461,-92.773,-6.348,0.000,0
33582.258,-20.020,-21.484,-45.410,-9.277,0.000,0
33582.262,-38.086,-29.785,29.785,-38.574,0.000,0
33582.266,-42.969,-29.297,7.324,-41.992,0.000,0
33582.270,-23.438,-26.855,-69.336,-17.090,0.000,0
33582.274,-11.719,-21.484,-66.406,-7.812,0.000,0
33582.278,-14.160,-25.391,27.832,-25.879,0.000,0
33582.282,-20.996,-31.738,-1.465,-31.250,0.000,0
33582.286,-14.648,-25.391,-92.773,-9.277,0.000,0
33582.290,-14.648,-24.902,-55.664,-14.648,0.000,0
33582.293,-22.461,-29.297,23.438,-27.344,0.000,0
33582.297,-30.762,-32.227,11.230,-21.973,0.000,0
33582.301,-31.250,-29.785,-73.730,-18.066,0.000,0
33582.305,-22.949,-26.855,-86.426,-19.043,0.000,0
33582.309,-18.555,-28.809,9.277,-18.555,0.000,0
33582.313,-28.320,-28.809,18.555,-30.273,0.000,0
33582.317,-23.926,-24.902,-46.875,-28.320,0.000,0
33582.321,-19.531,-23.438,-81.543,-27.344,0.000,0
33582.325,-21.484,-29.785,0.000,-33.691,0.000,1
33582.329,-38.086,-33.203,21.973,-42.969,0.000,0
33582.333,-28.320,-36.133,-32.715,-25.391,0.000,0
33582.336,-14.648,-31.250,-95.215,-8.301,0.000,0
33582.340,-16.602,-30.762,-31.250,-23.926,0.000,0
33582.344,-25.879,-35.156,26.367,-35.645,0.000,0
33582.348,-24.414,-29.785,-8.301,-15.625,0.000,0
33582.352,-13.672,-21.484,-84.473,-5.371,0.000,0
33582.356,-8.301,-20.508,-60.547,-19.531,0.000,0
33582.360,-18.555,-24.414,28.320,-39.062,0.000,0
33582.364,-24.902,-28.320,13.672,-32.227,0.000,0
33582.368,-12.207,-26.855,-73.242,-13.672,0.000,0
33582.372,-14.648,-23.926,-80.566,-10.742,0.000,0
33582.376,-30.762,-31.250,16.602,-35.156,0.000,0
33582.379,-38.086,-31.250,32.227,-49.805,0.000,0
33582.383,-26.367,-23.438,-43.457,-24.902,0.000,0
33582.387,-23.438,-21.484,-95.215,-19.531,0.000,0
33582.391,-19.043,-22.949,-0.977,-26.855,0.000,0
33582.395,-22.949,-27.832,38.086,-33.203,0.000,0
33582.399,-14.160,-22.949,-7.324,-18.555,0.000,0
33582.403,-9.277,-15.137,-81.543,-5.859,0.000,0
33582.407,-20.508,-19.043,-34.668,-20.508,0.000,0
33582.411,-26.855,-21.484,31.738,-32.227,0.000,0
33582.415,-19.043,-25.879,0.977,-34.180,0.000,0
33582.418,-24.414,-29.785,-79.102,-31.250,0.000,0
33582.422,-29.785,-26.855,-62.500,-19.043,0.000,0
33582.426,-23.438,-26.855,21.973,-25.391,0.000,0
33582.430,-27.832,-29.785,13.672,-31.250,0.000,0
33582.434,-28.809,-24.902,-63.965,-15.137,0.000,0
33582.438,-27.832,-19.043,-80.566,-26.855,0.000,0
33582.442,-25.879,-20.020,9.277,-35.156,0.000,0
33582.446,-34.180,-24.902,27.832,-31.250,0.000,0
33582.450,-28.320,-24.414,-30.273,-8.301,0.000,0
33582.454,-20.020,-19.043,-84.473,-2.930,0.000,0
33582.458,-20.508,-19.043,-10.742,-27.832,0.000,0
33582.461,-27.832,-18.066,37.109,-35.645,0.000,0
33582.465,-22.461,-22.461,-6.348,-19.043,0.000,0
33582.469,-13.672,-19.531,-88.867,-10.742,0.000,0
33582.473,-6.836,-15.625,-44.434,-16.113,0.000,0
33582.477,-19.043,-21.484,32.227,-34.180,0.000,0
33582.481,-31.738,-24.902,2.930,-30.762,0.000,0
33582.485,-25.391,-21.484,-83.984,-9.766,0.000,0
33582.489,-18.555,-16.113,-76.660,-6.836,0.000,0
33582.493,-24.414,-18.066,8.789,-20.996,0.000,0
33582.497,-35.645,-25.391,10.742,-35.156,0.000,0
33582.501,-25.879,-24.414,-62.988,-31.250,0.000,0
33582.504,-21.484,-20.020,-102.539,-23.438,0.000,0
33582.508,-24.414,-22.461,-7.812,-39.062,0.000,0
33582.512,-33.691,-20.508,24.414,-44.922,0.000,0
33582.516,-28.809,-22.461,-47.363,-22.461,0.000,0
33582.520,-29.297,-22.461,-105.957,-16.113,0.000,0
33582.524,-34.180,-20.508,-29.297,-17.578,0.000,0
33582.528,-41.992,-24.414,23.438,-37.109,0.000,0
33582.532,-32.715,-25.879,-14.648,-32.715,0.000,0
33582.536,-27.344,-24.414,-95.215,-14.160,0.000,0
33582.540,-33.203,-23.926,-63.965,-27.344,0.000,0
33582.543,-32.715,-25.879,13.672,-47.852,0.000,0
33582.547,-31.250,-26.367,-4.395,-42.480,0.000,0
33582.551,-25.879,-20.508,-86.426,-11.719,0.000,0
33582.555,-20.996,-18.066,-82.520,-23.438,0.000,0
33582.559,-25.391,-21.973,14.648,-36.133,0.000,0
33582.563,-34.180,-25.879,15.625,-30.273,0.000,0
33582.567,-21.973,-24.414,-56.641,-22.949,0.000,0
33582.571,-17.578,-20.508,-88.379,-13.672,0.000,0
33582.575,-24.902,-23.926,-5.371,-23.926,0.000,0
33582.579,-33.203,-28.809,25.391,-39.551,0.000,0
33582.583,-25.879,-24.414,-17.578,-31.738,0.000,0
33582.586,-24.414,-17.578,-84.961,-24.902,0.000,0
33582.590,-25.391,-19.043,-31.250,-26.855,0.000,0
33582.594,-25.391,-26.367,29.297,-40.527,0.000,0
33582.598,-22.949,-29.785,-3.906,-39.551,0.000,0
33582.602,-15.137,-29.785,-91.797,-21.484,0.000,0
33582.606,-8.789,-24.414,-67.383,-19.531,0.000,0
33582.610,-18.066,-26.855,19.531,-34.668,0.000,0
33582.614,-14.648,-29.297,15.137,-32.227,0.000,0
33582.618,-6.836,-26.367,-63.477,-15.625,0.000,0
33582.622,-3.418,-25.391,-83.984,-14.648,0.000,0
33582.626,-7.324,-28.809,8.301,-20.996,0.000,0
33582.629,-17.090,-26.367,27.832,-35.156,0.000,0
33582.633,-0.488,-22.461,-24.902,-22.461,0.000,0
33582.637,-0.977,-24.902,-81.543,-12.207,0.000,0
33582.641,-10.254,-28.809,-12.207,-33.203,0.000,0
33582.645,-17.578,-27.344,36.621,-45.410,0.000,0
33582.649,-10.742,-21.484,-12.207,-20.996,0.000,0
33582.653,-6.348,-14.648,-85.449,-2.441,0.000,0
33582.657,-9.766,-19.531,-26.855,-24.902,0.000,0
33582.661,-18.555,-21.484,42.480,-32.715,0.000,0
33582.665,-15.137,-20.020,5.371,-14.160,0.000,0
33582.668,-11.230,-21.484,-83.008,-9.277,0.000,0
33582.672,-21.973,-20.508,-67.871,-20.508,0.000,0
33582.676,-31.738,-26.855,22.461,-36.621,0.000,0
33582.680,-32.715,-29.297,13.672,-39.551,0.000,0
33582.684,-26.855,-28.809,-72.266,-24.902,0.000,0
33582.688,-29.785,-25.391,-88.867,-13.672,0.000,0
33582.692,-25.391,-26.855,12.207,-13.672,0.000,0
33582.696,-28.320,-30.273,28.320,-33.203,0.000,0
33582.700,-24.902,-27.832,-36.621,-27.832,0.000,0
33582.704,-21.973,-23.926,-94.238,-16.602,0.000,0
33582.708,-26.855,-23.438,-26.367,-29.785,0.000,0
33582.711,-28.320,-25.391,24.414,-42.480,0.000,0
33582.715,-22.461,-31.738,-15.137,-32.227,0.000,0
33582.719,-28.320,-30.762,-93.262,-24.902,0.000,0
33582.723,-23.438,-29.297,-48.340,-29.297,0.000,0
33582.727,-18.555,-32.227,19.531,-30.273,0.000,0
33582.731,-15.625,-23.926,-3.418,-20.508,0.000,0
33582.735,-12.207,-20.020,-71.777,-15.625,0.000,0
33582.739,-14.160,-17.578,-63.965,-11.230,0.000,0
33582.743,-20.996,-22.949,13.672,-22.949,0.000,0
33582.747,-21.973,-26.855,15.625,-29.297,0.000,0
33582.751,-17.578,-24.414,-53.711,-14.160,0.000,0
33582.754,-13.184,-18.066,-85.449,-16.113,0.000,0
33582.758,-10.254,-18.066,2.441,-10.254,0.000,0
33582.762,-21.484,-29.297,29.297,-17.578,0.000,0
33582.766,-14.648,-31.250,-25.391,-20.996,0.000,0
33582.770,-9.277,-24.414,-95.215,-24.902,0.000,0
33582.774,-15.137,-26.855,-24.414,-40.039,0.000,0
33582.778,-27.344,-22.461,34.180,-37.109,0.000,0
33582.782,-2.930,-13.184,-2.930,-4.883,0.000,0
33582.786,4.883,-17.578,-81.543,7.812,0.000,0
33582.790,-23.926,-19.043,-54.199,-19.531,0.000,0
33582.793,-37.109,-18.555,33.691,-46.875,0.000,0
33582.797,-34.180,-20.996,16.602,-38.574,0.000,0
33582.801,-24.902,-18.066,-76.172,-13.672,0.000,0
33582.805,-19.531,-12.695,-82.031,-4.395,0.000,0
33582.809,-28.320,-14.648,22.949,-23.438,0.000,0
33582.813,-37.598,-19.531,36.133,-36.621,0.000,0
33582.817,-22.949,-18.066,-44.434,-12.207,0.000,0
33582.821,-17.578,-13.184,-88.379,-4.395,0.000,0
33582.825,-17.090,-9.766,3.906,-12.207,0.000,0
33582.829,-21.484,-16.113,38.086,-23.438,0.000,0
33582.833,-16.602,-20.508,-13.184,-14.648,0.000,0
33582.836,-15.137,-15.625,-75.684,-11.230,0.000,0
33582.840,-18.066,-17.090,-16.602,-9.277,0.000,0
33582.844,-29.785,-24.414,31.250,-14.648,0.000,0
33582.848,-30.273,-25.391,-12.695,-24.902,0.000,0
33582.852,-17.578,-20.508,-82.520,-6.348,0.000,0
33582.856,-16.113,-20.508,-44.434,-0.488,0.000,0
33582.860,-27.832,-27.832,27.832,-22.949,0.000,0
33582.864,-28.809,-29.785,14.160,-24.414,0.000,0
33582.868,-19.531,-26.367,-60.059,0.977,0.000,0
33582.872,-21.484,-24.902,-80.566,-3.906,0.000,0
33582.876,-24.414,-25.391,5.859,-26.367,0.000,0
33582.879,-30.762,-22.461,22.949,-25.391,0.000,0
33582.883,-20.508,-20.508,-41.992,-4.883,0.000,0
33582.887,-10.742,-20.996,-86.426,2.441,0.000,0
33582.891,-20.996,-24.902,0.488,-15.625,0.000,0
33582.895,-29.297,-24.414,38.086,-25.879,0.000,0
33582.899,-16.602,-23.438,-11.719,-3.906,0.000,0
33582.903,-9.277,-19.531,-78.613,9.277,0.000,0
33582.907,-15.625,-21.973,-32.227,0.977,0.000,0
33582.911,-26.367,-29.785,35.645,-19.531,0.000,0
33582.915,-27.344,-30.273,8.301,-16.113,0.000,0
33582.918,-26.855,-26.855,-85.449,-0.488,0.000,0
33582.922,-22.461,-25.879,-72.266,-9.277,0.000,0
33582.926,-24.902,-31.250,20.508,-26.367,0.000,0
33582.930,-30.762,-29.297,20.020,-20.508,0.000,0
33582.934,-20.996,-21.973,-56.152,-9.277,0.000,0
33582.938,-21.484,-19.043,-82.031,-19.043,0.000,0
33582.942,-22.461,-23.926,14.160,-33.691,0.000,0
33582.946,-23.438,-27.832,26.855,-24.414,0.000,2
33582.950,-13.672,-29.297,-37.109,-6.348,0.000,0
33582.954,-15.137,-25.391,-88.379,-15.137,0.000,0
33582.958,-19.043,-24.414,-20.020,-20.996,0.000,0
33582.961,-27.344,-28.320,27.344,-33.203,0.000,0
33582.965,-23.438,-25.391,-13.672,-24.414,0.000,0
33582.969,-19.531,-23.926,-90.820,-14.160,0.000,0
33582.973,-21.484,-27.832,-47.363,-22.461,0.000,0
33582.977,-24.902,-31.738,29.297,-32.227,0.000,0
33582.981,-29.785,-30.273,3.906,-28.809,0.000,0
33582.985,-20.996,-17.090,-74.219,-4.883,0.000,0
33582.989,-11.719,-17.090,-63.477,-8.301,0.000,0
33582.993,-10.742,-23.438,32.715,-26.367,0.000,0
33582.997,-6.836,-17.090,30.273,-23.438,0.000,0
33583.001,3.418,-14.160,-49.316,1.953,0.000,0
33583.004,-0.488,-12.207,-77.637,12.207,0.000,0
33583.008,-6.348,-17.578,12.695,-5.859,0.000,0
33583.012,-15.625,-22.461,35.645,-19.531,0.000,0
33583.016,-16.113,-23.926,-29.297,-2.930,0.000,0
33583.020,-19.531,-23.438,-92.285,-2.930,0.000,0
33583.024,-23.438,-29.297,-31.738,-19.531,0.000,0
33583.028,-26.367,-36.133,22.461,-28.320,0.000,0
33583.032,-27.344,-37.109,-8.301,-25.391,0.000,0
33583.036,-28.809,-29.785,-90.820,-12.695,0.000,0
33583.040,-20.996,-23.926,-58.594,-15.625,0.000,0
33583.043,-19.531,-25.879,24.902,-35.645,0.000,0
33583.047,-20.996,-25.391,4.883,-18.066,0.000,0
33583.051,-19.531,-22.461,-71.777,-6.836,0.000,0
33583.055,-20.996,-19.043,-78.613,-17.090,0.000,0
33583.059,-20.020,-24.414,2.441,-27.344,0.000,0
33583.063,-30.273,-31.250,10.742,-36.133,0.000,0
33583.067,-28.809,-30.273,-54.199,-22.949,0.000,0
33583.071,-26.367,-30.273,-81.055,-19.043,0.000,0
33583.075,-31.250,-33.203,-5.371,-31.250,0.000,0
33583.079,-43.457,-30.273,21.973,-42.969,0.000,0
33583.083,-27.344,-25.391,-25.391,-17.090,0.000,0
33583.086,-10.254,-23.438,-99.609,-6.348,0.000,0
33583.090,-19.043,-30.273,-38.086,-26.855,0.000,0
33583.094,-31.738,-36.133,22.461,-39.062,0.000,0
33583.098,-24.414,-32.227,-12.207,-31.250,0.000,0
33583.102,-15.137,-27.832,-94.238,-20.508,0.000,0
33583.106,-20.508,-27.832,-73.730,-27.344,0.000,0
33583.110,-27.344,-27.832,20.996,-35.645,0.000,0
33583.114,-29.785,-30.273,5.371,-36.621,0.000,0
33583.118,-26.855,-30.762,-78.125,-31.738,0.000,0
33583.122,-27.344,-28.320,-90.820,-26.367,0.000,0
33583.126,-36.133,-30.273,-1.953,-38.086,0.000,0
33583.129,-45.898,-32.715,15.137,-53.711,0.000,0
33583.133,-29.297,-25.391,-43.945,-30.273,0.000,0
33583.137,-23.926,-18.555,-95.703,-14.648,0.000,0
33583.141,-28.809,-23.926,-15.137,-21.973,0.000,0
33583.145,-35.645,-32.227,33.691,-45.410,0.000,0
33583.149,-24.414,-29.297,-9.277,-33.691,0.000,0
33583.153,-16.602,-24.902,-90.820,-16.113,0.000,0
33583.157,-22.461,-23.926,-42.969,-27.832,0.000,0
33583.161,-34.668,-26.367,26.367,-41.016,0.000,0
33583.165,-31.250,-28.320,-2.930,-32.715,0.000,0
33583.168,-22.949,-25.391,-78.125,-18.555,0.000,0
33583.172,-23.438,-24.414,-63.477,-26.855,0.000,0
33583.176,-27.344,-27.832,17.578,-43.457,0.000,0
33583.180,-27.832,-24.902,10.742,-40.039,0.000,0
33583.184,-22.461,-17.578,-61.035,-4.883,0.000,0
33583.188,-24.414,-17.090,-83.496,-10.742,0.000,0
33583.192,-23.438,-26.855,1.465,-41.016,0.000,0
33583.196,-32.715,-32.715,18.555,-42.969,0.000,0
33583.200,-30.273,-29.785,-36.133,-22.949,0.000,0
33583.204,-28.809,-24.414,-92.285,-12.695,0.000,0
33583.208,-36.133,-22.949,-17.090,-25.391,0.000,0
33583.211,-43.457,-24.414,35.156,-41.016,0.000,0
33583.215,-33.203,-20.996,-8.789,-25.879,0.000,0
33583.219,-28.320,-15.625,-88.867,-19.043,0.000,0
33583.223,-32.227,-17.090,-57.617,-21.973,0.000,0
33583.227,-42.480,-24.414,16.113,-31.738,0.000,0
33583.231,-40.527,-22.461,9.277,-29.297,0.000,0
33583.235,-28.320,-21.973,-78.613,-14.160,0.000,0
33583.239,-31.250,-25.879,-89.355,-16.602,0.000,0
33583.243,-34.668,-28.809,13.184,-29.785,0.000,0
33583.247,-33.203,-37.598,-7.324,-30.762,0.000,0
33583.251,-30.273,-32.227,-104.492,-21.484,0.000,0
33583.254,-28.320,-23.926,-61.035,-26.855,0.000,0
33583.258,-33.691,-32.227,15.137,-32.715,0.000,0
33583.262,-33.691,-36.133,-11.230,-22.949,0.000,0
33583.266,-23.438,-29.785,-87.891,-14.160,0.000,0
33583.270,-26.367,-24.414,-92.773,-12.695,0.000,0
33583.274,-32.715,-27.832,-3.418,-25.879,0.000,0
33583.278,-35.645,-28.320,9.766,-36.621,0.000,0
33583.282,-19.531,-22.461,-51.758,-9.766,0.000,0
33583.286,-14.648,-21.973,-89.355,-22.949,0.000,0
33583.290,-24.414,-29.297,-16.602,-49.316,0.000,0
33583.293,-29.785,-26.367,18.066,-42.969,0.000,0
33583.297,-29.297,-21.484,-44.434,-24.414,0.000,0
33583.301,-28.320,-21.484,-94.238,-26.367,0.000,0
33583.305,-33.203,-22.461,0.977,-40.039,0.000,0
33583.309,-36.621,-24.902,23.438,-41.504,0.000,0
33583.313,-22.461,-24.414,-50.781,-17.090,0.000,0
33583.317,-15.137,-20.508,-83.496,-7.324,0.000,0
33583.321,-15.625,-23.926,-4.395,-36.621,0.000,0
33583.325,-27.832,-27.832,28.809,-57.617,0.000,0
33583.329,-23.438,-25.879,-24.414,-37.598,0.000,0
33583.333,-17.090,-24.414,-95.215,-19.531,0.000,0
33583.336,-24.902,-24.902,-40.039,-24.414,0.000,0
33583.340,-35.156,-32.227,24.414,-37.598,0.000,0
33583.344,-26.855,-29.785,1.465,-32.227,0.000,0
33583.348,-16.113,-18.066,-79.102,-7.812,0.000,0
33583.352,-16.113,-19.531,-62.012,-3.906,0.000,0
33583.356,-21.484,-27.344,24.902,-30.762,0.000,0
33583.360,-30.273,-31.250,10.742,-33.203,0.000,0
33583.364,-32.227,-30.273,-66.895,-18.555,0.000,0
33583.368,-29.297,-21.973,-81.055,-15.137,0.000,0
33583.372,-26.367,-24.414,4.883,-27.344,0.000,0
33583.376,-31.738,-26.855,19.043,-31.738,0.000,0
33583.379,-25.391,-24.902,-40.039,-14.648,0.000,0
33583.383,-20.020,-25.391,-83.984,-28.320,0.000,0
33583.387,-18.555,-20.020,-5.859,-38.086,0.000,0
33583.391,-29.297,-18.555,39.062,-40.039,0.000,0
33583.395,-27.344,-22.461,-12.207,-23.438,0.000,0
33583.399,-17.578,-18.555,-94.238,-10.254,0.000,0
33583.403,-15.625,-14.160,-35.645,-20.020,0.000,0
33583.407,-31.250,-18.066,36.133,-27.832,0.000,0
33583.411,-30.762,-22.949,4.883,-32.715,0.000,0
33583.415,-18.066,-20.996,-74.219,-22.949,0.000,0
33583.418,-17.090,-22.461,-59.570,-21.484,0.000,0
33583.422,-21.484,-25.879,38.086,-36.133,0.000,0
33583.426,-26.855,-21.484,29.297,-38.574,0.000,0
33583.430,-20.020,-16.113,-55.664,-23.926,0.000,0
33583.434,-22.949,-18.066,-82.031,-13.672,0.000,0
33583.438,-25.391,-23.926,13.184,-12.207,0.000,0
33583.442,-23.438,-23.926,37.109,-25.391,0.000,0
33583.446,-14.160,-21.484,-22.461,-17.578,0.000,0
33583.450,-14.160,-19.531,-81.543,-9.277,0.000,0
33583.454,-20.508,-21.973,-13.184,-14.160,0.000,0
33583.458,-28.809,-24.902,35.645,-27.832,0.000,0
33583.461,-19.531,-26.367,-7.812,-32.227,0.000,0
33583.465,-17.578,-23.438,-83.008,-22.949,0.000,0
33583.469,-29.297,-20.996,-42.969,-23.438,0.000,0
33583.473,-30.762,-27.344,24.414,-29.297,0.000,0
33583.477,-28.320,-30.762,3.418,-25.391,0.000,0
33583.481,-25.391,-25.879,-69.824,-17.090,0.000,0
33583.485,-17.090,-19.043,-68.359,-8.789,0.000,0
33583.489,-19.531,-17.578,20.020,-22.461,0.000,0
33583.493,-29.297,-21.973,21.484,-34.180,0.000,0
33583.497,-23.926,-23.926,-49.316,-11.719,0.000,0
33583.501,-19.043,-18.555,-71.289,-9.766,0.000,0
33583.504,-21.973,-20.020,6.836,-30.762,0.000,0
33583.508,-32.715,-24.414,26.367,-39.062,0.000,0
33583.512,-23.926,-25.391,-17.578,-16.113,0.000,0
33583.516,-15.137,-21.973,-83.008,-13.672,0.000,0
33583.520,-18.066,-25.391,-19.531,-31.738,0.000,0
33583.524,-21.484,-33.203,36.133,-36.621,0.000,0
33583.528,-11.230,-26.855,0.977,-14.648,0.000,0
33583.532,-11.230,-20.508,-83.008,-3.906,0.000,0
33583.536,-11.719,-18.066,-55.664,-5.859,0.000,0
33583.540,-22.461,-24.414,33.203,-20.508,0.000,0
33583.543,-29.785,-26.855,19.043,-29.785,0.000,0
33583.547,-18.066,-26.855,-77.637,-8.789,0.000,0
33583.551,-18.066,-29.297,-81.055,-15.137,0.000,0
33583.555,-25.879,-29.297,16.113,-31.250,0.000,0
33583.559,-37.109,-28.809,23.438,-30.273,0.000,0
33583.563,-29.297,-29.297,-42.969,-20.508,0.000,0
33583.567,-21.484,-26.367,-90.332,-12.695,0.000,0
33583.571,-35.645,-29.297,-4.395,-29.297,0.000,0
33583.575,-44.922,-29.785,24.414,-36.133,0.000,0
33583.579,-15.625,-27.832,-20.508,-3.906,0.000,0
33583.583,-16.113,-24.414,-80.566,-5.371,0.000,0
33583.586,-40.527,-24.414,-32.227,-34.180,0.000,0
33583.590,-49.316,-27.832,20.020,-51.270,0.000,0
33583.594,-41.504,-24.902,-11.719,-40.527,0.000,0
33583.598,-29.297,-17.578,-87.891,-21.484,0.000,1
33583.602,-33.203,-17.090,-72.266,-30.273,0.000,0
33583.606,-40.039,-22.949,6.836,-42.480,0.000,0
33583.610,-38.574,-22.461,4.395,-24.902,0.000,0
33583.614,-32.715,-17.090,-70.312,-11.719,0.000,0
33583.618,-32.715,-14.648,-82.031,-25.391,0.000,0
33583.622,-36.621,-18.555,15.137,-36.621,0.000,0
33583.626,-40.527,-21.973,17.090,-40.527,0.000,0
33583.629,-26.855,-26.367,-48.828,-30.273,0.000,0
33583.633,-25.879,-29.297,-98.145,-25.391,0.000,0
33583.637,-31.738,-29.297,-20.508,-35.156,0.000,0
33583.641,-39.551,-34.668,26.367,-55.176,0.000,0
33583.645,-31.250,-36.621,-20.020,-42.480,0.000,0
33583.649,-18.066,-29.297,-94.238,-20.020,0.000,0
33583.653,-21.973,-27.832,-56.152,-28.809,0.000,0
33583.657,-29.785,-28.809,17.578,-49.805,0.000,0
33583.661,-20.020,-29.785,-2.441,-42.480,0.000,0
33583.665,-14.160,-30.762,-94.238,-21.973,0.000,0
33583.668,-19.531,-29.297,-88.379,-27.832,0.000,0
33583.672,-21.484,-27.344,1.953,-39.551,0.000,0
33583.676,-26.367,-26.855,10.254,-35.645,0.000,0
33583.680,-20.508,-24.414,-52.734,-24.414,0.000,0
33583.684,-19.531,-19.531,-84.961,-17.578,0.000,0
33583.688,-32.227,-23.438,-3.906,-27.344,0.000,0
33583.692,-40.039,-24.902,19.531,-35.645,0.000,0
33583.696,-20.508,-23.438,-31.250,-10.742,0.000,0
33583.700,-13.184,-23.926,-85.938,-20.996,0.000,0
33583.704,-15.625,-24.902,-22.949,-40.527,0.000,0
33583.708,-26.855,-29.297,29.785,-46.875,0.000,0
33583.711,-28.320,-34.668,-14.160,-33.691,0.000,0
33583.715,-27.344,-34.668,-98.633,-21.484,0.000,0
33583.719,-32.227,-34.180,-51.758,-30.762,0.000,0
33583.723,-37.598,-31.250,26.367,-41.504,0.000,0
33583.727,-32.227,-25.391,-3.418,-32.715,0.000,0
33583.731,-12.207,-22.949,-86.914,-7.324,0.000,0
33583.735,-8.789,-23.926,-76.172,-12.695,0.000,0
33583.739,-22.949,-28.320,23.926,-45.410,0.000,0
33583.743,-23.438,-22.949,27.344,-48.828,0.000,0
33583.747,-15.137,-19.531,-44.922,-27.344,0.000,0
33583.751,-23.438,-23.438,-87.891,-19.043,0.000,0
33583.754,-22.461,-27.344,5.371,-25.391,0.000,0
33583.758,-24.414,-26.855,37.598,-31.738,0.000,0
33583.762,-20.508,-21.484,-62.988,-17.578,0.000,0
33583.766,-16.113,-22.949,-67.383,-16.602,0.000,0
33583.770,-22.461,-26.367,23.926,-18.066,0.000,0
33583.774,-17.578,-28.809,33.203,-16.113,0.000,0
33583.778,-14.648,-30.762,-34.180,-21.973,0.000,0
33583.782,-24.902,-30.273,-83.008,-25.391,0.000,0
33583.786,-24.902,-30.273,-5.859,-27.344,0.000,0
33583.790,-32.715,-32.715,22.949,-32.715,0.000,0
33583.793,-31.738,-35.645,-23.926,-27.832,0.000,0
33583.797,-21.973,-30.762,-84.961,-15.137,0.000,0
33583.801,-17.090,-27.832,-32.715,-6.348,0.000,0
33583.805,-34.180,-31.250,29.297,-27.832,0.000,0
33583.809,-34.668,-31.250,2.930,-29.785,0.000,0
33583.813,-31.738,-26.367,-74.707,-17.578,0.000,0
33583.817,-24.902,-21.484,-49.316,-23.438,0.000,0
33583.821,-13.184,-26.855,29.785,-22.949,0.000,0
33583.825,-23.926,-31.738,14.648,-21.484,0.000,0
33583.829,-36.133,-27.832,-64.453,-16.113,0.000,0
33583.833,-41.504,-25.879,-88.379,-25.879,0.000,0
33583.836,-37.598,-26.367,3.906,-40.527,0.000,0
33583.840,-40.039,-20.508,30.273,-42.969,0.000,0
33583.844,-39.062,-17.578,-40.039,-35.645,0.000,0
33583.848,-29.785,-14.648,-102.539,-24.902,0.000,0
33583.852,-20.020,-15.625,-21.484,-20.508,0.000,0
33583.856,-28.809,-23.438,25.879,-42.480,0.000,0
33583.860,-29.297,-20.508,-24.414,-40.527,0.000,0
33583.864,-21.484,-17.578,-99.609,-15.137,0.000,0
33583.868,-15.625,-20.020,-35.645,-14.648,0.000,0
33583.872,-22.461,-19.531,36.133,-25.391,0.000,0
33583.876,-26.855,-22.949,-1.465,-31.250,0.000,0
33583.879,-17.090,-19.531,-77.637,-13.672,0.000,0
33583.883,-9.277,-13.672,-55.664,-3.906,0.000,0
33583.887,-11.230,-13.672,32.715,-20.508,0.000,0
33583.891,-18.555,-15.625,1.953,-27.344,0.000,0
33583.895,-7.812,-11.719,-76.172,-12.695,0.000,0
33583.899,-7.324,-10.742,-77.148,-8.789,0.000,0
33583.903,-19.043,-16.113,1.953,-16.113,0.000,0
33583.907,-27.344,-21.484,14.160,-29.785,0.000,0
33583.911,-24.902,-24.902,-47.852,-20.020,0.000,0
33583.915,-22.949,-21.973,-97.168,-9.766,0.000,0
33583.918,-22.461,-20.020,-17.578,-20.020,0.000,0
33583.922,-32.227,-23.438,31.738,-41.504,0.000,0
33583.926,-31.738,-27.832,-20.020,-29.297,0.000,0
33583.930,-26.367,-25.391,-98.145,-17.090,0.000,0
33583.934,-26.367,-23.926,-46.875,-31.250,0.000,0
33583.938,-27.344,-22.949,27.344,-39.551,0.000,0
33583.942,-24.902,-20.996,5.371,-30.273,0.000,0
33583.946,-18.066,-18.555,-70.312,-16.113,0.000,0
33583.950,-19.043,-17.090,-71.777,-23.926,0.000,0
33583.954,-18.066,-17.090,13.672,-30.762,0.000,0
33583.958,-19.531,-12.207,18.555,-30.762,0.000,0
33583.961,-21.484,-7.324,-54.688,-24.902,0.000,0
33583.965,-14.648,6.348,-90.820,-5.859,0.000,0
33583.969,-2.441,14.648,-5.859,2.441,0.000,0
33583.973,-15.625,5.371,18.555,-13.184,0.000,0
33583.977,-25.391,8.301,-38.086,-17.090,0.000,0
33583.981,-16.113,24.414,-105.469,-11.719,0.000,0
33583.985,-19.043,21.973,-41.504,-9.277,0.000,0
33583.989,-28.320,19.043,11.230,-21.973,0.000,0
33583.993,-17.578,27.832,-21.973,-24.414,0.000,0
33583.997,-12.207,34.180,-100.586,-15.625,0.000,0
33584.001,-8.301,40.527,-61.035,-17.578,0.000,0
33584.004,-11.230,42.480,14.648,-33.691,0.000,0
33584.008,-8.789,45.410,-13.184,-21.484,0.000,0
33584.012,-3.906,53.223,-85.938,-6.836,0.000,0
33584.016,-17.578,61.523,-95.215,-33.203,0.000,0
33584.020,-32.227,58.594,-15.625,-46.875,0.000,0
33584.024,-40.527,55.664,-4.395,-42.969,0.000,0
33584.028,-28.320,60.059,-72.754,-27.344,0.000,0
33584.032,-19.531,58.105,-109.863,-22.461,0.000,0
33584.036,-17.090,56.641,-16.113,-27.832,0.000,0
33584.040,-16.113,52.734,17.090,-36.133,0.000,0
33584.043,-10.254,44.922,-32.715,-18.555,0.000,0
33584.047,-10.742,42.969,-96.191,-6.836,0.000,0
33584.051,-14.648,39.551,-32.715,-28.320,0.000,0
33584.055,-24.902,29.785,29.785,-53.711,0.000,0
33584.059,-23.438,18.555,-12.695,-32.715,0.000,0
33584.063,-26.367,15.137,-88.867,-18.555,0.000,0
33584.067,-22.949,20.020,-52.246,-18.555,0.000,0
33584.071,-11.719,16.602,28.320,-28.809,0.000,0
33584.075,-20.020,8.301,14.648,-34.668,0.000,0
33584.079,-19.531,5.859,-63.965,-10.254,0.000,0
33584.083,-16.113,4.395,-78.125,-9.277,0.000,0
33584.086,-23.438,4.883,12.207,-22.949,0.000,0
33584.090,-33.203,-0.977,29.297,-44.434,0.000,0
33584.094,-20.996,-10.254,-36.621,-29.785,0.000,0
33584.098,-17.090,-10.254,-97.168,-11.230,0.000,0
33584.102,-24.902,-15.625,-18.555,-12.695,0.000,0
33584.106,-32.715,-21.973,24.902,-18.555,0.000,0
33584.110,-24.414,-19.531,-19.043,-23.438,0.000,0
33584.114,-16.602,-16.602,-92.285,-19.043,0.000,0
33584.118,-12.695,-16.113,-42.969,-5.371,0.000,0
33584.122,-23.438,-20.020,27.832,-19.531,0.000,0
33584.126,-21.484,-17.090,4.883,-17.090,0.000,0
33584.129,-4.395,-15.625,-65.430,-1.953,0.000,0
33584.133,-15.625,-22.949,-52.734,-15.137,0.000,0
33584.137,-26.367,-28.809,26.855,-25.879,0.000,0
33584.141,-27.344,-29.785,14.160,-21.484,0.000,0
33584.145,-17.578,-28.809,-62.988,4.395,0.000,0
33584.149,-15.625,-27.344,-83.008,1.465,0.000,0
33584.153,-21.484,-32.227,9.277,-22.461,0.000,0
33584.157,-28.809,-35.156,35.645,-26.855,0.000,0
33584.161,-25.879,-37.109,-29.785,-17.090,0.000,0
33584.165,-18.066,-41.016,-97.168,-20.996,0.000,0
33584.168,-19.043,-43.945,-12.695,-22.949,0.000,0
33584.172,-29.785,-42.480,41.016,-32.227,0.000,0
33584.176,-27.832,-42.480,-15.625,-30.762,0.000,0
33584.180,-15.625,-41.016,-93.262,-10.742,0.000,0
33584.184,-9.766,-38.574,-45.410,-9.766,0.000,0
33584.188,-24.414,-42.480,31.250,-30.273,0.000,0
33584.192,-29.785,-43.457,7.812,-28.320,0.000,0
33584.196,-17.578,-39.062,-73.242,-10.254,0.000,0
33584.200,-14.160,-39.551,-65.918,-19.043,0.000,0
33584.204,-30.273,-50.781,20.508,-40.039,0.000,0
33584.208,-34.180,-55.176,14.648,-39.062,0.000,1
33584.211,-17.090,-48.340,-55.664,-26.855,0.000,0
33584.215,-22.461,-45.410,-85.938,-17.090,0.000,0
33584.219,-22.949,-47.852,-2.930,-16.113,0.000,0
33584.223,-29.785,-49.805,22.949,-33.203,0.000,0
33584.227,-27.832,-50.293,-30.273,-16.602,0.000,0
33584.231,-23.926,-45.898,-90.820,-12.695,0.000,0
33584.235,-23.926,-47.363,-21.973,-28.809,0.000,0
33584.239,-26.855,-54.199,29.297,-34.668,0.000,0
33584.243,-26.855,-52.734,-13.184,-31.250,0.000,0
33584.247,-27.832,-48.340,-89.844,-26.367,0.000,0
33584.251,-25.879,-49.316,-48.340,-29.297,0.000,0
33584.254,-29.297,-49.316,27.832,-35.645,0.000,0
33584.258,-37.109,-47.363,2.930,-31.250,0.000,0
33584.262,-20.996,-43.945,-68.359,-14.648,0.000,0
33584.266,-20.508,-43.457,-72.266,-23.926,0.000,0
33584.270,-36.621,-43.945,27.832,-43.457,0.000,0
33584.274,-26.367,-45.410,2.930,-32.715,0.000,0
33584.278,-13.184,-44.922,-94.238,-17.090,0.000,0
33584.282,-18.555,-43.945,-66.406,-21.973,0.000,0
33584.286,-27.832,-48.828,19.531,-38.086,0.000,0
33584.290,-23.926,-46.875,15.137,-37.598,0.000,0
33584.293,-12.207,-41.992,-66.406,-18.066,0.000,0
33584.297,-13.672,-37.598,-78.125,-11.719,0.000,0
33584.301,-23.438,-41.016,15.625,-30.273,0.000,0
33584.305,-28.320,-43.457,29.297,-41.016,0.000,0
33584.309,-19.531,-44.922,-41.504,-26.367,0.000,0
33584.313,-20.996,-47.363,-97.656,-18.555,0.000,0
33584.317,-20.020,-48.828,-17.578,-18.555,0.000,0
33584.321,-12.207,-43.945,25.391,-19.043,0.000,0
33584.325,-15.137,-43.945,-20.020,-18.066,0.000,0
33584.329,-35.156,-46.875,-86.914,-31.250,0.000,0
33584.333,-38.086,-39.551,-34.180,-36.621,0.000,0
33584.336,-38.086,-36.133,34.668,-41.504,0.000,0
33584.340,-37.598,-36.621,6.348,-30.273,0.000,0
33584.344,-26.367,-37.109,-78.613,-12.207,0.000,0
33584.348,-23.438,-39.062,-59.570,-19.531,0.000,0
33584.352,-27.344,-43.457,20.020,-34.668,0.000,0
33584.356,-23.438,-45.410,13.672,-28.320,0.000,0
33584.360,-20.020,-42.969,-60.059,-9.277,0.000,0
33584.364,-19.043,-37.109,-81.543,-11.230,0.000,0
33584.368,-15.625,-36.133,19.531,-29.785,0.000,0
33584.372,-29.297,-36.133,40.527,-40.039,0.000,0
33584.376,-20.996,-39.062,-26.367,-22.949,0.000,0
33584.379,-14.648,-35.156,-82.520,-6.836,0.000,0
33584.383,-22.949,-34.668,-13.184,-17.090,0.000,0
33584.387,-31.250,-39.551,32.227,-34.180,0.000,0
33584.391,-20.508,-32.227,-6.348,-4.395,0.000,0
33584.395,-9.277,-28.320,-80.566,6.836,0.000,0
33584.399,-6.836,-30.762,-37.109,-8.789,0.000,0
33584.403,-19.531,-34.668,35.645,-20.508,0.000,0
33584.407,-24.414,-38.574,14.648,-31.250,0.000,0
33584.411,-20.508,-28.320,-71.777,-22.461,0.000,0
33584.415,-18.066,-25.879,-71.289,-22.461,0.000,0
33584.418,-22.461,-33.691,16.602,-31.250,0.000,0
33584.422,-35.645,-34.180,17.578,-39.551,0.000,0
33584.426,-31.738,-35.645,-55.176,-37.109,0.000,0
33584.430,-24.414,-29.785,-85.449,-22.949,0.000,0
33584.434,-20.996,-30.762,-3.906,-20.996,0.000,0
33584.438,-30.762,-37.109,20.020,-28.320,0.000,0
33584.442,-31.250,-41.504,-40.039,-25.391,0.000,0
33584.446,-25.879,-35.645,-95.703,-21.484,0.000,0
33584.450,-23.438,-33.203,-19.043,-26.855,0.000,0
33584.454,-36.133,-37.598,37.598,-35.645,0.000,0
33584.458,-28.320,-37.598,-6.348,-12.695,0.000,0
33584.461,-12.207,-34.180,-90.332,3.906,0.000,0
33584.465,-21.484,-31.738,-54.199,-21.973,0.000,0
33584.469,-35.645,-32.227,20.020,-43.457,0.000,0
33584.473,-33.691,-35.645,1.465,-29.785,0.000,0
33584.477,-22.949,-30.273,-73.242,-9.766,0.000,0
33584.481,-25.879,-25.879,-80.566,-14.648,0.000,0
33584.485,-31.250,-34.180,12.695,-34.668,0.000,0
33584.489,-32.227,-36.133,25.391,-38.086,0.000,0
33584.493,-25.879,-31.250,-54.199,-11.719,0.000,0
33584.497,-28.809,-30.273,-99.121,-10.742,0.000,0
33584.501,-31.738,-34.668,-5.859,-27.832,0.000,0
33584.504,-41.504,-33.203,30.762,-42.969,0.000,0
33584.508,-33.691,-32.715,-23.926,-26.855,0.000,0
33584.512,-28.320,-31.250,-92.773,-6.348,0.000,0
33584.516,-27.832,-27.832,-29.785,-14.648,0.000,0
33584.520,-30.273,-31.738,26.855,-36.621,0.000,0
33584.524,-29.785,-35.645,-4.883,-38.086,0.000,0
33584.528,-21.484,-29.785,-84.961,-23.926,0.000,0
33584.532,-21.973,-27.344,-67.383,-20.508,0.000,0
33584.536,-19.531,-23.438,22.949,-26.855,0.000,0
33584.540,-19.043,-23.926,13.184,-17.090,0.000,0
33584.543,-20.020,-21.484,-62.012,-3.906,0.000,0
33584.547,-19.043,-17.578,-68.848,-14.648,0.000,0
33584.551,-23.926,-21.484,18.555,-30.273,0.000,0
33584.555,-24.902,-24.414,26.367,-27.832,0.000,0
33584.559,-17.578,-26.855,-40.039,-11.230,0.000,0
33584.563,-17.578,-20.996,-80.566,-16.113,0.000,0
33584.567,-15.625,-17.090,4.883,-19.531,0.000,0
33584.571,-26.855,-18.066,38.574,-23.926,0.000,0
33584.575,-20.508,-16.113,-11.230,-12.207,0.000,0
33584.579,-11.230,-16.602,-86.914,0.000,0.000,0
33584.583,-9.277,-19.531,-34.180,-18.066,0.000,0
33584.586,-18.066,-22.461,40.039,-45.898,0.000,0
33584.590,-18.066,-25.391,0.000,-33.691,0.000,0
33584.594,-14.160,-26.855,-90.820,-14.648,0.000,0
33584.598,-18.555,-25.879,-68.359,-14.160,0.000,0
33584.602,-26.855,-27.344,22.461,-24.414,0.000,0
33584.606,-26.855,-28.809,17.578,-27.832,0.000,0
33584.610,-19.531,-26.855,-64.453,-17.090,0.000,0
33584.614,-16.113,-23.438,-90.332,-21.484,0.000,0
33584.618,-17.578,-25.879,12.207,-25.391,0.000,0
33584.622,-27.832,-26.855,36.621,-27.832,0.000,0
33584.626,-16.602,-25.879,-37.109,-21.973,0.000,0
33584.629,-10.742,-24.414,-83.496,-10.742,0.000,0
33584.633,-19.531,-26.855,0.488,-11.719,0.000,0
33584.637,-29.785,-31.250,31.250,-30.273,0.000,0
33584.641,-21.484,-31.250,-19.531,-18.066,0.000,0
33584.645,-17.578,-28.809,-87.402,-3.906,0.000,0
33584.649,-21.484,-26.367,-44.434,-14.648,0.000,0
33584.653,-30.273,-27.344,26.855,-33.203,0.000,0
33584.657,-33.203,-29.785,5.859,-22.949,0.000,0
33584.661,-22.461,-29.785,-75.195,-15.137,0.000,0
33584.665,-16.602,-26.855,-64.453,-25.879,0.000,0
33584.668,-22.461,-24.902,15.625,-34.180,0.000,0
33584.672,-24.902,-20.996,9.766,-20.020,0.000,0
33584.676,-17.578,-15.137,-60.547,1.953,0.000,0
33584.680,-17.578,-15.625,-81.055,-16.113,0.000,0
33584.684,-18.066,-22.461,10.742,-39.551,0.000,0
33584.688,-24.902,-22.461,32.227,-47.363,0.000,0
33584.692,-25.391,-21.973,-28.809,-21.973,0.000,0
33584.696,-23.438,-21.484,-90.820,-4.883,0.000,0
33584.700,-22.461,-23.438,-23.438,-19.043,0.000,0
33584.704,-31.738,-29.785,33.691,-42.480,0.000,0
33584.708,-29.297,-30.273,-4.395,-31.738,0.000,0
33584.711,-26.367,-28.809,-92.773,-17.090,0.000,0
33584.715,-19.043,-22.949,-54.688,-17.090,0.000,0
33584.719,-19.043,-19.531,30.762,-25.391,0.000,0
33584.723,-26.367,-21.973,19.531,-30.762,0.000,0
33584.727,-17.090,-20.996,-67.871,-16.602,0.000,0
33584.731,-8.789,-17.578,-70.801,-16.113,0.000,0
33584.735,-17.090,-18.066,21.973,-19.043,0.000,0
33584.739,-24.902,-21.484,23.438,-19.531,0.000,0
33584.743,-18.555,-19.531,-46.875,-14.160,0.000,0
33584.747,-17.578,-19.043,-90.332,-2.930,0.000,0
33584.751,-17.090,-24.902,-4.883,-13.672,0.000,0
33584.754,-28.320,-28.809,27.832,-38.086,0.000,0
33584.758,-24.414,-24.902,-21.973,-27.344,0.000,0
33584.762,-19.043,-20.996,-85.938,-24.414,0.000,0
33584.766,-21.484,-20.996,-25.879,-34.180,0.000,0
33584.770,-31.738,-27.344,33.203,-42.969,0.000,0
33584.774,-21.973,-24.414,-2.441,-20.996,0.000,0
33584.778,-10.254,-17.090,-85.449,-0.488,0.000,0
33584.782,-10.254,-22.461,-54.199,-12.695,0.000,0
33584.786,-18.066,-26.367,28.320,-26.367,0.000,0
33584.790,-15.625,-26.367,7.812,-24.414,0.000,0
33584.793,-8.301,-29.297,-77.148,-15.137,0.000,0
33584.797,-17.578,-30.762,-88.867,-19.043,0.000,0
33584.801,-25.391,-35.156,7.812,-40.039,0.000,0
33584.805,-28.809,-36.133,18.555,-50.781,0.000,0
33584.809,-18.555,-31.738,-42.480,-23.926,0.000,0
33584.813,-20.996,-26.855,-85.938,-10.254,0.000,0
33584.817,-28.320,-31.250,-10.254,-25.879,0.000,0
33584.821,-35.645,-36.133,30.273,-44.922,0.000,0
33584.825,-30.273,-31.738,-11.230,-28.320,0.000,0
33584.829,-27.344,-26.855,-80.566,-6.348,0.000,0
33584.833,-20.996,-28.320,-37.109,-23.438,0.000,1
33584.836,-21.484,-27.832,30.762,-40.039,0.000,0
33584.840,-25.391,-29.297,4.883,-39.551,0.000,0
33584.844,-23.438,-25.391,-75.684,-27.344,0.000,0
33584.848,-22.461,-26.367,-62.988,-24.414,0.000,0
33584.852,-29.297,-32.715,14.160,-41.016,0.000,0
33584.856,-29.297,-29.785,7.812,-44.434,0.000,0
33584.860,-25.879,-24.414,-60.547,-27.344,0.000,0
33584.864,-20.996,-23.926,-80.566,-18.555,0.000,0
33584.868,-9.277,-29.785,6.348,-25.879,0.000,0
33584.872,-34.180,-29.297,35.645,-46.875,0.000,0
33584.876,-41.992,-25.391,-21.973,-39.551,0.000,0
33584.879,-30.273,-20.508,-83.984,-31.250,0.000,0
33584.883,-30.762,-18.066,-3.418,-36.621,0.000,0
33584.887,-38.086,-23.926,41.016,-36.133,0.000,0
33584.891,-32.227,-26.855,-21.484,-16.602,0.000,0
33584.895,-22.949,-21.484,-86.914,-5.371,0.000,0
33584.899,-15.625,-23.926,-27.832,-29.785,0.000,0
33584.903,-20.508,-26.855,40.039,-44.434,0.000,0
33584.907,-16.113,-25.391,12.695,-25.879,0.000,0
33584.911,-11.230,-23.438,-74.219,-5.859,0.000,0
33584.915,-16.602,-20.508,-73.730,-2.930,0.000,0
33584.918,-22.461,-27.832,24.902,-26.367,0.000,0
33584.922,-26.367,-32.227,26.367,-43.457,0.000,0
33584.926,-14.160,-30.273,-52.734,-10.254,0.000,0
33584.930,-5.371,-26.855,-82.520,-0.488,0.000,0
33584.934,-14.648,-26.367,8.301,-25.879,0.000,0
33584.938,-29.785,-29.785,32.227,-41.016,0.000,0
33584.942,-15.137,-28.320,-25.391,-22.949,0.000,0
33584.946,-13.672,-27.344,-88.867,-7.812,0.000,0
33584.950,-13.184,-25.879,-17.090,-6.348,0.000,0
33584.954,-20.508,-27.344,30.273,-22.461,0.000,0
33584.958,-16.113,-29.785,-13.672,-21.484,0.000,0
33584.961,-7.812,-22.949,-85.938,0.977,0.000,0
33584.965,-18.555,-23.438,-51.758,-4.883,0.000,0
33584.969,-18.066,-32.715,22.461,-34.668,0.000,0
33584.973,-14.160,-35.156,0.488,-36.133,0.000,0
33584.977,-10.742,-28.809,-73.242,-13.184,0.000,0
33584.981,-8.789,-25.391,-71.289,-9.766,0.000,0
33584.985,-4.883,-27.344,16.113,-23.926,0.000,0
33584.989,-13.672,-29.785,22.461,-15.137,0.000,0
33584.993,-14.160,-27.832,-44.434,9.277,0.000,0
33584.997,-7.812,-21.484,-83.496,8.301,0.000,0
33585.001,-12.207,-26.367,-5.371,-14.160,0.000,0
33585.004,-32.227,-34.668,20.996,-38.574,0.000,0
33585.008,-20.996,-29.297,-19.043,-17.578,0.000,0
33585.012,-10.254,-23.438,-87.402,9.277,0.000,0
33585.016,-17.090,-27.832,-39.062,-9.277,0.000,0
33585.020,-25.879,-31.250,27.832,-35.156,0.000,0
33585.024,-19.531,-24.902,-3.906,-12.207,0.000,0
33585.028,-18.555,-21.973,-96.191,6.836,0.000,0
33585.032,-24.414,-23.438,-71.289,-8.789,0.000,0
33585.036,-26.855,-28.320,20.020,-34.668,0.000,0
33585.040,-28.320,-31.738,12.207,-42.969,0.000,0
33585.043,-15.137,-26.855,-66.895,-21.973,0.000,0
33585.047,-16.113,-26.855,-83.984,-19.531,0.000,0
33585.051,-25.391,-32.715,3.906,-29.297,0.000,0
33585.055,-27.832,-34.668,19.043,-34.180,0.000,0
33585.059,-16.113,-34.180,-40.527,-22.461,0.000,0
33585.063,-12.207,-23.926,-84.961,-0.488,0.000,0
33585.067,-12.695,-20.020,-2.930,-1.465,0.000,0
33585.071,-26.367,-22.949,31.738,-24.414,0.000,0
33585.075,-29.785,-22.461,-20.996,-27.344,0.000,0
33585.079,-21.484,-23.438,-84.473,-20.508,0.000,0
33585.083,-20.996,-22.461,-35.645,-24.414,0.000,0
33585.086,-29.785,-26.367,21.973,-37.598,0.000,0
33585.090,-24.902,-27.832,-7.324,-21.973,0.000,0
33585.094,-16.602,-25.391,-77.148,-4.883,0.000,0
33585.098,-17.090,-22.461,-45.410,-12.207,0.000,0
33585.102,-29.785,-23.438,31.250,-31.250,0.000,0
33585.106,-38.086,-23.926,10.742,-37.598,0.000,0
33585.110,-31.738,-21.973,-66.406,-20.020,0.000,0
33585.114,-29.785,-22.461,-81.055,-23.926,0.000,0
33585.118,-26.855,-26.855,10.742,-40.039,0.000,0
33585.122,-31.250,-29.785,20.508,-48.828,0.000,0
33585.126,-21.484,-26.855,-37.598,-26.855,0.000,0
33585.129,-12.695,-24.414,-86.914,-6.836,0.000,0
33585.133,-14.648,-24.414,-14.160,-29.297,0.000,0
33585.137,-26.855,-21.484,34.668,-53.711,0.000,0
33585.141,-22.461,-18.555,-15.625,-29.297,0.000,0
33585.145,-9.766,-17.578,-94.727,-0.488,0.000,0
33585.149,-5.371,-17.578,-43.945,-6.348,0.000,0
33585.153,-12.207,-18.555,28.809,-30.273,0.000,0
33585.157,-15.625,-20.996,10.254,-34.180,0.000,0
33585.161,-13.184,-17.578,-66.895,-23.438,0.000,0
33585.165,-13.184,-14.648,-63.965,-11.230,0.000,0
33585.168,-11.719,-22.461,17.578,-13.184,0.000,0
33585.172,-16.113,-25.879,17.578,-31.738,0.000,0
33585.176,-16.113,-23.926,-52.734,-25.391,0.000,0
33585.180,-11.719,-19.531,-91.797,-19.531,0.000,0
33585.184,-12.695,-18.066,-4.395,-27.344,0.000,0
33585.188,-27.344,-21.973,25.391,-34.180,0.000,0
33585.192,-16.113,-23.438,-40.039,-20.508,0.000,0
33585.196,-8.301,-18.066,-95.215,-14.160,0.000,0
33585.200,-15.625,-17.578,-20.020,-24.414,0.000,0
33585.204,-27.832,-19.043,27.344,-38.574,0.000,0
33585.208,-23.438,-15.137,-19.531,-30.273,0.000,0
33585.211,-16.113,-14.160,-95.703,-14.648,0.000,0
33585.215,-19.043,-24.414,-58.594,-20.996,0.000,0
33585.219,-29.297,-26.855,20.508,-39.062,0.000,0
33585.223,-34.180,-20.996,3.418,-41.992,0.000,0
33585.227,-25.879,-20.020,-74.707,-24.414,0.000,0
33585.231,-20.996,-19.043,-81.543,-12.207,0.000,0
33585.235,-27.344,-17.578,13.184,-24.902,0.000,0
33585.239,-37.598,-20.508,24.414,-40.527,0.000,0
33585.243,-24.902,-21.973,-57.617,-15.625,0.000,0
33585.247,-24.414,-16.113,-90.820,-7.324,0.000,0
33585.251,-30.762,-15.137,6.836,-22.949,0.000,0
33585.254,-39.551,-22.461,28.809,-45.898,0.000,0
33585.258,-29.297,-23.926,-20.508,-37.109,0.000,0
33585.262,-23.438,-16.602,-81.543,-20.020,0.000,0
33585.266,-22.461,-12.695,-23.926,-20.020,0.000,0
33585.270,-26.367,-14.160,37.598,-21.973,0.000,0
33585.274,-25.391,-14.648,8.789,-26.367,0.000,0
33585.278,-20.020,-11.719,-68.359,-25.879,0.000,0
33585.282,-26.367,-12.695,-52.734,-25.391,0.000,0
33585.286,-36.621,-20.996,23.438,-43.945,0.000,0
33585.290,-34.180,-26.855,7.324,-46.387,0.000,0
33585.293,-23.926,-20.508,-63.477,-23.926,0.000,0
33585.297,-25.879,-17.090,-75.195,-25.879,0.000,0
33585.301,-24.902,-24.902,10.742,-41.016,0.000,0
33585.305,-27.344,-25.391,29.297,-36.133,0.000,0
33585.309,-24.414,-21.484,-40.527,-14.648,0.000,0
33585.313,-23.438,-19.531,-90.332,-20.508,0.000,0
33585.317,-25.879,-24.902,-5.859,-33.691,0.000,0
33585.321,-39.062,-25.879,24.414,-41.992,0.000,0
33585.325,-34.668,-22.949,-23.438,-32.715,0.000,0
33585.329,-26.855,-16.602,-87.891,-14.160,0.000,0
33585.333,-28.320,-19.531,-40.039,-16.113,0.000,0
33585.336,-36.133,-24.902,36.133,-44.434,0.000,0
33585.340,-38.086,-22.461,12.207,-41.016,0.000,0
33585.344,-34.180,-20.996,-84.961,-19.043,0.000,0
33585.348,-31.250,-15.625,-71.777,-11.719,0.000,0
33585.352,-35.156,-15.625,22.949,-26.367,0.000,0
33585.356,-39.062,-20.996,20.996,-40.527,0.000,0
33585.360,-28.320,-20.508,-59.082,-27.344,0.000,0
33585.364,-16.113,-14.648,-80.566,-19.531,0.000,0
33585.368,-21.484,-15.137,19.043,-31.738,0.000,0
33585.372,-35.645,-21.973,23.438,-38.086,0.000,0
33585.376,-28.809,-24.902,-79.102,-27.832,0.000,0
33585.379,-19.531,-20.020,-62.988,-21.484,0.000,0
33585.383,-30.762,-21.484,18.066,-37.598,0.000,0
33585.387,-34.180,-27.344,4.395,-42.969,0.000,0
33585.391,-24.414,-28.809,-59.082,-23.438,0.000,0
