timestamps,TP9,AF7,AF8,TP10,Right AUX,Marker0
212629.336,20.508,33.203,26.367,23.926,25.391,0
212629.340,26.367,41.504,28.809,20.508,19.531,0
212629.344,20.996,45.410,29.297,20.996,10.254,0
212629.348,19.043,43.945,24.902,12.695,44.922,0
212629.352,21.973,43.457,19.043,5.859,42.480,0
212629.356,30.273,49.805,24.902,26.855,10.742,0
212629.359,44.434,57.617,33.203,20.996,36.621,0
212629.363,42.969,50.781,26.855,1.953,13.184,0
212629.367,27.832,40.039,25.879,15.137,23.926,0
212629.371,20.020,41.016,28.320,29.297,46.387,0
212629.375,25.391,40.527,28.809,26.855,44.922,0
212629.379,32.227,40.527,32.227,30.273,96.680,0
212629.383,28.809,44.922,28.320,28.809,64.453,0
212629.387,25.879,46.387,25.879,21.973,13.184,0
212629.391,24.414,37.598,27.832,15.625,22.461,0
212629.395,28.809,33.691,29.785,19.531,56.641,0
212629.399,40.527,43.945,33.203,35.156,94.727,0
212629.402,29.785,45.898,32.227,25.391,97.656,0
212629.406,19.043,41.016,27.344,13.184,79.590,0
212629.410,23.438,38.086,26.367,21.484,53.223,0
212629.414,23.438,40.527,22.949,26.855,48.828,0
212629.418,21.973,42.480,17.578,16.113,56.152,0
212629.422,19.531,36.621,19.043,-3.906,47.852,0
212629.426,14.648,32.227,22.461,8.301,95.215,0
212629.430,15.137,35.645,29.785,33.691,81.543,0
212629.434,17.578,40.527,33.203,33.691,35.645,0
212629.438,16.113,36.133,27.832,14.160,41.504,0
212629.442,18.066,33.203,24.414,14.648,45.410,0
212629.445,20.996,37.598,24.902,21.484,47.363,0
212629.449,21.973,40.527,28.809,10.742,20.508,0
212629.453,26.367,40.039,28.320,9.766,5.371,0
212629.457,35.156,45.410,28.809,39.062,27.344,0
212629.461,32.227,41.016,33.203,34.180,31.250,0
212629.465,24.902,31.250,31.738,10.742,45.410,0
212629.469,30.762,31.738,36.133,30.273,23.926,0
212629.473,32.715,32.227,32.715,45.410,28.809,0
212629.477,30.273,30.762,23.926,27.832,9.277,0
212629.481,32.227,34.668,26.855,30.762,-5.371,0
212629.484,29.785,33.691,26.855,42.969,76.172,0
212629.488,28.320,34.668,24.902,47.363,96.680,0
212629.492,40.527,45.410,27.832,51.270,33.691,0
212629.496,44.922,49.805,31.738,37.109,-12.695,0
212629.500,33.691,50.293,36.621,33.203,-0.488,0
212629.504,29.297,47.363,39.062,46.875,35.645,0
212629.508,34.180,41.016,33.203,32.715,35.645,0
212629.512,31.738,38.574,29.297,19.043,9.766,0
212629.516,27.344,37.109,28.320,27.832,8.789,0
212629.520,30.762,39.062,26.367,34.668,42.480,0
212629.524,34.180,40.527,25.879,33.691,17.090,0
212629.527,38.574,39.551,25.391,29.785,-20.996,0
212629.531,49.316,42.480,30.762,38.574,0.000,0
212629.535,46.875,40.039,32.227,31.250,6.348,0
212629.539,34.668,32.227,27.344,20.020,-11.719,0
212629.543,38.086,31.250,26.367,23.438,-5.371,0
212629.547,41.992,32.715,21.484,20.020,2.930,0
212629.551,35.156,31.738,17.578,15.625,33.203,0
212629.555,31.738,34.180,21.484,13.184,24.414,0
212629.559,39.062,35.645,24.414,18.555,0.488,0
212629.563,38.086,31.738,24.414,37.598,61.035,0
212629.567,33.691,28.809,26.855,37.109,57.617,0
212629.570,42.480,32.227,28.809,27.832,16.602,0
212629.574,41.504,34.180,31.738,31.250,0.977,0
212629.578,28.809,35.156,34.668,23.926,8.301,0
212629.582,23.926,38.086,33.691,13.184,22.461,0
212629.586,23.438,35.645,33.203,12.695,32.227,0
212629.590,24.902,35.645,35.645,17.578,26.367,0
212629.594,32.715,39.551,38.086,25.391,22.949,0
212629.598,34.180,42.969,32.715,20.508,58.594,0
212629.602,26.855,42.969,35.156,13.184,61.035,0
212629.606,34.180,40.527,36.621,29.297,62.500,0
212629.609,40.039,40.527,33.203,32.227,24.414,0
212629.613,33.691,40.039,29.297,15.625,28.809,0
212629.617,30.273,42.480,22.949,5.859,61.035,0
212629.621,34.668,47.363,25.391,15.625,91.797,0
212629.625,40.527,45.410,26.367,29.297,143.555,0
212629.629,41.016,44.434,30.762,24.902,140.625,0
212629.633,35.156,45.410,39.062,16.602,120.117,0
212629.637,41.016,47.852,40.527,23.438,104.004,0
212629.641,49.316,44.922,35.156,20.508,83.496,0
212629.645,49.316,43.945,32.227,10.742,62.012,0
212629.649,45.898,40.039,29.785,16.602,60.059,0
212629.652,44.922,30.273,23.926,33.691,86.426,0
212629.656,42.969,36.621,20.996,35.645,95.703,0
212629.660,44.922,48.828,25.879,28.320,78.125,0
212629.664,44.434,45.898,29.785,35.156,55.176,0
212629.668,38.574,36.133,27.832,31.250,51.270,0
212629.672,37.598,37.109,27.344,24.902,52.734,0
212629.676,34.668,37.109,26.367,18.066,28.809,0
212629.680,44.922,43.457,31.250,39.551,48.828,0
212629.684,43.457,44.922,28.809,43.457,66.406,0
212629.688,27.832,37.598,17.578,16.113,26.855,0
212629.692,28.809,37.109,18.066,20.508,10.742,0
212629.695,35.645,35.645,21.973,25.391,29.785,0
212629.699,31.738,34.668,28.320,30.762,61.035,0
212629.703,26.367,30.273,31.738,24.414,94.238,0
212629.707,26.855,28.320,29.785,20.020,92.285,0
212629.711,26.855,33.203,31.250,24.902,73.730,0
212629.715,26.367,39.551,29.297,22.949,57.617,0
212629.719,26.367,43.945,30.762,20.020,5.859,0
212629.723,27.344,42.969,30.762,21.973,-0.977,0
212629.727,27.832,37.598,21.973,27.832,32.715,0
212629.731,29.785,37.598,27.344,35.645,16.602,0
212629.734,30.273,37.109,33.203,18.066,-23.438,0
212629.738,35.156,36.621,34.180,21.484,0.977,0
212629.742,38.086,41.992,35.156,44.434,31.738,0
212629.746,29.785,39.062,33.203,32.227,20.020,0
212629.750,32.715,39.062,32.227,20.020,33.691,0
212629.754,31.250,41.504,29.785,19.531,28.320,0
212629.758,25.391,39.551,31.250,31.738,43.945,0
212629.762,27.832,42.969,34.180,40.039,76.172,0
212629.766,26.855,43.457,28.320,26.855,17.578,0
212629.770,24.414,39.062,26.367,29.297,4.395,0
212629.774,22.949,45.410,34.668,44.922,41.016,1
212629.777,23.926,47.852,37.109,50.781,18.555,0
212629.781,23.926,40.527,32.227,29.297,-33.691,0
212629.785,24.902,41.016,31.738,19.043,-16.602,0
212629.789,27.344,45.410,31.250,35.645,2.441,0
212629.793,19.531,38.086,27.344,27.832,18.555,0
212629.797,12.695,30.273,26.855,26.855,37.109,0
212629.801,15.137,37.109,31.250,28.320,76.660,0
212629.805,18.066,41.016,31.250,19.043,65.430,0
212629.809,17.578,36.621,24.902,16.113,33.691,0
212629.813,15.137,34.180,20.996,9.766,4.883,0
212629.817,19.531,35.645,20.508,10.254,-39.062,0
212629.820,25.391,37.109,23.438,14.160,-58.105,0
212629.824,28.809,40.527,20.020,11.230,-45.410,0
212629.828,36.133,41.504,18.555,20.020,-27.344,0
212629.832,35.645,34.668,23.438,27.344,-53.711,0
212629.836,23.438,29.785,18.555,19.531,-54.688,0
212629.840,21.973,38.574,19.531,6.348,-42.480,0
212629.844,23.438,44.434,24.902,8.301,-58.594,0
212629.848,13.672,33.691,23.438,20.996,-19.531,0
212629.852,1.953,30.273,21.973,8.789,-3.906,0
212629.856,4.395,38.574,23.926,7.812,8.301,0
212629.859,10.742,40.527,24.902,11.719,52.734,0
212629.863,9.766,41.016,24.902,4.395,31.738,0
212629.867,16.602,42.969,31.250,7.324,6.348,0
212629.871,19.043,39.062,33.203,10.254,0.000,0
212629.875,17.578,33.203,25.391,18.555,16.113,0
212629.879,15.625,32.227,22.461,29.297,39.062,0
212629.883,8.301,35.645,25.879,22.461,-3.418,0
212629.887,10.254,37.109,29.785,15.625,-25.391,0
212629.891,8.789,29.297,27.344,23.438,14.160,0
212629.895,-6.348,24.414,26.367,35.156,49.316,0
212629.899,-5.859,24.902,32.715,27.832,66.895,0
212629.902,2.441,30.273,29.785,21.973,56.641,0
212629.906,10.742,39.551,25.391,44.434,81.055,0
212629.910,12.207,39.551,26.855,47.852,80.566,0
212629.914,6.836,38.086,27.344,33.203,53.223,0
212629.918,3.906,39.062,24.414,22.461,68.848,0
212629.922,5.371,36.133,21.484,23.926,91.797,0
212629.926,9.277,33.691,26.855,31.250,77.148,0
212629.930,5.371,40.039,24.902,26.367,19.043,0
212629.934,1.465,44.434,21.484,19.043,16.602,0
212629.938,2.441,37.598,30.762,26.367,51.758,0
212629.942,3.418,41.016,31.738,37.109,23.438,0
212629.945,-5.859,41.504,24.414,26.855,2.930,0
212629.949,-21.973,31.250,24.414,15.625,41.992,0
212629.953,-28.320,28.809,28.809,23.926,54.199,0
212629.957,-25.391,32.715,31.250,31.738,54.199,0
212629.961,-21.973,40.527,26.855,27.344,33.203,0
212629.965,-25.879,42.480,19.043,12.695,11.719,0
212629.969,-28.809,40.527,17.090,6.348,8.301,0
212629.973,-22.949,41.016,23.926,12.207,21.973,0
212629.977,-16.602,41.016,27.832,-7.812,5.371,0
212629.981,-11.719,42.480,28.320,7.812,29.297,0
212629.984,-3.906,48.340,32.227,41.504,78.125,0
212629.988,-2.930,38.086,30.273,32.715,83.008,0
212629.992,-7.812,30.762,21.973,17.090,71.777,0
212629.996,-0.488,38.574,21.484,21.973,40.527,0
212630.000,3.906,41.016,26.367,34.668,20.996,0
212630.004,3.418,39.062,28.320,32.227,35.645,0
212630.008,4.395,34.180,28.809,35.156,17.578,0
212630.012,9.277,36.133,27.344,37.598,-9.277,0
212630.016,6.348,39.062,25.391,28.809,50.293,0
212630.020,1.465,37.109,27.344,7.324,29.297,0
212630.024,4.395,37.109,27.344,6.348,-15.137,0
212630.027,5.859,34.668,26.367,37.598,17.090,0
212630.031,6.348,30.762,28.809,31.738,33.691,0
212630.035,8.301,35.645,24.414,23.926,17.578,0
212630.039,13.672,38.574,17.090,33.203,3.418,0
212630.043,12.695,38.086,20.020,41.992,36.133,0
212630.047,12.695,43.945,28.320,46.875,40.039,0
212630.051,10.742,41.016,29.785,36.133,19.043,0
212630.055,5.371,34.668,29.297,27.344,38.574,0
212630.059,6.348,38.086,27.832,29.785,19.531,0
212630.063,2.441,39.551,25.879,38.086,28.320,0
212630.067,-1.465,41.992,29.785,27.832,35.156,0
212630.070,1.465,41.992,31.250,20.020,17.090,0
212630.074,3.906,40.527,24.902,44.434,0.000,0
212630.078,6.836,43.945,21.973,39.062,-19.531,0
212630.082,12.207,44.922,24.902,29.785,9.277,0
212630.086,11.719,44.922,23.926,29.297,51.758,0
212630.090,7.812,41.992,15.625,40.039,56.152,0
212630.094,7.812,40.527,14.160,52.246,30.762,0
212630.098,9.277,38.086,25.391,41.504,5.371,0
212630.102,6.836,35.645,30.273,33.691,2.930,0
212630.106,7.324,41.992,24.902,39.062,37.109,0
212630.109,4.395,44.922,23.926,26.855,45.898,0
212630.113,2.441,43.457,25.391,15.137,40.527,0
212630.117,4.395,47.852,27.344,37.109,75.195,0
212630.121,3.906,47.363,23.438,43.945,63.965,0
212630.125,5.371,42.969,17.090,39.062,43.457,0
212630.129,8.301,43.457,14.648,28.809,62.988,0
212630.133,7.812,42.969,21.973,41.016,56.152,0
212630.137,9.277,41.016,25.391,43.457,-3.418,0
212630.141,5.859,38.086,24.902,25.879,9.277,0
212630.145,-1.465,36.621,32.715,24.414,60.547,0
212630.149,0.488,39.062,30.273,28.809,45.410,0
212630.152,1.953,40.039,30.762,33.203,52.734,0
212630.156,-3.418,37.598,36.621,19.531,47.852,0
212630.160,0.000,42.480,30.762,16.113,15.137,0
212630.164,3.906,43.457,23.438,32.715,16.602,0
212630.168,0.000,37.598,28.320,22.949,-0.488,0
212630.172,4.395,36.133,32.227,15.625,-21.484,0
212630.176,10.742,40.527,35.156,24.414,22.461,0
212630.180,7.324,42.480,31.738,20.020,67.383,0
212630.184,2.441,42.480,32.715,5.859,37.598,0
212630.188,6.348,44.434,36.133,-5.371,37.109,0
212630.192,8.789,40.527,29.297,-5.859,47.852,0
212630.195,10.742,38.086,25.391,-2.930,24.902,0
212630.199,10.254,38.086,27.832,-9.766,-0.977,0
212630.203,9.277,43.457,25.879,-10.742,4.883,0
212630.207,12.695,49.316,28.320,9.766,36.133,0
212630.211,20.020,47.852,28.809,28.809,60.059,0
212630.215,20.996,45.410,19.531,14.648,-7.324,0
212630.219,22.949,44.434,20.996,10.254,-15.137,0
212630.223,31.738,42.480,24.902,28.320,53.223,0
212630.227,33.203,41.504,24.414,25.879,22.949,0
212630.231,29.785,48.340,24.902,23.438,5.859,0
212630.234,24.414,53.711,30.273,19.531,12.207,0
212630.238,19.531,44.434,31.250,18.066,19.531,0
212630.242,18.066,35.156,29.785,20.508,20.996,0
212630.246,13.184,32.227,29.297,11.719,-1.953,0
212630.250,9.766,25.391,26.855,5.371,-10.254,0
212630.254,12.695,29.785,24.414,24.414,11.230,0
212630.258,12.207,42.480,23.926,37.598,52.246,0
212630.262,13.672,43.457,27.832,14.160,49.805,0
212630.266,22.461,47.363,20.508,23.438,47.852,0
212630.270,28.320,51.270,8.789,50.293,66.895,0
212630.274,29.785,47.852,19.531,41.504,42.480,0
212630.277,25.391,44.434,23.438,36.133,29.297,0
212630.281,4.883,34.668,17.578,14.648,41.016,0
212630.285,-4.395,33.203,18.555,9.277,72.754,0
212630.289,10.742,38.574,13.184,20.020,94.727,0
212630.293,23.438,37.109,25.879,29.297,70.801,0
212630.297,11.230,37.598,38.086,16.113,47.852,0
212630.301,0.000,39.062,39.551,-6.836,42.480,0
212630.305,7.812,41.504,42.480,-9.277,8.789,0
212630.309,14.160,41.992,34.668,-1.465,-20.996,0
212630.313,16.113,40.527,20.508,24.902,20.508,0
212630.317,10.254,44.922,26.367,29.785,39.551,0
212630.320,2.441,43.945,36.621,1.465,38.086,0
212630.324,6.836,39.551,38.574,-4.883,37.598,0
212630.328,16.113,37.598,37.109,15.625,21.484,0
212630.332,18.555,41.016,35.645,9.277,33.691,0
212630.336,26.367,47.363,38.086,7.324,37.109,0
212630.340,29.785,44.434,33.203,14.160,13.184,0
212630.344,20.020,41.016,29.297,16.113,46.387,0
212630.348,16.602,41.992,29.785,18.555,61.035,0
212630.352,20.996,49.316,34.668,33.203,130.859,0
212630.356,18.066,52.246,41.016,37.598,151.367,0
212630.359,8.301,41.504,40.527,26.367,66.406,0
212630.363,6.348,37.598,36.133,9.277,43.945,0
212630.367,7.324,40.039,32.715,-9.766,59.570,0
212630.371,13.184,43.457,34.668,17.578,86.914,0
212630.375,16.113,41.992,36.621,27.832,96.191,0
212630.379,11.230,35.645,34.668,10.742,53.223,0
212630.383,12.695,35.156,41.992,12.695,28.809,0
212630.387,15.625,42.969,48.340,23.438,41.992,0
212630.391,11.230,50.781,39.062,17.578,22.461,0
212630.395,6.836,52.246,35.645,1.953,17.578,1
212630.399,5.859,49.805,39.551,-0.977,25.391,0
212630.402,9.277,50.293,40.527,20.508,23.438,0
212630.406,11.719,48.828,43.457,28.809,55.176,0
212630.410,8.301,43.457,42.480,21.973,62.988,0
212630.414,7.812,44.434,33.691,14.648,63.477,0
212630.418,8.789,42.969,30.273,10.742,69.336,0
212630.422,10.742,39.062,41.016,14.160,38.086,0
212630.426,12.695,42.969,49.805,19.531,25.391,0
212630.430,13.672,43.945,46.875,29.785,73.730,0
212630.434,16.113,41.016,40.527,33.203,102.539,0
212630.438,14.648,41.016,37.109,34.180,97.168,0
212630.442,17.578,48.828,36.621,36.621,95.703,0
212630.445,22.461,50.781,24.902,36.133,106.445,0
212630.449,15.137,48.340,17.578,36.621,87.891,0
212630.453,2.930,43.945,26.367,20.996,56.641,0
212630.457,4.395,38.574,31.738,16.113,83.984,0
212630.461,13.672,47.852,37.598,35.156,55.664,0
212630.465,10.254,49.316,42.480,39.551,15.137,0
212630.469,2.930,38.574,37.109,14.648,50.293,0
212630.473,6.348,37.598,35.645,14.648,66.406,0
212630.477,12.207,45.410,37.598,34.180,44.922,0
212630.481,10.742,48.828,37.598,31.738,16.113,0
212630.484,3.906,45.410,38.086,7.324,-15.137,0
212630.488,-7.324,37.109,34.668,-3.906,0.488,0
212630.492,-9.766,35.156,33.203,15.137,46.387,0
212630.496,-7.812,41.992,30.273,29.297,30.762,0
212630.500,-5.371,41.016,23.438,21.973,22.461,0
212630.504,-1.953,39.551,21.973,20.020,66.406,0
212630.508,-3.906,41.992,27.832,21.484,41.016,0
212630.512,-3.418,41.016,34.180,12.695,0.977,0
212630.516,3.906,40.527,31.738,18.066,24.414,0
212630.520,14.648,47.363,26.855,20.996,15.137,0
212630.524,16.602,46.875,32.715,16.602,20.020,0
212630.527,9.766,40.039,39.062,13.672,39.551,0
212630.531,9.766,40.039,34.180,-6.348,8.789,0
212630.535,7.812,32.715,30.762,-8.301,45.410,0
212630.539,6.836,26.855,27.344,5.859,58.594,0
212630.543,18.066,36.621,27.832,7.324,18.555,0
212630.547,27.832,42.969,24.902,5.371,-8.301,0
212630.551,34.668,46.387,23.438,8.301,11.719,0
212630.555,45.410,55.176,26.367,28.809,20.508,0
212630.559,53.223,57.129,29.785,27.832,-12.695,0
212630.563,41.992,41.016,29.297,9.277,-1.953,0
212630.567,23.926,30.762,28.320,0.000,36.133,0
212630.570,25.391,34.180,33.203,6.348,62.988,0
212630.574,32.227,34.668,30.273,11.230,53.223,0
212630.578,39.062,41.016,31.738,6.836,22.949,0
212630.582,58.105,60.547,40.039,33.203,17.578,0
212630.586,48.828,57.129,34.668,40.039,16.113,0
212630.590,23.438,33.691,28.809,7.812,-9.277,0
212630.594,17.578,30.273,23.438,-6.348,-2.930,0
212630.598,17.578,34.180,16.602,-9.766,30.273,0
212630.602,23.926,37.109,22.949,-12.695,38.574,0
212630.606,25.391,35.645,28.320,-3.418,23.438,0
212630.609,24.414,30.762,38.086,7.812,23.438,0
212630.613,20.996,27.344,36.621,3.418,46.387,0
212630.617,13.184,27.832,27.344,4.883,28.809,0
212630.621,20.020,34.668,32.227,15.625,19.043,0
212630.625,24.902,41.016,27.344,-0.488,44.922,0
212630.629,21.484,37.109,15.625,3.906,57.129,0
212630.633,25.879,35.645,18.555,9.277,46.875,0
212630.637,35.156,41.504,32.227,4.395,23.926,0
212630.641,39.062,40.039,37.598,23.438,34.180,0
212630.645,36.621,39.062,35.645,20.020,28.809,0
212630.649,30.273,45.898,39.062,20.996,33.691,0
212630.652,10.742,34.668,36.133,19.043,54.688,0
212630.656,0.977,17.578,27.832,6.348,63.965,0
212630.660,8.301,19.531,23.926,13.672,73.730,0
212630.664,16.113,27.344,16.113,20.996,45.410,0
212630.668,19.043,33.691,15.137,8.789,28.320,0
212630.672,20.020,35.156,26.367,4.883,38.086,0
212630.676,24.902,34.668,33.203,14.648,39.551,0
212630.680,28.320,41.016,35.156,7.812,18.066,0
212630.684,22.461,40.527,36.621,-10.742,9.766,0
212630.688,13.184,35.156,28.320,-3.906,44.434,0
212630.692,10.254,32.715,21.973,0.977,21.484,0
212630.695,11.230,37.109,19.531,-5.371,-18.555,0
212630.699,14.160,38.574,13.184,-0.977,-11.230,0
212630.703,15.137,32.715,20.996,8.789,25.879,0
212630.707,13.184,31.250,26.367,11.230,35.156,0
212630.711,18.555,37.598,26.855,18.555,18.555,0
212630.715,20.508,43.457,29.297,16.602,-4.395,0
212630.719,17.578,41.016,23.438,2.930,-19.531,0
212630.723,22.949,38.574,27.832,15.625,-42.969,0
212630.727,25.391,40.039,28.809,12.695,-78.613,0
212630.731,24.414,38.574,23.926,4.395,-37.598,0
212630.734,19.043,34.180,24.902,11.230,19.043,0
212630.738,13.672,29.297,24.902,10.742,7.812,0
212630.742,17.578,30.762,32.715,10.742,-41.016,0
212630.746,17.090,39.551,36.621,20.996,7.324,0
212630.750,16.113,41.992,32.715,34.180,41.992,0
212630.754,18.555,39.551,31.738,30.762,-14.160,0
212630.758,19.531,38.086,26.367,31.250,0.488,0
212630.762,22.461,38.086,23.438,29.785,-25.391,0
212630.766,20.508,35.156,21.973,12.695,-44.922,0
212630.770,15.137,32.227,23.438,0.977,-33.203,0
212630.774,20.508,32.227,28.320,6.348,-41.016,0
212630.777,30.762,35.156,31.738,37.109,3.906,0
212630.781,30.273,39.551,31.738,42.969,24.414,0
212630.785,31.738,44.922,29.785,30.762,20.020,0
212630.789,34.668,44.922,30.762,36.621,43.457,0
212630.793,31.250,38.574,27.344,37.598,59.082,0
212630.797,33.203,37.598,25.391,33.691,87.891,0
212630.801,30.273,36.133,29.297,24.414,98.633,0
212630.805,20.020,33.203,27.344,11.719,86.914,0
212630.809,12.207,34.180,24.902,8.301,74.707,0
212630.813,14.160,34.668,22.949,15.137,40.527,0
212630.817,14.648,38.086,20.508,0.000,1.465,0
212630.820,17.090,38.574,25.391,1.953,9.277,0
212630.824,29.785,39.551,29.785,34.668,57.129,0
212630.828,31.250,41.504,29.785,35.156,57.129,0
212630.832,20.996,36.621,27.344,22.461,38.086,0
212630.836,15.625,34.668,23.926,22.461,53.223,0
212630.840,20.508,34.668,21.484,17.090,66.406,0
212630.844,20.508,31.738,21.484,14.648,57.129,0
212630.848,11.719,35.156,22.949,10.254,55.176,0
212630.852,17.578,51.758,25.879,10.742,82.520,0
212630.856,25.391,56.641,32.227,22.949,65.430,0
212630.859,13.672,45.410,32.227,5.859,11.719,0
212630.863,3.418,38.086,30.273,-10.254,12.695,0
212630.867,4.883,34.668,29.785,7.324,62.988,0
212630.871,9.277,34.668,27.832,17.578,59.082,0
212630.875,11.230,36.621,21.973,10.742,29.297,0
212630.879,21.484,40.039,23.926,20.508,12.695,0
212630.883,28.320,46.875,23.926,29.785,-15.137,0
212630.887,14.160,47.852,18.066,11.719,-26.855,0
212630.891,8.789,47.363,24.902,8.301,-10.254,0
212630.895,17.090,48.828,29.297,14.160,-5.371,0
212630.899,13.672,42.969,29.785,19.531,11.230,0
212630.902,5.859,38.086,31.250,21.484,20.508,0
212630.906,3.906,37.598,27.832,6.836,0.977,0
212630.910,3.906,36.133,23.926,7.812,21.484,0
212630.914,5.371,33.691,20.020,13.672,39.551,0
212630.918,11.230,36.621,21.484,10.254,17.090,0
212630.922,20.508,50.781,23.926,10.254,-26.367,0
212630.926,26.367,53.711,29.297,27.344,-30.762,0
212630.930,21.484,50.293,33.691,40.039,-4.883,0
212630.934,13.672,50.293,34.180,23.438,19.043,0
212630.938,8.301,46.387,26.855,24.902,42.480,0
212630.942,5.371,41.016,15.137,30.273,50.293,0
212630.945,4.883,42.480,18.066,15.137,37.598,0
212630.949,3.418,47.852,33.203,15.625,61.523,0
212630.953,4.883,44.922,37.598,17.090,64.453,0
212630.957,4.883,33.691,33.691,20.020,35.156,0
212630.961,2.930,32.715,34.180,29.785,53.223,0
212630.965,7.812,37.109,36.133,22.461,59.082,0
212630.969,16.113,37.598,33.691,23.926,50.293,0
212630.973,16.602,34.668,25.391,34.180,52.734,0
212630.977,11.230,35.156,23.438,26.855,66.895,0
212630.981,13.184,41.992,22.949,24.902,77.637,0
212630.984,15.137,43.945,19.531,20.020,13.184,0
212630.988,22.461,46.875,21.973,20.020,19.043,0
212630.992,34.180,52.246,28.809,26.367,95.215,0
212630.996,36.133,52.246,27.832,33.691,47.852,0
212631.000,30.762,47.363,20.996,26.367,17.578,0
212631.004,20.020,40.039,21.973,8.301,21.484,0
212631.008,17.090,41.992,30.273,6.348,43.457,0
212631.012,18.555,42.480,24.414,7.812,35.156,0
212631.016,20.020,39.551,16.113,30.273,17.090,1
212631.020,19.043,40.039,20.508,49.805,49.316,0
212631.024,14.648,39.062,22.461,31.738,43.457,0
212631.027,17.578,42.480,25.879,28.320,51.270,0
212631.031,21.973,44.434,31.738,38.086,64.941,0
212631.035,20.508,41.504,32.227,39.062,62.012,0
212631.039,16.602,35.156,34.180,34.668,68.359,0
212631.043,10.742,29.785,31.738,25.391,72.754,0
212631.047,7.812,33.203,25.391,21.484,60.059,0
212631.051,12.207,36.133,22.949,21.484,50.781,0
212631.055,4.883,29.785,18.066,4.395,31.738,0
212631.059,-1.953,27.344,20.996,-11.230,19.531,0
212631.063,5.371,31.250,30.762,8.301,17.578,0
212631.067,7.324,37.598,32.715,5.371,3.418,0
212631.070,0.000,39.062,26.367,-4.883,11.230,0
212631.074,0.000,36.133,21.484,20.508,20.020,0
212631.078,3.418,33.691,21.973,31.738,14.648,0
212631.082,5.859,36.133,23.926,19.043,13.672,0
212631.086,1.465,36.621,22.949,2.930,-2.441,0
212631.090,-2.441,31.738,25.391,9.766,5.371,0
212631.094,2.930,33.691,26.367,25.391,35.645,0
212631.098,2.930,41.016,26.367,19.531,38.086,0
212631.102,0.488,41.504,23.438,3.906,11.230,0
212631.106,-4.395,36.133,15.625,-8.301,13.672,0
212631.109,-10.254,35.156,15.137,9.766,52.734,0
212631.113,-13.184,37.109,18.555,17.090,71.289,0
212631.117,-13.184,32.715,24.902,8.789,47.852,0
212631.121,-6.348,29.297,28.809,22.461,95.703,0
212631.125,-1.465,38.086,23.438,23.438,76.172,0
212631.129,-2.441,44.434,23.438,28.320,0.977,0
212631.133,-11.230,35.645,22.461,27.344,-2.441,0
212631.137,-10.742,34.668,25.391,25.391,4.395,0
212631.141,-0.977,42.480,34.668,40.527,16.113,0
212631.145,-5.371,42.480,34.668,27.832,7.812,0
212631.149,-9.277,35.156,25.879,3.906,-0.488,0
212631.152,-10.254,34.180,17.090,26.367,42.480,0
212631.156,-11.230,38.574,17.578,47.363,62.988,0
212631.160,-3.906,41.992,24.902,41.992,93.262,0
212631.164,-0.977,44.434,28.320,31.250,80.078,0
212631.168,-0.977,46.875,26.855,26.855,40.527,0
212631.172,9.766,52.246,27.344,34.180,28.809,0
212631.176,6.836,51.758,25.879,39.062,17.090,0
212631.180,-6.348,44.922,24.902,31.250,40.527,0
212631.184,-14.648,36.621,26.367,15.137,-6.836,0
212631.188,-14.648,32.715,28.320,14.160,-43.457,0
212631.192,-10.254,37.598,27.832,14.648,3.418,0
212631.195,-10.254,39.551,23.926,17.578,17.090,0
212631.199,-12.695,39.551,19.531,21.484,26.367,0
212631.203,-11.230,44.434,18.066,5.371,18.555,0
212631.207,-3.906,45.898,24.414,17.090,22.949,0
212631.211,0.977,41.016,23.926,29.297,69.336,0
212631.215,4.395,42.480,28.320,21.484,92.773,0
212631.219,3.418,41.504,29.785,0.488,54.688,0
212631.223,-6.348,31.738,17.090,-17.090,-0.977,0
212631.227,-7.812,30.273,15.625,-13.184,10.742,0
212631.231,-2.441,31.738,22.949,-14.648,48.828,0
212631.234,-2.930,31.738,23.926,-35.645,28.320,0
212631.238,-1.953,36.133,22.949,-46.387,-37.109,0
212631.242,14.648,46.387,26.855,-15.137,-18.066,0
212631.246,26.855,52.734,29.297,0.488,22.461,0
212631.250,14.160,44.922,23.438,-29.785,2.441,0
212631.254,-0.977,37.598,22.949,-38.574,-13.672,0
212631.258,-5.859,30.273,23.926,-31.738,38.574,0
212631.262,1.953,33.691,25.879,-29.297,21.484,0
212631.266,10.254,43.457,29.297,-18.066,13.184,0
212631.270,3.418,34.180,27.344,-34.180,60.547,0
212631.274,1.953,25.391,26.855,-25.879,53.711,0
212631.277,12.207,35.645,26.367,-13.672,13.672,0
212631.281,10.254,40.527,20.020,-34.668,9.277,0
212631.285,6.836,41.016,21.484,-26.367,22.949,0
212631.289,13.672,45.898,28.809,0.488,26.855,0
212631.293,9.766,45.898,27.832,-9.277,37.598,0
212631.297,0.000,41.504,22.949,-25.879,37.598,0
212631.301,0.977,39.062,22.461,-23.926,40.039,0
212631.305,5.371,37.598,21.484,-11.719,53.223,0
212631.309,8.301,40.527,20.508,-10.742,31.250,0
212631.313,8.301,38.086,23.926,-18.066,-15.137,0
212631.317,15.625,38.086,27.832,-12.207,17.090,0
212631.320,18.555,41.504,24.902,4.395,39.062,0
212631.324,11.230,36.133,20.996,3.906,42.480,0
212631.328,14.648,40.039,20.996,4.883,21.973,0
212631.332,14.648,46.387,17.578,4.883,7.812,0
212631.336,10.254,42.969,19.531,5.859,24.414,0
212631.340,12.207,42.969,26.855,7.324,20.996,0
212631.344,10.254,43.457,27.832,2.930,30.762,0
212631.348,8.789,41.504,25.391,17.578,24.902,0
212631.352,12.695,44.434,23.438,21.973,11.719,0
212631.356,15.625,44.434,23.926,19.043,-22.949,0
212631.359,16.602,40.527,21.484,19.531,-9.277,0
212631.363,19.531,41.504,22.949,26.855,51.758,0
212631.367,10.742,38.574,24.414,10.742,20.020,0
212631.371,9.766,33.691,22.949,14.160,32.227,0
212631.375,14.160,34.180,21.484,28.320,77.148,0
212631.379,14.160,37.109,20.996,16.602,58.594,0
212631.383,12.207,39.551,20.508,17.090,34.668,0
212631.387,8.301,38.574,18.066,0.000,11.230,0
212631.391,15.137,41.016,23.438,11.719,60.547,0
212631.395,18.555,41.016,33.203,39.062,113.770,0
212631.399,15.625,37.598,29.785,22.461,57.129,0
212631.402,12.207,37.109,25.391,8.789,40.527,0
212631.406,9.766,42.480,22.949,23.926,51.270,0
212631.410,15.137,47.363,23.926,23.926,42.480,0
212631.414,13.672,43.457,27.832,16.602,41.504,0
212631.418,5.371,41.992,20.508,16.602,22.949,0
212631.422,9.766,40.527,26.855,23.438,20.508,0
212631.426,16.113,39.551,31.738,38.574,38.086,0
212631.430,16.602,40.039,27.832,34.180,35.645,0
212631.434,19.043,43.457,30.273,26.367,20.996,0
212631.438,18.555,40.527,24.902,41.504,26.855,0
212631.442,16.602,34.180,20.508,42.480,66.406,0
212631.445,17.578,37.109,27.344,36.133,98.145,0
212631.449,16.113,43.457,32.715,37.109,40.527,0
212631.453,18.555,44.922,28.809,31.738,25.879,0
212631.457,20.020,44.922,25.391,27.344,70.312,0
212631.461,15.625,43.457,24.902,33.203,47.363,0
212631.465,15.625,46.387,29.785,33.203,6.836,0
212631.469,11.719,46.875,27.832,26.367,4.395,0
212631.473,2.930,40.527,16.602,29.297,-2.930,0
212631.477,3.418,44.434,17.578,24.902,1.465,0
212631.481,5.371,45.410,25.879,35.156,32.227,0
212631.484,-1.953,35.645,30.273,49.805,49.805,0
212631.488,-9.277,34.668,25.879,30.273,12.207,0
212631.492,-13.672,40.527,22.949,22.949,-7.324,0
212631.496,-13.184,44.922,27.344,33.691,44.434,0
212631.500,-15.137,40.527,22.949,31.250,64.453,0
212631.504,-17.090,37.109,20.020,20.508,59.570,0
212631.508,-12.695,46.875,29.785,25.879,66.895,0
212631.512,-15.137,45.898,28.320,33.691,82.520,0
212631.516,-13.672,40.039,24.414,17.090,72.266,0
212631.520,-12.207,38.086,23.926,3.418,49.805,0
212631.524,-2.930,38.086,20.508,26.367,41.504,0
212631.527,5.371,41.992,24.414,44.434,41.992,0
212631.531,-10.254,37.598,27.832,20.020,35.156,0
212631.535,-14.160,33.203,31.738,16.602,50.293,0
212631.539,-14.160,39.551,32.715,23.438,53.711,0
212631.543,-16.113,41.992,25.391,19.531,68.359,0
212631.547,-16.602,41.992,23.438,16.113,98.633,0
212631.551,-24.902,38.086,18.555,6.348,53.711,0
212631.555,-20.020,33.691,20.996,9.277,67.871,0
212631.559,-1.953,41.016,29.297,25.391,94.727,0
212631.563,11.719,51.758,32.715,24.414,54.199,0
212631.567,5.371,47.852,29.785,-10.254,28.320,0
212631.570,5.859,43.457,33.691,-4.883,41.016,0
212631.574,15.137,48.340,36.133,29.297,65.918,0
212631.578,15.137,44.434,30.273,15.625,15.137,0
212631.582,11.230,38.574,24.414,3.906,-27.344,0
212631.586,16.113,39.551,22.949,17.578,30.762,0
212631.590,20.508,35.156,20.020,24.902,27.832,0
212631.594,20.020,35.645,18.066,17.578,-5.859,0
212631.598,19.531,37.598,23.438,23.438,46.387,0
212631.602,21.973,44.434,23.926,31.250,0.977,0
212631.606,24.414,53.711,24.414,41.504,-30.273,0
212631.609,18.555,49.316,33.691,49.805,-25.879,0
212631.613,17.578,47.363,40.039,33.691,-62.988,0
212631.617,8.789,40.527,32.227,45.410,-22.461,0
212631.621,6.836,32.715,23.438,61.523,1.953,0
212631.625,15.625,36.621,28.320,47.852,-21.484,0
212631.629,13.672,42.480,34.180,49.805,-11.230,0
212631.633,0.488,38.574,31.738,49.805,1.465,0
212631.637,-10.254,37.598,34.668,49.805,1.465,0
212631.641,-11.230,41.992,30.273,50.781,0.977,0
212631.645,-15.137,37.109,23.438,44.434,0.977,0
212631.649,-11.719,35.156,28.320,53.711,39.551,0
212631.652,-13.672,39.062,26.855,57.129,71.289,0
212631.656,-16.113,40.039,24.902,50.293,33.203,0
212631.660,-11.719,31.250,26.367,53.711,52.246,1
212631.664,-16.602,27.832,21.484,56.641,72.266,0
212631.668,-17.578,33.203,24.414,53.223,35.156,0
212631.672,-5.859,39.551,34.180,61.523,4.883,0
212631.676,0.000,44.434,36.133,67.871,28.320,0
212631.680,-5.859,42.480,32.227,53.711,47.852,0
212631.684,-13.184,41.992,28.320,36.621,9.277,0
212631.688,-22.949,37.109,22.949,40.527,23.438,0
212631.692,-24.902,31.738,19.531,41.504,42.480,0
212631.695,-17.090,34.180,17.578,44.922,26.855,0
212631.699,-10.254,37.109,16.113,34.180,0.977,0
212631.703,-1.953,39.062,24.414,35.645,35.645,0
212631.707,6.836,42.480,29.785,56.641,68.359,0
212631.711,3.906,41.992,22.461,53.711,45.410,0
212631.715,0.977,40.039,18.555,38.574,8.789,0
212631.719,4.883,47.852,26.855,32.715,2.930,0
212631.723,6.348,54.688,28.320,41.016,51.758,0
212631.727,13.672,59.082,29.297,60.547,67.383,0
212631.731,5.859,43.457,29.785,45.898,52.246,0
212631.734,-14.648,23.438,25.391,18.555,51.270,0
212631.738,-14.160,20.996,28.809,27.832,81.055,0
212631.742,-9.766,24.414,30.273,34.180,70.801,0
212631.746,-9.277,31.738,24.902,33.203,80.078,0
212631.750,-1.465,40.039,21.484,29.297,83.496,0
212631.754,2.441,44.434,27.832,38.574,78.613,0
212631.758,-9.766,42.969,34.180,43.457,57.129,0
212631.762,-17.578,42.480,35.645,30.762,40.527,0
212631.766,-27.344,33.691,27.344,26.855,55.176,0
212631.770,-35.645,24.902,23.926,34.180,56.641,0
212631.774,-28.320,24.414,31.738,27.832,38.086,0
212631.777,-17.578,29.785,38.086,31.250,52.246,0
212631.781,-11.719,39.551,36.621,46.875,49.805,0
212631.785,-14.160,36.621,27.344,34.668,31.738,0
212631.789,-8.789,33.691,23.438,23.926,33.691,0
212631.793,-2.441,35.645,23.926,29.297,28.320,0
212631.797,0.977,37.109,26.367,31.738,18.555,0
212631.801,2.441,38.086,28.809,28.809,47.852,0
212631.805,2.441,41.504,32.227,23.438,20.020,0
212631.809,3.418,41.504,33.203,22.949,-64.941,0
212631.813,12.207,39.551,32.715,41.504,-34.668,0
212631.817,17.090,37.598,25.391,47.852,-55.176,0
212631.820,4.883,33.203,21.973,43.457,-29.785,0
212631.824,-5.859,38.574,29.297,38.574,19.531,0
212631.828,-6.836,46.875,28.320,41.992,9.277,0
212631.832,-12.695,41.504,26.855,35.645,3.418,0
212631.836,-13.184,37.598,30.762,29.297,-24.414,0
212631.840,-5.371,42.969,37.598,42.480,-46.875,0
212631.844,-4.395,45.898,38.574,47.363,-17.090,0
212631.848,-10.254,41.016,28.809,34.668,-0.488,0
212631.852,-15.625,36.621,25.879,11.719,-55.176,0
212631.856,-2.441,41.504,32.227,33.203,-26.855,0
212631.859,9.277,49.805,32.715,58.594,31.250,0
212631.863,0.000,43.457,26.367,31.250,21.973,0
212631.867,-5.859,37.109,21.484,24.902,42.480,0
212631.871,0.000,38.574,20.508,37.109,76.172,0
212631.875,2.930,39.551,20.508,32.227,54.688,0
212631.879,1.953,40.039,23.926,30.762,19.043,0
212631.883,-0.977,38.574,24.902,32.715,34.180,0
212631.887,-1.953,34.668,23.926,21.484,48.340,0
212631.891,4.883,28.320,31.738,23.438,14.648,0
212631.895,5.859,35.645,38.086,29.785,0.488,0
212631.899,-2.930,44.922,31.738,18.066,-1.953,0
212631.902,-4.395,43.457,25.879,29.297,49.805,0
212631.906,-2.441,43.457,24.902,50.781,89.355,0
212631.910,-2.441,43.457,26.367,37.109,59.082,0
212631.914,-5.859,38.574,27.344,26.367,68.359,0
212631.918,-0.977,35.156,33.203,36.133,70.801,0
212631.922,5.371,39.062,36.133,43.457,26.367,0
212631.926,-6.836,38.086,26.855,40.039,83.496,0
212631.930,-13.672,34.668,20.996,30.273,151.367,0
212631.934,-15.625,36.133,18.066,27.832,113.770,0
212631.938,-20.996,33.691,15.625,27.832,64.941,0
212631.942,-17.090,32.227,18.555,14.160,10.742,0
212631.945,-6.836,30.273,26.855,27.832,15.625,0
212631.949,1.953,36.133,36.621,35.645,33.203,0
212631.953,1.953,42.480,34.180,29.297,26.855,0
212631.957,-3.906,38.574,20.020,34.180,38.086,0
212631.961,-7.324,36.621,15.625,37.109,51.270,0
212631.965,-6.348,38.086,19.043,30.762,59.082,0
212631.969,3.418,43.945,23.926,22.461,66.895,0
212631.973,7.324,45.898,28.320,35.645,81.543,0
212631.977,1.953,39.551,26.855,35.645,77.148,0
212631.981,4.883,39.062,26.367,34.668,35.645,0
212631.984,0.977,40.527,26.367,20.996,12.207,0
212631.988,7.324,40.527,23.926,18.555,29.785,0
212631.992,18.555,39.062,20.020,44.434,70.312,0
212631.996,13.184,39.551,19.531,38.086,61.523,0
212632.000,9.766,40.039,25.391,27.344,15.625,0
212632.004,14.648,42.969,25.391,41.992,7.324,0
212632.008,22.949,45.410,23.926,47.363,38.574,0
212632.012,20.996,41.504,27.344,49.316,61.035,0
212632.016,16.602,37.598,26.367,41.504,47.852,0
212632.020,20.508,42.480,29.785,37.109,60.547,0
212632.024,25.879,52.734,33.691,47.363,77.637,0
212632.027,20.508,43.945,24.902,46.387,55.664,0
212632.031,13.184,32.227,17.578,36.133,48.828,0
212632.035,20.508,43.457,23.438,28.320,58.594,0
212632.039,23.438,49.805,20.996,34.180,66.895,0
212632.043,24.414,46.875,20.020,37.598,20.996,0
212632.047,27.832,46.875,32.227,24.414,-2.441,0
212632.051,17.578,42.480,39.062,28.320,41.016,0
212632.055,14.648,34.668,36.621,29.297,21.484,0
212632.059,12.207,35.645,32.227,20.020,-6.836,0
212632.063,4.883,34.180,25.879,23.926,-29.297,0
212632.067,4.883,24.414,25.391,25.391,9.766,0
212632.070,0.977,23.926,29.297,26.367,60.059,0
212632.074,1.465,32.715,29.297,21.973,25.879,0
212632.078,7.324,35.645,23.926,21.484,-14.160,0
212632.082,23.926,37.109,26.855,51.270,25.391,0
212632.086,43.457,41.992,33.203,78.613,52.734,0
212632.090,27.344,41.504,24.902,43.457,-4.395,0
212632.094,7.324,38.574,17.578,14.648,-8.789,0
212632.098,10.742,31.250,20.020,31.738,37.109,0
212632.102,10.742,28.809,22.949,37.109,46.875,0
212632.106,12.695,29.297,26.855,38.086,35.645,0
212632.109,12.695,30.762,27.344,36.133,28.320,0
212632.113,14.648,35.156,27.832,39.062,39.062,0
212632.117,15.625,34.180,26.855,49.805,37.598,0
212632.121,13.184,32.227,27.344,51.270,46.387,0
212632.125,20.996,39.551,28.809,51.758,53.711,0
212632.129,21.973,41.016,27.344,57.129,62.500,0
212632.133,18.555,50.293,32.715,59.082,64.941,0
212632.137,19.531,54.688,35.156,44.922,24.414,0
212632.141,14.160,36.133,28.320,34.180,36.621,0
212632.145,11.230,31.738,23.926,46.387,24.414,0
212632.149,13.184,40.039,22.461,48.340,7.324,0
212632.152,15.625,42.480,23.438,44.434,31.250,0
212632.156,16.602,41.992,28.320,60.547,43.457,0
212632.160,16.602,45.410,32.715,60.547,58.105,0
212632.164,11.230,48.340,29.297,38.086,62.500,0
212632.168,6.836,43.457,17.578,27.344,39.062,0
212632.172,9.277,41.992,12.207,36.133,37.109,0
212632.176,13.672,45.410,15.625,51.270,42.969,0
212632.180,17.578,42.969,23.926,36.621,18.066,0
212632.184,13.672,40.039,27.832,15.137,-23.926,0
212632.188,14.648,41.992,30.273,44.922,-18.555,0
212632.192,18.066,42.969,26.855,60.059,10.254,0
212632.195,20.020,43.945,21.484,49.316,24.414,0
212632.199,17.578,44.434,23.926,43.945,58.594,0
212632.203,16.113,42.480,28.809,46.875,62.500,0
212632.207,18.066,41.016,28.809,51.758,44.922,0
212632.211,8.301,38.574,20.996,35.156,27.832,0
212632.215,0.488,33.691,18.066,22.461,-1.953,0
212632.219,1.953,32.715,26.367,15.625,-12.207,0
212632.223,3.906,34.668,31.738,27.344,0.000,0
212632.227,-5.859,33.691,26.367,26.367,4.883,0
212632.231,-8.789,32.227,25.391,30.273,11.230,0
212632.234,1.465,38.086,23.438,50.781,30.273,0
212632.238,14.648,44.922,28.809,58.105,35.156,0
212632.242,13.672,40.527,30.273,50.293,26.367,0
212632.246,6.836,35.156,21.973,43.457,55.176,0
212632.250,0.977,35.156,27.832,39.551,73.730,0
212632.254,-2.930,35.645,34.180,28.809,12.207,0
212632.258,-2.441,35.156,32.715,32.227,-0.488,0
212632.262,-3.906,38.086,28.320,45.898,20.996,0
212632.266,-2.930,45.898,29.785,48.828,10.254,0
212632.270,-2.930,48.340,29.297,32.227,-4.395,0
212632.274,-1.953,41.016,25.391,19.531,-0.977,0
212632.277,7.324,39.062,25.879,42.480,50.781,0
212632.281,15.137,49.316,32.715,48.828,47.852,0
212632.285,7.812,44.922,28.809,37.109,44.434,0
212632.289,3.418,37.598,20.508,42.480,57.617,0
212632.293,6.836,43.945,23.926,45.410,56.152,0
212632.297,6.836,46.875,24.414,49.805,77.148,0
212632.301,7.812,45.410,25.879,53.711,54.199,0
212632.305,2.441,44.434,27.832,52.246,33.691,0
212632.309,1.953,45.410,26.855,45.898,60.547,0
212632.313,8.301,47.363,28.809,42.969,45.898,0
212632.317,4.883,43.945,23.926,32.715,14.648,0
212632.320,3.418,39.062,25.879,41.992,2.441,0
212632.324,9.277,44.922,36.133,62.500,12.207,0
212632.328,4.883,49.316,29.785,45.898,34.668,0
212632.332,-2.441,40.527,20.996,31.738,57.617,0
212632.336,-2.930,34.180,23.926,37.109,67.871,0
212632.340,3.418,38.086,26.855,35.645,31.250,1
212632.344,7.324,40.039,22.949,32.227,25.879,0
212632.348,2.930,37.109,19.531,21.484,52.246,0
212632.352,2.441,34.668,23.926,27.344,52.734,0
212632.356,6.348,32.227,30.762,45.410,55.176,0
212632.359,12.207,34.180,34.180,42.969,66.406,0
212632.363,18.066,40.527,37.598,37.598,20.508,0
212632.367,11.230,35.156,37.109,44.922,30.762,0
212632.371,7.812,33.691,32.715,51.758,63.477,0
212632.375,12.695,38.086,37.109,44.434,36.133,0
212632.379,7.812,36.621,35.645,36.133,12.695,0
212632.383,5.859,40.527,31.738,36.621,25.879,0
212632.387,8.301,42.480,34.180,40.527,8.789,0
212632.391,2.441,34.668,31.250,34.180,-2.930,0
212632.395,-6.836,29.297,25.879,29.785,21.484,0
212632.399,-11.719,30.762,23.926,34.180,43.945,0
212632.402,-11.719,38.086,27.344,38.086,44.434,0
212632.406,-10.742,42.480,33.203,23.438,35.156,0
212632.410,-6.348,43.945,34.668,20.020,43.945,0
212632.414,1.465,44.922,30.273,48.340,70.801,0
212632.418,3.418,41.992,22.949,52.246,70.801,0
212632.422,0.000,37.109,21.973,34.180,78.125,0
212632.426,-1.953,37.109,30.273,39.062,105.957,0
212632.430,1.465,41.992,32.715,44.434,99.121,0
212632.434,3.418,46.387,25.879,38.574,93.262,0
212632.438,5.371,46.387,24.414,35.645,92.773,0
212632.442,8.301,40.527,27.832,45.410,79.590,0
212632.445,6.836,36.133,28.320,37.109,68.359,0
212632.449,-1.953,37.109,23.438,11.719,36.133,0
212632.453,-5.859,40.527,14.648,3.906,-32.715,0
212632.457,-1.953,40.527,20.996,19.531,5.859,0
212632.461,1.465,42.480,24.902,32.715,45.410,0
212632.465,6.348,48.828,20.020,21.973,5.371,0
212632.469,13.184,50.781,24.414,22.461,-0.488,0
212632.473,18.066,48.828,26.367,45.898,33.691,0
212632.477,15.625,46.387,26.367,39.551,54.199,0
212632.481,10.254,42.969,31.738,27.344,62.500,0
212632.484,7.812,42.480,30.762,21.973,67.871,0
212632.488,17.578,50.781,34.180,28.809,21.484,0
212632.492,22.461,52.246,32.715,36.621,10.742,0
212632.496,16.113,43.457,20.996,15.137,38.574,0
212632.500,19.043,42.969,23.438,21.973,29.297,0
212632.504,16.602,45.410,25.879,43.945,19.043,0
212632.508,12.695,41.504,22.949,43.457,16.113,0
212632.512,14.648,44.434,22.949,37.598,-6.836,0
212632.516,14.648,50.781,23.438,41.016,5.371,0
212632.520,14.648,47.852,25.879,53.223,63.477,0
212632.524,12.695,42.480,33.203,49.805,61.035,0
212632.527,12.207,47.852,36.621,45.410,40.039,0
212632.531,12.207,47.852,29.297,48.340,41.504,0
212632.535,9.277,46.387,24.902,51.270,59.570,0
212632.539,8.301,47.363,29.297,44.434,54.688,0
212632.543,6.836,40.039,28.809,25.879,-1.953,0
212632.547,5.859,32.715,25.391,25.391,-8.301,0
212632.551,8.789,31.250,25.391,24.902,6.348,0
212632.555,6.348,38.574,27.832,23.926,2.441,0
212632.559,0.000,42.969,33.203,28.320,21.484,0
212632.563,-1.953,37.598,31.738,40.527,72.754,0
212632.567,3.906,41.016,27.344,39.062,61.035,0
212632.570,5.859,43.457,23.926,25.879,35.645,0
212632.574,10.254,38.574,25.391,43.945,71.289,0
212632.578,13.184,35.156,21.973,54.199,109.863,0
212632.582,10.742,30.762,16.602,36.133,83.008,0
212632.586,19.531,39.062,30.273,33.691,50.293,0
212632.590,26.855,46.875,40.039,54.688,30.273,0
212632.594,19.043,44.434,29.297,61.523,14.160,0
212632.598,10.254,40.527,23.926,51.270,37.598,0
212632.602,-7.324,30.273,22.949,17.090,-3.906,0
212632.606,-8.789,25.391,25.391,12.207,-12.695,0
212632.609,7.324,31.250,29.297,54.688,35.156,0
212632.613,7.812,38.086,28.320,52.246,42.969,0
212632.617,-3.418,36.621,22.949,23.926,65.918,0
212632.621,-0.488,36.621,21.973,34.668,63.477,0
212632.625,7.812,33.691,18.555,44.434,62.500,0
212632.629,13.672,30.273,14.648,32.227,76.660,0
212632.633,18.066,41.504,25.879,29.297,52.734,0
212632.637,13.672,47.363,31.250,29.785,16.602,0
212632.641,6.836,40.527,25.391,21.484,-8.301,0
212632.645,8.301,39.062,21.973,14.160,-21.973,0
212632.649,11.719,41.016,24.414,12.207,12.695,0
212632.652,9.277,42.969,24.902,34.668,86.914,0
212632.656,10.742,47.852,23.438,39.062,43.945,0
212632.660,12.207,48.340,22.461,30.273,27.832,0
212632.664,13.672,37.598,14.648,25.391,66.406,0
212632.668,18.066,34.668,17.090,24.414,50.293,0
212632.672,13.184,41.992,25.879,28.320,23.438,0
212632.676,0.977,41.992,21.973,15.625,20.020,0
212632.680,-0.488,45.410,21.484,11.230,21.973,0
212632.684,0.977,48.340,22.461,16.113,16.602,0
212632.688,-2.441,44.434,15.625,7.324,7.812,0
212632.692,-3.906,38.574,14.160,-6.348,-5.859,0
212632.695,-0.488,34.668,19.531,2.930,-5.371,0
212632.699,2.930,32.227,24.902,16.113,39.062,0
212632.703,3.906,33.691,24.414,21.484,32.715,0
212632.707,11.230,44.922,23.438,28.809,8.789,0
212632.711,12.207,47.363,21.484,26.367,4.883,0
212632.715,7.812,41.504,20.020,18.555,24.902,0
212632.719,7.324,36.621,20.508,14.160,22.949,0
212632.723,6.836,35.156,18.555,21.484,44.922,0
212632.727,3.418,41.504,18.066,22.461,44.922,0
212632.731,-1.953,43.945,24.414,20.020,22.461,0
212632.734,0.000,46.875,26.367,13.184,11.230,0
212632.738,3.418,48.340,21.973,0.977,-2.441,0
212632.742,4.395,42.969,22.461,12.207,57.129,0
212632.746,8.789,44.434,29.297,31.250,88.379,0
212632.750,4.395,40.527,27.344,24.902,58.594,0
212632.754,4.883,37.109,27.344,11.719,44.922,0
212632.758,7.812,32.227,25.879,14.160,96.191,0
212632.762,0.488,29.297,20.996,14.648,93.262,0
212632.766,1.953,37.109,23.926,8.789,44.922,0
212632.770,8.789,42.480,25.879,14.648,51.758,0
212632.774,9.277,44.922,29.297,26.367,82.031,0
212632.777,5.859,42.969,29.785,29.297,75.195,0
212632.781,5.371,44.434,26.367,23.926,69.824,0
212632.785,-2.930,45.410,23.438,14.648,51.758,0
212632.789,-2.930,44.922,24.902,28.320,55.664,0
212632.793,6.836,46.875,34.180,34.180,82.520,0
212632.797,3.418,43.457,32.227,25.391,58.105,0
212632.801,0.977,34.668,27.344,26.855,13.184,0
212632.805,1.953,31.250,23.926,34.668,62.988,0
212632.809,10.742,35.645,21.484,37.109,90.332,0
212632.813,15.625,35.156,21.973,21.973,4.395,0
212632.817,4.395,29.785,19.531,5.371,-3.418,0
212632.820,4.883,32.227,20.996,11.719,35.156,0
212632.824,11.719,35.645,25.879,11.719,1.465,0
212632.828,16.113,40.039,29.297,8.301,-31.250,0
212632.832,19.531,46.875,29.297,18.066,-30.273,0
212632.836,17.090,43.457,23.926,26.367,-29.785,0
212632.840,10.254,38.086,20.508,16.602,-39.551,0
212632.844,9.277,39.062,24.902,11.719,-29.785,0
212632.848,19.531,35.645,32.227,16.113,-12.695,0
212632.852,22.461,39.062,35.645,15.625,-7.812,0
212632.856,21.484,44.922,34.180,18.555,-11.230,0
212632.859,22.461,44.434,31.250,22.949,-0.488,0
212632.863,28.320,44.434,28.809,31.250,23.438,0
212632.867,36.133,48.828,35.156,36.621,12.207,0
212632.871,19.043,50.781,35.156,22.461,14.160,0
212632.875,12.207,49.316,28.809,6.348,10.742,0
212632.879,24.902,43.945,31.738,16.602,-2.441,0
212632.883,15.137,37.598,34.180,14.648,-11.719,0
212632.887,8.301,42.480,32.715,-2.930,-38.086,0
212632.891,14.648,43.457,33.203,17.090,1.465,0
212632.895,15.625,35.645,33.203,23.926,30.762,0
212632.899,13.672,36.133,32.715,5.859,-25.391,0
212632.902,14.648,41.504,33.203,9.277,-26.855,0
212632.906,24.414,42.480,34.180,31.738,28.320,0
212632.910,33.203,41.016,30.273,38.574,29.297,0
212632.914,35.645,39.062,24.902,25.879,19.043,0
212632.918,28.809,40.527,33.203,21.484,21.973,0
212632.922,23.926,39.062,39.062,31.250,24.902,0
212632.926,28.809,37.109,34.180,43.945,43.457,0
212632.930,28.320,36.133,31.250,42.969,56.641,0
212632.934,24.414,33.203,30.273,28.809,34.180,0
212632.938,28.809,34.668,33.691,31.738,43.457,0
212632.942,35.645,39.062,38.086,51.270,53.223,0
212632.945,29.785,43.457,34.668,35.156,16.602,0
212632.949,24.414,43.945,30.762,24.902,-5.371,0
212632.953,28.809,38.574,32.715,58.594,32.715,0
212632.957,24.902,32.715,26.855,47.852,48.828,0
212632.961,19.531,35.645,20.020,23.926,46.387,0
212632.965,18.066,41.504,27.832,24.414,30.762,0
212632.969,17.090,42.480,42.969,29.785,3.418,0
212632.973,16.113,44.434,39.551,32.227,-10.742,0
212632.977,13.672,43.945,22.461,21.484,-10.254,0
212632.981,12.207,39.551,25.879,24.902,50.293,0
212632.984,11.230,40.039,34.668,31.250,72.266,0
212632.988,13.184,42.969,33.691,25.879,20.508,0
212632.992,19.531,44.922,34.180,27.832,12.207,0
212632.996,22.461,43.457,27.344,31.250,52.734,0
212633.000,24.902,39.551,22.461,34.180,90.332,0
212633.004,31.250,39.551,27.832,34.180,92.285,0
212633.008,29.297,37.109,27.832,40.039,43.457,0
212633.012,26.367,30.762,26.367,49.316,44.434,0
212633.016,22.461,33.691,26.367,32.715,50.781,0
212633.020,15.625,44.434,26.855,0.000,0.000,1
212633.024,14.160,44.922,28.320,-2.930,-16.602,0
212633.027,11.719,40.039,29.297,27.344,33.691,0
212633.031,7.812,40.039,30.273,33.691,61.035,0
212633.035,9.766,41.504,29.297,27.832,57.129,0
212633.039,12.207,39.062,30.762,35.645,54.688,0
212633.043,10.254,34.180,25.879,32.227,24.414,0
212633.047,3.906,34.180,20.020,21.484,30.762,0
212633.051,0.000,34.668,22.461,16.113,73.242,0
212633.055,8.789,36.133,26.855,19.531,80.566,0
212633.059,12.207,40.039,24.414,27.832,65.430,0
212633.063,8.789,41.016,26.367,22.461,70.312,0
212633.067,4.395,35.156,33.691,5.859,65.918,0
212633.070,3.906,30.273,34.180,14.648,67.383,0
212633.074,17.578,38.086,35.156,34.180,28.809,0
212633.078,20.508,45.410,33.203,29.297,22.949,0
212633.082,5.859,34.668,24.902,16.602,28.320,0
212633.086,0.977,27.344,23.926,17.578,35.156,0
212633.090,5.371,31.250,25.879,24.902,51.270,0
212633.094,14.160,29.297,28.320,24.414,49.805,0
212633.098,17.090,33.691,29.785,10.742,45.410,0
212633.102,14.160,43.945,25.879,15.625,30.273,0
212633.106,11.230,40.527,22.461,24.902,52.734,0
212633.109,7.324,35.645,24.414,5.859,46.875,0
212633.113,14.648,39.551,29.785,-1.465,3.418,0
212633.117,20.996,39.062,28.320,9.277,38.086,0
212633.121,19.531,36.621,24.414,18.555,74.219,0
212633.125,20.508,36.621,23.438,19.531,51.270,0
212633.129,18.066,29.785,23.438,5.859,51.758,0
212633.133,17.578,26.367,26.855,0.977,52.734,0
212633.137,20.508,36.133,30.273,2.930,63.965,0
212633.141,20.508,44.922,27.832,-2.930,54.688,0
212633.145,26.855,44.434,24.902,9.277,46.387,0
212633.149,33.691,43.457,25.391,21.973,57.617,0
212633.152,25.391,43.457,21.973,11.719,30.762,0
212633.156,21.484,42.480,21.973,-17.578,-27.344,0
212633.160,24.414,37.109,24.414,-14.648,-23.926,0
212633.164,24.414,32.227,22.461,11.230,8.301,0
212633.168,24.414,27.832,22.949,4.883,4.395,0
212633.172,23.926,29.297,22.949,0.488,17.578,0
212633.176,25.879,39.062,29.785,14.648,29.297,0
212633.180,25.391,46.387,35.645,13.184,36.133,0
212633.184,24.414,37.109,33.203,0.000,4.883,0
212633.188,20.996,25.879,30.273,3.906,17.578,0
212633.192,24.902,34.180,28.809,16.113,32.227,0
212633.195,36.133,50.781,35.156,28.809,28.809,0
212633.199,29.785,41.504,39.062,18.066,35.156,0
212633.203,15.137,24.414,29.297,-3.906,10.742,0
212633.207,8.301,28.809,23.438,-4.395,8.301,0
212633.211,4.395,33.203,25.879,0.000,52.734,0
212633.215,4.395,36.621,24.902,-18.066,1.465,0
212633.219,13.672,44.434,26.855,-18.555,-19.043,0
212633.223,19.531,45.410,27.832,8.789,30.762,0
212633.227,20.996,42.969,28.809,15.625,16.113,0
212633.231,23.926,41.992,30.273,17.578,-6.836,0
212633.234,19.043,34.180,24.414,0.977,-3.906,0
212633.238,20.020,37.598,23.438,7.324,35.156,0
212633.242,20.020,41.504,26.367,21.973,61.523,0
212633.246,11.230,30.762,26.855,4.395,32.227,0
212633.250,12.695,26.367,31.250,-9.277,-4.883,0
212633.254,11.719,34.180,29.297,2.441,-21.484,0
212633.258,5.371,37.598,22.949,8.301,-23.926,0
212633.262,4.883,40.039,22.461,-9.766,-2.930,0
212633.266,5.859,47.363,24.414,-7.324,9.277,0
212633.270,6.836,44.922,23.926,3.418,-16.113,0
212633.274,10.742,38.574,25.391,-9.766,-60.059,0
212633.277,10.254,41.992,27.344,-12.207,-34.180,0
212633.281,10.742,46.387,30.762,-0.977,20.508,0
212633.285,6.348,41.016,33.203,-11.230,9.766,0
212633.289,1.953,33.691,25.879,-16.602,12.207,0
212633.293,-0.488,32.227,18.555,-18.066,11.719,0
212633.297,0.000,38.574,16.113,-14.160,16.602,0
212633.301,9.277,46.875,18.555,15.137,55.664,0
212633.305,12.695,48.828,16.602,11.719,28.809,0
212633.309,13.672,41.504,16.113,-4.395,-1.465,0
212633.313,12.207,32.227,18.555,16.113,56.641,0
212633.317,7.324,33.691,18.555,16.602,42.480,0
212633.320,1.953,38.574,24.902,6.836,27.344,0
212633.324,-0.977,41.504,32.227,9.766,30.762,0
212633.328,-2.441,39.551,31.738,18.555,46.875,0
212633.332,-3.418,40.039,31.738,20.996,56.641,0
212633.336,-7.324,35.156,29.297,6.348,44.434,0
212633.340,0.488,33.691,27.832,11.719,49.805,0
212633.344,14.160,36.133,31.250,22.949,43.945,0
212633.348,6.836,36.621,26.367,11.719,42.969,0
212633.352,-3.418,41.992,19.043,-35.156,16.113,0
212633.356,-8.301,39.551,18.066,-28.809,16.113,0
212633.359,-9.277,41.992,17.090,10.254,74.219,0
212633.363,-7.324,48.340,19.043,-5.859,75.684,0
212633.367,-14.160,44.922,25.879,-17.578,56.152,0
212633.371,-15.625,43.945,32.715,-2.441,53.711,0
212633.375,-14.648,44.434,27.344,2.441,60.547,0
212633.379,-17.578,39.062,17.578,-6.836,33.203,0
212633.383,-17.090,37.598,20.508,-1.465,-11.719,0
212633.387,-12.207,37.109,23.926,6.836,-9.277,0
212633.391,-5.371,34.180,18.555,6.348,-18.066,0
212633.395,0.000,38.086,20.020,8.789,-26.367,0
212633.399,-5.859,39.062,21.484,7.324,-29.785,0
212633.402,-3.418,38.574,21.973,23.926,6.348,0
212633.406,9.277,41.504,29.785,40.527,19.043,0
212633.410,6.348,40.527,30.762,25.879,15.137,0
212633.414,2.441,37.109,26.855,23.438,58.594,0
212633.418,-0.977,35.156,25.879,27.832,47.363,0
212633.422,0.000,41.992,22.461,18.555,14.648,0
212633.426,3.906,37.109,22.949,12.207,25.391,0
212633.430,10.254,28.809,28.809,12.695,45.410,0
212633.434,12.207,30.762,29.297,1.953,27.344,0
212633.438,10.742,33.203,25.879,-2.441,32.227,0
212633.442,14.648,39.062,27.832,-16.113,13.672,0
212633.445,15.137,43.457,30.273,-7.324,27.344,0
212633.449,11.719,45.410,28.809,19.043,64.453,0
212633.453,16.113,47.363,31.250,9.277,28.809,0
212633.457,19.531,40.039,25.879,-4.883,41.992,0
212633.461,10.742,23.926,15.137,-4.883,65.430,0
212633.465,5.859,23.926,19.043,8.301,56.641,0
212633.469,13.672,37.109,24.902,5.859,35.645,0
212633.473,21.973,42.480,25.879,4.395,64.453,0
212633.477,21.973,39.062,28.320,7.324,87.891,0
212633.481,19.531,37.109,26.367,3.906,26.855,0
212633.484,16.602,43.945,24.414,-4.395,-11.230,0
212633.488,20.508,52.734,32.227,-4.883,28.320,0
212633.492,19.043,45.898,35.645,14.160,104.980,0
212633.496,12.207,37.598,30.762,13.184,83.496,0
212633.500,16.113,41.504,28.809,-4.395,16.113,0
212633.504,17.578,38.086,22.461,-15.625,12.207,0
212633.508,19.531,37.598,20.020,4.395,35.645,0
212633.512,23.926,44.434,19.531,14.160,59.082,0
212633.516,21.973,47.363,17.090,2.930,50.781,0
212633.520,22.949,52.246,17.090,1.465,7.812,0
212633.524,24.902,53.223,17.578,8.301,0.977,0
212633.527,17.578,48.828,26.855,11.230,15.625,0
212633.531,10.742,48.340,33.691,-11.230,15.137,0
212633.535,5.859,41.992,28.320,-22.949,48.340,0
212633.539,0.488,36.133,22.461,3.906,85.449,0
212633.543,0.000,38.086,23.926,7.812,74.219,0
212633.547,-1.465,39.062,24.902,2.441,83.496,0
212633.551,-5.371,37.598,26.855,6.348,82.031,0
212633.555,-2.930,42.480,26.367,12.695,84.473,0
212633.559,3.906,45.898,22.949,9.277,111.816,0
212633.563,15.625,47.363,26.367,14.648,97.168,0
212633.567,20.020,45.410,26.367,15.625,59.082,0
212633.570,13.184,41.016,20.508,-0.488,2.441,0
212633.574,10.742,41.504,18.555,4.883,-12.695,0
212633.578,12.695,39.551,20.996,-10.742,-9.277,0
212633.582,8.301,37.598,23.926,-0.488,1.465,0
212633.586,-0.488,39.062,23.438,27.344,8.789,0
212633.590,-7.324,36.133,21.484,15.625,16.602,0
212633.594,-6.348,36.621,23.438,16.113,35.645,0
212633.598,-0.977,39.062,27.344,21.484,56.641,0
212633.602,-1.953,34.180,26.855,11.230,45.410,0
212633.606,4.395,30.273,27.344,15.137,29.297,0
212633.609,11.719,37.109,25.391,27.344,64.941,0
212633.613,13.672,43.457,21.973,37.109,97.168,0
212633.617,9.766,40.039,21.484,26.367,77.148,0
212633.621,1.465,36.621,20.508,11.719,39.551,0
212633.625,4.395,35.645,21.484,12.695,48.340,0
212633.629,10.742,36.621,27.344,13.184,44.434,0
212633.633,11.230,37.109,32.715,15.625,25.879,0
212633.637,10.254,36.621,32.715,3.906,9.277,0
212633.641,11.230,40.039,32.227,13.184,-4.883,0
212633.645,11.230,41.992,27.832,29.297,44.922,0
212633.649,15.625,47.363,28.809,22.949,57.129,0
212633.652,20.996,52.734,29.785,12.207,31.738,0
212633.656,18.555,42.480,20.996,16.113,28.320,0
212633.660,20.020,40.527,21.973,34.180,39.062,0
212633.664,18.066,45.410,23.438,24.902,30.762,0
212633.668,12.695,46.875,24.414,19.531,-14.160,0
212633.672,14.648,47.852,30.762,28.320,-20.996,0
212633.676,9.277,40.527,32.227,25.391,12.695,1
212633.680,1.465,43.457,30.762,16.602,3.418,0
212633.684,-1.953,54.688,31.250,5.371,-28.809,0
212633.688,2.441,50.781,27.832,18.066,-4.883,0
212633.692,1.465,42.969,24.414,31.250,28.809,0
212633.695,-2.930,41.504,25.391,15.625,35.645,0
212633.699,-3.906,40.039,23.438,15.625,17.578,0
212633.703,-5.859,37.598,24.902,26.367,26.367,0
212633.707,-1.465,34.668,26.855,31.250,34.668,0
212633.711,3.906,40.527,30.273,41.504,23.926,0
212633.715,0.977,48.340,28.320,20.996,4.883,0
212633.719,-0.977,47.363,21.484,7.324,-31.738,0
212633.723,0.977,45.410,23.926,15.625,-40.527,0
212633.727,3.906,48.828,27.832,13.184,-37.598,0
212633.731,5.371,46.875,29.785,20.020,14.160,0
212633.734,-3.418,34.668,24.902,20.020,43.945,0
212633.738,-7.324,34.180,25.879,7.324,-12.207,0
212633.742,-4.883,34.668,31.250,10.254,-24.414,0
212633.746,-9.277,30.273,31.738,9.277,3.906,0
212633.750,-15.137,30.273,31.250,7.812,4.395,0
212633.754,-12.695,30.273,29.785,7.812,25.391,0
212633.758,1.465,38.574,34.180,20.508,30.762,0
212633.762,9.766,42.969,35.645,22.949,47.363,0
212633.766,2.441,36.621,30.273,12.695,74.707,0
212633.770,-1.465,41.504,27.832,2.441,50.781,0
212633.774,-3.418,39.062,26.367,-4.883,67.383,0
212633.777,-2.930,37.598,26.367,17.090,99.609,0
212633.781,0.488,42.969,25.879,31.250,75.195,0
212633.785,-3.906,36.133,20.020,19.043,53.711,0
212633.789,-1.953,31.250,19.531,5.859,7.812,0
212633.793,6.836,35.156,26.367,13.672,-6.348,0
212633.797,9.277,40.039,22.949,22.949,8.789,0
212633.801,2.441,38.086,22.949,13.184,1.953,0
212633.805,3.906,38.086,35.156,17.578,17.578,0
212633.809,8.301,43.457,39.551,25.879,44.434,0
212633.813,11.719,43.945,38.086,19.043,22.949,0
212633.817,13.184,41.992,36.621,1.953,-10.254,0
212633.820,5.859,35.645,30.273,5.859,-15.625,0
212633.824,8.789,36.621,27.832,40.527,8.301,0
212633.828,16.602,42.480,26.367,32.227,20.020,0
212633.832,16.602,46.387,20.996,15.137,10.254,0
212633.836,13.672,45.410,19.043,27.344,6.348,0
212633.840,13.184,43.457,18.066,28.809,-1.953,0
212633.844,10.254,43.457,18.066,24.414,11.230,0
212633.848,7.324,42.969,22.461,20.020,15.625,0
212633.852,4.883,43.457,27.832,29.785,20.996,0
212633.856,5.371,46.387,28.809,45.410,52.734,0
212633.859,0.488,40.527,23.926,29.785,54.688,0
212633.863,-2.930,32.715,21.973,14.160,19.531,0
212633.867,1.465,38.086,21.973,23.438,53.711,0
212633.871,3.418,43.457,23.926,23.926,76.172,0
212633.875,6.836,44.434,26.367,33.691,52.246,0
212633.879,5.371,40.039,23.438,35.156,83.008,0
212633.883,2.441,36.621,23.438,23.926,108.887,0
212633.887,2.930,43.457,24.902,17.090,66.895,0
212633.891,0.488,44.434,23.926,15.625,54.688,0
212633.895,5.859,37.598,25.879,17.090,63.477,0
212633.899,5.371,40.039,26.367,20.508,50.293,0
212633.902,0.488,44.434,23.438,24.414,66.406,0
212633.906,0.977,43.945,23.438,5.859,37.598,0
212633.910,1.465,42.969,23.926,-8.301,34.668,0
212633.914,1.953,38.086,20.020,8.301,75.684,0
212633.918,1.465,41.016,19.043,9.766,51.758,0
212633.922,5.371,43.457,21.973,9.277,44.922,0
212633.926,7.324,37.109,23.438,21.484,89.844,0
212633.930,3.418,34.668,24.902,13.184,62.988,0
212633.934,0.977,32.227,22.461,5.859,34.180,0
212633.938,7.324,37.109,18.555,12.207,39.551,0
212633.942,15.625,39.551,21.484,22.461,60.059,0
212633.945,17.090,37.598,22.949,21.973,73.242,0
212633.949,13.184,39.062,22.461,2.930,38.574,0
212633.953,12.695,38.086,24.902,9.277,46.387,0
212633.957,16.113,43.457,26.367,28.320,39.551,0
212633.961,15.137,42.969,25.391,20.020,3.906,0
212633.965,10.254,29.785,20.996,11.230,28.809,0
212633.969,6.348,25.879,13.184,14.160,74.219,0
212633.973,9.277,34.668,16.113,14.160,75.684,0
212633.977,12.207,39.062,26.367,12.207,58.594,0
212633.981,11.230,36.621,28.809,2.441,48.828,0
212633.984,9.277,35.156,23.926,-3.906,27.832,0
212633.988,9.277,33.203,21.973,3.906,57.129,0
212633.992,13.672,36.133,26.367,0.488,40.039,0
212633.996,11.230,31.250,22.461,4.395,26.855,0
212634.000,6.836,28.809,18.555,5.859,27.832,0
212634.004,9.277,37.109,18.066,8.301,6.348,0
212634.008,18.066,38.086,19.531,18.066,38.086,0
212634.012,18.555,36.133,20.508,5.859,-19.043,0
212634.016,15.625,37.109,19.043,8.789,-27.832,0
212634.020,15.625,35.156,20.020,18.555,9.277,0
212634.024,12.207,29.785,25.391,8.789,-29.297,0
212634.027,11.719,28.809,29.785,11.719,2.441,0
212634.031,15.625,32.227,31.250,18.555,26.855,0
212634.035,18.066,32.227,28.320,12.207,-6.836,0
212634.039,18.066,37.109,25.391,-1.953,-9.277,0
212634.043,20.508,41.504,28.320,3.906,-9.766,0
212634.047,20.020,37.598,29.785,23.926,-4.883,0
212634.051,8.789,33.691,25.391,20.020,29.785,0
212634.055,7.812,33.203,18.555,4.883,-12.207,0
212634.059,23.438,33.203,14.648,0.977,-24.414,0
212634.063,32.227,35.156,20.020,25.391,5.859,0
212634.067,30.273,39.551,26.367,27.344,13.184,0
212634.070,31.250,45.898,25.879,20.508,17.090,0
212634.074,30.762,46.387,26.367,25.879,13.184,0
212634.078,32.715,45.898,29.297,27.344,35.645,0
212634.082,37.598,45.410,26.855,20.996,46.875,0
212634.086,32.715,37.598,22.461,28.809,30.762,0
212634.090,27.832,32.227,20.508,37.598,33.203,0
212634.094,30.273,32.715,21.973,23.438,36.621,0
212634.098,37.598,35.156,24.902,24.902,19.043,0
212634.102,36.133,33.691,26.855,15.625,3.418,0
212634.106,33.691,31.250,27.344,19.531,15.625,0
212634.109,39.062,33.691,27.344,35.156,3.906,0
212634.113,35.156,35.645,28.320,22.461,-0.488,0
212634.117,27.344,40.527,27.832,15.625,14.648,0
212634.121,29.785,42.969,26.367,24.414,-5.371,0
212634.125,31.250,46.387,21.973,31.738,-8.789,0
212634.129,25.391,42.969,14.160,29.785,20.508,0
212634.133,20.020,32.227,16.602,22.461,33.203,0
212634.137,20.996,30.273,26.367,32.227,17.090,0
212634.141,22.461,36.621,32.715,36.621,1.953,0
212634.145,16.602,42.480,36.133,17.578,-11.719,0
212634.149,13.672,36.133,36.133,9.277,-20.508,0
212634.152,21.484,34.180,40.039,34.180,-0.977,0
212634.156,21.973,35.645,38.574,43.945,33.203,0
212634.160,13.184,30.273,25.391,35.156,54.688,0
212634.164,9.277,34.180,20.020,27.832,49.316,0
212634.168,11.719,41.016,26.855,33.203,29.785,0
212634.172,20.020,36.621,29.297,44.922,46.875,0
212634.176,22.461,31.250,26.367,42.480,63.965,0
212634.180,8.789,31.250,25.879,34.668,95.703,0
212634.184,-8.301,34.180,23.438,22.949,117.676,0
212634.188,-1.465,37.109,22.949,11.719,70.801,0
212634.192,5.859,39.062,22.949,4.883,19.531,0
212634.195,-4.883,40.527,25.391,15.625,20.020,0
212634.199,-5.859,39.551,27.832,30.762,47.852,0
212634.203,-5.859,40.039,24.902,22.949,53.711,0
212634.207,-0.488,42.969,27.832,20.508,5.859,0
212634.211,4.883,38.574,28.809,22.949,7.324,0
212634.215,1.465,34.668,23.438,21.484,38.086,0
212634.219,2.930,40.039,20.996,17.578,27.344,0
212634.223,6.348,44.434,22.461,21.484,2.930,0
212634.227,6.348,46.875,30.273,37.598,25.391,0
212634.231,6.836,45.410,31.250,31.738,1.953,0
212634.234,3.906,41.504,27.344,12.207,-51.270,0
212634.238,12.695,42.480,32.715,15.625,-41.504,0
212634.242,20.996,42.480,36.133,39.062,22.949,0
212634.246,15.625,41.504,31.250,41.992,33.691,0
212634.250,15.625,39.062,28.809,22.949,-15.137,0
212634.254,21.484,36.621,31.250,24.414,-7.812,0
212634.258,23.926,36.621,32.227,47.363,42.969,0
212634.262,20.508,42.480,32.715,46.387,74.219,0
212634.266,14.160,51.270,33.691,29.785,39.062,0
212634.270,17.578,49.805,31.250,28.320,-12.695,0
212634.274,25.391,41.504,28.809,37.598,2.441,0
212634.277,25.879,47.363,31.250,34.668,17.090,0
212634.281,17.578,53.223,32.227,8.301,-13.672,0
212634.285,9.277,41.016,31.250,5.371,-15.137,0
212634.289,8.301,30.762,31.250,21.973,16.602,0
212634.293,10.742,38.086,31.250,14.648,6.348,0
212634.297,19.531,47.363,30.273,19.043,20.996,0
212634.301,22.949,46.875,31.738,32.227,47.363,0
212634.305,21.973,45.898,30.762,26.855,12.207,0
212634.309,25.879,43.457,30.762,26.855,-44.922,0
212634.313,20.996,34.180,31.250,41.016,-21.484,0
212634.317,18.555,35.156,32.227,38.574,30.762,1
212634.320,24.414,37.109,28.809,36.133,35.645,0
212634.324,20.996,38.086,27.832,39.062,40.527,0
212634.328,15.137,40.527,31.738,27.832,37.598,0
212634.332,14.160,41.016,28.320,29.297,49.805,0
212634.336,12.207,41.992,26.367,38.574,78.125,0
212634.340,11.230,41.504,26.367,28.320,61.523,0
212634.344,10.254,41.016,27.344,23.926,72.754,0
212634.348,24.414,46.387,35.645,41.016,86.426,0
212634.352,32.227,46.387,34.180,40.527,60.547,0
212634.356,21.484,29.785,30.273,20.996,49.316,0
212634.359,16.602,20.996,31.738,23.926,65.430,0
212634.363,16.602,30.762,27.344,35.645,60.059,0
212634.367,13.672,40.039,24.414,29.297,48.340,0
212634.371,11.719,42.480,24.414,19.043,44.434,0
212634.375,11.230,39.551,21.484,24.902,47.852,0
212634.379,21.484,45.410,20.020,43.945,57.129,0
212634.383,22.949,47.852,22.949,34.668,22.949,0
212634.387,11.719,40.527,26.855,13.184,11.230,0
212634.391,11.230,33.691,23.926,25.391,54.199,0
212634.395,14.648,31.250,23.438,42.480,65.430,0
212634.399,19.043,37.109,26.855,34.180,62.012,0
212634.402,18.555,35.645,24.414,16.602,59.570,0
212634.406,22.461,38.086,26.855,32.227,52.734,0
212634.410,25.879,43.945,29.297,47.363,83.496,0
212634.414,17.090,43.945,23.438,41.016,86.914,0
212634.418,8.789,43.945,20.508,27.344,19.043,0
212634.422,20.996,45.410,29.297,25.391,9.766,0
212634.426,23.438,42.969,27.832,35.645,47.852,0
212634.430,18.066,41.992,21.484,28.809,28.809,0
212634.434,16.602,41.016,21.484,16.602,-2.441,0
212634.438,11.230,40.039,22.461,35.645,30.762,0
212634.442,12.207,41.016,21.484,42.480,58.105,0
212634.445,10.742,38.086,18.555,29.297,55.176,0
212634.449,6.836,36.621,23.438,20.508,59.082,0
212634.453,9.766,41.504,25.879,26.367,62.012,0
212634.457,11.230,40.527,26.855,32.715,54.199,0
212634.461,11.230,36.133,32.227,26.367,41.016,0
212634.465,6.836,29.785,31.738,7.324,23.926,0
212634.469,-0.488,28.320,26.855,3.906,-16.113,0
212634.473,-2.930,38.574,23.926,18.066,-12.695,0
212634.477,-4.395,44.434,24.414,6.348,-16.113,0
212634.481,-8.301,40.039,26.367,11.230,-16.113,0
212634.484,-13.672,35.156,25.391,25.879,43.457,0
212634.488,-8.789,35.645,25.391,27.344,48.828,0
212634.492,1.465,44.434,33.203,32.715,30.273,0
212634.496,0.000,45.410,31.250,34.668,39.551,0
212634.500,-6.348,34.180,26.855,26.367,34.180,0
212634.504,-5.859,26.367,29.785,26.855,47.363,0
212634.508,-4.395,23.926,23.438,26.367,40.039,0
212634.512,1.465,35.156,19.043,30.273,38.086,0
212634.516,4.883,47.363,25.879,29.297,51.758,0
212634.520,1.953,48.828,28.809,16.113,-1.465,0
212634.524,2.441,44.434,25.879,17.090,-9.766,0
212634.527,4.883,35.645,25.391,29.785,39.551,0
212634.531,8.301,32.715,29.297,31.250,47.363,0
212634.535,11.230,40.527,32.715,27.344,57.617,0
212634.539,16.602,46.875,30.273,33.691,81.543,0
212634.543,15.137,46.387,25.879,44.434,74.707,0
212634.547,3.418,44.434,20.020,30.762,69.336,0
212634.551,-6.348,41.504,13.672,11.719,70.801,0
212634.555,-5.371,39.551,15.625,14.160,62.012,0
212634.559,-1.953,42.969,19.043,24.414,70.312,0
212634.563,0.000,42.969,21.484,20.508,80.566,0
212634.567,-4.395,41.016,21.973,5.371,62.988,0
212634.570,-2.930,38.086,20.020,11.719,42.480,0
212634.574,6.836,35.156,20.996,25.391,41.992,0
212634.578,16.602,38.574,29.297,31.738,59.082,0
212634.582,11.719,41.504,32.227,27.832,51.270,0
212634.586,5.371,39.062,25.391,22.461,40.039,0
212634.590,14.648,39.551,20.020,25.879,30.762,0
212634.594,11.230,37.109,18.066,19.531,34.180,0
212634.598,3.906,41.016,23.926,17.090,37.109,0
212634.602,4.883,45.898,27.832,17.578,32.227,0
212634.606,6.348,39.062,26.367,18.066,19.043,0
212634.609,9.277,39.062,28.320,12.695,26.855,0
212634.613,4.883,43.457,21.973,-3.906,20.508,0
212634.617,3.906,38.574,20.996,13.184,-1.953,0
212634.621,3.906,35.645,27.832,37.109,3.418,0
212634.625,3.418,41.504,27.832,37.598,-0.977,0
212634.629,4.395,42.480,26.855,38.086,9.277,0
212634.633,1.465,41.016,32.227,39.551,37.109,0
212634.637,-0.977,42.480,34.180,23.926,7.812,0
212634.641,-3.418,34.668,34.668,27.832,15.625,0
212634.645,0.000,32.227,37.109,41.016,48.828,0
212634.649,3.418,33.691,34.668,39.551,19.043,0
212634.652,4.395,37.598,27.344,34.180,-9.766,0
212634.656,4.883,44.922,21.484,14.648,-15.625,0
212634.660,4.395,43.945,25.391,26.855,33.691,0
212634.664,9.277,45.410,31.250,54.199,82.520,0
212634.668,9.277,46.875,36.133,45.898,47.852,0
212634.672,2.441,42.480,39.551,32.715,47.852,0
212634.676,3.906,38.086,39.062,35.645,62.988,0
212634.680,3.906,32.227,33.203,40.527,53.711,0
212634.684,-1.953,33.203,27.344,31.738,34.180,0
212634.688,1.953,40.527,26.367,38.574,20.996,0
212634.692,6.836,41.504,26.855,47.852,41.016,0
212634.695,7.812,47.852,36.133,49.316,26.855,0
212634.699,0.977,52.246,43.945,36.133,-27.344,0
212634.703,-16.602,40.039,30.762,9.277,0.000,0
212634.707,-25.391,32.715,20.996,22.949,37.109,0
212634.711,-28.809,32.227,24.414,21.973,11.230,0
212634.715,-31.250,29.785,20.996,13.184,1.465,0
212634.719,-33.691,34.180,19.531,28.809,22.461,0
212634.723,-29.297,40.527,24.902,37.598,26.367,0
212634.727,-24.902,41.992,28.809,36.621,23.438,0
212634.731,-32.715,42.969,35.156,31.738,6.348,0
212634.734,-31.738,38.086,36.621,34.668,-2.441,0
212634.738,-21.484,38.086,36.133,39.551,46.387,0
212634.742,-11.719,44.434,37.109,42.480,33.691,0
212634.746,-11.719,42.480,30.273,42.969,26.855,0
212634.750,-21.484,34.668,24.902,29.297,27.832,0
212634.754,-23.926,34.180,23.926,21.973,24.902,0
212634.758,-13.672,43.945,20.996,34.180,52.246,0
212634.762,-1.953,50.781,22.461,27.832,30.762,0
212634.766,-1.953,49.805,26.855,21.484,26.855,0
212634.770,0.488,46.875,28.809,34.668,43.945,0
212634.774,10.254,42.969,31.250,38.086,44.434,0
212634.777,8.301,42.969,31.738,42.480,35.156,0
212634.781,3.418,45.410,28.809,36.621,43.457,0
212634.785,6.836,45.410,26.367,20.020,14.160,0
212634.789,15.625,49.316,29.785,23.926,5.859,0
212634.793,18.555,49.805,34.180,33.203,40.039,0
212634.797,14.648,42.480,29.785,23.438,41.016,0
212634.801,6.836,34.180,21.973,22.949,74.707,0
212634.805,2.930,31.738,25.391,22.949,66.895,0
212634.809,8.789,29.785,27.832,10.254,-9.277,0
212634.813,9.277,31.250,27.344,26.367,22.461,0
212634.817,3.906,50.781,27.832,41.016,63.965,0
212634.820,2.930,57.617,23.926,32.715,69.336,0
212634.824,-2.441,45.410,24.414,31.738,92.285,0
212634.828,-1.953,42.969,28.320,36.621,74.219,0
212634.832,3.418,40.527,34.668,38.574,50.781,0
212634.836,0.488,32.227,32.715,37.598,47.852,0
212634.840,0.488,33.203,24.902,35.645,33.691,0
212634.844,8.301,37.109,24.414,32.715,-8.789,0
212634.848,10.254,41.504,24.414,34.668,-20.996,0
212634.852,9.277,42.480,23.926,24.902,0.488,0
212634.856,16.113,42.480,28.320,33.691,35.645,1
212634.859,19.043,47.363,34.668,57.129,52.246,0
212634.863,11.230,41.504,30.273,48.340,45.898,0
212634.867,9.277,34.668,28.320,37.598,18.555,0
212634.871,18.555,38.086,33.691,48.828,11.230,0
212634.875,6.836,35.645,28.809,48.828,34.180,0
212634.879,-3.906,22.949,29.297,46.387,19.043,0
212634.883,3.418,22.949,30.762,44.434,13.672,0
212634.887,1.953,35.156,26.855,34.668,5.859,0
212634.891,-2.441,36.621,27.344,44.434,-12.695,0
212634.895,-1.465,39.551,28.809,40.039,-19.043,0
212634.899,-0.977,41.992,26.855,31.738,-14.160,0
212634.902,0.488,41.504,23.926,48.340,28.809,0
212634.906,4.883,42.480,25.391,56.641,54.199,0
212634.910,8.789,42.969,33.691,56.641,54.199,0
212634.914,2.930,38.574,38.086,60.547,52.246,0
212634.918,-8.301,26.855,32.715,50.293,41.016,0
212634.922,-7.812,31.738,26.855,48.828,41.992,0
212634.926,-2.441,38.086,26.367,60.547,38.574,0
212634.930,0.000,37.598,27.344,58.594,40.039,0
212634.934,2.441,34.180,30.762,57.617,25.879,0
212634.938,6.348,32.715,32.227,57.617,-26.367,0
212634.942,8.789,40.039,29.785,50.781,-41.016,0
212634.945,11.230,39.062,30.762,59.570,22.949,0
212634.949,15.137,37.598,32.715,74.219,87.891,0
212634.953,19.531,40.527,34.668,72.266,63.477,0
212634.957,23.438,37.598,35.645,82.520,44.434,0
212634.961,18.555,37.109,33.203,76.660,86.426,0
212634.965,7.812,35.645,28.320,66.895,42.480,0
212634.969,3.906,32.715,22.949,71.777,2.930,0
212634.973,2.441,31.250,22.949,57.617,20.020,0
212634.977,-1.953,29.297,21.973,52.734,54.688,0
212634.981,0.488,35.156,22.461,55.664,62.500,0
212634.984,7.324,41.504,27.832,46.387,25.879,0
212634.988,9.277,36.133,28.809,39.551,25.879,0
212634.992,6.836,31.738,26.855,49.805,22.949,0
212634.996,11.719,37.598,31.250,62.500,20.996,0
212635.000,20.996,44.434,33.691,53.223,38.574,0
212635.004,18.066,42.969,31.250,46.875,48.828,0
212635.008,9.766,38.574,28.809,54.688,54.199,0
212635.012,9.277,36.133,25.879,46.387,63.965,0
212635.016,9.277,37.109,23.926,35.156,31.738,0
212635.020,13.672,39.551,22.949,41.504,11.230,0
212635.024,21.484,39.062,24.902,54.688,37.109,0
212635.027,25.879,40.039,29.785,52.734,27.832,0
212635.031,21.484,43.945,28.320,39.551,47.363,0
212635.035,18.555,41.016,26.855,33.203,75.195,0
212635.039,16.602,28.320,29.785,46.875,80.566,0
212635.043,16.602,28.809,31.250,45.898,83.984,0
212635.047,15.137,43.457,30.762,38.574,50.293,0
212635.051,10.254,46.387,29.785,48.828,35.645,0
212635.055,18.555,46.875,32.227,55.664,32.227,0
212635.059,21.973,50.293,32.227,47.363,21.484,0
212635.063,12.207,46.387,34.180,47.852,58.594,0
212635.067,3.906,41.992,32.227,41.504,95.703,0
212635.070,3.906,38.086,27.832,39.062,70.312,0
212635.074,10.254,39.062,28.320,38.574,39.062,0
212635.078,9.766,45.410,28.320,20.508,50.293,0
212635.082,8.301,46.875,28.809,29.297,53.223,0
212635.086,12.695,43.945,23.438,30.273,48.340,0
212635.090,18.066,40.527,19.043,31.738,12.207,0
212635.094,24.902,45.410,27.832,50.781,2.441,0
212635.098,22.949,47.852,31.738,52.734,56.152,0
212635.102,11.230,40.039,27.344,46.875,80.566,0
212635.106,12.695,33.203,24.902,37.109,56.152,0
212635.109,21.973,39.551,24.902,43.457,54.199,0
212635.113,27.832,48.828,26.367,48.828,45.410,0
212635.117,27.832,51.758,21.484,37.598,35.645,0
212635.121,25.879,49.316,20.020,35.645,25.391,0
212635.125,22.461,42.969,22.461,32.715,7.812,0
212635.129,17.090,41.504,21.484,39.062,31.738,0
212635.133,9.766,38.574,25.391,41.992,77.148,0
212635.137,7.812,41.016,28.320,10.254,70.801,0
212635.141,16.113,46.875,28.809,23.438,66.406,0
212635.145,21.484,48.828,29.297,60.059,64.941,0
212635.149,20.508,46.387,26.367,45.410,57.617,0
212635.152,21.484,46.875,25.391,25.391,16.602,0
212635.156,25.391,46.387,26.855,35.645,26.367,0
212635.160,28.809,48.828,30.273,50.781,47.852,0
212635.164,22.461,52.734,28.809,36.621,24.414,0
212635.168,13.184,43.945,20.020,16.113,0.977,0
212635.172,13.672,40.039,19.043,28.320,13.672,0
212635.176,16.113,44.922,20.996,48.340,54.688,0
212635.180,7.812,44.922,21.973,31.738,8.301,0
212635.184,-7.324,42.969,22.949,-4.883,-59.570,0
212635.188,0.000,44.922,20.508,16.602,20.020,0
212635.192,14.160,46.875,23.438,38.086,26.367,0
212635.195,8.301,41.016,23.438,25.879,6.836,0
212635.199,0.488,37.598,21.973,19.531,30.273,0
212635.203,7.324,42.480,26.855,32.227,47.852,0
212635.207,7.324,44.434,23.926,35.156,69.336,0
212635.211,2.930,36.133,20.508,24.902,41.504,0
212635.215,-0.977,32.715,21.484,21.484,28.320,0
212635.219,-6.348,33.203,24.902,20.508,49.316,0
212635.223,-3.418,33.203,27.832,30.762,53.223,0
212635.227,2.930,39.551,25.391,14.160,-5.859,0
212635.231,0.977,41.992,26.855,6.348,19.043,0
212635.234,-0.488,40.039,26.367,27.832,56.152,0
212635.238,9.766,44.434,28.809,39.062,22.949,0
212635.242,9.277,39.551,25.391,37.109,54.199,0
212635.246,3.418,31.738,24.414,39.551,78.125,0
212635.250,3.418,36.133,25.879,27.832,18.066,0
212635.254,7.812,44.434,25.879,20.996,24.902,0
212635.258,10.742,43.457,29.785,35.156,100.586,0
212635.262,13.672,45.410,31.738,40.527,76.660,0
212635.266,19.531,49.316,31.250,31.250,59.570,0
212635.270,19.043,37.109,28.320,18.555,56.641,0
212635.274,12.695,32.715,27.344,14.160,28.320,0
212635.277,10.742,44.922,28.809,23.926,53.223,0
212635.281,5.859,47.363,31.738,33.203,72.266,0
212635.285,-6.836,41.016,30.762,21.973,33.203,0
212635.289,-4.395,40.527,26.367,13.184,4.395,0
212635.293,6.836,42.969,25.391,30.762,-5.859,0
212635.297,11.719,45.898,26.367,33.691,-6.836,0
212635.301,10.254,44.922,22.949,24.414,0.977,0
212635.305,6.836,39.551,24.902,21.484,24.902,0
212635.309,6.836,38.086,31.738,29.785,33.203,0
212635.313,7.324,41.992,31.738,23.926,-22.461,0
212635.317,-2.930,39.551,28.320,-4.883,-44.922,0
212635.320,-3.418,37.109,31.738,9.766,8.789,0
212635.324,-0.977,33.203,32.715,29.785,3.906,0
212635.328,1.953,29.297,32.715,19.531,-8.301,0
212635.332,5.371,33.691,31.738,14.160,2.441,0
212635.336,1.465,39.062,28.320,20.020,33.203,0
212635.340,3.418,41.504,29.297,23.926,60.547,0
212635.344,7.324,44.922,28.320,15.625,28.320,0
212635.348,12.207,41.504,29.297,15.625,25.391,0
212635.352,14.160,35.645,28.320,26.855,28.809,0
212635.356,7.324,41.016,30.273,22.461,18.555,0
212635.359,-0.488,50.781,37.598,14.648,53.223,0
212635.363,-4.883,45.410,32.715,3.906,26.855,0
212635.367,-9.277,33.691,25.879,9.766,25.879,0
212635.371,-8.301,39.551,29.297,22.949,31.738,0
212635.375,-6.348,39.062,27.344,21.484,16.602,0
212635.379,-1.953,35.156,22.949,29.297,62.988,0
212635.383,0.488,39.062,23.438,23.438,45.410,0
212635.387,1.465,40.527,24.414,16.113,-4.883,0
212635.391,4.395,40.039,28.320,36.133,29.785,0
212635.395,13.184,46.387,32.227,40.527,27.832,0
212635.399,12.207,45.898,26.367,36.133,30.273,0
212635.402,-1.953,39.551,20.508,29.297,39.551,0
212635.406,1.953,43.457,23.926,15.625,-37.598,0
212635.410,11.719,46.875,23.926,18.066,-77.637,0
212635.414,12.207,51.758,23.438,33.691,-23.438,0
212635.418,8.301,48.828,24.414,26.855,-47.852,1
212635.422,6.836,42.480,23.926,19.043,-69.336,0
212635.426,7.812,42.969,25.879,28.320,-39.551,0
212635.430,3.906,40.039,27.344,29.297,-60.547,0
212635.434,4.883,40.039,30.273,31.250,-55.176,0
212635.438,12.695,45.898,32.227,30.273,-32.715,0
212635.442,13.184,43.945,27.832,35.156,-24.902,0
212635.445,5.859,39.062,20.508,41.992,-6.836,0
212635.449,3.418,38.574,19.531,34.180,1.953,0
212635.453,0.977,36.621,22.461,22.461,-37.598,0
212635.457,5.859,35.156,25.879,25.391,0.488,0
212635.461,9.766,38.086,25.391,30.762,23.438,0
212635.465,4.395,41.504,24.902,18.066,15.137,0
212635.469,5.859,38.086,28.809,16.602,25.879,0
212635.473,11.719,34.180,32.715,40.527,34.668,0
212635.477,8.789,36.133,27.344,35.645,39.551,0
212635.481,3.906,41.016,25.391,25.879,44.922,0
212635.484,-1.953,42.480,23.438,30.762,28.809,0
212635.488,-5.371,37.109,21.484,29.297,18.066,0
212635.492,1.953,35.156,25.879,29.297,50.781,0
212635.496,0.977,33.203,24.414,24.414,41.992,0
212635.500,-0.977,33.203,24.902,12.695,13.184,0
212635.504,3.906,36.133,28.809,9.766,13.672,0
212635.508,5.859,36.621,29.297,24.414,8.301,0
212635.512,1.953,38.086,26.855,17.090,-7.812,0
212635.516,-2.930,40.527,19.531,18.555,13.184,0
212635.520,-9.277,39.062,18.555,26.855,1.953,0
212635.524,-8.301,36.133,24.902,17.578,-11.230,0
212635.527,-5.371,34.668,24.902,15.137,14.648,0
212635.531,-6.348,39.062,23.438,17.578,31.738,0
212635.535,-4.883,39.551,24.414,16.602,58.594,0
212635.539,-0.488,35.645,25.391,15.625,28.809,0
212635.543,3.906,35.645,25.391,20.508,14.648,0
212635.547,-1.465,38.086,26.367,25.879,56.152,0
212635.551,-5.371,33.203,27.832,32.227,95.215,0
212635.555,-1.953,31.738,28.809,29.785,52.246,0
212635.559,-0.488,39.551,25.391,19.043,-2.930,0
212635.563,2.441,41.992,23.438,34.668,26.367,0
212635.567,4.395,42.480,26.855,38.574,62.988,0
212635.570,3.418,38.086,29.785,23.926,77.637,0
212635.574,4.395,36.621,34.180,29.785,73.242,0
212635.578,7.812,44.434,34.180,26.855,52.246,0
212635.582,2.930,38.574,27.344,15.625,28.809,0
212635.586,1.953,30.273,25.879,20.020,33.203,0
212635.590,2.930,38.574,24.902,22.949,11.719,0
212635.594,2.930,47.363,25.879,21.484,-1.465,0
212635.598,-0.488,48.828,28.320,25.879,0.000,0
212635.602,-3.906,42.480,27.832,12.207,15.625,0
212635.606,1.953,33.691,29.785,18.066,63.965,0
212635.609,1.465,31.250,34.668,44.434,102.051,0
212635.613,-2.930,31.738,36.621,38.574,68.359,0
212635.617,-3.906,28.809,31.250,30.762,36.621,0
212635.621,4.395,29.297,23.926,31.738,67.871,0
212635.625,7.324,32.715,23.926,31.738,90.820,0
212635.629,5.371,35.645,30.273,24.414,86.426,0
212635.633,2.930,40.039,36.621,20.508,65.430,0
212635.637,-8.789,37.109,31.250,20.020,63.477,0
212635.641,-7.812,33.691,30.273,11.230,23.438,0
212635.645,-2.930,35.156,33.691,4.395,-22.949,0
212635.649,-4.395,34.668,27.832,-7.324,-32.715,0
212635.652,-4.883,31.250,24.902,5.371,5.371,0
212635.656,-0.977,34.668,26.367,27.344,18.555,0
212635.660,-1.465,36.133,26.367,25.879,1.953,0
212635.664,0.488,35.645,25.391,24.414,22.949,0
212635.668,5.371,42.480,27.344,26.367,56.152,0
212635.672,0.488,42.480,27.832,19.531,77.148,0
212635.676,4.395,45.898,27.832,28.809,61.523,0
212635.680,12.207,45.898,26.855,41.016,61.523,0
212635.684,8.301,39.551,26.367,38.574,61.035,0
212635.688,4.395,37.598,28.809,31.738,44.434,0
212635.692,-0.977,39.062,29.785,11.719,-19.043,0
212635.695,2.441,36.621,30.273,20.020,-2.930,0
212635.699,9.277,32.715,27.832,30.762,84.473,0
212635.703,5.859,30.762,27.832,28.320,45.898,0
212635.707,4.395,32.227,27.344,41.016,10.742,0
212635.711,6.348,39.551,26.367,44.922,45.898,0
212635.715,7.324,46.387,30.273,45.410,44.922,0
212635.719,1.953,41.992,31.250,40.039,26.367,0
212635.723,0.977,38.574,28.809,39.551,45.410,0
212635.727,5.371,38.086,30.273,32.715,59.570,0
212635.731,-0.488,36.133,26.367,20.996,20.508,0
212635.734,-5.859,41.504,22.949,11.719,2.441,0
212635.738,0.488,43.457,25.391,3.906,10.254,0
212635.742,12.695,35.645,25.391,28.320,54.688,0
212635.746,15.625,36.133,28.320,36.133,58.594,0
212635.750,6.348,42.480,27.832,29.297,51.270,0
212635.754,9.766,45.898,26.855,41.992,84.961,0
212635.758,17.090,48.340,28.809,55.664,104.004,0
212635.762,9.766,40.039,28.809,49.805,106.445,0
212635.766,3.418,37.598,29.297,42.480,74.219,0
212635.770,5.371,42.480,31.250,44.922,66.895,0
212635.774,7.324,43.945,32.227,52.246,58.594,0
212635.777,2.930,39.551,29.297,54.199,52.734,0
212635.781,-3.418,34.668,29.297,33.203,31.250,0
212635.785,3.906,32.715,30.273,33.691,22.949,0
212635.789,20.508,36.133,31.250,67.383,9.766,0
212635.793,18.555,44.434,30.273,72.754,12.207,0
212635.797,5.371,46.387,28.320,46.875,41.992,0
212635.801,9.277,44.922,28.320,41.016,45.898,0
212635.805,15.137,44.434,31.250,41.016,58.105,0
212635.809,8.301,41.016,35.645,33.203,41.016,0
212635.813,4.883,38.086,28.809,31.738,31.250,0
212635.817,5.371,40.039,26.855,28.809,26.855,0
212635.820,9.277,37.598,31.738,30.273,24.902,0
212635.824,12.207,35.156,29.297,19.531,41.992,0
212635.828,14.648,41.016,27.832,14.648,32.227,0
212635.832,17.090,42.480,29.785,33.203,45.898,0
212635.836,14.648,39.551,28.809,43.945,61.523,0
212635.840,8.789,36.133,27.344,31.250,38.574,0
212635.844,9.277,40.039,28.809,19.531,14.648,0
212635.848,15.137,44.922,27.344,37.598,34.180,0
212635.852,19.043,46.875,26.855,42.969,9.277,0
212635.856,17.578,44.922,25.879,36.621,-9.766,0
212635.859,20.508,41.504,28.809,39.551,-16.113,0
212635.863,27.344,41.992,32.227,42.969,-23.438,0
212635.867,27.344,43.945,30.273,44.434,37.598,0
212635.871,29.297,46.387,32.715,52.734,65.918,0
212635.875,29.297,49.316,35.645,54.688,50.293,0
212635.879,19.531,48.828,33.203,41.992,25.879,0
212635.883,10.254,39.551,32.227,29.297,19.531,0
212635.887,14.648,36.133,35.645,29.297,-10.742,0
212635.891,22.461,41.016,34.180,31.250,9.766,0
212635.895,23.926,41.504,29.785,46.387,49.316,0
212635.899,16.113,41.016,31.738,43.945,37.109,0
212635.902,16.113,42.969,32.715,22.461,31.250,0
212635.906,26.367,42.480,35.156,39.062,63.965,0
212635.910,30.273,46.387,42.480,59.082,89.844,0
212635.914,20.996,41.504,37.109,41.992,70.801,0
212635.918,8.301,34.668,25.879,25.391,45.410,0
212635.922,9.277,39.062,24.414,34.180,44.434,0
212635.926,14.160,37.598,24.902,48.340,75.684,0
212635.930,18.066,36.133,23.438,32.715,30.273,0
212635.934,20.508,41.992,31.250,15.137,-6.836,0
212635.938,15.137,41.992,35.156,28.320,66.895,0
212635.942,13.672,44.922,29.785,23.926,71.289,0
212635.945,17.578,46.387,25.879,19.043,10.254,0
212635.949,18.066,44.434,27.344,28.320,30.762,0
212635.953,23.438,46.875,26.855,34.180,72.266,0
212635.957,28.809,55.176,26.367,37.598,66.895,0
212635.961,22.949,51.758,23.926,28.320,33.691,0
212635.965,17.578,41.504,26.855,22.949,26.855,0
212635.969,17.090,39.551,34.180,27.832,23.438,0
212635.973,17.090,44.922,37.598,34.180,5.371,0
212635.977,13.184,44.434,34.180,26.367,-1.465,0
212635.981,7.812,35.156,29.297,29.297,39.551,0
212635.984,3.906,30.273,29.297,29.785,46.387,0
212635.988,2.441,36.133,25.391,21.484,25.879,0
212635.992,3.418,41.992,22.949,26.855,38.574,0
212635.996,3.906,45.410,29.297,38.574,47.852,0
212636.000,5.371,48.340,31.738,32.715,33.691,0
212636.004,9.277,51.270,35.645,23.926,19.531,0
212636.008,11.719,54.199,34.668,38.086,-2.441,0
212636.012,6.348,44.922,27.344,35.156,18.066,0
212636.016,-6.836,32.227,24.902,27.344,83.008,0
212636.020,-12.207,32.715,24.414,16.113,40.527,1
212636.024,-7.812,36.133,24.414,6.836,15.137,0
212636.027,-13.184,32.227,24.414,21.484,52.246,0
212636.031,-13.184,38.574,26.855,28.320,35.156,0
212636.035,-9.277,47.852,21.973,20.996,31.738,0
212636.039,-1.953,48.340,18.066,18.555,34.668,0
212636.043,5.859,44.434,23.438,16.602,51.758,0
212636.047,0.000,42.969,27.832,20.508,40.527,0
212636.051,-6.348,46.875,27.832,30.273,25.879,0
212636.055,-3.418,39.551,20.508,23.926,38.574,0
212636.059,-5.859,32.227,20.508,15.137,53.223,0
212636.063,-11.719,33.691,25.391,2.441,43.945,0
212636.067,-5.859,36.621,26.855,-10.254,-6.348,0
212636.070,2.441,38.574,27.832,3.906,-0.977,0
212636.074,5.859,40.039,26.855,27.344,17.090,0
212636.078,11.230,40.527,26.367,24.414,-20.020,0
212636.082,10.742,42.480,26.855,20.508,-14.648,0
212636.086,10.742,43.457,26.855,31.738,10.254,0
212636.090,9.277,37.109,26.367,25.879,26.855,0
212636.094,6.348,37.598,23.438,16.113,44.434,0
212636.098,7.324,43.945,20.508,11.230,37.598,0
212636.102,12.207,45.898,20.020,20.020,30.273,0
212636.106,20.020,46.875,24.902,30.273,32.227,0
212636.109,18.066,46.387,25.879,11.719,19.531,0
212636.113,20.020,44.434,22.461,-3.418,1.465,0
212636.117,22.949,42.969,21.484,8.301,13.184,0
212636.121,15.137,40.039,20.508,8.301,21.484,0
212636.125,15.137,39.551,26.367,5.859,20.996,0
212636.129,15.625,37.598,34.180,12.207,9.766,0
212636.133,8.789,34.668,31.738,7.324,-6.836,0
212636.137,8.789,38.086,25.879,11.230,14.648,0
212636.141,18.066,42.480,19.531,17.578,49.805,0
212636.145,18.555,37.109,17.578,15.625,55.176,0
212636.149,7.812,32.227,20.996,5.859,70.312,0
212636.152,4.883,37.109,24.902,3.418,40.527,0
212636.156,12.695,39.062,28.320,-8.789,-21.973,0
212636.160,12.207,34.180,27.344,-5.859,-7.324,0
212636.164,8.789,32.715,23.926,22.461,15.137,0
212636.168,13.672,33.203,27.832,19.531,35.156,0
212636.172,17.578,36.133,29.785,20.020,42.480,0
212636.176,12.695,32.227,24.902,25.391,58.594,0
212636.180,10.254,28.809,27.344,28.809,50.781,0
212636.184,15.137,30.762,32.715,33.691,32.715,0
212636.188,24.414,36.133,32.715,41.504,31.738,0
212636.192,21.484,35.156,27.832,28.320,-6.348,0
212636.195,13.672,31.738,26.367,20.508,8.301,0
212636.199,10.742,29.785,28.320,20.020,18.066,0
212636.203,9.277,29.297,30.273,16.113,28.320,0
212636.207,11.719,35.645,35.645,36.621,74.707,0
212636.211,10.742,34.668,33.203,42.969,63.965,0
212636.215,10.742,34.668,30.273,24.902,35.645,0
212636.219,13.184,36.621,24.414,17.578,13.184,0
212636.223,16.113,34.180,17.578,35.645,43.457,0
212636.227,11.719,34.180,22.949,36.621,47.852,0
212636.231,2.930,30.273,27.344,20.020,6.348,0
212636.234,-1.953,25.391,27.832,18.066,30.273,0
212636.238,-5.371,25.391,27.344,21.973,29.785,0
212636.242,-7.324,24.414,25.391,24.414,30.273,0
212636.246,-6.348,30.273,23.438,20.020,40.527,0
212636.250,-10.254,37.598,23.926,10.742,61.035,0
212636.254,-8.789,34.180,27.344,6.348,33.691,0
212636.258,-6.348,36.621,29.297,13.184,-24.902,0
212636.262,-3.906,41.016,30.273,5.371,-39.062,0
212636.266,-1.953,38.574,27.344,3.418,-5.859,0
212636.270,-0.488,36.621,22.949,21.973,75.684,0
212636.274,1.953,37.598,23.438,15.137,77.637,0
212636.277,2.930,40.039,26.367,14.648,31.250,0
212636.281,8.789,46.387,30.762,25.391,39.551,0
212636.285,10.254,46.387,30.762,28.809,59.082,0
212636.289,14.160,45.898,26.855,30.273,64.453,0
212636.293,16.602,48.340,21.973,35.156,45.898,0
212636.297,11.719,48.828,23.438,34.180,22.461,0
212636.301,7.324,43.457,23.926,14.160,47.852,0
212636.305,1.953,38.086,19.531,12.695,31.250,0
212636.309,2.441,43.945,21.973,22.461,22.949,0
212636.313,6.348,42.969,22.949,22.949,50.293,0
212636.317,0.977,32.227,20.020,28.320,78.125,0
212636.320,3.418,36.133,23.926,14.160,56.152,0
212636.324,13.184,43.945,27.832,14.648,-18.555,0
212636.328,17.090,47.852,27.344,35.645,29.785,0
212636.332,15.625,46.387,30.273,32.227,31.250,0
212636.336,5.859,41.016,26.855,30.273,23.438,0
212636.340,4.883,41.992,22.949,27.344,77.148,0
212636.344,15.137,38.574,28.809,29.297,64.453,0
212636.348,0.977,27.344,32.715,23.926,53.223,0
212636.352,-16.602,28.809,26.367,0.977,43.945,0
212636.356,-7.324,37.598,24.902,9.766,60.547,0
212636.359,-0.977,40.527,28.320,27.344,31.250,0
212636.363,-4.395,43.945,28.809,18.066,-0.977,0
212636.367,-9.277,44.434,31.250,13.672,29.785,0
212636.371,-6.348,41.504,31.738,27.344,60.059,0
212636.375,-3.418,38.574,28.320,39.062,62.988,0
212636.379,0.488,36.621,23.438,25.391,64.453,0
212636.383,5.859,35.645,23.438,25.391,40.527,0
212636.387,3.418,33.203,23.438,38.574,58.105,0
212636.391,0.000,30.762,18.555,31.738,53.223,0
212636.395,0.488,35.156,11.230,17.090,11.230,0
212636.399,7.812,36.621,15.137,14.648,14.648,0
212636.402,14.648,29.785,25.391,30.273,61.035,0
212636.406,22.949,34.668,33.691,52.734,75.684,0
212636.410,21.973,42.969,39.062,53.223,34.180,0
212636.414,14.160,42.480,33.203,34.668,50.781,0
212636.418,15.137,40.527,24.902,27.832,54.199,0
212636.422,10.742,37.598,20.508,24.902,8.301,0
212636.426,5.859,37.598,19.043,28.809,-2.930,0
212636.430,6.836,37.109,23.438,32.227,27.344,0
212636.434,11.719,39.551,24.414,37.109,22.949,0
212636.438,22.461,41.016,29.297,41.504,9.766,0
212636.442,29.297,42.969,33.203,34.180,23.926,0
212636.445,30.273,44.434,28.320,32.715,19.043,0
212636.449,27.832,44.922,32.227,42.969,54.199,0
212636.453,23.926,45.410,37.598,42.480,83.984,0
212636.457,22.461,37.109,36.621,32.227,68.359,0
212636.461,23.926,34.180,31.250,22.949,79.102,0
212636.465,23.438,39.551,27.344,22.949,110.352,0
212636.469,18.555,41.992,32.227,22.461,94.238,0
212636.473,19.531,39.551,36.133,19.043,62.012,0
212636.477,17.578,33.691,32.227,20.508,53.711,0
212636.481,14.160,35.156,26.367,14.160,13.672,0
212636.484,16.113,43.457,28.320,3.418,15.625,0
212636.488,18.066,44.434,32.715,10.254,41.504,0
212636.492,15.137,38.086,31.738,30.273,58.105,0
212636.496,8.301,32.715,29.785,30.762,69.336,0
212636.500,4.883,30.762,28.320,17.090,72.266,0
212636.504,8.301,33.203,30.273,18.555,87.402,0
212636.508,9.277,34.180,33.203,24.902,73.242,0
212636.512,7.812,36.133,30.762,22.949,35.156,0
212636.516,6.348,39.551,28.320,11.230,17.090,0
212636.520,6.836,37.109,28.809,15.137,49.805,0
212636.524,12.695,37.109,28.809,32.715,41.016,0
212636.527,17.578,40.039,36.621,40.039,16.113,0
212636.531,13.184,32.715,40.039,19.531,23.926,0
212636.535,2.930,26.855,30.273,3.906,24.902,0
212636.539,2.930,28.320,28.809,25.391,55.176,0
212636.543,-1.953,30.273,29.785,21.973,41.504,0
212636.547,-1.953,32.715,29.297,17.578,55.664,0
212636.551,5.859,27.344,28.809,25.879,59.082,0
212636.555,10.742,28.809,28.320,28.809,13.672,0
212636.559,10.254,37.109,26.367,28.320,5.859,0
212636.563,5.859,39.551,29.785,28.809,21.973,0
212636.567,10.742,41.992,36.133,23.926,55.176,0
212636.570,10.254,37.109,29.297,30.762,56.641,0
212636.574,9.766,34.180,25.879,33.691,-2.441,0
212636.578,14.160,38.574,28.809,21.973,-9.277,0
212636.582,16.113,35.645,30.273,25.391,6.836,0
212636.586,15.625,30.273,32.715,32.227,22.461,0
212636.590,14.648,33.203,27.832,24.414,6.348,0
212636.594,12.695,39.551,26.855,20.020,-20.020,0
212636.598,15.625,44.922,29.785,34.180,6.348,0
212636.602,20.020,49.316,27.344,39.551,21.484,0
212636.606,21.973,52.734,27.832,29.785,19.531,0
212636.609,23.438,52.734,31.250,29.297,4.395,0
212636.613,19.043,46.387,32.227,42.480,28.320,0
212636.617,10.254,38.574,25.391,33.691,35.645,0
212636.621,6.836,36.621,23.926,28.320,30.762,0
212636.625,9.766,37.598,27.344,32.227,37.109,0
212636.629,12.207,39.062,26.855,33.691,40.527,0
212636.633,7.812,44.434,25.879,30.273,32.227,0
212636.637,5.859,44.922,27.832,17.578,-4.883,0
212636.641,11.230,39.551,31.250,25.879,35.645,0
212636.645,11.719,40.527,29.785,44.434,77.637,0
212636.649,7.324,49.316,29.297,35.645,29.297,0
212636.652,6.348,49.805,32.715,27.344,9.277,0
212636.656,6.348,42.969,33.203,32.227,18.066,0
212636.660,1.953,36.621,28.809,33.203,15.137,0
212636.664,-1.953,32.715,23.438,27.832,68.848,0
212636.668,-2.930,38.086,19.531,13.672,68.359,1
212636.672,2.441,40.039,21.973,23.926,41.504,0
212636.676,10.742,38.086,27.344,44.434,81.543,0
212636.680,10.254,40.039,29.297,26.855,36.133,0
212636.684,6.348,41.992,28.809,12.695,-29.297,0
212636.688,8.789,38.574,25.879,30.762,-6.836,0
212636.692,4.883,36.133,26.367,32.227,-1.953,0
212636.695,6.836,44.922,29.297,26.367,3.906,0
212636.699,9.766,46.875,31.738,35.645,68.848,0
212636.703,2.930,36.133,28.809,34.668,75.195,0
212636.707,-5.371,31.250,25.391,31.250,31.250,0
212636.711,-5.371,30.273,26.855,35.645,19.531,0
212636.715,-2.930,32.227,27.832,26.367,24.414,0
212636.719,-3.906,33.203,24.902,22.461,22.461,0
212636.723,2.441,33.203,22.949,28.320,26.367,0
212636.727,8.789,39.551,24.414,18.555,9.277,0
212636.731,12.207,40.527,25.879,23.438,35.645,0
212636.734,14.160,34.180,26.367,35.156,47.852,0
212636.738,15.625,36.621,28.809,43.945,49.805,0
212636.742,10.742,42.969,20.020,41.992,40.527,0
212636.746,10.742,41.504,19.043,36.133,58.105,0
212636.750,12.695,44.434,23.926,38.086,59.570,0
212636.754,18.555,50.293,25.391,37.598,63.477,0
212636.758,16.602,46.387,26.855,40.527,93.262,0
212636.762,4.395,41.016,29.297,28.809,46.387,0
212636.766,-2.441,40.039,28.320,14.648,46.387,0
212636.770,1.465,45.898,24.414,11.230,63.477,0
212636.774,12.207,48.340,24.414,13.184,18.066,0
212636.777,15.137,39.551,25.391,27.832,35.645,0
212636.781,14.648,38.574,23.926,35.156,53.223,0
212636.785,17.090,46.387,23.926,31.250,43.945,0
212636.789,17.090,45.898,27.344,33.691,30.273,0
212636.793,6.836,37.109,27.832,38.574,21.973,0
212636.797,3.418,34.180,24.414,35.645,13.672,0
212636.801,1.953,31.250,27.832,16.602,15.137,0
212636.805,-0.488,30.762,31.250,11.230,41.992,0
212636.809,2.930,39.062,29.297,21.484,35.645,0
212636.813,5.371,40.039,26.367,26.855,40.527,0
212636.817,5.371,36.621,26.367,14.160,34.180,0
212636.820,10.254,40.527,23.438,20.996,49.805,0
212636.824,11.719,39.551,19.531,31.250,61.523,0
212636.828,9.766,36.133,27.344,25.391,35.645,0
212636.832,5.371,34.180,33.691,21.484,35.645,0
212636.836,2.930,31.738,33.203,23.926,67.383,0
212636.840,5.371,33.691,34.180,36.133,61.523,0
212636.844,0.488,29.297,31.738,33.691,46.387,0
212636.848,-0.977,30.273,27.832,25.879,29.297,0
212636.852,-2.441,36.621,24.902,27.344,-5.371,0
212636.856,-4.883,35.645,26.367,20.508,18.555,0
212636.859,-0.977,38.086,31.738,15.137,-12.207,0
212636.863,-4.883,34.668,32.227,10.254,-43.457,0
212636.867,-11.230,27.344,26.855,8.301,0.000,0
212636.871,-1.465,33.691,26.855,17.578,38.086,0
212636.875,6.348,38.086,28.320,14.160,14.648,0
212636.879,6.348,37.598,27.832,18.066,-20.020,0
212636.883,5.371,39.062,24.414,20.020,-7.324,0
212636.887,2.930,41.016,18.066,18.066,35.156,0
212636.891,6.836,39.062,20.996,24.902,61.035,0
212636.895,9.277,42.480,32.227,32.715,34.668,0
212636.899,5.371,53.223,31.738,29.785,5.859,0
212636.902,2.930,45.898,26.367,29.297,47.852,0
212636.906,9.766,38.574,25.879,29.297,39.551,0
212636.910,18.555,49.805,25.879,35.156,5.859,0
212636.914,17.578,54.199,29.297,47.363,5.371,0
212636.918,18.066,52.734,31.738,41.016,-16.113,0
212636.922,21.484,54.199,25.879,45.410,1.953,0
212636.926,19.043,54.199,19.043,46.875,56.152,0
212636.930,20.508,54.199,20.020,44.434,95.215,0
212636.934,22.461,52.246,22.461,36.621,69.824,0
212636.938,22.949,50.293,25.391,22.949,51.758,0
212636.942,28.320,48.340,25.391,41.504,82.520,0
212636.945,32.227,49.316,26.367,61.035,77.148,0
212636.949,26.367,50.781,29.785,48.340,59.082,0
212636.953,19.531,44.434,24.902,24.414,63.477,0
212636.957,19.043,41.016,21.484,30.762,74.219,0
212636.961,18.066,41.992,19.043,45.898,87.891,0
212636.965,14.648,42.480,20.996,30.762,75.684,0
212636.969,11.719,45.898,27.344,26.855,72.754,0
212636.973,12.695,45.898,31.738,39.062,81.055,0
212636.977,6.836,38.086,31.738,37.598,77.148,0
212636.981,2.441,36.133,28.809,25.391,41.504,0
212636.984,-0.488,41.992,28.809,19.531,7.812,0
212636.988,6.836,37.598,27.832,33.203,32.227,0
212636.992,18.555,26.367,26.367,35.645,51.270,0
212636.996,14.160,28.809,27.832,24.902,66.406,0
212637.000,2.930,32.227,29.297,15.625,71.289,0
212637.004,1.953,30.762,26.855,16.602,53.711,0
212637.008,1.465,29.297,23.438,23.926,24.902,0
212637.012,0.488,30.273,27.344,16.602,-4.883,0
212637.016,6.348,37.109,31.250,14.160,-17.578,0
212637.020,9.766,39.551,30.273,23.438,-18.555,0
212637.024,10.254,38.574,28.320,27.832,2.930,0
212637.027,11.230,42.969,26.367,18.555,2.441,0
212637.031,10.742,42.969,31.250,28.809,-17.090,0
212637.035,0.977,36.621,27.832,29.785,37.109,0
212637.039,-0.488,39.062,21.973,22.461,55.664,0
212637.043,8.301,42.480,22.461,15.625,-5.859,0
212637.047,14.648,42.969,22.461,9.766,-25.391,0
212637.051,19.043,48.340,28.809,16.113,-12.207,0
212637.055,21.484,57.129,36.621,20.996,-20.508,0
212637.059,23.926,56.641,34.180,17.090,-48.828,0
212637.063,21.973,42.969,29.297,25.391,-6.836,0
212637.067,16.113,41.992,25.391,28.320,41.992,0
212637.070,15.137,49.316,21.484,20.020,40.527,0
212637.074,20.020,49.805,23.926,22.949,43.457,0
212637.078,27.832,55.176,29.297,31.738,39.062,0
212637.082,29.297,57.129,25.391,31.738,5.859,0
212637.086,18.066,49.805,19.043,25.391,4.395,0
212637.090,14.648,47.363,20.996,21.484,25.391,0
212637.094,17.090,47.363,21.484,19.531,45.898,0
212637.098,17.578,50.781,19.043,27.832,9.766,0
212637.102,24.414,55.176,20.020,19.531,-14.160,0
212637.106,25.391,52.734,21.973,12.695,59.082,0
212637.109,12.207,47.363,25.391,20.996,56.641,0
212637.113,5.371,44.434,28.809,19.043,43.457,0
212637.117,8.789,42.969,25.879,20.020,68.359,0
212637.121,8.301,40.527,20.508,31.250,80.566,0
212637.125,6.836,39.062,23.926,34.180,78.125,0
212637.129,4.883,42.969,28.809,28.320,54.688,0
212637.133,1.953,41.992,26.855,26.855,58.594,0
212637.137,4.883,38.086,26.855,23.926,60.547,0
212637.141,6.348,34.668,33.691,18.066,27.344,0
212637.145,4.883,34.668,38.086,7.812,-23.438,0
212637.149,-0.488,36.621,35.645,1.465,-34.180,0
212637.152,-5.371,31.738,32.227,24.414,-17.578,0
212637.156,-1.465,30.762,29.297,33.691,-6.348,0
212637.160,0.977,37.109,33.203,30.273,-6.348,0
212637.164,1.465,42.480,34.668,27.832,-15.137,0
212637.168,1.953,43.457,26.855,24.414,25.879,0
212637.172,0.977,40.039,24.902,16.113,33.691,0
212637.176,3.906,39.062,29.297,9.277,44.434,0
212637.180,13.184,41.992,30.273,22.461,70.801,0
212637.184,6.348,37.109,29.297,14.648,34.180,0
212637.188,1.953,37.109,26.855,10.254,22.461,0
212637.192,15.625,49.316,27.344,10.254,-21.484,0
212637.195,18.555,51.270,26.855,11.230,-23.926,0
212637.199,13.184,48.340,22.461,31.250,65.918,0
212637.203,10.254,50.781,20.996,32.715,102.051,0
212637.207,16.602,52.246,20.508,27.832,58.594,0
212637.211,18.555,46.387,22.461,27.344,23.926,0
212637.215,10.742,42.480,24.414,14.648,31.250,0
212637.219,10.254,46.387,26.855,2.441,10.254,0
212637.223,16.113,46.387,28.809,3.418,-17.090,0
212637.227,20.020,50.293,28.809,10.254,-7.324,0
212637.231,15.137,49.805,20.996,6.348,31.738,0
212637.234,9.277,46.875,18.555,-6.836,46.387,0
212637.238,9.766,48.828,20.508,-6.836,55.664,0
212637.242,13.672,49.316,17.578,13.184,100.586,0
212637.246,14.648,50.293,14.160,19.531,113.770,0
212637.250,6.348,50.293,14.648,11.230,83.496,0
212637.254,5.859,51.270,21.973,9.766,77.637,0
212637.258,9.766,47.852,21.973,11.230,94.727,0
212637.262,14.160,48.828,20.020,12.207,71.289,0
212637.266,7.812,48.340,22.949,9.766,46.875,0
212637.270,-2.441,43.945,21.973,8.301,54.199,0
212637.274,3.418,41.504,22.949,15.137,58.594,0
212637.277,8.301,41.016,24.414,18.066,41.016,0
212637.281,8.789,44.922,25.879,1.953,3.906,0
212637.285,11.230,41.016,29.785,6.836,1.953,0
212637.289,11.230,37.109,31.250,31.738,17.578,0
212637.293,9.277,41.992,28.320,29.785,17.090,0
212637.297,11.719,41.016,26.367,24.414,53.711,0
212637.301,15.625,38.574,28.809,23.926,49.316,0
212637.305,18.066,41.016,30.762,25.391,9.766,0
212637.309,16.602,39.062,34.180,21.484,20.996,0
212637.313,9.766,33.691,31.250,12.207,0.488,0
212637.317,8.789,29.785,28.320,13.672,9.766,0
212637.320,14.648,35.156,31.250,19.043,50.293,0
212637.324,19.043,33.203,28.320,11.230,10.254,0
212637.328,8.301,21.973,21.973,0.977,11.230,0
212637.332,2.930,27.832,24.902,10.742,43.457,0
212637.336,6.836,33.691,31.250,17.090,21.973,0
212637.340,8.789,31.738,34.668,14.648,24.414,0
212637.344,12.207,31.250,34.180,19.043,53.223,0
212637.348,9.277,34.668,34.668,23.438,77.637,1
212637.352,7.324,40.527,36.621,26.367,94.238,0
212637.356,6.836,38.574,29.297,19.043,102.539,0
212637.359,5.371,33.203,22.461,20.020,88.379,0
212637.363,8.789,32.227,25.391,24.902,62.012,0
212637.367,9.277,34.668,30.762,19.043,19.043,0
212637.371,10.254,40.527,35.156,26.367,37.109,0
212637.375,10.254,42.969,34.668,21.484,38.574,0
212637.379,6.348,43.457,33.691,19.043,31.738,0
212637.383,5.371,44.434,31.250,23.438,38.086,0
212637.387,7.324,46.875,29.785,6.836,-0.488,0
212637.391,4.395,44.434,34.180,15.137,49.316,0
212637.395,-1.465,41.992,34.668,27.832,48.340,0
212637.399,-5.371,42.969,33.691,16.602,8.789,0
212637.402,-5.859,37.109,31.738,18.066,50.781,0
212637.406,-7.812,35.156,27.832,18.555,84.473,0
212637.410,-10.254,40.527,24.902,15.625,74.707,0
212637.414,-8.789,45.410,22.461,7.324,62.988,0
212637.418,-11.230,43.457,23.926,-0.977,50.293,0
212637.422,-10.254,43.945,26.367,4.395,24.414,0
212637.426,-8.789,46.387,29.785,10.742,35.645,0
212637.430,-8.301,46.875,31.250,0.977,26.367,0
212637.434,-0.977,48.340,30.762,-5.859,19.043,0
212637.438,3.418,46.387,29.785,19.531,25.391,0
212637.442,0.977,45.898,28.809,32.227,24.902,0
212637.445,0.488,50.293,28.320,25.879,62.500,0
212637.449,0.000,49.805,26.367,19.043,52.246,0
212637.453,-3.906,43.457,27.344,19.531,31.250,0
212637.457,-3.418,41.016,30.273,20.020,14.160,0
212637.461,-0.488,40.039,31.250,22.949,30.762,0
212637.465,-2.930,33.691,30.273,22.949,68.359,0
212637.469,-12.207,23.438,26.367,10.742,66.406,0
212637.473,-10.254,26.367,24.902,16.113,45.410,0
212637.477,-6.348,34.180,27.344,7.812,25.879,0
212637.481,-8.789,36.133,30.273,4.883,57.617,0
212637.484,-6.836,39.551,32.715,23.438,74.219,0
212637.488,-2.441,41.016,32.715,22.461,30.762,0
212637.492,-0.977,37.598,32.715,20.508,17.578,0
212637.496,1.465,37.598,37.598,31.738,55.176,0
212637.500,6.836,38.086,34.180,37.109,103.027,0
212637.504,5.371,29.297,28.809,23.438,75.684,0
212637.508,1.953,25.879,31.738,22.461,60.059,0
212637.512,4.883,31.250,35.645,39.062,66.406,0
212637.516,2.441,36.133,34.180,37.109,39.551,0
212637.520,-1.465,37.598,27.344,20.996,33.203,0
212637.524,-0.977,35.645,25.879,10.742,17.090,0
212637.527,-1.465,33.691,29.785,22.461,21.484,0
212637.531,-4.395,28.320,33.203,32.227,27.832,0
212637.535,-1.953,28.320,38.086,29.297,42.480,0
212637.539,8.789,40.527,40.527,29.297,42.969,0
212637.543,6.836,44.434,32.715,31.250,43.945,0
212637.547,6.348,43.457,30.762,38.086,41.992,0
212637.551,10.742,42.480,31.738,40.039,18.066,0
212637.555,9.277,36.621,28.320,34.668,11.719,0
212637.559,8.301,35.645,31.250,33.691,16.113,0
212637.563,4.395,34.668,33.203,32.715,34.668,0
212637.567,3.418,35.156,30.762,16.113,25.879,0
212637.570,9.766,39.551,26.367,20.020,38.574,0
212637.574,13.184,44.434,28.320,49.316,82.031,0
212637.578,12.207,42.969,30.762,45.898,64.453,0
212637.582,4.395,42.969,27.832,23.438,34.180,0
212637.586,1.953,45.898,24.414,20.996,10.742,0
212637.590,6.836,45.410,20.996,30.762,10.254,0
212637.594,5.859,41.992,21.973,26.367,14.648,0
212637.598,7.812,44.922,24.902,27.344,13.184,0
212637.602,6.836,49.316,24.414,33.203,16.113,0
212637.606,-2.930,46.875,23.438,23.438,-8.789,0
212637.609,-3.906,47.363,23.438,20.020,-6.348,0
212637.613,3.418,49.805,28.320,15.625,-13.184,0
212637.617,1.465,51.758,31.250,21.484,16.602,0
212637.621,2.930,49.805,30.273,34.668,38.086,0
212637.625,9.766,50.781,33.203,28.809,26.855,0
212637.629,10.254,51.758,34.668,23.438,36.133,0
212637.633,9.277,49.805,34.668,32.227,48.340,0
212637.637,9.766,47.363,34.180,36.621,89.844,0
212637.641,0.000,48.828,30.762,20.996,91.797,0
212637.645,-11.719,51.270,26.367,-1.465,68.848,0
212637.649,-17.578,55.176,25.879,-13.184,79.102,0
212637.652,-33.203,56.641,25.879,-16.113,72.754,0
212637.656,-42.969,52.734,28.320,-33.691,22.461,0
212637.660,-41.992,52.734,26.367,-35.156,19.531,0
212637.664,-43.945,57.129,27.344,-19.531,59.082,0
212637.668,-51.758,61.523,30.273,-35.645,37.598,0
212637.672,-57.617,59.082,29.785,-47.363,28.320,0
212637.676,-62.012,57.617,27.832,-44.434,22.461,0
212637.680,-71.289,57.617,23.926,-52.246,16.602,0
212637.684,-79.102,53.711,24.902,-58.594,24.902,0
212637.688,-80.078,54.199,28.320,-56.152,13.184,0
212637.692,-80.566,56.641,24.902,-60.547,20.508,0
212637.695,-87.891,57.617,21.484,-62.012,32.227,0
212637.699,-90.332,54.199,22.461,-64.941,0.977,0
212637.703,-85.938,53.223,18.066,-74.219,20.020,0
212637.707,-83.984,58.594,15.137,-61.523,44.434,0
212637.711,-79.102,64.941,13.672,-49.805,40.039,0
212637.715,-79.102,65.918,9.766,-61.523,32.227,0
212637.719,-82.520,61.523,10.742,-63.965,28.320,0
212637.723,-79.590,55.176,11.719,-54.199,62.500,0
212637.727,-77.637,49.805,10.742,-42.480,61.523,0
212637.731,-74.219,49.805,13.184,-44.922,40.527,0
212637.734,-67.871,53.223,15.625,-50.293,32.227,0
212637.738,-64.941,54.199,15.625,-47.852,41.992,0
212637.742,-59.570,52.734,14.648,-43.457,37.598,0
212637.746,-52.734,52.734,14.648,-29.297,19.531,0
212637.750,-48.828,55.664,10.742,-36.621,42.969,0
212637.754,-46.875,53.711,6.836,-30.762,63.965,0
212637.758,-44.922,52.246,10.254,-18.555,39.551,0
212637.762,-37.109,56.152,17.578,-27.344,8.301,0
212637.766,-35.645,48.340,20.996,-17.578,0.000,0
212637.770,-40.527,37.109,14.648,-2.441,11.719,0
212637.774,-38.574,40.527,12.207,0.000,-27.344,0
212637.777,-32.715,41.504,12.695,-6.836,-49.316,0
212637.781,-20.508,43.945,12.695,-2.441,-16.113,0
212637.785,-12.207,48.340,12.207,6.836,-49.805,0
212637.789,-4.395,46.387,13.672,8.301,-77.148,0
212637.793,2.930,46.387,18.066,14.648,-27.832,0
212637.797,-0.488,41.016,20.996,17.090,-3.418,0
212637.801,2.441,29.785,19.043,19.043,0.488,0
212637.805,6.348,29.785,17.578,14.160,-3.418,0
212637.809,9.277,36.621,22.461,11.230,-37.109,0
212637.813,9.277,36.133,26.855,31.738,-21.973,0
212637.817,1.953,29.785,24.902,36.621,32.715,0
212637.820,2.930,26.367,20.020,27.832,42.480,0
212637.824,7.324,20.996,22.949,30.273,59.570,0
212637.828,5.371,19.531,30.273,41.992,68.359,0
212637.832,4.883,25.391,26.855,39.062,29.785,0
212637.836,9.766,27.344,20.508,28.320,16.113,0
212637.840,16.113,27.344,24.902,32.227,27.344,0
212637.844,20.508,26.855,29.785,39.551,9.766,0
212637.848,20.508,23.926,27.344,41.504,-25.391,0
212637.852,20.508,24.902,25.391,34.668,-16.602,0
212637.856,24.414,31.250,28.320,41.016,5.371,0
212637.859,24.414,27.832,31.250,54.688,-20.508,0
212637.863,16.113,22.461,30.762,45.410,-25.391,0
212637.867,16.113,24.414,31.250,40.527,18.066,0
212637.871,21.973,25.879,29.297,47.363,55.176,0
212637.875,22.461,22.461,23.926,43.945,36.133,0
212637.879,23.926,26.367,27.344,41.504,33.691,0
212637.883,21.973,26.367,31.738,41.016,41.016,0
212637.887,20.508,20.996,29.785,38.086,39.062,0
212637.891,25.879,24.902,24.414,46.387,58.105,0
212637.895,40.039,41.504,23.438,53.223,-0.488,0
212637.899,41.992,49.316,24.902,42.480,-45.410,0
212637.902,27.344,39.062,22.949,43.457,16.113,0
212637.906,29.785,32.715,22.949,49.805,34.180,0
212637.910,32.715,38.574,22.949,49.805,6.836,0
212637.914,28.809,42.480,22.461,47.852,-16.113,0
212637.918,34.180,43.945,20.996,51.758,-25.879,0
212637.922,39.551,47.852,21.973,57.617,9.766,0
212637.926,38.574,49.805,21.973,52.734,15.625,0
212637.930,42.480,50.781,15.625,47.363,40.527,0
212637.934,41.504,43.945,13.184,44.434,49.805,0
212637.938,40.039,38.086,14.648,41.992,54.688,0
212637.942,50.781,44.922,20.996,33.691,56.152,0
212637.945,50.781,45.410,25.391,40.039,38.086,0
212637.949,39.551,39.062,21.484,49.316,49.805,0
212637.953,38.086,34.180,21.973,40.527,46.387,0
212637.957,39.062,34.668,25.391,44.434,47.852,0
212637.961,38.574,41.016,23.438,47.363,45.898,0
212637.965,38.574,41.992,22.461,44.434,76.660,0
212637.969,36.621,41.504,26.855,39.062,72.754,0
212637.973,37.109,37.598,25.879,33.203,20.020,0
212637.977,40.039,31.250,22.949,36.621,41.504,0
212637.981,39.062,28.809,24.902,41.992,59.570,0
212637.984,42.969,35.156,29.297,42.969,16.113,0
212637.988,43.457,33.203,30.762,34.180,20.020,0
212637.992,26.367,25.391,24.902,40.039,55.664,0
212637.996,17.090,27.832,19.531,48.340,1.953,0
212638.000,18.555,34.180,24.414,40.039,4.395,0
212638.004,22.949,32.227,31.738,46.387,37.109,0
212638.008,27.344,27.344,31.738,51.758,34.180,0
212638.012,26.855,31.250,29.297,45.898,36.133,0
212638.016,21.484,35.156,29.785,42.969,46.875,0
212638.020,16.602,34.668,27.832,38.086,50.781,0
212638.024,20.508,37.598,24.902,39.062,43.945,0
212638.027,29.297,40.039,24.902,41.992,22.461,0
212638.031,24.902,37.598,25.391,27.344,16.113,0
212638.035,11.230,32.715,21.484,19.531,47.852,0
212638.039,8.301,27.832,23.926,35.645,63.477,1
212638.043,10.742,32.715,32.227,38.574,41.992,0
212638.047,10.254,32.715,33.691,29.297,9.277,0
212638.051,16.113,32.715,30.762,35.156,1.465,0
212638.055,18.066,34.668,30.273,44.434,11.230,0
212638.059,14.160,35.156,27.832,39.062,12.695,0
212638.063,16.602,37.109,23.926,36.133,-16.602,0
212638.067,17.578,40.039,26.367,31.250,-11.719,0
212638.070,22.949,39.551,28.320,44.434,13.184,0
212638.074,25.879,37.598,22.461,47.852,-3.418,0
212638.078,15.137,35.156,15.625,25.391,3.418,0
212638.082,12.207,38.574,18.066,26.855,12.207,0
212638.086,14.160,42.969,26.367,37.598,1.953,0
212638.090,8.301,37.598,26.855,30.762,5.371,0
212638.094,4.883,34.668,22.949,28.809,4.395,0
212638.098,3.418,38.086,22.949,37.109,29.297,0
212638.102,2.930,39.551,24.414,27.344,12.695,0
212638.106,3.418,44.434,30.273,32.227,11.719,0
212638.109,0.000,43.457,32.227,37.598,-12.207,0
212638.113,-4.395,34.180,24.414,23.926,-12.207,0
212638.117,-4.395,33.203,18.555,22.949,11.719,0
212638.121,-2.930,32.227,19.531,24.902,17.578,0
212638.125,0.000,31.738,25.391,20.996,23.926,0
212638.129,4.395,38.086,25.879,22.461,4.883,0
212638.133,7.812,39.062,26.855,26.855,1.465,0
212638.137,13.672,36.133,30.273,21.973,45.898,0
212638.141,19.043,37.598,28.320,40.527,91.797,0
212638.145,19.043,37.598,29.785,62.012,82.520,0
212638.149,12.695,32.715,29.297,35.645,81.543,0
212638.152,4.395,33.691,23.438,21.484,65.430,0
212638.156,2.441,36.133,23.926,38.086,83.008,0
212638.160,5.859,34.180,25.879,45.410,88.379,0
212638.164,10.254,34.668,28.320,33.691,44.922,0
212638.168,13.184,39.062,26.855,30.762,12.695,0
212638.172,12.695,39.551,25.879,33.691,4.395,0
212638.176,7.812,32.715,30.762,37.109,9.766,0
212638.180,5.859,32.227,29.785,20.020,-27.832,0
212638.184,2.441,32.715,28.809,7.324,-56.152,0
212638.188,1.953,30.762,27.344,33.203,-25.391,0
212638.192,8.789,36.621,26.855,46.387,8.301,0
212638.195,7.812,40.527,31.250,42.480,39.062,0
212638.199,3.906,36.133,29.297,26.855,40.527,0
212638.203,2.441,33.691,24.902,22.461,17.090,0
212638.207,2.930,33.691,24.414,32.715,45.898,0
212638.211,5.371,34.180,22.949,27.344,67.871,0
212638.215,3.906,32.227,28.320,11.719,12.207,0
212638.219,4.883,27.832,31.738,11.230,26.367,0
212638.223,12.695,30.273,28.809,24.414,37.109,0
212638.227,14.160,35.156,28.809,21.484,-15.625,0
212638.231,11.719,30.273,23.438,18.555,27.832,0
212638.234,4.883,27.344,14.160,28.320,31.250,0
212638.238,3.906,31.738,21.484,28.809,-18.555,0
212638.242,6.348,27.344,28.809,20.508,6.348,0
212638.246,3.906,25.391,24.414,13.672,-1.465,0
212638.250,-0.488,30.762,22.461,12.207,-10.254,0
212638.254,-3.418,30.762,25.879,15.137,38.086,0
212638.258,0.488,35.156,27.344,15.625,30.273,0
212638.262,4.395,38.086,26.367,18.555,34.668,0
212638.266,-1.465,34.668,25.391,10.742,40.039,0
212638.270,-5.371,34.668,21.484,-0.977,42.969,0
212638.274,0.000,36.621,19.043,2.930,55.176,0
212638.277,2.441,34.668,20.020,21.973,86.914,0
212638.281,3.418,38.574,23.438,26.855,82.031,0
212638.285,1.953,37.598,21.973,25.391,63.477,0
212638.289,-2.930,31.738,17.090,24.902,42.480,0
212638.293,0.488,33.203,21.484,34.668,32.227,0
212638.297,-0.977,32.227,26.855,32.227,41.016,0
212638.301,-2.930,33.203,25.879,27.832,60.547,0
212638.305,0.977,38.086,25.879,33.203,48.828,0
212638.309,-1.465,40.527,26.855,28.809,48.828,0
212638.313,-0.977,41.504,24.414,18.066,52.246,0
212638.317,-7.812,39.062,25.879,-4.883,-31.250,0
212638.320,-10.254,37.109,31.250,7.812,-16.602,0
212638.324,-0.977,36.621,35.645,37.109,40.039,0
212638.328,-3.418,31.738,31.250,29.297,19.043,0
212638.332,-8.301,29.297,22.949,13.672,34.180,0
212638.336,-1.465,35.156,22.949,19.043,47.363,0
212638.340,8.301,39.551,24.414,30.762,37.598,0
212638.344,8.789,39.062,22.949,23.438,-0.977,0
212638.348,4.395,35.645,26.855,14.648,-7.324,0
212638.352,4.883,34.668,26.855,20.020,29.785,0
212638.356,4.883,35.156,23.438,31.738,25.879,0
212638.359,3.906,35.156,24.902,27.344,13.672,0
212638.363,5.371,33.691,23.438,12.207,17.090,0
212638.367,4.395,29.297,21.973,21.973,28.809,0
212638.371,5.859,31.250,22.949,32.227,17.578,0
212638.375,8.789,36.621,25.391,27.832,-15.137,0
212638.379,5.371,35.156,25.879,31.250,-2.930,0
212638.383,5.859,35.645,25.879,41.504,50.293,0
212638.387,10.254,39.551,30.762,40.039,45.410,0
212638.391,6.348,39.551,29.297,19.043,22.461,0
212638.395,7.324,37.598,28.320,18.066,32.715,0
212638.399,12.207,36.133,35.156,31.250,38.574,0
212638.402,7.324,31.738,32.715,20.020,3.418,0
212638.406,-2.930,31.738,23.926,-1.953,-18.066,0
212638.410,-5.371,39.551,22.949,1.465,20.508,0
212638.414,-5.371,40.527,23.926,17.578,32.715,0
212638.418,-3.906,41.504,20.996,25.879,35.156,0
212638.422,3.906,44.434,20.020,26.367,42.480,0
212638.426,13.184,40.527,24.902,32.227,111.816,0
212638.430,18.555,38.086,25.879,33.203,115.234,0
212638.434,18.066,45.898,20.996,20.996,72.754,0
212638.438,22.461,48.340,22.461,25.391,99.609,0
212638.442,23.438,42.480,29.297,28.320,102.539,0
212638.445,22.949,45.898,31.738,35.156,91.309,0
212638.449,20.020,43.945,28.320,28.809,47.852,0
212638.453,19.043,36.621,24.902,8.301,-17.090,0
212638.457,16.602,36.133,26.855,22.461,25.879,0
212638.461,8.789,35.156,29.297,33.203,41.504,0
212638.465,7.812,37.109,28.809,19.531,22.949,0
212638.469,12.695,41.992,27.832,13.184,9.277,0
212638.473,12.695,40.039,28.320,27.832,1.465,0
212638.477,12.695,37.598,27.344,31.250,49.316,0
212638.481,17.578,34.180,27.344,18.555,40.039,0
212638.484,15.137,34.180,31.738,15.625,21.484,0
212638.488,16.113,38.086,36.133,23.926,2.441,0
212638.492,17.578,41.016,31.738,25.391,-10.254,0
212638.496,10.742,42.969,24.902,18.555,8.789,0
212638.500,6.348,41.504,24.414,19.531,47.852,0
212638.504,10.254,43.945,25.391,32.227,86.914,0
212638.508,13.672,47.363,26.367,30.762,107.422,0
212638.512,11.719,42.969,23.438,7.324,81.055,0
212638.516,13.184,42.969,27.832,10.254,78.125,0
212638.520,13.184,39.551,33.691,27.832,110.352,0
212638.524,16.113,40.039,33.691,25.391,85.938,0
212638.527,23.438,45.410,36.133,28.320,62.988,0
212638.531,16.602,41.016,34.180,28.320,53.711,0
212638.535,9.277,37.109,27.832,17.578,18.066,0
212638.539,11.719,39.551,28.320,14.160,11.719,0
212638.543,7.812,41.016,29.785,4.883,-15.625,0
212638.547,0.977,37.109,30.762,2.930,-34.180,0
212638.551,-0.977,33.691,32.227,16.113,5.371,0
212638.555,-3.906,35.645,28.320,7.812,19.531,0
212638.559,-4.395,40.039,26.855,4.395,17.578,0
212638.563,-0.488,40.527,29.297,21.484,40.527,0
212638.567,5.859,44.922,30.762,21.973,46.875,0
212638.570,15.625,45.410,36.621,23.438,49.316,0
212638.574,14.160,39.062,37.598,24.902,79.102,0
212638.578,5.371,37.109,31.738,23.926,96.191,0
212638.582,-4.395,35.156,27.344,8.301,37.598,0
212638.586,-9.277,36.621,27.344,-8.789,30.762,0
212638.590,-4.395,39.062,26.367,1.465,57.129,0
212638.594,1.465,41.992,26.855,8.789,56.641,0
212638.598,0.000,40.527,25.391,7.324,50.781,0
212638.602,-1.953,37.109,23.926,-11.230,13.672,0
212638.606,-1.465,35.156,25.879,-11.719,-41.016,0
212638.609,-2.441,32.715,24.902,14.648,-26.367,0
212638.613,0.977,33.691,26.367,16.602,-1.465,1
212638.617,-0.488,34.180,28.320,7.812,-37.109,0
212638.621,0.488,33.691,28.320,7.324,-25.391,0
212638.625,9.277,35.156,27.344,17.090,13.184,0
212638.629,10.254,41.504,27.344,19.043,-29.785,0
212638.633,10.742,47.363,26.367,19.531,-28.809,0
212638.637,13.672,41.992,20.996,27.344,0.000,0
212638.641,7.812,31.250,16.113,16.113,12.207,0
212638.645,7.324,33.203,20.996,4.395,-4.883,0
212638.649,11.230,39.062,26.367,3.906,-52.734,0
212638.652,11.719,36.133,27.344,23.926,-18.066,0
212638.656,12.207,37.109,34.180,32.715,31.250,0
212638.660,5.371,39.062,32.715,12.695,17.090,0
212638.664,2.930,37.598,25.879,10.254,9.277,0
212638.668,11.719,41.992,32.227,24.902,26.855,0
212638.672,12.695,44.922,33.691,30.273,11.230,0
212638.676,7.812,40.527,29.297,17.090,-45.898,0
212638.680,7.812,33.691,32.715,6.348,-55.176,0
212638.684,-1.465,28.320,29.297,2.930,-4.395,0
212638.688,-2.441,33.203,25.391,5.859,23.438,0
212638.692,5.371,37.598,25.879,1.953,14.160,0
212638.695,7.812,39.062,28.809,2.930,13.672,0
212638.699,7.812,40.527,30.762,15.625,30.273,0
212638.703,6.348,40.039,26.855,12.695,8.301,0
212638.707,6.348,38.086,22.949,9.766,10.742,0
212638.711,4.883,38.574,26.367,14.648,19.531,0
212638.715,0.488,40.039,29.297,13.672,14.648,0
212638.719,-0.977,39.062,25.391,6.836,32.227,0
212638.723,-3.418,35.645,20.020,8.301,52.246,0
212638.727,-7.324,35.156,19.043,13.184,32.715,0
212638.731,-12.695,35.156,21.973,9.277,-9.766,0
212638.734,-15.625,32.227,23.438,-3.906,-28.320,0
212638.738,-6.348,29.785,23.438,-6.836,-35.156,0
212638.742,-0.977,31.250,22.949,12.695,-16.113,0
212638.746,-0.977,39.062,24.414,23.926,-6.348,0
212638.750,1.465,42.969,26.367,17.090,23.926,0
212638.754,3.906,41.992,26.855,21.484,82.031,0
212638.758,3.418,41.504,27.344,27.344,77.148,0
212638.762,0.977,39.062,26.855,21.973,65.918,0
212638.766,-3.906,36.133,22.461,11.719,52.734,0
212638.770,-2.930,36.133,20.508,14.648,57.129,0
212638.774,4.395,36.133,25.879,19.043,39.062,0
212638.777,9.766,36.133,27.832,15.137,28.320,0
212638.781,6.836,36.133,26.855,12.207,23.438,0
212638.785,5.371,35.156,25.391,12.695,4.395,0
212638.789,16.113,36.133,25.879,33.691,64.453,0
212638.793,20.020,35.645,26.855,36.133,87.402,0
212638.797,14.648,32.227,25.391,14.648,17.578,0
212638.801,15.625,33.691,26.367,21.484,-4.395,0
212638.805,16.113,37.598,34.180,36.133,15.137,0
212638.809,10.254,36.133,40.039,27.344,-21.484,0
212638.813,6.348,33.203,34.668,13.672,-20.020,0
212638.817,5.859,33.691,26.367,12.695,12.695,0
212638.820,8.789,35.156,28.320,25.879,-2.441,0
212638.824,9.277,34.668,30.762,31.250,-4.883,0
212638.828,6.836,31.738,30.762,15.137,4.395,0
212638.832,12.695,34.180,32.715,16.602,10.742,0
212638.836,18.066,39.062,28.320,25.879,-24.902,0
212638.840,11.719,34.180,24.414,17.578,-28.809,0
212638.844,9.277,33.691,28.809,21.973,12.207,0
212638.848,12.695,38.086,32.227,32.715,46.387,0
212638.852,5.859,35.645,29.785,13.184,49.316,0
212638.856,0.488,33.203,29.297,4.395,22.461,0
212638.859,0.488,33.691,25.391,18.066,21.973,0
212638.863,2.930,36.133,22.949,24.414,68.359,0
212638.867,4.883,39.062,22.949,21.484,82.031,0
212638.871,0.977,39.551,22.949,15.137,48.340,0
212638.875,5.371,42.480,26.367,16.602,15.625,0
212638.879,12.207,42.969,28.809,29.785,31.250,0
212638.883,4.395,41.992,26.367,28.809,56.641,0
212638.887,0.977,42.480,20.996,16.113,14.648,0
212638.891,10.742,46.387,17.578,22.949,-34.668,0
212638.895,13.672,51.270,19.531,34.180,-9.766,0
212638.899,8.301,50.781,15.137,24.902,22.461,0
212638.902,12.207,49.805,16.602,21.973,1.465,0
212638.906,17.090,45.410,23.926,30.762,-2.441,0
212638.910,10.742,39.551,28.809,29.785,13.184,0
212638.914,7.324,37.598,31.250,31.250,-3.906,0
212638.918,8.789,39.062,28.809,34.668,8.301,0
212638.922,2.441,41.016,31.250,41.992,10.254,0
212638.926,2.441,40.039,34.668,54.199,34.668,0
212638.930,2.930,35.156,33.691,47.363,94.238,0
212638.934,6.836,36.133,38.086,44.434,65.430,0
212638.938,16.602,43.945,40.527,69.824,74.707,0
212638.942,10.742,44.922,34.180,68.848,83.984,0
212638.945,7.812,43.945,28.320,43.945,56.641,0
212638.949,5.859,41.992,25.391,34.668,61.035,0
212638.953,3.906,39.551,31.250,41.992,48.828,0
212638.957,7.324,37.598,36.621,45.410,67.871,0
212638.961,4.883,39.062,34.668,41.992,78.125,0
212638.965,9.766,42.969,37.598,44.434,84.473,0
212638.969,12.207,40.039,30.762,37.109,46.875,0
212638.973,8.301,37.109,27.344,42.480,68.359,0
212638.977,14.648,36.133,34.180,41.016,64.941,0
212638.981,13.184,29.297,32.715,25.879,41.992,0
212638.984,4.395,23.926,30.273,37.109,74.707,0
212638.988,7.324,32.715,30.762,40.527,31.738,0
212638.992,9.277,40.527,31.738,27.832,44.434,0
212638.996,12.695,39.551,32.715,24.414,89.355,0
212639.000,18.066,45.410,33.691,33.691,74.219,0
212639.004,11.719,42.969,32.227,25.391,91.797,0
212639.008,5.371,35.156,27.832,16.602,117.188,0
212639.012,6.348,38.574,24.902,24.414,115.234,0
212639.016,14.648,42.480,22.461,34.668,102.051,0
212639.020,20.508,38.086,21.973,29.785,56.641,0
212639.024,15.625,35.645,23.438,15.625,27.832,0
212639.027,10.254,32.715,30.273,25.879,103.027,0
212639.031,11.719,31.250,36.133,31.738,97.168,0
212639.035,8.301,38.086,33.691,18.066,37.598,0
212639.039,6.348,42.969,33.691,23.926,72.754,0
212639.043,3.906,41.992,34.668,26.855,62.988,0
212639.047,-5.371,41.016,29.297,20.508,6.836,0
212639.051,0.977,42.480,26.367,34.180,11.719,0
212639.055,6.836,40.039,25.391,37.598,34.668,0
212639.059,3.418,35.645,20.996,32.715,59.570,0
212639.063,7.324,35.156,21.484,26.855,67.383,0
212639.067,1.465,34.180,25.391,5.371,-8.789,0
212639.070,-3.906,31.250,24.414,9.766,-31.738,0
212639.074,0.977,28.809,27.832,31.250,25.879,0
212639.078,-0.977,30.762,29.297,25.879,53.223,0
212639.082,-2.930,31.738,27.832,9.766,76.172,0
212639.086,0.488,32.715,33.691,19.043,90.332,0
212639.090,6.836,34.668,38.574,35.156,103.027,0
212639.094,16.602,32.715,34.180,33.691,76.660,0
212639.098,13.672,28.809,28.809,25.879,30.273,0
212639.102,7.324,28.320,28.320,10.742,-3.418,0
212639.106,7.812,30.762,31.250,21.973,2.441,0
212639.109,2.930,29.297,33.691,28.809,16.602,0
212639.113,0.977,34.180,34.180,13.672,1.465,0
212639.117,-2.441,37.598,33.691,21.973,33.203,0
212639.121,-2.441,35.645,32.715,41.992,67.871,0
212639.125,-0.488,36.133,26.855,43.457,68.359,0
212639.129,0.488,34.668,22.949,31.250,71.777,0
212639.133,8.789,33.203,25.391,30.273,91.309,0
212639.137,8.301,34.668,30.762,30.273,86.914,0
212639.141,4.395,34.180,34.180,29.785,41.504,0
212639.145,3.906,34.180,33.691,32.715,64.941,0
212639.149,2.441,35.156,34.668,30.273,45.410,0
212639.152,-3.418,35.156,29.297,25.391,22.949,0
212639.156,-3.906,36.621,24.414,9.766,41.016,0
212639.160,0.488,34.668,23.926,9.766,40.527,0
212639.164,3.906,34.668,23.438,28.809,29.297,0
