timestamps,TP9,AF7,AF8,TP10,Right AUX,Marker0
212885.461,34.668,38.086,21.484,25.391,30.762,0
212885.465,39.551,37.598,23.926,24.414,13.184,0
212885.469,25.879,32.715,19.043,21.973,4.883,0
212885.473,22.461,38.086,14.648,29.297,10.742,0
212885.477,26.855,45.898,20.508,22.949,20.020,0
212885.481,21.973,41.504,27.344,19.043,6.836,0
212885.484,15.625,37.109,29.297,24.414,21.484,0
212885.488,17.578,40.527,31.738,22.949,15.137,0
212885.492,22.461,39.062,27.344,17.578,4.883,0
212885.496,19.531,33.203,26.855,26.367,46.875,0
212885.500,14.160,33.203,29.297,32.715,63.965,0
212885.504,16.113,33.691,29.297,26.855,66.406,0
212885.508,15.625,34.180,27.832,23.926,65.430,0
212885.512,13.672,33.691,24.902,22.949,89.355,0
212885.516,9.766,33.203,27.832,26.367,113.770,0
212885.520,8.301,34.668,24.902,23.926,76.172,0
212885.524,14.648,37.598,27.832,27.344,21.973,0
212885.527,17.090,38.086,25.879,31.738,-1.465,0
212885.531,9.766,34.180,14.160,16.602,28.809,0
212885.535,7.812,33.203,19.043,6.348,-1.465,0
212885.539,10.742,36.621,24.414,6.348,-11.230,0
212885.543,9.766,36.621,26.855,17.578,63.965,0
212885.547,15.625,34.668,26.367,29.785,35.645,0
212885.551,20.020,38.574,17.090,31.738,26.367,0
212885.555,16.113,39.062,18.066,26.855,47.363,0
212885.559,14.160,34.180,30.762,25.879,45.898,0
212885.563,20.508,37.598,36.621,30.762,23.926,0
212885.567,21.973,39.551,29.297,27.344,29.297,0
212885.570,19.043,40.039,28.809,23.438,54.199,0
212885.574,19.043,39.551,31.738,28.809,37.109,0
212885.578,15.625,32.227,25.879,26.855,19.531,0
212885.582,11.230,30.273,20.996,13.184,38.086,0
212885.586,8.301,32.715,25.879,18.066,31.738,0
212885.590,8.301,31.738,26.367,33.203,13.184,0
212885.594,13.672,35.645,21.973,32.715,25.391,0
212885.598,17.578,38.574,27.344,32.227,34.668,0
212885.602,19.531,36.621,35.645,32.227,23.438,0
212885.606,24.902,38.086,32.715,29.297,-9.277,0
212885.609,24.902,38.086,31.738,31.250,-9.766,0
212885.613,22.461,40.527,29.785,32.227,-26.855,0
212885.617,20.508,43.945,27.832,32.715,4.883,0
212885.621,15.137,37.598,32.227,28.320,23.926,0
212885.625,9.766,29.785,33.203,16.602,-4.395,0
212885.629,10.742,26.367,30.273,9.766,-14.648,0
212885.633,12.207,25.391,28.809,15.625,36.133,0
212885.637,10.254,28.809,27.344,15.137,61.035,0
212885.641,12.695,35.645,25.391,9.277,13.672,0
212885.645,18.555,38.086,27.344,18.066,34.180,0
212885.649,22.461,34.180,25.391,19.043,68.848,0
212885.652,26.855,34.668,16.602,15.625,43.457,0
212885.656,29.297,34.668,20.508,16.602,18.555,1
212885.660,28.809,34.180,29.785,14.160,15.137,0
212885.664,34.668,36.621,34.180,20.996,33.203,0
212885.668,34.668,37.109,37.109,28.809,37.598,0
212885.672,27.344,33.203,36.621,17.578,41.016,0
212885.676,20.996,27.344,28.809,9.766,53.711,0
212885.680,16.602,26.367,26.367,16.113,59.570,0
212885.684,20.996,31.738,27.832,19.531,51.758,0
212885.688,21.484,36.133,15.625,12.695,7.324,0
212885.692,19.531,33.691,17.090,15.137,27.832,0
212885.695,26.367,32.227,24.414,23.926,72.266,0
212885.699,29.785,34.668,27.832,21.973,34.668,0
212885.703,31.250,36.133,32.227,21.973,-19.531,0
212885.707,26.855,34.668,28.809,23.438,-9.277,0
212885.711,22.461,31.250,30.273,24.414,26.367,0
212885.715,25.879,29.785,36.133,14.160,30.762,0
212885.719,24.902,32.227,30.762,0.488,3.906,0
212885.723,19.531,32.227,27.344,4.883,-0.488,0
212885.727,20.508,36.133,30.273,11.719,37.109,0
212885.731,21.484,39.551,24.414,11.230,54.688,0
212885.734,15.625,36.621,25.879,8.301,59.082,0
212885.738,13.672,34.180,24.414,12.695,34.668,0
212885.742,16.113,33.691,19.531,20.996,43.945,0
212885.746,20.508,38.574,26.367,17.578,61.523,0
212885.750,20.996,34.668,29.785,11.230,47.852,0
212885.754,12.695,26.855,29.785,13.184,10.742,0
212885.758,7.324,27.832,33.691,11.230,3.418,0
212885.762,5.371,26.855,33.691,11.230,-6.836,0
212885.766,9.277,26.367,28.320,14.160,9.277,0
212885.770,14.648,28.320,30.762,19.531,75.195,0
212885.774,23.438,33.203,32.715,25.879,83.008,0
212885.777,22.949,37.598,31.250,17.090,64.941,0
212885.781,16.602,35.645,35.156,14.160,45.410,0
212885.785,15.137,35.156,35.156,20.508,52.246,0
212885.789,10.742,36.133,28.320,14.648,39.551,0
212885.793,10.254,37.598,31.250,19.531,-7.324,0
212885.797,10.254,38.574,33.691,23.926,20.996,0
212885.801,5.371,34.668,32.715,18.066,40.039,0
212885.805,4.395,34.668,26.367,20.996,45.410,0
212885.809,9.277,36.621,20.996,25.879,42.480,0
212885.813,10.254,36.133,29.785,22.949,48.340,0
212885.817,12.695,37.598,30.273,21.484,47.852,0
212885.820,17.090,35.645,26.367,16.602,25.879,0
212885.824,13.672,29.297,26.367,12.695,13.184,0
212885.828,12.207,27.832,29.297,24.414,46.875,0
212885.832,15.625,34.180,37.598,29.297,25.879,0
212885.836,15.137,34.668,33.691,31.250,7.324,0
212885.840,16.113,35.156,26.367,27.832,62.988,0
212885.844,16.602,38.086,29.785,22.949,38.574,0
212885.848,11.230,34.668,30.762,18.066,-9.766,0
212885.852,10.742,33.203,33.203,19.531,-16.602,0
212885.856,11.230,35.645,31.738,20.996,-27.344,0
212885.859,10.254,35.645,30.273,18.066,-14.160,0
212885.863,15.137,33.691,33.203,22.461,-12.695,0
212885.867,18.555,34.668,29.785,16.113,-20.996,0
212885.871,10.742,37.109,31.738,12.695,12.695,0
212885.875,7.324,37.598,34.668,24.902,39.062,0
212885.879,7.324,33.691,32.715,25.879,58.105,0
212885.883,9.277,29.785,34.180,22.461,59.570,0
212885.887,20.508,35.156,38.086,37.109,62.500,0
212885.891,24.414,40.527,37.109,35.156,47.852,0
212885.895,17.090,34.668,26.855,11.719,10.742,0
212885.899,11.719,27.832,24.902,12.207,26.855,0
212885.902,11.230,28.809,24.414,20.996,20.508,0
212885.906,12.207,29.785,28.809,24.414,-6.836,0
212885.910,14.648,28.320,40.039,21.484,-40.039,0
212885.914,15.625,30.273,38.574,17.578,-29.785,0
212885.918,15.137,30.273,36.133,27.344,-3.906,0
212885.922,12.695,28.809,34.668,28.320,-19.043,0
212885.926,14.648,31.738,31.250,20.996,19.531,0
212885.930,20.996,34.180,34.180,21.484,46.875,0
212885.934,17.090,32.227,33.203,20.508,47.363,0
212885.938,20.996,34.668,33.691,17.578,65.430,0
212885.942,29.785,37.598,34.668,24.414,119.629,0
212885.945,24.902,35.156,30.273,32.715,120.117,0
212885.949,18.555,33.203,28.809,33.203,56.641,0
212885.953,13.184,29.297,30.273,18.066,42.480,0
212885.957,16.113,30.273,31.250,8.301,34.668,0
212885.961,20.508,33.203,35.645,20.508,15.625,0
212885.965,20.996,29.297,33.203,27.344,44.434,0
212885.969,26.367,30.762,28.320,27.344,58.105,0
212885.973,27.344,36.621,27.832,29.297,39.062,0
212885.977,21.973,35.645,30.762,27.832,47.363,0
212885.981,14.160,32.715,31.250,25.879,73.730,0
212885.984,16.602,33.203,27.344,23.438,80.566,0
212885.988,20.020,32.227,23.926,19.531,85.449,0
212885.992,16.602,27.344,25.391,15.137,59.570,0
212885.996,18.555,34.180,30.273,22.461,60.547,0
212886.000,19.531,37.598,30.762,23.438,70.801,0
212886.004,19.531,32.715,26.367,14.648,50.293,0
212886.008,21.484,35.645,26.855,24.414,56.152,0
212886.012,21.484,41.504,26.855,27.344,57.617,0
212886.016,25.879,38.574,22.461,23.438,75.684,0
212886.020,21.973,33.203,26.855,22.949,76.172,0
212886.024,20.508,31.738,34.180,23.926,55.664,0
212886.027,24.902,34.180,34.668,27.344,-10.254,0
212886.031,23.438,40.039,30.762,31.250,-45.898,0
212886.035,22.461,36.621,38.574,34.668,8.301,0
212886.039,23.438,28.809,34.668,23.926,27.832,0
212886.043,27.344,28.809,25.879,14.648,-6.348,0
212886.047,29.297,32.227,28.320,13.184,-16.602,0
212886.051,28.809,32.227,31.250,16.113,9.277,0
212886.055,31.250,32.715,29.785,23.926,38.574,0
212886.059,34.180,33.691,25.391,29.297,42.969,0
212886.063,36.133,32.715,30.762,30.762,47.363,0
212886.067,39.062,35.645,34.668,37.109,46.875,0
212886.070,41.504,38.574,32.715,37.109,20.996,0
212886.074,40.527,37.598,39.551,31.738,-0.977,0
212886.078,36.621,36.621,43.945,39.551,17.090,0
212886.082,31.250,34.668,36.621,39.062,33.203,0
212886.086,25.391,33.203,29.785,30.273,23.438,0
212886.090,20.996,32.227,26.367,25.391,3.418,0
212886.094,22.461,27.344,26.367,20.020,-14.160,0
212886.098,25.391,31.250,25.879,23.438,35.645,0
212886.102,27.344,38.574,29.785,25.879,87.891,0
212886.106,28.809,36.133,33.691,30.762,61.035,0
212886.109,35.645,34.180,29.297,41.504,63.477,0
212886.113,41.992,36.621,37.109,39.062,73.730,0
212886.117,44.922,42.480,38.574,35.156,82.031,0
212886.121,47.363,45.898,25.391,32.715,108.398,0
212886.125,47.852,43.945,28.809,27.344,101.562,0
212886.129,49.805,42.480,33.691,26.367,85.938,0
212886.133,47.852,40.039,30.273,29.297,93.750,0
212886.137,38.574,34.668,25.879,23.926,62.012,0
212886.141,30.762,31.738,21.973,16.113,0.488,0
212886.145,29.297,36.133,21.484,21.973,25.391,0
212886.149,29.785,39.551,28.809,25.391,41.016,0
212886.152,33.691,38.574,35.645,17.578,-27.832,0
212886.156,32.227,36.133,29.785,26.367,-8.301,0
212886.160,25.879,35.645,21.484,40.527,52.246,0
212886.164,33.203,41.992,28.320,43.457,24.902,0
212886.168,33.691,43.945,34.668,37.598,-1.465,0
212886.172,28.320,38.086,30.762,35.156,41.016,0
212886.176,29.785,31.250,30.273,39.551,67.383,0
212886.180,17.090,29.785,30.273,25.879,42.480,0
212886.184,7.812,36.133,27.344,11.230,38.086,0
212886.188,9.277,35.645,27.344,10.254,75.195,0
212886.192,12.207,33.691,32.715,16.602,84.961,0
212886.195,20.996,37.109,31.738,22.949,20.508,0
212886.199,28.809,35.645,20.996,24.414,-40.039,0
212886.203,32.227,34.668,19.043,24.902,-40.039,0
212886.207,39.551,44.434,32.715,31.738,-6.836,0
212886.211,41.504,45.410,33.203,35.156,7.812,0
212886.215,35.645,36.621,32.227,29.785,0.488,0
212886.219,25.879,31.738,35.156,27.832,-6.348,1
212886.223,23.926,34.668,27.832,23.926,-6.836,0
212886.227,30.273,36.621,25.391,18.066,-19.531,0
212886.231,30.273,33.203,29.785,20.996,-41.504,0
212886.234,30.273,33.203,34.180,30.273,-5.859,0
212886.238,37.109,36.133,35.156,34.668,17.090,0
212886.242,40.039,34.668,36.133,22.949,-20.996,0
212886.246,36.133,29.297,38.574,24.414,-21.973,0
212886.250,30.273,28.809,38.574,36.133,16.113,0
212886.254,28.320,33.691,29.785,25.879,12.695,0
212886.258,31.250,37.598,27.832,20.020,11.719,0
212886.262,32.227,41.016,29.785,28.809,38.086,0
212886.266,27.832,40.527,25.879,27.344,26.367,0
212886.270,24.414,37.598,25.391,19.531,18.066,0
212886.274,22.949,37.109,24.902,17.090,21.973,0
212886.277,16.113,32.715,23.438,16.113,3.906,0
212886.281,14.648,29.297,27.832,17.090,-10.742,0
212886.285,22.461,31.250,27.832,16.602,-25.391,0
212886.289,24.414,26.367,26.367,15.625,-29.785,0
212886.293,19.043,26.367,33.691,28.320,23.926,0
212886.297,16.602,35.156,30.273,31.250,63.477,0
212886.301,18.555,33.691,19.531,28.320,20.020,0
212886.305,20.996,33.691,19.043,31.250,-5.371,0
212886.309,22.949,35.156,28.320,33.203,44.434,0
212886.313,25.879,33.691,33.691,32.715,54.688,0
212886.317,20.508,34.180,31.250,41.016,28.809,0
212886.320,8.301,36.621,34.668,46.387,20.996,0
212886.324,2.930,40.527,31.250,40.039,17.578,0
212886.328,1.953,39.062,26.367,32.227,19.531,0
212886.332,-3.906,33.203,32.227,19.043,-18.555,0
212886.336,-6.348,32.227,33.203,22.949,-20.996,0
212886.340,-4.395,35.156,25.879,33.691,24.414,0
212886.344,0.488,35.156,25.391,28.320,20.508,0
212886.348,-5.859,29.785,25.879,20.508,9.277,0
212886.352,-9.766,30.762,28.320,23.926,23.926,0
212886.356,-4.883,36.621,31.738,25.879,38.574,0
212886.359,-3.418,37.109,30.273,21.973,0.488,0
212886.363,0.000,36.133,26.367,20.996,-4.883,0
212886.367,-1.953,34.668,25.391,22.461,5.859,0
212886.371,-2.930,36.133,29.297,32.715,41.992,0
212886.375,2.930,41.016,33.691,33.203,74.219,0
212886.379,8.301,41.504,29.297,21.484,34.668,0
212886.383,6.836,35.645,20.996,24.902,30.273,0
212886.387,11.230,31.738,24.414,24.902,14.160,0
212886.391,16.113,32.227,29.785,28.809,8.789,0
212886.395,12.207,30.762,28.320,35.645,6.836,0
212886.399,17.090,33.691,26.855,32.227,17.578,0
212886.402,25.391,39.551,27.344,30.762,28.809,0
212886.406,31.250,36.621,30.762,25.879,41.016,0
212886.410,37.109,34.668,33.203,34.668,65.918,0
212886.414,37.109,38.086,38.086,41.504,82.031,0
212886.418,35.156,37.598,35.156,34.668,47.852,0
212886.422,25.391,34.180,23.926,21.484,50.781,0
212886.426,11.719,32.715,23.438,15.137,60.547,0
212886.430,8.789,34.180,25.391,23.438,56.641,0
212886.434,9.277,34.180,29.785,24.902,73.242,0
212886.438,5.859,34.180,28.809,21.484,79.102,0
212886.442,4.395,31.250,24.414,22.949,66.406,0
212886.445,7.324,32.715,26.855,26.855,21.973,0
212886.449,7.324,35.156,24.414,27.344,20.508,0
212886.453,8.301,32.227,32.227,23.926,23.926,0
212886.457,12.207,33.203,37.109,27.344,50.293,0
212886.461,21.484,39.062,23.438,35.156,72.266,0
212886.465,31.738,42.969,27.832,32.715,37.109,0
212886.469,26.855,39.062,31.738,20.020,-13.672,0
212886.473,22.461,35.645,26.367,14.648,11.719,0
212886.477,27.344,38.086,27.344,21.484,39.551,0
212886.481,24.902,39.062,26.367,23.438,26.855,0
212886.484,19.531,32.715,23.926,20.996,20.020,0
212886.488,19.531,28.320,25.391,21.484,47.363,0
212886.492,22.461,32.715,30.273,23.926,53.223,0
212886.496,25.391,34.180,31.738,26.367,16.602,0
212886.500,26.855,31.250,24.414,31.738,43.945,0
212886.504,25.391,31.250,18.555,30.273,75.684,0
212886.508,28.320,35.156,20.020,20.996,57.617,0
212886.512,29.297,38.574,26.855,21.484,47.852,0
212886.516,23.926,35.156,32.227,21.973,56.641,0
212886.520,21.973,29.785,31.250,20.020,47.852,0
212886.524,21.973,27.344,30.762,15.625,15.625,0
212886.527,22.461,26.855,30.762,15.137,-16.602,0
212886.531,22.949,29.785,32.227,21.484,20.996,0
212886.535,33.691,32.227,33.691,32.227,32.227,0
212886.539,34.668,33.203,32.227,33.203,23.438,0
212886.543,26.855,33.691,35.156,28.809,50.293,0
212886.547,27.832,31.738,34.668,35.156,64.453,0
212886.551,27.344,28.809,31.738,41.016,64.453,0
212886.555,30.762,31.738,32.227,33.691,54.688,0
212886.559,33.691,33.691,32.715,21.973,60.059,0
212886.563,30.762,32.715,37.598,21.973,56.152,0
212886.567,26.367,31.250,33.691,22.461,49.805,0
212886.570,22.461,32.227,28.809,17.090,50.781,0
212886.574,21.973,34.180,30.762,15.137,85.938,0
212886.578,22.949,32.227,28.809,18.066,100.098,0
212886.582,26.367,30.273,26.855,24.414,56.641,0
212886.586,26.367,32.715,30.762,31.738,22.461,0
212886.590,23.438,36.621,30.762,29.297,9.766,0
212886.594,25.879,36.133,26.367,28.320,70.801,0
212886.598,22.461,32.715,29.785,27.344,95.703,0
212886.602,14.648,37.598,30.273,32.227,56.641,0
212886.606,17.578,47.852,36.133,38.086,29.297,0
212886.609,15.137,46.387,32.227,28.320,62.500,0
212886.613,5.859,40.039,25.879,16.113,75.684,0
212886.617,4.395,37.598,29.785,7.812,16.113,0
212886.621,5.859,34.180,34.180,12.207,19.531,0
212886.625,16.113,34.668,31.738,27.832,46.875,0
212886.629,16.602,33.691,27.344,29.297,40.039,0
212886.633,11.230,35.156,33.203,30.762,33.203,0
212886.637,7.812,38.086,34.668,34.180,6.836,0
212886.641,0.000,39.551,31.250,28.809,3.906,0
212886.645,0.488,40.039,28.809,28.320,63.477,0
212886.649,3.906,37.109,29.297,31.738,60.547,0
212886.652,0.977,34.668,28.809,27.344,61.523,0
212886.656,6.836,35.156,29.785,22.461,57.129,0
212886.660,9.766,34.668,30.762,20.508,3.418,0
212886.664,-0.488,35.156,23.926,18.555,42.480,0
212886.668,-1.465,32.715,25.879,25.879,84.473,0
212886.672,4.883,27.344,27.832,28.320,83.984,0
212886.676,6.836,29.297,29.297,24.902,40.527,0
212886.680,7.812,36.621,34.180,17.090,14.160,0
212886.684,2.930,40.527,32.715,12.695,28.320,0
212886.688,-4.395,38.086,26.367,10.254,44.434,0
212886.692,2.441,37.598,28.320,11.719,44.922,0
212886.695,13.672,37.598,32.715,22.461,38.574,0
212886.699,23.438,35.156,33.691,28.809,41.016,0
212886.703,26.367,34.668,33.691,20.020,32.227,0
212886.707,24.902,30.762,25.391,0.000,6.348,0
212886.711,31.738,31.250,20.996,11.230,14.648,0
212886.715,32.715,33.691,23.926,29.297,10.254,0
212886.719,29.785,35.645,25.391,26.855,-5.859,0
212886.723,26.367,37.109,25.391,20.996,-15.625,0
212886.727,27.832,36.133,24.902,23.926,1.465,0
212886.731,31.738,36.621,25.879,30.762,22.461,0
212886.734,26.855,38.086,28.809,22.461,28.809,0
212886.738,22.461,36.621,36.133,16.602,-4.883,0
212886.742,29.785,37.109,39.062,23.438,-63.477,0
212886.746,37.109,41.992,34.668,30.762,-24.902,0
212886.750,37.109,41.504,28.809,29.297,-25.879,0
212886.754,30.762,34.180,21.973,20.996,-54.199,0
212886.758,32.227,29.297,21.484,19.043,37.598,0
212886.762,35.645,32.227,23.926,21.973,81.543,0
212886.766,35.645,37.109,26.855,21.484,55.176,0
212886.770,48.340,38.086,29.297,18.555,50.293,0
212886.774,55.176,39.551,32.227,20.020,23.926,0
212886.777,43.945,39.062,31.738,20.020,21.973,0
212886.781,31.738,39.551,33.203,20.020,57.129,0
212886.785,22.949,38.574,35.156,25.391,44.434,0
212886.789,22.461,34.668,32.715,25.391,69.824,0
212886.793,20.020,28.809,25.879,20.996,65.430,0
212886.797,21.484,27.344,23.438,13.184,4.395,0
212886.801,27.832,35.645,29.785,12.207,28.809,0
212886.805,32.227,40.527,29.785,24.902,42.480,0
212886.809,35.645,43.457,30.273,24.902,-5.859,0
212886.813,34.180,43.457,29.297,20.508,-21.973,0
212886.817,33.691,37.109,26.855,23.926,-27.344,0
212886.820,35.645,37.109,28.809,24.414,0.488,0
212886.824,27.344,36.621,31.738,18.555,59.570,0
212886.828,26.855,37.109,35.645,20.996,28.809,0
212886.832,35.645,40.039,34.668,29.785,34.668,0
212886.836,34.668,31.250,27.832,31.738,47.363,0
212886.840,35.156,31.250,26.855,30.273,9.277,0
212886.844,37.598,38.574,28.320,20.508,34.668,0
212886.848,41.504,40.039,28.809,22.949,30.273,0
212886.852,37.109,35.645,30.762,35.156,46.387,0
212886.856,28.320,30.762,27.344,37.109,79.102,0
212886.859,26.855,32.715,28.809,30.273,78.125,0
212886.863,29.297,37.598,35.156,33.203,74.707,0
212886.867,31.250,37.598,38.086,33.691,62.012,0
212886.871,23.926,32.227,34.668,25.391,83.984,0
212886.875,24.414,29.297,33.691,24.902,71.289,0
212886.879,31.250,32.227,34.180,33.691,34.180,0
212886.883,29.297,38.086,31.738,33.203,31.250,0
212886.887,22.461,40.527,29.297,30.762,24.414,0
212886.891,13.184,34.180,25.391,29.297,33.203,0
212886.895,7.812,27.832,22.949,23.926,3.418,1
212886.899,3.418,31.250,28.320,20.996,-2.930,0
212886.902,-3.906,36.133,30.762,15.625,10.254,0
212886.906,-10.742,34.180,24.414,17.090,11.719,0
212886.910,-15.137,31.250,21.484,28.809,60.547,0
212886.914,-11.719,34.180,23.438,32.227,28.809,0
212886.918,-5.371,37.109,26.855,28.809,-28.809,0
212886.922,-2.930,38.574,27.832,29.297,5.859,0
212886.926,-6.348,35.645,28.809,29.785,37.598,0
212886.930,-11.230,30.273,29.785,31.250,41.504,0
212886.934,-13.184,30.273,28.320,23.926,12.207,0
212886.938,-12.207,31.738,26.855,14.160,-30.273,0
212886.942,-5.859,35.645,27.344,24.902,10.254,0
212886.945,-2.441,38.086,34.668,21.973,7.812,0
212886.949,-6.348,32.715,32.227,14.160,1.465,0
212886.953,-1.953,31.738,27.832,29.297,40.039,0
212886.957,-0.977,34.180,28.320,39.062,58.105,0
212886.961,-4.395,37.598,30.273,33.691,35.156,0
212886.965,-3.906,40.039,33.691,29.297,13.672,0
212886.969,-7.324,30.762,28.809,25.879,47.363,0
212886.973,-7.324,23.926,30.273,18.066,39.551,0
212886.977,-5.859,26.855,34.180,17.578,20.020,0
212886.981,-5.859,27.344,34.180,19.531,23.438,0
212886.984,-8.789,23.926,39.062,20.020,44.922,0
212886.988,-4.883,26.855,35.645,23.926,70.312,0
212886.992,3.418,34.668,26.367,17.578,40.527,0
212886.996,4.883,37.109,28.320,16.602,49.316,0
212887.000,3.906,34.180,31.738,26.855,73.730,0
212887.004,0.488,32.227,31.250,28.809,47.363,0
212887.008,2.930,34.180,35.645,16.602,46.387,0
212887.012,1.953,34.180,32.715,7.812,49.805,0
212887.016,-4.883,31.738,26.855,9.277,54.199,0
212887.020,-3.906,29.297,26.855,10.742,50.293,0
212887.024,1.465,29.785,20.508,8.301,32.715,0
212887.027,6.836,28.809,20.996,7.324,3.418,0
212887.031,6.836,30.762,24.902,13.672,20.996,0
212887.035,13.184,38.086,26.367,13.672,5.371,0
212887.039,17.090,41.016,25.391,9.766,-11.719,0
212887.043,15.625,39.551,26.367,19.531,3.906,0
212887.047,17.578,40.039,32.715,24.902,18.066,0
212887.051,15.625,40.039,30.273,20.508,41.504,0
212887.055,18.066,41.504,31.738,23.438,49.316,0
212887.059,20.508,44.434,31.738,26.367,64.941,0
212887.063,17.090,39.062,19.043,20.996,57.617,0
212887.067,14.648,31.738,22.949,21.973,73.242,0
212887.070,12.207,35.645,30.762,18.555,104.492,0
212887.074,14.648,38.574,27.832,18.066,36.133,0
212887.078,15.137,39.551,26.855,23.926,2.441,0
212887.082,10.254,41.992,27.832,16.113,14.160,0
212887.086,8.789,35.645,25.391,21.484,38.086,0
212887.090,12.695,35.156,22.949,30.762,99.121,0
212887.094,17.578,37.598,32.227,30.762,112.793,0
212887.098,19.531,34.180,31.250,32.227,63.477,0
212887.102,17.090,33.203,22.949,25.391,57.129,0
212887.106,10.742,31.250,25.879,23.926,43.457,0
212887.109,13.184,29.785,29.785,26.855,44.434,0
212887.113,17.578,30.762,32.227,24.902,56.152,0
212887.117,17.578,30.762,30.762,26.367,55.176,0
212887.121,25.391,31.250,32.227,27.832,53.711,0
212887.125,33.203,35.156,32.227,23.438,4.395,0
212887.129,28.320,36.621,29.297,20.996,10.742,0
212887.133,26.855,34.668,29.297,31.738,44.922,0
212887.137,32.715,36.133,36.133,37.598,20.508,0
212887.141,35.645,37.598,34.180,37.598,14.160,0
212887.145,42.480,39.551,31.738,38.574,61.523,0
212887.149,46.387,41.504,33.691,47.363,58.105,0
212887.152,36.621,33.691,29.785,39.062,43.457,0
212887.156,28.809,27.832,28.320,20.020,23.926,0
212887.160,31.738,32.715,24.414,24.902,17.578,0
212887.164,34.668,35.645,25.879,30.762,56.152,0
212887.168,34.668,38.086,29.297,39.551,50.781,0
212887.172,35.156,41.016,23.926,32.715,13.184,0
212887.176,38.086,39.551,22.949,25.391,38.086,0
212887.180,38.086,36.621,32.227,33.203,43.945,0
212887.184,28.320,37.109,32.715,35.645,24.902,0
212887.188,20.020,33.691,28.320,30.273,2.441,0
212887.192,24.902,33.691,31.250,33.691,8.789,0
212887.195,38.574,40.039,34.180,50.781,42.969,0
212887.199,34.668,37.598,31.738,39.551,24.902,0
212887.203,29.785,36.133,25.879,19.531,10.254,0
212887.207,29.785,34.668,22.461,25.391,47.852,0
212887.211,26.367,37.109,24.414,32.227,47.852,0
212887.215,22.949,37.598,28.809,23.926,2.930,0
212887.219,15.625,31.738,33.203,17.090,-27.832,0
212887.223,21.484,34.668,29.785,28.809,-7.324,0
212887.227,25.879,37.598,28.809,33.691,38.086,0
212887.231,22.461,32.715,28.809,24.902,20.508,0
212887.234,23.438,35.156,30.762,23.926,-9.277,0
212887.238,27.344,40.527,31.738,35.156,2.930,0
212887.242,34.668,41.504,27.832,36.133,11.230,0
212887.246,27.344,36.133,24.902,27.832,10.742,0
212887.250,21.484,31.738,27.832,22.949,29.297,0
212887.254,25.879,36.133,30.273,20.508,15.625,0
212887.258,22.949,35.156,30.273,18.066,3.418,0
212887.262,19.531,32.715,22.949,18.555,31.250,0
212887.266,20.020,35.156,20.020,17.090,26.367,0
212887.270,16.602,33.691,28.320,17.578,31.738,0
212887.274,17.578,37.109,29.785,24.414,32.715,0
212887.277,20.996,36.621,26.855,20.020,-11.230,0
212887.281,17.090,28.809,28.320,23.438,-1.953,0
212887.285,16.113,33.203,26.855,29.297,37.109,0
212887.289,15.625,38.574,23.438,19.043,17.090,0
212887.293,12.695,36.621,25.879,16.602,55.176,0
212887.297,9.766,35.645,30.762,15.137,117.676,0
212887.301,14.160,37.598,20.508,14.648,96.680,0
212887.305,14.648,36.621,10.742,21.973,79.590,0
212887.309,12.695,34.668,20.996,20.508,47.852,0
212887.313,18.066,35.156,22.461,20.508,31.250,0
212887.317,18.555,34.668,27.344,21.484,7.812,0
212887.320,5.371,33.691,32.227,11.719,-19.531,0
212887.324,-14.648,33.691,32.227,1.953,25.391,0
212887.328,-23.438,33.203,32.227,4.395,81.543,0
212887.332,-14.648,35.645,22.461,22.949,35.645,0
212887.336,-3.418,38.086,23.926,24.414,24.902,0
212887.340,0.488,40.039,36.133,10.742,73.730,0
212887.344,6.348,36.133,40.527,10.742,61.035,0
212887.348,7.812,32.227,41.504,11.230,39.551,0
212887.352,-3.418,29.785,44.922,3.418,52.246,0
212887.356,-13.184,28.320,44.434,2.930,55.664,0
212887.359,-15.625,29.785,31.250,9.766,53.223,0
212887.363,-20.020,28.809,26.855,12.207,74.219,0
212887.367,-17.578,34.180,31.738,8.301,47.363,0
212887.371,-17.578,32.715,32.715,12.695,20.996,0
212887.375,-17.090,34.180,35.156,22.461,66.406,0
212887.379,-11.230,38.574,39.551,25.391,81.055,0
212887.383,-12.207,34.180,35.645,19.531,36.133,0
212887.387,-11.719,27.344,34.180,11.230,18.066,0
212887.391,-4.883,23.438,33.691,12.695,34.180,0
212887.395,10.742,26.855,29.785,20.996,25.879,0
212887.399,16.113,30.762,26.855,17.090,23.438,0
212887.402,19.531,34.668,31.738,20.996,52.734,0
212887.406,31.250,35.156,38.086,28.809,43.457,0
212887.410,38.086,37.109,38.086,17.090,9.766,0
212887.414,37.598,34.180,35.645,11.230,-34.668,0
212887.418,42.969,31.738,30.273,33.203,-22.949,0
212887.422,44.922,34.668,22.949,37.109,21.484,0
212887.426,27.344,31.738,21.484,17.090,7.812,0
212887.430,9.766,32.227,31.738,3.418,2.930,0
212887.434,9.766,34.180,43.457,5.371,15.137,0
212887.438,12.207,37.598,42.969,10.254,-5.859,0
212887.442,8.789,39.062,37.109,3.906,-22.949,0
212887.445,12.207,32.227,33.203,1.465,-24.414,0
212887.449,17.090,29.297,32.715,10.742,-25.391,0
212887.453,20.508,34.180,33.203,13.184,-12.207,0
212887.457,21.973,35.645,34.668,5.859,-42.969,0
212887.461,25.879,36.621,33.691,6.348,-58.594,0
212887.465,33.691,41.992,32.227,18.555,-15.625,0
212887.469,34.668,40.527,32.227,21.973,-10.742,0
212887.473,31.250,39.062,40.527,15.625,-12.207,0
212887.477,32.227,44.922,38.574,20.996,43.457,0
212887.481,36.621,41.992,29.785,31.738,63.477,1
212887.484,28.320,36.133,34.180,23.438,54.199,0
212887.488,17.578,38.574,32.715,14.648,37.109,0
212887.492,18.066,39.551,32.227,24.902,39.062,0
212887.496,21.484,39.551,37.598,28.320,1.465,0
212887.500,21.973,38.086,39.551,20.996,6.348,0
212887.504,23.438,35.156,36.621,16.602,65.430,0
212887.508,25.879,37.109,40.527,23.438,63.477,0
212887.512,30.762,40.527,44.434,29.297,48.828,0
212887.516,35.645,46.387,41.016,28.320,42.480,0
212887.520,36.621,45.898,41.016,28.809,26.367,0
212887.524,31.250,37.109,28.320,25.391,22.949,0
212887.527,25.879,30.762,19.531,29.785,27.344,0
212887.531,28.320,32.715,25.391,29.297,26.855,0
212887.535,31.738,36.133,32.715,22.461,69.336,0
212887.539,27.344,33.203,36.133,19.531,52.734,0
212887.543,26.367,36.621,37.109,23.926,-12.695,0
212887.547,28.320,44.922,35.156,26.367,-45.410,0
212887.551,26.367,46.387,35.645,23.926,-34.668,0
212887.555,22.461,41.992,39.062,24.414,-7.324,0
212887.559,23.438,38.574,29.785,21.484,-1.465,0
212887.563,27.832,42.480,26.367,25.391,18.066,0
212887.567,25.391,41.016,31.738,31.250,70.312,0
212887.570,22.461,35.156,25.879,27.344,72.754,0
212887.574,20.508,36.621,27.832,23.926,22.949,0
212887.578,23.438,37.598,35.645,23.438,4.883,0
212887.582,27.344,35.645,35.645,28.809,20.020,0
212887.586,21.484,35.156,36.621,29.785,33.203,0
212887.590,20.508,39.062,38.086,23.926,13.672,0
212887.594,23.926,40.527,28.809,12.207,-30.273,0
212887.598,20.020,37.598,24.414,16.113,-4.395,0
212887.602,29.785,35.156,31.250,27.832,0.977,0
212887.606,34.668,32.227,29.785,24.414,8.789,0
212887.609,29.297,32.227,22.461,28.809,10.742,0
212887.613,31.250,33.203,22.949,26.367,57.617,0
212887.617,29.297,33.691,24.902,22.461,100.586,0
212887.621,24.414,34.180,27.344,19.531,41.992,0
212887.625,19.531,34.668,31.738,13.184,23.926,0
212887.629,17.578,31.250,30.762,17.578,57.129,0
212887.633,21.484,30.762,22.949,15.625,51.758,0
212887.637,22.949,31.738,22.949,10.742,17.090,0
212887.641,23.438,31.250,29.785,23.926,8.301,0
212887.645,22.461,34.668,32.715,34.668,30.273,0
212887.649,22.949,39.062,32.227,24.902,51.270,0
212887.652,25.879,37.109,30.273,10.742,23.926,0
212887.656,27.832,32.227,24.902,11.719,-4.883,0
212887.660,29.785,28.809,24.902,21.973,16.602,0
212887.664,29.785,31.250,30.762,25.879,39.062,0
212887.668,28.320,36.133,29.785,22.949,23.926,0
212887.672,28.320,35.156,27.344,21.484,22.949,0
212887.676,32.227,37.109,28.320,31.250,33.691,0
212887.680,36.133,39.551,31.250,37.109,40.527,0
212887.684,34.668,38.086,31.250,36.621,32.227,0
212887.688,31.738,37.598,26.855,39.062,38.574,0
212887.692,34.668,36.133,31.738,39.551,39.551,0
212887.695,34.180,33.691,36.621,33.691,-1.465,0
212887.699,28.320,29.785,27.832,24.902,-9.766,0
212887.703,26.367,29.297,21.973,27.832,9.277,0
212887.707,24.902,33.203,25.391,28.809,5.371,0
212887.711,21.484,36.133,26.855,22.461,20.508,0
212887.715,18.555,34.180,30.762,22.461,10.254,0
212887.719,14.648,31.250,30.762,24.414,31.250,0
212887.723,9.277,32.715,30.762,21.973,73.242,0
212887.727,4.395,32.227,31.738,17.090,38.086,0
212887.731,4.883,27.832,32.227,17.578,-5.371,0
212887.734,9.277,32.227,33.691,26.367,43.945,0
212887.738,13.672,33.203,37.598,32.227,65.918,0
212887.742,9.766,26.367,33.691,23.438,-6.348,0
212887.746,9.277,27.344,28.320,17.578,4.395,0
212887.750,19.531,34.180,24.414,26.367,9.277,0
212887.754,21.484,35.156,29.785,24.902,-7.324,0
212887.758,21.484,35.156,30.762,13.184,16.113,0
212887.762,25.879,35.156,26.367,23.438,7.324,0
212887.766,27.832,35.156,32.715,36.621,18.066,0
212887.770,32.227,36.133,34.180,33.203,9.277,0
212887.774,32.227,36.133,32.715,24.902,19.043,0
212887.777,31.738,40.527,32.715,25.879,44.922,0
212887.781,35.645,41.016,32.715,32.715,50.293,0
212887.785,30.762,34.668,26.855,20.508,42.969,0
212887.789,22.949,29.785,21.484,8.789,-41.016,0
212887.793,22.949,32.715,29.297,21.484,-30.762,0
212887.797,24.902,35.645,25.391,26.367,29.785,0
212887.801,24.414,33.203,19.531,18.066,43.457,0
212887.805,24.902,34.180,25.391,20.020,38.574,0
212887.809,29.297,37.109,28.320,28.320,49.316,0
212887.813,31.250,39.062,29.785,24.414,34.180,0
212887.817,29.785,38.086,30.762,23.438,59.082,0
212887.820,28.809,32.715,35.645,22.949,28.320,0
212887.824,24.902,30.273,35.156,17.578,6.348,0
212887.828,22.949,34.180,25.879,20.020,46.387,0
212887.832,20.508,34.180,24.902,13.672,25.391,0
212887.836,18.066,34.668,28.320,15.137,33.691,0
212887.840,21.973,34.668,25.879,26.367,67.871,0
212887.844,22.949,36.621,27.344,19.043,60.059,0
212887.848,20.020,40.039,35.156,17.578,77.637,0
212887.852,22.461,38.086,36.621,25.879,93.750,0
212887.856,23.926,34.668,33.691,19.043,59.082,0
212887.859,25.391,34.668,29.785,14.648,39.062,0
212887.863,25.879,28.320,26.855,10.742,40.527,0
212887.867,26.367,26.367,26.855,11.230,68.848,0
212887.871,31.250,34.668,37.598,23.438,65.918,0
212887.875,29.297,36.133,32.715,17.578,46.875,0
212887.879,27.344,30.762,21.973,11.230,65.430,0
212887.883,26.855,31.250,23.926,14.648,95.703,0
212887.887,25.879,32.715,25.879,12.695,94.727,0
212887.891,26.855,29.297,31.250,11.719,58.105,0
212887.895,25.879,31.738,30.762,15.137,31.250,0
212887.899,27.832,32.227,30.273,22.461,83.496,0
212887.902,30.762,31.250,31.738,21.484,98.145,0
212887.906,27.344,32.715,34.180,21.484,45.410,0
212887.910,21.973,28.320,37.598,26.367,42.480,0
212887.914,16.602,25.391,33.203,26.855,54.688,0
212887.918,14.160,27.344,25.391,22.949,57.617,0
212887.922,15.625,29.785,26.367,15.625,27.344,0
212887.926,20.996,33.691,20.996,18.555,51.758,0
212887.930,23.438,32.715,20.508,22.461,75.684,0
212887.934,23.438,33.691,31.738,16.113,45.410,0
212887.938,26.855,37.109,35.645,16.602,83.496,0
212887.942,24.414,35.156,36.621,26.367,108.398,0
212887.945,19.531,33.691,37.109,27.832,92.285,0
212887.949,21.973,35.156,34.180,20.508,69.336,0
212887.953,26.855,38.086,35.645,20.508,45.410,0
212887.957,27.832,34.668,38.086,25.879,37.109,0
212887.961,20.996,29.297,35.645,22.949,34.668,0
212887.965,15.625,32.715,27.344,16.113,3.906,0
212887.969,16.602,34.180,27.344,10.742,-23.926,0
212887.973,18.555,34.180,31.250,21.973,38.086,0
212887.977,26.367,41.016,30.273,38.086,60.547,0
212887.981,27.832,41.016,33.691,33.203,62.988,0
212887.984,22.949,34.668,36.133,19.043,40.039,0
212887.988,28.809,33.691,36.133,23.926,-0.977,0
212887.992,31.250,30.762,39.062,30.273,18.555,0
212887.996,16.113,29.785,40.039,16.113,-8.789,0
212888.000,11.230,32.227,42.480,11.719,-25.879,0
212888.004,20.508,29.785,43.457,20.996,1.465,0
212888.008,30.762,30.762,39.551,26.367,25.879,0
212888.012,20.508,30.762,35.156,21.484,44.434,0
212888.016,5.859,26.367,31.738,7.324,29.785,0
212888.020,13.672,26.367,25.879,12.695,10.742,0
212888.024,21.484,30.273,18.066,29.297,-8.301,0
212888.027,21.973,31.250,20.020,21.484,-20.508,0
212888.031,21.973,27.344,27.832,21.484,21.484,0
212888.035,23.438,25.879,34.180,36.621,21.484,0
212888.039,27.832,30.762,36.133,32.227,-18.555,0
212888.043,31.738,37.598,35.645,37.598,-15.137,0
212888.047,36.133,38.086,38.574,45.410,-23.438,0
212888.051,35.156,34.668,35.645,44.922,-14.160,0
212888.055,31.250,35.156,30.273,40.527,-10.742,0
212888.059,24.902,36.621,30.762,32.715,-14.160,0
212888.063,21.973,34.180,30.762,33.203,-9.277,0
212888.067,18.555,28.809,28.809,34.180,29.785,0
212888.070,15.625,31.250,28.320,29.297,23.438,0
212888.074,19.043,33.203,28.320,27.832,0.488,0
212888.078,27.344,33.203,34.668,39.062,-0.488,0
212888.082,32.715,38.086,36.621,44.922,21.484,0
212888.086,28.320,37.109,33.691,44.434,61.523,0
212888.090,24.414,35.156,33.691,41.504,66.895,0
212888.094,27.344,36.621,34.180,38.574,41.504,0
212888.098,31.738,33.203,35.156,35.156,-10.254,0
212888.102,33.203,31.738,31.250,26.367,-18.555,0
212888.106,28.809,32.715,28.809,25.879,15.137,0
212888.109,26.855,31.738,28.320,30.762,32.715,0
212888.113,23.926,34.668,30.273,30.273,31.250,0
212888.117,16.113,38.086,32.227,22.461,17.090,0
212888.121,16.602,38.574,30.762,20.020,-3.418,0
212888.125,17.090,34.180,36.133,29.297,13.184,0
212888.129,16.602,33.203,41.016,32.227,18.066,0
212888.133,20.020,36.621,38.574,29.297,-15.137,0
212888.137,12.695,31.250,37.598,25.391,19.043,0
212888.141,12.695,28.809,38.086,26.367,49.316,0
212888.145,18.066,34.180,33.691,32.227,27.344,0
212888.149,16.602,32.715,32.227,27.832,33.691,0
212888.152,14.160,28.320,27.344,19.531,34.668,0
212888.156,11.719,29.297,24.902,18.555,14.160,0
212888.160,13.184,33.691,29.785,15.625,-29.297,0
212888.164,15.137,40.039,35.645,18.066,-49.805,0
212888.168,17.578,42.480,34.668,34.180,-12.695,0
212888.172,14.160,36.133,32.227,28.809,-24.414,0
212888.176,14.160,31.250,37.598,19.043,-15.137,0
212888.180,22.461,31.738,37.109,25.879,5.859,0
212888.184,21.973,33.203,31.738,31.250,-2.441,0
212888.188,19.043,34.668,33.203,29.297,14.160,0
212888.192,22.461,37.109,27.832,32.227,62.988,1
212888.195,24.414,35.645,20.996,41.992,40.039,0
212888.199,17.578,34.668,27.344,34.668,28.809,0
212888.203,13.672,38.574,33.203,22.949,41.016,0
212888.207,18.066,38.574,29.297,16.113,-20.508,0
212888.211,20.020,34.180,31.250,14.160,-30.762,0
212888.215,22.949,34.668,29.785,21.484,13.672,0
212888.219,19.043,35.645,30.762,17.578,11.230,0
212888.223,19.531,38.574,29.297,20.020,29.297,0
212888.227,22.461,36.133,25.879,27.344,87.402,0
212888.231,17.090,31.738,29.785,21.973,108.887,0
212888.234,17.090,35.156,30.273,17.578,74.707,0
212888.238,22.461,37.598,30.762,20.508,47.852,0
212888.242,21.484,36.133,33.691,29.297,41.016,0
212888.246,16.113,32.715,35.156,34.180,56.152,0
212888.250,19.531,35.156,36.133,33.203,32.715,0
212888.254,14.160,32.715,30.762,28.809,22.949,0
212888.258,5.371,31.250,26.367,28.320,77.148,0
212888.262,3.418,32.227,32.227,33.691,95.703,0
212888.266,5.859,32.715,30.762,28.320,86.426,0
212888.270,4.883,31.738,21.484,17.090,57.617,0
212888.274,5.371,26.855,28.809,20.996,35.645,0
212888.277,6.348,23.438,36.621,22.949,47.363,0
212888.281,10.742,29.297,36.133,26.855,47.852,0
212888.285,17.090,36.621,33.691,29.297,48.340,0
212888.289,11.719,32.227,27.832,19.531,32.715,0
212888.293,13.672,32.715,30.273,19.531,5.371,0
212888.297,19.531,38.086,34.180,23.926,19.043,0
212888.301,24.414,35.645,37.109,27.832,17.090,0
212888.305,21.484,31.738,30.273,24.902,30.273,0
212888.309,17.090,28.809,25.879,21.484,38.086,0
212888.313,23.926,32.227,28.320,21.973,26.855,0
212888.317,27.344,33.691,30.762,27.832,63.477,0
212888.320,21.484,29.785,28.809,28.320,40.039,0
212888.324,22.461,31.250,25.879,23.438,61.523,0
212888.328,26.855,39.062,27.832,21.484,69.336,0
212888.332,25.879,42.480,31.250,21.484,22.461,0
212888.336,31.250,41.992,31.250,24.902,25.879,0
212888.340,36.133,42.480,34.668,23.926,6.836,0
212888.344,33.691,40.527,40.039,21.484,-11.719,0
212888.348,29.785,36.133,33.691,30.273,41.504,0
212888.352,25.391,32.227,29.785,32.715,65.430,0
212888.356,18.555,25.391,29.785,20.996,27.344,0
212888.359,17.090,22.461,28.809,19.043,41.992,0
212888.363,22.949,25.879,33.203,26.855,65.430,0
212888.367,24.902,26.367,33.691,24.414,37.598,0
212888.371,25.391,27.832,33.203,17.090,22.461,0
212888.375,30.273,32.715,32.715,22.949,26.367,0
212888.379,32.227,35.645,30.273,23.438,37.598,0
212888.383,32.715,39.551,29.785,19.531,69.824,0
212888.387,36.621,41.504,35.156,27.344,40.527,0
212888.391,32.715,39.551,32.227,26.855,36.621,0
212888.395,29.785,37.109,28.320,22.461,28.320,0
212888.399,33.691,34.668,29.785,21.973,3.418,0
212888.402,31.250,34.668,29.785,14.648,-20.508,0
212888.406,27.344,32.715,29.785,16.113,-3.418,0
212888.410,30.273,32.227,29.785,27.344,82.031,0
212888.414,35.156,31.738,33.203,26.855,104.980,0
212888.418,31.250,28.320,35.156,18.066,76.660,0
212888.422,32.227,32.227,38.086,20.996,46.387,0
212888.426,34.180,36.621,32.227,27.344,20.996,0
212888.430,35.645,38.574,33.203,33.203,49.805,0
212888.434,31.250,37.598,32.715,29.785,58.594,0
212888.438,24.902,34.668,27.344,15.625,34.668,0
212888.442,29.297,34.668,27.832,16.113,51.758,0
212888.445,34.180,35.645,30.273,21.484,48.340,0
212888.449,31.738,36.133,32.227,19.531,20.996,0
212888.453,23.926,34.180,30.273,17.578,0.488,0
212888.457,20.996,34.668,31.738,14.160,-6.348,0
212888.461,21.973,35.645,30.762,10.742,-25.879,0
212888.465,19.531,34.668,29.297,9.277,-39.062,0
212888.469,21.484,32.227,34.180,18.555,9.766,0
212888.473,25.879,33.203,29.785,25.879,6.348,0
212888.477,24.414,35.645,29.785,20.508,-12.207,0
212888.481,22.949,36.621,29.297,17.578,-14.648,0
212888.484,21.484,37.598,26.367,9.277,1.465,0
212888.488,20.996,35.156,24.414,1.953,11.230,0
212888.492,19.531,34.180,26.367,3.418,-29.785,0
212888.496,18.066,34.180,29.785,4.395,-7.324,0
212888.500,18.555,36.133,25.391,6.836,31.738,0
212888.504,14.648,36.133,23.438,7.812,59.082,0
212888.508,11.719,31.250,25.879,9.277,61.035,0
212888.512,16.602,32.715,27.344,10.742,53.711,0
212888.516,17.090,35.645,28.320,9.277,84.473,0
212888.520,15.625,33.691,28.320,9.277,88.867,0
212888.524,18.066,37.109,27.832,13.672,89.844,0
212888.527,10.742,39.551,28.320,12.695,77.637,0
212888.531,9.277,38.574,25.391,7.324,43.457,0
212888.535,11.230,38.086,21.973,1.953,21.973,0
212888.539,9.277,36.133,24.902,-1.953,-0.977,0
212888.543,9.277,36.133,24.414,4.395,18.066,0
212888.547,10.742,34.180,25.879,11.719,50.781,0
212888.551,13.672,33.691,28.320,15.137,52.246,0
212888.555,16.602,36.621,30.273,16.113,81.055,0
212888.559,20.996,36.621,26.855,20.996,92.773,0
212888.563,23.926,35.645,24.414,20.996,85.938,0
212888.567,26.367,39.062,29.297,19.531,62.012,0
212888.570,26.855,37.598,34.668,21.973,38.086,0
212888.574,18.555,31.250,29.297,14.648,48.340,0
212888.578,14.648,29.297,25.879,15.625,43.457,0
212888.582,17.090,33.691,24.414,16.113,1.465,0
212888.586,14.648,33.203,25.391,13.672,19.043,0
212888.590,11.230,32.227,34.180,19.531,59.570,0
212888.594,8.789,33.691,34.180,17.578,62.012,0
212888.598,10.742,35.156,36.133,12.207,25.879,0
212888.602,11.719,34.668,39.551,15.625,24.902,0
212888.606,10.742,33.691,31.250,18.555,42.969,0
212888.609,16.602,36.621,36.133,15.625,35.645,0
212888.613,20.020,41.016,38.574,17.090,-10.742,0
212888.617,16.602,36.621,26.367,14.648,-17.578,0
212888.621,17.090,28.809,23.926,9.766,28.809,0
212888.625,10.742,27.832,27.344,-1.465,19.043,0
212888.629,5.371,31.250,22.949,-9.766,23.438,0
212888.633,9.766,32.715,23.438,4.883,96.680,0
212888.637,10.742,31.738,33.691,11.719,101.562,0
212888.641,9.766,30.273,32.227,5.859,32.227,0
212888.645,10.742,33.203,27.832,10.742,41.016,0
212888.649,11.719,34.180,32.715,16.602,50.293,0
212888.652,12.695,35.645,34.180,17.578,45.898,0
212888.656,16.602,38.086,32.227,18.555,41.504,0
212888.660,14.160,31.738,32.715,16.602,-2.930,0
212888.664,8.301,23.926,31.738,14.648,18.066,0
212888.668,8.789,26.367,27.344,8.789,71.777,0
212888.672,7.324,30.273,27.832,-0.977,4.395,0
212888.676,5.371,33.203,26.367,2.441,-1.953,0
212888.680,8.301,32.715,23.926,9.277,67.871,0
212888.684,12.207,34.180,31.738,9.766,25.391,0
212888.688,15.625,35.645,30.273,6.348,18.555,0
212888.692,27.344,38.086,30.273,12.207,90.332,0
212888.695,27.832,38.574,36.133,27.344,104.492,0
212888.699,10.742,31.738,34.180,23.926,82.520,0
212888.703,3.906,27.344,23.926,4.395,86.914,0
212888.707,6.836,32.227,20.508,0.000,49.805,0
212888.711,8.789,33.203,24.902,8.789,19.043,0
212888.715,10.254,29.785,24.902,12.207,2.441,0
212888.719,9.766,29.297,23.926,7.812,-0.977,0
212888.723,10.254,31.738,24.902,13.184,31.250,0
212888.727,11.230,34.668,27.344,16.602,39.062,0
212888.731,8.789,34.668,32.715,8.301,24.902,0
212888.734,13.672,39.062,36.133,13.184,46.875,0
212888.738,15.625,41.504,30.273,17.578,35.156,0
212888.742,12.695,38.086,24.414,13.184,-3.418,0
212888.746,18.555,37.109,27.832,14.648,1.953,0
212888.750,24.414,35.645,30.273,17.578,-0.977,0
212888.754,22.461,34.180,30.762,19.531,7.324,0
212888.758,14.648,29.785,31.250,17.090,10.742,0
212888.762,15.137,26.855,31.250,16.113,7.812,0
212888.766,18.066,25.879,33.691,12.695,35.156,0
212888.770,16.113,30.273,30.273,16.602,58.105,0
212888.774,15.625,36.133,27.344,23.438,39.062,0
212888.777,14.648,32.227,31.250,13.184,-9.766,0
212888.781,15.625,26.367,28.809,11.719,36.133,0
212888.785,17.090,26.855,29.785,20.020,84.473,0
212888.789,16.113,32.715,33.203,20.020,32.227,0
212888.793,14.648,34.668,31.738,25.879,0.977,0
212888.797,12.207,29.297,33.203,24.414,9.277,0
212888.801,16.602,29.297,33.203,24.414,18.066,1
212888.805,24.902,34.180,28.809,24.902,-1.465,0
212888.809,28.320,31.738,27.344,22.949,-25.391,0
212888.813,25.391,28.809,26.855,24.902,-16.113,0
212888.817,20.020,33.691,29.785,26.855,-17.090,0
212888.820,12.207,35.645,32.715,15.137,-22.461,0
212888.824,14.160,32.715,34.180,11.719,6.836,0
212888.828,21.484,32.715,30.273,32.227,47.852,0
212888.832,20.508,33.691,24.902,35.645,87.402,0
212888.836,20.508,32.715,30.762,29.785,81.055,0
212888.840,23.438,34.668,30.762,28.809,62.012,0
212888.844,22.949,32.715,29.297,28.320,64.453,0
212888.848,22.461,30.273,37.109,35.156,49.316,0
212888.852,24.414,35.645,33.203,35.156,33.203,0
212888.856,20.508,33.203,28.320,26.855,-7.812,0
212888.859,20.508,33.203,23.926,25.391,7.324,0
212888.863,25.391,31.738,31.250,28.320,50.293,0
212888.867,21.973,25.391,39.062,28.320,6.836,0
212888.871,21.484,27.832,34.180,31.250,-6.348,0
212888.875,23.926,36.621,32.715,35.156,20.508,0
212888.879,21.973,37.598,31.738,24.414,27.344,0
212888.883,19.531,36.621,31.738,20.996,30.273,0
212888.887,18.066,41.016,29.297,22.461,17.090,0
212888.891,11.230,40.527,32.227,18.555,32.227,0
212888.895,9.766,34.180,27.832,13.672,72.754,0
212888.899,13.672,32.715,20.020,9.766,63.477,0
212888.902,13.672,32.715,24.414,9.277,35.156,0
212888.906,11.719,33.203,21.973,9.766,41.504,0
212888.910,16.602,36.621,21.484,8.789,47.852,0
212888.914,20.996,42.969,28.809,8.301,25.879,0
212888.918,14.160,41.016,28.809,12.207,37.109,0
212888.922,11.719,36.133,28.320,14.648,54.688,0
212888.926,11.719,38.086,34.668,19.043,34.180,0
212888.930,10.742,35.156,32.227,22.461,13.184,0
212888.934,11.719,30.762,25.391,14.648,58.105,0
212888.938,18.066,31.738,29.297,15.625,48.828,0
212888.942,25.391,32.715,31.250,20.996,0.488,0
212888.945,26.855,32.227,34.180,23.438,43.945,0
212888.949,27.344,32.715,32.227,25.879,75.195,0
212888.953,24.902,35.645,28.809,22.461,7.324,0
212888.957,23.926,40.527,29.785,16.602,-2.441,0
212888.961,28.809,38.086,35.645,18.555,-15.625,0
212888.965,28.320,33.691,40.039,28.809,-3.906,0
212888.969,20.020,34.180,33.691,24.902,31.250,0
212888.973,20.996,37.109,33.691,25.391,7.324,0
212888.977,16.602,34.668,26.855,21.973,37.109,0
212888.981,11.230,32.227,16.113,5.371,65.430,0
212888.984,15.625,36.621,20.020,0.488,42.480,0
212888.988,16.113,35.645,27.344,1.953,20.996,0
212888.992,20.996,31.250,28.320,12.207,8.301,0
212888.996,27.344,37.109,35.156,20.996,-13.184,0
212889.000,31.738,44.922,33.203,20.996,-13.672,0
212889.004,32.715,42.480,24.902,26.367,4.883,0
212889.008,26.367,36.621,31.250,31.738,21.973,0
212889.012,29.297,38.574,36.621,31.250,64.453,0
212889.016,27.832,41.504,31.250,21.973,55.176,0
212889.020,18.066,37.109,25.879,12.207,33.203,0
212889.024,19.043,33.203,28.809,18.555,40.527,0
212889.027,25.391,32.227,32.227,26.855,35.645,0
212889.031,27.344,36.133,34.668,26.367,22.949,0
212889.035,22.949,33.691,37.109,26.855,41.992,0
212889.039,24.414,31.250,27.832,28.320,80.566,0
212889.043,26.367,38.086,21.484,30.762,65.918,0
212889.047,29.785,36.621,22.461,30.273,43.945,0
212889.051,29.785,32.715,21.973,26.855,58.105,0
212889.055,27.832,36.133,34.668,30.273,36.133,0
212889.059,27.344,38.086,42.480,30.762,18.066,0
212889.063,24.414,31.250,36.621,20.020,29.785,0
212889.067,20.996,32.227,31.250,20.996,61.035,0
212889.070,17.578,35.645,27.344,27.832,57.617,0
212889.074,20.996,36.133,26.367,19.043,60.059,0
212889.078,25.879,39.062,24.902,17.090,66.406,0
212889.082,23.438,41.504,26.855,21.484,49.805,0
212889.086,23.438,43.945,26.367,30.273,45.410,0
212889.090,24.414,40.527,23.438,23.438,27.344,0
212889.094,22.461,36.621,26.855,5.859,35.156,0
212889.098,19.531,37.598,28.809,23.438,57.129,0
212889.102,20.508,38.086,27.832,38.574,74.707,0
212889.106,16.602,40.039,30.273,21.973,41.992,0
212889.109,13.672,36.133,24.414,6.836,32.227,0
212889.113,15.137,31.738,19.531,12.207,46.387,0
212889.117,13.672,30.762,22.461,19.531,71.289,0
212889.121,14.648,33.203,22.461,17.578,57.129,0
212889.125,21.484,36.133,25.879,22.461,46.387,0
212889.129,27.344,35.645,31.738,33.691,85.449,0
212889.133,31.250,36.133,29.785,38.086,30.762,0
212889.137,33.691,37.598,30.273,35.156,9.766,0
212889.141,34.668,41.016,29.297,33.691,46.875,0
212889.145,31.738,43.457,24.414,30.762,47.363,0
212889.149,28.320,40.527,25.879,29.297,56.641,0
212889.152,21.973,34.180,25.391,21.484,33.203,0
212889.156,23.438,30.762,26.855,27.832,33.203,0
212889.160,33.691,33.203,27.832,40.039,47.852,0
212889.164,31.250,36.621,26.367,25.391,26.367,0
212889.168,28.320,34.668,29.297,24.902,32.715,0
212889.172,29.297,34.668,32.227,33.203,22.461,0
212889.176,27.832,42.480,29.297,37.109,38.086,0
212889.180,27.344,42.969,26.367,32.715,30.762,0
212889.184,25.391,37.109,23.438,27.832,-7.812,0
212889.188,24.902,38.086,22.461,26.855,20.996,0
212889.192,32.227,41.504,27.344,29.297,47.852,0
212889.195,30.762,40.527,26.855,22.949,21.973,0
212889.199,23.438,34.668,24.902,13.672,-3.418,0
212889.203,20.508,33.203,28.320,24.902,42.969,0
212889.207,19.531,36.621,31.250,28.809,60.059,0
212889.211,21.973,40.039,32.715,26.855,36.133,0
212889.215,24.902,42.480,34.180,41.504,48.340,0
212889.219,18.555,41.016,35.645,34.668,60.547,0
212889.223,16.602,43.945,34.668,19.043,36.133,0
212889.227,19.531,43.457,29.785,19.043,6.836,0
212889.231,15.137,39.551,23.438,15.625,3.906,0
212889.234,10.254,36.621,22.949,16.602,2.441,0
212889.238,11.719,32.715,29.297,20.996,6.348,0
212889.242,19.043,37.109,33.691,18.066,4.395,0
212889.246,21.484,38.574,28.809,18.066,44.434,0
212889.250,19.531,37.598,30.273,27.832,78.613,0
212889.254,15.625,38.086,38.574,29.785,70.801,0
212889.258,13.672,35.645,34.668,22.461,65.918,0
212889.262,21.484,37.109,32.715,26.367,99.121,0
212889.266,24.902,41.504,33.691,34.668,106.445,0
212889.270,21.973,39.062,34.180,37.109,105.469,0
212889.274,19.531,32.227,33.203,32.715,122.559,0
212889.277,24.414,33.691,30.273,35.645,62.012,0
212889.281,27.832,36.133,30.762,39.062,41.016,0
212889.285,24.414,38.574,26.855,31.250,39.551,0
212889.289,19.531,41.504,27.344,26.367,25.879,0
212889.293,17.090,37.598,27.344,31.738,79.590,0
212889.297,14.648,38.086,28.809,33.203,87.891,0
212889.301,12.207,33.691,31.738,28.809,49.805,0
212889.305,10.742,30.762,31.738,23.926,48.828,0
212889.309,8.789,34.180,33.691,19.043,62.500,0
212889.313,10.254,30.273,31.250,20.020,48.340,0
212889.317,12.695,32.227,22.461,22.461,38.574,0
212889.320,13.672,39.062,21.484,17.578,17.090,0
212889.324,12.207,41.016,24.902,9.277,-17.090,0
212889.328,10.742,41.992,24.902,10.254,-29.297,0
212889.332,16.113,42.969,31.250,11.719,-26.855,0
212889.336,18.066,40.039,38.574,13.184,12.207,0
212889.340,16.113,36.621,35.156,23.438,36.133,0
212889.344,14.160,34.668,34.180,28.809,0.000,0
212889.348,13.184,38.086,33.203,27.344,1.465,0
212889.352,21.973,40.039,30.762,31.250,14.160,0
212889.356,20.020,35.156,28.809,26.855,30.762,0
212889.359,17.090,36.621,20.020,13.184,26.367,0
212889.363,23.438,38.574,19.531,14.160,-4.395,0
212889.367,24.902,39.551,26.855,21.973,12.207,0
212889.371,26.855,40.527,29.785,22.461,5.859,0
212889.375,27.344,40.039,28.320,16.113,-33.203,0
212889.379,21.484,41.016,29.297,22.461,-31.738,0
212889.383,22.461,39.551,35.156,36.621,11.719,0
212889.387,27.344,36.621,39.551,27.344,53.711,0
212889.391,29.297,36.621,37.109,16.602,31.738,0
212889.395,31.250,41.016,35.156,20.508,0.488,0
212889.399,28.320,42.480,37.598,21.484,13.672,0
212889.402,26.367,40.527,31.250,16.602,28.320,0
212889.406,24.414,37.598,25.879,9.277,15.625,0
212889.410,22.461,35.156,28.809,8.789,13.672,0
212889.414,27.832,36.133,25.879,11.719,9.277,0
212889.418,33.691,37.109,23.926,11.230,-20.508,1
212889.422,29.297,32.715,31.250,12.207,16.602,0
212889.426,30.762,31.250,36.133,19.043,46.875,0
212889.430,31.250,35.645,33.203,26.855,59.082,0
212889.434,22.461,36.133,29.785,23.438,64.453,0
212889.438,20.508,39.062,26.367,8.301,5.859,0
212889.442,18.066,39.551,27.832,15.625,1.953,0
212889.445,14.160,33.691,29.297,29.785,45.410,0
212889.449,11.719,30.762,25.391,21.484,24.902,0
212889.453,17.090,26.367,25.879,19.531,-5.371,0
212889.457,29.785,30.273,26.855,26.855,-15.625,0
212889.461,16.602,42.969,23.438,18.555,-5.859,0
212889.465,0.000,43.945,23.438,-2.930,-28.809,0
212889.469,9.277,39.551,22.461,-6.348,-18.555,0
212889.473,12.207,41.504,22.461,9.277,30.762,0
212889.477,4.395,41.992,28.320,11.719,28.320,0
212889.481,-3.418,32.715,30.762,4.883,31.250,0
212889.484,-4.395,27.832,24.902,5.371,37.109,0
212889.488,-1.953,28.320,17.090,9.766,42.480,0
212889.492,1.953,29.297,18.066,12.207,34.668,0
212889.496,9.766,34.668,24.902,16.602,26.855,0
212889.500,16.113,36.133,29.785,25.879,57.617,0
212889.504,20.508,34.180,28.809,37.109,104.980,0
212889.508,20.020,33.691,26.367,33.203,82.520,0
212889.512,20.996,35.156,25.391,28.809,81.055,0
212889.516,20.508,35.645,30.762,29.785,53.711,0
212889.520,20.996,36.133,36.133,32.715,16.113,0
212889.524,23.438,33.691,33.691,35.156,27.344,0
212889.527,22.461,33.203,29.785,24.902,18.555,0
212889.531,19.531,37.109,31.250,28.809,38.086,0
212889.535,11.719,35.156,27.832,34.180,57.129,0
212889.539,5.859,30.762,29.785,25.391,43.945,0
212889.543,5.371,32.715,31.738,27.344,39.551,0
212889.547,6.836,32.715,27.832,33.203,46.875,0
212889.551,12.207,31.738,28.320,30.762,47.852,0
212889.555,15.137,35.645,32.227,30.762,70.312,0
212889.559,11.230,34.668,36.621,37.109,46.875,0
212889.563,9.277,28.809,29.297,29.785,-18.555,0
212889.567,7.324,31.250,21.484,21.973,-24.902,0
212889.570,8.789,37.109,25.391,18.555,6.348,0
212889.574,10.742,37.109,24.902,14.160,33.691,0
212889.578,16.113,37.598,29.297,29.785,72.266,0
212889.582,16.602,37.598,35.645,37.109,80.078,0
212889.586,8.301,30.762,33.691,23.438,50.293,0
212889.590,11.719,27.832,31.250,18.066,45.898,0
212889.594,16.602,28.809,35.156,27.344,66.406,0
212889.598,21.973,31.250,36.621,29.297,94.727,0
212889.602,26.367,35.156,35.156,29.785,82.520,0
212889.606,21.484,37.598,35.645,33.203,29.297,0
212889.609,19.531,37.109,28.320,33.691,12.695,0
212889.613,21.484,35.645,24.414,30.762,17.578,0
212889.617,23.926,32.715,28.320,22.949,-7.324,0
212889.621,22.949,33.203,33.203,24.414,9.277,0
212889.625,20.020,34.668,34.668,31.250,47.852,0
212889.629,19.531,33.203,40.039,25.879,30.273,0
212889.633,20.996,33.691,37.598,20.508,12.207,0
212889.637,17.578,30.273,25.391,14.648,52.246,0
212889.641,13.672,27.344,22.949,16.113,71.777,0
212889.645,14.160,27.344,28.809,25.879,27.344,0
212889.649,16.113,32.715,35.156,29.297,0.488,0
212889.652,20.996,40.039,34.668,31.250,8.789,0
212889.656,17.578,35.645,32.715,30.762,4.883,0
212889.660,11.719,33.203,33.691,25.879,-30.273,0
212889.664,11.230,35.645,30.273,21.484,-29.297,0
212889.668,11.719,33.691,26.855,27.832,1.465,0
212889.672,11.719,32.227,27.344,38.086,36.621,0
212889.676,14.648,35.645,31.250,33.691,38.086,0
212889.680,19.531,37.109,28.809,25.391,7.812,0
212889.684,20.508,29.785,27.832,26.855,45.410,0
212889.688,25.391,32.715,29.297,20.020,-3.418,0
212889.692,27.344,39.062,32.715,16.113,-1.953,0
212889.695,24.414,35.156,32.715,18.555,42.480,0
212889.699,20.996,33.691,26.855,19.531,23.926,0
212889.703,24.414,33.203,26.367,16.602,31.738,0
212889.707,24.902,31.738,28.320,12.207,30.762,0
212889.711,20.020,30.273,26.855,8.301,13.184,0
212889.715,18.555,28.809,27.832,3.418,23.926,0
212889.719,16.113,32.715,33.203,4.395,44.434,0
212889.723,17.578,37.598,31.738,5.859,79.102,0
212889.727,19.043,36.621,29.297,12.695,84.961,0
212889.731,21.973,36.133,29.785,17.090,81.055,0
212889.734,25.391,41.016,31.250,13.672,75.684,0
212889.738,23.926,39.551,33.691,13.672,39.062,0
212889.742,24.902,34.180,31.738,12.207,27.832,0
212889.746,27.344,26.855,34.180,17.090,62.500,0
212889.750,28.320,25.879,37.109,12.207,36.621,0
212889.754,25.391,34.180,30.762,-1.953,-13.672,0
212889.758,22.949,36.621,26.855,12.207,29.297,0
212889.762,21.484,35.156,26.855,20.508,47.363,0
212889.766,16.602,32.715,28.320,6.836,42.480,0
212889.770,19.531,33.691,28.809,11.230,37.109,0
212889.774,26.855,38.574,27.832,20.020,38.086,0
212889.777,20.996,34.180,30.762,13.672,38.574,0
212889.781,15.625,30.273,28.320,11.230,6.836,0
212889.785,13.672,31.250,25.879,6.348,-2.930,0
212889.789,10.742,29.785,29.297,9.766,43.457,0
212889.793,16.602,31.250,31.738,24.414,69.824,0
212889.797,19.043,35.645,33.691,24.902,24.902,0
212889.801,13.184,35.156,30.273,17.578,59.570,0
212889.805,10.254,40.039,25.879,23.926,112.793,0
212889.809,15.625,42.480,26.367,26.367,98.633,0
212889.813,18.066,34.180,23.438,13.672,37.598,0
212889.817,15.625,32.715,26.855,11.230,21.973,0
212889.820,20.020,38.574,31.250,19.531,49.316,0
212889.824,19.043,34.180,26.855,20.996,7.812,0
212889.828,12.207,32.227,28.320,20.508,16.602,0
212889.832,13.184,33.691,33.691,26.367,11.230,0
212889.836,16.602,34.668,32.715,30.762,6.348,0
212889.840,16.602,32.715,34.668,22.461,20.996,0
212889.844,22.949,34.180,34.180,22.461,3.418,0
212889.848,26.855,36.133,29.785,30.762,-4.395,0
212889.852,20.020,33.203,29.785,29.297,46.387,0
212889.856,22.461,34.180,29.785,25.391,54.688,0
212889.859,23.926,37.109,29.785,20.508,-6.836,0
212889.863,23.438,37.598,32.715,25.879,15.625,0
212889.867,21.484,35.156,36.133,33.691,35.645,0
212889.871,10.254,29.785,29.785,25.879,31.250,0
212889.875,7.324,26.367,22.461,20.996,28.809,0
212889.879,7.812,26.855,29.785,25.391,15.137,0
212889.883,4.883,32.227,37.598,23.926,44.434,0
212889.887,7.812,37.598,32.715,24.902,56.152,0
212889.891,11.719,38.086,27.832,23.438,38.086,0
212889.895,16.113,38.574,31.738,23.438,49.316,0
212889.899,21.484,40.527,31.250,25.879,41.504,0
212889.902,19.043,39.551,27.832,19.043,18.555,0
212889.906,18.555,39.062,32.715,25.391,56.641,0
212889.910,18.555,36.133,35.645,28.809,109.375,0
212889.914,12.695,32.715,32.227,18.066,69.336,0
212889.918,15.137,33.691,23.438,23.926,29.785,0
212889.922,22.949,34.180,26.855,25.879,54.688,0
212889.926,24.902,32.715,34.180,26.855,38.086,0
212889.930,22.949,35.645,32.715,27.832,42.480,0
212889.934,19.043,41.016,29.785,29.297,40.039,0
212889.938,18.066,40.039,30.273,30.762,-8.301,0
212889.942,17.578,39.551,30.273,27.832,-11.230,0
212889.945,17.578,37.109,33.691,23.438,-25.879,0
212889.949,20.508,37.109,34.180,31.250,-15.137,1
212889.953,22.949,34.668,38.086,42.480,36.133,0
212889.957,9.277,29.785,31.738,24.414,50.293,0
212889.961,1.953,29.785,25.391,9.766,47.363,0
212889.965,7.324,35.645,27.344,12.207,38.574,0
212889.969,6.836,37.598,25.879,15.625,41.992,0
212889.973,8.789,39.062,23.438,18.066,62.988,0
212889.977,8.789,42.480,21.484,19.043,50.293,0
212889.981,8.301,42.480,21.973,24.902,34.180,0
212889.984,11.230,37.598,28.809,21.484,20.508,0
212889.988,15.137,36.133,30.273,16.602,0.488,0
212889.992,22.949,42.480,23.438,16.602,-27.832,0
212889.996,24.414,40.039,24.414,20.020,-6.836,0
212890.000,19.043,30.762,29.297,24.414,10.742,0
212890.004,15.625,30.762,31.250,19.531,-36.621,0
212890.008,14.648,31.250,32.227,18.555,-62.988,0
212890.012,13.672,33.203,31.250,22.949,-20.996,0
212890.016,14.160,32.715,26.367,25.391,11.719,0
212890.020,15.137,28.809,23.926,21.973,2.930,0
212890.024,13.672,33.203,23.926,20.996,8.789,0
212890.027,10.742,37.598,24.414,34.668,17.578,0
212890.031,6.348,33.691,20.020,29.297,11.230,0
212890.035,5.859,30.273,16.602,12.207,-27.832,0
212890.039,4.395,33.691,25.879,8.789,-42.480,0
212890.043,-3.418,32.227,29.297,12.207,7.812,0
212890.047,-1.953,27.344,26.855,21.973,31.738,0
212890.051,1.465,28.809,28.320,22.949,22.949,0
212890.055,3.906,36.621,28.809,21.973,39.062,0
212890.059,8.301,39.062,34.180,27.344,70.312,0
212890.063,9.766,34.668,31.738,24.414,15.625,0
212890.067,14.160,37.598,24.902,20.996,37.109,0
212890.070,13.184,41.992,29.785,23.438,101.074,0
212890.074,17.578,41.504,33.691,28.809,63.965,0
212890.078,20.996,40.527,34.180,35.156,50.781,0
212890.082,9.277,35.156,32.227,23.926,54.688,0
212890.086,3.906,29.785,36.133,21.484,73.242,0
212890.090,3.418,30.273,31.250,27.832,83.984,0
212890.094,3.906,34.180,21.973,23.926,65.918,0
212890.098,5.859,32.227,24.902,27.832,76.660,0
212890.102,6.348,28.320,24.902,29.297,69.336,0
212890.106,7.324,30.273,25.879,27.832,56.152,0
212890.109,12.207,33.691,26.367,30.273,39.551,0
212890.113,14.648,34.668,23.438,27.832,47.852,0
212890.117,16.602,36.621,23.926,29.297,82.520,0
212890.121,19.531,43.457,28.320,37.109,83.984,0
212890.125,20.020,41.016,36.621,27.832,29.297,0
212890.129,12.207,32.227,33.203,12.695,-17.578,0
212890.133,9.766,28.809,20.996,22.949,29.785,0
212890.137,9.277,27.344,23.926,22.949,13.184,0
212890.141,9.277,26.855,30.762,15.137,-9.766,0
212890.145,11.230,30.762,29.785,18.066,40.527,0
212890.149,12.207,33.691,32.715,30.762,55.664,0
212890.152,14.160,31.250,35.645,40.527,60.059,0
212890.156,21.484,29.785,37.598,31.250,55.176,0
212890.160,20.996,31.738,34.668,24.414,21.484,0
212890.164,17.578,33.203,33.691,27.832,27.344,0
212890.168,22.949,34.180,38.086,33.203,52.246,0
212890.172,19.531,34.180,33.203,20.996,38.574,0
212890.176,13.672,31.250,21.973,15.137,65.918,0
212890.180,17.090,33.203,28.809,27.344,105.469,0
212890.184,19.531,33.203,31.738,34.668,59.570,0
212890.188,17.090,28.809,21.973,28.320,46.875,0
212890.192,21.484,31.250,28.809,20.996,65.430,0
212890.195,24.902,35.645,37.109,21.973,18.555,0
212890.199,18.066,33.691,35.156,17.578,0.000,0
212890.203,14.648,30.273,40.039,11.230,29.297,0
212890.207,17.090,35.645,41.992,17.090,31.250,0
212890.211,16.602,37.109,36.621,20.996,20.020,0
212890.215,10.742,32.715,36.621,16.113,32.715,0
212890.219,7.324,27.344,32.715,7.812,12.207,0
212890.223,6.836,29.785,26.367,8.789,22.461,0
212890.227,6.348,37.109,25.391,15.137,24.414,0
212890.231,3.906,36.133,31.250,12.695,-10.254,0
212890.234,5.371,35.156,34.668,9.277,14.648,0
212890.238,9.277,37.109,35.645,13.184,58.594,0
212890.242,5.859,34.180,34.668,16.602,47.852,0
212890.246,9.277,35.645,32.227,24.902,39.551,0
212890.250,9.766,37.598,32.227,23.926,42.969,0
212890.254,5.371,32.715,32.715,12.695,54.199,0
212890.258,8.789,31.250,34.180,20.996,62.988,0
212890.262,11.719,34.668,34.180,25.391,33.691,0
212890.266,8.301,30.273,26.855,15.137,38.086,0
212890.270,2.441,29.297,25.391,14.648,51.270,0
212890.274,1.953,34.180,32.227,18.066,24.902,0
212890.277,7.812,35.156,33.691,18.555,3.418,0
212890.281,15.137,36.133,34.180,20.020,41.504,0
212890.285,14.160,33.203,33.203,22.461,74.707,0
212890.289,6.348,30.273,32.715,19.043,42.969,0
212890.293,0.488,30.273,31.738,15.137,17.578,0
212890.297,-0.977,32.227,32.227,20.996,26.367,0
212890.301,1.953,36.621,34.668,27.832,37.598,0
212890.305,2.930,41.992,34.668,19.531,38.574,0
212890.309,3.906,40.527,32.227,15.137,12.695,0
212890.313,4.883,36.133,26.855,20.996,-11.719,0
212890.317,4.395,35.156,28.320,17.090,-5.859,0
212890.320,6.348,30.762,35.645,14.648,-4.883,0
212890.324,5.859,29.297,34.180,15.625,14.160,0
212890.328,1.953,28.320,33.203,17.578,46.875,0
212890.332,-0.977,26.855,34.668,19.043,26.367,0
212890.336,0.977,28.809,32.715,12.207,23.438,0
212890.340,3.418,29.785,33.203,9.766,-9.766,0
212890.344,1.465,26.855,28.809,16.113,7.324,0
212890.348,3.906,25.879,30.762,21.484,25.879,0
212890.352,12.207,29.297,34.668,23.926,19.531,0
212890.356,15.625,33.691,25.879,19.043,21.973,0
212890.359,12.695,34.668,27.344,22.949,41.504,0
212890.363,13.672,32.227,27.344,28.320,59.082,0
212890.367,16.113,32.227,23.438,12.695,21.484,0
212890.371,15.137,33.691,25.879,10.254,20.996,0
212890.375,17.090,33.203,32.227,26.367,68.359,0
212890.379,20.020,30.762,40.039,25.391,31.738,0
212890.383,17.090,31.250,32.715,19.531,25.879,0
212890.387,17.578,35.645,24.414,20.020,35.645,0
212890.391,19.043,37.109,22.461,20.020,-4.395,0
212890.395,20.508,37.598,19.043,20.508,1.953,0
212890.399,24.414,36.133,20.508,18.555,8.301,0
212890.402,24.414,39.062,25.391,20.996,13.672,0
212890.406,20.996,41.504,27.832,20.996,44.434,0
212890.410,26.367,40.039,33.203,20.996,52.246,0
212890.414,28.320,37.598,34.180,22.461,18.555,0
212890.418,25.879,33.203,24.902,25.879,42.969,0
212890.422,29.297,33.203,23.926,23.438,58.105,0
212890.426,27.832,35.156,26.855,19.043,26.367,0
212890.430,25.879,32.715,27.344,22.461,45.898,0
212890.434,21.973,26.855,26.855,26.367,50.781,0
212890.438,14.648,25.879,29.297,25.391,-12.207,0
212890.442,14.160,28.809,26.855,23.926,-41.016,0
212890.445,16.113,30.273,28.320,26.855,-15.137,0
212890.449,17.578,32.227,23.926,25.391,23.438,0
212890.453,20.508,31.250,22.461,20.996,26.367,0
212890.457,23.438,32.227,31.250,18.066,1.465,0
212890.461,24.902,32.227,29.785,24.414,-8.789,0
212890.465,22.461,26.855,25.879,38.574,12.207,0
212890.469,20.508,26.367,24.414,28.809,-3.418,0
212890.473,17.578,30.273,23.926,11.719,-18.555,0
212890.477,18.066,30.273,25.391,13.672,24.414,0
212890.481,22.949,30.762,27.832,18.555,38.086,0
212890.484,20.020,30.273,29.785,17.090,-20.020,0
212890.488,17.578,27.832,26.367,18.555,-35.156,0
212890.492,22.461,30.762,21.973,23.926,-16.113,0
212890.496,28.809,34.668,32.715,27.344,-6.348,0
212890.500,35.645,32.715,36.133,23.926,-49.316,0
212890.504,28.809,30.762,25.391,15.137,-86.426,0
212890.508,22.461,35.156,24.414,22.949,-41.016,0
212890.512,23.926,39.062,27.344,30.273,-43.945,0
212890.516,20.996,35.156,27.344,21.973,-28.320,0
212890.520,18.066,35.645,29.297,20.508,2.441,0
212890.524,20.020,36.621,31.250,26.367,-0.488,0
212890.527,19.043,37.598,27.832,28.320,-13.184,0
212890.531,19.531,39.062,27.344,30.762,-0.488,0
212890.535,22.949,36.133,37.109,33.691,31.738,0
212890.539,23.438,34.668,33.203,33.203,47.363,0
212890.543,25.391,40.039,25.391,34.180,28.320,0
212890.547,30.762,43.457,27.344,30.762,-34.180,0
212890.551,29.785,41.016,33.203,35.156,-2.930,0
212890.555,23.438,36.133,34.180,33.691,83.984,0
212890.559,23.438,32.715,31.738,19.043,77.148,0
212890.563,19.531,33.691,25.391,14.160,53.223,0
212890.567,14.160,36.133,25.879,10.742,57.129,0
212890.570,10.742,36.133,32.715,6.348,72.266,0
212890.574,10.742,33.691,31.250,2.930,70.801,0
212890.578,26.367,40.039,29.297,15.137,27.344,0
212890.582,40.527,48.828,31.738,37.598,33.691,0
212890.586,23.926,38.574,36.133,27.344,67.871,0
212890.590,7.812,35.645,34.668,8.301,37.109,0
212890.594,16.113,41.016,35.156,17.578,20.996,0
212890.598,16.113,35.645,37.109,23.438,44.434,0
212890.602,6.348,30.273,35.156,12.207,64.941,0
212890.606,-2.930,28.809,31.250,-3.906,45.898,0
212890.609,-4.883,25.391,35.645,-8.789,51.758,0
212890.613,-2.441,24.902,35.156,2.441,103.027,0
212890.617,2.930,31.738,29.297,5.859,83.496,0
212890.621,5.371,34.180,27.344,3.418,43.457,0
212890.625,13.184,38.086,28.809,9.766,57.617,0
212890.629,23.438,38.086,31.738,16.602,45.898,0
212890.633,25.391,35.156,31.738,18.555,26.855,0
212890.637,30.762,38.086,38.086,25.391,6.348,0
212890.641,31.250,41.016,34.668,29.297,-10.742,0
212890.645,23.438,29.785,31.250,25.879,8.301,0
212890.649,23.926,24.414,34.668,27.344,35.645,0
212890.652,22.461,32.715,27.344,22.949,31.250,0
212890.656,22.949,36.621,30.273,20.020,74.707,1
212890.660,24.902,36.621,35.645,32.227,103.027,0
212890.664,20.996,37.109,34.668,29.785,79.102,0
212890.668,17.578,35.645,34.180,19.043,56.641,0
212890.672,18.555,35.156,33.691,20.508,74.707,0
212890.676,19.043,38.086,32.227,22.949,73.242,0
212890.680,16.113,39.062,26.855,20.020,57.129,0
212890.684,17.090,34.668,26.367,14.160,8.789,0
212890.688,19.531,34.180,29.785,11.230,-4.883,0
212890.692,24.414,33.691,35.156,16.113,41.504,0
212890.695,22.949,30.762,32.715,9.766,4.883,0
212890.699,11.719,25.879,26.367,-3.418,-1.953,0
212890.703,10.254,27.344,32.715,5.371,27.344,0
212890.707,14.648,31.250,36.133,19.043,30.762,0
212890.711,15.137,33.203,35.645,16.113,26.855,0
212890.715,19.531,36.133,31.738,16.113,27.832,0
212890.719,20.996,34.668,29.297,23.926,64.453,0
212890.723,20.020,33.203,27.832,15.625,36.133,0
212890.727,25.879,36.133,33.203,12.207,4.395,0
212890.731,23.438,35.645,35.156,15.625,41.016,0
212890.734,23.438,34.668,25.879,17.578,64.453,0
212890.738,33.203,41.016,30.273,20.508,31.250,0
212890.742,37.598,45.410,34.668,20.508,-16.113,0
212890.746,29.785,37.598,28.320,21.484,-5.859,0
212890.750,24.902,31.250,29.297,20.508,3.418,0
212890.754,25.391,33.203,28.809,21.484,-6.836,0
212890.758,24.902,32.227,20.508,18.066,13.184,0
212890.762,23.438,29.297,24.902,15.625,20.508,0
212890.766,15.137,30.762,31.250,13.184,27.344,0
212890.770,10.254,32.715,34.668,7.812,38.574,0
212890.774,8.789,28.809,35.156,6.836,54.688,0
212890.777,8.789,30.273,33.203,11.719,40.039,0
212890.781,13.184,36.133,33.203,21.973,13.672,0
212890.785,12.695,35.645,28.809,19.531,27.344,0
212890.789,8.301,29.297,23.926,12.207,34.668,0
212890.793,13.184,30.762,27.344,25.391,45.898,0
212890.797,15.137,36.133,33.691,29.785,46.387,0
212890.801,5.859,31.738,24.902,18.066,41.504,0
212890.805,2.930,28.809,21.973,13.672,30.762,0
212890.809,7.812,31.250,30.273,19.043,30.762,0
212890.813,5.371,32.227,31.250,19.531,44.922,0
212890.817,5.859,30.762,29.297,17.090,37.598,0
212890.820,10.254,32.227,34.180,19.531,47.363,0
212890.824,9.277,35.156,31.738,20.020,37.598,0
212890.828,7.324,33.203,26.855,20.996,27.832,0
212890.832,6.836,29.297,25.391,16.113,13.672,0
212890.836,8.301,31.250,31.738,13.184,10.742,0
212890.840,8.301,35.645,35.156,26.367,0.977,0
212890.844,12.695,39.062,32.715,27.832,-1.465,0
212890.848,15.137,39.062,33.691,21.973,-11.230,0
212890.852,8.789,33.691,30.273,21.484,6.836,0
212890.856,7.324,33.691,25.879,18.066,27.344,0
212890.859,11.719,34.180,23.926,17.578,-23.438,0
212890.863,14.160,32.715,25.391,17.578,-34.180,0
212890.867,11.719,36.621,30.762,20.508,0.000,0
212890.871,9.766,33.691,41.016,25.391,12.695,0
212890.875,12.695,32.227,44.922,19.043,-18.555,0
212890.879,13.672,39.062,32.715,10.254,-42.480,0
212890.883,13.184,40.039,28.809,16.602,18.066,0
212890.887,16.602,39.551,35.156,25.879,37.598,0
212890.891,26.367,40.039,37.598,28.320,43.457,0
212890.895,25.391,35.645,30.762,21.973,88.379,0
212890.899,25.879,33.203,33.691,32.227,113.770,0
212890.902,32.227,34.668,38.086,38.086,111.816,0
212890.906,24.902,32.715,29.785,24.902,101.074,0
212890.910,19.531,32.715,28.809,26.367,102.051,0
212890.914,16.113,37.598,36.621,21.484,94.727,0
212890.918,14.648,40.527,35.645,22.461,100.586,0
212890.922,10.254,37.109,28.809,16.602,93.262,0
212890.926,11.719,34.668,35.645,11.230,62.012,0
212890.930,24.902,39.062,38.086,32.715,116.211,0
212890.934,25.391,39.551,34.668,35.156,86.426,0
212890.938,21.973,35.156,32.227,27.832,41.016,0
212890.942,18.066,33.203,30.762,30.762,78.613,0
212890.945,10.254,31.738,34.180,27.832,58.105,0
212890.949,10.254,32.227,34.668,27.344,35.645,0
212890.953,13.184,38.574,32.227,24.902,14.160,0
212890.957,14.648,36.621,33.691,21.973,11.719,0
212890.961,13.184,37.598,32.715,22.949,42.480,0
212890.965,12.695,43.457,29.785,24.902,29.785,0
212890.969,14.160,41.992,30.762,17.090,4.395,0
212890.973,9.766,37.109,27.344,9.277,23.438,0
212890.977,10.254,37.598,24.902,12.695,-5.859,0
212890.981,17.578,40.527,23.926,18.555,-24.414,0
212890.984,24.414,44.922,21.484,27.344,1.953,0
212890.988,22.461,38.574,26.855,31.738,13.184,0
212890.992,18.555,33.691,25.879,25.391,-11.719,0
212890.996,15.625,34.668,21.484,20.020,3.418,0
212891.000,11.719,31.738,24.414,26.367,74.707,0
212891.004,13.184,34.180,24.902,25.879,76.660,0
212891.008,13.672,35.645,26.855,13.672,23.926,0
212891.012,14.648,37.598,26.367,12.695,-3.906,0
212891.016,20.020,42.480,25.879,20.996,23.926,0
212891.020,19.043,39.551,31.738,18.066,23.438,0
212891.024,18.066,38.086,28.320,18.066,17.090,0
212891.027,19.043,39.062,19.531,20.508,32.227,0
212891.031,14.648,36.133,23.438,23.438,20.996,0
212891.035,7.812,32.227,30.273,23.926,45.410,0
212891.039,5.859,29.785,31.738,18.066,27.832,0
212891.043,9.277,30.762,27.832,21.973,3.906,0
212891.047,10.742,34.668,26.855,27.832,38.086,0
212891.051,11.719,39.062,36.133,28.809,32.715,0
212891.055,11.719,39.062,37.109,25.879,22.949,0
212891.059,8.301,35.156,34.180,20.508,6.348,0
212891.063,5.859,32.715,38.086,23.438,38.086,0
212891.067,10.742,36.133,35.156,30.273,89.355,0
212891.070,11.230,40.039,29.297,24.414,77.148,0
212891.074,5.371,35.156,25.391,13.184,40.527,0
212891.078,6.836,32.227,27.344,13.184,48.340,0
212891.082,9.277,35.156,27.832,24.414,60.059,0
212891.086,8.301,38.086,26.855,17.090,8.789,0
212891.090,8.789,37.109,28.320,2.441,16.602,0
212891.094,11.719,35.645,32.227,15.137,59.570,0
212891.098,15.137,36.621,35.156,22.461,22.461,0
212891.102,12.695,32.715,35.645,20.020,2.441,0
212891.106,12.695,31.738,33.203,20.996,4.883,0
212891.109,17.090,39.062,34.180,24.414,31.250,0
212891.113,20.996,42.480,32.715,27.832,44.922,0
212891.117,20.508,41.504,28.320,23.926,33.691,0
212891.121,13.672,36.133,27.344,18.555,55.176,0
212891.125,11.719,29.785,33.203,22.949,90.820,0
212891.129,12.695,28.809,34.668,27.832,123.535,0
212891.133,9.766,26.855,38.086,30.762,119.141,0
212891.137,8.301,27.832,41.016,29.297,106.934,0
212891.141,4.883,29.785,30.273,33.203,104.980,0
212891.145,10.742,29.785,30.273,32.715,69.824,0
212891.149,16.602,34.180,37.109,25.879,40.039,0
212891.152,9.766,33.203,32.715,24.902,78.613,0
212891.156,2.441,30.273,25.879,19.531,90.820,0
212891.160,2.441,34.180,25.391,17.090,35.156,0
212891.164,6.836,35.645,30.762,19.531,3.906,0
212891.168,5.859,33.203,35.645,29.785,45.410,0
212891.172,2.441,33.691,37.598,29.785,32.715,0
212891.176,0.977,31.250,32.715,17.578,-20.996,0
212891.180,8.789,34.668,25.879,12.695,34.668,0
212891.184,12.207,36.133,27.344,13.184,43.945,0
212891.188,11.230,33.203,26.367,20.996,-19.531,0
212891.192,21.484,42.480,28.809,38.086,-6.836,0
212891.195,19.043,47.852,34.180,30.762,30.762,0
212891.199,9.277,40.039,31.738,15.137,70.801,0
212891.203,5.859,35.156,27.832,12.695,83.496,0
212891.207,-2.930,33.691,25.391,-2.441,51.270,0
212891.211,4.883,36.621,23.926,1.953,33.203,0
212891.215,14.648,37.598,24.902,24.414,46.875,0
212891.219,5.371,34.180,22.949,16.113,48.828,0
212891.223,9.277,36.133,25.879,14.160,38.086,0
212891.227,20.996,35.156,28.809,31.250,24.414,0
212891.231,22.949,35.645,31.250,36.621,19.531,1
212891.234,19.531,39.062,33.203,29.785,23.926,0
212891.238,18.555,38.574,27.832,24.902,47.852,0
212891.242,20.020,35.645,26.855,23.438,52.734,0
212891.246,18.555,32.715,27.832,23.438,21.973,0
212891.250,20.020,34.668,21.973,24.414,27.344,0
212891.254,21.973,34.180,19.531,32.227,30.762,0
212891.258,25.879,33.203,28.320,34.668,28.809,0
212891.262,31.250,37.109,31.738,27.832,12.207,0
212891.266,28.320,38.086,25.391,25.391,8.301,0
212891.270,22.461,36.133,30.762,25.391,9.277,0
212891.274,16.113,36.133,32.227,22.949,2.441,0
212891.277,14.648,35.645,33.203,25.391,22.461,0
212891.281,12.695,35.645,35.156,26.367,36.621,0
212891.285,3.418,33.203,31.738,12.207,35.645,0
212891.289,1.465,29.297,32.715,5.859,18.555,0
212891.293,11.230,31.250,27.344,14.160,-4.883,0
212891.297,21.484,37.109,25.879,8.789,-51.270,0
212891.301,22.949,37.109,27.344,11.230,-58.594,0
212891.305,22.461,32.715,28.320,28.809,-6.836,0
212891.309,24.902,35.645,29.297,29.297,9.277,0
212891.313,22.461,36.133,36.133,27.832,-5.371,0
212891.317,26.855,36.621,38.574,32.227,0.000,0
212891.320,26.855,37.109,33.203,30.273,22.949,0
212891.324,18.555,34.180,31.738,29.785,2.930,0
212891.328,25.391,39.062,30.762,28.809,-0.977,0
212891.332,29.297,41.504,35.156,23.438,54.688,0
212891.336,25.391,35.645,25.879,20.508,50.781,0
212891.340,27.832,36.133,18.555,19.043,20.508,0
212891.344,30.762,38.574,24.414,13.184,7.324,0
212891.348,22.949,32.715,26.367,15.137,62.012,0
212891.352,18.555,29.297,32.715,15.625,79.102,0
212891.356,14.648,27.832,38.086,8.301,53.223,0
212891.359,14.160,27.344,36.621,14.648,63.477,0
212891.363,23.926,32.227,34.668,23.926,75.195,0
212891.367,20.508,32.715,31.738,22.461,58.594,0
212891.371,15.137,27.832,32.715,15.625,52.734,0
212891.375,18.066,29.297,28.320,13.672,44.922,0
212891.379,18.555,31.250,27.344,14.648,19.043,0
212891.383,18.555,32.715,33.691,17.090,45.898,0
212891.387,18.066,33.691,33.691,16.113,12.207,0
212891.391,19.531,30.762,34.180,13.672,-3.906,0
212891.395,22.949,29.785,35.645,18.066,52.246,0
212891.399,24.414,33.203,36.621,30.273,77.637,0
212891.402,23.438,37.109,32.715,27.344,51.758,0
212891.406,26.855,36.133,25.391,25.879,78.613,0
212891.410,25.391,25.391,26.855,33.691,113.770,0
212891.414,21.484,28.320,32.227,26.367,71.289,0
212891.418,19.043,37.598,31.738,17.090,35.156,0
212891.422,9.766,35.156,28.809,14.648,58.105,0
212891.426,10.254,35.156,30.762,28.320,40.039,0
212891.430,19.531,37.109,29.297,25.879,-2.441,0
212891.434,23.926,37.598,31.250,10.742,-15.137,0
212891.438,26.367,36.133,35.645,17.578,-10.254,0
212891.442,28.809,32.715,30.273,27.832,-9.277,0
212891.445,31.738,35.156,27.832,29.785,-27.344,0
212891.449,31.250,38.086,32.227,27.344,14.648,0
212891.453,28.809,36.133,31.738,30.273,22.949,0
212891.457,27.832,36.133,28.320,26.855,-25.391,0
212891.461,27.344,36.133,32.227,21.973,-22.949,0
212891.465,29.297,38.574,38.574,25.391,-27.832,0
212891.469,30.762,38.086,41.504,25.391,-47.852,0
212891.473,30.762,35.156,36.133,23.926,-23.438,0
212891.477,29.297,33.203,30.273,28.809,-3.418,0
212891.481,25.391,30.273,28.320,24.902,-20.996,0
212891.484,29.785,35.156,30.273,23.438,-7.324,0
212891.488,35.156,41.992,36.621,34.180,16.113,0
212891.492,30.273,38.574,40.527,32.227,-0.977,0
212891.496,19.043,33.691,33.691,25.879,-18.066,0
212891.500,12.695,31.738,37.598,32.715,23.438,0
212891.504,13.184,36.621,38.086,30.762,28.320,0
212891.508,9.277,38.086,27.832,22.949,21.484,0
212891.512,9.277,32.227,32.715,20.020,57.129,0
212891.516,13.184,34.180,35.156,23.438,33.691,0
212891.520,10.254,35.645,29.297,21.973,23.438,0
212891.524,13.672,34.668,29.297,17.090,28.809,0
212891.527,25.391,38.574,27.832,15.625,-0.977,0
212891.531,26.367,41.016,27.832,18.066,9.277,0
212891.535,20.996,37.109,30.762,13.672,1.953,0
212891.539,22.461,34.180,27.344,11.230,6.836,0
212891.543,25.879,36.621,28.320,20.508,33.203,0
212891.547,20.996,34.180,30.273,17.578,14.160,0
212891.551,15.625,28.809,30.762,9.766,1.465,0
212891.555,15.625,28.809,37.598,15.625,44.922,0
212891.559,16.602,30.762,34.668,26.855,44.922,0
212891.563,19.531,32.227,32.715,27.832,11.719,0
212891.567,20.020,33.203,34.180,20.020,13.184,0
212891.570,16.113,32.227,36.621,16.602,-0.488,0
212891.574,16.602,33.203,35.156,21.484,13.672,0
212891.578,19.531,34.180,30.273,25.391,25.391,0
212891.582,17.090,24.902,33.203,20.508,18.066,0
212891.586,13.672,20.996,32.227,17.578,28.809,0
212891.590,15.625,29.785,30.273,25.879,49.805,0
212891.594,21.973,36.133,31.250,33.691,45.410,0
212891.598,23.438,36.133,35.156,30.762,16.113,0
212891.602,19.531,34.668,32.715,28.320,33.691,0
212891.606,16.602,35.156,30.762,33.203,34.668,0
212891.609,19.043,37.598,30.762,32.715,27.344,0
212891.613,22.461,38.574,33.691,31.250,44.922,0
212891.617,23.926,35.156,38.574,36.133,34.668,0
212891.621,22.461,33.203,34.180,32.227,39.551,0
212891.625,20.020,29.785,32.227,19.531,47.363,0
212891.629,18.555,27.832,31.738,19.043,12.695,0
212891.633,20.508,33.691,29.297,26.367,28.809,0
212891.637,21.484,39.062,28.320,26.367,71.289,0
212891.641,21.484,42.480,26.367,17.578,39.062,0
212891.645,20.020,39.062,27.832,15.625,46.387,0
212891.649,20.996,34.180,31.250,20.996,71.777,0
212891.652,25.879,36.133,30.762,20.508,57.129,0
212891.656,27.344,37.109,26.855,21.973,59.570,0
212891.660,29.297,40.039,32.715,29.297,64.941,0
212891.664,33.691,41.016,37.109,37.598,39.062,0
212891.668,34.668,34.668,30.273,32.227,-1.953,0
212891.672,23.438,33.691,28.320,8.789,-29.297,0
212891.676,11.230,33.691,28.809,-2.930,-15.625,0
212891.680,4.883,31.250,20.996,7.324,37.109,0
212891.684,5.859,37.109,16.602,12.695,42.480,0
212891.688,12.695,38.574,23.438,16.113,35.645,0
212891.692,16.113,36.133,27.832,19.043,33.203,0
212891.695,17.090,36.133,26.855,15.625,45.410,0
212891.699,16.602,34.668,25.879,11.230,38.574,0
212891.703,17.090,35.156,30.762,11.230,13.184,0
212891.707,20.508,35.156,32.715,15.625,9.277,0
212891.711,20.020,39.062,35.645,17.090,35.156,0
212891.715,17.090,39.551,35.156,15.137,30.762,0
212891.719,11.719,37.109,25.391,7.812,-2.441,0
212891.723,3.418,35.645,23.926,6.836,4.883,0
212891.727,3.418,31.250,27.832,14.160,1.953,0
212891.731,6.348,31.250,28.809,19.043,43.457,0
212891.734,6.836,35.156,28.809,25.391,64.941,0
212891.738,8.301,37.598,31.738,26.367,18.066,0
212891.742,11.230,35.645,33.203,16.602,31.738,0
212891.746,11.230,34.180,36.621,10.742,47.852,0
212891.750,9.766,32.715,33.203,11.719,57.617,0
212891.754,12.695,33.691,22.461,13.672,68.359,0
212891.758,14.160,40.039,25.391,10.254,13.184,0
212891.762,13.184,37.598,30.762,3.906,-22.949,0
212891.766,10.742,29.785,27.832,-2.441,-14.160,0
212891.770,10.742,30.273,25.391,3.906,28.809,1
212891.774,13.672,34.180,25.879,16.602,45.898,0
212891.777,19.043,35.645,28.809,10.742,17.578,0
212891.781,20.996,38.086,30.273,5.859,1.953,0
212891.785,21.484,35.645,33.691,18.066,28.809,0
212891.789,18.066,30.762,31.738,22.461,18.555,0
212891.793,13.672,33.203,27.344,8.301,6.836,0
212891.797,11.719,34.668,23.926,9.277,45.898,0
212891.801,12.695,36.621,25.391,24.414,61.035,0
212891.805,17.090,38.086,28.809,25.391,59.570,0
212891.809,19.043,36.133,26.367,20.508,76.660,0
212891.813,20.020,36.133,30.762,27.344,57.617,0
212891.817,19.531,37.598,33.691,31.738,40.039,0
212891.820,21.973,38.086,38.086,27.344,-20.508,0
212891.824,23.926,35.156,40.039,20.020,5.371,0
212891.828,14.160,30.762,36.133,19.531,69.824,0
212891.832,9.766,30.762,36.621,20.996,50.293,0
212891.836,12.695,32.227,37.109,20.020,50.293,0
212891.840,15.137,33.203,33.691,20.020,67.871,0
212891.844,16.602,35.645,33.691,21.484,60.059,0
212891.848,20.508,37.598,35.156,26.367,51.270,0
212891.852,32.227,41.504,33.691,22.461,67.383,0
212891.856,35.645,42.969,34.668,17.578,83.008,0
212891.859,28.320,39.551,29.785,17.578,72.754,0
212891.863,24.902,35.645,23.926,18.555,42.969,0
212891.867,31.738,34.180,25.391,12.695,-26.367,0
212891.871,32.227,31.738,29.297,9.277,17.090,0
212891.875,21.973,32.227,29.297,13.672,82.520,0
212891.879,19.531,38.086,28.320,16.113,87.891,0
212891.883,19.043,39.062,36.133,16.113,85.449,0
212891.887,13.672,36.133,35.156,12.207,71.289,0
212891.891,14.648,36.621,30.762,15.625,55.664,0
212891.895,13.672,36.133,34.180,17.090,29.785,0
212891.899,7.812,32.715,30.762,14.648,18.555,0
212891.902,13.184,31.250,28.320,20.996,-21.973,0
212891.906,17.578,30.273,30.273,29.297,-1.953,0
212891.910,17.090,31.250,33.203,29.297,20.996,0
212891.914,22.949,37.598,31.738,21.484,-27.344,0
212891.918,28.809,38.574,28.809,23.926,12.695,0
212891.922,28.809,39.551,28.320,28.809,45.898,0
212891.926,24.414,41.992,26.855,35.645,29.297,0
212891.930,20.508,37.598,25.879,34.668,72.266,0
212891.934,18.066,32.715,25.879,20.508,91.797,0
212891.938,21.484,34.180,32.715,21.484,79.102,0
212891.942,25.391,35.645,33.691,25.391,56.152,0
212891.945,27.344,32.715,24.902,24.902,30.273,0
212891.949,23.438,27.832,26.367,22.949,-5.371,0
212891.953,24.902,29.785,26.855,21.484,-9.766,0
212891.957,32.227,35.156,28.320,19.043,1.953,0
212891.961,31.738,34.180,32.715,19.531,34.668,0
212891.965,27.344,31.738,30.273,26.855,43.457,0
212891.969,25.391,31.250,33.691,24.414,7.324,0
212891.973,23.438,32.227,36.133,21.973,-8.301,0
212891.977,21.973,33.691,34.668,24.414,31.250,0
212891.981,26.855,38.086,41.016,31.738,69.336,0
212891.984,29.297,37.598,43.945,31.738,52.734,0
212891.988,24.414,29.785,37.598,22.949,45.898,0
212891.992,20.508,29.785,35.156,21.484,32.227,0
212891.996,14.648,34.668,29.785,28.809,-7.812,0
212892.000,15.137,34.668,26.855,28.809,-8.301,0
212892.004,18.066,35.156,31.250,19.043,16.602,0
212892.008,12.695,34.180,34.668,19.531,1.465,0
212892.012,13.184,33.691,32.715,30.762,-9.277,0
212892.016,13.184,30.762,31.250,27.832,-23.926,0
212892.020,8.789,31.738,33.691,21.973,-29.785,0
212892.024,12.695,38.086,33.691,23.926,-6.348,0
212892.027,18.555,40.527,37.598,26.367,21.484,0
212892.031,19.043,37.109,33.203,32.715,44.922,0
212892.035,24.414,38.574,28.320,37.109,45.898,0
212892.039,26.367,42.969,31.738,35.645,41.016,0
212892.043,20.508,42.969,31.250,26.367,61.035,0
212892.047,20.996,40.039,28.320,17.578,51.270,0
212892.051,20.020,40.527,25.391,19.531,63.477,0
212892.055,19.043,42.969,26.367,24.414,51.758,0
212892.059,18.555,41.504,35.156,24.414,48.828,0
212892.063,18.066,38.086,34.668,25.391,74.707,0
212892.067,18.555,37.598,28.809,23.926,78.613,0
212892.070,20.020,37.598,31.250,23.438,104.492,0
212892.074,17.578,33.691,27.832,20.508,82.031,0
212892.078,20.020,35.645,27.344,23.438,63.477,0
212892.082,25.879,41.016,31.250,34.668,67.871,0
212892.086,23.438,41.992,28.320,38.086,36.133,0
212892.090,20.508,41.504,23.438,22.949,5.371,0
212892.094,17.090,38.574,30.273,6.836,-8.301,0
212892.098,15.625,36.621,25.879,13.672,11.719,0
212892.102,13.672,36.133,18.066,19.043,8.301,0
212892.106,13.184,34.668,25.879,20.996,-32.227,0
212892.109,9.766,34.180,32.715,24.902,-7.812,0
212892.113,8.789,36.133,35.156,29.297,28.320,0
212892.117,12.207,35.156,33.691,32.715,27.832,0
212892.121,14.160,32.227,36.133,27.344,3.418,0
212892.125,17.578,31.738,41.992,23.926,-27.832,0
212892.129,14.160,31.738,31.738,25.391,-40.527,0
212892.133,10.742,32.715,21.484,24.414,-19.043,0
212892.137,11.719,32.227,27.832,23.926,12.207,0
212892.141,10.742,33.203,34.180,24.414,27.344,0
212892.145,17.578,33.691,32.715,29.785,42.480,0
212892.149,20.020,31.738,29.785,34.668,76.172,0
212892.152,19.043,28.809,35.645,24.414,40.527,0
212892.156,21.484,26.367,38.086,22.461,-7.812,0
212892.160,20.020,24.902,34.180,34.668,16.113,0
212892.164,23.926,32.227,29.297,33.691,-4.883,0
212892.168,25.879,39.062,29.297,31.738,-55.664,0
212892.172,17.578,35.156,28.320,31.250,-28.809,0
212892.176,13.184,33.691,22.461,28.809,-20.508,0
212892.180,14.160,31.250,24.414,22.461,-34.180,0
212892.184,16.602,31.250,25.879,18.555,0.977,0
212892.188,15.137,34.668,24.414,19.531,4.395,0
212892.192,15.625,27.832,31.250,22.461,-15.625,0
212892.195,25.391,27.832,34.668,23.926,-50.781,0
212892.199,26.367,29.785,34.180,14.160,-33.203,0
212892.203,17.090,29.785,31.250,18.066,26.855,0
212892.207,20.020,37.598,33.691,31.250,20.508,0
212892.211,28.320,44.922,38.574,32.227,0.000,0
212892.215,30.762,40.527,26.367,31.738,31.250,0
212892.219,23.926,29.785,21.484,24.902,31.738,0
212892.223,17.578,25.879,25.391,20.508,39.062,0
212892.227,22.461,27.344,19.531,21.973,30.762,0
212892.231,24.414,25.391,27.344,16.602,27.344,0
212892.234,25.879,27.832,34.668,15.137,36.621,0
212892.238,31.250,33.203,29.785,17.578,39.551,0
212892.242,35.645,41.016,31.250,21.973,20.020,0
212892.246,32.227,43.457,34.180,22.461,16.602,0
212892.250,22.949,32.715,28.320,23.438,36.621,0
212892.254,20.020,27.344,23.926,18.066,14.160,0
212892.258,26.367,29.297,28.809,21.484,10.254,0
212892.262,26.855,24.414,31.738,29.297,3.418,0
212892.266,25.391,21.484,34.668,28.809,1.953,0
212892.270,23.438,33.203,32.227,23.438,-0.488,0
212892.274,15.137,40.039,30.762,17.090,-18.555,0
212892.277,17.578,40.039,31.250,25.879,-18.555,0
212892.281,29.785,37.109,30.273,36.621,50.293,0
212892.285,31.250,35.156,38.574,32.715,53.711,0
212892.289,15.137,36.133,40.527,15.137,22.461,0
212892.293,4.883,35.645,28.809,6.836,48.828,0
212892.297,12.207,36.621,28.320,14.648,24.902,0
212892.301,13.672,30.273,33.691,21.484,44.922,0
212892.305,8.789,28.809,28.809,17.578,44.434,0
212892.309,17.578,36.133,29.785,24.902,47.852,0
212892.313,21.484,35.645,37.598,32.227,57.617,0
212892.317,20.020,32.715,35.156,32.227,37.598,0
212892.320,21.973,32.715,35.156,31.250,55.176,0
212892.324,18.555,34.668,34.668,25.879,36.133,0
212892.328,15.625,36.621,35.645,17.578,-16.113,0
212892.332,18.555,37.598,34.668,14.648,-24.414,0
212892.336,21.973,39.062,30.273,25.879,13.184,0
212892.340,25.391,34.668,32.227,30.273,40.039,0
212892.344,26.367,31.738,29.297,29.297,40.527,0
212892.348,22.949,35.645,26.855,28.320,27.832,0
212892.352,19.043,36.621,31.738,24.902,22.949,0
212892.356,17.090,32.227,34.668,26.367,53.223,0
212892.359,19.531,31.738,35.156,29.297,105.957,0
212892.363,23.438,35.156,37.109,28.809,103.516,0
212892.367,25.879,38.574,37.109,36.621,77.637,0
212892.371,23.438,38.086,38.086,43.945,73.242,0
212892.375,16.113,31.250,33.203,31.738,71.289,0
212892.379,17.090,29.297,31.250,16.113,50.781,0
212892.383,22.461,27.832,31.738,27.344,72.754,0
212892.387,20.020,28.809,25.879,39.551,107.910,0
212892.391,12.695,35.156,27.344,27.832,80.566,0
212892.395,15.137,34.668,33.691,23.438,38.574,0
212892.399,16.602,35.156,33.691,22.461,59.082,0
212892.402,13.184,40.039,31.738,19.043,85.938,0
212892.406,16.602,39.062,26.367,19.531,42.480,0
212892.410,20.996,35.156,32.715,21.484,-5.859,0
212892.414,20.020,33.691,36.621,19.043,13.184,0
212892.418,18.066,32.227,31.250,17.578,58.105,0
212892.422,16.113,32.227,33.691,20.020,1.465,0
212892.426,19.531,31.250,32.715,15.625,-6.348,0
212892.430,25.391,29.785,27.832,20.020,14.160,0
212892.434,19.531,30.273,30.762,23.438,-12.695,0
212892.438,14.160,30.762,38.574,23.926,-9.766,0
212892.442,19.043,30.762,39.062,31.250,35.645,0
212892.445,23.438,32.715,35.156,30.762,37.598,0
212892.449,19.043,31.738,34.180,22.949,-6.836,0
212892.453,15.137,27.832,33.203,21.973,23.438,0
212892.457,24.902,32.227,33.203,28.320,57.129,0
212892.461,31.250,38.086,28.320,33.691,50.781,0
212892.465,22.461,38.574,32.227,27.344,22.461,0
212892.469,18.066,37.109,35.645,17.090,-11.719,0
212892.473,22.461,38.574,27.344,24.902,-28.320,0
212892.477,28.809,38.086,24.902,31.250,-6.836,0
212892.481,26.367,34.668,30.273,25.391,31.738,0
212892.484,20.996,31.250,35.156,23.438,48.340,0
212892.488,19.531,31.738,35.645,23.926,39.062,1
212892.492,19.043,37.109,36.621,26.367,34.180,0
212892.496,18.555,40.039,34.668,25.391,25.391,0
212892.500,18.555,38.086,27.344,22.949,45.410,0
212892.504,17.578,33.691,24.414,19.043,82.520,0
212892.508,10.254,34.180,23.926,16.602,58.594,0
212892.512,6.348,32.227,25.391,18.555,30.762,0
212892.516,12.695,27.832,28.320,23.438,52.246,0
212892.520,14.160,31.250,30.762,29.785,93.262,0
212892.524,17.578,35.645,35.156,32.227,82.520,0
212892.527,18.066,37.598,34.668,23.438,15.137,0
212892.531,12.695,34.180,28.809,20.996,39.062,0
212892.535,14.160,32.715,27.344,26.855,68.359,0
212892.539,16.113,39.062,33.691,28.320,45.898,0
212892.543,17.090,38.574,33.691,28.809,34.668,0
212892.547,16.113,36.133,29.785,27.832,49.316,0
212892.551,18.066,37.598,29.785,26.367,72.754,0
212892.555,24.414,40.527,36.133,31.738,72.266,0
212892.559,24.414,40.039,40.039,34.668,58.594,0
212892.563,20.508,35.156,31.250,26.855,21.973,0
212892.567,18.066,32.227,22.949,28.809,26.367,0
212892.570,19.043,29.785,26.855,29.785,48.340,0
212892.574,19.531,34.668,32.715,23.926,22.949,0
212892.578,16.602,40.527,32.227,32.227,47.363,0
212892.582,15.137,32.227,30.273,34.668,59.082,0
212892.586,15.137,27.344,34.668,23.926,21.973,0
212892.590,10.742,30.762,32.227,26.855,9.277,0
212892.594,9.766,31.738,30.762,26.855,14.160,0
212892.598,17.578,37.598,35.645,23.926,3.418,0
212892.602,20.020,42.480,34.180,24.414,-13.672,0
212892.606,17.578,37.598,33.691,22.949,-13.184,0
212892.609,20.508,39.551,32.715,25.879,-20.020,0
212892.613,23.438,40.527,34.668,32.227,-13.184,0
212892.617,19.043,30.762,32.715,24.902,30.762,0
212892.621,15.137,26.367,26.855,19.043,57.129,0
212892.625,17.090,29.785,26.855,31.250,36.621,0
212892.629,17.578,33.203,32.227,34.180,22.461,0
212892.633,17.090,36.133,30.762,28.320,31.250,0
212892.637,20.508,39.062,31.250,32.227,45.410,0
212892.641,22.949,41.992,31.738,31.738,40.527,0
212892.645,19.043,40.039,33.203,31.250,45.898,0
212892.649,14.160,38.574,37.109,40.527,56.641,0
212892.652,13.184,39.551,34.180,28.320,37.598,0
212892.656,8.301,36.621,31.738,19.043,51.270,0
212892.660,4.395,35.645,34.668,20.508,36.621,0
212892.664,4.883,32.715,33.691,21.484,41.504,0
212892.668,1.465,29.297,29.785,24.414,64.941,0
212892.672,2.441,33.203,28.809,22.949,42.969,0
212892.676,7.324,35.645,25.879,23.926,41.992,0
212892.680,12.695,39.551,25.391,25.879,61.523,0
212892.684,16.113,42.480,29.785,32.227,67.383,0
212892.688,15.137,37.598,37.109,34.668,62.012,0
212892.692,15.137,36.133,41.016,31.738,47.852,0
212892.695,13.672,39.062,34.180,28.809,30.762,0
212892.699,15.137,38.086,34.180,30.273,21.484,0
212892.703,15.625,37.109,36.621,31.250,29.785,0
212892.707,9.766,38.086,36.133,19.043,-4.883,0
212892.711,5.859,32.715,30.273,10.254,-52.734,0
212892.715,14.648,32.227,27.832,20.020,-39.551,0
212892.719,19.043,33.691,33.203,20.996,-6.348,0
212892.723,16.113,36.133,31.738,20.508,-28.809,0
212892.727,20.020,37.598,32.227,30.762,-14.160,0
212892.731,24.414,36.621,26.855,27.344,52.734,0
212892.734,22.949,37.598,28.320,18.555,61.523,0
212892.738,15.137,37.109,35.156,18.555,61.035,0
212892.742,6.836,31.738,32.715,20.508,60.547,0
212892.746,8.301,31.738,35.156,22.461,53.711,0
212892.750,5.859,36.621,35.645,16.602,8.789,0
212892.754,6.836,41.016,28.320,8.301,-49.805,0
212892.758,15.625,40.039,34.668,18.066,-3.906,0
212892.762,15.625,35.645,33.691,24.902,45.898,0
212892.766,16.113,35.645,29.785,24.414,36.621,0
212892.770,17.578,38.574,32.715,24.902,13.184,0
212892.774,14.648,35.156,27.832,18.066,1.953,0
212892.777,14.648,27.344,27.344,21.484,54.688,0
212892.781,15.625,26.367,32.715,27.832,80.566,0
212892.785,16.113,28.809,35.645,26.855,70.312,0
212892.789,13.672,33.203,36.621,22.949,83.984,0
212892.793,11.719,36.133,30.762,19.043,83.984,0
212892.797,11.719,38.574,29.297,11.230,64.453,0
212892.801,8.789,41.992,32.715,13.184,75.684,0
212892.805,11.719,41.016,33.203,25.879,90.820,0
212892.809,12.695,32.227,31.738,20.996,73.730,0
212892.813,6.836,24.902,28.809,10.254,52.734,0
212892.817,5.859,22.461,30.273,11.719,32.715,0
212892.820,9.277,29.297,33.203,18.066,18.555,0
212892.824,13.184,33.203,29.297,18.555,-4.395,0
212892.828,14.160,28.809,23.438,20.020,1.953,0
212892.832,15.137,34.180,30.273,25.879,4.883,0
212892.836,19.531,39.551,33.691,30.762,5.371,0
212892.840,18.555,37.109,24.414,25.391,13.672,0
212892.844,11.230,33.203,25.879,19.043,-21.973,0
212892.848,10.742,33.691,28.320,20.996,-36.621,0
212892.852,13.184,35.156,27.832,18.066,-14.648,0
212892.856,9.277,33.691,31.738,12.207,-4.883,0
212892.859,8.301,28.809,34.180,16.602,14.160,0
212892.863,10.742,26.367,31.250,23.926,23.438,0
212892.867,14.160,29.297,26.367,29.297,-11.719,0
212892.871,17.578,34.180,25.391,23.438,-17.578,0
212892.875,23.926,40.527,31.738,19.043,13.672,0
212892.879,21.973,41.016,32.715,25.391,30.762,0
212892.883,15.137,37.109,29.785,23.926,47.363,0
212892.887,14.648,39.062,29.785,20.996,74.219,0
212892.891,13.672,39.551,25.391,23.926,47.852,0
212892.895,13.184,36.133,30.273,24.414,34.180,0
212892.899,11.719,36.133,31.738,21.484,81.543,0
212892.902,7.324,32.715,26.855,10.742,35.156,0
212892.906,2.930,29.297,22.461,6.836,-0.488,0
212892.910,1.953,33.203,23.438,16.602,63.477,0
212892.914,6.348,36.621,25.391,19.531,66.895,0
212892.918,7.324,37.598,20.508,21.484,41.016,0
212892.922,7.812,38.574,25.879,18.555,51.270,0
212892.926,8.789,39.062,29.785,18.066,72.266,0
212892.930,7.324,36.133,21.484,18.066,42.969,0
212892.934,3.906,28.320,21.973,13.672,9.766,0
212892.938,3.418,22.949,28.320,15.625,21.973,0
212892.942,6.836,26.855,29.297,29.297,51.758,0
212892.945,7.812,34.180,30.273,29.297,65.430,0
212892.949,7.324,35.645,28.320,12.695,27.832,0
212892.953,5.371,34.668,26.367,14.648,16.113,0
212892.957,8.301,37.598,23.438,20.020,19.531,0
212892.961,13.184,38.086,27.344,19.531,26.855,0
212892.965,19.531,33.691,27.832,21.973,32.715,0
212892.969,21.484,34.180,22.949,28.320,28.809,0
212892.973,19.043,36.133,23.926,27.832,60.059,0
212892.977,17.090,32.227,27.344,28.809,80.078,0
212892.981,20.020,35.156,33.203,35.645,54.199,0
212892.984,22.461,39.551,34.668,32.715,56.152,0
212892.988,18.555,37.598,36.133,24.414,39.551,0
212892.992,19.531,35.156,36.133,18.555,-11.719,0
212892.996,12.207,31.738,25.879,18.555,19.531,0
212893.000,6.348,31.250,18.555,20.996,49.805,0
212893.004,23.926,35.645,21.484,25.391,48.340,0
212893.008,27.344,37.109,36.133,27.832,65.918,0
212893.012,5.859,34.668,42.969,18.066,71.289,0
212893.016,-0.977,36.133,36.133,14.648,105.469,0
212893.020,3.418,33.203,40.039,16.113,110.840,1
212893.024,7.324,32.227,40.527,14.648,63.965,0
212893.027,11.230,39.062,42.480,20.508,21.973,0
212893.031,6.836,41.016,41.016,24.414,18.555,0
212893.035,1.953,41.504,39.551,25.391,46.875,0
212893.039,6.348,40.527,37.109,23.438,41.504,0
212893.043,16.113,33.691,33.203,26.367,-1.465,0
212893.047,19.531,30.762,31.250,29.297,-12.207,0
212893.051,21.973,36.621,29.785,30.762,10.742,0
212893.055,20.996,41.016,32.227,32.715,-2.930,0
212893.059,19.531,35.645,32.227,24.902,17.090,0
212893.063,21.973,38.086,28.809,16.113,39.062,0
212893.067,23.926,44.922,29.785,14.648,-11.719,0
212893.070,20.996,41.504,31.738,17.090,15.625,0
212893.074,20.020,38.574,30.762,28.320,57.617,0
212893.078,20.508,36.133,34.668,33.203,46.875,0
212893.082,24.414,38.086,39.551,30.273,7.324,0
212893.086,20.508,40.039,44.922,33.691,41.504,0
212893.090,11.230,36.621,40.527,39.062,64.941,0
212893.094,10.254,29.297,32.227,37.598,64.941,0
212893.098,10.742,31.250,33.691,33.691,66.406,0
212893.102,10.254,37.109,32.715,27.344,46.387,0
212893.106,12.207,37.109,32.227,30.273,18.066,0
212893.109,11.230,39.551,30.273,41.016,9.277,0
212893.113,11.719,43.945,33.203,45.410,33.691,0
212893.117,13.672,42.969,43.457,39.551,60.547,0
212893.121,11.719,41.016,40.527,36.621,36.621,0
212893.125,11.230,42.480,32.715,32.715,-33.691,0
212893.129,11.230,37.598,34.668,19.531,-31.250,0
212893.133,11.230,34.668,37.598,25.391,3.418,0
212893.137,11.719,41.016,36.133,34.180,21.973,0
212893.141,7.324,38.574,29.297,24.902,13.672,0
212893.145,7.324,37.598,27.344,26.367,47.852,0
212893.149,11.230,40.527,32.715,31.738,55.664,0
212893.152,14.160,39.551,30.762,31.738,44.922,0
212893.156,14.648,41.016,23.926,26.367,41.016,0
212893.160,9.766,42.969,29.785,20.996,43.945,0
212893.164,6.348,37.109,41.992,25.879,55.176,0
212893.168,11.230,34.180,41.504,34.668,21.973,0
212893.172,13.184,33.203,37.109,30.273,-7.812,0
212893.176,8.301,33.203,35.156,24.414,12.207,0
212893.180,11.719,37.598,35.645,29.297,50.781,0
212893.184,18.555,40.039,35.645,33.691,40.527,0
212893.188,17.578,36.621,31.738,25.391,21.973,0
212893.192,13.184,31.250,26.855,17.578,64.941,0
212893.195,14.648,32.227,28.809,31.738,75.684,0
212893.199,20.020,32.227,30.273,35.156,51.270,0
212893.203,19.531,28.809,27.832,22.461,47.852,0
212893.207,20.020,25.879,31.250,23.926,48.828,0
212893.211,23.926,29.785,37.109,31.250,90.332,0
212893.215,23.438,39.062,32.715,26.855,65.918,0
212893.219,25.879,39.062,25.879,19.043,22.461,0
212893.223,24.902,35.645,25.391,24.902,19.043,0
212893.227,25.879,40.039,24.902,33.203,19.043,0
212893.231,29.785,37.598,27.344,32.227,-13.184,0
212893.234,30.273,36.621,32.715,36.133,-44.434,0
212893.238,30.273,41.992,34.180,44.434,15.137,0
212893.242,26.855,36.133,33.691,37.109,20.996,0
212893.246,23.926,28.809,31.738,23.438,-1.953,0
212893.250,18.066,29.785,29.785,20.020,22.949,0
212893.254,14.160,30.762,27.344,19.531,49.805,0
212893.258,17.090,33.203,28.320,20.020,62.500,0
212893.262,20.996,34.180,36.621,21.973,27.832,0
212893.266,27.344,34.180,34.668,25.879,2.441,0
212893.270,26.855,36.133,28.320,23.438,48.340,0
212893.274,22.461,37.109,34.180,25.391,35.645,0
212893.277,23.438,41.016,35.645,23.926,-8.301,0
212893.281,31.250,40.527,33.691,24.414,-7.812,0
212893.285,39.062,37.109,36.621,37.109,4.883,0
212893.289,32.715,32.227,40.039,35.156,26.855,0
212893.293,24.902,33.203,30.762,33.691,45.410,0
212893.297,24.902,36.133,18.555,35.156,30.762,0
212893.301,26.855,33.203,26.855,21.973,24.902,0
212893.305,29.297,31.250,30.273,16.113,11.719,0
212893.309,29.785,32.227,27.832,19.043,4.883,0
212893.313,26.855,32.227,29.297,18.555,16.602,0
212893.317,28.809,34.180,29.297,19.531,29.297,0
212893.320,28.809,37.109,39.062,16.602,19.531,0
212893.324,27.832,36.621,36.621,10.742,-22.949,0
212893.328,33.691,35.645,27.832,20.508,-20.508,0
212893.332,40.527,40.527,33.203,32.715,-9.766,0
212893.336,35.645,39.551,29.297,26.855,10.254,0
212893.340,26.855,31.738,25.391,18.555,28.809,0
212893.344,30.762,29.785,30.273,27.344,37.109,0
212893.348,34.668,31.738,31.250,27.832,37.109,0
212893.352,27.832,34.668,31.250,25.391,26.367,0
212893.356,25.879,38.086,30.273,25.879,33.203,0
212893.359,32.715,34.180,36.133,20.508,29.297,0
212893.363,27.832,28.809,33.691,19.043,36.133,0
212893.367,25.391,29.297,30.273,11.230,19.531,0
212893.371,28.320,33.203,36.133,12.207,-3.906,0
212893.375,26.367,36.133,36.621,26.367,1.465,0
212893.379,22.461,34.668,30.762,27.344,10.742,0
212893.383,14.160,30.762,24.414,18.555,17.578,0
212893.387,17.578,33.691,25.879,20.996,41.504,0
212893.391,25.391,40.039,30.762,30.273,52.246,0
212893.395,25.391,35.645,33.691,23.926,25.879,0
212893.399,28.809,29.297,32.715,22.949,4.883,0
212893.402,30.273,33.691,38.086,25.391,16.602,0
212893.406,28.809,37.109,38.086,22.461,7.812,0
212893.410,29.785,36.133,29.297,23.438,22.949,0
212893.414,32.227,36.621,30.762,24.414,55.664,0
212893.418,32.715,40.039,32.715,29.297,54.688,0
212893.422,30.762,40.527,34.180,31.738,41.992,0
212893.426,29.297,38.086,33.691,36.621,44.434,0
212893.430,26.855,34.180,28.320,31.738,69.824,0
212893.434,22.949,28.809,30.762,23.438,72.266,0
212893.438,21.484,31.738,35.645,23.438,81.543,0
212893.442,17.578,31.738,34.668,16.113,84.473,0
212893.445,13.184,32.227,26.855,13.672,83.496,0
212893.449,19.043,37.598,25.391,18.555,72.266,0
212893.453,23.926,38.086,27.344,27.832,74.707,0
212893.457,26.367,39.551,27.344,23.438,50.293,0
212893.461,23.926,40.527,31.738,13.672,34.668,0
212893.465,20.996,35.645,32.715,26.367,61.523,0
212893.469,20.508,34.180,29.297,27.832,66.895,0
212893.473,21.973,36.133,36.133,20.508,71.289,0
212893.477,20.996,33.203,37.598,21.484,59.082,0
212893.481,15.137,33.691,29.785,20.996,60.547,0
212893.484,13.672,33.691,27.832,12.695,53.711,0
212893.488,15.625,34.180,26.855,9.766,23.926,0
212893.492,23.438,37.598,33.203,18.066,8.789,0
212893.496,25.879,35.645,35.645,26.855,21.973,0
212893.500,25.391,40.039,31.250,26.367,44.922,0
212893.504,24.902,41.504,31.738,19.043,4.883,0
212893.508,24.414,36.621,34.180,25.391,-0.977,0
212893.512,28.320,40.527,35.645,34.668,23.926,0
212893.516,24.902,40.527,29.785,30.762,8.301,0
212893.520,18.555,35.645,33.691,30.273,6.348,0
212893.524,22.461,38.574,37.109,35.156,32.227,0
212893.527,27.832,40.527,25.879,30.762,34.668,0
212893.531,25.391,39.551,22.949,23.438,9.277,0
212893.535,24.414,40.527,24.414,22.949,17.090,0
212893.539,38.086,38.086,30.762,38.574,54.688,0
212893.543,39.551,39.062,37.109,49.316,66.895,0
212893.547,21.484,41.992,30.762,23.438,1.953,0
212893.551,18.555,36.621,33.203,13.184,20.020,0
212893.555,23.438,38.086,38.574,29.785,66.895,0
212893.559,23.438,38.574,26.367,26.855,10.742,0
212893.563,20.020,34.180,25.391,17.578,-31.738,0
212893.567,17.090,36.133,30.273,19.531,2.930,0
212893.570,11.230,41.016,29.297,23.438,65.918,0
212893.574,5.371,38.574,25.879,20.996,44.434,0
212893.578,7.812,35.156,23.438,22.461,62.988,0
212893.582,12.695,37.598,24.902,30.273,96.191,0
212893.586,10.254,35.156,27.832,24.902,61.035,0
212893.590,10.742,38.086,28.320,19.043,31.738,0
212893.594,12.207,35.645,28.809,15.625,13.184,0
212893.598,11.719,29.297,32.227,21.484,20.020,0
212893.602,18.066,36.133,31.250,36.621,20.508,0
212893.606,20.508,42.969,29.297,31.738,19.531,0
212893.609,18.555,37.598,36.621,23.438,29.297,0
212893.613,17.578,33.691,37.109,27.832,17.090,0
212893.617,16.113,36.133,32.227,34.668,2.441,0
212893.621,11.719,34.180,29.297,30.762,-20.996,0
212893.625,12.207,31.250,25.879,33.691,-4.883,0
212893.629,17.090,30.762,28.809,34.668,20.020,0
212893.633,15.137,34.180,32.715,29.297,67.871,0
212893.637,12.695,35.156,37.109,26.367,76.660,0
212893.641,14.160,34.668,36.133,20.508,49.316,0
212893.645,20.020,36.621,32.227,26.855,86.914,0
212893.649,20.508,36.621,34.180,28.809,73.242,0
212893.652,18.066,37.598,34.180,20.508,8.301,0
212893.656,25.879,40.039,37.109,26.367,9.277,0
212893.660,26.855,42.969,37.598,35.156,31.738,0
212893.664,20.508,38.086,34.180,27.832,27.832,0
212893.668,16.602,30.273,28.809,25.391,62.500,0
212893.672,11.719,29.785,27.832,26.367,53.223,0
212893.676,14.648,35.156,30.273,22.949,13.184,0
212893.680,19.531,38.574,28.809,23.926,44.922,0
212893.684,19.043,38.574,29.785,24.414,57.617,0
212893.688,21.484,37.598,31.738,25.391,30.273,0
212893.692,23.926,35.156,35.156,25.879,26.367,0
212893.695,22.949,34.180,36.621,20.508,-11.719,0
212893.699,23.438,34.668,28.320,18.555,-41.504,0
212893.703,17.090,36.621,26.855,20.996,-15.137,0
212893.707,17.578,34.180,31.250,28.320,5.371,0
212893.711,22.949,33.691,33.691,31.250,0.000,0
212893.715,17.578,35.156,27.344,20.508,-58.105,0
212893.719,18.066,35.156,18.555,20.020,-67.383,1
212893.723,20.508,34.668,26.855,24.902,-23.438,0
212893.727,19.043,34.180,29.297,25.879,4.883,0
212893.731,16.113,35.156,26.367,21.484,22.949,0
212893.734,11.230,33.691,30.273,17.578,0.488,0
212893.738,11.230,31.738,32.715,22.949,3.418,0
212893.742,8.789,32.715,33.203,20.996,-7.324,0
212893.746,3.906,31.738,34.180,20.020,25.879,0
212893.750,0.000,23.438,41.992,28.320,81.055,0
212893.754,1.465,26.367,44.922,26.855,36.133,0
212893.758,7.324,32.715,37.109,23.926,-4.883,0
212893.762,12.207,32.715,38.574,31.250,10.742,0
212893.766,8.301,28.809,36.621,33.203,45.898,0
212893.770,0.488,25.391,28.320,18.066,49.805,0
212893.774,2.441,27.344,24.414,16.113,61.523,0
212893.777,7.324,27.832,27.832,20.508,41.504,0
212893.781,7.812,28.809,27.832,20.020,28.320,0
212893.785,12.207,33.203,27.344,19.043,16.602,0
212893.789,14.648,34.180,37.109,10.742,-4.395,0
212893.793,18.555,36.133,39.062,21.484,50.781,0
212893.797,18.066,38.086,29.297,26.855,37.598,0
212893.801,11.719,37.109,27.832,21.973,39.551,0
212893.805,12.207,39.551,27.344,21.973,36.621,0
212893.809,15.137,37.598,19.043,22.461,8.301,0
212893.813,14.648,27.832,20.508,27.832,51.758,0
212893.817,9.277,30.273,25.391,25.391,56.152,0
212893.820,10.742,37.109,29.297,21.973,47.852,0
212893.824,13.184,35.645,28.809,28.320,79.590,0
212893.828,12.695,30.762,28.809,24.902,65.430,0
212893.832,13.184,29.297,32.715,15.137,24.902,0
212893.836,7.812,34.180,29.297,17.578,19.043,0
212893.840,5.371,40.527,27.832,28.320,59.082,0
212893.844,9.277,39.551,29.297,26.367,80.078,0
212893.848,5.859,34.668,29.785,23.438,69.824,0
212893.852,-2.441,33.203,27.344,22.949,41.016,0
212893.856,-9.766,31.738,24.902,21.484,86.914,0
212893.859,-8.301,27.344,23.438,20.996,99.609,0
212893.863,-1.953,24.902,25.391,18.066,70.312,0
212893.867,-1.953,23.438,31.738,19.043,70.312,0
212893.871,3.906,22.461,31.738,26.855,22.461,0
212893.875,6.836,26.855,28.320,23.926,-33.203,0
212893.879,0.488,26.855,32.715,14.160,-23.926,0
212893.883,-2.441,27.344,36.133,25.879,28.320,0
212893.887,-5.371,28.320,35.645,26.855,5.859,0
212893.891,-1.953,28.809,38.574,24.414,-28.809,0
212893.895,0.000,30.273,36.133,29.785,-6.348,0
212893.899,-5.371,24.414,30.273,26.367,46.875,0
212893.902,-6.348,21.484,34.180,19.531,62.012,0
212893.906,-4.883,24.902,34.180,19.043,35.645,0
212893.910,-2.441,24.902,28.320,19.531,44.434,0
212893.914,1.953,27.344,30.273,14.160,72.266,0
212893.918,8.301,34.668,33.203,12.207,64.453,0
212893.922,11.230,41.016,31.738,4.883,10.742,0
212893.926,9.766,41.016,32.715,13.184,60.547,0
212893.930,11.719,38.086,32.715,24.414,85.449,0
212893.934,14.160,39.551,31.738,19.043,49.805,0
212893.938,16.602,37.109,32.227,20.508,87.891,0
212893.942,16.113,35.645,36.133,23.926,101.074,0
212893.945,14.648,37.598,38.574,29.297,63.477,0
212893.949,13.184,33.203,30.762,34.180,41.992,0
212893.953,6.836,30.273,26.855,24.414,18.066,0
212893.957,8.301,34.180,27.832,22.461,25.391,0
212893.961,11.230,36.621,29.297,27.344,65.430,0
212893.965,9.766,39.551,27.344,28.809,51.270,0
212893.969,11.230,39.062,30.762,22.461,3.906,0
212893.973,11.230,39.551,37.598,18.555,-4.883,0
212893.977,3.906,34.180,34.180,24.414,20.020,0
212893.981,4.883,34.180,35.156,27.344,17.090,0
212893.984,5.371,35.156,38.086,24.414,-9.277,0
212893.988,-4.395,27.832,36.621,22.461,33.691,0
212893.992,-1.953,27.832,28.809,27.344,65.430,0
212893.996,-0.977,22.949,29.785,27.344,44.434,0
212894.000,-1.465,24.414,34.668,24.414,45.410,0
212894.004,4.395,37.109,33.203,26.367,58.594,0
212894.008,3.418,35.156,31.738,28.320,32.227,0
212894.012,1.953,31.250,29.785,24.902,7.324,0
212894.016,3.906,32.715,27.832,20.508,35.156,0
212894.020,2.441,34.180,34.180,23.926,28.809,0
212894.024,4.395,38.086,37.109,32.715,-4.883,0
212894.027,13.184,39.551,36.133,28.320,-25.879,0
212894.031,10.742,35.645,38.086,19.043,3.418,0
212894.035,10.742,37.109,37.109,26.367,40.039,0
212894.039,7.324,37.109,34.668,20.996,43.457,0
212894.043,2.441,28.320,29.785,18.555,39.062,0
212894.047,5.371,26.855,27.832,29.297,27.344,0
212894.051,5.859,30.762,29.785,33.203,38.574,0
212894.055,12.695,33.691,29.785,31.738,5.859,0
212894.059,20.508,36.621,30.273,28.809,-18.555,0
212894.063,26.367,41.992,34.180,33.203,26.855,0
212894.067,28.320,44.434,30.762,34.668,72.266,0
212894.070,24.414,43.457,36.621,23.438,32.227,0
212894.074,16.113,39.551,33.203,14.160,-0.977,0
212894.078,12.207,35.156,23.926,23.438,46.875,0
212894.082,17.090,33.691,31.250,37.109,52.246,0
212894.086,19.531,35.156,38.086,39.062,52.246,0
212894.090,13.184,33.691,38.086,31.738,79.102,0
212894.094,11.719,32.227,34.668,31.250,76.660,0
212894.098,9.277,31.738,31.250,27.344,74.219,0
212894.102,8.789,33.691,31.738,26.367,72.754,0
212894.106,13.672,37.598,27.344,20.996,26.367,0
212894.109,5.859,35.645,23.438,14.160,15.137,0
212894.113,-0.488,33.691,26.367,19.043,54.688,0
212894.117,2.441,34.180,27.344,12.695,31.250,0
212894.121,5.859,37.109,29.785,12.695,34.668,0
212894.125,13.672,40.039,39.062,32.715,84.961,0
212894.129,11.719,34.668,39.551,30.273,41.016,0
212894.133,9.766,28.320,31.738,20.508,8.789,0
212894.137,14.160,29.785,33.203,22.461,38.086,0
212894.141,9.766,28.809,31.250,22.461,84.961,0
212894.145,10.742,30.273,23.926,25.879,94.238,0
212894.149,14.160,31.250,24.902,25.879,74.219,0
212894.152,11.230,30.762,26.855,20.996,86.914,0
212894.156,10.254,31.738,27.344,15.137,77.637,0
212894.160,13.184,37.109,31.738,13.184,11.719,0
212894.164,10.742,40.039,36.621,9.277,-21.484,0
212894.168,9.766,33.691,35.645,16.602,14.160,0
212894.172,15.625,34.180,34.180,22.949,45.410,0
212894.176,16.113,32.715,38.086,27.344,45.898,0
212894.180,12.207,25.879,37.598,32.715,55.664,0
212894.184,12.207,30.273,28.320,28.320,69.824,0
212894.188,12.207,38.086,27.344,23.438,46.387,0
212894.192,8.789,35.645,29.785,24.414,51.270,0
212894.195,8.301,32.227,27.344,27.832,37.598,0
212894.199,11.230,37.598,25.391,26.367,-24.902,0
212894.203,11.230,41.504,28.320,23.438,-19.531,0
212894.207,11.230,39.551,29.297,18.555,-5.859,0
212894.211,9.277,38.574,31.738,19.531,3.418,0
212894.215,9.766,39.062,31.250,29.297,8.301,0
212894.219,15.625,38.574,29.297,34.180,-14.648,0
212894.223,15.625,40.039,35.156,35.156,-16.602,0
212894.227,14.160,44.434,34.180,32.227,9.277,0
212894.231,13.184,38.086,24.414,29.297,20.996,0
212894.234,13.672,34.180,20.996,26.855,21.484,0
212894.238,11.719,37.598,23.438,24.414,20.508,0
212894.242,14.160,39.062,28.320,28.320,0.977,0
212894.246,11.230,35.156,28.320,21.484,9.277,0
212894.250,6.836,32.715,20.508,11.230,19.531,0
212894.254,12.207,32.715,22.461,11.230,-16.602,0
212894.258,11.230,30.762,31.250,18.066,29.297,0
212894.262,10.254,30.762,31.250,24.902,56.152,0
212894.266,12.695,28.809,29.297,20.020,23.926,0
212894.270,12.207,32.227,32.715,21.484,11.230,0
212894.274,12.207,37.109,37.598,22.461,28.809,0
212894.277,13.184,36.133,32.715,24.902,38.574,2
212894.281,13.184,38.574,24.414,26.367,13.184,0
212894.285,10.742,34.180,25.879,13.184,31.738,0
212894.289,7.812,28.320,25.391,6.836,36.133,0
212894.293,9.277,31.250,25.879,15.625,44.434,0
212894.297,14.160,29.297,35.645,19.043,21.484,0
212894.301,14.648,25.879,39.551,18.555,13.672,0
212894.305,14.160,29.785,33.691,26.855,45.898,0
212894.309,15.137,29.297,32.227,27.832,31.250,0
212894.313,21.973,26.855,32.715,29.297,58.594,0
212894.317,29.297,30.762,29.297,38.574,78.613,0
212894.320,23.438,27.344,28.809,35.156,64.453,0
212894.324,16.113,23.926,27.344,25.391,70.312,0
212894.328,17.578,27.344,27.832,26.855,71.777,0
212894.332,15.625,26.367,32.715,26.367,31.250,0
212894.336,13.672,29.297,29.785,25.879,60.059,0
212894.340,17.578,38.574,28.809,25.879,68.359,0
212894.344,13.184,38.086,30.762,13.184,18.555,0
212894.348,11.230,31.250,34.668,12.207,14.648,0
212894.352,11.719,31.738,33.691,23.926,37.598,0
212894.356,11.230,29.785,28.809,22.461,36.133,0
212894.359,15.137,29.785,28.320,23.926,42.480,0
212894.363,16.113,32.715,30.762,27.344,63.477,0
212894.367,16.602,36.133,31.250,24.414,23.438,0
212894.371,15.137,41.016,24.902,26.855,11.719,0
212894.375,13.672,39.551,27.832,25.879,10.254,0
212894.379,15.137,33.691,28.320,23.438,26.367,0
212894.383,18.066,32.715,27.832,22.461,36.621,0
212894.387,19.043,31.250,28.809,20.996,6.348,0
212894.391,18.555,27.832,28.809,20.020,24.414,0
212894.395,17.090,27.344,36.133,20.508,26.855,0
212894.399,19.043,34.668,37.109,21.484,21.973,0
212894.402,19.043,38.574,37.598,17.578,28.320,0
212894.406,15.137,36.133,37.598,20.020,-2.930,0
212894.410,16.113,33.691,34.180,33.203,0.488,0
212894.414,17.090,35.156,35.156,35.645,29.785,0
212894.418,16.113,38.574,34.180,23.438,42.480,0
212894.422,15.137,33.691,29.785,20.508,66.406,0
212894.426,11.230,30.762,27.344,18.555,27.832,0
212894.430,7.812,31.738,24.414,17.090,45.898,0
212894.434,14.648,35.156,20.996,22.461,70.312,0
212894.438,17.090,33.203,28.320,28.320,45.898,0
212894.442,16.602,30.762,33.691,29.297,41.016,0
212894.445,21.484,38.574,32.715,26.367,24.414,0
212894.449,23.438,39.062,30.273,23.926,-19.043,0
212894.453,19.043,36.133,37.109,28.809,2.441,0
212894.457,17.090,37.598,39.062,35.156,18.066,0
212894.461,17.578,39.062,34.668,37.109,-15.625,0
212894.465,14.160,37.598,33.691,27.344,12.695,0
212894.469,16.113,33.203,30.273,25.879,7.324,0
212894.473,20.996,35.645,24.902,25.391,-12.207,0
212894.477,18.066,36.621,20.508,19.531,30.273,0
212894.481,19.043,34.180,25.879,25.391,25.879,0
212894.484,24.414,33.203,29.785,29.297,35.645,0
212894.488,21.484,31.738,34.668,23.438,9.766,0
212894.492,23.438,31.250,38.574,18.555,-8.301,0
212894.496,29.785,31.738,31.250,22.949,25.391,0
212894.500,27.832,34.668,31.250,29.785,16.113,0
212894.504,32.715,42.969,35.645,37.598,6.836,0
212894.508,34.668,45.898,32.227,37.598,4.883,0
212894.512,25.391,37.598,27.344,31.250,26.367,0
212894.516,22.949,38.086,28.320,34.668,65.430,0
212894.520,22.461,38.086,28.809,33.203,58.105,0
212894.524,17.578,34.668,28.320,27.344,34.668,0
212894.527,14.648,35.645,30.762,29.297,33.203,0
212894.531,13.672,33.691,30.273,29.297,41.016,0
212894.535,15.625,35.156,28.320,21.484,41.016,0
212894.539,19.531,41.016,27.344,15.625,20.996,0
212894.543,21.973,39.551,28.320,20.020,34.668,0
212894.547,20.508,36.133,34.180,31.738,36.621,0
212894.551,16.602,35.156,32.715,36.133,22.461,0
212894.555,15.625,37.598,31.738,27.344,73.242,0
212894.559,17.090,39.062,32.715,20.508,78.125,0
212894.563,17.090,34.668,28.809,18.066,61.035,0
212894.567,15.625,33.691,27.344,12.695,49.805,0
212894.570,15.625,33.203,26.855,17.090,61.035,0
212894.574,14.160,31.250,25.879,21.973,73.730,0
212894.578,14.160,29.297,31.738,20.996,34.668,0
212894.582,17.578,31.738,36.133,20.508,-18.555,0
212894.586,18.555,34.668,29.297,22.461,-8.301,0
212894.590,18.066,32.715,29.785,32.227,61.523,0
212894.594,19.531,34.180,32.227,30.762,73.242,0
212894.598,24.414,33.691,30.762,26.855,64.941,0
212894.602,30.762,33.691,36.133,35.645,84.473,0
212894.606,26.367,32.227,32.715,32.715,79.590,0
212894.609,7.324,24.902,26.855,16.602,31.738,0
212894.613,1.465,28.320,29.297,11.719,37.598,0
212894.617,6.348,33.691,24.902,13.672,28.809,0
212894.621,1.953,30.273,18.066,9.277,11.230,0
212894.625,3.906,26.855,17.090,6.348,45.410,0
212894.629,8.789,29.297,21.973,9.277,21.484,0
212894.633,9.766,29.297,21.484,16.113,41.992,0
212894.637,14.160,30.762,25.879,28.809,89.355,0
212894.641,20.508,34.668,35.645,30.762,56.641,0
212894.645,16.113,32.227,31.250,18.066,26.855,0
212894.649,8.789,26.367,22.461,15.137,38.574,0
212894.652,13.184,24.414,24.414,19.043,-5.371,0
212894.656,17.578,29.297,27.344,19.531,-11.719,0
212894.660,13.672,30.273,25.391,14.160,29.297,0
212894.664,18.555,30.273,22.461,19.531,35.156,0
212894.668,22.949,32.227,22.949,26.367,64.453,0
212894.672,17.090,36.133,19.043,4.883,21.484,0
212894.676,16.113,35.645,20.996,4.883,1.465,0
212894.680,21.973,36.133,29.785,33.691,50.293,0
212894.684,27.344,43.945,31.250,40.039,31.250,0
212894.688,23.926,39.062,31.738,33.691,13.672,0
212894.692,15.137,28.320,34.668,30.762,45.898,0
212894.695,13.184,26.367,37.109,26.367,69.336,0
212894.699,15.137,27.832,33.691,28.809,52.246,0
212894.703,11.230,31.738,32.715,28.320,60.059,0
212894.707,9.277,35.645,32.715,23.926,64.453,0
212894.711,9.277,36.621,30.273,28.320,59.570,0
212894.715,10.742,37.109,34.668,24.902,45.898,0
212894.719,17.578,38.574,38.086,14.648,6.348,0
212894.723,20.508,35.645,30.273,20.996,15.625,0
212894.727,22.949,36.621,26.367,30.762,48.340,0
212894.731,21.484,34.668,25.879,21.973,72.266,0
212894.734,16.113,28.320,26.855,18.555,53.223,0
212894.738,17.578,32.227,30.762,24.414,46.387,0
212894.742,13.184,30.762,26.855,30.762,56.641,0
212894.746,12.695,30.273,25.879,37.598,29.297,0
212894.750,10.742,33.691,29.297,31.250,26.855,0
212894.754,8.789,35.156,33.691,28.809,41.016,0
212894.758,10.254,36.621,34.668,29.785,68.359,0
212894.762,7.324,34.180,28.320,25.879,66.895,0
212894.766,10.742,33.691,30.273,23.438,48.828,0
212894.770,18.066,35.645,28.809,22.949,20.508,0
212894.774,19.043,37.109,27.832,20.996,7.812,0
212894.777,13.672,36.621,25.879,11.230,7.812,0
212894.781,9.766,33.203,25.879,10.742,21.484,0
212894.785,14.160,32.715,30.273,20.508,32.227,0
212894.789,17.578,32.227,32.227,23.926,30.762,0
212894.793,16.113,36.133,35.156,31.738,32.227,0
212894.797,13.672,40.527,34.668,30.762,14.160,0
212894.801,15.137,37.109,30.273,29.297,20.508,0
212894.805,17.090,37.598,30.273,30.273,36.133,0
212894.809,13.184,39.062,30.762,25.879,26.367,0
212894.813,13.184,37.598,27.344,28.809,24.414,0
212894.817,20.996,40.039,25.391,33.691,33.691,0
212894.820,23.926,41.504,27.832,28.809,10.742,0
212894.824,19.531,41.016,23.438,18.555,-5.859,0
212894.828,12.695,32.715,21.484,24.414,43.945,0
212894.832,10.254,21.484,28.320,37.598,58.105,0
212894.836,16.602,20.020,35.156,31.738,57.129,0
212894.840,17.578,26.855,33.203,27.344,52.246,0
212894.844,17.090,34.668,30.273,34.668,41.016,0
212894.848,19.531,37.109,31.250,35.156,80.566,0
212894.852,18.555,37.109,28.809,33.691,44.922,0
212894.856,23.438,41.992,22.461,33.203,-18.555,0
212894.859,27.832,39.551,23.926,35.156,-13.672,0
212894.863,21.973,32.227,28.320,35.156,19.531,0
212894.867,13.672,31.738,30.273,25.879,0.000,0
212894.871,12.695,30.762,30.762,30.273,-8.789,0
212894.875,18.555,30.273,27.832,41.504,35.156,0
212894.879,25.391,39.062,32.715,40.527,29.785,0
212894.883,30.273,39.551,36.133,39.062,14.160,0
212894.887,27.344,33.203,29.785,34.668,0.977,0
212894.891,26.367,33.691,24.414,32.227,5.371,0
212894.895,30.762,35.645,29.297,29.785,-2.441,0
212894.899,33.203,39.062,35.645,31.738,29.785,0
212894.902,35.156,41.016,37.598,34.668,50.781,0
212894.906,33.691,42.969,35.156,26.855,41.016,0
212894.910,33.203,43.945,33.203,25.391,45.410,0
212894.914,30.273,39.551,30.762,26.367,27.344,0
212894.918,29.297,37.109,31.250,32.227,33.691,0
212894.922,26.855,35.645,28.320,33.691,63.965,0
212894.926,21.484,35.645,29.297,31.250,56.641,1
212894.930,20.020,35.156,35.645,36.621,48.828,0
212894.934,18.066,35.645,35.156,36.621,64.941,0
212894.938,17.090,39.062,33.691,34.180,94.727,0
212894.942,17.578,34.180,38.086,29.297,72.266,0
212894.945,17.090,29.785,34.180,20.508,42.969,0
212894.949,20.020,32.227,33.691,21.484,44.434,0
212894.953,20.996,34.180,41.992,24.902,37.109,0
212894.957,13.672,30.762,33.203,21.484,52.246,0
212894.961,7.324,25.879,23.926,13.672,23.438,0
212894.965,13.672,26.855,27.832,14.160,41.016,0
212894.969,16.602,30.762,29.297,16.602,72.754,0
212894.973,11.719,29.785,27.832,11.230,12.695,0
212894.977,15.625,26.367,30.273,14.160,-9.277,0
212894.981,20.508,30.762,31.250,27.832,34.180,0
212894.984,22.461,32.227,33.691,29.297,57.617,0
212894.988,29.297,31.250,30.273,31.250,35.645,0
212894.992,28.809,33.203,26.367,33.691,51.270,0
212894.996,31.250,34.668,31.738,37.598,46.875,0
212895.000,38.574,40.039,37.109,43.945,35.645,0
212895.004,33.691,38.086,35.645,38.086,25.391,0
212895.008,25.879,30.762,31.738,35.156,43.457,0
212895.012,25.879,29.785,29.297,40.527,76.660,0
212895.016,29.297,33.203,29.297,42.480,42.480,0
212895.020,30.762,31.250,36.133,45.898,35.156,0
212895.024,34.668,29.297,37.109,43.457,61.523,0
212895.027,40.527,33.691,33.691,43.457,67.871,0
212895.031,37.598,38.086,34.668,49.316,72.266,0
212895.035,24.414,36.621,36.133,39.062,66.895,0
212895.039,17.578,36.133,33.203,29.297,69.824,0
212895.043,15.625,36.621,34.668,34.180,69.336,0
212895.047,17.578,35.645,38.574,30.762,10.742,0
212895.051,20.996,33.691,38.574,22.949,15.137,0
212895.055,17.090,30.762,32.715,25.879,42.969,0
212895.059,16.113,31.250,30.762,24.414,-2.930,0
212895.063,21.973,32.227,38.086,25.879,0.488,0
212895.067,23.438,31.738,38.574,29.297,44.922,0
212895.070,20.020,35.156,32.227,24.414,49.805,0
212895.074,15.137,41.992,34.180,18.066,11.230,0
212895.078,14.648,40.039,33.691,16.602,10.742,0
212895.082,18.066,37.598,33.691,20.996,27.832,0
212895.086,17.090,41.016,32.715,22.949,30.762,0
212895.090,15.625,40.039,31.738,24.414,13.672,0
212895.094,18.066,38.086,33.203,22.949,-13.672,0
212895.098,20.020,36.133,31.250,35.645,37.598,0
212895.102,14.160,32.715,28.320,41.016,52.734,0
212895.106,8.301,28.809,29.785,26.367,16.113,0
212895.109,7.812,27.344,32.715,20.020,24.902,0
212895.113,9.277,31.250,27.832,21.973,-9.766,0
212895.117,8.789,29.297,24.414,21.484,-6.836,0
212895.121,11.719,27.344,26.367,23.926,29.785,0
212895.125,11.719,32.715,23.438,26.367,38.086,0
212895.129,7.324,35.156,18.555,20.508,41.992,0
212895.133,6.836,34.668,18.066,17.578,42.969,0
212895.137,12.207,38.574,22.949,16.602,21.484,0
212895.141,20.020,43.457,25.879,19.531,33.203,0
212895.145,14.648,39.551,20.020,22.461,84.473,0
212895.149,10.254,36.621,18.066,24.414,72.754,0
212895.152,14.648,36.133,22.461,25.391,11.230,0
212895.156,16.602,36.133,22.949,21.973,23.438,0
212895.160,21.973,37.598,24.902,25.879,76.172,0
212895.164,26.855,38.086,25.391,33.203,66.406,0
212895.168,19.531,38.086,25.879,27.832,65.430,0
212895.172,16.602,40.527,26.855,25.391,60.059,0
212895.176,24.902,47.363,25.391,36.133,86.914,0
212895.180,27.344,47.852,27.832,34.668,67.383,0
212895.184,24.414,42.480,33.203,29.297,-14.160,0
212895.188,20.020,41.504,34.180,26.367,2.930,0
212895.192,19.043,37.598,26.367,21.973,22.461,0
212895.195,15.137,34.180,23.926,13.184,-21.484,0
212895.199,8.789,35.645,27.344,8.789,-18.555,0
212895.203,7.324,36.621,30.762,15.137,8.789,0
212895.207,5.859,31.738,33.203,19.043,15.137,0
212895.211,7.812,30.762,30.273,18.555,6.348,0
212895.215,5.859,29.297,25.879,19.531,-38.574,0
212895.219,0.000,26.855,33.203,19.531,-26.367,0
212895.223,4.395,31.738,34.668,21.973,18.555,0
212895.227,8.789,34.180,29.785,22.461,15.137,0
212895.231,10.254,34.180,34.668,26.367,-0.488,0
212895.234,13.184,37.598,33.691,27.832,-27.344,0
212895.238,15.625,33.691,30.762,22.949,-10.742,0
212895.242,13.672,24.902,26.855,19.043,-20.508,0
212895.246,10.742,22.949,21.973,15.137,-16.602,0
212895.250,17.090,28.320,24.414,26.855,29.785,0
