timestamps,TP9,AF7,AF8,TP10,Right AUX,Marker0
213011.883,16.113,23.926,26.855,23.926,40.039,0
213011.887,13.672,20.508,33.691,16.113,15.625,0
213011.891,22.461,18.555,33.203,20.020,31.250,0
213011.895,19.531,16.113,30.762,23.926,45.898,0
213011.899,-5.859,17.578,28.320,26.855,41.992,0
213011.902,-19.043,20.020,24.902,27.344,37.598,0
213011.906,-20.996,23.438,29.785,14.648,-3.906,0
213011.910,-16.113,25.391,30.762,9.277,9.277,0
213011.914,-3.418,21.973,29.785,19.531,44.434,0
213011.918,-8.301,21.484,31.738,20.508,21.973,0
213011.922,-4.883,23.438,27.832,22.949,19.531,0
213011.926,12.207,26.367,24.902,23.926,29.785,0
213011.930,15.625,30.762,26.855,20.020,30.762,0
213011.934,18.555,29.297,21.484,22.461,20.020,0
213011.938,16.113,24.414,23.438,19.043,47.852,0
213011.942,16.602,21.484,20.996,18.555,54.688,0
213011.945,18.555,23.438,14.648,23.438,20.020,0
213011.949,15.625,28.809,22.949,31.250,17.578,0
213011.953,13.184,30.273,26.367,28.320,-18.066,0
213011.957,18.066,29.297,21.973,21.973,-19.043,0
213011.961,26.367,26.855,20.996,21.484,71.777,0
213011.965,31.738,30.762,24.414,24.902,51.758,0
213011.969,29.297,31.250,24.414,29.785,53.711,0
213011.973,28.320,29.785,25.391,35.156,58.594,1
213011.977,27.832,32.715,22.949,33.203,51.758,0
213011.981,25.391,27.832,19.531,24.414,38.574,0
213011.985,24.414,25.391,18.555,21.973,21.484,0
213011.988,20.508,23.926,17.578,26.855,47.852,0
213011.992,17.090,21.484,26.367,25.391,41.504,0
213011.996,14.648,22.949,33.691,20.508,37.109,0
213012.000,15.137,29.297,34.668,26.855,32.227,0
213012.004,16.602,35.156,32.715,24.902,43.945,0
213012.008,16.602,29.785,25.879,16.602,46.387,0
213012.012,15.625,28.809,19.043,15.625,16.113,0
213012.016,15.137,33.203,22.949,15.625,17.090,0
213012.020,15.625,28.320,26.855,19.531,41.504,0
213012.024,17.578,23.926,25.879,19.043,-6.836,0
213012.027,17.578,24.902,28.320,19.043,6.348,0
213012.031,16.602,28.320,27.344,16.602,45.898,0
213012.035,18.066,28.320,23.926,20.996,41.504,0
213012.039,18.066,25.879,26.367,24.414,-7.812,0
213012.043,13.184,24.902,31.250,14.648,-25.391,0
213012.047,12.695,25.879,26.367,16.113,14.648,0
213012.051,20.996,28.320,18.555,20.020,28.809,0
213012.055,26.367,29.785,18.555,16.602,36.133,0
213012.059,28.320,29.297,18.066,16.602,26.367,0
213012.063,26.855,28.320,18.555,27.344,64.453,0
213012.067,25.879,27.344,22.461,32.715,37.109,0
213012.070,26.855,26.367,26.855,26.367,16.602,0
213012.074,24.414,23.438,29.297,23.926,22.461,0
213012.078,22.949,19.043,28.320,25.879,20.020,0
213012.082,20.996,19.043,27.832,21.973,26.367,0
213012.086,20.508,22.949,26.367,18.066,48.828,0
213012.090,24.902,27.344,28.320,24.414,41.016,0
213012.094,30.762,24.902,31.250,28.320,10.742,0
213012.098,32.715,23.926,27.344,28.809,34.668,0
213012.102,24.902,29.297,24.414,24.414,44.434,0
213012.106,18.066,31.250,21.973,20.020,70.312,0
213012.110,22.461,32.227,22.461,26.855,85.449,0
213012.113,26.367,31.738,23.926,23.926,57.129,0
213012.117,21.973,26.855,26.855,16.602,43.945,0
213012.121,14.648,23.926,28.320,15.625,44.434,0
213012.125,9.766,26.855,26.855,14.648,25.879,0
213012.129,11.719,29.297,25.879,17.090,20.996,0
213012.133,18.066,33.203,26.367,20.508,21.973,0
213012.137,15.625,32.715,22.949,22.461,21.484,0
213012.141,9.766,26.367,22.949,24.902,51.758,0
213012.145,20.020,23.926,18.066,30.273,54.688,0
213012.149,23.438,26.855,17.090,26.855,-2.930,0
213012.152,17.578,24.902,23.438,27.344,2.441,0
213012.156,25.879,23.438,26.367,34.668,48.828,0
213012.160,29.297,26.855,25.879,32.227,40.527,0
213012.164,24.902,27.344,22.949,26.367,35.645,0
213012.168,22.949,30.762,24.902,33.691,65.430,0
213012.172,21.973,30.762,25.879,34.668,80.078,0
213012.176,24.902,28.320,23.926,27.344,58.594,0
213012.180,24.414,27.832,23.438,28.320,51.270,0
213012.184,23.438,29.785,24.414,22.949,55.176,0
213012.188,30.762,30.762,26.855,16.113,12.695,0
213012.192,35.156,32.715,27.832,16.602,19.531,0
213012.195,34.180,32.715,26.367,20.996,63.965,0
213012.199,31.250,30.762,26.855,31.250,72.754,0
213012.203,22.461,32.715,23.438,25.879,50.293,0
213012.207,16.113,31.250,21.484,19.531,9.766,0
213012.211,16.602,29.297,26.855,26.855,53.223,0
213012.215,14.648,30.762,34.180,26.855,56.152,0
213012.219,13.184,30.762,28.320,25.391,55.664,0
213012.223,16.602,30.762,20.996,24.414,66.406,0
213012.227,11.719,29.297,20.020,20.020,40.039,0
213012.231,6.348,29.297,20.508,19.531,26.855,0
213012.235,9.766,27.832,22.461,16.113,-16.602,0
213012.238,13.672,28.809,21.484,10.254,-33.203,0
213012.242,13.672,27.832,21.973,16.602,6.836,0
213012.246,19.043,25.391,24.902,22.461,-8.301,0
213012.250,29.297,29.785,26.367,22.461,-10.742,0
213012.254,30.273,31.738,26.367,25.879,26.855,0
213012.258,29.297,32.227,26.855,27.344,38.574,0
213012.262,27.832,30.273,26.367,24.902,44.434,0
213012.266,24.902,29.297,21.973,26.855,7.812,0
213012.270,19.043,24.902,23.438,30.762,8.301,0
213012.274,21.484,25.391,27.344,34.180,41.992,0
213012.277,26.855,29.785,25.391,38.086,2.930,0
213012.281,32.715,27.832,25.391,32.227,-10.742,0
213012.285,29.785,28.320,26.367,18.066,9.766,0
213012.289,24.902,28.809,25.391,21.484,18.066,0
213012.293,27.832,31.738,25.391,24.902,3.418,0
213012.297,27.344,31.250,25.879,17.578,19.043,0
213012.301,21.973,28.809,26.367,20.508,31.738,0
213012.305,29.785,32.227,26.855,34.180,43.945,0
213012.309,40.039,33.203,27.832,42.480,21.484,0
213012.313,41.504,33.203,27.344,37.598,-5.371,0
213012.317,39.551,35.156,27.832,33.691,16.602,0
213012.320,32.715,34.180,23.926,33.203,33.203,0
213012.324,30.762,31.250,21.484,29.785,40.527,0
213012.328,29.785,28.320,31.738,21.973,46.875,0
213012.332,25.391,24.902,30.273,21.973,65.430,0
213012.336,21.484,23.926,19.531,26.855,59.082,0
213012.340,20.508,25.391,27.832,33.691,41.504,0
213012.344,21.484,23.926,31.250,30.762,48.828,0
213012.348,26.367,18.066,27.832,23.438,57.617,0
213012.352,28.809,19.531,25.391,27.832,50.781,0
213012.356,27.344,24.414,24.414,27.344,57.129,0
213012.360,25.879,21.973,24.414,23.438,65.918,0
213012.363,23.926,21.973,24.902,20.996,60.547,0
213012.367,23.926,30.273,26.855,23.438,63.477,0
213012.371,28.809,30.762,26.367,27.832,62.500,0
213012.375,30.762,26.367,23.926,28.809,66.406,0
213012.379,25.391,22.461,20.508,24.902,81.055,0
213012.383,20.996,22.461,23.926,25.391,57.617,0
213012.387,22.949,24.902,23.926,27.344,27.344,0
213012.391,22.949,24.902,22.461,28.320,38.574,0
213012.395,21.973,24.902,27.344,28.320,75.195,0
213012.399,22.461,27.344,27.344,22.949,63.965,0
213012.402,20.996,28.809,26.855,28.320,32.715,0
213012.406,17.090,26.367,27.344,33.691,40.039,0
213012.410,26.367,26.855,27.344,38.086,52.734,0
213012.414,35.156,28.320,28.809,41.504,35.156,0
213012.418,29.785,28.320,27.832,39.551,-1.465,0
213012.422,34.668,32.715,30.273,44.922,16.113,0
213012.426,43.457,38.086,31.250,47.363,53.223,0
213012.430,42.480,35.645,25.879,40.039,56.641,0
213012.434,40.039,29.297,23.926,30.762,34.180,0
213012.438,44.434,29.785,23.926,32.715,60.547,0
213012.442,52.246,32.715,25.879,38.086,40.039,0
213012.445,50.293,35.156,28.809,39.551,5.859,0
213012.449,45.410,38.086,28.809,41.504,45.898,0
213012.453,44.434,32.715,24.902,40.039,17.578,0
213012.457,41.992,29.785,24.902,40.527,18.555,0
213012.461,38.574,34.180,30.273,41.016,66.406,0
213012.465,34.180,36.133,32.227,41.504,47.852,0
213012.469,36.133,34.180,30.762,41.016,16.113,0
213012.473,37.598,33.691,27.832,38.086,13.184,0
213012.477,35.645,33.203,26.855,40.527,-1.953,0
213012.481,35.645,33.203,30.273,42.480,-40.527,0
213012.485,35.645,32.227,33.203,49.316,-10.254,0
213012.488,36.133,31.738,32.227,50.781,0.000,0
213012.492,31.738,32.227,28.320,42.969,-14.648,0
213012.496,31.738,31.738,29.297,42.480,-9.766,0
213012.500,33.691,28.320,29.785,40.527,-5.859,0
213012.504,27.344,26.855,28.809,31.250,15.625,0
213012.508,21.973,28.809,26.855,27.344,27.344,0
213012.512,25.391,28.809,29.785,30.273,42.969,0
213012.516,27.832,30.762,32.715,33.203,39.551,0
213012.520,28.320,32.227,22.461,33.203,11.719,0
213012.524,29.785,28.809,20.020,24.414,-17.090,0
213012.527,32.715,25.391,25.879,26.367,27.832,0
213012.531,38.574,27.832,26.855,37.598,37.598,0
213012.535,27.344,27.832,29.297,23.926,-12.695,0
213012.539,6.348,25.879,33.203,6.348,-15.137,0
213012.543,0.977,26.855,30.762,7.324,26.855,0
213012.547,1.953,24.902,27.344,7.812,52.246,0
213012.551,-0.488,23.926,25.879,9.277,23.438,0
213012.555,-0.977,24.902,23.438,14.160,41.992,0
213012.559,-1.465,25.879,23.926,13.672,61.035,0
213012.563,-7.812,26.855,23.926,5.371,54.688,0
213012.567,-5.859,26.855,24.414,-3.418,57.129,0
213012.570,3.906,29.297,25.879,0.977,24.902,0
213012.574,2.930,33.691,25.391,13.672,82.031,0
213012.578,0.000,38.086,24.902,20.996,72.266,0
213012.582,5.859,38.574,21.484,19.043,15.137,0
213012.586,11.719,36.133,22.949,17.090,37.109,0
213012.590,15.625,37.109,22.461,17.578,26.855,0
213012.594,15.625,40.039,18.555,20.020,29.785,0
213012.598,22.461,39.062,23.926,26.855,43.457,0
213012.602,34.668,37.598,25.879,31.250,59.570,0
213012.606,32.227,36.621,19.043,29.785,29.785,0
213012.610,26.367,37.109,18.555,23.926,-19.531,0
213012.613,27.344,38.574,22.461,13.672,-31.738,0
213012.617,24.414,37.598,26.367,16.113,-2.930,0
213012.621,24.902,36.133,25.879,24.414,35.645,0
213012.625,25.391,34.668,25.879,21.484,22.461,0
213012.629,25.879,34.180,29.297,19.531,-8.301,0
213012.633,23.438,32.227,30.273,24.902,4.395,1
213012.637,26.367,33.691,31.250,29.785,-3.418,0
213012.641,27.832,36.621,32.227,29.297,-24.414,0
213012.645,23.438,34.180,30.762,27.832,-6.836,0
213012.649,24.902,33.691,29.297,29.785,34.180,0
213012.652,24.902,33.203,23.438,29.785,50.781,0
213012.656,21.973,37.109,20.508,25.391,-7.812,0
213012.660,20.020,37.598,27.344,22.461,7.812,0
213012.664,18.555,27.344,32.715,25.879,32.227,0
213012.668,17.090,27.344,31.250,31.250,-16.602,0
213012.672,21.484,31.738,27.832,30.762,0.000,0
213012.676,24.414,29.297,26.367,23.438,6.348,0
213012.680,25.879,26.855,24.902,20.996,22.949,0
213012.684,28.320,28.320,24.902,20.020,47.363,0
213012.688,30.273,29.297,28.809,26.367,36.621,0
213012.692,29.785,28.320,29.297,32.715,43.457,0
213012.695,28.809,26.855,28.320,31.738,12.207,0
213012.699,29.785,26.855,29.297,30.273,-24.414,0
213012.703,27.344,27.832,29.297,24.414,-26.367,0
213012.707,26.855,26.855,28.809,28.320,13.672,0
213012.711,20.996,26.367,27.832,26.855,27.344,0
213012.715,17.578,29.785,28.320,22.461,20.996,0
213012.719,16.602,26.367,29.297,20.996,24.414,0
213012.723,4.395,20.508,32.715,14.648,41.504,0
213012.727,0.977,20.020,32.715,14.160,59.082,0
213012.731,1.953,21.973,28.809,13.184,20.996,0
213012.735,-2.441,21.973,29.297,9.277,44.434,0
213012.738,1.953,23.926,25.391,12.207,94.727,0
213012.742,9.277,26.855,25.879,12.207,59.570,0
213012.746,16.602,25.391,24.902,5.371,-5.859,0
213012.750,13.184,26.367,23.438,5.371,-4.395,0
213012.754,8.789,30.762,27.832,16.602,19.043,0
213012.758,12.207,32.227,29.785,24.902,11.719,0
213012.762,15.137,33.691,28.809,18.066,-22.461,0
213012.766,20.020,33.203,26.367,14.160,7.324,0
213012.770,23.438,31.738,29.785,23.438,38.574,0
213012.774,23.926,32.227,30.273,23.926,0.977,0
213012.777,22.949,32.227,26.367,18.555,-22.461,0
213012.781,26.855,36.133,26.855,21.973,-20.020,0
213012.785,28.809,36.133,28.320,25.879,-1.953,0
213012.789,24.902,31.250,28.809,19.043,-13.672,0
213012.793,22.949,32.715,31.738,15.137,-32.227,0
213012.797,24.902,33.691,26.855,15.625,-24.414,0
213012.801,23.438,33.203,21.484,18.066,4.395,0
213012.805,19.531,33.203,21.484,20.508,2.930,0
213012.809,17.578,33.203,20.996,11.719,9.766,0
213012.813,15.137,31.738,21.973,2.441,37.109,0
213012.817,20.996,35.645,23.438,8.301,21.973,0
213012.820,15.625,41.504,20.508,14.648,2.930,0
213012.824,9.766,41.016,17.090,18.555,-21.484,0
213012.828,16.113,38.574,18.555,26.367,6.836,0
213012.832,20.996,38.574,22.461,32.715,41.992,0
213012.836,18.066,36.621,25.879,29.785,63.965,0
213012.840,12.695,32.715,25.391,21.484,43.945,0
213012.844,13.184,31.738,24.902,17.578,33.691,0
213012.848,16.602,34.180,25.879,20.508,26.855,0
213012.852,13.672,31.738,24.902,15.137,-35.156,0
213012.856,15.137,29.297,26.367,10.742,-61.523,0
213012.860,15.625,28.320,23.926,20.508,-21.484,0
213012.863,13.184,29.785,20.508,23.438,27.832,0
213012.867,20.996,28.809,23.438,21.484,61.035,0
213012.871,21.484,22.949,26.367,21.484,105.469,0
213012.875,17.578,23.926,28.809,24.902,87.891,0
213012.879,13.184,23.926,30.273,22.949,98.633,0
213012.883,10.254,22.949,30.273,23.438,120.605,0
213012.887,16.602,25.391,31.250,33.203,78.125,0
213012.891,20.020,27.832,32.227,33.691,62.500,0
213012.895,16.113,28.320,29.785,25.391,40.527,0
213012.899,11.230,26.367,32.227,18.555,20.508,0
213012.902,10.742,25.879,35.156,23.926,61.523,0
213012.906,15.137,30.273,32.715,29.297,62.012,0
213012.910,19.043,32.715,30.762,22.949,19.531,0
213012.914,20.996,31.250,27.344,20.020,31.738,0
213012.918,15.137,29.785,24.414,20.508,51.758,0
213012.922,17.578,26.367,33.691,25.391,24.902,0
213012.926,26.855,29.297,34.180,25.391,31.250,0
213012.930,28.809,34.668,27.832,22.461,29.785,0
213012.934,32.227,29.785,31.738,30.273,36.621,0
213012.938,33.691,28.320,32.715,35.156,30.762,0
213012.942,31.738,32.227,31.738,28.320,-27.832,0
213012.945,34.668,30.273,30.273,25.879,-30.273,0
213012.949,37.109,31.250,30.273,30.273,-1.465,0
213012.953,35.645,30.762,30.762,32.227,2.930,0
213012.957,30.273,26.855,30.273,31.250,-1.465,0
213012.961,26.367,25.879,31.250,27.832,-12.695,0
213012.965,26.367,30.273,31.738,30.762,10.742,0
213012.969,23.926,31.250,30.762,33.203,16.602,0
213012.973,21.484,31.738,27.344,31.250,21.484,0
213012.977,20.996,34.668,28.809,29.297,4.883,0
213012.981,24.414,32.227,27.832,31.738,8.789,0
213012.985,31.250,32.227,22.461,36.621,51.758,0
213012.988,24.414,35.156,26.367,26.855,28.809,0
213012.992,20.508,34.668,28.809,20.996,18.066,0
213012.996,24.414,34.668,26.855,25.391,16.113,0
213013.000,21.484,36.133,25.879,19.043,9.766,0
213013.004,19.043,36.621,31.250,12.695,-7.812,0
213013.008,25.879,38.574,34.668,18.066,-19.043,0
213013.012,23.926,36.621,28.809,15.625,-4.395,0
213013.016,12.695,35.156,29.297,9.766,3.418,0
213013.020,11.719,36.621,30.762,2.930,-5.859,0
213013.024,16.602,35.645,30.762,7.812,-6.836,0
213013.027,18.066,35.645,33.691,13.184,-0.488,0
213013.031,2.441,42.480,34.668,-9.766,-22.461,0
213013.035,-11.230,44.922,38.086,-27.344,13.184,0
213013.039,-13.672,44.922,35.156,-24.902,61.523,0
213013.043,-28.809,47.363,35.156,-37.598,66.895,0
213013.047,-52.246,47.363,35.156,-57.617,47.852,0
213013.051,-68.359,49.316,35.645,-68.848,44.922,0
213013.055,-80.566,46.875,38.086,-80.078,43.945,0
213013.059,-92.773,47.852,36.621,-87.891,45.410,0
213013.063,-104.004,56.641,36.621,-92.773,26.367,0
213013.067,-106.934,59.570,39.062,-97.656,9.766,0
213013.070,-101.562,57.617,32.715,-101.562,56.641,0
213013.074,-105.469,59.082,24.414,-110.352,6.348,0
213013.078,-118.652,55.664,20.020,-115.723,-62.012,0
213013.082,-118.652,53.223,24.902,-102.539,-9.766,0
213013.086,-113.770,55.664,36.133,-92.285,41.016,0
213013.090,-120.117,53.223,37.109,-98.633,31.250,0
213013.094,-130.859,46.875,33.691,-118.652,18.066,0
213013.098,-121.582,45.410,31.250,-122.559,18.066,0
213013.102,-111.328,51.758,30.273,-112.793,34.668,0
213013.106,-112.793,53.223,30.273,-103.027,18.066,0
213013.110,-104.980,53.711,26.367,-96.191,20.996,0
213013.113,-93.750,53.711,22.949,-89.355,28.809,0
213013.117,-83.008,48.340,22.461,-75.195,15.137,0
213013.121,-76.172,50.293,22.949,-62.012,22.461,0
213013.125,-73.242,48.340,22.949,-55.664,28.809,0
213013.129,-65.918,47.363,21.973,-49.316,38.086,0
213013.133,-50.781,45.898,26.367,-35.645,34.180,0
213013.137,-41.504,45.410,22.949,-39.551,32.227,0
213013.141,-36.621,50.293,15.625,-35.156,61.035,0
213013.145,-19.043,47.852,14.160,-16.602,89.844,0
213013.149,-4.883,43.945,12.695,-10.254,85.449,0
213013.152,-2.441,45.898,15.625,-2.441,102.051,0
213013.156,4.395,46.875,17.090,3.418,79.102,0
213013.160,11.719,44.434,13.184,3.418,52.734,0
213013.164,17.090,41.992,13.184,6.836,38.086,0
213013.168,25.879,41.992,16.602,20.996,27.832,0
213013.172,34.668,42.480,17.578,33.691,21.484,0
213013.176,33.691,38.086,19.043,35.645,25.879,0
213013.180,32.227,32.227,23.438,32.715,20.996,0
213013.184,35.645,28.320,24.414,33.203,4.883,0
213013.188,41.504,25.879,20.996,41.016,27.344,0
213013.192,44.434,26.367,20.020,52.734,31.738,0
213013.195,45.410,22.949,21.484,47.363,28.320,0
213013.199,50.781,21.484,21.973,38.086,30.762,0
213013.203,47.852,24.902,21.484,51.758,46.875,0
213013.207,47.363,23.926,19.043,58.105,69.824,0
213013.211,49.316,20.508,20.508,58.105,38.086,0
213013.215,47.363,19.043,23.438,55.176,11.230,0
213013.219,48.340,19.043,24.902,48.828,16.113,0
213013.223,48.828,18.555,25.391,47.852,13.184,0
213013.227,51.758,20.508,25.391,52.246,-23.438,0
213013.231,61.035,20.996,25.879,60.547,-14.160,0
213013.235,63.965,22.949,28.809,72.754,40.039,0
213013.238,67.871,21.973,32.227,75.684,44.434,0
213013.242,69.824,19.531,31.738,79.590,31.250,0
213013.246,64.941,23.438,28.809,75.195,45.410,0
213013.250,64.941,25.879,29.785,72.754,53.711,0
213013.254,67.871,25.391,31.738,75.684,45.898,1
213013.258,69.336,21.484,27.344,66.406,52.246,0
213013.262,76.660,19.043,26.367,69.336,58.594,0
213013.266,73.242,22.949,26.855,72.266,47.852,0
213013.270,71.289,24.902,28.809,71.777,16.113,0
213013.274,73.730,26.855,29.785,73.242,-25.391,0
213013.277,69.336,25.879,23.926,71.289,-4.883,0
213013.281,66.895,23.926,27.832,74.707,46.387,0
213013.285,67.871,28.809,31.250,79.102,60.059,0
213013.289,66.406,28.320,29.297,81.055,83.496,0
213013.293,62.988,27.832,33.691,85.938,88.379,0
213013.297,63.477,25.879,30.762,87.891,94.238,0
213013.301,63.477,24.902,28.809,73.730,54.199,0
213013.305,57.129,29.297,30.273,62.988,36.133,0
213013.309,52.246,30.273,31.250,64.453,56.641,0
213013.313,54.688,31.738,31.250,65.918,35.156,0
213013.317,53.223,30.273,28.809,59.082,-23.438,0
213013.320,55.176,27.832,27.344,65.430,-19.043,0
213013.324,57.617,30.762,26.367,74.707,34.668,0
213013.328,60.059,33.203,23.438,65.430,67.383,0
213013.332,62.988,31.738,24.414,64.453,65.918,0
213013.336,56.641,28.320,29.785,60.547,90.332,0
213013.340,59.570,28.320,25.879,56.641,87.891,0
213013.344,68.848,28.809,22.461,64.453,52.246,0
213013.348,58.105,22.949,27.832,56.152,66.406,0
213013.352,45.410,23.438,24.902,49.316,80.078,0
213013.356,48.340,26.855,19.531,62.988,70.801,0
213013.360,52.246,24.902,25.879,58.594,49.805,0
213013.363,51.270,26.367,36.133,46.875,22.949,0
213013.367,49.805,23.926,41.016,54.688,58.594,0
213013.371,54.199,21.973,38.086,58.594,82.520,0
213013.375,55.176,22.949,36.133,59.570,71.777,0
213013.379,54.688,22.949,39.062,67.871,54.199,0
213013.383,53.711,23.926,37.598,65.430,38.086,0
213013.387,49.316,21.484,34.180,59.570,58.105,0
213013.391,43.945,19.043,34.668,58.105,63.477,0
213013.395,41.016,20.020,35.156,55.176,41.992,0
213013.399,43.945,19.531,38.086,55.664,14.648,0
213013.402,52.246,23.438,40.527,62.500,9.277,0
213013.406,51.758,26.855,31.738,62.012,18.555,0
213013.410,40.039,20.996,29.297,47.363,9.766,0
213013.414,37.598,19.531,34.180,44.922,36.133,0
213013.418,39.551,21.484,32.227,48.828,49.805,0
213013.422,41.016,21.973,31.738,47.852,45.898,0
213013.426,42.969,23.926,35.156,51.270,79.102,0
213013.430,41.016,26.367,34.668,50.781,78.613,0
213013.434,38.574,28.809,32.227,46.387,45.898,0
213013.438,39.551,26.855,29.785,48.340,42.480,0
213013.442,37.109,25.879,27.344,47.363,60.059,0
213013.445,30.273,31.250,26.855,39.062,77.637,0
213013.449,32.227,34.668,29.785,36.621,57.129,0
213013.453,32.227,31.250,34.668,25.391,42.969,0
213013.457,31.250,32.715,30.762,32.227,67.383,0
213013.461,32.715,35.156,26.855,49.805,90.332,0
213013.465,33.203,35.645,27.344,46.387,90.820,0
213013.469,36.621,36.133,24.902,44.922,67.383,0
213013.473,42.480,36.621,29.297,48.340,52.246,0
213013.477,44.922,39.062,32.715,47.852,58.105,0
213013.481,45.898,39.062,33.203,48.828,61.523,0
213013.485,46.875,36.133,33.203,44.434,43.945,0
213013.488,50.293,36.133,35.156,45.898,57.129,0
213013.492,52.734,38.086,34.180,51.758,54.199,0
213013.496,46.875,37.109,29.785,45.898,13.184,0
213013.500,38.086,33.203,29.297,39.551,13.672,0
213013.504,35.156,30.273,31.250,44.922,30.762,0
213013.508,31.250,28.320,30.273,49.316,-20.996,0
213013.512,30.762,27.832,29.785,43.457,-49.805,0
213013.516,36.133,32.715,32.227,41.992,-31.738,0
213013.520,34.668,30.762,30.273,43.457,-4.395,0
213013.524,31.738,24.902,30.273,38.086,0.488,0
213013.527,26.367,23.926,28.809,33.203,9.766,0
213013.531,23.438,25.879,21.484,28.320,42.480,0
213013.535,29.297,29.297,17.578,27.832,37.598,0
213013.539,32.227,31.250,18.555,33.203,5.859,0
213013.543,20.508,26.367,24.414,32.715,6.836,0
213013.547,15.625,25.879,26.367,27.344,11.719,0
213013.551,16.602,29.297,24.414,28.809,2.441,0
213013.555,17.578,29.297,23.438,19.531,-42.969,0
213013.559,20.508,26.367,25.879,6.836,-69.824,0
213013.563,26.855,25.391,27.344,23.926,-0.488,0
213013.567,30.273,25.391,26.855,33.203,18.066,0
213013.570,28.320,23.926,29.785,24.902,-17.090,0
213013.574,28.809,25.391,27.832,29.297,-39.551,0
213013.578,30.273,30.762,22.949,34.180,-31.250,0
213013.582,34.180,34.180,22.461,31.738,1.953,0
213013.586,34.668,33.203,23.438,28.809,7.324,0
213013.590,35.156,36.133,23.438,34.180,3.906,0
213013.594,34.668,37.109,22.461,32.715,-15.137,0
213013.598,34.180,34.668,22.949,31.250,-16.602,0
213013.602,40.039,34.668,23.438,31.250,-41.992,0
213013.606,36.621,30.762,26.855,32.227,-45.898,0
213013.610,25.391,31.250,27.832,32.227,-24.902,0
213013.613,14.648,33.691,23.926,14.648,-28.320,0
213013.617,16.113,32.227,26.367,23.438,7.324,0
213013.621,28.320,34.180,28.320,43.457,59.082,0
213013.625,31.738,35.156,25.879,36.133,97.656,0
213013.629,26.855,36.133,26.855,19.531,93.262,0
213013.633,23.438,36.621,26.855,15.625,79.102,0
213013.637,20.508,35.156,28.320,17.578,54.688,0
213013.641,24.414,38.574,30.762,20.020,54.688,0
213013.645,28.809,40.527,29.785,20.508,48.828,0
213013.649,34.668,36.621,22.461,20.508,76.660,0
213013.652,41.016,30.273,23.438,28.809,117.188,0
213013.656,29.297,27.344,25.391,28.320,85.938,0
213013.660,23.926,28.809,27.832,24.902,47.363,0
213013.664,33.691,30.762,30.762,26.855,28.320,0
213013.668,36.621,18.066,31.738,38.086,24.902,0
213013.672,39.551,10.742,29.297,47.852,41.992,0
213013.676,36.133,20.020,25.391,34.180,49.805,0
213013.680,27.832,26.367,30.762,23.438,60.059,0
213013.684,24.414,30.762,33.691,29.785,67.383,0
213013.688,17.578,34.180,36.621,26.367,29.297,0
213013.692,18.066,38.574,34.180,19.531,-10.254,0
213013.695,24.414,32.715,23.438,22.461,-4.883,0
213013.699,29.297,29.297,23.438,33.691,-6.348,0
213013.703,29.785,42.480,32.715,37.109,-43.457,0
213013.707,27.832,49.805,37.598,29.297,-52.246,0
213013.711,20.996,43.945,33.203,20.020,11.719,0
213013.715,20.020,37.109,32.715,18.555,25.391,0
213013.719,23.438,36.621,33.691,22.949,-2.441,0
213013.723,22.949,38.086,33.203,31.250,-23.438,0
213013.727,23.926,36.133,33.203,37.598,-66.895,0
213013.731,29.297,36.133,28.809,41.016,-50.293,0
213013.735,30.762,36.133,27.344,36.133,-27.344,0
213013.738,27.832,30.273,30.273,25.391,-61.523,0
213013.742,25.391,26.855,31.738,23.926,-48.340,0
213013.746,25.879,34.668,34.180,34.180,31.250,0
213013.750,25.391,39.551,38.574,32.227,29.785,0
213013.754,26.855,38.574,38.574,29.297,-7.812,0
213013.758,30.762,42.969,34.180,32.715,20.020,0
213013.762,35.156,40.527,33.691,33.691,31.738,0
213013.766,45.410,28.809,32.227,42.480,35.645,0
213013.770,49.316,32.227,34.180,48.340,40.039,0
213013.774,22.461,39.062,32.227,24.414,56.641,0
213013.777,11.230,32.715,25.879,10.254,34.668,0
213013.781,23.438,31.738,25.391,18.066,-24.902,0
213013.785,20.020,35.156,24.414,12.695,2.441,0
213013.789,22.949,34.180,27.344,21.973,59.570,0
213013.793,30.273,37.598,29.785,34.180,68.359,0
213013.797,26.855,38.574,26.367,27.344,36.621,0
213013.801,19.043,37.109,21.484,19.531,-5.371,0
213013.805,22.461,37.598,30.762,26.367,32.227,0
213013.809,30.762,32.227,39.551,33.203,47.852,0
213013.813,36.621,31.738,41.992,35.645,37.109,0
213013.817,38.086,36.133,40.527,42.969,36.621,0
213013.820,36.133,34.180,34.668,47.363,8.301,0
213013.824,37.598,36.621,36.621,45.410,-30.273,0
213013.828,40.039,39.062,37.598,35.156,-48.828,0
213013.832,34.180,31.250,37.598,35.156,-13.184,0
213013.836,28.320,25.879,35.645,39.551,0.488,0
213013.840,26.855,24.414,37.598,35.156,-18.066,1
213013.844,26.367,23.438,41.016,32.715,-37.598,0
213013.848,26.367,31.250,40.527,38.574,6.836,0
213013.852,26.367,37.109,36.621,41.992,31.738,0
213013.856,32.227,36.133,34.668,33.691,-1.953,0
213013.860,28.809,33.203,39.062,34.180,23.926,0
213013.863,24.902,29.297,33.691,41.504,49.316,0
213013.867,32.715,33.203,23.438,43.457,37.109,0
213013.871,33.691,36.133,24.902,39.062,10.254,0
213013.875,24.902,35.156,29.785,27.832,-3.906,0
213013.879,21.484,33.691,34.180,24.902,5.371,0
213013.883,23.926,31.250,35.156,26.855,-5.371,0
213013.887,26.367,31.250,34.668,25.391,-30.762,0
213013.891,28.809,34.668,32.227,31.738,1.465,0
213013.895,28.320,35.645,28.809,36.133,36.621,0
213013.899,27.344,34.668,25.879,33.203,28.809,0
213013.902,26.855,35.645,25.391,27.344,25.879,0
213013.906,27.832,40.039,23.926,34.180,39.062,0
213013.910,27.344,37.598,20.508,37.109,17.090,0
213013.914,22.949,29.785,17.578,23.438,-4.395,0
213013.918,20.508,25.391,20.020,22.461,31.250,0
213013.922,22.461,28.320,26.367,24.414,33.203,0
213013.926,22.949,36.133,24.414,24.414,23.438,0
213013.930,19.531,39.551,24.414,24.414,8.789,0
213013.934,20.020,39.062,30.273,19.531,-4.883,0
213013.938,25.879,33.691,32.227,29.297,31.738,0
213013.942,28.809,29.785,31.738,30.762,48.340,0
213013.945,34.668,38.086,33.203,25.879,20.996,0
213013.949,42.969,44.434,35.645,34.180,35.645,0
213013.953,48.828,39.551,28.320,33.203,62.988,0
213013.957,47.852,38.086,21.484,33.691,71.777,0
213013.961,36.133,39.551,20.020,32.715,78.125,0
213013.965,34.180,37.598,26.367,28.320,20.508,0
213013.969,38.086,36.621,35.645,33.203,2.930,0
213013.973,39.062,36.133,37.109,38.574,47.363,0
213013.977,32.227,31.250,39.062,35.645,37.598,0
213013.981,29.297,28.320,41.016,33.203,32.227,0
213013.985,30.762,30.273,43.945,39.062,62.500,0
213013.988,26.367,28.320,37.109,36.133,58.594,0
213013.992,21.973,27.832,27.344,28.809,61.035,0
213013.996,17.090,29.297,32.227,24.902,77.637,0
213014.000,13.184,30.273,33.203,22.949,77.637,0
213014.004,6.836,27.832,31.738,14.648,52.734,0
213014.008,1.465,20.996,33.691,12.695,32.227,0
213014.012,-0.488,20.996,35.645,17.090,49.316,0
213014.016,1.953,24.414,36.133,16.602,41.992,0
213014.020,4.883,25.879,35.156,15.137,-33.203,0
213014.024,4.395,26.367,31.250,11.230,-72.266,0
213014.027,6.836,27.832,28.320,12.695,3.906,0
213014.031,19.043,32.227,27.344,20.508,54.688,0
213014.035,27.832,33.691,25.391,20.508,0.488,0
213014.039,28.809,31.738,27.344,21.973,16.602,0
213014.043,27.344,26.367,26.367,22.949,37.598,0
213014.047,25.391,24.902,24.414,23.438,-15.137,0
213014.051,28.320,30.273,21.973,28.809,-0.488,0
213014.055,28.809,32.227,22.461,25.391,32.227,0
213014.059,27.344,31.250,29.785,24.902,2.441,0
213014.063,28.809,35.156,29.297,30.273,23.926,0
213014.067,29.297,37.598,30.762,28.320,13.672,0
213014.070,30.273,36.621,35.156,29.297,19.531,0
213014.074,30.273,36.133,35.645,37.598,74.707,0
213014.078,27.344,37.109,35.645,35.156,49.316,0
213014.082,33.691,37.598,33.203,30.273,13.184,0
213014.086,36.621,36.621,30.273,31.250,50.781,0
213014.090,33.691,39.062,32.715,35.645,70.312,0
213014.094,27.832,41.016,30.762,36.133,42.969,0
213014.098,24.902,36.133,27.344,33.203,14.160,0
213014.102,26.367,35.156,26.855,30.762,18.066,0
213014.106,26.855,37.109,28.320,30.273,49.316,0
213014.110,27.832,35.156,30.762,24.902,40.039,0
213014.113,28.320,35.645,24.902,15.137,10.742,0
213014.117,31.738,33.203,23.438,25.879,50.293,0
213014.121,34.668,36.133,30.273,34.668,60.547,0
213014.125,35.645,40.527,29.297,23.438,9.277,0
213014.129,30.273,38.086,25.391,19.043,24.902,0
213014.133,28.809,35.156,27.832,27.344,51.270,0
213014.137,28.320,32.715,29.785,28.809,64.941,0
213014.141,23.926,31.738,28.809,24.414,60.059,0
213014.145,25.391,33.203,35.156,22.949,44.922,0
213014.149,24.902,32.715,38.086,20.996,65.430,0
213014.152,18.066,28.809,35.156,23.926,65.918,0
213014.156,14.160,30.273,32.715,15.625,9.277,0
213014.160,18.066,35.156,29.785,10.742,-14.160,0
213014.164,16.113,28.320,26.855,19.043,18.555,0
213014.168,12.207,22.949,24.902,20.508,37.109,0
213014.172,15.137,25.391,25.391,28.809,41.504,0
213014.176,10.742,22.461,29.297,27.832,57.129,0
213014.180,12.207,25.879,32.227,21.973,65.918,0
213014.184,21.484,34.180,31.250,26.855,26.367,0
213014.188,18.066,31.738,26.367,20.996,14.648,0
213014.192,16.602,32.715,24.414,19.531,41.504,0
213014.195,24.414,36.133,25.879,25.391,75.195,0
213014.199,25.391,40.039,29.297,23.926,52.246,0
213014.203,23.438,40.527,32.715,17.090,-0.977,0
213014.207,21.973,33.691,28.809,15.137,11.719,0
213014.211,17.090,31.738,26.855,19.043,41.992,0
213014.215,15.137,29.785,27.832,16.602,29.297,0
213014.219,16.602,30.762,25.391,18.555,26.367,0
213014.223,14.160,33.691,31.250,29.785,68.848,0
213014.227,19.043,34.668,32.227,29.297,56.152,0
213014.231,25.391,34.668,29.785,23.926,18.555,0
213014.235,24.414,33.691,32.227,26.855,14.648,0
213014.238,19.043,37.598,31.250,34.180,22.461,0
213014.242,12.207,37.109,27.832,30.273,-8.789,0
213014.246,13.184,32.715,27.832,17.578,-5.859,0
213014.250,20.508,34.668,28.809,18.555,-22.461,0
213014.254,20.020,32.715,30.762,24.414,-14.648,0
213014.258,18.555,28.809,31.738,22.461,33.203,0
213014.262,20.996,32.715,30.273,9.766,19.043,0
213014.266,23.438,32.227,26.367,8.789,37.109,0
213014.270,27.344,30.273,28.320,20.020,58.105,0
213014.274,27.344,36.621,31.250,20.020,34.180,0
213014.277,27.344,37.598,30.762,19.043,28.320,0
213014.281,25.879,32.715,31.738,24.414,45.410,0
213014.285,22.949,28.809,34.668,25.391,38.086,0
213014.289,26.367,27.344,35.645,22.461,7.812,0
213014.293,29.297,27.832,35.156,23.438,20.508,0
213014.297,23.438,29.297,41.992,23.926,30.762,0
213014.301,18.066,25.879,41.504,27.344,22.461,0
213014.305,11.719,22.949,31.738,22.949,7.324,0
213014.309,7.812,24.902,32.715,10.742,-3.906,0
213014.313,8.301,23.438,34.668,17.090,22.949,0
213014.317,5.371,24.902,32.227,27.344,25.879,0
213014.320,-1.953,26.855,32.715,26.855,13.672,0
213014.324,2.930,29.785,39.062,29.785,7.324,0
213014.328,11.230,31.250,39.551,25.391,36.133,0
213014.332,7.324,26.855,35.156,16.113,37.598,0
213014.336,13.184,28.320,34.668,17.090,-9.766,0
213014.340,18.066,28.809,28.809,19.531,3.418,0
213014.344,20.508,23.926,21.484,23.438,11.230,0
213014.348,24.902,26.855,25.391,27.344,-9.277,0
213014.352,20.996,34.180,29.785,12.695,20.996,0
213014.356,15.625,35.156,28.809,7.324,10.254,0
213014.360,17.578,35.645,31.250,19.531,9.766,0
213014.363,19.043,36.133,31.250,19.531,20.996,0
213014.367,18.555,34.180,33.203,16.602,-0.977,0
213014.371,20.996,33.203,34.668,20.020,22.461,0
213014.375,20.508,30.273,24.902,14.648,66.895,0
213014.379,21.484,28.320,23.926,8.789,36.621,0
213014.383,23.926,31.738,28.320,14.160,23.438,0
213014.387,21.484,33.691,28.809,20.996,31.738,0
213014.391,20.020,32.715,26.367,19.531,18.555,0
213014.395,17.090,31.738,22.949,12.695,19.531,0
213014.399,24.414,28.320,24.414,17.578,-19.531,0
213014.402,35.645,32.227,23.438,30.762,-18.066,0
213014.406,23.438,36.621,14.648,28.809,53.711,0
213014.410,11.230,38.086,13.672,17.090,58.594,0
213014.414,19.531,42.480,20.508,10.742,7.324,0
213014.418,16.113,37.598,27.832,16.113,11.719,1
213014.422,6.836,34.668,31.738,19.531,46.387,0
213014.426,11.719,38.086,31.250,18.066,71.777,0
213014.430,13.184,37.598,29.785,14.160,85.938,0
213014.434,13.672,37.109,24.902,12.695,94.727,0
213014.438,16.113,33.203,24.414,17.578,87.891,0
213014.442,19.043,26.855,29.297,25.391,87.402,0
213014.445,20.020,28.809,29.785,26.367,95.703,0
213014.449,19.531,36.621,25.879,22.949,64.941,0
213014.453,23.438,41.504,29.297,31.250,47.852,0
213014.457,20.996,38.574,29.297,25.879,19.043,0
213014.461,12.695,33.203,25.879,16.602,20.020,0
213014.465,12.207,33.691,26.855,20.508,73.730,0
213014.469,10.254,30.762,31.250,19.531,46.875,0
213014.473,8.789,28.320,33.203,21.484,34.180,0
213014.477,14.160,33.203,35.156,22.461,75.195,0
213014.481,16.602,35.156,38.086,21.973,41.992,0
213014.485,18.066,34.668,31.738,22.949,26.855,0
213014.488,14.648,32.227,29.297,15.137,73.730,0
213014.492,9.766,32.227,35.156,18.066,96.680,0
213014.496,16.113,35.156,36.621,30.273,85.449,0
213014.500,21.484,33.203,33.691,31.738,63.965,0
213014.504,20.020,32.227,29.297,28.320,50.781,0
213014.508,16.602,32.227,27.832,24.414,55.176,0
213014.512,16.113,31.738,29.297,22.949,82.520,0
213014.516,22.461,32.227,30.273,25.391,75.684,0
213014.520,26.855,33.203,34.180,27.832,64.453,0
213014.524,22.461,34.668,32.715,25.879,66.406,0
213014.527,22.461,31.738,28.320,21.484,40.039,0
213014.531,29.297,28.320,22.461,18.066,3.906,0
213014.535,29.785,29.785,18.066,19.043,3.906,0
213014.539,27.832,31.250,24.414,25.879,51.758,0
213014.543,30.273,35.645,30.762,23.438,48.828,0
213014.547,34.180,41.504,31.738,22.461,26.367,0
213014.551,30.762,40.527,32.227,21.973,30.762,0
213014.555,24.414,37.598,30.762,20.996,52.734,0
213014.559,22.461,38.086,26.855,25.879,59.570,0
213014.563,22.461,37.109,30.762,27.832,51.758,0
213014.567,24.414,35.645,30.762,27.832,43.457,0
213014.570,23.926,33.203,26.855,29.297,41.504,0
213014.574,27.832,31.738,31.738,32.715,17.090,0
213014.578,29.785,35.645,33.691,26.855,-54.199,0
213014.582,29.785,40.527,32.227,33.203,-33.691,0
213014.586,37.598,41.504,35.645,55.664,19.531,0
213014.590,40.527,35.645,34.668,50.781,-5.371,0
213014.594,37.109,35.645,30.273,30.273,-12.695,0
213014.598,32.715,35.645,27.344,28.320,-2.930,0
213014.602,36.133,34.668,25.879,32.227,-7.324,0
213014.606,37.598,33.203,31.250,28.809,-1.953,0
213014.610,36.621,30.762,32.715,29.785,0.000,0
213014.613,39.551,35.645,31.738,37.109,30.762,0
213014.617,36.133,38.086,34.180,42.480,52.246,0
213014.621,27.832,37.109,30.273,32.227,15.625,0
213014.625,22.949,34.668,26.855,23.926,36.621,0
213014.629,23.438,35.645,33.691,23.438,38.574,0
213014.633,25.879,35.645,36.621,24.414,18.066,0
213014.637,30.273,33.203,35.156,26.855,14.160,0
213014.641,26.855,30.762,34.180,24.902,24.414,0
213014.645,25.391,31.738,31.738,31.738,44.434,0
213014.649,27.832,33.203,32.715,35.156,56.641,0
213014.652,22.949,30.273,31.738,28.809,32.227,0
213014.656,19.043,25.879,31.738,25.879,28.809,0
213014.660,21.484,27.832,30.273,26.367,39.062,0
213014.664,21.484,30.762,29.785,27.344,41.504,0
213014.668,16.602,27.832,32.227,27.832,20.020,0
213014.672,20.020,31.250,31.250,31.738,-0.488,0
213014.676,22.461,36.133,29.785,35.645,31.250,0
213014.680,23.438,31.250,28.809,35.156,38.086,0
213014.684,31.250,22.461,23.438,28.320,22.949,0
213014.688,34.668,18.555,22.461,29.297,62.988,0
213014.692,36.621,21.973,30.762,41.016,61.523,0
213014.695,39.551,28.809,27.832,37.598,41.504,0
213014.699,38.086,22.949,23.926,33.203,59.570,0
213014.703,32.715,25.879,23.926,37.598,36.133,0
213014.707,26.855,52.246,22.949,33.203,12.695,0
213014.711,24.414,60.547,27.832,29.297,24.414,0
213014.715,21.484,52.734,27.832,28.809,20.020,0
213014.719,17.578,46.875,25.391,34.180,8.789,0
213014.723,15.137,39.551,25.879,37.598,15.137,0
213014.727,11.230,39.062,24.414,24.414,18.555,0
213014.731,12.207,38.574,24.902,21.484,28.809,0
213014.735,19.043,31.250,27.832,36.133,60.059,0
213014.738,16.113,31.250,26.367,36.133,24.414,0
213014.742,9.277,31.738,22.461,24.414,0.488,0
213014.746,6.348,28.809,22.949,23.438,45.898,0
213014.750,9.277,25.391,25.391,29.785,72.754,0
213014.754,15.625,26.855,27.832,25.391,47.363,0
213014.758,16.602,28.809,28.320,24.414,20.996,0
213014.762,15.625,28.320,26.855,25.879,65.918,0
213014.766,20.996,29.785,27.344,31.250,81.055,0
213014.770,21.484,32.715,31.738,30.762,41.504,0
213014.774,18.066,31.738,35.156,21.484,29.785,0
213014.777,15.625,28.320,34.668,23.926,57.617,0
213014.781,15.625,23.926,35.645,31.738,37.109,0
213014.785,20.508,18.555,39.062,36.133,9.277,0
213014.789,23.438,24.414,33.691,40.527,30.762,0
213014.793,22.949,31.250,29.297,41.016,49.316,0
213014.797,26.855,34.180,31.250,33.203,24.902,0
213014.801,21.484,33.203,34.180,30.762,29.785,0
213014.805,11.230,28.320,34.180,31.250,56.152,0
213014.809,14.160,25.391,33.691,30.762,45.410,0
213014.813,17.578,26.367,34.180,34.668,26.855,0
213014.817,14.160,30.273,32.227,26.367,2.441,0
213014.820,8.301,26.367,28.809,14.648,11.230,0
213014.824,8.789,25.391,26.367,28.809,65.430,0
213014.828,18.555,32.227,30.273,38.574,73.730,0
213014.832,22.949,34.668,29.785,30.762,57.617,0
213014.836,23.926,36.133,29.785,34.180,62.988,0
213014.840,23.438,37.598,35.645,37.109,61.523,0
213014.844,21.484,39.551,33.203,30.273,52.734,0
213014.848,21.973,40.039,35.156,28.809,67.871,0
213014.852,19.043,39.551,32.227,27.344,62.988,0
213014.856,21.484,40.039,22.949,30.273,35.645,0
213014.860,25.391,40.527,25.391,27.832,10.254,0
213014.863,25.391,42.969,26.855,20.020,9.766,0
213014.867,28.809,41.504,28.809,27.832,49.805,0
213014.871,29.297,37.109,30.273,32.715,38.086,0
213014.875,29.785,37.598,30.273,30.762,14.160,0
213014.879,28.320,36.621,33.203,34.668,46.875,0
213014.883,28.320,37.598,31.738,35.645,58.594,0
213014.887,28.809,39.062,29.785,29.785,51.758,0
213014.891,22.949,36.621,25.879,24.902,44.434,0
213014.895,19.043,33.691,23.438,24.902,25.391,0
213014.899,19.043,25.391,24.902,26.855,25.391,0
213014.902,19.043,26.855,26.367,26.855,9.766,0
213014.906,21.973,37.598,27.832,20.020,-47.363,0
213014.910,23.438,38.574,30.273,20.020,-48.340,0
213014.914,18.555,33.691,35.156,27.344,13.672,0
213014.918,23.438,32.715,32.227,31.738,38.086,0
213014.922,24.414,29.785,26.367,32.227,54.688,0
213014.926,21.973,28.809,26.855,25.879,52.734,0
213014.930,28.809,31.738,26.367,28.809,65.918,0
213014.934,29.785,33.691,30.762,41.016,66.406,0
213014.938,24.902,32.715,31.250,39.062,26.855,0
213014.942,33.691,28.809,35.156,45.898,50.293,0
213014.945,37.109,29.297,39.062,45.410,62.012,0
213014.949,23.438,27.344,36.621,27.832,-15.625,0
213014.953,17.090,24.414,33.203,18.066,-47.363,0
213014.957,16.113,28.809,27.832,21.484,-2.930,0
213014.961,20.020,35.156,31.250,26.367,13.672,0
213014.965,22.949,39.062,32.227,17.090,-11.719,0
213014.969,14.648,34.668,28.809,6.836,-10.254,0
213014.973,10.254,29.297,28.320,11.719,18.555,0
213014.977,12.207,30.273,24.902,14.160,46.875,0
213014.981,13.184,29.785,24.902,12.695,66.895,0
213014.985,17.090,32.715,26.855,13.184,37.109,0
213014.988,19.043,35.156,26.855,18.066,35.645,0
213014.992,19.531,31.250,22.461,18.066,50.293,0
213014.996,19.043,34.180,22.949,16.602,-3.418,0
213015.000,16.602,35.645,25.391,16.602,-41.016,0
213015.004,18.066,34.180,22.461,14.160,-32.715,0
213015.008,15.625,40.039,24.902,16.113,10.254,0
213015.012,13.184,40.527,26.367,9.277,-4.395,0
213015.016,8.301,36.621,26.367,9.277,-41.992,0
213015.020,11.230,39.062,25.879,28.809,1.465,0
213015.024,11.230,37.598,25.391,29.785,-10.254,0
213015.027,5.371,35.645,26.367,23.438,12.695,0
213015.031,6.836,32.715,26.855,26.855,20.996,0
213015.035,9.277,28.320,28.809,27.344,40.039,0
213015.039,14.160,33.203,28.809,26.367,59.082,0
213015.043,16.113,39.551,28.809,27.832,6.348,0
213015.047,7.812,36.621,28.809,29.785,7.812,0
213015.051,8.301,36.133,29.297,31.250,31.250,0
213015.055,12.207,39.062,26.367,20.996,5.859,0
213015.059,6.836,35.156,23.438,8.301,9.277,0
213015.063,3.418,29.785,26.367,14.160,25.391,0
213015.067,2.930,25.391,30.762,19.531,-2.441,0
213015.070,3.906,24.902,32.227,18.555,21.973,0
213015.074,11.719,23.438,34.180,23.926,58.594,0
213015.078,20.996,20.996,35.645,32.227,46.387,0
213015.082,21.973,24.902,31.250,30.273,39.062,0
213015.086,25.879,36.133,29.297,29.785,69.336,0
213015.090,28.809,37.109,29.785,29.297,31.738,0
213015.094,27.344,30.762,32.227,29.297,0.000,1
213015.098,28.809,32.715,35.645,31.738,11.719,0
213015.102,31.738,31.250,37.109,28.320,-35.156,0
213015.106,34.180,30.273,39.062,27.344,0.000,0
213015.110,28.809,31.738,37.109,29.785,76.660,0
213015.113,26.855,26.855,36.133,27.832,96.680,0
213015.117,29.785,23.438,31.250,25.391,95.215,0
213015.121,32.227,26.367,27.344,23.438,45.898,0
213015.125,35.156,31.738,29.785,24.414,34.668,0
213015.129,34.668,34.668,29.785,27.832,53.711,0
213015.133,33.203,31.738,25.879,27.832,66.406,0
213015.137,32.227,29.785,23.926,26.367,45.898,0
213015.141,26.367,28.320,26.367,21.973,34.668,0
213015.145,20.508,27.344,29.785,16.113,14.648,0
213015.149,19.043,29.297,31.738,13.672,0.000,0
213015.152,19.043,32.715,32.227,19.531,57.129,0
213015.156,20.020,35.156,32.715,25.879,64.941,0
213015.160,20.020,31.738,30.273,27.344,62.988,0
213015.164,16.602,30.273,28.320,25.879,67.383,0
213015.168,17.578,31.250,30.273,22.949,73.730,0
213015.172,19.043,30.273,31.738,21.484,76.172,0
213015.176,19.043,31.250,35.156,20.996,32.227,0
213015.180,17.090,33.203,32.715,23.438,27.832,0
213015.184,14.160,33.203,30.762,28.809,67.871,0
213015.188,16.602,37.109,32.227,26.367,75.195,0
213015.192,9.277,37.598,29.297,13.184,44.434,0
213015.195,8.789,35.156,33.691,19.531,31.738,0
213015.199,18.555,32.715,36.133,32.715,59.570,0
213015.203,19.531,27.832,28.809,27.832,92.773,0
213015.207,21.484,29.785,23.926,22.949,80.078,0
213015.211,22.461,34.180,27.832,24.902,73.242,0
213015.215,24.414,37.109,29.785,25.391,78.125,0
213015.219,25.879,37.109,31.738,28.320,39.551,0
213015.223,24.902,37.109,38.574,32.227,39.551,0
213015.227,25.391,38.574,35.156,34.668,59.570,0
213015.231,26.367,35.645,26.855,31.738,69.824,0
213015.235,26.855,34.668,28.809,24.902,53.711,0
213015.238,28.320,34.180,31.250,22.461,-13.672,0
213015.242,29.785,33.691,35.156,33.691,25.879,0
213015.246,32.227,37.598,36.133,40.527,66.406,0
213015.250,28.809,39.551,36.621,31.738,64.453,0
213015.254,21.484,32.227,34.668,28.320,60.059,0
213015.258,21.973,27.832,32.715,29.785,61.035,0
213015.262,20.996,27.832,33.203,20.996,19.531,0
213015.266,16.602,24.902,32.227,14.648,13.672,0
213015.270,16.113,22.461,33.691,20.020,49.805,0
213015.274,15.137,21.973,34.180,19.531,15.625,0
213015.277,14.160,25.391,36.133,19.531,8.301,0
213015.281,13.672,26.855,36.621,18.066,-1.953,0
213015.285,16.113,30.762,32.715,17.578,-27.344,0
213015.289,24.414,33.203,31.738,25.879,11.230,0
213015.293,29.297,35.645,31.250,28.809,3.418,0
213015.297,28.320,37.109,29.785,25.391,-7.324,0
213015.301,31.738,34.180,28.320,25.879,8.301,0
213015.305,33.691,33.691,27.832,32.227,32.715,0
213015.309,39.062,34.668,27.344,32.715,42.480,0
213015.313,41.016,37.109,27.832,24.414,-0.977,0
213015.317,37.598,40.039,27.832,30.762,-18.555,0
213015.320,34.668,40.527,23.926,33.203,0.000,0
213015.324,32.715,40.527,22.949,24.414,32.227,0
213015.328,32.227,37.109,26.855,17.578,17.578,0
213015.332,29.785,33.203,24.414,19.043,25.391,0
213015.336,24.414,31.738,21.484,23.438,60.059,0
213015.340,19.043,34.180,19.043,21.484,63.965,0
213015.344,20.996,37.109,26.855,20.020,43.457,0
213015.348,21.484,37.109,32.227,21.973,45.898,0
213015.352,18.066,36.621,25.879,19.043,58.594,0
213015.356,18.066,35.645,24.414,16.113,41.016,0
213015.360,17.090,35.645,26.855,20.996,21.973,0
213015.363,15.137,37.109,30.762,22.949,47.363,0
213015.367,16.602,38.086,31.738,19.043,37.598,0
213015.371,19.043,36.133,33.203,24.414,19.531,0
213015.375,19.043,30.762,32.227,26.367,17.090,0
213015.379,23.438,30.273,30.273,26.855,35.156,0
213015.383,26.855,30.273,35.645,33.203,64.453,0
213015.387,23.926,29.785,35.645,31.738,16.113,0
213015.391,22.949,32.227,29.297,33.691,5.371,0
213015.395,26.855,35.156,32.227,36.621,36.621,0
213015.399,26.855,31.738,32.715,31.738,7.324,0
213015.402,22.461,31.250,31.250,26.855,-18.066,0
213015.406,26.855,34.668,33.203,32.715,-22.461,0
213015.410,31.738,31.250,33.691,40.527,-24.414,0
213015.414,28.809,27.832,31.250,34.668,-22.461,0
213015.418,26.855,32.227,27.832,26.367,-55.176,0
213015.422,27.832,35.645,24.414,27.344,-12.207,0
213015.426,28.320,30.273,29.297,31.250,27.344,0
213015.430,20.508,27.832,31.250,31.738,-4.395,0
213015.434,15.625,27.344,30.273,20.020,-1.465,0
213015.438,13.672,26.855,32.227,20.020,47.363,0
213015.442,14.648,30.273,29.785,31.738,69.824,0
213015.445,13.184,31.250,29.297,28.809,68.848,0
213015.449,8.789,30.762,31.250,24.414,70.801,0
213015.453,13.672,33.203,32.227,30.273,55.664,0
213015.457,8.301,34.180,30.273,29.297,33.203,0
213015.461,2.930,34.180,27.832,19.531,22.949,0
213015.465,10.742,35.645,24.414,22.949,8.301,0
213015.469,11.719,37.598,24.902,26.367,1.953,0
213015.473,13.672,40.039,26.367,30.273,34.180,0
213015.477,17.090,36.621,27.344,28.320,12.695,0
213015.481,16.113,32.227,25.879,19.531,7.324,0
213015.485,16.602,33.203,26.855,22.461,60.547,0
213015.488,20.020,35.156,34.180,30.762,80.566,0
213015.492,22.949,35.156,30.273,29.297,36.133,0
213015.496,21.973,34.180,24.414,28.809,32.715,0
213015.500,21.484,36.133,23.438,29.785,71.777,0
213015.504,18.066,36.621,20.508,19.531,50.293,0
213015.508,21.973,35.645,24.414,24.902,48.340,0
213015.512,28.809,35.645,27.344,30.273,41.992,0
213015.516,19.043,31.738,20.996,19.531,30.273,0
213015.520,8.301,31.738,22.461,6.348,-8.789,0
213015.524,4.883,36.133,26.367,-0.977,-54.688,0
213015.527,5.859,34.668,27.344,8.789,-32.715,0
213015.531,10.254,34.668,23.438,18.066,14.160,0
213015.535,11.719,33.691,23.926,19.043,19.043,0
213015.539,10.254,31.738,30.762,19.531,28.320,0
213015.543,11.719,34.180,27.344,28.320,26.367,0
213015.547,9.766,31.738,23.926,25.879,3.906,0
213015.551,5.859,26.855,26.367,12.695,44.434,0
213015.555,6.836,26.855,28.809,14.160,23.438,0
213015.559,7.812,32.227,29.785,20.508,-17.578,0
213015.563,13.672,38.086,32.715,24.902,0.977,0
213015.567,17.578,36.621,33.691,18.555,-29.785,0
213015.570,11.230,30.273,28.809,11.719,-45.898,0
213015.574,6.348,27.344,26.855,17.090,-6.836,0
213015.578,6.836,26.855,24.902,15.625,1.465,0
213015.582,12.207,27.344,25.391,16.113,-8.301,0
213015.586,15.625,28.320,28.809,13.672,0.977,0
213015.590,11.230,37.109,27.832,6.348,7.812,0
213015.594,7.812,46.387,31.738,8.789,34.180,0
213015.598,10.742,48.340,30.273,15.625,43.945,0
213015.602,9.766,42.969,19.531,9.766,30.762,0
213015.606,5.859,37.109,19.043,4.395,30.273,0
213015.610,6.836,34.180,20.996,3.906,42.969,0
213015.613,7.812,38.086,21.973,-0.977,21.973,0
213015.617,6.836,39.551,24.414,9.277,48.828,0
213015.621,11.230,37.598,24.902,22.949,80.566,0
213015.625,15.625,38.574,25.391,20.508,37.598,0
213015.629,15.137,36.621,23.438,16.602,42.480,0
213015.633,16.113,35.156,23.926,23.438,88.379,0
213015.637,20.020,38.574,27.832,30.273,92.773,0
213015.641,21.973,36.133,28.320,28.320,57.129,0
213015.645,24.414,34.668,30.273,27.344,56.641,0
213015.649,26.855,34.668,25.879,32.227,83.496,0
213015.652,29.785,37.109,27.344,36.621,97.656,0
213015.656,30.273,39.062,24.902,33.203,74.219,0
213015.660,21.484,30.762,18.555,20.020,39.551,0
213015.664,20.508,20.020,22.461,20.020,14.160,0
213015.668,23.926,22.461,26.367,24.902,17.578,0
213015.672,23.438,33.203,27.832,18.555,56.641,0
213015.676,24.902,38.574,30.273,20.508,52.246,0
213015.680,28.320,38.086,32.227,25.391,24.902,0
213015.684,26.367,31.738,32.715,24.414,28.320,0
213015.688,25.879,27.832,34.180,24.414,50.293,0
213015.692,24.902,27.832,34.180,22.949,73.242,0
213015.695,24.414,30.762,33.203,33.691,52.246,0
213015.699,24.902,31.250,32.715,36.133,25.391,0
213015.703,22.461,27.832,31.738,18.066,11.719,0
213015.707,21.973,26.367,30.762,19.531,54.688,0
213015.711,23.926,28.320,31.738,28.320,72.266,0
213015.715,20.508,27.832,32.227,22.949,9.766,0
213015.719,16.602,30.762,26.855,23.438,0.000,0
213015.723,16.602,33.203,24.902,26.367,46.387,0
213015.727,19.043,33.203,26.367,23.926,31.738,0
213015.731,22.461,34.180,31.738,23.926,-30.762,0
213015.735,23.438,33.691,39.062,30.762,-53.711,0
213015.738,28.809,36.133,35.156,35.156,-19.531,0
213015.742,31.738,37.598,30.762,34.668,16.113,0
213015.746,32.227,32.227,29.785,34.668,14.160,0
213015.750,35.156,32.227,30.273,33.203,26.367,0
213015.754,37.109,36.133,33.203,35.645,44.922,0
213015.758,35.645,33.203,33.691,38.086,15.625,0
213015.762,29.785,32.227,34.668,38.086,-21.484,0
213015.766,28.320,38.086,35.156,42.480,17.578,0
213015.770,31.738,44.922,37.598,43.457,41.016,0
213015.774,24.902,41.504,33.203,32.715,7.324,0
213015.777,13.184,37.109,23.926,20.996,4.883,0
213015.781,10.742,37.109,22.461,22.949,32.227,0
213015.785,12.695,34.668,25.391,31.738,61.523,0
213015.789,14.648,34.668,28.320,28.320,20.508,0
213015.793,16.113,36.621,25.391,28.809,13.184,0
213015.797,14.648,35.156,22.949,26.855,65.430,0
213015.801,18.555,41.992,28.809,29.785,64.941,0
213015.805,20.508,43.945,33.203,30.762,53.223,2
213015.809,20.020,36.133,29.785,18.555,51.270,0
213015.813,25.391,35.645,21.973,19.531,69.336,0
213015.817,27.344,35.645,22.461,25.391,115.723,0
213015.820,22.949,34.180,28.809,24.414,98.633,0
213015.824,18.066,30.762,33.203,24.414,81.543,0
213015.828,19.043,29.785,35.156,30.273,79.590,0
213015.832,14.160,31.738,31.250,35.156,67.871,0
213015.836,8.789,31.250,26.855,35.156,87.891,0
213015.840,6.836,28.320,29.785,26.367,97.656,0
213015.844,1.465,25.391,32.227,20.020,64.453,0
213015.848,7.324,28.809,26.855,24.414,39.062,0
213015.852,19.531,32.715,28.809,27.344,0.977,0
213015.856,17.090,29.297,31.738,27.344,-4.395,0
213015.860,7.812,27.344,28.809,22.949,71.777,0
213015.863,4.395,26.855,25.879,13.672,98.145,0
213015.867,6.348,22.461,30.273,11.230,83.984,0
213015.871,10.742,25.391,31.250,12.695,62.500,0
213015.875,13.184,31.738,31.738,17.090,86.914,0
213015.879,13.672,31.738,34.668,19.043,75.684,0
213015.883,12.207,28.320,37.109,19.531,-10.742,0
213015.887,13.672,26.367,41.504,24.414,-26.855,0
213015.891,16.602,32.227,36.133,27.832,21.973,0
213015.895,20.508,35.645,31.250,25.391,2.930,0
213015.899,20.020,34.180,32.227,22.461,-58.105,0
213015.902,13.672,32.227,32.227,20.508,1.465,0
213015.906,21.484,32.227,32.715,22.461,34.668,0
213015.910,29.785,29.297,35.156,24.902,-5.371,0
213015.914,30.273,26.855,34.668,27.832,-8.301,0
213015.918,28.809,26.367,33.691,27.344,33.203,0
213015.922,24.902,25.391,37.598,26.367,63.965,0
213015.926,24.414,28.809,34.668,28.809,27.832,0
213015.930,28.320,34.668,35.156,33.691,5.371,0
213015.934,29.297,38.574,39.062,35.645,11.230,0
213015.938,29.297,40.527,36.133,32.227,27.832,0
213015.942,35.156,40.527,31.738,24.902,24.414,0
213015.945,38.086,41.992,30.273,21.973,20.508,0
213015.949,32.715,38.086,28.809,29.297,25.391,0
213015.953,32.227,32.715,23.926,27.344,-11.719,0
213015.957,37.109,29.785,27.344,28.809,9.277,0
213015.961,36.133,32.227,28.809,28.320,-11.230,0
213015.965,35.156,42.969,29.297,27.832,-13.672,0
213015.969,38.574,42.480,28.320,26.855,50.781,0
213015.973,42.480,38.574,28.809,26.367,52.246,0
213015.977,43.457,42.480,33.203,33.691,20.508,0
213015.981,38.574,41.992,32.227,34.180,-1.953,0
213015.985,35.645,40.039,34.180,28.809,-20.508,0
213015.988,35.156,35.645,32.715,20.996,-43.945,0
213015.992,31.250,34.180,29.297,24.902,-23.438,0
213015.996,27.344,35.645,32.227,31.250,24.414,0
213016.000,24.414,32.715,30.762,26.367,22.461,0
213016.004,26.367,30.273,32.227,27.344,49.805,0
213016.008,25.879,29.297,33.203,30.762,79.590,0
213016.012,28.320,31.250,34.668,34.668,48.340,0
213016.016,33.203,31.738,34.668,33.691,10.742,0
213016.020,30.762,27.832,29.297,29.297,20.508,0
213016.024,28.809,27.344,31.250,33.691,71.289,0
213016.027,26.367,27.832,30.762,38.086,57.617,0
213016.031,23.438,22.949,28.320,36.133,27.832,0
213016.035,19.531,25.879,34.668,31.250,71.777,0
213016.039,24.902,36.133,40.039,37.598,72.754,0
213016.043,31.250,37.109,40.527,43.945,24.902,0
213016.047,33.691,36.621,35.645,41.992,31.250,0
213016.051,34.180,32.715,33.203,41.016,61.523,0
213016.055,30.762,26.855,35.156,41.992,70.801,0
213016.059,32.227,28.809,33.691,40.039,56.641,0
213016.063,33.203,33.691,37.109,37.109,52.246,0
213016.067,34.668,38.574,39.551,37.109,60.547,0
213016.070,36.133,39.062,36.133,41.504,63.477,0
213016.074,31.250,36.621,39.551,41.016,37.598,0
213016.078,25.391,38.574,36.621,24.902,-17.578,0
213016.082,23.438,39.551,28.320,25.391,-5.859,0
213016.086,21.484,37.598,29.785,34.180,54.199,0
213016.090,20.508,36.621,29.785,30.762,56.641,0
213016.094,21.973,35.156,28.320,28.809,55.664,0
213016.098,21.484,33.203,31.738,28.809,88.379,0
213016.102,21.973,33.691,33.691,31.250,80.566,0
213016.106,28.320,39.551,33.691,33.691,28.320,0
213016.110,35.156,45.410,33.203,37.598,3.418,0
213016.113,30.273,42.480,31.250,39.062,12.207,0
213016.117,26.855,35.156,26.367,32.227,-11.719,0
213016.121,28.320,34.668,24.902,24.414,-2.441,0
213016.125,30.273,36.133,34.668,22.461,51.758,0
213016.129,27.344,36.133,37.109,25.879,64.941,0
213016.133,20.996,36.133,31.250,26.367,55.176,0
213016.137,19.531,35.645,28.320,20.508,17.578,0
213016.141,19.531,38.086,24.902,22.461,24.902,0
213016.145,18.555,35.156,27.832,28.320,67.871,0
213016.149,19.531,33.203,30.762,28.809,49.316,0
213016.152,20.508,33.691,30.762,26.367,25.879,0
213016.156,21.973,33.203,30.273,26.855,0.977,0
213016.160,22.949,30.273,31.250,24.902,-12.207,0
213016.164,16.602,23.438,23.438,18.066,14.160,0
213016.168,13.672,27.344,20.508,24.414,-9.766,0
213016.172,14.160,32.715,26.855,19.043,-39.062,0
213016.176,17.090,31.738,26.367,11.719,-31.738,0
213016.180,16.602,30.762,29.785,12.695,-53.711,0
213016.184,14.648,32.715,29.785,7.812,-51.758,0
213016.188,16.602,31.738,28.809,18.555,0.977,0
213016.192,20.508,28.320,32.715,28.320,-0.488,0
213016.195,26.367,29.297,33.203,21.973,-48.828,0
213016.199,23.438,34.668,32.227,21.484,-10.742,0
213016.203,19.531,37.109,32.227,27.832,23.438,0
213016.207,20.508,38.574,31.738,31.250,36.621,0
213016.211,20.508,37.109,31.738,28.320,51.270,0
213016.215,22.461,38.574,30.273,27.344,3.418,0
213016.219,26.367,38.086,29.297,32.715,20.996,0
213016.223,22.461,31.738,27.832,30.762,51.758,0
213016.227,19.531,34.180,27.344,22.949,43.457,0
213016.231,23.438,35.645,35.645,24.414,70.312,0
213016.235,23.926,30.762,34.668,31.738,79.590,0
213016.238,20.996,33.203,25.391,23.926,56.641,0
213016.242,22.461,36.621,25.879,19.043,19.531,0
213016.246,24.414,36.133,24.414,23.926,37.109,0
213016.250,23.438,36.621,22.461,25.879,71.777,0
213016.254,28.320,37.598,26.855,23.438,68.848,0
213016.258,36.621,35.156,31.250,23.926,30.273,0
213016.262,31.738,34.668,29.297,17.578,22.461,0
213016.266,26.855,39.062,26.855,13.184,64.453,0
213016.270,25.879,37.598,28.809,20.996,31.250,0
213016.274,20.020,34.668,28.809,20.996,-8.301,0
213016.277,16.113,27.832,26.855,16.602,28.809,0
213016.281,10.254,24.902,28.320,19.043,29.785,0
213016.285,10.254,31.738,35.156,20.508,19.043,0
213016.289,14.160,37.109,33.691,20.508,3.418,0
213016.293,13.184,36.133,31.250,22.949,9.766,0
213016.297,12.207,30.762,31.250,26.367,54.688,0
213016.301,11.230,31.250,29.785,22.949,68.848,0
213016.305,13.672,33.691,33.203,21.973,82.031,0
213016.309,14.160,32.227,35.645,29.297,60.059,0
213016.313,9.277,29.785,31.250,25.879,-24.414,0
213016.317,11.719,29.785,27.832,19.043,-36.133,0
213016.320,17.090,31.738,25.391,20.996,21.484,0
213016.324,28.809,33.203,24.902,32.715,65.918,0
213016.328,37.109,33.691,26.367,39.062,36.133,0
213016.332,24.902,22.461,34.180,25.391,17.090,0
213016.336,6.836,18.555,33.691,11.230,72.754,0
213016.340,4.883,25.879,23.926,11.719,72.754,0
213016.344,8.789,28.809,29.297,15.625,48.340,0
213016.348,14.648,29.785,33.691,20.020,66.895,0
213016.352,20.508,31.250,36.133,25.879,81.543,0
213016.356,19.043,32.715,38.574,28.320,46.875,0
213016.360,22.461,27.832,43.457,32.715,8.301,0
213016.363,17.578,24.902,45.410,25.879,16.602,0
213016.367,12.207,25.879,42.480,23.926,21.973,0
213016.371,16.602,24.414,39.062,32.227,39.062,0
213016.375,17.090,24.414,34.668,26.855,63.965,0
213016.379,16.113,26.367,37.598,25.391,53.711,0
213016.383,22.461,29.785,38.086,30.762,49.316,0
213016.387,31.738,31.738,32.227,34.180,70.312,0
213016.391,34.180,29.785,37.109,46.387,61.035,0
213016.395,34.668,25.391,40.527,49.316,34.668,0
213016.399,34.180,25.879,39.551,44.922,56.641,0
213016.402,37.109,29.297,35.645,46.387,48.340,0
213016.406,38.574,32.227,34.668,32.715,4.883,0
213016.410,36.133,34.668,33.691,22.461,2.441,0
213016.414,36.621,35.645,31.250,27.344,37.598,0
213016.418,35.645,35.645,30.762,30.762,52.246,0
213016.422,30.762,34.668,28.809,28.320,51.270,0
213016.426,26.367,32.227,30.273,24.414,62.012,0
213016.430,19.043,28.320,40.039,25.391,58.105,0
213016.434,13.184,26.855,37.109,23.926,30.273,0
213016.438,15.625,29.297,31.250,22.949,47.363,0
213016.442,16.602,29.785,34.180,26.855,74.707,0
213016.445,18.555,28.809,32.227,26.855,67.871,0
213016.449,22.949,31.250,31.250,27.832,46.875,0
213016.453,26.367,35.156,28.809,25.391,4.395,1
213016.457,26.855,38.574,34.180,27.832,21.973,0
213016.461,20.508,29.785,38.574,27.832,48.828,0
213016.465,12.207,23.438,34.180,22.949,53.711,0
213016.469,14.648,27.344,36.133,31.250,34.668,0
213016.473,13.672,30.762,37.109,32.227,28.320,0
213016.477,9.277,29.297,35.645,26.367,46.387,0
213016.481,6.836,26.855,34.180,25.879,32.227,0
213016.485,9.277,26.855,30.762,22.949,33.203,0
213016.488,17.090,26.855,29.297,23.438,24.902,0
213016.492,21.973,34.668,28.809,27.832,6.836,0
213016.496,23.926,32.227,28.809,33.203,19.043,0
213016.500,19.531,27.832,27.344,20.996,4.883,0
213016.504,17.578,34.668,25.879,15.137,-7.324,0
213016.508,20.996,35.645,29.297,19.043,24.902,0
213016.512,20.996,34.668,31.738,17.578,52.734,0
213016.516,19.043,34.180,33.691,24.414,91.797,0
213016.520,17.578,34.180,32.715,29.785,86.426,0
213016.524,18.066,36.621,29.297,28.809,51.758,0
213016.527,17.578,37.109,30.762,22.949,41.504,0
213016.531,11.230,37.109,31.250,20.996,46.387,0
213016.535,14.160,38.574,31.738,30.273,75.195,0
213016.539,19.043,37.598,33.691,32.715,39.062,0
213016.543,20.020,33.691,38.086,29.785,20.020,0
213016.547,20.508,35.156,34.668,31.250,77.637,0
213016.551,22.949,39.062,27.344,32.227,111.816,0
213016.555,28.809,41.992,33.691,35.156,77.148,0
213016.559,22.949,40.039,32.227,25.879,15.625,0
213016.563,16.113,35.645,30.273,21.973,12.207,0
213016.567,20.020,36.621,34.180,32.715,48.828,0
213016.570,18.555,34.180,32.227,27.832,25.391,0
213016.574,13.672,30.273,33.203,20.508,-1.953,0
213016.578,15.137,29.297,35.156,24.902,-5.371,0
213016.582,22.461,33.203,36.621,29.785,-16.113,0
213016.586,26.855,35.645,38.086,29.785,11.230,0
213016.590,24.902,30.273,40.527,25.879,19.043,0
213016.594,26.367,29.297,37.109,23.438,21.484,0
213016.598,28.809,34.180,29.785,25.879,9.277,0
213016.602,29.297,34.180,30.762,23.926,12.207,0
213016.606,30.273,34.668,31.738,23.438,35.156,0
213016.610,25.391,34.180,30.273,28.809,45.898,0
213016.613,21.973,34.180,33.691,27.344,43.945,0
213016.617,20.508,34.180,34.180,26.855,43.945,0
213016.621,20.020,28.320,30.762,21.973,35.645,0
213016.625,20.508,25.879,31.250,20.996,50.781,0
213016.629,23.438,30.273,33.203,24.902,71.289,0
213016.633,28.320,31.738,35.156,24.414,87.402,0
213016.637,33.203,31.250,32.227,22.949,75.684,0
213016.641,34.668,34.180,28.320,24.414,45.898,0
213016.645,33.203,35.156,32.227,26.367,25.879,0
213016.649,32.715,38.086,27.832,22.461,10.254,0
213016.652,34.180,38.086,21.973,27.344,0.977,0
213016.656,30.273,31.738,29.785,32.715,0.488,0
213016.660,27.344,31.250,34.180,30.762,20.020,0
213016.664,26.367,32.227,32.715,28.320,22.461,0
213016.668,22.461,31.738,27.832,24.902,23.926,0
213016.672,28.320,33.691,27.832,27.344,-2.930,0
213016.676,31.738,35.645,30.273,24.414,-28.809,0
213016.680,28.320,32.227,24.902,18.555,2.441,0
213016.684,31.250,33.203,22.461,25.391,27.832,0
213016.688,33.691,35.156,22.949,31.738,25.391,0
213016.692,34.180,30.273,29.785,22.949,-23.926,0
213016.695,31.738,26.367,34.180,26.367,19.531,0
213016.699,30.273,31.250,30.273,38.086,57.617,0
213016.703,26.367,33.691,31.738,32.715,34.668,0
213016.707,18.555,35.645,33.691,27.344,58.594,0
213016.711,21.973,37.109,35.645,28.320,71.777,0
213016.715,27.832,38.574,34.180,29.785,89.844,0
213016.719,31.250,42.969,30.762,27.832,83.008,0
213016.723,33.691,41.016,28.320,28.320,70.801,0
213016.727,33.203,40.039,27.832,26.855,66.895,0
213016.731,31.738,38.574,26.367,27.344,66.895,0
213016.735,27.832,33.691,32.227,35.156,72.754,0
213016.738,24.414,33.203,36.133,31.250,43.457,0
213016.742,20.996,32.227,33.691,31.250,57.129,0
213016.746,17.578,30.273,37.598,31.738,49.316,0
213016.750,20.508,31.250,35.156,25.879,-5.859,0
213016.754,25.391,33.691,30.273,22.949,10.742,0
213016.758,26.367,35.645,29.785,22.949,26.367,0
213016.762,24.414,35.645,26.367,23.926,8.301,0
213016.766,27.344,35.156,28.320,19.043,-6.348,0
213016.770,29.785,32.715,27.344,17.578,-6.836,0
213016.774,25.391,29.297,23.926,21.973,39.551,0
213016.777,20.996,29.785,27.344,20.020,56.152,0
213016.781,21.973,31.738,30.762,10.742,-18.555,0
213016.785,16.602,29.785,29.297,9.766,-56.152,0
213016.789,13.184,26.367,27.832,20.020,-28.320,0
213016.793,17.578,26.367,27.832,21.484,-44.434,0
213016.797,17.578,28.809,26.367,13.672,-63.965,0
213016.801,18.555,31.250,21.973,12.695,-42.969,0
213016.805,20.996,36.133,22.461,18.555,37.109,0
213016.809,25.391,36.133,26.855,23.926,63.477,0
213016.813,27.344,34.668,28.809,21.973,34.180,0
213016.817,28.809,34.180,33.691,24.902,29.785,0
213016.820,27.344,30.762,35.156,26.367,31.250,0
213016.824,22.461,27.344,33.203,18.555,-16.113,0
213016.828,18.555,25.879,30.762,15.137,-32.227,0
213016.832,24.414,28.809,34.180,29.297,20.020,0
213016.836,29.785,31.738,33.203,30.762,37.598,0
213016.840,26.367,38.574,31.738,20.996,13.672,0
213016.844,26.367,39.551,26.367,22.949,7.324,0
213016.848,30.273,36.133,18.555,17.090,42.480,0
213016.852,30.273,34.180,23.926,13.672,42.969,0
213016.856,25.391,33.203,30.762,15.625,35.156,0
213016.860,21.484,34.180,36.621,16.602,56.152,0
213016.863,19.531,29.785,38.086,20.020,54.688,0
213016.867,20.996,29.297,36.621,23.926,87.891,0
213016.871,23.926,33.203,35.645,29.297,83.008,0
213016.875,25.391,32.227,33.691,26.367,11.230,0
213016.879,26.367,31.738,34.180,22.949,1.953,0
213016.883,30.762,33.691,31.738,26.855,41.504,0
213016.887,27.832,31.250,25.879,17.090,28.809,0
213016.891,21.973,28.320,24.902,8.789,-26.367,0
213016.895,22.949,28.809,33.691,20.508,1.953,0
213016.899,18.555,28.809,34.668,22.949,-6.348,0
213016.902,19.531,34.668,28.809,23.438,-31.250,0
213016.906,24.414,38.086,35.645,32.715,20.020,0
213016.910,24.902,31.738,37.598,38.086,24.414,0
213016.914,25.879,26.855,34.180,36.133,15.625,0
213016.918,25.391,30.273,33.691,41.016,3.418,0
213016.922,24.414,37.109,28.809,39.551,-2.930,0
213016.926,23.926,39.062,24.414,29.297,12.207,0
213016.930,25.879,34.180,27.344,21.484,47.363,0
213016.934,26.855,33.691,30.762,14.648,24.902,0
213016.938,26.855,38.086,37.109,21.973,24.902,0
213016.942,23.926,37.598,40.527,30.273,52.246,0
213016.945,22.461,33.691,29.297,30.273,37.598,0
213016.949,30.273,32.715,25.879,40.527,49.805,0
213016.953,28.809,34.180,30.273,41.016,45.898,0
213016.957,12.695,32.715,29.297,21.484,3.906,0
213016.961,13.184,34.180,26.855,21.484,-4.395,0
213016.965,19.531,35.156,29.785,28.809,8.789,0
213016.969,20.508,32.715,34.668,29.297,16.113,0
213016.973,18.066,32.227,32.715,33.203,15.625,0
213016.977,14.648,34.180,31.250,23.438,-1.465,0
213016.981,20.020,36.133,33.691,22.949,-16.113,0
213016.985,21.484,37.598,32.715,33.691,3.906,0
213016.988,17.578,34.668,26.367,25.879,-5.371,0
213016.992,15.137,29.297,21.973,19.043,-11.719,0
213016.996,15.137,26.367,21.484,23.438,40.039,0
213017.000,17.578,24.414,27.344,29.297,49.316,0
213017.004,20.020,30.273,31.250,24.902,32.715,0
213017.008,20.020,32.715,25.391,17.578,50.293,0
213017.012,18.066,29.297,24.902,21.484,41.016,0
213017.016,20.020,30.762,30.762,26.367,22.949,0
213017.020,26.367,32.715,34.668,23.926,33.203,0
213017.024,33.691,34.668,33.203,22.461,46.875,0
213017.027,32.715,38.086,30.762,26.855,36.133,0
213017.031,28.809,36.621,28.320,26.855,52.246,1
213017.035,20.508,33.203,24.902,15.137,55.176,0
213017.039,13.672,32.227,24.902,17.090,63.477,0
213017.043,10.742,29.297,30.273,25.879,97.656,0
213017.047,6.348,29.297,34.668,28.320,71.289,0
213017.051,9.766,29.297,27.344,25.879,28.320,0
213017.055,10.254,32.227,25.391,19.043,-16.602,0
213017.059,9.277,34.668,32.715,18.066,-15.137,0
213017.063,10.742,30.273,33.691,19.043,8.301,0
213017.067,9.766,30.762,28.320,16.602,53.711,0
213017.070,12.207,34.180,29.297,18.066,109.375,0
213017.074,15.625,32.715,34.180,28.809,114.258,0
213017.078,20.020,34.180,30.762,31.250,74.219,0
213017.082,15.137,31.250,28.320,16.602,59.082,0
213017.086,13.672,25.391,33.691,8.789,56.152,0
213017.090,20.020,27.344,34.180,19.043,26.367,0
213017.094,18.555,28.320,36.621,21.973,14.648,0
213017.098,17.578,25.391,40.039,24.902,53.711,0
213017.102,20.508,26.855,40.527,28.320,39.062,0
213017.106,25.391,33.203,36.621,33.203,52.246,0
213017.110,28.809,37.598,31.738,36.621,32.227,0
213017.113,31.250,39.062,30.273,27.832,-13.184,0
213017.117,31.250,40.039,28.320,28.320,6.348,0
213017.121,28.320,43.457,36.621,33.203,-12.207,0
213017.125,30.762,47.363,41.504,28.809,-7.812,0
213017.129,30.762,39.551,36.621,23.438,-10.254,0
213017.133,28.320,33.203,31.738,21.973,-25.391,0
213017.137,28.320,34.668,29.297,26.367,2.930,0
213017.141,23.926,31.250,33.691,29.297,19.043,0
213017.145,20.996,30.762,36.133,29.297,19.043,0
213017.149,24.414,33.691,32.227,31.250,11.230,0
213017.152,31.250,34.668,35.156,34.180,-23.438,0
213017.156,34.668,35.645,41.016,26.855,-52.246,0
213017.160,29.297,36.621,37.109,20.996,-40.039,0
213017.164,22.461,34.180,34.180,31.738,-8.789,0
213017.168,18.555,32.715,37.109,36.133,7.324,0
213017.172,18.066,34.668,34.668,23.926,2.441,0
213017.176,22.949,36.621,33.203,25.391,12.207,0
213017.180,21.484,35.156,31.250,31.250,27.832,0
213017.184,17.090,29.785,26.855,27.832,21.973,0
213017.188,13.672,29.785,28.320,26.367,28.320,0
213017.192,5.859,28.320,30.762,21.973,-2.441,0
213017.195,5.371,25.879,32.227,22.461,1.953,0
213017.199,10.254,29.297,31.250,24.414,27.344,0
213017.203,12.695,30.273,34.668,17.090,24.902,0
213017.207,16.113,30.762,35.645,17.578,68.359,0
213017.211,18.066,33.203,29.785,25.391,83.008,0
213017.215,18.555,34.180,31.250,27.344,51.758,0
213017.219,19.043,34.180,33.691,34.180,42.969,0
213017.223,20.020,30.273,31.738,36.133,36.133,0
213017.227,20.508,29.297,31.738,35.156,60.059,0
213017.231,26.855,35.645,39.551,40.039,59.082,0
213017.235,29.297,33.691,42.480,40.527,53.223,0
213017.238,24.414,31.738,36.621,33.691,70.312,0
213017.242,20.996,31.250,30.273,27.832,52.734,0
213017.246,20.996,30.273,30.762,24.902,34.668,0
213017.250,24.902,32.227,36.133,23.926,36.621,0
213017.254,27.832,31.250,37.598,23.438,45.898,0
213017.258,31.250,29.297,36.621,25.879,41.016,0
213017.262,32.227,26.367,40.527,22.949,8.789,0
213017.266,35.156,30.273,39.551,27.832,19.043,0
213017.270,39.551,36.133,33.203,38.086,33.203,0
213017.274,36.133,34.180,34.180,34.668,-14.160,0
213017.277,32.715,34.668,32.715,27.832,-41.992,0
213017.281,35.645,36.621,34.180,28.809,34.180,0
213017.285,29.297,34.180,32.227,23.438,75.195,0
213017.289,26.855,35.645,26.367,23.438,59.082,0
213017.293,33.203,39.062,27.344,29.785,62.500,0
213017.297,33.203,39.062,26.855,23.926,55.176,0
213017.301,32.715,40.527,24.902,25.391,79.102,0
213017.305,31.250,38.574,25.879,25.879,64.941,0
213017.309,25.879,34.180,25.879,15.625,28.809,0
213017.313,23.438,34.668,23.926,19.043,46.387,0
213017.317,19.531,37.109,24.902,23.926,34.668,0
213017.320,20.020,38.574,31.738,20.508,42.969,0
213017.324,25.879,39.551,34.180,26.367,44.922,0
213017.328,23.438,37.598,27.344,29.785,17.578,0
213017.332,17.578,35.645,21.973,26.367,0.977,0
213017.336,20.996,35.156,18.066,23.438,9.277,0
213017.340,19.531,30.273,19.531,23.438,31.250,0
213017.344,15.137,30.273,25.879,19.531,5.859,0
213017.348,21.484,35.156,31.250,22.949,39.062,0
213017.352,25.391,35.645,31.738,23.926,50.781,0
213017.356,23.438,35.156,32.227,21.973,36.133,0
213017.360,24.902,35.645,33.691,27.832,93.750,0
213017.363,30.762,38.086,33.691,29.297,50.293,0
213017.367,30.273,41.016,33.203,27.832,0.488,0
213017.371,29.785,40.039,32.227,27.344,17.578,0
213017.375,32.715,35.645,27.832,27.344,21.484,0
213017.379,28.320,34.668,27.832,25.391,10.742,0
213017.383,22.949,35.156,28.809,27.344,-12.207,0
213017.387,20.996,33.691,30.273,24.902,11.230,0
213017.391,20.020,32.227,33.691,22.949,81.543,0
213017.395,17.090,34.180,31.738,24.902,45.898,0
213017.399,18.555,35.645,33.691,22.461,-16.113,0
213017.402,23.926,35.645,35.156,25.879,19.531,0
213017.406,21.973,32.715,30.762,22.461,43.945,0
213017.410,24.902,34.180,28.809,19.043,20.020,0
213017.414,30.762,37.598,28.809,20.996,1.953,0
213017.418,32.715,32.227,27.832,23.926,6.836,0
213017.422,34.180,37.109,27.344,26.367,7.812,0
213017.426,28.809,40.527,26.367,21.484,8.301,0
213017.430,20.020,32.227,26.855,22.949,-16.602,0
213017.434,21.484,32.227,28.809,26.367,-7.812,0
213017.438,24.902,34.668,28.320,26.367,54.199,0
213017.442,22.949,33.691,26.855,18.066,31.738,0
213017.445,24.414,31.250,29.297,13.184,-13.672,0
213017.449,24.902,30.762,31.738,22.949,25.879,0
213017.453,25.391,31.738,24.414,25.391,82.520,0
213017.457,25.879,32.715,20.996,21.484,86.914,0
213017.461,21.973,34.180,27.344,17.578,80.078,0
213017.465,18.066,31.250,30.273,17.578,74.219,0
213017.469,16.602,29.297,30.273,25.879,45.898,0
213017.473,14.160,26.367,28.809,30.762,31.250,0
213017.477,9.766,22.461,32.227,23.438,50.781,0
213017.481,8.789,24.414,31.738,16.602,56.641,0
213017.485,8.789,26.367,29.785,12.695,35.645,0
213017.488,9.277,30.762,30.762,9.766,36.133,0
213017.492,12.695,34.180,29.297,16.113,56.152,0
213017.496,13.672,31.738,25.879,23.926,81.055,0
213017.500,10.742,32.227,30.762,16.602,35.156,0
213017.504,11.230,34.180,31.738,22.461,7.812,0
213017.508,17.090,35.156,23.438,34.668,15.137,0
213017.512,21.973,40.527,26.367,24.414,-14.160,0
213017.516,19.531,40.527,30.273,17.090,-15.625,0
213017.520,10.742,32.227,29.785,15.625,47.852,0
213017.524,6.348,30.273,30.762,11.719,95.215,0
213017.527,7.324,30.273,33.203,11.719,42.480,0
213017.531,8.789,29.785,33.691,5.859,3.418,0
213017.535,8.301,31.738,33.203,2.930,-5.371,0
213017.539,10.254,31.250,35.156,19.531,3.418,0
213017.543,13.184,36.621,36.133,25.879,12.695,0
213017.547,13.672,34.668,36.133,23.926,-6.836,0
213017.551,17.578,25.391,38.574,28.809,9.766,0
213017.555,19.531,26.855,38.086,29.297,26.855,0
213017.559,23.438,30.762,33.691,28.809,10.254,0
213017.563,27.832,35.156,28.320,36.133,1.953,0
213017.567,28.320,36.621,29.297,37.598,5.859,0
213017.570,29.297,37.598,33.203,33.203,17.090,0
213017.574,26.855,41.016,33.203,26.855,29.297,0
213017.578,20.996,34.668,28.320,13.184,22.949,0
213017.582,14.648,25.879,24.902,15.137,56.641,0
213017.586,13.672,25.391,25.391,30.762,86.426,0
213017.590,14.648,29.297,29.297,29.297,43.457,0
213017.594,17.090,31.250,31.250,20.020,11.719,0
213017.598,23.438,31.250,30.762,21.973,29.297,0
213017.602,25.879,32.227,32.715,27.832,62.500,0
213017.606,28.320,33.203,34.180,30.273,62.012,0
213017.610,29.297,32.715,30.762,27.832,61.035,0
213017.613,25.391,33.691,30.762,26.367,55.664,0
213017.617,28.809,40.527,38.086,30.762,54.199,0
213017.621,38.086,41.504,36.133,34.180,31.250,0
213017.625,38.086,35.156,31.250,32.227,5.859,0
213017.629,30.762,35.645,32.715,30.273,20.508,0
213017.633,27.832,35.156,33.691,35.645,20.020,0
213017.637,29.297,36.133,31.250,33.203,22.461,0
213017.641,26.367,34.180,28.809,32.227,35.156,0
213017.645,20.020,30.273,28.809,40.527,76.172,0
213017.649,18.066,33.691,25.879,32.715,75.195,0
213017.652,24.414,36.133,26.855,24.902,37.598,0
213017.656,30.273,36.133,32.715,27.344,31.250,0
213017.660,29.297,41.992,39.062,29.785,34.668,0
213017.664,27.832,42.969,37.598,32.227,58.594,0
213017.668,26.855,34.668,30.273,28.809,33.691,0
213017.672,24.902,32.227,27.832,25.391,24.902,0
213017.676,22.461,33.203,28.809,31.250,65.918,0
213017.680,20.996,36.133,30.762,31.738,46.875,0
213017.684,20.508,36.133,38.574,19.043,16.113,0
213017.688,21.973,34.668,38.086,20.020,33.691,0
213017.692,24.414,35.645,31.250,29.785,60.547,1
213017.695,24.414,33.691,31.250,28.320,81.543,0
213017.699,27.832,33.691,35.156,26.855,87.402,0
213017.703,28.320,37.598,36.621,29.785,70.801,0
213017.707,24.902,37.598,32.227,33.203,38.086,0
213017.711,24.902,36.133,35.156,35.645,14.648,0
213017.715,29.297,39.551,35.156,39.062,12.207,0
213017.719,33.203,40.527,33.203,40.039,52.734,0
213017.723,27.344,36.621,36.621,35.645,59.570,0
213017.727,18.555,27.832,38.086,22.461,-7.812,0
213017.731,13.672,24.902,39.062,14.160,-6.836,0
213017.735,11.230,27.832,31.250,24.414,46.875,0
213017.738,13.184,29.785,28.320,27.344,5.859,0
213017.742,15.625,33.203,31.738,23.438,-27.832,0
213017.746,19.531,36.133,32.715,30.273,32.715,0
213017.750,24.902,37.598,35.156,41.992,30.273,0
213017.754,21.973,32.715,33.691,37.109,30.762,0
213017.758,20.508,31.738,33.203,30.762,37.109,0
213017.762,19.531,34.180,35.156,30.273,35.645,0
213017.766,18.066,34.180,32.715,30.273,18.066,0
213017.770,21.484,36.621,31.738,33.691,-11.230,0
213017.774,19.531,37.598,30.273,26.855,-29.785,0
213017.777,12.207,33.691,26.367,22.949,-15.625,0
213017.781,18.066,30.762,33.203,32.227,21.484,0
213017.785,23.438,30.273,36.133,31.738,4.883,0
213017.789,20.020,29.297,28.809,23.926,20.508,0
213017.793,26.855,24.414,29.297,38.574,81.055,0
213017.797,27.832,26.855,31.250,39.062,77.148,0
213017.801,8.789,35.156,21.973,9.766,36.621,0
213017.805,7.812,35.156,17.578,7.324,-0.977,0
213017.809,17.578,32.715,21.484,23.438,12.695,0
213017.813,17.090,33.691,19.043,23.438,-1.953,0
213017.817,22.461,38.086,20.996,24.414,-25.879,0
213017.820,23.926,41.504,24.902,23.438,-34.180,0
213017.824,20.508,42.480,24.414,21.484,2.930,0
213017.828,24.414,39.062,24.902,29.297,22.461,0
213017.832,27.832,32.227,27.832,31.250,19.531,0
213017.836,19.531,32.227,25.879,24.414,58.105,0
213017.840,17.090,32.715,18.555,24.902,49.805,0
213017.844,17.578,34.180,17.578,21.484,-10.742,0
213017.848,16.113,40.527,19.531,21.973,-5.371,0
213017.852,13.672,39.551,18.066,24.902,31.250,0
213017.856,13.672,35.156,18.555,19.531,1.953,0
213017.860,16.602,31.738,22.461,12.695,-11.230,0
213017.863,20.996,27.344,26.367,9.277,-24.902,0
213017.867,21.973,25.879,23.438,14.648,-10.254,0
213017.871,30.273,24.414,19.043,20.996,49.805,0
213017.875,31.250,15.137,19.531,19.531,34.668,0
213017.879,21.484,20.020,20.508,19.531,-2.930,0
213017.883,33.691,39.062,24.414,39.551,8.301,0
213017.887,38.574,42.969,22.949,41.016,30.273,0
213017.891,16.602,37.598,19.531,10.254,29.785,0
213017.895,7.324,36.133,28.809,4.883,35.156,0
213017.899,20.508,41.992,34.668,19.043,31.250,0
213017.902,41.016,46.387,28.809,35.645,28.320,0
213017.906,37.598,38.574,29.297,35.645,35.645,0
213017.910,18.555,32.227,29.785,20.020,9.277,0
213017.914,12.207,35.645,28.809,19.043,15.625,0
213017.918,18.555,39.551,24.902,27.344,41.504,0
213017.922,18.555,31.738,21.973,22.949,37.598,0
213017.926,14.160,29.785,28.809,19.043,56.152,0
213017.930,13.672,34.180,33.691,24.414,75.195,0
213017.934,16.113,33.203,35.645,29.785,90.820,0
213017.938,15.625,36.133,37.109,29.785,78.613,0
213017.942,16.602,36.621,35.645,28.809,68.848,0
213017.945,21.484,34.668,33.691,34.668,76.660,0
213017.949,22.949,35.156,32.227,37.109,58.105,0
213017.953,21.973,34.180,34.180,29.785,19.531,0
213017.957,28.320,35.156,32.227,35.156,16.113,0
213017.961,32.227,37.109,29.785,44.922,25.879,0
213017.965,27.344,33.691,31.250,41.992,40.527,0
213017.969,19.531,27.832,29.297,37.109,56.152,0
213017.973,19.531,25.391,29.785,34.180,51.270,0
213017.977,23.926,27.344,28.809,32.715,26.855,0
213017.981,26.367,29.297,26.855,27.832,-6.348,0
213017.985,28.320,30.762,27.832,30.273,16.602,0
213017.988,27.832,30.273,29.785,29.785,40.039,0
213017.992,22.461,31.250,29.785,21.484,21.484,0
213017.996,20.996,34.180,29.785,20.996,19.531,0
213018.000,25.391,35.156,33.203,24.414,34.668,0
213018.004,28.320,34.668,37.109,30.762,35.156,0
213018.008,22.949,24.902,39.062,30.762,29.297,0
213018.012,17.090,18.066,31.738,20.996,17.578,0
213018.016,17.090,23.926,23.438,21.484,30.762,0
213018.020,15.137,29.297,25.879,23.438,70.312,0
213018.024,16.113,30.273,26.855,22.949,53.711,0
213018.027,20.996,32.227,27.832,31.250,60.547,0
213018.031,25.391,39.551,26.367,34.668,51.758,0
213018.035,30.273,43.945,25.391,30.273,78.125,0
213018.039,32.715,39.062,32.715,29.297,91.309,0
213018.043,26.855,34.180,33.691,24.414,40.039,0
213018.047,22.461,30.273,31.738,22.461,79.590,0
213018.051,22.461,28.320,35.156,27.344,103.516,0
213018.055,22.461,28.809,31.250,25.391,66.895,0
213018.059,18.555,27.832,26.367,15.625,39.062,0
213018.063,13.672,29.785,32.715,17.578,44.434,0
213018.067,15.625,35.645,30.273,27.344,83.008,0
213018.070,17.090,36.133,29.297,31.250,90.332,0
213018.074,18.066,34.668,37.109,31.250,47.363,0
213018.078,16.602,34.180,35.156,26.855,23.926,0
213018.082,14.160,30.273,25.879,24.902,43.457,0
213018.086,14.160,30.762,25.391,23.926,57.617,0
213018.090,12.207,31.250,31.250,20.996,22.949,0
213018.094,9.766,24.902,33.691,23.926,30.762,0
213018.098,12.695,27.344,32.715,29.785,65.918,0
213018.102,19.531,32.227,30.762,27.344,34.668,0
213018.106,19.531,28.809,31.250,30.762,29.297,0
213018.110,16.602,26.855,28.809,35.156,63.477,0
213018.113,20.508,31.738,33.203,29.785,63.965,0
213018.117,23.438,35.156,41.992,32.227,14.160,0
213018.121,18.555,34.180,34.668,31.250,24.414,0
213018.125,16.113,27.344,30.273,26.855,44.922,0
213018.129,21.973,25.391,31.738,25.879,23.438,0
213018.133,24.414,30.273,34.180,27.832,-2.441,0
213018.137,25.391,36.133,34.180,30.273,1.953,0
213018.141,27.344,37.598,36.133,27.832,36.133,0
213018.145,26.367,31.738,36.621,22.461,43.457,0
213018.149,26.367,30.762,35.156,17.090,49.805,0
213018.152,24.902,32.715,34.668,25.391,61.523,0
213018.156,21.484,30.762,34.180,33.203,100.098,0
213018.160,26.367,31.250,36.133,31.250,96.191,0
213018.164,30.762,33.203,36.621,30.273,29.785,0
213018.168,23.438,33.691,34.668,21.973,1.953,0
213018.172,19.531,29.297,30.762,18.066,24.902,0
213018.176,25.879,32.227,27.832,21.484,23.926,0
213018.180,28.809,37.109,33.203,20.020,37.109,0
213018.184,25.879,29.785,34.180,22.949,48.828,0
213018.188,25.879,28.320,31.250,16.602,16.113,0
213018.192,25.879,34.668,27.832,4.395,-44.922,0
213018.195,22.461,33.691,29.785,7.324,-66.895,0
213018.199,22.461,28.809,35.156,21.973,20.996,0
213018.203,21.484,28.809,33.691,26.367,42.480,0
213018.207,22.461,31.250,33.203,27.832,18.066,0
213018.211,27.344,27.832,36.133,31.250,26.855,0
213018.215,30.273,24.414,34.668,32.715,47.852,0
213018.219,27.344,26.855,34.180,29.785,65.430,0
213018.223,25.879,31.250,37.109,26.367,49.805,0
213018.227,24.902,35.156,35.645,23.438,35.645,0
213018.231,24.902,34.180,33.691,29.785,62.988,0
213018.235,30.762,31.738,34.180,40.039,60.059,0
213018.238,21.973,34.668,35.156,24.414,38.086,0
213018.242,4.883,35.645,34.668,4.883,50.293,0
213018.246,10.254,31.738,34.180,15.137,45.410,0
213018.250,20.996,32.715,34.180,24.902,16.602,0
213018.254,24.902,40.039,38.574,24.902,-3.906,0
213018.258,24.414,39.551,36.621,18.555,-7.324,0
213018.262,19.531,32.227,28.809,9.766,3.906,0
213018.266,20.020,32.227,24.414,10.254,20.508,0
213018.270,23.438,38.086,25.879,16.602,6.836,0
213018.274,23.438,37.598,26.855,22.949,-6.836,0
213018.277,22.461,35.645,30.762,32.227,3.418,0
213018.281,20.508,35.156,28.320,20.020,27.344,0
213018.285,18.555,36.133,22.949,2.441,24.414,0
213018.289,17.578,36.621,24.414,17.090,41.504,0
213018.293,20.020,37.598,23.926,30.273,76.172,0
213018.297,21.484,38.574,22.949,26.855,46.387,0
213018.301,16.602,37.109,25.879,20.508,38.086,0
213018.305,14.648,39.062,32.715,17.090,61.035,0
213018.309,19.531,35.645,38.086,20.020,55.664,0
213018.313,20.996,35.645,33.691,22.461,48.340,0
213018.317,23.926,41.016,26.855,36.133,62.500,0
213018.320,28.320,41.992,22.461,33.203,49.805,0
213018.324,19.043,36.133,13.672,12.695,-7.812,0
213018.328,12.695,34.180,21.484,10.742,-20.020,0
213018.332,17.090,41.504,31.738,20.508,-0.488,0
213018.336,21.973,41.016,35.156,31.738,15.137,0
213018.340,24.414,35.156,41.504,30.273,18.555,0
213018.344,25.391,33.691,37.109,20.020,9.277,0
213018.348,33.691,36.133,35.645,28.809,-8.301,0
213018.352,36.621,37.109,42.480,45.410,1.465,0
213018.356,31.250,39.062,41.504,43.945,-36.133,0
213018.360,30.762,40.527,35.156,34.180,-96.191,0
213018.363,24.414,36.133,36.133,34.180,-92.773,0
213018.367,17.578,37.598,41.016,42.480,-34.668,0
213018.371,15.625,40.039,40.527,46.387,11.719,0
213018.375,15.137,40.039,36.621,32.715,-6.836,0
213018.379,16.602,39.062,33.203,27.344,-11.719,0
213018.383,15.137,34.668,35.156,32.715,-13.184,0
213018.387,6.836,32.715,31.250,20.020,-32.715,0
213018.391,-0.977,33.691,26.367,11.230,-54.688,0
213018.395,2.930,38.086,34.668,24.902,-40.039,0
213018.399,1.953,33.691,32.227,23.438,-21.973,0
213018.402,1.953,28.320,26.367,15.137,-22.461,0
213018.406,6.348,34.180,29.297,20.996,0.000,0
213018.410,6.348,37.109,27.832,20.996,12.695,0
213018.414,8.301,38.574,27.832,20.996,4.395,1
213018.418,10.254,36.621,30.273,25.391,20.020,0
213018.422,20.020,39.551,32.715,34.668,49.805,0
213018.426,25.879,42.969,35.645,39.551,50.293,0
213018.430,23.438,34.668,32.715,35.156,24.414,0
213018.434,25.391,30.762,29.297,35.645,24.414,0
213018.438,27.344,33.203,32.715,36.133,37.598,0
213018.442,27.344,33.691,33.203,38.574,55.664,0
213018.445,24.414,31.250,36.621,30.273,78.125,0
213018.449,17.578,32.227,38.086,25.391,69.824,0
213018.453,21.973,32.227,30.762,31.250,46.387,0
213018.457,25.879,34.668,31.250,26.855,-9.766,0
213018.461,19.531,36.133,33.691,22.949,13.672,0
213018.465,13.184,30.762,35.645,28.809,34.180,0
213018.469,5.859,29.297,28.320,25.879,57.617,0
213018.473,3.906,29.297,21.973,18.066,88.867,0
213018.477,10.742,29.785,23.438,19.531,32.715,0
213018.481,12.207,31.738,20.996,21.484,22.461,0
213018.485,12.207,34.180,25.879,31.738,52.246,0
213018.488,15.625,33.691,33.203,31.738,50.293,0
213018.492,15.137,28.320,34.180,20.508,16.602,0
213018.496,14.160,26.855,33.203,24.414,4.883,0
213018.500,19.531,35.645,32.715,29.785,19.043,0
213018.504,20.020,41.992,36.133,28.320,16.602,0
213018.508,19.043,41.992,29.785,33.203,12.695,0
213018.512,20.996,41.504,20.996,27.344,41.504,0
213018.516,20.996,39.062,24.902,19.531,31.250,0
213018.520,24.902,36.621,28.809,25.391,-14.160,0
213018.524,22.949,32.715,29.297,20.996,12.207,0
213018.527,22.949,31.250,26.367,22.949,80.566,0
213018.531,26.367,33.203,24.902,35.645,101.562,0
213018.535,28.809,34.180,25.879,40.527,73.242,0
213018.539,24.414,30.273,24.902,30.762,13.184,0
213018.543,15.137,28.809,24.414,24.902,10.254,0
213018.547,9.766,31.738,26.855,24.902,59.082,0
213018.551,6.348,27.832,25.391,18.555,60.059,0
213018.555,3.906,25.391,21.973,13.672,75.684,0
213018.559,5.859,27.832,23.438,15.137,52.246,0
213018.563,6.348,31.738,26.367,14.160,10.742,0
213018.567,7.324,31.738,25.391,10.742,-6.836,0
213018.570,5.371,25.391,27.832,12.695,-39.062,0
213018.574,7.324,23.926,30.273,19.531,3.418,0
213018.578,16.602,29.297,34.180,23.438,42.480,0
213018.582,27.832,35.156,41.016,32.227,25.391,0
213018.586,32.227,35.156,36.621,36.621,33.203,0
213018.590,30.273,32.227,24.902,32.715,39.062,0
213018.594,27.344,31.250,20.508,25.879,12.695,0
213018.598,28.320,32.715,24.414,23.926,11.719,0
213018.602,27.832,36.621,27.344,30.762,52.734,0
213018.606,28.809,35.645,26.855,34.668,19.531,0
213018.610,28.809,34.668,27.832,28.809,-14.648,0
213018.613,32.715,38.574,31.738,17.090,5.859,0
213018.617,32.227,37.109,31.250,19.531,25.391,0
213018.621,27.832,35.156,27.832,32.227,44.922,0
213018.625,28.320,39.551,29.297,28.809,62.988,0
213018.629,29.297,40.527,31.738,29.785,65.918,0
213018.633,38.086,42.969,36.133,40.527,67.383,0
213018.637,38.086,44.434,34.180,37.109,59.082,0
213018.641,25.879,36.621,30.762,27.832,51.270,0
213018.645,17.090,30.762,27.344,25.879,51.270,0
213018.649,20.996,31.738,22.949,30.273,-18.066,0
213018.652,28.320,34.668,26.855,40.039,-29.785,0
213018.656,34.180,33.203,31.738,33.691,-20.508,0
213018.660,38.086,33.691,30.762,27.344,-0.977,0
213018.664,35.156,40.039,32.715,37.109,60.059,0
213018.668,33.691,42.480,31.738,39.062,52.734,0
213018.672,30.273,39.551,24.902,36.621,41.016,0
213018.676,24.902,38.086,24.414,36.133,50.293,0
213018.680,20.508,35.645,28.809,37.598,57.617,0
213018.684,20.996,32.715,25.391,33.203,12.695,0
213018.688,22.461,32.715,26.855,26.855,-37.598,0
213018.692,19.043,35.156,29.297,27.344,-28.320,0
213018.695,20.996,36.133,25.879,35.156,35.156,0
213018.699,21.973,38.086,23.926,31.738,48.340,0
213018.703,18.066,34.180,23.926,18.066,-8.789,0
213018.707,22.949,28.320,30.273,25.391,-1.465,0
213018.711,22.461,26.367,31.250,33.203,34.180,0
213018.715,19.531,21.484,30.273,30.273,33.691,0
213018.719,20.996,22.461,29.297,32.227,46.875,0
213018.723,16.602,23.926,28.320,22.461,44.922,0
213018.727,19.043,23.926,31.738,23.438,10.742,0
213018.731,23.438,27.344,30.762,31.738,21.484,0
213018.735,23.926,23.438,30.762,30.762,82.031,0
213018.738,21.484,23.438,30.273,31.250,75.195,0
213018.742,18.555,27.832,33.691,28.809,35.645,0
213018.746,18.066,31.250,35.645,27.832,37.598,0
213018.750,18.066,33.691,29.297,26.367,11.719,0
213018.754,16.113,30.762,32.227,24.902,13.672,0
213018.758,18.555,26.855,29.297,33.691,35.156,0
213018.762,26.367,29.297,27.344,33.691,-26.367,0
213018.766,15.625,34.180,30.273,23.926,-26.367,0
213018.770,-4.395,30.762,27.832,20.020,16.113,0
213018.774,0.977,31.738,26.855,14.160,28.809,0
213018.777,11.719,35.645,30.273,11.230,33.691,0
213018.781,14.648,36.621,30.273,12.695,0.488,0
213018.785,14.160,36.621,29.297,14.648,-25.391,0
213018.789,15.625,37.109,30.273,19.531,-24.414,0
213018.793,20.020,36.133,28.320,20.996,1.953,0
213018.797,23.438,38.086,29.785,21.484,35.645,0
213018.801,25.879,38.086,33.203,31.250,61.035,0
213018.805,23.438,34.668,27.344,26.367,75.195,0
213018.809,18.066,32.715,22.461,13.184,74.707,0
213018.813,13.672,34.180,21.973,17.578,76.660,0
213018.817,14.160,37.109,20.508,19.531,75.684,0
213018.820,13.672,35.156,20.020,15.625,67.871,0
213018.824,12.207,38.086,25.879,17.090,64.453,0
213018.828,10.742,40.527,28.320,18.066,48.828,0
213018.832,8.789,37.598,27.344,16.602,50.781,0
213018.836,8.301,33.691,28.809,12.695,41.504,0
213018.840,10.742,32.715,29.785,11.719,18.066,0
213018.844,15.137,36.621,32.227,17.578,30.273,0
213018.848,17.090,34.668,31.250,20.508,65.430,0
213018.852,10.742,25.391,29.785,10.254,56.152,0
213018.856,12.695,23.926,27.344,2.930,36.621,0
213018.860,24.902,29.785,21.484,19.043,41.016,0
213018.863,25.879,32.715,26.855,23.438,40.039,0
213018.867,23.438,31.250,27.832,12.207,54.199,0
213018.871,20.020,26.855,24.414,12.695,26.855,0
213018.875,17.090,27.832,26.367,19.043,30.762,0
213018.879,24.414,30.273,26.855,15.625,34.180,0
213018.883,25.391,26.367,28.320,13.672,-6.348,0
213018.887,21.973,31.250,34.180,18.066,20.020,0
213018.891,22.949,37.598,34.180,22.461,82.520,0
213018.895,16.602,35.645,26.367,17.578,74.707,0
213018.899,10.742,32.715,26.855,10.742,50.293,0
213018.902,15.625,30.762,31.250,16.113,24.414,0
213018.906,15.625,31.738,29.785,23.438,35.645,0
213018.910,15.137,33.691,32.227,19.531,52.734,0
213018.914,18.555,37.109,33.203,16.113,44.434,0
213018.918,19.531,34.668,26.855,21.484,15.625,0
213018.922,18.555,31.250,27.344,21.484,9.766,0
213018.926,21.973,35.645,31.250,19.531,50.293,0
213018.930,19.043,30.762,31.250,19.531,41.992,0
213018.934,16.602,26.367,29.785,22.461,18.066,0
213018.938,23.926,30.273,28.320,31.250,31.250,0
213018.942,18.066,32.227,27.344,16.113,9.277,0
213018.945,8.789,28.320,27.832,0.488,-19.531,0
213018.949,10.254,28.809,28.320,11.719,22.949,0
213018.953,12.695,34.668,27.832,19.531,30.273,0
213018.957,22.461,36.133,25.391,31.738,63.965,0
213018.961,27.344,33.203,29.785,32.227,98.145,0
213018.965,17.578,33.203,31.738,20.020,65.918,0
213018.969,10.254,34.180,28.320,18.066,33.691,0
213018.973,14.160,31.250,32.715,21.973,11.230,0
213018.977,16.602,32.715,34.668,26.367,13.672,0
213018.981,20.020,33.203,33.203,32.227,38.574,0
213018.985,21.973,33.691,35.156,31.738,41.992,1
213018.988,17.578,34.668,35.156,23.926,18.066,0
213018.992,16.602,31.738,32.227,28.320,39.551,0
213018.996,17.578,28.809,28.320,31.250,61.035,0
213019.000,19.043,24.414,29.297,26.855,53.711,0
213019.004,17.578,23.926,35.156,25.879,65.430,0
213019.008,16.602,20.020,31.250,23.926,61.523,0
213019.012,21.484,20.508,25.391,22.461,71.777,0
213019.016,20.508,29.785,23.438,24.414,67.383,0
213019.020,18.066,31.250,25.879,25.879,42.480,0
213019.024,21.973,35.156,26.855,25.879,31.738,0
213019.027,25.879,42.480,27.344,31.250,21.973,0
213019.031,25.879,37.598,37.598,33.691,-23.438,0
213019.035,14.648,30.762,37.109,21.484,-44.922,0
213019.039,10.742,26.367,31.250,20.020,-14.648,0
213019.043,15.625,24.414,32.227,26.855,10.254,0
213019.047,19.043,31.738,32.715,29.297,8.301,0
213019.051,23.926,35.645,30.273,33.691,14.648,0
213019.055,26.367,31.250,28.320,34.668,68.359,0
213019.059,20.020,32.227,24.902,28.809,46.387,0
213019.063,16.602,36.133,22.461,25.879,32.227,0
213019.067,24.414,36.621,26.367,32.227,61.035,0
213019.070,24.414,34.180,32.227,31.250,44.922,0
213019.074,18.066,33.203,33.691,24.902,7.324,0
213019.078,14.648,32.227,30.762,15.625,-52.734,0
213019.082,19.043,31.738,29.297,23.438,-3.418,0
213019.086,26.855,35.156,26.855,36.621,31.250,0
213019.090,27.344,39.551,20.508,30.273,0.000,0
213019.094,23.438,40.527,23.926,24.414,11.719,0
213019.098,22.949,36.133,27.832,25.391,13.184,0
213019.102,17.578,31.738,28.809,25.879,4.883,0
213019.106,15.137,33.691,30.273,20.508,9.277,0
213019.110,20.508,35.645,33.691,25.391,28.809,0
213019.113,20.996,33.203,38.086,35.156,47.852,0
213019.117,21.973,32.715,36.621,33.203,41.016,0
213019.121,21.484,31.738,29.297,32.715,23.926,0
213019.125,18.066,32.715,26.367,26.855,19.043,0
213019.129,21.484,34.180,25.391,26.855,32.227,0
213019.133,25.879,34.668,21.484,34.668,42.480,0
213019.137,28.809,32.227,23.438,25.879,69.824,0
213019.141,26.367,28.809,29.785,18.066,73.730,0
213019.145,21.973,30.273,32.227,23.438,50.293,0
213019.149,25.879,29.297,25.391,30.273,15.625,0
213019.152,26.367,27.344,24.414,32.227,21.973,0
213019.156,21.973,30.762,30.273,29.785,42.480,0
213019.160,24.414,33.203,34.668,30.762,43.457,0
213019.164,30.762,35.645,33.203,36.133,33.691,0
213019.168,23.438,34.180,29.785,30.273,38.086,0
213019.172,19.043,27.344,27.832,20.508,29.297,0
213019.176,18.555,24.902,26.855,18.066,34.668,0
213019.180,13.672,30.762,29.785,23.438,61.035,0
213019.184,15.625,32.715,33.691,21.973,63.965,0
213019.188,11.719,31.738,34.180,16.602,94.727,0
213019.192,13.672,34.668,36.621,24.414,86.426,0
213019.195,18.555,32.227,35.156,26.367,46.875,0
213019.199,18.066,28.809,32.715,19.043,42.480,0
213019.203,20.996,27.832,29.297,21.973,23.926,0
213019.207,24.414,26.367,26.855,22.461,2.930,0
213019.211,23.926,25.391,31.250,25.391,43.457,0
213019.215,24.414,25.879,32.715,28.320,54.199,0
213019.219,29.785,28.809,29.785,32.227,54.688,0
213019.223,27.832,28.320,33.203,41.992,105.957,0
213019.227,21.484,31.250,34.180,30.762,63.965,0
213019.231,24.414,31.738,36.133,22.461,45.898,0
213019.235,28.809,27.344,38.086,34.668,87.402,0
213019.238,27.832,34.180,36.621,33.203,49.316,0
213019.242,21.973,35.156,39.551,23.926,29.785,0
213019.246,19.531,29.297,32.715,24.414,39.551,0
213019.250,22.461,28.320,24.902,24.414,34.668,0
213019.254,23.438,29.297,30.762,22.949,43.945,0
213019.258,28.320,32.227,34.180,28.320,72.754,0
213019.262,30.273,32.715,35.156,28.809,74.707,0
213019.266,29.785,31.738,31.738,25.879,34.668,0
213019.270,26.855,31.738,26.855,30.273,27.344,0
213019.274,22.949,28.320,25.391,24.902,17.090,0
213019.277,25.391,31.738,22.949,18.555,-7.812,0
213019.281,27.832,34.180,23.438,24.902,15.625,0
213019.285,27.832,32.715,27.344,27.832,-12.695,0
213019.289,27.344,33.203,32.227,26.367,-29.297,0
213019.293,32.227,37.598,35.645,32.227,37.109,0
213019.297,34.668,36.621,32.227,35.156,27.832,0
213019.301,28.809,31.250,23.926,30.273,-12.207,0
213019.305,21.973,30.762,26.367,31.738,39.062,0
213019.309,18.555,31.250,32.227,28.320,69.824,0
213019.313,18.066,32.227,32.715,29.785,50.293,0
213019.317,17.578,32.715,32.227,30.762,39.551,0
213019.320,15.137,33.203,29.785,24.902,47.363,0
213019.324,15.137,32.227,31.738,33.203,103.516,0
213019.328,19.531,31.738,37.109,38.574,72.266,0
213019.332,21.973,34.668,35.645,40.039,42.969,0
213019.336,19.043,38.574,35.156,42.969,67.871,0
213019.340,24.902,41.504,38.086,42.969,67.871,0
213019.344,32.715,39.551,32.715,37.598,54.199,0
213019.348,21.973,34.668,29.785,26.367,32.227,0
213019.352,13.184,31.738,29.297,23.438,47.363,0
213019.356,19.043,30.762,32.227,28.809,19.043,0
213019.360,18.066,32.227,33.691,33.203,7.324,0
213019.363,18.066,33.203,29.785,25.879,21.484,0
213019.367,27.832,36.133,30.273,29.297,38.086,0
213019.371,32.227,37.598,36.621,36.621,99.609,0
213019.375,30.273,39.551,36.133,35.645,71.289,0
213019.379,29.785,39.551,33.691,34.180,25.391,0
213019.383,27.832,34.668,37.109,31.250,31.738,0
213019.387,23.438,32.715,34.668,34.180,33.203,0
213019.391,26.367,31.250,27.832,38.086,51.270,0
213019.395,32.715,30.273,25.879,41.504,26.367,0
213019.399,25.391,32.715,30.762,38.086,23.926,0
213019.402,14.648,29.297,27.832,30.762,15.625,0
213019.406,17.090,28.809,23.438,21.973,-36.133,0
213019.410,15.137,33.691,30.762,18.555,-33.203,0
213019.414,11.230,34.668,33.691,28.809,31.738,0
213019.418,16.113,30.762,28.809,31.250,41.504,0
213019.422,17.578,28.320,33.203,23.926,13.672,0
213019.426,18.066,31.250,35.156,24.414,44.434,0
213019.430,17.090,33.203,29.297,26.855,61.523,0
213019.434,14.160,32.227,26.367,23.926,30.762,0
213019.438,9.277,30.762,22.949,21.484,43.457,0
213019.442,5.371,30.273,27.344,21.973,56.641,0
213019.445,2.441,30.762,33.203,25.879,27.344,0
213019.449,2.441,31.738,32.227,28.320,30.762,0
213019.453,5.859,32.715,32.715,15.625,10.742,0
213019.457,5.859,29.297,37.109,17.090,0.977,0
213019.461,10.254,29.297,34.180,31.250,25.879,0
213019.465,19.531,35.645,24.902,33.203,34.180,0
213019.469,21.484,34.668,25.879,31.250,-1.953,0
213019.473,21.484,33.691,29.785,33.691,-17.578,0
213019.477,20.996,32.715,33.203,34.668,-23.438,0
213019.481,20.508,30.762,32.227,30.273,-4.883,0
213019.485,20.996,32.715,27.832,29.297,14.160,0
213019.488,17.578,31.738,29.785,35.645,-5.859,0
213019.492,17.090,34.668,30.762,31.250,-20.996,0
213019.496,20.020,38.574,26.855,20.996,-34.668,0
213019.500,25.391,40.039,27.832,22.949,-28.320,0
213019.504,21.973,41.992,27.344,27.832,11.230,0
213019.508,16.113,39.062,23.926,28.809,20.020,0
213019.512,19.531,36.621,22.461,20.996,-14.160,0
213019.516,19.531,38.574,26.855,19.531,21.973,0
213019.520,14.160,38.086,29.297,20.508,46.875,0
213019.524,10.742,33.203,27.832,15.137,11.719,0
213019.527,15.625,31.738,28.320,13.672,3.906,0
213019.531,18.066,31.250,27.832,18.555,0.000,0
213019.535,18.066,29.297,27.344,24.902,17.578,0
213019.539,16.113,32.715,23.438,24.414,29.785,0
213019.543,17.578,39.062,18.555,23.926,3.418,0
213019.547,21.973,40.527,25.391,21.484,14.160,0
213019.551,18.555,39.062,29.785,20.508,43.457,0
213019.555,17.578,37.109,30.273,20.508,24.902,0
213019.559,19.531,35.645,32.715,18.555,-8.301,0
213019.563,18.066,37.598,34.180,23.438,6.348,0
213019.567,18.555,38.086,32.227,26.855,29.785,0
213019.570,24.902,35.156,29.297,31.250,6.836,0
213019.574,25.879,34.180,34.668,31.250,8.789,0
213019.578,19.531,33.691,32.715,24.414,24.414,0
213019.582,20.020,31.250,21.484,25.391,5.859,0
213019.586,21.973,28.809,23.438,23.926,-2.930,0
213019.590,21.484,31.250,29.785,24.414,-31.250,0
213019.594,20.508,35.156,28.809,25.391,-12.695,0
213019.598,19.531,35.645,23.438,20.508,40.039,0
213019.602,17.090,32.715,22.461,7.324,-2.441,0
213019.606,14.648,32.715,22.461,3.418,-26.367,0
213019.610,17.578,35.645,27.344,14.160,5.859,0
213019.613,20.996,37.109,31.738,19.043,41.992,0
213019.617,20.996,38.086,26.855,20.508,44.922,0
213019.621,18.555,35.645,29.297,23.926,65.918,0
213019.625,17.578,30.273,32.227,28.320,84.961,0
213019.629,16.602,28.320,26.367,26.367,92.773,0
213019.633,18.066,29.297,23.926,18.555,79.590,0
213019.637,20.020,28.809,27.344,16.113,69.824,0
213019.641,22.461,28.809,29.297,18.555,71.289,0
213019.645,24.414,28.809,29.297,18.555,36.133,1
213019.649,23.926,28.809,28.809,18.555,40.039,0
213019.652,26.855,32.227,31.738,28.809,83.984,0
213019.656,32.227,37.109,32.227,36.133,104.980,0
213019.660,28.809,37.109,26.855,28.320,103.516,0
213019.664,23.926,32.227,27.832,26.367,95.703,0
213019.668,24.414,32.715,24.902,29.785,79.102,0
213019.672,24.902,33.203,26.855,27.344,84.473,0
213019.676,26.367,32.715,33.203,27.832,86.426,0
213019.680,23.438,33.691,29.785,32.715,79.102,0
213019.684,18.555,26.855,20.996,29.785,75.684,0
213019.688,17.578,25.391,27.344,20.996,89.355,0
213019.692,20.020,29.785,31.250,20.508,68.848,0
213019.695,20.020,30.273,25.391,22.461,45.898,0
213019.699,20.996,29.785,26.367,25.879,59.570,0
213019.703,20.508,28.320,27.344,23.438,69.824,0
213019.707,13.672,31.250,25.391,22.949,71.777,0
213019.711,13.672,34.668,29.297,26.855,51.270,0
213019.715,21.973,37.109,34.180,32.227,71.777,0
213019.719,24.902,35.645,32.715,32.227,91.309,0
213019.723,20.508,31.250,32.715,27.344,77.637,0
213019.727,17.578,30.273,32.227,27.344,74.707,0
213019.731,15.137,30.762,32.715,26.855,90.332,0
213019.735,15.137,30.273,35.156,25.391,82.031,0
213019.738,14.648,26.855,29.297,15.625,66.895,0
213019.742,14.160,27.344,30.273,16.113,69.336,0
213019.746,17.090,29.785,34.180,23.926,48.828,0
213019.750,16.113,32.227,33.691,22.461,37.598,0
213019.754,14.648,34.668,31.738,23.926,47.363,0
213019.758,13.184,36.621,32.227,29.785,34.180,0
213019.762,11.719,37.598,30.273,28.809,7.324,0
213019.766,13.672,36.621,29.785,21.973,33.691,0
213019.770,19.043,37.598,27.344,16.602,81.055,0
213019.774,26.855,38.574,32.227,20.508,37.598,0
213019.777,21.484,35.645,30.273,20.508,-9.766,0
213019.781,14.160,28.809,20.508,10.254,18.555,0
213019.785,14.160,24.414,23.438,9.277,26.367,0
213019.789,17.090,28.320,24.902,17.090,55.176,0
213019.793,19.043,29.297,25.879,20.508,73.242,0
213019.797,17.578,28.809,24.414,17.090,51.758,0
213019.801,16.113,30.273,20.996,18.066,6.836,0
213019.805,18.066,30.762,19.043,23.438,-3.906,0
213019.809,20.020,33.203,19.531,26.367,13.672,0
213019.813,19.531,32.227,28.809,27.832,2.930,0
213019.817,25.391,34.180,34.180,27.344,-11.230,0
213019.820,27.832,33.691,32.227,27.344,19.531,0
213019.824,20.508,29.785,26.367,23.438,32.715,0
213019.828,16.113,29.297,20.508,11.719,11.230,0
213019.832,21.484,33.691,17.090,13.672,80.566,0
213019.836,22.461,37.109,16.602,25.879,99.121,0
213019.840,17.578,38.574,26.855,23.926,44.922,0
213019.844,13.672,34.180,30.762,16.113,67.383,0
213019.848,12.207,28.809,28.809,18.555,69.336,0
213019.852,16.602,30.762,30.762,22.949,49.805,0
213019.856,13.672,30.762,32.227,17.090,31.250,0
213019.860,14.648,30.762,28.320,15.625,9.766,0
213019.863,20.508,30.273,24.414,21.973,35.645,0
213019.867,21.484,32.227,24.902,22.949,34.180,0
213019.871,20.508,33.203,28.320,24.414,-12.695,0
213019.875,21.973,33.203,31.738,25.391,-21.973,0
213019.879,19.043,34.180,34.180,24.414,-41.992,0
213019.883,17.090,34.668,34.668,36.133,-29.297,0
213019.887,22.949,34.180,33.691,35.645,5.371,0
213019.891,21.973,32.227,33.203,23.438,-10.254,0
213019.895,20.996,32.715,33.203,27.344,-2.441,0
213019.899,20.996,32.227,30.273,25.391,18.555,0
213019.902,19.043,29.785,30.273,20.996,29.785,0
213019.906,23.926,30.273,27.832,25.879,50.781,0
213019.910,22.949,29.297,23.438,24.902,81.543,0
213019.914,21.973,29.785,23.926,19.043,39.062,0
213019.918,25.391,34.668,26.367,24.902,-4.395,0
213019.922,27.344,39.551,27.344,26.855,15.625,0
213019.926,26.367,36.621,29.297,21.484,46.387,0
213019.930,30.273,38.574,33.203,20.996,20.996,0
213019.934,30.762,40.527,31.250,15.137,-32.715,0
213019.938,21.973,32.715,27.832,17.578,-51.758,0
213019.942,21.484,30.273,28.809,26.367,-10.742,0
213019.945,28.809,31.250,38.086,27.344,48.340,0
213019.949,34.668,35.156,38.086,27.344,75.195,0
213019.953,37.598,33.203,31.738,32.715,48.828,0
213019.957,40.527,30.273,31.250,33.203,28.320,0
213019.961,41.016,37.109,28.320,28.320,40.039,0
213019.965,40.039,39.551,29.785,30.273,20.996,0
213019.969,32.715,34.668,31.738,26.367,14.648,0
213019.973,26.367,32.715,31.738,26.367,37.598,0
213019.977,33.691,36.133,35.645,27.344,30.762,0
213019.981,31.738,36.621,34.180,16.602,-20.508,0
213019.985,27.344,31.738,29.785,24.902,16.113,0
213019.988,27.344,27.344,33.691,31.250,60.547,0
213019.992,24.414,29.297,31.738,20.996,24.414,0
213019.996,23.926,32.227,24.414,26.367,20.996,0
213020.000,20.508,33.203,28.809,31.738,12.207,0
213020.004,18.555,33.691,34.668,25.391,22.949,0
213020.008,23.438,32.715,37.109,26.367,32.715,0
213020.012,21.973,28.809,33.691,25.879,26.855,0
213020.016,21.973,31.738,32.715,24.414,0.000,0
213020.020,25.391,35.645,33.203,23.438,-45.898,0
213020.024,19.531,30.762,33.691,14.648,-60.547,0
213020.027,15.137,30.762,28.320,16.602,-44.922,0
213020.031,16.602,32.715,20.996,25.391,7.324,0
213020.035,16.602,31.738,21.484,22.949,13.672,0
213020.039,13.672,30.273,27.344,18.066,11.230,0
213020.043,11.230,29.785,34.180,18.066,20.020,0
213020.047,10.254,31.250,36.133,18.555,-0.977,0
213020.051,15.625,34.668,32.715,21.484,10.742,0
213020.055,19.043,37.598,29.785,20.996,20.996,0
213020.059,19.531,41.504,31.738,24.414,50.781,0
213020.063,25.391,43.457,35.156,28.809,70.312,0
213020.067,26.855,38.086,29.785,20.996,-3.418,0
213020.070,23.926,33.691,24.414,17.090,-12.207,0
213020.074,19.043,28.809,27.344,22.949,39.062,0
213020.078,17.090,27.832,32.227,25.391,46.387,0
213020.082,18.066,33.203,36.133,27.344,45.410,0
213020.086,18.555,32.715,39.551,30.762,55.664,0
213020.090,20.996,32.227,35.156,42.969,69.336,0
213020.094,19.043,35.645,32.227,45.898,75.684,0
213020.098,20.508,35.156,30.762,32.227,53.223,0
213020.102,19.531,35.645,26.367,29.297,83.984,0
213020.106,16.602,32.227,27.832,33.203,98.633,0
213020.110,16.113,33.203,32.227,28.320,36.133,0
213020.113,14.648,37.109,33.203,18.066,35.645,0
213020.117,13.184,31.738,32.227,20.020,61.035,0
213020.121,12.207,28.320,28.320,22.949,34.180,0
213020.125,14.160,30.762,29.785,17.578,20.020,0
213020.129,14.648,30.762,30.273,18.555,20.508,0
213020.133,17.578,29.297,30.273,25.879,38.086,0
213020.137,25.391,27.344,31.738,30.762,35.645,0
213020.141,23.438,26.367,34.180,30.273,7.812,0
213020.145,19.531,30.762,30.273,22.949,0.000,0
213020.149,20.020,30.273,26.367,24.414,15.625,0
213020.152,20.020,28.320,30.762,29.785,42.480,0
213020.156,22.949,33.691,31.738,24.902,29.785,0
213020.160,27.344,37.598,35.645,21.484,10.254,0
213020.164,22.461,35.156,36.133,30.762,28.320,0
213020.168,20.508,34.180,33.691,32.227,46.875,0
213020.172,20.020,35.156,30.273,22.949,70.801,0
213020.176,16.113,33.691,26.367,20.508,70.312,0
213020.180,21.484,32.227,27.832,22.949,13.184,0
213020.184,28.320,31.250,24.902,21.484,-7.324,0
213020.188,24.414,31.250,24.414,22.949,4.883,0
213020.192,19.531,33.203,29.297,22.461,-23.438,0
213020.195,23.438,36.133,32.227,20.996,-2.930,0
213020.199,20.996,34.668,30.762,23.926,32.715,0
213020.203,19.043,35.156,31.738,19.043,-8.789,1
213020.207,30.762,39.062,31.738,38.574,-30.273,0
213020.211,31.738,37.598,31.738,45.898,-20.508,0
213020.215,14.160,35.156,28.809,14.648,-44.434,0
213020.219,3.906,32.715,23.926,3.906,-49.316,0
213020.223,15.137,32.227,26.855,17.090,-43.945,0
213020.227,21.973,36.621,30.762,20.508,-40.527,0
213020.231,16.602,37.109,31.738,16.113,0.977,0
213020.235,15.137,35.156,29.297,12.207,-1.953,0
213020.238,13.672,34.668,26.367,12.695,-22.461,0
213020.242,13.184,32.715,30.273,17.578,-9.277,0
213020.246,15.137,29.785,29.785,17.578,-28.320,0
213020.250,13.184,31.738,27.344,18.555,-10.742,0
213020.254,16.113,37.598,32.715,25.391,17.578,0
213020.258,22.461,37.109,34.180,27.344,-26.855,0
213020.262,19.043,33.691,30.762,19.531,-42.969,0
213020.266,9.277,32.715,25.391,14.160,-16.602,0
213020.270,10.254,30.273,23.926,16.602,19.531,0
213020.274,16.113,29.785,25.879,22.461,18.555,0
213020.277,16.602,32.715,26.367,27.832,-8.301,0
213020.281,24.414,35.645,27.832,25.879,-2.441,0
213020.285,31.250,36.621,31.250,24.902,32.715,0
213020.289,23.926,34.668,30.273,25.391,43.457,0
213020.293,21.484,32.227,29.785,24.902,39.062,0
213020.297,27.344,34.668,34.668,29.297,28.320,0
213020.301,26.367,38.086,31.250,32.227,25.391,0
213020.305,25.391,36.133,27.832,31.738,26.855,0
213020.309,22.461,33.691,31.250,23.926,18.555,0
213020.313,19.531,31.250,33.203,21.484,41.504,0
213020.317,27.344,33.203,34.668,29.785,57.129,0
213020.320,31.250,35.156,37.598,28.809,31.250,0
213020.324,23.926,31.738,34.180,21.484,48.828,0
213020.328,23.926,32.227,24.902,25.879,95.703,0
213020.332,32.227,36.621,26.855,33.203,73.242,0
213020.336,35.156,40.039,31.250,35.645,45.410,0
213020.340,31.738,36.621,28.809,40.039,54.688,0
213020.344,21.484,29.297,25.391,31.738,51.758,0
213020.348,19.531,26.367,26.855,24.902,66.895,0
213020.352,20.996,30.273,28.320,17.578,18.555,0
213020.356,20.020,30.762,29.297,8.301,-5.859,0
213020.360,18.555,30.762,28.809,12.695,49.805,0
213020.363,18.066,35.156,31.250,13.672,35.156,0
213020.367,20.996,33.203,32.227,12.207,27.832,0
213020.371,25.879,29.785,34.180,19.043,58.594,0
213020.375,26.855,32.715,35.645,24.902,53.711,0
213020.379,28.809,37.109,40.527,27.832,49.805,0
213020.383,27.832,38.574,41.016,29.785,48.828,0
213020.387,20.020,33.203,33.691,26.855,54.688,0
213020.391,20.996,29.785,33.203,26.367,59.570,0
213020.395,23.926,31.250,30.273,22.949,22.949,0
213020.399,25.391,33.691,26.367,23.438,-6.836,0
213020.402,27.344,30.762,28.809,30.273,57.617,0
213020.406,21.973,28.320,31.738,30.762,53.711,0
213020.410,22.461,33.203,30.273,20.020,-3.906,0
213020.414,28.809,39.062,36.133,17.578,15.625,0
213020.418,31.738,41.016,34.668,28.809,34.180,0
213020.422,29.785,38.574,23.438,37.109,57.129,0
213020.426,24.902,35.645,24.414,30.273,40.527,0
213020.430,26.855,37.598,27.344,20.508,31.250,0
213020.434,28.320,40.039,29.785,24.902,27.344,0
213020.438,23.926,36.133,28.809,29.785,15.625,0
213020.442,21.484,31.738,26.855,28.809,18.555,0
213020.445,20.020,33.691,30.762,31.250,41.992,0
213020.449,20.020,35.645,31.738,40.527,49.805,0
213020.453,19.043,33.691,28.320,39.551,12.695,0
213020.457,13.184,33.203,23.438,30.762,48.828,0
213020.461,11.230,34.668,21.973,29.297,88.867,0
213020.465,11.719,34.180,24.902,33.203,88.867,0
213020.469,10.254,31.738,30.762,24.414,72.754,0
213020.473,15.625,34.180,34.180,23.926,86.426,0
213020.477,25.391,39.062,36.133,35.645,93.262,0
213020.481,30.273,39.062,35.645,35.156,83.984,0
213020.485,28.809,36.133,31.738,34.668,110.840,0
213020.488,19.531,29.785,25.879,21.484,89.844,0
213020.492,15.625,25.391,25.391,13.672,84.473,0
213020.496,20.996,26.855,29.785,24.902,125.488,0
213020.500,21.484,25.391,33.203,30.273,159.668,0
213020.504,22.949,27.344,33.203,33.691,132.324,0
213020.508,23.438,30.273,36.133,30.273,126.953,0
213020.512,21.484,30.273,35.645,25.391,148.926,0
213020.516,23.438,33.203,28.809,26.367,135.742,0
213020.520,25.879,31.738,26.367,26.855,114.746,0
213020.524,23.438,32.715,27.832,22.949,110.352,0
213020.527,20.508,35.645,28.809,21.484,105.469,0
213020.531,22.949,34.180,30.762,22.949,67.871,0
213020.535,22.461,37.109,31.250,24.414,81.055,0
213020.539,21.484,37.109,27.832,29.785,106.934,0
213020.543,16.602,34.668,25.879,31.738,78.613,0
213020.547,10.742,33.691,23.926,29.785,74.707,0
213020.551,9.766,31.738,19.043,20.508,59.082,0
213020.555,12.207,28.809,22.461,22.461,22.461,0
213020.559,17.090,25.391,32.227,31.250,36.621,0
213020.563,20.996,26.367,36.133,26.367,35.645,0
213020.567,19.043,30.273,36.621,30.762,34.180,0
213020.570,22.949,37.109,35.156,39.551,43.457,0
213020.574,25.879,39.551,37.109,27.344,6.836,0
213020.578,19.531,33.203,37.109,10.742,5.371,0
213020.582,14.160,29.297,35.645,12.207,13.184,0
213020.586,10.742,28.320,30.762,15.625,-15.625,0
213020.590,18.066,28.320,29.297,17.578,-9.277,0
213020.594,25.391,31.250,35.645,25.879,9.277,0
213020.598,27.344,33.203,37.109,31.250,4.395,0
213020.602,34.180,37.109,39.551,34.180,-4.883,0
213020.606,33.691,40.527,38.086,34.180,20.508,0
213020.610,28.320,35.156,31.738,33.203,28.809,0
213020.613,26.367,32.715,33.691,31.738,4.395,0
213020.617,27.832,37.598,35.645,26.855,-5.859,0
213020.621,29.297,37.109,28.809,24.902,-30.273,0
213020.625,23.926,30.762,29.297,20.020,-10.254,0
213020.629,20.508,28.809,35.156,16.113,12.207,0
213020.633,19.043,28.320,36.621,13.672,16.602,0
213020.637,17.578,28.809,34.668,13.184,22.949,0
213020.641,18.066,29.297,32.227,20.020,-23.926,0
213020.645,19.043,28.809,27.832,26.367,-22.949,0
213020.649,22.949,29.297,26.855,24.902,17.578,0
213020.652,22.949,29.785,33.203,23.438,32.227,0
213020.656,20.508,31.738,32.715,24.414,57.617,0
213020.660,20.508,34.180,29.785,23.926,42.480,0
213020.664,20.996,35.156,30.273,23.926,18.066,0
213020.668,20.020,32.227,35.645,23.438,-2.930,0
213020.672,20.996,34.668,34.180,26.367,-1.465,0
213020.676,22.949,36.133,25.879,29.297,44.922,0
213020.680,20.020,30.762,24.414,27.344,41.992,0
213020.684,19.531,31.250,25.391,26.367,14.160,0
213020.688,17.090,35.645,28.320,23.438,41.504,0
213020.692,9.277,34.180,27.344,22.461,34.668,0
213020.695,10.254,32.227,25.879,29.785,36.621,0
213020.699,18.555,29.785,30.762,36.133,30.762,0
213020.703,27.344,28.320,32.715,28.809,11.230,0
213020.707,32.715,32.715,26.367,21.973,37.109,0
213020.711,40.039,43.945,31.250,22.461,48.340,0
213020.715,41.504,44.434,33.691,25.391,32.715,0
213020.719,36.621,30.762,21.484,25.391,-23.438,0
213020.723,27.832,26.367,23.926,28.320,-17.578,0
213020.727,15.137,27.344,33.203,19.531,14.160,0
213020.731,18.066,28.320,36.133,17.090,-10.742,0
213020.735,28.809,24.414,43.945,35.156,27.832,0
213020.738,23.438,25.391,42.969,40.039,53.223,0
213020.742,25.391,35.645,38.574,32.715,65.430,0
213020.746,32.227,41.992,43.457,26.855,62.500,0
213020.750,20.996,38.086,38.086,14.160,20.508,0
213020.754,18.066,34.180,25.391,8.789,0.488,0
213020.758,22.949,39.551,24.902,14.648,-15.625,0
213020.762,13.184,34.180,24.414,11.230,-9.766,0
213020.766,9.766,31.250,20.508,8.301,14.648,0
213020.770,18.555,35.645,21.484,14.648,-11.719,0
213020.774,20.020,33.203,25.391,10.254,-43.457,0
213020.777,17.578,27.832,29.297,15.625,-15.137,0
213020.781,17.090,27.832,28.320,27.344,5.371,0
213020.785,21.973,33.203,29.785,35.645,10.254,0
213020.789,21.484,38.086,32.715,33.203,-3.906,0
213020.793,19.043,37.598,26.855,22.461,3.418,0
213020.797,20.020,35.645,23.926,25.879,50.293,0
213020.801,12.207,30.273,22.949,19.531,29.297,0
213020.805,8.789,26.367,20.508,14.160,-4.395,0
213020.809,15.625,28.320,25.879,22.461,-5.371,0
213020.813,21.484,30.762,32.715,24.902,14.648,0
213020.817,24.902,33.203,29.785,22.461,-18.555,0
213020.820,29.297,37.109,30.762,31.738,-7.812,0
213020.824,32.715,42.969,38.086,42.969,27.344,0
213020.828,28.320,34.180,32.715,26.855,22.461,0
213020.832,28.809,27.832,25.879,19.531,44.434,0
213020.836,30.273,30.762,26.367,27.832,28.809,0
213020.840,29.297,35.645,25.879,27.344,36.621,0
213020.844,33.691,39.062,32.715,25.879,62.988,0
213020.848,31.250,36.133,37.598,29.785,47.852,0
213020.852,30.273,31.250,28.809,30.273,59.570,0
213020.856,34.668,31.250,26.855,25.879,80.566,0
213020.860,34.180,36.133,29.297,22.949,41.992,0
213020.863,32.715,33.203,31.738,21.973,-3.418,0
213020.867,27.832,32.227,36.621,29.297,19.531,0
213020.871,18.555,34.668,34.180,36.133,23.926,0
213020.875,9.277,29.297,31.250,25.879,-9.766,0
213020.879,2.930,27.344,31.738,18.555,-29.297,0
213020.883,2.930,30.273,29.297,24.414,3.906,0
213020.887,7.812,29.785,27.344,25.391,45.898,0
213020.891,11.719,33.203,35.645,23.438,29.785,1
213020.895,9.766,31.738,40.527,24.902,1.465,0
213020.899,9.277,30.273,31.738,27.832,14.648,0
213020.902,5.371,29.785,30.762,23.926,14.160,0
213020.906,3.418,28.809,33.203,15.625,-4.395,0
213020.910,7.812,34.180,32.715,16.602,22.949,0
213020.914,12.695,33.691,28.809,28.320,26.367,0
213020.918,14.160,30.273,24.414,28.809,32.227,0
213020.922,15.137,27.832,23.926,19.043,46.875,0
213020.926,12.695,26.367,24.902,18.066,21.484,0
213020.930,13.672,28.320,28.320,26.367,22.949,0
213020.934,18.555,28.320,29.297,29.785,24.414,0
213020.938,20.996,28.809,27.832,28.809,4.395,0
213020.942,20.020,30.762,31.738,33.691,8.301,0
213020.945,14.648,24.902,34.180,33.203,27.832,0
213020.949,15.137,22.461,32.715,30.762,20.508,0
213020.953,14.648,25.879,37.598,39.062,10.254,0
213020.957,10.742,26.855,36.621,31.738,17.578,0
213020.961,9.277,28.320,29.785,17.090,47.363,0
213020.965,9.277,28.809,30.762,13.672,30.762,0
213020.969,7.812,29.297,29.297,4.883,-17.578,0
213020.973,6.348,30.762,28.809,10.742,22.461,0
213020.977,7.324,32.227,29.785,15.137,52.734,0
213020.981,7.324,32.715,28.809,8.789,66.406,0
213020.985,8.301,29.297,28.809,10.742,29.785,0
213020.988,12.207,28.809,30.762,17.578,12.695,0
213020.992,10.742,31.738,29.297,19.531,45.898,0
213020.996,11.230,27.832,32.227,14.648,22.949,0
213021.000,17.578,28.809,30.273,15.625,32.715,0
213021.004,14.160,33.203,23.926,20.508,74.219,0
213021.008,15.625,35.156,30.762,22.461,49.316,0
213021.012,24.902,40.039,38.574,28.809,35.645,0
213021.016,23.438,39.551,35.645,31.738,51.270,0
213021.020,14.648,35.156,30.762,23.438,41.016,0
213021.024,13.184,30.762,26.367,15.625,25.391,0
213021.027,20.508,32.227,28.320,24.902,1.465,0
213021.031,25.391,36.133,31.250,33.203,-11.230,0
213021.035,24.902,31.250,26.855,25.879,15.625,0
213021.039,27.344,30.273,26.855,27.344,26.367,0
213021.043,29.297,33.203,33.691,30.762,-13.672,0
213021.047,19.531,31.250,40.039,25.391,1.953,0
213021.051,18.555,32.715,36.621,28.809,34.668,0
213021.055,19.043,31.250,30.273,24.414,12.207,0
213021.059,11.719,29.785,28.320,11.230,19.043,0
213021.063,12.695,27.344,24.414,15.625,42.480,0
213021.067,15.137,22.949,20.508,22.461,-2.930,0
213021.070,18.066,27.344,23.438,24.902,-12.695,0
213021.074,22.461,31.738,26.367,27.344,-10.742,0
213021.078,25.391,28.809,23.438,27.832,22.461,0
213021.082,24.902,27.832,29.785,29.297,23.926,0
213021.086,26.367,29.785,35.156,33.203,-5.859,0
213021.090,35.645,30.762,30.762,35.156,-1.465,0
213021.094,36.621,31.738,32.715,35.156,-0.488,0
213021.098,34.180,31.250,33.691,35.156,12.695,0
213021.102,37.598,31.738,33.203,28.809,-7.324,0
213021.106,32.715,33.203,34.668,29.297,-28.809,0
213021.110,23.438,31.738,32.715,36.133,14.160,0
213021.113,18.066,28.809,32.227,34.668,44.922,0
213021.117,19.531,28.809,33.691,37.109,42.480,0
213021.121,20.508,28.320,30.273,30.762,18.066,0
213021.125,20.996,29.297,30.762,24.414,-32.715,0
213021.129,24.414,33.691,35.645,30.273,-44.922,0
213021.133,24.414,36.621,33.203,36.621,-16.113,0
213021.137,20.996,35.645,32.715,35.645,-39.551,0
213021.141,20.508,32.227,34.668,32.227,22.461,0
213021.145,20.020,31.250,33.691,32.227,59.570,0
213021.149,17.090,31.738,29.785,22.949,-10.742,0
213021.152,20.020,34.668,34.180,26.367,-38.086,0
213021.156,18.555,35.156,35.156,36.621,-3.906,0
213021.160,13.184,28.809,26.367,29.785,-9.766,0
213021.164,15.625,26.855,26.367,23.438,17.090,0
213021.168,13.672,28.809,33.691,21.973,55.176,0
213021.172,10.254,25.879,40.039,27.344,24.902,0
213021.176,11.230,24.414,36.133,24.902,1.953,0
213021.180,14.160,25.391,34.180,23.926,1.465,0
213021.184,18.555,28.809,37.598,32.227,4.883,0
213021.188,14.648,28.320,35.156,29.785,-7.324,0
213021.192,13.184,20.508,32.715,20.996,-26.855,0
213021.195,14.648,18.555,36.133,20.020,0.000,0
213021.199,14.160,24.902,35.645,30.762,32.227,0
213021.203,16.113,28.809,32.227,33.691,-3.906,0
213021.207,17.090,32.227,34.668,38.086,12.695,0
213021.211,14.648,31.738,36.621,38.086,55.664,0
213021.215,14.648,30.273,32.715,30.273,20.508,0
213021.219,20.020,30.273,31.250,29.785,-38.574,0
213021.223,16.602,27.344,27.832,28.320,19.043,0
213021.227,15.137,28.809,31.738,23.438,53.223,0
213021.231,22.461,29.297,34.668,20.996,33.203,0
213021.235,17.578,33.691,24.902,18.066,29.297,0
213021.238,13.184,36.621,25.391,15.625,20.508,0
213021.242,18.555,36.621,27.344,20.508,41.504,0
213021.246,13.672,38.574,24.414,22.949,54.199,0
213021.250,11.230,37.109,22.949,22.461,38.574,0
213021.254,7.812,35.156,26.855,19.531,19.531,0
213021.258,3.418,36.133,33.203,20.996,20.020,0
213021.262,7.324,40.039,35.156,20.020,48.828,0
213021.266,9.766,38.086,31.738,19.043,74.219,0
213021.270,8.301,31.250,31.738,19.531,76.172,0
213021.274,7.324,30.273,27.832,17.090,65.430,0
213021.277,10.742,31.250,27.344,20.996,82.031,0
213021.281,13.184,33.691,29.785,20.020,86.914,0
213021.285,10.742,31.738,30.762,15.137,79.590,0
213021.289,14.160,31.250,30.762,26.367,98.145,0
213021.293,15.625,35.645,27.832,37.598,80.078,0
213021.297,10.742,35.156,25.879,29.785,80.078,0
213021.301,11.719,34.668,24.902,20.020,83.984,0
213021.305,14.160,32.227,29.297,26.367,89.844,0
213021.309,13.184,30.762,31.250,24.902,84.473,0
213021.313,9.277,31.738,33.691,14.160,77.637,0
213021.317,9.766,34.668,33.691,20.020,94.238,0
213021.320,12.695,36.621,29.785,25.391,65.430,0
213021.324,14.160,34.180,28.809,24.414,51.270,0
213021.328,15.137,30.762,26.367,15.137,60.059,0
213021.332,15.137,27.344,27.344,7.812,29.785,0
213021.336,10.742,27.344,29.297,13.672,24.902,0
213021.340,10.742,26.855,29.297,19.531,53.711,0
213021.344,13.184,27.344,29.297,20.020,17.578,0
213021.348,9.766,27.832,29.785,21.484,3.906,0
213021.352,7.324,26.855,29.297,24.414,55.176,0
213021.356,6.836,28.320,30.762,21.484,37.598,0
213021.360,8.301,31.250,31.250,18.066,24.414,0
213021.363,8.789,34.668,27.832,20.508,23.438,0
213021.367,7.324,32.715,26.855,20.508,16.113,0
213021.371,6.836,30.273,27.344,15.137,6.836,0
213021.375,6.836,30.273,29.297,16.602,-3.906,0
213021.379,4.883,30.273,31.250,19.531,15.625,0
213021.383,6.348,35.645,33.203,24.414,36.133,0
213021.387,5.859,35.156,29.297,19.531,15.625,0
213021.391,-0.977,30.273,24.902,12.207,12.207,0
213021.395,2.441,34.668,23.926,20.996,22.461,0
213021.399,9.277,38.086,24.902,25.391,6.836,0
213021.402,6.836,35.156,26.855,21.484,4.883,0
213021.406,6.348,36.133,29.785,22.949,13.184,0
213021.410,7.812,37.109,27.344,24.414,3.906,0
213021.414,4.395,33.203,28.320,24.902,1.465,0
213021.418,-2.441,31.250,28.320,20.508,16.113,0
213021.422,0.000,30.273,24.902,13.672,30.273,0
213021.426,3.906,25.391,29.785,13.184,21.973,0
213021.430,1.465,25.391,31.250,10.742,-17.578,0
213021.434,-1.953,28.809,27.832,8.789,-28.809,0
213021.438,-5.859,29.297,28.809,13.184,50.293,0
213021.442,-6.348,33.203,27.832,16.113,72.266,0
213021.445,-2.930,34.180,25.879,11.719,76.172,0
213021.449,2.441,32.715,26.855,13.672,112.793,0
213021.453,5.859,35.645,23.926,17.578,139.160,0
213021.457,8.789,33.203,23.926,18.066,153.809,1
213021.461,6.836,29.297,25.391,12.695,112.305,0
213021.465,8.789,32.715,24.414,10.742,58.105,0
213021.469,15.625,34.180,24.902,19.531,75.195,0
213021.473,15.625,35.645,27.344,25.879,94.238,0
213021.477,12.695,34.180,27.344,20.508,13.672,0
213021.481,15.137,35.645,25.879,17.578,18.066,0
213021.485,13.672,34.180,26.367,24.902,91.309,0
213021.488,13.184,30.273,26.367,27.344,54.688,0
213021.492,19.531,36.621,27.344,33.203,25.879,0
213021.496,17.090,35.645,23.926,30.273,37.109,0
213021.500,15.137,30.273,19.531,18.066,44.922,0
213021.504,13.672,33.203,21.484,14.160,47.852,0
213021.508,16.602,34.668,25.391,15.137,48.340,0
213021.512,23.438,37.598,23.926,21.973,41.016,0
213021.516,18.555,39.551,25.879,28.809,38.574,0
213021.520,13.184,36.133,27.832,20.508,49.316,0
213021.524,15.137,36.133,24.414,11.230,53.223,0
213021.527,16.113,36.133,25.879,15.137,48.828,0
213021.531,19.043,37.109,28.320,24.902,32.227,0
213021.535,23.438,38.086,31.738,26.855,26.855,0
213021.539,17.578,33.691,28.809,21.484,54.688,0
213021.543,10.742,32.227,23.438,18.066,60.059,0
213021.547,11.719,32.715,25.879,18.066,47.363,0
213021.551,15.625,28.320,29.297,19.043,73.242,0
213021.555,16.113,26.367,29.785,20.996,87.891,0
213021.559,11.230,24.902,29.785,18.555,56.641,0
213021.563,12.207,25.391,32.227,18.555,66.895,0
213021.567,16.113,35.156,27.344,15.625,22.461,0
213021.570,14.648,41.016,22.949,9.766,-1.953,0
213021.574,12.695,34.180,26.855,21.484,54.199,0
213021.578,13.672,32.715,30.762,28.320,71.777,0
213021.582,10.254,35.156,35.156,26.367,18.066,0
213021.586,5.859,34.180,37.598,31.250,-11.230,0
213021.590,2.930,30.273,36.133,33.203,53.223,0
213021.594,1.465,24.414,33.691,30.273,51.270,0
213021.598,1.953,25.391,31.738,28.809,41.016,0
213021.602,0.488,27.344,31.250,20.996,59.570,0
213021.606,5.859,29.297,31.250,21.484,50.293,0
213021.610,10.742,29.297,32.715,20.508,44.922,0
213021.613,9.277,29.785,28.320,10.254,-7.812,0
213021.617,13.184,33.691,21.973,16.113,-24.414,0
213021.621,12.207,35.156,25.391,26.367,18.555,0
213021.625,5.859,34.180,24.902,22.461,7.324,0
213021.629,7.812,38.574,25.879,18.066,0.488,0
213021.633,10.742,39.062,28.809,18.555,28.320,0
213021.637,11.719,33.691,32.227,21.973,18.066,0
213021.641,14.648,33.691,31.738,21.484,-26.855,0
213021.645,14.160,32.715,25.391,17.090,-59.570,0
