timestamps,TP9,AF7,AF8,TP10,Right AUX,Marker0
213267.445,37.598,36.133,24.414,44.922,40.527,0
213267.449,30.273,31.738,28.320,34.668,16.113,0
213267.453,24.902,23.438,39.062,31.738,22.461,0
213267.457,24.902,25.391,37.109,38.086,46.875,0
213267.461,31.250,22.461,33.203,41.992,59.082,0
213267.465,33.691,13.184,30.762,41.504,52.246,0
213267.469,22.461,19.531,25.879,19.043,47.852,0
213267.473,20.996,27.832,24.414,20.996,61.523,0
213267.477,29.297,28.809,26.855,45.410,60.547,0
213267.481,36.621,31.250,31.250,38.086,11.230,0
213267.484,30.273,21.973,31.738,31.250,-16.602,0
213267.488,24.902,13.672,27.832,35.156,17.090,0
213267.492,23.926,19.043,28.320,37.598,-14.648,0
213267.496,24.902,24.414,25.879,32.715,-22.461,0
213267.500,38.574,30.762,33.691,44.434,15.625,0
213267.504,39.551,18.066,33.691,46.875,-28.320,0
213267.508,40.527,12.695,34.668,46.387,-25.391,0
213267.512,47.852,35.645,30.762,54.688,-16.113,0
213267.516,47.363,36.621,27.832,50.293,-16.602,0
213267.520,34.180,23.438,36.133,36.133,1.953,0
213267.524,20.996,22.949,34.180,18.555,14.160,0
213267.527,27.344,21.973,30.762,20.020,0.000,0
213267.531,36.621,21.973,25.391,23.438,-16.113,0
213267.535,33.203,20.508,25.879,32.227,34.180,0
213267.539,36.133,22.461,32.715,45.898,23.926,0
213267.543,44.922,30.273,30.762,45.410,-27.344,0
213267.547,40.527,30.762,26.367,38.086,-17.090,0
213267.551,40.527,33.691,21.973,50.781,9.766,0
213267.555,38.086,39.551,20.020,42.480,-11.230,0
213267.559,31.738,36.621,27.344,30.762,-0.488,0
213267.563,27.344,41.504,32.715,33.203,36.133,0
213267.567,33.203,31.738,34.668,27.344,0.000,0
213267.570,33.691,15.625,34.668,29.297,-47.363,0
213267.574,27.344,25.879,35.645,35.156,-52.734,0
213267.578,27.832,39.551,32.227,34.668,28.320,0
213267.582,37.109,38.086,26.855,18.555,14.160,0
213267.586,44.922,21.484,28.320,39.062,-5.371,0
213267.590,44.434,23.926,29.785,55.664,24.414,0
213267.594,24.414,40.039,20.996,40.039,-2.930,0
213267.598,11.719,43.457,14.648,20.996,1.465,0
213267.602,28.320,41.016,22.461,11.230,-15.137,0
213267.606,25.879,28.809,25.879,34.180,-0.977,0
213267.609,19.043,22.949,19.531,36.621,40.527,0
213267.613,12.695,26.367,29.297,39.062,29.297,0
213267.617,17.090,30.762,37.109,35.156,11.230,0
213267.621,26.367,33.691,29.785,32.227,12.695,0
213267.625,30.762,30.762,23.926,31.738,48.340,0
213267.629,28.809,39.551,28.320,34.668,67.383,0
213267.633,29.297,43.945,30.273,48.828,86.914,0
213267.637,32.227,39.551,28.320,41.016,56.152,0
213267.641,24.902,44.434,22.461,36.133,37.109,0
213267.645,27.832,41.504,20.508,23.438,57.129,0
213267.649,26.367,34.668,22.949,20.996,73.242,0
213267.652,17.578,29.785,19.531,19.531,120.117,0
213267.656,23.926,30.762,18.066,26.367,104.980,0
213267.660,31.738,41.992,17.578,38.086,68.359,0
213267.664,25.391,35.156,17.578,16.602,35.156,0
213267.668,35.645,28.809,19.043,28.809,31.250,0
213267.672,44.922,39.551,21.484,56.152,67.383,0
213267.676,37.109,44.434,28.320,42.969,63.965,0
213267.680,32.715,43.945,25.879,35.645,83.984,0
213267.684,30.273,31.738,21.973,34.668,97.168,0
213267.688,28.320,24.414,19.043,40.039,82.031,0
213267.692,35.645,32.715,21.973,51.270,77.148,0
213267.695,37.598,28.320,28.320,40.039,69.824,0
213267.699,31.738,26.367,19.531,36.133,79.590,0
213267.703,32.715,35.156,23.438,20.508,89.355,0
213267.707,31.250,34.180,25.879,9.277,23.438,0
213267.711,23.438,30.762,19.531,31.250,13.672,0
213267.715,37.109,30.273,19.531,53.711,70.312,0
213267.719,49.316,35.645,21.484,55.664,59.570,0
213267.723,40.039,32.715,25.879,40.039,23.926,0
213267.727,38.574,31.250,26.367,48.340,44.922,0
213267.731,39.062,36.133,27.344,42.969,45.410,0
213267.734,26.367,36.133,17.090,29.785,-17.578,0
213267.738,26.367,33.203,14.648,33.203,47.363,0
213267.742,30.762,28.809,18.066,31.250,74.219,0
213267.746,31.738,36.133,23.438,39.551,36.133,0
213267.750,30.762,40.527,30.762,32.715,12.207,0
213267.754,17.578,27.344,23.438,15.137,-12.695,0
213267.758,18.555,26.855,20.020,20.996,-7.324,0
213267.762,30.762,40.527,16.602,24.414,19.043,0
213267.766,37.598,39.062,6.836,49.805,32.227,0
213267.770,16.113,25.879,19.043,30.762,41.016,0
213267.774,4.395,25.391,35.156,12.695,54.199,0
213267.777,-2.441,25.391,29.297,7.324,20.508,0
213267.781,1.953,15.625,32.227,23.438,-3.418,0
213267.785,29.785,20.020,31.250,36.133,0.977,0
213267.789,23.438,27.344,19.043,13.672,13.184,0
213267.793,15.137,29.785,17.578,11.230,17.578,0
213267.797,32.715,36.133,13.184,24.414,-8.301,0
213267.801,16.113,33.203,22.949,32.715,10.742,0
213267.805,7.812,31.738,31.250,35.156,55.664,0
213267.809,30.273,34.180,20.508,29.297,37.598,0
213267.813,31.738,32.715,28.320,27.344,17.578,0
213267.817,32.715,32.227,33.691,27.344,10.254,0
213267.820,29.297,33.203,22.949,21.484,24.414,0
213267.824,21.484,23.438,11.719,24.414,43.457,0
213267.828,20.996,23.438,10.254,44.434,29.785,0
213267.832,15.625,41.992,12.695,41.504,23.926,0
213267.836,13.672,40.039,10.742,15.137,71.289,0
213267.840,18.066,19.043,18.555,17.578,77.148,0
213267.844,7.324,17.090,30.762,13.672,14.160,0
213267.848,0.000,25.391,32.227,5.859,24.414,0
213267.852,13.184,27.344,25.879,24.902,65.430,1
213267.856,27.344,25.879,21.973,35.645,61.523,0
213267.859,27.344,12.695,26.855,41.992,58.105,0
213267.863,15.137,16.113,27.832,43.457,62.988,0
213267.867,7.812,38.086,22.461,45.898,59.570,0
213267.871,12.695,37.109,22.949,43.457,99.121,0
213267.875,7.812,32.227,23.926,21.484,144.043,0
213267.879,9.766,45.898,12.207,15.625,100.098,0
213267.883,26.855,47.363,6.348,31.738,82.520,0
213267.887,30.273,31.250,2.441,37.109,96.191,0
213267.891,24.414,24.414,1.953,32.715,55.664,0
213267.895,15.625,20.508,25.391,18.555,61.523,0
213267.899,9.277,17.578,36.621,30.273,74.707,0
213267.902,20.508,24.414,34.180,34.180,53.711,0
213267.906,30.762,35.156,34.180,38.086,25.391,0
213267.910,43.945,38.574,26.367,57.129,16.113,0
213267.914,49.805,35.156,25.391,65.918,22.949,0
213267.918,29.297,38.574,23.438,47.852,61.035,0
213267.922,25.391,34.668,15.137,23.438,86.426,0
213267.926,40.039,22.461,22.949,36.621,18.066,0
213267.930,44.434,27.832,27.832,48.340,-31.738,0
213267.934,40.527,40.527,26.367,46.387,-15.137,0
213267.938,26.855,39.551,21.484,46.387,-19.043,0
213267.942,24.414,36.621,19.531,18.066,-14.160,0
213267.945,31.738,36.133,18.066,2.930,-35.645,0
213267.949,22.461,31.738,15.137,20.020,-4.395,0
213267.953,17.090,25.879,23.926,36.621,46.387,0
213267.957,17.090,28.809,23.926,43.457,34.180,0
213267.961,14.648,32.227,20.020,6.836,3.418,0
213267.965,31.738,23.926,24.902,19.043,-24.414,0
213267.969,41.016,24.414,27.344,52.734,-10.742,0
213267.973,46.875,44.922,18.066,34.180,-6.836,0
213267.977,45.410,52.734,22.949,47.363,1.465,0
213267.981,30.273,37.109,34.180,54.199,3.418,0
213267.984,23.926,12.695,31.250,40.039,-20.508,0
213267.988,16.113,13.184,26.855,37.598,-21.484,0
213267.992,18.555,40.039,28.809,33.203,-47.363,0
213267.996,26.855,47.852,30.762,34.180,-24.414,0
213268.000,35.156,36.133,33.691,27.832,35.156,0
213268.004,27.344,32.227,30.762,36.621,34.180,0
213268.008,17.578,37.598,23.926,29.297,35.156,0
213268.012,21.484,42.480,24.414,26.367,37.109,0
213268.016,12.695,40.039,20.508,27.344,45.898,0
213268.020,17.090,32.715,19.043,24.414,45.410,0
213268.024,19.043,32.227,21.484,21.973,22.461,0
213268.027,19.531,28.809,27.832,26.367,16.113,0
213268.031,31.738,26.855,27.344,41.016,34.180,0
213268.035,34.668,30.762,24.414,36.133,53.711,0
213268.039,30.273,33.203,26.855,35.156,42.969,0
213268.043,48.340,29.297,18.555,43.945,44.434,0
213268.047,48.828,23.926,16.113,49.805,55.176,0
213268.051,23.926,31.738,22.461,28.809,72.754,0
213268.055,23.926,38.086,26.367,4.395,94.238,0
213268.059,36.133,41.992,26.855,26.367,68.848,0
213268.063,36.133,38.086,19.531,54.688,58.594,0
213268.067,29.297,26.367,22.461,47.363,72.266,0
213268.070,30.762,29.297,33.691,43.945,109.375,0
213268.074,46.875,37.598,35.156,39.062,104.980,0
213268.078,52.246,45.898,22.949,22.461,74.219,0
213268.082,37.109,49.805,12.695,18.066,47.363,0
213268.086,16.113,37.109,17.578,30.273,45.410,0
213268.090,19.043,26.367,22.461,44.922,62.500,0
213268.094,27.832,28.809,25.879,29.297,62.500,0
213268.098,24.902,33.691,20.508,27.832,46.875,0
213268.102,38.086,37.598,17.090,42.480,51.270,0
213268.106,48.828,41.504,15.625,36.621,51.270,0
213268.109,38.086,41.016,6.836,24.414,41.504,0
213268.113,29.297,30.762,18.555,30.762,28.320,0
213268.117,28.809,29.785,29.785,47.363,27.344,0
213268.121,25.879,37.109,30.273,44.434,42.480,0
213268.125,27.832,35.156,28.809,39.062,8.301,0
213268.129,31.738,34.180,28.809,20.508,-27.344,0
213268.133,26.855,36.621,26.855,31.250,7.812,0
213268.137,30.273,40.039,20.020,58.105,52.246,0
213268.141,35.645,31.738,14.648,41.992,43.945,0
213268.145,35.645,24.902,11.230,32.715,23.438,0
213268.149,35.156,29.785,17.090,35.645,38.574,0
213268.152,29.785,26.855,28.809,34.180,41.992,0
213268.156,35.156,22.461,29.785,45.898,35.645,0
213268.160,46.387,29.297,24.902,52.246,49.805,0
213268.164,43.457,37.109,26.367,36.621,63.477,0
213268.168,36.621,34.668,24.902,26.855,62.988,0
213268.172,41.504,35.156,19.531,33.691,19.531,0
213268.176,41.016,40.039,17.578,37.109,10.254,0
213268.180,34.668,37.598,21.973,43.457,56.152,0
213268.184,42.480,36.621,20.996,37.109,32.227,0
213268.188,54.688,34.180,17.578,39.062,43.457,0
213268.192,53.711,34.668,21.484,56.641,54.688,0
213268.195,35.645,29.785,18.555,48.828,-0.488,0
213268.199,24.414,18.555,18.555,24.414,-16.113,0
213268.203,19.531,25.391,24.414,13.184,13.672,0
213268.207,20.508,31.250,20.996,22.949,15.137,0
213268.211,28.320,35.156,14.648,26.367,1.953,0
213268.215,25.879,30.762,20.020,26.855,-14.648,0
213268.219,25.391,26.367,23.926,41.016,-27.344,0
213268.223,36.621,28.809,20.020,38.574,-1.953,0
213268.227,40.039,33.203,18.066,39.062,-11.230,0
213268.231,35.156,38.086,22.949,25.879,-21.973,0
213268.234,36.133,30.273,28.320,24.902,29.785,0
213268.238,41.504,25.391,29.297,45.410,44.922,0
213268.242,41.504,38.086,25.879,49.316,-4.883,0
213268.246,32.227,25.879,23.926,36.621,3.906,0
213268.250,24.902,4.395,29.297,28.320,22.461,0
213268.254,31.738,19.531,26.855,23.926,30.273,0
213268.258,32.715,35.156,23.926,25.391,27.832,0
213268.262,23.926,35.645,23.438,25.879,42.969,0
213268.266,32.715,40.527,26.367,38.086,55.176,0
213268.270,41.992,40.039,27.832,45.410,16.602,0
213268.274,36.621,35.156,16.602,29.785,4.395,0
213268.277,34.668,36.621,23.438,31.738,-14.648,0
213268.281,32.227,35.156,29.297,31.250,-14.648,0
213268.285,24.414,27.832,23.926,35.645,38.574,0
213268.289,23.926,26.367,24.414,38.086,40.039,0
213268.293,20.996,26.855,25.879,27.832,12.695,0
213268.297,20.508,24.414,25.879,34.668,17.090,0
213268.301,26.367,26.855,26.367,36.133,29.785,0
213268.305,28.809,28.320,33.691,42.969,45.410,0
213268.309,21.484,22.461,35.156,49.805,57.129,0
213268.313,21.484,24.902,23.926,30.273,16.113,0
213268.317,28.320,35.156,20.996,26.367,12.695,0
213268.320,27.344,46.387,29.297,31.738,54.688,0
213268.324,26.367,45.898,35.645,30.762,15.625,0
213268.328,22.461,33.203,27.344,35.156,-14.648,0
213268.332,22.461,30.273,16.602,34.668,7.324,0
213268.336,21.973,21.973,23.438,27.344,15.137,0
213268.340,21.973,27.832,27.344,34.668,20.996,0
213268.344,28.809,43.457,29.297,38.086,28.809,0
213268.348,29.297,37.598,25.879,29.297,37.109,0
213268.352,25.391,29.785,8.301,26.367,36.133,0
213268.356,31.250,35.645,15.137,25.879,11.230,0
213268.359,32.715,40.527,34.668,24.414,4.395,0
213268.363,21.484,32.715,32.227,23.438,32.227,0
213268.367,20.508,35.156,28.320,25.879,3.906,0
213268.371,23.926,37.598,35.156,23.926,-4.395,0
213268.375,19.531,31.738,31.250,31.738,41.504,0
213268.379,25.391,30.762,22.461,34.180,38.086,0
213268.383,28.809,34.180,20.996,31.250,14.160,0
213268.387,27.832,29.297,22.949,42.969,-18.555,0
213268.391,37.109,17.090,28.320,47.363,7.812,0
213268.395,41.504,27.832,34.180,44.922,57.129,0
213268.399,37.598,39.551,27.832,48.340,33.203,0
213268.402,28.320,37.598,18.555,34.668,14.160,0
213268.406,20.508,37.109,20.508,15.625,64.941,0
213268.410,18.066,38.086,27.344,11.230,47.852,0
213268.414,14.648,29.785,29.297,11.230,1.953,0
213268.418,16.602,22.949,31.250,24.414,18.066,0
213268.422,12.207,24.902,36.133,29.297,42.480,0
213268.426,14.160,34.668,28.809,23.438,43.945,0
213268.430,21.973,36.133,30.273,24.414,10.254,0
213268.434,24.414,32.227,30.762,25.391,2.441,0
213268.438,24.414,34.668,27.344,32.227,30.273,0
213268.442,19.043,37.598,23.926,38.574,40.039,0
213268.445,15.625,38.574,17.578,29.297,52.246,0
213268.449,8.789,27.832,22.461,27.344,41.504,0
213268.453,9.766,25.391,31.250,26.367,26.367,0
213268.457,14.160,34.668,31.250,17.578,36.133,0
213268.461,13.184,36.133,30.762,20.508,40.527,0
213268.465,16.602,34.668,31.738,30.762,55.176,0
213268.469,32.227,34.180,29.785,36.133,46.875,0
213268.473,40.039,38.574,27.832,34.180,43.945,0
213268.477,33.691,37.598,22.949,31.250,60.059,0
213268.481,26.855,31.738,23.438,32.227,80.566,0
213268.484,30.273,33.691,29.785,33.691,37.109,0
213268.488,25.391,36.621,39.062,25.879,20.020,0
213268.492,20.996,34.180,41.504,26.367,30.762,0
213268.496,20.996,32.715,37.109,24.414,36.133,0
213268.500,18.555,31.250,26.367,12.207,46.387,0
213268.504,19.043,23.438,19.531,16.113,50.293,0
213268.508,16.602,20.020,29.297,18.555,64.453,0
213268.512,16.113,29.297,37.109,26.367,49.316,0
213268.516,20.020,34.180,29.297,32.715,-1.465,0
213268.520,17.090,31.250,24.414,20.020,-7.324,0
213268.524,15.137,32.227,31.250,22.461,33.691,0
213268.527,20.996,34.180,31.250,23.926,31.738,0
213268.531,18.066,26.855,31.250,22.461,15.625,0
213268.535,13.672,24.902,29.297,22.949,20.508,0
213268.539,15.625,29.297,28.809,24.902,15.137,1
213268.543,14.160,30.762,25.391,21.973,-25.879,0
213268.547,13.184,32.227,20.508,13.184,-80.566,0
213268.551,19.043,33.691,24.902,23.438,-16.602,0
213268.555,27.344,31.250,20.020,26.855,63.477,0
213268.559,20.508,26.855,22.461,17.090,57.129,0
213268.563,19.043,27.832,33.203,23.926,61.035,0
213268.567,29.785,33.691,34.668,23.438,70.801,0
213268.570,25.391,37.109,32.715,29.297,84.961,0
213268.574,24.902,41.016,34.180,37.109,106.445,0
213268.578,23.926,40.039,27.832,30.273,82.031,0
213268.582,20.996,34.668,25.879,32.227,54.688,0
213268.586,25.391,31.250,27.832,26.367,59.570,0
213268.590,28.809,28.320,28.809,23.926,31.738,0
213268.594,27.344,26.855,29.785,24.902,4.395,0
213268.598,26.855,28.320,29.297,31.738,-13.184,0
213268.602,24.902,27.344,28.809,28.809,-6.348,0
213268.606,22.461,27.344,29.297,26.367,10.742,0
213268.609,21.484,31.250,27.832,28.809,16.602,0
213268.613,35.156,37.598,30.273,33.203,55.176,0
213268.617,36.133,29.785,32.227,46.387,30.762,0
213268.621,15.137,16.602,31.250,35.645,-19.043,0
213268.625,11.230,27.832,36.621,22.949,-5.859,0
213268.629,13.184,38.574,33.203,17.090,7.812,0
213268.633,10.254,37.598,29.785,12.207,-7.812,0
213268.637,14.160,36.133,34.180,20.508,-28.320,0
213268.641,13.184,32.715,34.668,25.879,-9.277,0
213268.645,14.160,31.738,33.691,25.391,2.930,0
213268.649,20.020,29.297,30.273,26.367,18.555,0
213268.652,23.438,30.762,30.762,23.438,4.395,0
213268.656,21.973,32.715,32.227,21.973,11.719,0
213268.660,11.719,25.879,28.809,20.508,39.062,0
213268.664,9.766,23.926,30.762,32.227,31.250,0
213268.668,13.672,26.855,30.273,34.180,25.879,0
213268.672,11.230,29.785,30.273,27.344,22.949,0
213268.676,8.789,27.832,29.785,28.809,39.062,0
213268.680,8.789,22.461,29.297,26.367,62.988,0
213268.684,9.766,25.391,33.691,20.996,32.715,0
213268.688,15.137,30.273,29.297,29.785,5.859,0
213268.692,12.695,25.879,22.949,21.484,48.340,0
213268.695,20.020,28.320,30.273,15.625,18.555,0
213268.699,30.762,30.762,39.062,31.738,-29.297,0
213268.703,26.855,25.879,36.133,36.133,5.371,0
213268.707,22.949,31.738,28.320,32.227,49.805,0
213268.711,18.066,33.203,22.949,22.949,35.645,0
213268.715,26.367,34.668,25.879,38.086,17.578,0
213268.719,37.598,33.691,28.320,44.434,53.223,0
213268.723,27.832,25.391,19.531,16.602,62.500,0
213268.727,18.555,26.367,15.137,17.090,78.125,0
213268.731,14.160,25.879,25.391,21.973,62.988,0
213268.734,11.719,28.320,32.227,21.484,12.207,0
213268.738,21.973,31.250,30.762,28.809,-5.371,0
213268.742,25.391,32.227,27.344,30.273,-17.578,0
213268.746,18.066,34.668,26.367,28.320,-18.066,0
213268.750,21.484,36.621,31.738,34.180,10.254,0
213268.754,24.414,37.109,28.320,32.715,-9.277,0
213268.758,23.926,33.203,26.367,25.879,11.230,0
213268.762,25.879,34.180,30.273,33.691,33.203,0
213268.766,22.949,35.645,29.785,36.133,18.066,0
213268.770,22.461,31.250,34.180,21.973,46.875,0
213268.774,25.391,29.785,30.762,17.090,90.332,0
213268.777,24.902,32.227,31.250,25.879,49.805,0
213268.781,20.996,27.344,32.227,39.551,59.082,0
213268.785,22.461,22.461,32.227,41.504,78.613,0
213268.789,24.414,25.879,31.250,30.762,45.410,0
213268.793,27.344,25.391,17.578,34.668,93.262,0
213268.797,27.344,27.832,20.996,41.016,93.262,0
213268.801,17.090,31.738,32.715,33.203,57.129,0
213268.805,11.230,34.180,31.250,30.762,66.895,0
213268.809,18.555,36.621,29.785,30.762,79.590,0
213268.813,19.531,34.668,30.273,26.367,78.613,0
213268.817,13.184,31.250,28.320,22.949,48.340,0
213268.820,18.066,25.391,29.785,25.391,54.688,0
213268.824,21.973,29.785,37.598,28.809,113.770,0
213268.828,20.508,34.668,33.203,23.438,85.449,0
213268.832,21.973,35.645,27.832,15.625,18.555,0
213268.836,26.367,38.574,30.762,14.648,17.090,0
213268.840,25.391,39.062,28.809,22.949,79.102,0
213268.844,23.926,36.621,28.320,31.250,81.543,0
213268.848,30.273,34.180,31.250,40.527,48.340,0
213268.852,34.180,34.668,31.738,41.504,100.098,0
213268.856,31.250,30.762,30.273,34.180,125.000,0
213268.859,41.504,41.016,33.203,32.715,66.406,0
213268.863,49.316,55.176,29.785,35.645,35.156,0
213268.867,32.227,34.668,19.531,27.344,42.969,0
213268.871,22.461,11.230,18.555,17.090,48.828,0
213268.875,21.973,23.438,27.832,8.789,22.461,0
213268.879,18.555,40.527,33.691,7.812,-9.277,0
213268.883,21.973,40.039,31.250,24.414,-18.555,0
213268.887,27.344,41.016,37.109,34.668,-1.953,0
213268.891,20.020,38.086,41.016,28.320,13.672,0
213268.895,16.113,33.203,28.320,22.949,14.648,0
213268.899,19.043,28.809,16.113,30.762,64.453,0
213268.902,16.602,27.832,20.020,39.551,81.543,0
213268.906,10.254,32.715,25.879,31.250,68.848,0
213268.910,12.207,33.691,27.832,26.367,45.410,0
213268.914,21.973,31.738,30.762,28.809,24.414,0
213268.918,20.020,31.250,25.879,27.832,1.953,0
213268.922,17.578,33.691,24.414,21.484,-8.301,0
213268.926,24.414,31.250,26.855,20.020,28.809,0
213268.930,22.949,27.832,24.902,32.715,67.871,0
213268.934,26.367,34.180,31.250,41.016,80.078,0
213268.938,34.180,30.273,36.133,39.551,71.289,0
213268.942,29.785,25.391,29.297,37.598,63.477,0
213268.945,36.133,33.691,21.973,50.293,54.688,0
213268.949,42.480,39.551,25.391,55.176,50.781,0
213268.953,38.574,37.598,31.250,36.621,13.184,0
213268.957,33.203,30.762,31.250,31.738,-3.418,0
213268.961,26.855,28.809,27.832,34.180,11.719,0
213268.965,18.066,24.414,31.250,30.273,26.855,0
213268.969,25.879,15.625,38.086,39.062,29.297,0
213268.973,44.922,34.668,43.457,53.223,68.848,0
213268.977,48.828,56.152,45.410,50.781,63.477,0
213268.981,37.109,48.828,32.715,34.668,25.391,0
213268.984,20.508,33.203,24.414,25.879,-24.902,0
213268.988,15.625,20.020,29.785,27.344,-35.645,0
213268.992,25.391,26.367,30.762,24.902,12.695,0
213268.996,23.438,35.156,28.320,17.090,53.223,0
213269.000,8.789,22.461,32.227,18.555,61.523,0
213269.004,13.184,26.367,32.715,23.926,44.922,0
213269.008,38.086,41.504,30.762,31.738,38.086,0
213269.012,34.668,36.621,26.855,28.320,41.992,0
213269.016,18.555,35.645,29.785,23.438,40.039,0
213269.020,16.113,34.180,34.180,28.320,38.574,0
213269.024,15.625,27.344,39.551,25.391,41.504,0
213269.027,21.973,27.344,40.527,19.043,4.883,0
213269.031,27.344,29.297,37.598,27.344,5.859,0
213269.035,27.832,30.762,33.203,36.133,69.336,0
213269.039,38.086,39.551,29.785,35.645,82.520,0
213269.043,37.109,39.551,23.926,30.273,63.965,0
213269.047,29.297,33.203,18.555,25.391,47.363,0
213269.051,28.320,29.785,27.832,28.320,31.250,0
213269.055,20.508,27.344,30.273,28.320,34.668,0
213269.059,20.508,32.227,29.297,27.832,19.043,0
213269.063,21.973,27.832,32.715,23.926,14.160,0
213269.067,20.996,28.320,31.250,26.367,17.090,0
213269.070,27.832,36.621,32.227,31.738,28.320,0
213269.074,32.715,33.691,35.645,23.926,42.969,0
213269.078,21.484,33.691,35.156,30.762,58.105,0
213269.082,23.926,34.668,37.598,48.828,62.988,0
213269.086,31.738,32.715,35.156,38.574,52.734,0
213269.090,25.391,33.691,26.367,20.996,36.621,0
213269.094,19.531,33.203,25.879,20.508,38.086,0
213269.098,12.207,27.832,22.461,21.484,31.250,0
213269.102,18.555,21.484,29.297,23.438,30.762,0
213269.106,28.809,20.996,32.227,25.391,15.625,0
213269.109,25.391,27.832,27.344,26.855,19.531,0
213269.113,19.531,42.969,33.203,26.367,55.664,1
213269.117,17.578,42.969,32.227,20.020,9.277,0
213269.121,20.020,29.785,26.367,14.648,-2.930,0
213269.125,21.484,28.320,32.715,20.508,47.852,0
213269.129,19.531,36.621,37.109,20.020,37.109,0
213269.133,24.414,41.016,24.902,18.066,1.465,0
213269.137,28.320,39.062,18.066,18.555,4.883,0
213269.141,29.785,40.527,22.461,26.367,5.371,0
213269.145,28.320,38.574,25.879,30.273,14.160,0
213269.149,21.973,31.250,32.227,22.461,40.527,0
213269.152,15.137,27.832,36.133,17.578,39.062,0
213269.156,13.672,21.484,30.762,20.508,22.949,0
213269.160,18.066,22.949,31.738,25.391,16.602,0
213269.164,18.066,33.691,35.156,14.648,-6.348,0
213269.168,14.160,32.227,24.902,2.441,9.277,0
213269.172,20.020,32.227,19.531,6.836,14.160,0
213269.176,26.855,33.203,23.438,22.461,-35.156,0
213269.180,21.973,30.762,22.949,20.996,-7.324,0
213269.184,17.578,31.738,23.926,16.113,38.574,0
213269.188,15.625,29.785,28.320,17.578,24.902,0
213269.192,17.090,26.367,30.762,10.254,36.621,0
213269.195,15.625,25.879,27.832,13.672,42.969,0
213269.199,9.277,25.391,29.297,18.066,35.156,0
213269.203,8.301,25.391,27.832,26.367,46.875,0
213269.207,15.625,28.809,23.926,28.809,48.340,0
213269.211,22.949,39.551,33.691,26.367,21.484,0
213269.215,25.391,37.598,39.551,35.156,55.664,0
213269.219,23.926,23.438,36.133,34.668,83.984,0
213269.223,21.973,31.250,33.203,20.508,46.387,0
213269.227,19.531,41.016,24.902,12.695,50.293,0
213269.231,17.090,35.645,26.855,18.555,70.312,0
213269.234,18.066,32.227,26.367,28.809,42.480,0
213269.238,22.949,29.297,25.391,27.832,8.301,0
213269.242,20.020,31.250,34.668,22.461,50.293,0
213269.246,18.555,33.691,33.203,15.137,70.312,0
213269.250,21.973,35.645,25.391,14.160,34.180,0
213269.254,19.531,39.062,29.297,16.602,27.832,0
213269.258,29.297,45.898,37.598,27.344,39.551,0
213269.262,31.738,42.480,31.250,29.297,53.711,0
213269.266,13.672,27.832,13.672,12.695,33.203,0
213269.270,9.277,24.414,8.301,6.836,17.090,0
213269.274,13.184,21.484,18.066,10.742,28.809,0
213269.277,18.066,20.020,27.832,13.184,26.855,0
213269.281,27.344,36.133,33.691,21.484,14.160,0
213269.285,26.367,43.457,36.133,23.438,-22.461,0
213269.289,30.762,38.086,37.598,22.949,-34.668,0
213269.293,26.855,37.598,42.480,33.691,-4.883,0
213269.297,15.625,36.133,35.156,32.227,-14.648,0
213269.301,22.949,37.109,23.926,37.109,-39.062,0
213269.305,29.297,36.621,26.367,46.875,-41.016,0
213269.309,25.879,26.855,23.926,31.738,-29.785,0
213269.313,16.602,20.020,23.926,15.137,-4.395,0
213269.317,15.137,22.949,30.762,20.996,4.883,0
213269.320,15.137,31.738,32.227,28.809,44.922,0
213269.324,18.555,33.691,33.691,30.273,40.527,0
213269.328,20.996,32.715,30.762,32.227,3.906,0
213269.332,17.090,28.320,25.879,34.668,39.551,0
213269.336,18.555,21.973,30.762,35.156,30.273,0
213269.340,17.578,25.391,35.645,25.391,-20.508,0
213269.344,15.625,28.320,34.180,17.090,-30.273,0
213269.348,28.320,26.367,32.715,24.414,13.672,0
213269.352,31.738,32.715,30.762,32.227,24.414,0
213269.356,24.902,38.086,38.086,37.109,-4.883,0
213269.359,25.391,33.691,37.109,34.668,19.531,0
213269.363,20.508,25.879,20.508,19.531,25.879,0
213269.367,25.391,32.227,25.391,25.391,37.109,0
213269.371,41.016,36.133,31.738,29.785,86.914,0
213269.375,40.527,28.320,26.855,26.367,82.031,0
213269.379,34.668,29.785,26.855,32.227,101.074,0
213269.383,35.645,34.180,26.855,36.621,118.164,0
213269.387,28.320,29.785,22.461,36.133,105.957,0
213269.391,27.344,27.832,17.090,44.434,94.727,0
213269.395,30.273,29.297,15.625,40.527,74.707,0
213269.399,28.320,35.645,23.926,28.809,92.285,0
213269.402,32.227,44.922,37.598,30.762,78.125,0
213269.406,32.227,36.621,36.621,26.367,48.828,0
213269.410,27.832,24.902,31.738,21.484,53.711,0
213269.414,22.461,26.855,31.738,23.438,77.637,0
213269.418,20.020,29.785,30.273,23.438,36.133,0
213269.422,25.391,31.738,24.902,27.344,13.672,0
213269.426,30.762,31.250,22.949,36.133,59.082,0
213269.430,29.297,33.203,26.367,32.227,38.574,0
213269.434,30.762,30.273,24.902,31.738,0.488,0
213269.438,33.203,30.273,32.227,44.922,7.324,0
213269.442,36.621,39.551,36.133,60.059,20.020,0
213269.445,25.391,33.203,32.715,37.109,-9.766,0
213269.449,14.160,23.926,25.879,14.160,-0.977,0
213269.453,20.996,28.320,31.738,28.320,37.109,0
213269.457,23.926,31.250,36.621,31.738,27.344,0
213269.461,27.344,31.250,31.738,29.297,4.883,0
213269.465,31.250,35.156,32.227,34.668,25.391,0
213269.469,27.344,39.062,27.344,37.598,53.711,0
213269.473,22.949,35.645,25.879,32.715,21.484,0
213269.477,25.879,30.273,31.738,22.461,-13.672,0
213269.481,24.902,30.273,27.344,18.555,-9.766,0
213269.484,18.555,29.297,23.438,29.297,3.418,0
213269.488,22.461,29.297,24.414,37.598,-8.789,0
213269.492,23.926,30.762,20.508,18.555,-44.922,0
213269.496,26.855,28.320,16.602,12.207,-12.207,0
213269.500,35.645,32.227,19.043,29.297,57.129,0
213269.504,42.969,38.086,24.414,36.133,52.734,0
213269.508,39.551,34.668,21.973,29.785,11.230,0
213269.512,34.180,32.715,23.438,29.785,37.109,0
213269.516,34.668,39.062,32.715,31.738,60.547,0
213269.520,33.203,32.715,34.668,25.391,46.875,0
213269.524,35.156,24.414,34.180,38.086,62.500,0
213269.527,41.016,31.250,29.785,41.992,62.500,0
213269.531,45.898,42.480,26.367,30.762,52.246,0
213269.535,34.180,42.480,23.926,24.902,5.859,0
213269.539,24.902,34.180,21.973,15.625,-37.109,0
213269.543,30.273,30.273,25.391,20.996,1.465,0
213269.547,29.297,28.809,29.297,38.086,33.691,0
213269.551,25.391,26.855,32.715,40.527,20.996,0
213269.555,27.344,32.227,35.645,27.344,20.508,0
213269.559,31.250,35.645,34.180,26.367,68.848,0
213269.563,33.203,35.156,30.762,28.809,105.469,0
213269.567,35.645,40.039,32.715,28.320,96.191,0
213269.570,31.738,38.086,29.785,25.391,106.934,0
213269.574,23.438,34.180,18.066,22.949,92.773,0
213269.578,30.762,34.180,20.508,30.273,80.078,0
213269.582,28.320,29.297,28.320,21.484,70.312,0
213269.586,20.508,30.762,22.461,12.207,50.293,0
213269.590,19.043,27.832,18.555,23.926,40.527,0
213269.594,22.949,26.367,27.344,23.926,3.418,0
213269.598,32.715,29.785,33.691,26.367,-12.207,0
213269.602,28.320,28.809,25.879,20.996,6.348,0
213269.606,30.273,26.855,25.879,27.344,35.645,0
213269.609,40.527,35.156,29.785,43.457,30.273,0
213269.613,31.738,36.621,25.391,24.902,-19.043,0
213269.617,29.297,33.691,27.344,23.926,-5.371,0
213269.621,33.691,34.180,34.180,41.016,34.180,0
213269.625,30.273,23.438,32.715,40.527,15.625,0
213269.629,29.785,20.508,31.250,21.484,-30.273,0
213269.633,17.578,32.715,25.391,18.555,-24.414,0
213269.637,9.766,41.992,24.414,27.832,-34.668,0
213269.641,10.254,40.527,26.367,17.090,-54.688,0
213269.645,10.742,36.621,22.461,17.090,-24.414,0
213269.649,19.043,41.504,29.785,18.555,-18.555,0
213269.652,22.461,39.551,41.016,11.719,-9.277,0
213269.656,15.137,33.691,41.016,14.648,-30.762,0
213269.660,17.090,41.016,33.691,21.484,-58.594,0
213269.664,23.438,43.457,29.785,22.461,-28.809,0
213269.668,19.043,37.598,25.391,17.090,5.371,0
213269.672,20.996,36.621,19.531,14.160,-5.371,0
213269.676,25.391,42.969,19.043,23.438,-13.672,0
213269.680,30.762,45.898,26.367,40.039,14.160,0
213269.684,33.691,37.109,30.762,43.945,11.719,0
213269.688,27.832,31.738,32.227,33.691,37.598,0
213269.692,24.414,29.297,28.809,24.902,47.363,0
213269.695,27.832,21.484,27.832,24.902,25.391,0
213269.699,36.621,20.020,34.668,29.785,4.395,0
213269.703,36.133,32.715,38.086,36.621,17.090,0
213269.707,31.738,36.621,39.062,46.875,41.992,0
213269.711,26.855,25.879,32.715,40.527,47.852,0
213269.715,23.438,30.762,28.320,32.715,18.066,0
213269.719,31.738,34.180,30.762,36.621,-10.742,0
213269.723,28.809,25.879,35.156,33.691,10.742,0
213269.727,24.414,24.414,34.668,28.809,30.762,0
213269.731,29.785,36.133,31.250,28.320,-20.020,0
213269.734,27.344,38.574,31.738,28.809,-42.480,0
213269.738,26.855,33.691,26.855,35.156,26.367,0
213269.742,31.250,37.109,22.461,47.852,37.598,0
213269.746,34.668,41.016,25.391,43.457,0.000,0
213269.750,43.457,31.738,28.809,37.109,31.250,0
213269.754,43.457,15.625,33.691,43.457,81.055,0
213269.758,30.762,21.973,41.504,38.086,80.078,0
213269.762,20.996,36.133,43.457,24.414,56.641,0
213269.766,12.695,31.250,38.574,18.066,43.945,0
213269.770,15.625,30.273,33.203,29.297,62.988,0
213269.774,23.438,37.598,35.156,39.062,30.273,0
213269.777,17.578,36.621,37.109,24.902,0.977,0
213269.781,18.066,30.273,34.180,18.555,54.688,0
213269.785,25.391,28.320,36.133,31.250,34.180,0
213269.789,29.297,29.785,35.156,37.109,6.348,0
213269.793,30.762,29.785,25.391,40.039,19.043,0
213269.797,26.367,28.320,25.879,38.086,19.531,0
213269.801,31.738,32.715,34.180,32.227,60.547,1
213269.805,34.180,38.086,33.691,33.691,64.453,0
213269.809,30.273,32.227,31.250,33.203,20.508,0
213269.813,32.715,28.320,26.855,27.344,44.434,0
213269.817,29.297,28.809,26.367,29.785,72.266,0
213269.820,25.391,29.297,35.645,22.949,69.824,0
213269.824,25.391,27.832,40.527,17.090,55.176,0
213269.828,25.391,26.367,38.086,22.461,67.871,0
213269.832,20.508,26.367,33.203,25.391,59.082,0
213269.836,25.391,37.109,27.832,31.250,48.828,0
213269.840,31.738,48.828,21.973,31.738,63.477,0
213269.844,17.578,36.133,18.555,21.484,55.664,0
213269.848,11.719,29.785,27.344,19.043,29.785,0
213269.852,20.020,33.691,40.527,23.438,3.906,0
213269.856,20.996,28.320,41.016,26.367,3.418,0
213269.859,20.996,21.973,29.297,28.809,-9.277,0
213269.863,22.461,27.832,26.855,31.738,-18.066,0
213269.867,20.020,39.551,23.926,28.320,-6.836,0
213269.871,20.508,38.086,20.020,28.809,-15.625,0
213269.875,23.926,39.062,17.578,32.715,0.488,0
213269.879,21.484,34.668,21.484,20.020,2.930,0
213269.883,17.578,28.809,30.762,13.672,-1.953,0
213269.887,22.949,34.668,38.574,24.414,21.484,0
213269.891,26.367,33.203,35.156,24.902,61.035,0
213269.895,22.461,33.203,28.320,21.484,89.355,0
213269.899,21.973,35.156,28.320,29.297,35.645,0
213269.902,19.531,28.320,25.879,25.391,12.695,0
213269.906,14.160,28.320,23.926,21.973,45.898,0
213269.910,20.996,33.203,25.391,26.855,23.926,0
213269.914,31.250,33.691,26.855,26.367,-3.906,0
213269.918,26.367,29.297,34.180,26.855,26.367,0
213269.922,20.508,31.738,34.668,30.273,32.227,0
213269.926,18.555,33.691,32.227,25.879,22.461,0
213269.930,18.555,31.738,36.133,26.367,51.758,0
213269.934,19.531,34.668,35.156,32.227,37.598,0
213269.938,23.438,32.227,33.203,34.180,13.184,0
213269.942,25.879,29.297,25.879,36.621,27.832,0
213269.945,27.344,35.156,24.414,31.738,44.922,0
213269.949,26.855,36.621,29.297,30.273,35.156,0
213269.953,28.320,34.180,25.391,36.133,21.484,0
213269.957,29.785,30.273,29.297,26.367,-0.488,0
213269.961,27.344,25.391,36.133,25.391,2.441,0
213269.965,25.879,27.344,31.250,35.645,59.082,0
213269.969,28.320,28.809,32.227,35.156,48.340,0
213269.973,28.809,25.879,40.039,34.668,35.645,0
213269.977,28.809,28.809,36.621,32.715,41.504,0
213269.981,27.832,33.691,34.180,29.785,49.316,0
213269.984,22.461,36.133,31.738,30.762,58.594,0
213269.988,18.066,39.062,21.973,28.320,56.152,0
213269.992,16.602,36.133,20.020,21.973,53.223,0
213269.996,20.996,37.109,27.832,26.367,11.719,0
213270.000,24.902,40.039,32.715,32.227,-21.973,0
213270.004,20.996,33.691,32.227,23.438,-47.363,0
213270.008,17.578,28.320,33.203,23.438,11.230,0
213270.012,21.973,30.762,32.227,36.621,48.828,0
213270.016,27.344,33.691,34.180,32.227,20.508,0
213270.020,20.996,31.250,35.156,23.438,37.109,0
213270.024,21.484,27.344,27.832,22.949,39.551,0
213270.027,32.227,33.691,28.320,28.809,11.719,0
213270.031,28.809,36.133,32.227,28.320,-1.465,0
213270.035,23.926,28.809,36.133,28.320,17.578,0
213270.039,27.832,33.203,35.645,36.621,55.664,0
213270.043,32.227,41.992,30.273,44.434,62.012,0
213270.047,35.645,44.922,30.762,37.598,20.508,0
213270.051,39.062,46.387,33.691,34.668,11.719,0
213270.055,36.621,42.969,34.668,50.293,57.617,0
213270.059,25.879,34.668,23.926,41.016,91.797,0
213270.063,17.578,30.762,19.043,22.949,59.082,0
213270.067,20.020,28.320,27.832,25.879,61.523,0
213270.070,23.438,30.762,30.273,26.855,109.375,0
213270.074,22.461,38.086,33.691,26.855,59.082,0
213270.078,30.762,43.457,39.062,39.062,50.293,0
213270.082,27.344,39.062,28.809,39.551,75.684,0
213270.086,24.414,31.738,24.902,36.133,88.867,0
213270.090,25.391,28.809,30.273,38.574,57.129,0
213270.094,27.344,32.715,36.133,36.621,-4.883,0
213270.098,28.320,33.691,26.367,28.320,-22.949,0
213270.102,14.648,23.438,13.672,21.973,12.207,0
213270.106,16.113,25.391,22.949,27.832,3.418,0
213270.109,19.043,34.180,30.273,22.461,-9.766,0
213270.113,18.066,32.227,30.762,19.043,3.418,0
213270.117,24.414,25.391,34.180,25.391,3.906,0
213270.121,23.926,24.414,32.715,30.762,18.066,0
213270.125,16.113,27.832,29.297,32.715,41.504,0
213270.129,21.484,32.715,37.109,36.133,41.016,0
213270.133,32.715,32.715,37.598,36.621,46.387,0
213270.137,28.320,29.297,33.691,30.762,25.879,0
213270.141,25.391,27.344,29.785,33.203,6.836,0
213270.145,25.879,23.438,23.926,28.320,15.625,0
213270.149,23.926,29.297,22.949,18.555,-19.531,0
213270.152,23.438,34.668,27.344,25.879,-17.578,0
213270.156,25.391,33.203,34.180,39.551,27.832,0
213270.160,28.809,38.574,39.551,41.992,49.805,0
213270.164,27.832,38.574,39.551,32.227,50.293,0
213270.168,20.508,31.250,30.273,26.855,68.359,0
213270.172,16.113,27.832,31.738,24.414,23.438,0
213270.176,23.438,29.785,36.133,27.344,-10.254,0
213270.180,26.367,31.250,32.227,34.668,19.531,0
213270.184,16.602,28.320,27.344,30.273,18.066,0
213270.188,14.160,26.367,27.832,17.090,4.395,0
213270.192,18.555,31.738,32.227,20.020,38.574,0
213270.195,18.555,32.715,37.598,26.855,20.508,0
213270.199,17.090,31.250,31.738,24.414,-27.344,0
213270.203,23.926,35.156,32.227,27.832,2.930,0
213270.207,24.902,38.086,33.691,30.273,36.621,0
213270.211,15.625,34.668,23.926,24.902,32.227,0
213270.215,12.207,24.902,24.414,21.973,18.066,0
213270.219,13.672,24.414,28.320,32.715,23.926,0
213270.223,16.602,28.809,28.320,41.992,58.105,0
213270.227,18.066,28.809,31.250,36.621,75.684,0
213270.231,21.484,30.762,35.156,30.762,30.762,0
213270.234,30.762,31.738,35.156,33.691,10.742,0
213270.238,34.668,35.156,31.738,39.551,53.223,0
213270.242,30.273,34.180,29.785,27.344,0.977,0
213270.246,23.438,28.809,27.344,17.090,-21.484,0
213270.250,19.043,22.949,26.855,23.438,32.715,0
213270.254,21.973,25.391,33.203,24.902,38.086,0
213270.258,21.973,33.203,29.785,23.438,59.570,0
213270.262,27.344,37.109,34.180,36.133,67.383,0
213270.266,38.574,44.922,43.457,48.828,40.039,0
213270.270,34.668,39.062,36.133,41.992,23.438,0
213270.274,28.320,26.855,26.855,29.297,1.465,0
213270.277,32.715,24.414,24.902,20.508,18.555,0
213270.281,38.086,28.320,27.832,23.926,65.918,0
213270.285,34.180,31.738,25.879,24.414,38.086,0
213270.289,27.832,27.832,21.484,21.484,32.715,0
213270.293,25.391,24.902,22.949,22.949,79.590,0
213270.297,20.020,22.461,28.809,24.902,91.797,0
213270.301,19.043,22.461,27.344,27.344,58.105,0
213270.305,26.367,29.297,23.438,27.344,58.594,0
213270.309,29.297,35.156,30.762,27.344,96.680,0
213270.313,32.715,35.645,35.645,35.645,77.637,0
213270.317,30.273,35.645,34.180,30.762,42.480,0
213270.320,29.785,37.109,38.574,23.438,30.273,0
213270.324,31.738,38.086,34.668,28.809,20.996,0
213270.328,27.832,35.645,28.809,29.297,-0.977,0
213270.332,25.391,33.691,28.809,20.508,-20.508,0
213270.336,25.391,35.645,30.273,20.508,-3.906,0
213270.340,35.156,41.504,28.809,36.133,63.965,0
213270.344,40.527,43.945,27.344,38.086,66.406,0
213270.348,33.691,41.016,21.973,32.715,16.602,0
213270.352,28.809,41.504,23.926,27.344,15.625,0
213270.356,24.414,34.180,32.715,19.043,12.695,0
213270.359,23.926,25.391,40.527,19.531,-7.812,0
213270.363,24.902,32.715,32.227,23.438,-5.371,0
213270.367,27.832,38.086,18.066,23.926,-8.301,0
213270.371,29.785,30.273,28.809,26.855,-52.734,0
213270.375,34.668,37.598,32.715,25.391,-42.969,0
213270.379,35.645,40.039,30.762,23.438,-39.551,0
213270.383,28.809,32.715,31.250,26.855,-41.992,0
213270.387,34.180,45.410,35.645,36.133,-13.184,0
213270.391,36.621,51.758,39.551,41.992,-15.137,0
213270.395,26.367,45.410,37.109,33.203,-13.672,0
213270.399,26.855,41.992,36.133,27.344,20.996,0
213270.402,29.297,40.527,37.598,31.738,56.641,0
213270.406,24.902,38.086,39.062,31.250,34.668,0
213270.410,16.113,32.715,36.621,23.926,-5.371,0
213270.414,18.555,32.227,30.273,29.785,1.953,0
213270.418,22.461,33.691,24.902,37.109,51.758,0
213270.422,23.438,38.574,32.715,29.297,66.895,0
213270.426,25.391,36.621,36.133,22.461,44.434,0
213270.430,27.344,32.227,30.273,33.691,60.547,0
213270.434,27.344,36.133,29.785,38.574,55.176,0
213270.438,26.367,38.574,33.691,32.227,33.691,0
213270.442,28.809,36.133,31.738,31.250,18.066,0
213270.445,18.066,34.180,31.738,29.297,46.875,0
213270.449,5.371,32.715,33.691,16.113,18.066,0
213270.453,8.789,30.273,30.273,14.648,-6.836,0
213270.457,22.949,27.832,31.738,29.785,29.297,0
213270.461,20.020,26.855,31.250,26.855,48.828,0
213270.465,11.719,27.832,25.879,24.414,43.457,0
213270.469,14.160,25.879,22.949,23.926,7.812,0
213270.473,16.113,27.832,23.926,15.625,17.578,0
213270.477,26.367,37.598,28.320,26.367,46.387,0
213270.481,22.461,40.527,33.203,27.832,33.203,0
213270.484,12.695,33.203,32.715,21.484,-0.977,0
213270.488,10.742,25.879,33.691,28.809,-3.418,0
213270.492,5.371,26.367,31.738,23.438,7.324,0
213270.496,10.254,31.738,28.809,19.531,-10.254,0
213270.500,12.695,29.785,28.809,28.320,-12.695,1
213270.504,13.184,29.785,36.621,27.832,-6.836,0
213270.508,20.508,35.156,39.062,24.414,4.395,0
213270.512,21.973,35.645,28.809,21.973,28.809,0
213270.516,24.414,36.621,29.785,25.391,12.207,0
213270.520,21.973,34.668,29.297,25.879,-17.578,0
213270.524,18.555,33.203,27.344,23.438,-3.906,0
213270.527,22.461,31.738,28.809,20.020,4.395,0
213270.531,19.043,26.367,23.926,13.672,-19.043,0
213270.535,14.648,27.832,18.555,21.973,-7.812,0
213270.539,20.020,29.785,25.391,26.855,19.531,0
213270.543,22.949,28.809,36.621,23.438,6.348,0
213270.547,28.809,40.039,39.551,32.715,-3.906,0
213270.551,28.809,42.969,35.645,33.203,10.254,0
213270.555,19.531,27.832,28.809,22.461,-27.832,0
213270.559,17.578,26.855,22.949,23.438,-42.969,0
213270.563,20.020,32.715,21.973,28.809,-7.812,0
213270.567,16.113,31.250,28.809,32.715,26.367,0
213270.570,14.160,33.691,35.156,33.691,0.000,0
213270.574,18.066,36.133,30.762,29.297,0.977,0
213270.578,26.855,36.621,30.762,32.227,39.551,0
213270.582,27.344,36.621,38.086,42.969,49.316,0
213270.586,23.926,33.203,31.738,37.109,49.316,0
213270.590,22.949,27.832,29.297,25.391,41.992,0
213270.594,14.160,26.855,31.738,20.996,69.336,0
213270.598,13.184,32.227,23.438,20.996,99.609,0
213270.602,21.973,36.621,22.461,27.832,62.988,0
213270.606,25.879,35.156,28.320,28.320,22.461,0
213270.609,25.879,35.156,28.320,26.855,41.016,0
213270.613,26.367,40.039,20.508,24.902,31.738,0
213270.617,27.832,41.992,21.484,19.531,21.973,0
213270.621,26.855,35.156,30.762,27.832,33.691,0
213270.625,21.484,31.250,28.809,35.645,21.484,0
213270.629,28.320,33.691,31.738,33.203,13.672,0
213270.633,29.297,32.227,32.227,27.344,5.371,0
213270.637,21.484,29.297,22.949,21.973,5.859,0
213270.641,21.973,32.227,26.367,29.785,24.414,0
213270.645,18.066,24.902,33.691,31.738,34.668,0
213270.649,11.230,15.625,36.133,28.809,30.273,0
213270.652,11.230,25.391,31.738,30.273,50.293,0
213270.656,15.625,33.203,24.902,27.832,45.898,0
213270.660,18.066,29.785,24.902,24.902,28.809,0
213270.664,18.555,30.273,30.762,27.344,31.250,0
213270.668,20.996,33.691,33.203,36.621,34.668,0
213270.672,27.344,37.598,26.367,38.086,66.895,0
213270.676,26.367,37.598,22.461,31.738,63.965,0
213270.680,20.508,33.691,24.414,25.391,57.129,0
213270.684,27.832,34.180,19.043,36.621,100.098,0
213270.688,38.086,37.598,25.391,55.664,114.258,0
213270.692,36.133,38.086,39.062,46.875,79.102,0
213270.695,35.645,34.180,41.016,37.598,54.199,0
213270.699,34.668,34.180,35.156,37.598,73.242,0
213270.703,31.250,40.039,28.809,31.250,61.523,0
213270.707,27.832,37.109,28.809,26.855,2.441,0
213270.711,25.391,30.273,26.855,21.973,-8.301,0
213270.715,25.879,29.785,25.879,30.762,37.598,0
213270.719,26.367,27.832,28.809,40.527,78.125,0
213270.723,23.926,23.926,27.832,32.715,66.406,0
213270.727,22.461,31.250,21.484,28.809,44.434,0
213270.731,17.090,35.156,24.414,36.621,42.969,0
213270.734,8.301,30.762,36.621,28.320,41.504,0
213270.738,12.207,36.133,40.039,26.855,64.941,0
213270.742,20.508,39.551,34.668,33.691,51.758,0
213270.746,7.812,26.855,24.414,20.020,56.152,0
213270.750,-2.441,20.508,17.090,4.395,50.293,0
213270.754,5.859,22.949,21.973,3.906,-1.953,0
213270.758,12.207,24.902,26.855,12.695,32.715,0
213270.762,17.578,29.785,27.344,28.809,72.754,0
213270.766,23.926,35.156,26.855,37.109,38.574,0
213270.770,27.832,35.645,32.715,27.832,33.691,0
213270.774,36.133,33.691,32.715,22.461,31.250,0
213270.777,35.156,32.227,31.250,25.879,4.395,0
213270.781,30.273,31.250,31.738,29.785,14.648,0
213270.785,31.250,28.809,26.855,30.273,41.016,0
213270.789,28.809,28.809,25.879,32.715,31.738,0
213270.793,33.691,31.738,32.227,42.480,20.020,0
213270.797,34.668,34.180,32.715,38.086,29.785,0
213270.801,26.367,33.691,25.391,27.344,-27.344,0
213270.805,21.973,30.762,25.879,31.738,-4.395,0
213270.809,16.602,31.250,32.227,25.391,64.453,0
213270.813,13.184,29.785,33.691,20.020,36.133,0
213270.817,17.090,29.785,34.180,29.297,-5.859,0
213270.820,21.484,32.227,34.180,33.203,-38.086,0
213270.824,21.484,31.738,32.227,20.508,-41.992,0
213270.828,20.020,30.762,32.227,13.184,-4.883,0
213270.832,17.578,28.809,30.273,9.766,5.859,0
213270.836,17.090,23.926,27.832,9.277,40.039,0
213270.840,19.531,20.508,23.926,11.230,69.824,0
213270.844,14.648,23.926,18.555,4.395,30.762,0
213270.848,21.484,34.180,26.855,21.484,31.250,0
213270.852,38.086,43.457,32.715,36.621,53.223,0
213270.856,36.621,40.039,29.785,24.414,22.949,0
213270.859,27.832,36.133,27.832,15.137,25.391,0
213270.863,21.484,29.785,30.273,15.137,35.645,0
213270.867,21.484,28.809,35.156,15.625,37.109,0
213270.871,22.461,31.738,32.715,15.137,41.504,0
213270.875,15.625,24.902,34.668,18.555,25.879,0
213270.879,11.230,22.949,30.273,14.648,50.781,0
213270.883,14.160,22.461,25.879,20.020,61.035,0
213270.887,18.555,21.484,29.297,26.367,58.105,0
213270.891,15.625,26.367,25.879,25.391,36.133,0
213270.895,16.602,34.180,26.855,32.715,6.348,0
213270.899,18.066,39.062,29.785,31.250,21.484,0
213270.902,12.695,32.227,33.203,19.043,51.270,0
213270.906,13.184,25.879,27.344,18.066,104.004,0
213270.910,10.254,27.344,19.531,20.996,79.102,0
213270.914,7.324,28.809,24.902,14.648,54.199,0
213270.918,12.695,32.227,24.902,12.695,70.312,0
213270.922,18.066,26.367,25.391,22.461,62.988,0
213270.926,20.508,26.855,28.320,30.273,65.918,0
213270.930,21.484,37.109,29.297,25.391,58.594,0
213270.934,28.809,38.574,35.645,24.414,35.645,0
213270.938,37.598,37.598,38.086,37.598,39.551,0
213270.942,26.367,31.250,24.902,34.668,54.688,0
213270.945,15.625,23.926,23.438,18.555,57.129,0
213270.949,24.414,28.809,29.785,20.508,31.250,0
213270.953,25.879,31.250,28.320,29.785,54.688,0
213270.957,23.438,29.785,23.926,24.902,95.215,0
213270.961,23.926,25.879,25.391,20.996,88.867,0
213270.965,18.555,26.367,27.344,25.391,115.723,0
213270.969,14.160,31.738,29.297,25.391,115.723,0
213270.973,16.113,30.762,30.273,24.414,76.172,0
213270.977,14.160,30.273,27.832,20.508,60.547,0
213270.981,15.625,29.785,31.250,27.344,41.504,0
213270.984,18.555,24.902,27.832,23.438,51.270,0
213270.988,20.996,25.879,25.879,25.879,96.191,0
213270.992,18.066,29.785,23.926,25.391,41.504,0
213270.996,13.184,29.785,29.785,12.207,-18.555,0
213271.000,12.207,27.832,30.762,11.719,38.574,0
213271.004,9.766,29.297,31.250,7.812,61.035,0
213271.008,9.277,33.691,38.086,4.883,23.438,0
213271.012,13.184,35.156,33.691,6.836,34.668,0
213271.016,9.766,29.297,31.738,7.812,59.082,0
213271.020,8.789,23.926,30.762,8.301,31.250,0
213271.024,21.484,27.344,28.320,16.602,11.230,0
213271.027,21.484,32.227,24.902,22.949,37.109,0
213271.031,14.160,31.250,26.855,18.066,38.574,0
213271.035,15.137,29.297,28.809,15.625,12.695,0
213271.039,17.090,29.297,24.902,7.812,-16.113,0
213271.043,16.602,28.809,30.273,8.789,10.742,0
213271.047,20.020,35.645,35.156,25.391,75.684,0
213271.051,19.531,38.086,32.715,23.926,52.734,0
213271.055,12.695,29.297,23.926,15.137,33.203,0
213271.059,14.648,28.809,25.391,15.625,55.176,0
213271.063,20.020,37.598,32.715,16.602,40.039,0
213271.067,21.484,36.621,33.203,14.648,31.250,0
213271.070,20.508,29.297,32.227,15.137,0.000,0
213271.074,22.461,31.738,27.832,22.949,-1.465,0
213271.078,30.762,40.527,28.320,32.227,16.113,0
213271.082,32.227,42.969,29.297,26.367,-20.020,0
213271.086,24.902,33.203,27.344,14.160,-10.742,0
213271.090,27.832,31.738,27.344,17.578,18.066,0
213271.094,32.227,39.062,25.879,24.902,23.926,0
213271.098,30.762,39.551,31.250,24.902,44.922,0
213271.102,33.203,39.551,40.527,25.879,40.039,0
213271.106,35.156,38.086,37.598,27.832,27.832,0
213271.109,35.645,35.645,30.762,23.926,16.602,0
213271.113,37.109,43.457,31.738,24.902,-20.508,0
213271.117,37.109,46.875,30.762,29.785,-34.180,0
213271.121,34.668,40.527,30.762,34.668,-63.965,0
213271.125,29.785,38.086,29.297,33.691,-117.188,0
213271.129,28.320,35.645,28.809,20.020,-127.930,0
213271.133,28.320,32.715,36.621,15.625,-110.840,0
213271.137,20.508,31.250,36.133,19.043,-71.289,0
213271.141,20.020,29.785,31.738,16.113,-57.617,0
213271.145,24.414,34.180,32.715,14.648,-49.316,0
213271.149,22.461,40.039,29.785,15.625,-34.668,0
213271.152,22.949,38.574,29.297,18.555,-8.301,0
213271.156,23.926,36.621,30.762,23.438,1.953,0
213271.160,21.484,40.039,31.738,31.250,9.277,0
213271.164,19.043,39.062,31.250,27.832,21.973,0
213271.168,20.508,37.109,30.273,25.879,31.738,0
213271.172,17.578,37.109,25.879,25.391,5.371,0
213271.176,13.184,31.250,27.344,22.949,-33.203,0
213271.180,20.020,27.344,31.250,21.484,3.418,0
213271.184,26.367,32.227,32.227,26.367,9.277,1
213271.188,24.902,28.320,33.203,36.133,9.277,0
213271.192,24.414,21.484,32.715,37.109,26.855,0
213271.195,28.809,26.367,37.109,36.133,23.926,0
213271.199,30.273,33.691,36.133,34.668,-11.719,0
213271.203,25.879,34.180,26.367,33.691,-6.836,0
213271.207,27.344,28.809,23.438,33.691,34.668,0
213271.211,26.855,25.391,28.809,32.227,49.805,0
213271.215,28.809,24.902,24.902,35.645,23.926,0
213271.219,32.227,27.344,22.461,34.668,5.371,0
213271.223,29.297,32.227,28.320,34.180,56.152,0
213271.227,32.227,36.133,35.645,37.598,66.406,0
213271.231,36.133,34.180,38.574,35.156,48.340,0
213271.234,36.621,35.156,35.156,37.598,45.410,0
213271.238,32.715,35.156,32.227,34.180,52.246,0
213271.242,25.391,32.227,24.902,22.461,5.371,0
213271.246,21.484,31.250,19.531,19.531,-35.645,0
213271.250,24.414,33.203,21.484,23.926,20.020,0
213271.254,32.227,34.668,24.414,40.527,37.598,0
213271.258,37.109,38.086,26.855,45.898,-16.602,0
213271.262,36.133,37.598,24.902,34.180,-44.922,0
213271.266,40.039,34.180,29.297,34.180,-2.930,0
213271.270,37.598,39.551,30.762,32.715,14.160,0
213271.274,22.461,40.039,25.879,20.508,16.113,0
213271.277,18.555,33.691,31.250,18.066,15.625,0
213271.281,22.461,33.691,31.250,24.414,34.668,0
213271.285,25.391,37.598,30.273,33.203,33.203,0
213271.289,26.855,41.992,31.250,34.668,12.207,0
213271.293,24.414,42.969,27.832,24.414,9.277,0
213271.297,24.414,37.598,30.273,23.438,40.527,0
213271.301,25.879,37.109,30.762,25.879,60.059,0
213271.305,19.043,31.738,26.855,21.484,25.879,0
213271.309,18.066,30.762,25.391,26.855,-10.742,0
213271.313,27.344,38.574,25.879,31.738,-14.160,0
213271.317,24.902,38.086,27.344,17.578,27.832,0
213271.320,17.578,30.273,26.855,11.719,22.949,0
213271.324,18.555,28.320,31.250,13.184,-0.977,0
213271.328,20.996,33.203,32.227,14.160,21.973,0
213271.332,21.484,27.344,24.902,21.973,54.199,0
213271.336,26.855,22.461,20.020,29.297,71.289,0
213271.340,24.902,26.367,25.879,31.738,77.637,0
213271.344,20.508,25.879,34.668,31.250,91.797,0
213271.348,21.973,24.414,33.203,30.273,79.102,0
213271.352,19.043,25.879,33.691,30.762,52.246,0
213271.356,16.113,29.785,32.715,38.086,46.875,0
213271.359,19.531,34.180,28.320,36.621,3.418,0
213271.363,20.020,35.156,24.414,24.414,4.395,0
213271.367,20.020,34.668,25.879,20.020,11.719,0
213271.371,25.391,34.668,29.297,32.227,24.902,0
213271.375,23.438,33.203,24.902,37.598,67.383,0
213271.379,20.996,31.738,29.297,31.250,76.660,0
213271.383,30.762,31.250,35.645,40.039,74.707,0
213271.387,38.574,34.668,31.738,44.922,65.430,0
213271.391,35.645,40.039,28.320,37.109,81.055,0
213271.395,34.180,40.039,33.203,28.809,63.965,0
213271.399,32.715,37.109,31.250,24.902,7.324,0
213271.402,30.762,31.738,19.043,24.902,-1.465,0
213271.406,32.715,32.715,15.625,33.203,20.020,0
213271.410,30.273,36.133,24.414,35.156,18.555,0
213271.414,32.715,36.133,30.273,26.367,-22.949,0
213271.418,38.086,30.762,30.273,25.879,1.465,0
213271.422,34.668,26.367,24.414,31.250,69.824,0
213271.426,30.273,31.250,20.996,29.297,49.316,0
213271.430,29.297,33.691,22.949,31.250,34.668,0
213271.434,26.855,29.297,26.855,34.668,61.523,0
213271.438,21.973,35.156,30.273,36.621,44.922,0
213271.442,19.043,33.203,30.273,33.691,29.785,0
213271.445,22.949,25.391,24.414,27.832,37.109,0
213271.449,20.996,32.227,24.902,35.645,23.926,0
213271.453,18.066,35.156,26.855,40.527,6.836,0
213271.457,24.902,36.133,28.320,25.879,13.184,0
213271.461,33.203,35.156,32.715,19.531,17.090,0
213271.465,32.715,35.156,28.809,32.715,51.758,0
213271.469,23.926,30.273,24.902,37.598,44.434,0
213271.473,19.531,27.832,20.996,33.691,11.230,0
213271.477,23.926,36.133,19.531,31.250,35.645,0
213271.481,25.391,33.203,27.832,29.785,40.527,0
213271.484,23.438,30.273,34.668,26.855,8.301,0
213271.488,27.344,38.574,36.133,24.902,28.320,0
213271.492,27.832,35.156,28.809,26.367,50.293,0
213271.496,19.043,27.832,19.531,30.273,37.109,0
213271.500,15.625,26.855,21.484,20.020,34.180,0
213271.504,19.043,32.227,26.855,12.695,37.109,0
213271.508,11.719,26.855,30.762,16.113,64.941,0
213271.512,2.930,20.996,25.391,20.020,61.035,0
213271.516,10.254,28.809,20.508,21.973,-6.836,0
213271.520,18.555,34.180,19.531,25.391,-8.301,0
213271.524,20.020,33.691,21.484,33.691,43.457,0
213271.527,20.996,31.250,27.344,34.668,50.293,0
213271.531,21.484,32.715,31.250,32.715,18.555,0
213271.535,21.484,37.598,27.344,33.691,39.062,0
213271.539,20.508,38.574,17.090,38.086,24.414,0
213271.543,20.996,37.109,18.555,42.480,7.812,0
213271.547,20.996,34.668,22.461,20.508,22.461,0
213271.551,19.043,31.250,28.809,4.395,26.367,0
213271.555,21.973,30.762,35.645,21.973,79.590,0
213271.559,30.762,34.668,35.156,32.227,82.520,0
213271.563,38.574,36.133,36.621,41.016,71.289,0
213271.567,42.969,33.691,33.691,44.922,52.734,0
213271.570,37.598,27.344,26.855,33.203,67.383,0
213271.574,31.250,22.949,27.832,30.273,84.961,0
213271.578,29.297,25.879,32.715,33.691,77.148,0
213271.582,20.996,31.738,30.273,32.227,69.824,0
213271.586,17.578,33.203,23.926,31.250,65.430,0
213271.590,22.949,27.832,27.832,32.227,86.426,0
213271.594,20.508,22.461,29.785,17.578,41.504,0
213271.598,18.555,19.531,33.203,15.625,6.348,0
213271.602,20.020,27.344,33.203,30.273,55.176,0
213271.606,14.648,31.250,26.855,27.832,63.965,0
213271.609,20.996,27.832,23.926,28.809,29.785,0
213271.613,28.320,27.832,17.090,37.598,36.133,0
213271.617,21.484,19.043,23.926,33.203,66.406,0
213271.621,20.020,27.344,40.527,28.809,70.312,0
213271.625,23.926,42.480,41.016,34.180,79.590,0
213271.629,20.996,31.250,32.227,31.250,70.312,0
213271.633,22.949,22.461,28.809,26.367,82.520,0
213271.637,26.855,31.738,28.809,28.320,73.730,0
213271.641,25.391,38.086,28.809,24.414,65.918,0
213271.645,17.090,36.133,23.926,23.438,51.270,0
213271.649,11.230,34.180,20.020,29.297,2.441,0
213271.652,13.184,33.203,25.391,24.902,-22.949,0
213271.656,20.020,29.297,30.273,35.156,8.789,0
213271.660,30.762,30.273,29.785,46.875,62.988,0
213271.664,31.250,30.273,33.203,37.598,69.336,0
213271.668,23.926,19.531,34.180,28.809,62.500,0
213271.672,19.043,16.113,32.227,26.855,56.152,0
213271.676,20.508,22.461,32.715,34.180,32.715,0
213271.680,21.484,26.367,33.691,35.645,39.062,0
213271.684,20.996,29.785,34.668,31.738,60.547,0
213271.688,18.555,30.762,28.809,24.902,39.551,0
213271.692,18.555,26.367,27.832,22.949,36.621,0
213271.695,21.484,30.762,31.250,24.902,47.852,0
213271.699,24.902,34.668,31.250,23.926,91.309,0
213271.703,31.738,31.738,35.156,31.250,104.980,0
213271.707,33.691,35.645,35.645,37.598,101.074,0
213271.711,26.855,37.109,28.320,28.809,111.816,0
213271.715,22.949,33.691,20.508,28.809,90.332,0
213271.719,27.832,33.691,23.438,33.691,96.680,0
213271.723,28.320,31.250,29.785,28.320,74.707,0
213271.727,29.297,29.297,29.785,25.391,62.012,0
213271.731,35.645,29.297,31.250,24.902,29.297,0
213271.734,30.762,24.414,38.086,24.414,-7.812,0
213271.738,27.832,33.203,37.109,24.902,44.922,0
213271.742,30.273,46.387,32.227,20.996,35.156,0
213271.746,30.273,48.340,32.227,17.578,2.930,0
213271.750,31.250,43.457,33.203,27.832,60.547,0
213271.754,33.203,37.598,29.785,31.250,100.098,0
213271.758,30.273,35.156,27.344,26.855,100.098,0
213271.762,23.438,29.785,36.133,29.785,92.773,0
213271.766,23.926,31.250,38.574,32.227,133.789,0
213271.770,29.297,38.574,41.016,22.949,125.977,0
213271.774,34.668,36.621,41.016,30.273,79.590,0
213271.777,24.414,26.855,33.203,25.879,101.074,0
213271.781,14.160,28.320,31.250,12.695,131.348,0
213271.785,20.508,26.367,27.344,15.625,120.117,0
213271.789,24.414,23.438,22.461,15.137,70.312,0
213271.793,18.555,26.367,27.832,13.184,59.570,2
213271.797,19.043,29.785,33.691,16.113,72.266,0
213271.801,22.949,31.738,34.180,14.648,58.105,0
213271.805,24.902,29.297,32.715,17.090,41.016,0
213271.809,27.832,30.273,29.297,26.855,63.965,0
213271.813,23.926,28.320,28.809,23.438,109.375,0
213271.817,19.043,26.367,26.855,15.137,91.797,0
213271.820,20.996,31.738,29.785,23.438,76.172,0
213271.824,22.949,31.738,33.203,24.414,81.543,0
213271.828,20.508,24.414,31.738,15.137,67.871,0
213271.832,24.414,25.879,38.086,16.113,42.969,0
213271.836,22.461,26.855,37.598,18.066,19.531,0
213271.840,17.090,19.531,34.180,23.438,44.922,0
213271.844,19.043,19.531,31.738,29.297,52.734,0
213271.848,21.973,26.855,32.227,33.691,-0.977,0
213271.852,24.902,34.180,32.715,35.645,-0.488,0
213271.856,17.578,30.762,31.738,30.273,44.922,0
213271.859,11.230,30.273,32.715,22.461,31.250,0
213271.863,18.066,36.621,31.250,25.391,4.395,0
213271.867,23.926,38.574,30.273,31.738,35.156,0
213271.871,28.809,44.922,31.250,30.273,41.504,0
213271.875,29.297,46.387,31.738,25.879,6.836,0
213271.879,27.832,39.551,30.762,28.809,-14.160,0
213271.883,28.320,30.273,37.598,33.203,6.348,0
213271.887,22.949,25.879,35.645,24.902,39.062,0
213271.891,16.602,31.250,30.273,21.484,18.066,0
213271.895,18.066,34.180,32.715,22.461,15.625,0
213271.899,22.461,29.785,30.762,23.926,64.453,0
213271.902,21.484,33.691,30.762,21.973,66.406,0
213271.906,21.484,37.109,30.762,24.902,45.410,0
213271.910,23.438,32.227,30.273,31.250,66.406,0
213271.914,22.949,26.855,29.785,31.250,29.785,0
213271.918,23.926,30.273,34.668,32.715,-20.996,0
213271.922,21.973,35.156,28.320,20.020,-32.227,0
213271.926,22.461,36.621,16.602,13.184,-44.434,0
213271.930,23.926,37.109,27.344,31.250,-27.832,0
213271.934,16.602,31.738,34.668,30.762,-21.973,0
213271.938,17.090,25.391,26.855,19.531,-26.367,0
213271.942,17.090,20.020,30.762,17.578,-19.531,0
213271.945,15.625,20.020,39.551,20.020,4.395,0
213271.949,17.578,24.902,34.180,21.973,1.953,0
213271.953,18.555,28.809,32.227,22.461,-2.930,0
213271.957,17.578,31.250,34.180,32.227,18.066,0
213271.961,15.137,35.645,32.227,32.715,12.207,0
213271.965,16.602,37.598,28.809,17.578,-3.418,0
213271.969,18.555,30.762,31.250,12.207,-30.762,0
213271.973,23.438,28.320,39.551,24.414,-40.039,0
213271.977,30.762,34.180,39.551,38.574,-25.879,0
213271.981,28.320,35.156,33.691,33.203,-25.879,0
213271.984,26.367,33.691,32.227,27.832,18.066,0
213271.988,25.391,31.250,23.926,32.227,40.039,0
213271.992,22.949,29.297,19.531,27.832,33.691,0
213271.996,25.391,31.738,28.809,21.484,29.785,0
213272.000,27.344,35.645,34.180,24.902,44.922,0
213272.004,28.809,33.203,34.180,28.809,46.875,0
213272.008,25.879,30.762,28.320,32.227,0.000,0
213272.012,27.832,34.180,26.855,36.621,-19.043,0
213272.016,29.785,38.086,31.738,30.273,-2.930,0
213272.020,32.227,43.457,35.645,29.785,37.598,0
213272.024,31.250,41.504,30.762,38.086,73.242,0
213272.027,23.438,31.738,27.344,26.855,62.988,0
213272.031,29.297,33.691,26.855,24.414,18.555,0
213272.035,27.832,38.574,19.043,32.715,20.996,0
213272.039,23.438,35.156,16.113,26.855,57.617,0
213272.043,26.855,36.133,26.367,24.902,81.543,0
213272.047,28.320,37.109,36.621,29.297,61.035,0
213272.051,29.785,34.180,33.203,25.391,38.086,0
213272.055,28.809,35.156,28.320,26.855,38.086,0
213272.059,30.273,39.062,29.785,33.691,22.949,0
213272.063,29.297,41.504,31.738,28.809,4.395,0
213272.067,31.250,43.945,29.297,32.227,14.160,0
213272.070,30.273,41.504,23.438,31.250,20.996,0
213272.074,23.926,37.598,23.926,14.160,-11.230,0
213272.078,29.785,38.086,29.785,25.879,13.184,0
213272.082,38.574,34.180,35.156,44.434,76.172,0
213272.086,36.621,32.227,30.762,28.809,80.566,0
213272.090,31.738,33.203,25.391,19.043,74.707,0
213272.094,32.227,35.156,30.762,28.320,82.031,0
213272.098,31.250,38.086,34.180,34.180,84.961,0
213272.102,26.367,39.551,30.762,28.809,52.246,0
213272.106,24.414,39.551,33.691,23.438,-20.508,0
213272.109,22.461,37.598,39.551,30.273,-32.227,0
213272.113,22.461,29.785,33.691,30.762,-20.996,0
213272.117,20.020,23.926,24.414,18.555,-47.363,0
213272.121,16.602,23.926,25.391,11.230,-62.988,0
213272.125,24.414,26.367,31.250,22.949,-14.648,0
213272.129,24.902,28.320,35.645,30.273,13.672,0
213272.133,19.043,34.668,36.621,27.832,17.090,0
213272.137,20.508,34.180,37.109,23.438,36.621,0
213272.141,12.695,31.738,32.715,23.926,38.086,0
213272.145,6.836,31.738,31.250,25.391,11.230,0
213272.149,17.090,31.250,28.809,22.949,-0.488,0
213272.152,25.879,39.062,31.738,28.320,-11.230,0
213272.156,25.391,39.551,31.250,25.879,-15.625,0
213272.160,21.484,30.762,25.391,20.508,-14.648,0
213272.164,20.996,29.785,27.832,17.578,-21.973,0
213272.168,23.438,30.762,31.250,17.578,0.000,0
213272.172,20.508,34.180,32.715,23.438,13.184,0
213272.176,21.973,38.086,29.785,26.855,-4.395,0
213272.180,25.391,34.180,24.414,22.461,-20.020,0
213272.184,21.484,31.738,24.414,18.066,-28.809,0
213272.188,22.461,38.086,25.391,22.461,-12.207,0
213272.192,24.414,35.645,22.461,23.438,-0.488,0
213272.195,22.949,25.879,27.344,28.320,13.184,0
213272.199,24.902,27.344,28.320,29.297,20.996,0
213272.203,24.902,28.320,25.391,22.949,6.836,0
213272.207,25.879,27.832,23.438,16.113,-6.836,0
213272.211,25.879,27.832,25.879,16.602,36.621,0
213272.215,24.902,31.250,26.855,32.227,82.520,0
213272.219,26.367,37.109,26.367,35.156,79.102,0
213272.223,23.438,36.133,23.438,23.926,42.480,0
213272.227,25.879,38.574,27.832,29.785,15.625,0
213272.231,34.180,40.527,39.062,38.574,16.602,0
213272.234,35.156,38.574,40.039,41.016,33.203,0
213272.238,28.320,34.668,35.156,38.086,35.156,0
213272.242,17.578,26.855,31.250,26.367,37.598,0
213272.246,15.625,28.809,30.762,24.414,38.086,0
213272.250,20.508,34.180,27.832,24.414,3.906,0
213272.254,23.438,31.250,25.879,18.555,-34.180,0
213272.258,29.297,30.762,27.344,26.855,-57.617,0
213272.262,29.785,31.738,30.273,38.086,-19.531,0
213272.266,30.273,31.738,29.785,37.598,-29.297,0
213272.270,30.762,37.598,29.785,37.109,-27.832,0
213272.274,28.320,32.227,28.809,44.922,15.137,0
213272.277,35.156,33.203,26.367,43.457,17.578,0
213272.281,36.133,40.039,28.320,40.039,-5.859,0
213272.285,29.297,38.086,24.902,41.992,-22.949,0
213272.289,31.738,42.480,17.578,35.645,16.602,0
213272.293,31.738,37.109,20.996,28.320,24.414,0
213272.297,25.879,31.738,32.715,14.160,-70.801,0
213272.301,27.832,37.598,38.574,16.113,-72.754,0
213272.305,29.785,35.645,33.203,28.809,25.879,0
213272.309,28.809,35.645,27.344,29.785,25.879,0
213272.313,29.297,35.156,24.902,31.250,32.715,0
213272.317,27.832,32.227,25.879,21.973,99.609,0
213272.320,33.203,34.180,26.367,23.926,120.605,0
213272.324,36.621,31.738,23.438,28.320,57.129,0
213272.328,33.691,33.691,19.043,27.344,37.109,0
213272.332,34.180,41.016,28.809,37.109,69.824,0
213272.336,28.320,37.598,31.250,38.574,93.262,0
213272.340,21.484,32.227,19.043,33.203,69.824,0
213272.344,20.508,31.250,21.484,24.414,23.926,0
213272.348,21.484,32.715,33.203,21.484,61.523,0
213272.352,19.531,35.645,36.133,25.391,95.215,0
213272.356,23.926,38.086,38.086,26.367,40.039,0
213272.359,29.785,34.668,41.992,29.785,49.316,0
213272.363,26.367,32.227,32.715,27.344,62.012,0
213272.367,20.996,30.273,24.902,22.949,40.527,0
213272.371,15.625,24.902,20.996,24.902,33.203,0
213272.375,20.020,31.738,25.391,31.250,6.836,0
213272.379,26.855,37.598,29.297,36.621,26.367,0
213272.383,21.484,36.133,23.926,32.715,24.902,1
213272.387,18.555,34.180,28.320,26.855,0.488,0
213272.391,20.996,31.250,35.156,26.367,-10.742,0
213272.395,22.949,34.668,33.203,25.879,-0.977,0
213272.399,26.367,42.480,37.598,31.250,16.602,0
213272.402,23.926,42.480,32.227,28.320,-23.926,0
213272.406,16.602,34.180,21.973,18.066,-39.551,0
213272.410,10.742,29.297,20.508,7.812,3.418,0
213272.414,20.508,33.203,20.508,16.113,10.254,0
213272.418,32.227,32.227,23.438,29.785,19.043,0
213272.422,21.973,29.297,31.250,23.438,33.691,0
213272.426,12.695,33.691,32.227,19.531,20.996,0
213272.430,17.090,34.180,31.738,21.484,47.852,0
213272.434,15.625,30.273,36.133,17.578,39.062,0
213272.438,10.742,32.715,42.969,22.949,21.973,0
213272.442,11.230,33.691,43.457,30.273,71.289,0
213272.445,13.672,30.273,35.156,23.438,40.039,0
213272.449,18.066,27.832,33.691,18.066,-16.602,0
213272.453,16.113,27.832,31.738,23.438,21.484,0
213272.457,18.066,29.785,25.879,29.785,25.391,0
213272.461,25.391,34.180,28.809,29.785,-0.488,0
213272.465,25.391,31.738,31.738,26.367,23.438,0
213272.469,26.855,31.738,28.809,29.297,47.363,0
213272.473,22.461,40.039,27.344,28.320,70.312,0
213272.477,23.926,42.480,37.598,30.762,76.172,0
213272.481,29.785,37.109,37.598,35.645,69.336,0
213272.484,27.344,31.250,34.668,37.109,93.262,0
213272.488,28.320,35.645,34.180,35.156,84.473,0
213272.492,25.879,40.039,30.762,19.531,37.109,0
213272.496,24.902,36.133,32.715,16.113,37.598,0
213272.500,29.297,34.668,35.156,29.297,77.637,0
213272.504,25.391,34.668,34.668,30.762,79.102,0
213272.508,24.414,38.574,36.133,26.367,23.926,0
213272.512,23.926,36.133,29.297,24.414,26.367,0
213272.516,20.996,29.297,20.996,26.367,63.477,0
213272.520,24.414,26.855,31.738,28.809,39.551,0
213272.524,21.484,27.832,34.668,27.344,33.691,0
213272.527,18.555,35.156,31.250,35.156,45.410,0
213272.531,23.926,40.039,32.227,37.598,53.711,0
213272.535,32.227,43.945,36.133,31.738,47.852,0
213272.539,33.203,41.504,46.875,35.156,30.273,0
213272.543,20.996,30.762,39.551,27.832,46.875,0
213272.547,15.625,26.855,29.297,16.602,41.016,0
213272.551,16.113,27.344,31.250,16.602,23.926,0
213272.555,14.160,24.414,29.785,20.996,-0.488,0
213272.559,15.137,23.438,28.320,22.461,-0.488,0
213272.563,11.230,26.367,30.762,23.926,31.738,0
213272.567,15.137,28.809,36.621,27.832,31.738,0
213272.570,21.484,30.273,32.227,31.250,29.785,0
213272.574,19.531,31.738,24.902,23.438,16.113,0
213272.578,24.902,33.691,33.203,21.484,40.527,0
213272.582,33.691,33.691,46.387,30.762,43.457,0
213272.586,27.832,23.438,38.086,34.668,13.672,0
213272.590,22.461,22.461,29.297,35.645,62.012,0
213272.594,24.414,33.691,32.227,27.344,74.707,0
213272.598,25.391,37.598,34.180,18.555,71.777,0
213272.602,38.086,43.945,34.668,27.344,52.246,0
213272.606,39.551,42.480,32.227,32.715,79.102,0
213272.609,26.855,33.203,27.344,31.738,65.918,0
213272.613,25.391,27.344,28.320,30.762,46.387,0
213272.617,21.973,24.902,33.691,26.367,63.477,0
213272.621,25.391,30.273,29.297,28.809,56.641,0
213272.625,28.320,28.320,27.344,26.367,38.086,0
213272.629,25.879,27.832,34.180,21.484,1.465,0
213272.633,24.414,32.227,35.156,29.297,46.875,0
213272.637,28.320,32.715,35.645,36.621,84.473,0
213272.641,35.156,30.762,37.598,35.645,65.918,0
213272.645,34.180,32.227,37.109,39.062,56.641,0
213272.649,35.645,38.574,36.621,42.480,33.691,0
213272.652,37.598,37.109,33.203,44.434,-4.883,0
213272.656,35.156,30.273,32.227,39.551,-24.414,0
213272.660,30.273,35.156,36.621,32.715,-22.949,0
213272.664,35.645,41.016,39.062,37.598,-18.066,0
213272.668,39.062,36.133,38.086,42.969,-18.066,0
213272.672,32.227,30.273,36.133,40.527,-22.949,0
213272.676,27.832,31.738,31.738,33.203,-11.230,0
213272.680,30.762,36.133,26.367,34.668,11.719,0
213272.684,34.668,34.668,26.367,39.551,11.719,0
213272.688,34.668,32.715,21.973,41.992,22.461,0
213272.692,32.715,36.133,23.926,34.180,49.316,0
213272.695,24.414,39.551,28.809,30.273,63.965,0
213272.699,18.555,35.645,28.320,33.203,45.898,0
213272.703,23.926,33.203,27.344,29.785,-1.465,0
213272.707,32.715,41.992,25.391,28.320,-14.648,0
213272.711,33.691,41.016,27.832,32.227,11.230,0
213272.715,33.203,35.156,27.344,37.109,26.367,0
213272.719,38.086,40.039,22.461,36.133,21.484,0
213272.723,41.016,38.574,20.020,38.574,36.621,0
213272.727,31.738,28.809,21.973,36.133,46.875,0
213272.731,31.250,31.738,26.367,34.180,38.574,0
213272.734,39.062,37.109,23.926,41.016,41.016,0
213272.738,38.086,38.574,20.996,40.039,48.340,0
213272.742,36.133,33.203,18.066,35.645,34.180,0
213272.746,35.645,26.855,15.137,30.762,6.348,0
213272.750,30.762,31.250,19.531,26.855,6.348,0
213272.754,31.250,31.250,23.926,33.203,34.668,0
213272.758,39.062,33.203,29.297,41.992,32.227,0
213272.762,42.969,40.039,34.180,41.992,13.672,0
213272.766,39.062,36.621,31.738,36.621,3.418,0
213272.770,36.133,26.855,28.809,39.062,-8.301,0
213272.774,32.227,23.926,22.949,41.504,-31.738,0
213272.777,30.762,27.344,20.508,31.738,-49.805,0
213272.781,32.715,31.738,23.926,34.180,-1.465,0
213272.785,37.598,32.715,29.785,46.387,20.508,0
213272.789,36.621,33.691,39.062,35.645,-13.184,0
213272.793,24.902,32.227,34.668,20.508,-8.301,0
213272.797,19.043,29.297,30.273,19.043,20.020,0
213272.801,22.461,35.645,37.109,26.855,39.551,0
213272.805,25.391,38.574,36.133,25.879,6.348,0
213272.809,20.508,33.203,26.855,18.555,-4.883,0
213272.813,16.602,30.273,27.344,20.508,37.598,0
213272.817,13.672,28.320,30.273,23.438,26.855,0
213272.820,12.695,28.809,30.273,25.879,4.395,0
213272.824,7.324,30.762,29.297,14.160,-32.715,0
213272.828,4.395,35.645,26.367,19.043,24.902,0
213272.832,14.648,41.992,24.902,33.691,60.547,0
213272.836,17.090,40.039,30.273,26.855,-3.418,0
213272.840,11.719,36.133,30.273,23.926,12.207,0
213272.844,15.137,34.180,22.949,24.414,36.133,0
213272.848,14.648,30.762,20.020,22.461,54.199,0
213272.852,16.602,30.273,23.926,24.414,69.824,0
213272.856,15.137,31.738,31.738,25.391,32.227,0
213272.859,10.742,30.762,37.109,18.555,5.371,0
213272.863,12.207,27.832,31.250,11.230,31.250,0
213272.867,9.766,27.344,30.762,6.836,2.930,0
213272.871,18.066,34.668,37.109,20.996,-7.324,0
213272.875,25.879,40.039,33.691,34.668,38.574,0
213272.879,21.973,40.039,26.855,22.949,56.152,0
213272.883,14.160,37.598,31.738,21.973,43.457,0
213272.887,14.160,32.227,31.250,25.391,30.273,0
213272.891,17.090,24.414,30.762,24.902,49.805,0
213272.895,14.160,26.855,34.668,20.020,23.926,0
213272.899,15.625,30.762,37.598,20.020,-15.137,0
213272.902,18.555,30.273,39.551,25.391,13.184,0
213272.906,20.508,29.297,35.156,29.297,34.180,0
213272.910,22.949,29.785,32.227,31.250,0.977,0
213272.914,25.879,35.156,34.180,27.832,-35.645,0
213272.918,27.832,34.668,38.574,26.367,23.438,0
213272.922,20.508,29.785,36.133,24.414,27.344,0
213272.926,12.207,27.344,27.344,24.902,11.719,0
213272.930,20.996,26.367,27.344,27.344,24.414,0
213272.934,25.391,26.855,27.344,28.320,27.344,0
213272.938,18.066,28.809,30.273,32.227,35.156,0
213272.942,9.766,28.320,32.715,24.414,20.508,0
213272.945,4.395,29.785,32.227,16.113,36.133,0
213272.949,5.371,28.809,34.668,20.508,71.777,0
213272.953,8.301,26.367,37.598,24.902,70.801,1
213272.957,9.766,29.785,36.133,21.484,46.875,0
213272.961,7.324,28.320,36.133,18.555,33.203,0
213272.965,12.207,28.320,31.250,27.832,27.344,0
213272.969,15.625,30.762,25.391,37.109,51.758,0
213272.973,18.066,34.668,27.344,40.039,69.824,0
213272.977,20.508,35.156,32.715,35.645,32.227,0
213272.981,14.648,25.391,34.668,29.297,11.230,0
213272.984,15.137,20.508,27.344,26.367,45.410,0
213272.988,22.461,24.902,29.297,34.668,50.781,0
213272.992,29.785,27.832,39.551,38.086,4.395,0
213272.996,25.879,22.949,37.598,28.320,-7.324,0
213273.000,20.508,27.344,33.203,24.902,9.766,0
213273.004,26.367,33.691,34.180,28.320,44.434,0
213273.008,28.320,31.738,35.156,33.691,87.891,0
213273.012,30.273,28.809,35.156,40.039,63.965,0
213273.016,36.133,24.414,31.250,39.551,41.504,0
213273.020,34.180,19.043,29.297,34.180,76.660,0
213273.024,36.621,25.391,30.273,41.016,61.523,0
213273.027,38.574,31.250,31.738,34.668,43.457,0
213273.031,33.691,27.344,38.574,29.785,60.547,0
213273.035,33.203,27.832,39.551,35.156,63.965,0
213273.039,31.250,29.297,34.668,29.785,80.566,0
213273.043,20.020,30.273,31.738,29.297,97.168,0
213273.047,17.578,30.762,25.879,27.344,15.625,0
213273.051,22.461,30.762,29.297,25.879,-23.438,0
213273.055,20.020,32.715,40.039,30.762,62.500,0
213273.059,21.973,29.785,41.504,35.645,81.055,0
213273.063,19.043,20.996,34.180,34.668,50.781,0
213273.067,16.602,24.902,31.738,28.320,56.152,0
213273.070,24.902,39.551,34.180,30.273,52.734,0
213273.074,17.090,38.574,34.180,24.414,32.715,0
213273.078,11.230,30.273,35.156,21.973,31.738,0
213273.082,13.672,30.273,39.551,23.926,32.715,0
213273.086,17.090,34.180,40.527,19.531,33.203,0
213273.090,23.438,33.691,36.133,17.578,22.949,0
213273.094,26.367,30.762,39.551,20.996,0.977,0
213273.098,27.832,33.203,40.527,25.391,-36.621,0
213273.102,30.273,36.621,34.668,29.297,-34.668,0
213273.106,29.297,36.621,31.250,29.785,-29.785,0
213273.109,30.273,36.621,29.785,21.484,-46.875,0
213273.113,33.203,33.691,29.785,20.996,-11.719,0
213273.117,33.203,32.227,31.738,27.344,14.648,0
213273.121,35.645,33.691,33.203,33.203,4.395,0
213273.125,46.875,42.480,38.574,44.434,-8.301,0
213273.129,52.734,48.828,42.480,55.176,8.789,0
213273.133,46.387,43.945,36.133,46.387,2.930,0
213273.137,35.156,36.133,32.715,33.203,20.996,0
213273.141,27.344,30.273,31.250,26.855,42.480,0
213273.145,28.320,27.832,30.273,28.320,53.711,0
213273.149,31.738,27.344,31.250,42.969,54.199,0
213273.152,34.180,31.738,36.621,39.551,0.977,0
213273.156,24.414,36.133,36.133,16.113,16.602,0
213273.160,17.578,39.551,27.344,13.184,49.316,0
213273.164,20.020,40.527,22.949,14.160,25.879,0
213273.168,19.531,34.180,22.949,16.602,38.086,0
213273.172,19.531,28.809,27.344,25.391,51.758,0
213273.176,25.879,31.250,25.879,34.668,10.254,0
213273.180,33.691,35.645,21.973,38.574,10.742,0
213273.184,33.691,36.133,29.785,41.992,41.504,0
213273.188,29.297,36.621,38.086,40.527,25.879,0
213273.192,21.973,32.227,36.621,35.156,37.598,0
213273.195,18.066,27.344,31.738,30.273,33.691,0
213273.199,19.531,32.227,27.344,19.043,-14.648,0
213273.203,12.695,35.645,24.902,17.578,-22.949,0
213273.207,7.812,34.668,26.367,18.066,30.762,0
213273.211,16.113,32.227,27.832,15.137,42.969,0
213273.215,16.602,33.691,25.879,12.207,56.641,0
213273.219,16.113,37.598,23.926,17.090,75.684,0
213273.223,15.625,34.668,29.297,27.344,19.531,0
213273.227,12.207,26.855,31.250,13.672,-2.930,0
213273.231,14.160,29.785,26.855,6.836,9.277,0
213273.234,16.602,30.273,32.227,21.973,27.832,0
213273.238,18.555,24.902,35.645,27.344,58.594,0
213273.242,20.508,27.344,31.250,20.020,8.301,0
213273.246,26.367,26.855,30.273,23.926,-20.020,0
213273.250,32.227,23.926,28.320,38.574,38.086,0
213273.254,31.250,24.902,20.508,35.645,55.664,0
213273.258,33.203,33.691,32.227,29.785,42.480,0
213273.262,35.156,44.922,42.969,33.691,59.082,0
213273.266,31.738,41.504,34.180,33.203,34.180,0
213273.270,28.320,34.668,35.645,26.855,26.367,0
213273.274,30.762,31.738,38.574,23.438,63.477,0
213273.277,32.715,32.715,35.156,22.949,57.617,0
213273.281,32.715,33.691,31.250,25.391,36.621,0
213273.285,36.621,31.738,30.762,33.691,19.531,0
213273.289,31.250,34.668,29.785,27.832,-5.859,0
213273.293,22.949,33.203,26.855,19.531,8.301,0
213273.297,30.273,32.227,30.273,31.250,33.203,0
213273.301,34.668,27.832,33.691,31.738,12.695,0
213273.305,28.320,27.344,33.203,25.879,7.812,0
213273.309,25.391,31.738,30.762,28.809,24.414,0
213273.313,24.414,25.879,30.273,27.832,13.672,0
213273.317,25.391,33.203,34.668,34.180,3.418,0
213273.320,30.273,46.387,38.574,42.969,10.254,0
213273.324,31.738,41.016,38.086,35.156,-36.133,0
213273.328,31.738,38.086,23.438,26.855,-40.527,0
213273.332,26.855,41.016,10.742,17.578,-18.555,0
213273.336,22.461,37.109,23.926,12.207,-10.254,0
213273.340,23.438,35.156,38.574,24.902,-5.859,0
213273.344,23.438,36.133,37.109,30.762,10.742,0
213273.348,21.484,29.785,31.738,26.367,16.602,0
213273.352,20.508,29.297,26.855,22.461,27.344,0
213273.356,20.020,33.203,31.250,28.809,34.668,0
213273.359,21.484,35.156,35.156,33.203,12.207,0
213273.363,22.461,35.645,31.250,25.391,-20.508,0
213273.367,19.043,34.180,31.738,27.344,-26.855,0
213273.371,20.996,34.668,26.367,28.809,5.371,0
213273.375,19.531,32.715,23.438,18.555,16.113,0
213273.379,18.555,27.344,24.414,10.254,-2.441,0
213273.383,25.879,25.879,26.855,14.160,-15.137,0
213273.387,27.832,25.879,28.809,24.902,21.484,0
213273.391,21.973,21.484,27.344,14.160,25.391,0
213273.395,18.066,23.438,25.879,5.859,-11.719,0
213273.399,20.020,32.715,27.344,18.555,-1.465,0
213273.402,24.414,33.691,29.785,25.879,38.574,0
213273.406,30.762,31.738,36.621,27.344,40.039,0
213273.410,27.832,31.250,29.785,28.809,48.828,0
213273.414,29.297,32.715,24.902,32.227,17.578,0
213273.418,35.645,35.156,37.109,32.227,-13.184,0
213273.422,37.109,30.762,39.062,32.227,-0.488,0
213273.426,36.133,31.250,29.785,34.180,33.203,0
213273.430,32.715,38.086,29.297,37.109,37.598,0
213273.434,37.598,41.504,37.109,45.898,55.664,0
213273.438,39.551,41.504,41.504,47.363,54.688,0
213273.442,34.180,41.016,41.016,41.504,42.969,0
213273.445,35.156,41.992,40.039,40.527,22.949,0
213273.449,39.551,41.504,37.598,42.969,7.812,0
213273.453,29.785,32.715,31.738,37.598,39.551,0
213273.457,33.203,36.133,42.480,42.969,69.336,0
213273.461,44.922,43.945,54.688,53.223,65.430,0
213273.465,33.691,38.574,39.062,43.945,45.898,0
213273.469,24.414,39.062,31.250,29.297,42.969,0
213273.473,17.090,39.062,36.133,20.508,-0.977,0
213273.477,13.184,32.715,38.086,23.438,-6.348,0
213273.481,13.672,24.902,39.551,24.414,-3.418,0
213273.484,11.230,26.367,43.945,29.297,-24.902,0
213273.488,13.672,35.645,42.480,35.156,-2.930,0
213273.492,15.625,30.273,40.527,26.855,-6.348,0
213273.496,13.672,25.879,37.598,23.438,-14.160,0
213273.500,11.230,32.715,31.250,22.949,-20.020,0
213273.504,16.602,36.133,27.832,24.414,4.395,0
213273.508,24.414,35.645,24.902,27.832,-19.043,0
213273.512,34.668,36.621,26.855,31.250,-45.898,0
213273.516,39.062,37.598,31.738,37.109,-18.555,0
213273.520,21.484,33.691,30.273,31.738,-15.137,0
213273.524,8.301,24.902,30.273,26.367,7.812,0
213273.527,12.207,20.996,34.668,20.508,41.992,0
213273.531,23.438,29.785,38.574,25.391,81.543,0
213273.535,27.832,35.645,34.180,34.180,96.191,0
213273.539,24.414,30.762,27.832,26.367,72.754,0
213273.543,20.508,29.297,28.809,17.090,24.902,0
213273.547,20.508,29.785,29.785,19.531,10.254,0
213273.551,27.832,32.227,30.762,27.344,30.762,0
213273.555,25.391,24.902,19.531,29.785,10.742,0
213273.559,23.438,24.414,16.602,31.250,4.395,0
213273.563,30.273,36.133,21.973,29.297,33.691,0
213273.567,24.414,32.227,16.113,24.414,35.156,0
213273.570,21.973,28.809,21.484,18.066,10.254,0
213273.574,22.949,27.832,31.738,15.137,-12.207,0
213273.578,18.555,24.902,26.855,20.020,10.254,0
213273.582,20.996,31.738,24.902,26.855,28.320,0
213273.586,18.066,30.273,30.273,23.926,33.691,0
213273.590,16.602,27.832,35.645,19.043,38.086,0
213273.594,19.531,32.227,32.227,19.531,50.781,0
213273.598,12.207,28.809,27.344,15.137,84.473,0
213273.602,14.648,31.738,29.785,16.602,71.289,0
213273.606,22.461,36.621,30.762,25.391,53.223,0
213273.609,20.996,36.133,31.250,31.738,51.270,0
213273.613,21.973,34.668,27.344,33.691,44.922,0
213273.617,26.855,32.227,28.320,31.250,37.598,0
213273.621,29.297,36.133,35.156,27.344,38.086,2
213273.625,25.879,33.203,39.551,28.320,50.293,0
213273.629,20.020,25.879,31.738,25.879,55.176,0
213273.633,17.578,23.438,25.391,23.438,64.941,0
213273.637,17.090,25.879,33.203,29.297,89.355,0
213273.641,22.461,36.133,36.133,29.297,74.707,0
213273.645,24.414,40.527,30.762,28.320,80.566,0
213273.649,19.531,40.527,23.438,31.738,86.914,0
213273.652,21.973,43.457,21.973,33.203,70.801,0
213273.656,18.555,39.551,28.809,26.855,71.289,0
213273.660,9.766,29.297,31.250,16.602,24.414,0
213273.664,13.672,29.785,24.902,11.230,1.953,0
213273.668,16.602,27.832,24.414,20.020,28.809,0
213273.672,16.602,21.484,30.273,28.809,35.156,0
213273.676,23.438,23.438,35.156,31.738,23.438,0
213273.680,24.902,28.320,35.156,33.203,33.691,0
213273.684,25.879,34.668,34.668,30.762,64.941,0
213273.688,25.391,34.668,35.645,31.738,76.660,0
213273.692,14.160,31.250,29.785,27.832,76.172,0
213273.695,8.301,25.879,22.949,18.066,44.434,0
213273.699,9.277,17.090,21.973,16.113,27.344,0
213273.703,5.859,10.254,30.762,21.973,16.602,0
213273.707,4.883,17.090,33.203,17.090,18.555,0
213273.711,8.301,28.320,30.273,20.020,45.410,0
213273.715,12.207,26.855,28.809,25.879,33.203,0
213273.719,12.207,24.902,29.297,26.855,9.766,0
213273.723,15.137,29.785,29.297,31.738,7.812,0
213273.727,23.438,32.715,28.320,32.715,38.086,0
213273.731,26.855,31.250,28.320,33.691,88.379,0
213273.734,22.949,23.438,28.320,30.762,51.758,0
213273.738,17.578,16.602,34.180,35.156,11.719,0
213273.742,19.043,19.043,32.227,33.203,8.301,0
213273.746,25.879,27.344,28.809,34.668,16.113,0
213273.750,28.809,33.691,35.645,40.527,18.555,0
213273.754,28.320,34.180,36.621,30.273,-22.949,0
213273.758,30.762,31.738,31.738,29.297,-15.137,0
213273.762,31.250,36.621,35.156,37.598,-1.465,0
213273.766,25.391,41.504,33.203,37.598,3.418,0
213273.770,24.902,38.086,30.273,30.762,21.484,0
213273.774,29.785,36.133,35.645,32.715,41.016,0
213273.777,31.250,33.691,30.273,37.109,34.668,0
213273.781,31.738,27.344,28.809,39.062,13.184,0
213273.785,32.715,31.250,37.598,36.133,18.555,0
213273.789,31.250,42.480,40.527,28.320,13.184,0
213273.793,31.738,43.457,35.156,26.855,42.969,0
213273.797,28.809,34.180,30.273,25.879,20.020,0
213273.801,22.461,28.809,33.691,29.785,1.465,0
213273.805,24.414,34.668,34.180,41.016,51.270,0
213273.809,27.344,38.574,31.738,41.504,44.434,0
213273.813,26.367,34.180,36.133,40.527,12.207,0
213273.817,23.926,32.227,37.109,44.434,10.742,0
213273.820,19.043,28.809,25.879,40.527,35.645,0
213273.824,23.438,28.809,31.738,35.645,30.762,0
213273.828,27.344,39.551,38.086,33.691,30.762,0
213273.832,23.438,40.527,27.832,26.367,40.039,0
213273.836,19.531,31.250,25.391,23.926,55.176,0
213273.840,14.160,26.855,29.785,23.926,41.504,0
213273.844,12.207,24.414,30.762,20.996,10.254,0
213273.848,18.066,25.879,27.832,30.273,39.062,0
213273.852,26.855,32.227,31.250,38.574,55.664,0
213273.856,27.832,35.156,36.133,38.574,38.574,0
213273.859,29.297,32.227,37.598,37.598,31.738,0
213273.863,32.715,29.297,28.809,42.969,52.246,0
213273.867,30.762,30.273,24.902,45.410,76.172,0
213273.871,26.855,31.250,30.762,32.715,60.059,0
213273.875,24.414,26.855,33.203,26.367,72.266,0
213273.879,20.508,24.902,29.297,24.414,57.129,0
213273.883,19.531,25.391,29.297,25.879,47.852,0
213273.887,18.555,20.508,34.180,26.855,35.645,0
213273.891,22.461,25.879,36.621,24.902,-5.859,0
213273.895,30.273,38.086,35.645,30.762,25.879,0
213273.899,32.715,36.621,29.785,33.203,54.199,0
213273.902,33.691,30.762,24.902,27.832,59.082,0
213273.906,39.551,39.062,23.438,30.273,50.781,0
213273.910,47.852,45.898,28.320,44.434,55.176,0
213273.914,40.527,42.480,29.297,46.387,22.949,0
213273.918,26.855,36.133,27.344,24.902,11.719,0
213273.922,28.320,33.203,30.762,8.301,37.109,0
213273.926,29.297,33.691,35.156,9.766,21.973,0
213273.930,19.531,36.621,31.250,13.672,-0.977,0
213273.934,17.090,46.387,26.855,13.184,-2.930,0
213273.938,24.414,53.711,29.785,22.461,-13.672,0
213273.942,21.973,44.922,26.367,30.273,18.066,0
213273.945,15.137,36.133,19.531,18.555,49.805,0
213273.949,19.043,38.574,22.949,19.043,20.020,0
213273.953,19.531,39.551,22.949,28.320,24.414,0
213273.957,18.555,38.574,21.973,33.203,50.293,0
213273.961,15.137,37.598,22.949,29.297,51.270,0
213273.965,16.602,31.738,26.367,37.598,42.480,0
213273.969,28.320,30.273,28.320,44.922,53.223,0
213273.973,24.902,38.086,27.344,23.926,83.008,0
213273.977,20.508,40.527,32.715,14.160,74.219,0
213273.981,26.855,37.109,32.227,20.508,71.777,0
213273.984,17.090,33.691,22.461,13.672,83.984,0
213273.988,10.742,35.156,21.484,13.184,90.332,0
213273.992,17.090,35.156,27.344,18.066,61.523,0
213273.996,17.090,33.203,20.508,16.113,75.684,0
213274.000,14.160,28.320,20.508,21.484,124.512,0
213274.004,15.137,29.297,27.344,21.973,140.137,0
213274.008,18.066,30.273,26.367,19.043,105.957,0
213274.012,17.090,26.855,28.809,21.484,89.355,0
213274.016,22.949,27.344,30.273,31.738,87.402,0
213274.020,24.902,30.762,27.344,22.461,82.520,0
213274.024,15.137,31.738,21.973,10.742,42.480,0
213274.027,19.531,27.344,21.484,15.137,-5.371,0
213274.031,23.926,24.902,21.973,17.578,22.949,0
213274.035,24.902,31.250,17.578,20.020,27.832,0
213274.039,25.391,32.715,23.926,20.996,0.488,0
213274.043,19.531,30.273,30.762,16.113,16.602,0
213274.047,21.484,32.227,30.273,16.602,16.113,0
213274.051,27.344,37.598,24.902,20.020,9.277,0
213274.055,25.879,40.039,22.461,19.043,24.902,0
213274.059,20.020,33.691,25.879,18.066,52.246,0
213274.063,23.926,28.320,21.484,19.531,59.082,0
213274.067,23.926,28.320,22.461,23.438,41.016,0
213274.070,18.555,24.902,25.879,26.367,55.664,0
213274.074,18.555,23.926,26.855,27.344,24.902,0
213274.078,23.438,25.879,26.855,28.809,-11.230,0
213274.082,24.414,34.668,23.438,29.785,-9.277,0
213274.086,25.391,47.363,26.855,30.762,11.230,0
213274.090,29.297,48.340,28.809,32.227,49.316,0
213274.094,27.832,39.551,24.902,25.879,46.875,0
213274.098,27.832,39.062,31.738,26.367,39.551,0
213274.102,24.902,40.039,29.785,25.879,-15.625,0
213274.106,22.461,33.691,26.855,23.926,-9.766,0
213274.109,27.344,33.203,35.156,29.297,49.805,0
213274.113,26.855,31.738,34.668,32.227,75.684,0
213274.117,24.902,33.691,32.227,31.250,129.883,0
213274.121,24.902,38.086,32.227,33.203,137.695,0
213274.125,25.391,35.156,31.738,29.785,57.617,0
213274.129,28.320,35.156,33.203,19.043,13.672,0
213274.133,27.344,34.180,31.738,21.484,53.711,0
213274.137,29.785,29.785,28.809,26.855,46.387,0
213274.141,33.691,30.273,29.785,24.902,31.738,0
213274.145,26.367,31.738,30.762,25.879,65.430,0
213274.149,21.484,35.156,31.738,26.855,60.547,0
213274.152,22.949,35.156,34.668,26.367,23.438,0
213274.156,21.484,34.180,36.621,21.973,7.812,0
213274.160,19.043,35.645,34.668,17.090,25.391,0
213274.164,19.043,33.691,32.715,20.020,14.648,0
213274.168,19.043,30.273,29.297,19.043,10.742,0
213274.172,19.043,31.738,24.902,10.254,20.996,0
213274.176,14.160,34.180,30.273,4.395,39.551,0
213274.180,13.672,33.691,33.691,12.695,64.941,0
213274.184,16.113,31.250,27.344,15.625,62.012,0
213274.188,17.090,31.250,26.367,17.090,39.062,0
213274.192,18.066,34.668,25.879,14.160,25.879,0
213274.195,20.508,33.691,26.367,9.766,49.316,0
213274.199,23.438,32.715,19.531,17.578,32.227,0
213274.203,25.879,29.785,25.391,26.855,0.977,0
213274.207,27.344,28.809,33.203,24.902,9.277,0
213274.211,27.344,36.133,24.902,25.879,-9.766,0
213274.215,35.156,37.598,33.691,34.180,-14.648,0
213274.219,37.598,36.621,37.109,26.367,-11.719,1
213274.223,31.738,35.156,30.762,27.344,24.414,0
213274.227,30.762,29.785,34.668,30.273,84.961,0
213274.231,33.691,32.227,35.645,23.438,72.266,0
213274.234,35.156,32.715,32.715,29.785,56.641,0
213274.238,34.668,28.320,34.180,37.598,63.965,0
213274.242,31.738,29.297,30.273,30.762,37.598,0
213274.246,27.832,34.180,24.902,24.414,-4.883,0
213274.250,35.156,37.598,30.273,26.367,-2.441,0
213274.254,41.992,36.133,33.203,33.691,19.043,0
213274.258,34.180,27.344,31.250,33.691,45.898,0
213274.262,29.297,23.438,25.879,26.855,36.133,0
213274.266,34.668,25.879,24.414,31.250,28.320,0
213274.270,39.551,31.250,33.203,37.598,36.133,0
213274.274,41.016,38.086,29.785,34.668,34.668,0
213274.277,35.156,39.062,25.391,27.832,32.715,0
213274.281,28.320,36.133,34.180,22.949,29.297,0
213274.285,27.344,35.645,34.668,26.855,52.734,0
213274.289,32.715,39.551,36.133,31.738,53.223,0
213274.293,36.621,40.039,37.109,32.227,49.805,0
213274.297,37.109,32.715,38.086,28.320,58.594,0
213274.301,34.180,30.273,32.715,25.879,43.457,0
213274.305,32.715,36.133,26.367,30.273,29.785,0
213274.309,32.227,37.598,24.902,30.273,55.176,0
213274.313,27.832,33.203,21.484,24.414,49.805,0
213274.317,31.738,38.574,26.855,30.273,54.688,0
213274.320,33.691,44.434,33.691,28.809,40.527,0
213274.324,30.762,34.180,38.086,22.461,-4.395,0
213274.328,31.250,28.320,37.598,26.367,-27.832,0
213274.332,31.738,35.645,34.668,33.203,14.648,0
213274.336,29.785,40.039,33.691,34.668,9.766,0
213274.340,24.902,33.691,27.344,26.367,-29.297,0
213274.344,19.043,26.367,24.902,23.438,1.465,0
213274.348,15.625,27.832,31.250,22.461,29.297,0
213274.352,12.695,32.227,36.621,14.160,18.555,0
213274.356,15.625,31.250,35.156,17.578,0.488,0
213274.359,19.043,28.320,35.645,23.438,36.133,0
213274.363,20.508,29.785,37.598,32.227,75.684,0
213274.367,18.555,27.832,37.109,22.949,-19.531,0
213274.371,12.207,25.879,31.250,11.230,-43.945,0
213274.375,14.160,26.367,28.320,28.809,34.668,0
213274.379,13.184,25.879,33.203,29.785,4.395,0
213274.383,11.230,23.438,35.156,16.113,10.254,0
213274.387,19.531,26.855,32.715,20.508,28.320,0
213274.391,25.391,31.250,33.691,30.762,52.734,0
213274.395,24.414,27.344,37.109,34.668,78.125,0
213274.399,23.438,29.785,35.645,34.180,38.574,0
213274.402,22.949,35.645,29.785,36.621,26.855,0
213274.406,23.926,35.645,30.762,30.762,41.016,0
213274.410,20.508,29.297,32.227,25.391,24.414,0
213274.414,10.742,24.414,34.180,19.043,-33.691,0
213274.418,7.812,27.344,31.250,19.043,-12.207,0
213274.422,10.254,29.297,28.320,29.297,27.832,0
213274.426,11.230,25.391,30.273,23.926,5.371,0
213274.430,15.137,24.902,30.762,25.879,-3.906,0
213274.434,18.555,29.785,32.715,37.598,29.297,0
213274.438,19.531,32.227,35.645,35.156,55.176,0
213274.442,21.484,34.180,41.992,37.109,26.367,0
213274.445,26.367,38.574,41.504,36.621,2.930,0
213274.449,21.484,35.156,32.715,26.367,-5.859,0
213274.453,14.648,24.902,28.809,23.926,-28.809,0
213274.457,16.113,22.461,30.273,22.461,-14.160,0
213274.461,21.973,28.809,29.297,24.414,25.391,0
213274.465,28.809,31.738,32.227,33.691,28.809,0
213274.469,32.715,33.203,32.227,38.574,36.133,0
213274.473,36.621,40.039,31.250,40.039,53.223,0
213274.477,40.527,45.410,36.133,43.945,47.363,0
213274.481,41.016,43.457,39.551,41.992,65.430,0
213274.484,30.273,34.180,39.062,36.621,45.898,0
213274.488,25.391,30.762,37.598,38.086,18.066,0
213274.492,30.273,35.645,28.320,36.133,22.949,0
213274.496,26.367,34.668,23.926,29.297,30.762,0
213274.500,24.902,28.320,29.297,25.879,23.438,0
213274.504,27.832,27.344,33.203,25.391,-44.922,0
213274.508,26.367,32.227,30.273,31.738,-44.434,0
213274.512,30.273,33.691,34.180,36.133,-19.043,0
213274.516,35.645,28.809,40.527,30.762,-33.691,0
213274.520,31.250,30.762,35.156,27.344,-15.137,0
213274.524,28.809,36.621,32.227,28.320,15.625,0
213274.527,32.715,35.645,32.715,31.250,34.180,0
213274.531,28.320,35.645,30.762,29.785,7.812,0
213274.535,20.020,31.738,23.926,26.367,1.953,0
213274.539,18.555,24.902,19.043,23.926,11.719,0
213274.543,17.578,23.926,24.414,23.926,5.859,0
213274.547,19.043,27.832,26.367,20.020,-20.508,0
213274.551,25.391,32.715,21.484,15.625,-37.598,0
213274.555,28.320,36.133,21.973,22.949,-34.668,0
213274.559,29.785,36.133,28.809,37.109,-11.230,0
213274.563,30.762,34.668,36.621,38.086,4.883,0
213274.567,27.344,32.715,35.645,32.715,-1.465,0
213274.570,23.926,29.297,32.227,30.762,26.855,0
213274.574,21.973,28.320,32.715,28.320,14.160,0
213274.578,28.320,33.691,28.320,29.785,-20.020,0
213274.582,27.832,31.250,20.508,28.320,13.672,0
213274.586,25.879,26.367,22.949,29.785,61.035,0
213274.590,28.809,26.855,32.227,35.645,64.941,0
213274.594,27.832,34.180,43.945,30.762,36.133,0
213274.598,28.320,38.086,44.922,35.645,44.434,0
213274.602,27.832,34.180,39.551,40.039,92.773,0
213274.606,20.996,34.180,43.457,30.762,89.355,0
213274.609,14.648,34.180,38.086,22.461,85.449,0
213274.613,11.230,25.391,26.367,20.508,87.891,0
213274.617,10.742,20.996,27.344,20.508,65.430,0
213274.621,12.695,26.855,25.879,17.090,63.477,0
213274.625,9.766,27.344,23.438,16.113,60.059,0
213274.629,13.672,30.762,34.668,21.973,78.125,0
213274.633,17.578,32.227,40.527,22.461,85.449,0
213274.637,19.043,31.250,37.109,20.020,57.129,0
213274.641,23.438,37.109,34.668,23.926,66.895,0
213274.645,24.902,37.598,28.320,26.855,36.133,0
213274.649,20.020,36.133,22.949,24.414,10.742,0
213274.652,16.113,33.691,23.438,24.902,10.254,0
213274.656,18.555,27.832,28.320,31.738,3.906,0
213274.660,19.531,27.832,30.273,31.738,-3.418,0
213274.664,20.508,30.762,28.320,23.438,-3.418,0
213274.668,30.762,31.250,28.320,31.250,3.906,0
213274.672,37.598,30.762,26.855,38.574,4.883,0
213274.676,30.273,33.203,25.391,31.250,52.246,0
213274.680,23.926,38.574,28.320,27.344,78.613,0
213274.684,16.602,33.203,29.297,19.531,11.719,0
213274.688,12.207,31.738,30.762,19.043,48.340,0
213274.692,17.090,39.062,34.180,30.762,129.883,0
213274.695,16.602,39.551,36.133,22.461,86.426,0
213274.699,6.836,32.227,25.391,8.301,38.574,0
213274.703,5.859,22.949,25.879,19.043,68.848,0
213274.707,15.137,30.273,26.855,16.113,86.914,0
213274.711,16.113,41.016,20.020,5.371,81.543,0
213274.715,17.578,34.180,25.391,13.672,70.312,0
213274.719,22.949,35.645,26.855,20.020,68.359,0
213274.723,21.973,43.457,24.902,19.531,62.988,0
213274.727,24.902,41.016,25.879,22.949,39.551,0
213274.731,27.832,36.621,24.414,25.391,27.344,0
213274.734,24.414,34.668,23.926,20.020,19.043,0
213274.738,23.926,34.180,30.273,21.973,-1.953,0
213274.742,29.297,37.109,33.203,23.438,20.996,0
213274.746,35.156,35.156,34.180,17.090,37.598,0
213274.750,28.320,32.227,38.574,19.531,47.363,0
213274.754,21.973,34.180,37.109,25.879,20.020,0
213274.758,27.344,37.598,35.156,27.344,-14.648,0
213274.762,34.668,40.527,34.668,28.809,50.781,0
213274.766,30.273,32.227,29.785,28.809,75.195,0
213274.770,24.414,27.832,31.738,31.738,24.902,0
213274.774,23.438,33.203,28.320,30.762,41.504,0
213274.777,24.902,30.273,24.902,22.949,20.508,0
213274.781,24.902,23.438,30.762,21.484,7.812,0
213274.785,20.996,28.809,32.715,22.949,38.574,0
213274.789,23.926,36.621,27.832,13.672,21.484,0
213274.793,22.949,36.621,22.949,15.137,23.926,0
213274.797,25.391,36.133,30.762,28.320,27.344,0
213274.801,33.203,37.598,36.621,34.668,29.785,0
213274.805,32.227,35.156,29.785,29.785,16.602,0
213274.809,26.855,28.320,27.344,18.555,48.828,0
213274.813,29.297,31.738,28.809,20.020,78.125,0
213274.817,32.227,35.156,29.297,21.973,6.348,0
213274.820,28.320,32.715,30.273,20.996,-23.438,0
213274.824,28.320,30.762,31.738,28.809,-4.395,0
213274.828,33.203,34.180,32.715,33.691,-21.484,0
213274.832,30.273,37.598,31.738,27.832,-29.785,0
213274.836,23.926,28.809,31.738,24.902,-1.465,0
213274.840,23.438,28.809,30.273,27.832,0.977,0
213274.844,29.785,30.273,30.273,31.250,11.719,0
213274.848,31.738,28.809,37.109,35.156,21.973,0
213274.852,27.832,35.156,32.715,34.180,8.301,0
213274.856,22.461,37.598,28.320,28.809,-6.348,0
213274.859,20.020,34.180,29.297,25.879,6.836,0
213274.863,24.902,35.156,25.879,26.855,18.555,0
213274.867,25.879,34.668,25.879,25.391,-14.160,0
213274.871,23.438,30.762,26.855,21.484,0.488,0
213274.875,26.855,35.156,31.250,17.090,1.465,0
213274.879,27.832,37.109,31.250,14.160,-50.293,0
213274.883,26.367,33.691,30.762,19.043,-10.254,0
213274.887,22.461,34.180,31.738,21.484,28.320,0
213274.891,21.973,38.086,28.809,22.949,7.324,0
213274.895,26.367,40.039,30.762,25.391,39.062,0
213274.899,27.832,36.621,32.227,28.320,44.922,0
213274.902,23.438,32.715,27.344,28.320,2.930,0
213274.906,23.438,33.203,26.855,26.367,-9.277,0
213274.910,28.320,35.645,32.715,34.180,4.395,0
213274.914,25.879,34.180,34.668,36.621,13.672,0
213274.918,22.949,36.621,31.738,32.227,20.996,0
213274.922,25.391,48.340,26.367,28.809,25.391,0
213274.926,23.438,50.293,24.902,26.367,4.883,0
213274.930,19.531,40.527,27.344,26.367,31.250,0
213274.934,20.996,37.109,30.762,26.855,65.918,1
213274.938,25.391,37.109,33.203,27.344,57.129,0
213274.942,19.531,30.762,32.715,19.043,81.055,0
213274.945,10.254,25.879,36.133,16.113,74.707,0
213274.949,14.648,26.367,37.109,22.949,18.555,0
213274.953,15.625,25.391,29.785,20.508,-21.973,0
213274.957,10.254,27.344,27.344,21.484,-10.254,0
213274.961,15.137,29.785,25.879,27.344,45.898,0
213274.965,20.020,29.785,23.438,30.762,54.688,0
213274.969,18.555,32.227,27.832,26.855,36.133,0
213274.973,16.602,36.621,33.691,26.367,19.043,0
213274.977,20.020,36.621,38.574,33.691,28.320,0
213274.981,23.438,35.156,35.156,34.668,20.996,0
213274.984,18.066,33.691,26.855,31.250,2.930,0
213274.988,11.719,25.391,26.367,20.996,18.555,0
213274.992,10.742,22.461,27.344,25.879,75.684,0
213274.996,18.066,26.367,30.273,29.785,86.914,0
213275.000,25.879,31.250,31.250,21.973,63.965,0
213275.004,36.621,39.062,29.297,24.902,57.617,0
213275.008,36.133,41.992,32.227,28.320,68.359,0
213275.012,26.367,35.645,30.273,22.461,62.500,0
213275.016,24.414,30.273,28.320,21.973,38.574,0
213275.020,28.809,30.273,31.250,30.273,31.250,0
213275.024,24.414,29.785,30.762,29.297,25.391,0
213275.027,24.414,32.715,34.180,23.438,-0.488,0
213275.031,30.273,35.645,39.062,29.785,20.996,0
213275.035,26.855,30.273,31.738,33.691,56.152,0
213275.039,20.508,24.414,25.391,29.785,2.441,0
213275.043,21.484,26.367,33.203,35.645,4.395,0
213275.047,22.949,31.738,31.738,38.086,41.504,0
213275.051,22.949,33.203,25.879,31.250,38.086,0
213275.055,23.926,33.203,30.273,29.297,42.480,0
213275.059,26.855,32.227,35.156,29.785,42.969,0
213275.063,30.762,33.203,34.668,29.785,50.293,0
213275.067,28.809,29.297,37.598,31.250,64.941,0
213275.070,30.273,29.785,33.203,39.551,36.133,0
213275.074,38.086,34.668,34.180,49.316,2.930,0
213275.078,37.109,34.180,38.086,48.340,31.738,0
213275.082,29.785,25.391,29.297,39.062,77.148,0
213275.086,23.926,22.949,27.832,26.855,61.523,0
213275.090,26.855,28.809,30.273,25.879,11.230,0
213275.094,29.785,30.762,27.832,30.273,11.719,0
213275.098,27.344,29.297,29.785,28.320,8.301,0
213275.102,32.715,33.203,32.227,31.738,15.137,0
213275.106,34.668,35.156,33.203,39.551,31.738,0
213275.109,25.391,30.762,35.645,31.250,26.855,0
213275.113,23.926,27.832,30.762,29.297,74.707,0
213275.117,26.367,29.297,28.320,32.715,59.570,0
213275.121,24.902,35.645,29.297,26.855,30.762,0
213275.125,19.531,40.527,33.203,22.949,71.777,0
213275.129,19.043,41.504,31.738,20.996,65.918,0
213275.133,25.391,42.480,23.926,24.414,36.621,0
213275.137,22.949,41.016,23.438,21.973,63.477,0
213275.141,17.578,37.109,26.367,16.602,80.566,0
213275.145,20.020,36.621,29.785,19.043,79.102,0
213275.149,23.438,37.598,33.203,20.508,54.688,0
213275.152,24.414,39.062,34.668,23.438,29.785,0
213275.156,23.438,40.039,33.203,25.391,27.832,0
213275.160,21.973,32.715,29.297,32.715,9.766,0
213275.164,25.879,31.738,33.691,40.527,-9.277,0
213275.168,26.855,32.227,37.598,29.297,8.789,0
213275.172,22.949,26.855,33.203,24.902,3.906,0
213275.176,19.531,28.320,32.227,20.020,-28.809,0
213275.180,22.461,32.227,29.297,17.578,-4.883,0
213275.184,28.320,34.180,33.203,33.203,-5.859,0
213275.188,29.785,39.062,37.109,34.180,4.395,0
213275.192,29.297,39.062,34.668,24.902,47.852,0
213275.195,28.809,34.668,31.250,27.832,36.133,0
213275.199,29.785,32.227,28.809,29.785,13.184,0
213275.203,26.367,28.320,31.738,23.926,16.113,0
213275.207,25.391,28.320,36.133,22.949,1.953,0
213275.211,30.273,29.785,36.621,24.902,-13.184,0
213275.215,30.762,32.227,33.691,28.320,29.785,0
213275.219,30.273,34.668,32.227,34.668,46.387,0
213275.223,30.273,34.180,28.320,39.551,74.707,0
213275.227,33.203,37.109,29.785,34.668,90.820,0
213275.231,36.133,35.645,27.344,35.645,34.668,0
213275.234,29.297,33.203,26.855,32.227,23.926,0
213275.238,24.902,38.086,31.738,26.367,42.969,0
213275.242,30.762,36.133,37.109,37.109,52.246,0
213275.246,28.320,25.879,39.062,38.086,49.805,0
213275.250,22.461,25.391,35.645,27.832,48.828,0
213275.254,18.066,32.715,29.785,20.996,18.066,0
213275.258,11.230,36.621,24.902,23.438,36.133,0
213275.262,13.184,34.668,23.926,29.785,79.102,0
213275.266,20.996,34.668,27.832,30.762,60.059,0
213275.270,26.367,38.086,31.250,27.344,31.250,0
213275.274,24.414,36.133,37.109,28.320,20.020,0
213275.277,20.508,35.645,31.738,32.715,10.254,0
213275.281,23.926,37.598,28.320,33.691,46.875,0
213275.285,26.855,40.527,36.133,41.504,73.730,0
213275.289,28.809,47.363,32.715,45.410,31.250,0
213275.293,34.668,44.434,24.414,39.062,1.465,0
213275.297,40.527,35.156,24.414,36.133,-14.648,0
213275.301,31.250,25.391,28.320,31.250,6.836,0
213275.305,20.996,23.438,29.297,27.344,45.410,0
213275.309,29.297,30.762,31.738,23.438,43.457,0
213275.313,41.992,37.598,29.297,34.668,41.992,0
213275.317,43.945,35.645,22.949,45.410,39.551,0
213275.320,34.668,32.227,30.762,38.086,54.688,0
213275.324,26.855,29.785,37.598,27.344,35.645,0
213275.328,23.926,30.273,32.227,19.043,-16.113,0
213275.332,25.391,28.809,32.227,22.461,8.789,0
213275.336,17.090,20.996,31.738,17.578,47.852,0
213275.340,12.695,20.508,31.738,14.160,11.230,0
213275.344,19.043,26.855,31.250,11.719,-18.066,0
213275.348,24.414,29.785,32.715,18.066,-5.371,0
213275.352,26.855,30.762,37.598,30.273,36.621,0
213275.356,32.227,31.738,39.062,41.016,8.789,0
213275.359,33.203,37.109,36.133,41.016,-6.348,0
213275.363,27.344,35.645,36.621,27.344,44.434,0
213275.367,34.668,28.809,32.227,32.227,50.781,0
213275.371,44.434,31.250,31.738,43.945,27.344,0
213275.375,30.762,29.785,35.156,36.133,9.277,0
213275.379,20.508,28.809,36.133,26.855,37.598,0
213275.383,22.461,26.855,38.086,30.273,41.504,0
213275.387,24.414,28.809,34.668,31.738,14.648,0
213275.391,26.367,38.086,32.715,30.273,38.574,0
213275.395,24.902,36.133,31.738,28.320,49.805,0
213275.399,26.855,31.738,31.738,34.180,25.391,0
213275.402,27.344,33.691,28.809,31.738,-9.766,0
213275.406,26.855,37.109,25.879,32.227,8.301,0
213275.410,25.879,38.574,27.832,40.527,39.551,0
213275.414,19.043,26.367,33.691,35.645,8.789,0
213275.418,22.949,24.414,36.133,32.715,12.207,0
213275.422,25.391,32.227,35.645,29.785,37.598,0
213275.426,21.973,30.762,32.715,19.043,14.160,0
213275.430,21.973,29.297,27.344,20.020,29.785,0
213275.434,24.902,30.273,24.414,31.250,61.035,0
213275.438,31.738,32.715,29.297,30.273,42.480,0
213275.442,30.273,33.203,38.574,29.297,63.965,0
213275.445,24.902,31.738,39.062,30.762,59.082,0
213275.449,22.461,30.762,39.551,25.879,33.691,0
213275.453,20.020,30.273,38.574,36.621,64.941,0
213275.457,23.438,34.668,34.668,42.969,74.219,0
213275.461,26.855,39.551,38.086,36.621,57.129,0
213275.465,27.832,35.156,29.785,36.133,60.547,0
213275.469,23.926,23.438,23.926,28.809,62.012,0
213275.473,26.367,20.508,31.738,24.902,36.621,0
213275.477,30.762,27.344,34.180,27.832,43.457,0
213275.481,27.344,30.273,38.086,28.320,43.457,0
213275.484,23.926,31.738,38.086,29.785,36.621,0
213275.488,22.949,28.809,33.691,36.621,52.734,0
213275.492,27.344,26.367,27.832,31.250,20.996,0
213275.496,31.250,37.109,27.344,26.855,-6.348,0
213275.500,30.762,41.016,30.273,31.738,-0.977,0
213275.504,25.879,29.785,35.645,29.297,-28.809,0
213275.508,25.391,29.297,37.598,26.855,-35.645,0
213275.512,27.832,35.156,30.273,26.855,-29.785,0
213275.516,31.738,34.180,32.715,35.156,-5.371,0
213275.520,34.668,31.250,36.621,32.227,19.531,0
213275.524,33.203,32.227,34.180,31.738,3.906,1
213275.527,29.297,36.133,26.855,32.227,11.719,0
213275.531,28.320,37.109,30.273,28.809,4.395,0
213275.535,25.879,38.086,34.180,26.855,-11.230,0
213275.539,23.438,35.645,26.367,16.602,-10.742,0
213275.543,28.320,33.203,27.832,22.949,12.695,0
213275.547,27.344,35.156,30.762,34.668,27.832,0
213275.551,23.438,32.715,33.203,32.227,4.395,0
213275.555,23.926,30.273,30.762,31.250,25.391,0
213275.559,27.832,33.203,33.691,37.109,58.105,0
213275.563,29.785,39.062,40.527,38.086,36.621,0
213275.567,26.855,38.574,34.668,34.180,25.391,0
213275.570,25.391,35.156,25.391,28.320,29.297,0
213275.574,26.855,34.668,20.508,22.461,29.785,0
213275.578,22.949,28.809,18.066,18.066,39.062,0
213275.582,20.508,31.738,23.926,12.207,23.926,0
213275.586,20.508,30.273,36.133,15.137,-9.766,0
213275.590,19.043,23.438,38.086,26.855,41.504,0
213275.594,18.555,28.320,34.668,29.297,91.309,0
213275.598,16.602,30.762,32.227,26.367,40.527,0
213275.602,22.949,35.156,39.062,21.484,22.461,0
213275.606,30.273,38.086,39.551,23.926,47.852,0
213275.609,27.344,31.738,29.785,29.297,41.992,0
213275.613,22.949,28.320,23.438,19.531,33.691,0
213275.617,22.461,30.273,27.344,13.184,18.555,0
213275.621,24.414,33.691,32.715,25.879,5.859,0
213275.625,22.461,38.086,27.832,24.414,20.508,0
213275.629,20.020,38.086,28.809,15.137,31.738,0
213275.633,20.020,35.645,29.785,26.367,19.531,0
213275.637,27.832,36.133,31.738,40.527,28.320,0
213275.641,30.273,37.109,40.527,33.203,27.832,0
213275.645,25.391,31.250,29.297,31.738,29.785,0
213275.649,25.879,25.391,13.672,37.109,60.059,0
213275.652,26.367,22.949,13.184,24.414,46.875,0
213275.656,29.785,33.691,19.531,22.461,60.547,0
213275.660,30.273,41.504,34.180,30.273,64.453,0
213275.664,25.391,38.086,42.969,31.250,79.102,0
213275.668,19.531,35.645,38.086,28.320,66.895,0
213275.672,18.066,31.738,33.203,19.043,45.410,0
213275.676,17.090,29.297,30.273,13.672,83.984,0
213275.680,15.137,28.320,31.250,25.879,77.148,0
213275.684,23.438,30.762,30.273,48.828,35.156,0
213275.688,26.367,27.832,22.949,35.645,30.273,0
213275.692,20.020,25.879,24.902,12.695,30.762,0
213275.695,19.043,34.668,33.203,21.484,62.988,0
213275.699,27.344,38.086,37.598,33.203,69.336,0
213275.703,32.715,37.598,33.691,34.668,37.598,0
213275.707,12.695,27.832,33.203,20.996,77.148,0
213275.711,-0.488,24.902,31.738,12.695,76.660,0
213275.715,8.789,27.832,31.250,17.090,48.828,0
213275.719,10.742,27.832,30.762,11.230,34.180,0
213275.723,9.766,29.297,30.762,8.789,31.738,0
213275.727,18.066,29.297,32.715,21.973,49.316,0
213275.731,20.508,26.367,31.250,28.809,25.391,0
213275.734,29.297,26.855,36.621,42.969,16.602,0
213275.738,36.621,30.273,44.434,47.852,36.133,0
213275.742,28.809,33.691,37.598,28.320,17.090,0
213275.746,29.297,36.133,28.809,20.996,20.020,0
213275.750,31.738,36.621,25.391,24.902,41.504,0
213275.754,35.645,33.691,32.227,32.715,48.828,0
213275.758,38.086,33.203,36.621,32.227,29.785,0
213275.762,34.668,31.738,37.109,25.391,-2.930,0
213275.766,31.738,31.250,34.180,30.762,-4.395,0
213275.770,32.715,36.133,31.250,41.016,34.180,0
213275.774,40.527,38.086,40.039,44.922,52.246,0
213275.777,36.133,38.086,42.969,32.715,30.762,0
213275.781,21.484,32.715,35.156,22.461,19.531,0
213275.785,22.461,29.297,32.715,25.391,31.738,0
213275.789,30.273,29.785,38.086,32.227,23.438,0
213275.793,29.297,26.855,33.203,29.785,40.039,0
213275.797,31.250,26.855,29.785,24.902,17.578,0
213275.801,32.227,29.785,37.109,34.180,8.301,0
213275.805,32.715,34.180,42.480,44.922,5.371,0
213275.809,31.250,37.109,37.598,37.109,-19.531,0
213275.813,23.438,33.691,27.832,22.949,11.719,0
213275.817,26.855,33.691,36.621,25.391,42.969,0
213275.820,25.391,27.832,39.551,31.250,27.344,0
213275.824,17.090,22.461,30.762,25.879,-26.367,0
213275.828,20.996,27.344,34.180,24.902,20.508,0
213275.832,28.809,24.414,34.180,35.645,53.223,0
213275.836,26.367,20.508,34.668,27.344,-13.184,0
213275.840,24.902,22.461,36.621,18.555,-21.484,0
213275.844,30.273,21.973,34.180,30.762,-29.785,0
213275.848,33.691,29.297,32.715,33.203,-33.203,0
213275.852,35.156,39.062,34.668,27.344,-21.484,0
213275.856,31.738,34.668,33.203,23.438,-17.578,0
213275.859,30.273,33.203,34.180,28.320,1.465,0
213275.863,35.156,36.621,33.691,30.762,17.578,0
213275.867,34.668,32.715,30.273,28.320,29.297,0
213275.871,28.809,29.297,29.297,28.320,18.555,0
213275.875,26.855,31.738,28.320,31.738,26.367,0
213275.879,33.691,34.668,28.320,41.016,53.711,0
213275.883,38.574,35.156,26.855,36.621,18.066,0
213275.887,38.086,31.738,19.531,41.016,17.090,0
213275.891,34.180,28.320,22.461,43.945,69.824,0
213275.895,31.738,30.273,34.180,28.320,54.688,0
213275.899,29.785,30.762,37.598,25.391,25.391,0
213275.902,24.414,29.785,37.109,24.902,29.785,0
213275.906,22.949,30.762,33.691,22.949,18.555,0
213275.910,28.320,34.668,33.691,26.855,14.160,0
213275.914,32.715,43.457,37.598,33.203,14.648,0
213275.918,37.598,41.504,36.133,38.574,6.836,0
213275.922,39.062,32.227,25.879,41.992,3.906,0
213275.926,30.273,32.227,30.273,35.156,13.672,0
213275.930,25.391,34.668,33.691,31.250,21.484,0
213275.934,25.879,34.668,29.297,36.133,24.414,0
213275.938,23.438,37.109,27.832,33.691,35.156,0
213275.942,24.902,37.109,27.832,24.902,32.715,0
213275.945,25.879,33.203,28.320,21.484,25.879,0
213275.949,22.461,36.621,30.762,28.809,34.668,0
213275.953,22.949,37.598,28.809,31.738,62.500,0
213275.957,23.926,33.691,21.484,24.902,50.293,0
213275.961,28.809,34.180,26.367,20.508,6.836,0
213275.965,32.227,36.133,34.668,28.320,16.602,0
213275.969,28.809,41.992,34.668,29.785,13.184,0
213275.973,23.926,41.992,27.832,30.273,-19.531,0
213275.977,22.461,40.039,21.973,32.715,-9.766,0
213275.981,26.367,42.480,25.391,29.785,12.207,0
213275.984,30.762,42.969,34.668,31.738,1.953,0
213275.988,24.902,37.598,28.809,40.039,-3.906,0
213275.992,20.996,34.668,21.973,35.645,32.227,0
213275.996,16.113,33.203,23.926,20.996,27.832,0
213276.000,12.207,28.809,27.832,11.230,11.230,0
213276.004,12.207,24.414,25.879,8.301,-13.672,0
213276.008,7.324,21.973,25.879,12.207,-13.672,0
213276.012,15.137,29.785,32.715,20.996,31.250,0
213276.016,17.578,38.574,31.250,24.414,35.645,0
213276.020,14.648,40.039,28.809,23.438,44.922,0
213276.024,24.414,39.062,20.020,26.367,51.270,0
213276.027,24.414,34.668,17.578,24.902,31.738,0
213276.031,19.531,35.156,28.320,20.020,37.598,0
213276.035,18.555,30.762,33.203,16.602,48.828,0
213276.039,22.949,32.715,31.738,22.949,47.852,0
213276.043,28.809,41.016,22.461,30.273,24.902,0
213276.047,31.250,33.691,25.391,31.250,18.555,0
213276.051,29.785,29.297,34.668,29.785,28.320,0
213276.055,26.367,32.227,37.109,30.273,72.754,0
213276.059,26.855,30.762,34.180,27.344,104.004,0
213276.063,29.785,30.273,29.785,25.879,48.828,0
213276.067,37.109,37.109,34.668,36.133,29.785,0
213276.070,32.715,38.574,34.180,39.551,45.410,0
213276.074,12.695,34.668,26.367,22.949,41.504,0
213276.078,6.348,31.250,28.320,17.578,37.109,0
213276.082,18.555,30.273,36.133,30.762,45.410,0
213276.086,15.625,33.203,30.273,31.738,23.438,0
213276.090,6.348,31.738,24.902,18.066,18.555,0
213276.094,9.766,33.691,33.203,8.789,15.625,0
213276.098,15.625,39.062,37.109,14.648,-1.953,0
213276.102,15.625,42.969,30.762,24.902,12.207,0
213276.106,18.066,41.016,29.785,25.879,19.043,0
213276.109,18.555,29.785,35.645,24.902,24.414,0
213276.113,19.531,29.785,33.203,18.555,24.902,0
213276.117,25.879,31.738,25.391,22.949,35.156,0
213276.121,22.949,20.996,28.320,27.344,50.293,0
213276.125,16.113,26.855,33.691,29.297,41.504,0
213276.129,13.672,41.504,37.109,37.598,68.848,0
213276.133,17.090,42.480,37.598,27.344,73.242,0
213276.137,12.207,32.227,25.391,10.254,51.270,0
213276.141,8.301,22.949,26.367,9.766,26.367,0
213276.145,13.184,26.855,29.785,22.461,-13.184,0
213276.149,16.113,30.762,25.879,26.367,-12.695,0
213276.152,16.602,23.926,34.180,23.926,-3.906,0
213276.156,15.625,19.043,38.574,22.461,-20.020,0
213276.160,18.066,25.879,36.621,26.367,30.762,0
213276.164,22.461,33.691,35.645,27.344,38.574,0
213276.168,21.973,30.762,32.715,23.438,7.812,0
213276.172,19.043,26.367,30.273,19.531,8.789,0
213276.176,21.973,26.855,34.180,23.438,-7.812,0
213276.180,27.832,30.273,37.598,30.273,-10.254,0
213276.184,27.344,33.203,28.809,32.715,-16.602,0
213276.188,31.250,39.551,23.438,30.273,-12.207,1
213276.192,29.297,40.527,29.297,28.809,12.695,0
213276.195,22.461,33.203,36.133,31.250,61.035,0
213276.199,18.555,32.715,38.086,20.020,45.898,0
213276.203,18.066,34.668,40.039,22.461,3.906,0
213276.207,26.367,39.551,41.504,35.645,21.973,0
213276.211,28.320,41.504,33.203,37.109,4.395,0
213276.215,24.414,37.598,30.273,37.598,-9.277,0
213276.219,22.949,33.203,31.250,36.621,6.836,0
213276.223,26.367,32.227,35.156,35.645,29.297,0
213276.227,32.227,34.180,43.945,41.016,34.180,0
213276.231,26.855,34.668,40.039,44.434,15.137,0
213276.234,19.043,32.227,34.668,35.156,21.484,0
213276.238,20.020,32.715,33.203,29.785,51.270,0
213276.242,21.973,36.133,31.250,24.414,32.715,0
213276.246,23.438,36.621,33.691,21.973,6.348,0
213276.250,23.926,32.227,33.203,29.785,26.367,0
213276.254,22.949,29.297,29.785,37.109,10.254,0
213276.258,24.414,30.273,29.297,39.062,0.000,0
213276.262,25.391,27.832,35.645,39.062,16.602,0
213276.266,28.809,28.320,37.109,40.039,3.418,0
213276.270,30.762,37.109,34.668,34.180,-0.488,0
213276.274,20.996,37.598,30.762,27.832,31.250,0
213276.277,13.672,32.715,24.902,22.949,24.902,0
213276.281,9.766,23.926,25.879,18.555,28.809,0
213276.285,11.230,22.461,30.273,21.484,44.434,0
213276.289,18.555,27.344,38.086,20.996,15.137,0
213276.293,20.996,30.273,40.039,22.461,9.766,0
213276.297,23.438,32.715,35.156,31.250,32.715,0
213276.301,27.832,29.297,32.715,28.320,47.852,0
213276.305,27.344,25.391,33.203,24.414,56.152,0
213276.309,25.391,34.180,33.203,31.250,35.156,0
213276.313,22.461,36.621,26.367,32.227,63.477,0
213276.317,18.066,31.738,28.809,27.832,112.305,0
213276.320,18.555,36.621,33.691,24.902,104.004,0
213276.324,20.508,37.598,30.762,25.391,97.656,0
213276.328,24.414,33.203,28.809,35.645,75.195,0
213276.332,29.297,34.180,25.879,31.250,40.039,0
213276.336,30.762,33.203,28.320,21.973,47.363,0
213276.340,29.785,28.809,33.203,29.297,77.148,0
213276.344,32.227,26.855,39.551,35.645,63.477,0
213276.348,36.621,36.133,38.574,41.016,75.195,0
213276.352,40.039,45.410,29.297,35.156,65.918,0
213276.356,41.016,35.645,28.809,29.297,14.160,0
213276.359,34.668,23.926,33.203,32.715,20.020,0
213276.363,24.902,22.949,32.227,30.273,45.410,0
213276.367,22.461,27.832,31.250,29.297,19.043,0
213276.371,28.320,31.738,35.645,33.691,9.277,0
213276.375,24.414,29.297,38.574,27.344,9.277,0
213276.379,18.555,27.344,31.738,13.184,-8.301,0
213276.383,22.461,32.715,26.855,11.719,-14.648,0
213276.387,24.902,39.062,34.180,20.508,11.230,0
213276.391,22.461,41.016,38.086,21.484,19.531,0
213276.395,20.020,35.156,33.203,17.578,18.555,0
213276.399,14.160,27.832,25.879,18.066,43.945,0
213276.402,15.625,30.273,24.902,22.461,30.762,0
213276.406,20.508,31.738,27.344,24.902,23.438,0
213276.410,23.926,30.762,28.320,29.297,6.348,0
213276.414,23.926,35.645,31.738,30.273,15.625,0
213276.418,28.320,41.504,34.668,29.785,20.996,0
213276.422,28.809,42.480,29.297,28.809,5.371,0
213276.426,26.855,38.574,31.738,36.133,21.484,0
213276.430,32.227,36.133,35.645,42.480,48.828,0
213276.434,27.832,35.645,33.203,36.133,57.129,0
213276.438,17.578,31.738,25.391,26.855,8.301,0
213276.442,15.625,28.320,23.926,25.879,12.207,0
213276.445,19.043,28.320,30.762,39.062,51.758,0
213276.449,20.996,26.367,30.762,40.039,12.207,0
213276.453,19.043,20.508,33.691,36.621,18.066,0
213276.457,17.578,23.926,34.668,33.691,44.922,0
213276.461,18.066,32.715,34.668,35.645,37.598,0
213276.465,20.508,30.273,35.156,37.598,49.316,0
213276.469,23.926,29.785,31.738,30.762,-21.484,0
213276.473,27.344,35.156,28.809,36.133,-16.113,0
213276.477,23.438,37.598,23.926,29.785,21.973,0
213276.481,21.973,31.738,28.320,20.020,-13.184,0
213276.484,19.531,27.832,32.715,23.926,3.418,0
213276.488,16.602,32.227,29.297,19.043,35.645,0
213276.492,23.438,30.762,25.879,14.160,13.672,0
213276.496,36.621,33.203,26.855,25.879,-51.270,0
213276.500,38.574,36.133,31.250,41.016,-15.137,0
213276.504,34.180,32.715,28.320,40.527,56.641,0
213276.508,31.738,28.320,29.785,30.762,42.480,0
213276.512,25.391,26.855,33.691,29.785,32.227,0
213276.516,23.438,29.785,34.668,33.203,26.367,0
213276.520,19.531,26.855,35.156,28.809,20.996,0
213276.524,16.602,25.391,32.715,29.297,31.250,0
213276.527,17.090,25.879,25.879,22.949,2.441,0
213276.531,17.578,29.297,19.043,16.602,-16.602,0
213276.535,21.484,36.621,24.414,29.297,13.672,0
213276.539,20.020,34.668,28.320,29.297,16.602,0
213276.543,26.367,33.203,35.645,27.344,7.812,0
213276.547,32.227,32.715,39.551,27.832,9.766,0
213276.551,18.066,26.855,30.762,25.879,37.109,0
213276.555,14.160,24.414,28.320,25.391,19.043,0
213276.559,22.461,30.273,34.668,29.297,0.977,0
213276.563,21.973,33.203,33.203,32.227,35.156,0
213276.567,18.066,30.762,24.902,28.320,8.789,0
213276.570,20.508,34.180,24.902,28.320,-8.789,0
213276.574,21.484,35.645,26.855,30.762,-25.879,0
213276.578,28.320,32.227,32.227,44.434,-8.789,0
213276.582,38.574,34.668,37.598,54.688,32.715,0
213276.586,17.578,29.297,28.320,24.414,41.504,0
213276.590,4.883,22.949,23.926,7.812,40.527,0
213276.594,11.230,29.297,26.855,17.090,6.836,0
213276.598,14.160,35.156,25.391,21.484,-3.906,0
213276.602,20.508,40.527,23.926,21.484,53.223,0
213276.606,20.508,44.922,17.578,20.020,58.594,0
213276.609,16.113,41.992,12.695,14.160,58.105,0
213276.613,14.648,37.598,15.625,17.090,74.707,0
213276.617,20.508,35.156,22.949,22.461,41.504,0
213276.621,22.461,29.785,23.926,20.508,49.316,0
213276.625,17.090,30.273,20.020,21.484,103.516,0
213276.629,23.438,34.180,21.484,22.461,98.145,0
213276.633,30.762,35.645,21.484,31.250,38.574,0
213276.637,31.250,39.551,24.902,32.227,50.781,0
213276.641,34.180,44.922,31.250,24.414,83.984,0
213276.645,34.180,39.551,26.855,26.367,95.703,0
213276.649,33.203,32.227,22.949,29.785,83.984,0
213276.652,32.227,29.785,22.461,28.320,83.008,0
213276.656,30.273,31.250,19.043,27.832,60.547,0
213276.660,26.367,32.715,19.531,27.344,22.461,0
213276.664,23.438,31.738,22.949,24.414,0.488,0
213276.668,19.531,25.879,22.949,22.461,19.043,0
213276.672,21.484,21.973,27.832,27.832,26.855,0
213276.676,23.926,30.762,33.203,30.273,-1.953,0
213276.680,19.531,31.738,31.738,28.809,12.207,0
213276.684,21.484,25.879,24.902,28.809,41.992,0
213276.688,22.949,24.414,25.391,29.297,44.922,0
213276.692,24.414,29.785,31.250,22.949,-16.602,0
213276.695,27.832,34.668,26.855,18.555,-23.926,0
213276.699,22.461,33.691,21.973,20.508,13.672,0
213276.703,20.508,34.668,22.949,19.531,23.438,0
213276.707,25.879,33.691,32.715,15.137,-11.719,0
213276.711,27.832,25.391,41.016,21.484,-30.762,0
213276.715,34.668,17.578,42.969,41.992,17.578,0
213276.719,30.762,30.273,31.738,44.434,38.086,0
213276.723,19.043,43.457,26.367,20.020,64.941,0
213276.727,14.160,37.598,31.738,15.625,65.430,0
213276.731,14.648,33.203,35.645,25.391,44.434,0
213276.734,21.484,42.480,37.109,26.367,29.785,0
213276.738,23.438,41.504,33.691,25.879,18.555,0
213276.742,19.043,25.391,31.738,17.578,33.691,0
213276.746,17.578,27.344,32.227,18.555,43.945,0
213276.750,20.020,38.574,28.809,22.461,35.156,0
213276.754,24.902,41.016,26.855,25.879,28.320,0
213276.758,28.809,41.016,27.832,39.062,47.852,0
213276.762,24.902,33.203,31.738,35.156,70.312,0
213276.766,23.926,33.203,36.621,20.996,10.742,0
213276.770,27.832,41.016,37.109,27.832,23.926,0
213276.774,21.484,38.086,34.180,35.156,82.031,0
213276.777,13.184,24.902,28.320,26.367,57.129,0
213276.781,19.531,23.438,30.762,22.949,44.434,0
213276.785,24.902,29.297,33.691,31.738,52.734,0
213276.789,24.414,34.180,28.809,32.715,50.293,0
213276.793,22.949,38.574,31.738,30.273,55.664,0
213276.797,17.578,34.180,29.785,26.855,16.113,0
213276.801,19.531,31.250,24.414,20.020,15.625,0
213276.805,18.555,33.691,22.461,27.344,68.359,0
213276.809,14.160,26.855,31.738,32.227,52.734,0
213276.813,19.531,24.414,35.156,21.973,40.039,0
213276.817,23.438,28.809,27.344,21.973,67.383,0
213276.820,23.438,27.832,22.949,30.273,60.547,0
213276.824,24.902,32.715,21.484,26.367,30.762,0
213276.828,22.461,34.180,26.855,14.160,25.879,0
213276.832,24.902,36.133,28.320,19.531,53.711,0
213276.836,25.391,34.668,28.809,32.227,59.082,0
213276.840,24.902,25.879,33.203,27.832,22.949,0
213276.844,27.832,30.762,30.762,31.738,-14.648,0
213276.848,29.297,37.598,28.320,37.109,8.789,0
213276.852,30.273,34.668,36.621,37.109,78.125,0
213276.856,27.344,28.809,38.574,40.039,58.594,0
213276.859,19.531,31.738,25.879,30.762,29.297,0
213276.863,20.508,38.574,23.926,32.227,65.918,0
213276.867,28.320,38.574,25.391,42.480,47.852,0
213276.871,31.250,34.668,27.344,46.387,18.555,0
213276.875,26.367,32.227,31.738,41.016,22.461,0
213276.879,21.484,32.227,31.738,32.227,44.434,0
213276.883,22.461,34.668,26.855,31.250,53.711,0
213276.887,21.973,33.203,29.785,30.273,56.152,0
213276.891,25.879,31.250,36.621,29.297,27.832,0
213276.895,30.762,37.109,38.574,36.621,39.062,0
213276.899,26.855,35.156,40.039,33.203,51.758,1
213276.902,22.949,26.367,33.203,20.996,16.602,0
213276.906,26.367,23.926,32.227,20.508,-6.836,0
213276.910,29.297,28.320,33.691,32.715,-1.465,0
213276.914,29.785,34.180,30.273,33.691,26.855,0
213276.918,32.715,33.691,26.367,30.762,46.387,0
213276.922,39.062,33.691,26.855,40.527,33.203,0
213276.926,37.598,35.645,32.715,37.109,11.230,0
213276.930,26.367,32.227,28.320,22.949,17.578,0
213276.934,20.020,27.832,23.438,24.414,37.109,0
213276.938,19.043,23.438,30.762,32.227,53.711,0
213276.942,23.926,21.973,36.133,27.832,15.625,0
213276.945,31.250,26.855,35.156,23.438,-29.297,0
213276.949,28.809,20.508,30.762,23.438,-11.230,0
213276.953,29.785,20.020,33.203,33.691,47.363,0
213276.957,28.809,33.691,35.156,40.527,46.875,0
213276.961,20.020,34.668,20.508,34.668,14.160,0
213276.965,21.484,34.668,15.625,35.645,18.555,0
213276.969,22.949,34.668,29.785,32.227,0.000,0
213276.973,13.184,28.809,34.180,23.926,-3.906,0
213276.977,11.719,27.344,22.461,20.508,20.020,0
213276.981,17.090,29.785,14.160,23.438,51.758,0
213276.984,20.508,29.785,28.809,24.414,15.625,0
213276.988,16.602,23.926,33.691,18.066,-1.953,0
213276.992,19.043,30.762,22.949,12.207,22.949,0
213276.996,24.902,40.039,22.461,17.578,-7.324,0
213277.000,25.391,32.227,33.203,27.832,5.859,0
213277.004,28.320,26.855,35.156,28.320,25.879,0
213277.008,27.344,28.320,33.203,25.391,34.180,0
213277.012,28.809,34.668,37.109,27.832,52.246,0
213277.016,35.156,34.180,31.738,39.062,81.055,0
213277.020,35.645,26.855,31.250,38.574,65.430,0
213277.024,29.297,33.203,30.273,25.879,23.926,0
213277.027,24.414,35.156,24.902,22.949,17.578,0
213277.031,21.484,25.879,23.438,20.508,10.742,0
213277.035,24.902,28.320,27.344,24.414,23.438,0
213277.039,27.344,37.109,30.273,26.367,13.184,0
213277.043,21.973,33.203,27.832,22.461,57.129,0
213277.047,18.555,30.273,34.668,36.133,76.660,0
213277.051,15.137,29.785,34.180,37.598,7.812,0
213277.055,10.742,24.414,28.320,24.902,-4.395,0
213277.059,6.348,22.461,31.738,20.508,35.156,0
213277.063,13.672,33.203,32.715,23.438,60.547,0
213277.067,22.949,32.227,31.738,18.555,32.715,0
213277.070,15.137,24.414,24.414,13.184,1.465,0
213277.074,6.348,28.809,16.113,15.625,25.879,0
213277.078,11.719,31.250,23.438,13.184,54.688,0
213277.082,17.090,30.762,29.785,13.184,13.184,0
213277.086,18.066,30.273,24.902,15.137,-19.531,0
213277.090,20.020,25.391,19.043,23.926,26.367,0
213277.094,27.832,26.367,26.367,31.738,39.551,0
213277.098,34.668,32.715,40.039,38.574,23.926,0
213277.102,30.762,34.668,41.504,40.527,53.711,0
213277.106,25.879,36.133,28.320,28.809,85.449,0
213277.109,26.367,37.598,15.625,29.297,90.820,0
213277.113,33.691,41.992,10.742,39.062,72.754,0
213277.117,26.855,36.133,8.301,36.621,34.180,0
213277.121,14.648,30.273,21.484,26.367,13.672,0
213277.125,17.578,29.297,42.969,22.461,6.348,0
213277.129,12.207,24.414,35.156,16.113,-37.598,0
213277.133,12.207,28.809,25.879,19.043,7.324,0
213277.137,31.250,38.574,28.320,44.922,59.082,0
213277.141,29.297,36.621,36.133,33.203,28.809,0
213277.145,16.602,22.461,50.293,13.672,31.738,0
213277.149,29.297,26.855,49.316,32.715,34.668,0
213277.152,31.738,32.715,38.086,38.086,23.438,0
213277.156,20.020,20.508,33.691,20.996,18.066,0
213277.160,20.996,12.695,38.574,17.578,-15.625,0
213277.164,24.414,15.625,42.480,23.438,1.465,0
213277.168,28.320,20.996,37.109,29.785,-1.953,0
213277.172,36.621,32.227,32.227,34.668,-45.410,0
213277.176,44.922,40.527,41.016,40.527,-13.184,0
213277.180,44.434,37.109,46.875,39.551,47.363,0
213277.184,41.016,31.250,47.852,40.039,56.641,0
213277.188,37.109,38.086,38.086,43.945,25.879,0
213277.192,33.203,38.086,33.203,34.180,28.809,0
213277.195,28.809,22.949,41.504,26.367,29.785,0
213277.199,25.391,22.461,41.016,24.414,17.578,0
213277.203,26.855,30.762,45.410,24.414,17.090,0
