timestamps,TP9,AF7,AF8,TP10,Right AUX,Marker0
213140.227,37.598,43.457,34.180,25.391,47.363,0
213140.231,25.879,40.527,25.391,21.484,67.383,0
213140.235,20.508,35.645,27.344,14.160,63.477,0
213140.238,28.320,40.527,35.156,23.438,30.273,0
213140.242,28.320,37.598,34.180,27.832,20.996,0
213140.246,29.785,31.738,31.250,23.438,30.273,0
213140.250,30.273,32.227,32.227,20.020,0.000,0
213140.254,25.391,30.273,31.250,19.043,-1.953,0
213140.258,25.391,22.461,31.738,18.555,-14.160,0
213140.262,19.043,21.484,33.691,20.996,-21.484,0
213140.266,13.672,24.902,41.504,31.738,9.277,0
213140.270,12.695,25.391,39.551,32.227,19.043,0
213140.274,12.207,30.273,33.691,23.438,27.832,0
213140.277,8.789,29.297,34.668,19.531,5.371,0
213140.281,6.348,27.344,29.297,20.020,-4.883,0
213140.285,5.371,28.809,20.508,17.090,25.879,0
213140.289,8.301,30.273,24.902,14.648,67.383,0
213140.293,8.301,33.691,26.367,19.043,85.449,0
213140.297,7.324,31.250,25.391,12.695,49.316,0
213140.301,13.184,27.832,35.645,0.000,-3.418,0
213140.305,17.578,28.809,35.645,-3.906,0.488,0
213140.309,18.555,31.250,32.227,9.766,65.430,0
213140.313,17.090,30.762,34.668,18.555,81.055,0
213140.317,20.020,32.715,29.297,15.137,63.477,0
213140.320,24.902,39.062,27.832,17.578,78.125,0
213140.324,26.367,42.969,32.227,23.438,76.660,0
213140.328,24.414,37.598,31.738,23.926,66.895,0
213140.332,23.926,36.133,33.203,26.367,72.754,0
213140.336,25.879,40.039,34.668,26.367,79.590,0
213140.340,25.879,35.156,31.738,19.043,82.520,0
213140.344,22.949,32.227,30.273,19.043,55.176,0
213140.348,18.066,32.715,26.855,15.625,9.766,0
213140.352,14.648,29.297,29.297,17.578,-7.812,0
213140.356,14.648,27.832,34.668,25.879,47.363,0
213140.360,16.602,27.344,33.691,28.809,40.039,0
213140.363,19.043,30.273,32.715,28.809,10.742,0
213140.367,17.578,35.645,36.621,22.461,23.926,0
213140.371,11.230,35.645,36.621,21.484,8.789,0
213140.375,4.395,33.691,33.203,25.879,35.156,0
213140.379,4.883,30.273,33.203,22.461,62.012,0
213140.383,11.230,30.762,37.598,22.949,36.621,0
213140.387,10.742,31.250,34.668,19.531,28.809,0
213140.391,8.301,28.320,30.273,13.184,19.531,0
213140.395,13.672,29.297,30.762,14.648,-10.742,0
213140.399,19.043,33.203,30.273,20.508,48.340,0
213140.402,16.113,32.227,32.715,20.508,77.148,0
213140.406,14.160,34.180,35.156,19.531,41.992,0
213140.410,15.625,37.109,34.668,23.438,45.410,0
213140.414,16.113,35.645,31.250,20.996,24.414,0
213140.418,19.043,36.621,35.645,19.043,17.578,0
213140.422,20.508,37.109,35.156,23.438,29.297,0
213140.426,18.066,37.109,25.391,23.926,49.805,0
213140.430,17.090,35.156,26.367,26.367,71.289,0
213140.434,19.531,37.598,29.785,31.738,56.641,0
213140.438,15.625,41.992,30.273,21.484,22.949,0
213140.442,9.766,43.457,29.785,16.602,48.340,0
213140.445,7.812,39.062,28.809,26.855,75.684,0
213140.449,9.277,35.156,34.668,27.344,24.902,0
213140.453,11.719,41.992,36.133,26.367,13.184,0
213140.457,4.395,45.410,32.715,25.879,26.855,0
213140.461,0.977,41.992,35.645,25.391,35.156,0
213140.465,6.348,42.480,33.691,20.508,31.250,0
213140.469,-1.465,39.551,30.273,8.301,38.086,0
213140.473,1.465,40.039,30.273,13.184,47.852,0
213140.477,11.230,48.828,36.133,22.949,44.922,0
213140.481,-16.113,51.758,33.691,-12.695,39.062,0
213140.485,-35.156,48.340,25.391,-35.645,9.277,0
213140.488,-26.367,50.293,30.762,-20.020,24.414,0
213140.492,-38.086,54.199,36.133,-30.762,80.566,0
213140.496,-51.758,55.176,31.738,-42.969,68.848,0
213140.500,-47.363,56.152,31.738,-44.434,31.738,0
213140.504,-50.293,56.152,35.645,-56.641,50.781,0
213140.508,-66.895,50.781,30.273,-69.336,57.617,0
213140.512,-73.730,51.758,28.809,-72.266,63.965,0
213140.516,-78.125,55.176,32.227,-76.172,51.758,0
213140.520,-87.402,51.758,33.691,-85.449,7.324,0
213140.524,-91.797,50.293,31.250,-91.797,12.695,0
213140.527,-99.121,52.246,34.668,-94.238,18.555,0
213140.531,-99.121,56.641,37.598,-87.891,29.297,0
213140.535,-90.820,51.758,34.668,-80.566,2.441,0
213140.539,-92.773,42.969,33.203,-78.125,-13.184,0
213140.543,-93.750,45.410,30.762,-83.496,-16.602,0
213140.547,-86.914,50.781,31.738,-82.520,-4.883,0
213140.551,-83.984,50.781,30.273,-73.242,28.320,0
213140.555,-82.031,45.410,21.973,-78.613,18.555,0
213140.559,-78.613,46.875,19.043,-80.078,39.551,0
213140.563,-60.547,45.898,27.344,-59.570,62.500,0
213140.567,-52.734,36.621,28.320,-46.387,79.590,0
213140.570,-64.453,40.039,19.043,-50.781,82.031,0
213140.574,-56.641,46.875,26.855,-35.156,45.410,0
213140.578,-41.504,46.387,39.062,-18.066,23.438,0
213140.582,-48.340,39.062,33.691,-25.391,38.086,0
213140.586,-47.852,30.762,26.367,-33.203,30.273,0
213140.590,-41.016,27.832,23.438,-36.621,56.641,0
213140.594,-36.133,27.344,21.973,-27.832,78.613,0
213140.598,-22.461,28.320,23.926,-10.254,45.410,0
213140.602,-15.625,28.320,27.344,-0.977,47.852,0
213140.606,-18.555,30.273,22.949,2.930,45.410,0
213140.610,-0.977,33.203,24.902,18.066,68.359,0
213140.613,13.184,33.691,27.344,28.320,79.102,0
213140.617,15.625,35.645,28.320,36.621,65.430,0
213140.621,18.555,35.645,31.250,35.156,64.941,0
213140.625,14.648,34.180,23.926,30.273,77.637,0
213140.629,15.625,31.738,27.344,35.645,58.105,0
213140.633,16.602,28.809,31.738,22.461,20.508,0
213140.637,25.879,34.180,30.762,29.297,34.668,0
213140.641,33.691,35.156,31.738,42.969,70.801,0
213140.645,31.738,29.785,26.855,38.086,66.406,0
213140.649,38.574,26.367,22.949,45.898,64.941,0
213140.652,45.898,24.902,33.203,58.594,76.172,0
213140.656,47.363,32.715,34.668,65.430,33.203,0
213140.660,45.898,29.297,23.438,68.848,10.742,0
213140.664,45.898,25.391,17.578,63.965,62.500,0
213140.668,47.363,29.297,17.090,57.129,91.309,0
213140.672,45.898,28.809,19.531,50.781,89.355,0
213140.676,48.828,29.297,22.949,55.176,51.270,0
213140.680,56.152,23.438,31.250,59.082,-1.465,0
213140.684,54.688,17.090,35.156,63.965,71.777,0
213140.688,43.945,23.926,26.367,62.500,89.844,0
213140.692,47.363,31.250,29.297,62.988,58.105,0
213140.695,54.688,34.668,33.203,70.312,45.898,0
213140.699,54.199,25.879,25.391,67.871,60.059,1
213140.703,50.293,17.090,19.531,57.129,45.898,0
213140.707,52.246,24.414,20.996,58.105,-13.184,0
213140.711,56.641,22.461,25.391,61.523,-12.695,0
213140.715,51.270,13.672,27.344,62.500,-16.113,0
213140.719,42.480,14.648,31.738,61.523,2.930,0
213140.723,41.016,20.508,36.133,52.246,-2.441,0
213140.727,44.434,25.391,31.250,54.199,-44.922,0
213140.731,41.992,22.461,24.902,70.312,-10.254,0
213140.735,43.945,23.926,28.809,67.871,22.461,0
213140.738,50.781,24.414,28.320,60.059,9.766,0
213140.742,50.781,19.043,30.762,62.500,15.625,0
213140.746,47.363,18.066,40.527,64.941,27.832,0
213140.750,44.922,16.113,39.551,60.059,2.441,0
213140.754,43.945,17.578,31.738,52.734,-11.719,0
213140.758,43.945,19.043,36.621,57.129,27.832,0
213140.762,41.992,21.973,39.551,59.570,29.785,0
213140.766,46.387,27.832,32.715,56.641,2.930,0
213140.770,45.410,22.949,25.391,48.828,1.953,0
213140.774,39.551,21.973,26.855,51.270,29.785,0
213140.777,40.039,31.738,30.273,60.059,39.551,0
213140.781,35.645,28.320,25.391,45.898,21.484,0
213140.785,37.598,26.367,22.461,47.852,12.695,0
213140.789,44.922,34.180,28.320,65.430,23.926,0
213140.793,45.898,35.156,39.062,54.688,33.203,0
213140.797,39.062,32.715,43.457,49.316,9.766,0
213140.801,32.227,33.203,36.621,50.781,0.488,0
213140.805,31.250,33.691,30.762,48.340,7.324,0
213140.809,38.086,34.180,33.203,52.246,-0.488,0
213140.813,38.086,31.738,31.738,39.062,-29.785,0
213140.817,33.203,27.832,24.414,34.668,-12.695,0
213140.820,35.645,25.391,22.461,43.457,-0.488,0
213140.824,42.480,31.738,28.809,45.410,-0.977,0
213140.828,48.340,33.691,37.598,52.246,41.504,0
213140.832,46.875,29.297,35.156,50.781,33.691,0
213140.836,44.922,33.691,31.738,49.316,38.574,0
213140.840,43.457,34.668,34.180,50.781,33.203,0
213140.844,38.086,30.762,36.621,49.805,27.344,0
213140.848,35.645,30.273,39.551,54.199,49.805,0
213140.852,32.227,28.809,38.086,51.270,16.602,0
213140.856,25.391,25.391,35.156,46.387,35.156,0
213140.860,22.461,22.949,35.645,43.457,54.688,0
213140.863,24.902,22.949,35.645,46.875,40.039,0
213140.867,28.320,25.391,33.691,47.852,50.781,0
213140.871,34.180,25.391,33.691,37.598,23.926,0
213140.875,34.668,30.273,29.785,31.738,7.812,0
213140.879,33.691,30.273,30.273,41.992,41.992,0
213140.883,36.133,27.344,36.621,51.270,62.988,0
213140.887,36.133,31.250,30.273,38.574,41.504,0
213140.891,32.227,35.645,25.879,29.785,34.668,0
213140.895,26.367,32.715,26.855,29.297,46.387,0
213140.899,28.320,30.273,26.855,27.832,21.484,0
213140.902,36.133,20.020,27.344,33.203,-21.484,0
213140.906,36.133,14.648,27.344,36.133,-3.418,0
213140.910,31.738,28.320,28.320,36.133,34.668,0
213140.914,32.715,38.086,30.762,35.156,8.789,0
213140.918,34.180,39.062,34.668,32.227,-29.297,0
213140.922,33.203,31.738,34.180,42.480,12.207,0
213140.926,40.527,33.691,33.691,44.922,33.691,0
213140.930,36.133,36.133,32.227,38.086,41.016,0
213140.934,31.738,27.832,27.344,41.016,39.062,0
213140.938,28.809,20.996,23.438,32.715,-5.371,0
213140.942,20.996,22.461,21.484,28.809,5.371,0
213140.945,29.785,25.879,26.367,37.598,20.508,0
213140.949,34.180,21.973,32.227,39.551,20.996,0
213140.953,26.855,26.855,29.297,34.180,20.996,0
213140.957,28.809,33.203,27.832,38.574,36.621,0
213140.961,32.227,33.691,31.250,37.598,32.227,0
213140.965,27.344,31.738,28.320,24.414,8.789,0
213140.969,27.344,31.250,25.391,35.645,12.695,0
213140.973,32.715,32.227,27.344,39.551,3.906,0
213140.977,33.691,27.832,31.250,33.691,28.320,0
213140.981,33.203,25.391,33.203,34.180,46.387,0
213140.985,31.250,26.855,30.762,35.156,68.848,0
213140.988,28.320,20.996,25.391,33.691,71.289,0
213140.992,27.832,21.484,26.855,29.785,50.781,0
213140.996,26.855,30.273,30.762,32.227,58.594,0
213141.000,28.320,30.273,32.715,35.156,48.828,0
213141.004,31.250,31.738,33.691,31.738,20.508,0
213141.008,27.344,37.598,35.645,28.320,23.926,0
213141.012,23.438,29.785,30.762,28.809,47.363,0
213141.016,21.973,21.484,25.391,28.320,73.730,0
213141.020,20.996,25.879,28.320,26.855,66.895,0
213141.024,20.508,27.832,23.926,25.879,14.648,0
213141.027,22.461,26.367,21.484,20.508,10.742,0
213141.031,25.391,25.879,28.320,18.555,44.434,0
213141.035,22.461,27.344,29.785,20.996,47.852,0
213141.039,25.391,32.227,30.273,31.250,59.082,0
213141.043,37.109,34.180,33.691,41.992,58.105,0
213141.047,36.621,34.180,29.297,38.086,57.617,0
213141.051,36.133,30.273,29.297,34.180,25.879,0
213141.055,38.574,26.855,25.879,38.086,5.371,0
213141.059,32.227,30.762,21.973,42.480,35.156,0
213141.063,27.344,33.691,27.832,43.945,59.570,0
213141.067,30.762,33.203,29.785,44.922,42.969,0
213141.070,37.598,32.715,32.715,44.434,9.766,0
213141.074,37.109,33.691,29.785,44.922,35.645,0
213141.078,33.203,36.133,28.320,41.016,44.434,0
213141.082,24.902,35.645,27.832,29.297,14.160,0
213141.086,27.344,37.598,28.809,29.297,37.598,0
213141.090,36.621,35.156,30.762,36.133,69.824,0
213141.094,27.832,25.391,23.438,29.297,62.500,0
213141.098,15.625,20.996,26.855,14.648,-11.719,0
213141.102,12.207,24.414,32.227,19.531,-28.320,0
213141.106,16.113,29.785,31.738,37.109,25.879,0
213141.110,20.996,32.227,32.227,41.992,7.324,0
213141.113,19.531,30.762,32.227,27.832,-15.137,0
213141.117,21.973,29.297,31.738,18.555,-4.883,0
213141.121,24.414,34.180,30.762,29.297,10.742,0
213141.125,18.066,31.738,30.762,31.250,-11.719,0
213141.129,16.113,26.367,28.809,23.926,-22.949,0
213141.133,21.973,32.227,29.785,28.809,20.508,0
213141.137,22.949,35.156,29.297,32.227,31.250,0
213141.141,17.578,27.832,24.902,19.043,1.953,0
213141.145,20.508,28.320,28.320,15.137,3.906,0
213141.149,25.391,30.762,25.879,25.391,42.480,0
213141.152,29.297,30.273,31.250,29.785,52.246,0
213141.156,27.344,27.832,37.109,24.902,35.645,0
213141.160,20.020,22.949,36.621,23.438,28.320,0
213141.164,20.508,23.926,34.180,26.367,23.926,0
213141.168,27.832,28.320,31.250,29.785,16.113,0
213141.172,29.785,30.762,32.715,28.809,12.695,0
213141.176,27.832,32.715,32.715,26.367,0.000,0
213141.180,26.855,28.809,33.691,27.344,9.766,0
213141.184,25.391,26.855,29.297,33.203,51.270,0
213141.188,26.367,27.344,26.367,37.109,34.180,0
213141.192,30.762,25.391,28.809,30.762,-14.160,0
213141.195,33.691,27.344,29.297,32.227,40.039,0
213141.199,28.320,31.250,26.855,31.250,43.457,0
213141.203,26.367,34.180,27.832,30.273,3.906,0
213141.207,27.344,32.227,31.738,31.250,3.906,0
213141.211,26.367,29.297,31.250,29.785,6.836,0
213141.215,24.902,32.715,22.949,33.203,16.113,0
213141.219,26.367,31.738,22.461,32.227,21.973,0
213141.223,31.250,33.691,28.809,35.156,71.777,0
213141.227,32.715,32.227,29.785,38.086,79.590,0
213141.231,32.227,24.902,32.715,29.297,50.781,0
213141.235,28.809,28.320,25.391,22.949,54.688,0
213141.238,30.273,33.691,25.391,27.832,70.312,0
213141.242,30.762,25.879,27.344,29.785,79.102,0
213141.246,29.785,26.855,25.391,31.738,51.270,0
213141.250,30.273,33.691,28.320,34.180,43.945,0
213141.254,31.250,31.738,32.227,28.809,84.473,0
213141.258,32.227,28.320,32.715,23.926,72.266,0
213141.262,26.367,23.438,30.273,25.879,41.016,0
213141.266,26.367,20.996,29.785,26.367,30.762,0
213141.270,28.809,27.832,33.203,30.273,22.461,0
213141.274,30.762,36.133,28.320,29.297,28.320,0
213141.277,43.945,37.109,26.367,24.414,41.504,0
213141.281,42.480,33.203,29.297,29.297,33.203,0
213141.285,24.414,24.414,26.367,23.438,20.508,0
213141.289,25.879,28.320,25.391,20.996,4.883,0
213141.293,33.691,40.527,23.438,20.508,20.020,0
213141.297,32.227,41.992,22.461,23.438,62.012,0
213141.301,28.809,38.574,25.391,34.668,48.828,0
213141.305,24.902,37.109,22.461,33.203,18.555,0
213141.309,20.508,41.504,23.438,17.090,3.906,0
213141.313,23.926,44.922,34.668,23.926,18.555,0
213141.317,19.043,39.551,31.738,26.855,33.203,0
213141.320,13.672,35.156,21.484,17.578,55.176,0
213141.324,16.113,29.297,20.508,11.719,35.645,0
213141.328,20.996,26.855,31.250,14.648,14.648,0
213141.332,26.855,31.738,34.668,20.996,79.590,0
213141.336,31.250,37.598,29.785,18.555,47.363,0
213141.340,33.691,35.156,30.762,12.207,-14.160,0
213141.344,30.762,28.809,28.320,20.020,51.270,0
213141.348,25.879,29.785,27.344,25.879,61.035,0
213141.352,23.438,35.156,25.391,23.926,50.293,0
213141.356,23.926,40.039,21.484,22.949,51.758,0
213141.360,23.438,37.109,25.879,18.555,28.809,0
213141.363,20.020,34.668,25.391,20.996,54.688,0
213141.367,16.602,30.762,22.461,27.344,62.988,1
213141.371,12.207,23.926,25.391,31.738,46.875,0
213141.375,9.766,31.250,28.809,31.738,78.125,0
213141.379,16.602,35.645,33.691,28.809,53.223,0
213141.383,20.020,32.227,37.598,24.414,16.602,0
213141.387,18.555,32.227,33.203,25.391,47.852,0
213141.391,18.066,29.785,30.762,34.180,104.004,0
213141.395,16.602,27.832,30.273,29.297,70.312,0
213141.399,19.043,29.297,26.367,28.320,-29.785,0
213141.402,21.973,34.180,29.785,39.062,-8.301,0
213141.406,19.043,36.133,36.621,34.180,40.527,0
213141.410,18.555,24.414,33.691,25.879,34.668,0
213141.414,15.625,21.973,30.762,26.855,33.203,0
213141.418,9.277,27.832,34.180,27.344,3.906,0
213141.422,14.648,29.785,36.133,29.785,-22.461,0
213141.426,17.090,27.832,33.691,20.996,-8.789,0
213141.430,16.602,27.832,35.645,16.113,17.090,0
213141.434,23.438,34.180,36.133,28.320,87.891,0
213141.438,25.391,37.598,31.250,29.297,69.824,0
213141.442,29.297,35.645,34.668,28.809,-7.812,0
213141.445,36.133,32.715,41.992,41.504,15.625,0
213141.449,31.738,32.227,34.668,45.898,48.828,0
213141.453,22.461,32.227,27.832,25.391,54.688,0
213141.457,15.625,27.832,31.738,12.695,52.734,0
213141.461,18.066,23.926,35.156,22.949,39.551,0
213141.465,19.531,28.809,31.738,28.809,41.504,0
213141.469,24.902,32.227,30.762,23.926,86.426,0
213141.473,36.621,31.738,29.297,17.090,53.711,0
213141.477,32.715,33.203,22.949,22.461,23.438,0
213141.481,29.785,30.762,25.391,39.551,44.922,0
213141.485,29.297,26.367,27.344,34.180,1.953,0
213141.488,26.855,28.320,33.691,27.344,25.391,0
213141.492,22.949,29.785,38.574,27.832,60.547,0
213141.496,22.461,31.250,37.109,25.879,41.016,0
213141.500,26.367,29.785,33.691,31.738,15.625,0
213141.504,27.344,27.832,31.250,32.715,12.207,0
213141.508,28.809,35.156,27.832,24.414,21.484,0
213141.512,33.203,32.227,35.156,32.715,13.184,0
213141.516,25.879,23.926,36.133,25.879,-8.301,0
213141.520,15.625,23.926,25.879,8.301,-22.949,0
213141.524,18.555,23.926,26.367,16.113,-1.465,0
213141.527,23.438,28.809,26.855,24.414,27.344,0
213141.531,28.809,30.762,25.879,24.414,28.320,0
213141.535,25.391,29.785,30.762,27.832,20.020,0
213141.539,22.461,33.203,31.250,31.250,27.832,0
213141.543,26.367,32.227,28.809,20.020,17.090,0
213141.547,28.320,31.250,31.250,17.578,-35.156,0
213141.551,27.344,36.621,29.785,22.461,-28.809,0
213141.555,33.691,33.203,25.391,24.414,31.250,0
213141.559,43.945,31.250,23.438,26.367,39.551,0
213141.563,39.551,36.133,24.902,19.531,16.113,0
213141.567,30.273,36.621,29.785,19.531,32.227,0
213141.570,30.273,40.527,28.809,29.297,20.996,0
213141.574,28.809,35.156,23.438,25.879,4.395,0
213141.578,25.391,29.785,26.367,17.578,-23.438,0
213141.582,26.367,34.180,27.832,23.438,-6.348,0
213141.586,22.949,31.738,30.273,25.391,32.227,0
213141.590,23.438,30.273,35.156,22.949,7.812,0
213141.594,27.344,30.273,33.203,27.344,15.625,0
213141.598,27.344,22.949,35.645,28.320,66.406,0
213141.602,30.273,24.902,37.598,31.738,89.355,0
213141.606,24.902,32.715,33.691,25.391,65.430,0
213141.610,20.508,31.738,31.738,18.066,18.555,0
213141.613,29.297,32.227,31.738,31.738,13.672,0
213141.617,32.227,36.133,30.273,41.504,3.418,0
213141.621,28.809,34.180,24.414,36.621,-32.715,0
213141.625,24.902,26.855,27.832,34.668,9.277,0
213141.629,27.344,30.762,37.598,36.133,37.598,0
213141.633,26.367,34.668,29.297,31.738,3.418,0
213141.637,20.996,26.855,16.602,28.809,20.508,0
213141.641,20.508,20.996,19.043,23.438,38.086,0
213141.645,21.973,23.926,25.391,26.367,34.180,0
213141.649,17.578,29.297,27.832,25.879,9.277,0
213141.652,18.066,33.203,27.344,18.555,8.301,0
213141.656,22.949,33.203,28.320,23.438,12.207,0
213141.660,21.484,29.785,33.691,31.738,3.906,0
213141.664,21.484,26.855,32.715,25.391,18.066,0
213141.668,17.578,25.391,32.227,11.230,12.695,0
213141.672,18.066,30.273,37.109,19.531,22.949,0
213141.676,20.996,30.762,33.203,35.645,50.781,0
213141.680,19.531,26.367,26.855,28.809,39.551,0
213141.684,26.855,28.320,30.273,30.762,44.434,0
213141.688,30.273,37.109,32.227,41.504,31.738,0
213141.692,28.320,33.691,28.320,33.203,24.902,0
213141.695,26.855,24.414,25.391,25.391,32.227,0
213141.699,22.461,23.926,30.273,22.949,23.438,0
213141.703,27.832,26.855,31.738,28.809,38.086,0
213141.707,30.762,23.438,26.855,33.203,33.691,0
213141.711,29.785,23.926,30.273,30.762,17.578,0
213141.715,35.645,31.738,42.969,32.227,22.461,0
213141.719,40.039,32.715,44.922,44.922,65.918,0
213141.723,33.203,31.738,34.668,45.898,59.082,0
213141.727,23.926,32.715,30.273,28.320,47.852,0
213141.731,23.438,32.227,26.367,24.414,57.129,0
213141.735,27.832,30.762,22.461,30.273,57.129,0
213141.738,28.320,29.297,26.855,25.391,81.055,0
213141.742,29.297,28.809,36.133,27.344,69.336,0
213141.746,37.109,33.691,40.039,39.062,25.879,0
213141.750,33.203,30.762,31.250,34.180,50.781,0
213141.754,21.973,25.879,26.367,24.902,36.621,0
213141.758,18.555,29.785,33.203,16.602,-5.859,0
213141.762,23.926,32.227,36.133,21.484,0.488,0
213141.766,23.926,30.762,27.344,32.227,25.879,0
213141.770,20.508,29.297,27.344,21.484,-8.789,0
213141.774,20.508,33.203,34.668,16.602,-21.484,0
213141.777,19.043,32.227,32.227,19.043,22.949,0
213141.781,24.902,33.203,33.691,26.367,16.602,0
213141.785,25.391,36.621,34.180,27.832,7.812,0
213141.789,20.996,33.203,31.738,20.996,-1.953,0
213141.793,24.414,33.203,37.109,20.996,22.949,0
213141.797,27.832,36.133,42.969,24.902,57.129,0
213141.801,26.367,34.668,38.574,21.973,29.785,0
213141.805,25.879,30.762,31.250,17.090,8.301,0
213141.809,25.879,30.273,40.039,26.367,9.766,0
213141.813,24.414,33.691,39.062,37.598,1.465,0
213141.817,20.508,32.227,30.762,18.066,18.555,0
213141.820,19.531,30.762,28.809,2.930,24.902,0
213141.824,20.996,30.762,24.414,8.301,34.668,0
213141.828,20.020,32.715,28.809,11.719,68.359,0
213141.832,19.043,34.668,35.156,13.184,96.680,0
213141.836,24.414,31.738,38.086,17.578,104.004,0
213141.840,30.762,27.832,41.016,25.391,84.961,0
213141.844,31.738,21.973,44.922,23.438,71.289,0
213141.848,25.391,23.926,38.086,17.090,58.105,0
213141.852,26.367,32.227,26.855,23.926,64.453,0
213141.856,30.762,37.598,31.250,29.297,43.945,0
213141.860,29.785,41.016,34.180,29.785,24.414,0
213141.863,27.344,35.156,27.344,30.762,58.594,0
213141.867,19.043,27.344,21.973,25.879,74.219,0
213141.871,16.113,24.414,19.531,19.043,83.984,0
213141.875,16.113,22.461,25.879,14.160,55.176,0
213141.879,20.508,25.879,34.668,9.766,28.320,0
213141.883,24.902,27.832,40.039,6.836,41.504,0
213141.887,17.090,29.297,38.574,8.789,64.941,0
213141.891,9.277,29.785,34.668,5.859,34.180,0
213141.895,13.672,28.809,33.691,6.836,-9.277,0
213141.899,19.531,24.414,29.297,22.461,46.387,0
213141.902,18.555,9.766,31.738,29.297,76.172,0
213141.906,11.230,5.859,36.621,22.461,88.379,0
213141.910,2.930,23.926,32.715,12.695,101.074,0
213141.914,7.812,33.203,37.109,19.043,14.648,0
213141.918,18.555,39.062,39.551,23.438,-24.902,0
213141.922,21.484,45.410,31.250,17.090,6.348,0
213141.926,23.438,40.527,26.855,19.531,4.395,0
213141.930,23.438,40.527,27.344,20.020,32.715,0
213141.934,22.949,35.645,33.203,18.066,41.504,0
213141.938,27.832,34.180,34.668,23.438,17.578,0
213141.942,38.086,34.668,32.227,34.668,21.484,0
213141.945,45.410,27.344,34.668,45.898,49.316,0
213141.949,28.320,28.320,34.180,25.879,48.828,0
213141.953,6.348,24.414,29.785,-4.883,37.109,0
213141.957,13.672,23.926,25.879,4.883,31.250,0
213141.961,20.020,38.086,24.414,17.578,8.789,0
213141.965,15.625,40.527,26.855,19.043,6.836,0
213141.969,20.996,32.715,28.320,24.414,32.715,0
213141.973,22.949,33.691,23.926,17.578,50.781,0
213141.977,30.762,35.156,26.367,22.949,68.359,0
213141.981,44.434,36.133,28.809,36.621,31.738,0
213141.985,39.062,28.320,26.367,35.156,-0.488,0
213141.988,31.738,26.855,30.762,33.203,25.879,0
213141.992,32.227,38.086,29.785,37.109,39.551,0
213141.996,33.691,38.086,28.320,36.133,14.160,0
213142.000,34.668,34.180,25.879,28.809,2.930,0
213142.004,31.250,34.668,28.809,32.715,17.578,0
213142.008,31.738,37.109,36.621,32.227,29.297,0
213142.012,28.320,35.645,32.227,31.250,22.949,0
213142.016,20.996,33.203,32.227,35.645,-2.930,0
213142.020,13.184,33.203,28.809,34.180,58.105,0
213142.024,3.418,25.391,25.391,32.715,66.406,0
213142.027,0.488,17.090,29.785,27.832,-14.648,0
213142.031,1.465,17.578,32.715,20.996,-11.719,0
213142.035,5.371,24.414,34.180,33.203,32.715,0
213142.039,10.254,30.273,32.227,38.086,5.859,0
213142.043,9.766,25.879,31.738,24.902,-24.414,0
213142.047,12.695,30.762,27.832,34.668,17.578,0
213142.051,14.160,41.016,30.273,46.875,11.719,0
213142.055,10.254,35.156,36.133,32.227,-3.418,0
213142.059,6.836,26.855,28.320,18.555,8.789,0
213142.063,8.301,26.367,26.855,23.926,61.523,0
213142.067,9.277,25.879,32.715,26.367,76.172,0
213142.070,5.859,25.391,31.250,24.414,34.180,0
213142.074,5.859,28.320,26.367,29.297,0.000,0
213142.078,7.812,32.715,26.855,29.297,-1.465,1
213142.082,8.789,36.621,31.738,30.762,35.156,0
213142.086,16.602,39.062,31.250,30.273,0.977,0
213142.090,22.949,36.133,25.879,26.855,-42.480,0
213142.094,21.973,36.133,22.949,27.344,-27.832,0
213142.098,19.043,31.738,24.414,30.273,-52.246,0
213142.102,20.020,31.738,32.227,32.227,-52.734,0
213142.106,23.438,38.574,39.062,33.203,18.066,0
213142.110,29.297,41.992,36.133,36.621,58.105,0
213142.113,23.926,38.086,28.320,31.738,57.617,0
213142.117,14.648,33.203,22.949,23.926,42.969,0
213142.121,16.113,36.133,28.320,29.297,42.480,0
213142.125,13.672,37.109,29.297,37.598,56.152,0
213142.129,9.277,33.691,21.484,31.738,54.688,0
213142.133,14.160,36.621,23.926,18.066,20.508,0
213142.137,16.113,38.086,30.273,21.484,-5.371,0
213142.141,15.625,35.645,29.785,28.320,-0.488,0
213142.145,18.555,33.203,32.715,30.273,-23.926,0
213142.149,24.414,34.180,36.621,31.738,-62.988,0
213142.152,22.949,38.086,30.762,25.879,-27.344,0
213142.156,23.438,37.598,25.391,26.855,26.855,0
213142.160,23.926,31.250,26.367,29.785,7.324,0
213142.164,14.648,30.762,26.367,28.809,-28.809,0
213142.168,15.625,31.738,31.250,41.016,-20.996,0
213142.172,24.414,29.297,31.738,33.691,-14.648,0
213142.176,25.391,33.691,25.391,19.531,-25.879,0
213142.180,16.113,30.273,27.344,26.855,5.859,0
213142.184,12.207,24.414,32.227,35.156,20.020,0
213142.188,18.555,28.809,33.691,39.551,4.395,0
213142.192,17.578,29.785,31.250,35.156,-28.809,0
213142.195,9.766,27.832,26.367,37.109,-12.695,0
213142.199,3.418,28.320,25.391,39.551,5.371,0
213142.203,1.465,30.762,28.320,32.227,-27.344,0
213142.207,5.859,30.273,32.715,31.738,-4.395,0
213142.211,7.812,29.785,34.668,35.645,31.738,0
213142.215,7.812,28.320,34.668,29.297,40.039,0
213142.219,11.230,28.320,32.715,24.414,27.832,0
213142.223,12.207,30.762,31.250,16.113,5.371,0
213142.227,7.324,29.297,30.273,13.672,38.574,0
213142.231,11.230,30.273,29.785,25.879,49.805,0
213142.235,17.090,31.738,29.297,28.809,9.277,0
213142.238,19.531,35.156,28.320,26.367,-22.949,0
213142.242,21.484,39.062,32.227,27.344,-10.742,0
213142.246,18.555,35.645,34.180,34.180,49.805,0
213142.250,17.578,32.715,36.621,40.527,88.867,0
213142.254,16.113,32.715,35.645,33.203,68.359,0
213142.258,15.137,31.738,29.297,23.438,78.613,0
213142.262,10.254,31.250,33.691,26.367,74.707,0
213142.266,7.812,33.691,33.203,25.391,15.137,0
213142.270,10.742,33.691,25.391,21.484,2.930,0
213142.274,15.625,33.203,28.320,31.738,19.043,0
213142.277,19.531,35.645,30.762,36.133,33.203,0
213142.281,17.090,32.227,34.180,34.180,19.043,0
213142.285,17.090,29.785,36.133,36.133,-12.695,0
213142.289,17.578,34.668,33.203,34.180,8.301,0
213142.293,14.648,35.156,31.738,30.273,32.715,0
213142.297,7.812,34.668,25.879,25.391,-5.859,0
213142.301,4.395,33.691,21.973,16.113,-15.137,0
213142.305,12.207,33.203,22.949,15.137,-6.836,0
213142.309,17.578,31.738,22.461,20.996,-16.113,0
213142.313,18.066,32.227,21.973,26.367,-27.832,0
213142.317,20.020,33.691,25.391,29.297,-29.297,0
213142.320,23.438,35.156,26.367,31.738,-28.809,0
213142.324,20.508,33.691,26.367,31.250,-28.809,0
213142.328,17.090,32.227,31.250,21.973,-20.996,0
213142.332,21.484,31.738,36.133,27.344,-1.465,0
213142.336,21.484,33.203,36.621,35.645,43.457,0
213142.340,19.043,36.133,32.227,36.621,47.363,0
213142.344,15.625,27.344,32.227,28.809,-30.762,0
213142.348,10.254,28.320,29.297,22.461,-16.602,0
213142.352,9.766,34.668,29.297,27.832,74.707,0
213142.356,11.719,27.832,28.809,26.367,100.586,0
213142.360,9.766,20.020,26.855,21.484,79.102,0
213142.363,10.254,22.461,29.297,23.438,93.750,0
213142.367,5.859,30.273,27.832,21.484,105.957,0
213142.371,0.000,35.156,24.414,19.531,94.238,0
213142.375,7.812,35.645,30.273,23.926,83.984,0
213142.379,10.742,33.203,32.227,21.973,80.078,0
213142.383,13.672,34.180,24.902,25.879,95.215,0
213142.387,21.973,37.598,27.344,27.832,80.566,0
213142.391,23.438,39.062,28.809,24.414,81.543,0
213142.395,22.461,36.133,26.855,23.926,95.703,0
213142.399,20.996,34.668,31.738,24.414,69.824,0
213142.402,19.531,33.691,32.227,24.902,43.945,0
213142.406,19.531,33.203,24.414,20.996,37.109,0
213142.410,19.531,26.855,24.414,22.461,50.293,0
213142.414,22.461,23.438,28.809,29.297,76.172,0
213142.418,24.414,26.855,27.832,20.996,72.266,0
213142.422,18.555,25.391,25.879,17.090,80.078,0
213142.426,20.020,27.344,25.391,24.902,83.008,0
213142.430,21.484,29.785,27.344,22.949,64.453,0
213142.434,22.949,30.273,30.273,25.879,55.176,0
213142.438,25.391,32.715,26.855,42.480,58.594,0
213142.442,20.996,31.738,20.020,33.203,58.594,0
213142.445,21.484,32.715,23.438,25.879,62.500,0
213142.449,18.555,31.250,29.785,38.574,78.613,0
213142.453,11.230,24.902,34.668,30.762,81.543,0
213142.457,9.277,22.461,39.062,23.438,64.941,0
213142.461,13.672,22.949,33.203,23.438,49.316,0
213142.465,12.207,22.461,32.715,20.020,6.348,0
213142.469,6.836,26.855,32.715,22.461,10.742,0
213142.473,9.277,35.156,18.555,25.391,27.344,0
213142.477,10.254,36.621,21.484,25.879,1.953,0
213142.481,8.789,35.645,32.227,25.391,4.395,0
213142.485,11.230,33.691,35.156,25.391,13.184,0
213142.488,10.254,34.668,30.762,24.902,-13.672,0
213142.492,7.324,34.180,30.273,24.902,-19.043,0
213142.496,9.766,28.320,36.621,21.484,-11.719,0
213142.500,11.719,30.273,36.133,18.555,2.441,0
213142.504,11.719,35.156,30.273,23.926,-0.977,0
213142.508,13.184,30.762,25.391,23.438,-43.457,0
213142.512,5.859,27.832,26.855,20.508,3.418,0
213142.516,4.883,33.203,27.832,25.391,56.641,0
213142.520,6.836,34.180,27.344,27.344,18.555,0
213142.524,4.395,31.738,25.391,27.344,-8.301,0
213142.527,5.859,28.320,22.949,21.973,-14.160,0
213142.531,10.742,23.438,31.250,18.555,-20.508,0
213142.535,15.137,26.367,35.156,21.484,5.371,0
213142.539,13.672,27.832,33.691,26.367,5.859,0
213142.543,18.066,23.926,32.227,32.715,-10.254,0
213142.547,15.625,22.461,24.902,19.043,-25.879,0
213142.551,15.625,28.809,23.926,5.371,-31.250,0
213142.555,24.902,34.180,22.949,18.066,-24.414,0
213142.559,20.996,29.785,22.461,27.832,43.945,0
213142.563,19.531,26.855,30.273,25.879,80.078,0
213142.567,21.973,26.855,37.109,29.297,25.879,0
213142.570,11.719,24.414,34.180,25.391,7.324,0
213142.574,6.348,17.578,31.738,21.484,9.766,0
213142.578,5.859,18.066,31.250,23.926,16.113,0
213142.582,10.254,27.832,33.203,32.715,15.137,0
213142.586,14.160,35.645,33.691,33.203,7.324,0
213142.590,13.672,35.645,27.344,28.320,-37.598,0
213142.594,12.207,29.785,23.926,28.320,-12.207,0
213142.598,12.695,27.832,22.461,28.320,24.414,0
213142.602,16.113,26.855,26.855,29.297,24.414,0
213142.606,11.230,24.414,29.785,27.344,69.336,0
213142.610,9.277,28.809,29.297,24.902,41.016,0
213142.613,14.648,33.691,22.461,23.926,34.180,0
213142.617,19.043,29.785,17.578,30.273,70.312,0
213142.621,25.879,27.832,28.809,36.133,79.590,0
213142.625,23.926,27.832,36.621,29.297,44.922,0
213142.629,17.578,31.738,31.250,21.484,0.977,0
213142.633,16.602,32.227,26.855,20.508,-9.277,0
213142.637,13.672,28.809,26.367,25.879,25.391,0
213142.641,16.113,29.785,29.785,18.066,-12.207,0
213142.645,22.949,28.809,29.297,9.766,-49.805,0
213142.649,30.273,31.250,26.855,25.391,4.395,0
213142.652,35.645,37.109,30.273,37.598,11.230,0
213142.656,34.180,37.109,27.832,32.715,7.812,0
213142.660,39.062,39.551,28.809,28.809,29.297,0
213142.664,38.574,40.039,31.250,22.461,23.926,1
213142.668,29.297,35.156,31.738,20.020,-13.672,0
213142.672,26.367,37.109,28.320,20.020,-50.293,0
213142.676,26.855,38.574,31.738,25.391,-37.598,0
213142.680,28.809,36.621,32.715,28.809,-11.719,0
213142.684,25.879,31.738,24.902,22.461,-34.180,0
213142.688,27.344,31.250,25.391,23.438,-25.391,0
213142.692,24.414,35.156,25.391,24.414,31.738,0
213142.695,18.555,35.156,21.484,35.156,62.012,0
213142.699,19.531,32.715,20.508,39.062,47.852,0
213142.703,24.414,32.715,33.203,32.227,19.043,0
213142.707,31.738,30.273,43.945,31.250,33.203,0
213142.711,31.738,24.902,35.645,27.832,65.430,0
213142.715,32.227,26.367,32.715,28.809,79.102,0
213142.719,33.691,32.715,30.762,27.344,10.254,0
213142.723,26.367,36.621,29.297,22.461,-10.742,0
213142.727,17.090,30.273,33.691,18.555,25.391,0
213142.731,22.461,24.414,36.133,24.902,4.883,0
213142.735,26.367,28.320,31.250,28.320,-1.465,0
213142.738,20.508,30.762,26.855,21.973,45.898,0
213142.742,24.414,27.344,32.227,23.926,81.055,0
213142.746,29.785,23.926,35.645,27.344,79.102,0
213142.750,28.320,23.926,33.691,23.438,86.426,0
213142.754,27.344,28.809,31.250,22.949,97.168,0
213142.758,27.344,31.738,31.250,18.066,64.453,0
213142.762,27.344,30.762,35.156,17.578,44.922,0
213142.766,26.855,31.250,33.203,24.414,65.918,0
213142.770,24.414,31.738,25.391,25.879,49.316,0
213142.774,21.484,31.250,26.855,25.391,21.973,0
213142.777,28.809,35.156,30.762,30.762,3.906,0
213142.781,34.668,34.668,31.250,40.527,-4.395,0
213142.785,30.273,29.785,27.344,42.969,37.109,0
213142.789,29.785,27.832,20.996,32.227,46.875,0
213142.793,35.156,31.250,25.879,23.438,11.719,0
213142.797,36.133,35.156,36.133,25.391,46.387,0
213142.801,30.273,32.227,32.227,32.227,58.594,0
213142.805,31.738,29.785,31.738,39.551,37.109,0
213142.809,33.203,38.574,34.668,41.016,36.133,0
213142.813,33.691,42.480,30.762,38.086,2.930,0
213142.817,45.898,37.598,29.297,42.969,6.348,0
213142.820,48.828,36.133,35.156,44.434,6.836,0
213142.824,42.480,33.691,40.527,42.480,-29.785,0
213142.828,45.410,33.691,32.227,48.340,13.184,0
213142.832,42.480,36.621,24.902,41.992,56.152,0
213142.836,41.016,36.133,35.156,32.227,14.648,0
213142.840,43.457,32.715,38.574,34.180,2.930,0
213142.844,37.598,32.227,33.203,42.480,72.754,0
213142.848,34.668,33.691,29.785,40.039,87.891,0
213142.852,32.715,33.691,34.180,33.691,75.684,0
213142.856,28.320,30.273,35.156,36.621,71.289,0
213142.860,30.273,30.273,32.227,41.016,81.543,0
213142.863,32.227,34.668,32.715,44.434,71.289,0
213142.867,33.691,34.668,32.715,43.457,72.266,0
213142.871,36.133,36.621,30.273,39.062,45.410,0
213142.875,36.621,39.551,30.273,49.805,16.602,0
213142.879,35.645,31.738,26.367,47.363,6.836,0
213142.883,35.156,25.391,32.227,30.762,-7.324,0
213142.887,31.738,28.320,37.109,31.250,-13.672,0
213142.891,28.809,30.762,27.832,31.738,-12.207,0
213142.895,28.809,33.203,25.879,28.809,17.578,0
213142.899,29.785,35.645,29.785,30.762,61.035,0
213142.902,29.297,30.273,28.320,30.273,50.293,0
213142.906,21.973,24.902,24.414,23.926,8.301,0
213142.910,21.973,26.367,26.855,23.926,15.625,0
213142.914,27.832,25.879,28.320,31.738,15.625,0
213142.918,24.414,27.832,24.414,26.855,27.832,0
213142.922,21.973,32.227,25.391,20.508,6.348,0
213142.926,21.484,29.297,26.367,17.578,-4.395,0
213142.930,20.020,30.273,25.391,18.555,38.086,0
213142.934,27.344,32.715,21.484,29.297,85.938,0
213142.938,32.715,36.133,22.949,34.180,85.938,0
213142.942,31.738,39.062,30.762,40.039,86.914,0
213142.945,32.227,38.086,24.902,44.434,91.797,0
213142.949,30.273,36.621,20.020,37.598,80.566,0
213142.953,25.391,27.344,28.320,38.574,62.988,0
213142.957,23.438,25.879,33.203,41.504,46.387,0
213142.961,24.414,32.227,29.785,26.855,30.762,0
213142.965,24.902,30.762,23.926,19.043,36.621,0
213142.969,24.414,33.691,27.344,22.949,38.574,0
213142.973,26.367,39.551,26.855,15.625,21.484,0
213142.977,26.855,38.574,23.438,20.020,21.973,0
213142.981,27.344,36.133,22.949,37.109,42.480,0
213142.985,30.273,33.691,26.855,35.156,51.758,0
213142.988,29.785,38.574,31.250,27.344,55.664,0
213142.992,32.227,41.016,33.203,29.785,69.336,0
213142.996,33.203,29.785,27.832,24.414,57.129,0
213143.000,30.273,27.344,23.926,19.531,41.016,0
213143.004,28.320,32.227,30.762,20.996,41.992,0
213143.008,24.902,31.738,31.738,19.531,44.434,0
213143.012,25.391,31.738,27.344,20.996,37.598,0
213143.016,29.297,35.645,30.273,21.973,-0.977,0
213143.020,32.227,38.086,34.180,17.090,-23.438,0
213143.024,30.273,35.645,36.621,24.902,15.625,0
213143.027,25.391,29.785,30.273,27.832,40.527,0
213143.031,20.996,24.902,20.508,27.832,17.578,0
213143.035,18.555,27.832,24.902,28.809,37.598,0
213143.039,12.695,33.203,30.762,20.508,53.711,0
213143.043,5.859,32.227,24.414,11.230,67.383,0
213143.047,1.953,28.809,20.996,8.301,57.129,0
213143.051,-2.441,26.367,30.762,10.742,14.648,0
213143.055,-4.395,23.438,36.621,13.184,-0.977,0
213143.059,-0.488,21.484,34.180,18.555,10.254,0
213143.063,0.977,23.926,34.180,16.602,31.738,0
213143.067,-0.488,20.508,31.738,13.184,29.297,0
213143.070,-1.953,19.043,24.902,19.043,41.504,0
213143.074,0.000,28.809,24.902,20.020,19.043,0
213143.078,3.906,39.062,28.809,17.090,33.691,0
213143.082,5.371,34.180,27.344,17.578,76.660,0
213143.086,2.930,24.414,22.461,7.812,58.105,0
213143.090,2.441,27.344,24.414,4.395,38.574,0
213143.094,9.766,31.738,25.391,18.555,24.902,0
213143.098,15.137,30.273,21.973,30.273,58.594,0
213143.102,10.742,30.273,20.020,20.020,88.379,0
213143.106,8.789,31.738,21.484,14.648,43.945,0
213143.110,12.695,29.297,24.902,21.484,-3.906,0
213143.113,18.066,32.227,27.832,26.367,3.906,0
213143.117,21.484,41.992,27.832,31.738,23.438,0
213143.121,18.066,41.992,28.320,31.738,40.039,0
213143.125,20.508,38.574,32.227,34.668,45.898,0
213143.129,18.555,35.156,31.250,30.762,46.875,0
213143.133,14.160,29.297,29.785,27.344,49.316,0
213143.137,17.578,29.297,29.297,36.133,38.086,0
213143.141,18.555,27.832,27.344,35.645,24.414,0
213143.145,15.625,26.367,24.414,32.227,41.992,0
213143.149,16.602,27.832,31.738,35.645,30.762,0
213143.152,22.461,33.691,32.227,39.551,-0.977,0
213143.156,22.949,34.180,26.855,39.062,-20.996,0
213143.160,23.926,30.762,31.738,38.574,13.184,0
213143.164,24.414,31.738,34.180,36.621,35.645,0
213143.168,25.879,33.691,29.297,32.715,-22.461,0
213143.172,24.902,35.645,26.855,28.809,5.371,0
213143.176,20.508,37.109,30.273,29.785,47.363,0
213143.180,23.438,38.086,31.738,36.621,53.711,0
213143.184,23.926,39.551,32.715,41.504,58.594,0
213143.188,19.531,36.133,38.574,38.086,65.430,0
213143.192,16.113,32.715,41.016,33.203,69.336,0
213143.195,12.695,32.715,37.598,34.180,54.688,0
213143.199,12.695,29.785,36.621,32.715,28.320,0
213143.203,19.531,32.227,38.086,36.133,43.457,0
213143.207,21.973,31.738,34.668,34.180,56.641,0
213143.211,18.555,26.367,30.273,25.391,30.762,0
213143.215,17.090,27.832,38.086,21.973,65.430,0
213143.219,19.043,26.367,40.527,32.227,80.078,0
213143.223,24.902,23.926,41.016,41.992,59.570,0
213143.227,25.879,21.973,46.875,36.621,34.668,0
213143.231,23.438,21.484,45.410,26.855,44.434,0
213143.235,25.391,28.809,42.969,35.645,84.961,0
213143.238,26.855,32.715,38.574,43.457,74.707,0
213143.242,20.508,31.250,34.180,41.992,44.922,0
213143.246,21.973,31.738,30.762,41.504,32.227,0
213143.250,28.320,32.715,30.273,46.875,61.035,0
213143.254,28.809,33.691,32.715,43.945,31.250,0
213143.258,20.996,31.250,28.320,27.832,-22.949,0
213143.262,15.625,25.391,23.438,30.273,-16.602,0
213143.266,20.020,33.203,25.391,47.852,-15.137,0
213143.270,20.508,37.109,30.273,39.551,-17.578,0
213143.274,9.277,29.297,28.809,16.113,-15.625,0
213143.277,9.766,26.855,25.879,18.066,-36.133,0
213143.281,12.695,28.809,26.855,26.855,-40.039,0
213143.285,16.602,29.785,27.832,27.832,-23.438,0
213143.289,22.461,34.180,26.367,26.367,21.484,0
213143.293,27.344,35.645,29.297,25.879,60.059,0
213143.297,28.320,30.273,26.367,28.320,38.086,0
213143.301,23.926,27.344,22.461,27.832,7.812,1
213143.305,22.461,33.203,25.391,28.809,-11.719,0
213143.309,21.973,41.504,29.297,38.574,-6.836,0
213143.313,20.996,41.504,26.855,39.551,16.113,0
213143.317,15.625,31.250,24.902,29.785,28.320,0
213143.320,8.301,27.344,22.949,22.461,63.477,0
213143.324,9.766,31.250,24.902,25.879,70.312,0
213143.328,12.207,32.715,27.344,27.832,49.805,0
213143.332,14.648,33.203,23.438,28.809,61.035,0
213143.336,18.555,32.715,27.832,29.785,48.828,0
213143.340,20.020,29.785,33.691,28.320,32.715,0
213143.344,22.461,33.691,30.273,25.391,41.504,0
213143.348,22.461,34.668,32.715,21.484,32.227,0
213143.352,19.531,31.738,38.086,28.809,45.898,0
213143.356,15.625,33.691,37.598,31.738,76.172,0
213143.360,15.625,33.691,42.480,25.391,71.777,0
213143.363,18.555,32.227,39.551,22.949,61.035,0
213143.367,16.602,33.203,30.273,21.484,71.289,0
213143.371,15.625,32.715,29.297,18.066,56.152,0
213143.375,13.672,31.250,31.250,16.602,70.312,0
213143.379,8.789,33.203,33.691,18.555,71.289,0
213143.383,9.766,33.691,36.621,20.020,29.785,0
213143.387,7.812,33.203,29.297,22.461,41.504,0
213143.391,5.371,35.156,28.320,15.137,35.645,0
213143.395,3.906,31.250,37.109,11.719,20.508,0
213143.399,3.906,28.809,39.062,20.020,45.898,0
213143.402,7.324,32.715,37.109,23.926,18.066,0
213143.406,0.000,29.785,36.621,21.484,37.598,0
213143.410,-5.859,26.367,34.180,17.090,32.715,0
213143.414,-0.977,26.855,32.227,17.090,34.180,0
213143.418,2.441,29.785,29.785,15.625,74.219,0
213143.422,6.348,35.156,24.414,12.695,56.641,0
213143.426,7.812,36.133,19.043,9.766,49.805,0
213143.430,10.742,40.527,24.414,16.602,25.879,0
213143.434,8.789,37.598,26.367,20.020,62.500,0
213143.438,0.977,27.344,20.508,1.953,53.223,0
213143.442,-1.465,26.855,21.973,-1.465,38.086,0
213143.445,1.953,29.297,18.555,10.254,61.523,0
213143.449,10.742,34.668,20.996,15.137,33.203,0
213143.453,20.508,44.434,26.855,24.902,45.898,0
213143.457,24.414,43.457,24.414,25.879,60.059,0
213143.461,27.344,38.574,20.996,21.973,54.688,0
213143.465,27.832,39.551,23.438,23.926,41.504,0
213143.469,30.273,36.133,34.668,25.879,41.504,0
213143.473,27.344,33.203,32.715,31.250,66.895,0
213143.477,21.484,33.691,23.926,28.809,68.359,0
213143.481,23.926,32.715,29.785,25.391,75.684,0
213143.485,24.414,30.762,36.133,20.996,20.020,0
213143.488,20.996,25.879,36.621,17.090,-7.324,0
213143.492,27.832,34.668,38.086,26.367,31.738,0
213143.496,34.180,47.852,41.016,41.992,37.109,0
213143.500,21.484,40.527,35.156,33.691,29.785,0
213143.504,13.672,26.367,35.156,22.949,20.996,0
213143.508,13.672,29.297,34.668,22.461,-19.531,0
213143.512,13.672,33.203,31.250,19.043,17.090,0
213143.516,12.207,28.320,32.227,19.531,52.246,0
213143.520,9.277,32.227,34.180,25.391,67.383,0
213143.524,9.766,30.273,39.062,26.855,63.477,0
213143.527,7.812,26.855,37.598,21.973,39.551,0
213143.531,10.742,36.133,36.621,21.973,16.113,0
213143.535,16.113,35.645,32.715,25.879,53.711,0
213143.539,21.484,33.691,26.855,24.414,76.660,0
213143.543,27.344,32.715,31.738,17.578,38.574,0
213143.547,27.344,32.227,37.109,23.926,47.852,0
213143.551,30.762,34.180,36.621,41.504,35.645,0
213143.555,32.715,32.715,31.738,35.645,27.344,0
213143.559,28.809,30.762,31.250,26.367,43.457,0
213143.563,26.855,25.879,32.227,28.320,33.203,0
213143.567,27.344,26.367,34.180,31.250,58.105,0
213143.570,23.926,26.367,35.156,27.344,72.266,0
213143.574,20.020,22.949,36.133,24.902,33.203,0
213143.578,20.996,24.414,37.109,27.344,41.504,0
213143.582,20.508,25.879,33.691,24.902,41.504,0
213143.586,25.879,29.297,26.367,16.602,-17.090,0
213143.590,28.320,29.785,25.391,21.973,-23.926,0
213143.594,26.367,24.902,32.227,37.598,4.395,0
213143.598,29.785,25.391,27.832,28.809,8.789,0
213143.602,31.738,28.809,20.020,20.020,43.457,0
213143.606,28.320,31.250,23.438,20.020,46.875,0
213143.610,21.973,32.227,30.762,23.926,54.688,0
213143.613,19.043,32.715,35.156,26.367,33.203,0
213143.617,21.973,33.691,31.738,29.297,33.203,0
213143.621,21.484,30.762,31.738,29.297,38.574,0
213143.625,20.020,32.715,37.598,29.297,9.277,0
213143.629,20.508,36.133,35.645,29.785,33.691,0
213143.633,16.602,33.691,22.949,17.578,6.836,0
213143.637,20.508,38.086,22.949,29.297,5.371,0
213143.641,25.391,39.062,29.297,47.852,69.336,0
213143.645,29.297,34.668,28.809,34.180,44.922,0
213143.649,28.320,36.621,27.344,28.320,4.883,0
213143.652,22.949,37.598,24.902,30.273,21.973,0
213143.656,24.414,37.109,27.832,29.297,41.504,0
213143.660,26.855,38.574,32.227,31.738,17.090,0
213143.664,19.531,35.645,27.832,33.203,12.207,0
213143.668,18.555,31.250,27.832,33.203,31.738,0
213143.672,26.367,33.691,29.297,36.621,23.438,0
213143.676,31.738,35.156,28.320,34.180,9.277,0
213143.680,33.203,31.250,26.367,23.926,5.371,0
213143.684,32.715,34.180,28.809,29.785,16.113,0
213143.688,29.297,36.133,31.738,34.180,-5.371,0
213143.692,25.391,31.250,36.621,31.738,-17.090,0
213143.695,22.949,33.203,34.180,30.273,22.461,0
213143.699,23.438,35.645,25.879,30.762,57.617,0
213143.703,27.344,34.180,28.320,34.180,29.297,0
213143.707,27.344,31.250,33.203,36.133,14.648,0
213143.711,29.785,32.227,33.203,38.574,27.344,0
213143.715,25.391,30.762,32.227,33.691,34.180,0
213143.719,19.043,26.855,28.320,30.762,39.551,0
213143.723,25.879,29.297,29.785,36.621,33.691,0
213143.727,23.438,32.715,31.738,29.785,44.922,0
213143.731,15.137,31.738,32.227,29.785,55.176,0
213143.735,13.672,28.320,31.738,26.367,30.273,0
213143.738,10.742,24.902,32.227,20.996,22.949,0
213143.742,16.113,24.414,34.668,31.738,23.926,0
213143.746,25.391,29.785,36.621,39.062,9.277,0
213143.750,20.996,29.785,34.668,39.062,31.738,0
213143.754,24.902,27.832,30.762,32.715,49.316,0
213143.758,30.762,24.902,27.344,27.344,20.020,0
213143.762,22.461,23.926,23.926,26.367,23.438,0
213143.766,20.020,30.762,27.832,27.344,50.781,0
213143.770,24.414,35.156,31.250,29.297,36.621,0
213143.774,18.555,33.691,31.250,17.578,12.207,0
213143.777,16.113,30.762,32.715,17.090,-20.996,0
213143.781,20.996,28.809,33.203,19.043,-36.621,0
213143.785,21.484,25.879,27.832,16.113,-20.508,0
213143.789,17.090,28.320,26.855,22.949,43.457,0
213143.793,15.137,34.180,32.715,27.344,48.340,0
213143.797,18.066,33.691,33.691,31.250,31.738,0
213143.801,24.414,30.762,38.086,37.109,47.852,0
213143.805,26.367,29.785,41.992,38.086,42.969,0
213143.809,23.438,28.809,42.480,41.016,43.457,0
213143.813,22.949,26.367,40.039,39.551,18.066,0
213143.817,31.250,30.762,40.527,35.645,-4.883,0
213143.820,34.668,36.133,40.039,38.574,26.367,0
213143.824,26.367,31.250,32.715,36.133,36.133,0
213143.828,20.996,30.273,26.367,32.227,28.320,0
213143.832,19.043,34.180,22.949,30.762,42.480,0
213143.836,21.973,34.668,25.879,32.715,83.008,0
213143.840,24.902,38.574,32.227,29.297,98.633,0
213143.844,26.367,40.039,39.551,29.785,56.152,0
213143.848,29.785,34.180,39.551,36.133,68.359,0
213143.852,34.180,32.715,34.668,39.062,64.941,0
213143.856,28.809,30.762,34.668,34.180,46.387,0
213143.860,22.949,30.273,37.109,28.320,47.363,0
213143.863,26.367,39.062,38.574,36.621,27.832,0
213143.867,22.461,40.527,33.203,35.156,23.926,0
213143.871,23.926,32.715,25.879,31.250,25.879,0
213143.875,28.320,35.645,25.879,28.320,4.883,0
213143.879,16.602,34.668,29.297,16.602,0.488,0
213143.883,11.230,31.738,30.273,16.602,4.395,0
213143.887,12.207,34.180,25.879,18.066,-4.883,0
213143.891,9.277,30.273,24.414,13.184,7.324,0
213143.895,11.230,30.273,27.344,17.578,11.230,0
213143.899,9.766,34.668,26.367,19.531,29.297,0
213143.902,6.836,34.180,22.461,19.531,19.531,0
213143.906,9.277,36.621,24.902,23.926,-17.090,0
213143.910,8.301,35.645,32.227,23.926,-36.133,0
213143.914,-0.977,27.344,27.832,12.695,-19.043,0
213143.918,-3.906,22.949,23.438,0.977,-19.531,1
213143.922,0.488,23.438,25.879,9.766,-12.695,0
213143.926,1.465,21.484,26.367,13.672,43.457,0
213143.930,6.836,24.414,30.273,12.695,44.922,0
213143.934,6.348,34.180,30.273,16.113,24.414,0
213143.938,7.812,29.785,33.691,22.461,37.598,0
213143.942,13.184,25.879,34.668,30.273,60.547,0
213143.945,12.695,30.273,31.738,20.020,44.434,0
213143.949,9.766,28.809,32.715,18.066,-11.719,0
213143.953,7.324,29.297,33.691,26.367,0.977,0
213143.957,10.742,30.762,33.691,25.879,76.660,0
213143.961,7.324,33.203,26.367,16.113,81.543,0
213143.965,3.418,29.785,25.879,6.836,38.086,0
213143.969,5.859,26.855,30.762,15.137,59.570,0
213143.973,9.766,27.832,37.109,22.461,47.363,0
213143.977,15.137,29.785,30.273,22.949,29.785,0
213143.981,13.184,30.273,25.391,24.414,56.152,0
213143.985,13.672,27.832,33.203,24.414,35.156,0
213143.988,16.602,29.785,33.691,24.902,22.949,0
213143.992,17.090,26.367,33.203,22.949,8.789,0
213143.996,20.996,24.902,33.691,21.484,6.836,0
213144.000,17.090,30.273,29.785,20.996,33.203,0
213144.004,16.602,32.227,27.832,21.484,23.926,0
213144.008,17.578,33.203,26.855,12.695,-2.930,0
213144.012,15.137,33.203,27.344,15.137,29.785,0
213144.016,22.461,35.156,32.227,31.738,96.680,0
213144.020,23.926,34.668,30.273,33.203,95.215,0
213144.024,19.531,30.762,26.367,24.414,40.039,0
213144.027,16.113,29.297,21.484,29.297,32.227,0
213144.031,10.254,27.344,24.902,26.367,31.250,0
213144.035,9.766,29.297,32.227,17.578,53.223,0
213144.039,11.719,34.668,30.762,18.066,97.168,0
213144.043,18.066,38.574,33.691,22.949,76.660,0
213144.047,20.996,38.574,37.109,34.180,47.852,0
213144.051,21.973,38.574,30.273,24.414,21.973,0
213144.055,24.414,37.598,25.879,7.324,24.902,0
213144.059,21.973,36.621,29.785,13.184,52.734,0
213144.063,19.531,33.691,28.809,17.578,73.242,0
213144.067,17.578,27.344,25.391,18.066,99.121,0
213144.070,21.973,33.203,29.785,22.949,101.074,0
213144.074,29.297,38.086,35.156,28.320,49.316,0
213144.078,28.809,32.227,32.715,32.715,49.805,0
213144.082,24.902,30.762,29.297,32.715,77.637,0
213144.086,20.996,27.832,28.320,30.273,56.152,0
213144.090,15.625,26.855,28.809,34.668,12.207,0
213144.094,14.160,29.297,30.762,37.109,4.883,0
213144.098,16.113,28.809,28.809,20.996,12.695,0
213144.102,17.090,30.762,24.902,13.184,18.066,0
213144.106,14.160,32.227,31.250,18.555,57.617,0
213144.110,16.602,31.250,36.133,19.043,23.926,0
213144.113,23.926,32.715,31.250,20.508,42.480,0
213144.117,20.996,32.227,29.297,18.555,50.781,0
213144.121,21.973,33.691,37.598,17.578,-41.016,0
213144.125,20.020,33.691,37.598,17.578,-44.922,0
213144.129,26.855,35.645,33.691,28.320,9.766,0
213144.133,29.785,37.109,35.645,36.621,14.160,0
213144.137,21.973,28.809,33.203,28.320,25.879,0
213144.141,26.367,25.879,30.273,23.926,39.062,0
213144.145,28.809,27.832,30.762,24.414,13.184,0
213144.149,25.391,27.832,23.438,20.508,32.715,0
213144.152,26.367,30.762,25.879,21.973,42.969,0
213144.156,29.785,34.668,32.227,24.902,41.504,0
213144.160,24.902,30.762,27.344,18.066,32.715,0
213144.164,25.391,32.227,30.762,21.484,-3.418,0
213144.168,33.691,34.180,35.156,32.227,12.695,0
213144.172,32.715,31.250,36.133,31.738,9.766,0
213144.176,26.367,28.809,32.715,26.367,17.578,0
213144.180,20.996,25.879,32.715,21.973,43.457,0
213144.184,23.438,28.809,30.762,20.508,1.465,0
213144.188,25.391,31.250,28.320,23.438,-20.020,0
213144.192,29.297,34.180,27.344,24.902,18.066,0
213144.195,32.715,35.156,23.438,18.555,22.949,0
213144.199,27.344,36.621,21.484,17.090,-2.441,0
213144.203,27.344,43.945,24.414,20.996,-31.250,0
213144.207,30.273,44.922,29.297,23.438,-1.465,0
213144.211,22.949,38.574,29.785,18.066,35.645,0
213144.215,18.555,29.297,28.809,17.090,11.719,0
213144.219,16.113,28.809,24.414,14.648,-8.789,0
213144.223,15.625,36.133,21.973,13.672,5.371,0
213144.227,26.367,38.086,22.949,20.996,22.949,0
213144.231,31.250,36.621,22.461,19.043,17.090,0
213144.235,29.297,41.504,25.391,17.090,-25.391,0
213144.238,22.949,38.574,20.996,23.438,-8.301,0
213144.242,21.484,32.715,18.066,23.438,17.090,0
213144.246,24.414,32.227,23.926,27.344,43.945,0
213144.250,29.785,32.715,24.414,34.668,56.152,0
213144.254,27.344,30.273,18.555,27.832,38.086,0
213144.258,30.762,32.227,22.461,28.320,62.012,0
213144.262,35.645,38.574,24.902,31.250,66.406,0
213144.266,33.691,39.551,27.832,32.715,77.148,0
213144.270,37.109,41.504,33.203,39.551,74.219,0
213144.274,32.715,30.273,30.762,31.250,24.414,0
213144.277,25.879,20.508,31.738,28.320,39.062,0
213144.281,27.832,23.926,32.715,33.203,92.773,0
213144.285,29.297,24.902,27.832,28.320,59.082,0
213144.289,28.809,22.461,23.926,26.855,9.277,0
213144.293,29.785,26.367,25.879,27.832,-26.367,0
213144.297,29.297,29.785,30.273,24.414,6.836,0
213144.301,24.414,27.344,33.691,27.344,48.340,0
213144.305,18.066,28.320,37.598,32.227,49.316,0
213144.309,16.113,26.367,41.992,32.715,51.758,0
213144.313,16.602,24.414,40.039,32.227,50.781,0
213144.317,13.184,24.414,33.691,33.203,26.855,0
213144.320,11.230,26.367,35.645,34.668,23.438,0
213144.324,14.160,26.855,36.133,40.527,24.902,0
213144.328,18.066,25.391,35.156,42.480,55.176,0
213144.332,20.508,31.250,35.156,36.621,70.801,0
213144.336,20.996,36.133,36.133,29.785,20.508,0
213144.340,16.602,28.809,37.598,33.203,-24.902,0
213144.344,10.742,20.020,37.109,35.645,26.367,0
213144.348,10.742,20.996,31.738,23.926,42.969,0
213144.352,15.137,28.320,25.391,21.484,3.418,0
213144.356,17.578,26.855,30.273,28.809,9.766,0
213144.360,20.508,24.414,38.086,36.621,43.457,0
213144.363,23.926,35.156,39.062,36.133,54.199,0
213144.367,25.879,35.156,37.598,33.691,31.250,0
213144.371,20.020,30.762,35.156,29.297,17.090,0
213144.375,13.184,31.738,33.203,23.438,17.578,0
213144.379,16.602,36.621,31.250,27.832,3.418,0
213144.383,16.113,41.992,24.414,21.484,-13.672,0
213144.387,12.695,40.039,20.508,18.066,9.277,0
213144.391,21.484,41.016,22.461,30.762,32.715,0
213144.395,24.902,43.945,22.949,34.668,36.133,0
213144.399,20.508,41.504,19.043,33.203,50.293,0
213144.402,22.461,37.598,19.531,30.273,47.852,0
213144.406,25.879,35.156,21.973,28.809,19.531,0
213144.410,23.926,34.180,16.113,28.809,26.367,0
213144.414,24.902,36.133,18.066,28.320,87.402,0
213144.418,25.879,35.156,24.902,26.367,85.938,0
213144.422,21.484,29.297,26.855,24.902,66.406,0
213144.426,20.508,25.879,27.832,17.578,18.066,0
213144.430,24.902,30.273,25.879,17.090,-18.066,0
213144.434,25.879,31.250,23.926,27.344,20.508,0
213144.438,24.414,26.367,24.414,28.320,1.953,0
213144.442,23.926,28.320,22.461,21.973,-4.395,0
213144.445,24.414,30.762,22.461,27.344,35.156,0
213144.449,23.438,30.273,22.461,30.273,32.715,0
213144.453,22.461,24.902,24.414,29.785,30.273,0
213144.457,22.949,26.367,30.273,31.250,38.574,0
213144.461,30.762,35.156,28.809,41.504,31.250,1
213144.465,38.574,39.551,32.715,45.898,36.133,0
213144.469,25.879,35.645,38.574,27.832,51.758,0
213144.473,5.859,30.762,33.691,4.883,12.207,0
213144.477,3.906,24.902,29.785,2.441,16.113,0
213144.481,13.672,23.438,34.668,25.879,60.059,0
213144.485,15.137,25.391,38.086,31.738,31.250,0
213144.488,5.371,23.438,36.133,19.531,14.160,0
213144.492,0.977,25.391,39.062,15.137,9.277,0
213144.496,9.277,27.344,42.969,23.438,25.879,0
213144.500,19.043,29.297,45.410,25.879,36.621,0
213144.504,16.602,32.227,41.992,21.484,28.320,0
213144.508,10.742,33.203,39.062,28.809,37.109,0
213144.512,13.672,31.250,45.410,36.621,45.410,0
213144.516,11.719,31.250,44.434,22.949,4.883,0
213144.520,9.766,33.691,38.086,11.719,9.277,0
213144.524,9.766,34.180,32.227,18.066,24.902,0
213144.527,5.859,27.832,37.109,24.414,17.578,0
213144.531,5.859,21.484,42.480,23.926,38.086,0
213144.535,11.230,27.344,40.039,25.879,53.223,0
213144.539,20.508,33.203,42.480,31.738,56.641,0
213144.543,15.625,31.738,38.574,25.391,54.688,0
213144.547,7.324,27.832,32.227,18.555,75.195,0
213144.551,8.301,25.879,29.297,28.320,106.934,0
213144.555,12.695,34.180,25.391,34.180,92.773,0
213144.559,16.602,41.016,24.414,27.344,83.984,0
213144.563,18.066,33.203,29.785,16.602,63.965,0
213144.567,13.184,27.344,30.273,9.277,29.785,0
213144.570,9.277,34.180,28.320,18.555,64.941,0
213144.574,15.137,40.039,30.762,26.855,50.781,0
213144.578,20.508,42.969,28.320,23.926,9.766,0
213144.582,20.996,41.504,27.832,21.973,20.508,0
213144.586,25.879,39.062,27.832,30.273,55.664,0
213144.590,32.715,44.922,25.879,29.785,64.453,0
213144.594,37.598,48.340,30.273,25.879,32.227,0
213144.598,38.086,40.527,30.762,25.879,40.527,0
213144.602,35.645,35.645,27.344,30.762,74.707,0
213144.606,33.691,34.668,25.391,28.809,27.344,0
213144.610,33.691,36.133,27.344,23.438,-11.230,0
213144.613,27.344,31.738,28.320,29.785,37.598,0
213144.617,22.949,24.902,23.926,27.832,48.340,0
213144.621,26.855,23.926,24.414,22.949,25.879,0
213144.625,32.227,26.367,31.250,23.438,33.203,0
213144.629,29.785,26.855,32.227,28.320,51.758,0
213144.633,21.484,22.461,30.762,26.367,50.781,0
213144.637,23.926,21.484,30.273,26.367,54.688,0
213144.641,26.367,23.926,29.785,27.832,60.059,0
213144.645,26.367,25.879,29.785,26.855,35.156,0
213144.649,33.203,29.297,32.227,29.785,7.812,0
213144.652,36.621,33.691,31.250,30.273,-20.996,0
213144.656,33.203,33.691,34.180,32.227,-35.156,0
213144.660,29.297,31.738,38.086,40.039,-5.371,0
213144.664,28.809,31.738,36.621,32.715,38.574,0
213144.668,27.832,29.297,36.133,20.996,13.184,0
213144.672,29.785,27.344,33.203,24.414,-33.203,0
213144.676,32.227,28.809,32.715,24.902,3.906,0
213144.680,32.227,27.832,32.715,20.996,22.949,0
213144.684,35.156,30.762,36.133,22.949,25.879,0
213144.688,40.527,32.227,40.039,27.832,26.855,0
213144.692,41.992,27.832,43.945,27.832,16.602,0
213144.695,36.621,30.273,40.039,26.367,2.930,0
213144.699,40.039,35.156,33.203,31.738,15.625,0
213144.703,38.574,32.227,28.809,26.367,31.250,0
213144.707,35.156,31.738,24.902,27.344,38.086,0
213144.711,39.551,40.039,30.273,40.039,19.531,0
213144.715,36.621,36.133,28.320,23.926,-26.855,0
213144.719,28.320,25.391,23.438,13.184,-1.953,0
213144.723,25.879,25.391,29.297,22.949,44.434,0
213144.727,30.762,28.809,31.738,25.879,22.461,0
213144.731,32.715,31.738,28.809,28.809,26.855,0
213144.735,28.809,32.715,27.344,31.250,63.477,0
213144.738,25.391,31.738,24.414,31.738,67.871,0
213144.742,26.855,31.738,24.902,29.785,33.691,0
213144.746,29.297,34.668,26.855,32.715,21.973,0
213144.750,25.391,34.668,23.438,37.109,36.133,0
213144.754,21.973,36.133,22.949,36.133,29.785,0
213144.758,29.297,38.574,30.762,35.156,79.102,0
213144.762,30.762,35.156,29.785,28.809,58.594,0
213144.766,29.785,34.668,29.297,27.832,16.113,0
213144.770,28.320,29.785,29.785,24.902,42.480,0
213144.774,21.973,25.879,28.809,20.508,28.320,0
213144.777,22.949,25.879,32.227,24.902,40.527,0
213144.781,24.902,26.367,32.715,30.273,86.914,0
213144.785,22.949,26.367,30.273,32.227,60.059,0
213144.789,25.391,29.297,31.738,32.715,62.988,0
213144.793,26.367,33.203,30.273,39.551,81.543,0
213144.797,28.809,32.715,30.762,39.062,49.316,0
213144.801,33.203,31.738,30.273,26.367,60.059,0
213144.805,31.738,28.320,31.250,29.297,37.109,0
213144.809,32.227,24.902,34.180,36.133,38.574,0
213144.813,31.250,27.832,31.738,26.367,72.266,0
213144.817,25.391,31.738,30.762,20.996,60.547,0
213144.820,27.832,33.203,35.156,27.344,42.480,0
213144.824,35.156,33.203,33.691,33.691,49.316,0
213144.828,34.668,29.785,28.809,31.738,52.246,0
213144.832,26.855,29.785,29.785,27.832,35.156,0
213144.836,26.367,31.250,32.715,32.715,76.172,0
213144.840,28.809,27.832,34.668,34.180,73.730,0
213144.844,24.414,24.902,36.133,29.785,28.809,0
213144.848,19.043,24.414,40.527,24.414,3.418,0
213144.852,17.578,24.414,41.504,25.879,4.395,0
213144.856,20.508,23.438,39.551,30.762,32.227,0
213144.860,21.973,29.785,34.180,24.902,30.762,0
213144.863,21.484,36.133,28.809,22.949,30.762,0
213144.867,24.414,36.133,33.691,24.414,32.227,0
213144.871,23.926,34.180,34.180,18.555,17.578,0
213144.875,19.531,33.203,31.250,14.648,22.461,0
213144.879,19.531,30.762,34.180,12.207,25.879,0
213144.883,18.066,27.832,30.273,11.230,52.246,0
213144.887,19.531,29.785,29.785,15.137,48.340,0
213144.891,25.391,36.621,29.785,14.160,14.648,0
213144.895,20.508,34.668,28.320,13.184,33.203,0
213144.899,12.695,26.367,27.344,17.090,84.473,0
213144.902,15.137,30.273,19.531,20.996,46.875,0
213144.906,12.695,34.668,20.996,18.066,21.484,0
213144.910,7.812,34.180,25.391,8.301,54.688,0
213144.914,14.160,30.762,25.879,14.160,41.016,0
213144.918,19.043,29.785,23.926,22.949,1.953,0
213144.922,18.555,31.250,23.438,18.555,51.270,0
213144.926,20.020,30.273,23.438,14.648,59.570,0
213144.930,21.973,26.855,23.438,17.578,51.758,0
213144.934,29.297,26.855,29.297,26.367,48.340,0
213144.938,32.227,30.762,28.809,20.996,-11.719,0
213144.942,30.762,32.227,27.344,16.602,-12.695,0
213144.945,30.273,32.227,24.902,23.926,13.672,0
213144.949,32.227,37.109,27.344,28.809,3.418,0
213144.953,38.086,43.457,29.297,41.016,12.695,0
213144.957,36.621,38.574,24.902,45.410,21.484,0
213144.961,31.250,31.738,23.926,35.645,20.020,0
213144.965,30.762,30.273,24.902,24.902,34.668,0
213144.969,32.715,33.203,30.762,22.461,40.527,0
213144.973,34.180,33.691,31.250,25.391,38.574,0
213144.977,32.227,28.320,31.250,28.809,55.664,0
213144.981,29.785,25.879,30.273,28.320,22.461,0
213144.985,31.250,26.367,27.832,23.926,-13.184,0
213144.988,31.738,29.785,38.574,30.762,67.383,0
213144.992,34.180,33.203,40.527,36.621,88.379,0
213144.996,32.227,30.762,33.691,27.832,59.570,0
213145.000,28.320,27.832,35.156,20.996,80.566,0
213145.004,28.809,32.227,34.668,25.391,90.332,0
213145.008,29.297,33.691,37.109,25.879,52.734,0
213145.012,31.250,30.273,35.645,27.832,30.762,0
213145.016,32.227,30.762,29.297,27.344,52.246,0
213145.020,33.203,29.785,30.273,21.973,58.594,0
213145.024,34.668,31.250,32.715,26.367,55.176,0
213145.027,35.156,38.574,30.273,34.668,64.453,0
213145.031,39.551,44.434,29.297,31.738,51.270,0
213145.035,41.504,44.434,28.809,30.762,52.246,0
213145.039,41.016,37.109,28.809,34.180,31.250,0
213145.043,37.109,35.645,27.832,23.438,-27.344,0
213145.047,32.227,36.621,24.414,24.902,11.719,0
213145.051,37.109,36.133,26.855,36.133,40.527,0
213145.055,38.574,39.551,28.320,30.762,24.902,0
213145.059,35.645,40.039,30.273,30.273,13.672,0
213145.063,31.738,35.645,28.320,36.133,4.883,0
213145.067,31.738,35.156,23.438,39.551,30.762,0
213145.070,28.809,38.086,26.367,34.668,45.898,0
213145.074,20.020,37.598,28.809,21.973,58.105,0
213145.078,21.973,41.016,31.250,22.949,39.062,0
213145.082,25.879,41.504,34.180,28.809,18.555,1
213145.086,22.949,38.574,28.320,21.484,29.785,0
213145.090,18.555,36.621,23.438,14.160,50.781,0
213145.094,17.090,34.180,25.391,24.414,41.504,0
213145.098,19.531,34.668,25.391,33.203,8.301,0
213145.102,21.973,31.250,28.320,28.320,1.465,0
213145.106,28.320,30.762,32.227,25.391,-36.621,0
213145.110,31.738,37.109,33.203,29.785,-46.875,0
213145.113,31.250,38.086,35.645,33.203,-48.828,0
213145.117,33.691,35.156,34.668,31.250,-59.570,0
213145.121,38.086,39.062,29.297,37.598,-42.969,0
213145.125,38.086,41.016,26.855,40.039,-35.156,0
213145.129,37.109,38.574,31.250,35.645,-34.668,0
213145.133,41.992,37.598,35.645,36.621,-67.871,0
213145.137,40.039,36.133,34.180,31.738,-65.918,0
213145.141,36.133,36.133,34.668,31.250,-38.086,0
213145.145,34.668,32.227,38.574,27.832,-36.133,0
213145.149,36.133,28.320,39.551,29.785,-25.879,0
213145.152,37.109,34.180,33.691,27.832,13.184,0
213145.156,30.273,39.062,32.227,20.996,35.645,0
213145.160,27.344,40.527,32.715,20.508,-1.465,0
213145.164,29.785,39.551,34.180,23.438,-9.766,0
213145.168,30.762,33.203,36.133,28.809,12.695,0
213145.172,30.762,31.738,29.297,27.832,24.414,0
213145.176,28.320,31.738,30.273,19.043,26.855,0
213145.180,27.832,31.738,35.156,12.695,32.227,0
213145.184,25.879,34.668,31.738,17.578,41.992,0
213145.188,22.461,33.691,28.809,23.438,58.105,0
213145.192,23.926,36.621,24.414,21.484,54.199,0
213145.195,24.414,37.598,25.391,15.137,45.410,0
213145.199,22.949,38.086,29.785,18.555,60.547,0
213145.203,27.832,39.062,30.762,25.391,38.086,0
213145.207,28.809,33.691,31.738,24.902,15.625,0
213145.211,24.902,32.715,27.832,20.508,32.227,0
213145.215,21.484,35.156,22.949,19.043,51.270,0
213145.219,22.949,34.180,26.367,22.461,41.992,0
213145.223,25.879,29.297,27.832,18.555,1.465,0
213145.227,27.344,30.762,24.902,18.555,-5.859,0
213145.231,24.902,34.668,25.879,24.414,43.457,0
213145.235,22.461,36.621,27.832,26.855,42.969,0
213145.238,22.461,37.598,24.414,29.297,52.734,0
213145.242,19.043,34.668,23.438,22.949,85.449,0
213145.246,16.602,28.809,23.926,18.555,74.219,0
213145.250,14.160,28.809,24.902,17.578,39.062,0
213145.254,11.719,30.762,24.414,17.578,45.898,0
213145.258,19.043,29.297,26.855,20.020,48.828,0
213145.262,22.949,27.832,28.320,21.484,26.855,0
213145.266,18.066,25.391,26.855,16.602,57.129,0
213145.270,16.602,25.879,30.762,10.742,50.781,0
213145.274,19.531,28.809,35.156,21.484,86.426,0
213145.277,21.484,31.250,30.762,34.668,105.469,0
213145.281,28.320,34.180,29.297,36.621,76.660,0
213145.285,28.809,35.645,32.227,29.785,98.633,0
213145.289,28.320,37.109,33.691,32.715,89.844,0
213145.293,27.344,37.109,32.715,37.598,19.043,0
213145.297,20.996,32.715,33.691,30.762,15.137,0
213145.301,19.043,32.715,33.203,28.809,40.039,0
213145.305,14.160,33.691,28.809,29.785,15.137,0
213145.309,11.719,31.738,30.273,30.273,-7.812,0
213145.313,17.090,33.691,30.762,27.832,-20.508,0
213145.317,15.137,36.133,29.785,30.273,0.000,0
213145.320,14.160,37.598,34.180,41.992,36.133,0
213145.324,12.695,37.598,31.738,39.551,28.809,0
213145.328,4.395,33.691,29.785,34.668,5.371,0
213145.332,3.906,33.691,33.691,41.992,19.043,0
213145.336,8.789,35.156,32.715,39.062,39.062,0
213145.340,9.277,32.715,27.832,27.832,35.156,0
213145.344,8.301,32.715,27.832,29.785,5.859,0
213145.348,6.836,30.273,30.762,34.180,11.230,0
213145.352,8.789,30.762,35.156,35.156,35.645,0
213145.356,10.742,35.645,31.738,29.297,31.738,0
213145.360,12.207,32.715,23.926,26.367,14.160,0
213145.363,15.137,35.645,27.344,33.691,38.574,0
213145.367,15.137,36.133,32.227,37.109,43.945,0
213145.371,15.625,29.785,34.180,33.203,18.555,0
213145.375,14.648,34.668,34.668,32.715,15.137,0
213145.379,11.230,36.133,32.227,35.156,-6.348,0
213145.383,11.230,35.156,32.227,38.574,-7.812,0
213145.387,14.648,38.086,35.156,39.551,36.133,0
213145.391,18.066,39.062,35.156,44.434,62.988,0
213145.395,17.578,33.691,31.738,41.504,88.379,0
213145.399,14.160,30.762,28.320,29.785,74.219,0
213145.402,12.207,30.273,28.320,28.809,32.715,0
213145.406,6.348,26.855,28.809,25.391,-24.902,0
213145.410,3.906,22.949,33.203,24.414,-17.090,0
213145.414,11.719,22.949,35.156,35.645,46.387,0
213145.418,17.090,29.785,32.227,33.691,18.555,0
213145.422,7.812,30.273,31.250,16.113,1.953,0
213145.426,2.930,29.297,28.809,16.113,-12.695,0
213145.430,12.207,35.645,31.738,29.297,-31.738,0
213145.434,11.230,35.156,25.879,29.297,-36.133,0
213145.438,11.719,32.227,22.461,30.762,-7.812,0
213145.442,12.207,31.250,27.832,28.809,75.195,0
213145.445,11.719,30.273,25.391,21.973,83.496,0
213145.449,15.625,33.203,24.414,24.902,24.902,0
213145.453,12.207,30.273,30.273,24.414,12.207,0
213145.457,10.742,31.738,32.227,32.227,29.785,0
213145.461,14.648,35.645,32.715,28.320,-12.695,0
213145.465,13.672,36.133,37.109,22.461,-49.316,0
213145.469,10.254,36.133,31.250,31.250,-14.160,0
213145.473,13.184,35.645,27.344,30.273,18.066,0
213145.477,12.207,33.691,27.832,24.902,-3.906,0
213145.481,18.555,36.133,28.809,32.715,-32.715,0
213145.485,23.926,41.016,29.297,41.992,4.395,0
213145.488,15.625,35.645,26.367,30.762,0.488,0
213145.492,10.742,25.879,22.949,19.531,-34.668,0
213145.496,17.578,25.879,24.902,20.020,-39.062,0
213145.500,16.113,28.320,26.367,22.949,-11.230,0
213145.504,7.812,29.785,22.949,20.020,14.160,0
213145.508,5.371,31.738,23.438,12.695,-29.785,0
213145.512,9.766,32.715,23.438,20.996,-37.109,0
213145.516,12.207,33.203,22.461,28.320,-1.465,0
213145.520,10.254,32.227,29.297,21.484,-7.324,0
213145.524,9.766,32.715,26.855,23.926,14.160,0
213145.527,12.207,29.785,27.832,26.367,24.902,0
213145.531,14.160,28.809,32.715,23.438,3.906,0
213145.535,17.090,28.809,30.762,25.391,8.301,0
213145.539,19.531,28.320,29.785,24.414,-7.812,0
213145.543,15.137,32.227,28.809,16.113,-4.395,0
213145.547,7.812,36.133,26.367,17.090,23.926,0
213145.551,10.254,33.203,28.320,17.578,27.832,0
213145.555,9.766,32.227,29.785,14.160,17.090,0
213145.559,4.883,33.203,25.391,15.137,61.035,0
213145.563,6.348,31.738,23.926,17.090,64.453,0
213145.567,9.766,29.785,27.344,19.043,-6.836,0
213145.570,13.184,30.762,28.809,21.484,-17.090,0
213145.574,14.160,36.133,28.809,29.297,8.301,0
213145.578,16.113,36.133,33.691,29.785,4.395,0
213145.582,22.461,34.180,36.133,23.926,20.020,0
213145.586,25.879,35.645,32.227,23.438,57.617,0
213145.590,15.137,30.762,27.344,19.043,68.848,0
213145.594,7.324,27.832,22.949,13.672,64.453,0
213145.598,10.742,27.832,22.949,10.742,58.594,0
213145.602,11.719,27.832,28.320,12.695,32.227,0
213145.606,10.742,29.785,26.855,20.020,11.719,0
213145.610,12.207,31.738,21.973,23.926,0.488,0
213145.613,8.789,30.273,25.391,24.902,21.484,0
213145.617,10.254,26.855,26.367,25.879,53.711,0
213145.621,19.531,32.227,30.273,31.250,47.363,0
213145.625,24.414,39.062,32.227,30.273,47.363,0
213145.629,28.320,36.621,26.855,25.391,41.016,0
213145.633,26.367,35.645,23.438,18.066,52.734,0
213145.637,23.438,37.598,26.367,16.113,60.547,0
213145.641,23.438,40.039,29.785,20.508,35.156,0
213145.645,22.461,39.551,26.855,22.461,36.621,0
213145.649,19.531,30.273,27.344,25.391,56.641,0
213145.652,20.020,23.438,27.832,26.855,43.457,0
213145.656,25.879,27.832,27.344,25.879,-15.137,0
213145.660,24.902,32.715,32.227,32.715,-21.484,0
213145.664,19.043,31.738,40.039,37.598,30.273,0
213145.668,13.184,34.668,37.109,26.855,36.621,0
213145.672,7.812,38.574,34.180,22.461,13.672,0
213145.676,6.836,40.039,32.227,21.484,0.977,0
213145.680,9.277,35.156,29.785,23.926,36.621,0
213145.684,10.742,30.273,29.785,30.762,29.785,0
213145.688,15.137,28.809,30.762,25.879,6.836,0
213145.692,16.602,24.414,33.691,20.508,11.719,0
213145.695,20.508,22.949,40.039,28.809,8.789,0
213145.699,25.879,28.320,36.133,31.738,25.879,0
213145.703,25.879,34.668,29.785,26.367,12.695,0
213145.707,22.949,34.180,29.785,22.461,34.180,0
213145.711,20.020,33.691,23.438,18.555,52.246,0
213145.715,23.438,35.156,16.113,21.484,40.527,0
213145.719,30.762,31.738,13.184,26.855,32.227,0
213145.723,37.598,29.297,25.391,32.715,20.996,0
213145.727,37.109,30.762,33.691,37.598,54.688,0
213145.731,29.785,31.738,28.809,32.227,57.617,0
213145.735,22.949,32.715,26.367,26.367,45.410,0
213145.738,20.508,35.156,29.297,30.273,50.781,0
213145.742,17.578,37.109,33.691,28.320,51.270,0
213145.746,15.137,36.621,30.762,22.461,28.809,0
213145.750,16.113,34.668,29.297,26.855,9.766,0
213145.754,17.578,26.855,30.273,31.738,59.082,0
213145.758,21.973,29.785,27.832,32.715,44.434,0
213145.762,27.832,33.203,29.297,34.180,-30.762,0
213145.766,28.809,27.344,34.180,35.156,-3.906,1
213145.770,29.297,27.344,32.715,30.273,54.199,0
213145.774,31.250,33.203,33.691,31.250,70.312,0
213145.777,31.738,36.621,36.621,30.762,19.531,0
213145.781,23.926,31.250,37.109,20.020,-18.066,0
213145.785,21.484,28.320,34.180,21.973,23.926,0
213145.789,22.461,29.297,31.738,25.879,15.625,0
213145.793,17.090,27.832,33.203,20.996,-7.812,0
213145.797,18.066,24.414,32.715,20.996,24.902,0
213145.801,15.137,23.926,32.715,24.414,49.805,0
213145.805,9.766,26.855,31.738,21.973,24.902,0
213145.809,8.789,27.344,26.367,24.414,56.152,0
213145.813,11.719,31.250,28.809,34.668,73.730,0
213145.817,16.602,36.133,31.250,38.086,60.059,0
213145.820,25.391,37.598,27.344,33.691,48.828,0
213145.824,32.715,36.621,30.273,28.320,45.410,0
213145.828,24.414,34.668,31.250,24.902,58.105,0
213145.832,16.602,29.297,27.344,21.484,47.852,0
213145.836,15.625,28.320,24.414,23.438,41.016,0
213145.840,15.137,30.762,22.461,24.902,35.156,0
213145.844,20.508,32.227,28.320,22.461,30.762,0
213145.848,24.414,32.715,30.762,24.414,43.945,0
213145.852,30.762,33.691,29.297,21.973,-7.324,0
213145.856,32.227,33.203,31.738,17.578,-21.973,0
213145.860,24.414,34.668,32.227,27.344,41.504,0
213145.863,28.809,39.062,25.879,35.645,38.574,0
213145.867,29.785,33.691,28.320,29.785,48.340,0
213145.871,23.438,29.785,32.715,25.391,63.477,0
213145.875,23.926,31.250,30.762,31.250,26.855,0
213145.879,27.344,33.203,33.691,31.250,16.113,0
213145.883,35.156,38.574,36.133,27.344,18.555,0
213145.887,40.527,40.039,38.574,33.203,9.277,0
213145.891,28.320,33.203,32.715,31.738,17.090,0
213145.895,20.996,30.762,27.344,23.438,-8.789,0
213145.899,25.391,31.738,30.273,24.902,8.301,0
213145.902,23.926,35.645,30.762,25.879,47.363,0
213145.906,22.949,35.645,34.180,22.949,16.602,0
213145.910,27.832,32.227,35.645,27.344,-18.555,0
213145.914,31.738,35.156,35.645,30.273,10.742,0
213145.918,32.715,36.621,37.109,31.250,32.227,0
213145.922,35.156,36.133,33.203,37.598,31.738,0
213145.926,39.062,41.016,33.691,31.738,5.371,0
213145.930,39.551,37.109,35.156,19.531,-11.230,0
213145.934,33.203,33.691,33.203,24.414,25.391,0
213145.938,24.414,37.109,35.156,25.391,24.902,0
213145.942,18.555,34.668,33.203,20.020,6.836,0
213145.945,18.066,35.645,30.762,19.043,-13.672,0
213145.949,15.137,34.180,32.715,15.625,23.438,0
213145.953,11.719,29.297,32.715,12.695,20.508,0
213145.957,12.207,27.344,35.645,16.602,0.488,0
213145.961,10.742,25.879,35.645,15.625,-29.785,0
213145.965,12.695,28.809,27.832,22.949,26.855,0
213145.969,18.066,31.738,30.273,33.203,76.172,0
213145.973,17.578,32.715,32.227,20.020,50.293,0
213145.977,20.508,31.250,31.250,15.137,61.035,0
213145.981,23.926,24.902,32.227,23.926,56.152,0
213145.985,28.809,27.344,39.062,28.809,48.828,0
213145.988,30.273,32.227,37.598,26.367,38.086,0
213145.992,20.996,30.762,31.250,21.973,54.199,0
213145.996,19.043,33.203,35.645,26.855,52.246,0
213146.000,21.484,35.156,36.133,31.738,21.484,0
213146.004,16.602,32.227,34.180,30.273,50.293,0
213146.008,14.648,32.715,36.133,31.250,78.125,0
213146.012,15.137,35.645,39.551,38.086,52.246,0
213146.016,13.184,32.715,38.086,30.273,25.879,0
213146.020,14.648,28.809,35.645,21.484,19.531,0
213146.024,19.043,28.320,38.574,29.785,32.227,0
213146.027,22.949,31.738,34.180,35.645,53.223,0
213146.031,24.902,32.715,30.762,35.645,52.246,0
213146.035,30.273,33.203,35.156,39.062,48.828,0
213146.039,30.273,31.738,37.598,37.109,50.781,0
213146.043,23.438,27.832,34.180,30.273,39.062,0
213146.047,18.066,29.785,29.785,30.273,58.594,0
213146.051,18.555,32.227,32.227,32.715,76.660,0
213146.055,15.625,32.715,30.762,34.668,56.641,0
213146.059,14.648,30.273,24.902,29.785,41.992,0
213146.063,18.555,31.250,28.320,17.090,17.090,0
213146.067,20.508,35.156,34.668,20.508,29.297,0
213146.070,23.438,36.621,35.156,34.668,60.547,0
213146.074,23.438,36.621,35.645,27.832,51.758,0
213146.078,29.297,38.086,36.133,24.414,34.180,0
213146.082,30.273,36.133,37.109,29.785,40.039,0
213146.086,25.391,31.738,31.738,25.879,51.758,0
213146.090,28.320,32.715,30.762,24.902,40.527,0
213146.094,32.227,33.203,29.785,26.855,9.766,0
213146.098,27.832,29.297,24.902,22.949,20.508,0
213146.102,23.438,28.809,25.391,15.625,40.039,0
213146.106,26.855,37.109,24.414,13.672,4.883,0
213146.110,23.438,38.086,19.043,8.301,20.508,0
213146.113,21.973,35.645,24.414,20.508,53.223,0
213146.117,23.438,38.086,27.832,29.297,12.695,0
213146.121,20.996,37.598,22.949,21.973,23.438,0
213146.125,18.066,36.133,25.391,20.996,32.227,0
213146.129,19.043,36.133,28.320,22.949,33.203,0
213146.133,18.555,37.598,24.902,19.043,37.598,0
213146.137,17.578,36.133,26.367,17.090,-6.836,0
213146.141,18.555,38.086,29.785,22.461,27.832,0
213146.145,18.066,33.203,30.273,25.879,52.246,0
213146.149,29.297,30.762,32.227,37.598,24.902,0
213146.152,38.086,34.668,31.738,48.340,2.441,0
213146.156,23.438,31.250,29.785,30.273,0.977,0
213146.160,9.766,28.320,32.227,13.184,43.457,0
213146.164,14.160,31.250,28.809,15.625,32.227,0
213146.168,17.578,35.645,22.949,11.230,-6.836,0
213146.172,15.625,35.645,25.879,12.695,-11.719,0
213146.176,15.137,35.156,26.855,20.508,2.441,0
213146.180,21.484,34.668,27.344,19.043,11.230,0
213146.184,27.344,34.180,32.715,22.949,4.395,0
213146.188,28.320,35.156,33.203,28.809,37.598,0
213146.192,21.484,33.203,30.273,22.949,62.988,0
213146.195,11.719,29.297,26.367,18.066,49.805,0
213146.199,14.160,28.809,29.297,28.809,18.066,0
213146.203,16.113,30.273,34.180,27.344,14.648,0
213146.207,15.137,35.645,35.156,21.484,47.852,0
213146.211,19.043,36.621,36.133,24.414,3.418,0
213146.215,19.043,33.203,38.086,22.949,-4.883,0
213146.219,13.672,25.879,31.250,18.066,41.992,0
213146.223,10.742,21.484,25.879,21.973,21.484,0
213146.227,11.230,25.391,28.320,24.902,-10.742,0
213146.231,12.207,28.320,27.832,23.438,-7.324,0
213146.235,15.625,30.762,31.250,25.391,19.531,0
213146.238,19.043,32.715,31.250,23.438,17.578,0
213146.242,17.578,32.715,29.297,23.438,6.348,0
213146.246,14.648,29.785,31.738,24.414,-20.020,0
213146.250,13.184,27.344,35.156,25.391,-7.812,0
213146.254,16.602,27.832,34.668,28.809,19.531,0
213146.258,17.090,27.344,21.484,23.438,2.441,0
213146.262,17.578,27.832,17.578,31.250,29.785,0
213146.266,15.625,27.832,26.855,33.691,87.891,0
213146.270,20.020,32.227,23.926,36.621,79.590,0
213146.274,26.367,33.203,17.578,30.762,67.871,0
213146.277,34.668,29.785,26.367,30.273,69.336,0
213146.281,33.691,32.715,35.645,51.758,44.922,0
213146.285,13.184,33.203,31.738,28.320,50.781,0
213146.289,12.695,31.250,27.832,17.090,40.527,0
213146.293,19.043,27.832,36.133,23.926,33.203,0
213146.297,15.625,26.367,38.086,22.949,50.781,0
213146.301,16.113,26.855,31.738,21.973,21.973,0
213146.305,21.973,28.809,35.645,10.254,-18.066,0
213146.309,22.949,31.738,40.527,20.996,39.551,0
213146.313,25.879,37.598,40.039,38.574,88.379,0
213146.317,32.227,43.945,39.062,40.039,73.242,0
213146.320,36.133,42.969,35.645,36.133,90.332,0
213146.324,30.273,33.691,36.133,28.320,87.891,1
213146.328,22.949,29.785,36.133,22.949,44.922,0
213146.332,25.391,31.738,32.715,24.902,35.645,0
213146.336,24.902,30.273,34.180,24.902,71.777,0
213146.340,23.926,25.879,32.715,23.438,104.004,0
213146.344,28.320,26.855,30.762,24.902,68.848,0
213146.348,33.691,34.180,29.785,25.879,2.441,0
213146.352,36.133,34.180,29.785,32.227,22.461,0
213146.356,33.691,33.691,33.691,36.133,95.703,0
213146.360,26.855,35.156,37.109,34.180,37.598,0
213146.363,29.785,35.156,29.785,37.598,8.301,0
213146.367,34.180,32.227,27.832,38.574,66.406,0
213146.371,29.297,27.832,37.109,34.180,46.875,0
213146.375,21.484,22.949,40.039,31.250,25.391,0
213146.379,21.484,20.508,36.621,30.273,42.969,0
213146.383,28.320,27.344,40.039,34.668,47.363,0
213146.387,27.344,30.762,38.574,37.109,39.551,0
213146.391,22.949,28.809,34.180,33.203,49.316,0
213146.395,16.602,30.762,35.645,29.297,90.820,0
213146.399,14.160,34.668,34.180,27.832,63.965,0
213146.402,17.578,31.738,32.227,27.832,3.906,0
213146.406,16.113,31.250,30.762,17.090,-8.789,0
213146.410,19.531,34.668,31.738,13.184,-13.672,0
213146.414,27.344,33.203,34.180,28.809,-1.953,0
213146.418,37.598,34.180,39.551,44.434,-0.977,0
213146.422,52.734,41.992,43.945,62.012,23.926,0
213146.426,44.434,43.945,38.086,51.758,58.594,0
213146.430,19.531,33.203,26.855,24.902,52.246,0
213146.434,16.602,30.762,27.344,33.691,31.250,0
213146.438,11.230,31.738,31.738,25.879,-36.621,0
213146.442,7.812,28.809,33.691,13.672,-84.473,0
213146.445,14.160,33.203,34.180,28.320,6.348,0
213146.449,14.648,34.668,26.367,28.320,60.547,0
213146.453,17.090,34.180,29.297,26.367,52.246,0
213146.457,21.484,37.109,33.203,35.645,60.547,0
213146.461,27.344,38.574,36.133,41.016,38.086,0
213146.465,31.738,35.645,36.133,34.668,8.789,0
213146.469,35.156,33.203,35.156,36.621,20.996,0
213146.473,33.203,31.738,37.598,36.621,47.852,0
213146.477,34.668,33.691,36.133,29.785,26.855,0
213146.481,40.039,38.086,34.180,35.156,-30.762,0
213146.485,41.504,41.504,38.574,32.227,-68.359,0
213146.488,33.691,41.504,38.086,28.320,-33.203,0
213146.492,25.391,32.715,31.250,27.832,-41.016,0
213146.496,31.250,33.203,30.273,28.320,-45.410,0
213146.500,36.621,40.039,32.715,32.227,-30.762,0
213146.504,30.762,37.598,32.715,34.668,-20.508,0
213146.508,34.180,31.738,36.133,39.062,-5.371,0
213146.512,40.527,33.691,41.504,40.527,8.301,0
213146.516,34.668,40.527,41.016,36.133,45.410,0
213146.520,27.832,40.527,40.039,33.691,47.852,0
213146.524,18.555,33.691,36.621,30.762,69.336,0
213146.527,15.625,28.320,33.691,31.250,99.609,0
213146.531,17.090,26.367,33.203,27.344,94.727,0
213146.535,20.508,28.809,36.621,23.926,81.543,0
213146.539,21.973,34.180,34.180,23.926,83.008,0
213146.543,10.742,34.668,28.320,18.555,81.543,0
213146.547,9.277,33.203,29.785,18.066,58.594,0
213146.551,11.719,34.180,30.273,21.484,75.195,0
213146.555,15.137,31.250,33.203,20.996,76.660,0
213146.559,20.996,32.715,33.691,18.555,41.992,0
213146.563,22.461,34.668,31.738,26.367,53.711,0
213146.567,25.391,32.227,36.621,32.227,21.484,0
213146.570,25.391,33.691,34.180,27.832,9.277,0
213146.574,24.902,37.109,30.762,25.879,38.574,0
213146.578,28.809,38.574,33.203,30.273,38.086,0
213146.582,27.832,35.645,26.855,32.227,39.062,0
213146.586,24.902,28.320,25.879,24.414,26.367,0
213146.590,21.973,24.902,27.344,22.461,6.836,0
213146.594,17.090,28.320,23.926,24.902,13.672,0
213146.598,16.113,30.762,25.391,27.832,21.484,0
213146.602,19.531,32.715,28.320,26.367,3.418,0
213146.606,23.438,35.645,32.715,30.273,36.133,0
213146.610,19.531,34.668,37.109,27.832,66.895,0
213146.613,13.672,34.180,33.691,18.555,58.594,0
213146.617,20.996,35.156,30.762,19.531,90.820,0
213146.621,22.461,37.598,30.762,21.484,96.680,0
213146.625,18.066,37.109,23.438,22.461,46.387,0
213146.629,18.555,33.691,20.996,31.250,63.965,0
213146.633,25.391,36.133,27.832,36.133,28.320,0
213146.637,27.832,35.156,34.180,34.668,13.672,0
213146.641,23.438,34.180,34.668,38.574,26.367,0
213146.645,25.391,38.574,29.297,40.527,-1.953,0
213146.649,22.461,37.598,28.320,33.691,9.766,0
213146.652,15.137,36.133,23.926,28.809,4.395,0
213146.656,17.090,37.109,17.090,29.297,29.785,0
213146.660,22.461,36.621,19.531,23.926,36.133,0
213146.664,22.949,34.180,23.438,25.391,3.418,0
213146.668,21.484,33.691,30.273,32.715,10.254,0
213146.672,18.555,34.668,31.738,26.855,7.324,0
213146.676,16.113,31.250,29.785,20.508,4.883,0
213146.680,20.020,28.320,35.156,23.438,9.766,0
213146.684,20.508,31.250,32.227,26.367,78.125,0
213146.688,14.648,35.645,20.020,20.508,114.258,0
213146.692,16.602,37.109,21.484,23.926,88.379,0
213146.695,24.902,40.527,26.367,30.762,90.820,0
213146.699,23.438,38.574,30.762,29.785,52.734,0
213146.703,19.531,29.785,30.762,26.855,26.367,0
213146.707,23.926,28.809,28.809,24.902,32.715,0
213146.711,29.785,31.738,31.738,33.203,27.344,0
213146.715,25.391,36.133,31.250,34.180,20.508,0
213146.719,19.531,36.621,33.203,29.297,24.902,0
213146.723,18.555,38.086,36.133,20.996,-24.902,0
213146.727,13.184,38.574,35.156,8.301,-33.203,0
213146.731,3.418,33.203,30.762,15.625,-3.906,0
213146.735,-4.395,28.809,28.320,17.578,-46.875,0
213146.738,-1.953,31.250,31.738,17.578,3.906,0
213146.742,2.930,32.227,27.832,22.461,54.688,0
213146.746,3.906,29.785,22.461,20.508,2.441,0
213146.750,3.418,30.762,26.367,18.555,-52.246,0
213146.754,7.324,38.086,28.320,23.926,-41.992,0
213146.758,13.184,37.109,27.832,29.297,-6.348,0
213146.762,11.230,28.320,24.902,21.973,22.949,0
213146.766,10.742,28.320,23.926,9.277,-2.441,0
213146.770,14.648,31.738,21.973,3.906,-40.039,0
213146.774,20.508,36.133,21.973,17.578,21.973,0
213146.777,24.414,37.109,25.391,26.367,69.824,0
213146.781,25.879,36.133,22.949,22.461,61.035,0
213146.785,28.320,34.668,24.414,22.949,41.016,0
213146.789,28.320,31.250,29.297,26.855,31.250,0
213146.793,25.879,29.785,35.645,28.320,32.227,0
213146.797,24.902,32.715,33.691,23.438,16.113,0
213146.801,27.832,35.156,27.344,24.414,26.855,0
213146.805,26.367,37.109,29.297,27.344,55.664,0
213146.809,17.090,35.645,28.809,20.996,15.137,0
213146.813,15.137,32.715,27.344,14.160,-18.066,0
213146.817,10.254,34.668,29.297,16.602,17.578,0
213146.820,9.277,29.785,28.809,20.996,57.617,0
213146.824,10.742,22.949,31.250,20.996,31.250,0
213146.828,7.324,21.484,30.273,26.367,9.766,0
213146.832,7.812,22.461,29.785,27.344,-2.930,0
213146.836,6.348,26.367,32.715,27.344,13.184,0
213146.840,1.465,29.297,29.785,25.879,50.293,0
213146.844,3.906,31.738,27.344,28.320,34.668,0
213146.848,10.742,35.645,27.832,34.668,62.988,0
213146.852,14.160,33.203,33.203,36.621,83.008,0
213146.856,13.672,30.762,29.785,26.855,83.008,0
213146.860,12.207,30.762,25.391,13.184,43.945,0
213146.863,11.719,29.785,30.273,17.578,14.160,0
213146.867,20.996,35.156,33.691,25.391,30.273,0
213146.871,27.344,39.551,33.691,22.461,38.574,0
213146.875,22.461,35.645,31.250,21.484,28.809,0
213146.879,19.531,34.668,28.809,28.320,22.949,0
213146.883,22.949,36.621,26.855,32.227,31.738,0
213146.887,27.832,34.180,33.203,29.297,42.480,0
213146.891,25.391,34.180,31.250,20.996,69.336,0
213146.895,25.391,36.621,24.902,18.066,51.270,0
213146.899,31.738,39.062,30.273,27.344,32.715,0
213146.902,26.367,39.062,32.227,29.785,55.664,0
213146.906,19.043,36.133,28.809,24.902,59.570,0
213146.910,20.996,35.156,29.785,30.273,32.715,1
213146.914,20.020,34.180,31.738,33.203,44.922,0
213146.918,21.484,33.203,31.738,22.949,48.340,0
213146.922,19.043,32.715,31.250,19.531,46.387,0
213146.926,14.160,31.738,32.715,29.785,81.055,0
213146.930,17.090,33.691,32.227,25.391,45.898,0
213146.934,15.137,31.738,30.762,12.695,35.156,0
213146.938,15.625,23.926,31.250,14.648,43.945,0
213146.942,17.578,23.926,31.738,20.996,64.941,0
213146.945,15.625,29.785,28.809,17.090,85.449,0
213146.949,24.414,30.762,29.297,20.996,41.992,0
213146.953,32.227,32.227,33.203,30.762,28.320,0
213146.957,31.738,33.203,33.203,32.715,60.547,0
213146.961,28.320,29.297,34.180,30.762,33.691,0
213146.965,26.855,32.715,35.645,30.273,29.297,0
213146.969,34.180,35.156,38.574,44.922,94.727,0
213146.973,30.762,28.320,36.621,39.551,96.191,0
213146.977,24.414,22.461,32.227,21.484,48.340,0
213146.981,30.273,25.879,33.691,25.391,58.594,0
213146.985,30.762,31.250,28.320,32.715,76.172,0
213146.988,29.785,33.203,25.391,30.273,35.156,0
213146.992,28.320,32.227,29.297,28.320,27.832,0
213146.996,19.531,31.738,28.809,29.297,13.184,0
213147.000,20.996,31.250,28.809,27.832,-24.414,0
213147.004,26.367,27.344,29.785,23.926,-18.066,0
213147.008,27.832,29.297,28.320,18.555,-57.129,0
213147.012,27.832,27.344,30.762,22.461,-26.855,0
213147.016,22.461,25.879,34.180,30.762,59.570,0
213147.020,16.113,33.203,24.902,25.391,48.340,0
213147.024,15.625,36.133,20.020,18.555,46.387,0
213147.027,17.090,30.762,23.926,17.578,27.832,0
213147.031,19.043,31.250,26.367,19.043,3.418,0
213147.035,16.602,32.227,29.785,22.461,13.184,0
213147.039,15.625,26.855,32.227,22.461,-4.883,0
213147.043,19.531,25.879,31.250,19.043,-10.254,0
213147.047,18.555,31.738,29.297,22.949,-1.465,0
213147.051,24.902,39.551,31.250,20.020,-15.625,0
213147.055,29.785,38.574,34.180,16.113,-12.207,0
213147.059,26.367,33.691,31.250,25.391,17.090,0
213147.063,27.344,33.691,33.203,36.133,30.762,0
213147.067,28.809,30.762,34.180,33.203,19.531,0
213147.070,30.273,28.809,31.250,27.344,17.090,0
213147.074,30.273,34.668,33.203,32.715,18.555,0
213147.078,27.344,33.203,32.715,30.273,-17.090,0
213147.082,26.855,34.668,25.391,25.879,-36.621,0
213147.086,26.855,36.133,23.926,24.902,-34.180,0
213147.090,28.320,35.645,29.785,24.414,-39.062,0
213147.094,33.203,41.992,33.203,30.762,-40.039,0
213147.098,35.645,44.434,33.203,28.809,9.766,0
213147.102,32.227,41.504,31.738,24.414,76.660,0
213147.106,35.156,42.969,29.297,31.250,122.559,0
213147.110,36.621,41.504,27.832,30.762,114.746,0
213147.113,31.250,38.574,26.855,20.996,37.109,0
213147.117,27.832,38.574,27.832,23.438,19.531,0
213147.121,30.762,35.645,29.297,30.273,34.668,0
213147.125,31.738,35.645,29.785,27.344,29.297,0
213147.129,33.691,39.062,30.762,29.785,27.832,0
213147.133,38.086,41.992,31.738,35.156,52.246,0
213147.137,35.156,41.992,34.180,37.109,52.734,0
213147.141,35.645,40.039,30.762,31.250,-1.465,0
213147.145,38.086,36.621,29.297,28.320,-13.184,0
213147.149,34.668,36.133,33.203,39.062,50.293,0
213147.152,36.133,36.621,33.203,38.086,57.617,0
213147.156,40.527,35.156,35.156,29.785,17.090,0
213147.160,37.598,34.668,37.109,29.785,18.066,0
213147.164,30.273,30.762,38.574,29.785,59.570,0
213147.168,30.762,28.809,36.621,30.273,17.090,0
213147.172,31.738,30.273,31.738,30.762,-13.672,0
213147.176,28.320,32.227,28.320,28.809,26.855,0
213147.180,26.367,31.250,27.832,29.297,26.855,0
213147.184,27.832,29.297,31.738,31.250,31.738,0
213147.188,24.902,29.297,30.762,23.438,42.480,0
213147.192,22.949,29.297,33.691,22.461,53.711,0
213147.195,26.855,33.203,33.203,26.855,71.289,0
213147.199,22.949,31.250,26.855,23.926,43.457,0
213147.203,16.602,25.879,28.809,17.578,36.133,0
213147.207,17.090,27.832,29.785,12.207,63.965,0
213147.211,18.066,28.809,29.785,10.742,57.129,0
213147.215,20.996,31.738,29.785,16.602,50.293,0
213147.219,21.973,36.621,33.203,20.996,69.824,0
213147.223,15.625,39.062,32.715,11.230,65.430,0
213147.227,15.137,35.645,28.320,11.230,29.785,0
213147.231,18.555,31.738,29.297,18.555,-17.578,0
213147.235,15.137,30.762,27.344,19.531,-35.645,0
213147.238,15.625,29.785,29.297,28.809,34.668,0
213147.242,16.113,31.738,35.645,35.156,92.773,0
213147.246,12.695,32.715,37.598,30.273,61.523,0
213147.250,12.695,30.762,39.062,33.691,44.922,0
213147.254,9.766,29.785,35.645,36.621,55.664,0
213147.258,10.254,32.715,29.785,29.785,45.898,0
213147.262,8.301,30.762,30.273,26.855,53.223,0
213147.266,7.812,26.367,32.715,25.391,55.176,0
213147.270,12.207,29.785,35.645,29.785,42.480,0
213147.274,10.254,31.738,34.668,34.180,46.387,0
213147.277,13.672,31.250,32.715,32.715,41.992,0
213147.281,20.508,31.738,33.691,35.645,35.156,0
213147.285,18.555,33.203,36.133,35.156,47.363,0
213147.289,14.648,31.250,34.180,23.926,18.555,0
213147.293,12.695,27.344,26.855,11.719,-2.930,0
213147.297,12.207,25.391,25.879,11.230,57.617,0
213147.301,13.672,25.879,27.832,17.090,62.012,0
213147.305,13.184,27.344,29.785,14.160,24.902,0
213147.309,12.207,28.320,29.785,14.160,37.109,0
213147.313,18.066,25.879,30.762,26.367,68.359,0
213147.317,25.879,26.855,39.062,39.062,77.148,0
213147.320,9.766,33.203,37.598,23.926,41.992,0
213147.324,-3.418,34.180,27.832,9.277,-2.930,0
213147.328,6.836,30.762,30.762,17.090,6.348,0
213147.332,4.883,29.785,34.668,16.113,7.324,0
213147.336,3.418,31.250,33.691,13.184,-34.180,0
213147.340,12.695,31.738,34.180,12.207,-54.199,0
213147.344,11.230,28.320,33.691,17.090,-51.758,0
213147.348,12.695,28.809,34.180,26.367,-33.203,0
213147.352,18.555,32.715,34.668,26.367,4.395,0
213147.356,10.742,25.391,29.297,21.484,17.090,0
213147.360,4.395,18.555,28.809,17.578,-1.953,0
213147.363,11.719,23.926,30.762,20.996,6.836,0
213147.367,20.996,27.832,32.227,26.367,61.523,0
213147.371,23.438,29.297,29.785,26.367,40.527,0
213147.375,29.785,28.320,31.250,24.902,15.625,0
213147.379,30.273,28.809,34.180,26.855,70.801,0
213147.383,32.227,31.738,33.691,31.738,49.805,0
213147.387,36.133,37.109,31.250,37.109,19.531,0
213147.391,33.691,37.109,33.203,32.227,39.551,0
213147.395,36.621,35.645,39.062,28.809,45.898,0
213147.399,41.016,33.691,38.086,30.762,32.227,0
213147.402,36.621,29.785,38.086,33.691,21.973,0
213147.406,29.297,26.855,38.574,33.203,47.852,0
213147.410,29.297,30.762,33.203,31.250,49.805,0
213147.414,35.645,37.109,30.762,37.598,57.617,0
213147.418,38.086,36.621,34.180,37.598,64.453,0
213147.422,36.133,37.109,33.691,31.250,62.988,0
213147.426,41.016,37.598,36.133,34.668,65.430,0
213147.430,44.434,41.504,36.133,34.668,18.066,0
213147.434,42.480,43.945,33.691,41.992,33.203,0
213147.438,38.574,37.109,33.203,41.504,25.879,0
213147.442,35.156,33.203,32.227,29.785,9.277,0
213147.445,38.574,30.762,30.762,27.832,17.578,0
213147.449,36.621,31.738,28.320,32.715,40.039,0
213147.453,33.203,36.621,31.250,32.715,43.945,0
213147.457,35.156,36.621,32.227,30.762,12.695,0
213147.461,34.180,35.156,28.809,30.762,-13.672,0
213147.465,26.855,35.156,28.320,28.320,-26.367,0
213147.469,20.020,34.180,29.785,28.809,-6.348,0
213147.473,18.555,32.715,28.320,16.113,-45.898,0
213147.477,20.020,31.250,25.879,7.324,-56.641,0
213147.481,19.531,25.391,26.367,15.137,13.672,0
213147.485,19.531,23.438,29.297,18.555,45.410,0
213147.488,21.973,25.391,29.785,20.996,11.719,0
213147.492,21.973,24.414,33.203,25.879,21.973,0
213147.496,19.043,24.902,38.086,24.902,47.363,0
213147.500,19.531,30.273,32.715,27.832,55.176,0
213147.504,22.949,35.156,32.715,29.297,34.668,0
213147.508,22.461,34.668,36.621,24.414,50.293,0
213147.512,26.855,32.715,40.039,28.320,58.594,0
213147.516,26.367,31.250,40.039,27.832,25.879,0
213147.520,24.902,27.832,34.180,24.414,-0.977,0
213147.524,31.250,24.414,35.645,32.715,-9.277,0
213147.527,34.668,25.391,37.598,37.598,25.391,0
213147.531,30.762,26.367,34.180,38.086,25.391,0
213147.535,25.391,28.809,34.180,36.133,22.949,0
213147.539,26.367,31.250,37.109,38.574,60.059,0
213147.543,26.367,32.715,33.691,38.574,77.637,0
213147.547,22.949,33.691,30.273,35.156,77.148,0
213147.551,22.461,35.156,29.297,35.156,94.238,0
213147.555,21.484,35.645,30.273,33.203,91.309,0
213147.559,19.531,35.156,34.668,33.691,52.734,1
213147.563,22.949,39.551,31.250,30.762,49.805,0
213147.567,23.438,37.598,25.879,24.414,49.805,0
213147.570,23.438,35.645,25.391,29.785,61.035,0
213147.574,30.762,39.551,27.344,34.668,46.875,0
213147.578,34.180,42.480,29.785,32.227,40.039,0
213147.582,34.180,46.387,32.715,33.691,81.055,0
213147.586,30.273,48.340,30.273,31.738,98.145,0
213147.590,23.438,41.504,21.484,20.508,65.918,0
213147.594,24.414,36.621,21.484,22.949,38.086,0
213147.598,25.391,37.109,22.461,27.832,41.016,0
213147.602,25.391,37.109,21.484,21.973,35.156,0
213147.606,26.855,36.621,24.414,20.508,24.902,0
213147.610,23.926,36.621,27.832,17.578,0.488,0
213147.613,22.461,39.551,26.855,17.578,18.066,0
213147.617,24.414,40.039,31.250,20.996,61.523,0
213147.621,20.996,34.180,35.156,20.020,73.730,0
213147.625,22.461,29.785,32.715,19.531,76.660,0
213147.629,21.484,28.320,32.715,19.531,74.219,0
213147.633,14.648,27.832,30.762,16.602,49.805,0
213147.637,12.695,28.320,30.762,13.184,56.641,0
213147.641,12.695,29.785,28.809,8.301,91.797,0
213147.645,21.973,35.156,30.273,15.625,82.520,0
213147.649,26.855,35.645,32.227,21.484,59.082,0
213147.652,16.113,28.809,26.855,17.578,52.246,0
213147.656,12.207,26.855,22.949,16.113,44.434,0
213147.660,14.160,26.855,22.461,17.090,49.805,0
213147.664,21.484,28.320,26.855,21.973,64.453,0
213147.668,22.949,29.297,30.762,16.113,24.414,0
213147.672,17.578,22.461,28.320,15.137,1.465,0
213147.676,18.555,23.438,28.809,30.273,39.551,0
213147.680,20.020,31.738,30.762,30.762,17.578,0
213147.684,22.461,33.203,29.297,22.461,-17.578,0
213147.688,20.020,31.250,28.809,22.949,17.578,0
213147.692,16.602,33.691,30.273,25.391,11.719,0
213147.695,17.578,34.180,33.203,23.926,-11.230,0
213147.699,18.555,32.715,32.227,24.902,-3.418,0
213147.703,23.926,34.668,32.227,32.227,-5.371,0
213147.707,29.297,39.062,35.645,41.016,0.000,0
213147.711,29.785,42.969,37.109,34.668,-5.371,0
213147.715,22.461,40.039,27.832,14.648,-8.301,0
213147.719,15.625,32.715,21.484,14.160,-3.906,0
213147.723,9.277,28.809,20.020,13.184,-23.926,0
213147.727,8.789,27.832,13.672,10.742,18.555,0
213147.731,18.555,30.273,15.625,20.020,48.828,0
213147.735,26.367,36.621,23.926,24.414,32.227,0
213147.738,26.855,40.039,26.855,26.855,13.184,0
213147.742,29.297,37.598,26.367,34.668,-14.160,0
213147.746,36.133,36.621,33.691,38.086,-3.418,0
213147.750,34.668,38.086,35.156,36.133,36.621,0
213147.754,32.227,38.574,28.320,31.250,35.645,0
213147.758,50.293,41.992,30.273,39.062,13.672,0
213147.762,48.340,35.645,37.109,41.016,23.926,0
213147.766,22.949,29.297,35.645,21.484,7.324,0
213147.770,19.531,33.203,34.180,22.461,11.719,0
213147.774,21.973,33.691,36.133,22.461,28.809,0
213147.777,16.113,31.250,36.621,14.160,55.664,0
213147.781,15.137,28.809,34.668,17.578,71.289,0
213147.785,19.043,31.738,35.645,18.555,82.031,0
213147.789,19.043,33.203,31.738,17.090,62.500,0
213147.793,24.414,34.180,30.273,31.250,60.547,0
213147.797,31.738,33.203,35.156,41.504,128.418,0
213147.801,25.879,31.738,33.691,31.250,81.543,0
213147.805,23.926,31.250,37.109,31.250,21.484,0
213147.809,30.762,33.203,39.551,41.992,26.855,0
213147.813,26.367,30.273,33.691,43.945,25.879,0
213147.817,22.461,27.832,31.250,39.551,36.133,0
213147.820,27.344,33.691,32.227,32.715,36.133,0
213147.824,31.250,33.691,32.715,30.762,54.199,0
213147.828,32.227,33.203,34.668,31.738,45.898,0
213147.832,30.762,29.297,37.598,31.250,41.016,0
213147.836,30.273,30.273,37.598,31.738,37.109,0
213147.840,37.109,41.504,37.598,38.574,4.883,0
213147.844,42.969,43.457,38.574,41.504,9.277,0
213147.848,40.039,38.574,36.621,31.738,-23.926,0
213147.852,39.062,35.645,28.320,25.879,4.395,0
213147.856,40.527,34.668,26.855,36.133,53.223,0
213147.860,40.527,32.715,29.785,39.062,-3.418,0
213147.863,36.621,33.203,31.250,26.855,-30.762,0
213147.867,31.250,32.715,33.203,28.809,-3.418,0
213147.871,25.879,29.297,29.785,26.855,39.551,0
213147.875,21.973,28.320,34.180,21.484,48.828,0
213147.879,19.531,29.785,31.738,23.438,12.695,0
213147.883,16.602,28.809,28.809,22.461,16.602,0
213147.887,13.184,28.809,34.668,26.367,20.996,0
213147.891,13.672,32.715,35.156,19.043,-4.395,0
213147.895,16.602,35.645,36.133,13.184,3.418,0
213147.899,18.555,35.645,36.133,20.996,7.812,0
213147.902,23.926,35.645,32.227,22.461,19.043,0
213147.906,28.809,38.574,28.320,22.949,48.340,0
213147.910,31.250,39.062,32.227,24.414,30.273,0
213147.914,28.320,32.227,30.762,23.926,30.273,0
213147.918,23.926,26.855,27.344,24.414,21.973,0
213147.922,21.484,29.785,30.273,22.461,2.441,0
213147.926,27.832,33.203,31.250,25.391,65.918,0
213147.930,41.016,33.691,31.738,28.320,109.863,0
213147.934,43.945,31.738,30.762,27.832,84.961,0
213147.938,41.016,33.203,25.391,21.973,40.039,0
213147.942,43.945,38.574,32.227,26.855,41.992,0
213147.945,47.852,40.039,36.621,39.062,37.109,0
213147.949,45.410,34.668,31.250,35.156,26.367,0
213147.953,43.457,34.668,30.762,38.574,3.418,0
213147.957,41.992,34.668,32.715,43.457,-20.508,0
213147.961,36.133,32.715,37.109,32.715,13.184,0
213147.965,36.133,33.203,37.109,28.809,24.414,0
213147.969,34.180,29.785,35.156,31.738,44.434,0
213147.973,26.855,26.855,33.691,21.484,92.773,0
213147.977,25.879,28.320,32.715,26.367,95.215,0
213147.981,27.832,28.320,33.691,30.762,34.180,0
213147.985,28.320,27.832,38.574,21.484,8.789,0
213147.988,24.414,28.320,40.527,29.785,51.270,0
213147.992,22.461,27.832,36.621,37.598,36.621,0
213147.996,21.973,30.762,36.133,31.738,22.461,0
213148.000,26.855,32.227,38.086,27.344,54.688,0
213148.004,30.762,27.832,32.715,28.809,61.035,0
213148.008,29.297,28.809,32.227,28.320,32.227,0
213148.012,26.855,32.715,38.086,28.320,7.324,0
213148.016,27.344,30.762,41.992,33.691,-12.207,0
213148.020,31.250,30.273,40.039,39.551,3.906,0
213148.024,30.273,32.715,33.691,38.574,36.133,0
213148.027,26.855,31.250,33.203,31.250,27.344,0
213148.031,25.879,28.809,30.762,22.461,25.391,0
213148.035,25.391,27.832,27.832,23.438,52.734,0
213148.039,20.020,24.414,32.715,27.344,32.715,0
213148.043,19.043,27.832,36.621,20.508,-8.301,0
213148.047,26.855,31.738,36.621,20.020,23.926,0
213148.051,26.855,31.250,35.156,27.344,15.137,0
213148.055,26.367,35.156,29.785,26.855,-43.457,0
213148.059,31.250,38.574,27.832,24.902,-59.570,0
213148.063,34.180,42.480,30.762,25.879,-41.504,0
213148.067,32.227,41.992,35.645,26.855,-31.738,0
213148.070,29.297,37.598,33.203,20.020,-32.715,0
213148.074,21.484,35.156,31.250,17.090,-47.363,0
213148.078,21.484,34.668,36.133,25.879,13.672,0
213148.082,28.320,34.180,37.598,31.250,64.941,0
213148.086,26.367,38.574,31.250,28.320,-10.254,0
213148.090,23.926,39.062,31.250,22.461,-40.527,0
213148.094,28.320,36.133,30.273,21.973,-6.836,1
213148.098,31.738,40.527,22.461,24.902,15.625,0
213148.102,29.785,42.969,21.973,20.996,32.715,0
213148.106,27.344,37.598,22.949,14.648,33.691,0
213148.110,30.762,34.180,25.391,20.996,33.691,0
213148.113,35.645,36.133,28.320,23.926,42.969,0
213148.117,35.645,34.668,31.250,20.996,50.293,0
213148.121,34.668,32.227,35.156,22.949,40.039,0
213148.125,33.203,35.156,31.738,20.996,33.203,0
213148.129,32.227,33.203,28.809,21.973,12.207,0
213148.133,34.180,36.621,30.762,24.414,-11.719,0
213148.137,34.180,40.527,35.156,20.996,-10.742,0
213148.141,29.785,33.691,34.180,23.926,10.254,0
213148.145,33.691,29.297,33.691,37.598,2.441,0
213148.149,39.062,28.809,36.133,39.062,-11.230,0
213148.152,25.879,27.832,37.598,24.902,-8.301,0
213148.156,20.020,32.715,40.527,23.926,23.926,0
213148.160,24.414,31.738,41.992,31.250,51.270,0
213148.164,22.949,28.809,38.574,29.785,33.203,0
213148.168,21.484,26.855,34.668,24.902,9.766,0
213148.172,13.184,22.461,34.668,16.113,41.016,0
213148.176,6.348,23.438,34.668,8.789,65.918,0
213148.180,12.207,28.809,35.645,14.648,35.645,0
213148.184,23.926,34.180,38.086,29.785,45.410,0
213148.188,28.320,35.645,39.062,34.668,78.125,0
213148.192,23.926,29.785,33.203,22.949,76.660,0
213148.195,20.020,23.926,29.297,14.648,55.176,0
213148.199,15.625,26.367,28.809,15.625,76.660,0
213148.203,15.625,27.832,27.344,17.578,55.664,0
213148.207,19.531,26.855,30.762,19.531,21.484,0
213148.211,20.020,28.809,30.762,19.043,45.410,0
213148.215,21.484,31.250,33.203,28.809,94.238,0
213148.219,26.367,32.227,38.574,37.109,69.824,0
213148.223,27.832,35.645,33.691,25.879,-23.438,0
213148.227,31.738,41.504,27.344,28.809,8.301,0
213148.231,37.598,41.992,26.367,43.457,63.965,0
213148.235,34.668,37.598,33.203,41.504,46.387,0
213148.238,28.809,36.621,36.621,38.574,8.789,0
213148.242,24.414,39.551,36.133,40.039,12.695,0
213148.246,23.926,41.504,38.574,45.410,54.199,0
213148.250,23.438,37.598,37.598,45.898,46.875,0
213148.254,25.391,36.133,33.203,38.574,42.969,0
213148.258,25.391,38.574,28.320,35.156,54.199,0
213148.262,21.484,37.598,27.344,31.738,41.504,0
213148.266,20.996,34.180,32.227,25.879,9.277,0
213148.270,20.996,33.691,34.668,20.508,0.000,0
213148.274,21.973,36.133,34.180,28.320,23.438,0
213148.277,23.438,36.621,36.133,32.227,22.949,0
213148.281,21.484,36.133,37.109,29.785,-0.488,0
213148.285,20.508,35.156,36.133,31.738,2.930,0
213148.289,23.926,36.621,34.180,29.785,36.133,0
213148.293,30.273,38.574,30.762,31.738,45.410,0
213148.297,37.598,41.992,31.738,35.645,8.789,0
213148.301,37.598,42.480,34.180,27.344,17.578,0
213148.305,33.691,33.691,29.785,21.484,37.109,0
213148.309,34.180,31.738,30.762,24.902,25.879,0
213148.313,31.738,37.598,35.156,22.949,-2.930,0
213148.317,30.762,37.109,32.227,23.926,7.812,0
213148.320,33.203,32.227,30.762,34.180,60.059,0
213148.324,33.691,33.203,33.203,38.574,37.598,0
213148.328,33.691,33.691,33.691,37.109,9.277,0
213148.332,36.133,36.133,32.227,39.062,23.926,0
213148.336,33.691,40.527,32.227,38.574,35.645,0
213148.340,27.344,31.738,32.227,33.691,6.348,0
213148.344,27.344,24.902,33.691,37.598,-10.742,0
213148.348,28.809,30.273,39.551,40.039,8.301,0
213148.352,28.809,35.156,36.133,39.062,14.648,0
213148.356,30.273,34.180,31.250,31.250,-3.906,0
213148.360,20.020,27.344,28.320,19.043,-11.230,0
213148.363,17.090,24.902,26.855,25.391,33.203,0
213148.367,26.367,29.785,28.320,28.320,48.828,0
213148.371,28.320,32.715,28.320,23.438,16.602,0
213148.375,25.391,30.273,30.762,25.879,27.832,0
213148.379,26.367,29.297,37.598,29.297,50.781,0
213148.383,30.762,32.715,35.645,30.273,15.137,0
213148.387,31.250,34.668,30.762,29.785,2.930,0
213148.391,27.832,33.203,29.785,30.762,32.715,0
213148.395,28.809,32.715,27.832,32.715,49.805,0
213148.399,29.297,35.156,28.809,30.762,41.504,0
213148.402,31.250,39.062,31.250,32.227,38.574,0
213148.406,34.668,39.551,35.645,35.156,39.062,0
213148.410,32.227,41.992,35.645,33.691,41.016,0
213148.414,30.762,40.527,29.785,32.227,15.625,0
213148.418,24.414,33.691,20.996,25.391,-44.922,0
213148.422,20.020,31.250,19.043,20.508,-6.836,0
213148.426,21.484,35.645,26.855,25.391,77.637,0
213148.430,22.949,34.180,29.785,29.297,90.820,0
213148.434,27.832,29.297,32.227,36.133,46.387,0
213148.438,28.809,31.250,29.785,33.691,50.781,0
213148.442,25.391,33.203,20.508,21.484,76.172,0
213148.445,25.391,34.668,21.484,23.926,40.527,0
213148.449,28.809,38.086,27.832,28.809,16.602,0
213148.453,28.320,35.645,29.297,21.973,32.715,0
213148.457,26.855,34.668,29.297,24.902,26.367,0
213148.461,25.879,35.156,30.762,29.785,-13.184,0
213148.465,24.414,30.762,33.691,28.320,3.418,0
213148.469,24.414,29.785,37.109,36.133,81.055,0
213148.473,25.391,29.297,37.598,34.668,42.480,0
213148.477,24.414,27.344,31.250,27.344,-37.109,0
213148.481,24.902,26.855,31.250,30.762,-1.953,0
213148.485,18.555,25.879,32.227,31.250,3.418,0
213148.488,13.184,24.414,31.250,28.320,38.086,0
213148.492,16.113,26.855,32.227,25.391,68.848,0
213148.496,23.438,29.785,37.598,31.250,10.254,0
213148.500,25.391,28.809,39.551,31.250,25.879,0
213148.504,21.973,30.273,35.156,28.320,50.781,0
213148.508,22.949,31.738,32.715,28.320,10.254,0
213148.512,24.414,29.297,32.715,25.391,17.578,0
213148.516,23.926,26.367,35.156,33.203,39.062,0
213148.520,18.555,26.367,35.156,32.715,2.441,0
213148.524,18.066,25.879,37.598,23.926,-5.371,0
213148.527,21.973,27.832,36.621,23.438,32.227,0
213148.531,26.855,32.715,32.715,26.367,-13.184,0
213148.535,26.855,31.250,31.738,18.066,-44.434,0
213148.539,22.461,29.785,26.855,9.766,-3.418,0
213148.543,19.043,32.227,27.344,15.625,-8.301,0
213148.547,16.602,30.762,28.809,18.555,-0.977,0
213148.551,18.555,30.273,25.391,18.555,-11.230,0
213148.555,18.555,28.320,30.273,19.043,-37.598,0
213148.559,15.137,21.484,31.250,23.438,12.695,0
213148.563,17.578,25.391,26.855,27.832,51.758,0
213148.567,23.926,30.762,25.391,21.484,68.359,0
213148.570,25.391,30.273,24.902,15.137,39.551,0
213148.574,25.391,34.668,29.785,25.391,40.527,0
213148.578,29.297,37.598,30.273,32.715,63.965,0
213148.582,29.785,34.180,27.832,25.391,28.320,0
213148.586,29.297,35.156,28.320,21.484,28.320,0
213148.590,32.227,40.527,31.738,24.414,56.152,0
213148.594,37.598,43.945,29.785,33.691,51.758,0
213148.598,39.062,41.504,23.926,25.391,20.996,0
213148.602,32.227,32.715,22.461,10.742,4.883,0
213148.606,31.250,31.250,29.785,15.625,32.715,0
213148.610,35.156,40.527,35.156,18.066,41.992,0
213148.613,33.691,41.992,33.203,23.438,36.133,0
213148.617,35.645,39.551,31.250,29.785,28.809,0
213148.621,33.203,38.086,33.691,26.367,41.016,0
213148.625,23.926,34.668,31.250,19.531,47.363,0
213148.629,23.438,30.762,26.367,21.484,19.043,0
213148.633,27.832,31.250,29.785,32.227,12.695,0
213148.637,22.461,34.180,30.762,27.344,45.898,0
213148.641,15.625,30.273,32.715,16.113,38.086,0
213148.645,19.043,28.320,36.133,13.672,-14.160,0
213148.649,21.973,35.156,33.203,20.996,-0.488,0
213148.652,23.438,39.062,34.668,25.391,76.172,0
213148.656,21.484,31.738,29.785,17.578,59.570,0
213148.660,29.297,27.344,27.832,25.391,-2.930,0
213148.664,35.645,33.691,32.715,35.645,-7.812,0
213148.668,18.555,31.738,28.320,15.625,25.879,0
213148.672,6.348,26.367,24.902,7.324,48.340,0
213148.676,11.719,29.785,25.391,12.207,25.391,0
213148.680,14.648,30.273,28.320,12.207,26.855,0
213148.684,11.230,28.809,29.297,13.672,28.809,0
213148.688,13.672,30.273,32.715,7.324,-0.488,0
213148.692,16.602,34.180,29.785,6.348,-1.953,0
213148.695,18.066,35.156,21.973,15.625,21.484,0
213148.699,22.949,35.156,25.391,24.414,43.945,0
213148.703,24.902,32.715,28.320,26.855,54.688,0
213148.707,26.855,29.297,27.344,24.902,68.359,0
213148.711,26.855,29.297,24.414,24.414,47.852,0
213148.715,20.508,27.344,19.043,22.949,58.594,0
213148.719,18.066,24.902,27.344,21.484,56.152,0
213148.723,21.973,29.297,32.715,28.809,66.895,0
213148.727,24.414,34.180,28.320,33.691,90.820,0
213148.731,24.414,30.273,27.832,28.320,83.984,0
213148.735,22.461,27.344,29.297,20.996,55.176,0
213148.738,23.438,27.832,31.250,23.926,41.016,0
213148.742,26.367,29.297,27.344,29.785,52.246,0
213148.746,32.715,37.109,30.273,29.297,29.297,0
213148.750,38.086,41.504,32.715,34.668,25.879,0
213148.754,35.645,38.574,26.855,37.109,35.156,0
213148.758,34.668,40.039,28.809,34.668,25.391,0
213148.762,34.668,46.875,31.738,35.156,16.113,0
213148.766,31.250,43.457,30.273,41.992,20.508,0
213148.770,24.902,35.645,29.297,36.621,12.207,0
213148.774,20.508,30.273,30.762,24.414,-19.043,0
213148.777,21.973,31.738,34.180,28.320,-13.672,0
213148.781,25.879,37.598,36.621,40.527,-5.859,0
213148.785,21.484,36.621,30.273,38.086,-10.254,0
213148.789,19.043,36.621,31.250,23.926,-4.395,0
213148.793,23.438,37.598,31.738,18.555,-11.230,0
213148.797,21.973,31.738,30.762,20.996,20.508,0
213148.801,14.160,26.367,31.250,25.391,40.527,1
213148.805,14.160,28.320,27.344,26.367,-27.344,0
213148.809,16.113,27.344,30.762,24.902,-59.570,0
213148.813,10.742,23.926,26.367,15.625,8.789,0
213148.817,10.742,21.484,14.160,9.277,-6.348,0
213148.820,9.766,20.996,18.066,9.277,-37.109,0
213148.824,9.277,22.461,29.297,12.207,15.625,0
213148.828,14.648,26.855,32.227,22.949,30.762,0
213148.832,18.066,30.273,32.715,26.855,50.781,0
213148.836,18.066,25.879,28.809,18.066,33.691,0
213148.840,20.508,23.926,30.273,16.602,27.344,0
213148.844,21.484,25.391,33.691,27.832,64.453,0
213148.848,21.484,25.879,30.273,33.691,57.617,0
213148.852,23.926,27.344,30.273,29.785,59.082,0
213148.856,30.762,28.320,31.250,28.809,68.359,0
213148.860,30.762,30.762,32.715,33.203,52.246,0
213148.863,30.762,35.156,34.668,36.621,47.852,0
213148.867,32.227,31.250,39.551,39.062,41.504,0
213148.871,30.273,27.832,39.062,40.039,21.484,0
213148.875,27.344,30.762,31.738,39.551,31.738,0
213148.879,22.949,31.738,29.297,33.203,34.180,0
213148.883,20.996,28.809,29.297,24.414,-5.859,0
213148.887,17.090,24.902,29.785,21.484,23.926,0
213148.891,17.090,27.832,33.691,23.926,93.262,0
213148.895,18.555,30.762,33.203,24.414,54.199,0
213148.899,16.602,27.344,28.809,26.367,31.250,0
213148.902,17.578,27.832,29.297,26.367,68.359,0
213148.906,17.578,30.273,30.273,23.926,77.637,0
213148.910,16.113,32.715,24.902,19.531,40.039,0
213148.914,18.066,38.086,24.902,20.508,36.133,0
213148.918,19.043,41.504,25.391,26.855,62.500,0
213148.922,24.414,44.434,29.297,26.855,70.801,0
213148.926,22.949,40.039,33.691,19.531,76.660,0
213148.930,18.066,33.691,32.227,9.277,34.180,0
213148.934,20.996,32.227,33.691,16.602,25.879,0
213148.938,22.461,33.203,32.227,21.973,50.293,0
213148.942,20.508,37.109,25.391,21.484,66.895,0
213148.945,23.926,35.645,23.438,16.602,51.758,0
213148.949,30.762,34.180,28.809,23.438,62.500,0
213148.953,32.227,34.180,30.273,28.809,64.941,0
213148.957,31.738,33.203,28.809,25.879,55.664,0
213148.961,30.273,31.738,33.203,27.344,39.551,0
213148.965,27.344,32.227,31.250,26.367,9.766,0
213148.969,28.809,35.645,32.227,27.832,-4.395,0
213148.973,24.902,37.598,30.762,22.949,-25.391,0
213148.977,21.973,39.062,26.855,20.508,2.930,0
213148.981,18.066,33.203,24.902,22.461,41.992,0
213148.985,13.184,31.250,21.973,20.508,40.039,0
213148.988,11.230,31.738,24.902,18.066,50.293,0
213148.992,13.184,28.809,27.832,13.672,37.598,0
213148.996,15.625,29.297,26.367,10.742,28.809,0
213149.000,12.207,25.879,24.902,13.184,57.617,0
213149.004,17.090,24.902,27.832,15.625,87.891,0
213149.008,22.949,25.879,26.855,15.625,94.238,0
213149.012,24.902,27.832,30.762,20.020,71.777,0
213149.016,27.832,32.715,32.227,22.949,26.367,0
213149.020,33.203,36.621,31.738,23.926,9.277,0
213149.024,36.621,34.668,37.109,30.762,58.105,0
213149.027,30.762,29.785,34.180,26.855,74.707,0
213149.031,27.832,29.297,29.785,20.508,30.273,0
213149.035,32.227,31.738,35.645,26.367,19.043,0
213149.039,28.809,31.250,32.227,31.250,61.523,0
213149.043,24.902,30.762,29.785,32.227,76.172,0
213149.047,32.715,30.273,32.227,28.809,34.668,0
213149.051,33.691,31.250,32.715,26.855,34.180,0
213149.055,29.297,36.133,32.227,27.832,42.480,0
213149.059,30.762,36.621,30.273,25.879,18.066,0
213149.063,32.227,33.203,28.809,19.043,-36.621,0
213149.067,27.832,29.785,34.180,15.625,-52.734,0
213149.070,21.973,28.320,32.227,14.160,-11.230,0
213149.074,22.949,30.762,25.879,15.137,-15.137,0
213149.078,20.508,27.832,30.273,19.531,-17.578,0
213149.082,16.602,25.391,30.273,21.973,15.137,0
213149.086,16.602,27.344,28.809,23.438,16.602,0
213149.090,16.113,27.344,26.367,15.625,13.184,0
213149.094,15.625,26.855,25.879,11.719,13.672,0
213149.098,14.648,27.344,28.809,17.578,17.578,0
213149.102,15.137,31.738,30.273,18.066,51.758,0
213149.106,17.578,33.203,27.344,13.672,41.504,0
213149.110,24.902,33.203,25.391,19.043,19.043,0
213149.113,29.785,33.203,27.344,22.949,28.809,0
213149.117,30.762,33.691,32.715,21.973,9.766,0
213149.121,35.645,37.598,31.250,22.461,-0.488,0
213149.125,33.203,36.621,26.367,21.484,4.883,0
213149.129,32.715,34.668,34.180,30.273,-9.277,0
213149.133,32.715,35.645,36.133,38.086,28.809,0
213149.137,22.461,30.762,29.297,32.227,80.078,0
213149.141,19.531,23.926,30.273,26.855,75.684,0
213149.145,21.484,26.855,31.738,27.344,55.664,0
213149.149,21.973,34.180,30.273,27.832,57.129,0
213149.152,26.855,38.574,30.762,24.902,68.848,0
213149.156,31.250,41.992,26.855,22.949,66.406,0
213149.160,33.203,41.992,27.832,28.809,74.707,0
213149.164,30.762,40.527,33.203,33.691,44.434,0
213149.168,31.738,39.551,32.227,28.809,35.645,0
213149.172,33.691,37.598,30.273,35.156,55.664,0
213149.176,27.344,36.133,27.832,37.109,43.457,0
213149.180,32.715,33.691,30.762,30.762,6.348,0
213149.184,39.551,34.180,32.227,26.367,0.977,0
213149.188,33.691,37.598,28.809,23.438,33.203,0
213149.192,33.691,36.133,27.344,30.762,75.195,0
213149.195,34.668,32.227,32.227,36.133,52.734,0
213149.199,30.762,33.691,34.668,33.691,20.996,0
213149.203,27.832,34.180,30.273,35.156,26.855,0
213149.207,35.156,32.715,33.691,48.340,54.199,0
213149.211,39.551,36.621,35.156,50.781,14.160,0
213149.215,23.438,37.109,28.320,25.879,-83.496,0
213149.219,11.230,31.738,26.855,20.996,-53.711,0
213149.223,7.812,27.344,27.344,26.367,16.113,0
213149.227,6.836,22.949,26.855,15.137,17.090,0
213149.231,9.277,22.461,30.762,10.742,-1.465,0
213149.235,12.207,24.414,28.320,14.648,3.418,0
213149.238,16.602,26.855,26.367,16.113,17.578,0
213149.242,20.996,31.738,28.320,18.555,-10.254,0
213149.246,21.973,37.109,28.809,23.438,-3.906,0
213149.250,17.090,36.621,29.297,20.020,35.645,0
213149.254,13.184,35.156,31.738,17.578,43.457,0
213149.258,13.184,37.109,36.621,13.672,34.668,0
213149.262,18.066,36.133,36.133,18.066,29.297,0
213149.266,18.066,34.668,26.855,24.414,68.848,0
213149.270,19.531,35.156,23.438,26.855,78.125,0
213149.274,21.484,30.762,29.297,28.320,44.922,0
213149.277,22.949,29.297,30.762,24.902,26.855,0
213149.281,27.344,35.645,28.809,25.879,14.648,0
213149.285,28.809,38.086,29.297,30.273,4.883,0
213149.289,23.926,33.691,29.785,24.902,-2.441,0
213149.293,21.484,30.762,26.855,22.949,29.297,0
213149.297,29.785,31.250,25.879,26.855,40.039,0
213149.301,34.668,29.785,28.809,25.879,19.531,0
213149.305,29.297,29.297,25.879,27.344,9.766,0
213149.309,28.809,31.738,23.438,35.156,6.836,0
213149.313,35.156,33.203,26.367,39.062,31.738,0
213149.317,37.598,32.715,27.832,39.062,14.160,0
213149.320,36.133,30.762,32.227,43.457,-8.789,0
213149.324,31.250,33.203,32.227,38.086,-0.977,0
213149.328,30.273,34.180,30.273,29.785,-19.043,0
213149.332,28.809,31.250,32.227,25.879,-26.367,0
213149.336,29.297,33.203,30.762,27.344,14.160,0
213149.340,29.297,36.133,24.902,28.320,16.602,0
213149.344,27.832,36.133,27.832,27.344,-24.414,0
213149.348,27.344,35.645,31.250,20.996,-38.086,0
213149.352,28.809,37.109,36.133,24.414,-9.766,0
213149.356,30.273,40.527,38.086,34.180,15.625,0
213149.360,23.926,33.691,32.715,26.367,35.645,0
213149.363,19.043,27.344,24.902,19.531,60.059,0
213149.367,15.625,24.414,27.832,21.484,92.285,0
213149.371,16.602,24.902,31.738,19.531,94.727,0
213149.375,18.066,26.367,26.855,15.625,71.777,0
213149.379,15.625,27.344,27.344,17.090,48.340,0
213149.383,16.113,25.879,28.320,20.020,42.969,0
213149.387,20.508,26.367,27.832,27.344,65.918,0
213149.391,21.973,30.762,27.832,24.902,45.898,0
213149.395,18.066,29.785,30.762,9.277,16.113,0
213149.399,17.090,29.785,33.691,20.020,43.457,0
213149.402,16.113,29.297,35.645,33.203,84.473,0
213149.406,13.184,26.367,35.645,21.484,90.820,0
213149.410,16.602,25.879,33.203,20.020,84.961,0
213149.414,20.996,31.250,30.762,34.180,84.473,0
213149.418,18.555,28.320,29.785,30.273,54.199,0
213149.422,17.578,28.320,33.691,22.461,32.227,0
213149.426,16.602,32.227,31.738,22.461,65.918,0
213149.430,12.695,27.832,28.809,16.602,58.594,0
213149.434,11.230,28.320,25.879,13.672,26.855,0
213149.438,21.484,29.785,23.926,22.461,-27.344,1
213149.442,31.250,28.320,29.297,32.227,-39.551,0
213149.445,18.066,28.320,31.250,21.973,24.414,0
213149.449,8.301,34.668,27.344,11.719,31.250,0
213149.453,22.461,32.715,31.250,21.484,-17.090,0
213149.457,27.832,34.180,35.156,29.297,17.090,0
213149.461,18.066,41.016,33.691,26.367,37.598,0
213149.465,16.113,36.621,30.762,21.973,0.977,0
213149.469,20.508,34.180,30.273,20.508,-18.066,0
213149.473,21.973,32.227,31.250,24.414,-3.418,0
213149.477,20.020,29.785,29.785,31.738,21.484,0
213149.481,21.973,32.715,32.715,35.156,14.160,0
213149.485,28.809,37.598,36.133,32.715,7.324,0
213149.488,30.273,32.715,37.109,40.527,19.531,0
213149.492,27.832,26.855,34.668,47.852,50.293,0
213149.496,27.344,30.273,35.156,37.598,42.969,0
213149.500,25.391,33.691,33.203,26.855,51.270,0
213149.504,19.531,35.645,30.762,27.344,79.590,0
213149.508,18.066,31.738,36.621,27.344,73.242,0
213149.512,18.066,29.297,35.645,16.602,76.660,0
213149.516,19.043,31.738,37.109,13.184,97.656,0
213149.520,22.949,31.738,41.016,18.555,52.734,0
213149.524,28.809,34.668,35.156,18.066,52.246,0
213149.527,28.809,36.133,33.691,16.602,56.641,0
213149.531,25.391,31.250,33.203,17.578,47.363,0
213149.535,27.832,32.227,33.691,23.926,96.680,0
213149.539,29.297,38.086,36.133,31.738,62.500,0
213149.543,31.738,39.062,37.598,31.250,-14.648,0
213149.547,31.738,34.668,36.133,26.367,14.648,0
213149.551,29.297,34.180,35.156,31.250,53.223,0
213149.555,27.832,31.738,36.621,35.156,37.109,0
213149.559,20.996,28.320,33.203,27.344,29.785,0
213149.563,17.090,26.855,31.250,23.438,60.059,0
213149.567,22.461,28.809,32.715,29.785,57.129,0
213149.570,18.066,29.785,28.809,22.949,15.137,0
213149.574,16.602,26.855,29.297,22.461,13.672,0
213149.578,21.484,30.273,31.250,24.414,7.324,0
213149.582,21.484,31.738,28.320,21.973,30.273,0
213149.586,27.344,31.738,26.855,21.973,39.551,0
213149.590,33.203,37.109,28.320,22.461,10.254,0
213149.594,33.691,36.133,30.273,31.738,18.066,0
213149.598,31.250,31.738,30.273,31.250,27.832,0
213149.602,28.320,32.715,29.297,24.414,22.461,0
213149.606,32.715,33.203,28.809,28.320,8.301,0
213149.610,33.203,31.738,25.879,36.133,-5.859,0
213149.613,29.297,35.156,30.273,30.273,-1.465,0
213149.617,32.715,36.133,36.133,26.367,-10.254,0
213149.621,34.180,32.227,38.086,26.855,-11.230,0
213149.625,33.691,33.203,41.016,25.879,7.812,0
213149.629,32.715,30.273,36.133,26.855,11.230,0
213149.633,27.832,30.273,29.785,16.602,29.297,0
213149.637,28.320,34.668,31.250,17.090,37.109,0
213149.641,34.180,35.645,29.785,30.273,20.020,0
213149.645,39.551,34.668,29.785,32.715,-6.348,0
213149.649,41.016,36.621,32.227,35.645,16.113,0
213149.652,41.504,34.180,30.762,40.527,36.621,0
213149.656,36.621,26.855,33.203,35.645,31.738,0
213149.660,28.320,27.344,34.668,23.926,39.551,0
213149.664,21.973,26.855,31.738,12.695,35.156,0
213149.668,18.555,26.367,30.762,11.719,13.672,0
213149.672,20.996,29.297,32.715,19.043,-1.465,0
213149.676,25.391,32.715,33.203,24.414,2.441,0
213149.680,33.691,36.621,30.273,23.926,-9.277,0
213149.684,40.527,38.574,29.297,36.621,23.926,0
213149.688,47.363,43.457,36.133,52.734,73.730,0
213149.692,52.246,44.434,38.086,50.293,77.148,0
213149.695,50.293,36.133,32.715,42.969,51.758,0
213149.699,42.969,30.762,33.203,43.945,45.898,0
213149.703,37.109,32.227,31.250,40.527,84.961,0
213149.707,35.645,33.203,31.250,31.250,85.449,0
213149.711,29.785,32.227,33.691,29.297,53.711,0
213149.715,27.832,36.621,28.320,26.855,44.922,0
213149.719,29.297,38.574,25.391,26.367,26.367,0
213149.723,32.715,33.203,28.809,28.320,6.836,0
213149.727,33.691,33.691,25.391,20.996,19.043,0
213149.731,32.227,35.645,24.414,26.367,60.059,0
213149.735,35.156,32.227,29.785,32.715,80.078,0
213149.738,34.668,31.738,30.273,26.367,90.332,0
213149.742,31.250,38.086,29.785,25.391,77.637,0
213149.746,26.855,40.527,36.621,29.297,28.320,0
213149.750,24.902,39.062,34.668,28.809,0.977,0
213149.754,21.973,36.133,26.367,20.996,16.602,0
213149.758,20.996,34.180,26.855,15.625,12.207,0
213149.762,22.949,37.109,31.250,20.020,12.695,0
213149.766,20.996,34.668,32.715,20.996,22.461,0
213149.770,23.438,36.133,34.668,20.996,8.301,0
213149.774,22.949,40.039,37.109,24.902,34.180,0
213149.777,17.578,35.645,36.133,27.832,44.922,0
213149.781,18.555,38.086,36.621,27.344,22.949,0
213149.785,24.414,45.410,40.039,32.227,12.207,0
213149.789,25.391,43.457,37.598,31.738,6.836,0
213149.793,17.578,37.598,29.785,23.438,-3.906,0
213149.797,18.555,38.574,30.762,25.391,1.465,0
213149.801,26.367,39.551,31.738,25.391,24.902,0
213149.805,25.391,38.086,30.762,29.297,9.277,0
213149.809,21.973,38.574,28.320,28.320,-9.766,0
213149.813,28.809,40.527,28.320,16.113,-35.645,0
213149.817,33.203,40.527,32.227,18.066,-40.527,0
213149.820,29.785,41.504,31.738,29.785,27.344,0
213149.824,24.902,41.992,26.855,27.344,40.527,0
213149.828,19.531,38.574,20.996,19.043,25.391,0
213149.832,19.531,36.621,24.902,17.578,36.133,0
213149.836,20.508,35.645,28.809,20.996,46.875,0
213149.840,17.578,36.133,29.297,19.043,52.734,0
213149.844,16.113,36.133,31.250,17.578,49.316,0
213149.848,16.602,33.203,32.227,21.484,44.434,0
213149.852,19.531,32.227,30.273,30.762,50.781,0
213149.856,30.273,32.227,23.926,33.691,74.707,0
213149.860,29.785,32.227,21.484,23.438,45.898,0
213149.863,13.184,33.203,19.043,13.184,35.645,0
213149.867,11.719,35.645,19.043,15.625,59.082,0
213149.871,16.113,36.621,24.902,20.508,51.758,0
213149.875,13.672,37.109,25.391,18.555,29.297,0
213149.879,10.742,34.668,25.879,18.555,52.246,0
213149.883,7.324,25.879,28.320,18.555,90.820,0
213149.887,5.859,22.461,20.508,16.113,84.961,0
213149.891,14.648,28.809,23.438,25.391,47.852,0
213149.895,20.020,32.715,31.738,30.762,54.199,0
213149.899,22.949,32.227,31.250,27.832,79.102,0
213149.902,20.996,30.273,26.855,24.414,62.500,0
213149.906,17.578,25.879,23.438,18.066,49.316,0
213149.910,21.973,28.809,23.926,26.855,19.531,0
213149.914,23.926,32.715,24.414,34.180,3.418,0
213149.918,25.391,29.785,30.762,24.414,-23.438,0
213149.922,23.438,28.809,30.762,19.531,-42.480,0
213149.926,20.996,28.809,20.996,30.273,7.324,0
213149.930,21.484,27.832,22.461,33.691,31.738,0
213149.934,20.020,30.273,24.902,23.438,32.715,0
213149.938,19.531,33.203,24.414,24.414,57.617,0
213149.942,18.555,32.715,29.297,32.227,61.035,0
213149.945,18.555,30.273,27.832,30.762,19.043,0
213149.949,15.625,26.855,28.320,25.879,15.625,0
213149.953,18.066,31.250,27.832,26.367,0.977,0
213149.957,21.973,33.691,24.414,28.320,-28.320,0
213149.961,16.602,30.273,24.902,23.926,-23.926,0
213149.965,16.113,28.809,26.855,21.484,-10.742,0
213149.969,19.531,32.227,32.227,30.762,-1.953,0
213149.973,27.344,35.645,38.574,38.574,-4.395,0
213149.977,23.438,33.203,31.250,37.109,34.668,0
213149.981,19.043,26.367,25.391,37.598,16.602,0
213149.985,26.367,29.785,29.297,37.598,22.461,0
213149.988,27.344,35.645,28.320,31.250,32.227,0
213149.992,21.973,28.809,32.715,26.855,-18.066,0
