timestamps,TP9,AF7,AF8,TP10,Right AUX,Marker0
33072.122,-15.625,-31.250,88.379,-28.809,0.000,0
33072.126,-29.785,-38.574,66.895,-31.738,0.000,0
33072.129,-52.734,-42.969,-89.844,-23.438,0.000,0
33072.133,-48.340,-41.016,-88.867,-40.039,0.000,0
33072.137,-39.062,-40.527,77.637,-52.246,0.000,0
33072.141,-36.621,-41.992,84.473,-26.367,0.000,0
33072.145,-20.020,-45.410,-35.645,0.977,0.000,0
33072.149,-22.461,-44.434,-104.492,0.977,0.000,0
33072.153,-2.930,-36.133,40.039,-2.930,0.000,0
33072.157,-13.184,-42.969,106.445,-1.953,0.000,0
33072.161,-16.113,-44.434,12.207,13.184,0.000,0
33072.165,-4.395,-33.203,-97.168,4.395,0.000,0
33072.168,14.648,-25.879,13.184,-7.812,0.000,0
33072.172,-1.953,-24.414,110.840,-18.555,0.000,0
33072.176,-3.906,-27.344,39.062,-3.906,0.000,0
33072.180,-23.438,-36.621,-107.422,7.812,0.000,0
33072.184,-22.461,-35.156,-49.316,-8.301,0.000,0
33072.188,-3.418,-24.414,105.957,-11.230,0.000,0
33072.192,-5.371,-21.973,76.660,11.230,0.000,0
33072.196,-8.301,-20.020,-82.520,17.090,0.000,0
33072.200,-12.207,-17.578,-95.703,16.113,0.000,0
33072.204,0.000,-17.090,83.496,5.859,0.000,0
33072.208,-3.418,-19.531,92.285,-21.484,0.000,0
33072.211,-1.465,-25.391,-42.969,5.371,0.000,0
33072.215,-1.953,-25.391,-114.746,18.066,0.000,0
33072.219,7.324,-21.973,30.273,2.441,0.000,0
33072.223,-2.441,-26.855,95.703,-18.066,0.000,0
33072.227,1.465,-25.879,7.812,4.395,0.000,0
33072.231,-10.254,-20.996,-112.793,17.090,0.000,0
33072.235,-1.465,-21.973,-12.695,4.395,0.000,0
33072.239,-8.301,-26.367,94.238,-7.812,0.000,0
33072.243,-12.207,-26.855,29.297,8.301,0.000,0
33072.247,-23.926,-24.902,-107.422,11.230,0.000,0
33072.251,-20.996,-22.461,-82.031,0.000,0.000,0
33072.254,7.324,-17.578,61.523,-5.371,0.000,0
33072.258,0.000,-16.113,59.570,3.418,0.000,0
33072.262,1.465,-16.113,-76.660,2.930,0.000,0
33072.266,16.602,-13.184,-104.492,-8.301,0.000,0
33072.270,8.301,-16.113,48.828,-11.230,0.000,0
33072.274,-12.695,-23.438,77.637,-18.066,0.000,0
33072.278,-15.625,-27.832,-28.320,9.766,0.000,0
33072.282,-19.531,-26.855,-90.332,4.883,0.000,0
33072.286,1.465,-16.602,27.832,-15.625,0.000,0
33072.290,-6.348,-13.184,84.473,-23.438,0.000,0
33072.293,-12.695,-20.020,16.113,7.324,0.000,0
33072.297,-11.719,-17.578,-121.094,11.719,0.000,0
33072.301,2.930,-14.160,-40.527,-15.625,0.000,0
33072.305,8.789,-16.602,89.844,-23.926,0.000,0
33072.309,10.254,-16.602,37.598,-9.277,0.000,0
33072.313,-3.906,-18.066,-112.305,-5.371,0.000,0
33072.317,-2.930,-16.113,-96.191,-9.277,0.000,0
33072.321,19.531,-8.301,68.848,-18.066,0.000,0
33072.325,-11.230,-12.207,71.289,-25.879,0.000,0
33072.329,-25.391,-20.508,-75.684,-1.953,0.000,0
33072.333,-16.113,-11.230,-122.559,5.859,0.000,0
33072.336,6.348,-3.418,46.387,2.441,0.000,0
33072.340,0.488,-13.184,96.191,-21.484,0.000,0
33072.344,-2.441,-9.766,-25.391,-15.137,0.000,0
33072.348,5.371,-6.348,-132.812,-5.859,0.000,0
33072.352,16.113,-5.859,4.395,-2.441,0.000,0
33072.356,-7.812,-10.742,88.379,-7.324,0.000,0
33072.360,-1.465,-13.672,12.695,0.977,0.000,0
33072.364,-7.812,-12.695,-116.699,-5.859,0.000,0
33072.368,-12.695,-7.812,-57.129,-6.348,0.000,0
33072.372,-6.348,-10.742,76.172,-7.812,0.000,0
33072.376,-10.254,-14.648,41.504,-8.789,0.000,0
33072.379,-9.766,-13.184,-101.562,-5.859,0.000,0
33072.383,-22.461,-16.113,-95.215,-16.602,0.000,0
33072.387,-12.695,-14.648,55.664,-29.785,0.000,0
33072.391,7.324,-14.160,51.758,-39.062,0.000,0
33072.395,-0.977,-14.648,-72.754,-7.812,0.000,0
33072.399,-34.668,-18.066,-123.535,-2.930,0.000,0
33072.403,-3.906,-19.531,31.250,-22.461,0.000,0
33072.407,2.930,-16.113,76.172,-22.949,0.000,0
33072.411,-7.324,-13.184,-23.926,1.953,0.000,0
33072.415,-25.879,-10.254,-134.277,6.836,0.000,0
33072.418,-17.090,-8.789,-22.461,-7.324,0.000,0
33072.422,0.000,-8.301,82.031,-19.043,0.000,0
33072.426,-10.254,-9.277,-62.500,-3.418,0.000,0
33072.430,-4.883,-12.695,-148.926,1.465,0.000,0
33072.434,24.414,-9.277,15.625,-9.766,0.000,0
33072.438,4.883,-11.719,79.102,-25.879,0.000,0
33072.442,-17.090,-14.160,-98.633,-14.160,0.000,0
33072.446,-3.906,-8.789,-125.977,-8.301,0.000,0
33072.450,12.695,-6.836,39.551,-18.555,0.000,0
33072.454,-7.812,-10.742,64.453,-11.719,0.000,0
33072.458,-13.672,-14.648,-44.922,2.930,0.000,0
33072.461,-9.277,-14.160,-115.234,-7.324,0.000,0
33072.465,5.371,-3.906,16.113,-3.906,0.000,0
33072.469,-2.441,-6.836,82.031,-11.230,0.000,0
33072.473,-1.465,-14.648,-4.883,-4.395,0.000,0
33072.477,-6.836,-13.672,-131.348,-1.953,0.000,0
33072.481,12.207,-5.859,-33.203,-15.137,0.000,0
33072.485,18.066,-4.883,94.727,-22.461,0.000,0
33072.489,0.977,-12.207,35.645,-1.953,0.000,0
33072.493,-13.184,-11.230,-117.188,1.953,0.000,0
33072.497,0.977,-7.324,-78.613,-9.766,0.000,0
33072.501,8.301,-5.859,69.824,-17.090,0.000,0
33072.504,-5.371,-5.859,50.293,-17.578,0.000,0
33072.508,-5.371,-5.371,-85.449,4.395,0.000,0
33072.512,-11.719,-7.812,-115.234,7.812,0.000,0
33072.516,-4.883,-14.160,45.410,-32.715,0.000,0
33072.520,7.812,-11.719,38.086,-40.527,0.000,0
33072.524,-2.930,-10.254,-116.699,-8.789,0.000,0
33072.528,-14.648,-11.719,-82.520,-1.465,0.000,0
33072.532,-10.254,-9.277,57.617,-20.996,0.000,0
33072.536,-12.207,-9.766,61.035,-33.203,0.000,0
33072.540,-15.625,-11.719,-70.801,-4.395,0.000,0
33072.543,-4.883,-1.953,-122.070,8.789,0.000,0
33072.547,4.883,7.324,32.715,-5.371,0.000,0
33072.551,-4.883,0.000,80.078,-8.789,0.000,0
33072.555,-6.348,-3.906,-26.855,-5.371,0.000,0
33072.559,-31.250,0.488,-142.578,-20.996,0.000,0
33072.563,-16.113,1.953,-11.719,-14.160,0.000,0
33072.567,3.906,-1.953,72.266,-13.184,0.000,0
33072.571,0.488,-9.766,-4.883,-5.859,0.000,0
33072.575,-32.715,-9.277,-124.023,-1.953,0.000,0
33072.579,-18.555,-1.465,-58.594,-11.230,0.000,0
33072.583,-7.324,-3.418,76.172,-22.949,0.000,0
33072.586,-12.207,-4.395,43.457,-2.441,0.000,0
33072.590,-12.695,-2.441,-97.656,6.348,0.000,0
33072.594,-9.766,-7.324,-96.680,-28.320,0.000,0
33072.598,-9.766,-13.184,57.129,-48.828,0.000,0
33072.602,-23.438,-19.531,62.012,-36.133,0.000,0
33072.606,-15.625,-16.602,-68.359,-8.789,0.000,0
33072.610,-26.367,-8.301,-128.418,-0.488,0.000,0
33072.614,-13.672,-11.230,24.902,-13.672,0.000,0
33072.618,-9.766,-21.973,77.148,-36.133,0.000,0
33072.622,-12.695,-22.461,-37.109,-11.230,0.000,0
33072.626,-23.926,-16.602,-148.926,2.930,0.000,0
33072.629,-16.113,-14.648,-29.297,-7.812,0.000,0
33072.633,-21.484,-13.184,79.102,-25.879,0.000,0
33072.637,-14.160,-8.789,12.207,-11.230,0.000,0
33072.641,-20.996,-8.301,-126.953,1.465,0.000,0
33072.645,-18.066,-7.812,-64.453,1.465,0.000,0
33072.649,0.977,-2.441,78.613,0.000,0.000,0
33072.653,-0.488,-10.742,49.316,-8.301,0.000,0
33072.657,-15.137,-14.648,-93.750,-15.625,0.000,0
33072.661,-20.020,-4.883,-103.516,-13.672,0.000,0
33072.665,-6.348,-9.766,55.176,-12.207,0.000,0
33072.668,-4.883,-16.602,60.547,-9.766,0.000,0
33072.672,-4.883,-17.090,-58.105,-2.441,0.000,0
33072.676,-24.414,-13.672,-130.859,-5.371,0.000,0
33072.680,-7.324,-11.230,8.789,1.465,0.000,0
33072.684,-7.324,-18.555,70.312,-15.137,0.000,0
33072.688,-14.160,-20.020,-25.391,-12.695,0.000,0
33072.692,-27.832,-21.973,-137.207,-21.484,0.000,0
33072.696,-11.719,-18.066,-34.180,-29.297,0.000,0
33072.700,-8.301,-19.043,75.684,-34.180,0.000,0
33072.704,-22.949,-27.832,15.625,-17.090,0.000,0
33072.708,-31.250,-23.438,-120.605,5.371,0.000,0
33072.711,-6.836,-20.508,-71.289,-6.836,0.000,0
33072.715,2.441,-20.996,72.266,-10.742,0.000,0
33072.719,-20.508,-23.438,49.316,-10.254,0.000,0
33072.723,-20.996,-27.832,-86.914,-10.254,0.000,0
33072.727,-29.297,-22.949,-119.141,-4.395,0.000,0
33072.731,-21.484,-20.996,39.551,-37.109,0.000,0
33072.735,-23.438,-24.902,66.406,-57.129,0.000,0
33072.739,-18.066,-21.973,-60.547,-16.602,0.000,0
33072.743,-22.949,-16.113,-145.996,-2.930,0.000,0
33072.747,-2.930,-10.254,-4.395,-3.418,0.000,0
33072.751,0.488,-11.230,90.332,-18.555,0.000,0
33072.754,-5.371,-13.672,5.371,-10.742,0.000,0
33072.758,-11.230,-8.789,-142.090,11.719,0.000,0
33072.762,3.418,-7.812,-41.504,6.836,0.000,0
33072.766,0.977,-13.184,80.566,-9.766,0.000,0
33072.770,-11.719,-19.043,27.832,-8.789,0.000,0
33072.774,-15.137,-22.949,-104.980,-7.324,0.000,0
33072.778,-20.020,-21.484,-84.961,-10.254,0.000,0
33072.782,-13.184,-20.508,60.547,-20.508,0.000,0
33072.786,-26.855,-25.391,46.387,-25.879,0.000,0
33072.790,-36.621,-27.832,-78.125,-19.043,0.000,0
33072.793,-34.180,-27.832,-119.629,-27.344,0.000,0
33072.797,-17.578,-22.949,22.949,-37.598,0.000,0
33072.801,-31.738,-18.066,62.500,-41.992,0.000,0
33072.805,-36.621,-20.996,-57.617,-15.625,0.000,0
33072.809,-41.992,-23.926,-151.855,-10.254,0.000,0
33072.813,-23.926,-19.043,0.000,-18.555,0.000,0
33072.817,-12.695,-20.996,80.078,-32.227,0.000,0
33072.821,-9.766,-21.484,-6.836,-14.160,0.000,0
33072.825,-19.043,-20.020,-133.789,-6.348,0.000,0
33072.829,-13.184,-22.949,-55.176,-20.020,0.000,0
33072.833,-11.230,-22.949,76.172,-41.016,0.000,0
33072.836,-15.137,-12.695,37.109,-27.832,0.000,0
33072.840,-13.672,-9.277,-98.145,0.488,0.000,0
33072.844,-17.578,-8.789,-96.680,6.348,0.000,0
33072.848,-13.672,-9.277,62.500,-22.949,0.000,0
33072.852,-10.742,-15.625,72.754,-41.504,0.000,0
33072.856,-10.742,-17.090,-67.871,1.953,0.000,0
33072.860,-23.438,-20.508,-137.207,7.324,0.000,0
33072.864,-5.859,-17.090,11.230,-20.508,0.000,0
33072.868,-11.230,-12.207,76.172,-42.480,0.000,0
33072.872,-10.742,-20.020,-28.809,-18.066,0.000,0
33072.876,-10.742,-13.672,-152.344,-6.836,0.000,1
33072.879,-0.977,-5.859,-33.203,-3.906,0.000,0
33072.883,-3.906,-16.602,81.055,-13.672,0.000,0
33072.887,-3.418,-20.508,6.348,-4.883,0.000,0
33072.891,-16.602,-17.578,-128.906,4.883,0.000,0
33072.895,-15.137,-15.625,-56.641,2.441,0.000,0
33072.899,-14.160,-14.160,78.613,-12.695,0.000,0
33072.903,-15.625,-16.113,56.641,-5.371,0.000,0
33072.907,-9.766,-16.602,-83.496,11.230,0.000,0
33072.911,-22.461,-11.230,-100.586,-7.812,0.000,0
33072.915,-11.719,-7.812,44.434,-22.949,0.000,0
33072.918,-10.254,-14.648,58.105,-31.250,0.000,0
33072.922,-8.789,-16.602,-65.430,-7.324,0.000,0
33072.926,-16.602,-12.695,-139.648,-7.324,0.000,0
33072.930,-13.672,-13.672,13.184,-20.020,0.000,0
33072.934,-19.531,-16.113,80.078,-31.250,0.000,0
33072.938,-23.926,-12.695,-19.531,-13.184,0.000,0
33072.942,-31.250,-9.766,-149.414,-5.859,0.000,0
33072.946,-18.066,-5.371,-37.598,-6.348,0.000,0
33072.950,-26.855,-13.672,92.285,-33.203,0.000,0
33072.954,-29.785,-19.043,18.555,-33.203,0.000,0
33072.958,-18.555,-9.277,-130.859,-1.953,0.000,0
33072.961,-6.836,-8.789,-77.148,-4.883,0.000,0
33072.965,-6.836,-19.043,71.289,-16.602,0.000,0
33072.969,-9.766,-18.066,56.152,-23.438,0.000,0
33072.973,-4.395,-15.137,-85.449,-13.672,0.000,0
33072.977,-20.508,-19.043,-133.301,-31.250,0.000,0
33072.981,-10.254,-17.090,40.527,-31.250,0.000,0
33072.985,-13.672,-20.020,45.410,-24.414,0.000,0
33072.989,-31.738,-23.438,-126.465,-23.926,0.000,0
33072.993,-30.762,-18.555,-100.586,-17.578,0.000,0
33072.997,-13.184,-13.672,48.828,-25.391,0.000,0
33073.001,-12.207,-9.766,47.852,-24.414,0.000,0
33073.004,-22.461,-17.578,-80.566,-1.953,0.000,0
33073.008,-25.391,-18.555,-116.699,-11.719,0.000,0
33073.012,-14.160,-6.836,38.086,-27.832,0.000,0
33073.016,-21.484,-5.371,76.172,-26.367,0.000,0
33073.020,-12.695,-6.348,-36.133,-2.441,0.000,0
33073.024,-12.695,-6.836,-129.883,-5.371,0.000,0
33073.028,-6.836,-8.301,4.883,-20.996,0.000,0
33073.032,-29.785,-16.113,71.777,-32.227,0.000,0
33073.036,-26.855,-16.113,-11.230,-14.160,0.000,0
33073.040,-21.484,-9.277,-143.066,-15.625,0.000,0
33073.043,-14.648,-12.207,-67.871,-34.180,0.000,0
33073.047,-10.742,-17.578,78.125,-53.223,0.000,0
33073.051,-21.484,-21.973,35.156,-44.434,0.000,0
33073.055,-21.484,-21.973,-113.770,-14.160,0.000,0
33073.059,-18.555,-14.648,-105.469,-12.695,0.000,0
33073.063,-6.836,-19.043,55.176,-46.875,0.000,0
33073.067,-5.859,-26.367,68.359,-50.781,0.000,0
33073.071,-13.672,-24.414,-77.637,-5.371,0.000,0
33073.075,-26.367,-19.531,-130.859,-8.301,0.000,0
33073.079,-15.625,-18.555,29.297,-23.926,0.000,0
33073.083,-13.184,-21.973,63.965,-34.668,0.000,0
33073.086,-12.695,-21.973,-44.922,-25.879,0.000,0
33073.090,-31.250,-19.043,-141.602,-15.137,0.000,0
33073.094,-22.949,-18.555,-14.160,-15.625,0.000,0
33073.098,-20.508,-20.508,77.148,-35.645,0.000,0
33073.102,-16.113,-24.902,3.418,-29.297,0.000,0
33073.106,-27.344,-25.391,-127.441,-22.949,0.000,0
33073.110,-15.625,-18.555,-65.918,-26.855,0.000,0
33073.114,8.789,-20.020,73.242,-42.480,0.000,0
33073.118,-1.465,-18.066,35.645,-28.809,0.000,0
33073.122,-21.484,-16.602,-113.770,2.441,0.000,0
33073.126,-4.883,-15.625,-42.480,-17.578,0.000,0
33073.129,8.789,-12.695,81.055,-34.180,0.000,0
33073.133,6.348,-19.043,-3.906,-3.906,0.000,0
33073.137,-10.742,-22.461,-130.859,-1.465,0.000,0
33073.141,-16.113,-25.391,-58.105,-23.926,0.000,0
33073.145,-12.695,-28.320,75.684,-38.086,0.000,0
33073.149,-12.695,-26.855,34.180,-33.203,0.000,0
33073.153,-12.695,-28.320,-101.562,-16.113,0.000,0
33073.157,-19.043,-16.113,-117.188,-20.996,0.000,0
33073.161,2.441,-14.160,31.738,-31.738,0.000,0
33073.165,-7.324,-26.367,58.105,-33.691,0.000,0
33073.168,-19.531,-26.855,-65.918,-16.602,0.000,0
33073.172,-9.277,-21.484,-141.113,-1.465,0.000,0
33073.176,12.695,-15.625,-3.906,2.930,0.000,0
33073.180,0.488,-22.461,68.848,-27.344,0.000,0
33073.184,-8.301,-29.297,-13.672,-35.156,0.000,0
33073.188,-19.531,-26.367,-149.902,-29.297,0.000,0
33073.192,3.906,-22.949,-49.805,-26.367,0.000,0
33073.196,3.906,-20.996,71.289,-30.762,0.000,0
33073.200,-9.766,-23.438,10.254,-25.391,0.000,0
33073.204,-18.555,-25.391,-126.953,-14.160,0.000,0
33073.208,-20.996,-20.996,-86.914,-12.207,0.000,0
33073.211,-17.090,-19.531,56.152,-32.227,0.000,0
33073.215,-20.996,-25.391,40.039,-33.203,0.000,0
33073.219,-14.648,-22.949,-88.867,-9.277,0.000,0
33073.223,-16.113,-18.066,-117.188,-19.043,0.000,0
33073.227,-5.859,-17.090,34.668,-34.668,0.000,0
33073.231,-3.418,-18.066,66.406,-26.855,0.000,0
33073.235,0.488,-21.484,-55.176,2.441,0.000,0
33073.239,-10.742,-22.949,-147.461,-15.137,0.000,0
33073.243,-2.930,-20.508,-2.441,-24.414,0.000,0
33073.247,-11.230,-17.090,77.148,-25.879,0.000,0
33073.251,-5.859,-23.438,-17.090,-15.625,0.000,0
33073.254,-6.348,-27.344,-136.719,-13.672,0.000,0
33073.258,0.000,-21.484,-51.758,-23.926,0.000,0
33073.262,-6.348,-18.066,65.430,-44.434,0.000,0
33073.266,-21.973,-20.020,22.949,-30.762,0.000,0
33073.270,-25.879,-24.902,-116.699,2.441,0.000,0
33073.274,-15.625,-23.438,-90.332,1.465,0.000,0
33073.278,-9.766,-19.043,57.617,-22.949,0.000,0
33073.282,-9.277,-18.066,55.664,-47.363,0.000,0
33073.286,-13.184,-19.531,-70.801,-30.762,0.000,0
33073.290,-14.160,-20.020,-124.512,-33.691,0.000,0
33073.293,6.836,-13.672,24.414,-33.203,0.000,0
33073.297,-13.672,-16.113,67.383,-21.484,0.000,0
33073.301,-22.461,-21.973,-42.969,-22.949,0.000,0
33073.305,-32.715,-21.484,-148.438,-25.391,0.000,0
33073.309,-16.113,-20.020,-27.344,-27.344,0.000,0
33073.313,-7.324,-21.973,67.383,-40.039,0.000,0
33073.317,-8.301,-23.438,-6.348,-24.414,0.000,0
33073.321,-24.902,-20.020,-135.742,-26.855,0.000,0
33073.325,-17.090,-10.742,-55.176,-30.273,0.000,0
33073.329,-6.836,-5.859,71.777,-43.945,0.000,0
33073.333,-12.695,-12.695,36.133,-28.320,0.000,0
33073.336,-16.602,-14.160,-101.074,7.812,0.000,0
33073.340,-15.625,-7.812,-98.633,-10.742,0.000,0
33073.344,-6.836,-8.789,51.270,-15.137,0.000,0
33073.348,-2.441,-11.230,51.270,-9.277,0.000,0
33073.352,-6.836,-14.160,-81.055,-11.719,0.000,0
33073.356,-36.133,-23.926,-144.043,-20.508,0.000,0
33073.360,-23.926,-21.484,12.695,-44.922,0.000,0
33073.364,-18.066,-15.137,68.848,-45.410,0.000,0
33073.368,-22.461,-16.113,-44.922,-12.695,0.000,0
33073.372,-37.109,-19.043,-167.969,-13.672,0.000,0
33073.376,-16.602,-15.137,-41.016,-17.578,0.000,0
33073.379,-15.625,-15.625,80.078,-47.363,0.000,0
33073.383,-18.066,-17.578,13.672,-22.949,0.000,0
33073.387,-12.695,-14.160,-133.789,12.695,0.000,0
33073.391,-13.672,-10.742,-73.242,1.465,0.000,0
33073.395,-11.230,-13.184,76.172,-14.648,0.000,0
33073.399,-8.301,-23.926,45.410,-22.949,0.000,0
33073.403,1.953,-32.227,-93.262,-5.371,0.000,0
33073.407,-4.883,-21.484,-105.957,-9.766,0.000,0
33073.411,-7.324,-16.602,42.969,-10.254,0.000,0
33073.415,-5.859,-23.438,47.852,-9.766,0.000,0
33073.418,-6.836,-23.438,-61.035,-8.301,0.000,1
33073.422,-29.297,-22.949,-127.930,-18.555,0.000,0
33073.426,-24.414,-23.438,5.371,-32.227,0.000,0
33073.430,-6.348,-24.414,75.195,-41.504,0.000,0
33073.434,-8.789,-27.344,-26.855,-16.113,0.000,0
33073.438,-26.855,-30.273,-145.508,-13.184,0.000,0
33073.442,-7.812,-25.391,-29.297,-28.809,0.000,0
33073.446,-8.789,-23.926,66.895,-30.762,0.000,0
33073.450,-11.719,-28.809,7.324,-5.859,0.000,0
33073.454,-16.602,-26.855,-119.141,10.254,0.000,0
33073.458,-12.207,-25.879,-67.871,-16.113,0.000,0
33073.461,-4.395,-18.066,74.219,-30.273,0.000,0
33073.465,-13.672,-17.090,0.977,-15.625,0.000,0
33073.469,-29.297,-25.879,-136.719,-14.160,0.000,0
33073.473,-14.160,-21.484,-53.711,-19.043,0.000,0
33073.477,-7.324,-26.367,71.289,-41.992,0.000,0
33073.481,-13.184,-29.297,22.461,-31.738,0.000,0
33073.485,-27.832,-29.297,-126.953,-7.324,0.000,0
33073.489,-9.766,-20.996,-97.656,-20.508,0.000,0
33073.493,10.742,-14.648,58.594,-26.367,0.000,0
33073.497,-17.578,-20.020,60.059,-17.090,0.000,0
33073.501,-37.109,-23.926,-83.496,-17.578,0.000,0
33073.504,-30.762,-20.020,-128.906,-21.484,0.000,0
33073.508,-10.254,-16.602,31.738,-20.020,0.000,0
33073.512,-32.227,-20.020,69.824,-35.156,0.000,0
33073.516,-27.344,-22.461,-38.574,-32.227,0.000,0
33073.520,-27.832,-20.508,-135.254,-22.461,0.000,0
33073.524,-21.973,-18.555,-11.719,-16.113,0.000,0
33073.528,-24.414,-20.508,74.219,-34.668,0.000,0
33073.532,-20.508,-27.344,-4.395,-22.461,0.000,0
33073.536,-19.531,-24.902,-134.766,-19.531,0.000,0
33073.540,-7.812,-14.160,-51.270,-34.668,0.000,0
33073.543,-12.695,-15.137,71.777,-43.945,0.000,0
33073.547,-12.695,-18.555,27.832,-20.996,0.000,0
33073.551,-7.812,-18.066,-124.023,2.930,0.000,0
33073.555,-27.832,-16.602,-105.469,-6.836,0.000,0
33073.559,-19.531,-14.160,62.012,-28.320,0.000,0
33073.563,-7.324,-15.137,54.199,-39.551,0.000,0
33073.567,-7.324,-16.113,-84.473,-12.695,0.000,0
33073.571,-17.578,-16.113,-129.395,-5.859,0.000,0
33073.575,-5.371,-14.160,28.809,-20.508,0.000,0
33073.579,-8.789,-16.602,74.219,-37.109,0.000,0
33073.583,-11.230,-18.555,-29.297,-15.137,0.000,0
33073.586,-18.555,-17.090,-136.230,0.000,0.000,0
33073.590,0.488,-14.160,-17.578,-5.859,0.000,0
33073.594,-5.859,-12.695,81.055,-21.484,0.000,0
33073.598,-6.348,-19.043,11.230,-18.066,0.000,0
33073.602,-10.254,-18.555,-135.742,-25.391,0.000,0
33073.606,0.977,-9.277,-74.219,-16.113,0.000,0
33073.610,8.789,-12.695,63.477,4.883,0.000,0
33073.614,-14.648,-17.578,34.180,0.488,0.000,0
33073.618,-32.227,-14.648,-104.980,-10.742,0.000,0
33073.622,-23.438,-11.230,-126.953,-7.324,0.000,0
33073.626,9.277,-8.789,28.320,-13.672,0.000,0
33073.629,2.930,-12.207,55.664,-31.250,0.000,0
33073.633,-16.113,-15.137,-58.105,-12.207,0.000,0
33073.637,-20.020,-10.742,-125.000,-19.531,0.000,0
33073.641,-4.883,-14.160,13.184,-33.691,0.000,0
33073.645,-8.301,-16.113,77.637,-33.691,0.000,0
33073.649,-0.977,-17.578,-12.207,-0.488,0.000,0
33073.653,-18.555,-23.926,-140.137,-14.648,0.000,0
33073.657,-13.672,-16.602,-28.320,-36.133,0.000,0
33073.661,-15.625,-16.113,79.590,-28.320,0.000,0
33073.665,-13.184,-22.461,16.602,-10.254,0.000,0
33073.668,-16.113,-15.625,-136.230,-3.906,0.000,0
33073.672,-5.859,-15.137,-91.797,-18.555,0.000,0
33073.676,1.953,-19.043,71.777,-26.855,0.000,0
33073.680,-13.672,-15.137,40.039,-26.855,0.000,0
33073.684,-20.020,-15.137,-110.840,-17.090,0.000,0
33073.688,-22.949,-14.160,-116.699,-7.812,0.000,0
33073.692,-8.301,-11.719,49.805,-16.602,0.000,0
33073.696,-3.418,-17.578,68.359,-39.062,0.000,0
33073.700,-4.395,-19.043,-58.594,-4.395,0.000,0
33073.704,-15.137,-14.160,-138.672,-1.953,0.000,0
33073.708,11.230,-8.789,9.277,-10.254,0.000,0
33073.711,-2.930,-8.789,80.078,-19.043,0.000,0
33073.715,-0.488,-10.254,-0.977,-6.348,0.000,0
33073.719,-7.812,-8.301,-126.465,6.348,0.000,0
33073.723,-14.648,-5.859,-41.504,-14.648,0.000,0
33073.727,-6.348,-8.789,71.777,-13.672,0.000,0
33073.731,0.000,-14.160,24.902,8.301,0.000,0
33073.735,-7.812,-15.625,-108.887,0.488,0.000,0
33073.739,-15.625,-14.160,-89.844,1.953,0.000,0
33073.743,-11.230,-17.578,54.199,5.859,0.000,0
33073.747,-12.207,-19.531,42.969,-9.766,0.000,0
33073.751,-18.066,-21.484,-84.961,-0.977,0.000,0
33073.754,-12.695,-19.531,-113.770,-17.578,0.000,0
33073.758,7.324,-11.719,35.645,-24.414,0.000,0
33073.762,-7.812,-18.066,75.195,-18.555,0.000,0
33073.766,-14.160,-24.902,-24.414,-15.625,0.000,0
33073.770,-27.344,-22.461,-138.672,-8.301,0.000,0
33073.774,-13.184,-22.461,-14.648,-20.508,0.000,0
33073.778,-12.207,-20.020,79.102,-33.691,0.000,0
33073.782,-15.137,-22.461,3.906,-16.113,0.000,0
33073.786,-22.949,-19.531,-132.812,-1.953,0.000,0
33073.790,-3.906,-13.184,-61.035,2.441,0.000,0
33073.793,-4.883,-20.020,78.125,-35.645,0.000,0
33073.797,-14.160,-19.531,41.504,-19.043,0.000,0
33073.801,-1.953,-14.160,-112.793,24.902,0.000,0
33073.805,-2.441,-11.719,-104.980,4.883,0.000,0
33073.809,-2.441,-9.277,60.059,-20.020,0.000,0
33073.813,-13.672,-19.043,75.684,-37.109,0.000,0
33073.817,-14.648,-26.367,-65.918,-24.414,0.000,0
33073.821,-5.371,-17.090,-124.512,-17.578,0.000,0
33073.825,5.859,-10.742,36.621,-20.020,0.000,0
33073.829,-19.531,-18.555,74.219,-22.949,0.000,0
33073.833,-12.695,-19.043,-31.738,-12.695,0.000,0
33073.836,-12.695,-15.625,-133.789,-9.277,0.000,0
33073.840,-10.254,-19.043,-10.742,-4.395,0.000,0
33073.844,-11.719,-19.531,87.402,-8.301,0.000,0
33073.848,2.930,-15.625,19.043,9.766,0.000,0
33073.852,-2.441,-18.066,-107.910,4.395,0.000,0
33073.856,-6.348,-13.672,-53.223,-11.719,0.000,0
33073.860,-5.859,-13.672,67.383,-20.996,0.000,0
33073.864,-15.625,-14.648,34.180,-18.066,0.000,0
33073.868,-13.672,-13.184,-98.633,-7.812,0.000,0
33073.872,-2.441,-15.625,-89.844,-8.789,0.000,0
33073.876,0.000,-16.113,58.594,-14.160,0.000,0
33073.879,-16.113,-19.531,61.035,-13.672,0.000,0
33073.883,-17.578,-20.996,-58.594,9.277,0.000,0
33073.887,-22.461,-19.043,-115.234,7.812,0.000,0
33073.891,-1.953,-20.020,27.344,-9.766,0.000,0
33073.895,-3.418,-20.996,83.984,-29.785,0.000,0
33073.899,-5.859,-16.602,-11.230,-7.812,0.000,0
33073.903,-23.926,-17.090,-133.789,-3.418,0.000,0
33073.907,-20.508,-16.602,-38.086,-14.648,0.000,0
33073.911,-20.020,-16.113,74.707,-15.137,0.000,0
33073.915,-14.648,-17.090,26.367,0.977,0.000,0
33073.918,-23.438,-16.113,-122.070,2.930,0.000,0
33073.922,-26.367,-15.137,-80.078,-8.301,0.000,0
33073.926,-12.695,-12.207,62.988,-10.742,0.000,0
33073.930,-17.090,-16.113,43.945,0.977,0.000,0
33073.934,-18.066,-15.137,-91.797,-5.371,0.000,0
33073.938,-18.066,-4.883,-115.723,-13.672,0.000,0
33073.942,-16.113,-4.883,41.992,-16.602,0.000,0
33073.946,-21.973,-10.254,67.383,-34.668,0.000,0
33073.950,-19.043,-19.043,-46.387,-13.184,0.000,0
33073.954,-27.344,-17.578,-124.512,-18.066,0.000,0
33073.958,-10.254,-6.836,14.648,-32.227,0.000,0
33073.961,-16.602,-9.766,88.867,-44.434,0.000,0
33073.965,-17.578,-13.672,-2.930,-11.719,0.000,0
33073.969,-18.066,-9.766,-127.441,3.906,0.000,0
33073.973,-12.695,0.000,-32.715,-18.555,0.000,0
33073.977,-15.625,-0.977,91.309,-35.645,0.000,0
33073.981,-18.066,-5.859,27.832,-25.391,0.000,0
33073.985,-20.020,-13.184,-125.000,-20.996,0.000,0
33073.989,-21.484,-11.719,-81.055,-28.809,0.000,0
33073.993,-17.578,-10.742,72.266,-39.062,0.000,0
33073.997,-19.531,-18.555,52.246,-33.203,0.000,0
33074.001,-13.184,-19.531,-87.891,-16.602,0.000,0
33074.004,-25.391,-12.695,-123.047,-8.789,0.000,0
33074.008,-13.672,-7.324,42.480,-18.066,0.000,0
33074.012,-10.742,-8.301,80.566,-33.203,0.000,1
33074.016,-12.207,-10.742,-37.598,-2.930,0.000,0
33074.020,-25.879,-15.137,-132.324,-4.395,0.000,0
33074.024,-12.207,-11.719,-2.930,-25.879,0.000,0
33074.028,-3.906,-9.277,81.543,-42.969,0.000,0
33074.032,-3.418,-14.160,9.766,-23.438,0.000,0
33074.036,-13.184,-11.719,-134.277,-4.883,0.000,0
33074.040,1.465,-3.418,-62.012,-20.020,0.000,0
33074.043,-0.977,-12.695,62.500,-33.203,0.000,0
33074.047,-4.883,-20.996,24.414,-27.832,0.000,0
33074.051,-19.531,-17.090,-105.957,-25.391,0.000,0
33074.055,-22.949,-17.090,-108.398,-19.531,0.000,0
33074.059,-0.977,-20.996,41.504,-24.902,0.000,0
33074.063,-14.648,-18.555,48.828,-25.391,0.000,0
33074.067,-16.602,-19.531,-75.684,2.441,0.000,0
33074.071,-13.672,-23.926,-129.883,-11.230,0.000,0
33074.075,0.000,-18.555,19.531,-30.762,0.000,0
33074.079,-12.207,-18.555,76.660,-33.203,0.000,0
33074.083,-15.137,-15.625,-25.879,-9.277,0.000,0
33074.086,-20.508,-12.207,-136.719,-2.441,0.000,0
33074.090,-11.230,-14.648,-8.789,-19.531,0.000,0
33074.094,-14.648,-19.531,80.078,-37.109,0.000,0
33074.098,-6.836,-20.020,7.812,-8.301,0.000,0
33074.102,-7.812,-16.602,-125.488,3.906,0.000,0
33074.106,2.930,-12.695,-66.895,-12.695,0.000,0
33074.110,-2.930,-15.137,80.566,-33.203,0.000,0
33074.114,-16.602,-20.996,46.875,-37.598,0.000,0
33074.118,-8.301,-17.578,-109.863,-6.348,0.000,0
33074.122,0.488,-11.230,-115.723,-1.465,0.000,0
33074.126,3.418,-15.137,49.316,-20.996,0.000,0
33074.129,-18.555,-23.926,73.730,-43.945,0.000,0
33074.133,-11.230,-22.461,-57.617,-24.902,0.000,0
33074.137,-14.648,-16.602,-133.301,-19.043,0.000,0
33074.141,-15.137,-15.625,17.090,-25.391,0.000,0
33074.145,-20.508,-16.113,68.848,-28.809,0.000,0
33074.149,-20.996,-20.020,-22.949,-22.949,0.000,0
33074.153,-32.715,-17.578,-138.672,-16.113,0.000,0
33074.157,-19.531,-15.137,-32.715,-3.906,0.000,0
33074.161,-10.742,-12.695,72.754,-19.531,0.000,0
33074.165,0.977,-4.883,12.695,-4.883,0.000,0
33074.168,-16.113,-12.695,-113.281,-12.207,0.000,0
33074.172,-21.973,-13.672,-63.965,-38.574,0.000,0
33074.176,-0.488,-6.836,70.801,-30.273,0.000,0
33074.180,-8.301,-7.812,40.527,-6.348,0.000,0
33074.184,-28.809,-13.672,-100.586,0.000,0.000,0
33074.188,-31.738,-14.160,-117.188,-20.020,0.000,0
33074.192,-1.953,-6.836,50.781,-22.461,0.000,0
33074.196,-7.812,-10.742,67.871,-26.367,0.000,0
33074.200,-21.484,-12.207,-50.781,-8.789,0.000,0
33074.204,-20.020,-12.207,-129.883,-1.465,0.000,0
33074.208,-12.207,-16.113,7.812,-19.043,0.000,0
33074.211,-18.555,-18.555,81.543,-39.551,0.000,0
33074.215,-3.418,-14.648,1.465,-14.160,0.000,0
33074.219,-10.742,-11.230,-125.977,1.953,0.000,0
33074.223,-8.301,-9.277,-50.781,-12.207,0.000,0
33074.227,-6.836,-14.648,70.801,-27.832,0.000,0
33074.231,-11.719,-13.672,31.738,-14.648,0.000,0
33074.235,-16.602,-9.766,-123.047,-9.766,0.000,0
33074.239,-17.578,-12.207,-106.445,-28.809,0.000,0
33074.243,-14.160,-14.648,64.453,-38.086,0.000,0
33074.247,-16.602,-17.578,9.277,-34.668,0.000,0
33074.251,-19.043,-15.137,-141.113,-22.461,0.000,0
33074.254,-3.906,-3.906,-53.223,-14.160,0.000,0
33074.258,3.906,-3.906,75.195,-15.625,0.000,0
33074.262,-11.230,-12.207,19.531,-13.672,0.000,0
33074.266,-29.297,-13.184,-132.812,-11.719,0.000,0
33074.270,-17.090,-8.789,-93.262,-17.090,0.000,0
33074.274,-4.395,-6.348,59.570,-26.855,0.000,0
33074.278,-15.137,-14.160,53.711,-23.438,0.000,0
33074.282,-11.230,-16.602,-75.684,0.977,0.000,0
33074.286,-18.066,-11.719,-128.418,-0.488,0.000,0
33074.290,-9.766,-10.742,20.996,-19.531,0.000,0
33074.293,-8.789,-11.230,72.266,-32.227,0.000,0
33074.297,-13.184,-9.766,-41.992,-7.324,0.000,0
33074.301,-24.414,-9.277,-151.855,-1.953,0.000,0
33074.305,-7.812,-13.184,-12.695,-20.508,0.000,0
33074.309,-17.090,-16.113,77.637,-43.457,0.000,0
33074.313,-20.020,-18.555,-6.836,-32.715,0.000,0
33074.317,-17.090,-23.438,-143.066,-9.766,0.000,0
33074.321,-2.930,-18.066,-76.660,-5.859,0.000,0
33074.325,-4.883,-20.508,65.430,-35.645,0.000,0
33074.329,-24.414,-20.020,35.156,-28.320,0.000,0
33074.333,-31.738,-13.672,-99.609,2.930,0.000,0
33074.336,-26.855,-13.672,-106.445,2.930,0.000,0
33074.340,-4.395,-17.090,57.129,-7.812,0.000,0
33074.344,-16.113,-21.973,21.484,-25.879,0.000,0
33074.348,-37.109,-17.578,-141.113,-12.695,0.000,0
33074.352,-13.672,-15.137,-82.520,-8.789,0.000,0
33074.356,9.277,-10.254,57.129,-19.531,0.000,0
33074.360,-4.883,-9.277,38.086,-32.715,0.000,0
33074.364,-37.598,-14.648,-103.516,-38.086,0.000,0
33074.368,-34.668,-6.348,-119.629,-25.391,0.000,0
33074.372,-2.441,-6.348,37.109,-21.973,0.000,0
33074.376,-28.320,-6.836,53.711,-31.250,0.000,0
33074.379,-38.574,-4.883,-64.453,-20.508,0.000,0
33074.383,-25.879,-16.602,-97.168,-28.809,0.000,0
33074.387,-8.789,-16.113,27.832,-34.668,0.000,0
33074.391,-25.391,-10.742,73.242,-34.180,0.000,0
33074.395,-13.184,-15.625,-14.160,-0.488,0.000,0
33074.399,-12.207,-16.602,-139.160,-3.418,0.000,0
33074.403,-8.301,-12.695,-27.344,-20.508,0.000,0
33074.407,-3.418,-11.719,83.008,-21.484,0.000,0
33074.411,-4.883,-13.672,15.625,-18.555,0.000,0
33074.415,-24.414,-8.301,-132.324,2.930,0.000,0
33074.418,-25.391,-8.789,-84.473,-6.348,0.000,0
33074.422,-5.859,-13.672,72.754,-42.969,0.000,0
33074.426,-6.836,-10.254,49.805,-35.156,0.000,0
33074.430,-20.508,-12.207,-99.121,-9.277,0.000,0
33074.434,-21.484,-17.578,-123.047,-21.484,0.000,0
33074.438,-5.859,-16.602,41.992,-23.926,0.000,0
33074.442,-14.160,-14.648,69.336,-22.461,0.000,0
33074.446,-20.996,-12.695,-46.387,-27.344,0.000,0
33074.450,-28.809,-16.113,-126.953,-28.809,0.000,0
33074.454,-13.184,-16.113,11.230,-32.715,0.000,0
33074.458,-20.996,-17.578,82.031,-33.203,0.000,0
33074.461,-16.113,-19.043,2.441,-19.531,0.000,0
33074.465,-22.949,-14.160,-125.000,-8.301,0.000,0
33074.469,-24.414,-10.742,-38.574,-3.906,0.000,0
33074.473,-2.441,-8.301,77.148,-9.766,0.000,0
33074.477,4.883,-7.812,19.531,-8.789,0.000,0
33074.481,-20.508,-14.648,-117.676,-14.160,0.000,0
33074.485,-19.531,-15.137,-90.332,-16.113,0.000,0
33074.489,-7.812,-13.672,59.570,-22.461,0.000,0
33074.493,-22.949,-18.066,48.340,-19.043,0.000,0
33074.497,-31.250,-20.996,-93.262,-4.883,0.000,0
33074.501,-28.320,-24.414,-125.977,-23.926,0.000,0
33074.504,-11.719,-21.484,28.809,-38.086,0.000,0
33074.508,-27.344,-15.137,63.477,-34.668,0.000,0
33074.512,-27.832,-15.625,-41.504,-16.602,0.000,0
33074.516,-33.691,-15.137,-135.742,-4.395,0.000,0
33074.520,-13.672,-17.090,-4.883,-13.672,0.000,0
33074.524,-2.930,-22.461,81.543,-31.250,0.000,0
33074.528,-18.555,-16.602,0.000,-4.395,0.000,0
33074.532,-29.297,-12.695,-132.812,-6.836,0.000,0
33074.536,-12.695,-15.625,-63.965,-11.719,0.000,0
33074.540,-25.391,-20.508,59.570,-21.973,0.000,0
33074.543,-33.203,-19.043,34.180,-34.180,0.000,0
33074.547,-8.789,-16.602,-112.793,-11.719,0.000,0
33074.551,-0.977,-13.184,-106.445,-14.648,0.000,1
33074.555,-3.906,-15.137,52.734,-33.691,0.000,0
33074.559,-10.742,-20.508,52.246,-35.645,0.000,0
33074.563,-13.184,-19.043,-70.801,-16.602,0.000,0
33074.567,-19.531,-13.184,-129.395,-8.301,0.000,0
33074.571,0.000,-10.742,25.391,-14.648,0.000,0
33074.575,-24.414,-12.695,85.449,-35.156,0.000,0
33074.579,-34.668,-16.113,-39.551,-26.855,0.000,0
33074.583,-28.809,-18.555,-142.578,-31.250,0.000,0
33074.586,-2.930,-10.742,-15.625,-26.367,0.000,0
33074.590,3.906,-11.719,83.008,-41.992,0.000,0
33074.594,-2.441,-9.277,19.043,-3.906,0.000,0
33074.598,-13.184,-6.836,-125.977,23.438,0.000,0
33074.602,-16.113,-11.719,-64.453,-11.230,0.000,0
33074.606,-11.719,-4.395,79.102,-26.855,0.000,0
33074.610,-13.672,-6.348,48.340,-20.508,0.000,0
33074.614,-18.555,-8.789,-96.680,-9.766,0.000,0
33074.618,-12.207,-1.953,-99.121,-7.324,0.000,0
33074.622,6.348,-1.953,60.059,-15.137,0.000,0
33074.626,-3.906,-8.301,66.406,-25.391,0.000,0
33074.629,-15.625,-15.137,-63.477,-10.742,0.000,0
33074.633,-21.484,-16.113,-128.906,10.254,0.000,0
33074.637,7.324,-5.859,23.438,11.230,0.000,0
33074.641,27.344,-4.883,84.473,-20.996,0.000,0
33074.645,23.438,-14.160,-13.672,4.883,0.000,0
33074.649,-17.578,-19.043,-133.301,14.160,0.000,0
33074.653,-20.508,-19.043,-31.738,-10.254,0.000,0
33074.657,-15.137,-19.043,83.008,-17.578,0.000,0
33074.661,-7.324,-16.113,29.785,-6.348,0.000,0
33074.665,-13.672,-9.277,-120.605,-11.719,0.000,0
33074.668,-11.230,-8.301,-81.055,-24.902,0.000,0
33074.672,-2.441,-13.184,62.012,-19.043,0.000,0
33074.676,-4.883,-12.207,52.734,-14.160,0.000,0
33074.680,-6.348,-8.789,-75.195,-2.930,0.000,0
33074.684,-8.789,-5.371,-115.234,4.395,0.000,0
33074.688,14.160,-5.859,27.832,-5.859,0.000,0
33074.692,25.391,-8.789,67.871,-2.930,0.000,0
33074.696,8.789,-7.324,-33.691,15.137,0.000,0
33074.700,-16.113,-6.836,-128.418,0.488,0.000,0
33074.704,2.441,-6.836,5.371,0.000,0.000,0
33074.708,6.836,-10.742,93.750,-3.906,0.000,0
33074.711,7.324,-14.648,7.324,4.883,0.000,0
33074.715,-18.066,-16.113,-125.488,8.301,0.000,0
33074.719,-7.812,-12.207,-29.785,-13.672,0.000,0
33074.723,7.324,-11.230,86.914,-12.695,0.000,0
33074.727,7.812,-16.113,29.785,4.395,0.000,0
33074.731,-7.812,-20.020,-118.652,0.977,0.000,0
33074.735,-9.277,-15.137,-85.449,-6.836,0.000,0
33074.739,-2.441,-15.137,88.379,-12.207,0.000,0
33074.743,-2.441,-16.113,73.242,7.324,0.000,0
33074.747,3.906,-8.301,-76.172,10.254,0.000,0
33074.751,-2.930,-7.324,-120.117,-7.324,0.000,0
33074.754,9.766,-9.766,43.457,-9.766,0.000,0
33074.758,-8.789,-15.625,85.938,-24.902,0.000,0
33074.762,-17.090,-13.672,-32.227,3.418,0.000,0
33074.766,-19.531,-15.625,-130.859,13.184,0.000,0
33074.770,-8.789,-17.578,0.977,-6.348,0.000,0
33074.774,-9.277,-21.484,80.566,-27.344,0.000,0
33074.778,-0.488,-30.273,11.230,-13.672,0.000,0
33074.782,-23.926,-27.832,-125.000,-8.301,0.000,0
33074.786,-23.438,-19.531,-64.941,-20.020,0.000,0
33074.790,3.418,-12.695,74.219,-15.625,0.000,0
33074.793,-6.836,-15.137,20.996,-4.883,0.000,0
33074.797,-17.578,-15.137,-108.887,-3.906,0.000,0
33074.801,-4.395,-7.812,-26.855,-19.043,0.000,0
33074.805,-1.465,-14.160,74.707,-33.691,0.000,0
33074.809,-16.602,-20.996,2.930,-15.137,0.000,0
33074.813,-35.645,-13.672,-121.582,-5.371,0.000,0
33074.817,-19.531,-9.277,-51.270,-22.949,0.000,0
33074.821,-15.137,-6.836,72.266,-24.902,0.000,0
33074.825,-20.996,-9.277,49.316,-12.695,0.000,0
33074.829,-17.578,-12.207,-83.008,9.766,0.000,0
33074.833,-2.441,-10.742,-92.285,6.348,0.000,0
33074.836,8.301,-17.090,65.918,-26.855,0.000,0
33074.840,-9.277,-15.625,73.730,-25.391,0.000,0
33074.844,-11.719,-13.184,-56.641,-1.953,0.000,0
33074.848,-16.113,-14.160,-131.836,-6.348,0.000,0
33074.852,-10.742,-15.137,15.625,-7.812,0.000,0
33074.856,-24.902,-22.461,80.566,-17.090,0.000,0
33074.860,-19.531,-24.414,-28.809,5.859,0.000,0
33074.864,-16.113,-19.531,-148.926,4.395,0.000,0
33074.868,-2.930,-12.207,-27.344,10.254,0.000,0
33074.872,-6.836,-11.719,91.797,15.137,0.000,0
33074.876,-5.371,-15.625,26.855,-2.441,0.000,0
33074.879,-17.090,-14.160,-115.723,-17.578,0.000,0
33074.883,-15.137,-11.230,-59.082,-13.184,0.000,0
33074.887,0.000,-12.695,79.590,-6.348,0.000,0
33074.891,2.930,-14.160,46.875,1.953,0.000,0
33074.895,-3.906,-15.625,-76.172,3.418,0.000,0
33074.899,-12.207,-13.672,-94.727,6.348,0.000,0
33074.903,2.930,-10.254,47.852,2.930,0.000,0
33074.907,-1.953,-9.277,74.219,-4.395,0.000,0
33074.911,-2.441,-10.254,-49.805,25.391,0.000,0
33074.915,-15.137,-11.719,-129.883,7.324,0.000,0
33074.918,1.953,-6.836,13.672,-6.836,0.000,0
33074.922,4.883,-10.254,78.613,-6.348,0.000,0
33074.926,-5.859,-19.531,-15.625,-2.930,0.000,0
33074.930,-22.461,-18.555,-138.672,5.371,0.000,0
33074.934,-10.742,-15.625,-30.762,6.836,0.000,0
33074.938,-5.859,-14.160,86.426,-18.555,0.000,0
33074.942,-8.301,-14.160,31.738,-20.020,0.000,0
33074.946,-4.395,-15.625,-104.980,19.531,0.000,0
33074.950,-0.488,-10.254,-78.125,28.320,0.000,0
33074.954,9.766,-10.254,72.266,-6.836,0.000,0
33074.958,9.766,-11.230,65.430,-10.742,0.000,0
33074.961,-8.301,-13.184,-72.266,16.602,0.000,0
33074.965,-9.277,-12.695,-111.328,14.160,0.000,0
33074.969,12.695,-6.836,43.945,-0.977,0.000,0
33074.973,-11.719,-12.695,83.984,-10.254,0.000,0
33074.977,-9.277,-11.230,-35.645,9.277,0.000,0
33074.981,-5.859,-8.301,-139.648,-17.578,0.000,0
33074.985,-7.812,-11.230,-10.254,-19.531,0.000,0
33074.989,-7.324,-17.090,74.707,-0.977,0.000,0
33074.993,-2.441,-16.602,4.395,-6.348,0.000,0
33074.997,-15.137,-17.090,-123.047,9.766,0.000,0
33075.001,-12.207,-16.602,-42.480,20.020,0.000,0
33075.004,-14.648,-9.766,80.078,-0.488,0.000,0
33075.008,-20.996,-16.113,32.227,-1.953,0.000,0
33075.012,-20.996,-23.438,-104.492,-10.742,0.000,0
33075.016,-5.859,-19.531,-80.566,-19.043,0.000,0
33075.020,0.977,-13.184,67.383,-16.602,0.000,0
33075.024,-14.648,-9.766,60.547,0.488,0.000,0
33075.028,-7.324,-7.324,-73.730,25.391,0.000,0
33075.032,-4.883,-7.812,-115.234,1.465,0.000,0
33075.036,0.000,-7.324,39.551,-7.812,0.000,0
33075.040,-7.812,-12.207,64.453,-13.672,0.000,0
33075.043,-13.184,-18.555,-49.805,6.348,0.000,0
33075.047,-27.344,-15.625,-145.508,18.066,0.000,0
33075.051,-6.836,-10.254,-4.395,-11.230,0.000,0
33075.055,10.742,-5.371,93.750,-29.785,0.000,0
33075.059,6.836,-7.812,5.859,-4.883,0.000,0
33075.063,-20.996,-17.578,-125.000,12.207,0.000,0
33075.067,-4.395,-11.230,-50.781,8.789,0.000,0
33075.071,9.766,-8.301,90.820,-16.602,0.000,0
33075.075,7.324,-12.695,52.246,-4.883,0.000,0
33075.079,-11.230,-10.742,-97.656,20.996,0.000,0
33075.083,-18.555,-9.766,-95.703,-1.953,0.000,0
33075.086,2.930,-10.254,54.199,-15.625,0.000,0
33075.090,-2.441,-13.672,62.988,-12.207,0.000,0
33075.094,-15.625,-15.625,-53.223,-10.254,0.000,0
33075.098,-37.598,-11.719,-125.488,-23.438,0.000,0
33075.102,-23.438,-12.695,15.625,-23.438,0.000,0
33075.106,-17.090,-13.672,68.848,-26.855,0.000,0
33075.110,-20.508,-16.602,-26.367,-8.789,0.000,0
33075.114,-37.598,-19.043,-138.184,-22.461,0.000,0
33075.118,-3.906,-12.695,-31.738,-28.809,0.000,0
33075.122,3.906,-13.184,86.914,-31.250,0.000,0
33075.126,-18.066,-10.254,20.996,-14.648,0.000,0
33075.129,-19.531,-8.301,-119.141,-13.672,0.000,0
33075.133,-5.371,-0.488,-56.152,-21.484,0.000,0
33075.137,-4.883,2.930,83.496,-13.184,0.000,0
33075.141,-10.254,-3.418,55.664,-8.789,0.000,0
33075.145,-4.395,-5.371,-89.355,10.254,0.000,0
33075.149,-9.766,-10.742,-112.305,2.441,0.000,0
33075.153,-4.395,-11.230,52.734,-29.785,0.000,0
33075.157,-14.160,-12.695,76.660,-35.645,0.000,0
33075.161,-15.625,-18.066,-43.945,-6.836,0.000,0
33075.165,-25.879,-10.742,-135.254,0.000,0.000,0
33075.168,-13.184,-11.230,2.441,-21.484,0.000,0
33075.172,-11.719,-14.160,87.891,-43.457,0.000,0
33075.176,-6.836,-13.672,-9.766,-7.324,0.000,0
33075.180,-14.160,-13.184,-140.137,-1.953,0.000,1
33075.184,7.812,-3.906,-34.668,-8.301,0.000,0
33075.188,6.348,-8.301,86.914,-10.254,0.000,0
33075.192,-13.672,-18.066,22.461,-20.508,0.000,0
33075.196,-8.301,-12.207,-124.512,-19.531,0.000,0
33075.200,-13.672,-7.324,-72.754,-9.766,0.000,0
33075.204,-20.508,-10.254,82.520,-6.836,0.000,0
33075.208,-20.508,-14.160,40.527,-13.672,0.000,0
33075.211,-23.926,-19.043,-95.703,-13.184,0.000,0
33075.215,-26.367,-12.695,-119.141,-16.113,0.000,0
33075.219,-2.441,-9.277,29.785,-15.137,0.000,0
33075.223,5.859,-13.672,65.918,-15.625,0.000,0
33075.227,-1.465,-13.672,-42.480,-7.812,0.000,0
33075.231,-22.949,-8.789,-130.859,-19.531,0.000,0
33075.235,-6.348,-3.906,-3.418,-22.949,0.000,0
33075.239,8.301,-5.371,69.824,-30.273,0.000,0
33075.243,2.930,-8.301,-13.672,-18.066,0.000,0
33075.247,-22.949,-13.184,-137.207,-17.090,0.000,0
33075.251,-17.578,-12.695,-58.594,-29.297,0.000,0
33075.254,-7.812,-14.648,64.941,-42.480,0.000,0
33075.258,-4.395,-25.391,27.832,-29.785,0.000,0
33075.262,-20.996,-31.738,-111.328,-20.508,0.000,0
33075.266,-17.578,-20.508,-99.121,-27.344,0.000,0
33075.270,-5.371,-13.672,54.199,-32.227,0.000,0
33075.274,-19.043,-15.625,52.734,-59.570,0.000,0
33075.278,-19.531,-21.973,-82.031,-38.574,0.000,0
33075.282,-30.762,-22.461,-137.207,-24.414,0.000,0
33075.286,-12.207,-13.184,9.766,-41.016,0.000,0
33075.290,-3.418,-15.625,65.918,-51.270,0.000,0
33075.293,6.348,-18.555,-35.645,-26.367,0.000,0
33075.297,-5.371,-17.578,-156.250,-22.461,0.000,0
33075.301,-9.766,-16.113,-34.180,-21.484,0.000,0
33075.305,-12.695,-16.602,71.777,-15.625,0.000,0
33075.309,-8.789,-17.578,2.441,-32.715,0.000,0
33075.313,-20.508,-17.090,-139.648,-34.180,0.000,0
33075.317,-16.602,-17.090,-72.266,-21.973,0.000,0
33075.321,-0.977,-17.090,85.938,-28.809,0.000,0
33075.325,-19.043,-17.578,20.020,-35.645,0.000,0
33075.329,-22.949,-14.160,-114.746,-38.574,0.000,0
33075.333,-15.137,-11.230,-12.695,-49.316,0.000,0
33075.336,-17.578,-12.695,94.238,-53.223,0.000,0
33075.340,3.906,-9.277,15.137,-23.926,0.000,0
33075.344,-7.324,-10.254,-127.930,-7.324,0.000,0
33075.348,-6.836,-15.137,-65.918,-24.414,0.000,0
33075.352,17.578,-13.672,66.895,-33.691,0.000,0
33075.356,2.930,-14.160,38.086,-13.184,0.000,0
33075.360,-24.902,-18.555,-104.492,6.836,0.000,0
33075.364,-21.973,-16.113,-106.445,-28.320,0.000,0
33075.368,-3.906,-14.160,52.734,-58.594,0.000,0
33075.372,-10.742,-14.648,60.059,-53.223,0.000,0
33075.376,-17.090,-18.555,-63.477,-19.043,0.000,0
33075.379,-24.902,-19.043,-129.883,-12.207,0.000,0
33075.383,10.742,-11.719,17.090,-22.461,0.000,0
33075.387,-1.953,-14.160,81.543,-38.574,0.000,0
33075.391,-10.254,-12.695,-12.695,-21.973,0.000,0
33075.395,-2.441,-9.766,-130.371,-8.789,0.000,0
33075.399,2.441,-11.230,-31.250,-12.695,0.000,0
33075.403,4.883,-16.602,76.660,-24.902,0.000,0
33075.407,-2.441,-19.531,33.203,-34.180,0.000,0
33075.411,-17.578,-13.184,-109.863,-15.625,0.000,0
33075.415,-9.766,-9.277,-76.660,2.930,0.000,0
33075.418,-0.488,-8.789,66.895,-17.578,0.000,0
33075.422,-9.766,-8.301,46.875,-21.484,0.000,0
33075.426,-14.160,-8.789,-92.285,-9.766,0.000,0
33075.430,-11.719,-5.859,-121.094,-15.625,0.000,0
33075.434,6.836,-6.836,37.598,-22.949,0.000,0
33075.438,-13.184,-11.230,74.707,-37.109,0.000,0
33075.442,-16.602,-13.184,-37.109,-13.184,0.000,0
33075.446,-14.160,-8.789,-117.188,-23.926,0.000,0
33075.450,-2.441,-4.395,14.160,-29.297,0.000,0
33075.454,-16.113,-6.348,84.473,-19.043,0.000,0
33075.458,-10.254,-9.277,-5.371,-17.578,0.000,0
33075.461,-12.695,-6.348,-135.742,-13.672,0.000,0
33075.465,-20.996,-3.906,-32.227,-12.695,0.000,0
33075.469,-20.020,-9.277,83.008,-38.086,0.000,0
33075.473,-5.859,-8.789,28.320,-35.645,0.000,0
33075.477,-1.465,-1.953,-111.816,-11.230,0.000,0
33075.481,-10.254,-3.906,-91.309,-14.160,0.000,0
33075.485,-3.418,-14.160,79.590,-41.992,0.000,0
33075.489,2.930,-15.137,68.359,-43.945,0.000,0
33075.493,-5.859,-15.137,-85.449,-12.695,0.000,0
33075.497,-7.324,-12.207,-119.141,-10.742,0.000,0
33075.501,11.719,-5.371,40.039,-19.531,0.000,0
33075.504,-4.395,-11.719,76.172,-47.363,0.000,0
33075.508,-6.348,-17.578,-29.785,-32.227,0.000,0
33075.512,-6.348,-19.531,-123.535,-33.203,0.000,0
33075.516,3.906,-12.695,-9.766,-40.039,0.000,0
33075.520,-10.742,-12.695,61.035,-40.039,0.000,0
33075.524,-16.113,-22.461,-5.371,-23.926,0.000,0
33075.528,-27.832,-21.973,-126.465,-15.137,0.000,0
33075.532,-11.719,-17.090,-59.570,-20.020,0.000,0
33075.536,5.371,-8.789,69.824,-21.484,0.000,0
33075.540,-5.371,-9.277,36.133,-23.438,0.000,0
33075.543,-18.066,-16.602,-104.980,-21.484,0.000,0
33075.547,-15.625,-14.160,-105.469,-29.785,0.000,0
33075.551,0.000,-10.254,46.875,-39.551,0.000,0
33075.555,0.977,-14.648,53.711,-31.250,0.000,0
33075.559,-9.766,-11.230,-74.707,-8.301,0.000,0
33075.563,-23.438,-3.906,-107.910,-10.742,0.000,0
33075.567,-5.859,-0.488,31.738,-19.043,0.000,0
33075.571,-4.395,-3.418,65.430,-20.020,0.000,0
33075.575,-5.859,-5.859,-23.926,-15.137,0.000,0
33075.579,-24.414,1.465,-137.695,-21.484,0.000,0
33075.583,-18.066,7.812,-20.996,-24.902,0.000,0
33075.586,-19.043,9.277,76.172,-47.363,0.000,0
33075.590,-14.160,9.277,0.000,-34.180,0.000,0
33075.594,-15.137,17.090,-139.648,-5.371,0.000,0
33075.598,-16.602,28.809,-93.750,-14.648,0.000,0
33075.602,-18.066,32.227,45.410,-31.250,0.000,0
33075.606,-10.742,37.109,23.438,-34.180,0.000,0
33075.610,-4.883,45.898,-127.930,-13.672,0.000,0
33075.614,-14.160,52.734,-134.277,-21.484,0.000,0
33075.618,-11.230,63.477,28.320,-34.180,0.000,0
33075.622,-9.766,75.195,44.434,-36.133,0.000,0
33075.626,-9.766,76.172,-76.172,-20.020,0.000,0
33075.629,-30.273,76.172,-153.809,-5.371,0.000,0
33075.633,-14.160,83.496,-13.672,-9.766,0.000,0
33075.637,-15.137,84.473,51.270,-33.691,0.000,0
33075.641,-16.602,80.078,-37.109,-15.625,0.000,0
33075.645,-22.461,81.543,-140.625,-12.695,0.000,0
33075.649,-12.207,89.355,-29.785,-23.926,0.000,0
33075.653,-2.441,79.102,80.078,-34.180,0.000,0
33075.657,6.348,63.965,19.043,-1.465,0.000,0
33075.661,-13.672,59.570,-124.023,6.348,0.000,0
33075.665,-30.273,54.199,-73.730,-42.480,0.000,0
33075.668,-16.602,42.480,61.523,-41.504,0.000,0
33075.672,-4.883,31.738,35.645,-27.832,0.000,0
33075.676,-10.254,31.738,-98.633,-26.855,0.000,0
33075.680,-16.113,27.832,-115.723,-28.809,0.000,0
33075.684,-9.766,18.066,46.387,-48.828,0.000,0
33075.688,-20.508,12.207,65.430,-62.988,0.000,0
33075.692,-15.137,1.953,-50.293,-22.461,0.000,0
33075.696,-20.508,-3.906,-132.324,-7.812,0.000,0
33075.700,0.977,-1.465,10.742,-34.668,0.000,0
33075.704,-0.488,-12.695,93.750,-46.875,0.000,0
33075.708,-14.648,-16.113,9.277,-13.184,0.000,0
33075.711,-17.090,-17.090,-122.559,-12.695,0.000,0
33075.715,-3.906,-19.043,-38.086,-37.598,0.000,0
33075.719,-8.301,-22.461,86.426,-36.621,0.000,0
33075.723,-5.371,-27.344,47.363,-12.207,0.000,0
33075.727,1.953,-24.414,-104.004,-8.789,0.000,0
33075.731,5.859,-21.484,-85.449,-13.184,0.000,0
33075.735,14.648,-23.438,70.312,-15.625,0.000,0
33075.739,-4.883,-32.227,64.453,-24.414,0.000,0
33075.743,-12.695,-38.574,-72.266,-16.113,0.000,0
33075.747,-11.719,-38.086,-118.164,-6.836,0.000,0
33075.751,4.395,-35.645,36.133,-19.043,0.000,0
33075.754,2.441,-36.133,76.172,-32.715,0.000,0
33075.758,0.977,-43.945,-35.156,-11.719,0.000,0
33075.762,-7.324,-45.410,-125.000,-15.137,0.000,0
33075.766,16.113,-34.180,6.836,-18.555,0.000,0
33075.770,3.418,-33.691,88.379,-26.855,0.000,0
33075.774,2.441,-32.227,8.301,-12.207,0.000,0
33075.778,0.977,-30.762,-125.488,-2.930,0.000,0
33075.782,-8.301,-37.109,-50.781,-18.555,0.000,0
33075.786,7.812,-41.992,72.754,-19.531,0.000,0
33075.790,3.418,-40.039,35.156,-16.602,0.000,0
33075.793,-24.902,-34.668,-102.051,-4.395,0.000,0
33075.797,-19.043,-31.738,-95.703,1.465,0.000,0
33075.801,1.465,-37.598,67.871,-25.391,0.000,0
33075.805,-11.719,-36.133,72.266,-24.902,0.000,0
33075.809,-20.020,-37.598,-72.266,2.930,0.000,0
33075.813,-20.996,-46.875,-129.395,-7.812,0.000,0
33075.817,3.906,-43.457,30.762,-19.043,0.000,0
33075.821,-8.301,-42.480,81.543,-26.855,0.000,0
33075.825,-16.113,-41.992,-25.879,-13.184,0.000,0
33075.829,-16.113,-36.621,-124.512,-4.883,0.000,0
33075.833,2.441,-35.156,-5.371,-0.977,0.000,0
33075.836,-3.906,-38.086,81.055,-3.418,0.000,0
33075.840,-0.977,-42.969,18.555,-15.137,0.000,0
33075.844,-19.043,-37.109,-114.746,-25.391,0.000,0
33075.848,-18.066,-30.273,-73.242,-16.602,0.000,0
33075.852,-3.906,-35.645,54.199,-32.227,0.000,0
33075.856,-14.648,-39.062,35.156,-32.227,0.000,0
33075.860,-24.902,-40.527,-83.984,-17.578,0.000,1
33075.864,-18.066,-38.086,-97.168,-26.367,0.000,0
33075.868,0.000,-30.762,43.457,-36.621,0.000,0
33075.872,-15.625,-31.738,57.617,-36.621,0.000,0
33075.876,-23.926,-37.109,-62.988,-12.695,0.000,0
33075.879,-14.648,-30.273,-125.488,-17.578,0.000,0
33075.883,7.812,-24.414,20.996,-22.949,0.000,0
33075.887,-7.812,-28.320,82.520,-31.250,0.000,0
33075.891,-3.906,-29.297,-5.371,-15.625,0.000,0
33075.895,-16.602,-20.020,-131.348,-20.020,0.000,0
33075.899,-14.648,-17.090,-31.250,-43.457,0.000,0
33075.903,-12.695,-28.320,87.402,-62.988,0.000,0
33075.907,-16.113,-28.809,32.715,-50.781,0.000,0
33075.911,-21.484,-23.438,-124.023,-26.855,0.000,0
33075.915,-15.137,-22.949,-89.355,-17.090,0.000,0
33075.918,6.348,-27.832,74.219,-34.668,0.000,0
33075.922,4.395,-30.273,65.918,-40.039,0.000,0
33075.926,-1.953,-27.344,-88.379,-13.184,0.000,0
33075.930,-3.906,-23.438,-115.234,-21.484,0.000,0
33075.934,8.301,-24.414,50.293,-34.668,0.000,0
33075.938,-1.465,-28.809,62.988,-38.086,0.000,0
33075.942,-24.902,-26.367,-47.363,-28.320,0.000,0
33075.946,-39.551,-23.438,-126.465,-26.367,0.000,0
33075.950,-18.555,-23.926,14.160,-20.996,0.000,0
33075.954,-15.625,-18.066,84.961,-20.996,0.000,0
33075.958,-14.648,-21.484,-2.930,-20.996,0.000,0
33075.961,-24.902,-26.855,-126.465,-31.738,0.000,0
33075.965,-21.973,-23.438,-44.434,-40.527,0.000,0
33075.969,-23.926,-28.809,72.266,-52.246,0.000,0
33075.973,-24.902,-29.785,25.391,-22.461,0.000,0
33075.977,-33.691,-31.738,-119.141,-14.648,0.000,0
33075.981,-34.668,-30.273,-92.285,-41.992,0.000,0
33075.985,-14.648,-28.320,54.199,-20.508,0.000,0
33075.989,2.930,-30.273,42.969,-3.906,0.000,0
33075.993,-9.766,-20.996,-82.031,-8.301,0.000,0
33075.997,-36.133,-21.973,-128.906,-21.973,0.000,0
33076.001,-10.254,-22.949,30.762,-40.527,0.000,0
33076.004,-11.719,-22.461,71.289,-41.016,0.000,0
33076.008,-17.578,-26.855,-33.691,-10.254,0.000,0
33076.012,-18.066,-24.902,-138.184,-7.324,0.000,0
33076.016,3.418,-20.020,-18.066,-6.348,0.000,0
33076.020,-0.488,-20.996,83.984,-24.414,0.000,0
33076.024,-4.395,-22.949,12.207,-25.879,0.000,0
33076.028,-8.301,-20.508,-132.812,-4.883,0.000,0
33076.032,-12.695,-21.973,-65.918,-12.695,0.000,0
33076.036,-7.324,-27.344,73.242,-27.344,0.000,0
33076.040,-2.930,-27.344,48.828,-29.297,0.000,0
33076.043,-9.277,-26.367,-106.934,-14.648,0.000,0
33076.047,-1.953,-32.715,-113.281,-16.113,0.000,0
33076.051,14.648,-26.367,46.387,-21.484,0.000,0
33076.055,-5.859,-20.020,60.059,-17.578,0.000,0
33076.059,-8.789,-22.461,-59.570,-5.859,0.000,0
33076.063,-4.883,-20.996,-123.047,1.465,0.000,0
33076.067,11.230,-22.461,20.020,-2.441,0.000,0
33076.071,8.301,-20.508,72.266,-21.973,0.000,0
33076.075,1.465,-17.090,-19.043,-6.836,0.000,0
33076.079,-9.766,-20.996,-119.629,-8.301,0.000,0
33076.083,0.488,-15.625,-14.160,-20.020,0.000,0
33076.086,0.977,-14.160,78.613,-20.508,0.000,0
33076.090,-0.977,-21.484,9.277,-0.488,0.000,0
33076.094,-13.672,-19.043,-128.418,3.418,0.000,0
33076.098,-17.090,-18.066,-59.570,-13.672,0.000,0
33076.102,-16.602,-18.066,68.848,-20.020,0.000,0
33076.106,-13.184,-14.648,30.762,-13.672,0.000,0
33076.110,-9.277,-13.184,-104.980,2.441,0.000,0
33076.114,-19.531,-14.648,-104.980,2.930,0.000,0
33076.118,-6.348,-16.602,59.082,-25.879,0.000,0
33076.122,-3.418,-18.066,66.406,-31.738,0.000,0
33076.126,-3.418,-19.043,-51.758,4.883,0.000,0
33076.129,-10.254,-16.113,-114.746,-2.930,0.000,0
33076.133,-6.348,-15.137,15.625,-7.324,0.000,0
33076.137,-16.602,-25.391,76.172,-41.016,0.000,0
33076.141,-10.254,-19.043,-8.301,-20.508,0.000,0
33076.145,-17.578,-8.301,-113.281,-8.789,0.000,0
33076.149,-3.906,-5.859,-16.113,-23.926,0.000,0
33076.153,0.488,-11.230,76.172,-9.766,0.000,0
33076.157,1.465,-15.625,26.367,-0.488,0.000,0
33076.161,0.488,-7.812,-109.863,1.953,0.000,0
33076.165,2.930,-5.371,-87.891,5.371,0.000,0
33076.168,21.484,-7.812,57.129,-5.859,0.000,0
33076.172,25.391,-8.301,52.246,-7.324,0.000,0
33076.176,-4.883,-13.672,-70.312,3.418,0.000,0
33076.180,-20.996,-16.602,-107.422,12.207,0.000,0
33076.184,4.883,-14.160,38.574,-6.348,0.000,0
33076.188,-15.625,-17.090,73.730,-34.180,0.000,0
33076.192,-25.391,-20.508,-50.781,-14.160,0.000,0
33076.196,-27.832,-20.508,-136.719,-22.949,0.000,0
33076.200,-15.625,-15.625,7.812,-27.344,0.000,0
33076.204,-19.043,-15.137,86.914,-19.531,0.000,0
33076.208,-15.137,-20.996,1.953,-1.953,0.000,0
33076.211,-20.508,-19.531,-132.324,-12.695,0.000,0
33076.215,-8.789,-13.672,-40.527,-19.531,0.000,0
33076.219,-2.930,-18.555,81.055,-34.668,0.000,0
33076.223,-10.742,-20.508,23.438,-38.086,0.000,0
33076.227,-25.391,-21.484,-124.512,-5.371,0.000,0
33076.231,-21.973,-22.949,-97.168,-13.672,0.000,0
33076.235,-1.465,-20.020,61.523,-27.832,0.000,0
33076.239,6.348,-20.996,54.688,-19.531,0.000,0
33076.243,-10.254,-20.508,-84.473,3.906,0.000,0
33076.247,-34.180,-15.625,-126.953,-13.184,0.000,0
33076.251,-20.508,-13.672,31.250,-23.438,0.000,0
33076.254,-21.484,-19.043,68.848,-26.367,0.000,0
33076.258,-18.066,-21.484,-39.551,-25.391,0.000,0
33076.262,-20.508,-21.973,-132.812,-18.555,0.000,0
33076.266,-3.906,-13.184,-9.766,-17.090,0.000,0
33076.270,-3.418,-16.602,65.430,-34.668,0.000,0
33076.274,-8.301,-26.367,-8.301,-23.438,0.000,0
33076.278,-23.926,-22.949,-126.953,-20.996,0.000,0
33076.282,-12.695,-11.719,-51.758,-26.367,0.000,0
33076.286,10.742,-14.160,75.195,-34.668,0.000,0
33076.290,0.977,-24.414,34.180,-20.996,0.000,0
33076.293,-21.484,-26.855,-109.863,-14.648,0.000,0
33076.297,-19.531,-19.043,-101.074,-32.715,0.000,0
33076.301,-7.812,-15.625,46.387,-27.832,0.000,0
33076.305,-17.090,-22.949,47.852,-28.809,0.000,0
33076.309,-24.414,-28.320,-83.984,-3.906,0.000,0
33076.313,-20.020,-31.738,-73.242,-9.766,0.000,0
33076.317,-9.277,-29.785,52.246,-55.176,0.000,0
33076.321,-17.090,-30.273,31.250,-42.480,0.000,0
33076.325,-27.344,-29.785,-104.492,-6.348,0.000,0
33076.329,-14.160,-24.902,-116.699,-14.160,0.000,0
33076.333,0.000,-28.320,46.875,-45.898,0.000,0
33076.336,-10.742,-27.832,54.199,-40.039,0.000,0
33076.340,-15.625,-26.367,-83.008,-10.742,0.000,0
33076.344,-16.113,-25.391,-147.949,-18.066,0.000,0
33076.348,-9.277,-25.391,-2.441,-29.785,0.000,0
33076.352,-23.438,-30.273,68.848,-48.340,0.000,0
33076.356,-11.719,-27.832,-29.297,-33.691,0.000,0
33076.360,-22.949,-25.391,-156.250,-19.043,0.000,0
33076.364,-14.648,-23.438,-43.457,-15.625,0.000,0
33076.368,-4.883,-21.484,71.777,-19.531,0.000,0
33076.372,-4.395,-25.879,9.277,-19.043,0.000,0
33076.376,-19.531,-23.438,-127.930,-14.648,0.000,0
33076.379,-19.531,-14.160,-72.754,-10.742,0.000,0
33076.383,-20.508,-19.531,65.430,-36.133,0.000,0
33076.387,-18.555,-23.926,33.691,-32.715,0.000,0
33076.391,-10.742,-23.438,-93.262,-14.648,0.000,0
33076.395,-23.926,-19.531,-111.816,-28.809,0.000,0
33076.399,-10.742,-16.602,26.855,-36.621,0.000,0
33076.403,-19.043,-22.461,52.734,-34.180,0.000,0
33076.407,-27.344,-21.484,-67.383,-1.465,0.000,0
33076.411,-36.621,-17.578,-142.578,-8.789,0.000,0
33076.415,-26.855,-18.066,0.488,-25.879,0.000,0
33076.418,-15.137,-20.996,59.570,-20.020,0.000,0
33076.422,-4.883,-24.414,-26.855,-5.859,0.000,0
33076.426,-24.414,-20.508,-148.438,-8.789,0.000,0
33076.430,-25.391,-21.973,-49.805,-35.156,0.000,0
33076.434,-14.160,-26.855,75.684,-60.547,0.000,0
33076.438,-18.066,-15.625,13.672,-31.738,0.000,0
33076.442,-32.227,-15.625,-133.789,-13.672,0.000,0
33076.446,-11.230,-11.230,-89.844,-14.160,0.000,0
33076.450,7.812,-11.230,62.500,-20.020,0.000,0
33076.454,-11.230,-22.949,53.711,-21.484,0.000,0
33076.458,-12.207,-20.020,-76.172,-3.906,0.000,0
33076.461,-9.277,-14.648,-112.793,-19.043,0.000,0
33076.465,2.441,-15.625,36.621,-29.785,0.000,0
33076.469,-1.953,-23.438,75.684,-28.809,0.000,0
33076.473,-8.301,-27.832,-36.133,-25.879,0.000,0
33076.477,-29.297,-22.949,-144.043,-27.344,0.000,0
33076.481,-15.137,-20.508,-19.043,-29.785,0.000,0
33076.485,-19.043,-20.508,70.801,-43.457,0.000,0
33076.489,-23.926,-29.297,-6.836,-33.691,0.000,0
33076.493,-29.297,-34.668,-147.461,-37.598,0.000,0
33076.497,-28.320,-31.250,-71.289,-37.598,0.000,0
33076.501,-31.250,-34.668,59.570,-44.922,0.000,0
33076.504,-35.645,-39.062,10.742,-35.156,0.000,0
33076.508,-29.785,-37.598,-128.906,-22.949,0.000,0
33076.512,-40.039,-36.133,-104.980,-48.340,0.000,0
33076.516,-45.410,-31.250,39.062,-47.363,0.000,0
33076.520,-36.621,-29.785,37.598,-33.203,0.000,1
33076.524,-38.086,-38.086,-90.332,-33.691,0.000,0
33076.528,-56.641,-44.434,-147.461,-48.828,0.000,0
33076.532,-27.832,-41.992,8.789,-57.129,0.000,0
33076.536,-26.367,-36.621,61.035,-62.988,0.000,0
33076.540,-29.785,-38.574,-55.664,-39.551,0.000,0
33076.543,-40.039,-38.574,-170.898,-25.879,0.000,0
33076.547,-33.203,-35.645,-39.062,-33.691,0.000,0
33076.551,-33.691,-40.039,59.570,-60.547,0.000,0
33076.555,-30.273,-37.598,-24.414,-47.363,0.000,0
33076.559,-27.344,-31.738,-155.273,-26.367,0.000,0
33076.563,-29.785,-31.250,-76.660,-32.227,0.000,0
33076.567,-26.855,-34.668,52.734,-44.922,0.000,0
33076.571,-24.414,-37.109,21.484,-46.875,0.000,0
33076.575,-27.832,-36.133,-108.887,-32.227,0.000,0
33076.579,-39.551,-30.762,-112.793,-34.180,0.000,0
33076.583,-28.809,-33.203,33.691,-40.527,0.000,0
33076.586,-23.438,-39.062,46.875,-40.039,0.000,0
33076.590,-36.621,-41.504,-78.125,-32.715,0.000,0
33076.594,-47.363,-30.762,-152.344,-28.809,0.000,0
33076.598,-23.438,-26.367,-11.719,-21.973,0.000,0
33076.602,-22.949,-38.086,45.898,-41.992,0.000,0
33076.606,-30.762,-39.551,-38.086,-31.250,0.000,0
33076.610,-46.387,-35.645,-146.973,-27.344,0.000,0
33076.614,-3.906,-28.320,-41.504,-39.062,0.000,0
33076.618,1.465,-25.391,71.289,-40.039,0.000,0
33076.622,-33.203,-30.762,-0.488,-41.504,0.000,0
33076.626,-44.434,-31.738,-142.578,-43.457,0.000,0
33076.629,-33.203,-30.273,-82.031,-46.387,0.000,0
33076.633,-27.344,-29.297,64.453,-52.246,0.000,0
33076.637,-31.738,-34.668,39.551,-45.410,0.000,0
33076.641,-32.715,-36.133,-104.980,-18.555,0.000,0
33076.645,-30.273,-29.785,-130.859,-11.230,0.000,0
33076.649,-20.996,-28.320,29.785,-41.016,0.000,0
33076.653,-36.621,-28.809,62.988,-51.270,0.000,0
33076.657,-31.738,-24.414,-58.594,-18.066,0.000,0
33076.661,-32.227,-26.367,-153.320,-34.668,0.000,0
33076.665,-25.879,-27.344,-7.812,-34.668,0.000,0
33076.668,-25.391,-26.367,74.219,-46.387,0.000,0
33076.672,-8.301,-23.926,-24.902,-45.898,0.000,0
33076.676,-22.461,-13.184,-152.344,-27.832,0.000,0
33076.680,-26.855,-13.184,-47.363,-20.996,0.000,0
33076.684,-9.277,-22.949,77.637,-28.809,0.000,0
33076.688,-21.973,-24.414,-46.387,-31.250,0.000,0
33076.692,-40.527,-17.090,-138.672,-13.184,0.000,0
33076.696,-27.344,-17.578,2.441,-19.531,0.000,0
33076.700,-28.320,-19.043,71.777,-32.227,0.000,0
33076.704,-29.785,-22.949,-6.836,-30.762,0.000,0
33076.708,-39.551,-34.668,-138.672,-38.086,0.000,0
33076.711,-25.391,-29.297,-59.570,-36.133,0.000,0
33076.715,-10.254,-22.461,67.383,-45.898,0.000,0
33076.719,-12.695,-27.832,15.137,-32.227,0.000,0
33076.723,-30.273,-32.715,-128.906,-24.414,0.000,0
33076.727,-25.879,-30.273,-94.727,-40.527,0.000,0
33076.731,-15.625,-20.996,44.434,-28.809,0.000,0
33076.735,-21.973,-23.926,38.086,-26.855,0.000,0
33076.739,-30.762,-29.297,-83.984,-30.273,0.000,0
33076.743,-34.180,-24.414,-133.301,-26.367,0.000,0
33076.747,-2.441,-22.949,25.879,-50.293,0.000,0
33076.751,-22.949,-21.484,70.312,-56.641,0.000,0
33076.754,-25.879,-17.090,-41.016,-8.789,0.000,0
33076.758,-11.719,-14.648,-139.160,-13.672,0.000,0
33076.762,0.977,-14.160,-12.207,-35.156,0.000,0
33076.766,-9.766,-23.438,82.520,-49.805,0.000,0
33076.770,-9.277,-29.785,1.953,-34.180,0.000,0
33076.774,-25.391,-28.320,-140.137,-26.855,0.000,0
33076.778,-25.391,-23.926,-66.895,-34.668,0.000,0
33076.782,-19.531,-24.414,69.336,-50.293,0.000,0
33076.786,-20.020,-26.855,38.574,-57.129,0.000,0
33076.790,-17.578,-18.555,-115.723,-41.504,0.000,0
33076.793,-20.020,-11.230,-119.141,-31.738,0.000,0
33076.797,-16.113,-16.602,42.969,-33.691,0.000,0
33076.801,-26.367,-21.973,53.711,-36.621,0.000,0
33076.805,-29.785,-22.949,-67.383,-36.133,0.000,0
33076.809,-30.273,-21.484,-129.395,-28.320,0.000,0
33076.813,-14.160,-17.578,17.090,-20.020,0.000,0
33076.817,-20.020,-20.996,69.336,-44.434,0.000,0
33076.821,-14.648,-21.484,-36.621,-33.203,0.000,0
33076.825,-30.273,-18.555,-134.766,-28.809,0.000,0
33076.829,-22.949,-15.625,-11.719,-32.715,0.000,0
33076.833,-7.324,-14.648,81.543,-35.645,0.000,0
33076.836,-6.348,-18.066,16.602,-24.902,0.000,0
33076.840,-17.578,-26.367,-118.652,-22.949,0.000,0
33076.844,-15.625,-22.461,-65.430,-30.273,0.000,0
33076.848,-18.555,-17.578,65.430,-41.992,0.000,0
33076.852,-26.855,-19.531,27.832,-46.875,0.000,0
33076.856,-35.645,-28.809,-121.094,-22.949,0.000,0
33076.860,-38.574,-34.180,-124.023,-11.719,0.000,0
33076.864,-19.531,-29.297,40.039,-25.879,0.000,0
33076.868,-17.090,-26.367,57.617,-40.527,0.000,0
33076.872,-1.465,-23.438,-66.895,-22.461,0.000,0
33076.876,-18.555,-20.020,-136.719,-26.367,0.000,0
33076.879,-16.602,-15.625,4.883,-28.320,0.000,0
33076.883,-16.113,-19.531,64.941,-48.340,0.000,0
33076.887,-13.184,-20.508,-18.555,-43.457,0.000,0
33076.891,-27.832,-19.531,-129.395,-26.855,0.000,0
33076.895,-10.742,-15.625,-33.691,-28.320,0.000,0
33076.899,-4.395,-12.695,74.707,-38.086,0.000,0
33076.903,-20.020,-18.555,18.555,-36.621,0.000,0
33076.907,-27.832,-20.020,-126.465,-27.832,0.000,0
33076.911,-18.555,-16.113,-92.773,-20.996,0.000,0
33076.915,-2.930,-14.648,56.152,-24.902,0.000,0
33076.918,-7.812,-13.672,45.898,-23.438,0.000,0
33076.922,-20.508,-13.672,-91.797,-24.414,0.000,0
33076.926,-27.832,-20.020,-121.094,-44.434,0.000,0
33076.930,-12.695,-20.020,31.250,-36.621,0.000,0
33076.934,-22.461,-20.508,60.059,-33.691,0.000,0
33076.938,-25.879,-23.438,-68.359,-23.926,0.000,0
33076.942,-18.555,-23.438,-79.590,-24.902,0.000,0
33076.946,-26.855,-20.996,54.688,-44.434,0.000,0
33076.950,-29.785,-22.949,46.387,-43.457,0.000,0
33076.954,-32.227,-25.879,-90.820,-24.414,0.000,0
33076.958,-35.156,-18.555,-130.859,-3.418,0.000,0
33076.961,-23.438,-13.672,31.250,-17.090,0.000,0
33076.965,-23.926,-17.578,71.289,-45.410,0.000,0
33076.969,-12.695,-18.555,-56.152,-1.465,0.000,0
33076.973,-24.414,-18.555,-159.180,8.301,0.000,0
33076.977,-20.996,-20.996,-18.555,-23.926,0.000,0
33076.981,-17.090,-23.926,83.008,-42.480,0.000,0
33076.985,-10.742,-26.367,-12.695,-38.086,0.000,0
33076.989,-21.484,-30.273,-147.461,-39.551,0.000,0
33076.993,-9.277,-21.484,-54.688,-25.391,0.000,0
33076.997,-8.789,-12.695,69.336,-18.066,0.000,0
33077.001,-17.090,-17.090,30.762,-31.738,0.000,0
33077.004,-21.973,-15.625,-104.492,-25.879,0.000,0
33077.008,-33.203,-13.184,-100.586,-25.391,0.000,0
33077.012,-17.578,-13.672,53.711,-25.879,0.000,0
33077.016,-9.766,-11.230,60.059,-17.090,0.000,0
33077.020,-1.465,-16.113,-65.918,-3.906,0.000,0
33077.024,-10.254,-9.766,-115.234,5.371,0.000,0
33077.028,-2.930,-5.371,26.855,-18.555,0.000,0
33077.032,-0.488,-13.672,65.918,-48.828,0.000,0
33077.036,-1.953,-14.160,-40.039,-14.648,0.000,0
33077.040,-25.391,-17.578,-139.160,-17.578,0.000,0
33077.043,-17.090,-20.020,-19.043,-26.855,0.000,0
33077.047,-20.996,-19.043,69.824,-29.785,0.000,0
33077.051,-20.508,-21.484,-2.930,-24.414,0.000,0
33077.055,-25.391,-21.973,-137.207,-15.625,0.000,0
33077.059,-23.926,-27.344,-62.500,-37.109,0.000,0
33077.063,-20.020,-24.902,74.707,-50.293,0.000,0
33077.067,-20.020,-18.066,39.062,-28.809,0.000,0
33077.071,-15.625,-24.414,-98.145,-6.348,0.000,0
33077.075,-10.742,-18.066,-107.910,0.977,0.000,0
33077.079,4.395,-14.160,50.781,-19.043,0.000,0
33077.083,-4.883,-20.020,70.801,-42.480,0.000,0
33077.086,-2.930,-14.160,-60.059,-2.441,0.000,0
33077.090,-11.719,-14.160,-133.789,12.695,0.000,0
33077.094,-6.836,-16.113,14.648,-13.184,0.000,0
33077.098,-12.695,-20.996,82.520,-41.504,0.000,0
33077.102,-19.043,-26.367,-19.043,-31.738,0.000,0
33077.106,-27.344,-22.949,-152.832,-19.043,0.000,0
33077.110,-6.348,-15.137,-41.992,-15.625,0.000,0
33077.114,-6.836,-11.230,75.684,-19.531,0.000,0
33077.118,-18.555,-22.949,17.090,-20.020,0.000,0
33077.122,-12.695,-26.855,-117.676,-28.809,0.000,0
33077.126,-4.883,-17.578,-67.871,-25.391,0.000,0
33077.129,-10.742,-22.949,76.172,-24.902,0.000,0
33077.133,-18.066,-24.902,45.898,-10.742,0.000,0
33077.137,-19.043,-23.438,-87.891,-7.812,0.000,0
33077.141,-18.066,-22.461,-95.703,-20.508,0.000,0
33077.145,-0.977,-18.555,45.410,-12.207,0.000,0
33077.149,-9.277,-21.484,66.895,-19.531,0.000,0
33077.153,-16.602,-13.672,-47.363,-3.906,0.000,0
33077.157,-24.902,-14.648,-132.324,-6.836,0.000,0
33077.161,-17.090,-20.996,6.836,-24.414,0.000,0
33077.165,-17.578,-15.625,69.824,-33.691,0.000,0
33077.168,-14.648,-19.043,-18.555,-13.672,0.000,0
33077.172,-23.926,-18.555,-138.672,-1.465,0.000,0
33077.176,-2.441,-11.230,-40.039,-9.766,0.000,0
33077.180,-1.465,-11.230,85.938,-25.879,0.000,0
33077.184,-11.230,-7.812,34.668,5.371,0.000,0
33077.188,-5.859,-12.207,-104.492,19.531,0.000,0
33077.192,11.719,-9.766,-71.289,4.395,0.000,0
33077.196,12.207,-2.441,78.613,-9.766,0.000,0
33077.200,4.395,-13.184,69.336,-31.250,0.000,0
33077.204,5.859,-16.602,-67.871,-11.719,0.000,0
33077.208,-9.766,-13.184,-118.652,-10.254,0.000,0
33077.211,5.371,-11.230,25.879,-22.949,0.000,0
33077.215,1.465,-11.719,76.660,-24.414,0.000,0
33077.219,-7.812,-10.742,-19.531,-8.789,0.000,0
33077.223,-4.395,-8.301,-127.441,-1.465,0.000,0
33077.227,11.719,-6.836,-4.883,-15.625,0.000,0
33077.231,6.348,-8.301,88.867,-29.297,0.000,0
33077.235,7.324,-17.578,3.906,-9.277,0.000,1
33077.239,-2.441,-20.996,-126.953,-5.371,0.000,0
33077.243,-0.488,-16.602,-43.945,-20.508,0.000,0
33077.247,-6.348,-16.602,85.938,-30.762,0.000,0
33077.251,-10.254,-13.672,44.434,-36.133,0.000,0
33077.254,-12.207,-12.207,-105.957,-26.367,0.000,0
33077.258,-9.766,-10.254,-100.586,-21.973,0.000,0
33077.262,-7.812,-6.836,62.500,-26.855,0.000,0
33077.266,-4.883,-12.207,69.336,-26.367,0.000,0
33077.270,0.000,-8.789,-61.035,-1.465,0.000,0
33077.274,-27.344,-7.812,-121.094,-0.977,0.000,0
33077.278,-11.719,-21.973,26.855,-20.508,0.000,0
33077.282,-9.766,-20.508,76.660,-22.949,0.000,0
33077.286,-4.395,-19.531,-42.969,-0.977,0.000,0
33077.290,-19.043,-26.367,-152.832,3.906,0.000,0
33077.293,-21.484,-23.926,-21.973,-20.020,0.000,0
33077.297,-19.043,-21.484,72.266,-40.039,0.000,0
33077.301,-16.113,-20.020,-69.336,-22.461,0.000,0
33077.305,-17.090,-20.508,-130.859,-17.090,0.000,0
33077.309,-6.836,-15.137,26.367,-16.602,0.000,0
33077.313,-4.883,-12.695,76.172,-23.438,0.000,0
33077.317,0.000,-15.625,-18.555,-12.695,0.000,0
33077.321,-17.090,-14.648,-123.535,0.000,0.000,0
33077.325,-8.789,-11.230,-20.996,-5.859,0.000,0
33077.329,-0.977,-14.648,68.848,-25.391,0.000,0
33077.333,-6.348,-20.508,11.230,-23.438,0.000,0
33077.336,-19.043,-23.438,-121.582,-29.785,0.000,0
33077.340,-10.254,-13.184,-80.078,-29.785,0.000,0
33077.344,-15.137,-16.602,61.523,-35.156,0.000,0
33077.348,-29.297,-26.855,35.156,-27.832,0.000,0
33077.352,-31.738,-31.738,-93.750,-22.461,0.000,0
33077.356,-29.785,-26.367,-104.492,-33.203,0.000,0
33077.360,-8.789,-22.949,31.738,-28.320,0.000,0
33077.364,-17.090,-31.250,49.316,-25.879,0.000,0
33077.368,-17.578,-33.691,-66.895,-4.883,0.000,0
33077.372,-19.043,-23.926,-135.254,-14.160,0.000,0
33077.376,-6.836,-22.461,15.137,-43.945,0.000,0
33077.379,-11.230,-26.367,71.777,-54.199,0.000,0
33077.383,-16.602,-23.438,-21.973,-26.367,0.000,0
33077.387,-29.785,-19.531,-144.043,-12.207,0.000,0
33077.391,-20.508,-21.973,-48.340,-28.320,0.000,0
33077.395,-27.832,-27.344,74.707,-46.387,0.000,0
33077.399,-27.832,-27.344,19.043,-25.391,0.000,0
33077.403,-24.414,-16.113,-131.836,-15.625,0.000,0
33077.407,-27.344,-19.531,-96.680,-25.879,0.000,0
33077.411,-27.832,-21.973,60.547,-28.809,0.000,0
33077.415,-24.414,-19.531,51.758,-36.133,0.000,0
33077.418,-21.973,-23.438,-96.680,-13.672,0.000,0
33077.422,-17.578,-17.090,-124.023,-9.277,0.000,0
33077.426,-5.859,-16.602,34.668,-20.996,0.000,0
33077.430,-20.020,-22.949,63.477,-34.180,0.000,0
33077.434,-17.090,-22.461,-36.133,-22.461,0.000,0
33077.438,-23.438,-13.672,-121.582,-5.859,0.000,0
33077.442,-8.301,-9.766,17.578,-24.414,0.000,0
33077.446,-2.441,-14.160,85.449,-31.250,0.000,0
33077.450,-14.160,-8.789,-81.543,-10.254,0.000,0
33077.454,-9.766,-5.859,-110.352,-22.949,0.000,0
33077.458,1.953,-2.930,33.203,-14.648,0.000,0
33077.461,-4.395,-4.883,57.129,-19.043,0.000,0
33077.465,-3.418,-11.719,-57.617,-9.277,0.000,0
33077.469,-16.602,-17.090,-146.484,-12.695,0.000,0
33077.473,-4.395,-14.160,-7.324,-37.598,0.000,0
33077.477,-8.301,-6.836,73.242,-44.922,0.000,0
33077.481,-13.672,-7.812,-9.277,-28.809,0.000,0
33077.485,-8.301,-5.371,-138.184,-16.602,0.000,0
33077.489,5.859,2.441,-55.176,-16.602,0.000,0
33077.493,-3.418,3.418,69.336,-38.086,0.000,0
33077.497,-13.672,1.465,18.555,-32.227,0.000,0
33077.501,-6.836,11.719,-109.863,1.465,0.000,0
33077.504,-9.766,19.043,-98.633,-5.859,0.000,0
33077.508,-0.488,19.531,41.992,-27.832,0.000,0
33077.512,1.953,35.156,57.129,-25.879,0.000,0
33077.516,19.531,54.199,-70.801,11.719,0.000,0
33077.520,23.438,55.664,-139.648,17.090,0.000,0
33077.524,-4.883,56.641,1.465,-13.184,0.000,0
33077.528,-26.367,64.453,54.199,-29.297,0.000,0
33077.532,-12.695,73.242,-44.922,-10.742,0.000,0
33077.536,-20.996,83.984,-162.598,-5.859,0.000,0
33077.540,-6.348,90.332,-47.852,-12.695,0.000,0
33077.543,10.742,88.867,67.383,-23.926,0.000,0
33077.547,0.977,94.238,1.953,-3.418,0.000,0
33077.551,-13.672,100.586,-142.090,-4.395,0.000,0
33077.555,-6.836,101.562,-74.707,-25.391,0.000,0
33077.559,-14.648,100.586,60.059,-26.855,0.000,0
33077.563,-10.254,106.445,30.762,-7.324,0.000,0
33077.567,-16.602,103.027,-94.727,12.207,0.000,0
33077.571,-22.949,93.262,-93.750,4.395,0.000,0
33077.575,-9.766,91.309,50.781,-11.230,0.000,0
33077.579,-17.090,88.379,64.453,-21.973,0.000,0
33077.583,-9.766,79.590,-59.570,10.742,0.000,0
33077.586,-10.742,68.359,-136.230,17.090,0.000,0
33077.590,-0.488,56.641,19.043,-18.555,0.000,0
33077.594,-3.418,53.711,85.938,-40.039,0.000,0
33077.598,-12.695,45.410,-17.578,-24.414,0.000,0
33077.602,-34.180,37.598,-128.906,-19.043,0.000,0
33077.606,-25.879,32.227,-21.973,-17.090,0.000,0
33077.610,-20.508,21.484,83.008,-38.086,0.000,0
33077.614,-19.531,20.996,24.902,-34.668,0.000,0
33077.618,-16.113,9.277,-111.816,-17.578,0.000,0
33077.622,-18.066,4.395,-62.500,-23.926,0.000,0
33077.626,-13.672,5.371,91.797,-16.113,0.000,0
33077.629,-13.672,-7.324,11.230,-2.930,0.000,0
33077.633,-32.227,-12.207,-117.188,-4.883,0.000,0
33077.637,-21.973,-14.648,-20.996,-16.602,0.000,0
33077.641,-6.836,-12.695,84.473,-35.156,0.000,0
33077.645,1.953,-19.531,38.086,-29.297,0.000,0
33077.649,-15.625,-30.762,-102.539,-19.043,0.000,0
33077.653,-19.531,-25.391,-65.918,-27.832,0.000,0
33077.657,-4.883,-22.949,83.984,-40.039,0.000,0
33077.661,-13.184,-26.367,53.711,-21.484,0.000,0
33077.665,-18.555,-31.738,-85.938,-7.812,0.000,0
33077.668,-9.277,-38.086,-102.539,-27.344,0.000,0
33077.672,1.953,-31.250,47.363,-17.578,0.000,0
33077.676,-15.137,-37.598,71.777,-7.812,0.000,0
33077.680,-5.371,-42.480,-38.574,14.160,0.000,0
33077.684,-20.508,-36.621,-125.977,-7.324,0.000,0
33077.688,-12.207,-39.062,15.137,-36.133,0.000,0
33077.692,-17.578,-38.086,84.961,-40.039,0.000,0
33077.696,-13.672,-41.016,-6.836,-14.648,0.000,0
33077.700,-13.672,-44.434,-136.230,-8.301,0.000,0
33077.704,-13.672,-44.922,-43.457,-32.227,0.000,0
33077.708,-13.672,-47.363,90.332,-47.852,0.000,0
33077.711,-17.090,-49.805,33.203,-25.391,0.000,0
33077.715,-27.832,-49.316,-113.770,-13.672,0.000,0
33077.719,-26.855,-50.781,-89.355,-22.949,0.000,0
33077.723,-16.113,-52.734,64.941,-31.250,0.000,0
33077.727,-11.719,-52.246,60.059,-42.969,0.000,0
33077.731,-19.531,-50.781,-88.379,-25.391,0.000,0
33077.735,-31.250,-45.410,-130.859,-12.695,0.000,0
33077.739,-14.160,-42.969,33.691,-2.441,0.000,0
33077.743,-20.508,-42.969,74.707,-23.926,0.000,0
33077.747,-23.926,-51.758,-32.715,-28.320,0.000,0
33077.751,-20.508,-52.734,-132.324,-11.230,0.000,0
33077.754,1.953,-46.387,-8.301,-30.273,0.000,0
33077.758,-12.695,-55.176,81.543,-52.734,0.000,0
33077.762,-17.578,-49.316,-3.906,-19.043,0.000,0
33077.766,-32.227,-46.875,-132.812,-23.926,0.000,0
33077.770,-28.809,-50.781,-64.941,-40.039,0.000,0
33077.774,-21.484,-54.199,56.152,-32.227,0.000,0
33077.778,-21.973,-53.223,24.902,-18.555,0.000,0
33077.782,-20.996,-45.410,-109.375,-16.113,0.000,0
33077.786,-23.438,-45.410,-100.098,-33.691,0.000,0
33077.790,-13.184,-48.828,44.922,-36.621,0.000,0
33077.793,-18.066,-45.898,51.758,-32.715,0.000,0
33077.797,-21.484,-43.945,-68.848,-22.461,0.000,0
33077.801,-20.508,-45.898,-136.719,-9.766,0.000,0
33077.805,-0.977,-46.387,20.020,-20.020,0.000,0
33077.809,-13.184,-47.852,75.684,-39.551,0.000,0
33077.813,-19.043,-49.316,-34.180,-18.555,0.000,0
33077.817,-24.902,-43.945,-145.996,-16.602,0.000,0
33077.821,-8.301,-41.504,-32.227,-15.625,0.000,0
33077.825,-17.578,-44.922,77.148,-36.621,0.000,0
33077.829,-37.598,-45.410,16.113,-40.039,0.000,0
33077.833,-34.180,-47.363,-131.836,-32.227,0.000,0
33077.836,-16.602,-41.992,-82.031,-33.203,0.000,0
33077.840,-18.555,-36.621,57.129,-37.598,0.000,0
33077.844,-15.137,-36.133,40.039,-32.227,0.000,0
33077.848,-11.719,-33.203,-106.445,-12.207,0.000,0
33077.852,-16.113,-32.227,-123.047,-15.625,0.000,0
33077.856,-1.953,-29.785,46.387,-29.785,0.000,0
33077.860,-21.973,-29.297,69.824,-24.902,0.000,0
33077.864,-28.809,-34.668,-82.520,-20.996,0.000,0
33077.868,-17.578,-29.297,-73.242,-16.113,0.000,0
33077.872,-29.297,-27.344,69.824,-30.273,0.000,0
33077.876,-34.180,-33.691,39.062,-41.992,0.000,0
33077.879,-30.762,-32.715,-97.656,-25.391,0.000,0
33077.883,-35.156,-24.414,-98.145,-24.414,0.000,0
33077.887,-18.555,-26.367,52.246,-32.227,0.000,1
33077.891,-12.695,-25.391,66.895,-33.691,0.000,0
33077.895,-10.742,-21.973,-47.852,-4.395,0.000,0
33077.899,-22.461,-25.879,-128.418,-5.371,0.000,0
33077.903,-10.254,-26.855,15.625,-28.320,0.000,0
33077.907,-17.090,-26.855,86.914,-44.434,0.000,0
33077.911,-20.996,-27.832,-8.301,-21.484,0.000,0
33077.915,-18.555,-26.367,-135.254,-1.953,0.000,0
33077.918,-8.789,-20.996,-41.504,-16.602,0.000,0
33077.922,-18.066,-20.020,79.102,-42.969,0.000,0
33077.926,-17.578,-24.414,26.855,-26.855,0.000,0
33077.930,-16.602,-26.367,-110.352,-2.441,0.000,0
33077.934,-16.602,-24.414,-79.102,-14.160,0.000,0
33077.938,-13.184,-23.926,63.965,-26.367,0.000,0
33077.942,-13.184,-27.832,52.734,-26.367,0.000,0
33077.946,-4.395,-23.438,-76.172,-19.043,0.000,0
33077.950,-19.043,-23.926,-121.094,-25.391,0.000,0
33077.954,-22.461,-22.461,32.715,-30.762,0.000,0
33077.958,-24.902,-16.602,54.688,-20.020,0.000,0
33077.961,-19.043,-29.297,-50.781,-10.254,0.000,0
33077.965,-17.578,-27.344,-132.324,-20.508,0.000,0
33077.969,-5.371,-22.949,-26.367,-16.602,0.000,0
33077.973,-20.508,-33.203,63.965,-28.809,0.000,0
33077.977,-25.391,-32.227,-8.301,-6.348,0.000,0
33077.981,-24.414,-24.414,-128.906,3.906,0.000,0
33077.985,-8.301,-19.531,-40.527,-14.160,0.000,0
33077.989,-0.977,-25.879,86.426,-13.672,0.000,0
33077.993,-3.418,-25.391,22.461,0.488,0.000,0
33077.997,-0.488,-24.414,-90.332,-0.977,0.000,0
33078.001,-4.883,-27.344,-14.160,-30.273,0.000,0
33078.004,-14.648,-22.461,83.984,-35.645,0.000,0
33078.008,-9.766,-26.367,3.906,-12.695,0.000,0
33078.012,-11.230,-22.949,-133.301,4.883,0.000,0
33078.016,-11.230,-12.695,-58.105,-12.695,0.000,0
33078.020,-11.719,-16.602,71.289,-47.852,0.000,0
33078.024,-9.766,-19.531,28.809,-21.484,0.000,0
33078.028,-12.207,-15.137,-108.887,0.488,0.000,0
33078.032,-15.625,-13.672,-99.609,-22.461,0.000,0
33078.036,-5.859,-16.602,49.316,-32.227,0.000,0
33078.040,-8.301,-24.414,64.941,-34.180,0.000,0
33078.043,-9.766,-27.344,-65.430,-9.277,0.000,0
33078.047,-30.273,-20.996,-126.465,-1.953,0.000,0
33078.051,-17.578,-14.160,28.809,-1.465,0.000,0
33078.055,-7.812,-10.742,75.195,-6.348,0.000,0
33078.059,-5.371,-14.160,-18.066,-11.230,0.000,0
33078.063,-9.277,-16.113,-117.676,-15.625,0.000,0
33078.067,3.906,-11.719,-23.438,-18.066,0.000,0
33078.071,-4.395,-13.672,61.035,-27.344,0.000,0
33078.075,-12.695,-26.367,0.000,-15.625,0.000,0
33078.079,-23.438,-33.203,-126.465,-26.855,0.000,0
33078.083,-18.066,-24.902,-76.172,-33.203,0.000,0
33078.086,-2.930,-18.555,63.477,-25.879,0.000,0
33078.090,-4.395,-18.555,44.434,-10.742,0.000,0
33078.094,-13.184,-21.484,-99.609,6.836,0.000,0
33078.098,-15.625,-23.438,-111.328,-11.719,0.000,0
33078.102,-3.418,-23.438,37.598,-20.020,0.000,0
33078.106,-11.230,-22.949,51.270,-27.344,0.000,0
33078.110,-17.090,-22.949,-58.594,-12.695,0.000,0
33078.114,-15.137,-22.461,-132.812,-10.742,0.000,0
33078.118,-3.418,-21.484,8.301,-28.809,0.000,0
33078.122,-10.742,-24.414,68.359,-43.457,0.000,0
33078.126,-10.742,-30.762,-22.949,-11.719,0.000,0
33078.129,-16.602,-26.855,-135.742,9.766,0.000,0
33078.133,-7.324,-19.043,-39.062,-4.395,0.000,0
33078.137,-11.230,-22.461,79.102,-40.039,0.000,0
33078.141,-9.766,-28.809,27.344,-35.156,0.000,0
33078.145,-18.066,-25.879,-124.512,-16.113,0.000,0
33078.149,-20.508,-20.996,-93.262,-33.203,0.000,0
33078.153,-5.371,-22.949,57.129,-28.809,0.000,0
33078.157,-6.836,-23.926,51.758,-21.484,0.000,0
33078.161,-21.484,-16.602,-88.379,-12.695,0.000,0
33078.165,-22.949,-17.578,-118.164,-18.555,0.000,0
33078.168,-15.625,-24.902,36.621,-32.227,0.000,0
33078.172,-24.414,-24.414,62.012,-32.227,0.000,0
33078.176,-12.207,-20.020,-45.410,-13.184,0.000,0
33078.180,-16.113,-17.090,-126.953,-4.395,0.000,0
33078.184,-4.883,-17.090,10.254,-7.812,0.000,0
33078.188,-4.883,-16.113,83.496,-22.461,0.000,0
33078.192,11.719,-15.625,-4.395,-2.930,0.000,0
33078.196,-2.441,-15.625,-133.301,-15.137,0.000,0
33078.200,-12.207,-16.113,-41.016,-25.879,0.000,0
33078.204,-7.812,-15.625,77.148,-31.250,0.000,0
33078.208,-2.930,-16.113,24.902,-21.484,0.000,0
33078.211,-12.695,-18.066,-114.746,-2.441,0.000,0
33078.215,-25.391,-16.602,-79.590,-14.648,0.000,0
33078.219,-18.555,-14.160,65.430,-29.297,0.000,0
33078.223,-24.414,-14.648,41.504,-35.156,0.000,0
33078.227,-32.227,-14.648,-93.750,-18.555,0.000,0
33078.231,-23.438,-10.742,-123.047,-9.766,0.000,0
33078.235,2.930,-6.836,25.879,-22.461,0.000,0
33078.239,-12.207,-11.719,62.500,-28.320,0.000,0
33078.243,-10.742,-14.160,-35.645,4.395,0.000,0
33078.247,-20.996,-15.625,-130.371,-7.812,0.000,0
33078.251,-9.277,-15.137,-9.766,-26.367,0.000,0
33078.254,-0.488,-20.020,80.078,-31.250,0.000,0
33078.258,-12.695,-24.902,5.859,-20.020,0.000,0
33078.262,-29.785,-20.020,-133.789,-7.324,0.000,0
33078.266,-15.137,-19.043,-59.570,-8.301,0.000,0
33078.270,-13.184,-18.555,64.453,-22.949,0.000,0
33078.274,-18.066,-13.184,31.738,-18.066,0.000,0
33078.278,-18.066,-17.578,-97.656,-10.254,0.000,0
33078.282,-22.949,-18.066,-101.562,-22.461,0.000,0
33078.286,-5.859,-15.625,50.781,-37.109,0.000,0
33078.290,0.977,-19.531,62.012,-20.996,0.000,0
33078.293,-6.836,-22.949,-76.172,6.836,0.000,0
33078.297,-13.672,-20.508,-132.812,-16.113,0.000,0
33078.301,9.766,-17.578,20.996,-27.832,0.000,0
33078.305,-2.930,-19.531,70.312,-32.227,0.000,0
33078.309,-11.230,-21.484,-29.297,-10.742,0.000,0
33078.313,-20.996,-20.996,-130.859,-6.836,0.000,0
33078.317,-20.996,-19.531,-17.578,-28.809,0.000,0
33078.321,-9.766,-22.461,75.684,-41.504,0.000,0
33078.325,-2.930,-26.855,5.371,-23.926,0.000,0
33078.329,-16.602,-18.555,-130.371,-1.465,0.000,0
33078.333,-5.859,-15.137,-39.062,-13.184,0.000,0
33078.336,-3.906,-18.555,86.426,-25.879,0.000,0
33078.340,-11.230,-16.602,-30.762,-6.836,0.000,0
33078.344,-18.555,-19.043,-145.996,-15.625,0.000,0
33078.348,-8.301,-14.648,-23.438,-17.090,0.000,0
33078.352,0.977,-15.137,88.379,-31.738,0.000,0
33078.356,-0.488,-15.625,23.926,-23.926,0.000,0
33078.360,-10.742,-17.090,-116.699,-6.348,0.000,0
33078.364,-7.812,-17.578,-66.406,-13.672,0.000,0
33078.368,-9.277,-14.160,76.172,-16.602,0.000,0
33078.372,-16.113,-21.484,48.340,-26.367,0.000,0
33078.376,-28.320,-27.832,-89.844,-15.625,0.000,0
33078.379,-32.227,-22.461,-117.676,-4.883,0.000,0
33078.383,-13.672,-20.996,24.902,-22.949,0.000,0
33078.387,-22.949,-25.391,49.805,-32.227,0.000,0
33078.391,-4.395,-24.902,-52.246,-5.859,0.000,0
33078.395,-20.020,-21.973,-132.324,-19.043,0.000,0
33078.399,-28.320,-18.066,-8.789,-36.133,0.000,0
33078.403,-24.902,-20.996,61.523,-33.691,0.000,0
33078.407,-18.555,-26.855,-26.855,-14.160,0.000,0
33078.411,-23.926,-29.297,-138.672,-20.020,0.000,0
33078.415,-16.602,-24.414,-37.598,-28.809,0.000,0
33078.418,-5.371,-17.578,71.289,-19.043,0.000,0
33078.422,-14.160,-20.020,18.555,-18.555,0.000,0
33078.426,-32.715,-20.508,-126.465,-16.602,0.000,0
33078.430,-21.484,-20.996,-94.727,-19.043,0.000,0
33078.434,-16.113,-29.297,60.059,-44.434,0.000,0
33078.438,-27.832,-31.250,49.316,-46.387,0.000,0
33078.442,-19.043,-20.996,-83.984,-6.836,0.000,0
33078.446,-22.949,-13.672,-127.441,-12.207,0.000,0
33078.450,-15.137,-20.508,32.715,-29.785,0.000,0
33078.454,-23.926,-29.785,73.242,-26.367,0.000,0
33078.458,-22.461,-27.344,-61.523,-14.648,0.000,0
33078.461,-28.320,-23.438,-162.598,-19.531,0.000,0
33078.465,-19.531,-24.414,-16.602,-12.695,0.000,0
33078.469,-29.785,-23.926,69.336,-19.043,0.000,0
33078.473,-32.715,-25.391,-18.066,-27.344,0.000,0
33078.477,-32.227,-25.879,-148.926,-25.391,0.000,0
33078.481,-24.414,-20.508,-61.523,-8.789,0.000,0
33078.485,-22.461,-18.066,70.312,-21.484,0.000,0
33078.489,-22.949,-26.367,23.438,-27.344,0.000,0
33078.493,-30.273,-28.320,-109.375,-12.207,0.000,0
33078.497,-29.297,-19.043,-92.285,-16.602,0.000,0
33078.501,-18.066,-20.020,58.594,-33.203,0.000,1
33078.504,-23.926,-20.508,58.105,-20.508,0.000,0
33078.508,-15.625,-18.555,-68.848,-1.953,0.000,0
33078.512,-22.461,-14.648,-115.234,-22.461,0.000,0
33078.516,-8.301,-11.719,26.855,-11.230,0.000,0
33078.520,-15.625,-14.160,69.824,-17.578,0.000,0
33078.524,-23.438,-12.207,-31.738,-25.879,0.000,0
33078.528,-29.297,-15.137,-136.230,-9.277,0.000,0
33078.532,-4.395,-18.555,-15.625,-25.391,0.000,0
33078.536,-13.672,-20.996,75.195,-58.594,0.000,0
33078.540,-27.344,-27.344,0.977,-37.109,0.000,0
33078.543,-15.625,-24.902,-136.230,-9.277,0.000,0
33078.547,-7.812,-16.602,-69.824,-20.996,0.000,0
33078.551,-10.254,-14.648,74.707,-42.480,0.000,0
33078.555,-7.812,-16.113,39.062,-19.531,0.000,0
33078.559,-15.137,-15.137,-100.586,-1.465,0.000,0
33078.563,-24.414,-13.184,-100.098,-9.766,0.000,0
33078.567,-9.277,-17.090,43.945,-20.508,0.000,0
33078.571,-12.695,-21.973,57.617,-35.645,0.000,0
33078.575,-22.949,-20.508,-66.406,-26.367,0.000,0
33078.579,-35.645,-21.973,-143.555,-26.855,0.000,0
33078.583,-19.043,-21.484,-2.930,-23.926,0.000,0
33078.586,-17.090,-21.973,61.035,-37.598,0.000,0
33078.590,-6.348,-22.461,-28.320,-12.695,0.000,0
33078.594,-17.090,-19.531,-145.996,-4.883,0.000,0
33078.598,-7.812,-14.648,-34.180,-20.508,0.000,0
33078.602,-7.812,-18.066,74.707,-31.250,0.000,0
33078.606,-21.973,-20.020,7.324,-25.879,0.000,0
33078.610,-22.949,-23.438,-130.371,-20.020,0.000,0
33078.614,-7.324,-23.438,-74.707,-16.113,0.000,0
33078.618,-6.836,-23.926,63.477,-21.484,0.000,0
33078.622,-21.973,-26.367,28.809,-27.832,0.000,0
33078.626,-30.273,-26.855,-104.980,-16.602,0.000,0
33078.629,-38.574,-26.367,-112.793,-29.785,0.000,0
33078.633,-17.578,-24.902,37.598,-30.762,0.000,0
33078.637,-16.113,-23.438,55.664,-26.855,0.000,0
33078.641,-26.855,-27.832,-65.918,-15.625,0.000,0
33078.645,-34.668,-32.227,-151.367,-23.926,0.000,0
33078.649,-16.602,-24.414,2.441,-52.246,0.000,0
33078.653,-18.066,-17.090,81.543,-51.758,0.000,0
33078.657,-8.789,-18.555,-18.066,-20.996,0.000,0
33078.661,-18.555,-18.555,-137.207,-8.301,0.000,0
33078.665,-16.602,-20.020,-35.645,-6.348,0.000,0
33078.668,-1.953,-23.438,77.637,-33.691,0.000,0
33078.672,-6.836,-20.020,20.508,-30.273,0.000,0
33078.676,-17.090,-18.066,-107.422,-14.160,0.000,0
33078.680,-14.648,-15.625,-65.430,-23.438,0.000,0
33078.684,-10.254,-17.578,53.711,-20.508,0.000,0
33078.688,-16.113,-26.855,42.480,-30.273,0.000,0
33078.692,-22.949,-25.391,-74.707,-18.555,0.000,0
33078.696,-30.273,-15.137,-124.512,-6.348,0.000,0
33078.700,-17.090,-17.578,18.066,-29.297,0.000,0
33078.704,-22.949,-20.020,66.406,-38.086,0.000,0
33078.708,-23.926,-22.949,-36.133,-19.043,0.000,0
33078.711,-23.926,-22.461,-144.043,-24.414,0.000,0
33078.715,-10.254,-20.508,-21.484,-30.273,0.000,0
33078.719,-16.113,-26.367,70.312,-42.969,0.000,0
33078.723,-19.043,-27.832,-15.625,-36.621,0.000,0
33078.727,-34.668,-29.785,-142.090,-42.480,0.000,0
33078.731,-16.113,-26.367,-55.664,-41.504,0.000,0
33078.735,-2.930,-20.508,68.359,-42.969,0.000,0
33078.739,-15.625,-24.902,26.855,-35.156,0.000,0
33078.743,-11.230,-25.391,-109.863,-3.906,0.000,0
33078.747,-5.859,-21.973,-83.984,-20.508,0.000,0
33078.751,-8.789,-20.996,67.871,-51.270,0.000,0
33078.754,-12.207,-18.555,62.012,-33.203,0.000,0
33078.758,-7.324,-17.090,-72.754,-4.883,0.000,0
33078.762,-19.531,-16.602,-139.648,-18.066,0.000,0
33078.766,-18.066,-20.996,25.391,-36.133,0.000,0
33078.770,-15.137,-21.484,82.520,-41.016,0.000,0
33078.774,-2.930,-15.625,-41.504,-12.695,0.000,0
33078.778,-13.184,-20.020,-146.484,-20.508,0.000,0
33078.782,4.395,-15.625,-15.625,-21.484,0.000,0
33078.786,-5.371,-11.230,77.637,-33.203,0.000,0
33078.790,-7.812,-20.020,-0.488,-29.297,0.000,0
33078.793,-9.766,-17.578,-128.418,-4.395,0.000,0
33078.797,-8.301,-15.625,-55.176,0.488,0.000,0
33078.801,1.465,-20.020,67.871,-10.742,0.000,0
33078.805,-0.977,-17.090,37.598,-23.926,0.000,0
33078.809,-8.789,-13.672,-85.449,-33.203,0.000,0
33078.813,-23.438,-10.254,-88.379,-35.156,0.000,0
33078.817,-2.441,-4.883,62.500,-28.809,0.000,0
33078.821,0.488,-5.859,64.941,-17.090,0.000,0
33078.825,-10.254,-14.648,-65.918,-4.395,0.000,0
33078.829,-15.137,-16.602,-128.906,-22.461,0.000,0
33078.833,5.371,-10.742,14.648,-11.230,0.000,0
33078.836,2.930,-13.184,70.801,-14.160,0.000,0
33078.840,-8.789,-14.160,-26.855,-14.160,0.000,0
33078.844,-27.344,-12.695,-143.555,-9.766,0.000,0
33078.848,-7.812,-11.230,-34.180,-17.578,0.000,0
33078.852,2.441,-14.160,69.824,-39.551,0.000,0
33078.856,-14.160,-10.742,13.672,-29.785,0.000,0
33078.860,-26.855,-8.301,-117.676,0.000,0.000,0
33078.864,-6.836,-10.742,-72.754,-5.859,0.000,0
33078.868,1.465,-11.719,77.148,-32.715,0.000,0
33078.872,-5.859,-15.137,48.828,-19.531,0.000,0
33078.876,-4.883,-14.160,-93.750,0.000,0.000,0
33078.879,-15.137,-18.066,-115.723,-20.996,0.000,0
33078.883,-9.766,-22.461,41.016,-34.180,0.000,0
33078.887,-9.766,-22.949,69.336,-33.691,0.000,0
33078.891,-10.742,-20.508,-54.199,-16.113,0.000,0
33078.895,-11.230,-19.531,-144.531,-13.184,0.000,0
33078.899,9.277,-20.508,-10.254,-20.996,0.000,0
33078.903,-13.184,-27.344,72.266,-38.086,0.000,0
33078.907,-24.414,-27.832,-11.719,-14.648,0.000,0
33078.911,-17.578,-25.879,-141.113,-2.441,0.000,0
33078.915,-15.137,-25.879,-43.457,-10.742,0.000,0
33078.918,-23.926,-24.414,71.289,-32.715,0.000,0
33078.922,-11.719,-24.902,15.137,-28.320,0.000,0
33078.926,-16.113,-24.414,-111.816,-9.766,0.000,0
33078.930,-22.461,-15.625,-75.195,-20.996,0.000,0
33078.934,-6.836,-15.625,59.570,-24.414,0.000,0
33078.938,-9.766,-18.066,51.758,-14.648,0.000,0
33078.942,-14.160,-13.672,-75.684,-2.441,0.000,0
33078.946,-20.020,-16.113,-109.375,-16.602,0.000,0
33078.950,-5.859,-13.672,43.945,-25.391,0.000,0
33078.954,5.859,-9.277,72.266,-26.367,0.000,0
33078.958,8.301,-10.742,-37.598,1.465,0.000,0
33078.961,-3.418,-6.348,-132.324,9.766,0.000,0
33078.965,6.348,-8.301,2.930,-18.066,0.000,0
33078.969,-5.859,-12.207,79.590,-35.156,0.000,0
33078.973,-2.930,-10.254,-8.789,-0.488,0.000,0
33078.977,-12.695,-15.137,-131.836,5.371,0.000,0
33078.981,-10.254,-19.531,-51.758,-13.672,0.000,0
33078.985,-2.441,-22.949,84.473,-30.762,0.000,0
33078.989,-13.672,-25.391,22.949,-26.367,0.000,0
33078.993,-25.391,-25.391,-105.469,-12.207,0.000,0
33078.997,-19.043,-18.555,-63.965,-3.418,0.000,0
33079.001,-7.812,-17.578,45.898,-13.184,0.000,0
33079.004,-7.324,-22.949,60.547,-21.484,0.000,0
33079.008,-8.789,-20.508,-58.594,-0.977,0.000,0
33079.012,-10.742,-15.625,-127.930,-10.254,0.000,0
33079.016,4.395,-13.672,27.344,-16.602,0.000,0
33079.020,-2.930,-20.508,81.055,-20.020,0.000,0
33079.024,-13.672,-23.438,-24.414,-19.043,0.000,0
33079.028,-23.926,-15.137,-133.301,-25.391,0.000,0
33079.032,-10.742,-13.672,-19.531,-25.391,0.000,0
33079.036,-11.230,-19.043,81.055,-24.902,0.000,0
33079.040,-3.418,-13.672,11.719,-1.953,0.000,0
33079.043,-9.277,-21.484,-124.512,-13.672,0.000,0
33079.047,-17.578,-21.973,-57.617,-28.320,0.000,0
33079.051,-9.277,-12.207,71.289,-20.020,0.000,0
33079.055,-11.230,-16.602,41.992,-11.230,0.000,0
33079.059,-10.254,-14.160,-94.238,0.977,0.000,0
33079.063,-10.742,-17.090,-96.191,-14.648,0.000,0
33079.067,-9.277,-20.020,58.594,-36.621,0.000,0
33079.071,-11.230,-20.508,61.523,-42.480,0.000,0
33079.075,-16.113,-21.973,-68.359,-20.996,0.000,0
33079.079,-27.344,-14.160,-138.672,-5.859,0.000,0
33079.083,-10.254,-13.672,17.578,-18.555,0.000,0
33079.086,-13.672,-17.090,76.660,-25.391,0.000,0
33079.090,-9.766,-18.555,-41.504,5.859,0.000,0
33079.094,-27.344,-24.414,-145.508,-21.484,0.000,0
33079.098,-26.367,-25.391,-30.762,-30.762,0.000,0
33079.102,-21.484,-20.020,71.777,-31.738,0.000,0
33079.106,-16.602,-20.020,15.137,-41.504,0.000,0
33079.110,-24.902,-23.438,-127.441,-16.602,0.000,0
33079.114,-12.207,-17.578,-78.613,-2.441,0.000,0
33079.118,-2.441,-14.160,59.570,-16.602,0.000,0
33079.122,-9.766,-21.973,43.457,-20.996,0.000,0
33079.126,-18.555,-23.926,-83.984,-20.996,0.000,0
33079.129,-21.973,-16.602,-114.746,-28.809,0.000,0
33079.133,-1.953,-16.113,33.203,-31.738,0.000,0
33079.137,-15.625,-19.531,58.594,-32.227,0.000,0
33079.141,-25.391,-18.066,-62.988,-20.020,0.000,0
33079.145,-33.203,-20.020,-145.996,-32.715,0.000,0
33079.149,-20.996,-22.461,-13.184,-28.809,0.000,1
33079.153,-26.367,-22.461,58.105,-31.738,0.000,0
33079.157,-26.855,-21.484,-23.926,-18.555,0.000,0
33079.161,-27.832,-22.949,-145.996,-16.113,0.000,0
33079.165,-5.371,-20.508,-44.434,-23.438,0.000,0
33079.168,-2.441,-13.672,71.777,-39.551,0.000,0
33079.172,-12.695,-12.207,13.672,-24.414,0.000,0
33079.176,-19.531,-19.531,-129.395,4.395,0.000,0
33079.180,-10.254,-24.414,-98.633,-3.906,0.000,0
33079.184,7.812,-25.391,61.035,-32.227,0.000,0
33079.188,-11.719,-23.438,55.176,-34.668,0.000,0
33079.192,-25.391,-20.996,-86.426,0.000,0.000,0
33079.196,-17.578,-18.555,-120.605,-11.230,0.000,0
33079.200,-7.324,-18.555,39.551,-21.973,0.000,0
33079.204,-20.996,-20.020,66.895,-27.344,0.000,0
33079.208,-17.090,-19.043,-55.176,-25.879,0.000,0
33079.211,-31.250,-13.184,-149.902,-20.996,0.000,0
33079.215,-27.832,-14.648,-14.160,-22.949,0.000,0
33079.219,-12.207,-15.625,75.195,-13.672,0.000,0
33079.223,-0.977,-12.695,-3.418,3.906,0.000,0
33079.227,-14.160,-11.230,-134.766,5.371,0.000,0
33079.231,0.000,-11.719,-45.898,6.836,0.000,0
33079.235,12.695,-13.672,81.543,-7.324,0.000,0
33079.239,-5.859,-15.137,26.367,-0.977,0.000,0
33079.243,-20.996,-20.996,-106.445,5.859,0.000,0
33079.247,-15.625,-15.137,-88.867,-14.648,0.000,0
33079.251,-4.395,-12.695,56.641,-12.207,0.000,0
33079.254,-11.719,-17.578,52.734,-7.324,0.000,0
33079.258,-14.648,-15.137,-75.684,0.488,0.000,0
33079.262,-20.508,-13.672,-125.488,-11.230,0.000,0
33079.266,-10.742,-11.230,16.602,-22.949,0.000,0
33079.270,-8.301,-12.695,59.082,-15.625,0.000,0
33079.274,-16.113,-15.625,-42.480,-11.719,0.000,0
33079.278,-26.367,-17.090,-134.766,-20.020,0.000,0
33079.282,-3.906,-14.648,-13.184,-29.785,0.000,0
33079.286,-7.324,-11.230,72.754,-50.293,0.000,0
33079.290,-13.672,-17.090,-0.488,-24.902,0.000,0
33079.293,-21.484,-18.555,-126.953,5.371,0.000,0
33079.297,-25.879,-19.531,-63.965,-26.367,0.000,0
33079.301,-25.879,-22.949,74.707,-49.805,0.000,0
33079.305,-14.160,-20.020,-17.578,-17.090,0.000,0
33079.309,-13.184,-9.766,-135.254,-10.742,0.000,0
33079.313,-12.207,-3.418,-11.230,-14.160,0.000,0
33079.317,-18.066,-5.859,83.496,-20.996,0.000,0
33079.321,-18.555,-10.742,25.391,-25.879,0.000,0
33079.325,-23.438,-17.090,-124.512,-15.625,0.000,0
33079.329,-5.371,-13.184,-80.566,-5.859,0.000,0
33079.333,6.348,-8.789,65.918,-15.625,0.000,0
33079.336,-11.230,-11.719,49.316,-21.973,0.000,0
33079.340,-17.090,-14.160,-85.938,-15.137,0.000,0
33079.344,-2.441,-6.348,-98.633,-23.926,0.000,0
33079.348,0.977,-4.395,48.828,-36.621,0.000,0
33079.352,-18.555,-13.672,67.871,-22.949,0.000,0
33079.356,-17.578,-20.508,-54.199,6.836,0.000,0
33079.360,-24.414,-16.602,-120.605,-4.883,0.000,0
33079.364,-9.766,-7.324,25.879,-8.789,0.000,0
33079.368,-15.137,-13.184,83.008,-11.230,0.000,0
33079.372,-10.254,-15.625,-12.207,-5.371,0.000,0
33079.376,-25.879,-13.672,-125.000,-15.137,0.000,0
33079.379,-12.695,-10.254,-15.625,-31.250,0.000,0
33079.383,7.324,-6.836,85.938,-42.480,0.000,0
33079.387,0.000,-9.277,20.996,-26.855,0.000,0
33079.391,-11.719,-8.789,-118.652,2.930,0.000,0
33079.395,0.977,-7.324,-67.383,7.324,0.000,0
33079.399,4.883,-6.348,82.031,-17.090,0.000,0
33079.403,-9.766,-8.789,50.781,-8.789,0.000,0
33079.407,-17.578,-10.742,-89.355,4.883,0.000,0
33079.411,-23.438,-9.277,-99.121,-10.742,0.000,0
33079.415,-8.301,-8.789,47.363,-7.812,0.000,0
33079.418,-16.113,-13.184,62.988,-28.320,0.000,0
33079.422,-18.555,-10.254,-50.781,-17.578,0.000,0
33079.426,-25.879,-10.254,-130.859,-16.113,0.000,0
33079.430,-5.859,-12.207,5.859,-20.020,0.000,0
33079.434,-1.465,-10.254,82.520,-31.738,0.000,0
33079.438,0.977,-11.719,9.277,-22.949,0.000,0
33079.442,-9.766,-10.254,-121.094,-10.742,0.000,0
33079.446,-5.859,-4.395,-42.969,-20.996,0.000,0
33079.450,-4.395,-3.906,83.008,-29.785,0.000,0
33079.454,-24.414,-11.719,33.203,-21.484,0.000,0
33079.458,-34.668,-25.391,-116.211,-31.738,0.000,0
33079.461,-35.156,-18.066,-95.215,-39.551,0.000,0
33079.465,-17.578,-12.207,50.293,-34.668,0.000,0
33079.469,-17.578,-22.461,42.480,-28.809,0.000,0
33079.473,-26.367,-25.879,-89.844,-8.301,0.000,0
33079.477,-24.414,-20.996,-123.047,-20.020,0.000,0
33079.481,7.324,-11.230,31.738,-31.738,0.000,0
33079.485,0.977,-12.207,72.266,-36.621,0.000,0
33079.489,-11.230,-20.508,-34.180,-16.113,0.000,0
33079.493,-13.672,-21.973,-134.766,2.441,0.000,0
33079.497,1.465,-18.555,-3.906,-18.066,0.000,0
33079.501,-0.977,-17.578,84.961,-30.273,0.000,0
33079.504,-6.836,-13.184,-1.465,9.277,0.000,0
33079.508,-11.719,-8.789,-143.555,12.695,0.000,0
33079.512,-7.324,-9.277,-59.570,-17.578,0.000,0
33079.516,-11.719,-13.184,83.984,-30.762,0.000,0
33079.520,-0.977,-17.090,33.203,-25.391,0.000,0
33079.524,-14.160,-12.695,-123.535,-16.113,0.000,0
33079.528,-17.090,-12.695,-108.398,-13.672,0.000,0
33079.532,5.371,-15.625,45.898,-19.043,0.000,0
33079.536,-10.742,-20.508,50.293,-25.391,0.000,0
33079.540,-19.531,-17.578,-74.219,-9.277,0.000,0
33079.543,-25.391,-14.160,-134.277,-7.324,0.000,0
33079.547,-9.766,-11.719,24.902,-10.742,0.000,0
33079.551,-10.742,-7.812,76.660,-20.020,0.000,0
33079.555,-15.137,-14.648,-32.227,-18.066,0.000,0
33079.559,-24.414,-20.508,-132.812,-16.602,0.000,0
33079.563,-7.324,-14.160,-11.719,-10.254,0.000,0
33079.567,-7.812,-20.020,72.754,-26.855,0.000,0
33079.571,-15.625,-23.438,5.859,-21.484,0.000,0
33079.575,-33.203,-23.926,-119.141,-17.578,0.000,0
33079.579,-35.156,-24.902,-70.801,-26.855,0.000,0
33079.583,-21.973,-16.113,60.059,-31.738,0.000,0
33079.586,-18.555,-10.742,36.133,-23.438,0.000,0
33079.590,-33.691,-16.113,-100.098,-11.719,0.000,0
33079.594,-35.156,-18.555,-94.238,-23.438,0.000,0
33079.598,-27.832,-13.672,52.246,-34.668,0.000,0
33079.602,-30.762,-14.648,61.523,-33.203,0.000,0
33079.606,-24.414,-15.625,-46.875,-7.812,0.000,0
33079.610,-24.902,-10.254,-125.000,-11.230,0.000,0
33079.614,-7.812,-16.602,23.926,-36.133,0.000,0
33079.618,-2.930,-19.043,75.195,-30.762,0.000,0
33079.622,-12.207,-14.160,-90.820,-14.648,0.000,0
33079.626,-14.648,-16.602,-104.980,-10.254,0.000,0
33079.629,-8.301,-17.090,46.875,-19.531,0.000,0
33079.633,-12.695,-19.043,73.730,-38.574,0.000,0
33079.637,-17.090,-15.625,-45.898,-12.207,0.000,0
33079.641,-26.367,-13.672,-133.301,11.719,0.000,0
33079.645,-7.812,-17.578,4.883,10.254,0.000,0
33079.649,-12.207,-18.066,79.102,-13.184,0.000,0
33079.653,-23.438,-23.438,-19.043,-23.438,0.000,0
33079.657,-28.320,-16.113,-142.090,-22.461,0.000,0
33079.661,-5.371,-12.207,-34.180,-22.461,0.000,0
33079.665,1.465,-20.020,82.031,-25.879,0.000,0
33079.668,-6.836,-22.461,20.508,-11.230,0.000,0
33079.672,-9.277,-25.879,-113.281,-13.184,0.000,0
33079.676,-9.766,-19.531,-73.242,-18.555,0.000,0
33079.680,-15.137,-20.020,66.895,-18.555,0.000,0
33079.684,-10.254,-25.879,47.363,-16.602,0.000,0
33079.688,-15.137,-22.461,-83.984,-0.977,0.000,0
33079.692,-31.738,-18.555,-106.445,-18.066,0.000,0
33079.696,-17.578,-11.719,42.480,-34.668,0.000,0
33079.700,-18.066,-14.648,62.500,-34.180,0.000,0
33079.704,-12.207,-16.602,-50.781,-1.465,0.000,0
33079.708,-20.508,-12.207,-133.789,-2.930,0.000,0
33079.711,-10.742,-14.160,9.766,-29.785,0.000,0
33079.715,-14.160,-16.113,83.496,-37.109,0.000,1
33079.719,-23.438,-19.043,-20.020,-13.184,0.000,0
33079.723,-31.250,-20.508,-143.066,-9.277,0.000,0
33079.727,-7.812,-13.672,-46.875,-21.484,0.000,0
33079.731,-7.324,-18.555,79.590,-48.340,0.000,0
33079.735,-27.832,-21.973,34.668,-36.621,0.000,0
33079.739,-33.203,-20.996,-111.328,-13.672,0.000,0
33079.743,-24.414,-21.973,-97.168,-15.625,0.000,0
33079.747,-7.812,-20.020,46.387,-18.555,0.000,0
33079.751,-13.672,-20.508,59.082,-21.973,0.000,0
33079.754,-27.344,-20.508,-61.035,-7.324,0.000,0
33079.758,-41.992,-15.625,-131.348,-15.137,0.000,0
33079.762,-21.973,-21.973,17.090,-23.438,0.000,0
33079.766,-20.508,-31.738,65.430,-32.227,0.000,0
33079.770,-13.672,-28.320,-41.504,-27.344,0.000,0
33079.774,-19.043,-24.414,-148.438,-39.551,0.000,0
33079.778,-14.648,-20.996,-30.273,-36.133,0.000,0
33079.782,-19.531,-18.066,72.266,-18.066,0.000,0
33079.786,-16.113,-20.508,-0.977,-7.812,0.000,0
33079.790,-20.508,-21.973,-130.859,-20.020,0.000,0
33079.793,-11.230,-15.625,-57.129,-31.250,0.000,0
33079.797,-6.836,-13.672,73.242,-34.180,0.000,0
33079.801,-19.531,-17.090,41.504,-26.367,0.000,0
33079.805,-24.902,-12.695,-104.980,-2.441,0.000,0
33079.809,-26.367,-10.254,-109.375,-2.930,0.000,0
33079.813,-19.043,-15.137,45.898,-30.273,0.000,0
33079.817,-23.926,-20.020,55.664,-28.320,0.000,0
33079.821,-16.113,-18.066,-69.336,5.371,0.000,0
33079.825,-7.324,-14.648,-137.695,-10.254,0.000,0
33079.829,-2.441,-14.160,11.719,-16.602,0.000,0
33079.833,-25.879,-16.602,74.219,-19.531,0.000,0
33079.836,-17.090,-13.184,-27.832,-10.254,0.000,0
33079.840,-29.785,-8.789,-140.625,-9.766,0.000,0
33079.844,-39.062,-16.602,-20.996,-18.555,0.000,0
33079.848,-24.414,-18.555,79.590,-34.180,0.000,0
33079.852,-8.789,-17.578,17.090,-22.949,0.000,0
33079.856,-28.320,-22.949,-124.023,-6.836,0.000,0
33079.860,-26.367,-20.508,-79.102,-28.809,0.000,0
33079.864,-5.371,-14.160,65.918,-33.203,0.000,0
33079.868,-11.719,-19.043,41.016,-28.320,0.000,0
33079.872,-13.672,-20.020,-94.727,-30.273,0.000,0
33079.876,-14.648,-11.230,-107.910,-28.809,0.000,0
33079.879,-20.508,-12.695,38.574,-20.508,0.000,0
33079.883,-31.250,-15.625,58.105,-23.926,0.000,0
33079.887,-25.391,-16.113,-55.664,-10.742,0.000,0
33079.891,-33.691,-20.508,-135.254,-19.531,0.000,0
33079.895,-22.461,-17.578,-12.695,-25.879,0.000,0
33079.899,-20.996,-18.066,59.570,-28.320,0.000,0
33079.903,-13.672,-21.973,-24.902,-22.461,0.000,0
33079.907,-22.461,-20.020,-149.414,-23.438,0.000,0
33079.911,-19.043,-18.555,-46.875,-34.180,0.000,0
33079.915,-13.672,-17.578,73.730,-46.875,0.000,0
33079.918,-11.719,-23.926,23.438,-21.484,0.000,0
33079.922,-27.832,-25.879,-121.582,8.789,0.000,0
33079.926,-27.344,-24.414,-95.703,-17.090,0.000,0
33079.930,-7.812,-26.855,53.711,-42.969,0.000,0
33079.934,-15.137,-21.973,46.875,-35.156,0.000,0
33079.938,-21.973,-22.461,-89.844,-16.113,0.000,0
33079.942,-23.926,-22.949,-131.836,-20.508,0.000,0
33079.946,-13.184,-20.020,24.414,-31.738,0.000,0
33079.950,-18.066,-23.438,67.871,-36.621,0.000,0
33079.954,-14.648,-20.996,-52.734,-21.973,0.000,0
33079.958,-22.461,-17.578,-158.691,-23.438,0.000,0
33079.961,-17.090,-19.043,-13.672,-27.344,0.000,0
33079.965,-9.277,-22.949,73.242,-31.250,0.000,0
33079.969,-21.973,-23.438,-84.961,-13.672,0.000,0
33079.973,-36.621,-22.949,-138.184,-16.113,0.000,0
33079.977,-28.320,-25.879,30.762,-39.062,0.000,0
33079.981,-15.137,-23.926,68.359,-27.832,0.000,0
33079.985,-18.066,-28.320,-49.316,-3.418,0.000,0
33079.989,-33.203,-25.391,-134.766,-20.996,0.000,0
33079.993,-10.254,-18.066,-0.488,-33.691,0.000,0
33079.997,-19.531,-19.043,68.848,-29.785,0.000,0
33080.001,-22.949,-20.996,-11.719,-2.441,0.000,0
33080.004,-30.762,-20.996,-134.277,-0.977,0.000,0
33080.008,-24.902,-21.484,-55.664,-32.227,0.000,0
33080.012,-18.066,-14.160,72.754,-36.621,0.000,0
33080.016,-13.672,-14.648,40.039,-12.695,0.000,0
33080.020,-15.625,-15.137,-99.609,0.977,0.000,0
33080.024,-13.184,-11.719,-104.004,-13.184,0.000,0
33080.028,-4.395,-11.719,49.805,-22.949,0.000,0
33080.032,-16.602,-13.184,57.617,-15.625,0.000,0
33080.036,-17.090,-16.602,-69.336,1.953,0.000,0
33080.040,-15.625,-15.625,-125.977,0.000,0.000,0
33080.043,-5.371,-14.648,22.949,-22.949,0.000,0
33080.047,-23.926,-22.949,80.078,-45.898,0.000,0
33080.051,-12.695,-20.020,-22.461,-12.695,0.000,0
33080.055,-7.812,-20.508,-137.695,-3.906,0.000,0
33080.059,-4.883,-18.066,-25.391,-6.348,0.000,0
33080.063,-14.648,-19.043,69.336,-20.996,0.000,0
33080.067,-5.371,-22.461,15.625,-20.508,0.000,0
33080.071,-9.277,-20.020,-127.441,-3.418,0.000,0
33080.075,-13.672,-17.578,-81.055,-4.395,0.000,0
33080.079,-16.113,-16.602,63.477,-21.484,0.000,0
33080.083,-27.832,-20.996,38.574,-31.250,0.000,0
33080.086,-31.738,-23.438,-104.004,-22.461,0.000,0
33080.090,-22.949,-19.531,-116.699,-19.531,0.000,0
33080.094,-6.836,-17.578,39.062,-25.879,0.000,0
33080.098,-16.113,-19.043,55.176,-21.484,0.000,0
33080.102,-14.648,-18.066,-63.965,-0.977,0.000,0
33080.106,-21.484,-18.066,-124.512,-22.461,0.000,0
33080.110,-7.812,-12.207,16.602,-18.555,0.000,0
33080.114,-17.090,-14.648,64.453,-20.508,0.000,0
33080.118,-18.066,-25.391,-34.180,-19.043,0.000,0
33080.122,-26.367,-20.996,-125.977,-23.438,0.000,0
33080.126,-10.254,-17.090,-16.113,-35.156,0.000,0
33080.129,-3.418,-18.066,78.613,-38.086,0.000,0
33080.133,-18.555,-17.578,12.207,-19.531,0.000,0
33080.137,-27.832,-17.090,-126.465,-12.695,0.000,0
33080.141,-28.320,-15.625,-74.219,-19.043,0.000,0
33080.145,-10.742,-22.461,65.430,-40.527,0.000,0
33080.149,-6.348,-22.949,38.574,-36.133,0.000,0
33080.153,-24.902,-25.879,-105.469,-15.625,0.000,0
33080.157,-35.645,-27.344,-132.812,-36.133,0.000,0
33080.161,-14.160,-18.555,16.113,-31.250,0.000,0
33080.165,-19.043,-20.996,50.293,-36.621,0.000,0
33080.168,-24.902,-23.438,-51.758,-23.926,0.000,0
33080.172,-23.926,-16.113,-135.254,-6.348,0.000,0
33080.176,-16.113,-16.602,-7.324,-15.625,0.000,0
33080.180,-27.832,-29.297,61.523,-33.691,0.000,0
33080.184,-24.902,-34.668,-14.648,-32.227,0.000,0
33080.188,-28.809,-26.367,-138.672,-40.039,0.000,0
33080.192,-20.020,-22.949,-55.176,-41.504,0.000,0
33080.196,-14.648,-21.484,60.059,-31.738,0.000,0
33080.200,-4.395,-14.160,15.625,-11.230,0.000,0
33080.204,-9.277,-11.230,-122.559,-8.789,0.000,0
33080.208,-4.883,-9.766,-104.492,-16.602,0.000,0
33080.211,3.906,-13.184,41.992,-13.184,0.000,0
33080.215,-20.020,-23.438,45.898,-26.367,0.000,0
33080.219,-25.879,-22.461,-88.867,-12.695,0.000,0
33080.223,-14.160,-22.949,-130.859,-18.066,0.000,0
33080.227,-11.719,-25.879,28.320,-38.574,0.000,0
33080.231,-30.273,-18.066,63.477,-38.574,0.000,0
33080.235,-23.926,-15.625,-40.527,-11.230,0.000,0
33080.239,-29.785,-20.020,-140.137,-11.230,0.000,0
33080.243,-18.066,-21.973,-10.254,-24.902,0.000,0
33080.247,-9.766,-22.949,78.125,-25.879,0.000,0
33080.251,-10.254,-27.832,-6.836,-7.812,0.000,0
33080.254,-19.531,-28.809,-141.113,-2.441,0.000,0
33080.258,-13.672,-23.438,-67.383,-6.836,0.000,0
33080.262,-32.227,-29.297,70.801,-32.715,0.000,0
33080.266,-27.832,-26.855,34.180,-39.551,0.000,0
33080.270,-20.020,-20.996,-116.211,-20.020,0.000,0
33080.274,-24.414,-21.484,-108.887,-15.625,0.000,0
33080.278,-16.113,-20.508,44.434,-18.555,0.000,0
33080.282,-13.672,-23.438,53.223,-22.949,0.000,0
33080.286,-13.184,-20.020,-69.336,-16.602,0.000,0
33080.290,-21.973,-13.672,-127.930,-18.066,0.000,0
33080.293,-5.371,-15.625,21.484,-24.902,0.000,0
33080.297,-7.812,-15.625,72.754,-30.762,0.000,0
33080.301,-6.836,-17.578,-31.738,-7.812,0.000,0
33080.305,-25.391,-20.996,-136.719,-19.043,0.000,0
33080.309,-24.414,-17.090,-20.020,-24.902,0.000,0
33080.313,-27.832,-19.043,62.500,-9.277,0.000,0
33080.317,-25.391,-24.414,-2.930,-4.395,0.000,0
33080.321,-40.039,-29.297,-130.371,-26.367,0.000,0
33080.325,-34.668,-27.344,-70.801,-46.387,0.000,0
33080.329,-6.348,-14.160,69.824,-45.410,0.000,0
33080.333,-6.348,-10.742,33.203,-23.926,0.000,0
33080.336,-22.949,-15.137,-105.957,-5.371,0.000,0
33080.340,-21.484,-13.672,-106.934,-9.277,0.000,0
33080.344,-4.883,-19.043,44.922,-32.227,0.000,0
33080.348,-13.672,-21.484,64.941,-29.785,0.000,0
33080.352,-13.184,-22.461,-54.688,-0.977,0.000,0
33080.356,-14.160,-24.902,-135.254,-9.277,0.000,0
33080.360,-10.742,-24.902,6.348,-29.297,0.000,0
33080.364,-18.555,-31.738,70.312,-48.828,0.000,1
33080.368,-4.395,-28.809,-26.855,-22.949,0.000,0
33080.372,-17.090,-28.320,-136.719,-10.254,0.000,0
33080.376,-17.578,-25.391,-36.133,-15.137,0.000,0
33080.379,-12.207,-25.391,70.801,-26.367,0.000,0
33080.383,-11.230,-30.762,23.926,-29.297,0.000,0
33080.387,-17.578,-27.344,-129.395,-17.090,0.000,0
33080.391,-17.090,-20.508,-96.680,-23.926,0.000,0
33080.395,-15.137,-20.996,53.711,-35.645,0.000,0
33080.399,-18.066,-30.273,40.527,-38.086,0.000,0
33080.403,-17.090,-32.715,-99.121,-29.785,0.000,0
33080.407,-15.137,-21.973,-124.512,-24.414,0.000,0
33080.411,-2.930,-21.484,30.762,-27.832,0.000,0
33080.415,-17.090,-28.809,49.316,-23.926,0.000,0
33080.418,-13.184,-32.227,-67.383,-12.695,0.000,0
33080.422,-15.137,-35.156,-143.066,-22.949,0.000,0
33080.426,-6.348,-33.691,-10.742,-29.785,0.000,0
33080.430,-16.602,-37.109,64.941,-54.688,0.000,0
33080.434,-14.648,-29.785,-24.414,-29.785,0.000,0
33080.438,-28.809,-28.320,-152.832,-19.531,0.000,0
33080.442,-19.531,-31.738,-46.875,-45.410,0.000,0
33080.446,-12.207,-30.273,63.477,-53.711,0.000,0
33080.450,-17.090,-29.785,1.465,-31.250,0.000,0
33080.454,-29.785,-27.832,-138.672,-23.926,0.000,0
33080.458,-19.043,-25.391,-101.074,-21.973,0.000,0
33080.461,0.488,-32.227,57.129,-24.902,0.000,0
33080.465,-2.930,-29.297,44.922,-33.691,0.000,0
33080.469,-11.230,-23.438,-97.656,-26.855,0.000,0
33080.473,-31.250,-29.785,-136.230,-26.367,0.000,0
33080.477,-14.648,-28.809,19.531,-21.973,0.000,0
33080.481,-24.902,-34.180,59.570,-31.738,0.000,0
33080.485,-23.926,-32.227,-44.434,-22.461,0.000,0
33080.489,-28.320,-25.879,-143.555,-15.625,0.000,0
33080.493,-26.855,-30.762,-24.902,-26.367,0.000,0
33080.497,-30.762,-35.156,64.453,-37.109,0.000,0
33080.501,-31.250,-37.109,3.906,-29.785,0.000,0
33080.504,-34.668,-36.133,-131.836,-32.227,0.000,0
33080.508,-20.020,-34.180,-70.801,-33.203,0.000,0
33080.512,-8.789,-32.227,61.035,-33.203,0.000,0
33080.516,-13.672,-33.203,19.531,-18.066,0.000,0
33080.520,-36.133,-40.527,-129.883,-16.602,0.000,0
33080.524,-37.598,-37.109,-113.281,-21.973,0.000,0
33080.528,-17.090,-34.180,38.086,-17.578,0.000,0
33080.532,-27.344,-39.551,39.551,-16.602,0.000,0
33080.536,-35.156,-38.086,-79.102,-8.301,0.000,0
33080.540,-41.504,-35.645,-145.996,-26.855,0.000,0
33080.543,-27.832,-39.062,-0.488,-47.852,0.000,0
33080.547,-34.180,-39.062,69.336,-50.781,0.000,0
33080.551,-27.832,-40.527,-36.133,-19.531,0.000,0
33080.555,-32.715,-40.039,-153.809,-13.184,0.000,0
33080.559,-26.367,-38.086,-31.738,-27.832,0.000,0
33080.563,-17.090,-40.527,66.406,-39.062,0.000,0
33080.567,-11.719,-33.203,-1.953,-19.531,0.000,0
33080.571,-25.879,-26.367,-136.719,-8.789,0.000,0
33080.575,-29.785,-24.902,-78.125,-15.625,0.000,0
33080.579,-31.250,-26.855,58.105,-30.273,0.000,0
33080.583,-25.391,-27.344,36.133,-40.039,0.000,0
33080.586,-33.203,-31.738,-111.816,-25.879,0.000,0
33080.590,-39.551,-29.785,-120.605,-19.531,0.000,0
33080.594,-30.273,-31.250,34.180,-20.508,0.000,0
33080.598,-27.344,-28.809,43.945,-20.020,0.000,0
33080.602,-14.160,-21.973,-69.336,-12.695,0.000,0
33080.606,-18.066,-20.508,-135.742,-6.348,0.000,0
33080.610,-2.441,-20.508,12.207,-17.090,0.000,0
33080.614,-6.348,-18.066,79.102,-39.062,0.000,0
33080.618,-10.254,-17.578,-7.812,-22.461,0.000,0
33080.622,-29.785,-19.531,-125.000,-20.508,0.000,0
33080.626,-17.090,-16.602,-30.762,-15.625,0.000,0
33080.629,-7.324,-14.648,78.613,-12.207,0.000,0
33080.633,-7.812,-12.207,8.301,-4.395,0.000,0
33080.637,-6.836,-18.555,-78.613,-2.930,0.000,0
33080.641,-3.906,-9.277,11.719,-16.113,0.000,0
33080.645,-1.465,-1.465,83.496,-24.902,0.000,0
33080.649,-1.953,-7.812,-12.207,-6.836,0.000,0
33080.653,-13.672,-8.789,-137.207,4.883,0.000,0
33080.657,-14.648,-2.441,-30.273,-13.672,0.000,0
33080.661,-14.160,3.418,89.844,-24.902,0.000,0
33080.665,-10.742,-0.977,29.297,-10.742,0.000,0
33080.668,-15.137,-3.906,-107.422,-7.324,0.000,0
33080.672,-17.578,-3.906,-72.754,-8.301,0.000,0
33080.676,-1.465,-1.465,77.637,-15.137,0.000,0
33080.680,-8.301,-5.859,64.941,-20.020,0.000,0
33080.684,-15.625,-9.277,-77.148,-15.137,0.000,0
33080.688,-19.531,-4.395,-112.305,-15.137,0.000,0
33080.692,-6.836,-5.371,38.574,-14.648,0.000,0
33080.696,-9.277,-4.883,84.961,-30.273,0.000,0
33080.700,-22.949,-6.348,-34.668,-22.949,0.000,0
33080.704,-34.180,-4.883,-147.461,-12.207,0.000,0
33080.708,-10.254,-1.953,-10.742,-17.090,0.000,0
33080.711,3.906,1.953,84.961,-20.996,0.000,0
33080.715,2.441,-3.906,5.859,-14.160,0.000,0
33080.719,-11.719,-5.371,-125.000,-16.602,0.000,0
33080.723,-8.301,0.488,-37.598,-11.719,0.000,0
33080.727,-15.625,-8.789,82.520,-22.461,0.000,0
33080.731,-18.066,-12.695,26.367,-9.766,0.000,0
33080.735,-22.949,-18.066,-97.656,-8.789,0.000,0
33080.739,-22.949,-15.137,-79.102,-23.926,0.000,0
33080.743,-7.324,-12.695,46.875,-9.766,0.000,0
33080.747,-2.441,-17.578,52.246,-0.488,0.000,0
33080.751,-17.578,-13.672,-71.289,-0.488,0.000,0
33080.754,-33.203,-17.090,-115.234,-18.555,0.000,0
33080.758,-15.625,-15.625,43.457,-30.273,0.000,0
33080.762,-9.277,-8.789,81.543,-36.621,0.000,0
33080.766,-20.020,-13.184,-39.062,-11.230,0.000,0
33080.770,-38.574,-12.207,-150.879,0.000,0.000,0
33080.774,-10.742,-10.742,-20.508,-20.508,0.000,0
33080.778,-6.348,-17.578,78.125,-37.598,0.000,0
33080.782,-21.973,-19.043,0.488,-8.301,0.000,0
33080.786,-33.203,-13.184,-130.859,1.953,0.000,0
33080.790,-22.461,-10.742,-60.059,-10.742,0.000,0
33080.793,-11.719,-12.207,70.801,-30.762,0.000,0
33080.797,-7.812,-19.043,41.992,-27.344,0.000,0
33080.801,-13.672,-20.508,-98.145,0.977,0.000,0
33080.805,-15.137,-9.277,-97.656,-7.812,0.000,0
33080.809,7.324,-6.836,56.641,-32.715,0.000,0
33080.813,-9.277,-16.113,63.965,-29.785,0.000,0
33080.817,-17.578,-16.113,-59.570,-5.371,0.000,0
33080.821,-6.836,-8.789,-135.254,-18.555,0.000,0
33080.825,-1.465,-8.789,3.906,-32.227,0.000,0
33080.829,-6.348,-16.602,69.336,-14.160,0.000,0
33080.833,-14.160,-25.391,-35.645,0.488,0.000,0
33080.836,-36.621,-25.879,-144.043,-20.020,0.000,0
33080.840,-20.996,-17.578,-25.391,-11.719,0.000,0
33080.844,-10.742,-13.672,66.406,-10.742,0.000,0
33080.848,-3.906,-15.625,5.859,-1.953,0.000,0
33080.852,-14.648,-19.531,-125.977,2.930,0.000,0
33080.856,-16.113,-18.066,-59.570,-10.254,0.000,0
33080.860,-1.953,-17.578,78.125,-33.691,0.000,0
33080.864,-6.836,-23.926,41.016,-37.109,0.000,0
33080.868,-14.648,-22.461,-101.074,-0.977,0.000,0
33080.872,-16.602,-21.484,-116.699,-5.371,0.000,0
33080.876,-16.113,-23.438,49.316,-25.879,0.000,0
33080.879,-23.438,-21.973,62.500,-25.391,0.000,0
33080.883,-12.207,-17.578,-69.336,-0.977,0.000,0
33080.887,-22.461,-14.160,-140.625,-10.254,0.000,0
33080.891,-11.230,-17.090,4.883,-25.879,0.000,0
33080.895,-8.301,-16.113,78.613,-39.062,0.000,0
33080.899,-17.090,-12.207,-16.113,-31.250,0.000,0
33080.903,-29.297,-12.695,-137.695,-18.555,0.000,0
33080.907,-19.531,-15.137,-39.551,-12.207,0.000,0
33080.911,-0.977,-14.160,65.430,-25.391,0.000,0
33080.915,3.906,-17.090,11.719,-24.414,0.000,0
33080.918,-24.414,-22.461,-115.234,-9.766,0.000,0
33080.922,-26.855,-16.602,-70.801,-8.789,0.000,0
33080.926,-10.742,-13.672,67.383,-18.066,0.000,0
33080.930,-17.090,-17.090,47.363,-22.949,0.000,0
33080.934,-22.949,-24.414,-80.566,-22.949,0.000,0
33080.938,-19.043,-20.996,-118.164,-39.551,0.000,0
33080.942,-9.277,-17.578,25.391,-34.180,0.000,0
33080.946,-27.832,-21.973,54.688,-24.414,0.000,0
33080.950,-30.762,-25.391,-63.965,-13.672,0.000,0
33080.954,-38.086,-25.879,-145.508,-26.367,0.000,0
33080.958,-19.531,-17.090,-8.789,-44.922,0.000,0
33080.961,-14.160,-12.207,68.359,-49.316,0.000,0
33080.965,-20.020,-18.066,-12.695,-23.926,0.000,0
33080.969,-31.738,-20.508,-145.020,1.465,0.000,0
33080.973,-21.484,-18.555,-56.152,-11.230,0.000,0
33080.977,-19.043,-20.020,77.637,-37.109,0.000,0
33080.981,-29.297,-23.438,28.320,-23.438,0.000,0
33080.985,-37.598,-21.484,-118.652,-20.996,0.000,0
33080.989,-28.809,-9.766,-93.262,-19.531,0.000,0
33080.993,-13.672,-15.137,67.871,-26.367,0.000,0
33080.997,-28.809,-23.926,63.477,-31.738,0.000,0
33081.001,-40.039,-22.461,-80.566,-18.066,0.000,0
33081.004,-36.133,-12.207,-128.418,-23.438,0.000,0
33081.008,-19.043,-7.324,26.367,-9.766,0.000,0
33081.012,-19.531,-20.508,80.078,3.418,0.000,0
33081.016,-2.441,-20.020,-33.691,6.348,0.000,0
33081.020,-14.648,-16.602,-148.926,-17.578,0.000,0
33081.024,-19.043,-20.020,-26.367,-20.508,0.000,0
33081.028,-15.137,-19.531,65.430,-20.508,0.000,0
33081.032,-10.254,-23.926,-4.883,-8.301,0.000,0
33081.036,-20.020,-21.484,-132.324,-5.371,0.000,0
33081.040,-16.602,-15.625,-62.500,-13.672,0.000,1
33081.043,-12.207,-25.879,68.848,-26.855,0.000,0
33081.047,-21.484,-29.297,27.344,-6.348,0.000,0
33081.051,-39.062,-30.273,-109.863,-2.930,0.000,0
33081.055,-36.621,-30.273,-100.098,-26.367,0.000,0
33081.059,-9.277,-24.414,43.457,-29.785,0.000,0
33081.063,-1.953,-27.832,42.969,-19.531,0.000,0
33081.067,-17.578,-30.762,-78.125,-3.418,0.000,0
33081.071,-44.922,-31.250,-129.883,-26.855,0.000,0
33081.075,-17.090,-34.180,13.184,-34.180,0.000,0
33081.079,-8.301,-32.227,62.012,-45.410,0.000,0
33081.083,-28.809,-28.320,-34.668,-29.297,0.000,0
33081.086,-36.621,-26.367,-146.484,-20.996,0.000,0
33081.090,-12.695,-24.414,-41.992,-35.156,0.000,0
33081.094,-23.926,-27.344,57.129,-50.781,0.000,0
33081.098,-34.668,-25.879,-0.488,-41.016,0.000,0
33081.102,-34.668,-20.508,-130.371,-21.484,0.000,0
33081.106,-8.789,-24.902,-87.891,-31.250,0.000,0
33081.110,4.883,-30.762,48.340,-49.316,0.000,0
33081.114,-24.902,-29.785,37.109,-40.527,0.000,0
33081.118,-37.598,-27.832,-98.633,-19.043,0.000,0
33081.122,-33.203,-31.738,-127.930,-24.902,0.000,0
33081.126,-19.043,-31.250,23.438,-39.551,0.000,0
33081.129,-35.645,-36.133,53.711,-49.316,0.000,0
33081.133,-46.875,-38.086,-60.547,-35.156,0.000,0
33081.137,-47.852,-31.738,-145.996,-29.785,0.000,0
33081.141,-37.598,-29.785,-14.648,-38.574,0.000,0
33081.145,-39.551,-27.832,65.918,-46.875,0.000,0
33081.149,-28.320,-30.762,-31.250,-7.812,0.000,0
33081.153,-34.180,-31.738,-168.457,-17.090,0.000,0
33081.157,-24.902,-27.344,-56.641,-36.621,0.000,0
33081.161,-24.414,-26.367,69.336,-23.926,0.000,0
33081.165,-32.227,-28.809,7.812,-18.066,0.000,0
33081.168,-38.574,-29.785,-127.441,-9.766,0.000,0
33081.172,-28.320,-24.414,-78.613,-24.414,0.000,0
33081.176,-17.090,-24.414,53.223,-47.363,0.000,0
33081.180,-27.832,-29.785,32.227,-48.828,0.000,0
33081.184,-23.926,-24.902,-93.750,-24.414,0.000,0
33081.188,-30.762,-19.531,-124.023,-15.625,0.000,0
33081.192,-27.344,-23.926,30.273,-36.621,0.000,0
33081.196,-33.203,-28.320,54.199,-57.129,0.000,0
33081.200,-40.527,-27.344,-67.383,-27.344,0.000,0
33081.204,-37.109,-26.367,-155.273,-20.996,0.000,0
33081.208,-16.113,-23.926,-19.043,-30.273,0.000,0
33081.211,-24.414,-24.902,68.359,-47.363,0.000,0
33081.215,-19.531,-19.043,-13.672,-26.855,0.000,0
33081.219,-22.949,-14.648,-145.996,-14.160,0.000,0
33081.223,-13.184,-13.672,-64.453,-6.836,0.000,0
33081.227,-2.441,-11.719,62.012,-8.301,0.000,0
33081.231,-8.789,-9.766,26.855,-9.277,0.000,0
33081.235,-8.301,0.977,-117.188,8.301,0.000,0
33081.239,7.324,15.625,-100.586,6.348,0.000,0
33081.243,-2.441,20.020,40.527,-9.277,0.000,0
33081.247,-15.625,22.949,38.086,-11.719,0.000,0
33081.251,3.418,30.273,-79.102,14.160,0.000,0
33081.254,6.348,45.898,-139.160,21.973,0.000,0
33081.258,-8.789,51.270,-12.207,2.441,0.000,0
33081.262,-29.785,48.828,22.949,-26.855,0.000,0
33081.266,-8.301,62.500,-70.312,-12.695,0.000,0
33081.270,-8.789,84.473,-167.969,-11.230,0.000,0
33081.274,-20.996,95.215,-49.316,-19.531,0.000,0
33081.278,-29.785,97.168,38.574,-22.949,0.000,0
33081.282,-30.273,104.980,-35.645,-5.859,0.000,0
33081.286,-37.109,111.328,-169.434,4.883,0.000,0
33081.290,-27.832,116.699,-97.168,-24.902,0.000,0
33081.293,-28.320,118.164,43.457,-44.434,0.000,0
33081.297,-19.531,118.652,8.301,-20.996,0.000,0
33081.301,-11.719,120.117,-132.324,4.395,0.000,0
33081.305,-23.926,121.094,-127.441,-6.348,0.000,0
33081.309,-13.672,114.258,25.879,-31.738,0.000,0
33081.313,2.441,114.258,35.156,-25.391,0.000,0
33081.317,-2.441,115.234,-88.867,5.371,0.000,0
33081.321,-36.133,107.422,-158.691,-9.766,0.000,0
33081.325,-20.508,102.539,-5.859,-33.203,0.000,0
33081.329,-5.859,90.332,39.062,-20.508,0.000,0
33081.333,-22.461,83.496,-131.836,-4.395,0.000,0
33081.336,-19.531,79.590,-131.836,-2.441,0.000,0
33081.340,-14.648,75.684,39.551,-12.695,0.000,0
33081.344,-28.809,63.477,50.781,-32.227,0.000,0
33081.348,-16.602,53.223,-65.918,-24.414,0.000,0
33081.352,-19.531,57.129,-126.465,-26.855,0.000,0
33081.356,-21.484,55.664,19.043,-26.855,0.000,0
33081.360,-23.926,41.504,65.430,-13.672,0.000,0
33081.364,-12.695,29.785,-23.438,-0.977,0.000,0
33081.368,-30.762,24.414,-119.629,-22.949,0.000,0
33081.372,-27.832,21.973,-25.391,-26.855,0.000,0
33081.376,-20.020,18.066,74.707,-35.156,0.000,0
33081.379,-22.461,8.301,14.160,-25.879,0.000,0
33081.383,-42.480,0.000,-122.559,-21.973,0.000,0
33081.387,-27.832,-3.418,-73.242,-38.086,0.000,0
33081.391,-10.254,5.371,69.824,-40.527,0.000,0
33081.395,-20.508,3.906,54.199,-34.180,0.000,0
33081.399,-27.832,-8.301,-83.008,-7.812,0.000,0
33081.403,-25.391,-14.648,-102.051,-20.996,0.000,0
33081.407,-6.836,-17.090,59.570,-44.922,0.000,0
33081.411,-15.625,-15.625,77.148,-26.855,0.000,0
33081.415,-12.695,-21.973,-44.434,-4.395,0.000,0
33081.418,-22.949,-28.320,-119.141,-15.625,0.000,0
33081.422,-21.973,-27.344,27.832,-16.602,0.000,0
33081.426,-23.926,-35.645,100.586,-35.645,0.000,0
33081.430,-12.207,-35.156,9.766,-26.367,0.000,0
33081.434,-15.625,-30.273,-117.676,-9.766,0.000,0
33081.438,-18.555,-43.457,-38.086,-16.602,0.000,0
33081.442,-22.461,-50.293,79.590,-34.180,0.000,0
33081.446,-24.902,-51.758,41.016,-27.832,0.000,0
33081.450,-30.762,-50.781,-112.305,-7.812,0.000,0
33081.454,-20.508,-47.852,-83.496,-18.555,0.000,0
33081.458,-6.836,-49.316,66.406,-20.020,0.000,0
33081.461,-10.254,-46.387,50.781,-20.020,0.000,0
33081.465,-7.812,-49.805,-76.172,-22.461,0.000,0
33081.469,-22.461,-50.781,-107.910,-27.344,0.000,0
33081.473,-20.508,-52.734,38.086,-33.203,0.000,0
33081.477,-23.438,-48.828,73.242,-43.457,0.000,0
33081.481,-9.277,-53.711,-32.715,-18.555,0.000,0
33081.485,-13.184,-60.547,-116.211,-17.578,0.000,0
33081.489,-17.578,-51.270,20.020,-28.809,0.000,0
33081.493,-13.672,-54.199,87.402,-31.250,0.000,0
33081.497,1.465,-58.594,4.395,-12.695,0.000,0
33081.501,-18.555,-61.035,-119.141,5.371,0.000,0
33081.504,-14.648,-65.918,-34.668,2.441,0.000,0
33081.508,3.418,-61.035,91.797,-20.020,0.000,0
33081.512,-0.488,-60.547,47.852,-10.254,0.000,0
33081.516,-17.090,-61.523,-97.656,0.000,0.000,0
33081.520,-22.949,-59.570,-87.891,-7.812,0.000,0
33081.524,-9.277,-61.035,58.594,-20.996,0.000,0
33081.528,-6.348,-62.500,66.406,-24.414,0.000,0
33081.532,2.441,-62.500,-61.035,-6.836,0.000,0
33081.536,7.812,-54.688,-116.211,3.906,0.000,0
33081.540,21.484,-49.805,31.738,1.953,0.000,0
33081.543,4.395,-57.129,79.590,-29.785,0.000,0
33081.547,-7.812,-61.035,-15.625,-21.484,0.000,0
33081.551,-9.766,-58.594,-123.047,-11.230,0.000,0
33081.555,-2.930,-54.199,-4.883,-19.531,0.000,0
33081.559,-10.254,-56.641,86.426,-21.484,0.000,0
33081.563,3.906,-57.617,20.996,-4.883,0.000,0
33081.567,-1.465,-53.711,-117.676,-25.391,0.000,0
33081.571,-9.277,-50.293,-73.242,-38.574,0.000,0
33081.575,-7.812,-53.711,64.941,-33.691,0.000,0
33081.579,-7.812,-58.105,47.363,-19.043,0.000,0
33081.583,-17.090,-60.547,-95.215,-16.602,0.000,0
33081.586,-28.320,-55.176,-101.074,-27.832,0.000,0
33081.590,-3.418,-52.246,50.781,-23.438,0.000,0
33081.594,-7.324,-58.105,59.570,-30.273,0.000,0
33081.598,-10.742,-55.176,-66.406,-4.395,0.000,0
33081.602,-12.207,-50.293,-128.418,8.789,0.000,0
33081.606,-2.930,-50.781,24.902,-30.273,0.000,0
33081.610,-22.461,-50.293,82.031,-50.293,0.000,0
33081.614,-17.090,-54.688,-26.855,-19.531,0.000,0
33081.618,-13.184,-52.734,-144.531,-6.836,0.000,0
33081.622,-20.508,-53.223,-25.391,-18.066,0.000,0
33081.626,-26.855,-59.082,85.449,-36.133,0.000,0
33081.629,-9.277,-59.082,12.207,-15.625,0.000,0
33081.633,-20.508,-59.082,-134.277,-22.949,0.000,0
33081.637,-31.250,-58.594,-90.820,-27.832,0.000,0
33081.641,-20.996,-58.105,54.688,-27.344,0.000,0
33081.645,-22.461,-55.664,38.574,-33.203,0.000,0
33081.649,-28.320,-55.176,-110.352,-10.254,0.000,0
33081.653,-25.391,-48.828,-124.512,-16.113,0.000,0
33081.657,-8.301,-47.363,35.645,-32.715,0.000,0
33081.661,-24.414,-54.688,55.176,-42.480,0.000,0
33081.665,-27.344,-55.176,-55.176,-21.973,0.000,0
33081.668,-25.391,-49.316,-131.348,-21.484,0.000,0
33081.672,2.930,-50.781,-7.324,-32.227,0.000,2
33081.676,-12.207,-49.805,57.129,-32.227,0.000,0
33081.680,-26.855,-50.781,-12.695,-10.742,0.000,0
33081.684,-30.273,-54.688,-123.047,-15.625,0.000,0
33081.688,-15.137,-44.434,-39.551,-24.902,0.000,0
33081.692,-16.113,-46.875,65.918,-40.039,0.000,0
33081.696,-20.996,-48.340,15.625,-18.066,0.000,0
33081.700,-21.973,-43.945,-120.605,1.465,0.000,0
33081.704,-24.414,-43.457,-77.148,-35.156,0.000,0
33081.708,-21.484,-40.527,59.082,-48.828,0.000,0
33081.711,-26.855,-43.457,46.387,-23.926,0.000,0
33081.715,-31.250,-50.293,-90.332,-6.836,0.000,0
