timestamps,TP9,AF7,AF8,TP10,Right AUX,Marker0
161520.096,-21.484,-23.926,-30.762,-20.996,0.000,0
161520.099,-25.879,-22.461,-13.672,-37.598,0.000,0
161520.103,-31.738,-26.367,-35.156,-24.414,0.000,0
161520.107,-28.320,-26.367,-35.156,-6.348,0.000,0
161520.111,-30.762,-25.391,-20.020,-11.719,0.000,0
161520.115,-28.320,-26.855,-25.391,-33.203,0.000,0
161520.119,-23.438,-29.297,-31.250,-27.344,0.000,0
161520.123,-25.391,-24.902,-33.203,-19.043,0.000,0
161520.127,-21.973,-22.949,-30.762,-28.809,0.000,0
161520.131,-15.625,-24.414,-22.461,-32.227,0.000,0
161520.135,-23.438,-22.949,-18.066,-21.973,0.000,0
161520.138,-27.344,-18.555,-17.578,-11.230,0.000,0
161520.142,-15.625,-18.555,-21.484,-5.371,0.000,0
161520.146,-13.672,-20.020,-13.184,-7.812,0.000,0
161520.150,-29.297,-19.043,-14.648,-16.113,0.000,0
161520.154,-40.527,-22.461,-37.598,-12.695,0.000,0
161520.158,-31.250,-21.484,-32.715,-7.324,0.000,0
161520.162,-28.320,-19.531,-21.973,-17.090,0.000,0
161520.166,-33.691,-18.555,-13.184,-20.508,0.000,0
161520.170,-40.039,-20.508,-23.926,-24.902,0.000,0
161520.174,-33.691,-26.855,-44.434,-25.391,0.000,0
161520.178,-23.438,-25.879,-45.898,-30.273,0.000,0
161520.181,-24.414,-23.438,-40.527,-20.020,0.000,0
161520.185,-23.438,-23.438,-35.156,-20.508,0.000,0
161520.189,-27.344,-19.043,-28.809,-36.133,0.000,0
161520.193,-30.273,-21.973,-27.832,-15.137,0.000,0
161520.197,-28.809,-21.973,-25.879,-1.953,0.000,0
161520.201,-19.043,-22.461,-22.461,-26.855,0.000,0
161520.205,-18.066,-23.438,-35.156,-17.578,0.000,0
161520.209,-31.738,-22.949,-30.762,-28.809,0.000,0
161520.213,-26.367,-22.949,-34.180,-41.504,0.000,0
161520.217,-26.367,-26.855,-39.551,-22.949,0.000,0
161520.221,-27.344,-27.344,-39.551,-13.184,0.000,0
161520.224,-25.879,-24.902,-24.902,-24.414,0.000,0
161520.228,-24.902,-24.902,-12.695,-35.645,0.000,0
161520.232,-20.020,-18.066,-33.691,-16.602,0.000,0
161520.236,-20.996,-19.043,-44.922,-17.578,0.000,0
161520.240,-25.879,-24.902,-31.250,-25.879,0.000,0
161520.244,-25.879,-25.391,-23.926,-23.926,0.000,0
161520.248,-22.949,-27.344,-15.137,-41.992,0.000,0
161520.252,-22.461,-29.297,-22.461,-35.645,0.000,0
161520.256,-26.367,-30.273,-31.738,-15.625,0.000,0
161520.260,-23.926,-28.809,-43.457,-24.902,0.000,0
161520.263,-24.414,-27.344,-40.527,-36.133,0.000,0
161520.267,-27.832,-27.832,-16.113,-31.738,0.000,0
161520.271,-27.832,-30.273,-19.531,-17.090,0.000,0
161520.275,-31.250,-27.832,-36.621,-25.391,0.000,0
161520.279,-30.762,-28.320,-35.156,-30.762,0.000,0
161520.283,-21.973,-27.832,-28.320,-17.090,0.000,0
161520.287,-15.625,-25.879,-17.090,-23.926,0.000,0
161520.291,-25.391,-18.555,-23.438,-44.922,0.000,0
161520.295,-52.734,-19.531,-41.504,-38.086,0.000,0
161520.299,-54.688,-29.297,-36.621,-27.344,0.000,0
161520.303,-45.898,-35.156,-21.973,-38.574,0.000,0
161520.306,-47.363,-36.133,-31.250,-36.133,0.000,0
161520.310,-50.781,-29.297,-37.109,-42.480,0.000,0
161520.314,-42.480,-32.227,-21.973,-40.527,0.000,0
161520.318,-26.855,-34.668,-40.039,-19.531,0.000,0
161520.322,-23.438,-28.320,-39.062,-22.461,0.000,0
161520.326,-24.414,-20.508,-7.324,-20.996,0.000,0
161520.330,-17.578,-19.043,-21.484,-10.742,0.000,0
161520.334,-19.531,-24.902,-41.992,-26.367,0.000,0
161520.338,-30.273,-28.320,-37.598,-29.297,0.000,0
161520.342,-33.203,-31.250,-24.902,-14.648,0.000,0
161520.346,-36.621,-31.738,-20.508,-18.066,0.000,0
161520.349,-31.250,-31.250,-31.738,-24.414,0.000,0
161520.353,-32.227,-28.320,-34.180,-29.297,0.000,0
161520.357,-31.738,-26.855,-26.367,-14.648,0.000,0
161520.361,-22.949,-32.227,-22.949,-2.930,0.000,0
161520.365,-22.949,-32.227,-26.367,-23.926,0.000,0
161520.369,-27.344,-28.320,-30.273,-27.832,0.000,0
161520.373,-32.227,-28.320,-30.273,-33.691,0.000,0
161520.377,-29.785,-28.320,-25.879,-38.574,0.000,0
161520.381,-24.902,-22.461,-20.996,-17.578,0.000,0
161520.385,-23.926,-20.508,-22.949,-34.180,0.000,0
161520.388,-26.367,-23.438,-26.855,-28.809,0.000,0
161520.392,-27.344,-21.484,-20.508,-20.020,0.000,0
161520.396,-21.484,-23.926,-25.391,-29.297,0.000,0
161520.400,-20.020,-26.855,-34.668,-27.832,0.000,0
161520.404,-28.809,-28.320,-23.438,-31.738,0.000,0
161520.408,-25.879,-27.344,-29.297,-47.852,0.000,0
161520.412,-24.414,-29.297,-54.199,-41.504,0.000,0
161520.416,-24.902,-27.344,-36.621,-20.508,0.000,0
161520.420,-33.203,-23.438,-17.090,-25.879,0.000,0
161520.424,-26.855,-21.484,-20.996,-31.738,0.000,0
161520.428,-17.090,-16.602,-19.043,-40.039,0.000,0
161520.431,-27.344,-18.555,-21.973,-40.527,0.000,0
161520.435,-31.738,-22.461,-33.203,-28.809,0.000,0
161520.439,-28.320,-23.438,-30.762,-27.832,0.000,0
161520.443,-24.902,-23.926,-20.996,-20.996,0.000,0
161520.447,-25.879,-20.508,-20.508,-11.230,0.000,0
161520.451,-27.832,-18.555,-29.785,-22.461,0.000,0
161520.455,-29.297,-20.996,-42.480,-35.156,0.000,0
161520.459,-18.066,-20.508,-35.645,-16.113,0.000,0
161520.463,-23.438,-23.438,-22.949,-23.926,0.000,0
161520.467,-28.320,-20.020,-27.344,-27.832,0.000,0
161520.471,-23.438,-14.648,-44.434,-19.531,0.000,0
161520.474,-33.691,-21.973,-44.922,-31.250,0.000,0
161520.478,-34.668,-24.902,-27.832,-31.250,0.000,0
161520.482,-30.762,-22.461,-18.066,-35.156,0.000,0
161520.486,-22.949,-22.461,-23.926,-38.574,0.000,0
161520.490,-23.438,-25.879,-23.438,-39.062,0.000,0
161520.494,-29.297,-27.832,-20.020,-20.508,0.000,0
161520.498,-30.762,-27.344,-32.227,-11.230,0.000,0
161520.502,-31.250,-27.832,-29.297,-31.738,0.000,0
161520.506,-32.227,-23.926,-18.555,-28.320,0.000,0
161520.510,-26.367,-20.996,-16.113,-27.832,0.000,0
161520.513,-18.555,-20.020,-32.227,-36.133,0.000,0
161520.517,-21.484,-16.602,-45.898,-23.438,0.000,0
161520.521,-21.973,-21.973,-19.531,-17.090,0.000,0
161520.525,-23.438,-22.461,-12.695,-20.996,0.000,0
161520.529,-18.555,-11.230,-28.320,-22.461,0.000,0
161520.533,-15.137,-15.137,-27.344,-18.555,0.000,0
161520.537,-20.020,-19.531,-16.602,-10.254,0.000,0
161520.541,-22.949,-14.648,2.441,-22.461,0.000,0
161520.545,-15.137,-17.578,-15.137,-24.902,0.000,0
161520.549,-9.766,-20.996,-28.320,10.742,0.000,0
161520.553,-15.137,-24.902,-23.926,-3.906,0.000,0
161520.556,-14.648,-27.344,-27.344,-19.531,0.000,0
161520.560,-15.137,-22.461,-11.719,-10.254,0.000,0
161520.564,-16.602,-23.438,-8.301,-16.602,0.000,0
161520.568,-18.066,-25.391,-17.090,-15.625,0.000,0
161520.572,-23.926,-25.391,-20.508,-14.160,0.000,0
161520.576,-25.391,-26.367,-26.855,-6.348,0.000,0
161520.580,-24.414,-22.949,-10.742,-11.719,0.000,0
161520.584,-22.949,-20.508,-11.719,-7.812,0.000,0
161520.588,-17.578,-21.484,-33.691,0.000,0.000,0
161520.592,-11.230,-20.508,-26.367,-3.418,0.000,0
161520.596,-8.789,-25.391,-20.508,6.348,0.000,0
161520.599,-10.254,-22.949,-5.859,1.465,0.000,0
161520.603,-12.207,-17.578,-18.066,-12.207,0.000,0
161520.607,-18.066,-19.043,-37.598,-9.766,0.000,0
161520.611,-24.414,-21.973,-22.949,-14.160,0.000,0
161520.615,-15.625,-18.555,-33.691,-6.836,0.000,0
161520.619,-17.578,-21.973,-33.691,-8.301,0.000,0
161520.623,-27.344,-21.973,-18.066,-30.762,0.000,0
161520.627,-28.809,-16.602,-18.066,-39.551,0.000,0
161520.631,-24.414,-18.555,-14.160,-30.762,0.000,0
161520.635,-20.020,-12.695,-34.668,-10.254,0.000,0
161520.638,-24.414,-17.090,-34.180,-19.043,0.000,0
161520.642,-23.926,-15.625,-1.953,-27.344,0.000,0
161520.646,-20.996,-11.719,-6.836,-12.207,0.000,0
161520.650,-21.973,-18.555,-30.762,-11.230,0.000,0
161520.654,-21.484,-16.602,-29.297,-14.160,0.000,0
161520.658,-16.113,-17.090,-10.254,-13.184,0.000,0
161520.662,-16.113,-19.531,-2.930,-19.043,0.000,0
161520.666,-15.625,-14.160,-20.020,-10.254,0.000,0
161520.670,-15.137,-12.207,-21.973,-10.742,0.000,0
161520.674,-20.020,-14.160,-21.484,-8.789,0.000,0
161520.678,-23.438,-14.648,-19.043,-10.254,0.000,0
161520.681,-24.902,-22.461,-33.203,-15.625,0.000,0
161520.685,-21.973,-22.949,-35.156,-8.301,0.000,0
161520.689,-22.461,-21.484,-21.484,-24.902,0.000,0
161520.693,-16.113,-25.879,-31.250,-20.020,0.000,0
161520.697,-16.602,-28.809,-23.926,-21.973,0.000,0
161520.701,-14.648,-20.020,-12.695,-35.645,0.000,0
161520.705,-9.277,-13.672,-29.297,-24.902,0.000,0
161520.709,-9.277,-20.508,-30.762,-16.602,0.000,0
161520.713,-16.113,-22.461,-16.113,-19.531,0.000,0
161520.717,-15.137,-23.926,-17.578,-24.902,0.000,0
161520.721,-16.113,-28.320,-21.484,-27.344,0.000,0
161520.724,-25.391,-20.996,-23.926,-15.625,0.000,0
161520.728,-25.391,-20.508,-23.926,-7.324,0.000,0
161520.732,-24.414,-23.926,-19.043,-10.254,0.000,0
161520.736,-21.973,-16.602,-25.879,-24.902,0.000,0
161520.740,-19.531,-21.973,-30.762,-32.227,0.000,0
161520.744,-31.738,-28.809,-32.715,-34.668,0.000,0
161520.748,-34.668,-23.438,-40.039,-22.461,0.000,0
161520.752,-26.855,-21.484,-41.504,-20.996,0.000,0
161520.756,-28.320,-25.391,-24.414,-21.484,0.000,0
161520.760,-33.203,-24.902,-19.531,-14.160,0.000,0
161520.763,-32.715,-20.996,-40.527,-23.926,0.000,0
161520.767,-24.902,-15.137,-37.109,-29.785,0.000,0
161520.771,-26.855,-18.555,-19.531,-16.113,0.000,0
161520.775,-24.902,-19.531,-17.090,-6.836,0.000,0
161520.779,-20.508,-20.996,-20.508,-15.137,0.000,0
161520.783,-19.043,-27.344,-37.598,-25.879,0.000,0
161520.787,-20.020,-22.461,-37.109,-17.578,0.000,0
161520.791,-26.367,-16.113,-21.484,-13.672,0.000,0
161520.795,-26.855,-20.508,-23.926,-35.156,0.000,0
161520.799,-25.879,-23.926,-30.762,-38.086,0.000,0
161520.803,-22.949,-20.996,-32.227,-25.391,0.000,0
161520.806,-28.809,-20.508,-29.785,-22.461,0.000,0
161520.810,-37.109,-22.949,-33.691,-13.672,0.000,0
161520.814,-36.133,-27.344,-29.785,-32.227,0.000,0
161520.818,-41.504,-27.832,-27.832,-30.273,0.000,0
161520.822,-43.945,-30.273,-36.133,-19.531,0.000,0
161520.826,-33.691,-29.297,-52.734,-20.996,0.000,0
161520.830,-29.297,-24.902,-49.316,-21.484,0.000,0
161520.834,-31.738,-26.367,-23.438,-36.621,0.000,0
161520.838,-24.414,-23.926,-15.625,-25.391,0.000,0
161520.842,-23.926,-23.926,-22.949,-23.438,0.000,0
161520.846,-28.320,-32.715,-26.855,-29.785,0.000,0
161520.849,-22.461,-29.297,-34.180,-21.484,0.000,0
161520.853,-20.996,-18.555,-24.414,-38.086,0.000,0
161520.857,-16.602,-20.508,-27.832,-33.691,0.000,0
161520.861,-17.578,-21.484,-32.715,-16.113,0.000,0
161520.865,-26.855,-25.391,-29.785,-12.695,0.000,0
161520.869,-24.902,-28.320,-33.691,-3.906,0.000,0
161520.873,-21.973,-28.320,-21.484,-27.344,0.000,0
161520.877,-19.043,-27.344,-7.324,-42.969,0.000,0
161520.881,-17.090,-22.949,-12.207,-40.527,0.000,0
161520.885,-23.438,-22.461,-28.809,-30.273,0.000,0
161520.888,-23.926,-22.461,-36.621,-23.926,0.000,0
161520.892,-23.926,-18.555,-6.836,-31.250,0.000,0
161520.896,-30.273,-20.996,-15.137,-16.113,0.000,0
161520.900,-26.367,-23.438,-44.922,-16.113,0.000,0
161520.904,-27.344,-23.926,-31.250,-31.738,0.000,0
161520.908,-26.855,-28.320,-24.414,-22.461,0.000,0
161520.912,-21.484,-23.438,-21.484,-21.973,0.000,0
161520.916,-27.832,-22.949,-18.066,-41.504,0.000,0
161520.920,-23.438,-24.902,-26.855,-28.320,0.000,0
161520.924,-10.742,-20.996,-22.949,-1.953,0.000,0
161520.928,-16.602,-19.531,-25.879,-14.160,0.000,0
161520.931,-20.508,-26.855,-31.250,-37.598,0.000,0
161520.935,-30.762,-33.203,-28.809,-31.250,0.000,0
161520.939,-38.574,-31.738,-36.621,-15.625,0.000,0
161520.943,-27.832,-27.344,-29.785,-11.719,0.000,0
161520.947,-24.902,-26.855,-32.715,-16.113,0.000,0
161520.951,-27.344,-27.344,-21.484,-33.203,0.000,0
161520.955,-29.297,-24.902,-5.859,-46.875,0.000,0
161520.959,-26.367,-26.367,-22.949,-33.203,0.000,0
161520.963,-27.344,-26.367,-39.062,-27.832,0.000,0
161520.967,-27.832,-20.996,-38.574,-34.180,0.000,0
161520.971,-34.668,-20.996,-9.766,-39.062,0.000,0
161520.974,-33.691,-16.113,-8.789,-33.203,0.000,0
161520.978,-26.855,-19.531,-35.645,-26.367,0.000,0
161520.982,-35.156,-20.996,-32.715,-29.297,0.000,0
161520.986,-30.762,-16.602,-28.809,-14.160,0.000,0
161520.990,-20.996,-17.090,-29.785,-1.953,0.000,0
161520.994,-29.785,-19.043,-20.996,-31.250,0.000,0
161520.998,-32.715,-20.020,-30.273,-30.762,0.000,0
161521.002,-31.738,-20.996,-36.621,-4.883,0.000,0
161521.006,-25.391,-20.508,-26.367,-15.625,0.000,0
161521.010,-25.391,-27.832,-24.902,-35.156,0.000,0
161521.013,-29.297,-29.297,-20.508,-32.715,0.000,0
161521.017,-26.367,-19.043,-5.859,-32.715,0.000,0
161521.021,-29.785,-20.508,-21.484,-30.273,0.000,0
161521.025,-28.809,-22.461,-47.852,-10.742,0.000,0
161521.029,-19.531,-24.414,-33.691,-27.344,0.000,0
161521.033,-25.391,-26.367,-19.043,-36.621,0.000,0
161521.037,-30.762,-27.832,-28.320,-6.836,0.000,0
161521.041,-28.809,-27.832,-25.391,-11.230,0.000,0
161521.045,-33.691,-34.668,-29.297,-19.043,0.000,0
161521.049,-29.297,-29.297,-31.738,-26.855,0.000,0
161521.053,-29.297,-16.602,-23.926,-38.086,0.000,0
161521.056,-33.691,-16.602,-31.738,-25.391,0.000,0
161521.060,-41.504,-19.043,-33.203,-6.348,0.000,0
161521.064,-42.480,-21.973,-44.922,-20.020,0.000,0
161521.068,-25.391,-24.902,-47.852,-20.996,0.000,0
161521.072,-23.926,-22.461,-20.508,-23.438,0.000,0
161521.076,-29.785,-17.090,-21.484,-33.203,0.000,0
161521.080,-25.391,-22.461,-35.156,-14.648,0.000,0
161521.084,-28.809,-24.414,-36.133,-15.137,0.000,0
161521.088,-32.715,-22.949,-26.367,-8.301,0.000,0
161521.092,-29.785,-24.414,-19.531,-0.488,0.000,0
161521.096,-28.320,-22.949,-27.344,-16.113,0.000,0
161521.099,-14.648,-21.973,-31.738,-19.531,0.000,0
161521.103,-23.926,-26.855,-26.367,-10.254,0.000,0
161521.107,-33.691,-29.297,-23.438,-17.090,0.000,0
161521.111,-20.020,-21.973,-27.832,-19.043,0.000,0
161521.115,-21.973,-25.879,-40.039,-10.254,0.000,0
161521.119,-23.438,-21.973,-29.785,-17.578,0.000,0
161521.123,-20.020,-16.113,-24.902,-17.090,0.000,0
161521.127,-23.438,-22.461,-50.781,-4.395,0.000,0
161521.131,-22.949,-19.531,-38.086,-17.090,0.000,0
161521.135,-17.090,-15.137,-22.461,-29.785,0.000,0
161521.138,-25.391,-17.090,-24.414,-24.414,0.000,0
161521.142,-29.785,-17.090,-24.902,-12.695,0.000,0
161521.146,-30.273,-13.672,-31.250,-17.578,0.000,0
161521.150,-32.227,-17.578,-26.855,-34.180,0.000,0
161521.154,-27.832,-20.508,-33.203,-31.250,0.000,0
161521.158,-19.043,-20.508,-39.062,-19.043,0.000,0
161521.162,-25.879,-22.949,-28.320,-23.926,0.000,0
161521.166,-30.762,-22.461,-39.062,-11.230,0.000,0
161521.170,-21.484,-25.391,-37.109,-21.973,0.000,0
161521.174,-25.879,-28.320,-31.250,-26.367,0.000,0
161521.178,-30.762,-26.367,-41.016,-16.113,0.000,0
161521.181,-29.785,-25.879,-47.363,-29.785,0.000,0
161521.185,-33.203,-22.461,-44.434,-30.762,0.000,0
161521.189,-37.598,-20.508,-30.762,-38.086,0.000,0
161521.193,-39.062,-25.391,-31.250,-31.250,0.000,0
161521.197,-22.461,-21.973,-35.645,-17.090,0.000,0
161521.201,-22.949,-23.438,-41.992,-13.672,0.000,0
161521.205,-38.574,-24.414,-42.480,-7.324,0.000,0
161521.209,-27.832,-22.461,-20.508,-30.273,0.000,0
161521.213,-36.133,-27.344,-25.879,-37.109,0.000,0
161521.217,-40.527,-26.855,-46.387,-29.785,0.000,0
161521.221,-31.250,-27.344,-29.297,-31.250,0.000,0
161521.224,-42.969,-31.250,-21.973,-15.137,0.000,0
161521.228,-51.270,-31.738,-27.344,-35.645,0.000,0
161521.232,-43.945,-30.273,-28.320,-54.688,0.000,0
161521.236,-30.273,-27.832,-38.574,-18.555,0.000,0
161521.240,-32.715,-26.367,-30.762,-16.602,0.000,0
161521.244,-31.738,-22.461,-35.156,-22.949,0.000,0
161521.248,-18.066,-24.902,-36.133,-33.203,0.000,0
161521.252,-20.020,-23.438,-26.855,-16.113,0.000,0
161521.256,-26.855,-17.578,-21.973,0.977,0.000,0
161521.260,-21.484,-23.438,-25.391,-12.207,0.000,0
161521.263,-25.391,-27.832,-39.062,-28.809,0.000,0
161521.267,-27.344,-22.461,-22.461,-43.945,0.000,0
161521.271,-19.043,-24.414,-17.090,-32.227,0.000,0
161521.275,-28.320,-25.391,-39.062,-22.949,0.000,0
161521.279,-29.785,-26.855,-45.898,-29.297,0.000,0
161521.283,-17.578,-26.855,-40.527,-17.578,0.000,0
161521.287,-22.461,-24.414,-28.320,-20.020,0.000,0
161521.291,-11.719,-21.973,-19.043,-34.668,0.000,0
161521.295,-4.395,-21.484,-30.273,-11.230,0.000,0
161521.299,-17.578,-29.297,-31.250,-1.953,0.000,0
161521.303,-19.531,-23.926,-26.855,-9.277,0.000,0
161521.306,-25.879,-25.391,-34.668,-25.879,0.000,0
161521.310,-36.621,-24.414,-23.438,-43.945,0.000,0
161521.314,-37.109,-24.902,-36.621,-22.461,0.000,0
161521.318,-36.133,-30.762,-48.340,-15.625,0.000,0
161521.322,-35.645,-23.926,-39.551,-42.969,0.000,0
161521.326,-37.109,-28.809,-20.996,-55.176,0.000,0
161521.330,-33.691,-28.809,-26.855,-40.527,0.000,0
161521.334,-30.273,-20.508,-39.062,-34.668,0.000,0
161521.338,-33.691,-23.438,-37.598,-30.762,0.000,0
161521.342,-29.297,-24.414,-43.457,-7.812,0.000,0
161521.346,-26.855,-24.902,-25.391,-5.859,0.000,0
161521.349,-31.738,-20.020,-16.602,-25.879,0.000,0
161521.353,-16.113,-16.602,-40.527,-21.973,0.000,0
161521.357,-13.672,-24.902,-40.039,-19.043,0.000,0
161521.361,-22.949,-20.508,-22.461,-28.809,0.000,0
161521.365,-27.832,-23.926,-30.762,-27.832,0.000,0
161521.369,-34.180,-27.832,-32.715,-21.973,0.000,0
161521.373,-25.879,-16.602,-26.367,-27.344,0.000,0
161521.377,-22.461,-14.160,-24.902,-13.184,0.000,0
161521.381,-25.879,-18.555,-37.109,-5.371,0.000,0
161521.385,-25.391,-22.949,-49.805,-17.578,0.000,0
161521.388,-26.367,-20.996,-25.391,-29.785,0.000,0
161521.392,-30.273,-14.160,-17.578,-23.438,0.000,0
161521.396,-23.926,-20.508,-41.992,-4.395,0.000,0
161521.400,-18.555,-22.461,-33.203,-20.996,0.000,0
161521.404,-11.719,-14.648,-23.438,-36.621,0.000,0
161521.408,-13.184,-12.207,-19.531,-34.668,0.000,0
161521.412,-29.785,-15.137,-31.250,-36.133,0.000,0
161521.416,-29.785,-20.508,-50.781,-40.039,0.000,0
161521.420,-23.438,-23.926,-43.945,-33.691,0.000,0
161521.424,-24.902,-23.926,-28.809,-27.832,0.000,0
161521.428,-22.949,-19.043,-19.531,-26.367,0.000,0
161521.431,-26.855,-16.602,-10.742,-27.344,0.000,0
161521.435,-27.344,-9.277,-18.555,-24.902,0.000,0
161521.439,-24.414,-13.184,-34.668,-31.738,0.000,0
161521.443,-27.832,-16.602,-35.156,-26.855,0.000,0
161521.447,-27.344,-15.137,-30.762,-47.363,0.000,0
161521.451,-24.414,-21.973,-40.039,-39.062,0.000,0
161521.455,-25.391,-22.949,-42.969,-20.020,0.000,0
161521.459,-30.273,-26.367,-36.133,-35.645,0.000,0
161521.463,-29.785,-25.391,-24.902,-27.344,0.000,0
161521.467,-35.156,-20.508,-28.320,-20.020,0.000,0
161521.471,-44.434,-19.531,-40.527,-27.344,0.000,0
161521.474,-49.805,-21.484,-35.645,-16.602,0.000,0
161521.478,-45.410,-25.391,-32.227,-35.156,0.000,0
161521.482,-37.598,-20.508,-40.527,-58.105,0.000,0
161521.486,-32.715,-16.113,-35.645,-56.641,0.000,0
161521.490,-28.320,-15.625,-33.691,-38.086,0.000,0
161521.494,-36.621,-14.648,-40.039,-24.902,0.000,0
161521.498,-25.879,-15.137,-41.016,-25.391,0.000,0
161521.502,-19.043,-15.625,-28.809,-31.250,0.000,0
161521.506,-29.785,-11.719,-21.973,-37.598,0.000,0
161521.510,-29.297,-9.277,-32.715,-28.809,0.000,0
161521.513,-16.113,-7.324,-30.762,-29.785,0.000,0
161521.517,-11.719,-4.395,-27.344,-20.020,0.000,0
161521.521,-23.926,-2.930,-10.254,-19.531,0.000,0
161521.525,-27.832,-3.906,0.977,-31.250,0.000,0
161521.529,-15.625,-8.301,-41.016,-23.438,0.000,0
161521.533,-13.672,-10.742,-34.180,-3.906,0.000,0
161521.537,-19.531,-5.371,-7.812,-3.418,0.000,0
161521.541,-21.484,-6.348,-10.254,-38.574,0.000,0
161521.545,-19.043,-16.113,-11.230,-32.715,0.000,0
161521.549,-20.020,-14.160,-23.438,-9.277,0.000,0
161521.553,-26.367,-12.695,-18.555,-24.902,0.000,0
161521.556,-22.949,-12.207,-20.996,-9.766,0.000,0
161521.560,-13.672,-13.184,-26.367,-6.348,0.000,0
161521.564,-22.949,-17.578,-10.742,-24.902,0.000,0
161521.568,-30.762,-8.301,-17.090,-4.883,0.000,0
161521.572,-19.531,-5.371,-27.344,-4.883,0.000,0
161521.576,-16.602,-10.742,-31.250,-19.531,0.000,0
161521.580,-31.738,-12.695,-21.484,-15.625,0.000,0
161521.584,-36.133,-7.812,11.719,-15.625,0.000,0
161521.588,-20.020,-2.930,-5.371,-27.344,0.000,0
161521.592,-15.625,-9.766,-34.668,-29.785,0.000,0
161521.596,-26.855,-15.625,-38.574,-19.531,0.000,0
161521.599,-31.250,-18.555,-25.391,-20.996,0.000,0
161521.603,-27.344,-21.973,-12.695,-25.879,0.000,0
161521.607,-30.762,-15.625,-34.180,-27.832,0.000,0
161521.611,-44.922,-13.184,-40.039,-22.461,0.000,0
161521.615,-38.086,-16.602,-33.203,-5.859,0.000,0
161521.619,-26.855,-21.484,-42.969,-22.949,0.000,0
161521.623,-24.902,-19.043,-34.668,-42.969,0.000,0
161521.627,-23.926,-15.137,-20.996,-46.387,0.000,0
161521.631,-27.832,-20.020,-34.180,-39.062,0.000,0
161521.635,-25.391,-20.996,-40.039,-37.598,0.000,0
161521.638,-26.855,-13.672,-36.133,-37.109,0.000,0
161521.642,-27.344,-14.648,-16.602,-20.020,0.000,0
161521.646,-24.902,-15.625,-16.113,-31.738,0.000,0
161521.650,-22.949,-16.113,-39.551,-37.109,0.000,0
161521.654,-20.020,-19.531,-36.133,-30.273,0.000,0
161521.658,-22.461,-22.949,-27.832,-7.324,0.000,0
161521.662,-27.344,-22.461,-20.508,-9.277,0.000,0
161521.666,-24.414,-20.508,-23.926,-40.527,0.000,0
161521.670,-26.367,-19.043,-33.203,-41.504,0.000,0
161521.674,-30.273,-18.066,-11.230,-19.043,0.000,0
161521.678,-23.926,-22.461,-20.996,-16.113,0.000,0
161521.681,-26.855,-23.926,-19.531,-32.227,0.000,0
161521.685,-26.367,-17.578,-13.672,-38.574,0.000,0
161521.689,-22.949,-14.648,-20.020,-33.691,0.000,0
161521.693,-31.250,-15.625,-20.508,-20.508,0.000,0
161521.697,-37.109,-16.602,-27.832,-0.488,0.000,0
161521.701,-39.062,-20.996,-14.648,-5.371,0.000,0
161521.705,-32.227,-22.949,-13.184,-35.645,0.000,0
161521.709,-23.926,-22.949,-25.391,-37.598,0.000,0
161521.713,-24.414,-17.578,-27.344,-34.668,0.000,0
161521.717,-24.414,-12.695,-14.648,-32.227,0.000,0
161521.721,-23.926,-13.672,1.953,-35.645,0.000,0
161521.724,-13.672,-17.090,-14.648,-32.227,0.000,0
161521.728,-14.648,-15.625,-18.066,-19.043,0.000,0
161521.732,-28.809,-15.137,-14.648,-2.441,0.000,0
161521.736,-24.414,-18.555,-18.555,-8.789,0.000,0
161521.740,-18.555,-23.926,-19.043,-21.484,0.000,0
161521.744,-20.996,-20.508,-30.273,-8.789,0.000,0
161521.748,-23.438,-13.184,-24.414,-17.090,0.000,0
161521.752,-40.039,-18.555,-18.555,-18.555,0.000,0
161521.756,-41.016,-22.461,-21.484,-36.133,0.000,0
161521.760,-26.855,-18.066,-18.555,-43.457,0.000,0
161521.763,-20.508,-13.184,-7.812,-38.086,0.000,0
161521.767,-8.301,-16.602,-22.949,-17.578,0.000,0
161521.771,-9.277,-11.719,-33.203,-18.066,0.000,0
161521.775,-18.066,-11.230,-26.367,-30.762,0.000,0
161521.779,-29.785,-20.508,-22.949,-29.297,0.000,0
161521.783,-29.785,-22.461,-27.344,-28.320,0.000,0
161521.787,-26.855,-23.438,-29.785,-19.531,0.000,0
161521.791,-33.691,-22.461,-19.531,-26.367,0.000,0
161521.795,-41.504,-18.555,-20.996,-37.109,0.000,0
161521.799,-32.227,-21.484,-24.902,-40.039,0.000,0
161521.803,-16.602,-21.484,-8.789,-29.297,0.000,0
161521.806,-15.137,-15.137,-4.395,-10.742,0.000,0
161521.810,-16.602,-11.719,-11.230,7.812,0.000,0
161521.814,-9.277,-14.648,-27.344,0.488,0.000,0
161521.818,-19.531,-17.090,-22.949,-31.738,0.000,0
161521.822,-31.250,-17.090,-3.906,-34.668,0.000,0
161521.826,-20.020,-17.090,-15.625,-37.109,0.000,0
161521.830,-12.695,-21.973,-33.203,-44.434,0.000,0
161521.834,-24.902,-23.438,-37.109,-16.602,0.000,0
161521.838,-27.832,-17.578,-6.836,-18.066,0.000,0
161521.842,-25.879,-21.484,-18.066,-40.527,0.000,0
161521.846,-23.926,-30.762,-47.363,-33.203,0.000,0
161521.849,-30.273,-28.320,-15.625,-29.297,0.000,0
161521.853,-29.297,-27.344,-16.602,-15.137,0.000,0
161521.857,-21.484,-26.367,-29.297,-28.809,0.000,0
161521.861,-6.836,-25.879,-30.762,-40.527,0.000,0
161521.865,-13.672,-27.344,-24.902,-26.367,0.000,0
161521.869,-34.668,-29.297,-17.578,-19.043,0.000,0
161521.873,-35.645,-31.250,-28.320,-22.949,0.000,0
161521.877,-31.250,-30.273,-19.043,-34.668,0.000,0
161521.881,-33.691,-28.320,-24.414,-39.062,0.000,0
161521.885,-41.992,-35.156,-45.898,-23.438,0.000,0
161521.888,-40.527,-39.062,-50.293,-24.414,0.000,0
161521.892,-24.902,-28.320,-34.668,-29.785,0.000,0
161521.896,-26.855,-24.902,-14.160,-33.203,0.000,0
161521.900,-29.785,-27.832,-25.391,-45.898,0.000,0
161521.904,-24.414,-21.973,-39.551,-31.738,0.000,0
161521.908,-24.414,-22.949,-31.250,-19.531,0.000,0
161521.912,-33.691,-29.785,-17.578,-19.531,0.000,0
161521.916,-36.621,-29.297,-7.812,-27.832,0.000,0
161521.920,-29.785,-30.273,-32.227,-26.367,0.000,0
161521.924,-30.273,-26.855,-37.598,-26.855,0.000,0
161521.928,-35.645,-23.926,-20.020,-20.508,0.000,0
161521.931,-45.410,-27.344,-36.133,-20.020,0.000,0
161521.935,-44.434,-28.809,-26.367,-33.203,0.000,0
161521.939,-35.645,-21.973,-16.113,-35.156,0.000,0
161521.943,-25.391,-15.625,-25.391,-21.973,0.000,0
161521.947,-34.180,-21.973,-22.461,-16.113,0.000,0
161521.951,-40.527,-26.855,-47.363,-9.277,0.000,0
161521.955,-37.598,-26.855,-25.879,0.488,0.000,0
161521.959,-43.457,-25.391,-13.184,0.977,0.000,0
161521.963,-40.039,-26.367,-50.781,-15.137,0.000,0
161521.967,-33.691,-24.414,-34.180,-17.090,0.000,0
161521.971,-28.320,-20.508,-22.461,-6.348,0.000,0
161521.974,-34.668,-25.391,-23.926,-14.160,0.000,0
161521.978,-33.203,-31.250,-22.949,-26.367,0.000,0
161521.982,-18.066,-30.273,-34.180,-26.367,0.000,0
161521.986,-16.113,-24.902,-26.367,-31.738,0.000,0
161521.990,-12.695,-21.484,-24.902,-26.367,0.000,0
161521.994,-19.531,-22.461,-35.156,-14.160,0.000,0
161521.998,-27.832,-25.879,-28.809,-23.438,0.000,0
161522.002,-22.461,-27.344,-20.020,-30.273,0.000,0
161522.006,-19.043,-26.855,-22.461,-16.113,0.000,0
161522.010,-15.137,-30.273,-40.039,-15.625,0.000,0
161522.013,-16.602,-30.273,-34.668,-22.461,0.000,0
161522.017,-24.902,-35.156,-24.414,-17.090,0.000,0
161522.021,-21.484,-36.621,-39.551,-10.742,0.000,0
161522.025,-23.438,-27.832,-40.527,-21.973,0.000,0
161522.029,-28.320,-21.484,-33.203,-20.508,0.000,0
161522.033,-25.391,-16.602,-22.461,-13.672,0.000,0
161522.037,-24.414,-21.484,-15.625,-18.066,0.000,0
161522.041,-22.461,-25.391,-28.809,-19.043,0.000,0
161522.045,-19.531,-24.414,-30.273,-24.414,0.000,0
161522.049,-18.555,-25.879,-20.020,-12.695,0.000,0
161522.053,-10.742,-28.320,-39.551,16.113,0.000,0
161522.056,-19.043,-26.367,-34.180,-12.207,0.000,0
161522.060,-27.344,-25.391,-32.715,-33.691,0.000,0
161522.064,-19.531,-23.926,-41.016,-26.855,0.000,0
161522.068,-16.113,-19.531,-31.738,-26.855,0.000,0
161522.072,-19.043,-21.973,-36.133,-18.555,0.000,0
161522.076,-13.184,-22.461,-22.461,-26.855,0.000,0
161522.080,-7.324,-24.902,-16.113,-36.621,0.000,0
161522.084,-11.719,-29.297,-19.043,-19.043,0.000,0
161522.088,-16.602,-26.367,-31.250,-14.160,0.000,0
161522.092,-21.484,-26.855,-20.996,-19.531,0.000,0
161522.096,-23.438,-27.344,-16.602,-20.996,0.000,0
161522.099,-19.531,-29.297,-30.762,-23.438,0.000,0
161522.103,-22.949,-30.762,-16.602,-21.973,0.000,0
161522.107,-23.438,-22.461,-12.207,-24.902,0.000,0
161522.111,-16.602,-22.949,-26.367,-23.926,0.000,0
161522.115,-17.578,-31.738,-11.230,-14.648,0.000,0
161522.119,-25.391,-27.344,-8.789,-23.926,0.000,0
161522.123,-23.438,-22.461,-28.809,-13.672,0.000,0
161522.127,-12.207,-27.344,-28.809,7.324,0.000,0
161522.131,-23.926,-32.227,-28.809,-26.367,0.000,0
161522.135,-46.875,-36.133,-19.043,-46.875,0.000,0
161522.138,-47.363,-34.668,-22.461,-56.152,0.000,0
161522.142,-53.711,-32.715,-49.316,-58.594,0.000,0
161522.146,-59.082,-33.203,-50.293,-46.875,0.000,0
161522.150,-45.410,-32.715,-26.367,-39.062,0.000,0
161522.154,-35.645,-32.227,-22.461,-39.551,0.000,0
161522.158,-39.551,-29.297,-47.852,-35.645,0.000,0
161522.162,-24.902,-22.949,-45.410,-22.461,0.000,0
161522.166,-16.113,-21.973,-31.738,-31.738,0.000,0
161522.170,-26.855,-25.391,-27.344,-41.992,0.000,0
161522.174,-28.809,-25.879,-20.508,-50.293,0.000,0
161522.178,-33.203,-28.809,-28.809,-44.434,0.000,0
161522.181,-39.062,-33.203,-39.551,-23.438,0.000,0
161522.185,-41.992,-32.227,-38.086,-28.809,0.000,0
161522.189,-39.062,-29.297,-47.363,-26.855,0.000,0
161522.193,-31.738,-31.738,-28.809,-38.574,0.000,0
161522.197,-27.832,-27.832,-16.602,-32.227,0.000,0
161522.201,-25.391,-24.902,-38.574,-38.574,0.000,0
161522.205,-22.949,-23.438,-36.621,-48.828,0.000,0
161522.209,-15.625,-14.648,-19.531,-27.832,0.000,0
161522.213,-14.648,-11.719,-12.695,-27.832,0.000,0
161522.217,-13.184,-18.066,-21.973,-36.133,0.000,0
161522.221,-16.602,-21.484,-21.973,-25.391,0.000,0
161522.224,-27.832,-22.461,-17.090,-23.438,0.000,0
161522.228,-17.090,-18.555,-35.156,-19.043,0.000,0
161522.232,-10.254,-17.578,-28.809,-13.672,0.000,0
161522.236,-26.855,-21.973,-18.555,-23.926,0.000,0
161522.240,-15.137,-21.484,-32.715,-9.766,0.000,0
161522.244,-11.719,-21.484,-35.156,-10.742,0.000,0
161522.248,-27.832,-24.902,-38.574,-27.832,0.000,0
161522.252,-30.273,-23.926,-14.648,-41.504,0.000,0
161522.256,-25.879,-28.320,-11.230,-58.594,0.000,0
161522.260,-26.855,-32.715,-38.574,-45.410,0.000,0
161522.263,-36.133,-29.785,-38.574,-21.973,0.000,0
161522.267,-29.785,-23.438,-31.250,-27.832,0.000,0
161522.271,-27.832,-19.531,-19.531,-27.344,0.000,0
161522.275,-19.531,-20.020,-17.090,-23.438,0.000,0
161522.279,-12.207,-21.484,-27.344,-38.086,0.000,0
161522.283,-22.949,-21.973,-21.973,-39.062,0.000,0
161522.287,-27.344,-19.043,-9.277,-8.301,0.000,0
161522.291,-34.668,-26.855,-17.090,-15.625,0.000,0
161522.295,-38.086,-31.738,-21.484,-44.434,0.000,0
161522.299,-35.156,-31.738,-27.344,-31.738,0.000,0
161522.303,-32.227,-33.203,-34.180,-23.438,0.000,0
161522.306,-20.508,-24.414,-38.086,-16.113,0.000,0
161522.310,-18.555,-23.926,-22.949,-19.043,0.000,0
161522.314,-22.461,-28.809,-11.719,-35.156,0.000,0
161522.318,-20.996,-27.832,-26.367,-17.090,0.000,0
161522.322,-26.367,-25.879,-33.203,-20.996,0.000,0
161522.326,-20.996,-26.367,-45.410,-19.043,0.000,0
161522.330,-14.648,-32.227,-24.902,-19.531,0.000,0
161522.334,-17.578,-33.691,-2.441,-26.367,0.000,0
161522.338,-19.531,-25.879,-27.344,7.324,0.000,0
161522.342,-27.832,-22.949,-25.879,3.418,0.000,0
161522.346,-29.785,-26.367,-26.855,-31.250,0.000,0
161522.349,-23.438,-29.297,-22.461,-30.762,0.000,0
161522.353,-18.555,-29.297,-11.230,-33.203,0.000,0
161522.357,-11.719,-21.484,-11.230,-25.391,0.000,0
161522.361,-9.277,-19.531,-20.020,-7.812,0.000,0
161522.365,-16.602,-23.926,-35.156,4.883,0.000,0
161522.369,-16.113,-29.297,-40.039,-4.395,0.000,0
161522.373,-13.672,-29.297,-28.809,-25.391,0.000,0
161522.377,-25.879,-22.949,-19.531,-20.508,0.000,0
161522.381,-32.715,-24.902,-36.621,-14.648,0.000,0
161522.385,-16.602,-24.414,-36.133,-19.043,0.000,0
161522.388,-7.812,-29.785,-29.297,-11.719,0.000,0
161522.392,-22.949,-30.273,-25.391,-15.625,0.000,0
161522.396,-37.109,-26.367,-31.250,-37.598,0.000,0
161522.400,-32.715,-28.809,-28.320,-38.574,0.000,0
161522.404,-28.320,-26.855,-21.484,-7.324,0.000,0
161522.408,-30.762,-25.391,-24.414,-21.973,0.000,0
161522.412,-29.297,-34.180,-23.926,-34.668,0.000,0
161522.416,-29.297,-34.668,-31.738,-8.789,0.000,0
161522.420,-35.645,-27.832,-26.367,-28.320,0.000,0
161522.424,-31.738,-28.809,-21.973,-38.574,0.000,0
161522.428,-30.273,-27.344,-41.016,-23.438,0.000,0
161522.431,-30.273,-27.344,-30.273,-42.969,0.000,0
161522.435,-31.250,-29.297,-20.508,-56.152,0.000,0
161522.439,-27.832,-25.391,-28.809,-29.785,0.000,0
161522.443,-20.020,-25.879,-37.109,-14.648,0.000,0
161522.447,-30.762,-28.320,-30.273,-16.113,0.000,0
161522.451,-40.039,-23.438,-20.508,-28.809,0.000,0
161522.455,-37.109,-22.461,-27.832,-29.785,0.000,0
161522.459,-34.180,-25.391,-34.668,-31.738,0.000,0
161522.463,-19.043,-26.855,-19.043,-46.875,0.000,0
161522.467,-22.949,-20.996,-14.648,-21.484,0.000,0
161522.471,-33.691,-22.949,-30.273,-24.414,0.000,0
161522.474,-28.809,-29.785,-39.062,-31.250,0.000,0
161522.478,-34.180,-28.809,-46.387,-1.465,0.000,0
161522.482,-29.297,-24.414,-30.762,-17.090,0.000,0
161522.486,-25.391,-26.367,-32.227,-28.320,0.000,0
161522.490,-40.039,-32.715,-28.809,-21.484,0.000,0
161522.494,-47.852,-27.832,-19.531,-36.621,0.000,0
161522.498,-41.992,-20.996,-21.973,-36.621,0.000,0
161522.502,-40.527,-27.832,-27.832,-36.133,0.000,0
161522.506,-33.203,-33.691,-32.715,-34.180,0.000,0
161522.510,-28.320,-27.832,-15.137,-29.297,0.000,0
161522.513,-26.367,-26.367,-15.137,-20.020,0.000,0
161522.517,-28.320,-22.949,-36.133,-7.812,0.000,0
161522.521,-24.902,-24.414,-35.156,-10.742,0.000,0
161522.525,-18.066,-28.320,-30.762,-25.391,0.000,0
161522.529,-21.484,-25.391,-19.043,-31.250,0.000,0
161522.533,-22.461,-20.020,-18.066,-41.016,0.000,0
161522.537,-22.949,-20.508,-32.715,-22.461,0.000,0
161522.541,-24.902,-17.090,-26.367,-0.977,0.000,0
161522.545,-25.391,-14.160,-26.855,-20.020,0.000,0
161522.549,-26.367,-15.625,-17.090,-35.156,0.000,0
161522.553,-26.367,-19.531,-8.789,-19.531,0.000,0
161522.556,-23.926,-21.484,-21.484,-5.371,0.000,0
161522.560,-24.902,-25.879,-33.691,-18.555,0.000,0
161522.564,-26.855,-32.715,-28.809,-34.668,0.000,0
161522.568,-26.367,-28.809,-2.930,-42.969,0.000,0
161522.572,-22.949,-26.855,-18.066,-42.969,0.000,0
161522.576,-17.578,-25.391,-34.668,-32.227,0.000,0
161522.580,-19.043,-25.391,-37.598,-46.387,0.000,0
161522.584,-25.879,-34.668,-33.203,-26.367,0.000,0
161522.588,-22.949,-27.344,-6.836,-10.254,0.000,0
161522.592,-20.996,-22.949,-9.277,-7.324,0.000,0
161522.596,-18.066,-19.043,-27.832,-1.953,0.000,0
161522.599,-24.414,-11.230,-16.113,-20.020,0.000,0
161522.603,-26.367,-18.066,-18.066,-5.859,0.000,0
161522.607,-14.160,-18.066,-19.043,-18.555,0.000,0
161522.611,-11.719,-16.113,-12.695,-33.203,0.000,0
161522.615,-26.367,-18.066,-20.020,-18.555,0.000,0
161522.619,-35.156,-20.020,-18.555,-9.766,0.000,0
161522.623,-37.598,-20.508,-31.250,-14.648,0.000,0
161522.627,-35.156,-21.484,-15.625,-32.227,0.000,0
161522.631,-20.508,-21.484,-4.883,-30.273,0.000,0
161522.635,-23.438,-24.902,-26.855,-30.762,0.000,0
161522.638,-32.715,-31.250,-33.203,-55.664,0.000,0
161522.642,-32.715,-26.367,-28.320,-43.457,0.000,0
161522.646,-37.109,-27.832,-22.461,-22.461,0.000,0
161522.650,-34.668,-30.273,-15.137,-38.086,0.000,0
161522.654,-17.090,-26.855,-16.113,-34.180,0.000,0
161522.658,-32.715,-21.973,-26.367,-25.879,0.000,0
161522.662,-38.086,-17.090,-20.508,-16.113,0.000,0
161522.666,-21.973,-20.508,-11.719,-22.461,0.000,0
161522.670,-27.832,-23.926,-5.371,-48.340,0.000,0
161522.674,-25.879,-23.438,-21.484,-57.129,0.000,0
161522.678,-20.508,-28.320,-28.320,-34.668,0.000,0
161522.681,-31.738,-32.227,-40.527,-26.855,0.000,0
161522.685,-36.621,-32.715,-38.086,-49.805,0.000,0
161522.689,-20.996,-28.809,-14.160,-42.480,0.000,0
161522.693,-14.648,-28.809,-24.902,-27.832,0.000,0
161522.697,-16.113,-26.367,-42.969,-21.484,0.000,0
161522.701,-22.949,-21.973,-40.527,-12.695,0.000,0
161522.705,-27.344,-27.832,-19.531,-7.812,0.000,0
161522.709,-25.391,-35.645,-8.789,-17.578,0.000,0
161522.713,-29.297,-26.367,-37.109,-37.109,0.000,0
161522.717,-33.691,-22.949,-47.363,-37.109,0.000,0
161522.721,-44.922,-28.809,-36.133,-27.832,0.000,0
161522.724,-45.410,-30.762,-32.715,-25.879,0.000,0
161522.728,-33.691,-28.809,-33.203,-43.945,0.000,0
161522.732,-34.180,-23.438,-37.109,-46.875,0.000,0
161522.736,-26.855,-22.461,-34.180,-24.902,0.000,0
161522.740,-24.414,-18.555,-27.344,-32.227,0.000,0
161522.744,-18.066,-22.949,-43.945,-23.438,0.000,0
161522.748,-20.996,-29.297,-43.457,-27.832,0.000,0
161522.752,-28.809,-18.066,-14.648,-46.875,0.000,0
161522.756,-25.391,-20.996,-24.414,-41.992,0.000,0
161522.760,-29.297,-26.367,-42.480,-27.344,0.000,0
161522.763,-26.367,-22.461,-28.320,-21.973,0.000,0
161522.767,-24.414,-21.484,-13.672,-35.156,0.000,0
161522.771,-19.043,-21.484,-10.742,-21.484,0.000,0
161522.775,-14.648,-20.508,-17.090,-4.395,0.000,0
161522.779,-6.348,-11.719,-21.973,0.488,0.000,0
161522.783,-11.230,-11.719,-7.812,0.488,0.000,0
161522.787,-27.344,-20.020,-6.836,-4.883,0.000,0
161522.791,-30.762,-25.391,-18.555,-31.738,0.000,0
161522.795,-16.602,-24.902,-14.648,-31.738,0.000,0
161522.799,-13.184,-20.020,-14.648,-13.184,0.000,0
161522.803,-19.531,-20.996,-28.320,-18.555,0.000,0
161522.806,-11.230,-14.160,-17.090,-40.527,0.000,0
161522.810,-10.742,-18.066,-24.414,-35.645,0.000,0
161522.814,-22.461,-28.809,-36.621,-10.254,0.000,0
161522.818,-35.645,-26.367,-35.645,-25.391,0.000,0
161522.822,-28.809,-26.367,-30.762,-29.785,0.000,0
161522.826,-16.113,-28.809,-17.090,-34.180,0.000,0
161522.830,-18.555,-26.855,-17.578,-28.809,0.000,0
161522.834,-20.996,-25.879,-32.715,-17.090,0.000,0
161522.838,-22.949,-27.344,-37.109,-17.090,0.000,0
161522.842,-27.832,-25.879,-21.484,-18.555,0.000,0
161522.846,-20.996,-28.809,-27.344,-26.367,0.000,0
161522.849,-19.043,-30.762,-41.992,-26.367,0.000,0
161522.853,-24.414,-37.109,-28.809,-36.133,0.000,0
161522.857,-34.180,-36.133,-26.855,-35.156,0.000,0
161522.861,-33.203,-29.297,-41.504,-16.113,0.000,0
161522.865,-23.438,-30.762,-28.320,-12.695,0.000,0
161522.869,-30.273,-32.227,-17.090,-21.973,0.000,0
161522.873,-14.648,-23.926,-17.090,-15.137,0.000,0
161522.877,-14.160,-20.508,-16.602,-24.902,0.000,0
161522.881,-19.531,-20.996,-29.297,-17.578,0.000,0
161522.885,-14.648,-26.367,-7.324,-5.859,0.000,0
161522.888,-28.320,-28.809,-7.812,-10.742,0.000,0
161522.892,-31.250,-24.414,-32.715,-22.461,0.000,0
161522.896,-26.855,-22.461,-31.250,-25.879,0.000,0
161522.900,-29.297,-28.320,-34.180,-21.973,0.000,0
161522.904,-21.973,-31.250,-13.672,-27.344,0.000,0
161522.908,-19.531,-25.879,-9.277,-25.391,0.000,0
161522.912,-21.484,-30.762,-38.086,-35.156,0.000,0
161522.916,-29.297,-33.691,-20.996,-49.316,0.000,0
161522.920,-35.156,-32.227,-22.461,-37.598,0.000,0
161522.924,-24.414,-31.738,-34.180,-12.695,0.000,0
161522.928,-27.344,-27.832,-17.090,-28.809,0.000,0
161522.931,-39.062,-32.227,-16.602,-41.992,0.000,0
161522.935,-27.344,-30.762,-20.996,-23.926,0.000,0
161522.939,-16.113,-25.879,-34.180,0.000,0.000,0
161522.943,-19.043,-29.785,-14.648,-12.695,0.000,0
161522.947,-19.043,-32.715,-9.766,-46.387,0.000,0
161522.951,-18.066,-39.062,-45.898,-20.020,0.000,0
161522.955,-23.926,-36.133,-46.387,-13.184,0.000,0
161522.959,-18.555,-24.902,-24.414,-15.625,0.000,0
161522.963,-13.672,-27.344,-10.254,-11.230,0.000,0
161522.967,-26.367,-30.762,-12.207,-24.902,0.000,0
161522.971,-24.414,-26.367,-20.508,-18.066,0.000,0
161522.974,-12.695,-21.973,-9.766,4.395,0.000,0
161522.978,-19.043,-19.531,-10.742,-3.418,0.000,0
161522.982,-16.113,-26.855,-32.227,-17.578,0.000,0
161522.986,-12.207,-31.250,-22.461,-12.207,0.000,0
161522.990,-10.742,-28.809,-26.367,-27.832,0.000,0
161522.994,-15.625,-32.715,-34.668,-36.621,0.000,0
161522.998,-27.344,-36.621,-36.621,-21.973,0.000,0
161523.002,-22.949,-35.645,-31.738,-26.367,0.000,0
161523.006,-28.809,-33.691,-19.043,-34.180,0.000,0
161523.010,-22.949,-34.668,-37.109,-7.324,0.000,0
161523.013,-6.836,-30.762,-51.758,11.230,0.000,0
161523.017,-13.184,-22.461,-32.227,-6.348,0.000,0
161523.021,-28.809,-21.973,-13.184,-24.902,0.000,0
161523.025,-25.879,-25.391,-17.090,-52.734,0.000,0
161523.029,-11.719,-25.391,-38.574,-42.480,0.000,0
161523.033,-34.668,-30.273,-37.598,-48.828,0.000,0
161523.037,-28.320,-29.297,-20.508,-41.504,0.000,0
161523.041,-4.395,-28.320,-24.414,-16.602,0.000,0
161523.045,-21.973,-29.297,-24.902,-30.762,0.000,0
161523.049,-20.996,-26.367,-21.484,-27.832,0.000,0
161523.053,-19.043,-28.320,-22.949,-23.438,0.000,0
161523.056,-24.902,-31.738,-28.320,-35.645,0.000,0
161523.060,-12.207,-30.762,-22.949,-33.203,0.000,0
161523.064,-12.207,-34.668,-13.184,-17.578,0.000,0
161523.068,-0.488,-31.250,-16.602,-7.812,0.000,0
161523.072,2.930,-23.926,-26.855,-12.695,0.000,0
161523.076,-28.809,-25.879,-48.340,-44.922,0.000,0
161523.080,-10.254,-24.414,-33.203,-34.180,0.000,0
161523.084,-6.836,-21.484,-14.648,-16.113,0.000,0
161523.088,-36.621,-28.809,-38.574,-31.250,0.000,0
161523.092,-31.738,-28.809,-32.715,0.488,0.000,0
161523.096,-31.738,-25.391,-29.785,-9.277,0.000,0
161523.099,-37.598,-26.855,-36.621,-38.574,0.000,0
161523.103,-20.508,-26.367,-27.832,-28.809,0.000,0
161523.107,-14.160,-22.949,-25.391,-31.738,0.000,0
161523.111,-13.184,-22.949,-28.320,-22.461,0.000,0
161523.115,-18.555,-24.414,-30.273,-23.438,0.000,0
161523.119,-12.207,-25.391,-16.113,-38.086,0.000,0
161523.123,-14.160,-19.531,-12.207,-26.367,0.000,0
161523.127,-26.855,-18.066,-16.113,-20.508,0.000,0
161523.131,-35.645,-20.996,-29.297,-22.949,0.000,0
161523.135,-32.227,-25.879,-36.621,-35.645,0.000,0
161523.138,-26.367,-28.809,-27.832,-29.297,0.000,0
161523.142,-32.715,-28.809,-26.855,-15.625,0.000,0
161523.146,-25.879,-27.832,-38.086,-22.461,0.000,0
161523.150,-27.344,-22.461,-37.109,-20.508,0.000,0
161523.154,-28.320,-27.832,-29.297,-20.508,0.000,0
161523.158,-20.996,-31.250,-20.020,-21.973,0.000,0
161523.162,-17.578,-18.066,-16.113,-21.973,0.000,0
161523.166,-21.973,-20.508,-31.738,-6.836,0.000,0
161523.170,-29.785,-24.902,-12.695,-12.695,0.000,0
161523.174,-33.203,-20.996,-20.508,-16.602,0.000,0
161523.178,-25.391,-25.391,-41.992,-16.113,0.000,0
161523.181,-25.879,-28.320,-11.719,-29.297,0.000,0
161523.185,-26.367,-20.020,-14.160,-13.184,0.000,0
161523.189,-17.578,-19.043,-40.039,-13.184,0.000,0
161523.193,-20.508,-23.926,-47.852,-30.762,0.000,0
161523.197,-24.902,-27.344,-31.738,-26.855,0.000,0
161523.201,-24.902,-27.832,-11.719,-30.273,0.000,0
161523.205,-20.020,-26.367,-20.020,-23.438,0.000,0
161523.209,-21.484,-31.250,-31.250,-4.883,0.000,0
161523.213,-21.973,-22.949,-29.297,-16.113,0.000,0
161523.217,-29.785,-19.531,-21.484,-31.250,0.000,0
161523.221,-32.715,-24.902,-18.555,-41.992,0.000,0
161523.224,-21.484,-26.855,-26.855,-39.062,0.000,0
161523.228,-27.344,-30.762,-30.273,-40.039,0.000,0
161523.232,-29.297,-28.320,-31.738,-29.785,0.000,0
161523.236,-22.949,-26.855,-22.461,-29.785,0.000,0
161523.240,-21.973,-23.926,-7.812,-35.645,0.000,0
161523.244,-24.902,-22.949,-22.949,-26.367,0.000,0
161523.248,-15.625,-22.461,-29.785,-20.996,0.000,0
161523.252,-13.184,-20.020,-29.785,-22.461,0.000,0
161523.256,-16.113,-22.949,-22.949,-25.391,0.000,0
161523.260,-10.254,-20.020,-6.836,-27.344,0.000,0
161523.263,-6.348,-19.043,-28.809,-7.812,0.000,0
161523.267,-2.930,-26.855,-37.598,0.488,0.000,0
161523.271,-11.719,-27.344,-23.926,1.953,0.000,0
161523.275,-28.320,-31.738,-23.926,-13.184,0.000,0
161523.279,-45.898,-37.109,-21.484,-41.992,0.000,0
161523.283,-33.691,-34.668,-21.484,-26.855,0.000,0
161523.287,-8.789,-35.645,-40.039,-24.414,0.000,0
161523.291,-30.273,-41.504,-45.898,-34.668,0.000,0
161523.295,-44.922,-37.109,-43.945,-26.367,0.000,0
161523.299,-40.039,-34.668,-27.344,-30.762,0.000,0
161523.303,-33.203,-36.133,-31.738,-31.250,0.000,0
161523.306,-24.414,-31.738,-41.992,-27.344,0.000,0
161523.310,-31.250,-32.227,-50.781,-38.086,0.000,0
161523.314,-32.227,-37.109,-44.922,-30.273,0.000,0
161523.318,-22.461,-32.227,-6.348,-35.156,0.000,0
161523.322,-26.367,-24.414,-9.277,-51.758,0.000,0
161523.326,-26.367,-27.832,-37.598,-28.809,0.000,0
161523.330,-27.344,-31.738,-33.203,-20.020,0.000,0
161523.334,-42.969,-36.133,-26.855,-22.461,0.000,0
161523.338,-41.016,-31.250,-20.996,-10.742,0.000,0
161523.342,-28.320,-21.973,-30.273,-22.461,0.000,0
161523.346,-31.250,-31.738,-45.410,-34.180,0.000,0
161523.349,-33.203,-32.715,-23.926,-18.066,0.000,0
161523.353,-30.273,-28.809,-30.762,-22.949,0.000,0
161523.357,-34.668,-30.762,-36.133,-39.062,0.000,0
161523.361,-31.738,-26.855,-14.160,-40.039,0.000,0
161523.365,-26.367,-27.344,-12.695,-13.672,0.000,0
161523.369,-22.949,-31.250,-29.297,-4.395,0.000,0
161523.373,-23.926,-33.691,-34.180,-31.738,0.000,0
161523.377,-27.832,-35.156,-23.926,-47.363,0.000,0
161523.381,-31.738,-27.832,-13.184,-35.156,0.000,0
161523.385,-20.020,-26.367,-12.695,-26.367,0.000,0
161523.388,-15.137,-35.645,-38.086,-20.508,0.000,0
161523.392,-24.414,-26.855,-41.016,-11.719,0.000,0
161523.396,-20.996,-14.648,-20.508,-15.137,0.000,0
161523.400,-14.160,-15.625,-18.555,-27.344,0.000,0
161523.404,-18.066,-21.484,-35.156,-37.109,0.000,0
161523.408,-8.789,-19.531,-19.531,-20.996,0.000,0
161523.412,-15.137,-20.996,-9.766,-13.184,0.000,0
161523.416,-35.156,-22.949,-17.578,-22.461,0.000,0
161523.420,-31.738,-17.578,-16.113,-33.203,0.000,0
161523.424,-22.949,-16.602,-16.113,-25.879,0.000,0
161523.428,-19.531,-17.578,-17.090,5.371,0.000,0
161523.431,-20.996,-18.555,-27.344,-16.113,0.000,0
161523.435,-14.648,-22.461,-19.043,-34.180,0.000,0
161523.439,-8.789,-22.949,-8.301,-21.973,0.000,0
161523.443,-25.391,-16.602,-21.484,-25.879,0.000,0
161523.447,-22.461,-17.578,-33.203,-23.438,0.000,0
161523.451,-10.254,-29.297,-32.227,-8.301,0.000,0
161523.455,-12.207,-22.949,-6.836,-7.812,0.000,0
161523.459,-13.184,-16.602,-17.578,-19.531,0.000,0
161523.463,-20.508,-16.113,-35.645,-28.809,0.000,0
161523.467,-20.020,-16.602,-24.902,-25.391,0.000,0
161523.471,-12.695,-19.043,-27.344,-24.414,0.000,0
161523.474,-23.438,-19.531,-22.461,-20.996,0.000,0
161523.478,-26.855,-21.484,-17.578,-25.391,0.000,0
161523.482,-21.484,-23.926,-25.879,-36.621,0.000,0
161523.486,-20.996,-21.484,-12.207,-20.020,0.000,0
161523.490,-20.508,-18.555,-26.855,-9.766,0.000,0
161523.494,-20.996,-23.438,-45.410,-19.043,0.000,0
161523.498,-26.367,-27.832,-31.738,-24.902,0.000,0
161523.502,-26.855,-27.832,-25.391,-32.715,0.000,0
161523.506,-26.367,-27.832,-41.016,-40.527,0.000,0
161523.510,-37.109,-35.645,-49.805,-39.062,0.000,0
161523.513,-32.715,-36.133,-38.574,-22.461,0.000,0
161523.517,-19.043,-26.367,-25.391,-16.602,0.000,0
161523.521,-24.414,-21.484,-32.715,-45.898,0.000,0
161523.525,-50.293,-25.879,-42.480,-61.035,0.000,0
161523.529,-52.734,-31.738,-48.340,-50.293,0.000,0
161523.533,-44.434,-31.738,-48.828,-51.758,0.000,0
161523.537,-49.805,-25.879,-39.062,-50.781,0.000,0
161523.541,-37.109,-21.484,-37.598,-36.621,0.000,0
161523.545,-39.062,-25.391,-41.016,-26.855,0.000,0
161523.549,-39.062,-24.902,-47.363,-32.715,0.000,0
161523.553,-26.855,-23.438,-40.527,-41.504,0.000,0
161523.556,-28.809,-25.391,-28.320,-34.180,0.000,0
161523.560,-28.809,-24.902,-37.598,-17.578,0.000,0
161523.564,-30.762,-23.438,-41.016,-36.621,0.000,0
161523.568,-35.645,-25.879,-44.434,-36.133,0.000,0
161523.572,-25.879,-24.414,-38.574,-13.184,0.000,0
161523.576,-33.691,-23.438,-24.414,-35.156,0.000,0
161523.580,-31.738,-25.391,-38.086,-34.668,0.000,0
161523.584,-27.832,-25.879,-35.156,-21.973,0.000,0
161523.588,-41.992,-26.855,-17.578,-33.691,0.000,0
161523.592,-36.621,-32.227,-26.855,-32.227,0.000,0
161523.596,-27.832,-34.180,-32.227,-27.832,0.000,0
161523.599,-41.504,-28.809,-32.227,-28.809,0.000,0
161523.603,-40.039,-33.691,-40.039,-37.109,0.000,0
161523.607,-20.996,-31.250,-44.434,-30.762,0.000,0
161523.611,-18.066,-27.832,-41.504,-18.555,0.000,0
161523.615,-32.715,-37.598,-22.949,-39.062,0.000,0
161523.619,-25.391,-34.180,-26.855,-37.109,0.000,0
161523.623,-27.832,-30.762,-43.945,-17.578,0.000,0
161523.627,-30.762,-29.785,-45.898,-25.879,0.000,0
161523.631,-24.902,-24.902,-33.203,-26.367,0.000,0
161523.635,-18.555,-23.438,-11.230,-30.762,0.000,0
161523.638,-21.973,-23.926,-26.367,-37.598,0.000,0
161523.642,-23.926,-22.461,-43.945,-29.785,0.000,0
161523.646,-14.648,-22.949,-41.016,-27.832,0.000,0
161523.650,-17.578,-25.879,-27.832,-32.227,0.000,0
161523.654,-32.715,-28.809,-13.184,-40.527,0.000,0
161523.658,-36.133,-32.715,-25.879,-25.879,0.000,0
161523.662,-38.086,-34.668,-49.316,-18.555,0.000,0
161523.666,-32.715,-33.203,-40.039,-17.090,0.000,0
161523.670,-17.578,-30.273,-32.227,-6.836,0.000,0
161523.674,-25.879,-27.832,-27.344,-18.066,0.000,0
161523.678,-43.457,-29.297,-24.414,-28.320,0.000,0
161523.681,-41.992,-23.926,-25.391,-19.043,0.000,0
161523.685,-24.902,-21.484,-31.250,-5.859,0.000,0
161523.689,-20.996,-20.508,-15.625,-13.672,0.000,0
161523.693,-20.996,-20.020,-4.883,-15.137,0.000,0
161523.697,-21.484,-23.926,-24.414,-13.672,0.000,0
161523.701,-20.996,-27.832,-28.809,-13.672,0.000,0
161523.705,-24.414,-32.227,-20.508,-4.395,0.000,0
161523.709,-25.391,-31.250,-21.484,10.742,0.000,0
161523.713,-28.320,-28.320,-17.578,-11.719,0.000,0
161523.717,-24.414,-20.996,-17.090,-30.273,0.000,0
161523.721,-29.785,-25.391,-37.598,-17.090,0.000,0
161523.724,-26.855,-28.809,-30.273,-5.859,0.000,0
161523.728,-19.531,-28.809,-36.621,-23.926,0.000,0
161523.732,-17.090,-32.227,-41.016,-46.387,0.000,0
161523.736,-26.367,-29.297,-21.973,-27.344,0.000,0
161523.740,-34.180,-31.250,-7.812,-16.602,0.000,0
161523.744,-36.621,-32.715,-22.949,-27.344,0.000,0
161523.748,-26.367,-23.926,-31.250,-11.230,0.000,0
161523.752,-19.043,-23.438,-14.160,-12.695,0.000,0
161523.756,-23.438,-26.855,-19.043,-1.953,0.000,0
161523.760,-21.484,-31.738,-48.828,0.000,0.000,0
161523.763,-25.391,-36.133,-48.828,-22.461,0.000,0
161523.767,-23.926,-29.297,-31.738,-30.762,0.000,0
161523.771,-25.879,-28.320,-24.902,-28.320,0.000,0
161523.775,-34.180,-23.438,-20.996,-21.484,0.000,0
161523.779,-24.414,-19.531,-23.926,-33.203,0.000,0
161523.783,-14.648,-22.461,-24.902,-17.090,0.000,0
161523.787,-24.414,-22.461,-21.484,-20.020,0.000,0
161523.791,-17.578,-22.461,-23.438,-21.484,0.000,0
161523.795,-20.996,-24.414,-32.715,-20.996,0.000,0
161523.799,-41.504,-22.949,-38.574,-46.875,0.000,0
161523.803,-34.668,-22.949,-34.180,-33.691,0.000,0
161523.806,-23.926,-29.785,-32.715,-21.973,0.000,0
161523.810,-27.832,-30.273,-18.555,-41.992,0.000,0
161523.814,-36.621,-27.344,-16.602,-42.480,0.000,0
161523.818,-37.109,-31.250,-31.738,-24.414,0.000,0
161523.822,-18.555,-28.320,-44.434,-8.301,0.000,0
161523.826,-16.113,-20.508,-27.344,-13.184,0.000,0
161523.830,-27.832,-20.996,-3.418,-30.762,0.000,0
161523.834,-25.879,-26.367,-29.297,-15.625,0.000,0
161523.838,-16.602,-30.762,-46.875,-23.926,0.000,0
161523.842,-30.762,-35.156,-36.133,-49.316,0.000,0
161523.846,-35.645,-34.180,-28.320,-33.203,0.000,0
161523.849,-20.996,-27.832,-19.531,-20.508,0.000,0
161523.853,-23.438,-33.691,-24.902,-36.621,0.000,0
161523.857,-33.691,-31.250,-39.062,-42.480,0.000,0
161523.861,-37.109,-26.367,-37.598,-40.527,0.000,0
161523.865,-38.574,-29.785,-36.621,-35.645,0.000,0
161523.869,-37.598,-26.855,-25.391,-41.504,0.000,0
161523.873,-40.039,-23.438,-20.996,-29.297,0.000,0
161523.877,-42.969,-30.762,-41.016,-24.902,0.000,0
161523.881,-32.227,-35.645,-41.504,-49.805,0.000,0
161523.885,-35.156,-34.180,-34.668,-37.598,0.000,0
161523.888,-48.340,-40.039,-28.809,-33.691,0.000,0
161523.892,-44.434,-34.668,-34.180,-45.898,0.000,0
161523.896,-39.062,-30.273,-39.551,-21.973,0.000,0
161523.900,-27.344,-35.645,-38.574,-15.625,0.000,0
161523.904,-15.137,-33.691,-41.992,-21.484,0.000,0
161523.908,-14.160,-34.180,-26.855,-15.625,0.000,0
161523.912,-22.949,-32.715,-25.391,-28.809,0.000,0
161523.916,-28.320,-32.227,-17.090,-41.016,0.000,0
161523.920,-20.020,-30.273,-13.184,-20.996,0.000,0
161523.924,-13.184,-27.832,-49.805,4.883,0.000,0
161523.928,-21.484,-33.203,-34.180,-12.695,0.000,0
161523.931,-18.066,-35.156,-16.602,-4.883,0.000,0
161523.935,-6.836,-35.156,-34.180,6.348,0.000,0
161523.939,-20.996,-33.203,-37.598,7.812,0.000,0
161523.943,-31.250,-32.227,-36.133,3.906,0.000,0
161523.947,-31.250,-31.738,-22.949,-7.324,0.000,0
161523.951,-28.320,-30.762,-20.508,-9.766,0.000,0
161523.955,-28.809,-29.297,-43.457,-28.320,0.000,0
161523.959,-43.457,-30.762,-43.945,-35.645,0.000,0
161523.963,-40.039,-31.738,-32.715,-17.090,0.000,0
161523.967,-28.320,-30.273,-25.879,-34.180,0.000,0
161523.971,-23.926,-29.297,-37.598,-28.809,0.000,0
161523.974,-18.555,-24.902,-40.527,-8.301,0.000,0
161523.978,-17.578,-16.113,-20.996,-26.367,0.000,0
161523.982,-11.230,-16.602,-24.414,-28.320,0.000,0
161523.986,-11.719,-25.391,-24.902,-20.508,0.000,0
161523.990,-19.043,-27.344,-12.207,-27.344,0.000,0
161523.994,-26.855,-22.949,-23.438,-20.020,0.000,0
161523.998,-37.109,-23.438,-35.645,-19.043,0.000,0
161524.002,-34.180,-24.902,-43.945,-19.531,0.000,0
161524.006,-31.738,-26.855,-32.227,-30.762,0.000,0
161524.010,-30.273,-23.926,-12.695,-37.598,0.000,0
161524.013,-25.879,-25.879,-46.875,-45.410,0.000,0
161524.017,-36.621,-30.762,-58.594,-30.762,0.000,0
161524.021,-36.621,-22.461,-34.668,-2.930,0.000,0
161524.025,-33.203,-22.461,-29.785,-25.879,0.000,0
161524.029,-28.320,-26.855,-26.855,-42.969,0.000,0
161524.033,-21.484,-25.879,-30.273,-33.691,0.000,0
161524.037,-16.602,-27.344,-32.715,-22.949,0.000,0
161524.041,-18.066,-25.879,-39.062,-29.785,0.000,0
161524.045,-28.320,-26.855,-35.645,-27.832,0.000,0
161524.049,-27.832,-29.297,-15.137,-23.926,0.000,0
161524.053,-28.809,-23.438,-20.508,-30.762,0.000,0
161524.056,-33.203,-22.461,-39.062,-38.086,0.000,0
161524.060,-31.250,-29.297,-44.922,-38.086,0.000,0
161524.064,-31.738,-28.320,-32.227,-37.109,0.000,0
161524.068,-32.227,-27.832,-1.465,-24.414,0.000,0
161524.072,-29.297,-32.715,-17.090,-26.855,0.000,0
161524.076,-33.691,-33.691,-47.363,-44.434,0.000,0
161524.080,-35.645,-24.902,-28.809,-43.457,0.000,0
161524.084,-20.996,-21.484,-5.371,-33.203,0.000,0
161524.088,-19.043,-23.926,-9.766,-37.598,0.000,0
161524.092,-21.484,-24.902,-25.879,-28.320,0.000,0
161524.096,-20.996,-24.902,-19.531,-0.977,0.000,0
161524.099,-26.855,-25.391,-15.137,-25.879,0.000,0
161524.103,-25.879,-29.297,-22.949,-40.039,0.000,0
161524.107,-27.344,-25.391,-31.250,-36.133,0.000,0
161524.111,-35.645,-22.949,-29.297,-42.480,0.000,0
161524.115,-36.621,-26.855,-20.996,-34.180,0.000,0
161524.119,-20.020,-24.902,-30.762,-36.133,0.000,0
161524.123,-13.184,-29.785,-30.762,-40.527,0.000,0
161524.127,-28.809,-39.551,-25.879,-35.645,0.000,0
161524.131,-38.574,-33.203,-31.738,-35.645,0.000,0
161524.135,-22.949,-26.855,-42.969,-11.230,0.000,0
161524.138,-20.508,-24.414,-37.598,-14.160,0.000,0
161524.142,-32.227,-25.879,-30.762,-41.016,0.000,0
161524.146,-24.414,-25.879,-12.207,-42.480,0.000,0
161524.150,-26.855,-22.949,-11.230,-51.758,0.000,0
161524.154,-37.109,-32.227,-33.691,-52.246,0.000,0
161524.158,-32.715,-31.250,-16.602,-41.992,0.000,0
161524.162,-29.297,-22.461,-21.484,-43.945,0.000,0
161524.166,-17.578,-22.461,-27.344,-38.086,0.000,0
161524.170,-19.043,-19.531,-17.090,-24.902,0.000,0
161524.174,-27.344,-15.625,-22.949,-28.809,0.000,0
161524.178,-32.227,-16.602,-33.691,-28.809,0.000,0
161524.181,-20.508,-25.391,-42.969,-23.438,0.000,0
161524.185,-15.137,-23.438,-15.137,-28.809,0.000,0
161524.189,-24.902,-18.555,-10.742,-44.434,0.000,0
161524.193,-15.137,-24.414,-30.762,-45.410,0.000,0
161524.197,-14.648,-21.973,-33.203,-32.227,0.000,0
161524.201,-22.461,-20.020,-30.762,-24.902,0.000,0
161524.205,-29.785,-25.391,-12.207,-45.410,0.000,0
161524.209,-35.156,-30.762,-34.180,-56.152,0.000,0
161524.213,-28.320,-30.273,-57.617,-33.203,0.000,0
161524.217,-27.344,-25.879,-40.527,-10.254,0.000,0
161524.221,-24.414,-20.508,-27.344,-25.879,0.000,0
161524.224,-22.949,-18.555,-18.555,-50.781,0.000,0
161524.228,-25.391,-21.973,-19.531,-40.039,0.000,0
161524.232,-17.578,-21.973,-25.879,-33.203,0.000,0
161524.236,-25.879,-30.273,-21.973,-27.832,0.000,0
161524.240,-40.527,-33.691,-33.203,-17.578,0.000,0
161524.244,-38.086,-27.832,-28.320,-34.668,0.000,0
161524.248,-43.457,-27.832,-15.137,-42.480,0.000,0
161524.252,-44.922,-25.391,-30.273,1.465,0.000,0
161524.256,-11.719,-22.461,-32.227,-5.371,0.000,0
161524.260,-8.789,-19.531,-27.344,-25.879,0.000,0
161524.263,-22.949,-23.926,-13.184,-16.602,0.000,0
161524.267,-14.160,-26.367,-13.672,-35.156,0.000,0
161524.271,-15.625,-21.484,-30.762,-33.691,0.000,0
161524.275,-41.016,-25.391,-33.203,-33.203,0.000,0
161524.279,-53.711,-30.762,-37.109,-31.250,0.000,0
161524.283,-20.996,-24.902,-34.180,-12.695,0.000,0
161524.287,-1.953,-23.438,-27.832,0.000,0.000,0
161524.291,-25.391,-20.508,-22.461,-11.719,0.000,0
161524.295,-50.293,-20.508,-24.414,-29.785,0.000,0
161524.299,-41.504,-24.414,-34.668,-33.203,0.000,0
161524.303,-35.156,-24.902,-22.461,-26.855,0.000,0
161524.306,-33.203,-23.926,-14.648,-31.738,0.000,0
161524.310,-27.832,-20.508,-24.902,-38.086,0.000,0
161524.314,-17.578,-23.926,-40.527,-17.578,0.000,0
161524.318,-12.695,-24.414,-44.434,-5.371,0.000,0
161524.322,-29.785,-20.508,-19.043,-23.438,0.000,0
161524.326,-30.273,-22.949,-13.672,-30.273,0.000,0
161524.330,-20.020,-21.973,-26.367,-19.043,0.000,0
161524.334,-20.508,-19.531,-19.043,-20.020,0.000,0
161524.338,-24.414,-18.066,-16.602,-6.348,0.000,0
161524.342,-26.855,-20.508,-20.996,-2.441,0.000,0
161524.346,-27.344,-24.414,-23.438,-26.367,0.000,0
161524.349,-26.855,-20.508,-17.090,-7.812,0.000,0
161524.353,-18.555,-19.043,-15.137,11.230,0.000,0
161524.357,-12.695,-20.508,-27.832,-5.371,0.000,0
161524.361,-16.602,-18.066,-26.367,-13.672,0.000,0
161524.365,-31.250,-15.137,-10.742,-31.250,0.000,0
161524.369,-20.508,-15.137,-19.531,-20.996,0.000,0
161524.373,-12.695,-13.672,-34.668,-20.020,0.000,0
161524.377,-28.809,-20.020,-33.691,-27.344,0.000,0
161524.381,-31.250,-20.508,-11.230,-10.742,0.000,0
161524.385,-21.484,-18.066,-2.930,-29.297,0.000,0
161524.388,-23.438,-20.508,-34.180,-32.227,0.000,0
161524.392,-31.738,-15.625,-49.316,-19.043,0.000,0
161524.396,-34.180,-14.648,-34.180,-13.184,0.000,0
161524.400,-32.227,-21.484,-20.996,-1.953,0.000,0
161524.404,-17.578,-23.926,-23.926,-5.371,0.000,0
161524.408,-21.973,-19.531,-33.691,-24.414,0.000,0
161524.412,-23.438,-15.137,-29.785,-32.227,0.000,0
161524.416,-15.625,-17.578,-38.086,-14.648,0.000,0
161524.420,-20.020,-24.902,-46.875,-13.672,0.000,0
161524.424,-12.695,-22.949,-25.391,-26.367,0.000,0
161524.428,-18.555,-20.020,-25.879,-27.832,0.000,0
161524.431,-20.508,-22.461,-38.086,-6.836,0.000,0
161524.435,-10.742,-20.020,-43.945,-4.883,0.000,0
161524.439,-14.160,-24.414,-37.598,-10.254,0.000,0
161524.443,-19.043,-26.855,-13.672,-14.160,0.000,0
161524.447,-20.996,-23.926,-23.926,-18.555,0.000,0
161524.451,-20.020,-26.855,-34.668,-18.066,0.000,0
161524.455,-27.344,-23.926,-27.832,-17.090,0.000,0
161524.459,-25.391,-24.414,-29.297,-13.184,0.000,0
161524.463,-23.438,-24.414,-22.949,-14.160,0.000,0
161524.467,-22.949,-25.879,-22.949,-28.809,0.000,0
161524.471,-12.207,-27.832,-28.320,-24.414,0.000,0
161524.474,-22.461,-23.438,-31.738,-30.762,0.000,0
161524.478,-30.273,-26.367,-44.434,-29.785,0.000,0
161524.482,-13.184,-31.250,-35.645,-10.742,0.000,0
161524.486,-14.648,-29.785,-10.742,-32.227,0.000,0
161524.490,-25.879,-27.344,-19.043,-33.691,0.000,0
161524.494,-21.484,-26.855,-45.898,-17.090,0.000,0
161524.498,-13.672,-20.020,-33.203,-22.949,0.000,0
161524.502,-19.531,-26.855,-14.648,-28.320,0.000,0
161524.506,-26.855,-33.691,-25.879,-23.438,0.000,0
161524.510,-17.090,-28.809,-34.180,-5.859,0.000,0
161524.513,-17.090,-23.926,-18.066,4.395,0.000,0
161524.517,-20.508,-20.996,-20.020,-1.953,0.000,0
161524.521,-8.301,-20.020,-21.484,-14.160,0.000,0
161524.525,-11.230,-21.973,-22.949,-22.949,0.000,0
161524.529,-21.484,-25.391,-37.598,-16.602,0.000,0
161524.533,-19.043,-20.020,-14.160,-15.137,0.000,0
161524.537,-14.160,-15.625,-11.719,-12.695,0.000,0
161524.541,-13.672,-23.926,-13.672,-16.602,0.000,0
161524.545,-19.531,-20.508,-9.277,-20.996,0.000,0
161524.549,-20.020,-9.766,-17.090,-13.184,0.000,0
161524.553,-22.949,-13.672,-14.160,-10.254,0.000,0
161524.556,-19.531,-15.625,-24.414,4.395,0.000,0
161524.560,-21.484,-16.113,-9.277,-6.348,0.000,0
161524.564,-21.484,-23.926,4.395,-32.715,0.000,0
161524.568,-27.832,-26.855,-17.578,-38.086,0.000,0
161524.572,-30.762,-22.461,-35.156,-41.016,0.000,0
161524.576,-10.742,-20.996,-23.926,-19.531,0.000,0
161524.580,-9.277,-20.996,7.812,-8.789,0.000,0
161524.584,1.953,-19.531,-3.906,-14.648,0.000,0
161524.588,9.766,-20.508,-14.648,-2.930,0.000,0
161524.592,-0.977,-23.438,-13.184,11.230,0.000,0
161524.596,-22.461,-27.832,-29.785,0.977,0.000,0
161524.599,-25.879,-23.926,-20.508,-25.391,0.000,0
161524.603,-20.508,-19.531,-3.418,-30.762,0.000,0
161524.607,-25.391,-22.461,-20.996,-21.973,0.000,0
161524.611,-24.902,-24.414,-27.832,-28.320,0.000,0
161524.615,-19.043,-20.996,-19.531,-16.113,0.000,0
161524.619,-17.090,-24.902,-22.461,-12.695,0.000,0
161524.623,-29.297,-30.273,-17.578,-18.555,0.000,0
161524.627,-38.086,-24.414,-26.855,-24.414,0.000,0
161524.631,-23.926,-25.879,-40.039,-18.555,0.000,0
161524.635,-26.367,-28.320,-34.180,-24.414,0.000,0
161524.638,-34.180,-25.879,-17.090,-38.574,0.000,0
161524.642,-24.902,-30.762,-23.438,-32.715,0.000,0
161524.646,-23.438,-32.227,-41.504,-31.738,0.000,0
161524.650,-26.855,-23.926,-28.320,-30.762,0.000,0
161524.654,-22.949,-21.973,-17.578,-30.273,0.000,0
161524.658,-28.320,-23.438,-26.367,-36.133,0.000,0
161524.662,-29.297,-23.438,-27.832,-39.551,0.000,0
161524.666,-20.508,-22.461,-9.277,-32.715,0.000,0
161524.670,-21.973,-21.973,-6.348,-24.902,0.000,0
161524.674,-17.578,-26.367,-26.367,-17.090,0.000,0
161524.678,-9.277,-21.973,-14.160,-4.395,0.000,0
161524.681,-19.531,-17.578,-0.488,-14.648,0.000,0
161524.685,-28.809,-20.996,-14.648,-17.090,0.000,0
161524.689,-14.648,-17.578,-11.719,-23.926,0.000,0
161524.693,-9.766,-14.648,-8.789,-29.785,0.000,0
161524.697,-21.973,-18.555,-5.859,-9.277,0.000,0
161524.701,-24.414,-15.137,-1.465,-21.484,0.000,0
161524.705,-21.484,-14.160,-15.625,-36.621,0.000,0
161524.709,-21.973,-15.625,-18.066,-28.320,0.000,0
161524.713,-21.484,-15.137,-12.207,-16.113,0.000,0
161524.717,-10.742,-17.090,-0.977,-16.113,0.000,0
161524.721,-7.812,-25.879,-9.277,-22.949,0.000,0
161524.724,-19.531,-19.531,-29.785,-17.578,0.000,0
161524.728,-18.555,-17.578,-30.762,-25.879,0.000,0
161524.732,-17.578,-23.926,-29.785,-10.254,0.000,0
161524.736,-16.113,-28.320,-22.949,-6.836,0.000,0
161524.740,-14.648,-30.273,-16.602,-13.672,0.000,0
161524.744,-22.949,-26.855,-32.227,2.930,0.000,0
161524.748,-24.902,-31.250,-39.062,2.441,0.000,0
161524.752,-20.508,-27.832,-26.855,-18.066,0.000,0
161524.756,-25.879,-26.367,-17.090,-29.297,0.000,0
161524.760,-22.461,-29.785,-27.344,-20.020,0.000,0
161524.763,-20.508,-32.227,-39.062,-27.344,0.000,0
161524.767,-31.250,-27.832,-27.344,-38.574,0.000,0
161524.771,-35.645,-24.414,-14.648,-21.973,0.000,0
161524.775,-31.738,-26.855,-28.809,-24.414,0.000,0
161524.779,-34.180,-27.344,-28.320,-32.227,0.000,0
161524.783,-37.109,-24.902,-25.391,-9.766,0.000,0
161524.787,-31.250,-24.414,-30.273,-10.254,0.000,0
161524.791,-18.555,-21.973,-30.762,-11.719,0.000,0
161524.795,-15.137,-22.461,-21.973,-9.766,0.000,0
161524.799,-19.531,-27.832,-14.648,-28.809,0.000,0
161524.803,-22.949,-23.926,-22.949,-34.180,0.000,0
161524.806,-25.391,-23.926,-34.668,-23.926,0.000,0
161524.810,-29.785,-26.855,-31.738,-22.949,0.000,0
161524.814,-21.973,-23.438,-13.672,-19.531,0.000,0
161524.818,-19.531,-23.926,2.441,-26.855,0.000,0
161524.822,-17.578,-26.367,-18.066,-28.809,0.000,0
161524.826,-20.020,-22.461,-41.992,-13.672,0.000,0
161524.830,-22.949,-21.973,-29.297,5.371,0.000,0
161524.834,-17.578,-23.438,-16.602,-12.207,0.000,0
161524.838,-21.973,-21.484,-14.160,-42.480,0.000,0
161524.842,-29.297,-18.066,-23.926,-46.875,0.000,0
161524.846,-30.273,-25.879,-28.320,-18.555,0.000,0
161524.849,-35.645,-26.367,-32.227,-13.672,0.000,0
161524.853,-29.297,-27.344,-40.039,-37.109,0.000,0
161524.857,-27.344,-32.227,-35.645,-41.504,0.000,0
161524.861,-32.227,-22.949,-12.207,-29.785,0.000,0
161524.865,-24.414,-20.508,-19.531,-22.461,0.000,0
161524.869,-23.926,-24.414,-35.645,-21.973,0.000,0
161524.873,-26.855,-24.902,-25.879,-24.902,0.000,0
161524.877,-23.926,-23.438,-17.090,-39.551,0.000,0
161524.881,-22.949,-22.461,-25.879,-28.809,0.000,0
161524.885,-27.344,-23.926,-32.715,-22.461,0.000,0
161524.888,-23.926,-25.879,-30.762,-24.414,0.000,0
161524.892,-28.320,-25.879,-22.461,-21.973,0.000,0
161524.896,-40.527,-34.668,-12.695,-34.668,0.000,0
161524.900,-35.645,-33.203,-20.508,-38.574,0.000,0
161524.904,-31.250,-32.715,-24.902,-26.855,0.000,0
161524.908,-29.785,-34.668,-30.762,-19.043,0.000,0
161524.912,-26.367,-29.297,-39.062,-34.668,0.000,0
161524.916,-28.320,-30.762,-26.367,-36.621,0.000,0
161524.920,-30.273,-30.762,-24.414,-30.762,0.000,0
161524.924,-33.203,-27.344,-28.809,-38.574,0.000,0
161524.928,-26.855,-28.809,-47.363,-27.344,0.000,0
161524.931,-26.855,-29.785,-47.363,-16.602,0.000,0
161524.935,-23.926,-28.809,-18.555,-17.578,0.000,0
161524.939,-16.602,-24.902,-23.926,-29.785,0.000,0
161524.943,-8.301,-20.508,-35.645,-30.762,0.000,0
161524.947,0.977,-23.438,-42.480,-7.812,0.000,0
161524.951,-26.855,-20.996,-22.949,-14.648,0.000,0
161524.955,-33.203,-23.926,-8.789,-36.621,0.000,0
161524.959,-27.832,-20.996,-32.227,-27.344,0.000,0
161524.963,-26.855,-12.207,-41.016,-16.602,0.000,0
161524.967,-22.461,-16.113,-28.320,-17.090,0.000,0
161524.971,-17.090,-10.742,-19.043,-13.672,0.000,0
161524.974,-29.785,-4.395,-7.812,-36.621,0.000,0
161524.978,-37.598,-4.395,-15.625,-30.273,0.000,0
161524.982,-19.531,-0.488,-20.996,-0.488,0.000,0
161524.986,-13.672,-2.441,-23.926,-17.578,0.000,0
161524.990,-16.113,-12.207,-26.855,-18.555,0.000,0
161524.994,-21.484,-8.789,-3.906,-11.230,0.000,0
161524.998,-27.832,-3.418,-2.441,-20.508,0.000,0
161525.002,-23.438,-5.371,-25.391,-14.160,0.000,0
161525.006,-25.879,-6.348,-20.508,-15.137,0.000,0
161525.010,-45.898,-15.137,-14.648,-27.832,0.000,0
161525.013,-32.715,-15.137,-7.324,-44.922,0.000,0
161525.017,-16.113,-5.371,-7.812,-33.203,0.000,0
161525.021,-22.949,-4.883,-11.719,-3.418,0.000,0
161525.025,-24.414,-6.348,-0.488,-22.461,0.000,0
161525.029,-20.020,-7.324,-13.672,-28.809,0.000,0
161525.033,-21.973,-12.695,-13.672,-17.090,0.000,0
161525.037,-30.273,-13.672,-9.277,-18.555,0.000,0
161525.041,-30.762,-15.625,-16.602,-22.949,0.000,0
161525.045,-35.156,-24.902,-30.762,-34.668,0.000,0
161525.049,-34.180,-28.320,-41.992,-20.020,0.000,0
161525.053,-34.180,-27.344,-24.902,-28.809,0.000,0
161525.056,-34.180,-22.461,-17.578,-45.898,0.000,0
161525.060,-28.320,-19.531,-29.297,-18.066,0.000,0
161525.064,-27.832,-17.090,-27.832,5.859,0.000,0
161525.068,-32.227,-18.555,-16.602,-5.859,0.000,0
161525.072,-19.531,-18.066,-10.254,-14.648,0.000,0
161525.076,-20.020,-17.090,-13.672,-22.949,0.000,0
161525.080,-23.438,-20.020,-24.414,-36.621,0.000,0
161525.084,-22.461,-16.602,-9.277,-29.297,0.000,0
161525.088,-25.879,-12.695,-4.395,0.000,0.000,0
161525.092,-17.578,-9.766,-18.555,-4.883,0.000,0
161525.096,-16.602,-8.789,-11.230,-1.953,0.000,0
161525.099,-10.254,-15.625,-14.648,14.160,0.000,0
161525.103,-9.277,-21.484,-22.949,-13.184,0.000,0
161525.107,-19.531,-19.531,-21.973,-42.480,0.000,0
161525.111,-15.137,-19.531,-12.207,-23.438,0.000,0
161525.115,-15.625,-22.949,-9.766,-24.414,0.000,0
161525.119,-28.809,-27.832,-25.391,-39.551,0.000,0
161525.123,-40.039,-28.320,-33.203,-35.156,0.000,0
161525.127,-31.738,-24.902,-22.949,-34.180,0.000,0
161525.131,-32.227,-29.785,-22.461,-30.273,0.000,0
161525.135,-26.367,-32.227,-24.414,-39.551,0.000,0
161525.138,-23.438,-26.367,-32.227,-32.715,0.000,0
161525.142,-30.762,-29.785,-43.457,-23.926,0.000,0
161525.146,-33.203,-33.691,-28.320,-41.992,0.000,0
161525.150,-38.574,-33.691,-26.367,-30.273,0.000,0
161525.154,-37.109,-29.785,-27.832,-20.020,0.000,0
161525.158,-30.762,-24.902,-25.391,-42.480,0.000,0
161525.162,-23.926,-25.879,-26.855,-38.574,0.000,0
161525.166,-21.973,-27.832,-38.086,-31.738,0.000,0
161525.170,-26.855,-25.879,-29.785,-32.715,0.000,0
161525.174,-35.156,-25.391,-15.625,-35.156,0.000,0
161525.178,-31.738,-25.391,-29.785,-28.809,0.000,0
161525.181,-32.715,-27.832,-40.039,-32.227,0.000,0
161525.185,-35.156,-26.367,-36.133,-40.039,0.000,0
161525.189,-24.902,-30.762,-12.695,-34.668,0.000,0
161525.193,-20.996,-31.250,-1.465,-44.434,0.000,0
161525.197,-20.996,-28.809,-32.227,-50.293,0.000,0
161525.201,-19.531,-29.297,-37.109,-13.184,0.000,0
161525.205,-27.832,-30.273,-19.531,-4.395,0.000,0
161525.209,-24.414,-32.715,-12.695,-20.508,0.000,0
161525.213,-16.113,-29.785,-6.836,-17.578,0.000,0
161525.217,-35.645,-28.809,-12.207,-28.320,0.000,0
161525.221,-43.457,-35.645,-12.207,-27.344,0.000,0
161525.224,-35.645,-39.062,-25.879,-19.043,0.000,0
161525.228,-33.203,-36.133,-33.691,-29.297,0.000,0
161525.232,-35.156,-40.039,-14.160,-46.387,0.000,0
161525.236,-40.527,-43.945,-13.184,-47.363,0.000,0
161525.240,-41.016,-42.969,-38.574,-35.156,0.000,0
161525.244,-22.949,-46.875,-47.852,-25.391,0.000,0
161525.248,-11.719,-49.805,-27.344,-22.461,0.000,0
161525.252,-7.324,-37.598,-1.953,-17.090,0.000,0
161525.256,-6.348,-27.344,-19.043,-13.184,0.000,0
161525.260,-15.137,-27.832,-43.457,-18.066,0.000,0
161525.263,-26.367,-31.738,-38.086,-5.859,0.000,0
161525.267,-36.133,-27.832,-23.438,-0.488,0.000,0
161525.271,-47.363,-28.320,-20.020,-3.418,0.000,0
161525.275,-36.133,-33.691,-29.297,-11.230,0.000,0
161525.279,-28.809,-30.273,-35.645,-41.504,0.000,0
161525.283,-40.527,-29.297,-23.926,-34.180,0.000,0
161525.287,-27.832,-30.762,-28.320,-25.391,0.000,0
161525.291,-17.090,-29.297,-16.113,-35.645,0.000,0
161525.295,-27.832,-22.461,-10.254,-31.738,0.000,0
161525.299,-26.367,-23.926,-14.648,-30.273,0.000,0
161525.303,-19.043,-30.762,-27.832,-22.949,0.000,0
161525.306,-16.113,-22.461,-26.367,-16.602,0.000,0
161525.310,-18.555,-20.996,-0.488,-26.855,0.000,0
161525.314,-17.090,-24.902,-17.090,-22.461,0.000,0
161525.318,-19.531,-22.949,-29.297,-5.371,0.000,0
161525.322,-23.438,-19.531,-17.090,-16.113,0.000,0
161525.326,-11.719,-19.043,-9.766,-25.391,0.000,0
161525.330,-1.953,-20.996,3.906,-18.066,0.000,0
161525.334,-1.465,-19.531,-9.277,-12.207,0.000,0
161525.338,-1.465,-23.438,-32.715,-13.184,0.000,0
161525.342,0.977,-16.602,-13.672,-14.160,0.000,0
161525.346,4.883,-13.672,-12.695,-11.230,0.000,0
161525.349,-6.348,-20.508,-8.789,-18.066,0.000,0
161525.353,-10.742,-20.996,-11.230,-10.742,0.000,0
161525.357,-18.066,-20.020,-25.879,-12.695,0.000,0
161525.361,-32.715,-22.461,-28.320,-34.668,0.000,0
161525.365,-26.855,-27.344,-26.855,-40.527,0.000,0
161525.369,-30.273,-29.297,-18.555,-30.273,0.000,0
161525.373,-36.133,-27.344,-18.066,-30.273,0.000,0
161525.377,-23.926,-19.531,-23.926,-23.926,0.000,0
161525.381,-19.043,-17.578,-20.508,-11.230,0.000,0
161525.385,-18.555,-22.949,-17.578,-11.719,0.000,0
161525.388,-23.926,-23.438,-14.160,-19.043,0.000,0
161525.392,-24.414,-23.926,-22.461,-39.062,0.000,0
161525.396,-12.207,-25.879,-24.414,-34.180,0.000,0
161525.400,-18.066,-20.020,-8.789,-27.832,0.000,0
161525.404,-24.902,-20.996,-23.438,-33.691,0.000,0
161525.408,-22.461,-26.855,-27.832,-29.785,0.000,0
161525.412,-20.020,-22.461,-15.137,-30.273,0.000,0
161525.416,-13.184,-15.625,-12.695,-10.742,0.000,0
161525.420,-11.719,-16.113,-21.484,-1.953,0.000,0
161525.424,-11.719,-20.020,-30.762,-14.648,0.000,0
161525.428,-13.184,-23.438,-20.508,-29.297,0.000,0
161525.431,-22.461,-27.832,-17.090,-21.973,0.000,0
161525.435,-20.020,-28.320,-15.625,-23.926,0.000,0
161525.439,-25.879,-24.414,-33.203,-15.625,0.000,0
161525.443,-26.855,-21.484,-37.598,-7.812,0.000,0
161525.447,-22.461,-20.508,-24.902,-12.695,0.000,0
161525.451,-25.391,-20.020,-26.855,-13.184,0.000,0
161525.455,-20.508,-23.438,-37.109,-17.090,0.000,0
161525.459,-17.090,-27.344,-33.203,-30.273,0.000,0
161525.463,-22.461,-22.461,-20.996,-20.508,0.000,0
161525.467,-31.738,-24.414,-32.715,-19.531,0.000,0
161525.471,-34.180,-29.297,-34.668,-35.156,0.000,0
161525.474,-23.926,-24.414,-29.297,-55.176,0.000,0
161525.478,-22.949,-20.020,-34.180,-44.922,0.000,0
161525.482,-27.344,-18.066,-38.086,-21.973,0.000,0
161525.486,-21.973,-20.508,-31.250,-26.367,0.000,0
161525.490,-16.602,-26.855,-24.414,-29.785,0.000,0
161525.494,-21.973,-30.273,-39.062,-30.762,0.000,0
161525.498,-26.367,-29.785,-48.828,-20.508,0.000,0
161525.502,-23.926,-29.297,-39.062,-19.531,0.000,0
161525.506,-22.461,-25.879,-14.648,-20.020,0.000,0
161525.510,-24.414,-25.391,-16.602,-20.508,0.000,0
161525.513,-24.414,-23.926,-27.344,-16.113,0.000,0
161525.517,-18.066,-25.391,-22.949,-7.324,0.000,0
161525.521,-22.949,-20.996,-25.879,-21.484,0.000,0
161525.525,-22.461,-18.066,-26.367,-33.691,0.000,0
161525.529,-20.996,-21.484,-23.926,-29.297,0.000,0
161525.533,-23.438,-20.996,-28.320,-20.996,0.000,0
161525.537,-27.832,-21.973,-16.113,-21.484,0.000,0
161525.541,-25.391,-20.020,-35.645,-34.668,0.000,0
161525.545,-24.902,-19.043,-42.969,-27.832,0.000,0
161525.549,-38.086,-21.484,-10.254,-2.930,0.000,0
161525.553,-43.457,-21.484,-6.836,-16.602,0.000,0
161525.556,-33.203,-19.043,-20.508,-28.809,0.000,0
161525.560,-19.043,-16.113,-40.039,-21.973,0.000,0
161525.564,-27.832,-18.555,-28.809,-28.320,0.000,0
161525.568,-40.039,-19.043,3.906,-24.414,0.000,0
161525.572,-28.809,-19.043,-23.926,-30.273,0.000,0
161525.576,-27.832,-23.438,-32.227,-39.062,0.000,0
161525.580,-40.039,-29.297,-23.926,-23.438,0.000,0
161525.584,-37.109,-26.855,-27.832,-15.625,0.000,0
161525.588,-21.973,-19.531,-13.672,-26.855,0.000,0
161525.592,-10.254,-21.484,-23.926,-16.602,0.000,0
161525.596,-21.973,-22.949,-25.879,-13.672,0.000,0
161525.599,-35.645,-23.438,-28.809,-11.230,0.000,0
161525.603,-28.809,-25.879,-40.527,-11.230,0.000,0
161525.607,-22.949,-20.020,-24.902,-40.039,0.000,0
161525.611,-31.738,-21.484,-13.184,-36.133,0.000,0
161525.615,-19.043,-29.785,-21.484,-24.414,0.000,0
161525.619,-19.043,-25.391,-31.738,-19.531,0.000,0
161525.623,-28.809,-25.391,-29.785,-23.438,0.000,0
161525.627,-18.066,-31.250,-11.719,-41.992,0.000,0
161525.631,-17.578,-30.273,-20.996,-29.297,0.000,0
161525.635,-18.555,-25.391,-30.273,-7.812,0.000,0
161525.638,-19.043,-20.996,-18.066,-12.207,0.000,0
161525.642,-24.902,-22.949,-23.438,-6.348,0.000,0
161525.646,-25.391,-28.809,-22.461,-16.602,0.000,0
161525.650,-35.645,-28.320,-18.555,-50.781,0.000,0
161525.654,-35.156,-25.879,-18.066,-21.973,0.000,0
161525.658,-27.344,-26.367,-21.973,-5.371,0.000,0
161525.662,-31.250,-26.855,-40.527,-21.484,0.000,0
161525.666,-23.926,-21.973,-20.508,-26.855,0.000,0
161525.670,-25.391,-23.438,-22.949,-13.184,0.000,0
161525.674,-10.742,-36.133,-47.852,7.812,0.000,0
161525.678,4.883,-30.273,-37.109,10.742,0.000,0
161525.681,-37.598,-21.973,-20.020,-20.508,0.000,0
161525.685,-60.547,-33.203,-20.508,-62.988,0.000,0
161525.689,-27.832,-34.668,-31.250,-49.316,0.000,0
161525.693,-19.043,-21.484,-27.832,-25.879,0.000,0
161525.697,-34.668,-26.855,-36.133,-35.645,0.000,0
161525.701,-31.738,-32.715,-22.461,-15.625,0.000,0
161525.705,-32.715,-31.250,-16.602,-18.555,0.000,0
161525.709,-30.273,-28.320,-34.180,-21.484,0.000,0
161525.713,-28.809,-30.762,-31.250,-11.230,0.000,0
161525.717,-34.668,-36.621,-28.809,-29.785,0.000,0
161525.721,-38.574,-33.203,-35.645,-26.855,0.000,0
161525.724,-40.039,-35.156,-36.621,-21.484,0.000,0
161525.728,-35.156,-40.039,-34.180,-37.598,0.000,0
161525.732,-32.715,-36.133,-34.668,-49.805,0.000,0
161525.736,-30.273,-33.203,-32.715,-37.109,0.000,0
161525.740,-25.391,-35.156,-33.691,-20.996,0.000,0
161525.744,-31.738,-30.273,-13.184,-39.062,0.000,0
161525.748,-35.156,-28.320,-16.602,-32.715,0.000,0
161525.752,-36.621,-33.691,-41.016,-31.250,0.000,0
161525.756,-30.762,-30.273,-38.574,-33.691,0.000,0
161525.760,-21.484,-29.297,-32.715,-18.066,0.000,0
161525.763,-25.391,-30.762,-28.320,-20.020,0.000,0
161525.767,-27.832,-28.320,-31.250,-23.438,0.000,0
161525.771,-24.902,-30.273,-37.109,-20.996,0.000,0
161525.775,-32.715,-39.551,-41.992,-33.203,0.000,0
161525.779,-28.320,-34.180,-41.016,-12.695,0.000,0
161525.783,-20.020,-22.461,-23.438,4.883,0.000,0
161525.787,-13.672,-22.461,-9.277,-40.527,0.000,0
161525.791,-5.371,-20.020,-10.742,-45.410,0.000,0
161525.795,-16.602,-22.461,-28.809,-29.297,0.000,0
161525.799,-23.438,-30.762,-38.574,-23.926,0.000,0
161525.803,-14.648,-27.344,-21.484,-26.367,0.000,0
161525.806,-13.672,-23.438,-21.484,-33.203,0.000,0
161525.810,-12.695,-23.926,-40.527,-23.438,0.000,0
161525.814,-11.719,-19.043,-30.273,-24.902,0.000,0
161525.818,-14.160,-15.137,-19.531,-27.832,0.000,0
161525.822,-15.137,-13.184,-15.137,-1.465,0.000,0
161525.826,-24.902,-20.020,-24.902,-20.996,0.000,0
161525.830,-22.461,-28.809,-37.109,-40.527,0.000,0
161525.834,-15.137,-31.250,-32.227,-18.066,0.000,0
161525.838,-20.508,-30.273,-31.738,-2.930,0.000,0
161525.842,-30.273,-29.785,-38.574,-12.695,0.000,0
161525.846,-17.090,-27.344,-25.879,-21.973,0.000,0
161525.849,-1.953,-22.949,-18.555,-22.949,0.000,0
161525.853,-16.602,-24.902,-31.250,-25.391,0.000,0
161525.857,-21.484,-33.203,-41.992,-15.625,0.000,0
161525.861,-21.973,-31.738,-31.738,-25.879,0.000,0
161525.865,-20.020,-32.227,-14.160,-25.879,0.000,0
161525.869,-15.137,-34.668,-29.297,-19.043,0.000,0
161525.873,-7.324,-28.809,-37.109,-22.949,0.000,0
161525.877,-11.719,-27.344,-30.762,-24.902,0.000,0
161525.881,-20.996,-26.855,-8.301,-19.043,0.000,0
161525.885,-9.766,-22.949,-5.371,-23.438,0.000,0
161525.888,-18.066,-26.367,-30.273,-23.926,0.000,0
161525.892,-30.762,-25.879,-29.297,-33.203,0.000,0
161525.896,-36.621,-31.738,-18.555,-36.133,0.000,0
161525.900,-33.691,-39.551,-27.344,-5.859,0.000,0
161525.904,-36.133,-31.250,-17.090,-19.043,0.000,0
161525.908,-30.273,-27.344,-23.438,-36.133,0.000,0
161525.912,-22.461,-33.691,-39.062,-14.648,0.000,0
161525.916,-26.855,-34.668,-40.527,-28.320,0.000,0
161525.920,-30.762,-36.621,-32.227,-49.805,0.000,0
161525.924,-29.297,-39.551,-21.484,-49.316,0.000,0
161525.928,-27.344,-38.086,-37.109,-51.270,0.000,0
161525.931,-33.203,-37.109,-50.781,-46.875,0.000,0
161525.935,-34.668,-37.598,-50.781,-28.809,0.000,0
161525.939,-22.949,-36.621,-37.109,-11.230,0.000,0
161525.943,-23.438,-37.109,-14.160,-27.344,0.000,0
161525.947,-30.273,-38.086,-29.297,-29.785,0.000,0
161525.951,-28.320,-39.062,-25.879,-30.762,0.000,0
161525.955,-28.320,-39.062,-25.391,-7.812,0.000,0
161525.959,-18.555,-30.762,-34.668,-2.441,0.000,0
161525.963,-22.949,-28.320,-18.066,-32.227,0.000,0
161525.967,-32.227,-26.855,-18.555,-35.645,0.000,0
161525.971,-21.484,-24.902,-16.602,-33.203,0.000,0
161525.974,-16.602,-23.926,-16.113,-23.438,0.000,0
161525.978,-14.648,-25.391,-28.809,-17.090,0.000,0
161525.982,-10.254,-28.809,-18.555,-27.832,0.000,0
161525.986,-8.301,-28.320,-4.883,-13.184,0.000,0
161525.990,-4.883,-21.484,-20.508,-0.977,0.000,0
161525.994,-8.301,-21.484,-31.250,-2.441,0.000,0
161525.998,-16.602,-24.902,-16.602,24.902,0.000,0
161526.002,-13.184,-23.926,-2.930,19.043,0.000,0
161526.006,-21.973,-28.809,-23.926,-26.367,0.000,0
161526.010,-22.949,-31.738,-32.227,-42.969,0.000,0
161526.013,-20.020,-30.273,-27.344,-32.715,0.000,0
161526.017,-35.156,-34.180,-26.367,-39.551,0.000,0
161526.021,-38.574,-32.715,-18.066,-37.109,0.000,0
161526.025,-38.574,-33.691,-31.738,-23.926,0.000,0
161526.029,-31.738,-32.227,-19.531,-27.344,0.000,0
161526.033,-19.043,-33.691,-18.066,-19.531,0.000,0
161526.037,-20.996,-34.180,-37.109,-25.879,0.000,0
161526.041,-38.574,-29.785,-26.367,-54.199,0.000,0
161526.045,-41.992,-32.227,-25.391,-37.109,0.000,0
161526.049,-33.691,-35.645,-34.668,-12.695,0.000,0
161526.053,-33.203,-38.574,-37.109,-19.531,0.000,0
161526.056,-29.297,-33.691,-32.715,-19.043,0.000,0
161526.060,-28.320,-32.227,-22.461,-26.855,0.000,0
161526.064,-26.855,-37.109,-26.855,-27.832,0.000,0
161526.068,-30.762,-34.668,-29.785,-39.062,0.000,0
161526.072,-37.109,-29.785,-25.879,-45.898,0.000,0
161526.076,-37.598,-32.227,-27.344,-31.250,0.000,0
161526.080,-37.598,-37.598,-25.391,-43.457,0.000,0
161526.084,-35.645,-32.715,-24.414,-48.340,0.000,0
161526.088,-22.949,-24.902,-29.785,-32.227,0.000,0
161526.092,-19.531,-26.367,-29.785,-37.109,0.000,0
161526.096,-24.414,-26.855,-22.461,-20.020,0.000,0
161526.099,-21.484,-24.414,-12.207,-22.949,0.000,0
161526.103,-22.461,-21.973,-22.461,-40.527,0.000,0
161526.107,-26.367,-20.996,-29.785,-37.598,0.000,0
161526.111,-26.367,-26.855,-28.320,-25.879,0.000,0
161526.115,-29.297,-29.297,-28.320,-14.648,0.000,0
161526.119,-23.438,-25.879,-7.324,-18.066,0.000,0
161526.123,-21.973,-27.344,-21.484,-2.441,0.000,0
161526.127,-20.996,-23.438,-40.039,-25.879,0.000,0
161526.131,-14.160,-17.090,-16.602,-36.621,0.000,0
161526.135,-14.160,-23.926,-10.254,-17.578,0.000,0
161526.138,-10.742,-24.902,-10.254,-34.180,0.000,0
161526.142,-17.090,-19.043,-16.602,-37.598,0.000,0
161526.146,-21.484,-19.531,-23.438,-31.250,0.000,0
161526.150,-22.461,-20.996,-13.672,-35.645,0.000,0
161526.154,-37.598,-28.809,-17.090,-18.066,0.000,0
161526.158,-35.645,-27.832,-30.762,-19.043,0.000,0
161526.162,-26.367,-21.973,-20.508,-26.855,0.000,0
161526.166,-28.809,-31.738,-17.578,-18.066,0.000,0
161526.170,-25.391,-33.203,-30.762,-32.715,0.000,0
161526.174,-23.926,-22.461,-25.391,-31.738,0.000,0
161526.178,-30.273,-27.344,-19.043,-24.902,0.000,0
161526.181,-28.320,-33.203,-20.508,-20.996,0.000,0
161526.185,-24.902,-30.273,-27.832,-31.250,0.000,0
161526.189,-31.250,-27.832,-33.691,-22.461,0.000,0
161526.193,-28.320,-28.320,-31.250,-12.695,0.000,0
161526.197,-23.926,-31.250,-12.207,-20.020,0.000,0
161526.201,-26.855,-32.715,-11.230,-19.043,0.000,0
161526.205,-20.996,-34.180,-36.133,-19.531,0.000,0
161526.209,-26.367,-31.738,-33.691,-6.348,0.000,0
161526.213,-22.461,-27.344,-30.762,-11.230,0.000,0
161526.217,-4.395,-30.273,-24.902,-28.809,0.000,0
161526.221,-12.695,-28.809,-10.742,-17.578,0.000,0
161526.224,-12.695,-20.020,-12.695,-18.066,0.000,0
161526.228,-8.789,-24.414,-24.414,-8.789,0.000,0
161526.232,-13.184,-31.738,-32.715,-2.930,0.000,0
161526.236,-5.859,-28.809,-7.812,0.000,0.000,0
161526.240,-14.160,-34.668,-11.230,-5.859,0.000,0
161526.244,-21.973,-37.598,-34.180,-27.832,0.000,0
161526.248,-31.250,-31.738,-25.879,-23.438,0.000,0
161526.252,-25.391,-30.273,-27.344,-6.836,0.000,0
161526.256,-17.578,-26.855,-30.762,-10.742,0.000,0
161526.260,-26.855,-25.879,-33.691,-30.273,0.000,0
161526.263,-15.625,-25.879,-32.715,-20.508,0.000,0
161526.267,-14.160,-28.320,-25.879,-18.066,0.000,0
161526.271,-19.531,-27.344,-34.180,-17.090,0.000,0
161526.275,-17.578,-26.367,-34.180,-14.160,0.000,0
161526.279,-16.113,-28.809,-26.367,-21.484,0.000,0
161526.283,-20.996,-27.344,-30.762,-18.555,0.000,0
161526.287,-25.391,-27.832,-31.738,-15.137,0.000,0
161526.291,-16.602,-30.762,-46.875,-23.438,0.000,0
161526.295,-15.625,-39.551,-35.156,-29.785,0.000,0
161526.299,-25.391,-37.598,-18.555,-35.156,0.000,0
161526.303,-25.879,-26.367,-25.879,-15.137,0.000,0
161526.306,-20.508,-22.461,-39.551,-14.648,0.000,0
161526.310,-20.020,-20.996,-43.945,-21.973,0.000,0
161526.314,-20.508,-17.578,-5.859,-15.625,0.000,0
161526.318,-21.973,-20.996,5.371,-16.602,0.000,0
161526.322,-35.156,-28.320,-33.203,-25.879,0.000,0
161526.326,-33.691,-37.109,-43.457,-28.320,0.000,0
161526.330,-19.043,-38.574,-29.297,-17.090,0.000,0
161526.334,-29.785,-37.109,-25.879,-27.832,0.000,0
161526.338,-26.855,-35.645,-29.785,-42.969,0.000,0
161526.342,-15.137,-31.250,-34.668,-30.273,0.000,0
161526.346,-8.789,-26.855,-20.996,-21.484,0.000,0
161526.349,-16.602,-25.391,-22.949,-29.785,0.000,0
161526.353,-30.273,-31.250,-37.598,-28.320,0.000,0
161526.357,-24.414,-31.738,-25.391,-25.391,0.000,0
161526.361,-20.020,-24.902,-18.555,-41.016,0.000,0
161526.365,-17.578,-24.902,-31.250,-42.480,0.000,0
161526.369,-14.648,-26.855,-33.203,-20.996,0.000,0
161526.373,-20.020,-24.902,-36.621,-21.484,0.000,0
161526.377,-20.996,-23.438,-22.461,-31.738,0.000,0
161526.381,-10.254,-23.926,-29.785,-18.555,0.000,0
161526.385,-17.090,-25.391,-45.898,-30.762,0.000,0
161526.388,-28.320,-28.320,-34.180,-47.363,0.000,0
161526.392,-20.020,-25.879,-24.902,-32.715,0.000,0
161526.396,-22.461,-28.809,-27.344,-38.574,0.000,0
161526.400,-20.996,-27.832,-26.367,-38.086,0.000,0
161526.404,-22.949,-20.020,-22.461,-22.949,0.000,0
161526.408,-27.344,-25.879,-36.133,-24.902,0.000,0
161526.412,-24.414,-26.855,-41.504,-45.410,0.000,0
161526.416,-36.133,-25.391,-28.320,-60.547,0.000,0
161526.420,-36.133,-25.879,-29.785,-41.992,0.000,0
161526.424,-27.832,-23.438,-30.762,-42.969,0.000,0
161526.428,-39.551,-28.809,-36.133,-43.457,0.000,0
161526.431,-42.969,-33.691,-33.691,-25.391,0.000,0
161526.435,-41.504,-32.227,-19.043,-27.832,0.000,0
161526.439,-43.945,-28.809,-33.691,-37.109,0.000,0
161526.443,-39.551,-23.926,-44.922,-28.809,0.000,0
161526.447,-30.273,-22.461,-29.297,-11.719,0.000,0
161526.451,-25.391,-18.555,-13.184,2.930,0.000,0
161526.455,-20.996,-17.578,-23.926,-21.484,0.000,0
161526.459,-13.672,-25.391,-34.180,-42.969,0.000,0
161526.463,-13.672,-23.926,-17.090,-37.598,0.000,0
161526.467,-14.648,-20.020,-15.137,-26.855,0.000,0
161526.471,-19.531,-21.973,-24.414,-12.695,0.000,0
161526.474,-28.809,-22.461,-33.203,-24.414,0.000,0
161526.478,-23.926,-21.973,-29.297,-17.578,0.000,0
161526.482,-22.949,-20.020,-21.973,1.953,0.000,0
161526.486,-23.926,-22.461,-23.438,-17.578,0.000,0
161526.490,-29.785,-25.391,-22.461,-26.367,0.000,0
161526.494,-31.250,-25.879,-15.137,-27.832,0.000,0
161526.498,-28.809,-24.414,-22.461,-44.434,0.000,0
161526.502,-26.855,-25.879,-43.457,-33.691,0.000,0
161526.506,-28.809,-27.832,-44.922,-29.785,0.000,0
161526.510,-31.250,-22.949,-31.250,-28.809,0.000,0
161526.513,-32.715,-20.996,-14.160,0.000,0.000,0
161526.517,-30.762,-27.344,-24.414,0.488,0.000,0
161526.521,-28.320,-24.414,-30.762,-26.367,0.000,0
161526.525,-32.227,-13.184,-26.367,-24.414,0.000,0
161526.529,-23.438,-15.137,-29.785,-9.766,0.000,0
161526.533,-21.484,-19.043,-22.461,-15.137,0.000,0
161526.537,-28.320,-20.020,-17.090,-23.926,0.000,0
161526.541,-28.320,-21.973,-20.996,-18.066,0.000,0
161526.545,-29.785,-23.438,-31.250,-12.207,0.000,0
161526.549,-26.855,-22.949,-30.762,-23.438,0.000,0
161526.553,-15.137,-24.902,-15.137,-33.691,0.000,0
161526.556,-20.508,-25.391,-25.391,-32.715,0.000,0
161526.560,-26.855,-28.320,-46.875,-23.926,0.000,0
161526.564,-26.855,-28.320,-30.273,-17.090,0.000,0
161526.568,-26.855,-21.484,-12.695,-22.461,0.000,0
161526.572,-26.367,-19.531,7.324,-20.020,0.000,0
161526.576,-20.020,-19.531,-7.324,-22.461,0.000,0
161526.580,-19.531,-20.996,-34.180,-33.203,0.000,0
161526.584,-26.855,-26.855,-15.625,-10.742,0.000,0
161526.588,-26.855,-28.809,-28.320,-15.137,0.000,0
161526.592,-19.043,-26.367,-29.785,-37.109,0.000,0
161526.596,-18.555,-24.414,-11.719,-37.109,0.000,0
161526.599,-27.832,-21.484,-12.695,-23.438,0.000,0
161526.603,-23.438,-21.484,-19.043,-17.090,0.000,0
161526.607,-29.297,-23.926,-38.574,-25.391,0.000,0
161526.611,-34.180,-26.855,-24.902,-33.691,0.000,0
161526.615,-20.020,-28.809,-4.883,-37.109,0.000,0
161526.619,-22.949,-27.344,-35.645,-38.574,0.000,0
161526.623,-30.762,-29.785,-49.805,-35.645,0.000,0
161526.627,-36.133,-30.273,-31.738,-27.344,0.000,0
161526.631,-31.738,-26.367,-16.113,-22.949,0.000,0
161526.635,-25.391,-30.762,-34.668,-36.133,0.000,0
161526.638,-24.414,-28.809,-41.016,-41.504,0.000,0
161526.642,-15.137,-22.949,-10.742,-23.926,0.000,0
161526.646,-22.461,-21.484,-16.113,-20.996,0.000,0
161526.650,-24.414,-27.344,-16.602,-38.574,0.000,0
161526.654,-22.461,-27.832,-17.578,-33.691,0.000,0
161526.658,-21.484,-26.855,-26.855,-24.414,0.000,0
161526.662,-13.672,-26.855,-22.461,-41.016,0.000,0
161526.666,-18.066,-24.414,-19.043,-38.086,0.000,0
161526.670,-23.926,-21.484,-3.906,-35.156,0.000,0
161526.674,-25.391,-23.926,-5.371,-36.621,0.000,0
161526.678,-25.879,-18.066,-13.672,-32.227,0.000,0
161526.681,-20.508,-20.508,-15.137,-16.602,0.000,0
161526.685,-20.020,-25.879,-20.020,-16.113,0.000,0
161526.689,-21.484,-17.578,-4.395,-30.273,0.000,0
161526.693,-25.879,-16.602,-15.625,-36.133,0.000,0
161526.697,-23.438,-24.414,-26.855,-35.156,0.000,0
161526.701,-28.320,-25.391,-18.555,-23.926,0.000,0
161526.705,-35.645,-17.578,-20.996,-23.926,0.000,0
161526.709,-21.484,-14.648,-15.625,-34.180,0.000,0
161526.713,-18.555,-19.043,-20.020,-40.039,0.000,0
161526.717,-28.320,-18.555,-13.184,-41.992,0.000,0
161526.721,-37.109,-19.531,-20.508,-30.762,0.000,0
161526.724,-38.086,-29.785,-31.738,-14.648,0.000,0
161526.728,-38.574,-27.832,-15.625,-38.086,0.000,0
161526.732,-34.180,-24.902,-9.766,-44.922,0.000,0
161526.736,-21.484,-25.391,-25.391,-36.621,0.000,0
161526.740,-25.879,-20.996,-32.715,-42.480,0.000,0
161526.744,-35.645,-24.902,-30.762,-20.020,0.000,0
161526.748,-37.598,-27.832,-23.438,-15.137,0.000,0
161526.752,-37.109,-28.809,-22.949,-43.945,0.000,0
161526.756,-29.297,-34.668,-28.320,-42.969,0.000,0
161526.760,-30.273,-36.133,-26.855,-31.738,0.000,0
161526.763,-31.738,-32.227,-24.414,-29.297,0.000,0
161526.767,-25.879,-32.227,-20.020,-30.273,0.000,0
161526.771,-24.414,-29.785,-25.879,-33.203,0.000,0
161526.775,-19.531,-29.297,-28.809,-25.391,0.000,0
161526.779,-15.137,-22.949,-12.695,-17.578,0.000,0
161526.783,-22.949,-23.926,-28.320,-10.254,0.000,0
161526.787,-27.344,-25.879,-33.203,-19.043,0.000,0
161526.791,-28.809,-27.832,-30.762,-24.902,0.000,0
161526.795,-31.738,-26.367,-36.133,-9.277,0.000,0
161526.799,-25.879,-24.414,-37.109,-12.207,0.000,0
161526.803,-28.320,-30.762,-36.621,-24.414,0.000,0
161526.806,-25.391,-22.461,-12.695,-19.531,0.000,0
161526.810,-25.879,-14.648,-10.742,-20.020,0.000,0
161526.814,-26.367,-17.578,-20.508,-8.789,0.000,0
161526.818,-28.809,-20.508,-18.555,-26.367,0.000,0
161526.822,-36.621,-22.461,-28.809,-45.410,0.000,0
161526.826,-27.344,-25.879,-26.367,-27.344,0.000,0
161526.830,-27.832,-27.832,-24.902,-21.973,0.000,0
161526.834,-39.551,-30.762,-35.156,-26.855,0.000,0
161526.838,-26.367,-28.809,-28.320,-18.066,0.000,0
161526.842,-17.578,-20.020,-23.438,-16.602,0.000,0
161526.846,-25.879,-20.020,-20.996,-26.367,0.000,0
161526.849,-28.809,-23.438,-11.230,-26.367,0.000,0
161526.853,-20.508,-22.949,-19.043,-17.090,0.000,0
161526.857,-18.555,-21.973,-30.762,-24.414,0.000,0
161526.861,-16.602,-20.996,-31.250,-34.180,0.000,0
161526.865,-16.602,-20.508,-9.766,-38.086,0.000,0
161526.869,-25.391,-19.531,6.836,-34.668,0.000,0
161526.873,-28.320,-23.926,-28.809,-24.414,0.000,0
161526.877,-26.367,-29.297,-32.715,-25.879,0.000,0
161526.881,-28.320,-29.297,-22.461,-22.949,0.000,0
161526.885,-26.367,-30.273,-22.461,-32.227,0.000,0
161526.888,-27.344,-33.203,-27.344,-43.945,0.000,0
161526.892,-24.902,-28.320,-36.133,-20.508,0.000,0
161526.896,-21.484,-25.879,-20.508,-19.531,0.000,0
161526.900,-32.227,-32.227,-26.367,-34.668,0.000,0
161526.904,-36.621,-38.574,-26.367,-37.598,0.000,0
161526.908,-14.160,-30.762,-8.301,-30.762,0.000,0
161526.912,-13.184,-23.926,-19.043,-25.879,0.000,0
161526.916,-41.016,-33.691,-25.391,-64.453,0.000,0
161526.920,-40.527,-32.715,-36.133,-56.152,0.000,0
161526.924,-27.344,-22.461,-23.926,-25.391,0.000,0
161526.928,-29.297,-27.832,-10.742,-35.156,0.000,0
161526.931,-51.270,-31.738,-38.574,-54.688,0.000,0
161526.935,-46.875,-28.320,-35.645,-38.574,0.000,0
161526.939,-27.344,-22.949,-25.879,-21.973,0.000,0
161526.943,-25.879,-20.508,-10.742,-39.551,0.000,0
161526.947,-10.742,-22.949,-8.789,-26.367,0.000,0
161526.951,-3.418,-17.090,-20.508,-16.113,0.000,0
161526.955,-20.508,-13.672,-16.602,-23.438,0.000,0
161526.959,-19.531,-14.648,-20.996,-25.391,0.000,0
161526.963,-13.184,-16.113,-19.043,-29.297,0.000,0
161526.967,-21.484,-18.066,-6.836,-28.809,0.000,0
161526.971,-28.809,-14.648,-7.324,-26.855,0.000,0
161526.974,-29.297,-25.879,-20.508,-18.555,0.000,0
161526.978,-27.344,-26.855,-27.344,-19.043,0.000,0
161526.982,-26.367,-17.090,-10.742,-36.133,0.000,0
161526.986,-17.090,-18.066,5.371,-33.691,0.000,0
161526.990,-12.695,-19.043,-18.555,-28.320,0.000,0
161526.994,-21.973,-24.414,-40.527,-37.598,0.000,0
161526.998,-30.273,-25.391,-27.832,-28.320,0.000,0
161527.002,-26.855,-19.531,-11.230,-19.043,0.000,0
161527.006,-12.695,-19.531,-6.348,-28.320,0.000,0
161527.010,-15.137,-27.344,-21.973,-18.555,0.000,0
161527.013,-31.250,-31.250,-21.484,-9.766,0.000,0
161527.017,-37.598,-29.297,-11.230,-14.648,0.000,0
161527.021,-31.250,-31.738,-21.484,-31.250,0.000,0
161527.025,-27.344,-24.902,-10.254,-41.504,0.000,0
161527.029,-30.273,-17.578,-15.137,-33.203,0.000,0
161527.033,-11.719,-20.020,-23.926,-20.996,0.000,0
161527.037,-8.301,-24.414,-29.785,-13.184,0.000,0
161527.041,-33.203,-28.320,-23.926,-41.992,0.000,0
161527.045,-29.297,-26.855,-10.742,-47.363,0.000,0
161527.049,-12.207,-25.391,-20.020,-27.832,0.000,0
161527.053,-15.137,-25.391,-26.367,-37.109,0.000,0
161527.056,-23.926,-25.879,-35.645,-26.367,0.000,0
161527.060,-34.180,-26.367,-20.508,-24.414,0.000,0
161527.064,-28.320,-27.344,-9.766,-39.551,0.000,0
161527.068,-27.832,-31.250,-25.391,-26.367,0.000,0
161527.072,-26.367,-30.762,-19.531,-17.090,0.000,0
161527.076,-19.531,-29.785,-17.578,-25.879,0.000,0
161527.080,-20.996,-29.785,-19.043,-28.320,0.000,0
161527.084,-10.254,-31.250,-12.695,-38.086,0.000,0
161527.088,-9.766,-32.227,-6.348,-39.551,0.000,0
161527.092,-21.973,-29.297,-11.230,-27.344,0.000,0
161527.096,-26.367,-26.367,-26.367,-13.672,0.000,0
161527.099,-27.832,-24.902,-26.367,-5.371,0.000,0
161527.103,-20.508,-23.926,-18.066,-18.066,0.000,0
161527.107,-17.578,-24.902,-15.137,-26.855,0.000,0
161527.111,-23.926,-20.996,-29.785,-20.508,0.000,0
161527.115,-20.996,-20.508,-29.785,-18.066,0.000,0
161527.119,-15.137,-19.043,-19.043,-18.066,0.000,0
161527.123,-11.230,-15.625,-15.137,-15.625,0.000,0
161527.127,-20.020,-24.414,-22.461,-21.973,0.000,0
161527.131,-25.879,-30.273,-25.879,-28.320,0.000,0
161527.135,-35.156,-25.391,-28.809,-41.016,0.000,0
161527.138,-24.902,-23.926,-27.832,-21.973,0.000,0
161527.142,-10.742,-22.949,-15.137,3.418,0.000,0
161527.146,-22.461,-20.020,-19.043,-2.441,0.000,0
161527.150,-31.250,-27.832,-24.414,-3.418,0.000,0
161527.154,-27.344,-27.832,-27.832,-23.438,0.000,0
161527.158,-28.809,-19.043,-31.738,-36.621,0.000,0
161527.162,-29.785,-22.461,-14.160,-27.832,0.000,0
161527.166,-26.855,-23.438,-9.766,-31.250,0.000,0
161527.170,-21.484,-27.344,-19.531,-32.715,0.000,0
161527.174,-19.531,-31.738,-29.785,-29.785,0.000,0
161527.178,-14.648,-30.762,-21.973,-29.785,0.000,0
161527.181,-12.207,-30.273,-5.859,-22.461,0.000,0
161527.185,-18.066,-25.391,-21.484,-21.973,0.000,0
161527.189,-34.668,-26.367,-30.762,-19.043,0.000,0
161527.193,-33.691,-25.879,-10.254,-7.812,0.000,0
161527.197,-18.066,-20.996,-1.953,-6.348,0.000,0
161527.201,-23.438,-22.461,-15.137,-14.160,0.000,0
161527.205,-29.785,-23.438,-10.742,-18.555,0.000,0
161527.209,-23.438,-21.973,-9.277,-18.555,0.000,0
161527.213,-28.809,-24.414,-25.391,-23.438,0.000,0
161527.217,-27.832,-22.461,-26.367,-17.090,0.000,0
161527.221,-13.672,-16.602,-6.836,-31.250,0.000,0
161527.224,-25.391,-20.996,-6.836,-29.785,0.000,0
161527.228,-24.902,-21.484,-18.066,-17.578,0.000,0
161527.232,-20.020,-21.484,-16.602,-18.066,0.000,0
161527.236,-32.715,-16.113,-22.461,-22.949,0.000,0
161527.240,-33.691,-15.625,-4.395,-29.785,0.000,0
161527.244,-22.949,-22.949,-11.230,-19.043,0.000,0
161527.248,-17.090,-20.020,-41.504,-11.719,0.000,0
161527.252,-23.926,-19.043,-33.203,-18.555,0.000,0
161527.256,-20.508,-18.555,-23.926,-7.812,0.000,0
161527.260,-19.531,-25.391,-6.348,-21.484,0.000,0
161527.263,-22.949,-24.902,1.465,-36.133,0.000,0
161527.267,-24.414,-21.973,-21.484,-36.621,0.000,0
161527.271,-38.086,-21.973,-24.414,-40.039,0.000,0
161527.275,-28.809,-26.367,-29.785,-18.066,0.000,0
161527.279,-12.695,-28.320,-17.090,-23.438,0.000,0
161527.283,-23.926,-20.996,0.977,-36.133,0.000,0
161527.287,-28.809,-24.414,-14.648,-24.414,0.000,0
161527.291,-19.043,-33.691,-30.273,-7.324,0.000,0
161527.295,-21.484,-32.227,-31.738,-9.277,0.000,0
161527.299,-29.297,-30.273,-6.836,-31.250,0.000,0
161527.303,-25.391,-25.391,0.488,-31.738,0.000,0
161527.306,-20.996,-21.973,-17.578,-23.926,0.000,0
161527.310,-30.273,-26.855,-19.043,-10.254,0.000,0
161527.314,-35.156,-24.414,-18.555,-10.742,0.000,0
161527.318,-41.016,-24.902,-19.531,-27.344,0.000,0
161527.322,-37.598,-34.180,-17.578,-27.344,0.000,0
161527.326,-31.250,-31.738,-34.180,-19.043,0.000,0
161527.330,-33.691,-27.832,-33.691,-10.742,0.000,0
161527.334,-38.574,-30.762,-21.973,-18.066,0.000,0
161527.338,-29.297,-31.250,-29.785,-36.133,0.000,0
161527.342,-17.578,-26.855,-17.090,-34.180,0.000,0
161527.346,-23.438,-25.391,0.000,-29.785,0.000,0
161527.349,-32.227,-34.180,-20.508,-34.180,0.000,0
161527.353,-24.414,-37.109,-45.410,-33.691,0.000,0
161527.357,-17.578,-33.203,-25.391,-34.668,0.000,0
161527.361,-25.391,-29.297,-13.672,-34.668,0.000,0
161527.365,-26.855,-33.203,-40.039,-14.160,0.000,0
161527.369,-21.484,-36.621,-45.410,-12.207,0.000,0
161527.373,-23.438,-31.738,-29.785,-13.672,0.000,0
161527.377,-27.832,-36.133,-21.484,-8.789,0.000,0
161527.381,-33.691,-38.574,-25.879,-2.930,0.000,0
161527.385,-24.414,-31.250,-31.738,-11.230,0.000,0
161527.388,-21.973,-34.668,-35.645,-40.527,0.000,0
161527.392,-26.367,-33.203,-34.180,-43.457,0.000,0
161527.396,-19.531,-23.926,-34.668,-36.133,0.000,0
161527.400,-19.043,-22.949,-21.484,-39.062,0.000,0
161527.404,-21.973,-22.949,-31.738,-26.367,0.000,0
161527.408,-32.715,-19.531,-40.039,-21.973,0.000,0
161527.412,-31.250,-20.996,-29.785,-28.320,0.000,0
161527.416,-14.160,-23.438,-28.320,-28.809,0.000,0
161527.420,-22.461,-21.973,-26.855,-33.203,0.000,0
161527.424,-26.367,-23.438,-24.902,-10.254,0.000,0
161527.428,-26.367,-23.438,-24.902,-5.859,0.000,0
161527.431,-24.414,-24.902,-41.016,-25.391,0.000,0
161527.435,-23.926,-26.855,-30.273,-26.367,0.000,0
161527.439,-29.785,-24.902,-12.207,-27.344,0.000,0
161527.443,-39.062,-23.438,-28.320,-35.156,0.000,0
161527.447,-27.832,-25.879,-34.668,-38.086,0.000,0
161527.451,8.789,-25.879,-27.832,0.977,0.000,0
161527.455,-6.348,-21.484,-24.902,-3.906,0.000,0
161527.459,-47.852,-25.391,-20.020,-49.316,0.000,0
161527.463,-36.133,-27.832,-15.625,-23.438,0.000,0
161527.467,-20.508,-23.926,-21.484,-9.766,0.000,0
161527.471,-16.602,-22.461,-23.438,-20.996,0.000,0
161527.474,-19.043,-17.578,-17.090,-15.625,0.000,0
161527.478,-22.949,-19.531,-10.742,-14.648,0.000,0
161527.482,-15.625,-26.367,-17.090,-22.461,0.000,0
161527.486,-17.578,-31.738,-37.109,-26.367,0.000,0
161527.490,-19.043,-32.227,-37.109,-10.254,0.000,0
161527.494,-20.996,-29.297,-24.902,1.465,0.000,0
161527.498,-23.926,-27.832,-17.578,-21.973,0.000,0
161527.502,-20.020,-30.762,-30.273,-27.344,0.000,0
161527.506,-15.137,-30.762,-34.668,-15.137,0.000,0
161527.510,-5.371,-27.832,-29.297,-10.742,0.000,0
161527.513,-4.395,-23.438,-17.578,-14.160,0.000,0
161527.517,-19.531,-26.367,-15.137,-38.086,0.000,0
161527.521,-18.555,-31.738,-25.391,-33.691,0.000,0
161527.525,-11.230,-20.020,-12.207,-13.672,0.000,0
161527.529,-12.695,-16.113,-13.672,-12.207,0.000,0
161527.533,-10.742,-21.484,-30.762,-14.160,0.000,0
161527.537,-20.020,-21.973,-9.277,-10.254,0.000,0
161527.541,-22.949,-28.320,-15.625,-6.348,0.000,0
161527.545,-11.719,-28.809,-29.297,-12.207,0.000,0
161527.549,-14.648,-26.367,-26.367,-15.137,0.000,0
161527.553,-10.742,-26.367,-27.832,-12.695,0.000,0
161527.556,-9.766,-24.414,-13.184,-19.043,0.000,0
161527.560,-20.020,-24.902,-14.648,-23.438,0.000,0
161527.564,-22.949,-24.414,-30.762,-2.930,0.000,0
161527.568,-25.391,-26.367,-32.227,-6.836,0.000,0
161527.572,-19.531,-28.809,-29.785,-21.484,0.000,0
161527.576,-11.230,-29.297,-20.020,-26.855,0.000,0
161527.580,-13.184,-24.902,-15.625,-31.738,0.000,0
161527.584,-20.508,-20.996,-21.484,-20.020,0.000,0
161527.588,-20.020,-22.461,-20.996,-9.277,0.000,0
161527.592,-15.137,-22.461,-25.879,0.977,0.000,0
161527.596,-9.277,-16.602,-4.395,-6.836,0.000,0
161527.599,2.930,-18.555,3.906,-17.578,0.000,0
161527.603,2.930,-29.297,-20.996,-17.090,0.000,0
161527.607,-20.020,-25.391,-26.855,-14.160,0.000,0
161527.611,-21.484,-18.555,-24.414,-1.953,0.000,0
161527.615,-21.484,-20.996,-13.672,-10.254,0.000,0
161527.619,-15.137,-19.531,-17.090,-23.438,0.000,0
161527.623,-9.766,-19.531,-31.738,-25.879,0.000,0
161527.627,-23.438,-25.391,-27.344,-22.461,0.000,0
161527.631,-19.531,-29.785,-22.461,-12.695,0.000,0
161527.635,-8.789,-29.785,-13.672,-17.090,0.000,0
161527.638,-3.906,-25.391,-18.066,-15.137,0.000,0
161527.642,-3.418,-20.020,-17.090,-5.859,0.000,0
161527.646,-9.277,-20.508,-16.113,5.859,0.000,0
161527.650,-18.555,-24.902,-22.461,0.000,0.000,0
161527.654,-29.785,-29.297,-11.719,-28.809,0.000,0
161527.658,-24.902,-20.020,-8.789,-25.391,0.000,0
161527.662,-17.090,-15.625,-18.066,-28.809,0.000,0
161527.666,-22.949,-25.879,-36.133,-17.578,0.000,0
161527.670,-18.555,-27.832,-43.457,-10.742,0.000,0
161527.674,-20.996,-23.438,7.324,-18.555,0.000,0
161527.678,-27.832,-25.391,0.488,-29.785,0.000,0
161527.681,-18.555,-32.227,-43.945,-39.551,0.000,0
161527.685,-19.531,-27.832,-32.227,-26.367,0.000,0
161527.689,-17.578,-22.461,-10.742,-23.926,0.000,0
161527.693,-8.789,-28.320,-5.859,-31.738,0.000,0
161527.697,-18.555,-28.809,-9.766,-34.668,0.000,0
161527.701,-13.184,-26.367,-18.066,-13.672,0.000,0
161527.705,-12.695,-30.273,-26.855,-9.277,0.000,0
161527.709,-25.879,-27.344,-25.879,-30.273,0.000,0
161527.713,-25.391,-22.461,-21.973,-13.184,0.000,0
161527.717,-26.855,-21.973,-17.578,-10.254,0.000,0
161527.721,-22.461,-21.973,-22.949,-23.926,0.000,0
161527.724,-19.043,-22.949,-28.320,-24.414,0.000,0
161527.728,-24.414,-29.297,-20.508,-12.207,0.000,0
161527.732,-26.367,-31.738,-17.578,-18.066,0.000,0
161527.736,-30.273,-25.391,-24.902,-34.180,0.000,0
161527.740,-30.273,-25.879,-41.016,-24.902,0.000,0
161527.744,-18.066,-25.391,-31.738,-8.301,0.000,0
161527.748,-20.020,-22.949,-17.090,-10.742,0.000,0
161527.752,-25.879,-28.320,-18.066,-28.809,0.000,0
161527.756,-13.184,-30.762,-20.508,-32.227,0.000,0
161527.760,-26.367,-28.320,-19.531,-31.250,0.000,0
161527.763,-39.062,-27.832,-21.973,-23.438,0.000,0
161527.767,-25.391,-30.273,-41.992,-17.090,0.000,0
161527.771,-20.996,-37.598,-41.992,-22.949,0.000,0
161527.775,-19.531,-27.832,-26.367,-21.484,0.000,0
161527.779,-20.996,-23.926,-25.391,-18.555,0.000,0
161527.783,-18.555,-28.809,-35.156,-20.020,0.000,0
161527.787,-10.742,-20.508,-32.715,-13.672,0.000,0
161527.791,-22.949,-18.066,-22.461,-27.344,0.000,0
161527.795,-21.973,-21.973,-29.297,-34.668,0.000,0
161527.799,-1.465,-24.902,-37.109,-24.902,0.000,0
161527.803,-12.695,-27.832,-29.785,-11.719,0.000,0
161527.806,-15.625,-24.414,-17.090,-20.996,0.000,0
161527.810,-9.766,-23.926,-20.020,-33.203,0.000,0
161527.814,-11.719,-22.461,-36.133,-39.062,0.000,0
161527.818,-13.184,-20.508,-32.715,-28.809,0.000,0
161527.822,-23.926,-23.438,-27.832,-12.695,0.000,0
161527.826,-20.020,-20.996,-21.973,-18.066,0.000,0
161527.830,-18.066,-18.066,-16.113,-36.621,0.000,0
161527.834,-19.043,-20.020,-21.484,-43.457,0.000,0
161527.838,-16.113,-28.809,-21.973,-28.809,0.000,0
161527.842,-22.461,-31.250,-27.832,-20.508,0.000,0
161527.846,-32.715,-25.879,-32.227,-35.156,0.000,0
161527.849,-28.320,-24.902,-15.625,-42.969,0.000,0
161527.853,-17.090,-27.832,-16.113,-31.738,0.000,0
161527.857,-25.391,-29.297,-36.133,-41.504,0.000,0
161527.861,-21.973,-31.738,-41.016,-39.551,0.000,0
161527.865,-17.578,-25.391,-16.113,-24.414,0.000,0
161527.869,-19.531,-16.602,3.906,-36.133,0.000,0
161527.873,-17.578,-21.484,-16.113,-34.180,0.000,0
161527.877,-23.438,-27.344,-24.414,-7.324,0.000,0
161527.881,-21.973,-25.879,-20.020,-2.930,0.000,0
161527.885,-16.602,-20.020,-25.879,-17.090,0.000,0
161527.888,-19.043,-19.043,-8.301,-26.855,0.000,0
161527.892,-26.855,-20.508,-8.789,-30.273,0.000,0
161527.896,-20.020,-16.602,-18.066,-13.672,0.000,0
161527.900,-16.113,-15.625,-20.996,-21.484,0.000,0
161527.904,-20.508,-15.137,-29.785,-24.414,0.000,0
161527.908,-13.672,-19.043,-2.930,-26.367,0.000,0
161527.912,-14.160,-19.043,12.207,-40.039,0.000,0
161527.916,-20.020,-14.648,-7.324,-24.902,0.000,0
161527.920,-23.926,-16.602,-26.855,-10.254,0.000,0
161527.924,-29.785,-17.090,-39.062,-10.254,0.000,0
161527.928,-29.785,-17.578,-4.395,-19.043,0.000,0
161527.931,-34.180,-19.043,-3.906,-22.461,0.000,0
161527.935,-24.902,-17.578,-24.902,-24.902,0.000,0
161527.939,-16.113,-17.578,-16.113,-33.203,0.000,0
161527.943,-23.438,-16.602,-20.020,-30.762,0.000,0
161527.947,-18.555,-16.113,-20.508,-29.297,0.000,0
161527.951,-14.160,-17.090,-22.461,-36.133,0.000,0
161527.955,-22.461,-18.555,-13.672,-36.621,0.000,0
161527.959,-37.109,-19.043,1.953,-30.762,0.000,0
161527.963,-30.273,-19.043,-24.414,-27.344,0.000,0
161527.967,-21.484,-25.391,-17.090,-35.156,0.000,0
161527.971,-23.438,-24.902,-5.371,-39.062,0.000,0
161527.974,-23.438,-17.578,-28.809,-43.457,0.000,0
161527.978,-20.508,-20.508,-32.715,-41.016,0.000,0
161527.982,-21.484,-24.902,-34.668,-26.855,0.000,0
161527.986,-25.879,-27.344,-28.809,-25.879,0.000,0
161527.990,-27.344,-26.855,-11.719,-28.320,0.000,0
161527.994,-29.785,-23.926,-16.113,-18.066,0.000,0
161527.998,-19.043,-21.973,-35.156,-20.508,0.000,0
161528.002,-14.160,-23.438,-19.531,-26.855,0.000,0
161528.006,-22.949,-25.879,-6.836,-38.086,0.000,0
161528.010,-24.414,-28.809,-13.184,-48.828,0.000,0
161528.013,-32.715,-23.926,-7.324,-41.992,0.000,0
161528.017,-38.086,-24.414,-25.391,-35.156,0.000,0
161528.021,-23.438,-22.949,-36.621,-23.438,0.000,0
161528.025,-19.531,-18.555,-20.508,-32.715,0.000,0
161528.029,-29.297,-23.438,-11.230,-44.922,0.000,0
161528.033,-33.203,-24.414,-34.668,-27.344,0.000,0
161528.037,-31.250,-24.414,-34.668,-18.066,0.000,0
161528.041,-30.273,-26.367,-32.715,-19.531,0.000,0
161528.045,-18.555,-24.414,-18.555,-27.832,0.000,0
161528.049,-19.531,-21.484,-0.977,-38.574,0.000,0
161528.053,-20.996,-21.484,-26.367,-42.969,0.000,0
161528.056,-4.883,-23.438,-23.926,-9.277,0.000,0
161528.060,-5.371,-20.020,-16.602,-3.906,0.000,0
161528.064,-12.695,-17.090,-21.484,-39.062,0.000,0
161528.068,-15.625,-24.902,-24.902,-40.527,0.000,0
161528.072,-15.137,-25.879,-31.250,-39.062,0.000,0
161528.076,-17.578,-25.879,-27.832,-40.527,0.000,0
161528.080,-28.320,-29.297,-20.996,-36.621,0.000,0
161528.084,-36.621,-31.738,-26.367,-41.992,0.000,0
161528.088,-34.668,-32.715,-24.414,-43.457,0.000,0
161528.092,-33.691,-28.809,-7.812,-33.691,0.000,0
161528.096,-35.645,-25.391,-15.137,-49.805,0.000,0
161528.099,-36.621,-21.484,-29.297,-60.547,0.000,0
161528.103,-41.504,-26.367,-26.367,-46.875,0.000,0
161528.107,-34.668,-35.156,-9.277,-60.547,0.000,0
161528.111,-33.203,-36.621,-12.207,-76.660,0.000,0
161528.115,-42.969,-32.715,-41.016,-62.988,0.000,0
161528.119,-31.738,-32.227,-39.062,-54.688,0.000,0
161528.123,-26.367,-32.227,-27.344,-70.312,0.000,0
161528.127,-42.480,-25.879,-24.902,-98.145,0.000,0
161528.131,-23.438,-22.461,-26.855,-83.496,0.000,0
161528.135,-14.648,-29.297,-17.578,-78.125,0.000,0
161528.138,-33.203,-27.344,-21.973,-84.961,0.000,0
161528.142,-38.574,-20.508,-26.855,-82.031,0.000,0
161528.146,-38.574,-21.484,-20.020,-83.984,0.000,0
161528.150,-28.809,-17.578,-26.367,-83.008,0.000,0
161528.154,-23.438,-17.090,-27.344,-72.754,0.000,0
161528.158,-24.414,-15.625,-30.273,-64.941,0.000,0
161528.162,-20.508,-15.137,-16.113,-81.543,0.000,0
161528.166,-30.273,-14.160,-10.742,-86.914,0.000,0
161528.170,-36.621,-11.719,-25.391,-85.938,0.000,0
161528.174,-27.344,-18.066,-21.973,-100.586,0.000,0
161528.178,-24.902,-20.508,-17.578,-103.516,0.000,0
161528.181,-31.738,-20.996,-7.324,-100.098,0.000,0
161528.185,-20.508,-19.531,-11.719,-93.750,0.000,0
161528.189,-12.207,-20.020,-28.809,-97.168,0.000,0
161528.193,-20.996,-20.508,-25.879,-90.332,0.000,0
161528.197,-31.250,-16.602,-29.785,-62.500,0.000,0
161528.201,-37.109,-18.066,-26.855,-82.031,0.000,0
161528.205,-33.691,-20.508,-8.301,-107.910,0.000,0
161528.209,-26.367,-20.996,-18.555,-91.309,0.000,0
161528.213,-15.137,-23.438,-22.461,-83.008,0.000,0
161528.217,-9.277,-22.949,-28.320,-96.191,0.000,0
161528.221,-16.113,-27.832,-38.086,-100.586,0.000,0
161528.224,-8.301,-24.414,1.465,-74.707,0.000,0
161528.228,-14.160,-18.066,-5.859,-75.195,0.000,0
161528.232,-15.625,-20.996,-34.180,-89.355,0.000,0
161528.236,-14.160,-22.461,-25.391,-85.449,0.000,0
161528.240,-32.715,-22.461,-0.488,-96.680,0.000,0
161528.244,-31.738,-22.949,-0.488,-116.211,0.000,0
161528.248,-21.973,-20.508,-25.391,-109.863,0.000,0
161528.252,-16.113,-20.020,-22.461,-96.680,0.000,0
161528.256,-20.020,-17.578,-13.184,-99.121,0.000,0
161528.260,-19.043,-18.066,-14.160,-111.816,0.000,0
161528.263,-7.324,-19.043,-2.441,-110.352,0.000,0
161528.267,-21.484,-20.020,-9.277,-100.098,0.000,0
161528.271,-31.738,-24.414,-25.879,-94.238,0.000,0
161528.275,-34.180,-24.414,-39.062,-90.332,0.000,0
161528.279,-32.227,-29.297,-36.621,-99.121,0.000,0
161528.283,-27.344,-27.344,0.977,-111.816,0.000,0
161528.287,-28.809,-13.184,6.836,-105.469,0.000,0
161528.291,-27.344,-16.113,-15.625,-110.840,0.000,0
161528.295,-17.578,-29.785,-24.902,-125.000,0.000,0
161528.299,-20.996,-28.320,-26.855,-104.004,0.000,0
161528.303,-28.320,-24.902,-5.371,-104.492,0.000,0
161528.306,-29.297,-28.320,-18.555,-102.539,0.000,0
161528.310,-21.973,-29.785,-33.691,-99.609,0.000,0
161528.314,-20.996,-28.809,-24.414,-120.605,0.000,0
161528.318,-28.320,-30.273,-24.414,-117.676,0.000,0
161528.322,-15.625,-27.832,-24.414,-110.840,0.000,0
161528.326,-8.301,-26.855,-22.949,-101.074,0.000,0
161528.330,-20.996,-30.762,-21.973,-107.422,0.000,0
161528.334,-20.996,-26.855,-39.551,-104.004,0.000,0
161528.338,-22.949,-30.273,-34.668,-85.449,0.000,0
161528.342,-33.691,-32.227,-22.461,-114.258,0.000,0
161528.346,-29.785,-32.715,-40.039,-122.559,0.000,0
161528.349,-21.973,-31.738,-38.574,-96.191,0.000,0
161528.353,-15.625,-31.738,-29.785,-98.633,0.000,0
161528.357,-9.277,-33.203,-21.973,-89.355,0.000,0
161528.361,-23.926,-32.227,-19.531,-94.727,0.000,0
161528.365,-29.297,-28.320,-33.203,-102.051,0.000,0
161528.369,-19.043,-34.180,-44.434,-87.402,0.000,0
161528.373,-24.902,-37.598,-31.738,-80.566,0.000,0
161528.377,-28.320,-31.738,-21.484,-89.844,0.000,0
161528.381,-22.949,-29.297,-27.344,-100.098,0.000,0
161528.385,-24.414,-32.715,-27.832,-85.449,0.000,0
161528.388,-21.484,-30.762,-28.320,-79.590,0.000,0
161528.392,-25.391,-25.879,-23.926,-85.449,0.000,0
161528.396,-32.227,-29.297,-34.180,-78.613,0.000,0
161528.400,-23.438,-35.156,-35.645,-92.773,0.000,0
161528.404,-22.461,-38.086,-23.438,-98.145,0.000,0
161528.408,-36.133,-34.668,-25.391,-81.543,0.000,0
161528.412,-41.504,-35.156,-32.715,-84.961,0.000,0
161528.416,-35.156,-38.086,-29.297,-99.121,0.000,0
161528.420,-31.250,-29.297,-0.977,-105.957,0.000,0
161528.424,-31.738,-24.414,-26.855,-104.980,0.000,0
161528.428,-12.207,-20.996,-58.105,-91.309,0.000,0
161528.431,10.742,-16.602,-25.391,-65.430,0.000,0
161528.435,-0.488,-22.949,-19.043,-55.664,0.000,0
161528.439,-21.484,-24.414,-25.391,-73.730,0.000,0
161528.443,-21.973,-17.578,-19.043,-79.590,0.000,0
161528.447,-20.996,-16.602,-24.902,-69.824,0.000,0
161528.451,-27.832,-15.137,-25.391,-71.289,0.000,0
161528.455,-21.484,-10.254,-18.555,-74.219,0.000,0
161528.459,-33.691,-11.719,-15.137,-72.754,0.000,0
161528.463,-39.551,-12.695,-12.695,-64.941,0.000,0
161528.467,-26.367,-17.578,-13.672,-67.871,0.000,0
161528.471,-22.949,-20.996,-26.855,-77.637,0.000,0
161528.474,-16.113,-13.672,-22.949,-67.383,0.000,0
161528.478,-14.160,-19.043,-13.672,-82.031,0.000,0
161528.482,-22.461,-18.555,-21.484,-76.660,0.000,0
161528.486,-22.949,-13.184,-26.367,-69.336,0.000,0
161528.490,-24.902,-19.043,-21.484,-72.754,0.000,0
161528.494,-29.785,-22.949,-21.484,-68.359,0.000,0
161528.498,-20.996,-25.879,-22.461,-69.336,0.000,0
161528.502,-27.832,-23.438,-22.949,-70.801,0.000,0
161528.506,-36.621,-19.043,-20.996,-74.707,0.000,0
161528.510,-30.762,-20.508,-21.484,-55.176,0.000,0
161528.513,-28.320,-24.902,-37.598,-51.270,0.000,0
161528.517,-21.973,-22.461,-26.855,-73.242,0.000,0
161528.521,-14.648,-21.973,-7.812,-72.754,0.000,0
161528.525,-11.230,-22.949,-19.531,-65.918,0.000,0
161528.529,-16.113,-24.414,-45.898,-59.570,0.000,0
161528.533,-27.832,-21.973,-36.133,-41.016,0.000,0
161528.537,-30.762,-20.020,-6.348,-42.969,0.000,0
161528.541,-20.996,-21.484,-1.953,-51.270,0.000,0
161528.545,-19.531,-18.555,-14.648,-57.129,0.000,0
161528.549,-23.926,-22.949,-22.461,-62.500,0.000,0
161528.553,-21.973,-26.367,-23.926,-36.621,0.000,0
161528.556,-9.766,-20.996,-15.137,-49.316,0.000,0
161528.560,-2.930,-22.949,-17.578,-60.547,0.000,0
161528.564,-21.973,-27.832,-40.527,-37.598,0.000,0
161528.568,-28.320,-23.438,-35.156,-38.086,0.000,0
161528.572,-16.602,-19.043,-27.832,-41.016,0.000,0
161528.576,-14.648,-16.113,-18.066,-53.223,0.000,0
161528.580,-20.996,-15.137,-12.695,-54.688,0.000,0
161528.584,-23.926,-18.555,-28.320,-29.297,0.000,0
161528.588,-15.137,-18.066,-32.715,-33.691,0.000,0
161528.592,-16.602,-19.531,-36.133,-39.551,0.000,0
161528.596,-28.320,-20.996,-13.184,-40.039,0.000,0
161528.599,-33.691,-19.043,-1.465,-49.805,0.000,0
161528.603,-36.133,-20.996,-28.320,-43.457,0.000,0
161528.607,-31.738,-20.020,-38.086,-33.203,0.000,0
161528.611,-24.414,-20.508,-28.809,-31.738,0.000,0
161528.615,-27.344,-21.973,-10.742,-39.062,0.000,0
161528.619,-27.344,-20.020,-14.648,-36.621,0.000,0
161528.623,-20.020,-21.484,-32.227,-31.250,0.000,0
161528.627,-20.508,-17.578,-25.391,-23.926,0.000,0
161528.631,-29.785,-20.020,-39.062,-16.602,0.000,0
161528.635,-32.715,-25.879,-33.691,-33.691,0.000,0
161528.638,-25.879,-22.461,-20.020,-33.691,0.000,0
161528.642,-20.996,-20.508,-21.484,-14.160,0.000,0
161528.646,-25.879,-18.066,-13.672,-29.785,0.000,0
161528.650,-28.320,-19.531,-35.156,-29.785,0.000,0
161528.654,-20.020,-26.855,-32.227,-17.090,0.000,0
161528.658,-14.648,-31.250,-0.488,-39.062,0.000,0
161528.662,-20.020,-27.832,-18.555,-38.574,0.000,0
161528.666,-26.367,-28.809,-40.527,-27.832,0.000,0
161528.670,-31.738,-30.762,-32.227,-22.461,0.000,0
161528.674,-34.668,-24.902,-16.602,-28.320,0.000,0
161528.678,-24.902,-25.879,-15.625,-40.039,0.000,0
161528.681,-21.973,-25.879,-39.062,-33.203,0.000,0
161528.685,-17.578,-24.902,-39.551,-15.137,0.000,0
161528.689,-16.113,-22.461,-21.973,-5.859,0.000,0
161528.693,-32.715,-22.461,-24.414,-8.301,0.000,0
161528.697,-39.551,-25.879,-38.086,-25.391,0.000,0
161528.701,-31.738,-24.902,-27.832,-10.742,0.000,0
161528.705,-16.602,-23.926,-7.812,-1.465,0.000,0
161528.709,-12.695,-29.785,-29.297,-16.113,0.000,0
161528.713,-17.090,-34.180,-35.645,-8.301,0.000,0
161528.717,-16.602,-26.367,-20.996,-18.066,0.000,0
161528.721,-14.648,-20.996,-22.949,-27.344,0.000,0
161528.724,-8.301,-16.602,-24.414,-25.879,0.000,0
161528.728,-8.301,-16.113,-20.508,-11.230,0.000,0
161528.732,-18.066,-20.508,-25.879,-14.648,0.000,0
161528.736,-31.738,-23.926,-30.273,-29.785,0.000,0
161528.740,-36.621,-24.902,-33.691,-3.906,0.000,0
161528.744,-28.809,-24.414,-33.691,-11.719,0.000,0
161528.748,-34.668,-23.926,-22.949,-33.203,0.000,0
161528.752,-31.738,-23.438,-21.973,-32.227,0.000,0
161528.756,-30.762,-20.508,-24.414,-33.691,0.000,0
161528.760,-34.180,-20.508,-18.555,-20.020,0.000,0
161528.763,-23.438,-24.902,-25.391,-31.738,0.000,0
161528.767,-28.809,-23.438,-31.250,-36.621,0.000,0
161528.771,-19.531,-25.391,-31.250,-13.184,0.000,0
161528.775,-14.160,-26.367,-22.461,-24.902,0.000,0
161528.779,-26.367,-22.461,-23.438,-51.270,0.000,0
161528.783,-27.344,-20.996,-32.715,-60.059,0.000,0
161528.787,-36.133,-20.508,-28.809,-50.293,0.000,0
161528.791,-38.086,-24.902,-33.691,-24.902,0.000,0
161528.795,-37.109,-30.273,-32.227,-21.484,0.000,0
161528.799,-28.809,-30.273,-38.086,-31.738,0.000,0
161528.803,-28.320,-29.785,-51.270,-49.316,0.000,0
161528.806,-30.762,-25.391,-32.227,-43.945,0.000,0
161528.810,-19.043,-20.020,-19.531,-32.715,0.000,0
161528.814,-21.484,-22.949,-20.996,-44.922,0.000,0
161528.818,-25.879,-28.809,-25.879,-44.434,0.000,0
161528.822,-31.738,-37.109,-31.738,-23.926,0.000,0
161528.826,-39.062,-34.180,-26.855,-19.043,0.000,0
161528.830,-33.691,-28.809,-31.250,-26.367,0.000,0
161528.834,-37.598,-31.738,-23.438,-20.508,0.000,0
161528.838,-44.434,-26.367,-22.949,-4.395,0.000,0
161528.842,-36.133,-28.809,-38.574,-14.648,0.000,0
161528.846,-28.809,-32.227,-42.480,-33.203,0.000,0
161528.849,-30.762,-32.715,-23.926,-31.738,0.000,0
161528.853,-50.293,-41.504,-22.949,-32.227,0.000,0
161528.857,-40.039,-35.645,-31.250,-22.949,0.000,0
161528.861,-30.762,-29.297,-39.062,-17.090,0.000,0
161528.865,-31.738,-26.855,-32.715,-6.348,0.000,0
161528.869,-30.273,-29.785,-17.578,-11.719,0.000,0
161528.873,-24.902,-29.785,-14.160,-27.832,0.000,0
161528.877,-25.879,-30.273,-26.855,2.441,0.000,0
161528.881,-37.109,-33.691,-23.438,10.742,0.000,0
161528.885,-25.391,-36.133,-32.227,-19.043,0.000,0
161528.888,-17.578,-29.785,-37.598,-36.621,0.000,0
161528.892,-32.227,-27.832,-17.090,-31.250,0.000,0
161528.896,-35.156,-26.855,-6.348,-15.137,0.000,0
161528.900,-32.227,-21.973,-18.555,-4.395,0.000,0
161528.904,-32.715,-21.484,-33.203,-21.973,0.000,0
161528.908,-20.508,-28.809,-23.438,-18.066,0.000,0
161528.912,-29.785,-29.297,-11.230,-6.836,0.000,0
161528.916,-45.898,-25.391,-26.367,-21.973,0.000,0
161528.920,-27.832,-24.902,-35.645,-30.762,0.000,0
161528.924,-28.809,-24.414,-36.133,-12.207,0.000,0
161528.928,-41.504,-25.879,-26.367,-7.812,0.000,0
161528.931,-29.297,-31.738,-18.066,-33.203,0.000,0
161528.935,-14.648,-29.785,-22.461,-26.855,0.000,0
161528.939,-26.855,-28.320,-29.785,-8.789,0.000,0
161528.943,-28.320,-28.809,-22.461,7.324,0.000,0
161528.947,-10.254,-32.227,-35.645,-3.418,0.000,0
161528.951,-12.207,-32.715,-17.090,-27.832,0.000,0
161528.955,-13.672,-26.367,-7.324,-17.090,0.000,0
161528.959,-13.672,-26.367,-21.973,9.277,0.000,0
161528.963,-22.461,-24.414,-24.902,2.441,0.000,0
161528.967,-22.949,-21.973,-17.578,-3.418,0.000,0
161528.971,-27.832,-23.926,3.418,-5.371,0.000,0
161528.974,-20.996,-24.902,-11.719,-26.367,0.000,0
161528.978,-10.742,-24.902,-40.039,-21.973,0.000,0
161528.982,-11.230,-24.902,-44.922,-12.695,0.000,0
161528.986,-14.160,-22.949,-17.090,-6.348,0.000,0
161528.990,-9.277,-17.578,1.465,-20.508,0.000,0
161528.994,-11.719,-14.648,-24.414,-28.809,0.000,0
161528.998,-12.207,-15.625,-22.461,-22.461,0.000,0
161529.002,-7.812,-15.625,-10.254,-21.484,0.000,0
161529.006,-24.414,-17.578,-26.367,-17.578,0.000,0
161529.010,-34.180,-28.809,-27.344,-32.715,0.000,0
161529.013,-33.691,-26.367,-28.320,-11.230,0.000,0
161529.017,-31.250,-16.113,-28.320,6.836,0.000,0
161529.021,-18.555,-20.020,-21.973,-17.090,0.000,0
161529.025,-20.996,-20.996,-35.645,-22.949,0.000,0
161529.029,-27.832,-18.066,-29.297,-21.484,0.000,0
161529.033,-34.180,-19.043,-11.230,-32.715,0.000,0
161529.037,-22.949,-20.508,-29.785,-29.785,0.000,0
161529.041,-20.020,-22.949,-53.223,0.488,0.000,0
161529.045,-40.039,-23.438,-48.828,-4.883,0.000,0
161529.049,-33.203,-23.926,-25.879,-21.973,0.000,0
161529.053,-5.859,-22.461,-24.414,-5.371,0.000,0
161529.056,-10.254,-20.508,-35.156,-6.836,0.000,0
161529.060,-12.695,-25.391,-27.344,-5.371,0.000,0
161529.064,-17.578,-23.438,-26.367,-7.812,0.000,0
161529.068,-33.203,-24.902,-27.344,-11.719,0.000,0
161529.072,-28.809,-27.344,-20.020,-8.301,0.000,0
161529.076,-17.090,-25.391,-17.578,-9.277,0.000,0
161529.080,-25.391,-29.297,-41.992,-11.230,0.000,0
161529.084,-23.926,-31.250,-51.758,-8.789,0.000,0
161529.088,-23.926,-27.832,-24.414,-10.254,0.000,0
161529.092,-34.668,-27.832,-16.602,-10.254,0.000,0
161529.096,-32.715,-32.227,-42.480,0.488,0.000,0
161529.099,-32.227,-32.715,-44.922,0.488,0.000,0
161529.103,-38.574,-28.809,-29.297,-18.555,0.000,0
161529.107,-35.156,-30.273,-16.113,-33.203,0.000,0
161529.111,-42.480,-30.273,-23.926,-41.016,0.000,0
161529.115,-43.945,-27.344,-33.691,-28.809,0.000,0
161529.119,-44.434,-31.738,-31.738,-9.766,0.000,0
161529.123,-44.434,-28.320,-24.902,-20.508,0.000,0
161529.127,-27.344,-25.391,-31.250,-25.391,0.000,0
161529.131,-33.203,-31.738,-35.156,-28.809,0.000,0
161529.135,-41.016,-31.738,-21.973,-32.715,0.000,0
161529.138,-25.879,-26.855,-17.578,-23.438,0.000,0
161529.142,-20.508,-24.902,-45.898,10.254,0.000,0
161529.146,-21.484,-22.949,-42.480,-9.277,0.000,0
161529.150,-28.320,-25.391,-11.719,-40.039,0.000,0
161529.154,-32.227,-26.367,-13.184,-13.184,0.000,0
161529.158,-17.090,-26.367,-33.691,-0.488,0.000,0
161529.162,-19.531,-26.855,-29.297,-6.348,0.000,0
161529.166,-31.738,-27.832,-9.766,-4.883,0.000,0
161529.170,-39.062,-26.855,-16.113,-17.578,0.000,0
161529.174,-24.902,-29.785,-34.668,-23.926,0.000,0
161529.178,-13.672,-27.832,-26.367,-15.137,0.000,0
161529.181,-21.484,-21.973,-23.438,13.672,0.000,0
161529.185,-13.184,-24.414,-22.949,2.930,0.000,0
161529.189,-1.953,-24.414,-18.066,-10.254,0.000,0
161529.193,0.488,-20.020,-28.809,-8.789,0.000,0
161529.197,-20.020,-18.555,-30.762,-1.465,0.000,0
161529.201,-30.273,-23.926,-30.762,-3.418,0.000,0
161529.205,-29.785,-26.855,-26.855,-12.207,0.000,0
161529.209,-26.855,-29.785,-16.602,-10.742,0.000,0
161529.213,-39.062,-29.297,-18.066,-20.996,0.000,0
161529.217,-25.391,-25.391,-28.809,-20.508,0.000,0
161529.221,-10.254,-30.273,-49.805,-22.461,0.000,0
161529.224,-27.344,-24.902,-30.762,-34.668,0.000,0
161529.228,-22.949,-19.531,-3.418,-6.348,0.000,0
161529.232,-7.324,-24.414,-33.691,34.180,0.000,0
161529.236,5.371,-27.344,-33.203,12.695,0.000,0
161529.240,-32.715,-26.855,-19.531,-33.691,0.000,0
161529.244,-63.965,-25.391,-48.828,-46.875,0.000,0
161529.248,-38.086,-33.691,-53.711,-43.457,0.000,0
161529.252,-32.715,-38.086,-49.316,-35.645,0.000,0
161529.256,-46.875,-27.832,-27.832,-12.695,0.000,0
161529.260,-37.598,-23.926,-37.109,-6.348,0.000,0
161529.263,-23.926,-24.902,-48.828,-33.691,0.000,0
161529.267,-28.809,-19.043,-15.137,-60.059,0.000,0
161529.271,-31.250,-19.531,-24.414,-36.133,0.000,0
161529.275,-18.066,-26.367,-44.434,-5.859,0.000,0
161529.279,-15.137,-28.320,-44.434,-1.953,0.000,0
161529.283,-30.762,-31.738,-37.598,-8.301,0.000,0
161529.287,-38.574,-35.156,-19.531,-42.480,0.000,0
161529.291,-40.527,-31.250,-27.832,-50.781,0.000,0
161529.295,-23.926,-26.855,-34.180,-13.672,0.000,0
161529.299,-22.461,-27.832,-31.250,1.953,0.000,0
161529.303,-31.250,-23.438,-19.043,-23.926,0.000,0
161529.306,-29.785,-25.391,-14.648,-30.762,0.000,0
161529.310,-28.809,-29.297,-39.062,-33.203,0.000,0
161529.314,-26.855,-23.926,-29.785,-12.695,0.000,0
161529.318,-24.902,-18.066,-1.465,-2.930,0.000,0
161529.322,-6.836,-21.973,-24.414,-6.836,0.000,0
161529.326,-14.648,-25.391,-21.973,-3.418,0.000,0
