timestamps,TP9,AF7,AF8,TP10,Right AUX,Marker0
161648.111,-24.414,-35.645,-27.344,-16.113,0.000,0
161648.115,-29.785,-33.203,-50.293,-10.742,0.000,0
161648.119,-28.809,-32.715,-36.133,-20.996,0.000,0
161648.123,-28.809,-36.133,-20.508,-17.090,0.000,0
161648.127,-28.809,-35.156,-9.277,0.488,0.000,0
161648.131,-17.578,-31.738,-12.207,-4.395,0.000,0
161648.135,-21.484,-29.297,-27.344,-20.996,0.000,0
161648.138,-32.227,-27.344,-20.508,-15.625,0.000,0
161648.142,-22.949,-30.273,-25.391,-8.789,0.000,0
161648.146,-15.137,-31.738,-30.273,-9.766,0.000,0
161648.150,-18.555,-29.785,-21.973,-19.043,0.000,0
161648.154,-22.461,-30.273,-28.809,-17.090,0.000,0
161648.158,-19.531,-29.785,-31.738,-8.301,0.000,0
161648.162,-16.113,-30.762,-31.738,-22.949,0.000,0
161648.166,-16.602,-34.180,-19.043,-26.367,0.000,0
161648.170,-20.996,-39.551,-20.996,-13.672,0.000,0
161648.174,-8.789,-41.504,-38.574,-20.508,0.000,0
161648.178,-4.395,-32.227,-27.344,-14.648,0.000,0
161648.181,-20.508,-26.855,-14.160,-10.742,0.000,0
161648.185,-17.090,-24.414,-5.371,-13.672,0.000,0
161648.189,-15.625,-25.879,-2.930,-19.043,0.000,0
161648.193,-20.020,-29.297,-21.973,-20.020,0.000,0
161648.197,-18.555,-30.762,-34.668,-10.254,0.000,0
161648.201,-31.738,-32.227,-27.344,-8.789,0.000,0
161648.205,-37.598,-36.621,-21.484,-20.020,0.000,0
161648.209,-21.973,-36.133,-17.090,-22.949,0.000,0
161648.213,-22.949,-33.203,-29.785,-23.438,0.000,0
161648.217,-21.484,-30.762,-30.762,-16.602,0.000,0
161648.221,-17.578,-30.762,-23.926,-5.859,0.000,0
161648.224,-24.414,-35.156,-5.371,-10.254,0.000,0
161648.228,-27.344,-34.180,-3.418,-9.277,0.000,0
161648.232,-20.996,-26.855,-29.297,-30.762,0.000,0
161648.236,-21.484,-28.809,-32.227,-33.691,0.000,0
161648.240,-16.113,-30.273,-22.949,-3.418,0.000,0
161648.244,0.488,-31.250,-11.230,-15.137,0.000,0
161648.248,-3.906,-34.180,-19.043,-32.715,0.000,0
161648.252,-14.160,-33.691,-41.016,-17.090,0.000,0
161648.256,-23.438,-32.715,-27.832,3.418,0.000,0
161648.260,-5.371,-25.391,-13.672,-5.859,0.000,0
161648.263,8.789,-22.461,-6.836,-28.809,0.000,0
161648.267,5.859,-21.484,-3.906,-13.184,0.000,0
161648.271,-6.348,-26.855,-18.066,-18.066,0.000,0
161648.275,-11.719,-32.715,-20.508,-38.574,0.000,0
161648.279,3.418,-24.902,-33.691,-15.137,0.000,0
161648.283,-12.207,-29.297,-22.949,-4.883,0.000,0
161648.287,-34.180,-39.551,-16.113,-30.762,0.000,0
161648.291,-25.391,-40.039,-33.203,-39.551,0.000,0
161648.295,-16.602,-34.180,-36.133,-10.742,0.000,0
161648.299,-35.645,-33.691,-59.082,-0.977,0.000,0
161648.303,-14.160,-31.250,-29.297,-18.066,0.000,0
161648.306,25.391,-17.578,8.789,-13.184,0.000,0
161648.310,1.465,-19.531,-20.508,-12.207,0.000,0
161648.314,-48.828,-33.691,-49.805,-21.973,0.000,0
161648.318,-52.246,-31.738,-44.434,8.301,0.000,0
161648.322,-20.508,-24.902,-23.926,-10.742,0.000,0
161648.326,-20.508,-30.273,-23.438,-47.363,0.000,0
161648.330,-27.344,-33.691,-39.062,-10.254,0.000,0
161648.334,-13.672,-30.762,-23.926,13.184,0.000,0
161648.338,-4.883,-24.902,-18.555,2.930,0.000,0
161648.342,7.324,-23.926,-15.625,-12.695,0.000,0
161648.346,1.465,-34.180,-8.789,-4.395,0.000,0
161648.349,-22.949,-34.180,-31.738,-2.930,0.000,0
161648.353,-8.301,-27.832,-42.969,-18.066,0.000,0
161648.357,10.742,-26.855,-30.762,-4.395,0.000,0
161648.361,-10.742,-27.832,-11.230,-2.441,0.000,0
161648.365,-10.742,-23.438,-6.836,-1.465,0.000,0
161648.369,5.371,-25.879,-32.227,-14.160,0.000,0
161648.373,-5.859,-30.762,-32.227,4.395,0.000,0
161648.377,-8.301,-33.691,-15.625,5.859,0.000,0
161648.381,-15.137,-34.668,-22.949,-45.410,0.000,0
161648.385,-24.902,-31.250,-27.344,-49.805,0.000,0
161648.388,-9.277,-31.250,-24.414,12.695,0.000,0
161648.392,-17.090,-26.367,-5.371,13.184,0.000,0
161648.396,-37.598,-24.902,-36.621,-15.137,0.000,0
161648.400,-20.020,-26.855,-38.086,-13.184,0.000,0
161648.404,-10.742,-24.902,-8.301,-14.160,0.000,0
161648.408,-21.973,-30.273,-26.367,-17.090,0.000,0
161648.412,-27.832,-27.832,-28.809,-23.926,0.000,0
161648.416,-14.648,-21.484,-42.969,-5.859,0.000,0
161648.420,-0.977,-23.438,-29.785,-1.953,0.000,0
161648.424,-0.977,-21.973,-2.930,-40.527,0.000,0
161648.428,-16.113,-29.297,-40.039,-23.438,0.000,0
161648.431,-32.715,-31.250,-51.758,-3.418,0.000,0
161648.435,-38.574,-31.250,-37.598,-7.812,0.000,0
161648.439,-34.668,-33.691,-32.715,2.441,0.000,0
161648.443,-31.250,-30.762,-39.062,-36.621,0.000,0
161648.447,-31.250,-35.645,-46.875,-36.133,0.000,0
161648.451,-17.090,-40.527,-35.156,-16.602,0.000,0
161648.455,-22.461,-36.133,-40.039,-38.574,0.000,0
161648.459,-19.531,-32.227,-36.621,-11.719,0.000,0
161648.463,2.930,-39.551,-29.785,24.902,0.000,0
161648.467,6.836,-31.250,-29.785,23.438,0.000,0
161648.471,-6.836,-24.414,-33.203,-11.719,0.000,0
161648.474,-6.836,-23.926,-35.156,20.508,0.000,0
161648.478,-0.977,-19.531,-24.414,35.156,0.000,0
161648.482,-25.391,-19.043,-24.902,-38.574,0.000,0
161648.486,12.695,-13.672,-31.250,-23.438,0.000,0
161648.490,27.832,-13.672,-25.391,39.062,0.000,0
161648.494,12.207,-18.066,-22.461,32.227,0.000,0
161648.498,-21.973,-14.648,-19.531,-32.227,0.000,0
161648.502,-72.754,-16.113,-8.789,-63.965,0.000,0
161648.506,-84.473,-27.344,-22.949,-33.203,0.000,0
161648.510,-80.566,-25.879,-28.809,-52.246,0.000,0
161648.513,-30.762,-21.973,-22.949,1.465,0.000,0
161648.517,3.906,-21.484,-26.855,-4.883,0.000,0
161648.521,-6.348,-20.020,-15.137,-92.773,0.000,0
161648.525,-25.879,-21.484,-22.949,-36.621,0.000,0
161648.529,-31.738,-26.855,-39.062,6.348,0.000,0
161648.533,-38.086,-26.367,-39.551,-53.223,0.000,0
161648.537,-25.391,-28.809,-26.367,-41.016,0.000,0
161648.541,-58.105,-32.715,-9.277,-1.953,0.000,0
161648.545,-84.473,-32.227,-32.227,-53.711,0.000,0
161648.549,-17.090,-21.973,-26.367,-93.750,0.000,0
161648.553,-1.465,-24.414,-16.113,-26.367,0.000,0
161648.556,-48.340,-31.250,-11.719,-0.977,0.000,0
161648.560,-76.660,-33.203,-17.090,-75.195,0.000,0
161648.564,-53.223,-39.551,-37.109,-99.609,0.000,0
161648.568,-43.945,-37.109,-25.879,-35.645,0.000,0
161648.572,-21.484,-32.227,-23.438,-2.930,0.000,0
161648.576,-26.855,-31.738,-33.203,-42.969,0.000,0
161648.580,-77.637,-32.715,-19.043,-107.422,0.000,0
161648.584,-46.875,-34.180,-20.996,-48.828,0.000,0
161648.588,-30.762,-44.434,-30.762,-7.812,0.000,0
161648.592,-82.031,-44.922,-41.504,-57.617,0.000,0
161648.596,-79.102,-33.691,-35.645,-61.523,0.000,0
161648.599,-36.133,-37.109,-11.230,-55.176,0.000,0
161648.603,-62.988,-48.828,-28.320,-102.051,0.000,0
161648.607,-88.867,-47.363,-45.410,-77.637,0.000,0
161648.611,-58.594,-44.922,-47.852,-32.227,0.000,0
161648.615,-28.320,-40.039,-23.926,-35.645,0.000,0
161648.619,-45.898,-35.156,-1.953,-64.941,0.000,0
161648.623,-52.734,-32.227,-25.391,-61.035,0.000,0
161648.627,-58.105,-38.086,-31.738,-77.637,0.000,0
161648.631,-51.270,-28.809,-21.973,-103.027,0.000,0
161648.635,-37.598,-29.297,-36.133,-64.941,0.000,0
161648.638,-29.297,-35.156,-17.578,-61.523,0.000,0
161648.642,-34.180,-29.297,-7.324,-58.105,0.000,0
161648.646,-16.602,-20.508,-18.555,12.207,0.000,0
161648.650,2.441,-22.949,-22.461,-9.277,0.000,0
161648.654,-34.668,-37.109,-25.879,-60.059,0.000,0
161648.658,-55.664,-39.551,-10.742,-43.457,0.000,0
161648.662,-13.184,-30.273,-19.531,-42.969,0.000,0
161648.666,17.578,-29.785,-30.762,-41.992,0.000,0
161648.670,0.488,-30.762,-34.180,-5.371,0.000,0
161648.674,-19.531,-25.879,-31.738,-1.953,0.000,0
161648.678,-8.789,-23.926,-14.648,-37.598,0.000,0
161648.681,-15.137,-23.438,-31.738,-39.551,0.000,0
161648.685,-20.508,-21.973,-39.062,-2.441,0.000,0
161648.689,-13.184,-22.949,-24.902,16.602,0.000,0
161648.693,12.695,-21.484,-19.531,-7.812,0.000,0
161648.697,0.977,-19.531,-24.902,-45.898,0.000,0
161648.701,-60.059,-25.391,-20.996,-55.176,0.000,0
161648.705,-59.082,-29.785,-5.371,-9.766,0.000,0
161648.709,-12.695,-31.250,-29.297,0.488,0.000,0
161648.713,-12.207,-28.809,-41.992,-41.504,0.000,0
161648.717,-69.824,-34.180,-25.391,-18.555,0.000,0
161648.721,-53.223,-29.785,-20.020,2.441,0.000,0
161648.724,0.488,-19.531,-22.949,-79.590,0.000,0
161648.728,0.977,-21.973,-33.203,-44.434,0.000,0
161648.732,-25.879,-27.344,-36.133,10.254,0.000,0
161648.736,-51.758,-26.855,-20.020,-84.473,0.000,0
161648.740,-16.113,-20.996,-14.160,-54.688,0.000,0
161648.744,11.719,-18.066,-36.133,23.438,0.000,0
161648.748,-5.859,-23.926,-52.734,-2.441,0.000,0
161648.752,-22.461,-31.250,-23.438,-32.227,0.000,0
161648.756,-8.789,-25.391,-16.602,-20.020,0.000,0
161648.760,-8.301,-23.438,-28.320,19.043,0.000,0
161648.763,-37.109,-29.297,-39.062,-39.062,0.000,0
161648.767,-35.156,-29.297,-34.668,-57.617,0.000,0
161648.771,-25.879,-28.809,-31.738,3.906,0.000,0
161648.775,-11.230,-29.785,-29.297,-16.602,0.000,0
161648.779,15.137,-24.902,-23.438,-48.828,0.000,0
161648.783,12.207,-28.809,-37.598,-38.574,0.000,0
161648.787,-10.254,-28.809,-36.133,-21.973,0.000,0
161648.791,-43.945,-27.832,-32.227,-3.418,0.000,0
161648.795,-54.199,-32.227,-32.715,23.438,0.000,0
161648.799,-15.137,-33.203,-15.625,2.441,0.000,0
161648.803,0.977,-35.645,-26.855,4.395,0.000,0
161648.806,-16.113,-36.133,-13.672,8.301,0.000,0
161648.810,-39.062,-33.203,-25.391,-4.883,0.000,0
161648.814,-20.996,-36.621,-37.109,4.883,0.000,0
161648.818,27.832,-32.227,-15.137,9.766,0.000,0
161648.822,-11.719,-32.227,-26.367,-9.766,0.000,0
161648.826,-32.227,-32.715,-31.250,2.930,0.000,0
161648.830,15.137,-24.902,-19.043,2.441,0.000,0
161648.834,-0.488,-24.414,-19.043,-2.441,0.000,0
161648.838,-2.930,-33.691,-26.855,2.441,0.000,0
161648.842,18.066,-28.809,-16.602,-16.113,0.000,0
161648.846,11.719,-25.879,-28.809,17.090,0.000,0
161648.849,11.230,-29.297,-40.527,4.395,0.000,0
161648.853,15.137,-29.785,-18.555,1.465,0.000,0
161648.857,-9.766,-33.203,-13.672,11.719,0.000,0
161648.861,-9.277,-33.203,-33.203,-13.672,0.000,0
161648.865,-9.766,-35.156,-35.156,-7.324,0.000,0
161648.869,-5.859,-33.203,-20.020,-37.109,0.000,0
161648.873,13.672,-21.484,-5.859,-14.160,0.000,0
161648.877,11.719,-19.043,-5.859,6.836,0.000,0
161648.881,0.000,-23.926,-20.508,-12.207,0.000,0
161648.885,-27.344,-32.715,-30.273,-0.977,0.000,0
161648.888,-27.832,-34.180,-22.949,-18.555,0.000,0
161648.892,-7.324,-24.414,-26.855,-6.836,0.000,0
161648.896,-25.391,-28.320,-23.926,-12.207,0.000,0
161648.900,-22.949,-27.344,-25.391,-16.113,0.000,0
161648.904,12.207,-11.230,-20.508,-3.906,0.000,0
161648.908,18.555,-7.324,-8.301,-8.789,0.000,0
161648.912,4.395,-12.207,-27.832,14.160,0.000,0
161648.916,-10.254,-19.531,-16.113,19.043,0.000,0
161648.920,4.395,-17.578,-10.742,28.320,0.000,0
161648.924,14.648,-16.602,-26.367,36.621,0.000,0
161648.928,-6.836,-24.414,-23.926,0.000,0.000,0
161648.931,-23.438,-21.973,-15.625,6.836,0.000,0
161648.935,-14.160,-17.578,-9.766,1.465,0.000,0
161648.939,-4.395,-18.555,-28.809,7.812,0.000,0
161648.943,2.441,-20.508,-35.645,11.230,0.000,0
161648.947,-11.719,-32.227,-34.180,-36.133,0.000,0
161648.951,-28.809,-36.133,-36.621,-14.648,0.000,0
161648.955,-15.625,-31.738,-12.207,-9.766,0.000,0
161648.959,-11.719,-31.250,-17.578,0.977,0.000,0
161648.963,-15.625,-30.273,-31.250,24.902,0.000,0
161648.967,-7.324,-27.832,-25.879,-5.859,0.000,0
161648.971,-25.391,-30.273,-25.391,-19.531,0.000,0
161648.974,-18.066,-24.902,-11.230,-10.742,0.000,0
161648.978,-16.602,-22.949,-8.789,-27.832,0.000,0
161648.982,-39.062,-30.273,-28.809,-35.156,0.000,0
161648.986,-18.066,-29.297,-35.156,3.418,0.000,0
161648.990,4.395,-22.949,-25.391,0.977,0.000,0
161648.994,-4.883,-19.531,-9.277,-30.762,0.000,0
161648.998,-23.438,-20.996,-27.832,-40.039,0.000,0
161649.002,-31.250,-26.855,-51.270,-29.785,0.000,0
161649.006,-24.414,-24.902,-33.691,0.977,0.000,0
161649.010,-31.738,-25.391,-20.508,-1.465,0.000,0
161649.013,-43.945,-31.250,-36.133,-53.711,0.000,0
161649.017,-36.621,-26.367,-45.898,-49.805,0.000,0
161649.021,-35.156,-21.973,-24.902,-23.438,0.000,0
161649.025,-37.109,-23.926,-39.551,-27.832,0.000,0
161649.029,-35.645,-26.855,-63.477,-33.203,0.000,0
161649.033,-36.133,-32.715,-42.969,-32.227,0.000,0
161649.037,-30.273,-28.809,-16.113,-18.066,0.000,0
161649.041,-28.320,-20.020,-32.715,-13.184,0.000,0
161649.045,-37.109,-21.973,-45.410,-8.789,0.000,0
161649.049,-23.926,-20.996,-31.250,-24.902,0.000,0
161649.053,-22.949,-17.578,-23.926,-54.199,0.000,0
161649.056,-39.551,-20.020,-26.367,-37.109,0.000,0
161649.060,-37.598,-24.414,-43.945,-46.875,0.000,0
161649.064,-47.363,-32.227,-59.082,-68.359,0.000,0
161649.068,-31.738,-22.949,-37.598,-50.781,0.000,0
161649.072,-12.207,-14.160,-30.762,-36.621,0.000,0
161649.076,-29.785,-23.438,-51.758,-33.203,0.000,0
161649.080,-31.738,-27.344,-34.668,-21.484,0.000,0
161649.084,-22.949,-20.508,-6.348,-47.363,0.000,0
161649.088,-39.062,-23.926,-38.086,-61.035,0.000,0
161649.092,-59.082,-26.855,-42.480,-54.199,0.000,0
161649.096,-49.316,-21.484,-34.180,-44.922,0.000,0
161649.099,-43.457,-22.461,-52.246,-12.207,0.000,0
161649.103,-29.297,-19.043,-47.363,-9.277,0.000,0
161649.107,-12.207,-13.672,-34.180,-34.180,0.000,0
161649.111,-33.691,-14.160,-19.043,-55.664,0.000,0
161649.115,-36.133,-18.066,-20.996,-36.621,0.000,0
161649.119,-28.809,-22.949,-31.738,-21.484,0.000,0
161649.123,-29.785,-21.973,-18.555,-19.043,0.000,0
161649.127,-31.738,-25.391,-28.320,5.859,0.000,0
161649.131,-39.062,-29.785,-42.480,-17.090,0.000,0
161649.135,-28.320,-21.973,-31.250,-5.371,0.000,0
161649.138,-25.879,-21.973,-27.344,8.301,0.000,0
161649.142,-35.156,-28.809,-31.738,-30.762,0.000,0
161649.146,-34.180,-26.855,-31.250,-40.527,0.000,0
161649.150,-40.527,-26.367,-21.484,-25.879,0.000,0
161649.154,-45.410,-30.762,-28.809,-22.949,0.000,0
161649.158,-30.762,-28.320,-38.086,-20.020,0.000,0
161649.162,-33.203,-28.320,-37.598,-21.973,0.000,0
161649.166,-38.574,-32.715,-50.781,-33.203,0.000,0
161649.170,-31.250,-30.273,-24.414,-26.855,0.000,0
161649.174,-34.668,-32.715,-25.391,-21.484,0.000,0
161649.178,-22.949,-34.180,-60.059,-21.484,0.000,0
161649.181,-20.020,-34.180,-41.504,-16.602,0.000,0
161649.185,-29.297,-35.156,-25.879,-13.672,0.000,0
161649.189,-24.414,-34.668,-20.996,-24.414,0.000,0
161649.193,-30.762,-34.668,-33.691,-25.391,0.000,0
161649.197,-27.832,-33.691,-42.969,-11.719,0.000,0
161649.201,-28.809,-38.574,-41.016,-26.367,0.000,0
161649.205,-28.809,-37.598,-39.062,-28.809,0.000,0
161649.209,-28.809,-34.180,-27.344,-15.137,0.000,0
161649.213,-23.926,-32.227,-12.207,-30.762,0.000,0
161649.217,-25.879,-28.809,-15.625,-25.391,0.000,0
161649.221,-21.973,-25.391,-39.062,-27.832,0.000,0
161649.224,-13.184,-23.926,-37.598,-25.879,0.000,0
161649.228,-23.926,-23.438,-16.602,-29.785,0.000,0
161649.232,-41.016,-23.926,-15.625,-41.016,0.000,0
161649.236,-47.852,-27.344,-42.480,-21.484,0.000,0
161649.240,-46.387,-27.832,-41.504,-20.020,0.000,0
161649.244,-47.363,-27.832,-30.273,-27.832,0.000,0
161649.248,-39.062,-27.832,-11.230,-21.484,0.000,0
161649.252,-28.809,-19.043,0.000,-16.113,0.000,0
161649.256,-33.691,-13.672,-16.113,-31.738,0.000,0
161649.260,-38.574,-14.648,-13.672,-36.133,0.000,0
161649.263,-40.527,-20.020,-28.320,-23.438,0.000,0
161649.267,-33.203,-24.414,-33.691,-21.973,0.000,0
161649.271,-24.414,-24.414,-20.996,-29.785,0.000,0
161649.275,-20.508,-21.484,-29.785,-13.672,0.000,0
161649.279,-18.555,-21.484,-32.227,-6.836,0.000,0
161649.283,-21.973,-23.438,-35.645,-15.625,0.000,0
161649.287,-19.043,-19.531,-14.648,-14.160,0.000,0
161649.291,-23.926,-19.043,-5.859,-19.043,0.000,0
161649.295,-26.367,-22.461,-40.527,-46.875,0.000,0
161649.299,-27.832,-23.926,-42.969,-44.434,0.000,0
161649.303,-26.855,-18.555,-19.531,3.418,0.000,0
161649.306,-20.508,-17.578,-2.930,-9.766,0.000,0
161649.310,-18.555,-20.508,-18.555,-40.039,0.000,0
161649.314,-18.555,-23.926,-30.273,-26.367,0.000,0
161649.318,-22.949,-26.367,-17.090,-28.809,0.000,0
161649.322,-23.926,-23.438,-34.668,-13.184,0.000,0
161649.326,-25.879,-21.484,-24.414,-16.113,0.000,0
161649.330,-24.414,-19.531,-9.277,-44.434,0.000,0
161649.334,-22.949,-22.949,-16.602,-30.273,0.000,0
161649.338,-22.461,-22.461,-15.625,-0.977,0.000,0
161649.342,-28.809,-23.438,-21.973,-8.301,0.000,0
161649.346,-29.785,-25.391,-22.949,-29.785,0.000,0
161649.349,-29.785,-23.438,-19.531,-41.504,0.000,0
161649.353,-32.227,-23.438,-18.555,-31.738,0.000,0
161649.357,-26.367,-23.438,-22.949,-19.043,0.000,0
161649.361,-29.785,-22.949,-36.133,-35.645,0.000,0
161649.365,-31.250,-22.949,-11.719,-40.527,0.000,0
161649.369,-37.109,-27.344,-7.324,-51.758,0.000,0
161649.373,-40.527,-28.809,-28.809,-51.758,0.000,0
161649.377,-43.945,-32.715,-33.203,-38.086,0.000,0
161649.381,-47.363,-31.738,-31.250,-31.250,0.000,0
161649.385,-40.527,-28.809,-24.414,-13.672,0.000,0
161649.388,-39.551,-32.227,-14.648,-23.438,0.000,0
161649.392,-30.762,-30.762,-19.043,-57.617,0.000,0
161649.396,-26.855,-25.879,-20.996,-52.734,0.000,0
161649.400,-32.715,-20.508,-30.762,-34.180,0.000,0
161649.404,-38.574,-22.461,-38.086,-22.949,0.000,0
161649.408,-46.387,-27.344,-12.207,-37.109,0.000,0
161649.412,-52.734,-27.832,-23.438,-50.293,0.000,0
161649.416,-46.387,-34.180,-49.805,-46.875,0.000,0
161649.420,-34.668,-33.203,-23.926,-33.691,0.000,0
161649.424,-43.945,-34.180,-14.160,-23.926,0.000,0
161649.428,-52.734,-39.062,-21.973,-41.504,0.000,0
161649.431,-45.898,-34.180,-25.391,-33.203,0.000,0
161649.435,-33.203,-29.297,-14.648,-27.344,0.000,0
161649.439,-30.273,-32.227,-17.578,-39.551,0.000,0
161649.443,-36.133,-31.250,-31.250,-23.926,0.000,0
161649.447,-29.785,-27.832,-30.273,-22.949,0.000,0
161649.451,-29.297,-25.391,-36.133,-21.973,0.000,0
161649.455,-36.621,-23.438,-20.508,0.488,0.000,0
161649.459,-33.203,-25.879,-23.438,-6.836,0.000,0
161649.463,-27.344,-27.344,-36.133,-27.344,0.000,0
161649.467,-23.926,-25.391,-16.602,-30.273,0.000,0
161649.471,-22.949,-19.531,-19.531,-26.855,0.000,0
161649.474,-25.879,-23.926,-38.086,-25.879,0.000,0
161649.478,-30.273,-29.785,-50.293,-29.297,0.000,0
161649.482,-26.367,-27.344,-36.133,-23.926,0.000,0
161649.486,-21.484,-26.855,-11.230,-26.855,0.000,0
161649.490,-15.625,-26.855,-24.414,-15.137,0.000,0
161649.494,-20.996,-30.273,-52.246,-7.812,0.000,0
161649.498,-32.227,-34.180,-44.434,-14.648,0.000,0
161649.502,-29.785,-31.250,-20.020,-7.324,0.000,0
161649.506,-20.508,-25.879,-21.973,-5.859,0.000,0
161649.510,-18.066,-21.973,-27.832,-24.902,0.000,0
161649.513,-28.320,-25.391,-31.250,-34.668,0.000,0
161649.517,-26.367,-23.926,-27.832,-12.695,0.000,0
161649.521,-21.484,-20.508,-20.020,-8.301,0.000,0
161649.525,-18.555,-23.926,-17.578,-13.672,0.000,0
161649.529,-25.391,-21.484,-28.320,-12.207,0.000,0
161649.533,-30.273,-28.809,-38.574,-11.230,0.000,0
161649.537,-27.344,-35.645,-22.461,-13.184,0.000,0
161649.541,-31.250,-33.203,-31.250,-14.160,0.000,0
161649.545,-34.180,-27.344,-16.113,-19.531,0.000,0
161649.549,-30.273,-24.902,-9.766,-21.484,0.000,0
161649.553,-23.926,-29.297,-38.086,-15.625,0.000,0
161649.556,-32.227,-32.227,-35.645,-14.648,0.000,0
161649.560,-40.039,-33.203,-35.645,-16.113,0.000,0
161649.564,-36.133,-30.762,-24.902,-30.762,0.000,0
161649.568,-28.809,-24.902,-20.508,-35.645,0.000,0
161649.572,-32.715,-26.367,-23.926,-31.250,0.000,0
161649.576,-33.691,-25.391,-19.043,-24.414,0.000,0
161649.580,-27.832,-23.438,-27.832,-12.695,0.000,0
161649.584,-31.250,-24.902,-21.973,-18.066,0.000,0
161649.588,-33.691,-25.879,-14.648,-40.039,0.000,0
161649.592,-38.574,-29.785,-28.320,-44.922,0.000,0
161649.596,-36.621,-30.762,-42.480,-41.992,0.000,0
161649.599,-22.949,-31.738,-38.086,-31.250,0.000,0
161649.603,-27.344,-35.156,-16.113,-26.855,0.000,0
161649.607,-35.645,-27.832,-13.184,-31.738,0.000,0
161649.611,-25.391,-22.461,-28.809,-27.832,0.000,0
161649.615,-27.832,-23.926,-27.832,-24.902,0.000,0
161649.619,-27.344,-22.949,-28.320,-11.719,0.000,0
161649.623,-23.438,-26.855,-26.367,-11.230,0.000,0
161649.627,-26.855,-28.320,-31.250,-22.949,0.000,0
161649.631,-29.785,-25.391,-33.203,-11.719,0.000,0
161649.635,-36.621,-27.344,-19.531,-9.766,0.000,0
161649.638,-28.320,-26.367,-26.855,-13.672,0.000,0
161649.642,-26.367,-27.832,-30.762,-26.367,0.000,0
161649.646,-42.480,-36.133,-28.320,-44.434,0.000,0
161649.650,-39.062,-36.621,-39.551,-26.855,0.000,0
161649.654,-28.809,-34.180,-35.156,-15.137,0.000,0
161649.658,-29.297,-33.691,-42.969,-16.602,0.000,0
161649.662,-33.691,-37.598,-27.344,-22.461,0.000,0
161649.666,-33.203,-39.551,-10.742,-35.645,0.000,0
161649.670,-29.297,-36.621,-36.133,-17.090,0.000,0
161649.674,-25.879,-34.180,-37.598,-7.812,0.000,0
161649.678,-16.602,-26.367,-24.414,-16.113,0.000,0
161649.681,0.000,-20.996,-10.254,-13.184,0.000,0
161649.685,-1.953,-26.855,-20.020,-24.414,0.000,0
161649.689,-19.043,-25.391,-38.574,-30.273,0.000,0
161649.693,-17.090,-15.137,-31.738,-10.254,0.000,0
161649.697,-16.602,-17.578,-29.785,-14.160,0.000,0
161649.701,-24.902,-21.484,-20.508,-36.621,0.000,0
161649.705,-29.785,-19.531,-10.742,-37.109,0.000,0
161649.709,-32.227,-20.508,-27.832,-28.809,0.000,0
161649.713,-25.879,-16.113,-24.902,-36.621,0.000,0
161649.717,-17.578,-14.160,-14.648,-46.387,0.000,0
161649.721,-17.090,-19.043,-11.230,-37.109,0.000,0
161649.724,-13.184,-16.602,-3.906,-24.414,0.000,0
161649.728,-9.277,-19.531,-7.812,-6.348,0.000,0
161649.732,-15.625,-23.438,-27.344,0.000,0.000,0
161649.736,-24.902,-24.414,-39.062,-13.184,0.000,0
161649.740,-24.902,-21.484,-12.207,-10.254,0.000,0
161649.744,-22.949,-20.508,-9.766,-16.602,0.000,0
161649.748,-23.438,-22.949,-24.902,-22.949,0.000,0
161649.752,-27.344,-25.879,-15.625,-27.344,0.000,0
161649.756,-33.691,-27.344,-18.066,-24.414,0.000,0
161649.760,-36.133,-24.414,-28.320,-20.996,0.000,0
161649.763,-29.785,-24.902,-15.137,-25.879,0.000,0
161649.767,-27.832,-25.391,-13.672,-20.996,0.000,0
161649.771,-32.227,-26.367,-24.902,-20.508,0.000,0
161649.775,-21.484,-25.879,-41.504,-23.438,0.000,0
161649.779,-16.602,-27.832,-40.039,-18.066,0.000,0
161649.783,-25.391,-26.855,-1.953,-19.531,0.000,0
161649.787,-26.855,-20.020,7.324,-11.230,0.000,0
161649.791,-23.926,-24.902,-15.137,-6.348,0.000,0
161649.795,-17.578,-29.297,-22.949,-11.230,0.000,0
161649.799,-13.184,-23.438,-15.625,0.488,0.000,0
161649.803,-14.160,-21.973,-3.906,-17.090,0.000,0
161649.806,-13.672,-23.926,-12.207,-30.273,0.000,0
161649.810,-10.742,-17.090,-20.020,-13.184,0.000,0
161649.814,-11.719,-14.648,-10.742,-18.066,0.000,0
161649.818,-20.996,-21.973,-8.301,-26.855,0.000,0
161649.822,-20.020,-22.461,-15.137,-34.180,0.000,0
161649.826,-16.602,-21.973,-27.832,-30.273,0.000,0
161649.830,-28.809,-21.973,-14.160,-31.738,0.000,0
161649.834,-26.367,-20.508,-16.113,-39.551,0.000,0
161649.838,-9.277,-19.043,-44.922,-18.555,0.000,0
161649.842,-20.996,-19.531,-23.926,-6.348,0.000,0
161649.846,-27.344,-22.461,-16.602,-10.742,0.000,0
161649.849,-16.602,-23.438,-24.902,-22.461,0.000,0
161649.853,-18.555,-22.949,-20.996,-34.668,0.000,0
161649.857,-25.391,-26.367,-16.602,-40.039,0.000,0
161649.861,-26.367,-25.879,-8.789,-37.109,0.000,0
161649.865,-30.273,-26.855,-20.996,-39.062,0.000,0
161649.869,-28.320,-25.879,-38.574,-34.668,0.000,0
161649.873,-21.484,-24.902,-27.832,-12.695,0.000,0
161649.877,-31.250,-22.949,-23.926,-15.137,0.000,0
161649.881,-34.668,-19.043,-20.996,-36.621,0.000,0
161649.885,-31.738,-20.996,-13.672,-16.602,0.000,0
161649.888,-30.762,-24.902,-24.902,-4.395,0.000,0
161649.892,-23.438,-25.391,-25.391,-6.836,0.000,0
161649.896,-25.391,-25.879,-29.297,0.488,0.000,0
161649.900,-33.691,-27.832,-13.184,-9.766,0.000,0
161649.904,-33.691,-32.227,-9.277,-17.578,0.000,0
161649.908,-35.645,-33.203,-31.250,-21.973,0.000,0
161649.912,-25.391,-30.273,-32.715,-26.367,0.000,0
161649.916,-19.043,-27.832,-39.551,-18.555,0.000,0
161649.920,-27.832,-21.484,-6.348,-22.461,0.000,0
161649.924,-27.832,-19.043,-0.488,-19.043,0.000,0
161649.928,-20.020,-20.020,-33.691,-5.371,0.000,0
161649.931,-13.184,-22.461,-19.043,-12.207,0.000,0
161649.935,-16.602,-23.926,-17.090,3.418,0.000,0
161649.939,-13.672,-20.996,-27.832,-2.930,0.000,0
161649.943,-6.348,-20.508,-6.348,-32.715,0.000,0
161649.947,-9.277,-23.438,-6.348,-18.555,0.000,0
161649.951,-10.742,-29.785,-16.113,5.371,0.000,0
161649.955,-9.277,-31.738,-20.020,1.465,0.000,0
161649.959,-13.184,-27.344,-18.555,-22.461,0.000,0
161649.963,-14.160,-23.438,-11.719,-25.391,0.000,0
161649.967,-10.742,-19.531,-7.324,-16.602,0.000,0
161649.971,-7.324,-20.996,-15.137,-19.043,0.000,0
161649.974,-10.254,-26.367,-28.809,-3.418,0.000,0
161649.978,-16.113,-26.367,-15.625,-14.648,0.000,0
161649.982,-13.672,-23.438,-2.441,-24.414,0.000,0
161649.986,-7.324,-26.367,-21.973,-18.066,0.000,0
161649.990,-10.254,-31.250,-20.996,-12.207,0.000,0
161649.994,-15.625,-25.879,-12.207,-11.230,0.000,0
161649.998,-16.113,-22.949,-6.348,-24.414,0.000,0
161650.002,-19.043,-23.926,-1.953,-33.691,0.000,0
161650.006,-22.949,-22.949,-13.672,-32.715,0.000,0
161650.010,-31.738,-20.996,-10.742,-21.973,0.000,0
161650.013,-32.715,-23.926,-17.090,-3.418,0.000,0
161650.017,-22.949,-30.762,-22.461,-25.391,0.000,0
161650.021,-25.879,-27.344,-6.836,-24.414,0.000,0
161650.025,-42.969,-23.438,-17.090,-8.789,0.000,0
161650.029,-40.527,-25.879,-26.367,-14.160,0.000,0
161650.033,-34.180,-24.414,-21.973,-16.113,0.000,0
161650.037,-36.133,-22.949,-12.695,-32.715,0.000,0
161650.041,-31.250,-26.367,-18.555,-35.156,0.000,0
161650.045,-24.414,-32.715,-36.133,-30.762,0.000,0
161650.049,-18.066,-31.738,-28.320,-17.578,0.000,0
161650.053,-27.344,-28.809,-18.555,-10.742,0.000,0
161650.056,-33.691,-27.832,-17.578,-17.090,0.000,0
161650.060,-23.926,-28.320,-15.137,-19.531,0.000,0
161650.064,-28.320,-29.297,-24.414,-27.832,0.000,0
161650.068,-34.180,-29.785,-20.508,-39.062,0.000,0
161650.072,-23.926,-27.344,-9.766,-20.020,0.000,0
161650.076,-22.949,-22.461,-24.902,-1.953,0.000,0
161650.080,-28.320,-22.949,-24.414,-12.207,0.000,0
161650.084,-25.391,-22.461,-13.672,-15.625,0.000,0
161650.088,-25.391,-25.391,-24.902,-5.371,0.000,0
161650.092,-26.367,-26.367,-35.156,-10.254,0.000,0
161650.096,-28.320,-22.949,-21.484,-15.137,0.000,0
161650.099,-30.273,-25.879,-9.277,-28.809,0.000,0
161650.103,-26.855,-26.367,-20.508,-23.926,0.000,0
161650.107,-30.273,-26.855,-31.250,-19.531,0.000,0
161650.111,-25.879,-30.273,-41.504,-29.785,0.000,0
161650.115,-22.461,-26.855,-24.902,-19.043,0.000,0
161650.119,-29.297,-22.949,-5.371,-29.297,0.000,0
161650.123,-24.414,-23.926,-25.391,-28.320,0.000,0
161650.127,-25.879,-24.414,-41.992,-16.602,0.000,0
161650.131,-24.902,-27.344,-27.344,-19.043,0.000,0
161650.135,-18.555,-28.809,-21.484,-14.648,0.000,0
161650.138,-24.414,-29.785,-11.230,-30.273,0.000,0
161650.142,-27.832,-27.832,-14.648,-33.691,0.000,0
161650.146,-18.066,-24.414,-32.227,-20.508,0.000,0
161650.150,-13.672,-26.855,-41.016,-19.043,0.000,0
161650.154,-16.113,-31.250,-41.016,-12.207,0.000,0
161650.158,-19.531,-26.855,-7.324,-17.090,0.000,0
161650.162,-25.391,-21.973,-3.418,-20.508,0.000,0
161650.166,-23.926,-21.973,-29.785,-14.160,0.000,0
161650.170,-23.926,-23.926,-22.949,2.441,0.000,0
161650.174,-25.879,-22.949,-17.578,-1.953,0.000,0
161650.178,-28.320,-20.508,-15.137,-32.715,0.000,0
161650.181,-35.645,-24.902,-14.648,-36.621,0.000,0
161650.185,-25.879,-30.762,-27.832,-18.066,0.000,0
161650.189,-12.695,-27.832,-21.973,-11.230,0.000,0
161650.193,-20.508,-26.367,-13.184,-13.184,0.000,0
161650.197,-25.391,-28.320,-20.996,-16.113,0.000,0
161650.201,-26.855,-26.367,-29.785,-24.414,0.000,0
161650.205,-37.598,-27.832,-16.113,-25.879,0.000,0
161650.209,-34.668,-29.785,-12.695,-28.809,0.000,0
161650.213,-23.438,-28.320,-29.785,-34.668,0.000,0
161650.217,-22.949,-23.438,-6.348,-32.715,0.000,0
161650.221,-30.762,-27.344,-8.301,-36.133,0.000,0
161650.224,-30.273,-31.250,-35.156,-26.855,0.000,0
161650.228,-23.926,-28.320,-33.203,-11.230,0.000,0
161650.232,-36.133,-31.250,-24.414,-13.672,0.000,0
161650.236,-36.133,-27.832,-3.418,-20.996,0.000,0
161650.240,-24.414,-23.926,-5.859,-20.996,0.000,0
161650.244,-37.598,-25.391,-33.691,-4.883,0.000,0
161650.248,-42.480,-28.320,-8.789,-0.977,0.000,0
161650.252,-36.133,-27.344,-5.859,-11.719,0.000,0
161650.256,-27.832,-25.391,-33.203,-18.066,0.000,0
161650.260,-25.879,-20.020,-23.926,-15.625,0.000,0
161650.263,-26.855,-18.555,-22.461,0.000,0.000,0
161650.267,-17.578,-22.461,-24.902,2.441,0.000,0
161650.271,-10.254,-24.414,-29.785,-2.441,0.000,0
161650.275,-13.184,-25.391,-12.695,-26.367,0.000,0
161650.279,-20.508,-23.926,-16.602,-38.086,0.000,0
161650.283,-20.996,-23.926,-26.855,-29.297,0.000,0
161650.287,-22.949,-26.855,-17.578,-23.926,0.000,0
161650.291,-24.414,-25.391,-42.480,-18.066,0.000,0
161650.295,-21.973,-24.414,-20.996,-14.160,0.000,0
161650.299,-21.484,-25.879,-3.418,-19.043,0.000,0
161650.303,-11.230,-25.879,-39.551,-15.625,0.000,0
161650.306,-8.301,-25.391,-31.738,-11.719,0.000,0
161650.310,-12.207,-26.367,-21.973,-12.695,0.000,0
161650.314,-12.207,-25.879,-14.160,-15.137,0.000,0
161650.318,-11.230,-21.484,-7.812,-23.438,0.000,0
161650.322,-12.207,-22.461,-16.113,-16.602,0.000,0
161650.326,-22.949,-26.855,-17.578,-13.672,0.000,0
161650.330,-24.902,-35.156,-36.133,-13.672,0.000,0
161650.334,-20.020,-32.715,-21.484,-10.742,0.000,0
161650.338,-21.973,-26.367,-10.742,-8.301,0.000,0
161650.342,-22.461,-25.391,-23.438,-4.395,0.000,0
161650.346,-24.414,-26.855,-45.898,-9.277,0.000,0
161650.349,-26.367,-28.809,-37.109,-20.020,0.000,0
161650.353,-27.832,-19.043,-11.230,-18.555,0.000,0
161650.357,-27.344,-19.043,-18.066,-7.812,0.000,0
161650.361,-26.367,-24.414,-40.527,-12.695,0.000,0
161650.365,-37.598,-26.367,-53.711,-21.484,0.000,0
161650.369,-42.969,-28.809,-41.992,-27.344,0.000,0
161650.373,-44.922,-29.785,-31.250,-25.879,0.000,0
161650.377,-42.969,-31.738,-36.621,-33.691,0.000,0
161650.381,-41.992,-31.250,-46.387,-41.016,0.000,0
161650.385,-43.457,-25.879,-29.785,-26.367,0.000,0
161650.388,-37.109,-19.043,-23.926,-16.602,0.000,0
161650.392,-27.344,-17.090,-34.668,-14.160,0.000,0
161650.396,-24.414,-23.438,-24.902,-25.391,0.000,0
161650.400,-17.578,-28.320,-25.879,-20.020,0.000,0
161650.404,-3.906,-24.414,-33.691,-2.441,0.000,0
161650.408,-14.160,-23.926,-35.645,-12.695,0.000,0
161650.412,-23.438,-22.461,-31.250,-17.090,0.000,0
161650.416,-20.020,-21.484,-18.555,-15.625,0.000,0
161650.420,-22.949,-20.508,-27.344,-22.461,0.000,0
161650.424,-20.020,-19.043,-36.621,-31.738,0.000,0
161650.428,-18.555,-18.555,-25.879,-29.297,0.000,0
161650.431,-23.926,-22.461,-27.344,-21.973,0.000,0
161650.435,-19.531,-25.879,-29.785,-28.809,0.000,0
161650.439,-10.254,-20.020,-31.250,-16.113,0.000,0
161650.443,-7.324,-16.602,-26.855,-9.277,0.000,0
161650.447,-5.371,-18.555,-26.367,-9.766,0.000,0
161650.451,-9.766,-21.484,-22.461,-13.184,0.000,0
161650.455,-20.508,-25.879,-12.695,-39.062,0.000,0
161650.459,-33.691,-28.320,-32.715,-43.457,0.000,0
161650.463,-37.109,-28.320,-36.621,-35.156,0.000,0
161650.467,-32.227,-28.320,-37.598,-9.766,0.000,0
161650.471,-22.461,-28.320,-32.227,-12.207,0.000,0
161650.474,-25.391,-30.273,-18.555,-39.062,0.000,0
161650.478,-27.344,-28.809,-25.879,-34.180,0.000,0
161650.482,-28.320,-31.738,-32.715,-31.738,0.000,0
161650.486,-26.367,-34.180,-24.902,-21.973,0.000,0
161650.490,-19.531,-26.855,-14.648,-16.113,0.000,0
161650.494,-21.484,-24.414,-26.855,-31.738,0.000,0
161650.498,-19.043,-26.367,-29.297,-24.414,0.000,0
161650.502,-24.414,-26.367,-19.043,-11.719,0.000,0
161650.506,-32.227,-26.367,-29.785,-10.254,0.000,0
161650.510,-26.855,-30.762,-32.715,-17.578,0.000,0
161650.513,-27.344,-35.156,-24.902,-41.504,0.000,0
161650.517,-34.180,-35.156,-29.297,-37.109,0.000,0
161650.521,-40.527,-33.691,-34.668,-25.879,0.000,0
161650.525,-35.156,-33.691,-54.688,-21.973,0.000,0
161650.529,-33.691,-28.320,-37.109,-18.555,0.000,0
161650.533,-36.621,-23.926,-7.324,-23.926,0.000,0
161650.537,-31.738,-34.180,-33.203,-28.809,0.000,0
161650.541,-30.273,-37.598,-43.945,-20.020,0.000,0
161650.545,-23.926,-33.203,-34.180,-20.508,0.000,0
161650.549,-18.555,-27.832,-17.578,-18.555,0.000,0
161650.553,-23.438,-27.344,-6.348,-22.461,0.000,0
161650.556,-20.508,-29.785,-32.227,-8.301,0.000,0
161650.560,-17.090,-31.250,-52.246,-2.441,0.000,0
161650.564,-17.090,-26.367,-28.320,-29.297,0.000,0
161650.568,-24.414,-23.926,-14.160,-36.621,0.000,0
161650.572,-32.715,-30.273,-22.461,-38.574,0.000,0
161650.576,-28.320,-29.297,-33.203,-36.133,0.000,0
161650.580,-31.250,-28.809,-24.902,-30.762,0.000,0
161650.584,-37.109,-35.645,-42.480,-31.250,0.000,0
161650.588,-36.621,-30.273,-41.504,-29.785,0.000,0
161650.592,-38.086,-29.785,-20.508,-39.062,0.000,0
161650.596,-44.434,-36.133,-36.621,-39.551,0.000,0
161650.599,-39.062,-35.156,-44.434,-29.785,0.000,0
161650.603,-33.691,-34.180,-36.133,-18.066,0.000,0
161650.607,-37.109,-28.809,-22.461,-16.602,0.000,0
161650.611,-35.156,-27.832,-8.301,-30.762,0.000,0
161650.615,-36.133,-27.344,-20.020,-19.043,0.000,0
161650.619,-30.762,-19.531,-27.344,2.441,0.000,0
161650.623,-26.855,-19.531,-22.949,-10.254,0.000,0
161650.627,-26.367,-22.949,-29.785,-9.766,0.000,0
161650.631,-28.809,-27.832,-21.973,-30.273,0.000,0
161650.635,-28.320,-26.855,-22.949,-42.969,0.000,0
161650.638,-18.066,-23.438,-26.855,-31.250,0.000,0
161650.642,-22.949,-24.414,-38.574,-23.438,0.000,0
161650.646,-33.203,-25.879,-43.457,-20.020,0.000,0
161650.650,-30.762,-20.996,-10.742,-38.086,0.000,0
161650.654,-25.391,-19.531,-9.277,-31.250,0.000,0
161650.658,-27.344,-22.461,-30.762,-17.090,0.000,0
161650.662,-28.320,-23.926,-35.645,-13.672,0.000,0
161650.666,-27.344,-26.855,-22.461,-10.254,0.000,0
161650.670,-29.785,-28.320,-4.395,-24.414,0.000,0
161650.674,-30.762,-28.320,-31.250,-31.250,0.000,0
161650.678,-32.227,-30.273,-43.457,-31.738,0.000,0
161650.681,-39.062,-34.668,-32.715,-29.785,0.000,0
161650.685,-39.551,-33.203,-35.645,-25.391,0.000,0
161650.689,-27.344,-28.809,-23.926,-35.645,0.000,0
161650.693,-26.367,-31.738,-31.738,-46.875,0.000,0
161650.697,-22.461,-33.691,-33.691,-40.039,0.000,0
161650.701,-23.926,-30.273,-26.855,-26.855,0.000,0
161650.705,-26.855,-25.391,-31.738,-17.090,0.000,0
161650.709,-28.320,-28.809,-20.508,-30.762,0.000,0
161650.713,-38.574,-35.645,-23.926,-26.855,0.000,0
161650.717,-39.551,-35.156,-48.828,-20.508,0.000,0
161650.721,-35.156,-28.809,-56.641,-48.828,0.000,0
161650.724,-29.297,-25.391,-31.250,-56.152,0.000,0
161650.728,-26.367,-28.809,-16.113,-32.227,0.000,0
161650.732,-30.273,-25.879,-32.715,-20.996,0.000,0
161650.736,-22.461,-20.508,-31.250,-24.414,0.000,0
161650.740,-17.090,-19.531,-28.320,-16.113,0.000,0
161650.744,-23.926,-23.438,-34.180,-21.484,0.000,0
161650.748,-31.250,-26.855,-25.879,-36.133,0.000,0
161650.752,-27.832,-26.855,-27.832,-17.578,0.000,0
161650.756,-29.785,-26.855,-23.438,-12.207,0.000,0
161650.760,-32.715,-31.738,-30.762,-34.180,0.000,0
161650.763,-20.996,-34.180,-50.293,-29.297,0.000,0
161650.767,-18.555,-25.879,-21.973,-26.855,0.000,0
161650.771,-24.414,-26.367,-18.555,-26.855,0.000,0
161650.775,-24.902,-27.344,-29.785,-32.227,0.000,0
161650.779,-28.809,-27.344,-29.297,-33.203,0.000,0
161650.783,-31.738,-30.762,-27.832,-18.066,0.000,0
161650.787,-18.066,-25.391,-15.625,-16.602,0.000,0
161650.791,-15.625,-24.414,-27.344,-17.578,0.000,0
161650.795,-25.879,-29.297,-36.133,-15.137,0.000,0
161650.799,-24.414,-28.320,-23.926,-23.926,0.000,0
161650.803,-33.203,-30.273,-20.508,-25.391,0.000,0
161650.806,-30.762,-28.809,-32.715,-30.273,0.000,0
161650.810,-19.531,-22.949,-46.387,-17.090,0.000,0
161650.814,-25.391,-22.461,-20.020,-15.137,0.000,0
161650.818,-26.855,-21.973,-9.766,-36.621,0.000,0
161650.822,-12.695,-22.949,-41.992,-14.648,0.000,0
161650.826,-9.766,-22.461,-28.809,-19.531,0.000,0
161650.830,-17.090,-20.020,-21.973,-32.227,0.000,0
161650.834,-14.160,-21.973,-32.227,-22.949,0.000,0
161650.838,-13.672,-22.461,-27.832,-19.531,0.000,0
161650.842,-20.996,-22.461,-24.414,-19.043,0.000,0
161650.846,-21.484,-21.484,-11.719,-22.949,0.000,0
161650.849,-9.766,-20.508,-14.160,-13.672,0.000,0
161650.853,7.324,-18.555,-22.949,4.883,0.000,0
161650.857,-9.277,-18.555,-37.109,-10.742,0.000,0
161650.861,-35.156,-19.043,-23.926,-26.367,0.000,0
161650.865,-24.902,-12.207,-8.301,-25.879,0.000,0
161650.869,-15.625,-16.602,-33.691,-23.926,0.000,0
161650.873,-21.973,-21.973,-45.898,-14.160,0.000,0
161650.877,-35.645,-24.414,-41.016,-31.738,0.000,0
161650.881,-43.945,-27.344,-37.109,-35.645,0.000,0
161650.885,-31.738,-26.367,-22.461,-35.156,0.000,0
161650.888,-30.273,-29.785,-29.785,-33.691,0.000,0
161650.892,-28.809,-30.762,-44.434,-24.414,0.000,0
161650.896,-28.320,-27.344,-40.527,-13.184,0.000,0
161650.900,-25.391,-29.785,-36.621,-12.695,0.000,0
161650.904,-19.531,-30.762,-19.531,-29.785,0.000,0
161650.908,-34.180,-29.297,-22.461,-25.879,0.000,0
161650.912,-21.973,-27.832,-42.969,-10.254,0.000,0
161650.916,-11.719,-28.320,-35.156,-7.812,0.000,0
161650.920,-25.391,-32.227,-34.180,-9.277,0.000,0
161650.924,-31.738,-31.738,-28.809,-12.207,0.000,0
161650.928,-25.391,-31.250,-29.785,-22.949,0.000,0
161650.931,-24.414,-33.203,-37.109,-37.109,0.000,0
161650.935,-20.508,-30.273,-36.621,-36.133,0.000,0
161650.939,-14.160,-26.367,-39.062,-20.508,0.000,0
161650.943,-27.344,-31.250,-28.809,-30.762,0.000,0
161650.947,-17.578,-34.180,-24.414,-40.527,0.000,0
161650.951,-16.602,-29.297,-19.043,-30.273,0.000,0
161650.955,-23.438,-27.832,-25.879,-19.531,0.000,0
161650.959,-19.531,-31.250,-45.898,-13.184,0.000,0
161650.963,-31.250,-34.180,-29.785,-18.066,0.000,0
161650.967,-35.645,-30.273,-20.996,-21.973,0.000,0
161650.971,-30.273,-27.344,-37.109,-16.113,0.000,0
161650.974,-21.973,-28.809,-37.109,-19.043,0.000,0
161650.978,-30.762,-31.738,-29.297,-18.066,0.000,0
161650.982,-30.273,-31.738,-14.160,-23.926,0.000,0
161650.986,-21.484,-29.785,-6.348,-18.555,0.000,0
161650.990,-27.832,-25.391,-24.902,-12.695,0.000,0
161650.994,-25.879,-23.926,-20.020,-34.668,0.000,0
161650.998,-21.484,-21.484,-18.555,-22.949,0.000,0
161651.002,-20.020,-19.531,-26.855,-28.320,0.000,0
161651.006,-23.438,-24.902,-16.602,-49.316,0.000,0
161651.010,-23.438,-26.855,-29.785,-29.297,0.000,0
161651.013,-17.578,-25.391,-33.203,-17.090,0.000,0
161651.017,-26.367,-21.973,-28.809,-24.902,0.000,0
161651.021,-22.949,-25.391,-21.484,-29.785,0.000,0
161651.025,-13.184,-28.320,-13.184,-24.414,0.000,0
161651.029,-11.230,-19.531,-20.020,-19.531,0.000,0
161651.033,-6.836,-16.602,-18.066,-9.766,0.000,0
161651.037,-18.555,-22.461,-29.297,-8.301,0.000,0
161651.041,-24.414,-22.949,-17.090,-20.020,0.000,0
161651.045,-20.996,-22.949,-5.371,-25.879,0.000,0
161651.049,-30.273,-25.879,-36.621,-21.973,0.000,0
161651.053,-25.879,-32.227,-40.039,-13.184,0.000,0
161651.056,-13.672,-28.809,-38.086,-9.766,0.000,0
161651.060,-21.484,-25.391,-30.273,-20.508,0.000,0
161651.064,-25.391,-25.391,-21.484,-10.742,0.000,0
161651.068,-27.832,-26.367,-40.039,-8.301,0.000,0
161651.072,-29.297,-31.250,-48.828,-19.531,0.000,0
161651.076,-31.738,-29.785,-44.922,-19.531,0.000,0
161651.080,-41.504,-27.344,-27.344,-27.832,0.000,0
161651.084,-32.227,-23.438,-15.137,-21.484,0.000,0
161651.088,-20.996,-20.996,-27.832,-19.043,0.000,0
161651.092,-25.879,-23.438,-41.504,-33.691,0.000,0
161651.096,-29.297,-25.879,-38.086,-24.414,0.000,0
161651.099,-30.273,-21.484,-6.348,-19.043,0.000,0
161651.103,-30.762,-22.949,-15.137,-21.484,0.000,0
161651.107,-34.180,-27.344,-39.062,-20.508,0.000,0
161651.111,-29.297,-26.367,-28.809,-27.832,0.000,0
161651.115,-20.996,-23.438,-20.508,-10.254,0.000,0
161651.119,-22.949,-21.973,-21.484,-10.742,0.000,0
161651.123,-28.809,-20.996,-24.902,-36.621,0.000,0
161651.127,-26.367,-20.020,-20.508,-41.992,0.000,0
161651.131,-29.297,-25.879,-23.926,-35.645,0.000,0
161651.135,-29.785,-26.855,-49.805,-18.555,0.000,0
161651.138,-19.531,-19.531,-45.410,-23.926,0.000,0
161651.142,-20.020,-19.531,-22.461,-34.180,0.000,0
161651.146,-27.344,-20.020,-19.043,-22.461,0.000,0
161651.150,-21.973,-20.996,-28.320,-18.555,0.000,0
161651.154,-20.508,-25.391,-30.762,-13.672,0.000,0
161651.158,-14.648,-20.996,-17.578,-10.742,0.000,0
161651.162,-7.324,-21.973,-4.395,-23.438,0.000,0
161651.166,-7.324,-26.367,-14.160,-22.461,0.000,0
161651.170,-11.719,-28.320,-40.527,-20.508,0.000,0
161651.174,-18.555,-27.344,-33.203,-18.555,0.000,0
161651.178,-24.414,-23.438,-15.137,-13.672,0.000,0
161651.181,-29.297,-26.367,-16.602,-40.039,0.000,0
161651.185,-30.273,-27.344,-28.320,-42.969,0.000,0
161651.189,-32.715,-26.855,-26.367,-31.738,0.000,0
161651.193,-38.086,-29.785,-31.250,-37.598,0.000,0
161651.197,-29.785,-30.273,-30.762,-29.785,0.000,0
161651.201,-31.738,-30.273,-18.555,-31.738,0.000,0
161651.205,-30.273,-24.902,-22.949,-38.086,0.000,0
161651.209,-22.461,-21.973,-25.391,-26.855,0.000,0
161651.213,-18.555,-26.855,-31.738,-24.902,0.000,0
161651.217,-20.996,-29.297,-22.949,-26.367,0.000,0
161651.221,-28.320,-31.250,-13.672,-26.855,0.000,0
161651.224,-29.297,-32.715,-28.320,-22.949,0.000,0
161651.228,-21.484,-30.273,-35.645,-12.695,0.000,0
161651.232,-17.090,-30.762,-25.879,-2.441,0.000,0
161651.236,-12.695,-32.715,-3.418,-5.859,0.000,0
161651.240,-9.277,-27.832,-3.418,-15.625,0.000,0
161651.244,-10.254,-20.508,-16.113,-11.230,0.000,0
161651.248,-15.137,-26.855,-26.367,-10.254,0.000,0
161651.252,-8.789,-32.227,-26.855,0.000,0.000,0
161651.256,-1.465,-28.320,-22.461,1.465,0.000,0
161651.260,-11.719,-32.227,-7.812,-8.789,0.000,0
161651.263,-18.066,-32.227,-7.324,-17.578,0.000,0
161651.267,-12.207,-31.738,-3.906,-18.555,0.000,0
161651.271,-10.742,-27.344,-23.926,0.977,0.000,0
161651.275,-15.625,-18.066,-31.738,1.953,0.000,0
161651.279,-17.090,-13.184,0.000,-27.344,0.000,0
161651.283,-14.648,-14.160,-22.949,-28.809,0.000,0
161651.287,-22.461,-16.602,-46.387,-18.066,0.000,0
161651.291,-29.297,-15.137,-31.250,-21.484,0.000,0
161651.295,-24.902,-18.066,-20.020,-9.766,0.000,0
161651.299,-24.902,-23.926,-8.301,-23.438,0.000,0
161651.303,-23.438,-21.973,-19.043,-28.320,0.000,0
161651.306,-14.648,-16.602,-33.203,-22.949,0.000,0
161651.310,-17.578,-11.230,-23.438,-33.691,0.000,0
161651.314,-18.555,-14.160,-24.414,-32.227,0.000,0
161651.318,-18.066,-19.043,-21.973,-33.691,0.000,0
161651.322,-24.414,-19.531,-20.020,-35.156,0.000,0
161651.326,-25.391,-20.508,-21.484,-18.555,0.000,0
161651.330,-23.438,-29.297,-30.762,-31.738,0.000,0
161651.334,-26.367,-32.227,-29.297,-46.387,0.000,0
161651.338,-26.855,-29.785,-13.184,-42.969,0.000,0
161651.342,-22.949,-31.738,-24.902,-31.738,0.000,0
161651.346,-15.137,-29.297,-33.203,-11.719,0.000,0
161651.349,-13.184,-24.414,-29.297,1.953,0.000,0
161651.353,-14.160,-23.438,-26.855,-13.672,0.000,0
161651.357,-12.207,-22.949,-15.137,-26.855,0.000,0
161651.361,-15.625,-27.832,-17.578,-16.113,0.000,0
161651.365,-20.996,-29.785,-32.227,-16.113,0.000,0
161651.369,-28.809,-23.438,-12.207,-20.020,0.000,0
161651.373,-20.996,-21.973,-27.344,-11.230,0.000,0
161651.377,-10.742,-29.785,-50.293,-25.879,0.000,0
161651.381,-13.184,-29.297,-35.645,-20.508,0.000,0
161651.385,-20.020,-29.297,-22.949,-6.348,0.000,0
161651.388,-19.531,-33.203,-33.203,3.418,0.000,0
161651.392,-14.648,-35.645,-36.621,-5.371,0.000,0
161651.396,-13.184,-33.203,-18.066,-11.719,0.000,0
161651.400,-11.719,-29.297,-17.090,0.000,0.000,0
161651.404,-12.207,-30.762,-29.297,-9.277,0.000,0
161651.408,-17.090,-28.320,-26.855,-26.367,0.000,0
161651.412,-15.137,-23.438,-24.414,-27.832,0.000,0
161651.416,-16.602,-25.879,-16.602,-28.320,0.000,0
161651.420,-18.555,-21.973,-19.531,-33.691,0.000,0
161651.424,-18.066,-20.996,-44.434,-29.297,0.000,0
161651.428,-20.996,-29.297,-45.898,-17.578,0.000,0
161651.431,-25.879,-29.785,-30.762,-9.277,0.000,0
161651.435,-34.668,-30.273,-34.180,-24.414,0.000,0
161651.439,-40.527,-29.785,-33.691,-24.902,0.000,0
161651.443,-26.855,-25.391,-21.484,-12.695,0.000,0
161651.447,-23.438,-25.879,-22.949,-22.949,0.000,0
161651.451,-21.973,-28.320,-41.016,-24.414,0.000,0
161651.455,-20.508,-27.832,-32.715,-21.484,0.000,0
161651.459,-20.020,-27.344,-3.906,-22.949,0.000,0
161651.463,-17.090,-20.508,-12.695,0.000,0.000,0
161651.467,-22.461,-22.461,-37.109,-20.508,0.000,0
161651.471,-27.344,-27.344,-24.902,-46.875,0.000,0
161651.474,-46.387,-28.320,-9.277,-38.086,0.000,0
161651.478,-47.852,-35.645,-21.484,-36.621,0.000,0
161651.482,-34.668,-37.598,-42.969,-41.992,0.000,0
161651.486,-37.598,-34.668,-43.945,-43.457,0.000,0
161651.490,-34.180,-32.715,-36.621,-26.367,0.000,0
161651.494,-29.785,-35.645,-31.738,-23.438,0.000,0
161651.498,-39.062,-39.551,-22.949,-39.062,0.000,0
161651.502,-45.410,-34.180,-33.691,-42.969,0.000,0
161651.506,-37.598,-29.785,-30.762,-27.832,0.000,0
161651.510,-30.273,-29.785,-34.180,-22.949,0.000,0
161651.513,-34.180,-30.273,-39.062,-30.762,0.000,0
161651.517,-36.133,-28.320,-20.996,-32.227,0.000,0
161651.521,-32.715,-22.949,-12.695,-27.344,0.000,0
161651.525,-34.668,-22.949,-29.785,-21.484,0.000,0
161651.529,-33.691,-22.949,-33.203,-22.461,0.000,0
161651.533,-31.250,-20.996,-17.090,-31.738,0.000,0
161651.537,-35.156,-20.996,-7.324,-33.203,0.000,0
161651.541,-35.645,-22.949,-35.156,-13.672,0.000,0
161651.545,-4.395,-26.367,-43.457,10.742,0.000,0
161651.549,-0.488,-20.020,-19.043,-12.695,0.000,0
161651.553,-39.551,-14.160,-16.113,-32.227,0.000,0
161651.556,-43.457,-19.043,-21.973,-36.621,0.000,0
161651.560,-33.691,-23.926,-31.738,-39.551,0.000,0
161651.564,-44.922,-26.855,-15.137,-22.949,0.000,0
161651.568,-49.316,-23.926,-21.973,-18.066,0.000,0
161651.572,-48.340,-21.973,-32.715,-21.973,0.000,0
161651.576,-42.969,-24.902,-19.531,-32.715,0.000,0
161651.580,-29.297,-28.809,-26.367,-42.969,0.000,0
161651.584,-33.691,-25.879,-32.227,-40.527,0.000,0
161651.588,-33.691,-26.367,-46.387,-31.250,0.000,0
161651.592,-34.668,-29.297,-46.387,-23.438,0.000,0
161651.596,-40.527,-31.738,-14.160,-46.387,0.000,0
161651.599,-37.598,-31.738,-19.531,-52.734,0.000,0
161651.603,-34.668,-31.738,-42.480,-38.574,0.000,0
161651.607,-29.785,-27.344,-41.016,-30.273,0.000,0
161651.611,-26.367,-26.855,-23.438,-24.902,0.000,0
161651.615,-34.668,-34.668,-22.949,-31.738,0.000,0
161651.619,-36.133,-28.320,-36.621,-35.156,0.000,0
161651.623,-29.297,-20.996,-29.297,-37.109,0.000,0
161651.627,-29.785,-23.926,-25.879,-30.273,0.000,0
161651.631,-26.367,-25.879,-32.715,-13.184,0.000,0
161651.635,-40.527,-24.902,-12.695,-33.203,0.000,0
161651.638,-44.434,-30.273,-23.438,-40.527,0.000,0
161651.642,-36.621,-30.762,-41.992,-7.812,0.000,0
161651.646,-47.852,-25.879,-35.645,-24.414,0.000,0
161651.650,-49.805,-24.902,-33.691,-43.457,0.000,0
161651.654,-39.551,-26.367,-5.371,-42.480,0.000,0
161651.658,-42.969,-27.344,-17.578,-49.805,0.000,0
161651.662,-38.574,-28.320,-48.340,-49.316,0.000,0
161651.666,-41.016,-26.855,-34.668,-41.504,0.000,0
161651.670,-47.363,-26.367,-24.414,-41.504,0.000,0
161651.674,-43.945,-24.902,-12.207,-45.898,0.000,0
161651.678,-42.969,-25.879,-21.973,-32.227,0.000,0
161651.681,-39.062,-28.320,-47.363,-35.156,0.000,0
161651.685,-40.527,-21.973,-28.809,-52.246,0.000,0
161651.689,-35.645,-18.555,-19.531,-34.180,0.000,0
161651.693,-30.762,-20.020,-15.625,-28.320,0.000,0
161651.697,-30.762,-21.973,-4.395,-37.598,0.000,0
161651.701,-34.668,-19.043,-1.465,-41.992,0.000,0
161651.705,-23.438,-11.719,-17.090,-20.508,0.000,0
161651.709,-10.254,-11.719,-24.414,-6.348,0.000,0
161651.713,-21.484,-19.043,-0.977,-36.621,0.000,0
161651.717,-25.879,-20.020,0.488,-36.133,0.000,0
161651.721,-24.902,-26.855,-34.180,-26.367,0.000,0
161651.724,-21.484,-32.715,-38.574,-17.578,0.000,0
161651.728,-18.066,-28.809,-13.184,-15.137,0.000,0
161651.732,-22.461,-26.855,-2.441,-33.203,0.000,0
161651.736,-22.461,-21.484,-6.348,-38.086,0.000,0
161651.740,-22.949,-20.508,-12.695,-32.227,0.000,0
161651.744,-33.203,-27.832,-17.090,-20.020,0.000,0
161651.748,-29.785,-26.367,-25.391,-17.090,0.000,0
161651.752,-20.020,-22.461,-27.344,-16.113,0.000,0
161651.756,-22.949,-27.832,-28.809,-29.785,0.000,0
161651.760,-38.086,-34.180,-32.227,-37.109,0.000,0
161651.763,-35.645,-36.133,-24.902,-18.555,0.000,0
161651.767,-28.320,-36.133,-23.438,-15.625,0.000,0
161651.771,-34.180,-32.715,-20.508,-35.645,0.000,0
161651.775,-32.715,-28.809,-11.230,-49.805,0.000,0
161651.779,-35.645,-31.738,-20.508,-49.316,0.000,0
161651.783,-41.016,-36.621,-50.293,-35.156,0.000,0
161651.787,-31.250,-27.832,-40.039,-20.020,0.000,0
161651.791,-24.902,-23.438,-13.184,-13.672,0.000,0
161651.795,-28.320,-31.250,-28.809,-22.949,0.000,0
161651.799,-23.926,-33.203,-44.434,-25.879,0.000,0
161651.803,-24.414,-29.297,-38.086,-18.066,0.000,0
161651.806,-35.156,-24.902,-39.551,-20.508,0.000,0
161651.810,-25.391,-26.367,-36.621,-27.344,0.000,0
161651.814,-18.066,-26.367,-26.367,-25.391,0.000,0
161651.818,-26.367,-20.508,-28.320,-3.418,0.000,0
161651.822,-24.902,-21.484,-37.598,-7.324,0.000,0
161651.826,-26.855,-22.949,-44.434,-34.668,0.000,0
161651.830,-33.203,-22.949,-35.156,-42.480,0.000,0
161651.834,-26.855,-22.461,-7.812,-38.086,0.000,0
161651.838,-26.855,-22.949,-18.066,-21.973,0.000,0
161651.842,-35.645,-27.344,-37.598,-22.461,0.000,0
161651.846,-36.133,-30.273,-48.340,-37.109,0.000,0
161651.849,-45.898,-29.297,-23.438,-37.109,0.000,0
161651.853,-51.758,-27.832,-17.090,-29.785,0.000,0
161651.857,-30.762,-30.762,-47.852,-31.250,0.000,0
161651.861,-27.344,-33.203,-40.527,-41.504,0.000,0
161651.865,-39.062,-33.203,-33.691,-35.645,0.000,0
161651.869,-38.574,-36.621,-38.086,-39.551,0.000,0
161651.873,-26.855,-36.133,-28.809,-41.016,0.000,0
161651.877,-21.973,-33.203,-29.785,-21.973,0.000,0
161651.881,-29.785,-32.227,-31.250,-34.180,0.000,0
161651.885,-30.762,-34.668,-34.180,-43.945,0.000,0
161651.888,-24.902,-31.738,-37.109,-15.137,0.000,0
161651.892,-15.137,-31.738,-25.391,-14.648,0.000,0
161651.896,-6.348,-26.367,-13.672,-23.926,0.000,0
161651.900,-4.883,-20.996,-16.113,-26.855,0.000,0
161651.904,-9.766,-21.973,-27.832,-27.832,0.000,0
161651.908,-13.672,-25.391,-35.156,-28.320,0.000,0
161651.912,-10.254,-21.973,-7.812,-35.156,0.000,0
161651.916,-13.672,-23.438,-21.484,-31.738,0.000,0
161651.920,-18.066,-25.391,-33.691,-16.602,0.000,0
161651.924,-13.672,-17.578,-21.973,-6.836,0.000,0
161651.928,-19.531,-19.043,-19.043,-12.695,0.000,0
161651.931,-32.227,-24.902,-22.461,-28.809,0.000,0
161651.935,-20.996,-30.762,-36.621,-27.344,0.000,0
161651.939,-12.695,-25.879,-16.602,-20.996,0.000,0
161651.943,-23.438,-17.578,-18.555,-12.695,0.000,0
161651.947,-23.438,-19.531,-33.203,-9.277,0.000,0
161651.951,-20.996,-21.973,-8.301,-36.133,0.000,0
161651.955,-24.414,-23.438,-20.996,-31.738,0.000,0
161651.959,-17.090,-25.391,-36.621,-4.883,0.000,0
161651.963,-22.461,-26.367,-32.715,-17.090,0.000,0
161651.967,-39.062,-28.809,-26.367,-35.645,0.000,0
161651.971,-26.855,-28.809,-9.766,-38.086,0.000,0
161651.974,-20.996,-16.602,-16.113,-37.598,0.000,0
161651.978,-25.391,-14.648,-30.762,-32.227,0.000,0
161651.982,-24.902,-18.066,-23.926,-24.414,0.000,0
161651.986,-28.809,-20.020,-8.789,-21.973,0.000,0
161651.990,-29.785,-23.438,-21.973,-30.762,0.000,0
161651.994,-29.297,-25.391,-45.410,-39.062,0.000,0
161651.998,-30.762,-24.902,-40.527,-27.344,0.000,0
161652.002,-28.809,-24.902,-29.785,-22.949,0.000,0
161652.006,-23.438,-30.273,-43.457,-23.926,0.000,0
161652.010,-25.879,-24.414,-29.785,-33.691,0.000,0
161652.013,-31.250,-15.625,-20.996,-40.039,0.000,0
161652.017,-28.809,-23.438,-36.133,-37.109,0.000,0
161652.021,-24.902,-28.320,-30.762,-22.461,0.000,0
161652.025,-17.090,-27.344,-44.922,-10.742,0.000,0
161652.029,-25.879,-25.879,-14.648,-27.832,0.000,0
161652.033,-31.250,-27.344,-14.648,-39.062,0.000,0
161652.037,-17.578,-27.344,-47.363,-30.273,0.000,0
161652.041,-15.137,-17.090,-33.203,-29.297,0.000,0
161652.045,-19.531,-18.555,-25.391,-27.832,0.000,0
161652.049,-20.020,-23.438,-25.879,-28.320,0.000,0
161652.053,-20.020,-19.531,-28.809,-36.133,0.000,0
161652.056,-15.625,-19.043,-34.668,-34.180,0.000,0
161652.060,-18.555,-16.602,-31.250,-12.695,0.000,0
161652.064,-29.785,-17.578,-29.785,-15.137,0.000,0
161652.068,-21.484,-21.973,-24.902,-22.949,0.000,0
161652.072,-15.625,-21.484,-26.367,-8.789,0.000,0
161652.076,-23.926,-21.973,-27.344,-10.254,0.000,0
161652.080,-23.926,-26.855,-27.344,-20.508,0.000,0
161652.084,-20.508,-33.691,-35.156,-24.414,0.000,0
161652.088,-16.602,-32.715,-21.973,-31.250,0.000,0
161652.092,-18.555,-25.391,-16.113,-39.551,0.000,0
161652.096,-23.438,-28.320,-46.875,-31.250,0.000,0
161652.099,-22.949,-27.344,-47.852,-23.926,0.000,0
161652.103,-13.184,-20.996,-26.367,-17.090,0.000,0
161652.107,-11.230,-23.926,-20.020,-12.695,0.000,0
161652.111,-11.230,-25.391,-23.438,-22.461,0.000,0
161652.115,-17.090,-23.438,-26.367,-31.250,0.000,0
161652.119,-23.438,-21.973,-16.113,-20.508,0.000,0
161652.123,-23.438,-22.461,-30.762,-21.484,0.000,0
161652.127,-25.391,-25.879,-38.574,-41.016,0.000,0
161652.131,-31.250,-28.809,-21.484,-49.805,0.000,0
161652.135,-30.762,-25.879,-27.344,-34.668,0.000,0
161652.138,-24.414,-18.066,-36.133,-25.879,0.000,0
161652.142,-14.648,-13.672,-35.645,-34.668,0.000,0
161652.146,-0.488,-14.648,-22.949,-22.949,0.000,0
161652.150,5.859,-16.113,-15.137,2.441,0.000,0
161652.154,-0.977,-11.719,-26.855,-9.766,0.000,0
161652.158,-20.508,-14.648,-29.785,-36.133,0.000,0
161652.162,-28.320,-19.531,-26.855,-25.879,0.000,0
161652.166,-26.855,-17.578,-13.184,-20.020,0.000,0
161652.170,-36.621,-21.484,-24.414,-44.922,0.000,0
161652.174,-42.480,-28.809,-41.016,-49.805,0.000,0
161652.178,-39.551,-27.832,-32.227,-34.668,0.000,0
161652.181,-39.062,-28.320,-35.156,-38.086,0.000,0
161652.185,-27.344,-31.738,-32.227,-38.574,0.000,0
161652.189,-11.230,-29.297,-20.996,-31.738,0.000,0
161652.193,-24.414,-28.809,-16.602,-48.828,0.000,0
161652.197,-34.180,-25.879,-23.926,-47.363,0.000,0
161652.201,-28.320,-24.414,-44.434,-25.391,0.000,0
161652.205,-35.156,-25.879,-33.691,-40.039,0.000,0
161652.209,-39.551,-28.320,-2.441,-46.387,0.000,0
161652.213,-37.598,-27.832,-20.996,-32.715,0.000,0
161652.217,-37.598,-24.414,-40.527,-45.898,0.000,0
161652.221,-30.762,-26.855,-38.574,-43.457,0.000,0
161652.224,-31.250,-27.832,-13.672,-21.973,0.000,0
161652.228,-32.227,-24.414,-3.418,-22.949,0.000,0
161652.232,-31.738,-27.344,-28.809,-46.875,0.000,0
161652.236,-36.621,-27.832,-31.738,-41.016,0.000,0
161652.240,-29.785,-20.996,-33.691,-3.906,0.000,0
161652.244,-25.879,-22.461,-32.715,-22.461,0.000,0
161652.248,-36.133,-29.785,-19.043,-54.688,0.000,0
161652.252,-33.203,-36.133,-35.645,-34.180,0.000,0
161652.256,-32.227,-36.133,-44.434,-32.715,0.000,0
161652.260,-37.109,-34.180,-43.457,-44.922,0.000,0
161652.263,-28.320,-30.273,-32.715,-33.691,0.000,0
161652.267,-22.949,-27.832,-6.836,-32.715,0.000,0
161652.271,-17.090,-24.902,-22.949,-38.574,0.000,0
161652.275,-11.719,-27.344,-41.504,-26.855,0.000,0
161652.279,-6.836,-25.391,-30.273,-23.438,0.000,0
161652.283,-6.836,-21.973,-20.020,-30.273,0.000,0
161652.287,-13.184,-21.973,-6.836,-39.062,0.000,0
161652.291,-14.648,-21.484,-18.066,-21.484,0.000,0
161652.295,-20.508,-24.902,-16.602,-20.508,0.000,0
161652.299,-16.113,-26.367,-8.789,-26.855,0.000,0
161652.303,-11.230,-27.344,-22.461,-20.508,0.000,0
161652.306,-23.926,-26.367,-23.438,-46.387,0.000,0
161652.310,-28.320,-21.973,-16.113,-41.504,0.000,0
161652.314,-26.367,-22.949,-11.230,-12.207,0.000,0
161652.318,-21.484,-23.438,-22.949,-17.578,0.000,0
161652.322,-14.648,-21.973,-29.297,-29.785,0.000,0
161652.326,-17.090,-19.531,-1.953,-27.344,0.000,0
161652.330,-13.672,-16.602,-4.395,-23.438,0.000,0
161652.334,-9.766,-18.555,-19.043,-30.762,0.000,0
161652.338,-15.625,-15.625,-20.996,-24.414,0.000,0
161652.342,-19.043,-13.184,-27.344,-3.906,0.000,0
161652.346,-7.324,-19.531,-12.207,-17.090,0.000,0
161652.349,-13.672,-16.113,-13.672,-35.645,0.000,0
161652.353,-19.531,-13.184,-33.203,-30.273,0.000,0
161652.357,-11.719,-18.555,-31.250,-31.250,0.000,0
161652.361,-23.926,-20.996,-7.324,-34.180,0.000,0
161652.365,-22.461,-24.902,-12.207,-35.156,0.000,0
161652.369,-16.602,-21.973,-16.602,-24.902,0.000,0
161652.373,-23.438,-15.625,-19.531,-16.113,0.000,0
161652.377,-26.367,-16.113,-23.926,-15.625,0.000,0
161652.381,-27.344,-21.484,-27.344,-10.742,0.000,0
161652.385,-17.578,-20.508,-10.254,-15.137,0.000,0
161652.388,-16.602,-17.578,-3.418,-30.762,0.000,0
161652.392,-24.414,-22.461,-19.531,-12.207,0.000,0
161652.396,-24.414,-21.484,-16.602,-4.883,0.000,0
161652.400,-29.297,-20.020,-11.230,-20.508,0.000,0
161652.404,-33.203,-20.508,-6.836,-28.809,0.000,0
161652.408,-35.156,-27.344,-22.949,-32.715,0.000,0
161652.412,-29.785,-27.832,-33.203,-32.227,0.000,0
161652.416,-20.508,-20.508,-24.414,-20.996,0.000,0
161652.420,-26.367,-25.879,-27.832,-18.066,0.000,0
161652.424,-30.762,-27.344,-25.391,-9.277,0.000,0
161652.428,-24.902,-21.973,-19.043,-11.230,0.000,0
161652.431,-16.602,-24.902,-29.297,-23.438,0.000,0
161652.435,-16.113,-26.367,-35.645,-31.738,0.000,0
161652.439,-17.090,-25.391,-32.227,-30.273,0.000,0
161652.443,-15.137,-23.438,-22.949,-26.855,0.000,0
161652.447,-18.066,-21.973,-17.090,-26.855,0.000,0
161652.451,-22.461,-22.949,-11.719,-24.414,0.000,0
161652.455,-24.414,-23.926,-31.250,-30.762,0.000,0
161652.459,-19.043,-26.855,-38.574,-23.926,0.000,0
161652.463,-12.695,-26.855,-17.578,-9.766,0.000,0
161652.467,-12.695,-22.461,-17.090,-19.531,0.000,0
161652.471,-8.789,-25.391,-32.715,-27.344,0.000,0
161652.474,-12.207,-26.855,-29.297,-31.738,0.000,0
161652.478,-17.578,-26.367,-26.855,-21.484,0.000,0
161652.482,-20.020,-27.344,-22.949,-16.113,0.000,0
161652.486,-26.367,-25.391,-18.555,-21.973,0.000,0
161652.490,-36.621,-21.973,-32.227,-18.555,0.000,0
161652.494,-43.457,-21.484,-38.086,-16.113,0.000,0
161652.498,-28.809,-17.090,-34.180,-16.602,0.000,0
161652.502,-24.902,-17.578,-22.461,-27.832,0.000,0
161652.506,-37.598,-22.949,-26.855,-46.875,0.000,0
161652.510,-32.227,-22.949,-31.250,-32.715,0.000,0
161652.513,-25.391,-23.926,-20.996,-12.695,0.000,0
161652.517,-19.531,-19.043,-27.832,-27.344,0.000,0
161652.521,-16.113,-16.602,-22.949,-26.367,0.000,0
161652.525,-18.066,-23.926,-15.625,-15.625,0.000,0
161652.529,-15.137,-25.879,-33.203,-16.113,0.000,0
161652.533,-17.090,-24.902,-32.715,-31.738,0.000,0
161652.537,-20.020,-22.949,-20.508,-36.621,0.000,0
161652.541,-21.973,-19.531,-10.254,-26.855,0.000,0
161652.545,-22.461,-18.555,-16.602,-32.227,0.000,0
161652.549,-18.066,-20.020,-29.785,-32.227,0.000,0
161652.553,-16.602,-23.438,-34.180,-20.020,0.000,0
161652.556,-11.719,-18.555,-35.645,-7.324,0.000,0
161652.560,-11.230,-16.602,-26.855,-16.602,0.000,0
161652.564,-21.484,-22.461,-14.160,-34.668,0.000,0
161652.568,-24.902,-20.996,-21.973,-24.902,0.000,0
161652.572,-25.879,-17.090,-25.391,-18.555,0.000,0
161652.576,-21.973,-19.531,-26.855,-10.742,0.000,0
161652.580,-15.625,-25.879,-17.578,-9.277,0.000,0
161652.584,-22.461,-30.762,-2.930,-32.715,0.000,0
161652.588,-26.367,-22.949,-23.926,-29.785,0.000,0
161652.592,-27.832,-22.949,-49.805,-24.902,0.000,0
161652.596,-29.297,-27.832,-46.387,-36.133,0.000,0
161652.599,-27.344,-25.879,-10.254,-23.438,0.000,0
161652.603,-28.809,-25.879,0.000,-11.230,0.000,0
161652.607,-26.367,-28.809,-29.297,-20.996,0.000,0
161652.611,-15.625,-27.344,-28.320,-14.160,0.000,0
161652.615,-14.160,-23.926,-22.949,1.465,0.000,0
161652.619,-20.996,-29.785,-32.227,-12.207,0.000,0
161652.623,-28.809,-34.180,-24.902,-45.898,0.000,0
161652.627,-27.832,-24.902,-29.297,-38.086,0.000,0
161652.631,-32.715,-21.973,-36.621,-27.832,0.000,0
161652.635,-36.133,-27.344,-44.922,-37.598,0.000,0
161652.638,-25.391,-30.273,-37.598,-29.785,0.000,0
161652.642,-23.926,-35.156,-17.578,-36.621,0.000,0
161652.646,-37.598,-34.668,-18.066,-40.039,0.000,0
161652.650,-31.738,-26.367,-23.926,-20.996,0.000,0
161652.654,-20.508,-20.508,-22.461,-17.578,0.000,0
161652.658,-23.926,-21.973,-29.785,-14.648,0.000,0
161652.662,-20.508,-24.414,-9.766,-17.578,0.000,0
161652.666,-25.879,-26.367,-14.160,-15.137,0.000,0
161652.670,-31.250,-26.855,-38.574,-14.648,0.000,0
161652.674,-16.113,-26.367,-21.484,-18.555,0.000,0
161652.678,-20.996,-29.297,-16.113,-26.855,0.000,0
161652.681,-29.297,-32.227,-26.855,-45.898,0.000,0
161652.685,-23.438,-31.738,-31.738,-33.691,0.000,0
161652.689,-28.809,-27.344,-20.996,-30.273,0.000,0
161652.693,-23.438,-21.973,-19.531,-31.738,0.000,0
161652.697,-10.742,-23.438,-35.156,-12.695,0.000,0
161652.701,-16.602,-27.344,-21.973,-26.367,0.000,0
161652.705,-23.438,-24.414,-16.113,-29.785,0.000,0
161652.709,-16.113,-27.832,-31.738,-30.762,0.000,0
161652.713,-17.578,-33.691,-29.297,-36.133,0.000,0
161652.717,-31.250,-27.832,-44.434,-26.855,0.000,0
161652.721,-27.832,-21.484,-29.785,-29.785,0.000,0
161652.724,-22.461,-21.484,-20.996,-40.527,0.000,0
161652.728,-27.832,-19.531,-30.273,-38.574,0.000,0
161652.732,-29.297,-18.555,-33.691,-33.691,0.000,0
161652.736,-26.855,-19.043,-28.809,-29.785,0.000,0
161652.740,-25.391,-24.414,-33.691,-26.855,0.000,0
161652.744,-16.113,-25.391,-35.156,-24.902,0.000,0
161652.748,-16.113,-22.461,-30.762,-22.949,0.000,0
161652.752,-16.113,-20.996,-30.762,-28.809,0.000,0
161652.756,-14.160,-19.531,-33.691,-21.973,0.000,0
161652.760,-19.531,-17.578,-31.738,-9.766,0.000,0
161652.763,-26.855,-22.461,-27.832,-25.391,0.000,0
161652.767,-29.297,-26.855,-32.715,-27.344,0.000,0
161652.771,-35.645,-26.367,-39.062,-21.973,0.000,0
161652.775,-32.227,-26.855,-41.016,-16.113,0.000,0
161652.779,-24.414,-26.367,-19.531,-10.742,0.000,0
161652.783,-39.551,-22.949,-13.184,-40.527,0.000,0
161652.787,-41.016,-25.391,-43.457,-49.316,0.000,0
161652.791,-38.574,-30.273,-42.480,-40.039,0.000,0
161652.795,-45.410,-31.738,-26.367,-40.527,0.000,0
161652.799,-46.875,-33.691,-28.320,-38.574,0.000,0
161652.803,-28.809,-34.668,-26.855,-44.922,0.000,0
161652.806,-19.531,-32.715,-29.785,-31.738,0.000,0
161652.810,-23.926,-34.180,-28.320,-14.160,0.000,0
161652.814,-20.996,-29.785,-17.578,-23.926,0.000,0
161652.818,-23.926,-25.391,-25.879,-32.227,0.000,0
161652.822,-24.902,-24.902,-31.738,-36.621,0.000,0
161652.826,-21.973,-26.367,-25.391,-32.227,0.000,0
161652.830,-14.648,-24.414,-32.715,-30.762,0.000,0
161652.834,-10.742,-19.531,-40.527,-24.414,0.000,0
161652.838,-14.648,-20.020,-34.180,-20.020,0.000,0
161652.842,-13.672,-20.508,-24.414,-23.438,0.000,0
161652.846,-7.812,-18.555,-30.273,-22.461,0.000,0
161652.849,-12.695,-22.949,-29.297,-22.461,0.000,0
161652.853,-12.695,-23.438,-21.973,-22.461,0.000,0
161652.857,-15.137,-20.508,-20.020,-24.902,0.000,0
161652.861,-16.602,-18.066,-15.625,-29.785,0.000,0
161652.865,-19.531,-12.695,-17.090,-25.391,0.000,0
161652.869,-18.555,-13.184,-12.207,-5.371,0.000,0
161652.873,-5.859,-20.508,-4.395,-4.395,0.000,0
161652.877,-34.668,-23.438,-8.789,-54.199,0.000,0
161652.881,-60.059,-25.879,-32.715,-52.246,0.000,0
161652.885,-41.504,-25.879,-41.992,-25.879,0.000,0
161652.888,-36.133,-20.020,-42.969,-33.691,0.000,0
161652.892,-44.922,-21.484,-35.645,-34.180,0.000,0
161652.896,-48.828,-23.438,-10.254,-41.992,0.000,0
161652.900,-44.922,-23.438,-13.672,-42.969,0.000,0
161652.904,-41.504,-22.949,-35.645,-28.809,0.000,0
161652.908,-41.992,-22.949,-53.711,-15.137,0.000,0
161652.912,-35.645,-20.020,-29.297,-28.320,0.000,0
161652.916,-26.367,-16.602,-5.859,-41.504,0.000,0
161652.920,-25.391,-21.484,-53.223,-13.672,0.000,0
161652.924,-30.273,-26.855,-58.105,-16.113,0.000,0
161652.928,-35.156,-24.414,-22.461,-35.645,0.000,0
161652.931,-31.250,-20.508,-20.996,-46.875,0.000,0
161652.935,-21.484,-25.879,-19.531,-49.316,0.000,0
161652.939,-21.484,-25.391,-15.137,-28.809,0.000,0
161652.943,-28.320,-21.484,-24.414,-18.555,0.000,0
161652.947,-23.926,-24.902,-29.297,-21.973,0.000,0
161652.951,-20.020,-24.902,-31.250,-24.902,0.000,0
161652.955,-15.625,-24.414,-30.273,-23.926,0.000,0
161652.959,-16.602,-22.949,-15.625,-22.949,0.000,0
161652.963,-12.207,-18.066,-13.672,-24.902,0.000,0
161652.967,-14.648,-19.531,-21.484,-23.438,0.000,0
161652.971,-11.719,-17.090,-22.949,-33.203,0.000,0
161652.974,-12.207,-16.602,-13.672,-37.598,0.000,0
161652.978,-9.766,-18.555,-11.230,-43.945,0.000,0
161652.982,9.277,-14.160,-23.926,-23.926,0.000,0
161652.986,8.301,-15.137,-24.414,-7.324,0.000,0
161652.990,2.930,-17.090,-32.715,-15.137,0.000,0
161652.994,-5.859,-17.090,-18.066,-22.949,0.000,0
161652.998,-14.160,-18.555,-5.859,-28.320,0.000,0
161653.002,-20.020,-21.973,-27.344,-43.457,0.000,0
161653.006,-25.879,-24.902,-29.785,-48.828,0.000,0
161653.010,-17.090,-22.949,-40.527,-26.855,0.000,0
161653.013,-25.879,-30.273,-48.828,-46.875,0.000,0
161653.017,-39.551,-34.180,-24.902,-52.734,0.000,0
161653.021,-27.832,-28.320,-36.133,-13.672,0.000,0
161653.025,-30.762,-27.344,-53.223,-40.527,0.000,0
161653.029,-30.273,-30.762,-41.016,-56.641,0.000,0
161653.033,-26.367,-31.738,-23.438,-48.828,0.000,0
161653.037,-33.691,-23.926,-17.578,-53.711,0.000,0
161653.041,-33.203,-26.367,-34.180,-49.805,0.000,0
161653.045,-43.457,-27.832,-27.344,-41.504,0.000,0
161653.049,-49.316,-24.414,-24.414,-34.180,0.000,0
161653.053,-52.246,-23.926,-32.227,-41.016,0.000,0
161653.056,-47.852,-19.531,-32.227,-43.457,0.000,0
161653.060,-39.062,-18.555,-28.809,-29.297,0.000,0
161653.064,-39.062,-22.461,-21.973,-20.508,0.000,0
161653.068,-37.109,-26.367,-32.227,-31.250,0.000,0
161653.072,-36.621,-24.902,-32.715,-32.715,0.000,0
161653.076,-36.133,-23.438,-12.207,-31.738,0.000,0
161653.080,-39.551,-24.902,-16.602,-29.297,0.000,0
161653.084,-35.645,-27.832,-39.062,-29.297,0.000,0
161653.088,-34.668,-29.297,-41.016,-27.344,0.000,0
161653.092,-38.574,-28.809,-24.902,-31.738,0.000,0
161653.096,-31.738,-21.484,-5.371,-29.785,0.000,0
161653.099,-31.738,-25.391,-20.508,-22.949,0.000,0
161653.103,-37.598,-32.227,-46.875,-31.250,0.000,0
161653.107,-37.109,-26.367,-26.855,-39.062,0.000,0
161653.111,-33.203,-20.020,-7.812,-31.250,0.000,0
161653.115,-31.738,-25.879,-19.043,-37.598,0.000,0
161653.119,-34.180,-28.320,-15.137,-36.621,0.000,0
161653.123,-34.180,-20.020,-29.297,-21.484,0.000,0
161653.127,-25.879,-24.414,-34.668,-23.926,0.000,0
161653.131,-24.902,-31.738,-25.879,-19.043,0.000,0
161653.135,-26.855,-22.461,-11.719,-22.949,0.000,0
161653.138,-31.738,-20.020,-24.414,-29.785,0.000,0
161653.142,-38.086,-26.367,-37.109,-40.039,0.000,0
161653.146,-21.973,-20.996,-17.090,-39.062,0.000,0
161653.150,-20.996,-20.020,-22.461,-25.879,0.000,0
161653.154,-35.645,-20.508,-19.531,-27.832,0.000,0
161653.158,-22.949,-17.090,-21.973,-28.809,0.000,0
161653.162,-24.902,-17.090,-28.320,-28.320,0.000,0
161653.166,-20.508,-16.602,-14.160,-19.531,0.000,0
161653.170,-17.090,-21.484,-15.625,-26.367,0.000,0
161653.174,-27.344,-22.949,-21.973,-33.691,0.000,0
161653.178,-25.391,-21.973,-24.414,-17.090,0.000,0
161653.181,-20.996,-17.090,-13.184,-21.973,0.000,0
161653.185,-21.484,-13.672,-14.160,-32.227,0.000,0
161653.189,-25.391,-18.555,-26.855,-35.645,0.000,0
161653.193,-32.715,-20.996,-10.742,-35.645,0.000,0
161653.197,-41.992,-22.949,-19.043,-35.156,0.000,0
161653.201,-28.320,-28.320,-43.945,-30.762,0.000,0
161653.205,-20.020,-28.809,-43.457,-16.602,0.000,0
161653.209,-21.484,-29.297,-16.602,-24.414,0.000,0
161653.213,-18.066,-31.250,-10.742,-24.902,0.000,0
161653.217,-20.996,-25.391,-27.344,-34.180,0.000,0
161653.221,-26.367,-22.461,-31.250,-44.434,0.000,0
161653.224,-25.391,-30.273,-40.039,-15.137,0.000,0
161653.228,-22.949,-29.785,-24.902,-9.277,0.000,0
161653.232,-23.438,-26.367,-12.695,-40.527,0.000,0
161653.236,-18.555,-26.367,-31.738,-32.227,0.000,0
161653.240,-21.484,-24.414,-24.414,-15.137,0.000,0
161653.244,-25.391,-22.461,-21.973,-23.926,0.000,0
161653.248,-13.672,-20.508,-30.762,-37.598,0.000,0
161653.252,-10.742,-17.090,-10.742,-31.250,0.000,0
161653.256,-12.207,-17.578,-12.695,-19.043,0.000,0
161653.260,-8.301,-20.996,-18.066,-21.484,0.000,0
161653.263,-8.789,-16.113,-21.484,-6.348,0.000,0
161653.267,-15.625,-20.996,-20.508,-14.160,0.000,0
161653.271,-13.672,-24.414,-1.953,-44.922,0.000,0
161653.275,-20.996,-21.973,-29.785,-35.645,0.000,0
161653.279,-23.926,-22.461,-41.504,-30.762,0.000,0
161653.283,-6.348,-20.508,-23.926,-20.996,0.000,0
161653.287,-9.766,-25.391,-15.137,-22.949,0.000,0
161653.291,-24.902,-20.996,-17.090,-32.227,0.000,0
161653.295,-22.949,-19.531,-26.855,-33.691,0.000,0
161653.299,-22.461,-25.879,-24.414,-9.277,0.000,0
161653.303,-25.879,-22.461,-10.254,2.930,0.000,0
161653.306,-25.391,-22.949,-20.996,-10.254,0.000,0
161653.310,-29.297,-23.438,-10.254,-21.973,0.000,0
161653.314,-40.039,-27.344,-17.090,-35.645,0.000,0
161653.318,-40.039,-28.809,-31.738,-38.574,0.000,0
161653.322,-29.297,-21.973,-32.715,-27.344,0.000,0
161653.326,-27.344,-20.996,-47.852,-19.531,0.000,0
161653.330,-30.273,-27.344,-15.137,-38.086,0.000,0
161653.334,-29.297,-26.855,-10.742,-40.039,0.000,0
161653.338,-29.297,-23.926,-44.434,-20.020,0.000,0
161653.342,-31.738,-25.391,-42.969,-17.578,0.000,0
161653.346,-30.762,-22.461,-7.812,-22.461,0.000,0
161653.349,-30.762,-22.461,-1.953,-32.715,0.000,0
161653.353,-42.480,-23.926,-29.785,-35.645,0.000,0
161653.357,-51.270,-22.949,-30.762,-22.461,0.000,0
161653.361,-45.898,-23.438,-25.879,-19.531,0.000,0
161653.365,-42.969,-28.809,-41.016,-25.879,0.000,0
161653.369,-41.016,-28.320,-26.855,-25.391,0.000,0
161653.373,-35.156,-28.809,-21.973,-22.461,0.000,0
161653.377,-27.344,-25.391,-41.016,-25.879,0.000,0
161653.381,-27.344,-22.461,-38.086,-16.602,0.000,0
161653.385,-30.762,-26.855,-48.828,-10.254,0.000,0
161653.388,-34.180,-27.832,-33.203,-24.902,0.000,0
161653.392,-27.344,-22.461,-3.418,-26.367,0.000,0
161653.396,-28.320,-21.484,-21.973,-22.949,0.000,0
161653.400,-38.086,-28.320,-33.691,-18.555,0.000,0
161653.404,-31.250,-23.926,-31.738,8.789,0.000,0
161653.408,-26.855,-18.555,-15.625,-3.418,0.000,0
161653.412,-19.531,-22.949,-13.672,-38.574,0.000,0
161653.416,-16.113,-19.531,-25.391,-24.902,0.000,0
161653.420,-20.508,-17.578,-14.648,-22.461,0.000,0
161653.424,-24.902,-23.438,-14.160,-29.785,0.000,0
161653.428,-23.438,-25.879,-20.508,-26.855,0.000,0
161653.431,-16.113,-24.414,-15.137,-27.832,0.000,0
161653.435,-20.508,-22.949,-20.020,-23.926,0.000,0
161653.439,-30.762,-29.297,-33.203,-20.996,0.000,0
161653.443,-26.855,-32.227,-39.062,-25.879,0.000,0
161653.447,-20.508,-31.250,-22.949,-20.020,0.000,0
161653.451,-20.508,-26.367,-20.020,-7.812,0.000,0
161653.455,-20.508,-23.438,-35.156,-23.926,0.000,0
161653.459,-19.043,-26.855,-29.785,-21.484,0.000,0
161653.463,-12.207,-29.297,-19.043,-8.789,0.000,0
161653.467,-15.137,-20.996,-12.695,-35.645,0.000,0
161653.471,-17.090,-20.996,-11.719,-47.363,0.000,0
161653.474,-18.066,-30.273,-17.578,-36.621,0.000,0
161653.478,-31.250,-32.715,-33.203,-26.855,0.000,0
161653.482,-43.945,-32.227,-21.973,-26.855,0.000,0
161653.486,-30.273,-33.203,-23.926,-38.086,0.000,0
161653.490,-27.832,-31.738,-23.926,-41.504,0.000,0
161653.494,-34.668,-25.879,-19.043,-35.156,0.000,0
161653.498,-32.715,-23.438,-26.367,-32.715,0.000,0
161653.502,-34.180,-23.438,-42.480,-30.273,0.000,0
161653.506,-31.250,-23.438,-38.574,-27.344,0.000,0
161653.510,-34.668,-27.344,-15.625,-33.691,0.000,0
161653.513,-38.574,-32.715,-30.273,-36.133,0.000,0
161653.517,-37.598,-35.645,-42.969,-33.203,0.000,0
161653.521,-35.156,-31.250,-32.227,-30.273,0.000,0
161653.525,-35.156,-30.273,-5.859,-46.875,0.000,0
161653.529,-35.156,-30.273,-13.672,-45.410,0.000,0
161653.533,-33.691,-25.879,-43.945,-41.016,0.000,0
161653.537,-36.133,-24.414,-36.133,-41.016,0.000,0
161653.541,-30.762,-21.973,-24.902,-18.066,0.000,0
161653.545,-18.066,-17.090,-20.996,-18.066,0.000,0
161653.549,-26.855,-22.461,-16.602,-35.156,0.000,0
161653.553,-36.621,-28.809,-26.367,-35.156,0.000,0
161653.556,-38.086,-25.391,-33.691,-38.086,0.000,0
161653.560,-24.414,-21.973,-32.715,-30.762,0.000,0
161653.564,-1.953,-22.949,-22.949,-16.113,0.000,0
161653.568,-7.812,-18.066,-5.859,-38.574,0.000,0
161653.572,-23.926,-17.578,-20.508,-55.664,0.000,0
161653.576,-24.414,-20.508,-38.086,-41.504,0.000,0
161653.580,-13.184,-15.137,-36.133,-19.531,0.000,0
161653.584,-6.836,-22.461,-32.715,-14.160,0.000,0
161653.588,-21.484,-20.508,-13.672,-40.039,0.000,0
161653.592,-25.879,-13.184,-26.367,-42.969,0.000,0
161653.596,-10.742,-16.602,-36.621,-15.137,0.000,0
161653.599,-16.113,-18.066,-23.926,-1.953,0.000,0
161653.603,-31.250,-18.555,-27.344,-17.578,0.000,0
161653.607,-33.203,-20.508,-20.508,-35.156,0.000,0
161653.611,-29.785,-21.484,-21.973,-55.176,0.000,0
161653.615,-33.691,-20.996,-34.180,-38.574,0.000,0
161653.619,-26.855,-17.090,-48.340,-18.555,0.000,0
161653.623,-22.949,-19.043,-48.340,-30.762,0.000,0
161653.627,-23.438,-21.484,-10.254,-36.133,0.000,0
161653.631,-25.879,-21.973,-12.695,-19.531,0.000,0
161653.635,-36.621,-25.879,-37.598,-31.738,0.000,0
161653.638,-37.109,-24.902,-39.062,-39.062,0.000,0
161653.642,-29.297,-25.391,-33.691,-27.832,0.000,0
161653.646,-40.039,-24.902,-17.090,-43.945,0.000,0
161653.650,-41.504,-26.855,-28.809,-41.504,0.000,0
161653.654,-28.320,-25.879,-40.039,-29.785,0.000,0
161653.658,-35.645,-25.879,-33.691,-38.574,0.000,0
161653.662,-42.480,-25.879,-30.762,-41.992,0.000,0
161653.666,-41.016,-24.414,-23.438,-51.758,0.000,0
161653.670,-37.598,-28.320,-33.691,-48.828,0.000,0
161653.674,-36.621,-21.973,-34.668,-50.781,0.000,0
161653.678,-41.504,-17.578,-13.672,-50.293,0.000,0
161653.681,-44.434,-24.414,-34.668,-41.992,0.000,0
161653.685,-37.109,-29.785,-28.809,-47.363,0.000,0
161653.689,-41.016,-27.344,-18.555,-50.781,0.000,0
161653.693,-40.039,-21.973,-26.855,-38.086,0.000,0
161653.697,-29.785,-23.926,-38.574,-22.949,0.000,0
161653.701,-25.879,-25.391,-36.621,-15.625,0.000,0
161653.705,-30.762,-21.973,-7.812,-29.785,0.000,0
161653.709,-42.969,-27.344,-13.184,-45.410,0.000,0
161653.713,-46.875,-32.715,-31.738,-39.551,0.000,0
161653.717,-42.480,-29.785,-41.504,-36.133,0.000,0
161653.721,-44.434,-31.250,-30.273,-31.738,0.000,0
161653.724,-40.527,-28.320,-8.301,-31.738,0.000,0
161653.728,-30.762,-25.879,-14.648,-38.574,0.000,0
161653.732,-31.738,-26.855,-19.531,-29.297,0.000,0
161653.736,-29.297,-24.414,-27.832,-16.602,0.000,0
161653.740,-27.832,-23.926,-33.691,-18.555,0.000,0
161653.744,-32.715,-23.926,-23.438,-16.602,0.000,0
161653.748,-36.133,-28.320,-26.367,-30.762,0.000,0
161653.752,-35.156,-29.297,-32.227,-38.086,0.000,0
161653.756,-37.598,-24.414,-30.762,-27.832,0.000,0
161653.760,-41.016,-25.879,-41.992,-25.879,0.000,0
161653.763,-36.133,-28.320,-25.879,-28.320,0.000,0
161653.767,-37.109,-24.902,-3.418,-34.180,0.000,0
161653.771,-30.762,-20.996,-32.715,-27.344,0.000,0
161653.775,-28.320,-23.926,-41.016,-20.020,0.000,0
161653.779,-35.156,-24.902,-28.320,-29.785,0.000,0
161653.783,-32.715,-25.391,-26.855,-35.645,0.000,0
161653.787,-33.691,-25.879,-24.902,-33.691,0.000,0
161653.791,-44.434,-24.414,-32.715,-39.551,0.000,0
161653.795,-41.504,-32.715,-41.504,-38.574,0.000,0
161653.799,-35.156,-31.738,-34.180,-33.691,0.000,0
161653.803,-40.039,-25.391,-31.250,-34.668,0.000,0
161653.806,-35.156,-25.391,-26.855,-20.020,0.000,0
161653.810,-29.785,-20.996,-16.113,-17.090,0.000,0
161653.814,-31.250,-28.809,-30.273,-34.180,0.000,0
161653.818,-26.367,-31.738,-40.527,-27.344,0.000,0
161653.822,-21.484,-21.484,-15.137,-27.832,0.000,0
161653.826,-28.320,-19.043,-14.160,-37.598,0.000,0
161653.830,-25.879,-21.973,-25.879,-41.016,0.000,0
161653.834,-23.926,-22.461,-28.809,-42.969,0.000,0
161653.838,-25.391,-16.113,-33.691,-27.832,0.000,0
161653.842,-20.020,-22.461,-15.137,-28.809,0.000,0
161653.846,-21.973,-26.855,-18.066,-42.480,0.000,0
161653.849,-25.879,-24.902,-37.109,-31.250,0.000,0
161653.853,-23.438,-22.461,-24.902,-12.695,0.000,0
161653.857,-20.996,-22.461,-20.508,-10.254,0.000,0
161653.861,-22.461,-28.320,-28.809,-22.949,0.000,0
161653.865,-25.391,-25.879,-25.879,-36.621,0.000,0
161653.869,-16.113,-26.367,-27.832,-32.227,0.000,0
161653.873,-17.578,-23.438,-23.438,-20.020,0.000,0
161653.877,-22.461,-22.949,-20.996,-21.973,0.000,0
161653.881,-13.184,-25.391,-6.836,-23.926,0.000,0
161653.885,-14.648,-22.461,-8.301,-20.996,0.000,0
161653.888,-17.578,-21.484,-15.625,-26.367,0.000,0
161653.892,-14.648,-22.949,-18.066,-18.555,0.000,0
161653.896,-12.695,-24.902,-15.137,-12.695,0.000,0
161653.900,-16.602,-21.484,0.000,-31.738,0.000,0
161653.904,-16.602,-20.996,-26.855,-20.020,0.000,0
161653.908,-19.531,-24.902,-35.645,-29.297,0.000,0
161653.912,-20.508,-26.855,-24.902,-35.156,0.000,0
161653.916,-25.879,-25.879,-24.414,-28.320,0.000,0
161653.920,-30.762,-21.484,-17.090,-40.039,0.000,0
161653.924,-17.090,-26.367,-23.438,-33.203,0.000,0
161653.928,-21.973,-28.809,-31.738,-26.367,0.000,0
161653.931,-26.855,-25.391,-36.133,-19.531,0.000,0
161653.935,-17.578,-23.438,-34.668,-19.043,0.000,0
161653.939,-20.020,-24.414,-29.297,-23.926,0.000,0
161653.943,-23.926,-26.855,-38.574,-14.160,0.000,0
161653.947,-17.090,-28.320,-48.340,-12.207,0.000,0
161653.951,-16.602,-31.738,-51.270,-10.742,0.000,0
161653.955,-29.785,-33.203,-39.062,-7.812,0.000,0
161653.959,-34.668,-25.879,2.441,-7.324,0.000,0
161653.963,-26.367,-22.949,-14.160,-7.812,0.000,0
161653.967,-31.738,-26.855,-53.223,-21.484,0.000,0
161653.971,-23.926,-21.973,-42.480,-24.902,0.000,0
161653.974,-15.625,-21.973,-21.973,-29.785,0.000,0
161653.978,-26.367,-33.203,-10.742,-34.180,0.000,0
161653.982,-27.344,-26.855,-22.949,-20.996,0.000,0
161653.986,-21.484,-13.184,-17.090,-19.043,0.000,0
161653.990,-22.461,-13.184,-14.648,-18.555,0.000,0
161653.994,-22.461,-14.160,-41.016,-11.719,0.000,0
161653.998,-22.949,-19.043,-28.809,-24.414,0.000,0
161654.002,-27.832,-23.438,-6.836,-20.020,0.000,0
161654.006,-22.949,-26.367,-20.508,-6.836,0.000,0
161654.010,-20.508,-22.949,-34.180,-14.160,0.000,0
161654.013,-20.020,-16.113,-25.391,-8.789,0.000,0
161654.017,-13.184,-15.137,-5.859,-16.602,0.000,0
161654.021,-7.812,-13.184,-10.254,-18.066,0.000,0
161654.025,-9.277,-16.602,-32.715,-19.531,0.000,0
161654.029,-20.996,-21.484,-36.621,-20.020,0.000,0
161654.033,-32.227,-19.043,-26.855,-14.160,0.000,0
161654.037,-28.320,-21.973,-26.855,-28.320,0.000,0
161654.041,-24.414,-24.902,-39.551,-25.391,0.000,0
161654.045,-27.344,-21.973,-29.297,-19.531,0.000,0
161654.049,-22.949,-18.555,-25.879,-30.273,0.000,0
161654.053,-13.184,-20.020,-28.320,-34.668,0.000,0
161654.056,-3.418,-24.414,-14.648,-16.602,0.000,0
161654.060,-3.906,-21.973,-15.625,-11.230,0.000,0
161654.064,-32.715,-20.020,-24.902,-35.645,0.000,0
161654.068,-44.434,-21.484,-33.691,-43.945,0.000,0
161654.072,-20.020,-21.484,-28.320,-28.320,0.000,0
161654.076,-22.461,-21.484,-16.113,-31.738,0.000,0
161654.080,-44.922,-13.184,-31.250,-45.898,0.000,0
161654.084,-33.691,-13.184,-36.621,-30.762,0.000,0
161654.088,-23.438,-19.043,-23.438,-20.996,0.000,0
161654.092,-25.391,-12.695,-17.578,-27.344,0.000,0
161654.096,-20.020,-14.648,-24.414,-34.668,0.000,0
161654.099,-20.996,-17.090,-31.250,-38.574,0.000,0
161654.103,-29.785,-19.043,-25.391,-29.785,0.000,0
161654.107,-34.668,-25.391,-27.832,-16.602,0.000,0
161654.111,-29.297,-24.902,-31.738,-20.020,0.000,0
161654.115,-33.203,-28.320,-26.367,-23.926,0.000,0
161654.119,-35.156,-24.902,-23.926,-16.113,0.000,0
161654.123,-19.531,-15.625,-26.367,-25.391,0.000,0
161654.127,-13.184,-15.625,-23.438,-24.414,0.000,0
161654.131,-14.648,-12.207,-17.578,-21.484,0.000,0
161654.135,-16.602,-17.090,-5.859,-26.367,0.000,0
161654.138,-27.344,-24.414,-2.441,-43.457,0.000,0
161654.142,-26.855,-22.461,-27.344,-40.039,0.000,0
161654.146,-22.949,-25.391,-51.270,-25.391,0.000,0
161654.150,-26.855,-19.531,-32.715,-26.367,0.000,0
161654.154,-19.043,-13.184,-10.742,-29.785,0.000,0
161654.158,-15.625,-14.648,-22.461,-35.156,0.000,0
161654.162,-17.578,-17.090,-27.344,-42.969,0.000,0
161654.166,-14.160,-19.531,-19.043,-35.156,0.000,0
161654.170,-20.020,-17.090,-26.855,-21.484,0.000,0
161654.174,-23.438,-18.066,-19.531,-29.785,0.000,0
161654.178,-20.508,-20.508,-21.484,-20.996,0.000,0
161654.181,-16.113,-18.555,-29.297,-6.348,0.000,0
161654.185,-6.836,-19.531,-31.738,-25.879,0.000,0
161654.189,-2.441,-20.020,-30.273,-28.809,0.000,0
161654.193,-13.672,-21.973,-14.160,-26.855,0.000,0
161654.197,-24.902,-29.785,-27.344,-44.434,0.000,0
161654.201,-16.602,-22.949,-42.480,-38.086,0.000,0
161654.205,-7.812,-22.461,-33.203,-26.367,0.000,0
161654.209,-12.207,-24.902,-18.066,-8.789,0.000,0
161654.213,-18.555,-19.043,-1.953,-6.836,0.000,0
161654.217,-18.066,-20.508,-12.207,-14.648,0.000,0
161654.221,-12.207,-16.602,-16.113,-14.648,0.000,0
161654.224,-18.066,-14.648,-6.836,-22.461,0.000,0
161654.228,-22.949,-15.137,-18.066,-22.949,0.000,0
161654.232,-15.625,-19.043,-17.090,-33.691,0.000,0
161654.236,-16.602,-20.020,-18.555,-41.992,0.000,0
161654.240,-12.695,-19.531,-14.648,-30.273,0.000,0
161654.244,-16.113,-23.438,-19.531,-30.273,0.000,0
161654.248,-24.414,-21.484,-52.246,-33.691,0.000,0
161654.252,-28.320,-26.855,-27.344,-39.551,0.000,0
161654.256,-27.344,-26.367,-7.812,-24.414,0.000,0
161654.260,-30.273,-23.438,-34.180,-26.855,0.000,0
161654.263,-26.367,-24.902,-48.340,-41.504,0.000,0
161654.267,-1.465,-24.414,-31.738,-8.301,0.000,0
161654.271,-17.090,-20.508,-10.254,-16.113,0.000,0
161654.275,-38.086,-25.879,-20.996,-63.965,0.000,0
161654.279,-34.668,-29.785,-41.992,-55.664,0.000,0
161654.283,-43.945,-21.484,-26.855,-35.156,0.000,0
161654.287,-39.551,-15.625,-11.719,-28.809,0.000,0
161654.291,-30.762,-19.531,-8.789,-40.527,0.000,0
161654.295,-34.180,-22.461,-17.578,-47.363,0.000,0
161654.299,-38.574,-22.949,-34.180,-42.969,0.000,0
161654.303,-34.180,-25.879,-28.320,-52.246,0.000,0
161654.306,-28.320,-26.855,-31.738,-41.992,0.000,0
161654.310,-26.367,-27.344,-25.879,-43.457,0.000,0
161654.314,-21.973,-25.391,-16.602,-42.480,0.000,0
161654.318,-28.320,-24.414,-27.344,-43.457,0.000,0
161654.322,-35.645,-22.461,-33.691,-45.898,0.000,0
161654.326,-26.855,-21.484,-42.480,-17.578,0.000,0
161654.330,-24.902,-23.926,-15.137,-26.855,0.000,0
161654.334,-23.926,-22.461,-1.465,-47.363,0.000,0
161654.338,-18.555,-25.879,-35.645,-31.738,0.000,0
161654.342,-21.973,-28.809,-22.461,-20.508,0.000,0
161654.346,-23.926,-25.879,-20.996,-3.906,0.000,0
161654.349,-30.273,-27.344,-36.133,-16.113,0.000,0
161654.353,-33.691,-29.785,-25.879,-38.086,0.000,0
161654.357,-26.855,-28.809,-30.273,-23.926,0.000,0
161654.361,-37.598,-30.273,-35.156,-26.855,0.000,0
161654.365,-38.086,-24.902,-34.180,-35.645,0.000,0
161654.369,-37.109,-21.973,-28.320,-36.133,0.000,0
161654.373,-38.086,-28.809,-20.508,-36.621,0.000,0
161654.377,-37.109,-29.297,-24.414,-33.203,0.000,0
161654.381,-34.180,-24.902,-40.039,-39.062,0.000,0
161654.385,-25.879,-25.879,-43.945,-27.832,0.000,0
161654.388,-26.367,-29.297,-32.227,-15.137,0.000,0
161654.392,-33.691,-28.809,-23.438,-23.926,0.000,0
161654.396,-32.227,-30.762,-43.457,-24.902,0.000,0
161654.400,-27.832,-31.250,-43.457,-24.414,0.000,0
161654.404,-28.809,-23.926,-25.879,-29.785,0.000,0
161654.408,-32.715,-21.484,-25.391,-37.109,0.000,0
161654.412,-35.156,-23.926,-29.297,-44.922,0.000,0
161654.416,-31.250,-20.996,-26.855,-32.227,0.000,0
161654.420,-29.785,-21.484,-17.090,-23.926,0.000,0
161654.424,-22.949,-26.367,-24.414,-39.551,0.000,0
161654.428,-17.578,-26.855,-31.738,-35.645,0.000,0
161654.431,-22.461,-21.484,-13.184,-36.133,0.000,0
161654.435,-22.461,-14.648,-13.184,-31.250,0.000,0
161654.439,-25.879,-19.043,-24.414,-40.039,0.000,0
161654.443,-34.668,-23.926,-26.367,-57.617,0.000,0
161654.447,-42.969,-24.902,-20.996,-51.270,0.000,0
161654.451,-38.574,-24.414,-21.484,-47.852,0.000,0
161654.455,-31.738,-21.484,-16.602,-48.828,0.000,0
161654.459,-29.785,-21.973,-21.484,-32.715,0.000,0
161654.463,-28.809,-26.855,-29.297,-15.625,0.000,0
161654.467,-29.785,-24.414,-10.254,-23.926,0.000,0
161654.471,-30.273,-24.902,-12.695,-37.598,0.000,0
161654.474,-25.879,-26.855,-26.367,-31.738,0.000,0
161654.478,-28.809,-26.855,-25.879,-35.645,0.000,0
161654.482,-22.949,-26.855,-18.555,-38.574,0.000,0
161654.486,-14.648,-26.855,-20.020,-40.527,0.000,0
161654.490,-8.789,-21.973,-12.695,-47.852,0.000,0
161654.494,-1.465,-18.555,-9.766,-49.805,0.000,0
161654.498,1.953,-16.602,-24.902,-31.738,0.000,0
161654.502,-6.348,-12.207,-21.973,-14.160,0.000,0
161654.506,-16.602,-14.648,-20.020,-18.066,0.000,0
161654.510,-20.508,-15.137,-3.906,-41.992,0.000,0
161654.513,-22.949,-20.020,-14.648,-50.781,0.000,0
161654.517,-16.602,-22.949,-35.156,-51.270,0.000,0
161654.521,-16.113,-23.438,-19.043,-47.852,0.000,0
161654.525,-22.949,-28.809,-25.391,-30.273,0.000,0
161654.529,-21.973,-25.391,-24.414,-39.062,0.000,0
161654.533,-24.902,-15.137,-22.461,-41.504,0.000,0
161654.537,-25.391,-17.578,-25.391,-19.043,0.000,0
161654.541,-22.949,-21.973,-26.367,-22.461,0.000,0
161654.545,-22.949,-24.902,-32.715,-29.297,0.000,0
161654.549,-19.043,-24.414,-22.949,-35.156,0.000,0
161654.553,-18.066,-17.578,-13.184,-37.109,0.000,0
161654.556,-16.602,-21.973,-18.066,-23.438,0.000,0
161654.560,-12.695,-28.809,-45.410,-10.742,0.000,0
161654.564,-14.160,-32.227,-43.457,-20.508,0.000,0
161654.568,-24.414,-36.621,-4.883,-34.180,0.000,0
161654.572,-32.227,-37.109,-23.438,-28.320,0.000,0
161654.576,-33.203,-34.180,-40.039,-32.715,0.000,0
161654.580,-31.250,-24.902,-28.320,-37.598,0.000,0
161654.584,-19.043,-19.531,-13.184,-34.668,0.000,0
161654.588,-4.883,-21.973,-10.254,-29.297,0.000,0
161654.592,-9.277,-19.531,-26.367,-38.086,0.000,0
161654.596,-15.137,-20.020,-25.391,-38.574,0.000,0
161654.599,-16.113,-23.438,-22.949,-23.438,0.000,0
161654.603,-13.184,-23.438,-26.855,-30.273,0.000,0
161654.607,-25.391,-29.785,-23.438,-43.457,0.000,0
161654.611,-40.039,-25.391,-27.344,-37.109,0.000,0
161654.615,-34.180,-19.531,-22.949,-19.531,0.000,0
161654.619,-27.832,-26.367,-30.762,-25.391,0.000,0
161654.623,-25.879,-26.855,-29.785,-44.922,0.000,0
161654.627,-31.738,-26.367,-12.207,-39.551,0.000,0
161654.631,-39.062,-30.762,-24.414,-30.273,0.000,0
161654.635,-41.016,-29.297,-33.691,-44.922,0.000,0
161654.638,-43.457,-27.344,-31.250,-39.062,0.000,0
161654.642,-37.598,-20.508,-19.531,-26.367,0.000,0
161654.646,-36.621,-17.578,-13.184,-38.574,0.000,0
161654.650,-36.133,-20.996,-15.137,-41.992,0.000,0
161654.654,-28.809,-19.043,-15.137,-39.551,0.000,0
161654.658,-26.855,-21.484,-11.719,-36.621,0.000,0
161654.662,-26.367,-26.367,-28.320,-35.156,0.000,0
161654.666,-12.207,-22.461,-21.484,-41.504,0.000,0
161654.670,-11.230,-14.160,-8.789,-27.344,0.000,0
161654.674,-28.809,-17.578,-23.438,-16.113,0.000,0
161654.678,-21.484,-19.043,-31.250,-27.832,0.000,0
161654.681,-20.996,-20.508,-26.367,-35.645,0.000,0
161654.685,-30.273,-25.391,-3.418,-46.387,0.000,0
161654.689,-31.738,-18.066,-1.953,-53.223,0.000,0
161654.693,-36.621,-17.090,-17.090,-60.059,0.000,0
161654.697,-40.527,-28.320,-36.133,-55.176,0.000,0
161654.701,-39.062,-33.691,-44.434,-36.133,0.000,0
161654.705,-34.668,-34.180,-8.301,-44.434,0.000,0
161654.709,-40.527,-33.691,-25.879,-61.523,0.000,0
161654.713,-41.992,-29.785,-49.805,-49.316,0.000,0
161654.717,-30.273,-25.879,-31.250,-30.762,0.000,0
161654.721,-30.273,-21.973,-26.855,-33.203,0.000,0
161654.724,-37.598,-17.578,-24.902,-54.199,0.000,0
161654.728,-34.668,-13.672,-18.555,-48.340,0.000,0
161654.732,-25.879,-15.625,-23.926,-37.109,0.000,0
161654.736,-26.855,-17.578,-27.832,-38.086,0.000,0
161654.740,-22.461,-16.602,-26.367,-33.691,0.000,0
161654.744,-22.949,-22.949,-32.715,-44.922,0.000,0
161654.748,-30.273,-29.785,-26.367,-45.410,0.000,0
161654.752,-28.320,-24.414,-19.043,-18.555,0.000,0
161654.756,-20.996,-20.508,-24.902,-29.297,0.000,0
161654.760,-19.531,-20.020,-36.621,-48.828,0.000,0
161654.763,-31.738,-18.555,-18.555,-45.410,0.000,0
161654.767,-26.367,-17.578,-10.742,-44.922,0.000,0
161654.771,-9.277,-19.531,-20.020,-31.250,0.000,0
161654.775,-15.625,-21.973,-17.578,-24.902,0.000,0
161654.779,-35.156,-16.113,-26.855,-33.691,0.000,0
161654.783,-27.344,-11.230,-26.367,-28.320,0.000,0
161654.787,-25.879,-11.230,-13.184,-38.086,0.000,0
161654.791,-39.062,-11.719,-22.461,-40.039,0.000,0
161654.795,-39.551,-9.766,-23.926,-35.156,0.000,0
161654.799,-32.715,-6.836,-23.926,-43.945,0.000,0
161654.803,-27.344,-10.742,-26.367,-31.250,0.000,0
161654.806,-18.555,-11.230,-18.555,-28.320,0.000,0
161654.810,-13.184,-10.742,-24.414,-43.945,0.000,0
161654.814,-17.090,-16.113,-37.598,-45.898,0.000,0
161654.818,-13.184,-15.137,-35.645,-34.180,0.000,0
161654.822,-18.066,-14.160,-16.602,-29.297,0.000,0
161654.826,-24.414,-20.020,-16.602,-39.551,0.000,0
161654.830,-15.137,-21.484,-27.344,-39.551,0.000,0
161654.834,-18.066,-17.578,-22.461,-32.715,0.000,0
161654.838,-19.043,-17.578,-15.137,-37.109,0.000,0
161654.842,-11.719,-20.996,-17.578,-31.738,0.000,0
161654.846,-17.090,-20.508,-23.438,-36.621,0.000,0
161654.849,-25.391,-18.066,-27.832,-36.133,0.000,0
161654.853,-18.555,-19.531,-22.949,-30.273,0.000,0
161654.857,-14.160,-20.020,-13.672,-35.156,0.000,0
161654.861,-17.090,-23.926,-40.527,-11.719,0.000,0
161654.865,-13.672,-18.066,-29.297,-22.461,0.000,0
161654.869,-14.160,-16.602,-10.742,-46.875,0.000,0
161654.873,-10.742,-18.555,-18.066,-40.039,0.000,0
161654.877,-8.789,-11.719,-24.902,-18.555,0.000,0
161654.881,-21.973,-14.648,-24.902,-29.785,0.000,0
161654.885,-22.461,-20.020,-1.953,-48.340,0.000,0
161654.888,-2.441,-15.625,-18.555,-23.926,0.000,0
161654.892,-10.254,-14.648,-43.945,-20.996,0.000,0
161654.896,-31.250,-14.648,-33.691,-46.387,0.000,0
161654.900,-28.320,-17.090,-24.902,-54.688,0.000,0
161654.904,-25.879,-14.160,-32.227,-43.457,0.000,0
161654.908,-24.414,-2.441,-39.551,-27.832,0.000,0
161654.912,-20.020,1.465,-42.969,-37.598,0.000,0
161654.916,-24.414,6.348,-39.062,-32.715,0.000,0
161654.920,-20.996,9.766,-29.297,-17.090,0.000,0
161654.924,-19.531,7.812,-18.555,-33.203,0.000,0
161654.928,-25.879,15.625,-31.738,-24.902,0.000,0
161654.931,-22.949,26.367,-35.645,-13.184,0.000,0
161654.935,-24.414,24.414,-40.039,-32.227,0.000,0
161654.939,-29.297,20.508,-27.832,-45.898,0.000,0
161654.943,-26.367,27.344,-2.441,-35.645,0.000,0
161654.947,-20.996,27.832,-19.531,-30.762,0.000,0
161654.951,-29.297,20.996,-32.227,-32.227,0.000,0
161654.955,-35.645,19.043,-24.902,-34.180,0.000,0
161654.959,-39.062,14.648,-8.789,-56.641,0.000,0
161654.963,-40.039,8.789,-18.066,-33.691,0.000,0
161654.967,-28.809,9.277,-33.203,-7.812,0.000,0
161654.971,-19.531,9.766,-27.344,-31.738,0.000,0
161654.974,-15.137,5.859,-18.066,-35.156,0.000,0
161654.978,-21.484,0.000,-22.461,-45.410,0.000,0
161654.982,-27.344,-0.977,-30.762,-55.176,0.000,0
161654.986,-26.855,0.488,-8.789,-42.969,0.000,0
161654.990,-31.738,-4.395,-7.812,-42.480,0.000,0
161654.994,-26.367,-9.277,-37.598,-28.809,0.000,0
161654.998,-16.602,-12.207,-15.137,-22.461,0.000,0
161655.002,-16.113,-14.160,-5.859,-34.668,0.000,0
161655.006,-22.461,-17.578,-31.250,-55.176,0.000,0
161655.010,-19.531,-26.367,-29.785,-60.059,0.000,0
161655.013,-16.602,-27.344,-25.879,-46.875,0.000,0
161655.017,-33.691,-25.391,-28.320,-52.734,0.000,0
161655.021,-31.250,-29.297,-21.973,-57.129,0.000,0
161655.025,-18.066,-31.250,-34.180,-38.574,0.000,0
161655.029,-18.555,-32.715,-38.086,-26.367,0.000,0
161655.033,-26.367,-35.156,-29.297,-27.344,0.000,0
161655.037,-25.879,-38.574,-30.273,-29.297,0.000,0
161655.041,-15.625,-35.645,-23.438,-37.109,0.000,0
161655.045,-23.926,-37.109,-27.344,-36.133,0.000,0
161655.049,-31.738,-41.016,-26.367,-42.969,0.000,0
161655.053,-29.785,-38.086,-31.738,-30.273,0.000,0
161655.056,-25.879,-37.109,-20.508,-5.371,0.000,0
161655.060,-22.949,-37.598,-13.184,-33.203,0.000,0
161655.064,-25.391,-39.551,-38.574,-47.363,0.000,0
161655.068,-26.855,-38.086,-27.344,-30.273,0.000,0
161655.072,-29.297,-34.180,-25.879,-36.133,0.000,0
161655.076,-36.133,-39.551,-22.461,-32.715,0.000,0
161655.080,-38.574,-42.969,-11.230,-22.949,0.000,0
161655.084,-32.715,-36.621,-30.762,-42.969,0.000,0
161655.088,-16.113,-33.203,-34.668,-51.758,0.000,0
161655.092,-9.277,-32.715,-27.344,-31.738,0.000,0
161655.096,-18.066,-33.691,-30.762,-29.785,0.000,0
161655.099,-20.508,-40.527,-29.785,-50.781,0.000,0
161655.103,-14.648,-43.945,-30.762,-34.180,0.000,0
161655.107,-12.207,-41.504,-38.086,-12.695,0.000,0
161655.111,-17.578,-38.086,-35.645,-25.879,0.000,0
161655.115,-25.391,-39.062,-30.762,-40.039,0.000,0
161655.119,-25.391,-39.551,-18.066,-61.035,0.000,0
161655.123,-22.461,-32.715,-5.859,-56.152,0.000,0
161655.127,-21.484,-32.227,-23.926,-40.527,0.000,0
161655.131,-20.996,-34.668,-31.250,-37.598,0.000,0
161655.135,-28.320,-33.203,-16.602,-36.621,0.000,0
161655.138,-29.785,-32.227,-7.812,-39.551,0.000,0
161655.142,-33.691,-30.762,-29.297,-31.738,0.000,0
161655.146,-34.668,-32.227,-52.246,-31.738,0.000,0
161655.150,-29.297,-35.156,-29.785,-30.273,0.000,0
161655.154,-36.621,-31.250,-14.648,-23.438,0.000,0
161655.158,-34.180,-28.809,-16.602,-37.109,0.000,0
161655.162,-25.879,-28.320,-21.484,-30.762,0.000,0
161655.166,-39.551,-28.320,-14.648,-17.090,0.000,0
161655.170,-42.480,-33.691,-27.832,-27.344,0.000,0
161655.174,-35.645,-40.527,-56.641,-37.109,0.000,0
161655.178,-36.133,-42.480,-40.039,-40.039,0.000,0
161655.181,-31.250,-37.109,-23.926,-37.598,0.000,0
161655.185,-30.273,-35.645,-26.855,-32.227,0.000,0
161655.189,-33.203,-35.645,-29.297,-40.527,0.000,0
161655.193,-32.715,-33.203,-27.832,-26.855,0.000,0
161655.197,-31.250,-32.227,-13.672,-24.414,0.000,0
161655.201,-33.203,-32.227,-10.742,-39.551,0.000,0
161655.205,-31.738,-37.109,-31.250,-27.832,0.000,0
161655.209,-33.203,-37.598,-34.180,-26.367,0.000,0
161655.213,-36.621,-32.227,-25.879,-37.109,0.000,0
161655.217,-25.391,-30.762,-19.531,-28.809,0.000,0
161655.221,-20.508,-31.250,-25.391,-29.297,0.000,0
161655.224,-35.645,-37.109,-28.809,-49.805,0.000,0
161655.228,-36.621,-36.133,-28.809,-47.852,0.000,0
161655.232,-27.344,-32.715,-41.504,-26.855,0.000,0
161655.236,-27.344,-30.273,-21.484,-33.203,0.000,0
161655.240,-25.391,-27.832,-8.789,-31.738,0.000,0
161655.244,-28.320,-32.227,-34.668,-19.531,0.000,0
161655.248,-28.320,-31.738,-36.621,-35.645,0.000,0
161655.252,-22.949,-30.273,-26.855,-27.832,0.000,0
161655.256,-35.156,-31.250,-14.648,-28.809,0.000,0
161655.260,-39.551,-29.297,-20.508,-41.992,0.000,0
161655.263,-27.832,-29.297,-34.668,-40.039,0.000,0
161655.267,-19.043,-27.344,-22.949,-37.109,0.000,0
161655.271,-16.602,-24.902,-28.809,-13.672,0.000,0
161655.275,-25.391,-30.273,-23.438,-14.160,0.000,0
161655.279,-24.902,-32.715,-23.926,-36.133,0.000,0
161655.283,-16.602,-30.762,-34.668,-37.109,0.000,0
161655.287,-20.020,-30.762,-20.996,-30.273,0.000,0
161655.291,-26.367,-35.645,-27.344,-26.855,0.000,0
161655.295,-30.762,-34.180,-26.367,-34.180,0.000,0
161655.299,-32.715,-30.762,-16.602,-43.945,0.000,0
161655.303,-37.109,-30.762,-26.367,-41.504,0.000,0
161655.306,-33.691,-26.367,-41.016,-30.762,0.000,0
161655.310,-20.020,-25.879,-52.734,-33.203,0.000,0
161655.314,-19.043,-26.855,-22.461,-39.551,0.000,0
161655.318,-20.508,-20.996,2.930,-20.996,0.000,0
161655.322,-13.184,-17.578,-30.273,3.418,0.000,0
161655.326,-12.695,-17.090,-38.086,-0.977,0.000,0
161655.330,-16.602,-13.184,-20.020,-6.836,0.000,0
161655.334,-20.020,-19.531,-4.883,-14.648,0.000,0
161655.338,-25.879,-21.484,-5.859,-33.691,0.000,0
161655.342,-29.785,-18.066,-20.996,-33.203,0.000,0
161655.346,-33.691,-22.461,-19.531,-26.367,0.000,0
161655.349,-31.250,-20.020,-22.949,-20.508,0.000,0
161655.353,-30.273,-24.414,-32.227,-22.461,0.000,0
161655.357,-28.809,-30.762,-26.367,-33.691,0.000,0
161655.361,-25.879,-28.320,-14.648,-37.598,0.000,0
161655.365,-27.832,-21.484,-7.812,-48.340,0.000,0
161655.369,-27.344,-20.508,-16.602,-50.293,0.000,0
161655.373,-35.645,-28.320,-28.809,-35.156,0.000,0
161655.377,-36.133,-31.738,-26.855,-48.340,0.000,0
161655.381,-27.832,-28.320,-27.832,-46.387,0.000,0
161655.385,-16.113,-24.902,-43.945,-34.668,0.000,0
161655.388,-17.090,-26.855,-34.668,-42.969,0.000,0
161655.392,-31.738,-27.832,-19.531,-45.410,0.000,0
161655.396,-36.133,-25.879,-14.648,-43.945,0.000,0
161655.400,-21.973,-26.855,-21.973,-39.551,0.000,0
161655.404,-20.996,-28.809,-20.020,-30.273,0.000,0
161655.408,-35.156,-21.484,-16.602,-23.926,0.000,0
161655.412,-25.391,-19.531,-32.715,-26.367,0.000,0
161655.416,-17.090,-23.926,-18.066,-22.461,0.000,0
161655.420,-18.555,-22.461,-8.301,-25.879,0.000,0
161655.424,-13.672,-26.367,-23.926,-29.785,0.000,0
161655.428,-17.578,-31.738,-32.227,-28.320,0.000,0
161655.431,-22.461,-31.250,-21.484,-38.574,0.000,0
161655.435,-21.973,-34.180,-10.742,-35.156,0.000,0
161655.439,-25.879,-33.203,-22.461,-39.551,0.000,0
161655.443,-21.973,-29.297,-26.855,-45.410,0.000,0
161655.447,-20.996,-32.227,-35.645,-32.715,0.000,0
161655.451,-34.180,-30.762,-27.344,-30.273,0.000,0
161655.455,-34.180,-29.785,-6.348,-22.949,0.000,0
161655.459,-19.043,-33.691,-32.227,-25.391,0.000,0
161655.463,-16.113,-31.250,-36.621,-41.016,0.000,0
161655.467,-20.020,-30.273,-28.809,-32.715,0.000,0
161655.471,-13.672,-28.809,-16.602,-26.855,0.000,0
161655.474,-6.348,-25.391,-18.066,-29.785,0.000,0
161655.478,-15.137,-30.273,-43.457,-32.715,0.000,0
161655.482,-22.949,-26.855,-30.762,-26.367,0.000,0
161655.486,-19.043,-20.020,-20.508,-19.043,0.000,0
161655.490,-18.066,-26.855,-20.996,-27.344,0.000,0
161655.494,-18.066,-28.809,-4.883,-38.086,0.000,0
161655.498,-19.043,-23.438,-7.324,-46.387,0.000,0
161655.502,-18.555,-26.367,-31.250,-43.457,0.000,0
161655.506,-16.602,-23.438,-23.926,-31.738,0.000,0
161655.510,-24.902,-25.391,-18.066,-26.367,0.000,0
161655.513,-25.879,-30.762,-17.578,-35.156,0.000,0
161655.517,-14.648,-26.855,-18.555,-34.180,0.000,0
161655.521,-11.719,-24.414,-21.973,-25.879,0.000,0
161655.525,-23.926,-25.391,-21.484,-28.809,0.000,0
161655.529,-27.832,-23.926,-23.926,-25.391,0.000,0
161655.533,-26.855,-27.832,-15.625,-24.902,0.000,0
161655.537,-26.367,-31.250,-19.043,-27.832,0.000,0
161655.541,-26.855,-32.227,-20.020,-23.438,0.000,0
161655.545,-30.273,-31.738,-19.043,-40.527,0.000,0
161655.549,-21.484,-25.391,-37.598,-38.574,0.000,0
161655.553,-18.555,-22.461,-18.066,-35.156,0.000,0
161655.556,-21.484,-23.438,-7.812,-34.668,0.000,0
161655.560,-15.625,-26.855,-37.598,-20.996,0.000,0
161655.564,-2.930,-20.508,-38.086,-24.414,0.000,0
161655.568,2.441,-15.625,-22.949,-13.184,0.000,0
161655.572,-4.883,-14.160,7.324,-21.484,0.000,0
161655.576,-11.719,-10.254,8.301,-31.738,0.000,0
161655.580,-14.160,-17.578,-31.250,-19.531,0.000,0
161655.584,-20.020,-21.973,-25.391,-14.648,0.000,0
161655.588,-26.367,-19.043,-20.996,-3.418,0.000,0
161655.592,-28.320,-20.020,-23.438,-18.555,0.000,0
161655.596,-23.926,-22.461,-33.691,-32.227,0.000,0
161655.599,-18.066,-24.414,-28.809,-19.043,0.000,0
161655.603,-21.973,-18.555,-10.254,-9.766,0.000,0
161655.607,-23.438,-22.461,-21.973,-9.766,0.000,0
161655.611,-16.602,-25.879,-10.254,-25.391,0.000,0
161655.615,-11.230,-20.996,0.000,-32.715,0.000,0
161655.619,-17.090,-23.438,-27.832,-31.738,0.000,0
161655.623,-16.113,-20.996,-33.691,-22.461,0.000,0
161655.627,-17.578,-16.113,-27.832,-17.090,0.000,0
161655.631,-23.926,-21.973,8.789,-30.762,0.000,0
161655.635,-22.949,-22.949,8.301,-26.855,0.000,0
161655.638,-17.090,-17.090,-30.762,-19.043,0.000,0
161655.642,-19.531,-17.090,-25.391,-33.691,0.000,0
161655.646,-27.832,-19.531,-24.414,-33.691,0.000,0
161655.650,-25.879,-23.926,-20.020,-30.762,0.000,0
161655.654,-20.020,-26.367,-17.090,-41.016,0.000,0
161655.658,-23.438,-29.297,-28.320,-41.992,0.000,0
161655.662,-20.020,-26.367,-22.461,-37.598,0.000,0
161655.666,-9.277,-24.414,-20.508,-21.484,0.000,0
161655.670,-8.789,-22.461,-7.324,-19.531,0.000,0
161655.674,-19.043,-20.508,-6.836,-39.062,0.000,0
161655.678,-25.879,-24.902,-33.203,-30.273,0.000,0
161655.681,-22.949,-19.531,-25.391,-22.949,0.000,0
161655.685,-20.020,-16.113,-33.691,-27.344,0.000,0
161655.689,-20.508,-18.555,-26.855,-28.809,0.000,0
161655.693,-18.555,-20.996,0.000,-25.391,0.000,0
161655.697,-20.996,-24.902,-25.879,-33.203,0.000,0
161655.701,-25.391,-27.832,-34.180,-33.203,0.000,0
161655.705,-20.996,-29.297,-23.438,-18.555,0.000,0
161655.709,-23.438,-27.344,-24.902,-20.508,0.000,0
161655.713,-24.414,-27.344,-22.949,-33.691,0.000,0
161655.717,-25.391,-29.297,-23.926,-24.902,0.000,0
161655.721,-28.809,-29.297,-18.066,-37.598,0.000,0
161655.724,-24.902,-25.879,-25.879,-44.922,0.000,0
161655.728,-27.344,-24.902,-46.875,-39.551,0.000,0
161655.732,-28.809,-24.902,-28.320,-48.828,0.000,0
161655.736,-26.367,-25.879,-13.672,-37.109,0.000,0
161655.740,-27.344,-22.949,-25.879,-27.344,0.000,0
161655.744,-30.762,-18.555,-43.945,-39.062,0.000,0
161655.748,-27.832,-27.344,-37.598,-40.527,0.000,0
161655.752,-26.367,-28.320,-22.461,-42.480,0.000,0
161655.756,-26.855,-27.832,-30.273,-52.246,0.000,0
161655.760,-19.531,-29.785,-35.156,-37.598,0.000,0
161655.763,-24.902,-30.273,-33.203,-34.180,0.000,0
161655.767,-30.762,-30.762,-26.855,-35.645,0.000,0
161655.771,-24.902,-25.391,-14.648,-34.668,0.000,0
161655.775,-22.949,-27.832,-28.320,-35.156,0.000,0
161655.779,-23.438,-35.645,-41.504,-40.039,0.000,0
161655.783,-25.391,-30.762,-9.277,-48.828,0.000,0
161655.787,-23.438,-26.855,-19.531,-29.297,0.000,0
161655.791,-24.414,-33.203,-31.738,-33.203,0.000,0
161655.795,-36.621,-32.227,-24.414,-48.340,0.000,0
161655.799,-30.273,-25.879,-25.391,-40.527,0.000,0
161655.803,-25.879,-26.855,-30.762,-29.785,0.000,0
161655.806,-28.320,-26.855,-40.527,-33.691,0.000,0
161655.810,-27.344,-23.926,-20.996,-33.691,0.000,0
161655.814,-20.996,-24.902,-18.555,-36.133,0.000,0
161655.818,-12.695,-20.508,-25.879,-23.926,0.000,0
161655.822,-17.578,-19.531,-32.227,-4.395,0.000,0
161655.826,-34.180,-25.391,-29.785,-17.090,0.000,0
161655.830,-30.762,-22.461,-15.625,-32.715,0.000,0
161655.834,-20.508,-18.555,-23.926,-33.203,0.000,0
161655.838,-23.438,-29.785,-31.738,-30.762,0.000,0
161655.842,-34.180,-35.645,-40.039,-17.090,0.000,0
161655.846,-33.691,-27.832,-41.016,-16.113,0.000,0
161655.849,-22.949,-28.320,-20.020,-30.762,0.000,0
161655.853,-29.785,-30.273,-17.090,-42.480,0.000,0
161655.857,-33.203,-25.879,-25.879,-51.270,0.000,0
161655.861,-30.273,-23.438,-29.297,-58.594,0.000,0
161655.865,-23.438,-26.367,-39.062,-33.203,0.000,0
161655.869,-29.297,-30.762,-28.809,-16.113,0.000,0
161655.873,-40.527,-30.762,-16.602,-31.738,0.000,0
161655.877,-35.156,-32.715,-33.203,-36.621,0.000,0
161655.881,-35.156,-31.250,-38.086,-36.133,0.000,0
161655.885,-35.156,-26.367,-13.672,-34.668,0.000,0
161655.888,-31.250,-24.414,-8.301,-31.738,0.000,0
161655.892,-31.250,-22.949,-27.344,-20.020,0.000,0
161655.896,-25.391,-24.902,-31.738,-23.438,0.000,0
161655.900,-20.508,-22.949,-20.508,-27.344,0.000,0
161655.904,-18.555,-19.043,-28.809,-12.207,0.000,0
161655.908,-19.043,-22.461,-17.090,-25.391,0.000,0
161655.912,-23.438,-26.367,-15.137,-28.809,0.000,0
161655.916,-28.809,-27.344,-29.297,-15.625,0.000,0
161655.920,-32.227,-26.855,-29.785,-33.691,0.000,0
161655.924,-26.367,-24.414,-42.480,-34.668,0.000,0
161655.928,-19.531,-25.391,-25.879,-36.133,0.000,0
161655.931,-21.484,-26.855,-9.766,-33.203,0.000,0
161655.935,-22.461,-22.949,-15.137,-19.043,0.000,0
161655.939,-20.020,-23.438,-21.484,-20.020,0.000,0
161655.943,-24.902,-26.855,-33.203,-18.066,0.000,0
161655.947,-24.902,-23.438,-17.578,-33.203,0.000,0
161655.951,-21.973,-22.461,-14.160,-46.387,0.000,0
161655.955,-25.879,-27.832,-33.203,-35.156,0.000,0
161655.959,-32.715,-31.250,-28.809,-32.715,0.000,0
161655.963,-38.086,-30.273,-28.809,-42.480,0.000,0
161655.967,-21.973,-33.203,-24.414,-39.551,0.000,0
161655.971,-3.418,-28.809,-16.602,-29.785,0.000,0
161655.974,-22.461,-26.855,-31.738,-42.480,0.000,0
161655.978,-36.133,-23.926,-44.434,-48.828,0.000,0
161655.982,-17.578,-21.973,-45.410,-25.391,0.000,0
161655.986,-20.508,-25.391,-20.508,-28.809,0.000,0
161655.990,-34.180,-20.020,-23.438,-49.316,0.000,0
161655.994,-28.320,-20.020,-36.133,-46.875,0.000,0
161655.998,-31.250,-20.020,-24.902,-43.945,0.000,0
161656.002,-33.691,-20.996,-18.555,-45.410,0.000,0
161656.006,-32.227,-21.973,-18.066,-40.527,0.000,0
161656.010,-30.273,-26.367,-25.879,-37.598,0.000,0
161656.013,-26.855,-29.297,-33.203,-36.133,0.000,0
161656.017,-34.668,-23.438,-33.203,-29.785,0.000,0
161656.021,-33.203,-25.391,-21.973,-19.531,0.000,0
161656.025,-25.879,-31.250,-27.832,-4.395,0.000,0
161656.029,-31.738,-29.297,-33.203,-26.855,0.000,0
161656.033,-26.855,-27.832,-37.598,-54.199,0.000,0
161656.037,-26.855,-28.320,-41.504,-47.852,0.000,0
161656.041,-28.320,-29.297,-45.898,-28.320,0.000,0
161656.045,-23.438,-33.691,-35.156,-27.344,0.000,0
161656.049,-28.809,-28.320,-25.391,-38.574,0.000,0
161656.053,-33.691,-28.809,-36.621,-22.949,0.000,0
161656.056,-25.879,-29.785,-49.805,-13.184,0.000,0
161656.060,-23.926,-28.320,-51.758,-28.320,0.000,0
161656.064,-31.738,-27.832,-17.090,-45.898,0.000,0
161656.068,-30.762,-32.715,-21.484,-47.852,0.000,0
161656.072,-26.367,-30.762,-42.480,-43.457,0.000,0
161656.076,-27.344,-21.484,-30.762,-36.133,0.000,0
161656.080,-26.855,-21.484,-26.367,-29.297,0.000,0
161656.084,-22.949,-24.902,-23.926,-32.227,0.000,0
161656.088,-22.949,-23.438,-17.578,-34.180,0.000,0
161656.092,-22.461,-18.066,-25.879,-21.484,0.000,0
161656.096,-19.531,-18.555,-28.809,-24.414,0.000,0
161656.099,-25.879,-20.996,-20.508,-28.320,0.000,0
161656.103,-31.738,-22.949,-26.367,-28.809,0.000,0
161656.107,-19.043,-20.020,-28.809,-34.180,0.000,0
161656.111,-19.043,-20.020,-8.789,-26.855,0.000,0
161656.115,-21.973,-26.367,-23.438,-25.391,0.000,0
161656.119,-17.090,-25.391,-36.133,-15.625,0.000,0
161656.123,-16.602,-24.414,-25.879,-10.254,0.000,0
161656.127,-17.090,-21.484,-27.344,-27.832,0.000,0
161656.131,-19.043,-19.531,-33.691,-24.902,0.000,0
161656.135,-14.648,-21.484,-28.320,-17.578,0.000,0
161656.138,-12.207,-19.043,-26.367,-23.438,0.000,0
161656.142,-15.625,-20.996,-28.809,-26.855,0.000,0
161656.146,-19.531,-26.367,-24.414,-23.438,0.000,0
161656.150,-23.438,-21.973,-28.320,-18.555,0.000,0
161656.154,-31.250,-23.438,-30.273,-30.273,0.000,0
161656.158,-33.691,-27.832,-38.086,-30.273,0.000,0
161656.162,-24.414,-25.391,-34.180,-20.508,0.000,0
161656.166,-26.855,-28.320,-23.438,-23.926,0.000,0
161656.170,-37.109,-36.133,-33.691,-23.926,0.000,0
161656.174,-35.156,-24.902,-39.551,-28.809,0.000,0
161656.178,-30.273,-15.137,-39.551,-27.832,0.000,0
161656.181,-30.273,-23.926,-27.832,-30.273,0.000,0
161656.185,-29.785,-27.832,-14.648,-36.621,0.000,0
161656.189,-21.973,-24.902,-26.855,-30.762,0.000,0
161656.193,-19.043,-30.762,-35.645,-26.855,0.000,0
161656.197,-19.043,-25.879,-24.414,-25.391,0.000,0
161656.201,-20.020,-21.973,-15.625,-7.324,0.000,0
161656.205,-25.391,-24.414,-20.508,-11.230,0.000,0
161656.209,-23.438,-30.762,-39.551,-25.879,0.000,0
161656.213,-20.508,-38.574,-43.945,-26.367,0.000,0
161656.217,-25.391,-36.133,-37.598,-11.719,0.000,0
161656.221,-20.020,-32.227,-32.227,-15.137,0.000,0
161656.224,-21.973,-23.926,-17.090,-28.809,0.000,0
161656.228,-30.273,-27.832,-33.203,-43.945,0.000,0
161656.232,-27.832,-33.203,-38.086,-35.156,0.000,0
161656.236,-31.250,-31.250,-39.551,-37.109,0.000,0
161656.240,-41.016,-32.227,-45.410,-49.316,0.000,0
161656.244,-30.273,-28.320,-18.555,-41.016,0.000,0
161656.248,-25.879,-27.344,-20.020,-35.156,0.000,0
161656.252,-33.203,-28.809,-37.109,-46.875,0.000,0
161656.256,-23.438,-26.367,-29.785,-11.719,0.000,0
161656.260,-24.902,-26.855,-23.926,-9.766,0.000,0
161656.263,-25.391,-27.344,-3.906,-28.809,0.000,0
161656.267,-22.949,-25.879,-11.719,1.465,0.000,0
161656.271,-29.785,-33.691,-37.598,-17.578,0.000,0
161656.275,-37.109,-33.203,-29.785,-36.621,0.000,0
161656.279,-31.250,-31.250,-24.414,-30.762,0.000,0
161656.283,-19.531,-28.809,-9.277,-30.762,0.000,0
161656.287,-20.508,-19.043,-9.277,-13.672,0.000,0
161656.291,-17.578,-18.066,-16.602,9.277,0.000,0
161656.295,-10.254,-20.508,-31.738,-2.930,0.000,0
161656.299,-12.207,-24.902,-19.043,-28.809,0.000,0
161656.303,-18.555,-29.785,-10.742,-20.508,0.000,0
161656.306,-16.113,-29.297,-33.691,-7.324,0.000,0
161656.310,-15.625,-24.414,-35.156,-14.648,0.000,0
161656.314,-22.949,-22.461,-22.949,-28.809,0.000,0
161656.318,-25.391,-25.879,-18.066,-40.039,0.000,0
161656.322,-24.902,-24.902,-9.766,-43.457,0.000,0
161656.326,-24.902,-21.973,-17.090,-28.320,0.000,0
161656.330,-21.973,-26.367,-33.691,-22.949,0.000,0
161656.334,-21.484,-26.367,-25.391,-12.207,0.000,0
161656.338,-28.320,-26.855,-25.391,-2.930,0.000,0
161656.342,-28.320,-30.762,-26.855,-28.320,0.000,0
161656.346,-27.344,-25.879,-31.250,-22.461,0.000,0
161656.349,-22.461,-20.508,-25.879,-8.301,0.000,0
161656.353,-14.160,-21.484,-24.414,-12.695,0.000,0
161656.357,-17.578,-28.809,-36.133,-19.531,0.000,0
161656.361,-27.832,-30.762,-24.414,-30.762,0.000,0
161656.365,-24.902,-29.297,-15.137,-27.832,0.000,0
161656.369,-22.461,-25.391,-27.832,-15.625,0.000,0
161656.373,-21.484,-27.344,-37.598,-23.926,0.000,0
161656.377,-11.719,-31.250,-30.762,-19.043,0.000,0
161656.381,-20.996,-27.344,-19.043,-12.695,0.000,0
161656.385,-27.832,-30.762,-23.438,-31.738,0.000,0
161656.388,-25.879,-31.250,-32.715,-40.039,0.000,0
161656.392,-30.273,-25.879,-29.785,-32.715,0.000,0
161656.396,-33.691,-23.926,-22.461,-16.113,0.000,0
161656.400,-28.809,-29.785,-19.531,-16.602,0.000,0
161656.404,-28.320,-33.691,-36.133,-7.812,0.000,0
161656.408,-32.715,-31.738,-40.527,-6.348,0.000,0
161656.412,-32.227,-27.344,-25.879,-25.391,0.000,0
161656.416,-26.367,-21.973,-18.555,-22.461,0.000,0
161656.420,-23.926,-21.973,-11.719,-29.297,0.000,0
161656.424,-32.715,-22.461,-16.602,-42.969,0.000,0
161656.428,-33.203,-26.367,-20.020,-40.527,0.000,0
161656.431,-35.156,-29.785,-38.574,-28.320,0.000,0
161656.435,-34.180,-30.762,-32.715,-16.113,0.000,0
161656.439,-31.250,-29.785,-3.418,-32.715,0.000,0
161656.443,-36.621,-31.738,-31.738,-20.508,0.000,0
161656.447,-22.461,-32.227,-45.410,1.465,0.000,0
161656.451,-16.113,-26.855,-19.531,-1.953,0.000,0
161656.455,-17.090,-25.879,-14.648,-7.324,0.000,0
161656.459,-4.883,-31.250,-23.926,-18.066,0.000,0
161656.463,0.977,-26.367,-20.996,-14.648,0.000,0
161656.467,-4.883,-23.438,-14.160,-18.066,0.000,0
161656.471,-6.348,-24.414,-18.555,-22.461,0.000,0
161656.474,-6.836,-20.996,-22.949,-24.902,0.000,0
161656.478,-9.277,-22.949,-21.484,-32.715,0.000,0
161656.482,-15.137,-31.738,-20.508,-28.809,0.000,0
161656.486,-22.461,-25.879,-20.508,-27.344,0.000,0
161656.490,-25.391,-17.578,-29.785,-33.691,0.000,0
161656.494,-17.578,-19.531,-17.090,-35.156,0.000,0
161656.498,-8.301,-22.461,-4.395,-22.949,0.000,0
161656.502,-22.461,-25.391,-12.207,-38.086,0.000,0
161656.506,-31.250,-26.855,-40.039,-46.387,0.000,0
161656.510,-22.461,-20.508,-52.734,-16.602,0.000,0
161656.513,-18.066,-12.207,-27.344,-16.113,0.000,0
161656.517,-16.602,-18.066,-16.113,-4.883,0.000,0
161656.521,-24.414,-22.949,-26.855,-4.395,0.000,0
161656.525,-32.227,-26.367,-32.715,-19.531,0.000,0
161656.529,-27.832,-24.414,-19.043,-26.855,0.000,0
161656.533,-21.973,-22.461,-31.738,-44.434,0.000,0
161656.537,-22.949,-27.832,-32.227,-49.316,0.000,0
161656.541,-37.109,-23.438,-23.926,-47.852,0.000,0
161656.545,-43.945,-22.461,-32.227,-39.551,0.000,0
161656.549,-33.691,-21.484,-34.668,-31.250,0.000,0
161656.553,-26.367,-21.484,-31.738,-23.438,0.000,0
161656.556,-23.438,-25.879,-17.090,-31.250,0.000,0
161656.560,-29.297,-24.902,-18.555,-42.969,0.000,0
161656.564,-33.691,-27.344,-35.156,-32.715,0.000,0
161656.568,-28.809,-31.250,-26.367,-31.738,0.000,0
161656.572,-34.180,-25.391,-20.508,-28.809,0.000,0
161656.576,-34.180,-21.973,-12.695,-12.207,0.000,0
161656.580,-23.438,-24.902,-19.531,-31.250,0.000,0
161656.584,-22.461,-23.926,-36.621,-40.527,0.000,0
161656.588,-23.438,-19.043,-30.762,-34.180,0.000,0
161656.592,-25.391,-19.531,-27.832,-21.484,0.000,0
161656.596,-24.414,-22.461,-10.254,-14.648,0.000,0
161656.599,-18.555,-18.066,-10.254,-26.367,0.000,0
161656.603,-17.578,-18.555,-20.020,-28.320,0.000,0
161656.607,-25.879,-24.414,-25.391,-20.020,0.000,0
161656.611,-33.203,-27.344,-50.781,-11.719,0.000,0
161656.615,-27.832,-37.109,-21.973,-21.973,0.000,0
161656.619,-24.902,-30.762,-5.371,-26.855,0.000,0
161656.623,-22.949,-23.438,-39.551,-26.855,0.000,0
161656.627,-17.090,-29.785,-55.176,-29.297,0.000,0
161656.631,-15.137,-25.391,-32.715,-23.438,0.000,0
161656.635,-11.719,-22.949,-4.883,-19.531,0.000,0
161656.638,-13.184,-22.949,-18.066,-26.855,0.000,0
161656.642,-21.973,-26.367,-38.574,-23.438,0.000,0
161656.646,-27.344,-28.809,-29.785,-10.254,0.000,0
161656.650,-33.203,-25.879,-33.203,-8.789,0.000,0
161656.654,-34.180,-33.203,-32.227,-31.738,0.000,0
161656.658,-31.738,-31.738,-25.879,-32.715,0.000,0
161656.662,-32.227,-26.855,-30.762,-10.742,0.000,0
161656.666,-31.738,-28.809,-27.832,-13.184,0.000,0
161656.670,-31.250,-28.320,-34.668,-35.645,0.000,0
161656.674,-32.227,-30.273,-26.855,-46.875,0.000,0
161656.678,-32.227,-29.297,-10.254,-49.805,0.000,0
161656.681,-31.250,-20.508,-21.484,-33.203,0.000,0
161656.685,-25.391,-19.043,-37.598,-13.184,0.000,0
161656.689,-29.785,-22.949,-41.992,-34.180,0.000,0
161656.693,-29.297,-27.832,-24.414,-38.574,0.000,0
161656.697,-20.020,-26.855,-11.719,-28.809,0.000,0
161656.701,-22.949,-27.344,-25.879,-39.551,0.000,0
161656.705,-29.785,-26.855,-30.273,-38.086,0.000,0
161656.709,-37.109,-27.344,-31.738,-22.461,0.000,0
161656.713,-29.785,-25.879,-23.926,-10.254,0.000,0
161656.717,-15.625,-21.484,-29.785,-17.090,0.000,0
161656.721,-16.602,-21.484,-32.227,-35.156,0.000,0
161656.724,-10.254,-16.602,-16.602,-8.301,0.000,0
161656.728,-9.766,-20.996,-24.414,-1.953,0.000,0
161656.732,-18.555,-25.391,-20.020,-39.551,0.000,0
161656.736,-25.391,-23.926,-7.324,-48.340,0.000,0
161656.740,-28.809,-24.414,-30.273,-36.621,0.000,0
161656.744,-30.762,-28.320,-50.781,-29.297,0.000,0
161656.748,-27.344,-30.273,-40.039,-20.508,0.000,0
161656.752,-26.855,-26.367,-28.320,-23.438,0.000,0
161656.756,-35.645,-28.809,-18.066,-39.062,0.000,0
161656.760,-31.738,-33.203,-34.668,-24.414,0.000,0
161656.763,-25.391,-28.320,-44.434,-20.508,0.000,0
161656.767,-32.715,-23.926,-18.555,-26.367,0.000,0
161656.771,-28.809,-20.508,-12.207,-27.344,0.000,0
161656.775,-20.020,-20.020,-25.879,-40.039,0.000,0
161656.779,-25.391,-24.414,-22.461,-30.762,0.000,0
161656.783,-21.973,-23.438,-14.160,-15.625,0.000,0
161656.787,-19.043,-20.020,-20.020,10.742,0.000,0
161656.791,-20.020,-24.414,-27.344,8.301,0.000,0
161656.795,-29.785,-23.438,-9.766,-31.250,0.000,0
161656.799,-43.945,-24.414,-18.066,-43.457,0.000,0
161656.803,-40.527,-29.297,-37.598,-31.738,0.000,0
161656.806,-19.531,-25.391,-44.434,-10.254,0.000,0
161656.810,-5.859,-22.949,-35.645,-3.418,0.000,0
161656.814,-26.367,-28.809,5.371,-25.879,0.000,0
161656.818,-49.316,-31.738,-17.090,-61.523,0.000,0
161656.822,-32.715,-28.320,-56.641,-42.480,0.000,0
161656.826,-20.020,-31.250,-41.504,-7.812,0.000,0
161656.830,-40.527,-30.273,-28.320,-20.020,0.000,0
161656.834,-39.551,-31.738,-23.926,-29.785,0.000,0
161656.838,-26.367,-32.715,-31.250,-11.719,0.000,0
161656.842,-27.344,-29.297,-36.133,-5.859,0.000,0
161656.846,-23.926,-25.879,-30.273,-9.766,0.000,0
161656.849,-24.414,-27.344,-32.227,-15.625,0.000,0
161656.853,-30.273,-29.785,-30.762,-25.879,0.000,0
161656.857,-29.785,-26.367,-25.879,-23.438,0.000,0
161656.861,-20.996,-26.367,-35.645,-12.695,0.000,0
161656.865,-16.113,-27.832,-40.039,3.906,0.000,0
161656.869,-23.926,-25.879,-24.414,-9.766,0.000,0
161656.873,-30.762,-27.344,-24.902,-28.320,0.000,0
161656.877,-30.762,-32.227,-42.969,-13.184,0.000,0
161656.881,-22.949,-30.273,-37.109,-23.926,0.000,0
161656.885,-27.832,-24.902,-26.367,-33.691,0.000,0
161656.888,-41.016,-22.949,-28.320,-13.672,0.000,0
161656.892,-35.645,-22.461,-15.625,-31.738,0.000,0
161656.896,-31.250,-25.391,-23.926,-32.227,0.000,0
161656.900,-33.691,-24.414,-16.602,-27.832,0.000,0
161656.904,-27.344,-29.297,-27.344,-33.203,0.000,0
161656.908,-24.414,-26.855,-42.969,-16.602,0.000,0
161656.912,-31.250,-20.020,-15.625,-23.438,0.000,0
161656.916,-32.715,-23.438,-17.090,-48.340,0.000,0
161656.920,-34.180,-24.902,-40.527,-40.039,0.000,0
161656.924,-36.621,-26.367,-54.688,-29.297,0.000,0
161656.928,-28.320,-20.996,-36.621,-30.273,0.000,0
161656.931,-25.391,-20.996,-4.883,-32.227,0.000,0
161656.935,-37.598,-24.902,-30.273,-29.785,0.000,0
161656.939,-37.109,-23.926,-50.293,-30.762,0.000,0
161656.943,-32.715,-21.973,-35.645,-26.855,0.000,0
161656.947,-38.086,-22.949,-17.578,-28.809,0.000,0
161656.951,-38.574,-24.902,-15.625,-38.086,0.000,0
161656.955,-25.879,-23.926,-33.691,-25.879,0.000,0
161656.959,-23.926,-22.461,-27.344,-5.859,0.000,0
161656.963,-28.809,-26.855,-25.879,-5.371,0.000,0
161656.967,-24.902,-28.809,-30.762,-9.277,0.000,0
161656.971,-25.391,-29.297,-13.184,-15.137,0.000,0
161656.974,-26.855,-28.320,-25.879,-5.859,0.000,0
161656.978,-21.973,-24.902,-36.621,-10.254,0.000,0
161656.982,-26.855,-29.785,-29.297,-18.555,0.000,0
161656.986,-34.180,-31.250,-26.367,-24.414,0.000,0
161656.990,-36.133,-27.344,-11.230,-40.039,0.000,0
161656.994,-34.668,-26.855,-18.066,-30.762,0.000,0
161656.998,-31.250,-25.879,-28.809,-20.508,0.000,0
161657.002,-27.832,-29.785,-28.320,-23.926,0.000,0
161657.006,-31.738,-33.203,-21.484,-21.973,0.000,0
161657.010,-30.762,-35.645,-12.207,-28.320,0.000,0
161657.013,-22.461,-37.109,-25.879,-22.949,0.000,0
161657.017,-20.508,-26.855,-21.484,-9.766,0.000,0
161657.021,-18.555,-20.020,-22.461,-10.254,0.000,0
161657.025,-19.043,-25.391,-37.109,-10.742,0.000,0
161657.029,-17.578,-28.809,-19.043,-20.020,0.000,0
161657.033,-20.996,-24.902,-6.348,-21.973,0.000,0
161657.037,-25.391,-18.066,-20.020,-14.160,0.000,0
161657.041,-31.250,-23.926,-43.945,-25.879,0.000,0
161657.045,-27.344,-25.879,-45.410,-31.250,0.000,0
161657.049,-20.996,-21.973,-16.602,-21.484,0.000,0
161657.053,-21.973,-24.902,0.488,-16.113,0.000,0
161657.056,-19.531,-24.902,-20.508,-11.719,0.000,0
161657.060,-19.043,-25.879,-27.344,-24.902,0.000,0
161657.064,-22.461,-29.785,-26.855,-12.695,0.000,0
161657.068,-25.879,-33.691,-20.508,-11.230,0.000,0
161657.072,-20.508,-31.738,-32.227,-39.062,0.000,0
161657.076,-20.020,-24.902,-45.410,-15.625,0.000,0
161657.080,-33.691,-26.855,-27.344,-10.254,0.000,0
161657.084,-37.109,-28.809,-23.926,-25.879,0.000,0
161657.088,-31.250,-28.320,-37.109,-23.926,0.000,0
161657.092,-30.273,-28.320,-22.461,-23.438,0.000,0
161657.096,-34.180,-30.762,-13.184,-12.207,0.000,0
161657.099,-30.273,-29.297,-27.344,-3.418,0.000,0
161657.103,-28.809,-27.832,-45.410,-12.207,0.000,0
161657.107,-29.785,-26.367,-32.227,-25.391,0.000,0
161657.111,-31.738,-22.461,-16.113,-35.645,0.000,0
161657.115,-30.273,-22.461,-30.762,-35.156,0.000,0
161657.119,-30.273,-26.855,-33.691,-28.809,0.000,0
161657.123,-31.738,-25.879,-29.297,-24.414,0.000,0
161657.127,-33.691,-26.855,-28.320,-26.367,0.000,0
161657.131,-34.180,-31.250,-19.043,-28.320,0.000,0
161657.135,-26.855,-23.926,-17.578,-22.461,0.000,0
161657.138,-19.531,-20.020,-22.949,-14.648,0.000,0
161657.142,-27.344,-19.531,-10.254,-14.648,0.000,0
161657.146,-30.762,-17.578,-10.254,-30.762,0.000,0
161657.150,-30.273,-18.066,-13.184,-23.438,0.000,0
161657.154,-28.320,-21.484,-24.902,-8.301,0.000,0
161657.158,-20.996,-27.832,-28.809,-19.531,0.000,0
161657.162,-29.297,-31.250,-28.320,-30.273,0.000,0
161657.166,-26.367,-27.832,-20.020,-35.156,0.000,0
161657.170,-21.484,-28.809,-9.277,-42.480,0.000,0
161657.174,-30.762,-32.227,-21.484,-36.133,0.000,0
161657.178,-23.926,-25.879,-16.602,-25.879,0.000,0
161657.181,-12.695,-20.996,-14.648,1.465,0.000,0
161657.185,-16.113,-27.344,-9.766,-3.418,0.000,0
161657.189,-19.043,-29.785,-8.301,-41.504,0.000,0
161657.193,-10.254,-23.926,-26.367,-37.109,0.000,0
161657.197,-14.160,-24.414,-15.137,-22.461,0.000,0
161657.201,-26.367,-28.809,-14.160,-22.461,0.000,0
161657.205,-23.438,-28.320,-25.391,-35.645,0.000,0
161657.209,-11.230,-26.367,-17.090,-23.926,0.000,0
161657.213,-4.395,-29.785,-17.090,1.465,0.000,0
161657.217,-21.973,-32.227,-29.297,-8.789,0.000,0
161657.221,-44.434,-31.738,-35.645,-45.898,0.000,0
161657.224,-43.457,-24.902,-26.367,-46.387,0.000,0
161657.228,-18.066,-18.555,-12.207,-20.996,0.000,0
161657.232,-19.531,-14.648,-8.789,-26.855,0.000,0
161657.236,-34.180,-18.066,-24.414,-44.434,0.000,0
161657.240,-31.738,-14.648,-31.250,-40.039,0.000,0
161657.244,-30.273,-19.531,-23.438,-30.273,0.000,0
161657.248,-22.461,-26.855,-14.160,-33.203,0.000,0
161657.252,-12.207,-25.879,-22.949,-14.648,0.000,0
161657.256,-2.930,-24.902,-33.691,5.859,0.000,0
161657.260,-8.789,-23.926,-28.809,-14.648,0.000,0
161657.263,-7.812,-22.949,-16.602,-30.273,0.000,0
161657.267,0.977,-24.902,-5.859,-24.902,0.000,0
161657.271,-18.555,-28.809,-24.902,-22.949,0.000,0
161657.275,-32.227,-29.297,-30.273,-9.277,0.000,0
161657.279,-26.855,-33.203,-29.785,-6.836,0.000,0
161657.283,-27.344,-34.668,-41.016,-12.207,0.000,0
161657.287,-29.785,-31.738,-21.973,-9.277,0.000,0
161657.291,-27.832,-28.320,-21.973,0.488,0.000,0
161657.295,-28.320,-26.855,-28.809,-0.977,0.000,0
161657.299,-28.320,-31.738,-29.785,-1.953,0.000,0
161657.303,-23.438,-29.297,-27.344,-8.301,0.000,0
161657.306,-25.391,-23.438,-9.766,-39.062,0.000,0
161657.310,-34.180,-28.320,-29.785,-56.152,0.000,0
161657.314,-31.738,-32.227,-42.969,-39.551,0.000,0
161657.318,-39.551,-31.738,-42.969,-24.902,0.000,0
161657.322,-48.828,-34.180,-32.227,-30.273,0.000,0
161657.326,-40.039,-32.227,-29.785,-30.273,0.000,0
161657.330,-36.133,-25.879,-41.504,-19.531,0.000,0
161657.334,-31.738,-25.391,-37.598,-9.766,0.000,0
161657.338,-24.414,-28.320,-36.621,-26.367,0.000,0
161657.342,-27.344,-28.320,-37.109,-27.832,0.000,0
161657.346,-23.438,-24.414,-20.996,-23.926,0.000,0
161657.349,-16.113,-20.508,-16.113,-27.344,0.000,0
161657.353,-18.066,-21.973,-29.297,-15.625,0.000,0
