timestamps,TP9,AF7,AF8,TP10,Right AUX,Marker0
161776.971,-20.508,-29.297,-41.016,-35.645,0.000,0
161776.974,-19.043,-32.227,-46.387,-42.969,0.000,0
161776.978,-17.090,-27.832,-18.066,-45.898,0.000,0
161776.982,-20.996,-30.762,-20.020,-37.109,0.000,0
161776.986,-16.113,-34.668,-30.762,-33.691,0.000,0
161776.990,-14.160,-27.344,-35.645,-38.574,0.000,0
161776.994,-16.113,-18.066,-10.254,-35.645,0.000,0
161776.998,-21.973,-19.043,-1.465,-39.062,0.000,0
161777.002,-22.949,-20.996,-25.391,-40.039,0.000,0
161777.006,-18.555,-22.461,-22.461,-35.156,0.000,0
161777.010,-22.461,-26.855,-24.902,-53.223,0.000,0
161777.013,-23.438,-22.949,-20.508,-57.617,0.000,0
161777.017,-13.672,-19.043,-6.836,-38.574,0.000,0
161777.021,-11.719,-20.508,-13.672,-39.551,0.000,0
161777.025,-20.020,-19.043,-18.066,-40.039,0.000,0
161777.029,-27.344,-19.531,-29.785,-32.227,0.000,0
161777.033,-26.855,-19.531,-22.949,-33.203,0.000,0
161777.037,-17.578,-20.508,-7.324,-46.875,0.000,0
161777.041,-16.602,-21.973,-20.508,-48.828,0.000,0
161777.045,-6.348,-16.113,-29.785,-29.297,0.000,0
161777.049,-7.812,-15.625,-27.832,-25.879,0.000,0
161777.053,-21.973,-21.484,-5.371,-39.062,0.000,0
161777.056,-15.625,-23.926,2.441,-41.016,0.000,0
161777.060,-12.695,-22.949,-18.066,-26.855,0.000,0
161777.064,-20.508,-20.020,-19.531,-24.414,0.000,0
161777.068,-19.531,-22.949,-24.414,-35.156,0.000,0
161777.072,-22.461,-23.438,-19.531,-40.039,0.000,0
161777.076,-28.320,-23.438,-16.113,-30.762,0.000,0
161777.080,-23.926,-21.484,-23.926,-32.227,0.000,0
161777.084,-23.438,-22.949,-4.883,-42.480,0.000,0
161777.088,-29.785,-29.297,-8.789,-37.598,0.000,0
161777.092,-24.902,-30.273,-40.527,-33.691,0.000,0
161777.096,-20.508,-28.320,-23.926,-44.922,0.000,0
161777.099,-21.484,-26.855,-13.184,-49.316,0.000,0
161777.103,-16.113,-30.273,-23.438,-34.180,0.000,0
161777.107,-17.090,-34.668,-32.715,-17.578,0.000,0
161777.111,-21.484,-30.273,-19.043,-21.973,0.000,0
161777.115,-21.973,-31.738,-5.859,-45.898,0.000,0
161777.119,-20.508,-34.180,-19.531,-50.781,0.000,0
161777.123,-15.137,-36.621,-24.414,-40.527,0.000,0
161777.127,-12.207,-34.668,-22.949,-32.715,0.000,0
161777.131,-21.973,-27.832,-25.391,-29.785,0.000,0
161777.135,-26.367,-30.273,-30.762,-31.738,0.000,0
161777.138,-23.926,-29.297,-46.387,-41.016,0.000,0
161777.142,-31.738,-25.879,-36.621,-41.992,0.000,0
161777.146,-37.598,-25.879,-20.508,-35.645,0.000,0
161777.150,-29.297,-27.344,-29.785,-30.762,0.000,0
161777.154,-26.855,-25.391,-19.531,-41.016,0.000,0
161777.158,-31.250,-25.879,-24.414,-47.363,0.000,0
161777.162,-27.832,-29.785,-28.809,-44.922,0.000,0
161777.166,-23.438,-30.273,-23.926,-44.434,0.000,0
161777.170,-23.438,-26.855,-22.949,-31.250,0.000,0
161777.174,-32.227,-28.320,-17.090,-46.387,0.000,0
161777.178,-40.039,-29.785,-25.879,-62.988,0.000,0
161777.181,-41.992,-29.297,-44.434,-46.387,0.000,0
161777.185,-33.203,-31.250,-43.945,-37.598,0.000,0
161777.189,-33.691,-22.461,-11.230,-38.574,0.000,0
161777.193,-35.156,-27.832,-19.043,-49.805,0.000,0
161777.197,-26.367,-33.691,-34.180,-48.340,0.000,0
161777.201,-32.715,-24.902,-17.578,-40.039,0.000,0
161777.205,-30.762,-23.926,-19.531,-33.691,0.000,0
161777.209,-29.297,-21.973,-31.738,-36.621,0.000,0
161777.213,-28.320,-20.508,-13.184,-43.945,0.000,0
161777.217,-25.391,-20.508,-14.160,-33.691,0.000,0
161777.221,-30.273,-17.578,-26.367,-30.762,0.000,0
161777.224,-27.832,-14.160,-18.555,-35.156,0.000,0
161777.228,-13.184,-13.672,-30.273,-20.508,0.000,0
161777.232,-18.555,-14.160,-10.742,-32.715,0.000,0
161777.236,-29.785,-18.555,2.441,-50.781,0.000,0
161777.240,-28.809,-21.973,-33.203,-35.156,0.000,0
161777.244,-32.227,-27.344,-40.039,-25.879,0.000,0
161777.248,-31.738,-26.855,-30.273,-31.250,0.000,0
161777.252,-38.086,-26.367,-17.578,-43.945,0.000,0
161777.256,-28.809,-26.855,-23.438,-42.480,0.000,0
161777.260,-21.484,-23.926,-38.574,-33.691,0.000,0
161777.263,-29.297,-24.414,-23.926,-39.551,0.000,0
161777.267,-31.738,-24.414,-16.602,-38.574,0.000,0
161777.271,-30.273,-24.414,-14.160,-45.898,0.000,0
161777.275,-28.809,-28.809,-14.648,-46.387,0.000,0
161777.279,-25.391,-24.902,-13.184,-34.668,0.000,0
161777.283,-30.273,-24.414,-23.926,-32.715,0.000,0
161777.287,-31.250,-30.273,-30.762,-44.434,0.000,0
161777.291,-35.156,-29.785,-10.742,-51.270,0.000,0
161777.295,-37.598,-27.832,-8.301,-51.270,0.000,0
161777.299,-20.508,-27.832,-16.602,-46.875,0.000,0
161777.303,-23.438,-29.785,-17.578,-50.781,0.000,0
161777.306,-28.809,-25.391,-23.438,-56.641,0.000,0
161777.310,-15.137,-23.926,-8.789,-56.152,0.000,0
161777.314,-18.066,-22.949,-3.906,-59.570,0.000,0
161777.318,-24.414,-21.484,-24.414,-41.992,0.000,0
161777.322,-20.020,-20.508,-20.020,-40.527,0.000,0
161777.326,-13.672,-16.602,-20.508,-40.039,0.000,0
161777.330,-6.836,-21.484,-24.902,-37.598,0.000,0
161777.334,-12.207,-20.020,-11.230,-42.480,0.000,0
161777.338,-14.160,-17.090,-17.090,-37.109,0.000,0
161777.342,-13.672,-19.531,-25.879,-25.391,0.000,0
161777.346,-18.555,-14.648,-29.297,-22.949,0.000,0
161777.349,-13.184,-17.090,-13.672,-38.574,0.000,0
161777.353,-6.836,-15.625,-0.977,-42.480,0.000,0
161777.357,-9.766,-9.766,-17.090,-36.621,0.000,0
161777.361,-6.348,-14.160,-16.602,-31.250,0.000,0
161777.365,-7.324,-18.066,-11.230,-19.531,0.000,0
161777.369,-15.625,-20.996,-2.441,-26.855,0.000,0
161777.373,-10.742,-20.996,-5.371,-51.270,0.000,0
161777.377,1.465,-19.531,-24.902,-57.129,0.000,0
161777.381,-2.930,-19.043,-13.184,-51.270,0.000,0
161777.385,-6.836,-21.973,-12.695,-39.551,0.000,0
161777.388,-4.883,-23.438,-15.137,-34.668,0.000,0
161777.392,-11.719,-21.973,-13.672,-46.875,0.000,0
161777.396,-16.602,-23.438,-5.859,-48.828,0.000,0
161777.400,-9.277,-25.879,-5.371,-41.016,0.000,0
161777.404,-7.324,-26.367,-23.438,-41.992,0.000,0
161777.408,-21.484,-29.297,-22.461,-51.758,0.000,0
161777.412,-21.484,-29.785,-15.625,-53.711,0.000,0
161777.416,-17.090,-33.203,-19.043,-57.129,0.000,0
161777.420,-25.879,-30.762,-37.598,-52.734,0.000,0
161777.424,-20.996,-20.996,-40.039,-38.574,0.000,0
161777.428,-13.672,-18.066,-9.277,-41.504,0.000,0
161777.431,-14.160,-16.602,7.324,-42.480,0.000,0
161777.435,-17.578,-15.625,-12.695,-38.574,0.000,0
161777.439,-19.043,-14.160,-14.648,-47.363,0.000,0
161777.443,-21.484,-16.113,-13.184,-48.828,0.000,0
161777.447,-22.461,-20.020,-12.207,-44.922,0.000,0
161777.451,-19.531,-20.020,-8.301,-45.898,0.000,0
161777.455,-22.461,-19.043,-12.695,-46.875,0.000,0
161777.459,-28.809,-23.438,-17.578,-38.086,0.000,0
161777.463,-25.879,-20.020,-18.066,-42.480,0.000,0
161777.467,-17.578,-17.090,-19.531,-48.340,0.000,0
161777.471,-25.879,-22.949,-13.184,-47.852,0.000,0
161777.474,-36.133,-25.879,-23.926,-63.965,0.000,0
161777.478,-27.832,-26.367,-29.785,-66.406,0.000,0
161777.482,-21.484,-24.902,-26.367,-60.059,0.000,0
161777.486,-15.137,-20.508,-21.484,-47.363,0.000,0
161777.490,-17.090,-20.020,-14.160,-50.293,0.000,0
161777.494,-20.020,-20.508,-29.297,-49.805,0.000,0
161777.498,-19.531,-21.484,-15.625,-44.434,0.000,0
161777.502,-22.949,-19.531,-3.418,-47.363,0.000,0
161777.506,-25.879,-13.672,-24.414,-41.992,0.000,0
161777.510,-22.949,-17.578,-22.949,-51.758,0.000,0
161777.513,-27.344,-20.020,-27.344,-57.129,0.000,0
161777.517,-34.180,-19.043,-19.043,-49.805,0.000,0
161777.521,-35.645,-20.996,-14.160,-40.527,0.000,0
161777.525,-35.156,-24.414,-38.574,-46.387,0.000,0
161777.529,-25.879,-22.461,-22.461,-61.035,0.000,0
161777.533,-33.203,-24.902,-15.137,-60.547,0.000,0
161777.537,-39.062,-30.273,-31.250,-53.711,0.000,0
161777.541,-25.391,-28.320,-33.203,-43.945,0.000,0
161777.545,-22.949,-24.902,-33.203,-42.480,0.000,0
161777.549,-20.020,-22.949,-18.555,-45.410,0.000,0
161777.553,-13.672,-21.484,-12.207,-37.598,0.000,0
161777.556,-11.719,-18.066,-29.297,-39.062,0.000,0
161777.560,-15.625,-20.996,-45.410,-29.297,0.000,0
161777.564,-22.949,-23.926,-20.996,-10.742,0.000,0
161777.568,-27.344,-20.020,1.953,-31.738,0.000,0
161777.572,-30.762,-26.367,-22.949,-47.363,0.000,0
161777.576,-29.297,-29.785,-42.480,-44.434,0.000,0
161777.580,-23.926,-27.344,-26.367,-49.805,0.000,0
161777.584,-20.020,-28.320,-19.531,-43.457,0.000,0
161777.588,-22.949,-25.879,-13.184,-53.711,0.000,0
161777.592,-19.531,-26.855,-10.742,-62.012,0.000,0
161777.596,-16.113,-24.414,-20.508,-45.898,0.000,0
161777.599,-24.902,-21.973,-28.320,-51.270,0.000,0
161777.603,-29.297,-24.414,-34.180,-62.500,0.000,0
161777.607,-25.879,-25.391,-8.789,-53.711,0.000,0
161777.611,-24.902,-23.926,-10.742,-51.270,0.000,0
161777.615,-23.926,-29.297,-22.461,-63.965,0.000,0
161777.619,-22.461,-36.133,-11.230,-67.383,0.000,0
161777.623,-15.625,-33.691,-43.457,-38.086,0.000,0
161777.627,-19.043,-33.691,-37.598,-39.062,0.000,0
161777.631,-22.949,-33.691,-17.090,-57.129,0.000,0
161777.635,-23.926,-35.645,-40.039,-38.574,0.000,0
161777.638,-33.203,-37.109,-46.875,-33.203,0.000,0
161777.642,-31.738,-33.203,-36.133,-46.875,0.000,0
161777.646,-27.344,-30.273,-22.949,-42.480,0.000,0
161777.650,-23.438,-31.738,-27.344,-53.223,0.000,0
161777.654,-18.066,-35.645,-26.855,-59.570,0.000,0
161777.658,-15.137,-30.273,-17.090,-64.453,0.000,0
161777.662,-18.555,-27.344,-37.109,-53.711,0.000,0
161777.666,-24.414,-31.250,-21.484,-39.062,0.000,0
161777.670,-24.414,-28.320,-7.812,-58.105,0.000,0
161777.674,-23.926,-28.320,-33.203,-57.129,0.000,0
161777.678,-22.461,-31.250,-38.086,-33.691,0.000,0
161777.681,-20.020,-27.832,-24.414,-29.785,0.000,0
161777.685,-20.020,-25.391,-12.695,-37.598,0.000,0
161777.689,-23.926,-28.809,-21.484,-45.410,0.000,0
161777.693,-24.414,-30.762,-37.109,-48.340,0.000,0
161777.697,-24.414,-29.297,-26.367,-44.922,0.000,0
161777.701,-31.250,-26.367,-30.762,-44.922,0.000,0
161777.705,-43.945,-29.297,-39.551,-58.105,0.000,0
161777.709,-41.016,-29.785,-41.504,-68.848,0.000,0
161777.713,-27.832,-20.508,-34.668,-58.105,0.000,0
161777.717,-24.902,-15.137,-21.484,-52.734,0.000,0
161777.721,-29.785,-26.367,-25.391,-49.316,0.000,0
161777.724,-25.879,-29.785,-25.391,-52.734,0.000,0
161777.728,-20.508,-25.391,-21.484,-51.270,0.000,0
161777.732,-20.996,-21.973,-17.090,-47.363,0.000,0
161777.736,-17.578,-20.996,-16.113,-49.805,0.000,0
161777.740,-24.414,-24.902,-25.391,-38.086,0.000,0
161777.744,-35.156,-23.438,-19.531,-41.016,0.000,0
161777.748,-35.156,-26.367,-7.812,-39.551,0.000,0
161777.752,-40.039,-29.297,-29.785,-37.598,0.000,0
161777.756,-41.016,-29.297,-41.504,-45.898,0.000,0
161777.760,-37.109,-23.926,-24.902,-45.410,0.000,0
161777.763,-36.133,-19.531,-13.672,-31.738,0.000,0
161777.767,-36.133,-20.996,-15.137,-37.598,0.000,0
161777.771,-30.273,-23.926,-14.160,-55.176,0.000,0
161777.775,-31.738,-25.879,-20.020,-45.898,0.000,0
161777.779,-28.320,-21.973,-27.832,-48.828,0.000,0
161777.783,-25.391,-18.066,-18.555,-51.758,0.000,0
161777.787,-29.785,-25.391,-11.230,-52.246,0.000,0
161777.791,-28.320,-30.762,-21.484,-62.012,0.000,0
161777.795,-26.367,-23.438,-30.273,-71.777,0.000,0
161777.799,-18.066,-20.996,-25.879,-56.641,0.000,0
161777.803,-18.555,-23.926,-23.926,-37.109,0.000,0
161777.806,-23.438,-26.855,-14.160,-53.711,0.000,0
161777.810,-20.996,-25.391,-20.020,-55.664,0.000,0
161777.814,-16.113,-24.902,-36.621,-42.969,0.000,0
161777.818,-16.602,-25.391,-30.762,-33.691,0.000,0
161777.822,-21.973,-23.438,-18.066,-26.367,0.000,0
161777.826,-17.578,-21.973,-18.066,-34.668,0.000,0
161777.830,-18.066,-19.531,-14.160,-51.758,0.000,0
161777.834,-24.902,-17.578,-7.812,-53.223,0.000,0
161777.838,-35.645,-19.531,-28.320,-40.527,0.000,0
161777.842,-24.902,-19.043,-48.828,-36.621,0.000,0
161777.846,-9.277,-25.391,-28.809,-44.922,0.000,0
161777.849,-20.996,-25.879,-11.230,-33.203,0.000,0
161777.853,-22.461,-20.508,-20.508,-27.832,0.000,0
161777.857,-13.184,-19.531,-28.320,-42.969,0.000,0
161777.861,-14.648,-18.555,-21.973,-46.387,0.000,0
161777.865,-19.043,-21.484,-8.301,-50.781,0.000,0
161777.869,-19.531,-26.855,-17.090,-50.293,0.000,0
161777.873,-18.066,-29.297,-35.645,-52.246,0.000,0
161777.877,-22.949,-22.461,-37.598,-41.992,0.000,0
161777.881,-25.879,-19.531,-22.949,-24.414,0.000,0
161777.885,-22.461,-22.461,-15.137,-38.574,0.000,0
161777.888,-18.555,-27.344,-39.551,-46.875,0.000,0
161777.892,-28.809,-31.250,-38.086,-36.133,0.000,0
161777.896,-30.762,-30.762,-18.066,-49.316,0.000,0
161777.900,-34.668,-33.203,-35.156,-66.895,0.000,0
161777.904,-34.180,-36.133,-27.832,-62.988,0.000,0
161777.908,-29.297,-32.227,-13.184,-61.035,0.000,0
161777.912,-37.109,-23.926,-32.227,-53.711,0.000,0
161777.916,-33.203,-27.344,-45.410,-38.086,0.000,0
161777.920,-33.691,-29.297,-39.062,-30.762,0.000,0
161777.924,-35.645,-23.926,-14.160,-36.621,0.000,0
161777.928,-32.227,-23.438,-12.695,-37.109,0.000,0
161777.931,-33.691,-24.902,-30.273,-30.762,0.000,0
161777.935,-31.738,-22.461,-30.273,-36.133,0.000,0
161777.939,-26.367,-25.879,-27.832,-31.250,0.000,0
161777.943,-30.273,-28.809,-20.020,-41.504,0.000,0
161777.947,-27.344,-27.344,-26.855,-51.270,0.000,0
161777.951,-33.691,-26.855,-34.180,-36.621,0.000,0
161777.955,-35.645,-26.855,-33.691,-24.902,0.000,0
161777.959,-28.809,-27.344,-41.992,-28.320,0.000,0
161777.963,-33.203,-27.344,-27.832,-37.109,0.000,0
161777.967,-33.691,-28.320,-14.648,-41.016,0.000,0
161777.971,-36.621,-24.902,-29.297,-38.574,0.000,0
161777.974,-27.832,-19.043,-35.645,-31.738,0.000,0
161777.978,-19.043,-13.672,-47.852,-27.832,0.000,0
161777.982,-21.973,-17.090,-25.879,-26.855,0.000,0
161777.986,-21.484,-23.438,4.883,-34.180,0.000,0
161777.990,-23.926,-26.855,-31.250,-32.227,0.000,0
161777.994,-27.344,-30.273,-40.527,-21.973,0.000,0
161777.998,-23.438,-31.250,-30.273,-26.855,0.000,0
161778.002,-13.672,-27.832,-14.160,-36.133,0.000,0
161778.006,-20.508,-24.902,-12.695,-43.457,0.000,0
161778.010,-26.855,-29.785,-20.020,-42.480,0.000,0
161778.013,-27.344,-26.367,-18.555,-21.973,0.000,0
161778.017,-27.344,-16.602,-29.297,-14.648,0.000,0
161778.021,-21.973,-17.578,-19.043,-34.180,0.000,0
161778.025,-23.926,-22.461,-15.137,-38.574,0.000,0
161778.029,-27.832,-24.414,-15.137,-33.691,0.000,0
161778.033,-26.367,-24.902,-23.438,-35.156,0.000,0
161778.037,-27.344,-22.461,-28.320,-33.203,0.000,0
161778.041,-23.926,-18.555,-13.184,-41.016,0.000,0
161778.045,-23.438,-17.578,-20.508,-43.457,0.000,0
161778.049,-32.715,-21.484,-42.969,-43.457,0.000,0
161778.053,-37.598,-25.391,-44.434,-34.180,0.000,0
161778.056,-26.855,-21.484,-30.273,-23.926,0.000,0
161778.060,-17.090,-14.160,-10.742,-24.902,0.000,0
161778.064,-13.184,-15.625,-12.207,-21.484,0.000,0
161778.068,-17.090,-17.578,-16.602,-31.738,0.000,0
161778.072,-22.949,-20.508,-10.254,-29.297,0.000,0
161778.076,-20.996,-25.879,-24.902,-21.973,0.000,0
161778.080,-14.648,-20.996,-25.391,-29.785,0.000,0
161778.084,-11.719,-21.484,-16.113,-36.621,0.000,0
161778.088,-20.508,-25.391,-27.832,-25.879,0.000,0
161778.092,-14.648,-20.996,-40.039,-11.719,0.000,0
161778.096,-13.184,-21.973,-35.645,-18.066,0.000,0
161778.099,-20.508,-27.832,-20.996,-21.484,0.000,0
161778.103,-21.484,-25.879,-24.902,-13.184,0.000,0
161778.107,-28.320,-23.926,-45.898,-15.625,0.000,0
161778.111,-14.648,-25.391,-22.949,-23.926,0.000,0
161778.115,-15.625,-19.043,-5.859,-14.648,0.000,0
161778.119,-26.855,-15.625,-4.883,-4.883,0.000,0
161778.123,-20.020,-21.484,-16.602,-19.531,0.000,0
161778.127,-18.066,-20.996,-24.414,-18.066,0.000,0
161778.131,-18.555,-18.555,-14.648,-3.906,0.000,0
161778.135,-14.160,-21.973,-13.672,-11.230,0.000,0
161778.138,-14.160,-25.879,-15.625,-21.973,0.000,0
161778.142,-15.137,-21.484,-17.578,-31.738,0.000,0
161778.146,-12.207,-18.555,-17.578,-34.668,0.000,0
161778.150,-17.578,-23.438,-23.438,-36.621,0.000,0
161778.154,-29.785,-24.902,-32.715,-29.785,0.000,0
161778.158,-23.926,-25.879,-24.414,-29.297,0.000,0
161778.162,-11.230,-28.809,9.766,-39.062,0.000,0
161778.166,-13.672,-30.762,0.977,-38.574,0.000,0
161778.170,-20.996,-30.762,-25.879,-35.645,0.000,0
161778.174,-23.926,-27.344,-29.297,-27.344,0.000,0
161778.178,-25.879,-21.973,2.441,-26.855,0.000,0
161778.181,-26.367,-22.949,0.000,-36.133,0.000,0
161778.185,-33.203,-26.855,-19.531,-33.691,0.000,0
161778.189,-20.508,-27.344,-16.113,-39.062,0.000,0
161778.193,-15.625,-26.367,-22.949,-36.133,0.000,0
161778.197,-23.926,-24.414,-19.531,-44.922,0.000,0
161778.201,-19.043,-24.414,-12.207,-54.688,0.000,0
161778.205,-20.020,-25.391,-29.297,-46.875,0.000,0
161778.209,-26.367,-25.879,-36.621,-41.992,0.000,0
161778.213,-13.184,-25.391,-20.996,-37.598,0.000,0
161778.217,-1.465,-23.926,-19.531,-21.973,0.000,0
161778.221,-11.230,-18.066,-14.160,-12.695,0.000,0
161778.224,-26.367,-20.996,-20.020,-19.043,0.000,0
161778.228,-28.320,-24.902,-34.668,-23.438,0.000,0
161778.232,-26.855,-25.879,-34.668,-14.648,0.000,0
161778.236,-35.645,-27.832,-25.391,-32.715,0.000,0
161778.240,-42.480,-31.250,-22.949,-52.246,0.000,0
161778.244,-39.062,-30.762,-39.551,-41.504,0.000,0
161778.248,-35.156,-28.809,-33.203,-45.410,0.000,0
161778.252,-28.809,-33.691,-24.902,-39.551,0.000,0
161778.256,-29.785,-36.621,-34.668,-30.762,0.000,0
161778.260,-37.109,-31.250,-34.668,-62.988,0.000,0
161778.263,-37.109,-30.762,-33.691,-62.500,0.000,0
161778.267,-35.156,-27.344,-11.719,-30.273,0.000,0
161778.271,-29.785,-21.973,-20.020,-13.184,0.000,0
161778.275,-22.949,-22.461,-32.227,-25.391,0.000,0
161778.279,-18.066,-26.367,-11.230,-35.645,0.000,0
161778.283,-15.625,-23.438,-20.996,-26.367,0.000,0
161778.287,-18.066,-16.602,-26.367,-26.855,0.000,0
161778.291,-20.996,-20.508,-25.391,-19.531,0.000,0
161778.295,-21.484,-24.414,-21.973,-16.113,0.000,0
161778.299,-28.809,-28.320,-3.906,-36.621,0.000,0
161778.303,-26.367,-31.738,-17.090,-46.387,0.000,0
161778.306,-19.531,-29.785,-40.527,-40.527,0.000,0
161778.310,-25.879,-30.762,-34.180,-33.691,0.000,0
161778.314,-29.297,-27.832,-0.977,-37.109,0.000,0
161778.318,-14.648,-19.043,-5.371,-41.992,0.000,0
161778.322,-9.766,-18.555,-34.668,-25.391,0.000,0
161778.326,-15.137,-17.090,-25.391,-26.855,0.000,0
161778.330,-14.648,-13.672,-13.672,-37.109,0.000,0
161778.334,-15.137,-19.531,-26.855,-32.227,0.000,0
161778.338,-23.438,-26.367,-12.207,-38.574,0.000,0
161778.342,-29.785,-18.555,-17.090,-37.109,0.000,0
161778.346,-35.645,-18.555,-37.109,-33.203,0.000,0
161778.349,-32.715,-17.090,-17.578,-32.227,0.000,0
161778.353,-29.297,-14.160,-12.207,-23.438,0.000,0
161778.357,-36.133,-19.043,-10.742,-43.457,0.000,0
161778.361,-37.109,-21.484,-19.043,-58.594,0.000,0
161778.365,-26.367,-25.391,-32.715,-49.316,0.000,0
161778.369,-28.809,-24.414,-22.949,-36.621,0.000,0
161778.373,-34.180,-20.508,-21.973,-28.320,0.000,0
161778.377,-27.344,-20.996,-16.602,-37.109,0.000,0
161778.381,-26.367,-23.438,-14.160,-41.016,0.000,0
161778.385,-22.461,-28.809,-24.414,-28.320,0.000,0
161778.388,-15.625,-27.344,-26.367,-23.926,0.000,0
161778.392,-16.602,-24.414,-26.367,-31.250,0.000,0
161778.396,-22.461,-25.391,-21.484,-36.133,0.000,0
161778.400,-24.414,-22.949,-18.555,-40.039,0.000,0
161778.404,-24.902,-21.484,-17.090,-32.715,0.000,0
161778.408,-21.973,-22.949,-38.086,-23.438,0.000,0
161778.412,-19.531,-25.879,-44.434,-25.391,0.000,0
161778.416,-17.578,-23.926,-10.742,-41.992,0.000,0
161778.420,-21.484,-23.926,-6.836,-35.645,0.000,0
161778.424,-25.879,-25.391,-50.293,-20.508,0.000,0
161778.428,-16.602,-22.949,-43.945,-31.250,0.000,0
161778.431,-18.066,-19.531,-11.719,-41.504,0.000,0
161778.435,-24.902,-23.926,-10.254,-34.668,0.000,0
161778.439,-16.602,-23.438,-20.020,-25.391,0.000,0
161778.443,4.395,-14.648,-21.973,-9.766,0.000,0
161778.447,0.000,-15.137,-12.207,-17.090,0.000,0
161778.451,-30.273,-20.508,-22.949,-44.922,0.000,0
161778.455,-33.203,-25.879,-30.762,-41.016,0.000,0
161778.459,-17.578,-23.438,-18.066,-31.250,0.000,0
161778.463,-14.648,-16.113,-21.484,-34.668,0.000,0
161778.467,-28.809,-24.902,-29.785,-37.598,0.000,0
161778.471,-28.320,-23.926,-26.855,-29.297,0.000,0
161778.474,-11.719,-19.043,-24.414,-26.367,0.000,0
161778.478,-11.230,-18.555,-12.695,-24.414,0.000,0
161778.482,-13.672,-15.137,-13.672,-12.695,0.000,0
161778.486,-8.301,-22.461,-25.391,-2.930,0.000,0
161778.490,-15.625,-27.832,-23.926,-6.836,0.000,0
161778.494,-19.531,-21.484,-5.371,-20.996,0.000,0
161778.498,-13.672,-17.090,-11.719,-29.297,0.000,0
161778.502,-16.113,-21.484,-20.996,-29.785,0.000,0
161778.506,-26.855,-23.438,-13.184,-21.973,0.000,0
161778.510,-28.320,-26.855,-20.508,-11.230,0.000,0
161778.513,-20.020,-29.785,-21.484,-16.113,0.000,0
161778.517,-14.648,-21.484,-7.812,-20.508,0.000,0
161778.521,-15.625,-18.066,-5.859,-20.020,0.000,0
161778.525,-15.137,-19.531,-29.297,-32.715,0.000,0
161778.529,-18.066,-15.625,-38.086,-34.180,0.000,0
161778.533,-16.113,-19.043,-13.672,-25.391,0.000,0
161778.537,-8.789,-19.531,12.207,-27.832,0.000,0
161778.541,-7.324,-17.090,-12.695,-20.508,0.000,0
161778.545,-6.348,-23.438,-35.156,-11.719,0.000,0
161778.549,-7.324,-22.461,-29.297,-33.203,0.000,0
161778.553,-5.371,-20.020,-3.906,-39.551,0.000,0
161778.556,5.371,-20.996,-6.348,-27.344,0.000,0
161778.560,2.441,-20.508,-31.250,-30.273,0.000,0
161778.564,-3.418,-21.973,-21.484,-39.551,0.000,0
161778.568,-17.090,-20.020,-20.020,-32.227,0.000,0
161778.572,-35.156,-18.066,-15.625,-24.414,0.000,0
161778.576,-36.133,-21.973,-7.812,-34.180,0.000,0
161778.580,-40.039,-18.555,-14.648,-28.809,0.000,0
161778.584,-32.715,-16.602,-8.789,-11.719,0.000,0
161778.588,-31.738,-22.949,-19.531,-13.184,0.000,0
161778.592,-34.180,-27.344,-27.344,-21.484,0.000,0
161778.596,-30.762,-22.461,-3.418,-26.855,0.000,0
161778.599,-32.227,-18.066,-15.137,-19.531,0.000,0
161778.603,-27.832,-22.949,-35.156,-13.672,0.000,0
161778.607,-28.809,-20.508,-35.156,-16.113,0.000,0
161778.611,-29.785,-16.113,-18.555,-29.297,0.000,0
161778.615,-20.996,-14.648,1.465,-30.762,0.000,0
161778.619,-13.672,-17.090,-16.602,-16.602,0.000,0
161778.623,-8.789,-16.602,-17.090,-15.625,0.000,0
161778.627,-11.719,-19.043,-15.137,-20.020,0.000,0
161778.631,-17.578,-22.461,-17.090,-30.762,0.000,0
161778.635,-24.414,-20.508,-8.789,-27.832,0.000,0
161778.638,-28.320,-20.508,-20.996,-20.020,0.000,0
161778.642,-15.137,-19.531,-19.531,-23.926,0.000,0
161778.646,-12.695,-21.973,-23.438,-16.602,0.000,0
161778.650,-2.930,-27.832,-37.109,-12.695,0.000,0
161778.654,2.441,-27.832,-19.043,-19.531,0.000,0
161778.658,-19.043,-25.391,-23.438,-20.020,0.000,0
161778.662,-29.297,-32.227,-40.039,-23.926,0.000,0
161778.666,-27.344,-30.762,-36.621,-24.902,0.000,0
161778.670,-33.203,-21.973,-25.879,-22.461,0.000,0
161778.674,-28.809,-21.973,-11.230,-34.668,0.000,0
161778.678,-22.461,-28.809,-17.578,-35.645,0.000,0
161778.681,-22.949,-28.320,-33.691,-37.598,0.000,0
161778.685,-25.879,-29.785,-29.785,-36.133,0.000,0
161778.689,-25.391,-27.832,-10.742,-15.137,0.000,0
161778.693,-26.367,-28.320,-12.695,-30.273,0.000,0
161778.697,-26.855,-30.762,-16.113,-37.109,0.000,0
161778.701,-34.668,-28.320,-21.484,-16.113,0.000,0
161778.705,-38.086,-35.156,-31.738,-17.578,0.000,0
161778.709,-24.414,-33.203,-32.227,-29.785,0.000,0
161778.713,-19.531,-31.250,-17.578,-38.574,0.000,0
161778.717,-25.879,-33.203,-10.742,-43.945,0.000,0
161778.721,-26.855,-32.227,-22.949,-32.227,0.000,0
161778.724,-24.414,-34.180,-33.691,-25.391,0.000,0
161778.728,-27.832,-37.109,-33.691,-27.344,0.000,0
161778.732,-32.227,-32.227,-9.766,-24.414,0.000,0
161778.736,-35.156,-30.273,-20.996,-25.391,0.000,0
161778.740,-26.367,-35.645,-42.969,-19.531,0.000,0
161778.744,-26.855,-30.273,-25.391,-12.695,0.000,0
161778.748,-25.391,-26.367,-14.160,-6.348,0.000,0
161778.752,-16.602,-25.391,-16.113,-18.066,0.000,0
161778.756,-21.973,-24.414,-18.066,-33.203,0.000,0
161778.760,-24.414,-28.809,-32.715,-31.738,0.000,0
161778.763,-30.273,-35.156,-33.691,-36.621,0.000,0
161778.767,-35.645,-30.762,-25.391,-37.109,0.000,0
161778.771,-33.691,-29.785,-21.973,-33.691,0.000,0
161778.775,-34.668,-29.785,-24.414,-36.621,0.000,0
161778.779,-28.320,-27.832,-25.391,-20.020,0.000,0
161778.783,-21.973,-31.250,-30.273,-17.578,0.000,0
161778.787,-23.438,-27.344,-29.785,-40.039,0.000,0
161778.791,-26.855,-25.391,-27.344,-48.340,0.000,0
161778.795,-28.320,-27.832,-20.020,-49.805,0.000,0
161778.799,-30.273,-25.879,-16.602,-34.668,0.000,0
161778.803,-30.273,-26.855,-22.949,-27.832,0.000,0
161778.806,-27.832,-28.320,-25.879,-26.855,0.000,0
161778.810,-29.297,-27.344,-21.484,-26.855,0.000,0
161778.814,-35.156,-30.273,-15.625,-36.133,0.000,0
161778.818,-36.621,-32.715,-28.320,-36.133,0.000,0
161778.822,-34.668,-27.832,-25.879,-30.762,0.000,0
161778.826,-32.715,-21.484,-34.180,-25.391,0.000,0
161778.830,-28.809,-26.855,-28.809,-30.762,0.000,0
161778.834,-31.738,-27.832,-13.672,-30.273,0.000,0
161778.838,-30.762,-24.414,-36.133,-12.695,0.000,0
161778.842,-24.414,-21.973,-39.551,-17.578,0.000,0
161778.846,-21.973,-24.902,-28.809,-36.621,0.000,0
161778.849,-21.973,-30.762,-14.160,-40.039,0.000,0
161778.853,-20.020,-28.320,-18.555,-40.039,0.000,0
161778.857,-12.207,-23.926,-27.832,-21.484,0.000,0
161778.861,-5.371,-26.367,-16.602,3.418,0.000,0
161778.865,-7.812,-29.297,-8.789,4.395,0.000,0
161778.869,-12.207,-29.297,-13.184,-14.648,0.000,0
161778.873,-14.648,-29.297,-23.438,-23.438,0.000,0
161778.877,-19.043,-25.391,-32.227,-12.695,0.000,0
161778.881,-22.461,-22.949,-26.367,-20.996,0.000,0
161778.885,-13.672,-23.438,-20.996,-22.949,0.000,0
161778.888,-10.742,-24.902,-11.719,-21.484,0.000,0
161778.892,-15.625,-25.391,-6.348,-28.320,0.000,0
161778.896,-19.043,-23.438,-9.766,-29.297,0.000,0
161778.900,-22.949,-16.602,-17.578,-18.555,0.000,0
161778.904,-18.555,-19.043,-22.949,-11.230,0.000,0
161778.908,-19.043,-20.508,-2.441,-19.531,0.000,0
161778.912,-18.555,-14.648,0.977,-18.555,0.000,0
161778.916,-11.230,-16.113,-26.855,-11.719,0.000,0
161778.920,-8.789,-15.625,-35.645,-12.695,0.000,0
161778.924,-16.113,-7.812,-13.672,-13.672,0.000,0
161778.928,-19.043,-9.766,10.742,-21.484,0.000,0
161778.931,-17.090,-17.090,-6.836,-28.809,0.000,0
161778.935,-18.066,-18.555,-25.879,-28.320,0.000,0
161778.939,-20.020,-18.066,-32.715,-22.461,0.000,0
161778.943,-15.625,-15.137,-37.109,-20.996,0.000,0
161778.947,-3.418,-19.043,-20.508,-29.785,0.000,0
161778.951,-4.395,-20.020,-17.090,-19.531,0.000,0
161778.955,-8.789,-18.555,-32.715,1.465,0.000,0
161778.959,-4.395,-24.902,-28.320,-9.277,0.000,0
161778.963,-13.184,-23.438,-33.203,-32.715,0.000,0
161778.967,-21.484,-25.879,-31.250,-39.551,0.000,0
161778.971,-21.973,-21.973,-3.906,-35.156,0.000,0
161778.974,-22.461,-11.230,-19.531,-12.695,0.000,0
161778.978,-21.484,-15.625,-36.621,-10.742,0.000,0
161778.982,-30.273,-26.855,-32.715,-20.996,0.000,0
161778.986,-37.109,-24.902,-17.578,-25.879,0.000,0
161778.990,-31.250,-22.461,-15.625,-35.645,0.000,0
161778.994,-25.879,-28.809,-38.574,-30.762,0.000,0
161778.998,-24.414,-28.809,-33.203,-10.742,0.000,0
161779.002,-18.555,-20.508,-16.602,-0.488,0.000,0
161779.006,-24.414,-25.391,-24.414,-18.555,0.000,0
161779.010,-30.273,-29.297,-26.855,-32.227,0.000,0
161779.013,-26.367,-23.926,-22.949,-29.785,0.000,0
161779.017,-31.250,-28.809,-22.461,-18.555,0.000,0
161779.021,-24.414,-30.273,-36.621,-15.625,0.000,0
161779.025,-28.809,-26.855,-27.344,-21.973,0.000,0
161779.029,-36.621,-27.344,-6.836,-25.879,0.000,0
161779.033,-20.020,-26.855,-20.508,-18.066,0.000,0
161779.037,-20.508,-29.785,-23.926,-11.719,0.000,0
161779.041,-27.344,-32.715,-44.922,-5.371,0.000,0
161779.045,-33.691,-26.855,-41.016,-14.160,0.000,0
161779.049,-32.227,-24.902,-12.695,-21.484,0.000,0
161779.053,-20.020,-20.996,-27.344,-9.277,0.000,0
161779.056,-24.902,-18.555,-33.203,-8.301,0.000,0
161779.060,-34.180,-19.043,-17.090,-23.926,0.000,0
161779.064,-30.273,-17.090,-11.719,-20.508,0.000,0
161779.068,-26.855,-23.926,-17.578,-20.996,0.000,0
161779.072,-32.227,-22.949,-17.578,-17.090,0.000,0
161779.076,-24.902,-12.207,-14.648,-6.348,0.000,0
161779.080,-17.578,-16.113,-21.973,-6.348,0.000,0
161779.084,-21.484,-23.926,-21.973,-10.254,0.000,0
161779.088,-18.555,-26.367,-12.695,-20.996,0.000,0
161779.092,-20.508,-24.902,-31.738,-16.602,0.000,0
161779.096,-23.926,-22.949,-35.645,-9.766,0.000,0
161779.099,-19.043,-20.020,-25.879,-14.648,0.000,0
161779.103,-14.160,-16.602,-17.578,-9.766,0.000,0
161779.107,-8.789,-13.184,-8.301,-6.348,0.000,0
161779.111,-3.906,-14.160,-32.227,-3.418,0.000,0
161779.115,-3.418,-16.113,-41.016,-3.906,0.000,0
161779.119,-8.301,-15.625,-21.484,-10.254,0.000,0
161779.123,-8.789,-19.531,-18.066,-13.672,0.000,0
161779.127,-9.277,-10.742,-18.555,-8.301,0.000,0
161779.131,-12.207,-5.859,-21.973,-4.395,0.000,0
161779.135,-14.160,-10.742,-21.484,-8.789,0.000,0
161779.138,-17.090,-6.348,-11.230,-14.648,0.000,0
161779.142,-17.090,-9.766,-19.043,-17.578,0.000,0
161779.146,-19.531,-16.602,-10.742,-18.066,0.000,0
161779.150,-22.949,-13.672,-6.836,-14.648,0.000,0
161779.154,-17.090,-17.578,-29.785,-14.160,0.000,0
161779.158,-17.090,-21.973,-34.180,-13.184,0.000,0
161779.162,-25.391,-24.902,-20.996,-12.207,0.000,0
161779.166,-22.461,-25.879,-12.695,-22.949,0.000,0
161779.170,-23.926,-22.949,-25.879,-23.926,0.000,0
161779.174,-16.113,-18.555,-28.320,-27.344,0.000,0
161779.178,-15.137,-20.020,-18.555,-18.555,0.000,0
161779.181,-20.996,-24.414,-13.672,-15.137,0.000,0
161779.185,-12.207,-21.973,-11.230,-23.438,0.000,0
161779.189,-18.555,-23.438,-22.461,-20.996,0.000,0
161779.193,-23.926,-23.926,-19.043,-24.902,0.000,0
161779.197,-22.461,-19.043,-23.926,-15.625,0.000,0
161779.201,-27.344,-24.414,-28.809,-20.508,0.000,0
161779.205,-30.762,-27.344,-22.949,-33.691,0.000,0
161779.209,-30.273,-24.414,-18.555,-33.691,0.000,0
161779.213,-31.738,-26.367,-21.484,-38.086,0.000,0
161779.217,-35.645,-31.250,-34.180,-31.738,0.000,0
161779.221,-38.574,-28.320,-34.180,-29.785,0.000,0
161779.224,-36.621,-20.996,-20.020,-25.879,0.000,0
161779.228,-20.020,-19.043,-29.785,-13.672,0.000,0
161779.232,-13.672,-24.902,-46.875,-33.203,0.000,0
161779.236,-20.508,-26.855,-41.504,-36.133,0.000,0
161779.240,-23.438,-24.414,-23.438,-25.879,0.000,0
161779.244,-29.785,-21.973,-10.742,-38.086,0.000,0
161779.248,-26.855,-17.578,-24.414,-34.668,0.000,0
161779.252,-27.344,-18.066,-36.621,-28.320,0.000,0
161779.256,-36.133,-20.508,-28.320,-27.832,0.000,0
161779.260,-35.156,-22.949,-33.203,-20.996,0.000,0
161779.263,-33.203,-27.344,-29.297,-20.020,0.000,0
161779.267,-35.645,-31.738,-39.551,-19.531,0.000,0
161779.271,-37.109,-30.762,-49.316,-27.832,0.000,0
161779.275,-32.227,-29.297,-45.898,-17.090,0.000,0
161779.279,-34.180,-27.344,-33.691,-22.949,0.000,0
161779.283,-30.273,-29.297,-11.719,-44.922,0.000,0
161779.287,-23.926,-26.855,-23.926,-31.738,0.000,0
161779.291,-26.855,-19.043,-34.668,-13.184,0.000,0
161779.295,-29.297,-21.973,-44.922,-23.438,0.000,0
161779.299,-27.344,-29.785,-29.785,-30.762,0.000,0
161779.303,-30.762,-34.180,-17.578,-39.062,0.000,0
161779.306,-30.762,-30.762,-44.434,-26.855,0.000,0
161779.310,-25.879,-29.297,-40.039,-19.043,0.000,0
161779.314,-25.391,-30.273,-29.785,-36.621,0.000,0
161779.318,-27.832,-33.203,-37.109,-39.062,0.000,0
161779.322,-27.832,-34.668,-20.508,-27.832,0.000,0
161779.326,-22.949,-26.855,-17.578,-16.113,0.000,0
161779.330,-21.484,-20.996,-26.855,-1.953,0.000,0
161779.334,-28.320,-21.484,-31.738,-0.488,0.000,0
161779.338,-26.367,-20.508,-41.016,-8.301,0.000,0
161779.342,-18.555,-21.484,-20.996,-19.531,0.000,0
161779.346,-20.508,-22.461,-9.277,-19.531,0.000,0
161779.349,-19.531,-20.996,-25.879,-18.555,0.000,0
161779.353,-15.137,-23.438,-42.480,-3.906,0.000,0
161779.357,-15.625,-30.273,-40.527,10.254,0.000,0
161779.361,-16.602,-25.879,-12.695,-13.184,0.000,0
161779.365,-19.043,-26.855,-20.996,-31.738,0.000,0
161779.369,-14.648,-26.855,-31.738,-27.344,0.000,0
161779.373,-9.766,-14.160,-17.090,-17.578,0.000,0
161779.377,-4.395,-12.207,-14.160,-6.348,0.000,0
161779.381,-12.695,-16.602,-21.973,-17.578,0.000,0
161779.385,-17.578,-18.066,-21.484,-22.949,0.000,0
161779.388,-13.672,-18.066,-15.137,-16.113,0.000,0
161779.392,2.441,-17.578,-28.809,-18.555,0.000,0
161779.396,20.020,-14.160,-25.879,-27.832,0.000,0
161779.400,29.785,-8.301,-5.859,-42.480,0.000,0
161779.404,28.320,-6.836,-20.508,-37.109,0.000,0
161779.408,-21.484,-15.625,-37.109,-22.949,0.000,0
161779.412,-55.664,-24.902,-31.250,-27.344,0.000,0
161779.416,-45.410,-20.508,-19.531,-20.996,0.000,0
161779.420,-53.223,-17.090,-21.973,-20.020,0.000,0
161779.424,-57.617,-22.461,-32.227,-25.879,0.000,0
161779.428,-47.852,-20.996,-28.320,-4.883,0.000,0
161779.431,-37.598,-17.090,-24.902,6.836,0.000,0
161779.435,-26.855,-17.090,-28.320,-3.418,0.000,0
161779.439,-20.020,-8.301,-30.273,-7.812,0.000,0
161779.443,-22.949,-9.277,-29.297,5.371,0.000,0
161779.447,-21.484,-10.254,-7.324,10.742,0.000,0
161779.451,-21.484,-11.230,-14.648,-13.184,0.000,0
161779.455,-23.926,-16.113,-43.945,-27.344,0.000,0
161779.459,-20.508,-19.043,-18.555,-17.090,0.000,0
161779.463,-30.273,-24.902,-15.137,-21.973,0.000,0
161779.467,-25.391,-27.344,-38.086,-21.484,0.000,0
161779.471,-14.648,-22.949,-37.109,-17.578,0.000,0
161779.474,-17.578,-12.207,-16.602,-19.531,0.000,0
161779.478,-10.742,-9.277,-5.859,-16.113,0.000,0
161779.482,-14.160,-17.578,-26.367,-23.438,0.000,0
161779.486,-29.785,-18.555,-30.762,-46.387,0.000,0
161779.490,-22.949,-15.625,-13.672,-42.480,0.000,0
161779.494,-20.996,-23.438,-25.391,-28.809,0.000,0
161779.498,-29.297,-24.902,-30.273,-27.832,0.000,0
161779.502,-20.020,-19.531,-22.949,-14.160,0.000,0
161779.506,-18.555,-21.973,-23.926,-13.184,0.000,0
161779.510,-17.090,-21.484,-22.949,-15.137,0.000,0
161779.513,-8.789,-14.160,-15.625,1.953,0.000,0
161779.517,-11.230,-12.695,-3.906,0.000,0.000,0
161779.521,-15.137,-18.555,-12.695,-3.418,0.000,0
161779.525,-19.043,-19.043,-16.602,-3.906,0.000,0
161779.529,-24.414,-19.531,-28.809,-5.859,0.000,0
161779.533,-20.508,-21.484,-46.387,4.395,0.000,0
161779.537,-20.020,-20.996,-10.254,-12.695,0.000,0
161779.541,-28.809,-22.461,-9.766,-33.203,0.000,0
161779.545,-29.785,-21.973,-39.062,-15.625,0.000,0
161779.549,-27.344,-21.973,-18.555,-27.832,0.000,0
161779.553,-27.344,-15.625,-15.625,-41.504,0.000,0
161779.556,-24.902,-19.043,-27.832,-30.273,0.000,0
161779.560,-22.949,-24.414,-24.902,-26.367,0.000,0
161779.564,-27.832,-23.438,-19.043,-18.066,0.000,0
161779.568,-32.715,-23.926,-11.230,-13.672,0.000,0
161779.572,-29.785,-20.020,-28.320,-10.742,0.000,0
161779.576,-36.621,-29.297,-27.832,-27.344,0.000,0
161779.580,-37.109,-34.180,-5.371,-24.902,0.000,0
161779.584,-25.391,-26.855,-15.625,-7.324,0.000,0
161779.588,-26.855,-32.227,-39.062,-16.113,0.000,0
161779.592,-25.391,-33.691,-32.227,-11.230,0.000,0
161779.596,-24.414,-27.344,-6.836,3.418,0.000,0
161779.599,-23.438,-27.344,-12.695,-13.672,0.000,0
161779.603,-16.113,-24.902,-32.715,-36.133,0.000,0
161779.607,-25.879,-23.438,-28.809,-30.762,0.000,0
161779.611,-32.227,-27.832,-24.902,-13.184,0.000,0
161779.615,-28.809,-29.785,-17.090,-21.484,0.000,0
161779.619,-25.879,-31.250,-29.785,-27.344,0.000,0
161779.623,-26.367,-30.762,-45.410,-19.531,0.000,0
161779.627,-21.484,-29.297,-15.625,-20.020,0.000,0
161779.631,-17.578,-29.785,-12.695,-23.926,0.000,0
161779.635,-23.438,-31.738,-23.438,-34.668,0.000,0
161779.638,-22.461,-32.227,-15.137,-43.457,0.000,0
161779.642,-17.578,-32.715,-24.414,-41.992,0.000,0
161779.646,-21.484,-30.762,-31.250,-31.250,0.000,0
161779.650,-23.438,-33.203,-30.273,-27.832,0.000,0
161779.654,-30.273,-37.109,-12.695,-28.809,0.000,0
161779.658,-31.250,-30.273,-11.719,-28.809,0.000,0
161779.662,-22.461,-31.738,-23.926,-26.367,0.000,0
161779.666,-13.672,-30.762,-37.598,-35.156,0.000,0
161779.670,-11.719,-25.879,-35.156,-25.391,0.000,0
161779.674,-19.531,-25.879,-13.184,-16.113,0.000,0
161779.678,-21.973,-28.809,-21.484,-33.203,0.000,0
161779.681,-24.902,-31.250,-37.109,-30.762,0.000,0
161779.685,-23.438,-28.320,-34.180,-20.020,0.000,0
161779.689,-20.996,-26.855,-31.250,-14.160,0.000,0
161779.693,-20.508,-35.156,-21.973,-12.207,0.000,0
161779.697,-18.066,-32.715,-5.859,-27.344,0.000,0
161779.701,-24.414,-29.297,-23.926,-35.645,0.000,0
161779.705,-30.762,-30.762,-25.879,-27.344,0.000,0
161779.709,-26.367,-26.367,-17.090,-22.949,0.000,0
161779.713,-13.672,-28.320,-31.738,-26.367,0.000,0
161779.717,-10.742,-31.738,-19.043,-27.344,0.000,0
161779.721,-17.578,-29.785,-22.949,-17.578,0.000,0
161779.724,-17.578,-31.738,-40.527,-14.160,0.000,0
161779.728,-10.742,-34.180,-31.250,-9.766,0.000,0
161779.732,-6.836,-31.250,-25.879,-6.836,0.000,0
161779.736,-12.207,-34.668,-25.391,-32.227,0.000,0
161779.740,-19.531,-35.645,-28.320,-39.062,0.000,0
161779.744,-24.902,-30.762,-17.578,-16.602,0.000,0
161779.748,-29.785,-32.715,-21.973,-5.371,0.000,0
161779.752,-26.367,-32.715,-28.320,-5.371,0.000,0
161779.756,-27.344,-27.832,-20.996,-16.602,0.000,0
161779.760,-33.203,-32.227,-31.250,-19.531,0.000,0
161779.763,-31.738,-32.227,-20.020,-6.348,0.000,0
161779.767,-21.484,-29.297,-32.715,-8.301,0.000,0
161779.771,-23.926,-32.227,-55.664,-13.672,0.000,0
161779.775,-23.926,-28.809,-24.414,-17.090,0.000,0
161779.779,-16.113,-27.832,-11.230,-28.809,0.000,0
161779.783,-20.508,-33.203,-29.297,-33.203,0.000,0
161779.787,-20.020,-28.320,-31.738,-28.809,0.000,0
161779.791,-24.414,-20.020,-19.043,-26.855,0.000,0
161779.795,-31.250,-21.484,-15.137,-19.531,0.000,0
161779.799,-29.297,-21.484,-21.484,-8.789,0.000,0
161779.803,-24.902,-30.762,-31.738,-11.719,0.000,0
161779.806,-28.320,-32.715,-22.461,-9.766,0.000,0
161779.810,-24.414,-23.438,-15.625,-13.672,0.000,0
161779.814,-17.578,-26.367,-25.391,-26.855,0.000,0
161779.818,-22.949,-29.297,-20.508,-24.902,0.000,0
161779.822,-27.832,-32.715,-26.367,-19.531,0.000,0
161779.826,-27.344,-36.133,-33.691,-13.184,0.000,0
161779.830,-25.879,-39.062,-33.691,-7.812,0.000,0
161779.834,-27.344,-34.668,-12.207,-29.785,0.000,0
161779.838,-24.902,-29.785,-11.230,-40.039,0.000,0
161779.842,-24.414,-29.297,-30.762,-28.320,0.000,0
161779.846,-24.414,-30.762,-30.762,-24.414,0.000,0
161779.849,-23.926,-25.879,-30.762,-17.090,0.000,0
161779.853,-25.391,-23.438,-19.043,-18.066,0.000,0
161779.857,-13.184,-25.391,-24.902,-19.531,0.000,0
161779.861,-6.836,-30.273,-31.250,-20.508,0.000,0
161779.865,-20.508,-35.645,-20.508,-26.367,0.000,0
161779.869,-29.297,-40.527,-33.691,-20.996,0.000,0
161779.873,-29.297,-39.062,-35.156,-18.066,0.000,0
161779.877,-31.738,-27.832,-22.949,-20.020,0.000,0
161779.881,-35.156,-24.902,-32.715,-30.273,0.000,0
161779.885,-32.227,-29.297,-43.945,-26.367,0.000,0
161779.888,-26.367,-27.832,-43.945,-2.441,0.000,0
161779.892,-23.926,-24.902,-21.484,-15.625,0.000,0
161779.896,-21.484,-32.227,-16.113,-26.855,0.000,0
161779.900,-21.973,-30.273,-36.621,-4.395,0.000,0
161779.904,-25.391,-22.461,-44.434,12.207,0.000,0
161779.908,-26.855,-27.344,-31.738,-5.859,0.000,0
161779.912,-28.320,-29.785,0.977,-32.227,0.000,0
161779.916,-27.344,-30.273,-9.766,-25.391,0.000,0
161779.920,-22.949,-30.762,-36.621,-20.020,0.000,0
161779.924,-23.926,-25.391,-26.367,-18.066,0.000,0
161779.928,-26.855,-24.414,-25.879,-19.531,0.000,0
161779.931,-26.855,-28.809,-14.160,-37.598,0.000,0
161779.935,-31.250,-28.320,-20.996,-21.973,0.000,0
161779.939,-32.715,-26.367,-42.480,-9.766,0.000,0
161779.943,-32.715,-27.344,-26.855,-27.344,0.000,0
161779.947,-33.203,-31.250,-34.180,-16.602,0.000,0
161779.951,-26.367,-30.762,-35.156,-21.973,0.000,0
161779.955,-26.367,-20.996,-5.859,-30.762,0.000,0
161779.959,-31.738,-15.625,-2.441,-20.996,0.000,0
161779.963,-23.438,-17.090,-21.484,-22.461,0.000,0
161779.967,-20.020,-23.438,-14.648,-30.762,0.000,0
161779.971,-25.391,-23.438,-17.578,-24.414,0.000,0
161779.974,-32.715,-27.832,-33.691,-33.691,0.000,0
161779.978,-39.062,-31.738,-37.109,-41.504,0.000,0
161779.982,-35.156,-25.391,-30.273,-29.297,0.000,0
161779.986,-24.414,-18.555,-20.996,-13.672,0.000,0
161779.990,-19.531,-21.484,-22.949,-25.879,0.000,0
161779.994,-19.043,-28.320,-32.227,-26.367,0.000,0
161779.998,-30.273,-25.391,-32.227,-24.902,0.000,0
161780.002,-29.785,-21.484,-36.133,-30.273,0.000,0
161780.006,-22.949,-23.926,-25.391,-34.180,0.000,0
161780.010,-16.113,-21.973,-7.324,-39.062,0.000,0
161780.013,-18.555,-19.043,-26.855,-34.668,0.000,0
161780.017,-23.438,-17.578,-31.738,-24.902,0.000,0
161780.021,-18.555,-18.066,-32.227,-15.625,0.000,0
161780.025,-14.648,-20.508,-22.949,-20.508,0.000,0
161780.029,-15.137,-15.137,-9.277,-28.809,0.000,0
161780.033,-22.461,-17.090,-33.203,-22.461,0.000,0
161780.037,-31.250,-23.926,-42.969,-20.996,0.000,0
161780.041,-31.738,-22.949,-33.691,-13.672,0.000,0
161780.045,-27.344,-27.344,-24.902,1.465,0.000,0
161780.049,-32.715,-28.809,-23.438,-22.461,0.000,0
161780.053,-33.691,-22.949,-36.133,-39.551,0.000,0
161780.056,-22.949,-22.461,-32.227,-34.180,0.000,0
161780.060,-21.973,-18.555,-22.949,-22.949,0.000,0
161780.064,-32.715,-23.926,-33.203,-25.879,0.000,0
161780.068,-34.668,-26.367,-27.344,-35.156,0.000,0
161780.072,-26.367,-25.391,-29.785,-17.090,0.000,0
161780.076,-25.391,-23.438,-33.691,-5.859,0.000,0
161780.080,-37.109,-17.090,-30.273,-20.996,0.000,0
161780.084,-46.875,-16.113,-32.715,-35.645,0.000,0
161780.088,-40.039,-22.949,-22.949,-30.273,0.000,0
161780.092,-35.645,-27.832,-33.691,-24.902,0.000,0
161780.096,-41.992,-27.344,-52.246,-24.902,0.000,0
161780.099,-44.922,-26.367,-50.293,-20.996,0.000,0
161780.103,-39.062,-26.367,-44.434,-27.344,0.000,0
161780.107,-34.668,-20.996,-25.879,-29.785,0.000,0
161780.111,-35.645,-15.137,-33.203,-23.438,0.000,0
161780.115,-27.832,-16.113,-48.340,-27.344,0.000,0
161780.119,-28.320,-18.555,-36.133,-22.949,0.000,0
161780.123,-30.762,-18.066,-29.297,-19.043,0.000,0
161780.127,-26.855,-18.555,-25.391,-38.574,0.000,0
161780.131,-27.832,-16.602,-27.832,-43.457,0.000,0
161780.135,-30.762,-11.230,-29.785,-33.203,0.000,0
161780.138,-29.297,-17.090,-36.133,-29.785,0.000,0
161780.142,-24.902,-20.508,-35.156,-34.180,0.000,0
161780.146,-27.344,-20.020,-24.414,-32.227,0.000,0
161780.150,-23.926,-20.996,-33.691,-19.531,0.000,0
161780.154,-16.113,-18.066,-36.621,-12.695,0.000,0
161780.158,-18.066,-17.090,-25.879,-12.695,0.000,0
161780.162,-19.043,-21.484,-22.949,-13.672,0.000,0
161780.166,-27.832,-22.949,-27.344,-19.043,0.000,0
161780.170,-40.039,-26.367,-27.344,-33.691,0.000,0
161780.174,-39.062,-27.832,-29.297,-26.855,0.000,0
161780.178,-37.109,-23.926,-26.855,-12.207,0.000,0
161780.181,-36.621,-22.949,-29.297,-25.879,0.000,0
161780.185,-33.203,-30.273,-30.762,-40.527,0.000,0
161780.189,-32.715,-33.691,-26.367,-32.715,0.000,0
161780.193,-33.203,-29.785,-33.203,-13.672,0.000,0
161780.197,-25.391,-30.273,-38.086,-29.785,0.000,0
161780.201,-16.602,-24.414,-39.062,-33.203,0.000,0
161780.205,-16.602,-20.996,-19.531,-23.926,0.000,0
161780.209,-14.160,-17.578,-15.137,-17.578,0.000,0
161780.213,-15.625,-10.742,-29.785,-0.977,0.000,0
161780.217,-20.996,-14.648,-34.668,-6.836,0.000,0
161780.221,-25.879,-20.996,-34.180,-18.555,0.000,0
161780.224,-35.156,-21.484,-20.996,-26.367,0.000,0
161780.228,-32.715,-23.438,-25.391,-32.227,0.000,0
161780.232,-29.297,-21.973,-34.668,-20.996,0.000,0
161780.236,-32.715,-18.555,-27.832,-9.766,0.000,0
161780.240,-26.855,-13.672,-24.902,-5.371,0.000,0
161780.244,-23.438,-10.254,-18.066,-18.066,0.000,0
161780.248,-28.320,-18.555,-22.949,-28.320,0.000,0
161780.252,-27.832,-19.043,-36.621,-16.113,0.000,0
161780.256,-28.809,-18.066,-33.203,-8.789,0.000,0
161780.260,-23.926,-21.973,-40.527,-14.160,0.000,0
161780.263,-19.531,-19.531,-24.902,-13.672,0.000,0
161780.267,-16.602,-18.066,-10.742,-9.277,0.000,0
161780.271,-20.020,-19.531,-15.625,-20.020,0.000,0
161780.275,-20.996,-21.973,-20.996,-17.578,0.000,0
161780.279,-15.625,-26.367,-44.434,-15.625,0.000,0
161780.283,-20.996,-20.020,-16.602,-27.344,0.000,0
161780.287,-27.344,-21.484,-15.137,-22.461,0.000,0
161780.291,-32.715,-26.855,-60.059,-18.555,0.000,0
161780.295,-28.809,-23.438,-44.434,-24.902,0.000,0
161780.299,-26.855,-22.949,-36.133,-24.902,0.000,0
161780.303,-27.832,-25.879,-25.391,-32.227,0.000,0
161780.306,-24.902,-19.531,-16.602,-36.621,0.000,0
161780.310,-29.297,-13.184,-19.531,-26.367,0.000,0
161780.314,-32.715,-17.090,-19.531,-18.555,0.000,0
161780.318,-26.855,-19.531,-24.902,-8.789,0.000,0
161780.322,-22.461,-21.484,-18.555,-22.461,0.000,0
161780.326,-24.414,-21.484,-9.277,-29.785,0.000,0
161780.330,-22.461,-19.043,-13.672,-9.277,0.000,0
161780.334,-11.230,-15.137,-28.809,-5.371,0.000,0
161780.338,-9.277,-12.207,-25.879,-9.277,0.000,0
161780.342,-22.949,-22.949,-14.648,-19.531,0.000,0
161780.346,-26.855,-31.250,-8.301,-25.879,0.000,0
161780.349,-25.391,-31.250,-31.250,-21.484,0.000,0
161780.353,-27.344,-29.297,-46.387,-24.902,0.000,0
161780.357,-31.738,-29.297,-26.855,-14.160,0.000,0
161780.361,-32.227,-27.344,-14.648,-1.465,0.000,0
161780.365,-30.762,-23.926,-17.578,-27.344,0.000,0
161780.369,-29.785,-18.066,-25.879,-43.945,0.000,0
161780.373,-25.879,-19.531,-8.301,-35.645,0.000,0
161780.377,-29.297,-21.973,-9.766,-27.344,0.000,0
161780.381,-27.344,-15.137,-42.480,-22.461,0.000,0
161780.385,-20.508,-16.602,-34.668,-30.273,0.000,0
161780.388,-28.809,-17.090,-22.949,-27.344,0.000,0
161780.392,-24.414,-13.672,-22.461,-1.465,0.000,0
161780.396,-17.578,-16.113,-21.973,2.441,0.000,0
161780.400,-21.484,-17.090,-13.184,-11.719,0.000,0
161780.404,-15.137,-17.090,-1.953,-12.695,0.000,0
161780.408,-14.160,-16.602,-11.230,-20.996,0.000,0
161780.412,-18.555,-13.184,-19.531,-27.344,0.000,0
161780.416,-20.020,-16.113,-30.273,-15.625,0.000,0
161780.420,-25.879,-21.973,-24.902,-17.578,0.000,0
161780.424,-17.090,-27.344,-21.973,-22.461,0.000,0
161780.428,-8.301,-25.391,-29.297,-10.742,0.000,0
161780.431,-19.531,-22.949,-24.902,-8.301,0.000,0
161780.435,-18.555,-23.438,-19.531,-6.348,0.000,0
161780.439,-10.742,-23.438,-19.531,-8.301,0.000,0
161780.443,-15.625,-21.973,-18.555,-31.250,0.000,0
161780.447,-16.602,-22.949,-21.484,-30.273,0.000,0
161780.451,-13.672,-20.508,-24.902,-13.184,0.000,0
161780.455,-19.531,-17.578,-25.879,-8.301,0.000,0
161780.459,-24.414,-20.508,-23.438,-16.113,0.000,0
161780.463,-16.113,-17.578,-12.207,-13.184,0.000,0
161780.467,-20.508,-18.555,-30.762,-24.414,0.000,0
161780.471,-22.949,-26.855,-54.199,-33.203,0.000,0
161780.474,-13.672,-26.855,-36.621,-26.367,0.000,0
161780.478,-18.066,-22.461,-3.906,-19.043,0.000,0
161780.482,-23.926,-22.461,-12.695,-10.742,0.000,0
161780.486,-21.484,-21.973,-34.180,-17.090,0.000,0
161780.490,-17.578,-15.625,-17.090,-18.066,0.000,0
161780.494,-21.484,-13.672,-11.230,-17.090,0.000,0
161780.498,-27.832,-17.578,-27.832,-16.113,0.000,0
161780.502,-27.344,-19.531,-23.438,-20.020,0.000,0
161780.506,-27.832,-18.555,-20.508,-30.273,0.000,0
161780.510,-23.926,-14.648,-25.879,-28.809,0.000,0
161780.513,-17.578,-18.066,-29.297,-19.531,0.000,0
161780.517,-20.508,-23.926,-39.551,2.441,0.000,0
161780.521,-20.996,-16.602,-14.648,-2.441,0.000,0
161780.525,-19.531,-19.531,-11.230,-26.367,0.000,0
161780.529,-20.020,-26.367,-41.016,-23.926,0.000,0
161780.533,-20.996,-25.879,-45.898,-10.254,0.000,0
161780.537,-20.996,-27.832,-25.391,-4.395,0.000,0
161780.541,-21.484,-24.902,-3.418,-19.531,0.000,0
161780.545,-19.043,-21.484,-17.090,-30.273,0.000,0
161780.549,-14.648,-20.508,-25.391,-30.273,0.000,0
161780.553,-20.020,-18.555,-10.742,-29.785,0.000,0
161780.556,-27.344,-23.438,-22.461,-25.391,0.000,0
161780.560,-20.996,-29.297,-20.020,-24.414,0.000,0
161780.564,-14.648,-22.461,-11.719,-30.273,0.000,0
161780.568,-20.508,-20.996,-26.855,-34.180,0.000,0
161780.572,-27.344,-29.297,-27.344,-35.156,0.000,0
161780.576,-25.879,-23.438,-25.879,-30.273,0.000,0
161780.580,-26.367,-25.879,-10.254,-40.527,0.000,0
161780.584,-29.297,-29.785,-9.277,-48.828,0.000,0
161780.588,-32.715,-18.066,-27.344,-20.996,0.000,0
161780.592,-33.203,-19.043,-31.738,-11.230,0.000,0
161780.596,-30.273,-20.508,-35.645,-24.414,0.000,0
161780.599,-38.086,-16.113,-7.812,-41.504,0.000,0
161780.603,-43.945,-16.602,-5.371,-41.016,0.000,0
161780.607,-30.762,-17.578,-31.738,-14.648,0.000,0
161780.611,-35.645,-20.508,-17.578,-20.996,0.000,0
161780.615,-42.480,-19.531,-4.395,-28.809,0.000,0
161780.619,-30.273,-16.602,-10.742,-28.809,0.000,0
161780.623,-26.855,-18.555,-8.789,-41.504,0.000,0
161780.627,-25.879,-19.043,-11.230,-31.738,0.000,0
161780.631,-30.762,-20.020,-14.160,-12.207,0.000,0
161780.635,-34.668,-21.973,-27.344,-20.020,0.000,0
161780.638,-29.785,-19.043,-6.836,-35.645,0.000,0
161780.642,-27.344,-19.043,0.977,-28.809,0.000,0
161780.646,-27.832,-17.578,-20.020,-17.578,0.000,0
161780.650,-33.691,-18.555,-25.391,-24.414,0.000,0
161780.654,-37.598,-21.484,-32.227,-26.855,0.000,0
161780.658,-33.203,-20.996,-4.883,-29.785,0.000,0
161780.662,-30.762,-27.832,-2.441,-41.504,0.000,0
161780.666,-33.203,-30.273,-34.668,-39.062,0.000,0
161780.670,-40.039,-25.879,-27.832,-24.414,0.000,0
161780.674,-40.039,-21.973,-22.461,-13.672,0.000,0
161780.678,-44.922,-23.926,-23.926,-12.207,0.000,0
161780.681,-47.852,-25.391,-31.738,-35.156,0.000,0
161780.685,-41.504,-25.879,-33.203,-43.457,0.000,0
161780.689,-34.180,-25.391,-28.320,-31.250,0.000,0
161780.693,-27.832,-21.484,-32.715,-22.949,0.000,0
161780.697,-28.809,-21.484,-42.969,-26.367,0.000,0
161780.701,-26.367,-29.785,-31.738,-40.527,0.000,0
161780.705,-27.344,-25.879,-19.531,-33.691,0.000,0
161780.709,-23.438,-19.043,-33.203,-14.648,0.000,0
161780.713,-6.348,-19.531,-31.738,-6.348,0.000,0
161780.717,-5.371,-15.625,-15.625,-8.789,0.000,0
161780.721,-29.785,-22.949,-18.066,-32.227,0.000,0
161780.724,-37.109,-25.391,-29.297,-41.992,0.000,0
161780.728,-20.020,-22.949,-24.902,-22.461,0.000,0
161780.732,-23.926,-25.879,-32.227,-23.926,0.000,0
161780.736,-39.551,-22.461,-30.273,-39.062,0.000,0
161780.740,-36.133,-21.973,-11.719,-31.738,0.000,0
161780.744,-23.438,-21.973,-21.973,-14.648,0.000,0
161780.748,-24.414,-17.578,-19.531,-8.789,0.000,0
161780.752,-23.438,-16.602,-20.020,-9.277,0.000,0
161780.756,-24.414,-17.090,-27.832,-15.625,0.000,0
161780.760,-26.367,-18.555,-11.230,-22.461,0.000,0
161780.763,-23.438,-22.949,-20.020,-29.297,0.000,0
161780.767,-20.020,-18.066,-26.367,-15.625,0.000,0
161780.771,-11.719,-17.090,-26.855,-1.953,0.000,0
161780.775,-14.648,-20.020,-18.555,-5.859,0.000,0
161780.779,-17.578,-23.438,-7.812,-8.301,0.000,0
161780.783,-16.113,-22.949,-24.902,-11.230,0.000,0
161780.787,-12.207,-18.066,-25.879,-8.301,0.000,0
161780.791,-7.324,-14.160,-9.766,-3.906,0.000,0
161780.795,-9.766,-11.230,-5.859,-4.395,0.000,0
161780.799,-6.836,-10.254,-20.508,-8.789,0.000,0
161780.803,-6.836,-16.113,-24.902,-10.254,0.000,0
161780.806,-17.090,-17.090,-17.090,-13.184,0.000,0
161780.810,-19.531,-18.066,-25.879,-9.277,0.000,0
161780.814,-12.695,-23.438,-30.762,-4.883,0.000,0
161780.818,-11.230,-23.438,-20.996,-8.301,0.000,0
161780.822,-16.602,-22.461,-23.926,-4.395,0.000,0
161780.826,-14.648,-22.461,-30.273,0.977,0.000,0
161780.830,-9.277,-21.484,-21.484,-6.836,0.000,0
161780.834,-18.066,-26.855,-29.297,-21.973,0.000,0
161780.838,-24.902,-27.832,-19.043,-24.902,0.000,0
161780.842,-20.996,-22.461,-14.160,-20.020,0.000,0
161780.846,-20.996,-20.020,-38.086,-20.508,0.000,0
161780.849,-28.809,-20.508,-40.527,-22.949,0.000,0
161780.853,-27.344,-21.484,-32.715,-20.996,0.000,0
161780.857,-20.020,-20.508,-19.043,-27.344,0.000,0
161780.861,-11.719,-23.438,-18.555,-27.832,0.000,0
161780.865,-15.625,-25.391,-27.344,-13.184,0.000,0
161780.869,-22.461,-21.973,-25.879,-1.465,0.000,0
161780.873,-25.879,-22.461,-29.297,-15.625,0.000,0
161780.877,-28.320,-27.832,-20.996,-42.969,0.000,0
161780.881,-28.809,-28.809,-25.879,-41.992,0.000,0
161780.885,-29.297,-27.344,-35.156,-26.367,0.000,0
161780.888,-29.297,-28.320,-40.039,-22.461,0.000,0
161780.892,-34.180,-30.762,-43.945,-25.391,0.000,0
161780.896,-26.367,-26.855,-13.184,-29.785,0.000,0
161780.900,-19.531,-23.438,-15.625,-22.461,0.000,0
161780.904,-20.020,-21.484,-35.645,-16.113,0.000,0
161780.908,-14.160,-24.902,-31.738,-9.277,0.000,0
161780.912,-17.578,-24.902,-33.691,-3.906,0.000,0
161780.916,-22.949,-24.902,-25.391,-17.090,0.000,0
161780.920,-24.414,-30.273,-28.809,-21.973,0.000,0
161780.924,-20.996,-31.250,-40.039,-10.742,0.000,0
161780.928,-24.902,-33.203,-19.531,-11.230,0.000,0
161780.931,-32.227,-33.203,-31.738,-20.996,0.000,0
161780.935,-27.344,-35.645,-35.156,-35.645,0.000,0
161780.939,-24.902,-35.645,-7.812,-33.203,0.000,0
161780.943,-33.691,-31.738,-20.996,-25.391,0.000,0
161780.947,-35.156,-29.297,-29.785,-30.762,0.000,0
161780.951,-31.250,-23.926,-37.109,-36.133,0.000,0
161780.955,-32.715,-26.855,-20.020,-43.945,0.000,0
161780.959,-30.273,-30.762,-14.160,-35.156,0.000,0
161780.963,-21.973,-20.996,-36.621,-16.602,0.000,0
161780.967,-24.902,-18.066,-28.320,-21.484,0.000,0
161780.971,-25.879,-22.461,-30.762,-19.043,0.000,0
161780.974,-22.461,-21.484,-27.832,-16.113,0.000,0
161780.978,-21.484,-23.926,-18.555,-26.855,0.000,0
161780.982,-16.602,-22.949,-29.785,-25.391,0.000,0
161780.986,-15.625,-16.113,-21.973,5.371,0.000,0
161780.990,-17.578,-17.578,-4.395,-0.977,0.000,0
161780.994,-16.602,-25.879,-15.137,-36.133,0.000,0
161780.998,-21.973,-28.320,-30.762,-24.902,0.000,0
161781.002,-23.438,-29.785,-32.715,-16.113,0.000,0
161781.006,-23.438,-27.344,-26.367,-20.508,0.000,0
161781.010,-29.297,-23.438,-27.344,-25.879,0.000,0
161781.013,-31.738,-26.367,-18.066,-39.062,0.000,0
161781.017,-31.250,-28.809,-21.973,-38.086,0.000,0
161781.021,-30.273,-25.391,-31.738,-20.508,0.000,0
161781.025,-15.625,-21.484,-42.480,-15.625,0.000,0
161781.029,-9.766,-23.926,-38.574,-14.160,0.000,0
161781.033,-19.043,-30.273,-3.418,-21.973,0.000,0
161781.037,-13.672,-25.879,-15.137,-28.320,0.000,0
161781.041,-12.695,-24.902,-25.879,-20.508,0.000,0
161781.045,-21.973,-24.414,-19.531,-19.531,0.000,0
161781.049,-28.809,-20.996,-30.273,-12.695,0.000,0
161781.053,-29.297,-25.391,-20.020,-20.020,0.000,0
161781.056,-21.973,-23.926,-7.324,-19.043,0.000,0
161781.060,-19.531,-26.855,-24.414,3.418,0.000,0
161781.064,-26.855,-30.273,-35.156,-5.859,0.000,0
161781.068,-29.785,-26.855,-35.645,-20.508,0.000,0
161781.072,-23.926,-24.902,-30.273,-23.438,0.000,0
161781.076,-21.484,-21.484,-9.277,-19.043,0.000,0
161781.080,-24.414,-26.855,-13.672,-22.461,0.000,0
161781.084,-24.902,-36.621,-27.832,-35.645,0.000,0
161781.088,-28.809,-32.715,-28.809,-16.602,0.000,0
161781.092,-34.668,-26.855,-12.695,-14.160,0.000,0
161781.096,-32.715,-29.297,-10.742,-28.809,0.000,0
161781.099,-25.391,-24.902,-40.527,-20.996,0.000,0
161781.103,-18.555,-23.438,-40.039,-20.996,0.000,0
161781.107,-23.438,-25.391,-19.531,-15.137,0.000,0
161781.111,-27.832,-28.809,-20.020,-18.555,0.000,0
161781.115,-19.043,-22.461,-15.137,-34.668,0.000,0
161781.119,-22.461,-19.531,-11.230,-28.809,0.000,0
161781.123,-27.832,-20.508,-14.648,-20.020,0.000,0
161781.127,-21.484,-19.043,-34.668,-15.137,0.000,0
161781.131,-22.949,-17.578,-33.203,-13.184,0.000,0
161781.135,-22.949,-15.625,-19.531,-22.461,0.000,0
161781.138,-19.531,-17.578,-28.809,-17.578,0.000,0
161781.142,-20.508,-18.555,-30.762,-15.625,0.000,0
161781.146,-27.832,-21.973,-33.203,-24.902,0.000,0
161781.150,-29.785,-26.367,-23.926,-17.578,0.000,0
161781.154,-27.344,-21.973,-16.602,-21.973,0.000,0
161781.158,-23.926,-19.531,-20.508,-21.484,0.000,0
161781.162,-26.855,-20.996,-25.879,1.465,0.000,0
161781.166,-32.715,-18.555,-32.227,-2.930,0.000,0
161781.170,-27.344,-19.043,-25.879,-3.418,0.000,0
161781.174,-28.809,-21.484,-27.832,-11.230,0.000,0
161781.178,-35.645,-22.949,-37.109,-28.320,0.000,0
161781.181,-29.785,-23.926,-31.738,-20.020,0.000,0
161781.185,-27.832,-17.090,-25.391,-15.137,0.000,0
161781.189,-23.926,-14.648,-26.855,-14.160,0.000,0
161781.193,-8.789,-14.648,-10.742,-11.719,0.000,0
161781.197,-11.230,-15.625,-2.930,-11.719,0.000,0
161781.201,-24.414,-16.602,-39.062,-12.695,0.000,0
161781.205,-21.484,-20.508,-46.387,-16.113,0.000,0
161781.209,-23.926,-20.020,-11.719,-21.484,0.000,0
161781.213,-33.203,-20.508,1.465,-26.855,0.000,0
161781.217,-27.344,-21.973,-29.785,-19.531,0.000,0
161781.221,-20.508,-19.531,-24.902,-17.090,0.000,0
161781.224,-26.855,-24.414,-20.508,-17.090,0.000,0
161781.228,-25.391,-27.832,-33.203,-20.508,0.000,0
161781.232,-25.391,-28.320,-23.438,-33.203,0.000,0
161781.236,-23.438,-29.297,-28.320,-16.602,0.000,0
161781.240,-11.719,-30.762,-35.156,-3.906,0.000,0
161781.244,-16.113,-24.902,-30.762,-13.672,0.000,0
161781.248,-17.090,-21.484,-29.297,-18.066,0.000,0
161781.252,-13.184,-29.785,-16.602,-26.367,0.000,0
161781.256,-21.973,-30.273,-17.090,-24.414,0.000,0
161781.260,-15.625,-23.438,-22.461,-17.578,0.000,0
161781.263,-7.812,-26.367,-36.621,-7.812,0.000,0
161781.267,-12.695,-23.438,-30.273,-10.742,0.000,0
161781.271,-20.508,-21.973,-2.930,-24.414,0.000,0
161781.275,-26.367,-26.855,-22.949,-17.090,0.000,0
161781.279,-21.973,-23.438,-38.086,-21.973,0.000,0
161781.283,-22.949,-22.461,-30.273,-31.250,0.000,0
161781.287,-29.297,-22.949,-15.137,-24.414,0.000,0
161781.291,-28.809,-22.461,-5.371,-22.461,0.000,0
161781.295,-28.809,-19.531,-19.531,-38.574,0.000,0
161781.299,-21.484,-21.973,-25.391,-44.434,0.000,0
161781.303,-28.809,-26.367,-29.785,-21.973,0.000,0
161781.306,-40.527,-24.414,-33.691,-9.766,0.000,0
161781.310,-38.574,-26.855,-34.180,-23.438,0.000,0
161781.314,-35.156,-25.879,-43.457,-27.832,0.000,0
161781.318,-35.156,-23.926,-26.855,-17.578,0.000,0
161781.322,-29.785,-24.902,-29.785,-20.020,0.000,0
161781.326,-29.785,-17.578,-28.809,-21.973,0.000,0
161781.330,-39.062,-20.996,-10.742,-33.691,0.000,0
161781.334,-35.645,-23.926,-20.020,-26.855,0.000,0
161781.338,-33.203,-21.484,-26.855,-23.926,0.000,0
161781.342,-36.133,-18.555,-26.855,-27.344,0.000,0
161781.346,-31.250,-24.902,-25.879,-22.461,0.000,0
161781.349,-32.715,-21.973,-26.367,-26.855,0.000,0
161781.353,-35.645,-19.043,-30.273,-34.668,0.000,0
161781.357,-29.297,-21.973,-28.809,-34.668,0.000,0
161781.361,-32.715,-22.461,-19.531,-10.254,0.000,0
161781.365,-32.715,-24.902,-34.668,-0.488,0.000,0
161781.369,-23.926,-26.855,-31.738,-33.691,0.000,0
161781.373,-22.461,-27.832,-20.508,-39.062,0.000,0
161781.377,-31.250,-24.902,-26.367,-31.250,0.000,0
161781.381,-37.598,-28.809,-34.668,-31.738,0.000,0
161781.385,-32.715,-33.691,-39.062,-24.902,0.000,0
161781.388,-28.809,-30.762,-18.555,-38.574,0.000,0
161781.392,-27.344,-28.809,-15.625,-41.016,0.000,0
161781.396,-26.367,-31.250,-34.668,-32.715,0.000,0
161781.400,-27.344,-27.344,-30.762,-39.551,0.000,0
161781.404,-28.320,-21.973,-28.320,-23.438,0.000,0
161781.408,-22.949,-27.832,-17.578,-24.414,0.000,0
161781.412,-17.090,-27.832,-20.996,-25.391,0.000,0
161781.416,-22.461,-27.344,-51.758,-8.789,0.000,0
161781.420,-22.461,-29.785,-43.945,-7.812,0.000,0
161781.424,-20.508,-29.785,-24.902,-6.836,0.000,0
161781.428,-23.926,-24.902,-22.949,-25.391,0.000,0
161781.431,-25.879,-24.414,-30.273,-33.203,0.000,0
161781.435,-32.227,-22.461,-29.785,-18.555,0.000,0
161781.439,-34.668,-22.461,-24.414,-19.531,0.000,0
161781.443,-33.691,-23.926,-28.809,-18.555,0.000,0
161781.447,-35.156,-25.879,-32.715,-22.461,0.000,0
161781.451,-25.879,-21.973,-15.625,-26.855,0.000,0
161781.455,-19.531,-9.277,-17.090,-23.438,0.000,0
161781.459,-19.531,-9.766,-33.691,-30.762,0.000,0
161781.463,-18.066,-9.277,-25.879,-25.391,0.000,0
161781.467,-18.066,-8.301,-8.301,-23.438,0.000,0
161781.471,-23.438,-10.254,-7.812,-32.227,0.000,0
161781.474,-23.926,-14.648,-30.273,-27.832,0.000,0
161781.478,-21.973,-17.578,-38.086,-23.926,0.000,0
161781.482,-24.902,-16.602,-22.461,-14.160,0.000,0
161781.486,-30.273,-21.484,-16.602,-4.395,0.000,0
161781.490,-30.273,-23.926,-8.301,-12.207,0.000,0
161781.494,-25.879,-19.531,-11.230,-15.625,0.000,0
161781.498,-24.414,-23.438,-18.555,-24.414,0.000,0
161781.502,-16.602,-21.484,-18.555,-15.625,0.000,0
161781.506,-15.625,-16.602,-20.508,0.000,0.000,0
161781.510,-18.066,-17.090,-27.832,-17.090,0.000,0
161781.513,-8.301,-12.207,-24.902,-20.020,0.000,0
161781.517,-7.324,-16.113,-24.414,-4.883,0.000,0
161781.521,-10.742,-21.484,-22.949,5.371,0.000,0
161781.525,-14.160,-14.648,-18.066,-14.160,0.000,0
161781.529,-13.184,-11.719,-9.766,-28.320,0.000,0
161781.533,-20.508,-17.090,-28.809,-20.508,0.000,0
161781.537,-27.344,-21.973,-32.715,-19.531,0.000,0
161781.541,-31.738,-23.926,-21.973,-21.484,0.000,0
161781.545,-27.832,-23.438,-29.785,-17.578,0.000,0
161781.549,-21.484,-20.996,-36.133,-24.414,0.000,0
161781.553,-22.461,-19.043,-31.738,-26.855,0.000,0
161781.556,-12.207,-13.672,-21.484,-0.977,0.000,0
161781.560,-7.324,-9.766,-20.996,4.883,0.000,0
161781.564,-15.625,-11.719,-19.531,-18.555,0.000,0
161781.568,-16.113,-9.277,-5.859,-22.949,0.000,0
161781.572,-13.672,-17.090,-12.695,-17.090,0.000,0
161781.576,-17.578,-17.090,-17.578,-19.531,0.000,0
161781.580,-12.695,-10.254,-16.113,-4.395,0.000,0
161781.584,-10.254,-8.789,-12.207,3.906,0.000,0
161781.588,-14.648,-9.766,10.742,-6.836,0.000,0
161781.592,-13.672,-10.742,-17.090,-5.371,0.000,0
161781.596,-14.648,-14.648,-52.246,-12.695,0.000,0
161781.599,-13.184,-13.672,-38.574,-13.672,0.000,0
161781.603,-22.949,-9.277,-8.301,-14.160,0.000,0
161781.607,-22.461,-11.230,2.441,-18.066,0.000,0
161781.611,-15.625,-11.230,-22.461,-24.414,0.000,0
161781.615,-23.926,-17.090,-19.531,-33.203,0.000,0
161781.619,-22.949,-22.949,-15.137,-23.438,0.000,0
161781.623,-24.414,-19.043,-18.066,-18.066,0.000,0
161781.627,-26.855,-17.578,1.953,-27.344,0.000,0
161781.631,-24.414,-15.625,-6.836,-24.414,0.000,0
161781.635,-26.367,-14.160,-22.949,-20.996,0.000,0
161781.638,-26.367,-18.555,-28.320,-30.273,0.000,0
161781.642,-23.438,-19.043,-16.602,-31.250,0.000,0
161781.646,-23.926,-21.973,-1.465,-36.621,0.000,0
161781.650,-21.484,-19.531,-18.555,-29.785,0.000,0
161781.654,-18.066,-16.602,-32.227,-27.832,0.000,0
161781.658,-20.508,-19.043,-29.785,-29.297,0.000,0
161781.662,-22.949,-19.531,-18.066,-23.438,0.000,0
161781.666,-25.879,-20.996,-10.254,-34.668,0.000,0
161781.670,-27.344,-24.902,-29.785,-23.926,0.000,0
161781.674,-30.273,-24.414,-30.273,-16.113,0.000,0
161781.678,-28.809,-23.438,-16.602,-18.555,0.000,0
161781.681,-23.438,-22.461,-28.320,-21.484,0.000,0
161781.685,-21.973,-21.973,-20.020,-35.156,0.000,0
161781.689,-19.043,-20.996,-5.371,-36.621,0.000,0
161781.693,-15.625,-21.973,2.930,-20.996,0.000,0
161781.697,-18.066,-22.949,-20.508,-16.602,0.000,0
161781.701,-17.090,-20.508,-26.367,-12.695,0.000,0
161781.705,-15.625,-22.461,-1.953,-23.438,0.000,0
161781.709,-22.949,-22.949,-9.277,-34.180,0.000,0
161781.713,-19.531,-20.020,-32.715,-29.785,0.000,0
161781.717,-16.113,-23.438,-43.945,-22.949,0.000,0
161781.721,-22.949,-22.461,-26.367,-16.602,0.000,0
161781.724,-21.973,-18.555,-12.207,-21.973,0.000,0
161781.728,-18.066,-21.484,-37.598,-16.113,0.000,0
161781.732,-20.020,-17.090,-25.879,-8.301,0.000,0
161781.736,-21.973,-13.184,-5.859,-23.438,0.000,0
161781.740,-18.066,-16.113,-17.090,-31.738,0.000,0
161781.744,-17.090,-18.066,-15.137,-35.645,0.000,0
161781.748,-19.531,-12.695,-13.672,-36.621,0.000,0
161781.752,-19.043,-12.695,-12.695,-30.273,0.000,0
161781.756,-23.438,-14.160,-20.020,-26.367,0.000,0
161781.760,-19.043,-13.184,-17.578,-19.043,0.000,0
161781.763,-16.113,-17.578,-6.836,-22.461,0.000,0
161781.767,-25.879,-21.484,-19.531,-27.344,0.000,0
161781.771,-26.367,-18.555,-27.344,-21.973,0.000,0
161781.775,-24.902,-16.602,-33.691,-19.531,0.000,0
161781.779,-32.715,-20.020,-23.926,-17.578,0.000,0
161781.783,-33.203,-20.508,-12.207,-20.508,0.000,0
161781.787,-19.531,-20.508,-29.785,-23.438,0.000,0
161781.791,-18.555,-20.996,-25.879,-23.438,0.000,0
161781.795,-22.949,-17.090,-26.855,-16.113,0.000,0
161781.799,-19.043,-16.113,-30.762,-12.695,0.000,0
161781.803,-20.996,-14.648,-17.090,-24.414,0.000,0
161781.806,-23.926,-12.695,-15.137,-16.113,0.000,0
161781.810,-26.855,-14.648,-20.508,-6.836,0.000,0
161781.814,-32.227,-18.066,-31.738,-6.348,0.000,0
161781.818,-24.902,-20.020,-24.902,-5.859,0.000,0
161781.822,-19.531,-20.996,-6.348,-22.461,0.000,0
161781.826,-23.926,-21.973,-12.695,-26.855,0.000,0
161781.830,-26.855,-22.949,-35.156,-17.090,0.000,0
161781.834,-25.391,-20.508,-36.133,-11.719,0.000,0
161781.838,-25.391,-23.926,-19.531,1.465,0.000,0
161781.842,-23.438,-27.344,-8.301,-1.953,0.000,0
161781.846,-20.996,-26.367,-26.367,-19.531,0.000,0
161781.849,-20.996,-26.855,-39.551,-24.414,0.000,0
161781.853,-23.926,-24.414,-21.973,-26.367,0.000,0
161781.857,-27.832,-26.367,-23.438,-21.973,0.000,0
161781.861,-23.438,-26.855,-26.855,-21.484,0.000,0
161781.865,-27.344,-25.879,-27.832,-30.273,0.000,0
161781.869,-30.762,-20.996,-23.926,-30.273,0.000,0
161781.873,-26.367,-22.949,-26.367,-25.391,0.000,0
161781.877,-25.391,-26.855,-41.504,-28.809,0.000,0
161781.881,-27.344,-23.438,-30.762,-34.180,0.000,0
161781.885,-33.691,-23.438,-34.668,-42.480,0.000,0
161781.888,-35.156,-25.879,-52.246,-39.551,0.000,0
161781.892,-28.809,-23.926,-46.875,-31.250,0.000,0
161781.896,-28.809,-23.926,-43.945,-26.367,0.000,0
161781.900,-32.227,-28.809,-24.902,-28.320,0.000,0
161781.904,-32.227,-26.367,-27.832,-32.715,0.000,0
161781.908,-28.320,-22.461,-45.410,-29.297,0.000,0
161781.912,-17.578,-21.973,-36.133,-17.090,0.000,0
161781.916,-9.277,-22.949,-26.367,-15.137,0.000,0
161781.920,-13.184,-27.344,-25.879,-29.785,0.000,0
161781.924,-20.996,-25.391,-26.367,-42.969,0.000,0
161781.928,-35.156,-14.160,-22.949,-48.340,0.000,0
161781.931,-30.762,-17.578,-25.879,-40.527,0.000,0
161781.935,-27.344,-26.855,-47.852,-31.250,0.000,0
161781.939,-38.086,-22.949,-24.902,-43.457,0.000,0
161781.943,-32.227,-15.625,-7.324,-34.180,0.000,0
161781.947,-30.273,-15.137,-42.480,-20.020,0.000,0
161781.951,-33.203,-19.043,-41.016,-20.996,0.000,0
161781.955,-34.180,-17.578,-23.926,-22.949,0.000,0
161781.959,-29.785,-12.207,-0.488,-18.555,0.000,0
161781.963,-23.926,-13.184,3.418,-26.855,0.000,0
161781.967,-18.066,-12.207,-20.996,-24.902,0.000,0
161781.971,-12.207,-9.277,-32.227,-12.695,0.000,0
161781.974,-17.578,-12.695,-26.855,-18.066,0.000,0
161781.978,-21.973,-15.625,-9.766,-24.902,0.000,0
161781.982,-20.020,-14.160,-11.719,-28.320,0.000,0
161781.986,-16.113,-14.160,-22.949,-19.531,0.000,0
161781.990,-12.207,-12.695,-17.578,-19.531,0.000,0
161781.994,-12.695,-14.648,-28.809,-21.484,0.000,0
161781.998,-13.672,-18.555,-19.531,-22.461,0.000,0
161782.002,-15.625,-13.184,-8.789,-28.320,0.000,0
161782.006,-11.719,-7.812,-14.648,-20.996,0.000,0
161782.010,-10.742,-13.184,-28.320,-12.695,0.000,0
161782.013,-16.113,-16.602,-45.898,-11.719,0.000,0
161782.017,-16.602,-14.160,-9.766,-21.973,0.000,0
161782.021,-19.043,-16.113,0.977,-29.785,0.000,0
161782.025,-21.973,-25.879,-40.527,-31.250,0.000,0
161782.029,-15.625,-25.391,-37.109,-27.344,0.000,0
161782.033,-15.137,-23.438,-22.461,-17.090,0.000,0
161782.037,-22.461,-21.973,-21.484,-14.160,0.000,0
161782.041,-20.020,-18.066,-17.578,-17.578,0.000,0
161782.045,-11.719,-18.555,-25.391,-15.137,0.000,0
161782.049,-14.648,-19.043,-28.809,-14.648,0.000,0
161782.053,-21.484,-20.508,-27.832,-12.207,0.000,0
161782.056,-20.020,-22.461,-34.180,-20.508,0.000,0
161782.060,-21.973,-25.391,-27.832,-32.715,0.000,0
161782.064,-25.391,-25.391,-21.973,-14.160,0.000,0
161782.068,-23.926,-25.391,-22.949,-4.395,0.000,0
161782.072,-26.367,-25.879,-33.691,-15.625,0.000,0
161782.076,-25.391,-29.785,-34.180,-14.160,0.000,0
161782.080,-24.414,-29.297,-24.414,-19.043,0.000,0
161782.084,-23.926,-21.484,-28.809,-25.391,0.000,0
161782.088,-25.391,-22.949,-25.879,-29.297,0.000,0
161782.092,-25.391,-26.367,-17.578,-35.645,0.000,0
161782.096,-20.508,-22.461,-17.578,-20.508,0.000,0
161782.099,-32.715,-26.855,-27.344,-20.508,0.000,0
161782.103,-37.598,-30.762,-40.527,-40.527,0.000,0
161782.107,-21.484,-20.020,-28.320,-39.062,0.000,0
161782.111,-19.043,-18.555,-18.066,-20.996,0.000,0
161782.115,-22.461,-29.297,-35.156,-24.902,0.000,0
161782.119,-20.020,-28.320,-20.020,-24.414,0.000,0
161782.123,-14.160,-20.996,-29.297,-12.695,0.000,0
161782.127,-14.160,-22.949,-47.852,-19.531,0.000,0
161782.131,-20.020,-25.879,-38.574,-16.113,0.000,0
161782.135,-22.461,-21.484,-19.531,-11.719,0.000,0
161782.138,-18.066,-16.602,-6.836,-29.297,0.000,0
161782.142,-16.113,-17.578,-17.578,-37.598,0.000,0
161782.146,-28.809,-17.090,-26.855,-25.391,0.000,0
161782.150,-31.738,-20.508,-33.203,-11.230,0.000,0
161782.154,-31.250,-16.113,-9.766,-14.648,0.000,0
161782.158,-22.949,-9.277,-9.277,-17.578,0.000,0
161782.162,-11.230,-7.324,-25.879,-11.719,0.000,0
161782.166,-7.812,-9.766,-16.602,-23.438,0.000,0
161782.170,-6.836,-14.648,-10.742,-27.344,0.000,0
161782.174,-9.277,-19.043,-14.648,-19.043,0.000,0
161782.178,-14.160,-20.996,-19.043,-13.184,0.000,0
161782.181,-18.555,-17.090,-25.391,-7.324,0.000,0
161782.185,-18.555,-16.602,-25.391,-14.160,0.000,0
161782.189,-20.020,-19.043,-24.902,-21.484,0.000,0
161782.193,-19.043,-18.555,-18.066,-14.160,0.000,0
161782.197,-14.160,-17.578,-0.977,-13.672,0.000,0
161782.201,-16.113,-22.949,-16.602,-25.391,0.000,0
161782.205,-20.508,-33.691,-36.133,-36.621,0.000,0
161782.209,-15.625,-32.715,-34.180,-27.344,0.000,0
161782.213,-23.438,-31.250,-30.762,-21.484,0.000,0
161782.217,-23.438,-36.133,-21.484,-33.691,0.000,0
161782.221,-16.602,-36.621,-28.320,-34.668,0.000,0
161782.224,-19.531,-32.715,-43.945,-33.691,0.000,0
161782.228,-22.949,-34.668,-36.621,-33.203,0.000,0
161782.232,-24.414,-39.062,-24.902,-33.691,0.000,0
161782.236,-31.250,-33.691,-15.137,-50.781,0.000,0
161782.240,-41.504,-29.297,-25.391,-45.898,0.000,0
161782.244,-44.434,-28.809,-36.133,-37.109,0.000,0
161782.248,-35.156,-31.250,-52.246,-35.156,0.000,0
161782.252,-21.973,-36.133,-44.922,-25.391,0.000,0
161782.256,-25.879,-33.203,-18.066,-39.062,0.000,0
161782.260,-32.227,-29.297,-25.391,-39.062,0.000,0
161782.263,-20.508,-26.367,-37.109,-17.578,0.000,0
161782.267,-12.695,-20.508,-35.156,-5.859,0.000,0
161782.271,-17.578,-18.066,-21.484,-6.348,0.000,0
161782.275,-20.020,-22.949,-9.277,-21.973,0.000,0
161782.279,-20.020,-24.414,-28.320,-30.762,0.000,0
161782.283,-18.555,-25.879,-27.344,-24.902,0.000,0
161782.287,-23.438,-23.926,-23.926,-12.695,0.000,0
161782.291,-26.367,-18.555,-30.762,-4.395,0.000,0
161782.295,-25.391,-20.020,-21.973,-20.996,0.000,0
161782.299,-34.668,-20.020,-23.926,-29.297,0.000,0
161782.303,-33.203,-21.973,-29.297,-29.785,0.000,0
161782.306,-20.020,-24.902,-30.762,-35.156,0.000,0
161782.310,-14.160,-20.996,-28.809,-31.250,0.000,0
161782.314,-22.461,-23.438,-13.672,-42.969,0.000,0
161782.318,-26.367,-28.320,-12.207,-43.945,0.000,0
161782.322,-20.020,-24.414,-20.996,-25.879,0.000,0
161782.326,-14.648,-24.902,-42.969,-19.531,0.000,0
161782.330,-16.602,-28.809,-39.062,-27.832,0.000,0
161782.334,-22.949,-29.297,-19.531,-26.855,0.000,0
161782.338,-25.879,-29.297,-23.438,-28.320,0.000,0
161782.342,-22.461,-28.320,-42.969,-35.645,0.000,0
161782.346,-25.879,-27.832,-37.598,-37.598,0.000,0
161782.349,-28.809,-22.949,-7.324,-29.297,0.000,0
161782.353,-21.484,-21.484,-13.184,-36.133,0.000,0
161782.357,-19.043,-25.391,-25.879,-34.668,0.000,0
161782.361,-19.043,-20.020,-26.367,-19.043,0.000,0
161782.365,-24.902,-14.648,-33.691,-26.855,0.000,0
161782.369,-27.832,-20.996,-41.992,-27.832,0.000,0
161782.373,-26.367,-22.949,-22.949,-29.785,0.000,0
161782.377,-32.227,-21.973,-15.625,-29.785,0.000,0
161782.381,-31.250,-18.066,-18.066,-10.254,0.000,0
161782.385,-19.043,-17.578,-19.531,0.000,0.000,0
161782.388,-11.719,-21.484,-28.809,-2.441,0.000,0
161782.392,-20.020,-18.555,-4.883,-11.719,0.000,0
161782.396,-24.414,-16.113,-5.371,-15.137,0.000,0
161782.400,-25.391,-19.043,-29.297,-11.230,0.000,0
161782.404,-25.391,-18.066,-27.832,-9.277,0.000,0
161782.408,-18.555,-14.648,-22.461,-20.020,0.000,0
161782.412,-24.414,-17.090,-21.484,-34.180,0.000,0
161782.416,-30.273,-19.043,-26.855,-27.832,0.000,0
161782.420,-24.414,-22.461,-27.344,-29.297,0.000,0
161782.424,-22.949,-14.648,-9.277,-27.344,0.000,0
161782.428,-20.996,-5.859,-29.297,-10.254,0.000,0
161782.431,-16.113,-9.277,-35.645,-12.207,0.000,0
161782.435,-18.555,-15.137,-23.438,-23.438,0.000,0
161782.439,-23.926,-16.113,-17.090,-19.531,0.000,0
161782.443,-24.902,-21.973,-36.133,-17.090,0.000,0
161782.447,-23.926,-22.949,-42.969,-23.926,0.000,0
161782.451,-20.996,-13.672,-21.973,-25.879,0.000,0
161782.455,-16.602,-14.648,-23.438,-20.996,0.000,0
161782.459,-17.090,-18.066,-33.203,-21.484,0.000,0
161782.463,-16.602,-12.207,-27.832,-20.020,0.000,0
161782.467,-12.207,-15.625,-26.367,-13.672,0.000,0
161782.471,-14.160,-25.391,-25.391,-25.391,0.000,0
161782.474,-17.090,-25.391,-15.625,-29.785,0.000,0
161782.478,-22.461,-24.902,-32.227,-14.648,0.000,0
161782.482,-28.809,-22.461,-26.367,-20.508,0.000,0
161782.486,-19.531,-18.555,-19.043,-19.531,0.000,0
161782.490,-10.254,-18.066,-26.367,-16.113,0.000,0
161782.494,-12.207,-15.625,-17.578,-30.762,0.000,0
161782.498,-16.113,-20.996,-19.531,-30.273,0.000,0
161782.502,-18.066,-28.320,-26.367,-27.344,0.000,0
161782.506,-20.508,-19.531,-28.320,-28.809,0.000,0
161782.510,-25.879,-19.043,-30.273,-29.785,0.000,0
161782.513,-23.926,-19.531,-22.461,-25.391,0.000,0
161782.517,-17.090,-17.578,-24.902,-8.789,0.000,0
161782.521,-12.695,-19.531,-23.438,-14.648,0.000,0
161782.525,-17.090,-22.461,-16.602,-39.551,0.000,0
161782.529,-20.508,-20.508,-15.137,-36.133,0.000,0
161782.533,-24.902,-12.695,-15.625,-40.527,0.000,0
161782.537,-28.809,-14.648,-29.297,-38.574,0.000,0
161782.541,-24.414,-18.066,-34.180,-28.809,0.000,0
161782.545,-20.508,-17.578,-26.367,-28.320,0.000,0
161782.549,-24.414,-18.066,-18.555,-22.461,0.000,0
161782.553,-29.785,-24.414,-9.277,-36.133,0.000,0
161782.556,-25.879,-23.926,-15.625,-41.016,0.000,0
161782.560,-24.902,-20.020,-25.879,-31.738,0.000,0
161782.564,-28.320,-18.555,-30.273,-25.879,0.000,0
161782.568,-19.043,-15.137,-18.066,-17.578,0.000,0
161782.572,-10.742,-11.230,-3.906,-20.020,0.000,0
161782.576,-15.137,-12.695,-20.996,-17.578,0.000,0
161782.580,-18.066,-19.531,-52.246,-9.766,0.000,0
161782.584,-24.902,-19.043,-44.922,-22.461,0.000,0
161782.588,-36.621,-18.066,-15.625,-40.039,0.000,0
161782.592,-28.320,-18.555,-7.324,-31.738,0.000,0
161782.596,-5.859,-13.184,-20.508,-17.090,0.000,0
161782.599,-16.602,-10.742,-22.949,-32.227,0.000,0
161782.603,-45.898,-15.625,-16.113,-47.852,0.000,0
161782.607,-38.574,-24.414,-9.277,-47.852,0.000,0
161782.611,-26.855,-24.414,-20.508,-32.227,0.000,0
161782.615,-32.227,-11.230,-29.785,-23.926,0.000,0
161782.619,-36.133,-11.230,-20.508,-29.297,0.000,0
161782.623,-33.203,-19.531,-33.203,-35.156,0.000,0
161782.627,-30.762,-19.531,-22.461,-37.109,0.000,0
161782.631,-35.156,-18.555,-14.160,-37.598,0.000,0
161782.635,-32.227,-20.020,-39.062,-33.203,0.000,0
161782.638,-32.227,-26.855,-46.875,-32.227,0.000,0
161782.642,-38.086,-29.297,-46.875,-23.438,0.000,0
161782.646,-35.645,-23.438,-41.016,-16.602,0.000,0
161782.650,-29.297,-18.066,-17.578,-33.203,0.000,0
161782.654,-33.691,-21.484,-29.785,-28.809,0.000,0
161782.658,-29.297,-23.926,-56.152,-19.043,0.000,0
161782.662,-31.250,-18.555,-42.480,-20.020,0.000,0
161782.666,-34.180,-20.508,-32.715,-22.461,0.000,0
161782.670,-29.297,-26.367,-30.273,-37.109,0.000,0
161782.674,-34.180,-20.020,-30.762,-36.133,0.000,0
161782.678,-37.109,-16.113,-30.762,-27.832,0.000,0
161782.681,-39.551,-25.391,-39.062,-28.809,0.000,0
161782.685,-36.621,-28.809,-37.109,-32.715,0.000,0
161782.689,-32.227,-29.297,-21.484,-40.039,0.000,0
161782.693,-31.738,-25.391,-33.691,-29.297,0.000,0
161782.697,-25.879,-24.902,-45.898,-16.113,0.000,0
161782.701,-21.484,-26.367,-32.227,-27.832,0.000,0
161782.705,-17.578,-20.020,-18.555,-28.809,0.000,0
161782.709,-25.391,-21.484,-22.461,-34.180,0.000,0
161782.713,-31.250,-21.484,-26.367,-38.086,0.000,0
161782.717,-29.785,-17.090,-23.926,-27.832,0.000,0
161782.721,-25.879,-21.484,-27.832,-20.508,0.000,0
161782.724,-23.926,-20.508,-22.461,-17.090,0.000,0
161782.728,-24.414,-20.020,-27.344,-36.133,0.000,0
161782.732,-25.391,-21.973,-39.062,-39.062,0.000,0
161782.736,-22.461,-19.043,-28.320,-27.344,0.000,0
161782.740,-17.090,-16.602,-23.926,-11.719,0.000,0
161782.744,-19.531,-23.438,-34.180,-12.207,0.000,0
161782.748,-23.438,-26.855,-19.043,-25.391,0.000,0
161782.752,-24.414,-19.531,-17.578,-17.090,0.000,0
161782.756,-26.367,-17.578,-27.832,-13.672,0.000,0
161782.760,-22.949,-19.531,-36.621,-15.625,0.000,0
161782.763,-15.137,-25.879,-24.902,-21.484,0.000,0
161782.767,-12.207,-24.902,5.859,-23.926,0.000,0
161782.771,-21.484,-22.949,-30.762,-19.043,0.000,0
161782.775,-24.902,-23.438,-56.641,-18.066,0.000,0
161782.779,-27.344,-24.414,-36.621,-24.902,0.000,0
161782.783,-30.762,-22.949,-31.250,-25.391,0.000,0
161782.787,-30.273,-25.391,-26.367,-33.691,0.000,0
161782.791,-36.133,-30.273,-43.457,-38.086,0.000,0
161782.795,-28.809,-23.438,-47.363,-30.273,0.000,0
161782.799,-17.090,-25.879,-32.227,-28.320,0.000,0
161782.803,-23.926,-28.809,-28.320,-26.367,0.000,0
161782.806,-20.508,-20.508,-28.809,-24.902,0.000,0
161782.810,-14.160,-18.555,-22.461,-26.855,0.000,0
161782.814,-17.090,-24.902,-14.648,-27.832,0.000,0
161782.818,-14.160,-25.879,-32.227,-25.879,0.000,0
161782.822,-9.766,-21.973,-30.273,-22.461,0.000,0
161782.826,-17.090,-22.461,-23.438,-20.996,0.000,0
161782.830,-32.715,-21.973,-26.367,-17.090,0.000,0
161782.834,-30.762,-27.344,-39.062,-31.738,0.000,0
161782.838,-28.809,-29.297,-48.340,-38.086,0.000,0
161782.842,-33.691,-22.949,-35.156,-29.297,0.000,0
161782.846,-37.598,-29.297,-28.809,-35.645,0.000,0
161782.849,-37.109,-29.297,-29.297,-36.621,0.000,0
161782.853,-34.668,-21.484,-29.297,-22.949,0.000,0
161782.857,-31.738,-20.020,-29.785,-19.531,0.000,0
161782.861,-26.855,-18.555,-41.504,-29.785,0.000,0
161782.865,-27.344,-22.949,-34.668,-35.156,0.000,0
161782.869,-27.832,-20.020,-25.879,-25.391,0.000,0
161782.873,-28.809,-20.996,-38.086,-16.602,0.000,0
161782.877,-21.484,-22.461,-44.434,-20.020,0.000,0
161782.881,-16.602,-18.555,-34.668,-29.785,0.000,0
161782.885,-21.484,-22.461,-15.137,-40.039,0.000,0
161782.888,-29.297,-20.508,-14.160,-44.922,0.000,0
161782.892,-26.855,-18.066,-41.016,-39.551,0.000,0
161782.896,-23.438,-21.484,-42.480,-34.180,0.000,0
161782.900,-28.809,-14.648,-19.531,-32.715,0.000,0
161782.904,-31.250,-11.230,-12.207,-33.691,0.000,0
161782.908,-24.414,-11.719,-32.715,-37.598,0.000,0
161782.912,-16.602,-12.695,-39.062,-39.062,0.000,0
161782.916,-24.902,-15.625,-27.832,-36.133,0.000,0
161782.920,-24.902,-15.137,-34.180,-29.297,0.000,0
161782.924,-14.160,-9.277,-19.043,-31.250,0.000,0
161782.928,-16.602,-7.324,-12.695,-23.926,0.000,0
161782.931,-20.996,-11.230,-25.391,-25.879,0.000,0
161782.935,-16.113,-12.207,-24.414,-30.273,0.000,0
161782.939,-16.602,-13.672,-37.598,-20.996,0.000,0
161782.943,-24.414,-15.625,-20.020,-27.832,0.000,0
161782.947,-27.832,-16.602,-9.766,-30.762,0.000,0
161782.951,-17.578,-15.137,-24.902,-33.203,0.000,0
161782.955,-9.277,-13.672,-32.227,-34.668,0.000,0
161782.959,-9.766,-15.137,-29.785,-23.438,0.000,0
161782.963,-9.766,-11.719,-1.953,-25.879,0.000,0
161782.967,-8.301,-10.742,-20.996,-16.602,0.000,0
161782.971,-7.812,-12.207,-36.133,-7.324,0.000,0
161782.974,-21.973,-10.254,-14.648,-9.277,0.000,0
161782.978,-32.715,-16.113,-21.973,-3.906,0.000,0
161782.982,-27.344,-19.043,-10.742,-22.461,0.000,0
161782.986,-22.949,-22.461,-14.648,-40.039,0.000,0
161782.990,-32.715,-23.438,-32.715,-37.109,0.000,0
161782.994,-30.762,-19.531,-46.387,-21.484,0.000,0
161782.998,-24.902,-18.555,-30.273,-17.090,0.000,0
161783.002,-29.297,-21.973,-8.789,-34.180,0.000,0
161783.006,-36.621,-21.484,-20.020,-27.344,0.000,0
161783.010,-36.133,-18.555,-39.062,-26.367,0.000,0
161783.013,-28.809,-16.113,-36.133,-27.832,0.000,0
161783.017,-27.344,-17.578,-27.344,-20.996,0.000,0
161783.021,-26.855,-19.531,-15.137,-36.133,0.000,0
161783.025,-28.809,-22.949,-25.879,-40.039,0.000,0
161783.029,-31.738,-31.738,-38.574,-37.109,0.000,0
161783.033,-27.344,-25.391,-24.414,-37.109,0.000,0
161783.037,-29.785,-17.578,-27.832,-21.484,0.000,0
161783.041,-30.273,-20.020,-39.062,-27.344,0.000,0
161783.045,-23.438,-19.043,-32.715,-40.527,0.000,0
161783.049,-22.949,-16.113,-20.508,-32.227,0.000,0
161783.053,-21.484,-19.531,-23.438,-27.832,0.000,0
161783.056,-20.020,-25.879,-41.016,-22.461,0.000,0
161783.060,-22.461,-23.438,-29.785,-28.320,0.000,0
161783.064,-23.926,-22.949,-22.949,-20.508,0.000,0
161783.068,-20.996,-20.020,-35.156,-6.348,0.000,0
161783.072,-19.531,-12.207,-37.109,-15.625,0.000,0
161783.076,-20.508,-12.207,-29.785,-15.137,0.000,0
161783.080,-14.160,-15.137,-1.953,-20.996,0.000,0
161783.084,-12.207,-12.695,2.930,-34.668,0.000,0
161783.088,-22.949,-12.695,-27.832,-39.551,0.000,0
161783.092,-25.391,-16.113,-35.645,-35.156,0.000,0
161783.096,-29.785,-18.555,-19.531,-18.555,0.000,0
161783.099,-32.715,-23.438,-26.855,-27.344,0.000,0
161783.103,-26.855,-29.785,-23.926,-32.715,0.000,0
161783.107,-23.438,-24.414,-21.484,-22.461,0.000,0
161783.111,-27.832,-24.414,-32.227,-16.602,0.000,0
161783.115,-26.367,-31.250,-38.086,-17.090,0.000,0
161783.119,-22.949,-26.855,-19.043,-35.645,0.000,0
161783.123,-23.926,-27.832,-19.531,-39.062,0.000,0
161783.127,-22.949,-32.227,-40.039,-31.738,0.000,0
161783.131,-20.020,-29.785,-24.414,-32.715,0.000,0
161783.135,-14.160,-30.762,-28.809,-31.738,0.000,0
161783.138,-12.207,-28.320,-23.438,-24.414,0.000,0
161783.142,-16.113,-18.066,-18.066,-19.043,0.000,0
161783.146,-13.672,-18.066,-34.668,-18.066,0.000,0
161783.150,-8.301,-22.949,-26.367,-29.297,0.000,0
161783.154,-8.789,-24.414,-18.555,-31.738,0.000,0
161783.158,-21.484,-31.738,-29.785,-33.203,0.000,0
161783.162,-23.438,-29.297,-28.320,-39.551,0.000,0
161783.166,-15.625,-19.531,-15.137,-34.180,0.000,0
161783.170,-20.996,-18.555,-16.602,-28.320,0.000,0
161783.174,-23.438,-22.461,-36.621,-25.879,0.000,0
161783.178,-25.391,-25.879,-35.645,-28.809,0.000,0
161783.181,-36.133,-28.320,-20.996,-33.203,0.000,0
161783.185,-38.086,-29.297,-30.273,-22.949,0.000,0
161783.189,-27.344,-23.926,-39.551,-21.973,0.000,0
161783.193,-26.367,-20.996,-35.645,-26.367,0.000,0
161783.197,-29.297,-24.902,-25.879,-24.902,0.000,0
161783.201,-24.902,-25.391,-20.020,-28.809,0.000,0
161783.205,-24.902,-27.344,-30.273,-38.086,0.000,0
161783.209,-30.762,-30.762,-43.457,-26.367,0.000,0
161783.213,-35.645,-28.320,-46.387,-17.090,0.000,0
161783.217,-28.809,-30.273,-38.574,-21.973,0.000,0
161783.221,-23.438,-36.621,-32.715,-15.137,0.000,0
161783.224,-25.391,-30.762,-40.527,-20.508,0.000,0
161783.228,-27.344,-26.855,-26.367,-37.109,0.000,0
161783.232,-21.484,-26.855,-24.902,-31.250,0.000,0
161783.236,-13.184,-31.250,-33.691,-33.691,0.000,0
161783.240,-16.113,-32.227,-11.719,-45.898,0.000,0
161783.244,-24.414,-29.297,-23.438,-35.156,0.000,0
161783.248,-28.809,-24.414,-42.480,-26.855,0.000,0
161783.252,-26.367,-23.926,-42.969,-30.762,0.000,0
161783.256,-27.344,-25.879,-30.273,-42.969,0.000,0
161783.260,-25.391,-20.996,-4.883,-47.363,0.000,0
161783.263,-24.902,-21.484,-19.531,-42.480,0.000,0
161783.267,-29.297,-24.902,-30.762,-42.480,0.000,0
161783.271,-29.785,-22.461,-25.879,-32.227,0.000,0
161783.275,-30.762,-18.555,-20.996,-27.344,0.000,0
161783.279,-21.484,-19.043,-21.484,-30.762,0.000,0
161783.283,-13.184,-20.020,-30.762,-24.902,0.000,0
161783.287,-5.859,-13.184,-24.902,-24.902,0.000,0
161783.291,-7.812,-11.230,-27.832,-22.949,0.000,0
161783.295,-6.836,-12.207,-25.391,-22.949,0.000,0
161783.299,-5.371,-16.113,-4.395,-37.109,0.000,0
161783.303,-16.113,-16.602,-8.789,-39.551,0.000,0
161783.306,-21.484,-14.160,-22.949,-40.527,0.000,0
161783.310,-12.695,-13.672,-28.320,-21.484,0.000,0
161783.314,-7.324,-20.020,-31.250,-18.555,0.000,0
161783.318,-16.113,-14.160,-13.184,-48.828,0.000,0
161783.322,-23.926,-8.301,-27.832,-42.969,0.000,0
161783.326,-21.973,-11.230,-48.828,-36.621,0.000,0
161783.330,-20.996,-11.230,-31.738,-36.621,0.000,0
161783.334,-30.273,-8.789,-6.836,-35.156,0.000,0
161783.338,-26.855,-9.766,5.371,-47.852,0.000,0
161783.342,-25.391,-16.602,-20.508,-53.711,0.000,0
161783.346,-29.785,-17.578,-48.340,-51.270,0.000,0
161783.349,-25.879,-12.695,-32.227,-39.551,0.000,0
161783.353,-20.996,-13.184,-31.738,-41.504,0.000,0
161783.357,-26.367,-16.602,-26.367,-61.035,0.000,0
161783.361,-28.320,-19.043,-30.273,-49.316,0.000,0
161783.365,-23.438,-19.531,-37.598,-39.062,0.000,0
161783.369,-16.602,-23.438,-39.062,-33.203,0.000,0
161783.373,-17.090,-27.832,-46.875,-25.879,0.000,0
161783.377,-23.926,-21.973,-28.320,-36.133,0.000,0
161783.381,-15.137,-20.508,-5.371,-32.715,0.000,0
161783.385,-7.324,-23.926,-24.414,-16.602,0.000,0
161783.388,-11.719,-26.367,-39.551,-4.395,0.000,0
161783.392,-14.648,-27.344,-34.180,-15.137,0.000,0
161783.396,-16.113,-34.668,-23.926,-30.762,0.000,0
161783.400,-12.207,-28.320,-21.973,-27.832,0.000,0
161783.404,-13.672,-25.879,-32.227,-32.227,0.000,0
161783.408,-22.949,-25.879,-23.926,-30.762,0.000,0
161783.412,-29.297,-21.484,-19.043,-21.484,0.000,0
161783.416,-30.762,-24.902,-31.738,-34.668,0.000,0
161783.420,-35.156,-25.391,-25.879,-43.457,0.000,0
161783.424,-38.086,-19.531,-21.484,-35.645,0.000,0
161783.428,-41.016,-21.973,-33.203,-39.551,0.000,0
161783.431,-34.180,-20.020,-34.668,-38.574,0.000,0
161783.435,-24.902,-13.184,-18.066,-36.133,0.000,0
161783.439,-23.438,-14.160,-7.324,-40.527,0.000,0
161783.443,-19.043,-16.602,-11.719,-37.109,0.000,0
161783.447,-18.066,-17.578,-32.715,-31.738,0.000,0
161783.451,-17.090,-19.043,-31.250,-11.230,0.000,0
161783.455,-12.695,-15.625,-8.301,1.953,0.000,0
161783.459,-13.672,-13.184,-8.301,-13.672,0.000,0
161783.463,-9.766,-16.602,-28.320,-10.742,0.000,0
161783.467,-5.859,-18.555,-35.156,-8.789,0.000,0
161783.471,-7.324,-19.043,-11.230,-12.207,0.000,0
161783.474,-0.488,-20.020,-16.113,-10.254,0.000,0
161783.478,-5.859,-16.602,-22.461,-21.973,0.000,0
161783.482,-12.207,-18.066,-18.555,-26.855,0.000,0
161783.486,-10.254,-18.066,-20.020,-17.090,0.000,0
161783.490,-13.184,-19.043,-31.250,-21.973,0.000,0
161783.494,-19.043,-21.484,-35.156,-28.320,0.000,0
161783.498,-20.508,-16.602,-18.066,-29.297,0.000,0
161783.502,-16.113,-18.066,-26.367,-31.250,0.000,0
161783.506,-29.297,-20.996,-38.574,-43.457,0.000,0
161783.510,-39.062,-20.020,-41.504,-46.875,0.000,0
161783.513,-34.180,-19.531,-20.996,-42.480,0.000,0
161783.517,-28.809,-16.113,-11.719,-49.316,0.000,0
161783.521,-32.715,-20.020,-35.645,-50.293,0.000,0
161783.525,-39.062,-29.785,-41.992,-41.016,0.000,0
161783.529,-32.227,-26.367,-34.180,-32.227,0.000,0
161783.533,-23.926,-18.555,-23.438,-39.062,0.000,0
161783.537,-22.949,-17.578,-13.672,-34.668,0.000,0
161783.541,-25.391,-19.531,-23.438,-24.902,0.000,0
161783.545,-26.855,-20.996,-21.973,-37.109,0.000,0
161783.549,-25.391,-20.508,-32.227,-35.156,0.000,0
161783.553,-21.973,-25.879,-28.320,-29.785,0.000,0
161783.556,-26.367,-27.344,-18.555,-32.715,0.000,0
161783.560,-29.785,-21.484,-19.043,-31.738,0.000,0
161783.564,-22.949,-23.438,-33.691,-33.691,0.000,0
161783.568,-20.996,-24.414,-40.039,-36.133,0.000,0
161783.572,-27.832,-24.902,-27.344,-39.062,0.000,0
161783.576,-34.668,-26.855,-21.484,-41.016,0.000,0
161783.580,-39.062,-21.973,-33.203,-43.457,0.000,0
161783.584,-37.598,-22.461,-29.297,-49.316,0.000,0
161783.588,-35.156,-22.949,-23.926,-30.762,0.000,0
161783.592,-37.109,-24.902,-37.109,-25.391,0.000,0
161783.596,-35.645,-31.250,-24.902,-46.875,0.000,0
161783.599,-35.645,-30.273,-27.832,-43.457,0.000,0
161783.603,-33.203,-26.367,-38.574,-27.832,0.000,0
161783.607,-23.438,-22.949,-34.668,-22.461,0.000,0
161783.611,-20.996,-16.113,-31.250,-22.461,0.000,0
161783.615,-20.020,-12.207,-11.719,-29.297,0.000,0
161783.619,-14.648,-13.672,-18.066,-30.273,0.000,0
161783.623,-10.254,-16.113,-24.902,-21.484,0.000,0
161783.627,-11.719,-13.184,-30.273,-14.160,0.000,0
161783.631,-17.090,-14.160,-27.344,-12.207,0.000,0
161783.635,-22.949,-17.090,-11.230,-28.809,0.000,0
161783.638,-20.508,-19.531,-25.879,-32.715,0.000,0
161783.642,-23.926,-27.344,-43.945,-28.320,0.000,0
161783.646,-31.738,-33.203,-32.227,-34.180,0.000,0
161783.650,-25.391,-28.809,-7.324,-24.414,0.000,0
161783.654,-16.113,-23.926,-11.719,-25.391,0.000,0
161783.658,-16.113,-24.414,-27.832,-26.367,0.000,0
161783.662,-18.555,-24.414,-40.527,-24.902,0.000,0
161783.666,-21.484,-21.484,-37.109,-27.832,0.000,0
161783.670,-25.391,-20.508,-30.762,-29.785,0.000,0
161783.674,-26.367,-21.973,-14.648,-27.832,0.000,0
161783.678,-27.832,-15.137,-13.672,-22.461,0.000,0
161783.681,-22.461,-15.625,-24.902,-19.531,0.000,0
161783.685,-22.949,-20.996,-33.691,-23.926,0.000,0
161783.689,-25.391,-22.461,-32.715,-20.020,0.000,0
161783.693,-25.391,-22.949,-13.672,-24.414,0.000,0
161783.697,-21.973,-22.949,-25.391,-28.320,0.000,0
161783.701,-17.090,-22.949,-46.387,-21.973,0.000,0
161783.705,-16.602,-21.484,-43.457,-15.137,0.000,0
161783.709,-21.484,-21.484,-26.367,-12.695,0.000,0
161783.713,-27.832,-20.508,-15.137,-29.297,0.000,0
161783.717,-34.180,-24.414,-31.738,-32.227,0.000,0
161783.721,-34.180,-23.438,-44.434,-29.297,0.000,0
161783.724,-33.203,-19.043,-32.227,-38.086,0.000,0
161783.728,-29.297,-20.508,-29.785,-35.156,0.000,0
161783.732,-24.902,-22.949,-21.973,-30.273,0.000,0
161783.736,-25.391,-23.438,-22.461,-39.062,0.000,0
161783.740,-26.367,-24.414,-30.273,-32.227,0.000,0
161783.744,-28.320,-21.973,-38.086,-16.113,0.000,0
161783.748,-22.949,-22.949,-44.434,-30.273,0.000,0
161783.752,-20.996,-26.367,-22.461,-41.016,0.000,0
161783.756,-22.461,-24.414,-13.184,-44.434,0.000,0
161783.760,-20.508,-21.973,-37.598,-47.363,0.000,0
161783.763,-15.625,-25.391,-41.016,-37.598,0.000,0
161783.767,-16.602,-26.855,-36.133,-22.461,0.000,0
161783.771,-16.113,-22.461,-31.250,-22.461,0.000,0
161783.775,-20.996,-23.438,-31.250,-40.527,0.000,0
161783.779,-24.902,-20.996,-45.410,-24.902,0.000,0
161783.783,-12.695,-20.996,-35.156,-16.602,0.000,0
161783.787,-10.254,-16.113,-19.531,-22.949,0.000,0
161783.791,-18.066,-14.648,-31.738,-26.367,0.000,0
161783.795,-19.043,-24.414,-40.039,-38.086,0.000,0
161783.799,-19.531,-26.367,-17.578,-38.574,0.000,0
161783.803,-25.391,-28.809,-23.438,-42.969,0.000,0
161783.806,-35.645,-33.691,-53.711,-42.969,0.000,0
161783.810,-36.621,-32.715,-44.922,-39.551,0.000,0
161783.814,-33.203,-29.785,-24.414,-50.293,0.000,0
161783.818,-30.273,-24.902,-36.133,-39.062,0.000,0
161783.822,-26.855,-29.297,-41.992,-19.043,0.000,0
161783.826,-30.273,-35.645,-36.133,-30.762,0.000,0
161783.830,-20.508,-33.691,-25.879,-30.762,0.000,0
161783.834,-15.625,-27.344,-18.555,-26.855,0.000,0
161783.838,-37.109,-29.785,-29.785,-46.875,0.000,0
161783.842,-35.156,-34.668,-42.969,-40.527,0.000,0
161783.846,-27.344,-27.344,-44.434,-20.996,0.000,0
161783.849,-34.668,-27.344,-41.504,-41.992,0.000,0
161783.853,-39.551,-35.156,-29.297,-71.777,0.000,0
161783.857,-38.574,-35.156,-58.594,-49.805,0.000,0
161783.861,-31.738,-28.320,-62.500,-12.695,0.000,0
161783.865,-25.879,-27.832,-39.551,-13.672,0.000,0
161783.869,-26.367,-26.855,-35.645,-33.203,0.000,0
161783.873,-26.367,-24.902,-31.250,-37.598,0.000,0
161783.877,-21.973,-28.320,-42.969,-33.691,0.000,0
161783.881,-18.066,-34.180,-48.828,-31.738,0.000,0
161783.885,-19.531,-33.691,-58.594,-41.992,0.000,0
161783.888,-25.391,-31.250,-35.156,-46.875,0.000,0
161783.892,-20.996,-29.785,-17.090,-37.109,0.000,0
161783.896,-15.625,-24.414,-48.340,-30.273,0.000,0
161783.900,-18.555,-28.320,-52.246,-32.227,0.000,0
161783.904,-16.602,-32.227,-29.785,-34.668,0.000,0
161783.908,-7.324,-25.391,-21.973,-41.504,0.000,0
161783.912,-10.254,-24.902,-20.508,-50.293,0.000,0
161783.916,-20.508,-30.273,-28.320,-39.551,0.000,0
161783.920,-20.508,-31.738,-33.203,-21.484,0.000,0
161783.924,-25.879,-29.785,-38.086,-23.926,0.000,0
161783.928,-36.621,-27.832,-38.574,-30.762,0.000,0
161783.931,-31.738,-27.344,-25.391,-37.109,0.000,0
161783.935,-23.926,-26.855,-19.043,-34.180,0.000,0
161783.939,-24.414,-30.273,-38.574,-32.715,0.000,0
161783.943,-24.902,-31.250,-47.363,-22.949,0.000,0
161783.947,-21.973,-30.762,-37.598,-23.926,0.000,0
161783.951,-21.484,-25.391,-16.602,-34.668,0.000,0
161783.955,-21.484,-20.508,-17.578,-21.484,0.000,0
161783.959,-16.113,-25.391,-42.969,-22.461,0.000,0
161783.963,-15.625,-27.832,-44.434,-25.391,0.000,0
161783.967,-20.020,-28.809,-24.414,-20.020,0.000,0
161783.971,-17.578,-28.320,-23.438,-25.391,0.000,0
161783.974,-21.973,-17.090,-25.391,-33.203,0.000,0
161783.978,-28.320,-18.066,-22.949,-30.273,0.000,0
161783.982,-24.902,-27.832,-27.832,-13.672,0.000,0
161783.986,-23.438,-26.855,-40.527,-18.555,0.000,0
161783.990,-27.832,-24.902,-22.461,-37.598,0.000,0
161783.994,-23.926,-26.367,-19.531,-32.227,0.000,0
161783.998,-18.555,-26.855,-30.762,-21.973,0.000,0
161784.002,-14.648,-20.996,-26.855,-16.113,0.000,0
161784.006,-10.742,-20.020,-23.926,-21.484,0.000,0
161784.010,-16.602,-20.020,-10.254,-37.109,0.000,0
161784.013,-19.531,-19.531,-20.020,-29.785,0.000,0
161784.017,-10.254,-23.926,-39.062,-29.785,0.000,0
161784.021,-12.695,-25.879,-28.320,-34.180,0.000,0
161784.025,-24.414,-21.973,-13.184,-22.461,0.000,0
161784.029,-22.461,-20.508,-11.230,-22.949,0.000,0
161784.033,-23.926,-25.391,-24.414,-22.949,0.000,0
161784.037,-20.508,-21.484,-28.809,-13.184,0.000,0
161784.041,-17.090,-19.043,-24.414,-14.648,0.000,0
161784.045,-19.531,-20.508,-22.949,-20.508,0.000,0
161784.049,-17.090,-21.973,-4.883,-26.367,0.000,0
161784.053,-16.602,-20.020,-1.465,-20.996,0.000,0
161784.056,-18.555,-20.020,-14.160,-20.996,0.000,0
161784.060,-25.391,-27.344,-18.555,-33.203,0.000,0
161784.064,-24.414,-27.832,-36.133,-23.926,0.000,0
161784.068,-24.414,-19.043,-14.648,-17.090,0.000,0
161784.072,-29.297,-14.160,-2.441,-22.949,0.000,0
161784.076,-23.926,-18.555,-26.855,-28.320,0.000,0
161784.080,-23.926,-17.578,-31.738,-33.203,0.000,0
161784.084,-21.973,-13.672,-11.230,-19.531,0.000,0
161784.088,-16.602,-12.695,-6.836,-13.184,0.000,0
161784.092,-12.207,-12.207,-17.090,-27.344,0.000,0
161784.096,-16.602,-17.090,-24.902,-24.414,0.000,0
161784.099,-26.855,-18.555,-20.996,-18.066,0.000,0
161784.103,-21.484,-22.949,-26.855,-25.879,0.000,0
161784.107,-17.090,-26.367,-29.785,-21.484,0.000,0
161784.111,-20.996,-19.531,-23.926,-16.602,0.000,0
161784.115,-24.902,-19.043,-23.926,-30.762,0.000,0
161784.119,-23.438,-22.461,-24.902,-30.273,0.000,0
161784.123,-20.508,-21.484,-46.875,-24.902,0.000,0
161784.127,-28.320,-26.367,-40.039,-33.203,0.000,0
161784.131,-37.109,-27.832,-5.371,-30.273,0.000,0
161784.135,-27.832,-28.809,-25.391,-20.020,0.000,0
161784.138,-20.996,-24.414,-38.574,-5.859,0.000,0
161784.142,-23.438,-19.043,-26.367,-10.254,0.000,0
161784.146,-18.555,-15.625,-15.137,-16.113,0.000,0
161784.150,-16.602,-14.160,-15.625,-20.508,0.000,0
161784.154,-24.414,-20.508,-25.879,-29.785,0.000,0
161784.158,-28.320,-21.484,-27.344,-29.297,0.000,0
161784.162,-27.344,-23.438,-36.133,-22.461,0.000,0
161784.166,-26.367,-23.926,-32.227,-24.414,0.000,0
161784.170,-25.391,-19.531,-31.738,-25.879,0.000,0
161784.174,-25.391,-21.484,-21.973,-7.812,0.000,0
161784.178,-26.855,-22.461,-24.414,-14.648,0.000,0
161784.181,-22.461,-21.973,-37.109,-27.832,0.000,0
161784.185,-17.578,-23.438,-22.949,-20.020,0.000,0
161784.189,-14.160,-18.555,-12.695,-18.555,0.000,0
161784.193,-9.277,-16.113,-29.785,-18.555,0.000,0
161784.197,-11.230,-18.555,-36.133,-16.602,0.000,0
161784.201,-14.648,-15.625,-31.250,-20.996,0.000,0
161784.205,-7.812,-17.090,-14.648,-23.438,0.000,0
161784.209,-6.348,-13.184,-7.324,-17.090,0.000,0
161784.213,-8.301,-11.719,-26.367,-3.906,0.000,0
161784.217,-9.277,-13.672,-7.812,-13.184,0.000,0
161784.221,-15.137,-12.695,2.930,-25.391,0.000,0
161784.224,-17.578,-18.555,-16.602,-20.508,0.000,0
161784.228,-22.461,-19.531,-20.020,-23.438,0.000,0
161784.232,-27.344,-26.367,-24.902,-28.809,0.000,0
161784.236,-26.855,-28.320,-29.297,-22.949,0.000,0
161784.240,-22.949,-18.555,-29.297,-10.254,0.000,0
161784.244,-23.438,-17.578,-12.695,-20.996,0.000,0
161784.248,-22.461,-18.066,-10.742,-26.855,0.000,0
161784.252,-13.184,-23.438,-23.926,-12.695,0.000,0
161784.256,-20.508,-29.297,-23.438,-11.719,0.000,0
161784.260,-18.555,-21.484,-25.879,-15.625,0.000,0
161784.263,-13.672,-20.020,-2.441,-21.484,0.000,0
161784.267,-17.090,-20.508,-6.836,-32.715,0.000,0
161784.271,-11.719,-13.672,-39.551,-25.391,0.000,0
161784.275,-12.695,-13.672,-25.879,-18.066,0.000,0
161784.279,-16.602,-18.555,-16.602,-24.902,0.000,0
161784.283,-13.184,-19.531,-6.836,-30.273,0.000,0
161784.287,-10.254,-16.602,-3.418,-32.715,0.000,0
161784.291,-18.066,-12.695,-18.555,-28.809,0.000,0
161784.295,-22.949,-16.113,-20.508,-27.832,0.000,0
161784.299,-21.484,-16.602,-22.461,-20.996,0.000,0
161784.303,-19.043,-20.020,-22.949,-15.137,0.000,0
161784.306,-17.090,-21.484,-12.695,-26.367,0.000,0
161784.310,-22.461,-24.414,-23.438,-26.855,0.000,0
161784.314,-17.578,-29.297,-42.480,-21.484,0.000,0
161784.318,-15.137,-24.902,-36.133,-25.391,0.000,0
161784.322,-24.414,-27.832,-24.902,-27.344,0.000,0
161784.326,-26.367,-30.273,-19.043,-33.203,0.000,0
161784.330,-16.113,-23.926,-26.855,-22.949,0.000,0
161784.334,-16.113,-24.902,-26.855,-18.555,0.000,0
161784.338,-21.973,-24.902,-32.715,-20.020,0.000,0
161784.342,-16.602,-20.996,-29.785,-12.207,0.000,0
161784.346,-14.160,-19.043,-17.090,-16.602,0.000,0
161784.349,-24.414,-21.973,-27.344,-17.090,0.000,0
161784.353,-36.621,-22.949,-28.320,-16.602,0.000,0
161784.357,-32.715,-22.461,-36.621,-20.020,0.000,0
161784.361,-19.043,-23.438,-28.320,-20.020,0.000,0
161784.365,-18.066,-18.066,-6.836,-18.066,0.000,0
161784.369,-22.949,-17.090,-15.625,-17.090,0.000,0
161784.373,-21.484,-20.020,-40.527,-11.719,0.000,0
161784.377,-23.926,-28.809,-57.617,-20.996,0.000,0
161784.381,-24.414,-31.738,-20.508,-35.645,0.000,0
161784.385,-21.973,-32.227,-5.371,-35.645,0.000,0
161784.388,-26.855,-31.250,-38.086,-42.969,0.000,0
161784.392,-26.367,-25.391,-36.133,-40.527,0.000,0
161784.396,-30.273,-26.855,-23.926,-32.227,0.000,0
161784.400,-26.855,-29.297,-25.391,-28.320,0.000,0
161784.404,-19.531,-28.809,-27.832,-39.062,0.000,0
161784.408,-22.461,-25.879,-32.715,-39.551,0.000,0
161784.412,-26.855,-25.879,-31.738,-32.715,0.000,0
161784.416,-36.621,-28.320,-33.203,-36.133,0.000,0
161784.420,-39.062,-26.367,-31.250,-33.691,0.000,0
161784.424,-34.180,-25.391,-26.855,-35.645,0.000,0
161784.428,-23.926,-26.367,-35.645,-30.273,0.000,0
161784.431,-12.695,-25.391,-33.691,-25.879,0.000,0
161784.435,-23.438,-29.785,-31.738,-28.320,0.000,0
161784.439,-33.691,-31.250,-33.203,-16.113,0.000,0
161784.443,-37.109,-26.855,-26.367,-24.902,0.000,0
161784.447,-37.598,-29.297,-37.109,-30.273,0.000,0
161784.451,-39.551,-33.691,-58.594,-20.996,0.000,0
161784.455,-47.852,-33.691,-53.223,-28.809,0.000,0
161784.459,-48.828,-31.250,-32.715,-33.203,0.000,0
161784.463,-41.504,-29.297,-33.203,-35.645,0.000,0
161784.467,-38.086,-31.738,-39.062,-40.527,0.000,0
161784.471,-41.992,-29.297,-31.250,-51.270,0.000,0
161784.474,-42.969,-33.691,-41.016,-42.480,0.000,0
161784.478,-33.691,-35.156,-56.641,-15.625,0.000,0
161784.482,-24.414,-30.762,-32.715,-22.461,0.000,0
161784.486,-25.879,-24.902,-19.043,-28.809,0.000,0
161784.490,-21.484,-26.855,-42.969,-13.672,0.000,0
161784.494,-22.461,-27.832,-51.270,-14.648,0.000,0
161784.498,-23.438,-22.949,-39.551,-17.090,0.000,0
161784.502,-20.020,-19.531,-5.371,-21.973,0.000,0
161784.506,-24.902,-15.137,-1.953,-32.715,0.000,0
161784.510,-16.602,-19.531,-21.973,-32.227,0.000,0
161784.513,-8.789,-20.508,-15.137,-21.973,0.000,0
161784.517,-11.719,-22.949,-20.996,-15.137,0.000,0
161784.521,-12.695,-26.367,-21.973,-16.602,0.000,0
161784.525,-17.090,-21.484,-27.832,-12.695,0.000,0
161784.529,-16.113,-20.508,-21.973,-7.324,0.000,0
161784.533,-12.207,-20.020,-9.277,-10.742,0.000,0
161784.537,-20.020,-22.461,-18.066,-15.625,0.000,0
161784.541,-14.648,-23.438,-20.996,-18.066,0.000,0
161784.545,-14.160,-20.020,-20.508,-23.926,0.000,0
161784.549,-24.902,-21.973,-20.996,-22.949,0.000,0
161784.553,-19.531,-25.879,-31.250,-2.930,0.000,0
161784.556,-15.137,-23.438,-38.086,-7.324,0.000,0
161784.560,-15.625,-18.066,-10.742,-25.391,0.000,0
161784.564,-17.090,-17.090,-6.836,-20.020,0.000,0
161784.568,-23.438,-24.902,-30.762,-13.184,0.000,0
161784.572,-26.855,-26.855,-17.578,-16.602,0.000,0
161784.576,-23.926,-24.902,-25.391,-12.207,0.000,0
161784.580,-18.555,-22.949,-25.879,-12.695,0.000,0
161784.584,-18.555,-19.043,-16.113,-22.461,0.000,0
161784.588,-22.461,-20.996,-39.551,-22.461,0.000,0
161784.592,-22.461,-16.113,-33.691,-11.719,0.000,0
161784.596,-25.879,-12.695,-23.438,0.000,0.000,0
161784.599,-23.926,-18.066,-25.879,-10.742,0.000,0
161784.603,-19.043,-23.438,-17.578,-22.949,0.000,0
161784.607,-20.508,-24.902,-31.738,-25.879,0.000,0
161784.611,-20.996,-21.973,-30.273,-28.809,0.000,0
161784.615,-23.438,-26.367,-38.574,-20.508,0.000,0
161784.619,-31.250,-33.203,-29.785,-27.344,0.000,0
161784.623,-27.344,-33.203,-21.973,-35.156,0.000,0
161784.627,-19.531,-27.832,-37.598,-18.066,0.000,0
161784.631,-23.926,-25.879,-41.504,-15.625,0.000,0
161784.635,-27.832,-26.855,-41.992,-18.066,0.000,0
161784.638,-33.203,-29.785,-25.391,-18.555,0.000,0
161784.642,-24.902,-28.809,-28.320,-21.973,0.000,0
161784.646,-14.160,-26.855,-37.598,-17.578,0.000,0
161784.650,-22.949,-26.855,-23.438,-19.043,0.000,0
161784.654,-23.926,-20.508,-36.133,-10.254,0.000,0
161784.658,-21.973,-23.926,-42.969,-14.648,0.000,0
161784.662,-23.438,-23.926,-22.461,-34.668,0.000,0
161784.666,-17.578,-20.996,-24.902,-21.484,0.000,0
161784.670,-17.090,-27.344,-34.180,-10.742,0.000,0
161784.674,-20.996,-30.762,-29.785,-24.902,0.000,0
161784.678,-20.508,-23.438,-22.949,-33.691,0.000,0
161784.681,-23.438,-16.602,-26.367,-22.949,0.000,0
161784.685,-22.461,-16.113,-35.156,-16.113,0.000,0
161784.689,-12.695,-13.672,-51.270,-8.789,0.000,0
161784.693,-14.160,-19.043,-39.551,-7.324,0.000,0
161784.697,-23.926,-21.973,-7.812,-19.531,0.000,0
161784.701,-24.902,-15.137,-20.020,-18.066,0.000,0
161784.705,-25.879,-18.066,-40.527,-18.066,0.000,0
161784.709,-21.484,-20.020,-38.574,-22.461,0.000,0
161784.713,-20.996,-17.578,-34.668,-10.254,0.000,0
161784.717,-27.344,-18.555,-20.020,-11.719,0.000,0
161784.721,-31.250,-22.949,-25.879,-21.484,0.000,0
161784.724,-29.785,-25.391,-39.062,-20.508,0.000,0
161784.728,-19.043,-19.043,-40.527,-9.766,0.000,0
161784.732,-16.113,-19.043,-41.504,-18.555,0.000,0
161784.736,-32.227,-21.484,-26.855,-37.598,0.000,0
161784.740,-40.527,-24.414,-20.996,-34.180,0.000,0
161784.744,-32.227,-28.809,-35.156,-27.832,0.000,0
161784.748,-33.203,-36.621,-42.480,-28.809,0.000,0
161784.752,-31.250,-35.645,-33.691,-24.902,0.000,0
161784.756,-25.879,-26.855,-22.461,-28.320,0.000,0
161784.760,-37.109,-29.297,-33.691,-36.621,0.000,0
161784.763,-40.527,-31.738,-39.551,-27.832,0.000,0
161784.767,-32.715,-28.320,-32.715,-17.090,0.000,0
161784.771,-35.156,-25.391,-37.109,-28.809,0.000,0
161784.775,-25.391,-26.855,-28.809,-23.926,0.000,0
161784.779,-20.508,-22.461,-25.391,-17.578,0.000,0
161784.783,-32.227,-17.090,-22.949,-33.203,0.000,0
161784.787,-32.227,-19.531,-26.855,-27.344,0.000,0
161784.791,-23.926,-22.461,-38.574,-20.996,0.000,0
161784.795,-18.066,-21.484,-20.020,-29.785,0.000,0
161784.799,-24.902,-23.926,-21.973,-34.180,0.000,0
161784.803,-25.391,-22.461,-34.180,-24.414,0.000,0
161784.806,-24.414,-13.184,-35.156,-24.414,0.000,0
161784.810,-27.344,-19.531,-25.391,-32.227,0.000,0
161784.814,-32.715,-26.367,-11.230,-32.227,0.000,0
161784.818,-35.645,-27.832,-23.438,-41.016,0.000,0
161784.822,-25.879,-28.320,-43.945,-41.992,0.000,0
161784.826,-19.531,-24.902,-37.598,-24.414,0.000,0
161784.830,-27.832,-29.297,-24.414,-20.508,0.000,0
161784.834,-33.203,-26.855,-26.855,-30.762,0.000,0
161784.838,-27.344,-14.648,-29.785,-29.785,0.000,0
161784.842,-23.438,-12.207,-27.344,-28.809,0.000,0
161784.846,-24.902,-12.695,-15.625,-30.762,0.000,0
161784.849,-25.879,-20.996,-18.555,-26.367,0.000,0
161784.853,-27.832,-18.555,-14.160,-33.203,0.000,0
161784.857,-26.855,-8.789,-11.230,-35.645,0.000,0
161784.861,-25.879,-13.184,-16.602,-38.574,0.000,0
161784.865,-25.879,-18.555,-24.902,-39.062,0.000,0
161784.869,-22.949,-18.555,-40.039,-25.879,0.000,0
161784.873,-20.508,-17.090,-7.812,-34.668,0.000,0
161784.877,-19.531,-20.020,-3.906,-24.902,0.000,0
161784.881,-17.578,-23.438,-42.480,-16.602,0.000,0
161784.885,-14.160,-20.020,-28.809,-25.879,0.000,0
161784.888,-17.090,-15.137,-23.926,-23.438,0.000,0
161784.892,-20.996,-20.508,-18.066,-30.762,0.000,0
161784.896,-20.508,-19.043,-21.484,-33.691,0.000,0
161784.900,-25.879,-21.484,-29.297,-28.809,0.000,0
161784.904,-17.090,-30.762,-37.109,-19.043,0.000,0
161784.908,-10.742,-24.414,-33.203,-14.648,0.000,0
161784.912,-19.531,-22.949,-15.137,-22.949,0.000,0
161784.916,-15.625,-23.438,-17.090,-17.090,0.000,0
161784.920,-22.461,-21.973,-24.414,-5.859,0.000,0
161784.924,-26.855,-21.973,-35.156,-6.836,0.000,0
161784.928,-17.090,-24.414,-40.039,-12.695,0.000,0
161784.931,-14.160,-24.902,-13.184,-27.832,0.000,0
161784.935,-20.996,-17.578,-11.230,-33.691,0.000,0
161784.939,-22.461,-20.020,-37.109,-22.949,0.000,0
161784.943,-17.090,-23.926,-34.668,-18.066,0.000,0
161784.947,-18.066,-20.996,-36.621,-14.648,0.000,0
161784.951,-25.391,-20.020,-27.832,-23.926,0.000,0
161784.955,-23.926,-20.020,-23.438,-29.297,0.000,0
161784.959,-23.926,-20.508,-45.898,-20.020,0.000,0
161784.963,-30.273,-22.949,-20.996,-27.832,0.000,0
161784.967,-30.273,-24.414,-17.578,-30.273,0.000,0
161784.971,-24.414,-23.438,-42.969,-33.691,0.000,0
161784.974,-28.809,-25.879,-22.949,-43.945,0.000,0
161784.978,-28.320,-34.180,-29.297,-33.203,0.000,0
161784.982,-21.484,-30.762,-47.852,-20.020,0.000,0
161784.986,-20.508,-18.555,-45.898,-16.602,0.000,0
161784.990,-20.508,-15.137,-20.508,-18.555,0.000,0
161784.994,-18.066,-16.113,-3.418,-26.855,0.000,0
161784.998,-18.066,-17.578,-22.949,-35.645,0.000,0
161785.002,-20.996,-21.973,-26.367,-39.551,0.000,0
161785.006,-26.855,-30.273,-34.180,-26.367,0.000,0
161785.010,-32.227,-37.109,-27.344,-25.391,0.000,0
161785.013,-31.250,-28.809,-8.301,-39.062,0.000,0
161785.017,-21.484,-24.902,-37.109,-33.691,0.000,0
161785.021,-16.113,-24.414,-42.480,-26.855,0.000,0
161785.025,-18.555,-18.555,-18.066,-21.973,0.000,0
161785.029,-14.648,-22.949,-9.277,-11.719,0.000,0
161785.033,-14.648,-27.344,-11.230,-19.531,0.000,0
161785.037,-20.996,-20.508,-18.555,-26.367,0.000,0
161785.041,-25.879,-20.996,-20.996,-19.531,0.000,0
161785.045,-28.809,-24.902,-31.250,-19.531,0.000,0
161785.049,-28.809,-24.902,-25.879,-21.484,0.000,0
161785.053,-31.250,-30.762,-21.973,-19.531,0.000,0
161785.056,-31.738,-24.902,-37.598,-3.906,0.000,0
161785.060,-32.227,-19.531,-39.062,-8.301,0.000,0
161785.064,-24.414,-19.531,-26.855,-17.090,0.000,0
161785.068,-8.301,-14.648,-13.672,1.953,0.000,0
161785.072,-6.348,-14.648,-15.137,-6.836,0.000,0
161785.076,-23.926,-20.508,-33.203,-33.691,0.000,0
161785.080,-36.133,-22.461,-37.109,-36.133,0.000,0
161785.084,-29.785,-18.066,-41.992,-17.090,0.000,0
161785.088,-30.762,-19.531,-44.434,-18.066,0.000,0
161785.092,-33.691,-16.602,-30.273,-21.973,0.000,0
161785.096,-28.320,-12.695,-23.926,-8.301,0.000,0
161785.099,-27.832,-17.090,-25.391,-8.789,0.000,0
161785.103,-26.855,-18.555,-31.250,-8.789,0.000,0
161785.107,-28.320,-16.113,-27.832,-8.301,0.000,0
161785.111,-27.344,-17.578,-11.230,-20.996,0.000,0
161785.115,-20.508,-17.090,-3.906,-19.043,0.000,0
161785.119,-19.043,-23.926,-25.879,-19.043,0.000,0
161785.123,-16.602,-23.926,-31.738,-22.949,0.000,0
161785.127,-10.254,-20.020,-11.230,-19.531,0.000,0
161785.131,-17.090,-23.926,-4.395,-26.855,0.000,0
161785.135,-18.555,-18.066,-17.090,-31.250,0.000,0
161785.138,-12.207,-19.043,-30.273,-30.762,0.000,0
161785.142,-18.555,-23.438,-21.973,-21.973,0.000,0
161785.146,-26.367,-20.996,-25.879,-16.113,0.000,0
161785.150,-17.090,-25.879,-32.715,-18.066,0.000,0
161785.154,-14.648,-30.273,-38.086,-6.348,0.000,0
161785.158,-31.250,-27.344,-24.414,-6.348,0.000,0
161785.162,-28.320,-23.438,-7.324,-12.695,0.000,0
161785.166,-16.602,-23.926,-20.996,-11.719,0.000,0
161785.170,-15.137,-21.484,-14.160,-16.602,0.000,0
161785.174,-31.250,-21.484,-23.438,-28.320,0.000,0
161785.178,-41.016,-24.414,-28.809,-26.367,0.000,0
161785.181,-33.203,-23.438,-19.043,-14.648,0.000,0
161785.185,-30.762,-18.066,-36.133,-23.926,0.000,0
161785.189,-30.273,-17.578,-29.297,-42.969,0.000,0
161785.193,-28.809,-22.461,-23.926,-27.832,0.000,0
161785.197,-25.879,-25.879,-37.109,-9.766,0.000,0
161785.201,-25.391,-25.879,-35.156,-19.531,0.000,0
161785.205,-28.809,-21.973,-28.809,-22.461,0.000,0
161785.209,-25.879,-25.391,-28.320,-36.133,0.000,0
161785.213,-21.973,-26.367,-29.297,-38.574,0.000,0
161785.217,-29.297,-26.367,-24.902,-27.832,0.000,0
161785.221,-31.738,-24.414,-29.785,-21.973,0.000,0
161785.224,-19.531,-17.578,-32.227,-11.230,0.000,0
161785.228,-12.207,-17.578,-11.230,-14.160,0.000,0
161785.232,-11.230,-20.996,-15.137,-12.207,0.000,0
161785.236,-13.184,-18.066,-30.762,-6.836,0.000,0
161785.240,-22.461,-17.578,-27.344,-12.695,0.000,0
161785.244,-26.855,-24.902,-31.738,-23.926,0.000,0
161785.248,-6.348,-23.438,-4.883,-19.531,0.000,0
161785.252,6.836,-23.438,-3.418,-10.254,0.000,0
161785.256,-11.719,-31.738,-40.039,-24.902,0.000,0
161785.260,-20.508,-23.438,-34.180,-24.414,0.000,0
161785.263,-20.508,-19.043,-32.227,-12.695,0.000,0
161785.267,-25.391,-21.484,-23.438,-24.902,0.000,0
161785.271,-33.203,-20.508,-23.438,-39.062,0.000,0
161785.275,-41.016,-28.809,-34.668,-38.574,0.000,0
161785.279,-33.691,-32.715,-28.320,-33.203,0.000,0
161785.283,-25.879,-22.461,-25.391,-25.879,0.000,0
161785.287,-16.602,-19.531,-23.926,-18.555,0.000,0
161785.291,-12.695,-22.949,-22.949,-15.137,0.000,0
161785.295,-22.461,-27.344,-20.996,-20.508,0.000,0
161785.299,-21.973,-29.297,-35.156,-18.555,0.000,0
161785.303,-13.672,-31.738,-41.016,-18.555,0.000,0
161785.306,-15.625,-32.227,-17.090,-25.879,0.000,0
161785.310,-16.602,-24.414,-6.348,-23.438,0.000,0
161785.314,-15.137,-22.461,-32.715,-22.461,0.000,0
161785.318,-20.020,-25.391,-32.715,-27.344,0.000,0
161785.322,-18.066,-24.414,-26.367,-16.113,0.000,0
161785.326,-18.555,-26.855,-14.648,-13.672,0.000,0
161785.330,-17.090,-28.809,-3.418,-24.902,0.000,0
161785.334,-20.508,-24.414,-23.926,-19.531,0.000,0
161785.338,-28.809,-23.438,-21.484,-20.508,0.000,0
161785.342,-23.438,-21.973,-18.555,-13.184,0.000,0
161785.346,-14.160,-20.508,-17.578,-0.977,0.000,0
161785.349,-12.207,-31.738,-13.672,-18.066,0.000,0
161785.353,-21.973,-30.273,-31.738,-32.715,0.000,0
161785.357,-23.926,-21.973,-28.320,-20.508,0.000,0
161785.361,-21.973,-23.438,-33.203,-9.277,0.000,0
161785.365,-22.461,-27.344,-34.180,-23.926,0.000,0
161785.369,-23.438,-30.762,-17.578,-33.691,0.000,0
161785.373,-28.320,-26.367,-41.504,-24.414,0.000,0
161785.377,-29.297,-28.809,-52.246,-13.672,0.000,0
161785.381,-29.297,-25.391,-25.879,-12.695,0.000,0
161785.385,-27.832,-20.508,-7.812,-19.043,0.000,0
161785.388,-31.250,-25.879,-30.762,-24.414,0.000,0
161785.392,-36.133,-34.180,-56.152,-23.438,0.000,0
161785.396,-36.133,-32.227,-35.156,-0.977,0.000,0
161785.400,-30.762,-28.809,-24.902,7.324,0.000,0
161785.404,-29.297,-32.715,-27.832,-8.789,0.000,0
161785.408,-28.809,-25.391,-13.184,-16.602,0.000,0
161785.412,-29.785,-21.484,-17.090,-12.695,0.000,0
161785.416,-29.785,-26.367,-27.344,-5.371,0.000,0
161785.420,-30.762,-26.367,-30.273,-1.465,0.000,0
161785.424,-40.039,-31.738,-28.320,-5.859,0.000,0
161785.428,-40.039,-29.297,-16.602,-13.184,0.000,0
161785.431,-34.668,-20.508,-16.113,-28.320,0.000,0
161785.435,-33.203,-23.438,-33.691,-35.645,0.000,0
161785.439,-30.273,-27.344,-48.340,-28.320,0.000,0
161785.443,-29.297,-22.949,-16.602,-27.344,0.000,0
161785.447,-23.438,-20.508,-2.441,-27.344,0.000,0
161785.451,-14.648,-25.391,-27.344,-11.719,0.000,0
161785.455,-12.207,-21.973,-25.879,0.000,0.000,0
161785.459,-12.207,-15.625,-15.625,-6.348,0.000,0
161785.463,-17.090,-18.555,-14.160,-16.113,0.000,0
161785.467,-14.648,-22.461,-15.137,-23.926,0.000,0
161785.471,-15.137,-17.090,-11.719,-24.414,0.000,0
161785.474,-20.508,-15.625,-8.789,-16.113,0.000,0
161785.478,-12.207,-22.461,-22.461,-18.066,0.000,0
161785.482,-9.766,-24.902,-24.902,-20.020,0.000,0
161785.486,-17.090,-18.066,-8.301,-23.438,0.000,0
161785.490,-21.484,-18.066,3.906,-33.203,0.000,0
161785.494,-23.438,-20.508,-8.789,-30.273,0.000,0
161785.498,-21.484,-24.414,-36.621,-18.066,0.000,0
161785.502,-22.461,-25.391,-31.738,-5.371,0.000,0
161785.506,-23.926,-23.926,-9.766,-13.184,0.000,0
161785.510,-17.090,-19.531,-13.672,-17.578,0.000,0
161785.513,-7.324,-14.648,-18.066,-8.301,0.000,0
161785.517,-12.207,-11.719,-10.254,-3.906,0.000,0
161785.521,-23.926,-10.742,-15.625,-3.418,0.000,0
161785.525,-25.391,-15.625,-21.484,-10.742,0.000,0
161785.529,-23.926,-19.043,-27.344,-21.484,0.000,0
161785.533,-27.344,-23.438,-15.137,-20.020,0.000,0
161785.537,-29.785,-22.949,-16.113,-4.883,0.000,0
161785.541,-25.391,-20.508,-27.832,-14.160,0.000,0
161785.545,-23.926,-21.484,-13.184,-28.809,0.000,0
161785.549,-19.531,-22.949,-37.109,-11.719,0.000,0
161785.553,-17.090,-20.508,-39.551,-5.859,0.000,0
161785.556,-26.855,-20.020,-29.297,-9.277,0.000,0
161785.560,-32.227,-23.438,-18.066,-12.695,0.000,0
161785.564,-36.621,-25.391,-5.859,-24.902,0.000,0
161785.568,-38.574,-24.414,-18.555,-15.625,0.000,0
161785.572,-36.133,-23.438,-35.156,-14.648,0.000,0
161785.576,-27.344,-18.066,-23.926,-17.578,0.000,0
161785.580,-22.461,-15.625,-6.836,-11.230,0.000,0
161785.584,-26.855,-18.555,-20.020,-21.973,0.000,0
161785.588,-23.926,-20.996,-30.762,-22.461,0.000,0
161785.592,-16.602,-16.602,-8.301,-24.902,0.000,0
161785.596,-15.625,-12.207,-31.250,-14.648,0.000,0
161785.599,-11.719,-18.066,-41.992,-12.695,0.000,0
161785.603,-10.742,-16.602,-10.742,-13.184,0.000,0
161785.607,-19.043,-15.625,-9.766,-2.441,0.000,0
161785.611,-14.648,-20.996,-18.066,-2.930,0.000,0
161785.615,-12.695,-29.297,-22.461,-7.324,0.000,0
161785.619,-14.160,-24.414,-26.367,-17.578,0.000,0
161785.623,-10.742,-17.578,2.441,-22.949,0.000,0
161785.627,-10.742,-18.555,-16.113,-22.461,0.000,0
161785.631,-12.695,-22.949,-38.574,-25.879,0.000,0
161785.635,-14.160,-20.508,-29.785,-13.672,0.000,0
161785.638,-9.277,-15.625,-26.367,0.000,0.000,0
161785.642,-15.625,-20.020,-13.672,-19.531,0.000,0
161785.646,-25.391,-19.043,-22.461,-26.855,0.000,0
161785.650,-22.461,-16.113,-32.227,-15.137,0.000,0
161785.654,-12.207,-15.625,-29.297,-11.719,0.000,0
161785.658,-8.301,-19.531,-28.320,-18.066,0.000,0
161785.662,-15.137,-25.879,-19.043,-26.367,0.000,0
161785.666,-20.508,-19.531,-20.996,-24.414,0.000,0
161785.670,-24.902,-16.602,-30.273,-27.832,0.000,0
161785.674,-24.414,-20.996,-35.156,-17.578,0.000,0
161785.678,-19.531,-19.043,-17.090,-12.207,0.000,0
161785.681,-21.973,-20.996,-8.301,-15.625,0.000,0
161785.685,-22.949,-22.949,-36.621,-8.789,0.000,0
161785.689,-21.484,-20.996,-29.785,-19.531,0.000,0
161785.693,-19.043,-24.902,-21.484,-18.066,0.000,0
161785.697,-23.926,-26.855,-29.297,-7.324,0.000,0
161785.701,-23.926,-24.414,-23.438,-28.809,0.000,0
161785.705,-18.066,-23.438,-30.273,-30.273,0.000,0
161785.709,-24.902,-22.461,-21.484,-25.879,0.000,0
161785.713,-29.785,-17.578,-25.879,-20.996,0.000,0
161785.717,-22.949,-15.625,-37.109,-19.043,0.000,0
161785.721,-24.414,-18.555,-20.508,-21.484,0.000,0
161785.724,-27.832,-22.949,-28.809,-8.301,0.000,0
161785.728,-33.691,-31.250,-39.551,-17.578,0.000,0
161785.732,-36.621,-32.715,-43.457,-27.344,0.000,0
161785.736,-29.297,-25.391,-36.133,-30.762,0.000,0
161785.740,-28.809,-25.391,-17.578,-44.922,0.000,0
161785.744,-29.785,-25.879,-22.949,-32.715,0.000,0
161785.748,-29.785,-20.996,-26.855,-18.555,0.000,0
161785.752,-30.762,-24.414,-35.156,-21.973,0.000,0
161785.756,-38.574,-27.344,-31.250,-24.902,0.000,0
161785.760,-40.527,-26.367,-30.273,-31.738,0.000,0
161785.763,-31.738,-26.367,-44.434,-27.344,0.000,0
161785.767,-28.320,-23.926,-35.645,-19.531,0.000,0
161785.771,-35.645,-21.484,-19.531,-16.113,0.000,0
161785.775,-37.109,-22.949,-24.902,-19.531,0.000,0
161785.779,-36.133,-23.438,-21.484,-26.367,0.000,0
161785.783,-34.180,-19.531,-22.949,-24.902,0.000,0
161785.787,-33.691,-23.926,-36.621,-10.254,0.000,0
161785.791,-35.645,-33.203,-37.598,-12.207,0.000,0
161785.795,-38.086,-33.691,-30.762,-26.855,0.000,0
161785.799,-38.574,-26.855,-31.250,-24.414,0.000,0
161785.803,-30.273,-27.832,-33.203,-19.043,0.000,0
161785.806,-25.391,-23.926,-39.551,-14.648,0.000,0
161785.810,-30.273,-21.973,-43.457,-26.855,0.000,0
161785.814,-35.156,-24.414,-24.902,-28.320,0.000,0
161785.818,-37.598,-24.414,-16.602,-33.203,0.000,0
161785.822,-35.156,-27.832,-37.598,-41.992,0.000,0
161785.826,-24.414,-24.902,-30.762,-20.508,0.000,0
161785.830,-18.066,-22.461,-20.020,-3.906,0.000,0
161785.834,-19.531,-21.484,-25.391,-18.555,0.000,0
161785.838,-17.578,-21.973,-15.137,-29.297,0.000,0
161785.842,-24.414,-26.367,-13.672,-28.809,0.000,0
161785.846,-27.344,-30.273,-26.367,-24.414,0.000,0
161785.849,-24.414,-31.250,-34.668,-17.090,0.000,0
161785.853,-28.809,-28.809,-51.270,-15.137,0.000,0
161785.857,-34.668,-25.391,-29.297,-24.414,0.000,0
161785.861,-39.062,-24.414,-10.742,-21.484,0.000,0
161785.865,-38.086,-30.762,-41.016,-14.160,0.000,0
161785.869,-25.391,-31.738,-45.898,-20.996,0.000,0
161785.873,-20.020,-21.973,-20.996,-15.137,0.000,0
161785.877,-24.414,-23.926,-14.160,-14.160,0.000,0
161785.881,-25.391,-26.367,-34.180,-25.391,0.000,0
161785.885,-24.902,-21.973,-36.621,-36.133,0.000,0
161785.888,-24.414,-21.973,-28.809,-20.508,0.000,0
161785.892,-20.996,-20.020,-18.066,-7.324,0.000,0
161785.896,-16.113,-22.949,-16.602,-14.648,0.000,0
161785.900,-18.555,-22.949,-23.926,-12.695,0.000,0
161785.904,-24.414,-17.090,-8.301,-24.414,0.000,0
161785.908,-23.438,-17.578,-27.832,-17.578,0.000,0
161785.912,-18.066,-21.484,-30.273,-6.836,0.000,0
161785.916,-19.531,-22.461,-19.043,-16.113,0.000,0
161785.920,-7.812,-22.461,-29.297,-4.883,0.000,0
161785.924,-0.977,-19.043,-21.484,-0.488,0.000,0
161785.928,-26.855,-24.414,-31.738,-27.344,0.000,0
161785.931,-35.156,-23.926,-25.879,-36.621,0.000,0
161785.935,-26.367,-23.926,-7.324,-38.086,0.000,0
161785.939,-26.855,-25.879,-30.273,-27.832,0.000,0
161785.943,-14.648,-20.020,-31.738,-11.719,0.000,0
161785.947,-14.160,-23.438,-23.926,-18.066,0.000,0
161785.951,-23.926,-33.203,-27.832,-34.668,0.000,0
161785.955,-20.996,-34.180,-20.020,-51.270,0.000,0
161785.959,-24.414,-30.273,-13.672,-47.363,0.000,0
161785.963,-27.344,-29.297,-25.879,-36.133,0.000,0
161785.967,-26.367,-23.438,-38.574,-27.832,0.000,0
161785.971,-16.602,-20.508,-27.832,-21.973,0.000,0
161785.974,-10.254,-24.902,-2.930,-25.391,0.000,0
161785.978,-25.879,-20.020,-6.348,-25.391,0.000,0
161785.982,-22.949,-15.137,-20.020,-20.996,0.000,0
161785.986,-16.602,-19.531,-20.020,-24.414,0.000,0
161785.990,-22.461,-22.461,-15.625,-16.602,0.000,0
161785.994,-18.066,-23.438,3.418,-23.926,0.000,0
161785.998,-18.555,-22.949,-21.973,-28.809,0.000,0
161786.002,-18.555,-24.414,-35.645,-18.555,0.000,0
161786.006,-13.672,-24.902,-11.230,-18.555,0.000,0
161786.010,-23.438,-29.785,-25.879,-22.949,0.000,0
161786.013,-29.785,-30.762,-20.996,-23.926,0.000,0
161786.017,-33.203,-26.855,-18.066,-23.926,0.000,0
161786.021,-30.762,-27.832,-21.973,-19.043,0.000,0
161786.025,-22.461,-25.391,-22.949,-5.859,0.000,0
161786.029,-25.391,-24.414,-27.344,-7.324,0.000,0
161786.033,-32.227,-29.785,-20.508,-23.438,0.000,0
161786.037,-30.273,-28.809,-29.785,-24.902,0.000,0
161786.041,-27.832,-28.809,-37.598,-18.066,0.000,0
161786.045,-27.832,-31.738,-50.293,-18.555,0.000,0
161786.049,-26.855,-29.785,-29.785,-25.879,0.000,0
161786.053,-23.926,-26.855,-1.953,-30.273,0.000,0
161786.056,-21.484,-24.902,-29.785,-31.738,0.000,0
161786.060,-29.297,-25.879,-38.086,-29.785,0.000,0
161786.064,-27.832,-25.391,-28.809,-19.043,0.000,0
161786.068,-25.391,-27.832,-29.785,-18.555,0.000,0
161786.072,-23.926,-35.156,-22.949,-22.949,0.000,0
161786.076,-16.113,-36.621,-36.621,-5.371,0.000,0
161786.080,-22.949,-32.227,-45.410,-10.742,0.000,0
161786.084,-31.250,-31.250,-27.832,-8.301,0.000,0
161786.088,-29.785,-28.809,-28.320,-4.395,0.000,0
161786.092,-28.320,-27.832,-33.691,-19.043,0.000,0
161786.096,-22.949,-22.461,-11.230,-1.953,0.000,0
161786.099,-19.043,-19.043,-13.184,-7.812,0.000,0
161786.103,-17.090,-23.438,-34.180,-15.625,0.000,0
161786.107,-20.996,-24.902,-15.625,-15.625,0.000,0
161786.111,-17.578,-22.949,-18.555,-19.531,0.000,0
161786.115,-22.949,-25.879,-39.062,-23.438,0.000,0
161786.119,-23.438,-33.691,-37.598,-20.020,0.000,0
161786.123,-19.043,-25.879,-24.902,-12.695,0.000,0
161786.127,-31.250,-17.090,-19.043,-14.648,0.000,0
161786.131,-32.715,-20.508,-21.484,-21.484,0.000,0
161786.135,-25.391,-22.949,-23.926,-20.508,0.000,0
161786.138,-31.250,-25.879,-26.367,-15.625,0.000,0
161786.142,-39.551,-26.855,-28.809,-5.859,0.000,0
161786.146,-32.715,-28.809,-41.016,-7.324,0.000,0
161786.150,-30.762,-28.809,-34.180,-28.809,0.000,0
161786.154,-32.715,-21.484,-16.113,-28.320,0.000,0
161786.158,-33.691,-20.020,-16.602,-28.809,0.000,0
161786.162,-33.691,-24.414,-31.250,-28.320,0.000,0
161786.166,-34.668,-22.949,-45.410,-15.137,0.000,0
161786.170,-29.297,-20.508,-24.414,-18.555,0.000,0
161786.174,-29.785,-17.090,-9.277,-19.043,0.000,0
161786.178,-40.527,-15.137,-20.020,-5.371,0.000,0
161786.181,-37.598,-20.996,-40.039,-0.488,0.000,0
161786.185,-25.879,-19.531,-20.508,-2.930,0.000,0
161786.189,-24.902,-18.555,7.324,-5.371,0.000,0
161786.193,-23.438,-21.973,-14.648,-10.742,0.000,0
161786.197,-19.531,-25.879,-35.645,-16.602,0.000,0
161786.201,-18.066,-30.273,-35.645,-11.719,0.000,0
