timestamps,TP9,AF7,AF8,TP10,Right AUX,Marker0
161391.611,-23.926,-22.949,-31.738,-37.598,0.000,0
161391.615,-20.508,-15.625,-10.742,-34.668,0.000,0
161391.619,-20.508,-11.719,2.441,-37.598,0.000,0
161391.623,-20.508,-17.090,-19.531,-36.133,0.000,0
161391.627,-20.020,-19.043,-20.020,-42.480,0.000,0
161391.631,-21.973,-18.555,-15.137,-41.992,0.000,0
161391.635,-20.508,-21.973,-30.762,-26.855,0.000,0
161391.638,-21.973,-22.461,-19.043,-47.363,0.000,0
161391.642,-16.602,-19.531,-5.371,-44.434,0.000,0
161391.646,-21.973,-16.602,-16.602,-26.855,0.000,0
161391.650,-33.691,-23.438,-29.297,-32.227,0.000,0
161391.654,-19.043,-25.391,-16.602,-24.902,0.000,0
161391.658,-23.926,-22.949,-3.418,-40.039,0.000,0
161391.662,-36.133,-23.926,-19.043,-50.781,0.000,0
161391.666,-27.832,-25.879,-38.574,-30.762,0.000,0
161391.670,-17.090,-24.414,-32.715,-24.414,0.000,0
161391.674,-9.766,-22.949,-24.414,-34.180,0.000,0
161391.678,-16.602,-21.484,-13.672,-50.293,0.000,0
161391.681,-21.973,-22.461,-13.672,-42.969,0.000,0
161391.685,-19.043,-24.414,-29.785,-26.855,0.000,0
161391.689,-22.461,-19.043,-6.348,-29.297,0.000,0
161391.693,-21.973,-21.973,-15.625,-27.832,0.000,0
161391.697,-23.926,-27.832,-14.160,-29.297,0.000,0
161391.701,-29.297,-22.461,-11.230,-48.828,0.000,0
161391.705,-33.691,-19.043,-25.391,-55.176,0.000,0
161391.709,-36.621,-15.625,-30.762,-38.574,0.000,0
161391.713,-39.062,-24.414,-50.781,-39.062,0.000,0
161391.717,-37.109,-34.180,-27.344,-50.781,0.000,0
161391.721,-35.156,-30.273,-12.695,-49.316,0.000,0
161391.724,-25.391,-27.344,-36.621,-35.645,0.000,0
161391.728,-3.418,-26.855,-42.969,-22.461,0.000,0
161391.732,-26.855,-31.250,-27.344,-37.109,0.000,0
161391.736,-55.176,-33.203,-8.789,-63.477,0.000,0
161391.740,-41.992,-30.762,-24.902,-57.129,0.000,0
161391.744,-38.086,-30.273,-26.367,-43.457,0.000,0
161391.748,-35.156,-34.180,-23.926,-23.926,0.000,0
161391.752,-41.016,-30.273,-25.879,-39.062,0.000,0
161391.756,-35.156,-26.855,-16.113,-60.547,0.000,0
161391.760,-26.367,-28.320,-33.691,-59.082,0.000,0
161391.763,-41.016,-24.414,-24.414,-49.805,0.000,0
161391.767,-43.945,-23.438,-14.648,-39.551,0.000,0
161391.771,-34.180,-29.785,-28.809,-27.344,0.000,0
161391.775,-31.250,-34.180,-28.320,-31.738,0.000,0
161391.779,-35.645,-28.320,-17.578,-44.922,0.000,0
161391.783,-33.203,-27.344,-28.320,-38.086,0.000,0
161391.787,-23.438,-32.715,-35.156,-39.551,0.000,0
161391.791,-24.414,-27.832,-34.180,-40.039,0.000,0
161391.795,-30.273,-23.926,-27.344,-41.504,0.000,0
161391.799,-20.996,-20.020,-16.602,-33.203,0.000,0
161391.803,-13.672,-15.625,-14.160,-26.367,0.000,0
161391.806,-18.555,-19.531,-14.160,-46.875,0.000,0
161391.810,-23.438,-24.414,-30.273,-31.738,0.000,0
161391.814,-15.137,-21.484,-20.996,-18.555,0.000,0
161391.818,-11.719,-17.578,-4.395,-22.949,0.000,0
161391.822,-16.113,-20.020,-11.230,-21.484,0.000,0
161391.826,-11.230,-20.020,-18.555,-32.715,0.000,0
161391.830,-11.719,-20.996,-31.738,-35.156,0.000,0
161391.834,-21.973,-29.297,-26.855,-37.109,0.000,0
161391.838,-28.809,-26.855,-15.137,-41.992,0.000,0
161391.842,-34.668,-24.902,-30.762,-47.363,0.000,0
161391.846,-35.156,-29.297,-49.316,-56.641,0.000,0
161391.849,-31.250,-26.367,-46.387,-50.781,0.000,0
161391.853,-35.156,-28.320,-13.672,-56.152,0.000,0
161391.857,-32.227,-31.250,-2.930,-60.547,0.000,0
161391.861,-35.156,-30.762,-47.363,-38.574,0.000,0
161391.865,-40.527,-26.855,-36.133,-33.691,0.000,0
161391.869,-43.457,-24.414,-9.766,-32.227,0.000,0
161391.873,-44.434,-26.367,-25.391,-41.504,0.000,0
161391.877,-38.086,-24.902,-35.156,-60.547,0.000,0
161391.881,-40.039,-26.855,-33.203,-44.434,0.000,0
161391.885,-33.203,-29.297,-30.762,-41.016,0.000,0
161391.888,-29.297,-27.832,-43.457,-33.203,0.000,0
161391.892,-35.645,-26.367,-39.551,-27.344,0.000,0
161391.896,-41.992,-28.809,-18.066,-34.180,0.000,0
161391.900,-35.645,-25.391,-35.645,-20.996,0.000,0
161391.904,-30.762,-17.578,-53.711,-25.879,0.000,0
161391.908,-30.273,-19.531,-40.527,-33.203,0.000,0
161391.912,-19.531,-18.555,-18.066,-28.809,0.000,0
161391.916,-11.719,-15.137,-0.977,-34.668,0.000,0
161391.920,-18.066,-13.672,-19.531,-33.203,0.000,0
161391.924,-26.855,-17.090,-36.621,-26.855,0.000,0
161391.928,-9.277,-17.578,-23.926,-21.973,0.000,0
161391.931,-18.555,-15.137,-11.230,-25.879,0.000,0
161391.935,-32.715,-18.555,-11.230,-36.133,0.000,0
161391.939,-23.926,-21.484,-28.809,-27.832,0.000,0
161391.943,-23.926,-20.996,-25.879,-29.297,0.000,0
161391.947,-18.066,-23.926,-25.879,-32.715,0.000,0
161391.951,-10.742,-27.344,-26.855,-39.062,0.000,0
161391.955,-17.578,-26.367,1.465,-55.176,0.000,0
161391.959,-34.668,-25.879,-20.996,-48.340,0.000,0
161391.963,-39.551,-24.902,-51.270,-34.180,0.000,0
161391.967,-35.645,-26.367,-45.898,-47.852,0.000,0
161391.971,-35.645,-24.902,-31.250,-48.340,0.000,0
161391.974,-28.809,-23.438,-2.441,-32.715,0.000,0
161391.978,-15.137,-26.855,-24.414,-18.066,0.000,0
161391.982,-11.719,-20.020,-31.250,-25.879,0.000,0
161391.986,-13.184,-17.578,-23.438,-26.855,0.000,0
161391.990,-13.184,-21.484,-37.598,-9.766,0.000,0
161391.994,-4.883,-20.508,-26.855,-22.461,0.000,0
161391.998,-13.672,-19.043,-33.691,-37.109,0.000,0
161392.002,-23.438,-18.066,-37.598,-27.832,0.000,0
161392.006,-25.879,-20.996,-33.203,-29.785,0.000,0
161392.010,-29.297,-23.438,-47.363,-43.457,0.000,0
161392.013,-17.578,-17.090,-24.902,-54.199,0.000,0
161392.017,-13.672,-12.207,-6.348,-55.176,0.000,0
161392.021,-32.715,-20.508,-21.973,-48.828,0.000,0
161392.025,-30.762,-21.484,-41.504,-40.527,0.000,0
161392.029,-18.066,-21.973,-45.410,-36.133,0.000,0
161392.033,-24.414,-23.438,-16.602,-43.945,0.000,0
161392.037,-38.086,-20.020,-22.461,-42.480,0.000,0
161392.041,-42.480,-20.020,-44.922,-20.508,0.000,0
161392.045,-35.156,-18.066,-38.086,-29.785,0.000,0
161392.049,-20.996,-20.508,-24.414,-45.898,0.000,0
161392.053,-15.625,-27.832,-24.414,-40.039,0.000,0
161392.056,-19.531,-26.367,-50.293,-31.738,0.000,0
161392.060,-22.461,-24.902,-41.016,-36.621,0.000,0
161392.064,-13.184,-23.438,-17.090,-37.109,0.000,0
161392.068,-10.254,-16.602,-21.484,-25.879,0.000,0
161392.072,-17.578,-15.137,-22.949,-22.949,0.000,0
161392.076,-19.043,-18.066,-32.227,-13.672,0.000,0
161392.080,-7.324,-18.555,-36.133,-20.508,0.000,0
161392.084,-6.348,-18.066,-34.180,-21.484,0.000,0
161392.088,-21.973,-18.555,-28.320,-23.438,0.000,0
161392.092,-21.973,-16.113,-29.297,-43.457,0.000,0
161392.096,-13.672,-16.602,-34.668,-37.109,0.000,0
161392.099,-18.066,-19.531,-31.250,-23.438,0.000,0
161392.103,-24.414,-23.926,-35.645,-20.020,0.000,0
161392.107,-13.184,-27.832,-28.809,-17.090,0.000,0
161392.111,-17.090,-27.832,-25.391,-26.855,0.000,0
161392.115,-11.230,-22.461,-30.762,-23.926,0.000,0
161392.119,-8.301,-21.973,-23.438,-25.879,0.000,0
161392.123,-21.973,-28.809,-24.902,-41.992,0.000,0
161392.127,-13.672,-22.949,-29.785,-26.367,0.000,0
161392.131,-14.648,-13.672,-11.719,-27.344,0.000,0
161392.135,-15.137,-16.113,-12.695,-30.273,0.000,0
161392.138,-10.742,-16.113,-25.879,-30.273,0.000,0
161392.142,-17.578,-19.531,-28.809,-28.809,0.000,0
161392.146,-12.207,-25.391,-21.484,-20.020,0.000,0
161392.150,-19.043,-20.020,-2.930,-38.086,0.000,0
161392.154,-27.344,-17.090,-13.672,-48.340,0.000,0
161392.158,-23.926,-23.926,-34.668,-38.086,0.000,0
161392.162,-23.926,-27.832,-34.668,-37.109,0.000,0
161392.166,-18.555,-28.809,-34.180,-41.016,0.000,0
161392.170,-19.531,-31.738,-9.766,-60.059,0.000,0
161392.174,-29.297,-29.785,-29.785,-42.480,0.000,0
161392.178,-31.738,-23.438,-62.012,-28.809,0.000,0
161392.181,-22.949,-25.879,-38.086,-36.133,0.000,0
161392.185,-21.973,-29.785,-32.715,-19.531,0.000,0
161392.189,-37.109,-26.367,-38.086,-40.527,0.000,0
161392.193,-32.715,-19.043,-32.227,-58.594,0.000,0
161392.197,-23.438,-20.020,-38.574,-53.711,0.000,0
161392.201,-24.902,-25.391,-56.152,-52.246,0.000,0
161392.205,-22.461,-24.902,-60.059,-37.598,0.000,0
161392.209,-25.879,-23.926,-31.738,-35.156,0.000,0
161392.213,-28.320,-21.484,-8.301,-46.387,0.000,0
161392.217,-21.484,-27.344,-25.879,-38.574,0.000,0
161392.221,-25.391,-28.320,-30.762,-21.973,0.000,0
161392.224,-40.527,-20.508,-25.391,-35.156,0.000,0
161392.228,-32.227,-21.484,-12.207,-46.387,0.000,0
161392.232,-20.020,-18.555,-13.672,-49.316,0.000,0
161392.236,-25.391,-19.043,-21.484,-46.387,0.000,0
161392.240,-27.344,-22.461,-17.090,-41.016,0.000,0
161392.244,-33.691,-23.438,-22.949,-37.598,0.000,0
161392.248,-29.297,-24.902,-19.043,-36.133,0.000,0
161392.252,-6.348,-23.438,-18.066,-24.414,0.000,0
161392.256,-7.812,-18.066,-30.762,-19.531,0.000,0
161392.260,-18.555,-18.555,-26.367,-32.227,0.000,0
161392.263,-32.227,-21.484,-28.809,-29.297,0.000,0
161392.267,-27.344,-19.043,-17.090,-53.711,0.000,0
161392.271,-20.508,-19.531,4.883,-71.777,0.000,0
161392.275,-39.062,-21.973,-28.320,-35.156,0.000,0
161392.279,-40.039,-25.391,-58.105,-26.367,0.000,0
161392.283,-31.738,-23.438,-33.691,-24.902,0.000,0
161392.287,-33.203,-28.809,-11.230,-33.203,0.000,0
161392.291,-25.879,-31.250,-22.949,-46.875,0.000,0
161392.295,-9.277,-18.555,-38.574,-28.809,0.000,0
161392.299,-19.531,-21.484,-20.020,-30.273,0.000,0
161392.303,-35.645,-23.926,-10.254,-37.109,0.000,0
161392.306,-32.715,-18.066,-22.461,-39.062,0.000,0
161392.310,-28.809,-18.066,-22.949,-44.434,0.000,0
161392.314,-31.250,-17.578,-25.391,-36.621,0.000,0
161392.318,-27.832,-20.508,-33.203,-33.691,0.000,0
161392.322,-15.625,-24.902,-41.992,-35.156,0.000,0
161392.326,-14.648,-20.996,-26.367,-41.504,0.000,0
161392.330,-19.531,-18.066,-12.695,-51.270,0.000,0
161392.334,-30.762,-20.020,-21.973,-42.969,0.000,0
161392.338,-29.297,-21.484,-33.203,-41.504,0.000,0
161392.342,-13.184,-18.555,-46.875,-20.996,0.000,0
161392.346,-15.625,-19.531,-9.277,-20.996,0.000,0
161392.349,-24.414,-23.438,7.324,-43.457,0.000,0
161392.353,-20.996,-24.414,-34.668,-21.484,0.000,0
161392.357,-16.113,-22.949,-38.574,-7.324,0.000,0
161392.361,-15.625,-22.461,-29.785,-21.973,0.000,0
161392.365,-17.090,-18.066,-19.531,-28.320,0.000,0
161392.369,-15.625,-17.578,-17.578,-33.203,0.000,0
161392.373,-19.043,-23.438,-29.297,-57.129,0.000,0
161392.377,-27.832,-21.484,-35.156,-46.875,0.000,0
161392.381,-23.926,-18.066,-38.574,-12.207,0.000,0
161392.385,-20.020,-20.020,-36.133,-27.832,0.000,0
161392.388,-19.531,-23.438,-28.320,-44.434,0.000,0
161392.392,-14.648,-21.484,-17.090,-20.508,0.000,0
161392.396,-29.785,-18.555,-23.926,-22.461,0.000,0
161392.400,-39.551,-15.625,-37.109,-39.551,0.000,0
161392.404,-34.668,-14.160,-25.879,-34.668,0.000,0
161392.408,-33.203,-22.461,-21.973,-34.180,0.000,0
161392.412,-31.738,-28.320,-32.715,-41.016,0.000,0
161392.416,-29.297,-22.949,-25.879,-37.109,0.000,0
161392.420,-26.855,-19.531,-21.484,-27.344,0.000,0
161392.424,-28.320,-20.508,-20.996,-38.086,0.000,0
161392.428,-22.949,-23.438,-19.043,-38.574,0.000,0
161392.431,-23.438,-27.832,-24.902,-16.113,0.000,0
161392.435,-30.762,-29.297,-20.508,-21.484,0.000,0
161392.439,-28.809,-25.391,-17.090,-49.805,0.000,0
161392.443,-24.902,-26.855,-30.762,-62.988,0.000,0
161392.447,-18.066,-32.227,-27.344,-42.480,0.000,0
161392.451,-14.160,-29.297,-25.391,-24.414,0.000,0
161392.455,-35.156,-24.902,-28.320,-62.012,0.000,0
161392.459,-44.434,-29.785,-38.086,-83.984,0.000,0
161392.463,-38.086,-34.668,-30.273,-70.312,0.000,0
161392.467,-29.785,-32.715,-17.090,-65.918,0.000,0
161392.471,-26.367,-25.879,-21.973,-67.383,0.000,0
161392.474,-37.598,-23.438,-30.273,-56.641,0.000,0
161392.478,-45.410,-22.461,-20.020,-46.387,0.000,0
161392.482,-37.109,-19.043,-17.090,-30.273,0.000,0
161392.486,-33.203,-22.461,-36.621,-21.484,0.000,0
161392.490,-31.738,-25.879,-40.039,-33.691,0.000,0
161392.494,-33.691,-30.273,-42.480,-43.945,0.000,0
161392.498,-43.457,-38.574,-37.109,-43.945,0.000,0
161392.502,-35.645,-38.086,-32.715,-40.039,0.000,0
161392.506,-30.273,-34.668,-30.273,-48.828,0.000,0
161392.510,-46.387,-30.762,-29.785,-56.152,0.000,0
161392.513,-41.992,-30.762,-31.738,-47.363,0.000,0
161392.517,-26.367,-33.203,-34.668,-35.156,0.000,0
161392.521,-17.090,-32.227,-36.621,-36.133,0.000,0
161392.525,-27.344,-37.109,-28.809,-49.316,0.000,0
161392.529,-28.809,-35.156,-29.297,-39.551,0.000,0
161392.533,-20.020,-30.762,-47.852,-31.250,0.000,0
161392.537,-14.648,-35.645,-43.457,-44.922,0.000,0
161392.541,-17.090,-35.645,-34.180,-36.621,0.000,0
161392.545,-26.367,-32.715,-20.996,-37.598,0.000,0
161392.549,-20.996,-31.738,-19.531,-43.945,0.000,0
161392.553,-22.949,-28.320,-32.227,-33.691,0.000,0
161392.556,-23.926,-29.297,-40.039,-34.668,0.000,0
161392.560,-22.949,-29.297,-39.062,-41.016,0.000,0
161392.564,-23.438,-30.762,-22.461,-41.504,0.000,0
161392.568,-20.508,-26.855,-23.926,-36.621,0.000,0
161392.572,-19.043,-18.066,-23.438,-32.227,0.000,0
161392.576,-17.578,-20.996,-30.273,-39.551,0.000,0
161392.580,-16.602,-19.531,-25.391,-35.645,0.000,0
161392.584,-18.555,-16.602,1.465,-32.715,0.000,0
161392.588,-19.043,-18.066,-17.578,-41.992,0.000,0
161392.592,-20.020,-22.461,-39.062,-47.852,0.000,0
161392.596,-16.602,-20.508,-40.527,-30.762,0.000,0
161392.599,-35.156,-20.508,-33.691,-26.367,0.000,0
161392.603,-40.527,-31.250,-13.672,-51.270,0.000,0
161392.607,-22.461,-26.855,-19.531,-48.340,0.000,0
161392.611,-21.484,-20.996,-43.945,-33.203,0.000,0
161392.615,-32.227,-26.367,-24.902,-36.133,0.000,0
161392.619,-26.367,-23.926,-22.949,-33.691,0.000,0
161392.623,-17.090,-23.926,-36.621,-36.133,0.000,0
161392.627,-20.996,-25.879,-26.855,-39.062,0.000,0
161392.631,-23.926,-29.785,-30.762,-41.016,0.000,0
161392.635,-21.484,-30.762,-33.691,-40.527,0.000,0
161392.638,-15.137,-24.414,-37.598,-41.504,0.000,0
161392.642,-14.648,-30.762,-20.508,-42.480,0.000,0
161392.646,-21.973,-32.227,-6.836,-34.668,0.000,0
161392.650,-20.508,-29.785,-22.461,-37.109,0.000,0
161392.654,-15.625,-28.320,-22.949,-44.922,0.000,0
161392.658,-21.484,-32.227,-27.344,-33.691,0.000,0
161392.662,-37.598,-37.598,-32.715,-41.992,0.000,0
161392.666,-30.273,-34.180,-25.391,-54.199,0.000,0
161392.670,-23.438,-28.320,-32.227,-43.457,0.000,0
161392.674,-26.855,-27.344,-45.898,-49.805,0.000,0
161392.678,-29.785,-26.855,-35.156,-52.734,0.000,0
161392.681,-34.668,-27.344,-20.508,-54.199,0.000,0
161392.685,-35.645,-31.250,-13.672,-65.430,0.000,0
161392.689,-36.133,-28.320,-30.273,-57.617,0.000,0
161392.693,-23.926,-24.902,-31.738,-48.340,0.000,0
161392.697,-19.531,-21.973,-43.457,-39.551,0.000,0
161392.701,-26.367,-24.414,-34.180,-39.062,0.000,0
161392.705,-32.715,-24.902,-15.137,-48.340,0.000,0
161392.709,-32.227,-19.043,-28.320,-54.199,0.000,0
161392.713,-29.785,-18.555,-38.086,-51.270,0.000,0
161392.717,-33.691,-19.043,-42.480,-46.875,0.000,0
161392.721,-27.832,-14.648,-5.859,-47.852,0.000,0
161392.724,-21.484,-14.648,13.672,-59.082,0.000,0
161392.728,-16.113,-15.625,-27.832,-51.270,0.000,0
161392.732,-17.090,-20.508,-39.062,-44.434,0.000,0
161392.736,-19.531,-21.484,-26.855,-38.574,0.000,0
161392.740,-15.137,-18.555,-19.043,-27.344,0.000,0
161392.744,-15.137,-21.973,-13.184,-36.621,0.000,0
161392.748,-11.230,-16.602,-14.160,-35.645,0.000,0
161392.752,-11.230,-14.160,-15.625,-19.531,0.000,0
161392.756,-24.414,-15.625,-13.672,-16.602,0.000,0
161392.760,-25.391,-18.555,-23.438,-32.227,0.000,0
161392.763,-17.578,-18.555,-23.926,-53.223,0.000,0
161392.767,-24.902,-18.555,-7.812,-57.129,0.000,0
161392.771,-37.598,-23.926,-22.949,-50.781,0.000,0
161392.775,-34.180,-20.508,-40.039,-44.922,0.000,0
161392.779,-29.297,-13.672,-17.090,-35.156,0.000,0
161392.783,-25.879,-14.160,-3.418,-30.273,0.000,0
161392.787,-24.414,-15.137,-15.137,-37.109,0.000,0
161392.791,-22.949,-12.207,-28.320,-32.227,0.000,0
161392.795,-13.184,-7.812,-28.320,-14.648,0.000,0
161392.799,-14.648,-10.742,-5.371,-22.461,0.000,0
161392.803,-14.648,-14.160,-10.742,-28.809,0.000,0
161392.806,-14.648,-16.602,-25.391,-4.883,0.000,0
161392.810,-16.113,-16.113,-9.277,-5.371,0.000,0
161392.814,-20.020,-21.973,-22.949,-17.578,0.000,0
161392.818,-9.766,-23.926,-34.668,-16.113,0.000,0
161392.822,-3.906,-16.602,-20.508,-33.691,0.000,0
161392.826,-9.277,-19.043,-22.461,-35.156,0.000,0
161392.830,-18.555,-22.949,-22.461,-29.297,0.000,0
161392.834,-28.320,-20.508,-28.809,-26.855,0.000,0
161392.838,-28.320,-19.531,-26.367,-18.066,0.000,0
161392.842,-37.598,-16.113,-18.555,-14.648,0.000,0
161392.846,-35.156,-16.602,-33.691,-19.043,0.000,0
161392.849,-26.855,-19.531,-31.738,-22.949,0.000,0
161392.853,-23.926,-20.996,-18.066,-26.367,0.000,0
161392.857,-28.320,-28.809,-16.113,-29.785,0.000,0
161392.861,-23.438,-30.273,-23.926,-35.645,0.000,0
161392.865,-13.672,-29.297,-29.297,-27.344,0.000,0
161392.869,-18.555,-27.832,-23.438,-19.531,0.000,0
161392.873,-23.438,-21.484,-33.203,-20.508,0.000,0
161392.877,-16.602,-24.414,-32.715,-31.738,0.000,0
161392.881,-22.461,-28.809,-16.602,-40.527,0.000,0
161392.885,-20.996,-23.438,-23.438,-26.367,0.000,0
161392.888,-22.949,-25.879,-27.344,-17.090,0.000,0
161392.892,-23.926,-32.227,-42.480,-28.809,0.000,0
161392.896,-18.555,-32.715,-34.668,-30.762,0.000,0
161392.900,-17.578,-28.320,-12.695,-24.414,0.000,0
161392.904,-23.438,-31.250,-40.039,-28.809,0.000,0
161392.908,-22.461,-28.809,-45.898,-23.438,0.000,0
161392.912,-17.578,-26.855,-31.738,-8.789,0.000,0
161392.916,-19.531,-28.809,-23.926,-24.414,0.000,0
161392.920,-20.996,-25.391,-19.043,-39.551,0.000,0
161392.924,-20.508,-26.855,-35.156,-29.785,0.000,0
161392.928,-20.996,-26.855,-36.621,-29.297,0.000,0
161392.931,-15.137,-21.973,-31.738,-35.156,0.000,0
161392.935,-18.066,-22.461,-28.320,-33.203,0.000,0
161392.939,-30.273,-24.414,-18.066,-42.480,0.000,0
161392.943,-17.090,-27.832,-28.320,-36.621,0.000,0
161392.947,-17.578,-24.902,-35.156,-27.832,0.000,0
161392.951,-20.996,-24.414,-34.180,-33.691,0.000,0
161392.955,-16.602,-25.391,-24.414,-41.016,0.000,0
161392.959,-24.902,-19.531,-15.625,-56.641,0.000,0
161392.963,-26.367,-17.578,-24.902,-47.852,0.000,0
161392.967,-22.461,-19.531,-43.457,-45.898,0.000,0
161392.971,-28.320,-23.926,-44.922,-33.691,0.000,0
161392.974,-34.668,-23.926,-31.250,-12.695,0.000,0
161392.978,-29.297,-27.832,-22.461,-42.480,0.000,0
161392.982,-15.137,-25.879,-34.180,-48.828,0.000,0
161392.986,-17.578,-21.484,-33.203,-32.227,0.000,0
161392.990,-42.480,-20.508,-17.090,-41.016,0.000,0
161392.994,-48.828,-23.438,-11.719,-46.875,0.000,0
161392.998,-37.598,-21.484,-19.043,-36.133,0.000,0
161393.002,-27.832,-21.484,-26.367,-36.133,0.000,0
161393.006,-29.785,-29.297,-7.812,-34.668,0.000,0
161393.010,-27.832,-22.461,-16.602,-34.180,0.000,0
161393.013,-29.297,-17.090,-29.785,-32.715,0.000,0
161393.017,-31.738,-17.578,-6.836,-43.457,0.000,0
161393.021,-29.785,-18.066,-16.113,-35.645,0.000,0
161393.025,-28.320,-20.020,-48.340,-19.531,0.000,0
161393.029,-23.438,-18.555,-41.016,-30.273,0.000,0
161393.033,-27.832,-19.043,-21.973,-42.480,0.000,0
161393.037,-25.391,-20.508,-7.324,-32.715,0.000,0
161393.041,-20.508,-15.625,-14.648,-34.180,0.000,0
161393.045,-18.555,-19.043,-30.762,-44.922,0.000,0
161393.049,-16.113,-20.996,-17.090,-29.297,0.000,0
161393.053,-19.531,-18.555,-22.949,-13.184,0.000,0
161393.056,-23.438,-17.090,-29.297,-42.969,0.000,0
161393.060,-27.344,-21.484,-21.973,-44.922,0.000,0
161393.064,-25.879,-20.020,-20.996,-31.738,0.000,0
161393.068,-22.461,-24.902,-25.879,-40.527,0.000,0
161393.072,-22.949,-30.273,-40.039,-35.156,0.000,0
161393.076,-32.227,-24.902,-28.320,-51.270,0.000,0
161393.080,-31.250,-22.461,-24.414,-69.336,0.000,0
161393.084,-33.691,-24.414,-40.527,-64.941,0.000,0
161393.088,-38.086,-25.391,-48.340,-50.781,0.000,0
161393.092,-37.598,-21.484,-53.711,-52.246,0.000,0
161393.096,-38.574,-25.391,-14.160,-57.129,0.000,0
161393.099,-26.855,-22.461,-20.020,-40.039,0.000,0
161393.103,-16.602,-14.160,-55.176,-30.762,0.000,0
161393.107,-18.066,-17.090,-36.621,-42.969,0.000,0
161393.111,-24.902,-14.160,-14.648,-39.062,0.000,0
161393.115,-25.391,-13.672,-13.184,-18.066,0.000,0
161393.119,-32.227,-20.020,-19.043,-32.715,0.000,0
161393.123,-43.457,-23.926,-23.438,-46.387,0.000,0
161393.127,-36.621,-26.367,-28.320,-27.832,0.000,0
161393.131,-20.020,-25.391,-26.855,-21.973,0.000,0
161393.135,-17.090,-25.391,-27.344,-32.715,0.000,0
161393.138,-35.645,-26.367,-21.973,-44.922,0.000,0
161393.142,-39.551,-32.715,-21.973,-56.641,0.000,0
161393.146,-30.762,-31.738,-30.273,-54.688,0.000,0
161393.150,-30.273,-28.320,-28.809,-37.598,0.000,0
161393.154,-29.297,-33.203,-22.461,-29.785,0.000,0
161393.158,-40.527,-34.668,-27.832,-33.691,0.000,0
161393.162,-36.621,-26.855,-34.180,-48.828,0.000,0
161393.166,-15.137,-23.438,-30.273,-51.758,0.000,0
161393.170,-18.555,-26.367,-24.902,-40.527,0.000,0
161393.174,-20.996,-22.949,-21.484,-38.574,0.000,0
161393.178,-9.766,-21.484,-8.301,-47.363,0.000,0
161393.181,-17.578,-18.555,-3.906,-48.828,0.000,0
161393.185,-20.020,-17.578,-3.906,-51.758,0.000,0
161393.189,-15.625,-19.043,-28.320,-48.340,0.000,0
161393.193,-20.020,-20.508,-33.203,-44.922,0.000,0
161393.197,-19.531,-25.391,-5.371,-51.270,0.000,0
161393.201,-21.484,-27.832,-6.836,-47.363,0.000,0
161393.205,-15.625,-29.297,-37.109,-29.297,0.000,0
161393.209,-17.090,-31.738,-43.945,-27.832,0.000,0
161393.213,-21.484,-22.461,-18.066,-28.320,0.000,0
161393.217,-10.254,-18.066,-4.883,-29.297,0.000,0
161393.221,-15.625,-21.484,-21.484,-37.109,0.000,0
161393.224,-26.855,-24.414,-24.414,-29.297,0.000,0
161393.228,-27.832,-22.949,-24.902,-8.301,0.000,0
161393.232,-29.297,-20.020,-14.648,-17.090,0.000,0
161393.236,-28.320,-27.344,-23.438,-37.109,0.000,0
161393.240,-31.250,-29.785,-45.410,-26.367,0.000,0
161393.244,-25.391,-26.855,-38.086,-34.180,0.000,0
161393.248,-26.367,-23.438,-36.621,-43.457,0.000,0
161393.252,-23.438,-21.484,-30.273,-22.461,0.000,0
161393.256,-18.555,-26.367,-20.508,-26.855,0.000,0
161393.260,-21.973,-27.344,-32.227,-61.035,0.000,0
161393.263,-25.391,-25.391,-37.109,-54.688,0.000,0
161393.267,-16.602,-20.996,-36.133,-35.645,0.000,0
161393.271,-10.742,-19.043,-26.367,-39.551,0.000,0
161393.275,-28.809,-20.020,-5.371,-42.480,0.000,0
161393.279,-26.855,-20.996,-25.879,-29.297,0.000,0
161393.283,-15.137,-21.484,-37.598,-28.809,0.000,0
161393.287,-8.789,-20.020,-24.414,-33.691,0.000,0
161393.291,-17.090,-17.578,-20.996,-25.879,0.000,0
161393.295,-15.625,-18.555,-15.137,-39.062,0.000,0
161393.299,-6.348,-20.508,-17.090,-46.387,0.000,0
161393.303,-9.277,-26.367,-13.672,-32.227,0.000,0
161393.306,-11.230,-24.902,-41.992,-23.926,0.000,0
161393.310,-19.043,-21.484,-42.969,-29.785,0.000,0
161393.314,-23.926,-26.367,-12.695,-40.527,0.000,0
161393.318,-21.484,-26.367,-19.531,-37.598,0.000,0
161393.322,-26.855,-24.414,-32.227,-30.273,0.000,0
161393.326,-19.531,-29.297,-44.922,-34.180,0.000,0
161393.330,-15.137,-32.715,-47.363,-36.133,0.000,0
161393.334,-16.113,-24.414,-0.488,-58.105,0.000,0
161393.338,-15.137,-21.484,-5.859,-53.223,0.000,0
161393.342,-16.113,-23.438,-39.062,-29.297,0.000,0
161393.346,-18.066,-24.902,-32.715,-34.180,0.000,0
161393.349,-36.133,-27.832,-25.391,-49.805,0.000,0
161393.353,-39.062,-31.738,-21.484,-55.176,0.000,0
161393.357,-30.762,-29.297,-33.691,-57.617,0.000,0
161393.361,-36.133,-24.414,-27.344,-52.246,0.000,0
161393.365,-33.691,-26.367,-26.855,-25.391,0.000,0
161393.369,-18.555,-24.902,-47.852,-22.949,0.000,0
161393.373,-33.691,-24.414,-29.785,-47.852,0.000,0
161393.377,-40.527,-21.484,-11.719,-40.527,0.000,0
161393.381,-25.879,-19.531,-20.508,-31.250,0.000,0
161393.385,-34.180,-28.809,-38.574,-41.992,0.000,0
161393.388,-40.039,-34.668,-48.828,-32.715,0.000,0
161393.392,-33.691,-33.203,-21.484,-43.457,0.000,0
161393.396,-32.227,-34.180,-12.207,-58.105,0.000,0
161393.400,-34.668,-37.109,-49.805,-40.527,0.000,0
161393.404,-35.645,-37.598,-54.199,-35.156,0.000,0
161393.408,-37.598,-39.062,-39.551,-31.738,0.000,0
161393.412,-36.621,-38.574,-30.762,-28.320,0.000,0
161393.416,-18.555,-31.250,-54.199,-21.973,0.000,0
161393.420,-10.254,-33.691,-44.922,-19.043,0.000,0
161393.424,-22.949,-30.762,-20.508,-26.367,0.000,0
161393.428,-22.949,-29.785,-29.785,-35.645,0.000,0
161393.431,-25.879,-32.715,-25.879,-38.086,0.000,0
161393.435,-25.391,-28.320,-24.414,-38.574,0.000,0
161393.439,-22.949,-30.762,-41.992,-27.344,0.000,0
161393.443,-21.484,-29.785,-43.457,-28.320,0.000,0
161393.447,-9.277,-26.367,-25.879,-29.785,0.000,0
161393.451,-12.207,-28.320,-33.691,-25.391,0.000,0
161393.455,-10.254,-28.809,-43.945,-22.949,0.000,0
161393.459,-11.230,-26.367,-28.320,-18.066,0.000,0
161393.463,-16.602,-29.297,-29.297,-22.949,0.000,0
161393.467,-20.996,-30.273,-12.695,-18.555,0.000,0
161393.471,-23.438,-23.438,-17.090,-35.156,0.000,0
161393.474,-24.414,-26.367,-33.203,-29.785,0.000,0
161393.478,-1.953,-26.855,-27.832,-15.137,0.000,0
161393.482,-6.836,-27.832,-30.762,-31.738,0.000,0
161393.486,-29.785,-25.391,-29.785,-35.156,0.000,0
161393.490,-31.250,-29.297,-18.555,-36.621,0.000,0
161393.494,-32.715,-33.203,-25.879,-33.691,0.000,0
161393.498,-27.344,-23.926,-30.762,-26.855,0.000,0
161393.502,-30.273,-23.438,-25.879,-35.156,0.000,0
161393.506,-28.320,-26.855,-31.250,-27.344,0.000,0
161393.510,-25.391,-28.809,-25.879,-26.367,0.000,0
161393.513,-28.809,-34.668,-26.855,-32.227,0.000,0
161393.517,-21.973,-32.227,-42.969,-25.391,0.000,0
161393.521,-13.672,-30.762,-41.992,-32.715,0.000,0
161393.525,-32.227,-36.133,-24.902,-40.039,0.000,0
161393.529,-41.016,-32.227,-20.508,-45.898,0.000,0
161393.533,-31.250,-30.273,-34.180,-45.898,0.000,0
161393.537,-22.949,-31.738,-35.156,-42.480,0.000,0
161393.541,-18.066,-27.344,-29.785,-27.832,0.000,0
161393.545,-12.695,-22.949,-26.367,-15.137,0.000,0
161393.549,-7.812,-20.020,-21.973,-21.484,0.000,0
161393.553,-20.508,-22.949,-37.109,-18.555,0.000,0
161393.556,-29.297,-21.973,-33.691,-6.836,0.000,0
161393.560,-21.484,-14.648,-28.809,-12.207,0.000,0
161393.564,-24.414,-21.484,-29.785,-28.320,0.000,0
161393.568,-37.598,-26.855,-21.484,-39.551,0.000,0
161393.572,-26.855,-24.902,-27.832,-32.715,0.000,0
161393.576,-17.090,-30.273,-32.227,-20.996,0.000,0
161393.580,-24.902,-35.156,-37.109,-21.484,0.000,0
161393.584,-29.297,-30.273,-26.855,-35.645,0.000,0
161393.588,-21.973,-25.879,-13.672,-39.551,0.000,0
161393.592,-18.066,-24.414,-26.367,-23.926,0.000,0
161393.596,-20.996,-24.414,-24.414,-18.555,0.000,0
161393.599,-20.508,-21.484,-13.184,-13.184,0.000,0
161393.603,-17.578,-22.461,-16.602,-18.066,0.000,0
161393.607,-18.066,-22.461,-24.902,-35.156,0.000,0
161393.611,-23.926,-21.484,-25.391,-21.484,0.000,0
161393.615,-24.414,-30.273,-29.785,-14.648,0.000,0
161393.619,-20.508,-28.320,-35.156,-23.926,0.000,0
161393.623,-22.461,-24.902,-12.695,-27.832,0.000,0
161393.627,-25.879,-26.855,-6.836,-28.320,0.000,0
161393.631,-24.902,-27.344,-27.832,-20.020,0.000,0
161393.635,-27.344,-31.250,-30.273,-27.832,0.000,0
161393.638,-22.949,-34.668,-26.367,-36.621,0.000,0
161393.642,-22.461,-24.902,-12.695,-31.738,0.000,0
161393.646,-35.645,-19.043,-7.324,-29.297,0.000,0
161393.650,-23.438,-20.996,-37.109,-16.602,0.000,0
161393.654,-17.578,-22.949,-37.598,-10.742,0.000,0
161393.658,-24.414,-19.043,-1.953,-12.695,0.000,0
161393.662,-24.902,-18.555,-1.465,-19.043,0.000,0
161393.666,-24.414,-23.438,-29.297,-31.250,0.000,0
161393.670,-20.996,-25.879,-39.551,-40.527,0.000,0
161393.674,-19.531,-23.926,-28.809,-31.738,0.000,0
161393.678,-23.926,-27.344,-33.691,-25.391,0.000,0
161393.681,-28.320,-27.832,-20.020,-41.992,0.000,0
161393.685,-26.367,-24.414,-16.602,-29.785,0.000,0
161393.689,-24.414,-20.508,-28.320,-19.043,0.000,0
161393.693,-14.648,-24.414,-30.273,-35.156,0.000,0
161393.697,-16.113,-35.156,-48.828,-39.551,0.000,0
161393.701,-23.438,-29.297,-22.461,-45.410,0.000,0
161393.705,-20.996,-26.855,-16.602,-43.945,0.000,0
161393.709,-24.414,-35.645,-48.340,-41.504,0.000,0
161393.713,-20.020,-32.715,-38.574,-37.598,0.000,0
161393.717,-15.137,-25.879,-34.180,-31.738,0.000,0
161393.721,-14.648,-27.344,-20.508,-42.480,0.000,0
161393.724,-13.184,-27.344,-16.602,-37.598,0.000,0
161393.728,-19.531,-26.367,-40.527,-18.066,0.000,0
161393.732,-18.066,-28.809,-35.156,-4.883,0.000,0
161393.736,-32.715,-34.180,-26.367,-17.090,0.000,0
161393.740,-32.715,-37.109,-25.391,-42.480,0.000,0
161393.744,-30.273,-31.738,-21.973,-41.992,0.000,0
161393.748,-24.902,-21.973,-18.555,-24.902,0.000,0
161393.752,-20.996,-23.926,-37.109,-21.484,0.000,0
161393.756,-22.949,-32.227,-41.016,-22.461,0.000,0
161393.760,-11.230,-23.438,-16.113,-26.367,0.000,0
161393.763,-13.184,-16.113,-20.508,-29.785,0.000,0
161393.767,-13.672,-18.066,-34.668,-33.691,0.000,0
161393.771,-10.742,-20.508,-24.902,-32.715,0.000,0
161393.775,-17.578,-22.461,-20.996,-27.344,0.000,0
161393.779,-1.953,-17.578,-13.184,-25.391,0.000,0
161393.783,13.672,-17.090,-11.230,-21.973,0.000,0
161393.787,7.324,-15.625,-19.531,-11.719,0.000,0
161393.791,-23.926,-19.043,-16.602,-37.598,0.000,0
161393.795,-38.574,-17.578,-11.719,-50.293,0.000,0
161393.799,-26.855,-20.020,-23.438,-39.062,0.000,0
161393.803,-25.879,-29.297,-22.461,-43.945,0.000,0
161393.806,-30.762,-24.414,-13.184,-45.898,0.000,0
161393.810,-27.832,-24.414,-28.809,-44.434,0.000,0
161393.814,-22.949,-28.320,-38.574,-35.156,0.000,0
161393.818,-24.902,-20.508,-13.184,-19.043,0.000,0
161393.822,-21.484,-20.508,3.418,-20.508,0.000,0
161393.826,-27.344,-26.855,-17.090,-44.922,0.000,0
161393.830,-28.320,-29.297,-30.762,-44.434,0.000,0
161393.834,-22.461,-31.738,-27.344,-35.156,0.000,0
161393.838,-29.785,-33.203,-7.324,-22.949,0.000,0
161393.842,-42.969,-32.227,-11.719,-29.297,0.000,0
161393.846,-29.297,-34.180,-40.039,-50.781,0.000,0
161393.849,-8.789,-35.156,-46.875,-50.781,0.000,0
161393.853,-40.039,-28.320,-38.086,-34.180,0.000,0
161393.857,-42.480,-27.344,-27.344,-34.180,0.000,0
161393.861,-18.066,-28.320,-20.996,-41.504,0.000,0
161393.865,-19.531,-27.832,-30.762,-35.156,0.000,0
161393.869,-20.996,-29.297,-32.715,-25.879,0.000,0
161393.873,-21.973,-23.926,-26.367,-26.855,0.000,0
161393.877,-20.996,-23.926,-20.996,-25.391,0.000,0
161393.881,-18.066,-25.391,-3.418,-30.762,0.000,0
161393.885,-19.531,-21.484,-13.184,-29.785,0.000,0
161393.888,-17.578,-20.996,-31.250,-26.367,0.000,0
161393.892,-20.996,-24.414,-36.133,-20.020,0.000,0
161393.896,-20.508,-23.926,-16.113,-37.109,0.000,0
161393.900,-24.414,-25.391,-2.930,-53.711,0.000,0
161393.904,-30.762,-30.762,-27.344,-40.039,0.000,0
161393.908,-35.645,-28.320,-27.344,-35.156,0.000,0
161393.912,-36.133,-22.461,-23.438,-27.832,0.000,0
161393.916,-29.297,-21.484,-20.508,-37.598,0.000,0
161393.920,-22.949,-19.531,-16.602,-52.734,0.000,0
161393.924,-18.066,-23.438,-22.461,-39.551,0.000,0
161393.928,-23.438,-30.762,-20.508,-38.574,0.000,0
161393.931,-29.785,-27.344,-45.898,-35.156,0.000,0
161393.935,-24.902,-25.391,-49.316,-35.156,0.000,0
161393.939,-31.738,-29.297,-18.066,-49.316,0.000,0
161393.943,-42.969,-30.762,-18.555,-37.109,0.000,0
161393.947,-39.551,-25.879,-31.738,-29.297,0.000,0
161393.951,-39.551,-17.578,-39.062,-29.785,0.000,0
161393.955,-35.645,-17.578,-38.574,-27.832,0.000,0
161393.959,-28.320,-26.367,-6.348,-22.949,0.000,0
161393.963,-29.785,-23.438,-19.531,-26.367,0.000,0
161393.967,-36.621,-20.020,-54.199,-40.527,0.000,0
161393.971,-44.922,-23.438,-50.293,-34.668,0.000,0
161393.974,-36.133,-21.484,-27.344,-17.578,0.000,0
161393.978,-20.508,-19.531,-16.602,-34.668,0.000,0
161393.982,-22.949,-20.020,-40.039,-34.668,0.000,0
161393.986,-23.438,-19.043,-24.414,-24.414,0.000,0
161393.990,-27.344,-23.438,-15.625,-27.344,0.000,0
161393.994,-21.973,-21.484,-43.457,-22.461,0.000,0
161393.998,-18.066,-18.066,-25.391,-33.203,0.000,0
161394.002,-28.320,-20.508,-23.926,-28.809,0.000,0
161394.006,-24.902,-22.949,-32.715,-17.090,0.000,0
161394.010,-15.625,-28.320,-16.113,-22.949,0.000,0
161394.013,-16.602,-21.973,-27.344,-16.113,0.000,0
161394.017,-15.137,-24.414,-8.301,-27.344,0.000,0
161394.021,-9.766,-27.344,-15.625,-41.992,0.000,0
161394.025,-10.742,-19.043,-33.203,-39.551,0.000,0
161394.029,-11.230,-20.020,-31.250,-28.320,0.000,0
161394.033,-4.395,-19.531,-34.180,-17.578,0.000,0
161394.037,-1.953,-19.531,-32.715,-34.180,0.000,0
161394.041,-14.160,-20.508,-35.645,-36.133,0.000,0
161394.045,-20.508,-21.973,-34.180,-16.113,0.000,0
161394.049,-9.277,-27.832,-43.457,-26.855,0.000,0
161394.053,-8.301,-21.973,-41.016,-38.086,0.000,0
161394.056,-20.508,-22.949,-20.996,-45.410,0.000,0
161394.060,-23.926,-28.809,-24.414,-43.457,0.000,0
161394.064,-21.973,-26.855,-33.691,-34.668,0.000,0
161394.068,-25.391,-22.949,-39.551,-26.855,0.000,0
161394.072,-27.344,-25.391,-58.594,-13.672,0.000,0
161394.076,-30.762,-27.344,-34.180,-27.832,0.000,0
161394.080,-34.180,-27.344,-15.625,-44.922,0.000,0
161394.084,-36.133,-31.738,-43.945,-35.645,0.000,0
161394.088,-30.762,-26.367,-33.691,-41.016,0.000,0
161394.092,-31.250,-19.043,-15.137,-42.480,0.000,0
161394.096,-38.574,-19.531,-20.020,-41.016,0.000,0
161394.099,-35.645,-22.461,-29.297,-55.176,0.000,0
161394.103,-29.785,-22.461,-22.461,-46.875,0.000,0
161394.107,-19.531,-23.926,-11.719,-34.668,0.000,0
161394.111,-26.855,-27.832,-11.230,-44.434,0.000,0
161394.115,-34.668,-27.832,-22.949,-54.199,0.000,0
161394.119,-31.250,-29.785,-21.484,-44.922,0.000,0
161394.123,-31.738,-28.809,-15.625,-33.691,0.000,0
161394.127,-33.203,-27.344,-28.320,-41.016,0.000,0
161394.131,-31.250,-28.320,-33.203,-33.203,0.000,0
161394.135,-22.949,-28.320,-25.391,-26.855,0.000,0
161394.138,-24.902,-22.949,-26.855,-32.227,0.000,0
161394.142,-20.508,-21.973,-44.922,-15.625,0.000,0
161394.146,-28.320,-28.809,-53.711,-19.043,0.000,0
161394.150,-30.762,-27.344,-37.598,-26.367,0.000,0
161394.154,-15.625,-20.996,-12.695,-23.438,0.000,0
161394.158,-24.902,-25.391,-20.508,-36.621,0.000,0
161394.162,-35.156,-30.273,-34.180,-32.715,0.000,0
161394.166,-32.715,-25.879,-21.484,-23.926,0.000,0
161394.170,-20.508,-19.043,-25.391,-20.020,0.000,0
161394.174,-20.508,-24.902,-34.180,-20.508,0.000,0
161394.178,-38.574,-26.855,-28.809,-26.855,0.000,0
161394.181,-29.297,-24.414,-33.691,-32.227,0.000,0
161394.185,-22.949,-28.809,-34.668,-25.391,0.000,0
161394.189,-27.344,-25.879,-30.762,-27.344,0.000,0
161394.193,-29.297,-21.484,-16.602,-25.879,0.000,0
161394.197,-33.203,-26.855,-26.855,-29.297,0.000,0
161394.201,-34.180,-24.902,-45.898,-34.668,0.000,0
161394.205,-33.691,-20.508,-30.273,-23.926,0.000,0
161394.209,-24.414,-25.391,-4.883,-28.320,0.000,0
161394.213,-15.625,-27.344,2.441,-39.551,0.000,0
161394.217,-29.785,-27.832,-28.809,-30.273,0.000,0
161394.221,-30.273,-27.344,-36.133,-20.020,0.000,0
161394.224,-28.320,-26.855,-29.297,-26.367,0.000,0
161394.228,-42.969,-27.832,-34.180,-33.691,0.000,0
161394.232,-42.969,-28.320,-29.297,-41.016,0.000,0
161394.236,-42.969,-25.879,-25.879,-32.715,0.000,0
161394.240,-38.086,-18.555,-27.832,-25.879,0.000,0
161394.244,-30.762,-18.066,-37.598,-27.344,0.000,0
161394.248,-25.391,-23.926,-49.316,-31.250,0.000,0
161394.252,-22.461,-21.484,-22.949,-42.480,0.000,0
161394.256,-30.273,-17.578,-7.324,-27.832,0.000,0
161394.260,-32.227,-20.996,-25.391,-21.973,0.000,0
161394.263,-32.715,-23.926,-36.621,-35.645,0.000,0
161394.267,-37.598,-26.855,-42.480,-33.691,0.000,0
161394.271,-31.250,-26.855,-12.695,-41.504,0.000,0
161394.275,-26.367,-20.508,-16.113,-56.152,0.000,0
161394.279,-26.855,-18.555,-38.574,-33.203,0.000,0
161394.283,-30.762,-21.484,-30.273,-15.137,0.000,0
161394.287,-35.645,-21.484,-31.738,-25.879,0.000,0
161394.291,-34.668,-23.926,-21.484,-36.621,0.000,0
161394.295,-32.227,-27.344,-23.926,-34.180,0.000,0
161394.299,-30.762,-25.879,-33.203,-21.484,0.000,0
161394.303,-25.879,-20.020,-21.973,-15.137,0.000,0
161394.306,-22.461,-22.461,-37.598,-18.555,0.000,0
161394.310,-16.602,-28.320,-35.156,-34.180,0.000,0
161394.314,-25.879,-24.902,-5.371,-44.922,0.000,0
161394.318,-28.320,-29.297,-19.043,-35.156,0.000,0
161394.322,-22.461,-30.762,-47.852,-30.273,0.000,0
161394.326,-36.621,-28.809,-44.434,-25.879,0.000,0
161394.330,-36.133,-28.320,-14.648,-40.039,0.000,0
161394.334,-28.809,-20.996,-4.395,-52.734,0.000,0
161394.338,-30.762,-23.926,-20.020,-42.480,0.000,0
161394.342,-34.180,-26.855,-18.066,-46.875,0.000,0
161394.346,-28.809,-26.855,-23.926,-34.180,0.000,0
161394.349,-24.902,-25.391,-35.156,-17.578,0.000,0
161394.353,-18.066,-22.949,-38.086,-27.832,0.000,0
161394.357,-13.672,-28.809,-39.062,-31.738,0.000,0
161394.361,-14.160,-32.715,-20.996,-18.066,0.000,0
161394.365,-14.648,-29.297,-30.762,-5.371,0.000,0
161394.369,-20.508,-25.391,-30.273,-21.973,0.000,0
161394.373,-29.297,-25.391,-6.348,-44.922,0.000,0
161394.377,-17.578,-22.461,-26.367,-40.039,0.000,0
161394.381,-10.254,-23.926,-38.086,-39.551,0.000,0
161394.385,-27.832,-23.438,-36.133,-32.227,0.000,0
161394.388,-24.414,-25.391,-17.090,-23.926,0.000,0
161394.392,-19.043,-26.367,0.000,-28.320,0.000,0
161394.396,-20.996,-21.484,-17.090,-29.785,0.000,0
161394.400,-31.250,-20.996,-37.109,-39.062,0.000,0
161394.404,-27.832,-24.414,-27.832,-38.086,0.000,0
161394.408,-29.785,-21.973,-11.230,-33.203,0.000,0
161394.412,-39.551,-25.879,-31.250,-41.992,0.000,0
161394.416,-30.273,-24.414,-30.762,-20.020,0.000,0
161394.420,-24.414,-18.555,-28.320,-16.113,0.000,0
161394.424,-37.109,-24.414,-40.527,-41.504,0.000,0
161394.428,-45.410,-25.391,-40.039,-42.480,0.000,0
161394.431,-33.203,-19.531,-24.902,-37.598,0.000,0
161394.435,-35.645,-24.902,-34.180,-35.645,0.000,0
161394.439,-38.086,-25.391,-40.527,-39.062,0.000,0
161394.443,-27.832,-20.508,-31.738,-32.715,0.000,0
161394.447,-22.461,-21.973,-30.273,-31.738,0.000,0
161394.451,-26.367,-28.320,-19.043,-40.039,0.000,0
161394.455,-22.461,-30.273,-27.832,-50.293,0.000,0
161394.459,-17.578,-26.855,-41.504,-40.527,0.000,0
161394.463,-26.855,-29.785,-38.574,-24.414,0.000,0
161394.467,-40.039,-33.203,-32.227,-26.855,0.000,0
161394.471,-39.551,-32.715,-35.156,-31.250,0.000,0
161394.474,-29.785,-35.156,-41.016,-36.621,0.000,0
161394.478,-21.484,-36.133,-31.738,-47.852,0.000,0
161394.482,-23.438,-31.250,-31.738,-53.223,0.000,0
161394.486,-26.367,-32.227,-34.668,-49.316,0.000,0
161394.490,-24.902,-32.227,-20.020,-43.945,0.000,0
161394.494,-19.531,-27.344,-14.160,-31.738,0.000,0
161394.498,-11.230,-23.926,-28.809,-33.203,0.000,0
161394.502,-11.230,-23.926,-42.969,-30.762,0.000,0
161394.506,-18.555,-24.414,-29.297,-2.930,0.000,0
161394.510,-25.391,-19.043,-14.648,-24.414,0.000,0
161394.513,-31.738,-19.043,-28.320,-50.781,0.000,0
161394.517,-32.227,-22.949,-30.762,-40.527,0.000,0
161394.521,-25.391,-18.555,-37.109,-29.297,0.000,0
161394.525,-20.996,-19.531,-44.434,-21.973,0.000,0
161394.529,-20.020,-19.043,-26.367,-42.480,0.000,0
161394.533,-21.484,-19.043,-26.855,-50.293,0.000,0
161394.537,-30.762,-22.461,-30.273,-34.180,0.000,0
161394.541,-26.367,-26.855,-23.438,-26.367,0.000,0
161394.545,-20.020,-29.785,-36.133,-21.973,0.000,0
161394.549,-16.113,-31.250,-39.551,-35.156,0.000,0
161394.553,-22.461,-22.461,-25.879,-43.945,0.000,0
161394.556,-26.855,-22.949,-29.785,-41.016,0.000,0
161394.560,-14.648,-26.855,-34.668,-28.809,0.000,0
161394.564,-13.672,-26.855,-40.527,-16.602,0.000,0
161394.568,-21.484,-27.832,-18.066,-28.809,0.000,0
161394.572,-19.531,-25.391,-17.578,-32.227,0.000,0
161394.576,-11.719,-28.809,-42.480,-16.113,0.000,0
161394.580,-15.137,-25.391,-34.180,-22.461,0.000,0
161394.584,-24.902,-21.973,-20.020,-31.250,0.000,0
161394.588,-20.020,-26.855,-3.906,-34.180,0.000,0
161394.592,-18.066,-26.855,-18.066,-41.992,0.000,0
161394.596,-29.785,-26.367,-32.715,-33.203,0.000,0
161394.599,-32.227,-29.297,-30.273,-26.855,0.000,0
161394.603,-19.531,-32.715,-37.109,-23.926,0.000,0
161394.607,-21.484,-27.832,-20.996,-26.855,0.000,0
161394.611,-29.785,-20.020,-14.648,-39.551,0.000,0
161394.615,-29.297,-20.508,-39.062,-36.621,0.000,0
161394.619,-22.949,-23.438,-27.832,-37.598,0.000,0
161394.623,-12.207,-23.438,-31.250,-31.250,0.000,0
161394.627,-17.578,-25.391,-43.457,-26.367,0.000,0
161394.631,-31.738,-24.902,-21.484,-37.598,0.000,0
161394.635,-21.973,-25.391,-21.484,-36.133,0.000,0
161394.638,-11.719,-22.949,-41.016,-24.902,0.000,0
161394.642,-11.230,-23.926,-37.598,-19.531,0.000,0
161394.646,-10.742,-23.438,-0.488,-30.762,0.000,0
161394.650,-19.531,-20.508,-1.465,-44.922,0.000,0
161394.654,-26.367,-20.996,-20.508,-38.086,0.000,0
161394.658,-15.137,-21.973,-0.488,-31.738,0.000,0
161394.662,-19.043,-21.484,-14.648,-25.879,0.000,0
161394.666,-27.344,-19.043,-33.691,-30.273,0.000,0
161394.670,-13.672,-14.160,-4.883,-34.668,0.000,0
161394.674,-7.812,-8.789,-7.812,-21.973,0.000,0
161394.678,-24.414,-12.695,-17.578,-17.090,0.000,0
161394.681,-29.297,-19.531,-33.203,-19.043,0.000,0
161394.685,-27.344,-21.484,-32.715,-24.902,0.000,0
161394.689,-30.273,-17.578,0.977,-35.645,0.000,0
161394.693,-36.133,-12.207,-8.301,-48.828,0.000,0
161394.697,-28.809,-14.648,-30.762,-45.410,0.000,0
161394.701,-21.484,-19.531,-28.809,-29.297,0.000,0
161394.705,-14.648,-17.090,-17.090,-35.645,0.000,0
161394.709,-19.531,-21.484,-12.207,-48.340,0.000,0
161394.713,-34.668,-21.484,-34.668,-34.180,0.000,0
161394.717,-32.227,-15.625,-34.668,-28.809,0.000,0
161394.721,-33.691,-21.973,-20.996,-35.156,0.000,0
161394.724,-33.691,-24.902,-22.949,-28.809,0.000,0
161394.728,-16.602,-21.484,-20.996,-37.598,0.000,0
161394.732,-22.949,-21.973,-23.438,-39.551,0.000,0
161394.736,-29.297,-23.926,-18.066,-36.621,0.000,0
161394.740,-26.367,-26.367,-27.832,-33.203,0.000,0
161394.744,-21.973,-26.855,-36.621,-31.250,0.000,0
161394.748,-31.738,-23.438,-21.973,-38.086,0.000,0
161394.752,-38.086,-21.484,-25.879,-31.738,0.000,0
161394.756,-20.020,-21.484,-29.297,-38.574,0.000,0
161394.760,-12.207,-18.066,-24.902,-41.016,0.000,0
161394.763,-19.531,-20.996,-19.531,-40.039,0.000,0
161394.767,-25.879,-25.391,-19.043,-41.992,0.000,0
161394.771,-22.949,-18.555,-22.461,-32.227,0.000,0
161394.775,-23.926,-22.949,-37.598,-33.203,0.000,0
161394.779,-29.297,-29.297,-41.016,-38.574,0.000,0
161394.783,-38.086,-30.273,-25.391,-35.645,0.000,0
161394.787,-38.574,-27.832,-32.227,-50.293,0.000,0
161394.791,-25.391,-22.461,-37.109,-41.992,0.000,0
161394.795,-26.367,-22.461,-34.668,-43.945,0.000,0
161394.799,-25.391,-23.438,-30.762,-51.758,0.000,0
161394.803,-21.973,-26.855,-31.738,-42.969,0.000,0
161394.806,-27.832,-28.320,-22.461,-52.246,0.000,0
161394.810,-31.250,-27.344,-17.578,-56.152,0.000,0
161394.814,-24.414,-25.391,-24.414,-39.062,0.000,0
161394.818,-14.648,-21.484,-29.785,-20.508,0.000,0
161394.822,-14.160,-25.879,-21.484,-40.039,0.000,0
161394.826,-20.508,-31.250,-2.441,-40.039,0.000,0
161394.830,-18.555,-29.297,-23.438,-31.250,0.000,0
161394.834,-10.742,-28.320,-38.086,-50.781,0.000,0
161394.838,-22.461,-22.949,-21.973,-45.898,0.000,0
161394.842,-24.902,-22.461,-29.297,-35.156,0.000,0
161394.846,-29.785,-25.391,-30.762,-41.016,0.000,0
161394.849,-25.391,-23.438,-33.691,-35.645,0.000,0
161394.853,-9.277,-30.273,-40.527,-32.715,0.000,0
161394.857,-20.508,-27.832,-27.344,-29.297,0.000,0
161394.861,-29.785,-20.508,-23.438,-32.227,0.000,0
161394.865,-29.785,-23.438,-19.531,-55.664,0.000,0
161394.869,-27.832,-20.996,-16.602,-60.059,0.000,0
161394.873,-15.137,-17.090,-25.879,-51.758,0.000,0
161394.877,-6.836,-16.113,-45.898,-30.273,0.000,0
161394.881,-17.090,-20.996,-30.762,-30.273,0.000,0
161394.885,-14.648,-19.531,-5.371,-51.270,0.000,0
161394.888,-10.254,-12.695,-20.996,-42.969,0.000,0
161394.892,-15.137,-16.602,-31.738,-32.715,0.000,0
161394.896,-18.066,-18.066,-28.320,-33.203,0.000,0
161394.900,-19.043,-16.113,-15.625,-36.621,0.000,0
161394.904,-23.926,-21.484,-6.348,-44.922,0.000,0
161394.908,-20.508,-21.973,-19.043,-38.086,0.000,0
161394.912,-19.531,-20.020,-24.414,-37.598,0.000,0
161394.916,-23.926,-24.414,-28.809,-27.832,0.000,0
161394.920,-29.785,-29.785,-37.598,-34.668,0.000,0
161394.924,-42.480,-32.227,-17.090,-62.012,0.000,0
161394.928,-35.156,-22.949,-34.668,-37.109,0.000,0
161394.931,-24.902,-20.020,-50.781,-24.902,0.000,0
161394.935,-17.578,-25.879,-39.551,-29.785,0.000,0
161394.939,-18.066,-26.855,-34.668,-13.184,0.000,0
161394.943,-23.438,-25.391,-17.090,-20.020,0.000,0
161394.947,-31.250,-23.438,-12.695,-38.086,0.000,0
161394.951,-31.738,-20.996,-30.762,-28.809,0.000,0
161394.955,-14.648,-23.926,-46.875,-18.066,0.000,0
161394.959,-17.578,-25.879,-21.484,-28.320,0.000,0
161394.963,-23.926,-26.855,-8.301,-40.527,0.000,0
161394.967,-25.391,-31.250,-26.855,-24.902,0.000,0
161394.971,-20.020,-34.668,-33.691,-16.113,0.000,0
161394.974,-24.902,-31.738,-12.695,-31.738,0.000,0
161394.978,-26.367,-27.832,-23.926,-34.668,0.000,0
161394.982,-21.484,-27.344,-25.391,-35.156,0.000,0
161394.986,-24.414,-32.227,-24.414,-33.203,0.000,0
161394.990,-21.484,-33.203,-32.715,-24.902,0.000,0
161394.994,-14.160,-32.715,-35.156,-30.273,0.000,0
161394.998,-2.930,-35.645,-37.109,-22.461,0.000,0
161395.002,2.930,-32.715,-15.137,-11.719,0.000,0
161395.006,-20.020,-34.180,-27.832,-22.949,0.000,0
161395.010,-29.297,-29.297,-53.711,-38.574,0.000,0
161395.013,-23.438,-20.020,-44.922,-29.297,0.000,0
161395.017,-31.250,-22.461,-27.832,-17.578,0.000,0
161395.021,-30.762,-20.508,-3.906,-29.785,0.000,0
161395.025,-27.344,-20.508,-18.555,-31.738,0.000,0
161395.029,-24.414,-20.996,-44.922,-13.184,0.000,0
161395.033,-19.043,-22.461,-40.039,-23.438,0.000,0
161395.037,-12.695,-22.461,-28.809,-33.203,0.000,0
161395.041,-20.996,-16.602,-18.066,-29.785,0.000,0
161395.045,-23.926,-13.672,-20.508,-27.832,0.000,0
161395.049,-24.414,-14.160,-19.531,-28.320,0.000,0
161395.053,-27.344,-15.137,-15.137,-25.879,0.000,0
161395.056,-21.484,-18.066,-33.203,-19.043,0.000,0
161395.060,-13.184,-20.508,-29.297,-29.785,0.000,0
161395.064,-14.648,-22.461,-6.836,-18.066,0.000,0
161395.068,-18.555,-24.414,-35.645,-15.625,0.000,0
161395.072,-22.949,-23.926,-44.922,-33.203,0.000,0
161395.076,-23.438,-20.996,-29.297,-31.738,0.000,0
161395.080,-21.973,-23.438,-24.414,-47.852,0.000,0
161395.084,-26.367,-21.973,-25.879,-48.828,0.000,0
161395.088,-23.438,-19.531,-30.762,-43.945,0.000,0
161395.092,-14.648,-24.414,-41.992,-38.574,0.000,0
161395.096,-18.066,-21.973,-38.574,-32.227,0.000,0
161395.099,-29.297,-23.926,-30.762,-35.645,0.000,0
161395.103,-28.809,-27.344,-37.598,-34.180,0.000,0
161395.107,-22.949,-25.879,-39.062,-37.598,0.000,0
161395.111,-25.879,-24.902,-29.785,-39.551,0.000,0
161395.115,-25.879,-22.949,-39.551,-38.086,0.000,0
161395.119,-19.043,-21.973,-24.414,-39.551,0.000,0
161395.123,-12.695,-22.461,-8.789,-41.504,0.000,0
161395.127,-6.348,-17.578,-19.531,-40.527,0.000,0
161395.131,-13.672,-17.578,-35.156,-29.785,0.000,0
161395.135,-28.809,-21.973,-42.969,-17.090,0.000,0
161395.138,-25.879,-20.996,-15.137,-19.531,0.000,0
161395.142,-23.926,-21.973,-17.090,-34.180,0.000,0
161395.146,-35.645,-22.949,-38.574,-38.574,0.000,0
161395.150,-27.344,-23.926,-32.715,-32.227,0.000,0
161395.154,-25.391,-18.555,-12.207,-36.621,0.000,0
161395.158,-25.879,-17.090,-22.461,-38.086,0.000,0
161395.162,-18.555,-17.090,-41.016,-37.598,0.000,0
161395.166,-17.090,-12.695,-35.156,-30.273,0.000,0
161395.170,-15.625,-14.648,-28.809,-19.043,0.000,0
161395.174,-16.113,-16.602,-28.320,-23.926,0.000,0
161395.178,-25.879,-15.137,-26.855,-37.109,0.000,0
161395.181,-21.484,-16.602,-26.367,-27.832,0.000,0
161395.185,-13.672,-18.555,-28.320,-18.066,0.000,0
161395.189,-14.160,-15.625,-23.926,-8.301,0.000,0
161395.193,-4.395,-16.602,-24.414,3.418,0.000,0
161395.197,-0.488,-19.043,-20.508,-15.137,0.000,0
161395.201,-12.695,-18.066,-9.766,-25.391,0.000,0
161395.205,-16.602,-22.949,-45.410,-20.020,0.000,0
161395.209,-23.438,-20.996,-61.035,-24.902,0.000,0
161395.213,-20.020,-15.137,-32.715,-20.508,0.000,0
161395.217,-14.160,-14.160,-16.113,-25.391,0.000,0
161395.221,-19.043,-17.578,-16.113,-34.668,0.000,0
161395.224,-19.531,-16.602,-25.391,-27.344,0.000,0
161395.228,-22.461,-16.602,-12.207,-29.785,0.000,0
161395.232,-25.391,-25.391,-26.367,-31.738,0.000,0
161395.236,-20.508,-21.973,-44.434,-24.414,0.000,0
161395.240,-29.297,-19.531,-15.625,-32.715,0.000,0
161395.244,-28.809,-18.555,-12.695,-17.090,0.000,0
161395.248,-12.695,-14.648,-26.855,-20.020,0.000,0
161395.252,-12.695,-17.090,-26.367,-39.062,0.000,0
161395.256,-19.531,-16.113,-13.672,-30.273,0.000,0
161395.260,-20.996,-23.926,-3.418,-29.785,0.000,0
161395.263,-22.949,-25.391,-30.273,-36.133,0.000,0
161395.267,-22.461,-22.949,-47.852,-35.645,0.000,0
161395.271,-26.855,-26.855,-42.969,-26.367,0.000,0
161395.275,-31.250,-22.949,-24.414,-20.020,0.000,0
161395.279,-22.461,-20.996,-12.207,-34.180,0.000,0
161395.283,-23.438,-21.973,-31.738,-26.367,0.000,0
161395.287,-25.879,-24.414,-28.320,-16.602,0.000,0
161395.291,-22.461,-24.414,-17.090,-11.230,0.000,0
161395.295,-25.879,-27.832,-31.738,-25.879,0.000,0
161395.299,-27.344,-32.715,-32.715,-44.434,0.000,0
161395.303,-30.762,-32.227,-20.020,-31.738,0.000,0
161395.306,-25.391,-30.273,-21.973,-34.668,0.000,0
161395.310,0.000,-31.738,-39.062,-31.250,0.000,0
161395.314,-12.695,-26.367,-34.668,-25.391,0.000,0
161395.318,-29.785,-24.902,-8.301,-31.738,0.000,0
161395.322,-22.461,-23.926,-23.438,-22.461,0.000,0
161395.326,-26.855,-23.438,-49.805,-17.578,0.000,0
161395.330,-40.039,-26.367,-43.457,-32.227,0.000,0
161395.334,-41.504,-26.855,-25.879,-30.273,0.000,0
161395.338,-34.668,-30.273,-10.742,-38.574,0.000,0
161395.342,-30.273,-36.133,-34.668,-41.504,0.000,0
161395.346,-37.109,-34.180,-54.199,-17.090,0.000,0
161395.349,-38.086,-25.391,-23.438,-15.137,0.000,0
161395.353,-30.273,-22.461,-23.438,-24.414,0.000,0
161395.357,-29.785,-25.391,-20.020,-38.086,0.000,0
161395.361,-30.762,-28.809,-25.879,-51.758,0.000,0
161395.365,-28.809,-30.762,-38.086,-48.828,0.000,0
161395.369,-22.949,-29.297,-29.297,-45.898,0.000,0
161395.373,-11.719,-33.203,-34.668,-32.227,0.000,0
161395.377,-31.250,-34.668,-23.926,-37.598,0.000,0
161395.381,-43.457,-26.855,-19.531,-43.945,0.000,0
161395.385,-35.156,-22.949,-30.762,-24.414,0.000,0
161395.388,-38.574,-25.879,-38.574,-28.809,0.000,0
161395.392,-41.504,-27.344,-30.273,-25.879,0.000,0
161395.396,-47.852,-25.391,-8.301,-28.809,0.000,0
161395.400,-43.457,-25.391,-20.996,-44.434,0.000,0
161395.404,-32.715,-24.414,-27.832,-45.898,0.000,0
161395.408,-36.621,-24.902,-21.484,-48.340,0.000,0
161395.412,-41.992,-25.879,-33.691,-41.504,0.000,0
161395.416,-39.551,-27.344,-29.297,-41.992,0.000,0
161395.420,-30.273,-30.762,-22.949,-33.691,0.000,0
161395.424,-33.691,-26.367,-24.414,-33.691,0.000,0
161395.428,-39.551,-25.879,-30.762,-47.363,0.000,0
161395.431,-34.668,-26.367,-47.363,-45.898,0.000,0
161395.435,-24.414,-26.367,-30.762,-51.270,0.000,0
161395.439,-27.832,-28.809,0.000,-62.500,0.000,0
161395.443,-28.809,-30.762,-17.578,-54.199,0.000,0
161395.447,-27.832,-31.738,-49.805,-47.363,0.000,0
161395.451,-23.926,-31.250,-43.945,-38.086,0.000,0
161395.455,-22.461,-26.855,-14.648,-41.992,0.000,0
161395.459,-28.809,-23.438,-13.672,-59.570,0.000,0
161395.463,-29.785,-24.902,-34.668,-57.617,0.000,0
161395.467,-37.109,-23.926,-30.762,-51.758,0.000,0
161395.471,-37.109,-20.508,-21.484,-46.387,0.000,0
161395.474,-31.738,-20.508,-22.461,-40.527,0.000,0
161395.478,-34.180,-25.879,-39.551,-42.480,0.000,0
161395.482,-23.926,-21.973,-41.016,-38.574,0.000,0
161395.486,-15.137,-15.137,-20.020,-30.273,0.000,0
161395.490,-16.602,-19.531,-30.762,-40.039,0.000,0
161395.494,-22.949,-17.090,-25.391,-47.852,0.000,0
161395.498,-26.367,-10.742,-16.602,-47.852,0.000,0
161395.502,-18.066,-18.066,-26.855,-48.340,0.000,0
161395.506,-10.254,-20.508,-27.344,-39.551,0.000,0
161395.510,-16.602,-19.531,-39.062,-30.762,0.000,0
161395.513,-22.949,-25.391,-30.762,-32.715,0.000,0
161395.517,-16.602,-20.508,-13.184,-32.715,0.000,0
161395.521,-13.184,-18.555,-20.508,-22.949,0.000,0
161395.525,-18.555,-25.391,-32.715,-24.414,0.000,0
161395.529,-25.879,-24.414,-24.902,-15.625,0.000,0
161395.533,-22.461,-27.344,-22.461,-25.879,0.000,0
161395.537,-15.137,-28.320,-27.832,-51.758,0.000,0
161395.541,-23.926,-28.809,-27.344,-59.570,0.000,0
161395.545,-30.273,-29.297,-25.879,-62.500,0.000,0
161395.549,-33.691,-25.879,-59.570,-41.016,0.000,0
161395.553,-30.762,-23.926,-52.246,-33.691,0.000,0
161395.556,-32.227,-22.949,-18.066,-51.758,0.000,0
161395.560,-33.203,-23.926,-28.320,-38.086,0.000,0
161395.564,-41.504,-23.438,-42.969,-26.367,0.000,0
161395.568,-43.457,-20.508,-33.203,-24.902,0.000,0
161395.572,-40.039,-21.484,-17.578,-34.180,0.000,0
161395.576,-30.273,-20.508,-6.348,-40.527,0.000,0
161395.580,-25.879,-16.602,-38.086,-41.016,0.000,0
161395.584,-33.203,-18.555,-40.527,-46.387,0.000,0
161395.588,-25.391,-17.578,-28.320,-38.574,0.000,0
161395.592,-20.996,-24.902,-28.809,-35.645,0.000,0
161395.596,-34.180,-25.391,-16.602,-46.875,0.000,0
161395.599,-33.691,-18.066,-28.320,-30.273,0.000,0
161395.603,-25.391,-21.973,-31.738,-23.926,0.000,0
161395.607,-15.625,-22.461,-28.809,-31.250,0.000,0
161395.611,-20.996,-21.973,-30.273,-27.832,0.000,0
161395.615,-20.020,-25.879,-22.949,-36.621,0.000,0
161395.619,-9.766,-20.996,-13.184,-29.297,0.000,0
161395.623,-10.254,-20.020,-21.484,-19.531,0.000,0
161395.627,-11.719,-22.461,-45.410,-16.602,0.000,0
161395.631,-25.391,-21.973,-37.109,-16.602,0.000,0
161395.635,-7.812,-22.949,-5.371,-17.578,0.000,0
161395.638,0.000,-19.043,-19.531,-2.930,0.000,0
161395.642,-2.930,-13.672,-20.996,12.695,0.000,0
161395.646,1.953,-15.137,-4.883,-9.766,0.000,0
161395.650,0.977,-16.602,-19.043,-36.621,0.000,0
161395.654,-11.230,-19.531,-12.695,-41.992,0.000,0
161395.658,-14.160,-23.926,-9.277,-44.922,0.000,0
161395.662,-13.672,-23.926,-8.301,-32.715,0.000,0
161395.666,-21.484,-26.367,-9.277,-30.762,0.000,0
161395.670,-20.508,-26.855,-21.973,-40.527,0.000,0
161395.674,-23.438,-22.461,-1.953,-46.875,0.000,0
161395.678,-28.809,-26.367,-10.254,-47.852,0.000,0
161395.681,-24.414,-27.832,-27.344,-45.898,0.000,0
161395.685,-15.137,-26.855,-23.438,-41.016,0.000,0
161395.689,-20.508,-29.785,-29.297,-49.805,0.000,0
161395.693,-31.250,-26.367,-9.766,-62.988,0.000,0
161395.697,-34.180,-27.832,-21.484,-65.918,0.000,0
161395.701,-24.414,-32.227,-41.504,-48.828,0.000,0
161395.705,-27.344,-27.832,-24.902,-34.668,0.000,0
161395.709,-41.992,-26.855,-15.625,-41.504,0.000,0
161395.713,-36.133,-32.715,-27.344,-56.152,0.000,0
161395.717,-24.414,-31.250,-34.180,-55.176,0.000,0
161395.721,-22.461,-30.273,-27.832,-41.992,0.000,0
161395.724,-29.297,-28.320,-6.348,-35.645,0.000,0
161395.728,-20.508,-22.949,-23.926,-17.090,0.000,0
161395.732,-7.812,-30.273,-24.414,-19.043,0.000,0
161395.736,-38.086,-34.180,-23.926,-47.852,0.000,0
161395.740,-48.340,-26.367,-36.621,-45.898,0.000,0
161395.744,-32.227,-29.297,-27.832,-35.156,0.000,0
161395.748,-31.250,-28.320,-17.090,-43.945,0.000,0
161395.752,-27.832,-23.438,-12.695,-44.434,0.000,0
161395.756,-33.203,-21.484,-20.020,-50.293,0.000,0
161395.760,-45.898,-25.391,-37.109,-57.129,0.000,0
161395.763,-37.598,-29.785,-52.246,-44.434,0.000,0
161395.767,-29.785,-27.832,-31.738,-29.785,0.000,0
161395.771,-28.809,-23.438,0.488,-31.738,0.000,0
161395.775,-19.043,-21.973,-11.230,-26.855,0.000,0
161395.779,-16.113,-27.344,-26.855,-19.531,0.000,0
161395.783,-21.973,-22.949,-12.695,-35.645,0.000,0
161395.787,-18.066,-25.879,-12.695,-34.180,0.000,0
161395.791,-28.320,-27.344,-14.648,-32.715,0.000,0
161395.795,-29.297,-17.578,-1.465,-43.945,0.000,0
161395.799,-17.578,-12.207,2.441,-31.738,0.000,0
161395.803,-29.297,-19.531,-4.395,-16.602,0.000,0
161395.806,-30.762,-19.531,-25.879,-18.066,0.000,0
161395.810,-30.762,-15.137,-19.043,-11.719,0.000,0
161395.814,-38.574,-17.090,8.789,-29.297,0.000,0
161395.818,-31.250,-19.531,-3.418,-38.574,0.000,0
161395.822,-31.250,-22.949,-12.207,-31.250,0.000,0
161395.826,-35.645,-22.461,-10.254,-36.621,0.000,0
161395.830,-32.227,-16.113,-9.766,-40.039,0.000,0
161395.834,-32.227,-20.020,-9.277,-43.945,0.000,0
161395.838,-30.762,-22.461,-15.137,-38.086,0.000,0
161395.842,-14.648,-21.973,-12.695,-35.156,0.000,0
161395.846,-12.695,-22.949,-16.602,-38.086,0.000,0
161395.849,-21.973,-20.508,-15.137,-39.062,0.000,0
161395.853,-25.391,-26.855,-8.789,-46.387,0.000,0
161395.857,-29.785,-30.762,-11.719,-37.598,0.000,0
161395.861,-25.879,-26.367,-11.230,-29.297,0.000,0
161395.865,-14.160,-26.855,-31.738,-24.902,0.000,0
161395.869,-25.391,-22.949,-24.414,-28.320,0.000,0
161395.873,-20.508,-23.438,-2.930,-34.668,0.000,0
161395.877,-18.555,-23.438,-19.531,-25.879,0.000,0
161395.881,-20.508,-26.367,-30.762,-17.578,0.000,0
161395.885,-15.625,-26.367,-23.438,-20.996,0.000,0
161395.888,-26.367,-19.043,-5.859,-22.461,0.000,0
161395.892,-26.855,-22.949,-5.859,-28.809,0.000,0
161395.896,-25.391,-24.414,-23.438,-33.691,0.000,0
161395.900,-29.297,-24.414,-20.508,-32.227,0.000,0
161395.904,-31.738,-20.020,-12.695,-17.578,0.000,0
161395.908,-23.926,-20.020,-20.020,-19.043,0.000,0
161395.912,-18.066,-24.414,-18.555,-34.180,0.000,0
161395.916,-24.414,-19.531,-24.414,-31.738,0.000,0
161395.920,-25.879,-22.461,-25.391,-28.809,0.000,0
161395.924,-27.832,-25.391,-20.020,-28.320,0.000,0
161395.928,-36.621,-27.344,-18.555,-39.551,0.000,0
161395.931,-23.438,-30.273,-12.695,-47.363,0.000,0
161395.935,-19.043,-25.391,-14.648,-34.180,0.000,0
161395.939,-30.273,-21.484,-17.578,-18.066,0.000,0
161395.943,-26.855,-18.066,-20.996,-19.043,0.000,0
161395.947,-25.879,-21.484,-13.184,-29.297,0.000,0
161395.951,-28.809,-14.160,-10.742,-34.668,0.000,0
161395.955,-19.043,-13.672,-40.527,-28.320,0.000,0
161395.959,-13.672,-17.090,-20.996,-34.180,0.000,0
161395.963,-24.902,-13.184,-13.184,-36.621,0.000,0
161395.967,-20.508,-16.113,-12.695,-41.016,0.000,0
161395.971,-12.695,-15.625,0.000,-39.062,0.000,0
161395.974,-19.531,-18.066,-11.719,-35.645,0.000,0
161395.978,-24.414,-19.043,-23.926,-40.527,0.000,0
161395.982,-23.926,-20.020,-26.367,-34.668,0.000,0
161395.986,-19.531,-18.066,-11.719,-31.250,0.000,0
161395.990,-24.902,-18.066,-0.977,-46.387,0.000,0
161395.994,-36.621,-23.438,-16.602,-44.922,0.000,0
161395.998,-32.715,-25.391,-30.273,-38.574,0.000,0
161396.002,-19.043,-22.949,-28.809,-34.668,0.000,0
161396.006,-17.090,-23.438,-14.648,-27.832,0.000,0
161396.010,-26.855,-29.785,-15.625,-46.875,0.000,0
161396.013,-26.855,-28.320,-33.203,-38.086,0.000,0
161396.017,-7.324,-21.973,-28.320,-24.414,0.000,0
161396.021,-15.625,-22.461,-30.762,-31.250,0.000,0
161396.025,-37.598,-28.320,-28.320,-42.480,0.000,0
161396.029,-41.016,-26.367,-17.090,-44.434,0.000,0
161396.033,-37.109,-26.367,-31.250,-7.324,0.000,0
161396.037,-37.109,-29.297,-22.949,-11.230,0.000,0
161396.041,-36.621,-22.949,-25.879,-42.480,0.000,0
161396.045,-20.020,-20.020,-41.504,-41.016,0.000,0
161396.049,-14.648,-20.996,-25.879,-45.898,0.000,0
161396.053,-24.902,-21.973,-32.227,-34.180,0.000,0
161396.056,-23.926,-23.926,-43.457,-21.973,0.000,0
161396.060,-23.926,-20.996,-30.273,-30.762,0.000,0
161396.064,-30.273,-17.090,-17.578,-31.250,0.000,0
161396.068,-24.902,-21.973,-22.461,-34.668,0.000,0
161396.072,-20.996,-27.344,-37.109,-42.969,0.000,0
161396.076,-19.531,-24.414,-37.109,-36.621,0.000,0
161396.080,-19.043,-22.949,-29.297,-25.879,0.000,0
161396.084,-19.531,-25.391,-25.879,-20.508,0.000,0
161396.088,-23.926,-27.344,-12.207,-36.133,0.000,0
161396.092,-31.738,-26.367,-24.902,-40.039,0.000,0
161396.096,-37.598,-27.832,-33.203,-24.902,0.000,0
161396.099,-37.109,-31.738,-16.113,-38.574,0.000,0
161396.103,-35.645,-33.203,-26.367,-54.688,0.000,0
161396.107,-29.297,-31.250,-22.949,-52.734,0.000,0
161396.111,-28.320,-29.297,-19.043,-47.852,0.000,0
161396.115,-32.715,-25.879,-18.066,-38.086,0.000,0
161396.119,-25.879,-20.996,-19.531,-24.902,0.000,0
161396.123,-23.438,-20.996,-16.113,-27.344,0.000,0
161396.127,-35.645,-23.438,-9.277,-53.711,0.000,0
161396.131,-40.039,-20.996,-14.648,-26.855,0.000,0
161396.135,-25.879,-21.484,-30.762,-6.836,0.000,0
161396.138,-31.738,-24.414,-25.391,-26.855,0.000,0
161396.142,-43.945,-24.902,-7.324,-38.086,0.000,0
161396.146,-43.457,-30.273,-14.648,-45.898,0.000,0
161396.150,-46.875,-30.273,-18.066,-49.805,0.000,0
161396.154,-45.898,-27.832,-23.926,-41.504,0.000,0
161396.158,-39.551,-28.320,-24.414,-28.809,0.000,0
161396.162,-35.156,-27.832,-12.207,-32.715,0.000,0
161396.166,-34.180,-20.996,-4.395,-37.109,0.000,0
161396.170,-28.809,-20.020,-13.184,-29.297,0.000,0
161396.174,-17.090,-24.414,-9.766,-18.555,0.000,0
161396.178,-20.020,-23.438,-13.672,-29.785,0.000,0
161396.181,-22.949,-26.367,-31.738,-36.133,0.000,0
161396.185,-17.578,-24.902,-12.207,-35.645,0.000,0
161396.189,-22.461,-21.973,0.488,-41.016,0.000,0
161396.193,-19.043,-23.926,-25.391,-30.762,0.000,0
161396.197,-13.672,-23.438,-28.809,-31.738,0.000,0
161396.201,-9.277,-24.902,-19.531,-33.691,0.000,0
161396.205,-15.137,-28.809,-12.695,-41.992,0.000,0
161396.209,-20.996,-27.832,-22.461,-48.340,0.000,0
161396.213,-20.020,-28.809,-35.645,-42.480,0.000,0
161396.217,-21.973,-28.809,-30.273,-39.062,0.000,0
161396.221,-15.625,-24.414,-14.648,-28.320,0.000,0
161396.224,-16.113,-19.043,-9.766,-34.180,0.000,0
161396.228,-23.926,-16.602,-15.625,-32.227,0.000,0
161396.232,-19.531,-20.508,-15.137,-26.367,0.000,0
161396.236,-12.207,-21.973,-27.344,-28.320,0.000,0
161396.240,-19.043,-20.996,-22.461,-23.926,0.000,0
161396.244,-31.250,-22.949,-5.371,-33.691,0.000,0
161396.248,-24.414,-24.902,-14.648,-42.969,0.000,0
161396.252,-16.113,-28.320,-20.020,-34.180,0.000,0
161396.256,-20.020,-28.320,-21.484,-20.020,0.000,0
161396.260,-15.625,-28.809,-14.160,-23.438,0.000,0
161396.263,0.000,-24.414,9.766,-30.762,0.000,0
161396.267,-10.742,-21.973,-6.836,-22.461,0.000,0
161396.271,-22.461,-23.926,-22.949,-20.508,0.000,0
161396.275,-20.020,-22.949,-19.043,-20.508,0.000,0
161396.279,-15.625,-20.508,-23.438,-20.020,0.000,0
161396.283,-8.789,-17.578,-10.742,-40.039,0.000,0
161396.287,-0.488,-15.625,-11.719,-43.945,0.000,0
161396.291,-3.906,-18.555,-6.348,-31.250,0.000,0
161396.295,-9.277,-19.043,-20.508,-20.996,0.000,0
161396.299,-6.836,-16.602,-20.020,-30.762,0.000,0
161396.303,-16.113,-17.578,4.395,-41.016,0.000,0
161396.306,-12.695,-18.066,-14.160,-32.715,0.000,0
161396.310,-6.836,-17.578,-21.484,-33.203,0.000,0
161396.314,-12.207,-16.113,-11.719,-27.344,0.000,0
161396.318,-12.207,-17.090,-8.789,-15.625,0.000,0
161396.322,-21.484,-14.648,5.859,-25.879,0.000,0
161396.326,-33.203,-18.066,-21.973,-30.273,0.000,0
161396.330,-21.484,-22.949,-41.504,-17.578,0.000,0
161396.334,-13.184,-18.555,-16.602,-17.090,0.000,0
161396.338,-10.254,-15.625,-5.371,-19.043,0.000,0
161396.342,-5.371,-12.207,0.488,-23.926,0.000,0
161396.346,-7.812,-14.160,-6.836,-21.973,0.000,0
161396.349,-12.695,-17.578,-9.766,-23.926,0.000,0
161396.353,-17.090,-15.625,-14.160,-26.855,0.000,0
161396.357,-13.184,-18.555,-25.391,-15.137,0.000,0
161396.361,-9.277,-17.578,-6.836,-20.508,0.000,0
161396.365,-21.484,-14.160,6.836,-26.855,0.000,0
161396.369,-20.996,-18.555,-7.812,-21.973,0.000,0
161396.373,-2.930,-20.508,-37.109,-10.742,0.000,0
161396.377,-3.906,-22.461,-37.598,7.324,0.000,0
161396.381,-20.508,-19.531,4.883,-11.719,0.000,0
161396.385,-27.344,-15.625,-5.371,-42.969,0.000,0
161396.388,-21.484,-19.043,-36.133,-32.715,0.000,0
161396.392,-17.090,-20.996,-29.785,-30.762,0.000,0
161396.396,-3.906,-17.090,-21.973,-25.879,0.000,0
161396.400,-3.906,-17.090,-8.301,-24.414,0.000,0
161396.404,-20.020,-25.879,-10.742,-31.250,0.000,0
161396.408,-15.625,-15.625,-21.484,-25.391,0.000,0
161396.412,-15.137,-10.742,-16.113,-25.879,0.000,0
161396.416,-15.625,-16.113,-24.902,-26.855,0.000,0
161396.420,-14.160,-19.531,-19.531,-32.715,0.000,0
161396.424,-17.578,-19.531,1.465,-44.434,0.000,0
161396.428,-22.461,-15.137,-1.953,-37.598,0.000,0
161396.431,-13.184,-14.160,-19.531,-20.020,0.000,0
161396.435,-6.348,-17.090,-22.461,-27.344,0.000,0
161396.439,-19.043,-18.555,-7.812,-44.434,0.000,0
161396.443,-25.879,-18.555,-10.742,-42.969,0.000,0
161396.447,-25.391,-20.020,-35.156,-38.086,0.000,0
161396.451,-26.367,-19.043,-30.273,-38.574,0.000,0
161396.455,-24.414,-14.160,-1.953,-35.645,0.000,0
161396.459,-22.949,-18.066,-4.883,-40.527,0.000,0
161396.463,-30.273,-20.020,-24.902,-48.828,0.000,0
161396.467,-26.367,-20.996,-30.273,-46.875,0.000,0
161396.471,-23.926,-23.438,0.488,-40.039,0.000,0
161396.474,-26.367,-26.367,-22.461,-40.527,0.000,0
161396.478,-20.508,-25.879,-36.133,-40.039,0.000,0
161396.482,-25.879,-29.297,-19.043,-29.297,0.000,0
161396.486,-18.555,-29.785,-31.250,-31.250,0.000,0
161396.490,-15.137,-31.250,-32.227,-40.039,0.000,0
161396.494,-22.461,-33.203,-33.691,-41.016,0.000,0
161396.498,-11.230,-32.227,-26.367,-40.527,0.000,0
161396.502,-14.160,-29.785,-14.648,-39.062,0.000,0
161396.506,-21.973,-26.855,-24.902,-28.320,0.000,0
161396.510,-21.484,-28.320,-48.340,-21.484,0.000,0
161396.513,-36.133,-33.203,-46.875,-13.184,0.000,0
161396.517,-35.645,-27.832,-12.695,-18.555,0.000,0
161396.521,-21.484,-22.949,-16.113,-39.551,0.000,0
161396.525,-20.020,-25.879,-32.227,-40.527,0.000,0
161396.529,-13.672,-22.949,-20.996,-38.574,0.000,0
161396.533,-3.418,-20.020,-22.949,-29.785,0.000,0
161396.537,-21.973,-23.438,-30.762,-22.461,0.000,0
161396.541,-31.250,-22.949,-20.996,-28.320,0.000,0
161396.545,-27.832,-20.508,-20.508,-28.809,0.000,0
161396.549,-30.762,-23.438,-26.855,-31.250,0.000,0
161396.553,-35.645,-28.320,-32.227,-36.621,0.000,0
161396.556,-33.691,-31.250,-32.227,-37.109,0.000,0
161396.560,-37.598,-30.273,-8.301,-41.504,0.000,0
161396.564,-40.039,-33.691,-20.508,-40.527,0.000,0
161396.568,-27.832,-31.738,-31.250,-32.227,0.000,0
161396.572,-30.762,-25.879,-15.625,-28.809,0.000,0
161396.576,-31.738,-26.855,-23.926,-28.809,0.000,0
161396.580,-33.203,-31.250,-34.668,-25.391,0.000,0
161396.584,-36.133,-33.203,-36.133,-16.602,0.000,0
161396.588,-21.973,-36.133,-31.250,-15.625,0.000,0
161396.592,-20.996,-33.691,-16.602,-20.020,0.000,0
161396.596,-22.949,-28.320,-15.625,-22.949,0.000,0
161396.599,-19.531,-30.273,-6.348,-25.879,0.000,0
161396.603,-22.949,-27.344,-11.719,-35.156,0.000,0
161396.607,-29.297,-24.902,-18.555,-35.156,0.000,0
161396.611,-26.367,-25.391,-35.156,-26.367,0.000,0
161396.615,-23.926,-24.414,-38.086,-30.762,0.000,0
161396.619,-25.879,-18.555,-13.672,-42.480,0.000,0
161396.623,-37.109,-15.625,-18.066,-28.809,0.000,0
161396.627,-30.762,-22.461,-45.410,-26.855,0.000,0
161396.631,-26.367,-23.926,-34.180,-30.762,0.000,0
161396.635,-26.367,-20.996,-4.395,-34.668,0.000,0
161396.638,-18.555,-21.973,0.488,-54.688,0.000,0
161396.642,-22.949,-18.555,-13.184,-53.711,0.000,0
161396.646,-26.855,-14.160,-9.277,-26.855,0.000,0
161396.650,-29.297,-17.578,-8.301,-10.254,0.000,0
161396.654,-32.227,-19.043,-20.996,-24.902,0.000,0
161396.658,-29.297,-18.066,-13.184,-44.434,0.000,0
161396.662,-41.016,-20.020,-21.484,-37.598,0.000,0
161396.666,-42.480,-20.508,-25.879,-35.156,0.000,0
161396.670,-30.273,-18.066,-19.531,-48.340,0.000,0
161396.674,-28.320,-21.484,-19.531,-41.016,0.000,0
161396.678,-27.832,-17.090,-13.184,-36.133,0.000,0
161396.681,-26.855,-13.184,-20.508,-46.875,0.000,0
161396.685,-37.109,-18.066,-39.062,-49.805,0.000,0
161396.689,-37.598,-19.531,-36.133,-44.922,0.000,0
161396.693,-33.691,-15.625,-12.207,-45.410,0.000,0
161396.697,-31.250,-14.648,9.766,-47.852,0.000,0
161396.701,-30.273,-18.555,-16.113,-47.852,0.000,0
161396.705,-33.691,-16.113,-25.879,-38.086,0.000,0
161396.709,-41.504,-16.602,-20.020,-47.852,0.000,0
161396.713,-44.922,-22.949,-39.062,-46.387,0.000,0
161396.717,-48.340,-23.926,-25.391,-46.875,0.000,0
161396.721,-48.828,-23.438,-19.043,-59.082,0.000,0
161396.724,-47.363,-29.297,-35.156,-36.133,0.000,0
161396.728,-57.129,-35.156,-45.898,-36.133,0.000,0
161396.732,-52.246,-33.203,-40.039,-47.852,0.000,0
161396.736,-47.363,-30.273,-18.066,-38.086,0.000,0
161396.740,-49.805,-27.832,-15.625,-36.133,0.000,0
161396.744,-47.363,-22.949,-30.762,-50.781,0.000,0
161396.748,-39.551,-20.020,-32.227,-47.852,0.000,0
161396.752,-26.367,-18.066,-35.156,-37.109,0.000,0
161396.756,-20.996,-20.996,-3.418,-32.715,0.000,0
161396.760,-18.066,-20.996,-10.742,-30.762,0.000,0
161396.763,-23.926,-18.066,-34.668,-34.668,0.000,0
161396.767,-31.250,-23.926,-24.414,-34.668,0.000,0
161396.771,-21.973,-20.020,-24.902,-32.715,0.000,0
161396.775,-18.555,-18.066,-26.367,-38.574,0.000,0
161396.779,-22.461,-24.902,-15.137,-45.410,0.000,0
161396.783,-17.090,-20.020,-19.043,-34.668,0.000,0
161396.787,-29.785,-20.508,-28.320,-21.484,0.000,0
161396.791,-28.809,-22.461,-47.852,-22.461,0.000,0
161396.795,-12.695,-20.508,-38.086,-25.879,0.000,0
161396.799,-17.578,-20.996,-10.742,-37.109,0.000,0
161396.803,-31.738,-19.531,-15.137,-39.551,0.000,0
161396.806,-22.949,-25.879,-33.691,-35.645,0.000,0
161396.810,-19.043,-24.414,-29.785,-39.551,0.000,0
161396.814,-24.414,-18.555,-14.648,-25.391,0.000,0
161396.818,-24.414,-22.461,-16.113,-34.668,0.000,0
161396.822,-19.043,-26.367,-25.391,-48.828,0.000,0
161396.826,-24.414,-30.762,-36.621,-34.668,0.000,0
161396.830,-23.926,-21.484,-24.902,-29.785,0.000,0
161396.834,-17.578,-15.137,-12.695,-27.344,0.000,0
161396.838,-11.719,-19.043,-19.531,-24.414,0.000,0
161396.842,-0.977,-8.789,-27.344,-20.508,0.000,0
161396.846,-8.301,-4.395,-5.859,-23.438,0.000,0
161396.849,-5.859,-4.395,-8.789,-16.113,0.000,0
161396.853,1.953,-7.812,-18.555,-8.789,0.000,0
161396.857,-1.953,-13.184,-11.230,-14.160,0.000,0
161396.861,-4.883,-8.301,-19.531,-8.301,0.000,0
161396.865,-7.812,-11.719,-26.367,-20.508,0.000,0
161396.869,-6.836,-20.996,-22.461,-19.043,0.000,0
161396.873,-12.695,-23.438,-16.602,-15.137,0.000,0
161396.877,-27.832,-18.066,-21.484,-38.574,0.000,0
161396.881,-29.785,-17.578,-25.879,-37.109,0.000,0
161396.885,-23.438,-26.855,-20.020,-31.250,0.000,0
161396.888,-17.578,-21.484,-24.902,-20.020,0.000,0
161396.892,-17.578,-16.602,-22.949,-19.531,0.000,0
161396.896,-11.719,-24.414,-27.832,-27.832,0.000,0
161396.900,-13.672,-21.484,-37.109,-27.344,0.000,0
161396.904,-26.855,-21.973,-35.156,-29.785,0.000,0
161396.908,-24.902,-25.879,-40.527,-26.367,0.000,0
161396.912,-16.602,-17.578,-30.273,-34.180,0.000,0
161396.916,-16.113,-19.043,-10.254,-45.898,0.000,0
161396.920,-7.812,-20.996,-12.695,-36.621,0.000,0
161396.924,11.719,-19.043,-20.996,-5.371,0.000,0
161396.928,-11.230,-19.531,-37.109,3.418,0.000,0
161396.931,-39.062,-18.066,-38.574,-44.434,0.000,0
161396.935,-25.879,-9.766,3.906,-50.781,0.000,0
161396.939,-20.508,-6.348,-14.160,-26.855,0.000,0
161396.943,-30.762,-16.113,-47.852,-36.621,0.000,0
161396.947,-29.297,-17.090,-27.832,-37.598,0.000,0
161396.951,-44.434,-15.137,-21.973,-42.480,0.000,0
161396.955,-47.363,-17.578,-24.902,-61.523,0.000,0
161396.959,-26.855,-16.113,-33.203,-48.828,0.000,0
161396.963,-20.508,-12.695,-34.668,-28.809,0.000,0
161396.967,-24.902,-15.625,-32.715,-16.602,0.000,0
161396.971,-20.996,-24.414,-37.598,-18.066,0.000,0
161396.974,-14.648,-20.996,-22.461,-35.156,0.000,0
161396.978,-25.391,-18.555,-25.879,-33.691,0.000,0
161396.982,-20.996,-19.043,-25.391,-25.879,0.000,0
161396.986,-8.789,-17.090,-23.438,-31.738,0.000,0
161396.990,-21.484,-20.508,-35.156,-32.715,0.000,0
161396.994,-21.484,-26.855,-20.996,-34.180,0.000,0
161396.998,-10.254,-18.066,-12.695,-13.184,0.000,0
161397.002,-11.230,-13.672,-22.949,-20.996,0.000,0
161397.006,-16.113,-21.484,-26.367,-25.391,0.000,0
161397.010,-20.996,-24.414,-23.438,-24.414,0.000,0
161397.013,-23.926,-26.367,-12.207,-45.898,0.000,0
161397.017,-10.254,-25.391,-19.043,-33.203,0.000,0
161397.021,-0.488,-23.926,-25.391,-21.484,0.000,0
161397.025,-18.555,-21.973,-15.625,-16.113,0.000,0
161397.029,-20.996,-22.949,-28.320,-9.277,0.000,0
161397.033,-5.859,-21.973,-21.973,-31.250,0.000,0
161397.037,-17.090,-20.996,-11.230,-36.621,0.000,0
161397.041,-28.320,-22.461,-30.273,-26.367,0.000,0
161397.045,-19.043,-16.602,-35.645,-24.902,0.000,0
161397.049,-8.789,-19.043,-27.344,-22.461,0.000,0
161397.053,-11.230,-18.555,-5.371,-31.738,0.000,0
161397.056,-12.207,-14.648,-7.324,-37.109,0.000,0
161397.060,-4.395,-15.625,-28.809,-40.039,0.000,0
161397.064,-16.113,-19.531,-23.926,-36.621,0.000,0
161397.068,-28.809,-22.461,-16.602,-16.602,0.000,0
161397.072,-29.785,-22.461,-5.371,-18.555,0.000,0
161397.076,-22.461,-24.902,-22.949,-34.180,0.000,0
161397.080,-6.836,-19.531,-35.645,-22.461,0.000,0
161397.084,-14.160,-12.207,-18.555,-21.484,0.000,0
161397.088,-20.020,-17.090,-9.766,-31.250,0.000,0
161397.092,-20.508,-22.949,-21.484,-29.785,0.000,0
161397.096,-20.996,-20.020,-21.973,-34.668,0.000,0
161397.099,-18.066,-19.043,-13.672,-34.668,0.000,0
161397.103,-20.508,-18.066,-23.926,-15.137,0.000,0
161397.107,-13.184,-8.789,-30.762,-2.441,0.000,0
161397.111,-4.883,-7.812,-27.832,-24.902,0.000,0
161397.115,-11.719,-10.254,-13.672,-30.762,0.000,0
161397.119,-19.531,-10.742,-20.020,-20.508,0.000,0
161397.123,-18.555,-15.625,-36.133,-19.043,0.000,0
161397.127,-18.555,-13.184,-27.832,-17.090,0.000,0
161397.131,-23.926,-12.695,-0.488,-24.414,0.000,0
161397.135,-33.691,-17.578,-14.160,-21.973,0.000,0
161397.138,-31.738,-13.672,-30.762,-21.973,0.000,0
161397.142,-30.762,-14.648,-30.273,-19.043,0.000,0
161397.146,-44.434,-19.043,-34.180,-12.207,0.000,0
161397.150,-39.062,-23.438,-26.855,-29.785,0.000,0
161397.154,-40.527,-29.297,-31.250,-35.156,0.000,0
161397.158,-49.805,-30.762,-45.410,-32.715,0.000,0
161397.162,-46.387,-29.785,-41.016,-37.109,0.000,0
161397.166,-48.340,-25.879,-43.457,-34.180,0.000,0
161397.170,-35.156,-24.414,-34.180,-30.273,0.000,0
161397.174,-26.855,-22.949,-10.254,-32.227,0.000,0
161397.178,-35.645,-17.578,-12.207,-36.133,0.000,0
161397.181,-30.762,-23.438,-34.668,-27.344,0.000,0
161397.185,-23.438,-28.809,-32.227,-25.879,0.000,0
161397.189,-25.879,-30.762,-15.625,-38.574,0.000,0
161397.193,-27.344,-31.250,-30.273,-41.016,0.000,0
161397.197,-32.227,-30.273,-50.293,-41.504,0.000,0
161397.201,-32.227,-29.785,-25.879,-38.086,0.000,0
161397.205,-22.949,-24.902,-13.184,-24.414,0.000,0
161397.209,-23.926,-17.578,-17.578,-22.461,0.000,0
161397.213,-22.461,-17.090,-11.230,-24.414,0.000,0
161397.217,-17.090,-19.043,-10.742,-32.715,0.000,0
161397.221,-8.301,-12.695,-26.367,-33.691,0.000,0
161397.224,-8.301,-13.672,-32.715,-37.598,0.000,0
161397.228,-17.578,-13.672,-14.648,-40.527,0.000,0
161397.232,-17.090,-13.672,-13.184,-32.715,0.000,0
161397.236,-20.996,-20.996,-20.020,-27.832,0.000,0
161397.240,-19.531,-18.066,-30.762,-16.602,0.000,0
161397.244,-19.531,-19.043,-23.438,-27.344,0.000,0
161397.248,-22.949,-18.066,-0.977,-43.945,0.000,0
161397.252,-25.391,-13.672,-14.648,-24.902,0.000,0
161397.256,-31.250,-17.578,-24.902,-22.461,0.000,0
161397.260,-22.949,-21.484,-15.137,-22.949,0.000,0
161397.263,-24.414,-17.578,1.465,-19.531,0.000,0
161397.267,-14.648,-13.184,2.441,-25.879,0.000,0
161397.271,-11.230,-14.648,-16.602,-20.020,0.000,0
161397.275,-18.066,-22.461,-23.438,-23.438,0.000,0
161397.279,-17.090,-25.879,-24.414,-32.227,0.000,0
161397.283,-11.230,-21.973,-17.578,-31.738,0.000,0
161397.287,-3.906,-18.066,1.465,-34.668,0.000,0
161397.291,-5.859,-18.555,-13.184,-24.902,0.000,0
161397.295,-9.277,-14.648,-24.414,-25.391,0.000,0
161397.299,-7.812,-19.043,-21.973,-29.297,0.000,0
161397.303,-7.324,-24.414,-19.043,-31.738,0.000,0
161397.306,-13.672,-25.391,-1.465,-45.898,0.000,0
161397.310,-16.602,-30.762,-19.043,-39.062,0.000,0
161397.314,-22.461,-34.180,-27.344,-34.180,0.000,0
161397.318,-23.438,-28.320,-22.949,-32.715,0.000,0
161397.322,-14.648,-20.996,-25.879,-28.809,0.000,0
161397.326,-0.977,-19.531,-5.859,-40.527,0.000,0
161397.330,-19.531,-26.855,-22.949,-36.621,0.000,0
161397.334,-32.227,-36.621,-44.434,-41.016,0.000,0
161397.338,-15.625,-34.180,-26.855,-43.945,0.000,0
161397.342,-16.602,-27.344,-30.273,-41.992,0.000,0
161397.346,-20.020,-32.715,-29.785,-56.152,0.000,0
161397.349,-29.297,-30.762,-26.855,-44.922,0.000,0
161397.353,-35.645,-22.949,-30.273,-34.180,0.000,0
161397.357,-21.484,-24.902,-46.387,-31.250,0.000,0
161397.361,-25.391,-25.391,-43.945,-28.809,0.000,0
161397.365,-40.527,-23.438,-14.648,-48.340,0.000,0
161397.369,-32.715,-22.949,-20.508,-44.922,0.000,0
161397.373,-22.949,-26.367,-37.598,-36.621,0.000,0
161397.377,-27.832,-26.855,-32.715,-34.668,0.000,0
161397.381,-25.879,-21.973,-27.832,-24.902,0.000,0
161397.385,-10.742,-17.090,-14.160,-27.344,0.000,0
161397.388,-22.949,-14.648,-19.531,-37.109,0.000,0
161397.392,-37.598,-19.043,-32.715,-33.203,0.000,0
161397.396,-35.156,-21.973,-28.320,-22.461,0.000,0
161397.400,-38.574,-17.090,-33.203,-38.574,0.000,0
161397.404,-36.133,-18.555,-29.785,-47.852,0.000,0
161397.408,-32.227,-18.066,-30.762,-45.898,0.000,0
161397.412,-42.969,-17.090,-11.230,-44.434,0.000,0
161397.416,-35.156,-24.414,-21.973,-45.410,0.000,0
161397.420,-29.785,-27.344,-45.898,-41.016,0.000,0
161397.424,-41.016,-20.996,-27.344,-41.504,0.000,0
161397.428,-44.922,-21.484,-20.020,-40.039,0.000,0
161397.431,-41.992,-25.879,-33.691,-33.691,0.000,0
161397.435,-30.273,-21.484,-36.133,-37.109,0.000,0
161397.439,-21.973,-18.555,-35.645,-44.434,0.000,0
161397.443,-23.438,-19.043,-28.320,-48.828,0.000,0
161397.447,-16.113,-14.648,-21.973,-39.062,0.000,0
161397.451,-18.066,-17.090,-27.832,-28.320,0.000,0
161397.455,-22.461,-20.508,-29.297,-33.203,0.000,0
161397.459,-22.949,-19.531,-29.297,-29.297,0.000,0
161397.463,-31.250,-15.137,-30.273,-27.832,0.000,0
161397.467,-21.484,-10.254,-18.066,-38.086,0.000,0
161397.471,-5.859,-16.113,-21.973,-17.578,0.000,0
161397.474,-4.883,-23.926,-33.203,-1.465,0.000,0
161397.478,-13.184,-20.508,-26.367,-33.203,0.000,0
161397.482,-30.273,-18.555,-14.648,-60.059,0.000,0
161397.486,-27.832,-17.578,-11.230,-61.523,0.000,0
161397.490,-21.973,-15.137,-19.043,-55.176,0.000,0
161397.494,-32.715,-20.508,-21.973,-52.734,0.000,0
161397.498,-29.297,-20.996,-32.227,-31.250,0.000,0
161397.502,-20.508,-25.879,-10.742,-29.297,0.000,0
161397.506,-10.742,-24.414,-12.695,-33.203,0.000,0
161397.510,-17.578,-25.391,-50.781,-29.297,0.000,0
161397.513,-19.043,-23.926,-40.039,-36.133,0.000,0
161397.517,-16.113,-19.043,-17.090,-36.621,0.000,0
161397.521,-19.531,-24.414,-21.484,-39.551,0.000,0
161397.525,-17.578,-21.484,-20.020,-40.039,0.000,0
161397.529,-20.508,-18.555,-16.602,-28.809,0.000,0
161397.533,-17.578,-20.508,-21.973,-24.414,0.000,0
161397.537,-20.020,-26.367,-26.367,-22.949,0.000,0
161397.541,-32.227,-34.668,-36.133,-35.645,0.000,0
161397.545,-30.762,-26.367,-17.578,-44.434,0.000,0
161397.549,-28.320,-19.531,-1.465,-33.691,0.000,0
161397.553,-27.832,-20.020,-23.926,-33.691,0.000,0
161397.556,-25.879,-24.414,-35.645,-37.109,0.000,0
161397.560,-26.855,-24.902,-27.344,-36.621,0.000,0
161397.564,-38.086,-20.020,-16.113,-43.945,0.000,0
161397.568,-40.527,-21.973,-29.785,-42.969,0.000,0
161397.572,-34.180,-22.949,-48.340,-34.180,0.000,0
161397.576,-35.156,-22.949,-31.250,-37.598,0.000,0
161397.580,-38.086,-24.414,-20.508,-43.945,0.000,0
161397.584,-33.203,-28.809,-22.949,-55.176,0.000,0
161397.588,-29.297,-22.949,-30.273,-53.223,0.000,0
161397.592,-30.762,-20.020,-21.484,-34.668,0.000,0
161397.596,-25.879,-24.414,-18.555,-30.273,0.000,0
161397.599,-19.531,-20.508,-42.969,-36.133,0.000,0
161397.603,-21.973,-17.090,-30.273,-47.852,0.000,0
161397.607,-23.438,-10.742,-23.926,-39.062,0.000,0
161397.611,-22.461,-11.230,-34.180,-26.367,0.000,0
161397.615,-18.555,-16.113,-27.832,-24.414,0.000,0
161397.619,-16.113,-20.508,-27.832,-26.855,0.000,0
161397.623,-10.254,-18.555,-7.324,-43.457,0.000,0
161397.627,-11.230,-16.113,-13.184,-35.156,0.000,0
161397.631,-19.043,-19.531,-27.344,-24.414,0.000,0
161397.635,-20.020,-20.020,-25.391,-22.461,0.000,0
161397.638,-22.461,-20.020,-22.461,-14.160,0.000,0
161397.642,-19.043,-23.438,-23.926,-23.438,0.000,0
161397.646,-17.578,-24.414,-35.156,-31.250,0.000,0
161397.650,-25.879,-22.461,-29.785,-20.508,0.000,0
161397.654,-23.926,-27.832,-26.855,-22.461,0.000,0
161397.658,-19.531,-26.855,-31.250,-31.250,0.000,0
161397.662,-16.602,-23.926,-14.160,-39.062,0.000,0
161397.666,-23.438,-23.926,-9.766,-42.969,0.000,0
161397.670,-33.203,-20.508,-27.344,-41.016,0.000,0
161397.674,-24.902,-17.578,-43.457,-24.414,0.000,0
161397.678,-21.973,-20.508,-32.715,-12.695,0.000,0
161397.681,-26.367,-19.531,0.977,-40.039,0.000,0
161397.685,-22.949,-16.113,-21.484,-43.457,0.000,0
161397.689,-21.484,-18.066,-50.293,-26.855,0.000,0
161397.693,-17.578,-22.461,-34.668,-34.668,0.000,0
161397.697,-12.207,-24.902,-10.254,-39.062,0.000,0
161397.701,-13.184,-22.461,-12.695,-35.156,0.000,0
161397.705,-14.648,-24.902,-43.457,-37.598,0.000,0
161397.709,-16.602,-27.832,-44.922,-32.227,0.000,0
161397.713,-17.090,-28.320,-26.855,-25.879,0.000,0
161397.717,-21.484,-22.461,-33.203,-30.273,0.000,0
161397.721,-27.344,-20.508,-27.344,-38.574,0.000,0
161397.724,-24.414,-23.926,-25.879,-37.109,0.000,0
161397.728,-24.414,-23.438,-27.832,-24.414,0.000,0
161397.732,-30.762,-28.320,-33.691,-18.555,0.000,0
161397.736,-29.785,-25.879,-45.898,-18.555,0.000,0
161397.740,-30.762,-25.391,-26.855,-28.809,0.000,0
161397.744,-33.691,-27.344,-25.391,-30.762,0.000,0
161397.748,-27.344,-24.414,-51.758,-30.762,0.000,0
161397.752,-11.230,-18.066,-41.504,-31.250,0.000,0
161397.756,-7.324,-14.648,-14.648,-13.184,0.000,0
161397.760,-10.254,-14.648,-10.254,-13.672,0.000,0
161397.763,-3.906,-17.578,-25.391,-28.809,0.000,0
161397.767,-10.254,-20.508,-30.273,-29.785,0.000,0
161397.771,-23.926,-18.555,-23.926,-25.391,0.000,0
161397.775,-23.926,-19.531,-42.480,-18.066,0.000,0
161397.779,-15.625,-23.926,-36.621,-27.832,0.000,0
161397.783,-12.207,-22.949,-19.531,-37.109,0.000,0
161397.787,-16.602,-14.648,-16.113,-28.320,0.000,0
161397.791,-18.066,-18.066,-26.367,-27.344,0.000,0
161397.795,-12.695,-21.484,-26.367,-30.273,0.000,0
161397.799,-13.672,-12.207,-9.277,-34.180,0.000,0
161397.803,-16.602,-11.230,-20.996,-35.156,0.000,0
161397.806,-18.555,-20.996,-41.504,-28.809,0.000,0
161397.810,-27.344,-23.438,-48.828,-25.879,0.000,0
161397.814,-22.461,-20.996,-28.320,-22.949,0.000,0
161397.818,-25.879,-22.949,-14.648,-29.785,0.000,0
161397.822,-23.438,-18.555,-42.969,-31.738,0.000,0
161397.826,-24.414,-18.555,-33.203,-42.969,0.000,0
161397.830,-27.832,-19.531,-14.160,-31.250,0.000,0
161397.834,-11.719,-20.508,-31.738,-31.250,0.000,0
161397.838,-13.184,-23.438,-34.180,-53.223,0.000,0
161397.842,-23.438,-22.949,-25.391,-47.852,0.000,0
161397.846,-11.719,-19.043,-28.320,-31.738,0.000,0
161397.849,-9.766,-19.043,-31.738,-23.438,0.000,0
161397.853,-14.160,-23.926,-26.855,-26.367,0.000,0
161397.857,-17.090,-19.531,-21.973,-16.602,0.000,0
161397.861,-23.438,-20.996,-34.668,-14.648,0.000,0
161397.865,-27.344,-25.879,-31.738,-30.762,0.000,0
161397.869,-31.738,-25.391,-23.438,-34.668,0.000,0
161397.873,-34.180,-29.297,-11.719,-37.109,0.000,0
161397.877,-31.250,-30.273,-19.531,-44.434,0.000,0
161397.881,-20.996,-28.809,-39.551,-28.320,0.000,0
161397.885,-29.785,-26.855,-37.598,-19.043,0.000,0
161397.888,-42.480,-26.855,-35.156,-34.668,0.000,0
161397.892,-45.410,-29.785,-31.738,-31.738,0.000,0
161397.896,-32.715,-28.809,-21.973,-34.180,0.000,0
161397.900,-30.762,-27.344,-29.785,-40.039,0.000,0
161397.904,-41.504,-28.320,-41.504,-36.621,0.000,0
161397.908,-43.945,-28.809,-44.434,-32.227,0.000,0
161397.912,-37.598,-23.438,-37.109,-21.973,0.000,0
161397.916,-31.738,-24.902,-15.625,-32.227,0.000,0
161397.920,-32.715,-28.320,-26.855,-24.902,0.000,0
161397.924,-27.832,-21.484,-45.410,-18.555,0.000,0
161397.928,-25.391,-17.578,-37.109,-19.531,0.000,0
161397.931,-21.973,-20.508,-21.973,-20.996,0.000,0
161397.935,-12.207,-20.508,-13.184,-46.875,0.000,0
161397.939,-11.230,-20.996,-26.367,-47.363,0.000,0
161397.943,-13.184,-30.273,-15.625,-38.086,0.000,0
161397.947,-17.578,-28.809,-23.438,-16.113,0.000,0
161397.951,-7.812,-28.320,-38.086,-17.578,0.000,0
161397.955,-9.277,-30.273,-15.137,-41.504,0.000,0
161397.959,-18.555,-24.414,-16.113,-21.484,0.000,0
161397.963,-2.930,-20.508,-9.277,-13.184,0.000,0
161397.967,-1.953,-18.066,-13.184,-24.414,0.000,0
161397.971,-16.113,-19.531,-23.438,-32.715,0.000,0
161397.974,-22.949,-24.902,-5.371,-35.645,0.000,0
161397.978,-26.855,-21.484,-12.695,-21.973,0.000,0
161397.982,-24.414,-16.113,-27.344,-18.066,0.000,0
161397.986,-22.461,-18.555,-36.133,-21.484,0.000,0
161397.990,-19.043,-20.996,-25.391,-23.438,0.000,0
161397.994,-23.438,-17.578,0.977,-40.039,0.000,0
161397.998,-26.855,-16.602,-15.137,-37.109,0.000,0
161398.002,-29.785,-27.344,-31.738,-34.668,0.000,0
161398.006,-30.762,-26.855,-30.762,-31.250,0.000,0
161398.010,-26.367,-23.438,-17.578,-27.344,0.000,0
161398.013,-23.926,-28.809,-17.578,-42.480,0.000,0
161398.017,-27.344,-29.297,-30.273,-43.945,0.000,0
161398.021,-32.227,-29.785,-36.621,-34.668,0.000,0
161398.025,-26.367,-25.879,-37.109,-28.320,0.000,0
161398.029,-14.160,-20.996,-29.785,-26.367,0.000,0
161398.033,-15.625,-21.973,-12.695,-33.203,0.000,0
161398.037,-23.438,-19.531,-17.090,-40.527,0.000,0
161398.041,-16.113,-21.973,-29.297,-28.320,0.000,0
161398.045,-8.301,-22.949,-27.832,-18.066,0.000,0
161398.049,-10.254,-19.043,-25.879,-16.113,0.000,0
161398.053,-14.648,-17.090,-6.348,-20.996,0.000,0
161398.056,-16.113,-20.996,-13.672,-29.785,0.000,0
161398.060,-17.578,-24.414,-41.504,-20.508,0.000,0
161398.064,-18.066,-25.391,-33.203,-20.020,0.000,0
161398.068,-22.461,-23.926,-17.578,-21.484,0.000,0
161398.072,-20.996,-20.020,-20.020,-27.344,0.000,0
161398.076,-16.113,-24.414,-23.438,-27.344,0.000,0
161398.080,-19.043,-20.508,-20.996,-18.066,0.000,0
161398.084,-6.836,-14.648,-16.602,-18.555,0.000,0
161398.088,-6.348,-19.043,-31.738,-13.672,0.000,0
161398.092,-19.043,-21.484,-23.438,-19.531,0.000,0
161398.096,-24.414,-24.414,-14.160,-25.879,0.000,0
161398.099,-25.391,-20.996,-21.973,-17.578,0.000,0
161398.103,-21.484,-25.879,-21.973,-24.902,0.000,0
161398.107,-11.719,-24.902,-39.062,-19.531,0.000,0
161398.111,-12.207,-16.602,-14.160,-12.695,0.000,0
161398.115,-12.207,-13.184,9.766,-20.996,0.000,0
161398.119,3.418,-6.836,-19.531,-23.926,0.000,0
161398.123,1.953,-8.789,-23.438,-17.090,0.000,0
161398.127,-7.812,-15.625,-17.578,-9.277,0.000,0
161398.131,-5.371,-21.973,-12.695,-18.555,0.000,0
161398.135,-6.348,-20.508,-19.531,-28.809,0.000,0
161398.138,-12.695,-17.090,-32.715,-23.438,0.000,0
161398.142,-18.066,-19.043,-18.555,-20.020,0.000,0
161398.146,-13.184,-15.625,-15.625,-13.672,0.000,0
161398.150,-19.531,-17.578,-29.785,-24.414,0.000,0
161398.154,-24.902,-20.020,-22.461,-28.809,0.000,0
161398.158,-22.949,-16.602,-9.766,-16.113,0.000,0
161398.162,-25.391,-16.113,-30.273,-12.207,0.000,0
161398.166,-18.555,-20.020,-46.875,-12.695,0.000,0
161398.170,-16.113,-16.602,-27.344,-17.578,0.000,0
161398.174,-19.531,-13.184,-16.113,-24.414,0.000,0
161398.178,-20.020,-18.066,-28.320,-15.137,0.000,0
161398.181,-19.043,-12.207,-23.438,-9.766,0.000,0
161398.185,-17.578,-8.301,-19.043,-13.672,0.000,0
161398.189,-28.809,-14.648,-26.367,-19.531,0.000,0
161398.193,-24.902,-21.484,-16.113,-32.715,0.000,0
161398.197,-13.672,-19.043,-21.484,-26.367,0.000,0
161398.201,-33.203,-16.113,-40.527,-19.043,0.000,0
161398.205,-39.062,-20.996,-19.043,-24.414,0.000,0
161398.209,-30.273,-25.879,-34.180,-12.695,0.000,0
161398.213,-33.691,-25.391,-36.621,-27.344,0.000,0
161398.217,-31.250,-26.367,-25.879,-24.902,0.000,0
161398.221,-24.902,-27.832,-33.691,-32.227,0.000,0
161398.224,-27.344,-25.391,-38.086,-31.250,0.000,0
161398.228,-14.648,-26.855,-32.227,-20.020,0.000,0
161398.232,-7.324,-24.414,-14.648,-23.926,0.000,0
161398.236,-15.137,-24.902,-30.273,-18.066,0.000,0
161398.240,-20.996,-22.461,-32.227,-22.949,0.000,0
161398.244,-22.949,-14.160,-35.645,-23.926,0.000,0
161398.248,-15.137,-14.160,-15.137,-27.344,0.000,0
161398.252,-15.625,-19.043,-7.812,-37.109,0.000,0
161398.256,-18.066,-22.461,-34.180,-31.250,0.000,0
161398.260,-18.066,-26.367,-25.391,-33.203,0.000,0
161398.263,-18.066,-28.809,-27.344,-29.297,0.000,0
161398.267,-22.949,-25.391,-30.762,-31.250,0.000,0
161398.271,-23.438,-24.414,-16.113,-45.898,0.000,0
161398.275,-17.090,-24.902,-25.879,-24.902,0.000,0
161398.279,-27.344,-21.484,-38.574,-15.625,0.000,0
161398.283,-34.668,-20.996,-41.504,-31.738,0.000,0
161398.287,-28.809,-27.344,-44.434,-34.180,0.000,0
161398.291,-26.367,-25.879,-23.438,-36.133,0.000,0
161398.295,-14.648,-23.438,-19.531,-15.137,0.000,0
161398.299,-8.301,-18.555,-32.227,-14.160,0.000,0
161398.303,-33.691,-18.555,-43.457,-41.992,0.000,0
161398.306,-40.527,-25.391,-32.227,-48.340,0.000,0
161398.310,-27.832,-24.414,-18.066,-38.086,0.000,0
161398.314,-22.461,-26.367,-42.969,-17.578,0.000,0
161398.318,-25.879,-29.785,-43.457,-23.438,0.000,0
161398.322,-25.879,-22.949,-19.531,-37.598,0.000,0
161398.326,-31.250,-15.137,-16.113,-30.762,0.000,0
161398.330,-31.250,-16.113,-17.090,-39.551,0.000,0
161398.334,-31.250,-17.090,-22.949,-43.457,0.000,0
161398.338,-33.203,-17.578,-25.391,-34.180,0.000,0
161398.342,-28.809,-21.973,-38.086,-29.785,0.000,0
161398.346,-41.016,-23.926,-41.992,-35.156,0.000,0
161398.349,-46.875,-25.391,-18.066,-48.340,0.000,0
161398.353,-33.691,-30.273,-34.668,-44.434,0.000,0
161398.357,-25.391,-28.809,-44.922,-29.785,0.000,0
161398.361,-22.949,-25.391,-27.832,-21.973,0.000,0
161398.365,-22.461,-27.832,-26.367,-25.391,0.000,0
161398.369,-34.180,-32.715,-17.090,-44.434,0.000,0
161398.373,-32.715,-34.180,-22.949,-51.270,0.000,0
161398.377,-25.879,-36.133,-38.574,-34.668,0.000,0
161398.381,-28.809,-35.156,-10.254,-39.062,0.000,0
161398.385,-16.113,-24.902,-11.719,-33.203,0.000,0
161398.388,-9.766,-20.020,-35.156,-21.973,0.000,0
161398.392,-7.324,-20.508,-25.879,-22.461,0.000,0
161398.396,-8.301,-19.531,-24.414,-18.066,0.000,0
161398.400,-14.160,-17.578,-36.133,-0.488,0.000,0
161398.404,-19.531,-27.344,-28.320,-7.324,0.000,0
161398.408,-30.273,-31.738,-16.113,-30.762,0.000,0
161398.412,-38.574,-31.250,-46.387,-29.297,0.000,0
161398.416,-31.250,-32.227,-51.270,-35.645,0.000,0
161398.420,-24.414,-31.250,-35.645,-40.527,0.000,0
161398.424,-22.461,-30.273,-6.836,-43.457,0.000,0
161398.428,-16.113,-29.297,-2.441,-46.875,0.000,0
161398.431,-11.230,-22.461,-21.973,-46.387,0.000,0
161398.435,-18.555,-25.879,-36.133,-41.992,0.000,0
161398.439,-31.738,-29.297,-20.508,-23.438,0.000,0
161398.443,-34.180,-23.438,-16.113,-30.762,0.000,0
161398.447,-35.645,-25.391,-27.344,-39.062,0.000,0
161398.451,-43.457,-26.855,-46.875,-27.344,0.000,0
161398.455,-33.203,-26.855,-38.086,-35.156,0.000,0
161398.459,-21.973,-25.879,-28.809,-42.480,0.000,0
161398.463,-27.344,-20.996,-42.969,-46.875,0.000,0
161398.467,-31.250,-23.438,-41.992,-42.480,0.000,0
161398.471,-33.203,-23.926,-33.691,-25.879,0.000,0
161398.474,-16.602,-20.020,-23.926,-15.625,0.000,0
161398.478,-15.137,-25.879,-41.992,-29.297,0.000,0
161398.482,-35.645,-25.391,-44.434,-36.621,0.000,0
161398.486,-38.574,-21.973,-15.137,-33.691,0.000,0
161398.490,-32.715,-24.414,-37.598,-33.691,0.000,0
161398.494,-20.020,-28.320,-44.434,-37.109,0.000,0
161398.498,-17.090,-26.855,-32.715,-35.156,0.000,0
161398.502,-33.691,-28.320,-38.086,-31.250,0.000,0
161398.506,-35.645,-29.297,-32.715,-40.039,0.000,0
161398.510,-30.273,-27.344,-26.855,-43.457,0.000,0
161398.513,-21.973,-22.949,-32.715,-23.926,0.000,0
161398.517,-19.531,-19.043,-41.016,-7.324,0.000,0
161398.521,-32.227,-24.902,-29.297,-21.484,0.000,0
161398.525,-29.785,-30.273,-19.043,-45.410,0.000,0
161398.529,-24.902,-30.273,-19.043,-39.551,0.000,0
161398.533,-26.367,-27.344,-29.297,-32.715,0.000,0
161398.537,-24.902,-30.762,-33.203,-31.738,0.000,0
161398.541,-27.832,-28.320,-21.973,-29.785,0.000,0
161398.545,-25.391,-30.273,-16.113,-30.273,0.000,0
161398.549,-18.555,-30.762,-32.227,-24.414,0.000,0
161398.553,-10.742,-25.879,-35.645,-23.438,0.000,0
161398.556,-15.625,-25.879,-30.273,-19.043,0.000,0
161398.560,-20.996,-27.832,-21.484,-29.297,0.000,0
161398.564,-11.230,-21.484,-8.301,-36.621,0.000,0
161398.568,-8.301,-16.602,-20.508,-27.832,0.000,0
161398.572,-16.602,-22.949,-17.090,-39.551,0.000,0
161398.576,-20.996,-25.879,-11.230,-25.879,0.000,0
161398.580,-14.160,-28.320,-27.344,-18.555,0.000,0
161398.584,-15.625,-21.973,-15.137,-26.367,0.000,0
161398.588,-13.672,-17.090,-11.719,-6.348,0.000,0
161398.592,-9.766,-19.043,-18.555,-19.043,0.000,0
161398.596,-11.719,-18.066,-21.484,-40.039,0.000,0
161398.599,-17.578,-21.484,-21.973,-28.809,0.000,0
161398.603,-7.324,-22.949,-1.465,-36.133,0.000,0
161398.607,-5.859,-17.578,-13.184,-37.598,0.000,0
161398.611,-14.160,-16.602,-22.949,-35.156,0.000,0
161398.615,-15.137,-15.137,-25.879,-28.809,0.000,0
161398.619,-20.508,-11.230,-25.879,-21.973,0.000,0
161398.623,-19.531,-14.160,-6.348,-24.902,0.000,0
161398.627,-12.695,-16.602,-26.855,-19.531,0.000,0
161398.631,-11.230,-16.113,-50.293,-31.250,0.000,0
161398.635,-15.137,-15.137,-34.668,-32.715,0.000,0
161398.638,-10.254,-18.066,-17.578,-26.855,0.000,0
161398.642,-5.859,-21.973,-10.254,-37.598,0.000,0
161398.646,-17.578,-21.973,-22.461,-38.574,0.000,0
161398.650,-20.508,-20.508,-30.273,-24.902,0.000,0
161398.654,-9.277,-28.320,-36.621,-7.812,0.000,0
161398.658,-13.184,-28.320,-33.691,-17.090,0.000,0
161398.662,-21.973,-28.809,-14.648,-50.781,0.000,0
161398.666,-19.531,-29.785,-24.414,-45.410,0.000,0
161398.670,-21.484,-20.508,-41.016,-29.297,0.000,0
161398.674,-35.645,-21.973,-40.527,-39.062,0.000,0
161398.678,-39.551,-21.973,-22.949,-35.156,0.000,0
161398.681,-28.809,-15.625,-2.441,-28.320,0.000,0
161398.685,-30.762,-23.926,-21.973,-31.738,0.000,0
161398.689,-29.785,-27.832,-35.645,-33.691,0.000,0
161398.693,-29.785,-26.367,-21.484,-30.762,0.000,0
161398.697,-31.250,-29.297,-20.020,-32.715,0.000,0
161398.701,-27.344,-23.926,-19.043,-39.062,0.000,0
161398.705,-26.367,-21.484,-17.090,-31.738,0.000,0
161398.709,-26.855,-25.391,-26.367,-33.203,0.000,0
161398.713,-29.297,-22.949,-28.320,-37.598,0.000,0
161398.717,-28.320,-18.066,-25.879,-24.902,0.000,0
161398.721,-30.273,-20.508,-17.578,-26.855,0.000,0
161398.724,-24.414,-18.066,7.812,-34.668,0.000,0
161398.728,-20.020,-13.184,-9.277,-34.668,0.000,0
161398.732,-18.555,-17.578,-28.320,-35.645,0.000,0
161398.736,-19.043,-21.973,-25.879,-39.551,0.000,0
161398.740,-19.531,-21.973,-13.184,-44.434,0.000,0
161398.744,-21.484,-24.414,-11.719,-41.992,0.000,0
161398.748,-27.832,-29.297,-33.691,-42.969,0.000,0
161398.752,-26.855,-32.227,-33.203,-40.527,0.000,0
161398.756,-24.414,-23.438,-17.090,-31.738,0.000,0
161398.760,-19.531,-17.578,-17.090,-30.273,0.000,0
161398.763,-5.371,-17.578,-27.344,-8.301,0.000,0
161398.767,-16.113,-14.648,-20.508,-14.648,0.000,0
161398.771,-23.438,-15.625,-0.977,-34.180,0.000,0
161398.775,-15.625,-14.160,-16.602,-38.574,0.000,0
161398.779,-21.484,-15.625,-18.555,-44.434,0.000,0
161398.783,-23.438,-13.184,-13.184,-45.410,0.000,0
161398.787,-24.414,-10.742,-21.973,-52.734,0.000,0
161398.791,-27.832,-15.625,-24.902,-37.598,0.000,0
161398.795,-25.879,-20.020,-27.832,-35.645,0.000,0
161398.799,-21.484,-19.531,-15.625,-59.082,0.000,0
161398.803,-10.254,-19.043,-17.090,-41.992,0.000,0
161398.806,-21.484,-18.066,-30.762,-19.043,0.000,0
161398.810,-34.668,-11.719,-20.020,-32.227,0.000,0
161398.814,-28.809,-13.672,-8.301,-37.598,0.000,0
161398.818,-24.414,-16.113,-23.926,-25.879,0.000,0
161398.822,-31.250,-20.508,-37.598,-28.809,0.000,0
161398.826,-36.133,-25.879,-25.391,-26.367,0.000,0
161398.830,-16.602,-25.879,-26.855,-1.465,0.000,0
161398.834,-5.371,-29.297,-38.086,-3.418,0.000,0
161398.838,-33.691,-23.926,-23.438,-41.504,0.000,0
161398.842,-55.664,-20.020,-24.414,-45.898,0.000,0
161398.846,-32.715,-25.391,-36.621,-26.855,0.000,0
161398.849,-29.297,-27.344,-38.574,-33.691,0.000,0
161398.853,-44.434,-25.391,-47.852,-35.645,0.000,0
161398.857,-33.203,-26.855,-19.043,-33.203,0.000,0
161398.861,-28.809,-21.484,-20.020,-39.062,0.000,0
161398.865,-9.277,-18.066,-55.664,-30.762,0.000,0
161398.869,-7.324,-20.020,-40.527,-22.949,0.000,0
161398.873,-21.484,-20.996,-19.531,-4.883,0.000,0
161398.877,-23.438,-19.531,-11.719,0.977,0.000,0
161398.881,-31.250,-22.949,-27.344,-42.969,0.000,0
161398.885,-31.738,-23.438,-35.156,-53.711,0.000,0
161398.888,-25.879,-18.555,-16.113,-31.738,0.000,0
161398.892,-15.137,-22.949,-24.902,-21.973,0.000,0
161398.896,-23.438,-24.414,-26.855,-38.086,0.000,0
161398.900,-22.461,-17.578,-15.625,-33.203,0.000,0
161398.904,-0.977,-11.719,-27.344,-16.602,0.000,0
161398.908,-9.766,-6.348,-38.086,-17.090,0.000,0
161398.912,-26.367,-9.766,-7.324,-29.297,0.000,0
161398.916,-16.602,-14.160,0.977,-27.832,0.000,0
161398.920,-17.578,-11.230,-33.203,-21.973,0.000,0
161398.924,-16.113,-11.230,-43.945,-9.277,0.000,0
161398.928,-19.043,-12.695,-32.227,5.859,0.000,0
161398.931,-30.762,-15.625,-13.184,-15.625,0.000,0
161398.935,-38.574,-18.555,-5.371,-37.598,0.000,0
161398.939,-47.363,-22.949,-29.297,-33.691,0.000,0
161398.943,-40.039,-30.762,-42.480,-24.902,0.000,0
161398.947,-41.504,-29.785,-37.109,-32.227,0.000,0
161398.951,-39.062,-28.320,-28.320,-39.551,0.000,0
161398.955,-27.344,-26.855,-14.648,-31.738,0.000,0
161398.959,-33.203,-24.414,-14.160,-33.203,0.000,0
161398.963,-33.203,-23.926,-27.832,-35.156,0.000,0
161398.967,-27.344,-20.996,-37.598,-21.973,0.000,0
161398.971,-19.531,-20.508,-5.859,-35.156,0.000,0
161398.974,-16.113,-21.973,0.488,-32.715,0.000,0
161398.978,-18.555,-22.949,-42.480,-18.066,0.000,0
161398.982,-24.902,-22.949,-51.270,-23.438,0.000,0
161398.986,-20.020,-19.043,-20.996,-28.320,0.000,0
161398.990,-9.277,-21.484,-7.812,-27.344,0.000,0
161398.994,-20.508,-22.461,-22.949,-33.203,0.000,0
161398.998,-18.066,-18.555,-28.809,-41.016,0.000,0
161399.002,-18.066,-23.438,-5.859,-26.367,0.000,0
161399.006,-25.391,-18.555,-8.301,-22.949,0.000,0
161399.010,-18.555,-17.578,-27.832,-21.484,0.000,0
161399.013,-17.578,-22.461,-15.137,-22.461,0.000,0
161399.017,-30.762,-20.996,-21.973,-33.691,0.000,0
161399.021,-22.949,-14.648,-36.621,-24.902,0.000,0
161399.025,-7.812,-13.672,-33.691,-16.602,0.000,0
161399.029,-23.926,-23.926,-22.949,-27.344,0.000,0
161399.033,-30.273,-22.461,-6.836,-34.180,0.000,0
161399.037,-27.832,-20.508,-16.113,-21.973,0.000,0
161399.041,-26.855,-19.531,-32.715,-21.484,0.000,0
161399.045,-21.973,-15.625,-43.457,-31.250,0.000,0
161399.049,-24.902,-12.695,-6.836,-31.250,0.000,0
161399.053,-31.250,-20.020,1.953,-34.180,0.000,0
161399.056,-22.461,-24.902,-25.391,-49.316,0.000,0
161399.060,-22.949,-18.555,-17.090,-50.293,0.000,0
161399.064,-38.574,-18.066,-19.043,-42.969,0.000,0
161399.068,-42.969,-19.531,-23.926,-40.527,0.000,0
161399.072,-34.668,-20.508,-11.719,-45.410,0.000,0
161399.076,-35.645,-18.066,-15.137,-46.387,0.000,0
161399.080,-28.809,-17.090,-20.020,-45.898,0.000,0
161399.084,-20.508,-20.996,-17.090,-35.645,0.000,0
161399.088,-34.668,-19.043,-24.414,-33.691,0.000,0
161399.092,-43.945,-12.695,-9.277,-44.922,0.000,0
161399.096,-36.621,-9.766,-3.418,-45.898,0.000,0
161399.099,-21.484,-14.160,-23.926,-42.480,0.000,0
161399.103,-15.137,-14.160,-21.973,-27.832,0.000,0
161399.107,-15.137,-13.672,-13.672,-14.648,0.000,0
161399.111,-9.766,-8.789,-7.812,-15.137,0.000,0
161399.115,-5.371,-8.789,-19.043,-4.395,0.000,0
161399.119,-9.277,-13.184,-15.625,-0.977,0.000,0
161399.123,-11.719,-10.742,-21.484,-3.418,0.000,0
161399.127,-22.949,-23.926,-29.785,-14.160,0.000,0
161399.131,-21.973,-28.809,-24.902,-32.227,0.000,0
161399.135,-23.926,-20.020,-21.973,-33.691,0.000,0
161399.138,-36.621,-21.973,-19.531,-29.297,0.000,0
161399.142,-30.273,-25.391,-41.016,-20.996,0.000,0
161399.146,-31.738,-28.320,-32.715,-26.855,0.000,0
161399.150,-34.180,-26.367,-10.254,-30.762,0.000,0
161399.154,-29.785,-26.855,-24.902,-9.277,0.000,0
161399.158,-31.738,-26.367,-35.645,-7.812,0.000,0
161399.162,-24.902,-20.508,-29.297,-22.461,0.000,0
161399.166,-19.531,-26.367,-16.602,-27.832,0.000,0
161399.170,-25.391,-29.297,-18.555,-39.062,0.000,0
161399.174,-35.645,-24.902,-31.250,-35.156,0.000,0
161399.178,-34.180,-21.973,-34.180,-19.043,0.000,0
161399.181,-30.273,-17.578,-17.578,-14.648,0.000,0
161399.185,-21.973,-17.090,-16.602,-19.531,0.000,0
161399.189,-15.625,-20.020,-26.855,-18.066,0.000,0
161399.193,-17.578,-17.090,-32.715,-19.043,0.000,0
161399.197,-20.020,-16.602,-25.879,-23.926,0.000,0
161399.201,-11.719,-19.531,-23.438,-20.996,0.000,0
161399.205,-6.348,-23.926,-23.926,-26.855,0.000,0
161399.209,-17.578,-24.902,-18.555,-39.062,0.000,0
161399.213,-17.578,-25.879,-22.461,-34.180,0.000,0
161399.217,-5.859,-26.855,-19.043,-15.137,0.000,0
161399.221,-6.348,-23.926,-31.250,-8.301,0.000,0
161399.224,-19.043,-23.438,-35.645,-14.648,0.000,0
161399.228,-20.020,-22.949,-10.742,-24.414,0.000,0
161399.232,-14.160,-25.391,-29.785,-29.785,0.000,0
161399.236,-24.902,-24.414,-35.645,-30.273,0.000,0
161399.240,-20.996,-18.066,-28.320,-12.207,0.000,0
161399.244,-13.672,-16.113,-35.645,-19.531,0.000,0
161399.248,-17.578,-17.578,-23.438,-41.992,0.000,0
161399.252,-17.578,-17.090,-21.484,-26.855,0.000,0
161399.256,-14.160,-14.160,-21.484,-16.602,0.000,0
161399.260,-6.348,-15.625,-26.855,-14.648,0.000,0
161399.263,-8.301,-21.484,-25.391,-16.113,0.000,0
161399.267,-11.230,-22.461,-1.953,-24.414,0.000,0
161399.271,-16.113,-21.973,-13.184,-20.996,0.000,0
161399.275,-33.203,-23.926,-29.297,-27.832,0.000,0
161399.279,-28.809,-25.879,-46.387,-18.066,0.000,0
161399.283,-6.348,-18.555,-35.156,-3.906,0.000,0
161399.287,-12.207,-12.695,18.066,-8.301,0.000,0
161399.291,-10.742,-8.789,-9.277,0.000,0.000,0
161399.295,-5.371,-10.254,-36.621,3.418,0.000,0
161399.299,-15.137,-17.578,-20.508,0.000,0.000,0
161399.303,-23.438,-18.066,-17.578,-5.371,0.000,0
161399.306,-26.367,-24.414,-24.414,-25.879,0.000,0
161399.310,-19.043,-23.438,-38.574,-29.785,0.000,0
161399.314,-15.137,-17.090,-29.785,-14.160,0.000,0
161399.318,-25.391,-20.996,-13.672,-7.812,0.000,0
161399.322,-21.484,-28.809,-16.113,-22.461,0.000,0
161399.326,-15.137,-29.785,-23.438,-23.438,0.000,0
161399.330,-21.973,-23.438,-19.531,-11.719,0.000,0
161399.334,-18.066,-23.926,-19.043,-2.930,0.000,0
161399.338,-7.812,-23.926,-29.785,-3.906,0.000,0
161399.342,-15.137,-25.391,-35.156,-17.090,0.000,0
161399.346,-17.578,-25.879,-15.625,-29.297,0.000,0
161399.349,-14.160,-24.414,-20.020,-25.391,0.000,0
161399.353,-13.672,-22.949,-33.691,-13.672,0.000,0
161399.357,-19.531,-18.555,-35.156,-10.742,0.000,0
161399.361,-14.160,-22.949,-31.738,-12.207,0.000,0
161399.365,-16.113,-26.367,-20.020,-17.578,0.000,0
161399.369,-23.438,-26.367,-25.391,-31.738,0.000,0
161399.373,-18.066,-29.785,-35.645,-28.320,0.000,0
161399.377,-20.996,-24.902,-11.230,-20.996,0.000,0
161399.381,-17.578,-17.090,-16.602,-14.160,0.000,0
161399.385,-22.461,-22.461,-21.484,-16.113,0.000,0
161399.388,-24.414,-24.414,-11.719,-26.367,0.000,0
161399.392,-20.508,-20.020,-29.785,-14.648,0.000,0
161399.396,-25.391,-24.414,-38.574,-5.371,0.000,0
161399.400,-21.973,-27.344,-35.156,-18.066,0.000,0
161399.404,-19.043,-23.926,-16.113,-23.438,0.000,0
161399.408,-16.113,-24.902,-14.160,-16.602,0.000,0
161399.412,-15.137,-24.902,-29.785,-23.438,0.000,0
161399.416,-16.602,-24.414,-43.457,-37.598,0.000,0
161399.420,-17.090,-24.414,-33.203,-22.949,0.000,0
161399.424,-20.508,-23.926,3.906,-14.160,0.000,0
161399.428,-13.672,-24.414,-30.762,-23.438,0.000,0
161399.431,-9.766,-18.555,-44.922,-22.949,0.000,0
161399.435,-14.648,-18.555,-16.602,-21.484,0.000,0
161399.439,-18.066,-22.461,-19.043,-20.996,0.000,0
161399.443,-30.762,-22.949,-17.578,-33.203,0.000,0
161399.447,-37.109,-22.949,-15.625,-35.156,0.000,0
161399.451,-34.668,-23.926,-27.832,-24.414,0.000,0
161399.455,-24.902,-23.438,-31.250,-21.973,0.000,0
161399.459,-20.996,-28.320,-45.898,-19.043,0.000,0
161399.463,-29.785,-29.297,-44.922,-27.832,0.000,0
161399.467,-33.203,-24.902,-19.531,-35.156,0.000,0
161399.471,-31.738,-22.461,-39.062,-26.855,0.000,0
161399.474,-30.762,-20.996,-53.223,-26.855,0.000,0
161399.478,-21.973,-19.531,-33.203,-23.438,0.000,0
161399.482,-24.902,-20.996,-18.066,-22.461,0.000,0
161399.486,-28.320,-24.414,-21.973,-26.367,0.000,0
161399.490,-25.879,-28.320,-31.738,-21.484,0.000,0
161399.494,-31.738,-30.762,-34.180,-14.648,0.000,0
161399.498,-27.832,-30.273,-32.227,-19.043,0.000,0
161399.502,-26.367,-28.809,-26.855,-33.203,0.000,0
161399.506,-33.203,-23.926,-27.344,-39.062,0.000,0
161399.510,-29.785,-23.438,-35.156,-26.367,0.000,0
161399.513,-26.855,-24.414,-28.320,-35.156,0.000,0
161399.517,-15.625,-22.461,-35.645,-33.691,0.000,0
161399.521,-11.719,-21.973,-29.297,-20.996,0.000,0
161399.525,-20.996,-24.902,-1.953,-42.969,0.000,0
161399.529,-25.391,-24.414,-32.715,-41.016,0.000,0
161399.533,-22.461,-23.438,-49.316,-20.020,0.000,0
161399.537,-23.438,-24.902,-35.645,-20.996,0.000,0
161399.541,-34.180,-23.926,-13.672,-25.879,0.000,0
161399.545,-27.832,-22.949,-10.742,-32.715,0.000,0
161399.549,-14.648,-22.949,-31.250,-33.691,0.000,0
161399.553,-17.578,-17.578,-20.508,-31.738,0.000,0
161399.556,-20.020,-16.113,-16.113,-28.320,0.000,0
161399.560,-17.090,-27.832,-31.250,-30.762,0.000,0
161399.564,-4.883,-31.738,-21.973,-36.621,0.000,0
161399.568,-17.578,-21.484,-16.602,-31.738,0.000,0
161399.572,-32.715,-25.391,-32.715,-25.879,0.000,0
161399.576,-27.832,-32.227,-40.527,-18.555,0.000,0
161399.580,-16.113,-26.367,-31.250,-17.090,0.000,0
161399.584,-8.789,-24.414,-13.184,-35.156,0.000,0
161399.588,-19.043,-28.809,-23.438,-38.574,0.000,0
161399.592,-23.926,-21.484,-31.738,-45.898,0.000,0
161399.596,-24.902,-24.414,-34.668,-49.316,0.000,0
161399.599,-24.414,-28.809,-28.809,-45.410,0.000,0
161399.603,-20.996,-24.414,-4.395,-43.945,0.000,0
161399.607,-12.207,-26.855,-29.785,-24.902,0.000,0
161399.611,-12.695,-29.297,-43.945,-24.414,0.000,0
161399.615,-21.484,-31.250,-27.344,-31.738,0.000,0
161399.619,-21.973,-29.785,-22.949,-33.691,0.000,0
161399.623,-18.066,-28.320,-22.461,-51.270,0.000,0
161399.627,1.953,-32.715,-31.738,-34.668,0.000,0
161399.631,-2.930,-28.320,-24.414,-24.414,0.000,0
161399.635,-43.457,-27.344,-36.621,-50.781,0.000,0
161399.638,-36.621,-29.297,-39.551,-47.363,0.000,0
161399.642,-31.250,-28.320,-17.090,-47.363,0.000,0
161399.646,-49.316,-31.250,-27.832,-53.711,0.000,0
161399.650,-41.016,-33.203,-49.805,-44.922,0.000,0
161399.654,-34.180,-28.809,-50.781,-38.574,0.000,0
161399.658,-30.273,-26.367,-36.621,-32.227,0.000,0
161399.662,-24.414,-25.391,-10.254,-41.016,0.000,0
161399.666,-28.320,-27.344,-21.973,-42.969,0.000,0
161399.670,-30.762,-30.762,-39.062,-39.062,0.000,0
161399.674,-37.598,-27.344,-36.621,-31.738,0.000,0
161399.678,-38.574,-26.855,-37.109,-25.391,0.000,0
161399.681,-35.156,-22.949,-25.391,-35.645,0.000,0
161399.685,-37.598,-22.461,-33.203,-43.457,0.000,0
161399.689,-29.785,-22.949,-48.828,-30.762,0.000,0
161399.693,-33.691,-21.484,-37.109,-27.344,0.000,0
161399.697,-32.715,-23.438,-40.527,-40.039,0.000,0
161399.701,-22.461,-26.367,-41.016,-56.152,0.000,0
161399.705,-22.949,-22.949,-21.973,-50.781,0.000,0
161399.709,-29.785,-25.391,-20.020,-39.062,0.000,0
161399.713,-22.461,-28.320,-42.969,-32.715,0.000,0
161399.717,-20.996,-23.438,-43.945,-22.949,0.000,0
161399.721,-33.203,-22.461,-15.625,-26.367,0.000,0
161399.724,-23.438,-29.297,-29.785,-38.086,0.000,0
161399.728,-23.438,-30.762,-47.852,-50.781,0.000,0
161399.732,-32.715,-18.066,-17.090,-39.551,0.000,0
161399.736,-17.578,-12.207,-17.578,-11.719,0.000,0
161399.740,-15.137,-18.555,-32.715,-23.438,0.000,0
161399.744,-20.508,-19.531,-33.691,-35.645,0.000,0
161399.748,-24.414,-19.531,-32.227,-20.996,0.000,0
161399.752,-27.344,-21.973,-25.879,-10.254,0.000,0
161399.756,-24.902,-28.809,-39.551,-15.137,0.000,0
161399.760,-33.203,-27.344,-41.016,-31.738,0.000,0
161399.763,-31.738,-20.020,-27.344,-32.715,0.000,0
161399.767,-20.020,-22.949,-29.297,-29.297,0.000,0
161399.771,-14.648,-25.879,-26.855,-36.133,0.000,0
161399.775,-17.578,-24.414,-32.227,-22.949,0.000,0
161399.779,-23.438,-28.320,-38.574,-20.996,0.000,0
161399.783,-27.832,-30.762,-28.809,-36.133,0.000,0
161399.787,-35.645,-24.414,-30.273,-26.367,0.000,0
161399.791,-30.273,-24.902,-48.340,-22.949,0.000,0
161399.795,-21.973,-22.461,-41.504,-19.043,0.000,0
161399.799,-40.039,-19.531,-17.578,-20.020,0.000,0
161399.803,-41.992,-21.484,-30.762,-36.621,0.000,0
161399.806,-23.438,-23.438,-39.062,-28.320,0.000,0
161399.810,-16.113,-28.320,-30.273,-8.301,0.000,0
161399.814,-21.484,-24.414,-29.297,-10.742,0.000,0
161399.818,-13.672,-16.113,-19.531,-23.926,0.000,0
161399.822,-4.883,-14.648,-11.719,-23.438,0.000,0
161399.826,-11.719,-13.672,-16.113,-18.066,0.000,0
161399.830,-13.672,-17.578,-17.578,-20.508,0.000,0
161399.834,1.465,-18.066,-18.066,-18.555,0.000,0
161399.838,-15.137,-15.137,-6.348,-25.879,0.000,0
161399.842,-34.180,-18.555,-5.859,-21.973,0.000,0
161399.846,-19.043,-14.648,-28.320,-21.484,0.000,0
161399.849,-16.113,-16.602,-40.039,-26.855,0.000,0
161399.853,-17.578,-21.484,-35.645,-9.766,0.000,0
161399.857,-19.531,-14.160,-23.926,-13.184,0.000,0
161399.861,-20.508,-9.277,-25.391,-29.297,0.000,0
161399.865,-6.348,-10.254,-36.133,-13.672,0.000,0
161399.869,-3.906,-11.719,-36.133,-7.812,0.000,0
161399.873,-20.996,-19.531,-28.320,-14.160,0.000,0
161399.877,-20.508,-20.020,-30.762,-17.578,0.000,0
161399.881,-14.160,-14.648,-17.090,-30.273,0.000,0
161399.885,-23.926,-16.602,-10.742,-22.461,0.000,0
161399.888,-23.926,-24.414,-21.484,-15.137,0.000,0
161399.892,-27.832,-28.320,-43.945,-30.762,0.000,0
161399.896,-35.645,-27.344,-37.109,-37.109,0.000,0
161399.900,-29.785,-26.855,-13.184,-37.598,0.000,0
161399.904,-24.902,-23.926,-29.785,-35.156,0.000,0
161399.908,-21.484,-23.926,-37.598,-24.414,0.000,0
161399.912,-14.160,-22.949,-33.203,-13.672,0.000,0
161399.916,-9.277,-16.602,-21.484,-20.996,0.000,0
161399.920,-17.578,-12.207,-8.301,-41.016,0.000,0
161399.924,-13.184,-16.602,-28.320,-28.809,0.000,0
161399.928,-12.207,-21.484,-41.504,-18.066,0.000,0
161399.931,-24.902,-21.973,-20.508,-36.621,0.000,0
161399.935,-23.438,-21.484,-21.484,-43.457,0.000,0
161399.939,-14.648,-24.414,-23.438,-53.711,0.000,0
161399.943,-16.113,-25.391,-24.414,-42.969,0.000,0
161399.947,-20.996,-21.973,-31.738,-24.414,0.000,0
161399.951,-17.090,-21.973,-34.180,-22.949,0.000,0
161399.955,-10.742,-20.508,-34.180,-21.973,0.000,0
161399.959,-25.391,-20.996,-20.508,-27.832,0.000,0
161399.963,-40.527,-24.902,-38.086,-26.855,0.000,0
161399.967,-21.484,-24.414,-46.387,-18.555,0.000,0
161399.971,-17.578,-21.484,-36.133,-17.090,0.000,0
161399.974,-22.949,-20.020,-28.809,-22.949,0.000,0
161399.978,-18.555,-19.531,-0.488,-29.785,0.000,0
161399.982,-16.113,-20.996,-18.066,-27.832,0.000,0
161399.986,-14.648,-20.020,-41.504,-27.344,0.000,0
161399.990,-15.137,-19.531,-30.273,-21.973,0.000,0
161399.994,-21.973,-15.625,-19.531,-15.625,0.000,0
161399.998,-29.785,-13.672,-6.348,-13.672,0.000,0
161400.002,-27.832,-19.531,-18.066,-20.020,0.000,0
161400.006,-17.578,-20.020,-25.391,-24.902,0.000,0
161400.010,-20.020,-21.484,-28.320,-22.949,0.000,0
161400.013,-19.043,-24.414,-30.762,-20.508,0.000,0
161400.017,-20.508,-26.367,-16.113,-35.645,0.000,0
161400.021,-34.668,-29.297,-19.531,-43.945,0.000,0
161400.025,-28.809,-34.180,-41.016,-35.645,0.000,0
161400.029,-9.277,-26.367,-46.875,-26.855,0.000,0
161400.033,-11.719,-23.438,-34.180,-31.738,0.000,0
161400.037,-22.461,-23.438,-4.395,-38.574,0.000,0
161400.041,-27.344,-21.484,-17.578,-40.039,0.000,0
161400.045,-22.461,-30.273,-41.016,-47.852,0.000,0
161400.049,-23.438,-30.762,-40.527,-44.922,0.000,0
161400.053,-25.879,-20.020,-30.762,-38.574,0.000,0
161400.056,-16.113,-18.066,-16.602,-37.598,0.000,0
161400.060,-14.160,-18.066,-17.090,-39.551,0.000,0
161400.064,-16.602,-15.625,-24.414,-25.879,0.000,0
161400.068,-19.043,-13.184,-21.484,-22.461,0.000,0
161400.072,-15.625,-10.254,-26.367,-28.320,0.000,0
161400.076,-12.695,-14.160,-28.320,-23.438,0.000,0
161400.080,-24.414,-16.113,-15.137,-23.438,0.000,0
161400.084,-20.508,-15.137,-7.324,-26.367,0.000,0
161400.088,-8.301,-19.531,-23.438,-21.973,0.000,0
161400.092,-4.395,-15.137,-29.297,-8.789,0.000,0
161400.096,-4.883,-16.602,-16.113,-11.230,0.000,0
161400.099,-2.441,-20.020,-13.184,-29.297,0.000,0
161400.103,-4.883,-16.113,-37.598,-28.809,0.000,0
161400.107,-11.719,-21.973,-43.945,-19.043,0.000,0
161400.111,-13.184,-24.414,-17.090,-10.254,0.000,0
161400.115,-30.273,-21.484,-8.789,-19.531,0.000,0
161400.119,-31.738,-25.391,-19.531,-35.156,0.000,0
161400.123,-14.160,-26.367,-33.203,-30.762,0.000,0
161400.127,-17.090,-21.973,-15.137,-12.695,0.000,0
161400.131,-21.973,-24.902,-22.461,2.930,0.000,0
161400.135,-19.531,-21.484,-23.926,-10.254,0.000,0
161400.138,-14.160,-19.043,-10.742,-16.113,0.000,0
161400.142,-19.531,-29.785,-27.832,-20.508,0.000,0
161400.146,-23.926,-28.809,-21.484,-35.156,0.000,0
161400.150,-21.973,-19.043,-26.855,-15.625,0.000,0
161400.154,-14.160,-19.043,-28.809,-19.043,0.000,0
161400.158,-14.160,-22.461,-13.184,-35.645,0.000,0
161400.162,-32.227,-23.438,-20.508,-32.227,0.000,0
161400.166,-27.832,-20.020,-19.043,-21.484,0.000,0
161400.170,-20.996,-19.043,-26.855,-22.461,0.000,0
161400.174,-25.879,-24.414,-17.578,-25.391,0.000,0
161400.178,-23.926,-22.949,-24.902,-24.902,0.000,0
161400.181,-20.996,-22.461,-38.574,-33.691,0.000,0
161400.185,-14.648,-22.461,-23.926,-31.738,0.000,0
161400.189,-21.484,-18.066,-22.461,-27.344,0.000,0
161400.193,-23.926,-20.508,-22.949,-33.691,0.000,0
161400.197,-13.184,-24.902,-15.625,-41.992,0.000,0
161400.201,-19.043,-17.090,-15.137,-39.551,0.000,0
161400.205,-31.738,-14.160,-22.461,-31.250,0.000,0
161400.209,-33.691,-17.090,-32.715,-27.344,0.000,0
161400.213,-30.762,-12.695,-17.578,-32.227,0.000,0
161400.217,-27.344,-16.113,-2.930,-34.668,0.000,0
161400.221,-29.297,-25.391,-30.762,-31.738,0.000,0
161400.224,-27.344,-24.902,-37.109,-34.668,0.000,0
161400.228,-35.645,-19.531,-26.367,-30.273,0.000,0
161400.232,-38.574,-17.578,-13.184,-26.367,0.000,0
161400.236,-20.996,-17.578,-1.953,-37.109,0.000,0
161400.240,-14.648,-22.949,-17.578,-28.809,0.000,0
161400.244,-12.207,-23.926,-24.414,-19.043,0.000,0
161400.248,-21.484,-26.367,-11.719,-32.227,0.000,0
161400.252,-28.809,-27.344,-29.297,-25.391,0.000,0
161400.256,-23.926,-31.250,-28.320,-25.391,0.000,0
161400.260,-28.320,-28.809,-16.113,-29.297,0.000,0
161400.263,-31.738,-23.438,-15.625,-23.926,0.000,0
161400.267,-22.949,-26.855,-25.391,-10.742,0.000,0
161400.271,-15.625,-30.762,-28.809,-3.906,0.000,0
161400.275,-20.996,-32.715,-13.672,-41.504,0.000,0
161400.279,-32.715,-36.133,-29.785,-41.016,0.000,0
161400.283,-22.949,-34.180,-45.898,-13.672,0.000,0
161400.287,-15.625,-30.273,-37.109,-19.531,0.000,0
161400.291,-11.230,-27.832,-15.625,-24.902,0.000,0
161400.295,-6.836,-26.855,-7.324,-40.527,0.000,0
161400.299,-15.137,-25.391,-24.414,-29.785,0.000,0
161400.303,-18.555,-22.949,-17.090,-20.508,0.000,0
161400.306,-20.020,-24.414,-14.648,-27.832,0.000,0
161400.310,-25.391,-27.832,-28.320,-34.668,0.000,0
161400.314,-16.602,-28.320,-14.648,-40.039,0.000,0
161400.318,-20.020,-28.809,-15.137,-30.273,0.000,0
161400.322,-19.043,-24.902,-25.391,-15.137,0.000,0
161400.326,-9.766,-16.602,-30.762,-5.371,0.000,0
161400.330,-15.625,-20.996,-28.809,-23.438,0.000,0
161400.334,-17.090,-27.832,-9.277,-37.598,0.000,0
161400.338,-24.414,-22.949,-12.695,-39.551,0.000,0
161400.342,-20.508,-24.902,-39.551,-34.668,0.000,0
161400.346,-9.277,-27.344,-48.340,-3.906,0.000,0
161400.349,-19.531,-26.367,-12.695,-4.883,0.000,0
161400.353,-31.738,-26.855,-14.160,-34.668,0.000,0
161400.357,-30.762,-31.738,-55.664,-30.762,0.000,0
161400.361,-28.809,-32.227,-52.246,-33.691,0.000,0
161400.365,-21.973,-24.414,-28.809,-36.133,0.000,0
161400.369,-16.113,-23.438,-22.461,-22.461,0.000,0
161400.373,-28.809,-23.438,-25.391,-40.039,0.000,0
161400.377,-35.156,-25.879,-23.438,-48.340,0.000,0
161400.381,-34.180,-25.879,-26.367,-30.273,0.000,0
161400.385,-34.668,-22.949,-37.109,-22.461,0.000,0
161400.388,-35.156,-22.461,-28.809,-30.273,0.000,0
161400.392,-33.691,-19.043,-21.484,-39.551,0.000,0
161400.396,-24.414,-14.648,-28.809,-34.180,0.000,0
161400.400,-22.949,-16.113,-23.926,-30.273,0.000,0
161400.404,-32.227,-19.531,-33.203,-31.738,0.000,0
161400.408,-33.203,-20.020,-22.949,-32.715,0.000,0
161400.412,-30.273,-18.555,0.000,-31.738,0.000,0
161400.416,-15.625,-13.672,-22.949,-21.973,0.000,0
161400.420,-11.230,-14.160,-29.785,-8.789,0.000,0
161400.424,-18.066,-23.438,-32.715,-19.043,0.000,0
161400.428,-23.438,-31.250,-36.621,-33.203,0.000,0
161400.431,-33.203,-32.227,-26.855,-43.945,0.000,0
161400.435,-31.738,-29.297,-30.273,-43.945,0.000,0
161400.439,-26.367,-28.809,-28.320,-35.156,0.000,0
161400.443,-26.367,-29.785,-27.832,-21.484,0.000,0
161400.447,-24.902,-22.949,-40.527,-18.066,0.000,0
161400.451,-23.926,-21.973,-26.855,-34.180,0.000,0
161400.455,-29.785,-26.855,-8.301,-29.297,0.000,0
161400.459,-30.762,-30.762,-35.156,-20.508,0.000,0
161400.463,-28.320,-38.574,-47.852,-32.227,0.000,0
161400.467,-26.367,-37.598,-24.414,-25.391,0.000,0
161400.471,-18.066,-31.738,-11.719,-26.367,0.000,0
161400.474,-20.508,-31.250,-30.762,-42.969,0.000,0
161400.478,-28.809,-28.809,-39.551,-34.180,0.000,0
161400.482,-33.203,-29.785,-25.879,-25.391,0.000,0
161400.486,-22.461,-23.926,-21.484,-23.438,0.000,0
161400.490,-20.020,-23.926,-20.508,-32.227,0.000,0
161400.494,-27.832,-29.785,-26.855,-23.926,0.000,0
161400.498,-31.250,-25.391,-25.879,-27.344,0.000,0
161400.502,-28.320,-23.438,-8.301,-45.898,0.000,0
161400.506,-19.043,-27.344,-22.461,-39.551,0.000,0
161400.510,-17.090,-29.297,-21.484,-39.062,0.000,2
161400.513,-11.719,-22.949,-14.160,-40.039,0.000,0
161400.517,-0.488,-20.996,-19.531,-27.344,0.000,0
161400.521,-12.207,-25.391,-22.949,-20.020,0.000,0
161400.525,-21.973,-26.855,-25.879,-21.973,0.000,0
161400.529,-24.414,-26.855,-16.113,-31.738,0.000,0
161400.533,-21.973,-25.391,-16.602,-34.668,0.000,0
161400.537,-25.391,-31.738,-28.809,-33.691,0.000,0
161400.541,-29.297,-33.203,-46.387,-36.133,0.000,0
161400.545,-22.461,-29.297,-32.227,-36.133,0.000,0
161400.549,-21.484,-30.762,-9.766,-39.551,0.000,0
161400.553,-26.367,-29.297,-22.949,-38.574,0.000,0
161400.556,-32.227,-27.832,-15.625,-34.668,0.000,0
161400.560,-33.203,-24.902,-25.391,-35.156,0.000,0
161400.564,-27.832,-25.879,-45.898,-29.785,0.000,0
161400.568,-22.949,-24.414,-17.578,-40.039,0.000,0
161400.572,-23.926,-21.973,0.000,-53.223,0.000,0
161400.576,-26.367,-19.531,-20.996,-41.992,0.000,0
161400.580,-26.855,-20.020,-18.555,-38.574,0.000,0
161400.584,-32.227,-22.461,-22.461,-38.086,0.000,0
161400.588,-32.227,-23.926,-13.672,-39.551,0.000,0
161400.592,-27.344,-25.879,-10.742,-41.016,0.000,0
161400.596,-28.320,-22.949,-38.574,-33.203,0.000,0
161400.599,-29.785,-20.508,-29.297,-28.809,0.000,0
161400.603,-32.715,-21.973,-20.508,-29.785,0.000,0
161400.607,-29.297,-22.461,-8.789,-33.691,0.000,0
161400.611,-28.809,-19.043,-15.625,-34.668,0.000,0
161400.615,-30.762,-19.043,-24.902,-22.949,0.000,0
161400.619,-25.879,-20.996,-16.602,-12.207,0.000,0
161400.623,-30.273,-21.484,-29.785,-14.648,0.000,0
161400.627,-37.109,-21.484,-32.715,-23.438,0.000,0
161400.631,-33.691,-21.484,-16.113,-29.297,0.000,0
161400.635,-36.133,-19.043,-12.695,-24.902,0.000,0
161400.638,-29.785,-12.207,-24.902,-23.438,0.000,0
161400.642,-16.602,-16.602,-42.969,-14.648,0.000,0
161400.646,-14.160,-18.555,-20.508,-8.789,0.000,0
161400.650,-12.695,-16.602,-3.418,-22.461,0.000,0
161400.654,-20.020,-20.020,-31.250,-24.414,0.000,0
161400.658,-20.508,-21.484,-22.949,-26.367,0.000,0
161400.662,-23.926,-16.602,-22.949,-15.625,0.000,0
161400.666,-21.973,-20.996,-29.785,0.977,0.000,0
161400.670,-21.484,-22.949,-25.879,-9.766,0.000,0
161400.674,-26.855,-15.625,-37.109,-23.926,0.000,0
161400.678,-25.879,-18.066,-28.320,-28.320,0.000,0
161400.681,-17.578,-26.367,-24.902,-28.320,0.000,0
161400.685,-13.672,-30.273,-30.273,-37.598,0.000,0
161400.689,-27.344,-29.785,-22.949,-51.270,0.000,0
161400.693,-27.344,-27.344,-25.879,-43.945,0.000,0
161400.697,-14.160,-29.785,-28.809,-24.902,0.000,0
161400.701,-12.695,-29.785,-33.203,-13.672,0.000,0
161400.705,-4.395,-28.320,-18.555,-24.414,0.000,0
161400.709,-2.930,-29.785,-13.672,-29.785,0.000,0
161400.713,-13.672,-32.715,-32.227,-24.902,0.000,0
161400.717,-20.020,-35.156,-31.738,-21.484,0.000,0
161400.721,-22.949,-35.156,-25.879,-18.066,0.000,0
161400.724,-24.902,-28.320,-25.879,-21.973,0.000,0
161400.728,-24.902,-25.879,-31.738,-32.227,0.000,0
161400.732,-21.484,-24.902,-31.738,-27.344,0.000,0
161400.736,-25.391,-22.461,-26.367,-23.926,0.000,0
161400.740,-26.855,-20.508,-22.461,-30.762,0.000,0
161400.744,-22.949,-25.391,-27.832,-31.738,0.000,0
161400.748,-18.555,-31.250,-20.020,-24.414,0.000,0
161400.752,-15.137,-33.691,-17.090,-18.555,0.000,0
161400.756,-19.043,-25.879,-26.367,-27.344,0.000,0
161400.760,-18.066,-22.461,-15.625,-37.598,0.000,0
161400.763,-18.555,-28.809,-20.020,-23.438,0.000,0
161400.767,-23.926,-32.227,-27.832,-23.926,0.000,0
161400.771,-27.344,-31.738,-20.996,-38.086,0.000,0
161400.775,-27.344,-27.344,-45.898,-32.227,0.000,0
161400.779,-15.625,-25.879,-54.688,-25.879,0.000,0
161400.783,-14.160,-27.832,-22.949,-24.414,0.000,0
161400.787,-21.484,-31.738,-8.789,-32.715,0.000,0
161400.791,-16.602,-30.273,-41.992,-39.551,0.000,0
161400.795,-15.137,-28.320,-37.109,-25.391,0.000,0
161400.799,-21.973,-24.902,-22.461,-14.648,0.000,0
161400.803,-26.855,-28.809,-33.203,-28.809,0.000,0
161400.806,-27.344,-34.668,-30.273,-41.992,0.000,0
161400.810,-36.133,-27.832,-31.250,-37.109,0.000,0
161400.814,-26.367,-27.832,-36.133,-26.855,0.000,0
161400.818,-19.043,-31.250,-38.086,-29.785,0.000,0
161400.822,-27.344,-28.809,-47.852,-34.668,0.000,0
161400.826,-22.949,-28.320,-44.434,-43.457,0.000,0
161400.830,-21.484,-22.461,-15.625,-37.109,0.000,0
161400.834,-24.414,-23.926,-13.672,-21.973,0.000,0
