timestamps,TP9,AF7,AF8,TP10,Right AUX,Marker0
161902.971,-37.109,-34.668,-30.273,-20.020,0.000,0
161902.974,-48.340,-30.273,-34.180,8.301,0.000,0
161902.978,-32.715,-28.809,-13.184,-11.230,0.000,0
161902.982,-23.438,-27.344,-1.953,-23.926,0.000,0
161902.986,-20.996,-23.926,-29.297,-21.973,0.000,0
161902.990,-28.809,-20.996,-24.414,-16.602,0.000,0
161902.994,-35.156,-19.043,-12.695,-29.297,0.000,0
161902.998,-24.414,-22.949,-11.719,-30.273,0.000,0
161903.002,-31.738,-25.391,-15.625,-54.199,0.000,0
161903.006,-35.645,-22.461,-21.973,-41.504,0.000,0
161903.010,-38.086,-29.297,-29.785,-16.602,0.000,0
161903.013,-28.320,-33.203,-39.062,-1.953,0.000,0
161903.017,-15.625,-32.715,-19.531,-11.719,0.000,0
161903.021,-29.785,-32.227,-8.301,-17.090,0.000,0
161903.025,-24.902,-29.785,-18.555,-39.062,0.000,0
161903.029,-24.902,-29.297,-11.230,-29.785,0.000,0
161903.033,-36.621,-28.809,-27.832,-20.996,0.000,0
161903.037,-38.574,-26.855,-20.996,-18.555,0.000,0
161903.041,-42.480,-31.738,-12.695,-27.344,0.000,0
161903.045,-46.875,-30.762,-29.785,-78.613,0.000,0
161903.049,-69.336,-30.762,-30.273,-79.102,0.000,0
161903.053,-83.984,-33.203,-26.367,-79.102,0.000,0
161903.056,-53.223,-28.320,-20.020,-40.039,0.000,0
161903.060,-23.926,-22.949,-12.695,-29.297,0.000,0
161903.064,-49.805,-22.949,-16.602,-68.848,0.000,0
161903.068,-45.898,-24.414,-22.461,-39.551,0.000,0
161903.072,-62.012,-29.297,-39.551,-20.020,0.000,0
161903.076,-70.312,-37.598,-41.016,-40.527,0.000,0
161903.080,-14.648,-38.086,-20.996,-36.133,0.000,0
161903.084,-24.414,-33.691,-27.344,-13.184,0.000,0
161903.088,-35.645,-33.203,-44.434,-13.672,0.000,0
161903.092,-21.973,-33.203,-51.270,-27.832,0.000,0
161903.096,-36.133,-26.367,-22.949,-37.109,0.000,0
161903.099,-65.918,-27.832,2.441,-28.320,0.000,0
161903.103,-48.340,-37.109,-29.297,-66.895,0.000,0
161903.107,-33.691,-35.645,-34.180,-91.797,0.000,0
161903.111,-82.031,-29.297,-16.602,-59.570,0.000,0
161903.115,-54.199,-27.344,-14.160,-9.766,0.000,0
161903.119,-29.297,-29.785,-15.625,2.930,0.000,0
161903.123,-34.668,-31.738,-29.297,-14.648,0.000,0
161903.127,-49.316,-31.738,-29.297,-53.711,0.000,0
161903.131,-44.434,-30.273,-6.348,-29.785,0.000,0
161903.135,-32.715,-33.203,-10.254,-32.227,0.000,0
161903.138,-35.645,-31.738,-25.391,-83.496,0.000,0
161903.142,-10.254,-23.438,-5.859,-52.246,0.000,0
161903.146,-47.852,-27.832,-7.812,-18.066,0.000,0
161903.150,-59.082,-34.668,-29.785,-91.309,0.000,0
161903.154,-44.434,-23.438,-10.254,-87.402,0.000,0
161903.158,-80.078,-22.461,-0.488,-17.090,0.000,0
161903.162,-66.406,-24.902,-6.836,-23.438,0.000,0
161903.166,-20.996,-21.973,-16.602,-16.602,0.000,0
161903.170,-26.855,-22.949,-11.719,-29.785,0.000,0
161903.174,-38.086,-29.785,-7.812,-58.594,0.000,0
161903.178,-12.695,-31.250,-1.465,-43.457,0.000,0
161903.181,-2.441,-24.414,-4.883,-9.766,0.000,0
161903.185,-5.371,-16.602,-8.789,4.883,0.000,0
161903.189,3.906,-11.719,2.441,-14.160,0.000,0
161903.193,-14.648,-19.531,-17.090,-3.906,0.000,0
161903.197,-7.812,-19.531,-19.043,-7.324,0.000,0
161903.201,-14.160,-14.160,-9.766,-14.160,0.000,0
161903.205,-37.109,-17.578,-23.438,-40.039,0.000,0
161903.209,-0.488,-18.555,-33.691,-25.391,0.000,0
161903.213,23.926,-17.090,-26.367,24.414,0.000,0
161903.217,-6.836,-16.113,-7.324,3.906,0.000,0
161903.221,-12.695,-19.531,-10.742,10.742,0.000,0
161903.224,-16.602,-23.926,-29.297,12.695,0.000,0
161903.228,-21.973,-24.414,-39.062,-11.719,0.000,0
161903.232,-28.809,-27.344,-14.160,-45.898,0.000,0
161903.236,-36.133,-24.414,6.836,-13.184,0.000,0
161903.240,-9.766,-21.484,-31.738,0.488,0.000,0
161903.244,-12.207,-23.926,-31.738,-20.020,0.000,0
161903.248,-25.391,-28.809,-20.508,4.395,0.000,0
161903.252,-32.227,-27.832,-31.250,-15.137,0.000,0
161903.256,-40.039,-32.715,-28.809,-22.461,0.000,0
161903.260,-42.969,-34.180,-27.344,-3.418,0.000,0
161903.263,-26.367,-39.062,-32.715,-6.836,0.000,0
161903.267,2.441,-37.598,-26.855,-5.859,0.000,0
161903.271,-10.254,-28.320,-25.391,-2.441,0.000,0
161903.275,-21.484,-29.297,-15.137,-38.086,0.000,0
161903.279,-11.230,-24.902,-5.859,-33.691,0.000,0
161903.283,6.348,-24.414,-25.391,13.184,0.000,0
161903.287,13.672,-19.043,-27.832,21.973,0.000,0
161903.291,-14.160,-19.043,-23.438,-4.883,0.000,0
161903.295,-38.086,-28.320,-12.695,-18.555,0.000,0
161903.299,-14.160,-28.809,-18.555,-8.789,0.000,0
161903.303,-11.230,-31.250,-37.598,-21.973,0.000,0
161903.306,-41.016,-36.133,-31.250,-36.133,0.000,0
161903.310,-11.719,-33.203,-29.785,-3.906,0.000,0
161903.314,7.324,-31.738,-20.508,15.625,0.000,0
161903.318,-30.762,-35.156,-20.508,-15.137,0.000,0
161903.322,-35.156,-30.762,-32.227,-32.227,0.000,0
161903.326,-27.344,-25.879,-31.250,-49.316,0.000,0
161903.330,-25.391,-22.461,-37.598,-16.602,0.000,0
161903.334,-26.855,-28.320,-24.414,-13.672,0.000,0
161903.338,-22.461,-31.250,-12.695,-41.992,0.000,0
161903.342,-29.297,-27.344,-38.574,-38.574,0.000,0
161903.346,-23.438,-30.762,-47.852,-17.578,0.000,0
161903.349,-6.348,-24.902,-41.016,18.066,0.000,0
161903.353,-7.812,-19.531,-15.137,-25.879,0.000,0
161903.357,-14.648,-23.926,-5.859,-49.316,0.000,0
161903.361,-22.949,-28.320,-29.785,-13.672,0.000,0
161903.365,-25.391,-29.297,-30.273,-11.230,0.000,0
161903.369,-15.625,-31.738,-21.484,-22.949,0.000,0
161903.373,-42.969,-26.367,-20.508,-28.809,0.000,0
161903.377,-56.152,-26.855,-25.879,-35.156,0.000,0
161903.381,-9.766,-26.855,-20.020,-36.621,0.000,0
161903.385,-10.254,-22.461,-13.184,-31.738,0.000,0
161903.388,-17.578,-28.320,-34.180,-41.504,0.000,0
161903.392,10.254,-26.855,-28.809,-20.996,0.000,0
161903.396,2.441,-25.879,-8.301,-1.953,0.000,0
161903.400,-35.156,-29.785,-29.297,-11.719,0.000,0
161903.404,-22.461,-26.855,-36.621,2.930,0.000,0
161903.408,-0.488,-27.344,-29.297,-28.809,0.000,0
161903.412,-13.184,-31.250,-8.301,-17.578,0.000,0
161903.416,-26.855,-27.832,-2.441,-17.578,0.000,0
161903.420,-16.113,-28.320,-30.273,-48.340,0.000,0
161903.424,-9.277,-30.762,-30.273,-32.227,0.000,0
161903.428,-28.320,-30.273,-30.273,-8.301,0.000,0
161903.431,-19.043,-28.320,-22.949,-11.230,0.000,0
161903.435,-15.137,-30.273,-14.160,-21.484,0.000,0
161903.439,-24.902,-33.691,-23.438,-15.625,0.000,0
161903.443,-13.672,-29.297,-35.156,-2.441,0.000,0
161903.447,-14.648,-25.391,-30.762,-4.395,0.000,0
161903.451,-14.160,-19.531,-19.043,0.977,0.000,0
161903.455,-12.695,-18.555,-10.742,-8.301,0.000,0
161903.459,-24.414,-20.996,-16.113,-29.297,0.000,0
161903.463,-32.227,-21.484,-23.438,-17.578,0.000,0
161903.467,-21.973,-25.879,-37.109,4.395,0.000,0
161903.471,-20.020,-26.367,-28.809,-23.438,0.000,0
161903.474,-21.484,-23.926,-6.348,-34.668,0.000,0
161903.478,-11.230,-20.020,-16.113,-49.316,0.000,0
161903.482,-23.926,-21.973,-21.484,-33.691,0.000,0
161903.486,-27.832,-27.344,-12.695,33.691,0.000,0
161903.490,-22.949,-23.438,-12.695,-25.391,0.000,0
161903.494,-25.879,-17.090,-20.020,-68.848,0.000,0
161903.498,-13.672,-16.602,-22.949,2.930,0.000,0
161903.502,-22.461,-20.508,-25.391,11.230,0.000,0
161903.506,-35.156,-21.973,-31.250,-25.879,0.000,0
161903.510,-23.926,-22.461,-38.086,-17.090,0.000,0
161903.513,-20.508,-21.484,-21.484,-11.719,0.000,0
161903.517,-10.254,-14.648,0.977,-38.086,0.000,0
161903.521,-10.254,-16.602,-7.324,-20.996,0.000,0
161903.525,-28.809,-27.344,-35.156,-18.555,0.000,0
161903.529,-24.902,-30.762,-38.086,-32.227,0.000,0
161903.533,-14.648,-26.367,-22.461,-7.812,0.000,0
161903.537,-5.859,-22.949,-21.973,-8.789,0.000,0
161903.541,-12.695,-25.879,-32.715,-12.207,0.000,0
161903.545,-25.879,-30.762,-45.898,4.395,0.000,0
161903.549,-16.602,-27.344,-28.809,-6.836,0.000,0
161903.553,-13.184,-25.391,-7.324,-15.137,0.000,0
161903.556,-12.207,-27.344,-22.949,-25.879,0.000,0
161903.560,-21.484,-29.785,-34.180,-34.180,0.000,0
161903.564,-19.531,-28.809,-19.043,-6.836,0.000,0
161903.568,5.859,-22.949,-31.250,6.348,0.000,0
161903.572,16.113,-21.484,-25.391,19.043,0.000,0
161903.576,1.953,-28.809,-22.949,9.277,0.000,0
161903.580,-22.949,-41.016,-42.969,-22.461,0.000,0
161903.584,-18.066,-41.504,-43.457,10.742,0.000,0
161903.588,1.465,-33.691,-40.527,27.832,0.000,0
161903.592,-10.254,-32.227,-21.973,-19.043,0.000,0
161903.596,-18.555,-30.762,-11.230,-45.410,0.000,0
161903.599,-7.324,-26.367,-12.695,-21.484,0.000,0
161903.603,-18.555,-34.180,-37.598,3.906,0.000,0
161903.607,-19.531,-31.250,-35.645,3.418,0.000,0
161903.611,-8.789,-29.297,-3.418,-20.996,0.000,0
161903.615,-10.254,-28.320,-16.113,-35.156,0.000,0
161903.619,-22.949,-23.438,-20.996,5.371,0.000,0
161903.623,-11.719,-25.391,-21.973,8.789,0.000,0
161903.627,-2.930,-23.926,-30.762,-6.836,0.000,0
161903.631,-3.906,-23.926,-13.184,-15.137,0.000,0
161903.635,-5.859,-23.926,-5.859,-17.578,0.000,0
161903.638,-16.602,-24.414,-25.391,-20.996,0.000,0
161903.642,-23.438,-22.949,-28.320,-22.949,0.000,0
161903.646,-27.344,-24.414,-27.832,-16.602,0.000,0
161903.650,-32.715,-25.391,-14.648,-8.301,0.000,0
161903.654,-29.297,-28.320,-8.789,4.395,0.000,0
161903.658,-30.273,-28.809,-33.691,-10.742,0.000,0
161903.662,-34.668,-27.832,-32.227,-33.203,0.000,0
161903.666,-42.480,-30.273,-24.902,-31.738,0.000,0
161903.670,-47.363,-32.715,-21.973,-32.715,0.000,0
161903.674,-36.133,-29.297,-27.344,-28.809,0.000,0
161903.678,-39.062,-27.832,-39.062,-3.418,0.000,0
161903.681,-38.086,-30.273,-29.785,-11.719,0.000,0
161903.685,-20.020,-33.203,-25.391,0.000,0.000,0
161903.689,-11.230,-30.762,-22.461,15.625,0.000,0
161903.693,-20.996,-21.484,-12.207,-22.461,0.000,0
161903.697,-35.645,-20.020,-11.230,-39.062,0.000,0
161903.701,-36.621,-20.508,-22.461,-25.879,0.000,0
161903.705,-12.207,-12.695,-42.969,-17.090,0.000,0
161903.709,-3.906,-14.160,-32.715,-22.461,0.000,0
161903.713,-16.602,-19.043,-7.812,-32.715,0.000,0
161903.717,-22.949,-18.066,-16.602,-37.109,0.000,0
161903.721,-34.180,-23.438,-30.273,-29.297,0.000,0
161903.724,-22.461,-26.367,-28.320,1.465,0.000,0
161903.728,-12.695,-22.949,-14.160,-25.879,0.000,0
161903.732,-12.695,-24.902,-14.160,-38.086,0.000,0
161903.736,-8.301,-27.344,-25.391,-13.672,0.000,0
161903.740,-14.160,-30.762,-21.484,-13.672,0.000,0
161903.744,-16.602,-30.273,-12.695,-10.742,0.000,0
161903.748,-17.578,-26.855,-30.273,-3.418,0.000,0
161903.752,-25.391,-31.250,-33.203,-15.625,0.000,0
161903.756,-20.508,-23.438,-18.066,-13.184,0.000,0
161903.760,-0.977,-16.113,-20.508,-17.090,0.000,0
161903.763,-8.301,-21.484,-16.602,-44.434,0.000,0
161903.767,-21.973,-24.902,-11.719,-13.184,0.000,0
161903.771,-11.230,-24.902,-5.859,-9.766,0.000,0
161903.775,-11.719,-23.438,-9.766,-17.578,0.000,0
161903.779,-22.949,-20.508,-12.695,-6.348,0.000,0
161903.783,-14.648,-17.578,-11.719,-24.902,0.000,0
161903.787,-11.230,-16.113,-1.953,-30.762,0.000,0
161903.791,-18.555,-18.066,-1.465,-7.812,0.000,0
161903.795,-9.766,-24.902,-21.484,7.812,0.000,0
161903.799,-2.441,-24.902,-20.508,-6.348,0.000,0
161903.803,-14.648,-27.344,-13.184,-21.484,0.000,0
161903.806,-18.066,-28.809,-13.672,-18.555,0.000,0
161903.810,-17.578,-24.902,-12.695,-19.531,0.000,0
161903.814,-38.574,-29.297,-16.602,-31.250,0.000,0
161903.818,-40.039,-34.180,-27.344,-30.762,0.000,0
161903.822,-25.879,-33.203,-34.180,-15.137,0.000,0
161903.826,-32.227,-30.273,-28.320,-34.668,0.000,0
161903.830,-35.156,-31.738,-19.531,-38.086,0.000,0
161903.834,-40.527,-34.668,-24.414,-13.184,0.000,0
161903.838,-42.480,-35.156,-31.738,6.348,0.000,0
161903.842,-34.668,-30.273,-37.109,-18.555,0.000,0
161903.846,-41.016,-29.785,-11.719,-52.734,0.000,0
161903.849,-44.922,-32.227,2.441,-36.621,0.000,0
161903.853,-41.992,-28.809,-26.367,-39.062,0.000,0
161903.857,-41.992,-25.879,-33.691,-24.902,0.000,0
161903.861,-48.828,-27.832,-26.855,-5.859,0.000,0
161903.865,-53.223,-33.203,-32.227,-24.414,0.000,0
161903.869,-41.504,-31.250,-28.320,-31.738,0.000,0
161903.873,-37.109,-30.273,-20.020,-21.973,0.000,0
161903.877,-47.852,-33.691,-28.809,-15.137,0.000,0
161903.881,-38.574,-31.250,-23.438,-24.902,0.000,0
161903.885,-26.855,-30.273,-37.598,-14.648,0.000,0
161903.888,-25.391,-31.738,-38.086,-15.625,0.000,0
161903.892,-30.762,-31.738,-16.602,-15.625,0.000,0
161903.896,-29.785,-29.785,-17.090,-15.625,0.000,0
161903.900,-25.879,-29.785,-32.715,-9.766,0.000,0
161903.904,-23.438,-25.879,-26.855,-39.062,0.000,0
161903.908,-22.949,-27.344,-16.602,-44.434,0.000,0
161903.912,-29.785,-35.645,-26.855,-16.113,0.000,0
161903.916,-30.273,-33.691,-28.809,-17.090,0.000,0
161903.920,-27.832,-28.320,-24.902,6.348,0.000,0
161903.924,-32.715,-30.273,-32.715,-6.348,0.000,0
161903.928,-39.062,-35.156,-34.180,-38.086,0.000,0
161903.931,-36.621,-34.668,-33.203,-38.574,0.000,0
161903.935,-34.668,-31.738,-38.086,-17.090,0.000,0
161903.939,-37.598,-26.855,-34.180,-53.711,0.000,0
161903.943,-36.621,-24.902,-28.320,-60.547,0.000,0
161903.947,-36.133,-29.785,-7.324,-38.574,0.000,0
161903.951,-36.621,-26.855,-18.555,-43.457,0.000,0
161903.955,-33.691,-29.297,-30.273,-32.227,0.000,0
161903.959,-37.598,-33.691,-31.250,-29.785,0.000,0
161903.963,-38.574,-30.273,-24.414,-36.621,0.000,0
161903.967,-37.598,-29.785,-7.812,-41.504,0.000,0
161903.971,-33.203,-32.227,-25.391,-48.828,0.000,0
161903.974,-37.598,-31.250,-35.156,-35.645,0.000,0
161903.978,-41.992,-31.738,-30.762,-9.766,0.000,0
161903.982,-40.039,-34.668,-14.648,-20.020,0.000,0
161903.986,-32.715,-35.156,-14.648,-45.898,0.000,0
161903.990,-42.480,-32.715,-31.738,-47.363,0.000,0
161903.994,-42.480,-28.320,-37.598,-28.809,0.000,0
161903.998,-40.527,-25.879,-31.738,-31.738,0.000,0
161904.002,-41.992,-27.344,-26.855,-38.086,0.000,0
161904.006,-31.738,-30.273,-20.508,-58.105,0.000,0
161904.010,-27.832,-30.762,-25.879,-50.293,0.000,0
161904.013,-37.109,-31.250,-29.785,-4.395,0.000,0
161904.017,-37.598,-32.715,-35.645,4.883,0.000,0
161904.021,-28.809,-31.250,-35.156,-4.395,0.000,0
161904.025,-26.855,-24.414,-12.207,-12.695,0.000,0
161904.029,-22.461,-23.438,-19.531,-29.785,0.000,0
161904.033,-23.926,-30.273,-41.016,-27.344,0.000,0
161904.037,-30.762,-26.855,-35.156,-17.578,0.000,0
161904.041,-36.133,-27.832,-28.320,-20.996,0.000,0
161904.045,-35.645,-35.156,-19.531,-27.832,0.000,0
161904.049,-28.320,-30.273,-19.531,-18.555,0.000,0
161904.053,-30.762,-28.809,-25.879,-30.762,0.000,0
161904.056,-37.109,-28.320,-30.273,-35.156,0.000,0
161904.060,-23.926,-24.902,-34.668,-8.301,0.000,0
161904.064,-22.949,-27.832,-20.996,-26.367,0.000,0
161904.068,-27.832,-29.785,-17.090,-35.156,0.000,0
161904.072,-23.926,-28.320,-21.973,5.859,0.000,0
161904.076,-13.184,-25.391,-25.879,15.625,0.000,0
161904.080,-7.324,-22.949,-33.691,-6.348,0.000,0
161904.084,-6.836,-22.461,-15.137,-35.645,0.000,0
161904.088,-13.184,-23.438,-7.812,-38.086,0.000,0
161904.092,-21.484,-31.250,-18.555,-21.973,0.000,0
161904.096,-14.648,-29.785,-18.066,-12.695,0.000,0
161904.099,-16.602,-23.926,-19.531,-12.207,0.000,0
161904.103,-27.832,-27.832,-15.137,-37.598,0.000,0
161904.107,-27.832,-24.902,-9.277,-26.855,0.000,0
161904.111,-22.461,-24.414,-25.391,-13.184,0.000,0
161904.115,-29.297,-28.320,-24.414,-12.695,0.000,0
161904.119,-37.109,-24.902,-17.090,-11.230,0.000,0
161904.123,-34.668,-20.996,-30.762,-25.879,0.000,0
161904.127,-37.598,-20.020,-24.414,-26.855,0.000,0
161904.131,-32.227,-19.531,-12.695,-22.949,0.000,0
161904.135,-25.879,-19.043,-26.855,-8.301,0.000,0
161904.138,-35.645,-20.508,-42.480,-9.277,0.000,0
161904.142,-32.715,-20.996,-24.414,-23.438,0.000,0
161904.146,-23.926,-19.043,-12.695,-27.344,0.000,0
161904.150,-26.367,-21.484,-18.066,-25.391,0.000,0
161904.154,-37.598,-23.438,-19.043,-12.695,0.000,0
161904.158,-37.598,-20.508,-32.227,-23.438,0.000,0
161904.162,-25.879,-18.555,-15.137,-18.555,0.000,0
161904.166,-18.066,-20.508,-4.883,-22.461,0.000,0
161904.170,-21.973,-22.949,-24.414,-33.203,0.000,0
161904.174,-26.367,-22.461,-37.598,-15.137,0.000,0
161904.178,-22.461,-22.461,-20.020,-11.719,0.000,0
161904.181,-19.531,-23.926,-21.973,-25.391,0.000,0
161904.185,-12.695,-21.484,-23.438,-18.555,0.000,0
161904.189,-17.090,-20.996,-23.438,-20.508,0.000,0
161904.193,-19.531,-22.461,-20.508,-24.414,0.000,0
161904.197,-26.855,-21.973,-21.484,5.371,0.000,0
161904.201,-34.180,-23.438,-25.391,5.371,0.000,0
161904.205,-29.785,-24.414,-21.484,-26.367,0.000,0
161904.209,-37.598,-25.879,-26.367,-23.438,0.000,0
161904.213,-38.574,-29.297,-39.551,14.160,0.000,0
161904.217,-27.344,-24.902,-36.621,-4.883,0.000,0
161904.221,-26.855,-20.508,-9.277,-35.645,0.000,0
161904.224,-35.645,-24.414,-5.859,-21.484,0.000,0
161904.228,-30.273,-30.762,-38.086,-14.648,0.000,0
161904.232,-25.879,-28.320,-33.203,-22.949,0.000,0
161904.236,-37.109,-22.461,-19.531,-27.344,0.000,0
161904.240,-31.250,-20.996,-20.508,-21.973,0.000,0
161904.244,-20.020,-19.531,-11.230,-28.320,0.000,0
161904.248,-21.973,-19.531,-15.625,-19.531,0.000,0
161904.252,-26.367,-20.996,-17.578,-18.066,0.000,0
161904.256,-18.555,-20.996,-17.578,-18.066,0.000,0
161904.260,-13.672,-20.996,-10.742,-1.465,0.000,0
161904.263,-15.625,-22.461,-14.648,-6.348,0.000,0
161904.267,-11.719,-21.484,-5.371,-8.789,0.000,0
161904.271,-6.348,-17.578,-11.719,-7.812,0.000,0
161904.275,-20.020,-20.508,-33.203,-10.742,0.000,0
161904.279,-34.668,-26.367,-22.461,-24.414,0.000,0
161904.283,-19.043,-25.879,-4.395,-29.785,0.000,0
161904.287,-18.066,-22.949,-18.555,-19.531,0.000,0
161904.291,-22.461,-21.973,-28.809,-16.113,0.000,0
161904.295,-18.555,-22.461,-18.066,-10.742,0.000,0
161904.299,-20.508,-23.438,-2.441,4.395,0.000,0
161904.303,-17.578,-29.297,-3.906,-11.719,0.000,0
161904.306,-16.602,-27.832,-17.578,-10.742,0.000,0
161904.310,-26.855,-24.414,-17.090,-9.766,0.000,0
161904.314,-27.832,-26.855,-22.461,-13.672,0.000,0
161904.318,-23.438,-29.297,-30.762,-15.625,0.000,0
161904.322,-22.949,-25.879,-9.277,-23.438,0.000,0
161904.326,-17.578,-20.508,-10.254,-11.230,0.000,0
161904.330,-16.602,-20.996,-22.949,-13.184,0.000,0
161904.334,-24.902,-22.461,-24.902,-19.531,0.000,0
161904.338,-21.484,-25.391,-24.902,-11.230,0.000,0
161904.342,-9.766,-20.996,-9.766,-16.602,0.000,0
161904.346,-15.625,-11.230,-13.672,-22.461,0.000,0
161904.349,-38.086,-15.137,-36.133,-17.578,0.000,0
161904.353,-57.129,-22.949,-47.363,-36.133,0.000,0
161904.357,-45.898,-20.508,-34.668,-30.273,0.000,0
161904.361,-34.180,-20.996,-23.438,-21.484,0.000,0
161904.365,-38.574,-19.531,-39.551,-24.902,0.000,0
161904.369,-37.109,-18.555,-47.363,-15.625,0.000,0
161904.373,-41.504,-18.555,-39.551,-21.484,0.000,0
161904.377,-43.457,-15.625,-41.992,-36.621,0.000,0
161904.381,-29.785,-21.484,-23.438,-37.598,0.000,0
161904.385,-32.715,-25.391,-20.996,-24.902,0.000,0
161904.388,-40.039,-23.926,-33.691,-10.254,0.000,0
161904.392,-40.527,-20.020,-36.133,-11.719,0.000,0
161904.396,-41.016,-20.996,-33.691,-11.719,0.000,0
161904.400,-40.527,-21.484,-9.766,-11.230,0.000,0
161904.404,-41.992,-21.973,-14.160,-25.879,0.000,0
161904.408,-29.297,-19.531,-32.227,-25.391,0.000,0
161904.412,-29.297,-19.531,-26.367,-26.367,0.000,0
161904.416,-29.297,-19.043,-20.996,-19.531,0.000,0
161904.420,-24.414,-18.066,-17.578,-11.719,0.000,0
161904.424,-26.855,-17.090,-28.320,-14.160,0.000,0
161904.428,-29.785,-16.602,-29.297,-13.672,0.000,0
161904.431,-28.809,-25.391,-24.902,-22.949,0.000,0
161904.435,-22.461,-24.414,-32.227,-23.926,0.000,0
161904.439,-20.508,-23.926,-23.438,-41.992,0.000,0
161904.443,-18.555,-26.855,-16.113,-29.785,0.000,0
161904.447,-21.973,-22.461,-15.625,-14.160,0.000,0
161904.451,-29.297,-18.066,-26.855,-31.738,0.000,0
161904.455,-25.879,-17.578,-33.203,-17.578,0.000,0
161904.459,-19.043,-19.043,-18.066,-13.184,0.000,0
161904.463,-29.785,-20.508,-9.766,-21.973,0.000,0
161904.467,-30.273,-20.996,-15.625,-19.043,0.000,0
161904.471,-24.414,-20.020,-37.598,-9.766,0.000,0
161904.474,-33.691,-22.461,-37.109,-11.719,0.000,0
161904.478,-31.250,-22.949,-15.137,-20.508,0.000,0
161904.482,-23.926,-19.531,-11.230,-33.691,0.000,0
161904.486,-39.062,-25.879,-23.438,-38.574,0.000,0
161904.490,-47.852,-24.414,-23.438,-27.832,0.000,0
161904.494,-45.410,-24.414,-19.043,-19.531,0.000,0
161904.498,-43.945,-30.273,-24.902,-31.250,0.000,0
161904.502,-39.551,-31.250,-37.109,-33.691,0.000,0
161904.506,-36.621,-28.320,-34.668,-28.809,0.000,0
161904.510,-29.297,-25.879,-24.902,-29.297,0.000,0
161904.513,-27.832,-27.832,-24.902,-26.855,0.000,0
161904.517,-27.832,-28.809,-21.973,-19.043,0.000,0
161904.521,-30.273,-32.227,-19.043,-27.344,0.000,0
161904.525,-29.785,-33.691,-33.691,-30.762,0.000,0
161904.529,-30.273,-25.879,-43.457,-30.762,0.000,0
161904.533,-25.391,-21.973,-35.156,-29.785,0.000,0
161904.537,-24.414,-24.414,-19.043,-20.508,0.000,0
161904.541,-27.832,-20.508,-22.949,-26.855,0.000,0
161904.545,-18.066,-17.090,-38.574,-31.738,0.000,0
161904.549,-28.809,-22.461,-27.832,-24.414,0.000,0
161904.553,-33.691,-22.949,-14.160,-11.719,0.000,0
161904.556,-25.391,-23.926,-29.297,-7.324,0.000,0
161904.560,-32.227,-27.832,-34.668,-34.668,0.000,0
161904.564,-29.785,-28.809,-33.203,-31.250,0.000,0
161904.568,-33.691,-32.227,-25.391,-25.391,0.000,0
161904.572,-40.527,-35.645,-48.828,-24.902,0.000,0
161904.576,-33.691,-41.016,-53.223,-17.090,0.000,0
161904.580,-35.645,-31.250,-22.949,-39.062,0.000,0
161904.584,-37.109,-20.996,-21.484,-40.527,0.000,0
161904.588,-36.621,-26.855,-30.762,-25.391,0.000,0
161904.592,-28.809,-29.785,-48.340,-15.137,0.000,0
161904.596,-26.855,-25.879,-23.438,-16.602,0.000,0
161904.599,-26.855,-24.902,0.488,-19.531,0.000,0
161904.603,-19.531,-21.484,-29.297,-17.090,0.000,0
161904.607,-21.484,-22.949,-33.203,-28.320,0.000,0
161904.611,-30.273,-31.738,-24.902,-22.949,0.000,0
161904.615,-32.227,-30.273,-20.508,-16.602,0.000,0
161904.619,-30.273,-23.926,-10.254,-30.273,0.000,0
161904.623,-28.320,-24.902,-16.113,-24.414,0.000,0
161904.627,-25.879,-25.391,-10.254,-6.836,0.000,0
161904.631,-26.367,-22.949,-15.137,-0.977,0.000,0
161904.635,-23.926,-26.855,-28.809,-13.672,0.000,0
161904.638,-21.973,-29.785,-14.648,-32.227,0.000,0
161904.642,-9.277,-23.926,-1.953,-11.719,0.000,0
161904.646,-7.812,-20.996,-8.789,-7.812,0.000,0
161904.650,-12.695,-19.531,-16.602,-24.414,0.000,0
161904.654,-12.207,-22.949,-11.230,-21.973,0.000,0
161904.658,-23.926,-26.367,0.977,-25.879,0.000,0
161904.662,-22.461,-21.484,-11.230,-25.879,0.000,0
161904.666,-14.648,-18.555,-16.602,-20.020,0.000,0
161904.670,-12.207,-19.043,0.000,-15.137,0.000,0
161904.674,-13.184,-19.531,-10.742,0.000,0.000,0
161904.678,-26.367,-20.020,-12.207,-14.648,0.000,0
161904.681,-35.645,-17.090,-5.371,-39.062,0.000,0
161904.685,-26.367,-19.531,-12.695,-18.066,0.000,0
161904.689,-23.926,-27.832,-19.531,-17.090,0.000,0
161904.693,-25.879,-21.484,-27.344,-21.484,0.000,0
161904.697,-30.273,-18.555,-9.277,-20.996,0.000,0
161904.701,-36.621,-20.508,-21.973,-19.531,0.000,0
161904.705,-19.043,-20.020,-40.039,-7.324,0.000,0
161904.709,-23.926,-24.414,-33.691,-2.930,0.000,0
161904.713,-40.527,-30.762,-35.645,-13.672,0.000,0
161904.717,-41.016,-33.203,-17.090,-23.438,0.000,0
161904.721,-39.062,-29.785,-25.879,-6.836,0.000,0
161904.724,-28.320,-29.785,-43.457,0.000,0.000,0
161904.728,-36.133,-28.809,-29.297,-21.484,0.000,0
161904.732,-34.180,-25.391,-19.043,-11.230,0.000,0
161904.736,-25.879,-24.902,-25.879,-21.973,0.000,0
161904.740,-24.414,-27.832,-36.621,-33.203,0.000,0
161904.744,-21.484,-27.832,-32.715,-13.672,0.000,0
161904.748,-29.297,-24.414,-21.973,-8.301,0.000,0
161904.752,-30.762,-30.273,-25.879,-13.672,0.000,0
161904.756,-14.648,-31.250,-12.695,-19.043,0.000,0
161904.760,-18.555,-30.273,-11.230,-26.367,0.000,0
161904.763,-22.949,-34.180,-23.926,-24.902,0.000,0
161904.767,-13.184,-29.297,-23.438,-13.672,0.000,0
161904.771,-18.066,-25.391,-25.391,-1.953,0.000,0
161904.775,-21.484,-27.832,-9.277,-17.578,0.000,0
161904.779,-10.742,-23.926,-15.625,-19.043,0.000,0
161904.783,-10.254,-22.461,-40.039,-3.418,0.000,0
161904.787,-13.184,-24.902,-29.785,0.977,0.000,0
161904.791,-11.719,-25.391,-22.461,-14.648,0.000,0
161904.795,-20.996,-25.879,-25.879,-21.973,0.000,0
161904.799,-22.949,-29.785,-30.273,-16.602,0.000,0
161904.803,-21.973,-30.273,-29.785,-25.879,0.000,0
161904.806,-29.297,-20.508,-24.414,-26.855,0.000,0
161904.810,-23.438,-23.926,-31.738,-22.949,0.000,0
161904.814,-17.578,-25.879,-23.926,-21.484,0.000,0
161904.818,-30.273,-19.043,-12.207,-16.113,0.000,0
161904.822,-35.645,-22.461,-22.461,-19.043,0.000,0
161904.826,-31.738,-28.809,-35.156,-25.879,0.000,0
161904.830,-27.344,-32.227,-32.227,-31.738,0.000,0
161904.834,-30.762,-30.762,-20.020,-34.668,0.000,0
161904.838,-28.809,-29.297,-20.020,-39.062,0.000,0
161904.842,-26.367,-28.320,-30.273,-47.852,0.000,0
161904.846,-33.691,-29.297,-33.691,-37.109,0.000,0
161904.849,-38.574,-27.832,-32.715,-20.996,0.000,0
161904.853,-40.527,-25.391,-29.785,-27.832,0.000,0
161904.857,-35.645,-26.367,-32.227,-27.344,0.000,0
161904.861,-30.273,-21.973,-35.645,-23.438,0.000,0
161904.865,-35.645,-20.020,-27.832,-34.180,0.000,0
161904.869,-40.527,-19.531,-24.902,-20.508,0.000,0
161904.873,-31.738,-16.602,-32.715,-12.207,0.000,0
161904.877,-24.414,-18.066,-21.973,-24.902,0.000,0
161904.881,-27.344,-18.555,-8.789,-27.344,0.000,0
161904.885,-29.785,-16.602,-30.762,-16.602,0.000,0
161904.888,-17.090,-14.648,-45.410,-5.371,0.000,0
161904.892,-14.648,-17.578,-22.949,-1.953,0.000,0
161904.896,-17.578,-12.695,3.418,-14.160,0.000,0
161904.900,-7.324,-8.789,-1.953,-11.719,0.000,0
161904.904,-0.488,-11.230,-12.695,-7.324,0.000,0
161904.908,-6.348,-12.695,-17.090,-14.648,0.000,0
161904.912,-14.160,-13.184,-11.719,-14.160,0.000,0
161904.916,-17.578,-13.184,-8.789,-18.066,0.000,0
161904.920,-20.020,-16.602,-21.973,-18.066,0.000,0
161904.924,-19.531,-20.508,-18.066,-11.230,0.000,0
161904.928,-20.996,-18.555,4.395,-13.184,0.000,0
161904.931,-4.395,-18.555,0.488,-10.254,0.000,0
161904.935,6.836,-18.066,-2.441,0.000,0.000,0
161904.939,-13.184,-17.090,-12.207,-17.090,0.000,0
161904.943,-38.086,-20.508,-20.508,-41.504,0.000,0
161904.947,-32.715,-20.020,-20.020,-25.391,0.000,0
161904.951,-18.555,-14.160,-15.625,-8.789,0.000,0
161904.955,-31.738,-15.625,-7.324,-23.926,0.000,0
161904.959,-40.039,-14.160,-18.066,-24.902,0.000,0
161904.963,-26.367,-19.043,-30.273,-11.230,0.000,0
161904.967,-24.902,-20.020,-32.715,-16.602,0.000,0
161904.971,-25.391,-22.949,-14.160,-23.438,0.000,0
161904.974,-18.066,-25.879,14.648,-24.414,0.000,0
161904.978,-27.832,-23.438,-22.461,-25.879,0.000,0
161904.982,-38.086,-26.367,-31.738,-39.551,0.000,0
161904.986,-29.785,-30.273,-24.414,-29.297,0.000,0
161904.990,-32.715,-38.086,-36.133,-23.438,0.000,0
161904.994,-33.203,-31.250,-17.090,-27.832,0.000,0
161904.998,-25.879,-29.297,-20.508,-12.207,0.000,0
161905.002,-29.785,-31.738,-31.738,-18.066,0.000,0
161905.006,-33.691,-28.809,-35.156,-21.484,0.000,0
161905.010,-26.367,-34.180,-36.133,-11.230,0.000,0
161905.013,-18.555,-36.621,-25.879,-32.227,0.000,0
161905.017,-20.996,-27.832,-7.324,-35.645,0.000,0
161905.021,-16.113,-24.414,-20.020,-20.020,0.000,0
161905.025,-18.555,-29.297,-36.621,-14.648,0.000,0
161905.029,-27.344,-22.949,-25.391,-17.578,0.000,0
161905.033,-19.043,-24.414,-8.789,-18.066,0.000,0
161905.037,-22.461,-25.879,-29.297,-14.648,0.000,0
161905.041,-27.832,-22.461,-36.133,-19.043,0.000,0
161905.045,-22.461,-23.438,-20.996,-21.484,0.000,0
161905.049,-23.926,-25.391,-20.996,-28.320,0.000,0
161905.053,-18.066,-22.461,-17.090,-21.484,0.000,0
161905.056,-11.719,-21.973,-20.508,-3.906,0.000,0
161905.060,-14.648,-18.555,-20.996,-8.789,0.000,0
161905.064,-8.789,-20.996,-28.320,-7.324,0.000,0
161905.068,-8.301,-28.320,-24.414,-13.672,0.000,0
161905.072,-13.184,-21.973,-5.371,-32.227,0.000,0
161905.076,-14.160,-17.090,-15.625,-17.090,0.000,0
161905.080,-11.719,-22.949,-20.996,-12.695,0.000,0
161905.084,-18.066,-27.344,-21.484,-23.926,0.000,0
161905.088,-16.113,-27.832,-26.855,-15.625,0.000,0
161905.092,-16.113,-28.809,-13.184,-0.977,0.000,0
161905.096,-27.832,-26.367,-14.160,2.930,0.000,0
161905.099,-24.902,-25.391,-20.996,-14.160,0.000,0
161905.103,-26.367,-28.320,-15.625,-18.066,0.000,0
161905.107,-28.809,-28.320,-10.254,-21.484,0.000,0
161905.111,-24.414,-26.367,-10.742,-27.832,0.000,0
161905.115,-21.484,-24.414,-16.113,-16.602,0.000,0
161905.119,-12.695,-20.996,-21.973,-14.648,0.000,0
161905.123,-12.695,-21.973,-24.414,-14.648,0.000,0
161905.127,-12.207,-24.902,-25.391,-10.254,0.000,0
161905.131,-16.113,-25.879,-12.207,-20.996,0.000,0
161905.135,-24.414,-24.414,-20.020,-23.438,0.000,0
161905.138,-20.020,-29.297,-32.227,-12.207,0.000,0
161905.142,-18.555,-31.738,-28.320,-16.113,0.000,0
161905.146,-25.879,-30.762,-23.926,-20.996,0.000,0
161905.150,-27.832,-30.273,-11.719,-24.902,0.000,0
161905.154,-22.461,-31.250,-20.996,-19.531,0.000,0
161905.158,-20.508,-30.273,-29.785,-7.812,0.000,0
161905.162,-30.273,-25.391,-22.461,-15.625,0.000,0
161905.166,-29.297,-20.508,-13.184,-11.719,0.000,0
161905.170,-24.414,-21.973,-5.371,3.418,0.000,0
161905.174,-30.273,-24.902,-20.508,-2.930,0.000,0
161905.178,-30.762,-26.367,-27.344,-4.883,0.000,0
161905.181,-32.227,-32.227,-21.484,-5.859,0.000,0
161905.185,-35.156,-29.785,-25.391,-12.207,0.000,0
161905.189,-30.273,-22.949,-28.809,-18.555,0.000,0
161905.193,-22.949,-27.344,-22.949,-11.230,0.000,0
161905.197,-20.508,-29.785,-20.508,-6.348,0.000,0
161905.201,-28.320,-20.996,-36.133,-12.207,0.000,0
161905.205,-25.391,-18.066,-31.250,-3.906,0.000,0
161905.209,-23.926,-20.508,-14.648,-9.766,0.000,0
161905.213,-35.645,-23.438,-20.996,-21.484,0.000,0
161905.217,-31.738,-24.902,-27.832,-13.184,0.000,0
161905.221,-28.809,-26.855,-27.832,-11.230,0.000,0
161905.224,-27.344,-31.250,-29.785,-5.371,0.000,0
161905.228,-22.949,-31.738,-16.113,-5.371,0.000,0
161905.232,-22.461,-23.926,-13.672,-17.578,0.000,0
161905.236,-19.043,-27.832,-34.180,-18.066,0.000,0
161905.240,-12.695,-32.227,-30.762,-5.371,0.000,0
161905.244,-16.113,-21.484,-24.902,-1.465,0.000,0
161905.248,-11.719,-20.020,-20.508,-8.789,0.000,0
161905.252,-0.977,-23.926,-13.184,-16.113,0.000,0
161905.256,-11.230,-23.438,-7.324,-19.531,0.000,0
161905.260,-23.926,-20.508,-17.578,-9.766,0.000,0
161905.263,-32.227,-25.391,-30.762,-13.672,0.000,0
161905.267,-29.785,-28.809,-9.766,-30.273,0.000,0
161905.271,-22.461,-22.949,-11.230,-28.320,0.000,0
161905.275,-29.297,-20.996,-27.832,-14.160,0.000,0
161905.279,-25.879,-22.949,-21.973,-13.184,0.000,0
161905.283,-22.461,-28.809,-20.020,-13.672,0.000,0
161905.287,-28.809,-28.320,-15.137,-20.508,0.000,0
161905.291,-29.297,-19.043,-16.113,-24.414,0.000,0
161905.295,-30.273,-23.438,-19.531,-28.809,0.000,0
161905.299,-34.180,-27.832,-21.973,-24.902,0.000,0
161905.303,-30.762,-25.879,-41.992,-12.695,0.000,0
161905.306,-25.391,-26.855,-29.785,-27.832,0.000,0
161905.310,-29.785,-31.250,-26.367,-24.414,0.000,0
161905.314,-37.109,-34.180,-32.715,-17.578,0.000,0
161905.318,-41.504,-36.133,-37.109,-23.926,0.000,0
161905.322,-35.156,-36.133,-49.316,-16.113,0.000,0
161905.326,-35.645,-36.133,-25.879,-20.508,0.000,0
161905.330,-41.992,-36.133,-24.902,-24.414,0.000,0
161905.334,-39.551,-31.250,-36.133,-26.367,0.000,0
161905.338,-24.902,-30.762,-46.875,-28.320,0.000,0
161905.342,-28.809,-28.809,-47.363,-25.391,0.000,0
161905.346,-36.133,-34.180,-11.230,-31.738,0.000,0
161905.349,-33.691,-37.109,-20.996,-33.203,0.000,0
161905.353,-26.367,-29.297,-57.129,-23.926,0.000,0
161905.357,-28.320,-29.297,-38.086,-12.695,0.000,0
161905.361,-34.180,-29.785,-18.555,-17.578,0.000,0
161905.365,-27.344,-31.250,-19.043,-33.203,0.000,0
161905.369,-25.879,-27.832,-17.090,-28.320,0.000,0
161905.373,-25.391,-24.414,-28.320,-13.672,0.000,0
161905.377,-20.996,-28.320,-31.250,-9.766,0.000,0
161905.381,-21.484,-29.297,-34.180,-13.184,0.000,0
161905.385,-17.090,-28.320,-34.668,-11.719,0.000,0
161905.388,-20.508,-29.785,-16.113,-15.137,0.000,0
161905.392,-20.508,-26.367,-16.113,-10.742,0.000,0
161905.396,-16.113,-27.832,-16.602,-14.160,0.000,0
161905.400,-24.414,-30.273,-20.996,-19.531,0.000,0
161905.404,-20.996,-29.297,-35.156,-16.113,0.000,0
161905.408,-21.973,-26.855,-10.254,-28.320,0.000,0
161905.412,-26.367,-17.090,-19.531,-23.926,0.000,0
161905.416,-20.020,-15.137,-37.598,-10.742,0.000,0
161905.420,-19.531,-15.137,-28.320,-1.465,0.000,0
161905.424,-28.809,-13.184,-20.996,-9.277,0.000,0
161905.428,-33.203,-23.438,-19.531,-23.926,0.000,0
161905.431,-25.879,-24.414,-18.066,-19.531,0.000,0
161905.435,-20.508,-18.555,-14.160,-28.320,0.000,0
161905.439,-24.414,-19.531,-25.391,-33.203,0.000,0
161905.443,-23.438,-18.066,-24.414,-23.438,0.000,0
161905.447,-20.508,-18.555,-7.812,-27.344,0.000,0
161905.451,-20.508,-16.602,-21.484,-19.043,0.000,0
161905.455,-23.926,-19.043,-36.621,-15.137,0.000,0
161905.459,-19.531,-27.344,-33.691,-16.602,0.000,0
161905.463,-25.391,-28.809,-23.438,-3.418,0.000,0
161905.467,-36.133,-23.438,-16.602,-20.996,0.000,0
161905.471,-33.691,-23.438,-27.344,-37.109,0.000,0
161905.474,-34.668,-26.855,-33.691,-18.066,0.000,0
161905.478,-30.762,-27.344,-27.832,-12.695,0.000,0
161905.482,-27.344,-26.367,-25.391,-21.973,0.000,0
161905.486,-29.297,-28.320,-34.180,-33.203,0.000,0
161905.490,-30.762,-31.250,-40.039,-24.414,0.000,0
161905.494,-32.715,-26.855,-36.621,-6.348,0.000,0
161905.498,-29.785,-23.438,-24.414,-17.578,0.000,0
161905.502,-31.250,-27.344,-28.809,-26.367,0.000,0
161905.506,-33.203,-23.438,-46.387,-20.508,0.000,0
161905.510,-26.367,-18.066,-31.738,-20.020,0.000,0
161905.513,-33.691,-21.484,-24.902,-6.836,0.000,0
161905.517,-35.645,-25.879,-33.691,-6.836,0.000,0
161905.521,-34.180,-24.902,-33.203,-28.320,0.000,0
161905.525,-39.551,-23.926,-17.578,-30.762,0.000,0
161905.529,-35.645,-27.344,-31.738,-20.020,0.000,0
161905.533,-33.691,-27.832,-55.664,-28.809,0.000,0
161905.537,-34.668,-27.832,-34.180,-30.273,0.000,0
161905.541,-31.738,-29.297,-18.066,-26.855,0.000,0
161905.545,-33.691,-28.809,-19.043,-47.363,0.000,0
161905.549,-33.691,-28.320,-23.438,-52.246,0.000,0
161905.553,-36.621,-27.832,-28.320,-36.133,0.000,0
161905.556,-36.621,-24.414,-29.785,-28.809,0.000,0
161905.560,-21.973,-26.855,-25.879,-32.715,0.000,0
161905.564,-16.113,-26.367,-14.648,-29.297,0.000,0
161905.568,-17.578,-20.508,-14.160,-25.879,0.000,0
161905.572,-21.484,-24.414,-24.902,-34.668,0.000,0
161905.576,-22.461,-25.391,-34.668,-37.598,0.000,0
161905.580,-26.855,-25.391,-39.551,-33.691,0.000,0
161905.584,-35.645,-29.297,-23.926,-29.785,0.000,0
161905.588,-35.645,-28.809,-16.602,-20.508,0.000,0
161905.592,-29.785,-30.273,-40.039,-13.672,0.000,0
161905.596,-30.273,-28.320,-42.969,-14.648,0.000,0
161905.599,-33.691,-24.902,-22.949,-24.414,0.000,0
161905.603,-33.691,-27.344,-7.812,-32.715,0.000,0
161905.607,-29.785,-23.926,-24.902,-18.555,0.000,0
161905.611,-26.855,-19.531,-25.391,-15.625,0.000,0
161905.615,-29.785,-20.020,-9.766,-20.508,0.000,0
161905.619,-23.438,-19.531,-31.250,-9.766,0.000,0
161905.623,-18.555,-20.508,-29.297,-22.949,0.000,0
161905.627,-19.531,-16.602,-11.719,-28.809,0.000,0
161905.631,-21.484,-12.207,-12.207,-12.207,0.000,0
161905.635,-25.391,-17.090,-24.414,-14.160,0.000,0
161905.638,-26.855,-20.020,-33.203,-12.207,0.000,0
161905.642,-23.438,-22.949,-10.254,-26.367,0.000,0
161905.646,-18.066,-26.367,-3.906,-38.086,0.000,0
161905.650,-18.555,-30.762,-36.133,-25.879,0.000,0
161905.654,-17.578,-28.809,-46.875,-19.531,0.000,0
161905.658,-8.789,-24.902,-31.738,-10.254,0.000,0
161905.662,-14.648,-24.414,-15.625,-10.742,0.000,0
161905.666,-18.555,-23.438,-23.926,0.488,0.000,0
161905.670,-19.043,-24.902,-45.410,0.488,0.000,0
161905.674,-28.809,-26.367,-28.809,-22.949,0.000,0
161905.678,-28.320,-29.297,-20.996,-13.184,0.000,0
161905.681,-23.438,-27.344,-28.809,-11.719,0.000,0
161905.685,-23.926,-23.438,-24.902,-25.391,0.000,0
161905.689,-24.414,-22.461,-31.250,-27.344,0.000,0
161905.693,-19.043,-22.461,-26.855,-20.508,0.000,0
161905.697,-11.230,-24.902,-27.832,-9.277,0.000,0
161905.701,-13.184,-32.715,-14.160,-8.789,0.000,0
161905.705,-23.926,-30.762,-12.695,-20.020,0.000,0
161905.709,-29.297,-24.902,-32.715,-24.902,0.000,0
161905.713,-20.508,-32.227,-23.438,-34.180,0.000,0
161905.717,-13.184,-28.320,-11.719,-27.344,0.000,0
161905.721,-15.625,-20.508,-5.859,-12.695,0.000,0
161905.724,-20.508,-24.414,-14.160,-26.855,0.000,0
161905.728,-19.531,-27.832,-30.273,-28.320,0.000,0
161905.732,-13.184,-29.297,-19.531,-6.836,0.000,0
161905.736,-11.230,-27.344,-24.902,-3.906,0.000,0
161905.740,-13.184,-28.809,-23.438,-18.555,0.000,0
161905.744,-18.066,-29.785,-9.766,-26.367,0.000,0
161905.748,-25.391,-32.715,-24.414,-18.066,0.000,0
161905.752,-29.785,-32.227,-22.461,-15.137,0.000,0
161905.756,-36.133,-28.809,-21.973,-11.719,0.000,0
161905.760,-33.203,-37.109,-40.527,-7.324,0.000,0
161905.763,-27.832,-30.762,-18.555,-20.020,0.000,0
161905.767,-26.855,-24.414,-12.695,-16.113,0.000,0
161905.771,-22.461,-34.668,-45.410,-10.254,0.000,0
161905.775,-23.926,-33.691,-37.598,-8.789,0.000,0
161905.779,-27.832,-27.832,-11.719,-13.672,0.000,0
161905.783,-20.020,-25.879,-0.488,-22.949,0.000,0
161905.787,-14.160,-26.855,-12.695,-14.160,0.000,0
161905.791,-25.391,-28.320,-15.137,-5.371,0.000,0
161905.795,-28.320,-26.855,-16.113,-3.418,0.000,0
161905.799,-20.996,-26.367,-18.066,-8.789,0.000,0
161905.803,-14.160,-26.855,-12.207,-13.672,0.000,0
161905.806,-6.348,-26.855,-15.625,-10.742,0.000,0
161905.810,-8.301,-24.414,-19.531,-5.371,0.000,0
161905.814,-6.836,-22.461,-20.996,-12.207,0.000,0
161905.818,0.977,-27.344,-17.578,-11.230,0.000,0
161905.822,-8.301,-24.414,-19.531,-9.766,0.000,0
161905.826,-13.184,-21.973,-23.926,-17.090,0.000,0
161905.830,-5.859,-27.832,-34.180,-13.184,0.000,0
161905.834,-8.301,-25.879,-34.180,-0.488,0.000,0
161905.838,-9.766,-21.484,-18.555,11.719,0.000,0
161905.842,-11.230,-21.973,-5.371,-2.441,0.000,0
161905.846,-11.230,-20.996,-19.531,-17.090,0.000,0
161905.849,-20.996,-19.531,-30.762,-8.789,0.000,0
161905.853,-30.762,-20.020,-21.973,-6.348,0.000,0
161905.857,-25.879,-22.461,-15.625,-10.254,0.000,0
161905.861,-24.414,-23.438,-21.484,-14.648,0.000,0
161905.865,-23.438,-20.020,-17.578,-17.090,0.000,0
161905.869,-17.578,-18.066,-22.949,-12.695,0.000,0
161905.873,-21.484,-17.578,-36.133,-14.160,0.000,0
161905.877,-23.926,-17.090,-30.273,-19.043,0.000,0
161905.881,-22.949,-17.578,-14.160,-11.230,0.000,0
161905.885,-26.855,-22.461,-22.949,-1.465,0.000,0
161905.888,-20.996,-21.973,-42.969,-15.625,0.000,0
161905.892,-17.578,-20.508,-33.203,-18.066,0.000,0
161905.896,-24.902,-21.973,-22.461,-11.719,0.000,0
161905.900,-27.832,-20.020,-13.672,-20.020,0.000,0
161905.904,-26.855,-20.508,-25.391,-28.809,0.000,0
161905.908,-26.367,-24.902,-48.828,-21.484,0.000,0
161905.912,-21.484,-24.414,-41.016,-10.742,0.000,0
161905.916,-22.949,-23.926,-29.785,-14.160,0.000,0
161905.920,-26.855,-22.461,-19.531,-17.090,0.000,0
161905.924,-24.414,-21.484,-32.715,-28.320,0.000,0
161905.928,-17.090,-22.949,-29.785,-28.809,0.000,0
161905.931,-11.230,-19.043,-11.230,-10.742,0.000,0
161905.935,-14.160,-16.113,-24.902,5.859,0.000,0
161905.939,-22.949,-15.137,-14.160,-12.207,0.000,0
161905.943,-28.809,-20.020,-9.766,-25.879,0.000,0
161905.947,-22.461,-20.020,-24.414,-10.742,0.000,0
161905.951,-20.508,-13.184,-34.180,-5.371,0.000,0
161905.955,-23.926,-16.113,-45.410,-10.254,0.000,0
161905.959,-14.648,-20.020,-6.836,-15.625,0.000,0
161905.963,-20.508,-20.996,1.953,-20.508,0.000,0
161905.967,-25.879,-18.066,-32.227,-14.160,0.000,0
161905.971,-27.344,-19.531,-35.645,-3.906,0.000,0
161905.974,-35.156,-25.879,-28.320,-7.812,0.000,0
161905.978,-31.738,-28.809,-17.578,-27.344,0.000,0
161905.982,-36.133,-27.832,-34.180,-39.062,0.000,0
161905.986,-38.574,-28.320,-39.062,-27.832,0.000,0
161905.990,-32.715,-26.367,-20.996,-10.742,0.000,0
161905.994,-33.691,-25.879,-25.391,-18.555,0.000,0
161905.998,-32.715,-24.902,-20.996,-46.387,0.000,0
161906.002,-41.992,-19.043,-9.766,-48.828,0.000,0
161906.006,-40.527,-20.508,-20.020,-44.434,0.000,0
161906.010,-33.203,-24.902,-29.785,-41.016,0.000,0
161906.013,-34.180,-26.855,-42.480,-31.738,0.000,0
161906.017,-29.785,-28.809,-28.809,-33.691,0.000,0
161906.021,-28.320,-27.344,-20.996,-20.020,0.000,0
161906.025,-18.555,-22.461,-48.340,-5.859,0.000,0
161906.029,-11.230,-18.555,-46.387,-19.043,0.000,0
161906.033,-22.949,-21.484,-25.879,-21.973,0.000,0
161906.037,-26.855,-24.414,-12.207,-8.301,0.000,0
161906.041,-24.414,-26.367,-24.414,-7.324,0.000,0
161906.045,-19.043,-21.973,-32.227,-14.648,0.000,0
161906.049,-22.461,-20.508,-14.160,-16.113,0.000,0
161906.053,-31.738,-23.438,-17.090,-28.809,0.000,0
161906.056,-25.879,-23.926,-24.414,-33.203,0.000,0
161906.060,-28.320,-24.414,-24.414,-28.320,0.000,0
161906.064,-22.949,-26.367,-32.227,-22.461,0.000,0
161906.068,-14.160,-21.973,-25.879,-21.484,0.000,0
161906.072,-14.160,-18.555,-20.508,-18.555,0.000,0
161906.076,-16.113,-21.973,-9.277,-29.297,0.000,0
161906.080,-17.578,-28.320,-17.090,-31.738,0.000,0
161906.084,-18.555,-27.832,-30.273,-17.578,0.000,0
161906.088,-15.625,-30.762,-41.016,-10.742,0.000,0
161906.092,-19.531,-33.691,-36.621,-19.531,0.000,0
161906.096,-26.855,-36.133,-12.207,-31.738,0.000,0
161906.099,-24.414,-40.039,-35.156,-21.973,0.000,0
161906.103,-22.461,-36.133,-41.504,-14.648,0.000,0
161906.107,-20.996,-35.156,-20.996,-21.484,0.000,0
161906.111,-8.301,-34.180,-31.250,-3.906,0.000,0
161906.115,-7.812,-30.273,-31.250,-5.859,0.000,0
161906.119,-34.180,-31.250,-21.484,-38.574,0.000,0
161906.123,-43.457,-27.832,-26.367,-36.621,0.000,0
161906.127,-30.273,-22.461,-40.039,-19.043,0.000,0
161906.131,-28.320,-19.531,-40.527,-18.066,0.000,0
161906.135,-37.109,-20.996,-31.250,-34.668,0.000,0
161906.138,-36.133,-26.855,-21.484,-43.457,0.000,0
161906.142,-34.180,-26.855,-32.715,-37.109,0.000,0
161906.146,-27.832,-22.949,-33.691,-22.949,0.000,0
161906.150,-20.508,-20.020,-27.344,-9.277,0.000,0
161906.154,-20.508,-24.902,-23.438,-26.367,0.000,0
161906.158,-26.367,-26.367,-28.320,-39.062,0.000,0
161906.162,-26.367,-22.461,-41.016,-25.879,0.000,0
161906.166,-19.531,-26.855,-35.645,-21.973,0.000,0
161906.170,-29.785,-25.391,-36.621,-26.367,0.000,0
161906.174,-28.809,-24.414,-36.133,-24.414,0.000,0
161906.178,-23.438,-22.461,-21.973,-26.855,0.000,0
161906.181,-22.949,-17.090,-19.043,-21.484,0.000,0
161906.185,-28.809,-22.949,-29.297,-27.832,0.000,0
161906.189,-32.715,-27.344,-46.875,-30.273,0.000,0
161906.193,-23.438,-27.832,-37.598,-26.367,0.000,0
161906.197,-31.738,-29.785,-18.066,-27.344,0.000,0
161906.201,-44.922,-25.391,-29.785,-30.273,0.000,0
161906.205,-43.457,-23.438,-35.156,-32.227,0.000,0
161906.209,-31.738,-20.020,-22.949,-27.832,0.000,0
161906.213,-26.367,-18.555,-15.625,-18.555,0.000,0
161906.217,-26.367,-17.090,-16.602,-18.066,0.000,0
161906.221,-28.320,-19.043,-24.414,-20.020,0.000,0
161906.224,-28.320,-20.020,-18.555,-24.902,0.000,0
161906.228,-25.391,-21.973,-5.859,-9.766,0.000,0
161906.232,-23.926,-23.926,-25.879,-0.488,0.000,0
161906.236,-25.391,-24.414,-29.785,-24.902,0.000,0
161906.240,-30.273,-22.461,-21.973,-22.949,0.000,0
161906.244,-29.785,-26.855,-26.367,-13.184,0.000,0
161906.248,-31.738,-31.738,-40.527,-9.766,0.000,0
161906.252,-29.297,-27.344,-40.039,-4.395,0.000,0
161906.256,-31.738,-29.785,-26.855,-16.113,0.000,0
161906.260,-33.203,-35.156,-29.785,-19.531,0.000,0
161906.263,-30.273,-33.203,-33.203,-8.301,0.000,0
161906.267,-23.438,-35.156,-38.086,0.000,0.000,0
161906.271,-25.391,-31.738,-27.832,-0.488,0.000,0
161906.275,-34.668,-26.855,-7.812,-14.160,0.000,0
161906.279,-21.484,-26.855,-28.809,-16.602,0.000,0
161906.283,-15.137,-23.926,-27.832,-3.906,0.000,0
161906.287,-27.344,-20.996,-18.066,4.883,0.000,0
161906.291,-19.043,-23.438,-21.973,2.441,0.000,0
161906.295,-11.719,-28.320,-5.859,-16.113,0.000,0
161906.299,-17.090,-30.273,-16.113,-14.648,0.000,0
161906.303,-18.555,-23.926,-29.297,-1.465,0.000,0
161906.306,-22.461,-22.461,-31.738,-6.348,0.000,0
161906.310,-20.508,-24.414,-29.297,-15.137,0.000,0
161906.314,-23.438,-23.438,-13.184,-21.484,0.000,0
161906.318,-30.762,-19.531,-14.160,-26.367,0.000,0
161906.322,-21.973,-21.484,-33.203,-19.531,0.000,0
161906.326,-22.461,-27.344,-41.016,-11.719,0.000,0
161906.330,-24.414,-25.879,-8.789,-14.648,0.000,0
161906.334,-25.879,-27.832,8.301,-20.020,0.000,0
161906.338,-26.367,-32.715,-27.832,-15.137,0.000,0
161906.342,-22.949,-34.180,-35.645,-13.184,0.000,0
161906.346,-22.461,-31.738,-24.414,-15.137,0.000,0
161906.349,-27.344,-25.879,-24.902,-15.625,0.000,0
161906.353,-29.297,-28.320,-18.066,-27.344,0.000,0
161906.357,-32.715,-29.785,-27.344,-38.574,0.000,0
161906.361,-38.086,-30.273,-36.133,-22.461,0.000,0
161906.365,-25.391,-25.391,-29.297,-3.418,0.000,0
161906.369,-20.996,-27.344,-36.133,-12.695,0.000,0
161906.373,-26.367,-33.203,-26.367,-40.527,0.000,0
161906.377,-19.043,-24.414,-12.207,-32.715,0.000,0
161906.381,-17.578,-22.461,-6.836,-13.672,0.000,0
161906.385,-19.043,-26.367,-16.602,-21.973,0.000,0
161906.388,-19.531,-24.414,-22.949,-24.902,0.000,0
161906.392,-22.949,-25.879,-7.324,-33.203,0.000,0
161906.396,-17.090,-24.414,-13.184,-33.691,0.000,0
161906.400,-25.391,-20.508,-42.480,-32.227,0.000,0
161906.404,-27.832,-20.020,-40.039,-33.203,0.000,0
161906.408,-28.320,-19.043,-13.184,-19.531,0.000,0
161906.412,-33.691,-20.508,-10.254,-20.996,0.000,0
161906.416,-27.832,-19.531,-20.996,-33.203,0.000,0
161906.420,-28.320,-22.461,-23.438,-28.809,0.000,0
161906.424,-30.762,-30.762,-15.625,-22.949,0.000,0
161906.428,-33.203,-27.832,-24.902,-17.090,0.000,0
161906.431,-29.785,-22.461,-18.555,-17.578,0.000,0
161906.435,-25.879,-20.996,-29.297,-16.602,0.000,0
161906.439,-20.020,-18.555,-35.645,-1.465,0.000,0
161906.443,-16.602,-18.555,-28.320,-1.953,0.000,0
161906.447,-21.973,-24.902,-26.367,-22.461,0.000,0
161906.451,-28.320,-25.391,-19.531,-31.738,0.000,0
161906.455,-28.809,-25.879,-28.320,-35.156,0.000,0
161906.459,-27.832,-26.367,-36.133,-40.527,0.000,0
161906.463,-23.438,-22.461,-47.852,-25.391,0.000,0
161906.467,-25.391,-21.484,-37.598,-10.254,0.000,0
161906.471,-29.785,-17.578,-12.207,-24.414,0.000,0
161906.474,-21.973,-16.113,-21.973,-35.156,0.000,0
161906.478,-19.043,-18.066,-36.133,-22.949,0.000,0
161906.482,-20.996,-20.020,-26.367,-16.602,0.000,0
161906.486,-17.578,-19.043,-20.020,-16.602,0.000,0
161906.490,-18.066,-20.020,-16.113,-21.973,0.000,0
161906.494,-16.602,-16.113,-10.254,-22.461,0.000,0
161906.498,-3.418,-14.160,-13.184,-13.184,0.000,0
161906.502,-10.742,-14.648,-23.438,-15.137,0.000,0
161906.506,-15.625,-18.066,-21.484,-15.625,0.000,0
161906.510,-13.672,-19.043,-2.441,-13.184,0.000,0
161906.513,-21.973,-17.578,-11.230,-18.555,0.000,0
161906.517,-20.508,-21.484,-38.574,-19.043,0.000,0
161906.521,-23.438,-18.066,-30.273,-11.719,0.000,0
161906.525,-23.438,-16.602,-20.996,-12.695,0.000,0
161906.529,-22.949,-20.020,-24.414,-20.508,0.000,0
161906.533,-19.531,-18.066,-23.926,-22.949,0.000,0
161906.537,-13.672,-16.113,-28.809,-13.184,0.000,0
161906.541,-16.602,-17.578,-33.691,5.859,0.000,0
161906.545,-15.625,-13.672,-25.391,7.324,0.000,0
161906.549,-11.719,-11.230,-20.020,3.418,0.000,0
161906.553,-17.578,-18.555,-27.832,-2.930,0.000,0
161906.556,-27.344,-24.902,-25.391,-10.254,0.000,0
161906.560,-17.578,-20.020,-16.113,-2.930,0.000,0
161906.564,-11.719,-16.113,-23.438,-14.648,0.000,0
161906.568,-22.461,-21.973,-16.113,-30.273,0.000,0
161906.572,-24.414,-21.484,-13.184,-25.879,0.000,0
161906.576,-23.438,-19.043,-22.949,-20.020,0.000,0
161906.580,-21.973,-22.949,-27.832,-22.949,0.000,0
161906.584,-21.973,-24.414,-24.902,-11.719,0.000,0
161906.588,-25.879,-20.996,-10.742,-14.648,0.000,0
161906.592,-21.484,-15.137,-11.719,-24.902,0.000,0
161906.596,-11.230,-9.766,-22.461,-24.902,0.000,0
161906.599,-24.414,-16.113,-18.066,-26.367,0.000,0
161906.603,-29.297,-15.137,-21.484,-20.508,0.000,0
161906.607,-25.391,-20.020,-28.809,-35.156,0.000,0
161906.611,-25.391,-25.391,-35.156,-40.039,0.000,0
161906.615,-23.438,-20.020,-32.715,-23.438,0.000,0
161906.619,-20.996,-23.926,-23.438,-22.949,0.000,0
161906.623,-11.719,-24.414,-22.949,-26.855,0.000,0
161906.627,-10.742,-25.879,-8.789,-23.438,0.000,0
161906.631,-19.043,-27.344,-12.207,-22.461,0.000,0
161906.635,-19.043,-24.414,-25.391,-14.160,0.000,0
161906.638,-25.391,-29.297,-24.902,-10.254,0.000,0
161906.642,-32.227,-28.809,-41.016,-7.324,0.000,0
161906.646,-30.762,-27.832,-31.738,-21.973,0.000,0
161906.650,-38.086,-27.832,-30.273,-29.785,0.000,0
161906.654,-31.250,-30.273,-46.875,-14.648,0.000,0
161906.658,-24.414,-29.785,-41.504,-9.277,0.000,0
161906.662,-28.809,-22.461,-24.414,-10.254,0.000,0
161906.666,-26.855,-23.438,-20.020,-23.438,0.000,0
161906.670,-22.949,-26.367,-27.344,-20.020,0.000,0
161906.674,-26.855,-20.996,-24.902,-17.578,0.000,0
161906.678,-27.832,-15.625,-18.555,-15.625,0.000,0
161906.681,-23.926,-19.043,-39.062,-4.395,0.000,0
161906.685,-32.227,-25.879,-37.109,-22.461,0.000,0
161906.689,-36.621,-23.926,-20.996,-17.090,0.000,0
161906.693,-41.016,-23.438,-32.715,-17.578,0.000,0
161906.697,-39.062,-30.273,-46.387,-31.738,0.000,0
161906.701,-36.621,-28.809,-53.711,-25.879,0.000,0
161906.705,-45.898,-26.367,-21.484,-25.391,0.000,0
161906.709,-36.621,-23.926,-2.930,-23.438,0.000,0
161906.713,-23.926,-25.391,-38.574,-17.090,0.000,0
161906.717,-24.902,-29.785,-47.852,-9.277,0.000,0
161906.721,-24.414,-29.297,-37.598,-13.184,0.000,0
161906.724,-26.855,-34.180,-23.926,-24.902,0.000,0
161906.728,-27.832,-33.203,-22.461,-17.578,0.000,0
161906.732,-30.762,-31.738,-42.480,-20.508,0.000,0
161906.736,-28.320,-32.227,-39.551,-17.578,0.000,0
161906.740,-21.973,-30.273,-29.785,-18.066,0.000,0
161906.744,-23.438,-32.715,-26.855,-29.297,0.000,0
161906.748,-31.738,-29.785,-32.715,-42.969,0.000,0
161906.752,-31.250,-18.555,-21.973,-40.527,0.000,0
161906.756,-22.949,-19.531,-23.438,-20.996,0.000,0
161906.760,-16.113,-25.879,-40.039,-17.578,0.000,0
161906.763,-14.160,-24.902,-23.926,-3.906,0.000,0
161906.767,-21.973,-25.391,-15.137,-15.137,0.000,0
161906.771,-18.555,-25.391,-33.691,-28.320,0.000,0
161906.775,-5.859,-29.297,-41.992,-29.297,0.000,0
161906.779,-11.230,-29.785,-31.250,-30.273,0.000,0
161906.783,-15.625,-20.996,-22.949,-22.461,0.000,0
161906.787,-12.207,-22.949,-23.438,-30.762,0.000,0
161906.791,-14.648,-24.414,-33.203,-31.250,0.000,0
161906.795,-16.113,-18.555,-29.297,-13.184,0.000,0
161906.799,-18.555,-19.531,-21.973,-15.137,0.000,0
161906.803,-21.484,-28.809,-37.109,-34.180,0.000,0
161906.806,-30.273,-32.715,-28.809,-49.316,0.000,0
161906.810,-27.832,-29.297,-27.344,-37.109,0.000,0
161906.814,-23.926,-20.020,-26.367,-33.203,0.000,0
161906.818,-20.996,-15.625,-27.832,-34.668,0.000,0
161906.822,-17.090,-25.391,-41.992,-26.855,0.000,0
161906.826,-25.879,-26.855,-24.902,-44.434,0.000,0
161906.830,-27.832,-23.926,-20.996,-31.738,0.000,0
161906.834,-20.020,-23.926,-35.645,-20.508,0.000,0
161906.838,-17.090,-23.438,-35.645,-35.645,0.000,0
161906.842,-26.367,-25.879,-18.555,-37.109,0.000,0
161906.846,-28.809,-26.855,-5.371,-38.086,0.000,0
161906.849,-12.695,-31.250,-40.039,-24.902,0.000,0
161906.853,-3.906,-30.273,-43.945,-8.789,0.000,0
161906.857,-17.578,-28.320,-18.555,-10.254,0.000,0
161906.861,-40.039,-34.180,-31.738,-31.250,0.000,0
161906.865,-37.109,-25.879,-30.273,-43.945,0.000,0
161906.869,-28.809,-20.020,-30.762,-33.203,0.000,0
161906.873,-36.621,-27.832,-40.039,-36.133,0.000,0
161906.877,-46.875,-28.809,-36.621,-54.688,0.000,0
161906.881,-36.133,-16.602,-28.809,-34.668,0.000,0
161906.885,-21.484,-17.578,-22.461,-16.113,0.000,0
161906.888,-20.508,-20.996,-20.996,-27.832,0.000,0
161906.892,-23.926,-15.625,-31.250,-21.973,0.000,0
161906.896,-12.207,-20.996,-31.738,-19.531,0.000,0
161906.900,-15.625,-26.367,-27.832,-28.809,0.000,0
161906.904,-33.203,-32.227,-22.461,-30.762,0.000,0
161906.908,-27.344,-26.855,-28.320,-22.949,0.000,0
161906.912,-21.484,-26.855,-28.320,-14.160,0.000,0
161906.916,-32.227,-29.297,-24.902,-24.902,0.000,0
161906.920,-29.785,-23.926,-30.762,-27.344,0.000,0
161906.924,-20.020,-26.367,-20.020,-22.949,0.000,0
161906.928,-23.926,-27.344,-16.113,-24.414,0.000,0
161906.931,-31.250,-27.832,-26.855,-15.137,0.000,0
161906.935,-32.715,-34.180,-36.133,2.930,0.000,0
161906.939,-28.320,-30.762,-38.086,-6.348,0.000,0
161906.943,-27.832,-27.832,-15.625,-32.227,0.000,0
161906.947,-31.250,-26.855,-13.184,-36.133,0.000,0
161906.951,-23.926,-21.973,-27.832,-30.273,0.000,0
161906.955,-23.926,-24.414,-41.016,-25.391,0.000,0
161906.959,-31.738,-21.484,-37.109,-15.137,0.000,0
161906.963,-28.809,-20.508,-5.371,-18.066,0.000,0
161906.967,-17.090,-25.879,-8.301,-25.879,0.000,0
161906.971,-21.484,-24.902,-30.273,-15.625,0.000,0
161906.974,-30.762,-24.414,-8.301,-27.832,0.000,0
161906.978,-27.344,-24.902,-5.859,-37.109,0.000,0
161906.982,-17.578,-23.438,-23.438,-23.438,0.000,0
161906.986,-22.461,-21.973,-18.555,-25.879,0.000,0
161906.990,-28.809,-24.902,-23.926,-25.879,0.000,0
161906.994,-26.367,-25.391,-25.391,-17.090,0.000,0
161906.998,-22.461,-25.391,-35.645,-13.672,0.000,0
161907.002,-17.090,-28.809,-25.879,-32.715,0.000,0
161907.006,-26.367,-29.785,-18.555,-36.621,0.000,0
161907.010,-24.414,-27.344,-36.621,-22.461,0.000,0
161907.013,-24.902,-25.879,-40.039,-27.344,0.000,0
161907.017,-35.156,-34.668,-29.785,-23.438,0.000,0
161907.021,-30.762,-26.367,-12.695,-12.695,0.000,0
161907.025,-26.855,-17.090,-18.066,-30.273,0.000,0
161907.029,-27.832,-23.438,-28.809,-41.504,0.000,0
161907.033,-27.344,-24.414,-31.738,-20.020,0.000,0
161907.037,-34.668,-20.020,-35.645,-18.555,0.000,0
161907.041,-32.715,-20.996,-21.484,-32.227,0.000,0
161907.045,-28.320,-27.344,-18.555,-30.273,0.000,0
161907.049,-32.715,-24.414,-30.273,-23.926,0.000,0
161907.053,-36.133,-21.973,-19.043,-28.320,0.000,0
161907.056,-25.391,-21.973,-33.691,-31.738,0.000,0
161907.060,-17.090,-19.531,-35.156,-36.621,0.000,0
161907.064,-30.273,-19.043,-13.672,-40.527,0.000,0
161907.068,-38.086,-23.438,-15.137,-33.691,0.000,0
161907.072,-37.598,-26.855,-24.902,-31.250,0.000,0
161907.076,-34.180,-24.414,-44.922,-32.715,0.000,0
161907.080,-26.367,-24.414,-15.625,-16.113,0.000,0
161907.084,-34.180,-26.367,3.418,-26.855,0.000,0
161907.088,-25.879,-28.320,-28.320,-31.738,0.000,0
161907.092,-7.812,-25.879,-23.438,-24.902,0.000,0
161907.096,-19.043,-32.715,-25.391,-30.762,0.000,0
161907.099,-27.344,-29.785,-27.832,-26.367,0.000,0
161907.103,-20.508,-23.438,-14.648,-30.273,0.000,0
161907.107,-21.973,-27.344,-21.973,-20.508,0.000,0
161907.111,-26.367,-20.020,-24.414,-10.742,0.000,0
161907.115,-30.762,-14.648,-22.949,-11.719,0.000,0
161907.119,-35.645,-21.973,-36.133,-12.695,0.000,0
161907.123,-27.344,-26.855,-30.762,-19.531,0.000,0
161907.127,-26.367,-22.949,-20.020,-22.949,0.000,0
161907.131,-28.320,-20.508,-30.762,-21.973,0.000,0
161907.135,-28.320,-26.367,-45.898,-20.020,0.000,0
161907.138,-23.438,-25.391,-35.156,-11.719,0.000,0
161907.142,-17.090,-20.020,-15.625,-6.348,0.000,0
161907.146,-20.508,-22.949,-27.344,-3.418,0.000,0
161907.150,-27.832,-30.273,-41.504,-7.324,0.000,0
161907.154,-27.344,-25.879,-20.996,-5.859,0.000,0
161907.158,-31.738,-23.926,-12.207,1.953,0.000,0
161907.162,-32.715,-34.180,-21.484,-15.625,0.000,0
161907.166,-26.367,-28.320,-25.879,-23.438,0.000,0
161907.170,-31.250,-29.785,-27.344,-24.902,0.000,0
161907.174,-35.156,-27.832,-21.484,-22.949,0.000,0
161907.178,-27.344,-20.996,-26.855,-11.230,0.000,0
161907.181,-23.438,-29.297,-15.137,-24.414,0.000,0
161907.185,-23.926,-29.785,-20.508,-29.785,0.000,0
161907.189,-24.902,-29.785,-29.785,-20.996,0.000,0
161907.193,-28.320,-34.180,-24.902,-18.555,0.000,0
161907.197,-21.973,-31.738,-20.996,-14.648,0.000,0
161907.201,-17.578,-29.785,-13.184,-23.438,0.000,0
161907.205,-22.461,-28.320,-17.578,-27.344,0.000,0
161907.209,-25.391,-24.902,-24.414,-15.137,0.000,0
161907.213,-25.879,-23.438,-26.855,-14.648,0.000,0
161907.217,-32.227,-20.020,-20.020,-19.043,0.000,0
161907.221,-33.691,-21.973,-21.973,-22.949,0.000,0
161907.224,-17.090,-21.973,-33.691,-20.996,0.000,0
161907.228,-13.184,-24.902,-29.785,-14.160,0.000,0
161907.232,-22.461,-26.855,-28.320,-20.508,0.000,0
161907.236,-28.809,-30.273,-39.551,-36.621,0.000,0
161907.240,-22.461,-35.156,-28.809,-45.898,0.000,0
161907.244,-19.531,-31.250,-18.555,-46.875,0.000,0
161907.248,-24.414,-26.855,-32.227,-40.039,0.000,0
161907.252,-31.250,-27.832,-37.598,-34.668,0.000,0
161907.256,-41.016,-31.250,-37.598,-32.227,0.000,0
161907.260,-29.785,-32.227,-12.207,-29.785,0.000,0
161907.263,-17.578,-22.949,-10.254,-35.156,0.000,0
161907.267,-21.973,-22.949,-41.016,-40.527,0.000,0
161907.271,-19.043,-29.297,-34.180,-33.203,0.000,0
161907.275,-13.672,-30.273,-28.320,-9.766,0.000,0
161907.279,-22.461,-35.156,-21.973,-27.344,0.000,0
161907.283,-26.367,-32.227,-23.926,-48.340,0.000,0
161907.287,-17.578,-31.250,-34.668,-27.832,0.000,0
161907.291,-23.926,-28.809,-33.203,-24.414,0.000,0
161907.295,-25.391,-26.367,-35.645,-26.855,0.000,0
161907.299,-21.973,-23.926,-20.020,-26.855,0.000,0
161907.303,-20.020,-22.461,-11.719,-32.227,0.000,0
161907.306,-24.902,-22.949,-15.625,-29.785,0.000,0
161907.310,-20.996,-27.832,-15.625,-22.949,0.000,0
161907.314,-14.648,-31.738,-36.133,-9.277,0.000,0
161907.318,-14.648,-26.855,-23.926,-20.508,0.000,0
161907.322,-15.137,-23.926,-8.789,-31.738,0.000,0
161907.326,-21.484,-27.832,-26.367,-18.555,0.000,0
161907.330,-19.043,-27.344,-29.785,-11.230,0.000,0
161907.334,-18.066,-22.949,-23.926,-8.301,0.000,0
161907.338,-20.508,-26.367,-8.789,-20.508,0.000,0
161907.342,-17.578,-27.832,-10.254,-24.414,0.000,0
161907.346,-17.578,-25.879,-23.438,-15.137,0.000,0
161907.349,-25.391,-23.926,-20.508,-15.137,0.000,0
161907.353,-27.344,-25.391,-30.273,-16.113,0.000,0
161907.357,-20.020,-27.344,-28.809,-27.832,0.000,0
161907.361,-21.973,-33.203,-20.508,-33.203,0.000,0
161907.365,-33.691,-33.691,-42.480,-15.625,0.000,0
161907.369,-31.738,-29.297,-50.781,-6.836,0.000,0
161907.373,-20.020,-30.762,-41.504,-10.254,0.000,0
161907.377,-23.438,-30.273,-25.391,-29.785,0.000,0
161907.381,-25.391,-29.297,-17.578,-23.438,0.000,0
161907.385,-25.391,-26.855,-31.250,-12.695,0.000,0
161907.388,-21.973,-24.414,-32.715,-13.184,0.000,0
161907.392,-16.113,-23.926,-14.160,-18.066,0.000,0
161907.396,-15.625,-26.855,-13.672,-26.367,0.000,0
161907.400,-10.742,-33.691,-41.016,4.883,0.000,0
161907.404,-18.555,-29.785,-47.852,-5.371,0.000,0
161907.408,-43.945,-26.367,-33.203,-41.992,0.000,0
161907.412,-34.668,-24.902,-17.090,-30.762,0.000,0
161907.416,-22.461,-24.902,-20.996,-27.832,0.000,0
161907.420,-37.598,-33.691,-22.949,-47.852,0.000,0
161907.424,-41.992,-36.621,-21.973,-41.504,0.000,0
161907.428,-27.832,-38.574,-29.297,-32.227,0.000,0
161907.431,-21.484,-38.086,-37.109,-32.715,0.000,0
161907.435,-28.320,-31.250,-17.090,-25.391,0.000,0
161907.439,-30.273,-29.297,-11.719,-30.273,0.000,0
161907.443,-28.320,-28.320,-31.738,-41.504,0.000,0
161907.447,-33.691,-31.738,-41.016,-40.039,0.000,0
161907.451,-41.504,-36.133,-39.551,-24.414,0.000,0
161907.455,-35.645,-35.156,-12.695,-16.113,0.000,0
161907.459,-29.297,-32.227,-20.020,-30.762,0.000,0
161907.463,-31.250,-32.227,-33.203,-28.320,0.000,0
161907.467,-30.273,-30.273,-26.855,-22.461,0.000,0
161907.471,-23.438,-27.832,-34.180,-28.809,0.000,0
161907.474,-22.461,-25.391,-23.438,-26.855,0.000,0
161907.478,-26.855,-22.461,-13.672,-26.367,0.000,0
161907.482,-25.391,-28.320,-24.902,-31.250,0.000,0
161907.486,-26.855,-29.297,-28.320,-24.902,0.000,0
161907.490,-27.832,-25.391,-28.320,-3.418,0.000,0
161907.494,-28.809,-22.461,-31.250,-22.461,0.000,0
161907.498,-34.180,-25.391,-33.691,-43.945,0.000,0
161907.502,-29.785,-19.043,-28.320,-15.137,0.000,0
161907.506,-21.484,-17.090,-34.668,-13.672,0.000,0
161907.510,-22.461,-23.926,-37.598,-29.785,0.000,0
161907.513,-25.391,-23.926,-26.855,-33.203,0.000,0
161907.517,-26.855,-26.855,-32.227,-30.762,0.000,0
161907.521,-23.926,-26.855,-32.715,-26.367,0.000,0
161907.525,-32.227,-23.438,-24.902,-25.391,0.000,0
161907.529,-32.715,-22.949,-23.438,-1.953,0.000,0
161907.533,-25.391,-22.461,-23.926,-2.441,0.000,0
161907.537,-21.973,-20.508,-17.090,-22.461,0.000,0
161907.541,-23.926,-26.367,-24.902,-15.137,0.000,0
161907.545,-27.344,-29.785,-26.855,-19.043,0.000,0
161907.549,-28.809,-24.902,-30.762,-18.066,0.000,0
161907.553,-33.203,-25.879,-26.367,-13.672,0.000,0
161907.556,-32.715,-26.855,-12.695,-22.949,0.000,0
161907.560,-25.879,-22.461,-19.043,-17.090,0.000,0
161907.564,-27.344,-13.184,-20.996,-14.648,0.000,0
161907.568,-31.250,-10.742,-16.113,-19.531,0.000,0
161907.572,-26.367,-17.090,-23.438,-24.902,0.000,0
161907.576,-27.344,-19.043,-14.648,-38.086,0.000,0
161907.580,-24.414,-18.555,-24.414,-27.344,0.000,0
161907.584,-20.020,-21.973,-27.344,-22.461,0.000,0
161907.588,-21.484,-19.531,-10.742,-17.090,0.000,0
161907.592,-15.625,-20.508,-5.371,-6.836,0.000,0
161907.596,-17.578,-19.531,-10.254,-22.949,0.000,0
161907.599,-27.344,-23.438,-27.832,-23.438,0.000,0
161907.603,-14.648,-23.926,-28.809,-9.277,0.000,0
161907.607,-11.230,-18.555,-17.578,-10.254,0.000,0
161907.611,-16.113,-24.414,-19.043,-22.949,0.000,0
161907.615,-11.230,-25.879,-10.742,-27.344,0.000,0
161907.619,-9.277,-17.578,-13.672,-18.555,0.000,0
161907.623,-8.301,-21.973,-21.484,-15.137,0.000,0
161907.627,-7.812,-25.879,-24.902,-8.789,0.000,0
161907.631,-13.184,-26.367,-28.320,-3.418,0.000,0
161907.635,-19.043,-25.879,-10.742,-15.625,0.000,0
161907.638,-17.090,-21.484,-15.137,-9.766,0.000,0
161907.642,-10.742,-19.043,-28.809,0.000,0.000,0
161907.646,-12.695,-16.113,-20.996,-8.789,0.000,0
161907.650,-23.926,-18.555,-19.531,-12.695,0.000,0
161907.654,-25.391,-27.344,-15.625,-23.926,0.000,0
161907.658,-19.531,-27.344,-18.066,-24.414,0.000,0
161907.662,-15.137,-18.555,-20.508,-18.066,0.000,0
161907.666,-17.090,-24.902,-24.902,-18.066,0.000,0
161907.670,-19.531,-20.508,-13.672,-19.043,0.000,0
161907.674,-22.949,-17.090,-13.672,-21.973,0.000,0
161907.678,-27.832,-25.391,-22.949,-2.930,0.000,0
161907.681,-22.461,-27.832,-21.973,10.742,0.000,0
161907.685,-11.230,-27.344,-28.320,-1.465,0.000,0
161907.689,-10.254,-25.879,-17.090,-17.090,0.000,0
161907.693,-15.137,-22.461,0.977,-25.879,0.000,0
161907.697,-20.020,-23.926,-14.160,-29.785,0.000,0
161907.701,-15.137,-20.996,-23.926,-38.574,0.000,0
161907.705,-16.113,-20.508,-22.461,-31.250,0.000,0
161907.709,-25.391,-22.949,-17.090,-22.949,0.000,0
161907.713,-21.973,-20.996,-9.277,-22.461,0.000,0
161907.717,-19.043,-19.531,-25.391,-0.488,0.000,0
161907.721,-31.250,-23.926,-37.109,-3.418,0.000,0
161907.724,-30.273,-26.367,-21.484,-17.578,0.000,0
161907.728,-21.484,-25.879,-24.414,-12.695,0.000,0
161907.732,-20.020,-26.855,-25.879,-21.973,0.000,0
161907.736,-25.879,-30.273,-21.484,-26.367,0.000,0
161907.740,-37.598,-29.297,-8.301,-15.625,0.000,0
161907.744,-32.227,-26.855,-22.949,-4.395,0.000,0
161907.748,-22.461,-27.344,-35.645,-6.836,0.000,0
161907.752,-26.855,-28.809,-20.996,-18.066,0.000,0
161907.756,-26.855,-27.832,-23.926,-18.555,0.000,0
161907.760,-25.391,-24.902,-28.320,-26.855,0.000,0
161907.763,-19.531,-26.367,-22.461,-26.367,0.000,0
161907.767,-17.578,-30.273,-23.438,-21.484,0.000,0
161907.771,-15.625,-25.879,-20.996,-24.414,0.000,0
161907.775,-16.113,-23.438,-17.090,-27.832,0.000,0
161907.779,-21.973,-24.902,-22.461,-18.555,0.000,0
161907.783,-14.648,-26.367,-30.273,-9.277,0.000,0
161907.787,-4.395,-21.973,-23.926,-13.184,0.000,0
161907.791,-1.953,-22.461,-20.508,-18.066,0.000,0
161907.795,-1.465,-19.043,-23.438,-25.391,0.000,0
161907.799,-4.395,-19.531,-20.020,-26.367,0.000,0
161907.803,-5.859,-19.531,-16.113,-16.113,0.000,0
161907.806,-7.812,-13.184,-17.578,-6.836,0.000,0
161907.810,-5.859,-15.625,-17.090,-7.324,0.000,0
161907.814,-9.766,-19.531,-12.207,-13.672,0.000,0
161907.818,-13.184,-19.531,-22.949,-8.789,0.000,0
161907.822,-10.254,-17.090,-38.574,-9.277,0.000,0
161907.826,-13.184,-16.602,-33.203,-17.090,0.000,0
161907.830,-20.020,-14.648,-6.836,-18.066,0.000,0
161907.834,-22.461,-20.508,-12.695,-24.414,0.000,0
161907.838,-20.996,-26.855,-25.879,-28.320,0.000,0
161907.842,-20.996,-27.344,-20.508,-33.203,0.000,0
161907.846,-25.391,-21.484,-9.277,-22.461,0.000,0
161907.849,-23.926,-21.973,-16.602,-23.926,0.000,0
161907.853,-22.461,-25.879,-22.949,-34.668,0.000,0
161907.857,-24.414,-21.973,-24.414,-23.438,0.000,0
161907.861,-24.414,-21.973,-20.508,-18.066,0.000,0
161907.865,-27.344,-23.438,-20.996,-22.949,0.000,0
161907.869,-22.461,-22.461,-24.902,-16.602,0.000,0
161907.873,-17.090,-18.555,-12.207,-20.020,0.000,0
161907.877,-16.602,-16.602,-5.859,-18.066,0.000,0
161907.881,-20.508,-20.996,-20.020,-11.230,0.000,0
161907.885,-21.484,-19.531,-26.855,-17.578,0.000,0
161907.888,-19.531,-18.066,-30.762,-16.113,0.000,0
161907.892,-23.438,-26.367,-21.973,-15.137,0.000,0
161907.896,-27.344,-25.879,-34.180,-12.207,0.000,0
161907.900,-21.973,-25.879,-36.621,-23.438,0.000,0
161907.904,-19.531,-23.438,-13.184,-23.438,0.000,0
161907.908,-24.414,-18.555,-12.207,-15.625,0.000,0
161907.912,-29.785,-26.855,-18.555,-32.715,0.000,0
161907.916,-30.273,-35.156,-26.367,-20.020,0.000,0
161907.920,-34.180,-34.668,-22.949,-2.441,0.000,0
161907.924,-36.621,-30.273,-31.738,-23.438,0.000,0
161907.928,-34.668,-26.367,-28.320,-39.062,0.000,0
161907.931,-29.785,-24.414,-11.230,-33.691,0.000,0
161907.935,-27.832,-22.949,-19.043,-18.555,0.000,0
161907.939,-30.273,-27.344,-24.414,-17.090,0.000,0
161907.943,-24.902,-31.738,-26.367,-17.578,0.000,0
161907.947,-20.508,-21.973,-20.996,-20.508,0.000,0
161907.951,-27.832,-21.973,-14.160,-37.109,0.000,0
161907.955,-27.832,-27.832,-21.973,-37.109,0.000,0
161907.959,-24.902,-25.391,-26.367,-20.508,0.000,0
161907.963,-21.484,-20.508,-20.996,-12.207,0.000,0
161907.967,-20.020,-18.066,-13.184,-14.648,0.000,0
161907.971,-18.066,-22.461,-16.113,-20.508,0.000,0
161907.974,-20.508,-21.973,-16.113,-26.367,0.000,0
161907.978,-19.531,-15.625,-10.742,-33.691,0.000,0
161907.982,-17.090,-15.625,-26.367,-26.367,0.000,0
161907.986,-23.438,-20.508,-24.902,-33.203,0.000,0
161907.990,-23.926,-20.020,-20.020,-36.621,0.000,0
161907.994,-22.949,-19.043,-19.043,-24.414,0.000,0
161907.998,-29.785,-23.926,-27.832,-24.902,0.000,0
161908.002,-20.020,-18.555,-34.668,-18.066,0.000,0
161908.006,-0.488,-16.113,-21.484,3.418,0.000,0
161908.010,-17.578,-24.414,-6.348,-15.625,0.000,0
161908.013,-51.270,-17.578,-24.902,-57.617,0.000,0
161908.017,-51.758,-16.602,-33.203,-62.500,0.000,0
161908.021,-37.109,-24.414,-26.367,-38.086,0.000,0
161908.025,-29.785,-21.484,-24.414,-28.809,0.000,0
161908.029,-34.668,-20.996,-15.137,-44.922,0.000,0
161908.033,-41.016,-27.344,-29.785,-43.457,0.000,0
161908.037,-27.344,-24.902,-34.668,-32.227,0.000,0
161908.041,-16.602,-21.973,-26.855,-31.250,0.000,0
161908.045,-15.137,-22.461,-22.949,-23.926,0.000,0
161908.049,-15.625,-24.902,-15.137,-28.320,0.000,0
161908.053,-25.391,-21.484,-19.043,-36.621,0.000,0
161908.056,-31.738,-16.602,-20.508,-23.926,0.000,0
161908.060,-26.855,-15.137,-30.762,-8.301,0.000,0
161908.064,-30.273,-18.555,-36.133,-29.297,0.000,0
161908.068,-25.879,-21.973,-20.508,-45.410,0.000,0
161908.072,-23.926,-22.949,-28.320,-32.227,0.000,0
161908.076,-29.785,-29.785,-46.875,-35.645,0.000,0
161908.080,-32.227,-30.762,-39.062,-31.250,0.000,0
161908.084,-29.297,-26.855,-22.949,-16.602,0.000,0
161908.088,-32.227,-29.785,-8.301,-30.273,0.000,0
161908.092,-35.156,-31.738,-15.137,-30.762,0.000,0
161908.096,-33.203,-32.715,-33.691,-25.879,0.000,0
161908.099,-31.738,-27.344,-27.344,-16.602,0.000,0
161908.103,-27.832,-21.973,-32.227,-9.766,0.000,0
161908.107,-23.438,-22.949,-30.762,-19.043,0.000,0
161908.111,-28.809,-27.832,-28.320,-31.250,0.000,0
161908.115,-37.109,-29.297,-30.273,-34.668,0.000,0
161908.119,-23.438,-22.949,-28.320,-29.297,0.000,0
161908.123,-14.648,-20.020,-29.297,-3.418,0.000,0
161908.127,-19.043,-26.367,-26.367,-6.348,0.000,0
161908.131,-24.414,-23.926,-25.879,-26.367,0.000,0
161908.135,-24.902,-23.438,-47.363,-18.555,0.000,0
161908.138,-22.949,-23.438,-47.363,-4.883,0.000,0
161908.142,-27.344,-20.020,-30.273,-6.836,0.000,0
161908.146,-30.762,-20.020,-20.508,-16.602,0.000,0
161908.150,-23.926,-19.043,-26.367,-20.508,0.000,0
161908.154,-20.508,-23.438,-42.969,-18.555,0.000,0
161908.158,-20.996,-15.137,-20.996,-27.344,0.000,0
161908.162,-17.578,-11.230,-7.324,-21.973,0.000,0
161908.166,-20.996,-16.602,-22.461,-20.508,0.000,0
161908.170,-24.902,-12.695,-19.043,-26.855,0.000,0
161908.174,-23.926,-16.602,-16.113,-12.207,0.000,0
161908.178,-18.066,-24.902,-19.531,-10.742,0.000,0
161908.181,-17.578,-26.367,-26.855,-9.277,0.000,0
161908.185,-26.367,-25.879,-20.508,-17.578,0.000,0
161908.189,-27.832,-28.320,-16.602,-30.762,0.000,0
161908.193,-18.555,-28.320,-22.461,-21.484,0.000,0
161908.197,-15.625,-25.391,-28.320,-13.672,0.000,0
161908.201,-17.578,-26.367,-31.738,-24.902,0.000,0
161908.205,-12.695,-16.113,-11.230,-21.484,0.000,0
161908.209,-9.766,-15.137,-13.672,-22.949,0.000,0
161908.213,-9.277,-20.996,-32.715,-15.137,0.000,0
161908.217,-17.090,-17.578,-25.879,3.418,0.000,0
161908.221,-18.066,-19.531,-22.949,-7.812,0.000,0
161908.224,-10.742,-20.996,-19.531,-15.625,0.000,0
161908.228,-5.859,-19.043,-12.207,-13.184,0.000,0
161908.232,-5.371,-15.137,-17.578,-12.695,0.000,0
161908.236,-9.277,-12.207,-19.043,-7.324,0.000,0
161908.240,-16.113,-15.137,-19.531,-4.395,0.000,0
161908.244,-18.555,-21.484,-23.438,-10.742,0.000,0
161908.248,-18.555,-29.297,-22.461,-21.973,0.000,0
161908.252,-27.344,-28.809,-23.926,-22.461,0.000,0
161908.256,-21.973,-23.926,-27.344,-21.484,0.000,0
161908.260,-15.625,-25.879,-26.367,-12.695,0.000,0
161908.263,-25.879,-29.297,-20.020,-19.043,0.000,0
161908.267,-28.320,-31.250,-16.602,-36.621,0.000,0
161908.271,-16.602,-30.762,-21.484,-30.762,0.000,0
161908.275,-17.090,-27.832,-20.508,-16.602,0.000,0
161908.279,-27.832,-26.367,-23.438,-18.066,0.000,0
161908.283,-34.668,-25.879,-29.297,-29.297,0.000,0
161908.287,-33.691,-23.438,-18.066,-30.273,0.000,0
161908.291,-26.367,-20.996,-20.996,-30.762,0.000,0
161908.295,-23.926,-19.531,-20.020,-28.809,0.000,0
161908.299,-26.855,-22.461,-32.715,-19.531,0.000,0
161908.303,-21.973,-24.414,-31.738,-21.484,0.000,0
161908.306,-19.043,-23.926,-12.695,-33.691,0.000,0
161908.310,-26.855,-26.367,-28.320,-24.902,0.000,0
161908.314,-28.320,-23.926,-42.480,-11.230,0.000,0
161908.318,-28.809,-22.949,-46.875,-22.461,0.000,0
161908.322,-20.508,-27.344,-30.762,-23.438,0.000,0
161908.326,-13.184,-25.879,-0.977,-21.484,0.000,0
161908.330,-18.555,-20.996,-13.672,-26.367,0.000,0
161908.334,-18.555,-23.438,-24.414,-20.020,0.000,0
161908.338,-14.648,-21.484,-16.113,0.488,0.000,0
161908.342,-24.902,-22.461,-14.648,-14.160,0.000,0
161908.346,-25.879,-28.809,-17.578,-40.039,0.000,0
161908.349,-16.602,-25.879,-30.273,-23.438,0.000,0
161908.353,-17.090,-30.762,-35.645,-16.602,0.000,0
161908.357,-25.391,-31.738,-33.691,-25.391,0.000,0
161908.361,-23.438,-24.414,-30.762,-27.344,0.000,0
161908.365,-24.902,-24.414,-14.160,-32.227,0.000,0
161908.369,-28.809,-23.926,-12.207,-29.297,0.000,0
161908.373,-18.555,-25.391,-24.414,-27.832,0.000,0
161908.377,-17.090,-26.855,-32.715,-17.090,0.000,0
161908.381,-23.926,-24.414,-29.297,-17.578,0.000,0
161908.385,-29.297,-24.902,-15.137,-39.551,0.000,0
161908.388,-27.832,-26.367,-24.414,-28.809,0.000,0
161908.392,-30.273,-23.926,-31.738,-22.949,0.000,0
161908.396,-34.668,-27.344,-27.344,-35.645,0.000,0
161908.400,-26.367,-23.926,-15.625,-34.180,0.000,0
161908.404,-21.973,-16.113,-9.277,-29.785,0.000,0
161908.408,-21.973,-14.648,-18.555,-18.555,0.000,0
161908.412,-21.973,-18.555,-33.691,-25.391,0.000,0
161908.416,-25.391,-19.531,-32.227,-27.832,0.000,0
161908.420,-24.902,-16.113,-27.344,-24.902,0.000,0
161908.424,-30.273,-15.625,-19.043,-27.344,0.000,0
161908.428,-26.855,-18.066,-19.043,-6.348,0.000,0
161908.431,-21.973,-16.113,-27.344,-4.395,0.000,0
161908.435,-22.949,-16.113,-41.016,-26.855,0.000,0
161908.439,-17.578,-20.996,-41.992,-30.273,0.000,0
161908.443,-22.461,-19.531,-11.719,-30.762,0.000,0
161908.447,-27.344,-15.625,-2.930,-38.086,0.000,0
161908.451,-15.625,-12.695,-24.414,-30.273,0.000,0
161908.455,-13.672,-17.578,-26.367,-17.578,0.000,0
161908.459,-17.090,-20.508,-19.043,-14.160,0.000,0
161908.463,-15.625,-20.508,-20.020,-21.484,0.000,0
161908.467,-18.555,-20.996,-26.367,-20.996,0.000,0
161908.471,-22.461,-18.066,-25.391,-9.766,0.000,0
161908.474,-26.855,-18.555,-17.090,-6.836,0.000,0
161908.478,-32.227,-28.320,-27.832,-6.348,0.000,0
161908.482,-33.691,-38.574,-35.645,-12.695,0.000,0
161908.486,-39.551,-33.691,-27.344,-20.020,0.000,0
161908.490,-41.016,-24.902,-19.043,-20.020,0.000,0
161908.494,-31.738,-22.461,-28.809,-16.602,0.000,0
161908.498,-30.762,-23.438,-35.156,-23.926,0.000,0
161908.502,-35.645,-23.438,-25.879,-31.250,0.000,0
161908.506,-37.598,-24.902,-18.066,-38.574,0.000,0
161908.510,-35.156,-30.762,-29.297,-27.832,0.000,0
161908.513,-24.414,-30.762,-40.527,-7.324,0.000,0
161908.517,-30.273,-31.738,-41.016,-22.461,0.000,0
161908.521,-42.480,-29.297,-24.902,-33.691,0.000,0
161908.525,-41.016,-28.809,-20.996,-30.762,0.000,0
161908.529,-36.133,-37.598,-46.875,-29.297,0.000,0
161908.533,-36.621,-32.227,-27.344,-21.973,0.000,0
161908.537,-41.992,-30.273,-7.812,-12.695,0.000,0
161908.541,-37.109,-33.203,-22.461,-20.508,0.000,0
161908.545,-39.062,-28.809,-15.625,-37.109,0.000,0
161908.549,-36.621,-30.273,-19.043,-37.109,0.000,0
161908.553,-24.414,-25.879,-28.809,-31.250,0.000,0
161908.556,-25.879,-25.879,-38.574,-24.414,0.000,0
161908.560,-28.809,-29.785,-25.879,-20.996,0.000,0
161908.564,-34.180,-26.367,-15.625,-29.297,0.000,0
161908.568,-37.109,-23.438,-31.738,-25.879,0.000,0
161908.572,-35.645,-26.855,-36.621,-20.508,0.000,0
161908.576,-29.297,-30.762,-39.062,-30.273,0.000,0
161908.580,-21.484,-27.832,-14.160,-26.855,0.000,0
161908.584,-20.996,-21.484,-11.719,-28.809,0.000,0
161908.588,-20.508,-23.438,-31.250,-33.203,0.000,0
161908.592,-19.531,-27.832,-28.809,-19.531,0.000,0
161908.596,-15.625,-29.297,-32.715,-11.719,0.000,0
161908.599,-17.090,-34.180,-34.180,-21.484,0.000,0
161908.603,-25.879,-31.250,-23.438,-26.855,0.000,0
161908.607,-33.203,-28.320,-26.367,-21.484,0.000,0
161908.611,-30.762,-30.762,-27.344,-19.043,0.000,0
161908.615,-31.738,-35.645,-34.180,-13.672,0.000,0
161908.619,-26.855,-31.250,-37.598,-18.555,0.000,0
161908.623,-14.648,-27.344,-13.184,-34.180,0.000,0
161908.627,-9.766,-25.391,-0.977,-18.066,0.000,0
161908.631,-12.695,-23.926,-25.391,-3.906,0.000,0
161908.635,-18.066,-23.438,-29.297,-9.277,0.000,0
161908.638,-20.020,-31.738,-14.160,-16.113,0.000,0
161908.642,-21.973,-33.203,-7.812,-21.973,0.000,0
161908.646,-19.043,-28.809,-22.949,-2.441,0.000,0
161908.650,-19.531,-25.879,-21.973,2.441,0.000,0
161908.654,-21.973,-25.391,-14.648,-16.602,0.000,0
161908.658,-20.996,-28.320,-22.461,-15.137,0.000,0
161908.662,-16.602,-28.809,-9.277,-17.578,0.000,0
161908.666,-19.531,-28.809,-20.020,-20.996,0.000,0
161908.670,-28.320,-29.785,-33.203,-14.648,0.000,0
161908.674,-22.461,-26.367,-30.273,-9.277,0.000,0
161908.678,-17.090,-26.367,-29.785,-10.742,0.000,0
161908.681,-18.066,-27.344,-12.695,-21.484,0.000,0
161908.685,-23.438,-28.809,-22.949,-27.832,0.000,0
161908.689,-20.996,-22.461,-27.832,-21.973,0.000,0
161908.693,-12.695,-19.043,-15.625,-0.488,0.000,0
161908.697,-16.113,-25.879,-20.996,-1.465,0.000,0
161908.701,-20.996,-27.344,-8.789,-36.621,0.000,0
161908.705,-14.648,-18.066,-13.184,-31.250,0.000,0
161908.709,-4.395,-7.812,-15.625,-12.695,0.000,0
161908.713,-8.789,-14.648,4.883,-20.508,0.000,0
161908.717,-24.414,-14.648,-8.789,-20.508,0.000,0
161908.721,-20.996,-12.207,-13.184,-27.344,0.000,0
161908.724,-19.043,-13.672,-7.812,-26.367,0.000,0
161908.728,-23.926,-13.672,-16.113,-19.531,0.000,0
161908.732,-23.926,-15.625,-23.926,-20.020,0.000,0
161908.736,-21.973,-19.531,-27.832,-22.461,0.000,0
161908.740,-20.020,-23.438,-10.742,-26.855,0.000,0
161908.744,-20.508,-18.066,-8.789,-15.137,0.000,0
161908.748,-24.902,-22.949,-23.926,-13.672,0.000,0
161908.752,-30.273,-26.855,-21.973,-20.020,0.000,0
161908.756,-25.879,-24.414,-16.113,-8.789,0.000,0
161908.760,-20.020,-24.902,0.488,-13.672,0.000,0
161908.763,-16.602,-18.555,-7.324,-22.461,0.000,0
161908.767,-14.648,-18.555,-28.809,-21.484,0.000,0
161908.771,-13.184,-17.578,-18.066,-15.625,0.000,0
161908.775,-10.742,-18.555,-11.230,-14.648,0.000,0
161908.779,-8.789,-21.973,-6.348,-12.207,0.000,0
161908.783,-13.184,-21.973,-7.324,-6.836,0.000,0
161908.787,-20.996,-17.578,-27.832,-7.812,0.000,0
161908.791,-19.531,-16.113,-25.879,-11.719,0.000,0
161908.795,-18.555,-16.602,-20.020,-9.766,0.000,0
161908.799,-18.555,-17.090,-21.484,-11.719,0.000,0
161908.803,-20.996,-18.555,-8.301,-23.926,0.000,0
161908.806,-26.855,-16.602,-4.883,-20.508,0.000,0
161908.810,-22.949,-22.461,-21.973,-8.789,0.000,0
161908.814,-27.344,-26.855,-12.695,-15.137,0.000,0
161908.818,-29.785,-19.531,-7.812,-23.926,0.000,0
161908.822,-20.996,-21.973,-20.020,-23.438,0.000,0
161908.826,-17.578,-25.391,-22.461,-16.602,0.000,0
161908.830,-23.926,-26.855,-22.949,-31.250,0.000,0
161908.834,-28.809,-26.367,-29.297,-31.738,0.000,0
161908.838,-24.902,-26.367,-27.832,-28.809,0.000,0
161908.842,-24.414,-27.344,-20.508,-37.598,0.000,0
161908.846,-25.391,-22.949,-32.715,-29.785,0.000,0
161908.849,-23.926,-22.949,-38.086,-23.438,0.000,0
161908.853,-21.973,-32.715,-44.922,-30.762,0.000,0
161908.857,-20.020,-34.180,-39.551,-34.180,0.000,0
161908.861,-17.090,-29.785,-29.785,-35.645,0.000,0
161908.865,-15.137,-21.484,-17.578,-34.180,0.000,0
161908.869,-14.648,-21.973,-23.438,-32.715,0.000,0
161908.873,-15.625,-30.273,-37.109,-26.855,0.000,0
161908.877,-26.367,-25.391,-23.926,-21.973,0.000,0
161908.881,-26.367,-22.949,-15.625,-19.531,0.000,0
161908.885,-25.391,-25.879,-34.180,-25.879,0.000,0
161908.888,-25.391,-28.320,-34.668,-34.180,0.000,0
161908.892,-24.902,-30.762,-21.973,-30.273,0.000,0
161908.896,-27.344,-30.762,-13.184,-28.809,0.000,0
161908.900,-30.273,-26.367,-19.043,-33.691,0.000,0
161908.904,-30.273,-23.926,-32.227,-26.855,0.000,0
161908.908,-26.367,-22.461,-24.414,-11.719,0.000,0
161908.912,-31.738,-28.320,-25.391,-25.391,0.000,0
161908.916,-30.273,-32.227,-24.902,-45.898,0.000,0
161908.920,-20.996,-34.668,-26.855,-34.180,0.000,0
161908.924,-17.578,-37.598,-35.645,-25.879,0.000,0
161908.928,-23.438,-32.227,-27.832,-31.250,0.000,0
161908.931,-26.855,-33.203,-48.828,-18.066,0.000,0
161908.935,-31.250,-34.180,-41.016,-21.484,0.000,0
161908.939,-36.621,-33.203,-15.625,-34.668,0.000,0
161908.943,-28.320,-31.250,-27.832,-12.695,0.000,0
161908.947,-24.414,-31.738,-46.875,-10.742,0.000,0
161908.951,-28.320,-30.762,-38.086,-25.879,0.000,0
161908.955,-32.227,-28.320,-6.836,-29.297,0.000,0
161908.959,-31.738,-27.344,-23.926,-19.531,0.000,0
161908.963,-20.996,-26.855,-44.922,-9.277,0.000,0
161908.967,-20.996,-24.414,-30.762,-25.879,0.000,0
161908.971,-22.949,-27.344,-23.926,-25.391,0.000,0
161908.974,-26.855,-32.227,-19.531,-20.508,0.000,0
161908.978,-33.691,-27.832,-13.672,-24.414,0.000,0
161908.982,-32.227,-31.738,-40.039,-20.996,0.000,0
161908.986,-28.320,-32.715,-38.574,-28.320,0.000,0
161908.990,-20.996,-26.855,-24.414,-21.973,0.000,0
161908.994,-19.531,-28.320,-22.461,-27.344,0.000,0
161908.998,-22.949,-25.391,-17.578,-31.250,0.000,0
161909.002,-17.090,-24.902,-24.902,-23.438,0.000,0
161909.006,-12.695,-27.832,-25.391,-19.043,0.000,0
161909.010,-23.438,-27.832,-24.902,-12.695,0.000,0
161909.013,-20.996,-33.203,-20.508,-22.461,0.000,0
161909.017,-19.043,-33.691,-14.160,-24.414,0.000,0
161909.021,-22.461,-24.902,-22.461,-17.578,0.000,0
161909.025,-21.484,-25.879,-26.855,-14.648,0.000,0
161909.029,-20.508,-29.297,-33.203,-20.020,0.000,0
161909.033,-21.973,-24.902,-31.738,-24.902,0.000,0
161909.037,-25.391,-24.902,-23.438,-30.273,0.000,0
161909.041,-26.855,-27.344,-15.625,-29.785,0.000,0
161909.045,-28.809,-23.438,-8.301,-16.602,0.000,0
161909.049,-18.066,-20.020,-30.273,-10.742,0.000,0
161909.053,-14.648,-20.020,-17.578,-29.297,0.000,0
161909.056,-19.531,-17.578,2.930,-35.156,0.000,0
161909.060,-17.578,-20.508,-20.508,-21.973,0.000,0
161909.064,-17.090,-22.949,-30.273,-21.484,0.000,0
161909.068,-17.090,-22.461,-22.461,-19.043,0.000,0
161909.072,-24.414,-24.902,-11.230,-25.879,0.000,0
161909.076,-23.926,-20.508,-4.395,-31.738,0.000,0
161909.080,-21.484,-14.648,-16.113,-26.855,0.000,0
161909.084,-18.066,-13.672,-19.531,-29.785,0.000,0
161909.088,-11.230,-18.555,-10.742,-15.137,0.000,0
161909.092,-13.184,-24.414,-10.742,-15.137,0.000,0
161909.096,-9.766,-20.996,-16.113,-31.250,0.000,0
161909.099,-16.113,-18.555,-23.438,-22.949,0.000,0
161909.103,-22.461,-24.414,-20.020,-11.719,0.000,0
161909.107,-23.926,-29.785,-21.484,-11.719,0.000,0
161909.111,-27.832,-26.367,-22.949,-19.531,0.000,0
161909.115,-19.531,-22.461,-15.625,-22.461,0.000,0
161909.119,-16.113,-20.508,-20.996,-20.020,0.000,0
161909.123,-16.602,-19.531,-16.113,-22.949,0.000,0
161909.127,-15.137,-22.461,-28.320,-12.695,0.000,0
161909.131,-13.672,-23.926,-33.203,-9.277,0.000,0
161909.135,-21.973,-23.438,-12.207,-24.902,0.000,0
161909.138,-21.484,-24.902,-28.320,-25.879,0.000,0
161909.142,-15.137,-20.996,-37.598,-18.555,0.000,0
161909.146,-25.879,-14.648,-27.344,-8.301,0.000,0
161909.150,-27.832,-11.719,-24.414,-6.348,0.000,0
161909.154,-18.555,-15.137,-19.531,-29.785,0.000,0
161909.158,-20.996,-20.020,-17.578,-35.645,0.000,0
161909.162,-30.273,-20.020,-24.902,-20.508,0.000,0
161909.166,-22.949,-23.438,-31.738,-17.090,0.000,0
161909.170,-9.766,-23.438,-24.414,-12.207,0.000,0
161909.174,-14.648,-21.973,-13.184,-20.020,0.000,0
161909.178,-31.738,-16.113,-12.207,-42.969,0.000,0
161909.181,-29.297,-12.695,-28.320,-44.434,0.000,0
161909.185,-17.090,-13.672,-38.086,-24.902,0.000,0
161909.189,-21.484,-11.719,-33.691,-16.113,0.000,0
161909.193,-29.785,-8.301,-4.395,-32.227,0.000,0
161909.197,-23.438,-7.324,-4.883,-29.297,0.000,0
161909.201,-8.301,-9.766,-35.645,-19.043,0.000,0
161909.205,-10.742,-8.301,-23.438,-21.484,0.000,0
161909.209,-15.625,-4.883,-6.836,-23.926,0.000,0
161909.213,-12.207,-5.859,-12.207,-33.203,0.000,0
161909.217,-12.695,-6.836,-21.973,-37.598,0.000,0
161909.221,-4.395,2.441,-11.230,-24.902,0.000,0
161909.224,-4.883,7.812,-6.836,-21.484,0.000,0
161909.228,-25.879,3.906,-24.902,-39.551,0.000,0
161909.232,-22.949,-4.883,-34.180,-32.227,0.000,0
161909.236,-16.113,-5.371,-22.949,-23.438,0.000,0
161909.240,-21.973,-1.953,-15.137,-25.879,0.000,0
161909.244,-12.695,-2.441,-25.391,-20.996,0.000,0
161909.248,-15.625,-4.395,-22.461,-14.648,0.000,0
161909.252,-25.879,-5.859,-7.324,-18.555,0.000,0
161909.256,-31.250,-6.348,-7.324,-22.949,0.000,0
161909.260,-35.645,-11.719,-26.855,-20.508,0.000,0
161909.263,-25.391,-15.625,-40.039,-15.137,0.000,0
161909.267,-25.879,-12.695,-29.785,-11.719,0.000,0
161909.271,-40.039,-17.578,-11.230,-25.391,0.000,0
161909.275,-34.668,-18.555,-22.461,-27.344,0.000,0
161909.279,-24.902,-18.066,-37.109,-17.578,0.000,0
161909.283,-30.762,-20.508,-10.254,-29.785,0.000,0
161909.287,-32.715,-17.090,-15.625,-27.832,0.000,0
161909.291,-24.902,-17.578,-28.320,-18.555,0.000,0
161909.295,-33.691,-16.113,-18.555,-28.809,0.000,0
161909.299,-38.574,-20.508,-33.203,-20.996,0.000,0
161909.303,-23.438,-24.902,-34.668,-2.441,0.000,0
161909.306,-22.461,-22.949,-26.367,-9.766,0.000,0
161909.310,-27.344,-27.344,-4.395,-28.320,0.000,0
161909.314,-23.438,-23.926,-2.441,-28.809,0.000,0
161909.318,-25.391,-21.484,-24.414,-26.367,0.000,0
161909.322,-26.855,-26.367,-24.414,-24.414,0.000,0
161909.326,-26.855,-27.344,-27.344,-12.695,0.000,0
161909.330,-20.508,-26.367,-5.371,-20.020,0.000,0
161909.334,-15.625,-28.809,-22.949,-32.227,0.000,0
161909.338,-22.949,-27.832,-45.898,-24.414,0.000,0
161909.342,-21.484,-26.367,-26.367,-21.973,0.000,0
161909.346,-19.531,-24.902,-21.484,-22.461,0.000,0
161909.349,-31.738,-23.926,-21.973,-27.344,0.000,0
161909.353,-31.738,-28.320,-28.320,-26.367,0.000,0
161909.357,-27.344,-33.691,-35.156,-30.273,0.000,0
161909.361,-30.762,-34.668,-22.461,-30.762,0.000,0
161909.365,-28.809,-34.668,-26.367,-14.648,0.000,0
161909.369,-24.414,-32.715,-25.879,-20.020,0.000,0
161909.373,-30.762,-34.180,-9.766,-39.551,0.000,0
161909.377,-30.273,-34.180,-26.367,-29.785,0.000,0
161909.381,-19.531,-38.086,-39.062,-15.625,0.000,0
161909.385,-20.996,-36.133,-28.809,-17.578,0.000,0
161909.388,-28.320,-35.156,-18.066,-29.785,0.000,0
161909.392,-29.785,-39.062,-17.090,-37.109,0.000,0
161909.396,-29.297,-36.621,-33.203,-33.203,0.000,0
161909.400,-22.949,-35.156,-27.344,-22.461,0.000,0
161909.404,-19.531,-34.180,-19.043,-12.695,0.000,0
161909.408,-24.414,-32.715,-24.902,-22.461,0.000,0
161909.412,-28.320,-33.203,-23.438,-23.926,0.000,0
161909.416,-27.344,-33.691,-20.996,-15.625,0.000,0
161909.420,-25.879,-37.109,-17.090,-15.625,0.000,0
161909.424,-28.809,-41.016,-32.227,-24.902,0.000,0
161909.428,-21.484,-39.551,-30.762,-30.762,0.000,0
161909.431,-29.297,-41.016,-23.926,-25.879,0.000,0
161909.435,-38.574,-37.598,-25.391,-27.344,0.000,0
161909.439,-25.879,-32.715,-27.344,-32.715,0.000,0
161909.443,-23.438,-33.203,-46.875,-24.902,0.000,0
161909.447,-26.367,-33.203,-32.227,-29.785,0.000,0
161909.451,-29.785,-29.785,-18.066,-30.762,0.000,0
161909.455,-29.297,-35.645,-30.762,-21.484,0.000,0
161909.459,-26.367,-34.180,-33.203,-23.438,0.000,0
161909.463,-28.320,-25.391,-26.367,-18.066,0.000,0
161909.467,-28.809,-31.250,-31.250,-15.137,0.000,0
161909.471,-18.555,-34.668,-37.109,-28.809,0.000,0
161909.474,-21.973,-29.785,-28.320,-27.832,0.000,0
161909.478,-23.438,-32.227,-27.344,-15.137,0.000,0
161909.482,-20.996,-31.738,-35.156,-16.602,0.000,0
161909.486,-28.320,-25.391,-29.785,-24.902,0.000,0
161909.490,-24.902,-23.438,-10.742,-29.785,0.000,0
161909.494,-24.902,-26.367,-14.160,-25.391,0.000,0
161909.498,-26.855,-32.227,-27.344,-19.531,0.000,0
161909.502,-24.902,-34.180,-29.297,-21.484,0.000,0
161909.506,-30.273,-31.250,-22.949,-13.184,0.000,0
161909.510,-29.785,-27.832,-14.648,-13.672,0.000,0
161909.513,-23.926,-26.367,-35.645,-32.715,0.000,0
161909.517,-25.879,-26.855,-44.434,-28.809,0.000,0
161909.521,-24.414,-29.785,-26.367,-24.902,0.000,0
161909.525,-27.344,-32.227,-22.949,-29.785,0.000,0
161909.529,-31.250,-26.855,-24.414,-30.273,0.000,0
161909.533,-25.391,-24.902,-24.902,-30.762,0.000,0
161909.537,-23.926,-22.949,-7.324,-34.180,0.000,0
161909.541,-28.809,-24.902,-5.371,-26.855,0.000,0
161909.545,-27.344,-27.344,-35.645,-15.625,0.000,0
161909.549,-30.762,-27.832,-24.414,-27.832,0.000,0
161909.553,-33.203,-25.391,-11.230,-22.461,0.000,0
161909.556,-24.902,-22.461,-22.461,-18.066,0.000,0
161909.560,-19.531,-19.531,-22.949,-23.926,0.000,0
161909.564,-20.508,-19.043,-24.902,-23.438,0.000,0
161909.568,-26.367,-24.414,-3.418,-19.043,0.000,0
161909.572,-16.602,-28.320,0.000,-20.996,0.000,0
161909.576,-18.555,-36.621,-23.438,-31.250,0.000,0
161909.580,-28.320,-33.203,-23.926,-33.203,0.000,0
161909.584,-18.555,-24.414,-25.391,-21.484,0.000,0
161909.588,-15.137,-22.461,-13.672,-24.414,0.000,0
161909.592,-21.484,-25.391,-13.672,-18.555,0.000,0
161909.596,-25.879,-23.926,-20.020,-11.230,0.000,0
161909.599,-19.531,-27.832,-10.254,-12.207,0.000,0
161909.603,-6.348,-30.273,-23.926,-8.301,0.000,0
161909.607,-14.648,-27.344,-19.043,-33.203,0.000,0
161909.611,-21.973,-22.949,-1.953,-34.668,0.000,0
161909.615,-16.602,-27.832,-21.484,-11.230,0.000,0
161909.619,-23.926,-33.203,-39.551,-25.391,0.000,0
161909.623,-31.250,-33.691,-41.992,-44.434,0.000,0
161909.627,-32.715,-35.156,-21.484,-40.527,0.000,0
161909.631,-25.879,-25.391,-17.090,-32.227,0.000,0
161909.635,-22.461,-17.090,-36.133,-22.461,0.000,0
161909.638,-21.973,-18.555,-22.949,-32.227,0.000,0
161909.642,-20.508,-19.531,-17.090,-39.062,0.000,0
161909.646,-23.438,-22.949,-26.855,-30.273,0.000,0
161909.650,-22.461,-30.273,-35.645,-38.574,0.000,0
161909.654,-20.020,-28.809,-46.387,-40.527,0.000,0
161909.658,-23.926,-19.043,-20.020,-24.414,0.000,0
161909.662,-23.438,-16.602,-18.066,-15.625,0.000,0
161909.666,-13.184,-18.555,-19.531,-30.273,0.000,0
161909.670,-17.578,-16.113,-3.906,-30.273,0.000,0
161909.674,-32.227,-18.555,-19.531,-26.367,0.000,0
161909.678,-30.273,-25.879,-24.414,-27.344,0.000,0
161909.681,-25.391,-19.531,-27.344,-22.949,0.000,0
161909.685,-21.484,-15.625,-9.766,-17.090,0.000,0
161909.689,-20.020,-19.043,-1.953,-27.344,0.000,0
161909.693,-21.484,-15.625,-27.344,-27.832,0.000,0
161909.697,-16.113,-18.555,-38.574,-13.184,0.000,0
161909.701,-18.555,-20.020,-26.367,-12.695,0.000,0
161909.705,-24.414,-14.648,3.906,-18.066,0.000,0
161909.709,-18.555,-15.137,-7.324,-27.832,0.000,0
161909.713,-22.461,-18.555,-27.344,-34.180,0.000,0
161909.717,-26.367,-18.555,-19.043,-11.230,0.000,0
161909.721,-24.902,-18.066,-24.414,6.836,0.000,0
161909.724,-21.484,-26.367,-20.020,-13.184,0.000,0
161909.728,-24.414,-29.297,-9.277,-19.043,0.000,0
161909.732,-29.785,-22.949,-27.832,-8.301,0.000,0
161909.736,-27.832,-23.438,-25.391,-16.602,0.000,0
161909.740,-24.902,-22.461,-18.066,-20.996,0.000,0
161909.744,-16.602,-22.461,-27.832,-22.461,0.000,0
161909.748,-22.949,-26.855,-24.414,-25.879,0.000,0
161909.752,-26.367,-26.367,-24.902,-24.902,0.000,0
161909.756,-17.090,-26.855,-31.250,-18.066,0.000,0
161909.760,-24.414,-32.227,-36.133,-17.578,0.000,0
161909.763,-25.391,-33.691,-35.645,-28.320,0.000,0
161909.767,-22.949,-29.785,-26.855,-37.109,0.000,0
161909.771,-26.855,-23.926,-37.598,-32.715,0.000,0
161909.775,-23.926,-23.926,-37.598,-26.367,0.000,0
161909.779,-21.973,-29.785,-26.855,-34.180,0.000,0
161909.783,-27.832,-33.203,-32.227,-40.039,0.000,0
161909.787,-17.090,-24.902,-17.090,-22.949,0.000,0
161909.791,2.930,-19.043,-10.742,-5.859,0.000,0
161909.795,-20.020,-25.879,-28.320,-23.438,0.000,0
161909.799,-46.875,-31.738,-43.945,-43.945,0.000,0
161909.803,-39.062,-27.832,-26.855,-39.062,0.000,0
161909.806,-31.250,-29.297,-10.742,-40.527,0.000,0
161909.810,-32.227,-28.320,-20.020,-39.062,0.000,0
161909.814,-34.180,-28.320,-17.090,-28.809,0.000,0
161909.818,-42.480,-29.297,-13.672,-42.969,0.000,0
161909.822,-31.738,-25.391,-9.766,-40.527,0.000,0
161909.826,-17.578,-26.367,-5.859,-22.949,0.000,0
161909.830,-19.043,-23.438,-10.742,-15.137,0.000,0
161909.834,-21.484,-22.461,-22.461,-11.230,0.000,0
161909.838,-19.043,-20.508,-10.742,-10.742,0.000,0
161909.842,-23.438,-24.902,-11.230,-21.484,0.000,0
161909.846,-35.156,-29.297,-19.043,-29.785,0.000,0
161909.849,-36.621,-22.949,-21.973,-24.414,0.000,0
161909.853,-31.250,-21.973,-28.320,-22.949,0.000,0
161909.857,-30.273,-22.949,-20.996,-21.484,0.000,0
161909.861,-31.738,-21.484,-23.438,-18.066,0.000,0
161909.865,-31.250,-22.949,-15.625,-24.902,0.000,0
161909.869,-30.273,-25.879,-14.160,-29.785,0.000,0
161909.873,-26.855,-23.438,-28.809,-26.367,0.000,0
161909.877,-25.391,-22.461,-27.832,-23.926,0.000,0
161909.881,-32.715,-20.020,-17.090,-16.113,0.000,0
161909.885,-27.344,-16.602,-6.836,-15.625,0.000,0
161909.888,-20.020,-18.555,-18.555,-35.156,0.000,0
161909.892,-22.949,-25.391,-21.484,-28.809,0.000,0
161909.896,-26.367,-23.926,-18.555,-17.578,0.000,0
161909.900,-23.926,-15.625,-26.367,-28.320,0.000,0
161909.904,-15.137,-14.648,-10.742,-25.879,0.000,0
161909.908,-12.207,-15.137,-9.277,-16.602,0.000,0
161909.912,-22.461,-14.160,-23.926,-12.695,0.000,0
161909.916,-19.531,-16.602,-29.297,-12.695,0.000,0
161909.920,-17.090,-20.020,-27.344,-9.277,0.000,0
161909.924,-19.531,-20.996,-8.301,-26.367,0.000,0
161909.928,-15.137,-20.020,-6.348,-41.504,0.000,0
161909.931,-14.160,-17.578,-20.020,-32.227,0.000,0
161909.935,-9.277,-19.531,-22.949,-24.414,0.000,0
161909.939,-10.742,-19.043,-20.020,-25.879,0.000,0
161909.943,-22.949,-19.531,-0.488,-26.855,0.000,0
161909.947,-22.461,-24.414,0.977,-22.949,0.000,0
161909.951,-17.090,-28.809,-26.855,-21.484,0.000,0
161909.955,-21.484,-23.926,-30.273,-18.555,0.000,0
161909.959,-19.531,-22.461,-14.160,-19.043,0.000,0
161909.963,-8.789,-25.391,-5.859,-39.062,0.000,0
161909.967,-10.742,-24.414,-6.348,-43.457,0.000,0
161909.971,-6.836,-23.926,-18.066,-23.438,0.000,0
161909.974,-6.348,-20.508,-20.020,-13.184,0.000,0
161909.978,-10.254,-18.066,-21.484,-21.484,0.000,0
161909.982,-15.625,-22.461,-17.090,-36.621,0.000,0
161909.986,-27.832,-23.926,-14.648,-39.551,0.000,0
161909.990,-21.973,-21.973,-19.043,-31.738,0.000,0
161909.994,-10.742,-24.414,-26.367,-25.391,0.000,0
161909.998,-20.508,-22.461,-39.062,-12.207,0.000,0
161910.002,-31.738,-27.344,-26.855,-15.137,0.000,0
161910.006,-27.344,-37.109,-20.020,-10.254,0.000,0
161910.010,-22.949,-27.832,-36.133,-17.578,0.000,0
161910.013,-28.809,-20.996,-28.320,-31.250,0.000,0
161910.017,-32.227,-24.902,-22.949,-24.902,0.000,0
161910.021,-28.320,-24.902,-16.602,-28.809,0.000,0
161910.025,-26.855,-28.809,-15.137,-27.344,0.000,0
161910.029,-24.414,-24.414,-20.996,-28.320,0.000,0
161910.033,-17.578,-18.555,-12.207,-22.949,0.000,0
161910.037,-25.391,-29.297,-29.297,-17.090,0.000,0
161910.041,-30.273,-32.227,-30.762,-34.180,0.000,0
161910.045,-21.484,-22.461,-7.812,-34.180,0.000,0
161910.049,-19.531,-24.902,-10.742,-30.762,0.000,0
161910.053,-15.625,-25.391,-18.555,-29.297,0.000,0
161910.056,-9.766,-21.484,-39.062,-10.742,0.000,0
161910.060,-11.230,-22.949,-20.996,-18.066,0.000,0
161910.064,-12.207,-23.926,-5.371,-24.414,0.000,0
161910.068,-12.695,-22.949,-20.996,-6.836,0.000,0
161910.072,-13.672,-20.020,-30.273,-9.277,0.000,0
161910.076,-16.113,-22.949,-26.367,-23.438,0.000,0
161910.080,-20.508,-26.367,-12.207,-30.273,0.000,0
161910.084,-24.414,-25.391,-17.090,-31.738,0.000,0
161910.088,-17.578,-22.461,-35.645,-22.949,0.000,0
161910.092,-11.719,-21.973,-35.156,-19.043,0.000,0
161910.096,-16.602,-22.949,-28.320,-15.625,0.000,0
161910.099,-18.555,-23.438,-27.832,-19.531,0.000,0
161910.103,-23.438,-29.785,-20.508,-33.691,0.000,0
161910.107,-26.367,-27.832,-22.461,-26.855,0.000,0
161910.111,-28.809,-21.973,-27.344,-22.461,0.000,0
161910.115,-35.156,-23.438,-37.598,-28.320,0.000,0
161910.119,-28.320,-20.996,-41.992,-28.809,0.000,0
161910.123,-28.809,-25.391,-24.902,-21.484,0.000,0
161910.127,-34.180,-31.738,-29.785,-16.602,0.000,0
161910.131,-25.391,-27.344,-41.016,-33.203,0.000,0
161910.135,-22.949,-25.879,-29.785,-34.180,0.000,0
161910.138,-24.414,-27.344,-29.785,-23.926,0.000,0
161910.142,-27.832,-23.926,-25.879,-35.156,0.000,0
161910.146,-26.367,-22.461,-33.691,-42.480,0.000,0
161910.150,-28.809,-28.320,-40.039,-43.945,0.000,0
161910.154,-22.949,-24.414,-23.926,-34.668,0.000,0
161910.158,-10.742,-15.625,-31.738,-14.648,0.000,0
161910.162,-16.602,-19.043,-26.367,-21.484,0.000,0
161910.166,-15.625,-20.020,-21.973,-19.043,0.000,0
161910.170,-15.137,-18.555,-19.043,-19.531,0.000,0
161910.174,-16.602,-17.578,-21.973,-20.508,0.000,0
161910.178,-19.043,-20.996,-27.344,-4.395,0.000,0
161910.181,-24.902,-23.926,-21.973,-25.391,0.000,0
161910.185,-17.578,-19.531,-19.043,-29.297,0.000,0
161910.189,-19.531,-18.066,-24.902,-6.348,0.000,0
161910.193,-22.461,-22.949,-28.809,-6.348,0.000,0
161910.197,-18.066,-19.043,-22.461,-15.137,0.000,0
161910.201,-22.949,-20.020,-11.719,-24.902,0.000,0
161910.205,-28.320,-25.879,-13.672,-28.320,0.000,0
161910.209,-21.973,-25.879,-20.996,-26.855,0.000,0
161910.213,-30.273,-19.531,-17.578,-24.414,0.000,0
161910.217,-28.320,-22.461,-19.531,-1.465,0.000,0
161910.221,-16.113,-23.438,-19.043,-12.207,0.000,0
161910.224,-21.973,-16.113,-13.184,-37.598,0.000,0
161910.228,-20.508,-18.555,-19.043,-17.090,0.000,0
161910.232,-16.113,-24.414,-20.996,-9.277,0.000,0
161910.236,-17.090,-21.973,-14.648,-18.066,0.000,0
161910.240,-20.996,-22.949,-1.953,-24.414,0.000,0
161910.244,-23.438,-23.926,-5.859,-32.715,0.000,0
161910.248,-25.879,-17.090,-17.578,-32.227,0.000,0
161910.252,-29.785,-17.090,-20.508,-25.879,0.000,0
161910.256,-29.785,-18.555,-21.484,-21.973,0.000,0
161910.260,-23.438,-19.043,-4.395,-30.273,0.000,0
161910.263,-22.949,-20.508,-15.137,-22.949,0.000,0
161910.267,-27.344,-19.043,-41.992,-19.043,0.000,0
161910.271,-19.531,-19.531,-30.762,-28.809,0.000,0
161910.275,-24.414,-23.438,-21.973,-18.555,0.000,0
161910.279,-34.668,-19.531,-18.555,-37.109,0.000,0
161910.283,-26.855,-17.090,-16.602,-43.457,0.000,0
161910.287,-27.344,-19.043,-17.090,-14.648,0.000,0
161910.291,-37.598,-16.602,-24.414,-13.672,0.000,0
161910.295,-35.645,-16.113,-35.645,-31.738,0.000,0
161910.299,-32.227,-22.461,-26.367,-37.598,0.000,0
161910.303,-34.668,-23.926,-20.020,-28.809,0.000,0
161910.306,-30.762,-17.578,-31.738,-24.902,0.000,0
161910.310,-21.484,-19.043,-32.227,-33.203,0.000,0
161910.314,-17.090,-16.602,-32.227,-24.902,0.000,0
161910.318,-27.832,-17.090,-13.184,-31.738,0.000,0
161910.322,-38.086,-21.484,-7.324,-42.480,0.000,0
161910.326,-34.180,-20.508,-39.551,-33.691,0.000,0
161910.330,-26.367,-20.996,-40.039,-25.879,0.000,0
161910.334,-22.949,-24.414,-25.391,-25.879,0.000,0
161910.338,-23.926,-27.832,-9.766,-31.250,0.000,0
161910.342,-17.090,-30.273,-6.836,-32.715,0.000,0
161910.346,-19.531,-29.785,-20.020,-24.902,0.000,0
161910.349,-33.691,-23.926,-23.926,-20.996,0.000,0
161910.353,-37.598,-23.926,-37.598,-26.367,0.000,0
161910.357,-36.621,-24.414,-34.180,-35.156,0.000,0
161910.361,-33.691,-25.391,-8.301,-39.551,0.000,0
161910.365,-31.738,-27.832,-19.043,-26.855,0.000,0
161910.369,-31.250,-25.879,-38.086,-20.508,0.000,0
161910.373,-31.738,-29.297,-39.062,-20.508,0.000,0
161910.377,-29.785,-35.156,-23.438,-21.484,0.000,0
161910.381,-33.203,-34.180,-18.066,-30.273,0.000,0
161910.385,-32.715,-32.715,-36.621,-28.809,0.000,0
161910.388,-23.926,-30.762,-30.273,-29.785,0.000,0
161910.392,-20.996,-23.926,-12.695,-17.578,0.000,0
161910.396,-15.625,-20.020,-4.395,-14.160,0.000,0
161910.400,-13.184,-24.902,-16.602,-31.250,0.000,0
161910.404,-20.020,-25.391,-21.484,-25.391,0.000,0
161910.408,-25.391,-25.879,-4.883,-19.043,0.000,0
161910.412,-22.949,-22.949,-16.602,-26.855,0.000,0
161910.416,-23.438,-23.438,-24.902,-31.738,0.000,0
161910.420,-31.250,-28.320,-15.137,-40.039,0.000,0
161910.424,-24.902,-25.391,-21.484,-36.133,0.000,0
161910.428,-20.020,-27.832,-24.414,-24.902,0.000,0
161910.431,-19.043,-31.738,-32.715,-27.832,0.000,0
161910.435,-19.531,-28.320,-31.250,-35.645,0.000,0
161910.439,-22.949,-23.926,-12.695,-36.621,0.000,0
161910.443,-27.832,-20.508,-26.855,-31.738,0.000,0
161910.447,-20.508,-18.066,-42.480,-39.551,0.000,0
161910.451,-8.789,-14.648,-28.809,-38.086,0.000,0
161910.455,-20.508,-13.672,-9.277,-28.809,0.000,0
161910.459,-27.832,-14.648,-20.996,-39.062,0.000,0
161910.463,-21.973,-19.043,-22.461,-47.363,0.000,0
161910.467,-23.926,-21.484,-22.949,-32.715,0.000,0
161910.471,-28.809,-20.020,-40.527,-17.578,0.000,0
161910.474,-28.809,-18.555,-27.344,-39.551,0.000,0
161910.478,-28.320,-26.855,-20.996,-51.270,0.000,0
161910.482,-29.785,-31.738,-32.715,-40.039,0.000,0
161910.486,-18.555,-29.785,-29.785,-29.297,0.000,0
161910.490,-17.578,-26.855,-18.066,-17.090,0.000,0
161910.494,-31.250,-23.926,-26.855,-36.621,0.000,0
161910.498,-32.715,-25.391,-18.555,-42.480,0.000,0
161910.502,-31.250,-20.996,-4.395,-24.414,0.000,0
161910.506,-29.297,-19.043,-20.996,-21.484,0.000,0
161910.510,-23.438,-21.973,-23.926,-19.531,0.000,0
161910.513,-21.973,-24.414,-23.438,-12.695,0.000,0
161910.517,-29.785,-21.973,-26.367,-21.484,0.000,0
161910.521,-31.738,-21.973,-25.879,-37.109,0.000,0
161910.525,-26.367,-22.949,-21.973,-39.551,0.000,0
161910.529,-21.973,-23.926,-21.484,-30.762,0.000,0
161910.533,-21.484,-22.949,-28.809,-25.879,0.000,0
161910.537,-30.762,-26.367,-24.414,-39.551,0.000,0
161910.541,-33.203,-25.391,-19.043,-37.598,0.000,0
161910.545,-24.414,-15.137,-24.414,-25.391,0.000,0
161910.549,-20.020,-19.043,-37.109,-32.715,0.000,0
161910.553,-26.367,-26.367,-29.785,-19.531,0.000,0
161910.556,-30.273,-24.414,-10.254,-22.949,0.000,0
161910.560,-27.344,-28.320,-27.344,-41.016,0.000,0
161910.564,-18.555,-27.832,-39.551,-44.434,0.000,0
161910.568,-20.996,-24.414,-32.715,-36.621,0.000,0
161910.572,-25.879,-26.855,-34.180,-22.949,0.000,0
161910.576,-17.090,-24.902,-18.555,-30.762,0.000,0
161910.580,-19.043,-25.879,-27.344,-21.484,0.000,0
161910.584,-24.414,-28.320,-40.527,-4.395,0.000,0
161910.588,-21.484,-34.668,-26.367,-14.160,0.000,0
161910.592,-29.297,-32.715,-22.949,-12.695,0.000,0
161910.596,-45.410,-29.297,-26.855,-10.742,0.000,0
161910.599,-43.457,-32.715,-28.320,-30.273,0.000,0
161910.603,-34.668,-33.691,-27.832,-33.691,0.000,0
161910.607,-36.621,-31.250,-26.367,-27.344,0.000,0
161910.611,-28.809,-26.367,-33.691,-18.555,0.000,0
161910.615,-34.180,-30.273,-17.578,-31.250,0.000,0
161910.619,-33.691,-36.621,-8.301,-32.715,0.000,0
161910.623,-27.344,-34.668,-34.668,-22.949,0.000,0
161910.627,-30.762,-29.785,-27.832,-18.066,0.000,0
161910.631,-35.645,-29.297,-15.625,-12.695,0.000,0
161910.635,-35.645,-31.738,-13.672,-42.969,0.000,0
161910.638,-20.996,-31.738,-14.648,-52.734,0.000,0
161910.642,-22.461,-29.297,-25.391,-39.551,0.000,0
161910.646,-27.832,-30.762,-25.879,-33.691,0.000,0
161910.650,-27.832,-27.344,-29.297,-34.668,0.000,0
161910.654,-27.832,-21.973,-13.184,-41.992,0.000,0
161910.658,-30.273,-27.832,-13.184,-46.387,0.000,0
161910.662,-28.809,-25.391,-33.203,-38.086,0.000,0
161910.666,-28.320,-27.344,-22.949,-43.945,0.000,0
161910.670,-33.203,-33.691,-24.902,-37.109,0.000,0
161910.674,-23.438,-28.320,-35.645,-29.785,0.000,0
161910.678,-20.020,-25.879,-16.113,-41.992,0.000,0
161910.681,-26.367,-29.297,-19.531,-42.480,0.000,0
161910.685,-23.926,-26.855,-30.273,-37.109,0.000,0
161910.689,-15.137,-30.762,-39.551,-27.832,0.000,0
161910.693,-12.207,-30.762,-9.766,-23.438,0.000,0
161910.697,-11.230,-27.344,-1.953,-31.250,0.000,0
161910.701,-12.207,-30.273,-30.273,-33.203,0.000,0
161910.705,-18.555,-34.668,-26.367,-36.133,0.000,0
161910.709,-17.578,-34.668,-29.297,-21.484,0.000,0
161910.713,-18.066,-32.227,-26.367,-17.090,0.000,0
161910.717,-23.438,-32.715,-21.973,-30.762,0.000,0
161910.721,-26.855,-33.691,-28.320,-26.367,0.000,0
161910.724,-33.203,-33.691,-26.855,-20.508,0.000,0
161910.728,-38.574,-24.414,-36.133,-28.809,0.000,0
161910.732,-30.762,-26.367,-35.645,-38.574,0.000,0
161910.736,-27.344,-32.227,-12.207,-46.875,0.000,0
161910.740,-32.715,-30.273,-11.230,-48.340,0.000,0
161910.744,-25.391,-26.367,-28.809,-42.480,0.000,0
161910.748,-27.832,-25.879,-38.574,-35.156,0.000,0
161910.752,-34.668,-28.809,-25.391,-29.297,0.000,0
161910.756,-25.879,-23.926,-12.695,-28.320,0.000,0
161910.760,-23.438,-22.949,-29.297,-28.320,0.000,0
161910.763,-30.273,-24.902,-36.133,-36.621,0.000,0
161910.767,-33.691,-23.438,-31.738,-34.180,0.000,0
161910.771,-25.391,-25.879,-28.320,-17.090,0.000,0
161910.775,-17.578,-29.297,-16.602,-30.273,0.000,0
161910.779,-17.090,-21.973,-23.438,-36.621,0.000,0
161910.783,-19.043,-17.090,-23.438,-21.484,0.000,0
161910.787,-16.113,-20.508,-13.672,-0.977,0.000,0
161910.791,-5.859,-20.996,-18.066,-8.789,0.000,0
161910.795,-17.090,-19.531,-11.230,-35.156,0.000,0
161910.799,-20.996,-20.508,-23.926,-20.996,0.000,0
161910.803,-9.766,-16.113,-24.902,-9.766,0.000,0
161910.806,-10.254,-16.113,-17.578,-5.371,0.000,0
161910.810,-26.367,-21.973,-17.578,-12.207,0.000,0
161910.814,-39.551,-18.555,-16.602,-29.785,0.000,0
161910.818,-28.809,-14.160,-23.438,-29.297,0.000,0
161910.822,-33.203,-23.438,-41.016,-26.367,0.000,0
161910.826,-34.180,-23.926,-35.156,-14.160,0.000,0
161910.830,-25.391,-17.090,-16.113,-8.301,0.000,0
161910.834,-20.508,-18.555,-23.438,-11.719,0.000,0
161910.838,-19.043,-22.461,-31.738,-12.695,0.000,0
161910.842,-20.996,-28.320,-26.855,-7.324,0.000,0
161910.846,-17.090,-27.344,-23.926,-7.812,0.000,0
161910.849,-18.066,-25.391,-36.133,-18.555,0.000,0
161910.853,-17.578,-23.926,-18.555,-19.043,0.000,0
161910.857,-12.695,-26.367,-11.719,-15.137,0.000,0
161910.861,-13.672,-32.715,-28.809,-11.719,0.000,0
161910.865,-13.184,-35.156,-29.785,-10.742,0.000,0
161910.869,-16.602,-32.227,-33.691,-18.066,0.000,0
161910.873,-24.902,-33.691,-27.344,-24.902,0.000,0
161910.877,-22.949,-35.645,-13.184,-32.227,0.000,0
161910.881,-14.160,-28.320,-33.691,-35.645,0.000,0
161910.885,-18.066,-23.438,-49.805,-22.949,0.000,0
161910.888,-20.508,-25.879,-31.738,0.000,0.000,0
161910.892,-9.766,-17.090,-6.836,-0.977,0.000,0
161910.896,-11.230,-14.160,-15.137,-13.672,0.000,0
161910.900,-23.926,-23.926,-30.762,-12.207,0.000,0
161910.904,-23.438,-20.996,-22.949,-18.555,0.000,0
161910.908,-21.973,-13.672,-16.602,-25.879,0.000,0
161910.912,-22.461,-20.508,-13.184,-31.250,0.000,0
161910.916,-16.113,-23.926,-18.066,-33.203,0.000,0
161910.920,-17.578,-20.996,-22.949,-27.832,0.000,0
161910.924,-10.254,-19.043,-29.297,-10.254,0.000,0
161910.928,-4.883,-16.602,-16.602,-23.926,0.000,0
161910.931,-6.348,-22.461,-7.324,-39.062,0.000,0
161910.935,-10.742,-23.926,-24.414,-25.879,0.000,0
161910.939,-13.184,-19.043,-22.949,-20.996,0.000,0
161910.943,-10.742,-17.578,-21.973,-18.066,0.000,0
161910.947,-12.695,-16.113,-19.531,-5.371,0.000,0
161910.951,-10.742,-25.391,-19.531,-13.184,0.000,0
161910.955,-8.789,-30.273,-33.203,-31.250,0.000,0
161910.959,-15.137,-21.484,-27.344,-29.297,0.000,0
161910.963,-10.254,-13.184,-14.648,-16.113,0.000,0
161910.967,-13.672,-23.926,-25.879,-21.484,0.000,0
161910.971,-18.066,-23.926,-17.578,-34.180,0.000,0
161910.974,-18.066,-13.672,-18.555,-20.996,0.000,0
161910.978,-26.367,-19.531,-13.184,-26.367,0.000,0
161910.982,-19.043,-20.508,-16.113,-25.879,0.000,0
161910.986,-11.719,-16.113,-37.109,-4.883,0.000,0
161910.990,-16.602,-19.531,-11.719,-23.438,0.000,0
161910.994,-20.508,-22.461,-8.301,-34.668,0.000,0
161910.998,-28.809,-20.508,-27.344,-24.414,0.000,0
161911.002,-30.273,-20.508,-25.879,-21.973,0.000,0
161911.006,-26.367,-20.508,-11.719,-24.414,0.000,0
161911.010,-18.555,-16.113,3.418,-20.508,0.000,0
161911.013,-13.184,-16.113,-20.996,-30.273,0.000,0
161911.017,-24.414,-20.508,-26.367,-41.504,0.000,0
161911.021,-29.297,-19.043,-10.254,-37.109,0.000,0
161911.025,-28.809,-20.020,-18.555,-25.391,0.000,0
161911.029,-29.297,-16.602,-10.742,-34.668,0.000,0
161911.033,-24.414,-12.207,-11.230,-39.551,0.000,0
161911.037,-20.996,-17.090,-26.367,-24.902,0.000,0
161911.041,-23.438,-22.461,-31.250,-21.484,0.000,0
161911.045,-26.367,-27.344,-29.785,-24.414,0.000,0
161911.049,-30.273,-28.809,-18.555,-40.527,0.000,0
161911.053,-23.438,-24.414,-17.090,-32.715,0.000,0
161911.056,-20.020,-18.066,-22.949,-18.555,0.000,0
161911.060,-21.484,-20.020,-37.598,-20.508,0.000,0
161911.064,-25.879,-23.438,-31.250,-18.555,0.000,0
161911.068,-32.715,-25.391,0.488,-27.832,0.000,0
161911.072,-31.250,-25.879,-19.043,-19.531,0.000,0
161911.076,-27.344,-28.320,-35.645,-6.836,0.000,0
161911.080,-22.461,-28.809,-15.625,-15.625,0.000,0
161911.084,-22.461,-20.996,-20.020,-17.578,0.000,0
161911.088,-26.855,-17.090,-14.160,-27.832,0.000,0
161911.092,-30.273,-19.043,-5.371,-25.391,0.000,0
161911.096,-26.367,-20.996,-14.648,-15.625,0.000,0
161911.099,-25.879,-20.020,-22.461,-22.461,0.000,0
161911.103,-22.461,-20.508,-37.598,-18.066,0.000,0
161911.107,-22.461,-23.438,-30.273,-28.320,0.000,0
161911.111,-28.809,-23.926,-9.766,-29.785,0.000,0
161911.115,-16.602,-20.996,-19.043,-6.348,0.000,0
161911.119,-5.371,-15.137,-16.602,-6.348,0.000,0
161911.123,-11.230,-17.578,-9.766,-10.742,0.000,0
161911.127,-12.207,-21.484,-6.836,-8.301,0.000,0
161911.131,-17.578,-21.973,-18.555,-23.926,0.000,0
161911.135,-21.484,-22.949,-24.902,-20.996,0.000,0
161911.138,-14.648,-23.926,-22.461,2.441,0.000,0
161911.142,-16.113,-23.438,-28.320,0.488,0.000,0
161911.146,-23.438,-24.902,-26.367,-27.832,0.000,0
161911.150,-27.344,-25.879,-27.832,-37.598,0.000,0
161911.154,-24.414,-21.973,-32.715,-30.273,0.000,0
161911.158,-19.531,-20.020,-29.785,-28.320,0.000,0
161911.162,-20.996,-21.484,-31.738,-28.809,0.000,0
161911.166,-15.625,-23.438,-31.250,-21.973,0.000,0
161911.170,-18.066,-22.949,-19.043,-23.926,0.000,0
161911.174,-29.297,-31.250,-24.414,-34.180,0.000,0
161911.178,-23.438,-29.297,-47.363,-32.227,0.000,0
161911.181,-20.020,-23.926,-39.062,-20.508,0.000,0
161911.185,-19.531,-35.156,-26.855,-16.113,0.000,0
161911.189,-13.672,-39.551,-31.250,-36.133,0.000,0
161911.193,-16.113,-33.203,-33.203,-39.551,0.000,0
161911.197,-15.625,-32.715,-45.898,-32.227,0.000,0
161911.201,-20.996,-36.133,-39.551,-22.949,0.000,0
161911.205,-22.461,-36.133,-29.785,-23.926,0.000,0
161911.209,-21.973,-34.180,-28.809,-30.762,0.000,0
161911.213,-30.273,-32.715,-38.086,-21.973,0.000,0
161911.217,-24.414,-30.762,-35.156,-20.020,0.000,0
161911.221,-18.555,-25.879,-25.391,-17.578,0.000,0
161911.224,-26.855,-28.809,-24.902,-26.855,0.000,0
161911.228,-35.156,-31.250,-21.484,-38.086,0.000,0
161911.232,-35.645,-31.250,-30.762,-43.945,0.000,0
161911.236,-33.203,-29.785,-29.785,-38.086,0.000,0
161911.240,-27.832,-25.879,-24.414,-20.996,0.000,0
161911.244,-24.414,-28.809,-23.926,-29.785,0.000,0
161911.248,-28.320,-32.715,-14.160,-39.551,0.000,0
161911.252,-33.203,-37.598,-31.250,-33.691,0.000,0
161911.256,-38.086,-29.297,-35.156,-33.203,0.000,0
161911.260,-32.715,-27.832,-28.320,-37.109,0.000,0
161911.263,-35.156,-32.715,-24.414,-45.898,0.000,0
161911.267,-40.527,-31.250,-16.113,-36.621,0.000,0
161911.271,-33.203,-28.320,-24.414,-26.855,0.000,0
161911.275,-23.926,-31.738,-31.738,-38.574,0.000,0
161911.279,-15.137,-31.738,-35.645,-31.250,0.000,0
161911.283,-7.812,-27.832,-27.832,-25.879,0.000,0
161911.287,-8.789,-20.996,-13.672,-22.949,0.000,0
161911.291,-16.602,-17.090,-20.996,-19.043,0.000,0
161911.295,-24.902,-25.879,-33.691,-20.508,0.000,0
161911.299,-30.762,-28.320,-38.574,-26.855,0.000,0
161911.303,-26.367,-20.996,-9.277,-37.598,0.000,0
161911.306,-26.367,-24.414,-5.859,-46.387,0.000,0
161911.310,-27.832,-28.809,-33.203,-39.062,0.000,0
161911.314,-19.531,-23.438,-26.855,-20.508,0.000,0
161911.318,-20.996,-21.484,-22.461,-19.531,0.000,0
161911.322,-27.832,-30.273,-16.602,-30.762,0.000,0
161911.326,-34.180,-28.809,-19.043,-43.457,0.000,0
161911.330,-31.738,-22.461,-34.180,-43.457,0.000,0
161911.334,-27.832,-22.461,-17.090,-37.598,0.000,0
161911.338,-23.438,-23.438,-12.207,-35.645,0.000,0
161911.342,-19.531,-29.297,-18.066,-45.898,0.000,0
161911.346,-21.973,-32.227,-17.090,-53.711,0.000,0
161911.349,-22.461,-26.855,-25.391,-41.992,0.000,0
161911.353,-22.461,-25.879,-30.273,-36.133,0.000,0
161911.357,-19.531,-26.367,-31.738,-24.902,0.000,0
161911.361,-19.531,-26.855,-9.766,-19.531,0.000,0
161911.365,-25.391,-27.344,-9.277,-36.621,0.000,0
161911.369,-25.391,-30.762,-30.273,-34.180,0.000,0
161911.373,-23.926,-27.344,-20.020,-31.738,0.000,0
161911.377,-29.785,-21.973,-19.043,-34.180,0.000,0
161911.381,-33.691,-25.391,-28.320,-31.250,0.000,0
161911.385,-28.320,-22.949,-22.949,-39.551,0.000,0
161911.388,-27.832,-18.555,-24.414,-31.738,0.000,0
161911.392,-31.738,-19.531,-28.809,-28.320,0.000,0
161911.396,-30.273,-20.508,-34.668,-34.668,0.000,0
161911.400,-33.203,-21.973,-35.645,-43.945,0.000,0
161911.404,-30.762,-22.949,-24.902,-43.457,0.000,0
161911.408,-27.832,-21.484,-19.531,-18.555,0.000,0
161911.412,-32.715,-19.531,-16.602,-35.156,0.000,0
161911.416,-32.227,-17.090,-32.715,-48.828,0.000,0
161911.420,-23.438,-21.973,-22.461,-36.621,0.000,0
161911.424,-22.461,-22.461,-8.301,-44.434,0.000,0
161911.428,-32.227,-18.066,-23.438,-41.992,0.000,0
161911.431,-26.367,-20.996,-35.156,-36.133,0.000,0
161911.435,-15.137,-20.508,-37.598,-37.598,0.000,0
161911.439,-11.719,-19.531,-8.301,-39.062,0.000,0
161911.443,-20.996,-20.020,0.488,-51.270,0.000,0
161911.447,-30.273,-23.926,-30.273,-53.711,0.000,0
161911.451,-23.926,-20.508,-33.691,-41.504,0.000,0
161911.455,-16.602,-10.254,-19.043,-24.902,0.000,0
161911.459,-21.484,-17.090,-20.020,-26.855,0.000,0
161911.463,-14.160,-18.066,-32.227,-34.180,0.000,0
161911.467,-4.883,-17.090,-27.832,-29.785,0.000,0
161911.471,-17.090,-24.414,-14.648,-30.273,0.000,0
161911.474,-21.973,-24.902,-12.207,-27.344,0.000,0
161911.478,-19.043,-20.020,-26.367,-26.367,0.000,0
161911.482,-10.742,-12.695,-13.184,-23.926,0.000,0
161911.486,-5.859,-14.160,-1.465,-31.738,0.000,0
161911.490,-9.766,-20.020,-27.832,-44.922,0.000,0
161911.494,-14.160,-20.996,-29.297,-38.086,0.000,0
161911.498,-12.695,-19.043,-23.438,-28.809,0.000,0
161911.502,-10.742,-23.438,-18.066,-35.645,0.000,0
161911.506,-14.160,-25.879,-23.926,-38.574,0.000,0
161911.510,-8.301,-17.578,-30.762,-39.551,0.000,0
161911.513,-8.301,-18.555,-18.555,-41.504,0.000,0
161911.517,-20.996,-20.996,-11.719,-43.945,0.000,0
161911.521,-20.996,-23.438,-20.508,-55.176,0.000,0
161911.525,-16.113,-21.484,-30.273,-47.852,0.000,0
161911.529,-20.020,-20.508,-21.484,-32.227,0.000,0
161911.533,-24.414,-25.879,-29.785,-32.227,0.000,0
161911.537,-26.367,-21.973,-26.367,-42.480,0.000,0
161911.541,-31.250,-22.461,-15.625,-40.527,0.000,0
161911.545,-30.762,-30.273,-24.902,-38.574,0.000,0
161911.549,-28.809,-32.715,-23.926,-50.293,0.000,0
161911.553,-27.344,-32.227,-29.785,-39.551,0.000,0
161911.556,-23.438,-28.809,-28.320,-38.086,0.000,0
161911.560,-25.391,-21.973,-23.926,-41.016,0.000,0
161911.564,-24.414,-19.531,-30.762,-29.785,0.000,0
161911.568,-16.602,-20.996,-26.855,-32.227,0.000,0
161911.572,-17.578,-15.625,-19.043,-30.762,0.000,0
161911.576,-15.625,-16.113,-17.090,-27.344,0.000,0
161911.580,-9.766,-20.020,-23.926,-36.621,0.000,0
161911.584,-14.648,-23.926,-27.832,-33.691,0.000,0
161911.588,-15.625,-21.973,-20.020,-30.273,0.000,0
161911.592,-4.883,-16.113,-24.902,-37.598,0.000,0
161911.596,-15.625,-19.043,-24.414,-34.668,0.000,0
161911.599,-22.461,-21.973,-20.508,-37.109,0.000,0
161911.603,-11.719,-19.043,-18.066,-31.250,0.000,0
161911.607,-7.812,-19.531,-23.926,-23.438,0.000,0
161911.611,-16.113,-19.043,-24.414,-36.133,0.000,0
161911.615,-20.020,-22.949,-17.578,-33.203,0.000,0
161911.619,-19.531,-19.531,-1.465,-23.926,0.000,0
161911.623,-18.555,-17.090,-15.137,-38.086,0.000,0
161911.627,-19.531,-18.066,-36.621,-47.852,0.000,0
161911.631,-8.789,-11.719,-30.273,-26.855,0.000,0
161911.635,8.789,-10.742,-9.766,-3.906,0.000,0
161911.638,-4.395,-10.742,1.953,-18.555,0.000,0
161911.642,-33.691,-11.719,-25.391,-40.527,0.000,0
161911.646,-20.020,-14.648,-24.902,-36.133,0.000,0
161911.650,-2.930,-17.090,-17.090,-26.855,0.000,0
161911.654,-16.113,-15.625,-21.484,-36.133,0.000,0
161911.658,-26.367,-13.672,-11.230,-50.781,0.000,0
161911.662,-39.551,-20.508,-25.391,-56.641,0.000,0
161911.666,-33.691,-22.949,-38.574,-41.016,0.000,0
161911.670,-19.043,-26.855,-34.180,-29.785,0.000,0
161911.674,-16.602,-23.438,-28.320,-31.250,0.000,0
161911.678,-19.043,-21.973,1.465,-37.598,0.000,0
161911.681,-24.902,-21.973,-10.742,-41.504,0.000,0
161911.685,-25.391,-20.020,-36.133,-37.598,0.000,0
161911.689,-26.855,-22.949,-29.785,-18.555,0.000,0
161911.693,-23.438,-17.578,-20.508,-19.531,0.000,0
161911.697,-25.879,-19.043,-18.555,-37.109,0.000,0
161911.701,-32.227,-29.297,-43.945,-33.691,0.000,0
161911.705,-30.762,-26.367,-36.621,-29.785,0.000,0
161911.709,-25.391,-20.020,-32.715,-29.297,0.000,0
161911.713,-24.902,-23.438,-34.668,-51.758,0.000,0
161911.717,-26.367,-25.391,-22.949,-59.570,0.000,0
161911.721,-21.973,-22.461,-19.043,-41.992,0.000,0
161911.724,-22.461,-19.531,-19.043,-44.434,0.000,0
161911.728,-17.578,-17.090,-35.645,-38.086,0.000,0
161911.732,-19.043,-20.020,-28.809,-43.457,0.000,0
161911.736,-16.113,-18.555,-14.160,-41.504,0.000,0
161911.740,-7.324,-21.973,-32.227,-31.738,0.000,0
161911.744,-16.113,-22.949,-45.898,-42.480,0.000,0
161911.748,-24.902,-20.020,-29.785,-32.227,0.000,0
161911.752,-26.367,-21.484,-20.020,-32.715,0.000,0
161911.756,-29.785,-16.602,-23.438,-50.293,0.000,0
161911.760,-25.879,-11.719,-26.367,-47.852,0.000,0
161911.763,-22.461,-13.184,-18.066,-38.086,0.000,0
161911.767,-27.832,-15.625,-13.672,-34.180,0.000,0
161911.771,-25.879,-16.113,-31.250,-38.574,0.000,0
161911.775,-24.902,-17.578,-29.785,-49.805,0.000,0
161911.779,-33.691,-16.602,-23.438,-41.016,0.000,0
161911.783,-28.809,-19.531,-21.973,-34.668,0.000,0
161911.787,-25.391,-22.949,-22.949,-25.879,0.000,0
161911.791,-25.879,-25.879,-20.020,-17.578,0.000,0
161911.795,-28.809,-23.926,-11.719,-43.945,0.000,0
161911.799,-26.855,-15.625,-16.602,-50.293,0.000,0
161911.803,-25.391,-15.137,-34.668,-42.969,0.000,0
161911.806,-31.250,-16.602,-40.527,-41.016,0.000,0
161911.810,-26.367,-18.066,-16.113,-33.691,0.000,0
161911.814,-20.508,-15.137,-5.859,-40.039,0.000,0
161911.818,-11.230,-20.996,-26.855,-34.668,0.000,0
161911.822,-11.230,-25.391,-29.297,-24.902,0.000,0
161911.826,-28.809,-25.391,-27.832,-31.250,0.000,0
161911.830,-33.203,-28.320,-31.250,-35.645,0.000,0
161911.834,-17.578,-23.926,-21.973,-42.480,0.000,0
161911.838,-19.043,-21.973,-23.926,-50.781,0.000,0
161911.842,-28.809,-26.367,-37.598,-49.805,0.000,0
161911.846,-22.461,-26.855,-37.109,-46.875,0.000,0
161911.849,-21.973,-20.508,-26.367,-45.410,0.000,0
161911.853,-26.367,-21.973,-13.672,-43.457,0.000,0
161911.857,-29.785,-24.902,-18.555,-43.945,0.000,0
161911.861,-28.809,-24.902,-36.133,-44.922,0.000,0
161911.865,-17.090,-22.461,-30.762,-41.992,0.000,0
161911.869,-10.254,-28.320,-21.973,-32.227,0.000,0
161911.873,-7.324,-26.855,-19.043,-35.156,0.000,0
161911.877,-10.742,-24.414,-28.320,-46.387,0.000,0
161911.881,-19.531,-25.391,-32.227,-48.340,0.000,0
161911.885,-17.578,-25.879,-27.344,-30.273,0.000,0
161911.888,-16.602,-26.367,-26.855,-27.344,0.000,0
161911.892,-16.602,-22.461,-21.973,-42.969,0.000,0
161911.896,-12.207,-27.344,-18.066,-39.551,0.000,0
161911.900,-8.789,-27.832,-13.184,-36.133,0.000,0
161911.904,-10.742,-23.438,-15.137,-37.598,0.000,0
161911.908,-17.578,-30.273,-28.320,-37.598,0.000,0
161911.912,-15.137,-28.320,-16.602,-44.434,0.000,0
161911.916,-10.254,-25.391,-16.113,-46.387,0.000,0
161911.920,-14.160,-27.832,-32.715,-33.691,0.000,0
161911.924,-12.207,-20.508,-33.203,-30.762,0.000,0
161911.928,-9.277,-16.113,-20.508,-33.691,0.000,0
161911.931,-6.836,-18.066,1.953,-35.645,0.000,0
161911.935,-17.090,-19.531,-3.906,-42.480,0.000,0
161911.939,-27.344,-22.949,-19.531,-44.434,0.000,0
161911.943,-20.996,-18.555,-18.066,-30.762,0.000,0
161911.947,-17.090,-20.996,-20.020,-20.508,0.000,0
161911.951,-17.578,-23.438,-11.719,-38.574,0.000,0
161911.955,-10.742,-15.625,-19.531,-37.598,0.000,0
161911.959,-18.555,-16.602,-36.133,-30.273,0.000,0
161911.963,-24.902,-13.184,-27.832,-39.062,0.000,0
161911.967,-19.043,-12.695,-27.832,-32.715,0.000,0
161911.971,-23.926,-24.414,-19.043,-35.645,0.000,0
161911.974,-18.555,-25.391,-16.113,-39.062,0.000,0
161911.978,-17.578,-18.555,-20.996,-39.551,0.000,0
161911.982,-19.531,-21.973,-32.715,-47.363,0.000,0
161911.986,-18.066,-22.949,-42.480,-45.410,0.000,0
161911.990,-29.785,-19.043,-9.766,-53.223,0.000,0
161911.994,-32.715,-18.066,-7.324,-46.875,0.000,0
161911.998,-20.996,-20.508,-28.320,-40.527,0.000,0
161912.002,-18.555,-20.996,-19.531,-47.852,0.000,0
161912.006,-21.973,-19.531,-23.926,-43.457,0.000,0
161912.010,-18.555,-19.043,-20.996,-48.340,0.000,0
161912.013,-18.555,-18.066,-31.250,-54.199,0.000,0
161912.017,-16.602,-19.531,-38.086,-40.527,0.000,0
161912.021,-13.184,-17.090,-24.414,-25.879,0.000,0
161912.025,-17.090,-17.090,-24.902,-19.043,0.000,0
161912.029,-19.043,-10.254,-5.371,-34.668,0.000,0
161912.033,-13.672,-7.324,-10.742,-44.922,0.000,0
161912.037,-14.648,-10.742,-24.902,-26.367,0.000,0
161912.041,-20.508,-10.254,-39.551,-22.461,0.000,0
161912.045,-19.531,-13.672,-42.480,-34.180,0.000,0
161912.049,-24.414,-21.484,-2.441,-48.828,0.000,0
161912.053,-32.227,-32.715,-19.531,-54.688,0.000,0
161912.056,-29.297,-29.785,-48.828,-56.152,0.000,0
161912.060,-27.832,-24.902,-31.738,-48.340,0.000,0
161912.064,-24.902,-28.320,-23.438,-39.551,0.000,0
161912.068,-23.926,-27.344,-16.602,-56.641,0.000,0
161912.072,-28.320,-27.832,-22.949,-58.594,0.000,0
161912.076,-27.344,-30.762,-29.297,-50.781,0.000,0
161912.080,-20.996,-24.414,-20.996,-45.898,0.000,0
161912.084,-16.602,-19.043,-23.438,-32.227,0.000,0
161912.088,-13.184,-22.461,-25.879,-34.180,0.000,0
161912.092,-20.020,-25.391,-18.066,-32.715,0.000,0
161912.096,-28.320,-23.926,-12.207,-30.273,0.000,0
161912.099,-26.855,-23.926,-23.438,-43.945,0.000,0
161912.103,-23.438,-24.902,-33.691,-43.457,0.000,0
161912.107,-17.578,-24.414,-18.066,-42.480,0.000,0
161912.111,-14.160,-18.066,-1.465,-51.758,0.000,0
161912.115,-16.113,-18.555,-26.367,-41.016,0.000,0
161912.119,-23.926,-20.020,-37.109,-30.273,0.000,0
161912.123,-24.414,-20.508,-24.414,-25.879,0.000,0
161912.127,-18.066,-24.414,-6.836,-41.504,0.000,0
161912.131,-16.602,-20.508,-6.348,-43.945,0.000,0
161912.135,-19.043,-25.391,-24.414,-41.992,0.000,0
161912.138,-23.438,-30.762,-22.949,-52.246,0.000,0
161912.142,-18.555,-22.949,-27.344,-42.969,0.000,0
161912.146,-18.555,-21.973,-28.320,-52.246,0.000,0
161912.150,-21.973,-21.484,-20.508,-56.641,0.000,0
161912.154,-23.926,-22.949,-27.344,-54.688,0.000,0
161912.158,-32.227,-24.414,-39.062,-52.734,0.000,0
161912.162,-29.785,-23.926,-40.527,-45.410,0.000,0
161912.166,-27.832,-22.949,-22.461,-43.945,0.000,0
161912.170,-26.855,-20.508,-25.879,-38.086,0.000,0
161912.174,-24.902,-20.996,-40.527,-39.062,0.000,0
161912.178,-30.762,-25.879,-34.668,-54.199,0.000,0
161912.181,-30.273,-31.250,-27.344,-45.898,0.000,0
161912.185,-29.297,-33.691,-20.020,-37.598,0.000,0
161912.189,-36.621,-32.227,-38.086,-58.105,0.000,0
161912.193,-33.203,-31.738,-42.480,-53.711,0.000,0
161912.197,-27.832,-26.367,-24.414,-28.809,0.000,0
161912.201,-28.320,-18.555,-20.996,-27.344,0.000,0
161912.205,-25.391,-18.066,-22.949,-23.926,0.000,0
161912.209,-24.902,-19.531,-13.184,-22.949,0.000,0
