timestamps,TP9,AF7,AF8,TP10,Right AUX,Marker0
213620.883,39.551,39.062,34.668,21.484,-5.859,0
213620.887,32.715,26.367,28.809,5.371,-3.906,0
213620.891,32.227,25.391,25.879,13.672,14.648,0
213620.895,30.273,24.902,22.461,13.672,33.203,0
213620.899,35.645,30.762,21.973,22.461,58.105,0
213620.902,38.086,29.785,23.438,35.156,76.660,0
213620.906,30.762,22.461,30.273,19.531,52.734,0
213620.910,23.926,24.902,36.621,0.977,27.344,0
213620.914,27.832,30.273,39.062,3.906,39.551,0
213620.918,40.527,33.691,42.969,18.066,22.461,0
213620.922,36.133,28.809,34.180,18.066,7.812,0
213620.926,21.484,23.926,23.438,12.695,27.344,0
213620.930,18.066,23.438,29.297,13.672,53.223,0
213620.934,24.414,21.484,33.691,16.113,61.035,0
213620.938,33.203,26.367,38.086,19.043,15.137,0
213620.942,27.344,39.062,32.715,10.742,1.953,0
213620.945,20.508,42.480,23.926,1.465,31.738,0
213620.949,22.949,36.621,22.461,0.977,32.227,0
213620.953,31.250,34.180,25.391,9.766,6.836,0
213620.957,31.738,34.180,22.949,0.977,-27.344,0
213620.961,30.762,36.133,14.648,-4.395,-2.441,0
213620.965,42.480,42.969,14.160,15.625,21.484,0
213620.969,46.875,38.086,20.020,8.789,1.465,0
213620.973,44.434,31.250,22.461,3.418,6.348,0
213620.977,42.480,26.367,27.344,11.719,3.906,0
213620.981,38.574,21.973,31.250,21.484,25.391,0
213620.985,33.691,20.996,27.344,19.043,41.016,0
213620.988,30.762,28.809,28.320,10.254,35.156,0
213620.992,34.668,38.086,30.762,18.066,25.391,0
213620.996,40.039,37.109,22.461,21.973,42.969,0
213621.000,37.109,37.598,22.461,11.230,33.203,0
213621.004,40.039,40.527,33.691,6.836,4.883,0
213621.008,41.016,39.551,31.738,17.578,55.664,0
213621.012,32.227,34.668,25.391,17.090,94.238,0
213621.016,27.832,31.250,30.273,11.719,71.289,0
213621.020,25.391,31.250,32.227,12.207,32.227,0
213621.024,25.879,28.320,26.855,18.066,25.879,0
213621.027,23.926,26.855,23.438,22.949,38.086,0
213621.031,19.043,21.973,21.973,21.973,39.062,0
213621.035,22.461,19.043,30.762,23.926,57.617,0
213621.039,33.203,25.391,40.039,33.691,85.938,0
213621.043,39.551,31.738,35.156,31.250,18.555,0
213621.047,37.109,34.180,33.203,18.066,-19.531,0
213621.051,33.203,32.715,37.109,23.438,50.293,0
213621.055,29.785,31.250,34.668,34.668,76.172,0
213621.059,30.762,29.297,25.391,33.203,46.387,0
213621.063,33.203,26.367,22.949,34.180,20.508,0
213621.067,35.645,28.320,25.879,41.016,24.414,0
213621.070,32.715,30.273,22.949,39.062,-11.719,0
213621.074,29.785,27.344,23.438,39.551,-9.766,0
213621.078,36.133,24.902,28.320,45.898,25.391,0
213621.082,33.203,23.438,26.855,43.457,31.738,0
213621.086,32.715,27.344,28.320,38.574,39.551,0
213621.090,35.156,29.785,32.715,33.203,38.574,0
213621.094,30.273,31.738,35.156,30.762,22.461,0
213621.098,35.156,33.203,36.621,32.227,9.277,0
213621.102,34.668,34.668,25.879,38.574,9.766,0
213621.106,31.738,38.086,18.066,42.480,17.090,0
213621.110,28.809,34.180,21.484,33.691,55.176,0
213621.113,22.461,30.273,26.367,25.879,74.219,0
213621.117,20.020,28.320,27.344,24.902,53.223,0
213621.121,22.461,30.762,28.809,22.949,1.953,0
213621.125,28.809,36.621,36.133,32.227,-23.438,0
213621.129,27.832,36.133,32.715,30.762,-2.930,0
213621.133,24.902,28.809,25.879,20.508,5.371,0
213621.137,29.297,31.738,30.762,28.809,-4.883,0
213621.141,31.250,40.527,37.109,31.738,-23.926,0
213621.145,34.180,41.992,41.016,22.949,-1.953,0
213621.149,30.762,37.598,38.574,20.996,-10.254,0
213621.152,29.785,34.180,30.273,21.484,-29.297,0
213621.156,35.156,38.086,22.461,22.949,-12.207,0
213621.160,33.691,38.574,20.996,20.508,3.906,0
213621.164,33.203,28.809,27.344,22.949,18.066,0
213621.168,31.250,24.414,27.832,26.855,-4.883,0
213621.172,25.879,29.785,26.855,24.414,-2.930,0
213621.176,28.320,36.133,28.320,29.297,0.000,0
213621.180,36.133,40.527,32.715,35.645,-5.859,0
213621.184,41.504,39.551,37.109,38.574,-1.465,1
213621.188,30.273,35.645,35.645,37.109,26.367,0
213621.192,28.320,32.227,29.785,37.109,51.270,0
213621.195,35.156,30.762,29.785,25.879,13.184,0
213621.199,26.367,31.738,33.203,14.648,11.719,0
213621.203,26.855,31.250,33.203,25.879,68.359,0
213621.207,31.250,32.715,31.738,24.902,66.406,0
213621.211,32.227,29.785,29.785,23.926,52.734,0
213621.215,36.133,26.367,32.227,37.109,24.414,0
213621.219,36.621,30.762,31.738,39.551,21.484,0
213621.223,27.832,27.344,33.203,32.227,4.395,0
213621.227,19.043,20.020,34.180,34.668,-12.695,0
213621.231,20.020,20.020,32.715,39.062,-10.254,0
213621.235,24.414,28.809,37.598,36.621,26.367,0
213621.238,28.809,38.574,35.645,34.668,63.965,0
213621.242,27.832,39.551,33.203,27.832,27.344,0
213621.246,29.297,32.715,33.203,29.785,10.254,0
213621.250,30.273,28.320,26.855,31.738,38.086,0
213621.254,20.996,31.250,28.320,28.809,44.922,0
213621.258,22.461,35.645,30.762,41.016,62.012,0
213621.262,42.480,34.180,26.367,46.387,60.547,0
213621.266,45.898,29.785,29.785,39.551,32.227,0
213621.270,20.020,30.273,36.133,22.461,24.902,0
213621.274,10.254,27.344,39.062,15.137,27.832,0
213621.277,24.414,28.809,39.551,25.391,39.551,0
213621.281,28.809,35.645,41.016,30.273,33.203,0
213621.285,32.227,34.180,34.668,27.832,29.297,0
213621.289,36.133,29.297,30.273,32.715,26.855,0
213621.293,35.156,30.273,32.715,43.945,25.879,0
213621.297,33.203,26.855,26.855,39.062,80.566,0
213621.301,33.203,29.785,21.973,33.691,90.332,0
213621.305,37.598,35.645,27.344,41.016,49.805,0
213621.309,34.668,34.180,31.738,39.062,67.383,0
213621.313,26.367,35.645,29.297,28.320,52.246,0
213621.317,28.809,37.598,30.273,20.020,45.410,0
213621.320,27.344,38.086,30.273,17.578,92.285,0
213621.324,25.879,37.598,28.320,19.531,64.453,0
213621.328,30.273,33.203,25.879,16.113,5.859,0
213621.332,32.715,32.715,28.320,15.137,17.090,0
213621.336,35.156,36.133,30.762,24.902,48.340,0
213621.340,34.668,37.109,26.855,31.250,33.203,0
213621.344,26.855,33.691,26.855,28.809,41.016,0
213621.348,24.902,32.715,26.855,33.691,32.227,0
213621.352,29.785,30.762,24.902,37.109,13.184,0
213621.356,31.250,31.738,28.809,34.668,13.672,0
213621.360,31.738,36.621,35.156,32.227,15.625,0
213621.363,28.320,31.250,41.504,33.203,59.570,0
213621.367,32.715,23.438,40.527,40.527,60.547,0
213621.371,30.273,23.438,31.738,36.133,33.203,0
213621.375,22.949,24.414,31.250,26.855,2.441,0
213621.379,28.809,27.344,34.180,27.832,-3.418,0
213621.383,36.133,33.203,28.809,38.574,10.742,0
213621.387,34.180,34.668,26.855,41.504,28.320,0
213621.391,32.227,33.203,32.715,41.016,37.109,0
213621.395,33.691,28.809,38.086,35.645,30.273,0
213621.399,35.156,29.297,37.109,35.645,41.016,0
213621.402,37.598,37.598,34.668,42.480,0.000,0
213621.406,39.062,43.945,34.668,46.387,-34.668,0
213621.410,42.480,45.898,40.039,46.875,31.250,0
213621.414,43.457,42.969,37.109,40.039,37.109,0
213621.418,40.527,40.527,28.320,37.109,10.254,0
213621.422,36.621,36.621,27.832,33.203,64.453,0
213621.426,35.156,30.273,30.762,25.879,56.152,0
213621.430,36.133,30.273,32.715,28.809,6.348,0
213621.434,44.434,37.598,28.809,39.551,6.836,0
213621.438,45.410,40.039,22.461,38.574,-8.301,0
213621.442,33.691,41.016,29.785,41.992,-18.555,0
213621.445,38.574,41.016,39.062,42.969,26.855,0
213621.449,37.598,36.621,38.086,33.203,59.082,0
213621.453,28.320,37.109,32.715,37.598,59.570,0
213621.457,29.297,39.551,27.344,40.527,74.707,0
213621.461,33.203,38.086,33.203,39.551,80.566,0
213621.465,31.738,37.109,37.109,39.551,71.289,0
213621.469,28.320,41.016,31.250,33.691,76.172,0
213621.473,29.297,41.016,22.461,35.156,56.152,0
213621.477,28.320,37.109,22.461,36.621,55.176,0
213621.481,29.785,39.551,28.809,35.645,40.527,0
213621.485,30.273,34.668,26.855,41.504,39.551,0
213621.488,18.555,26.855,23.926,36.133,39.551,0
213621.492,19.531,28.320,30.762,29.785,7.324,0
213621.496,29.785,32.227,39.551,38.086,19.531,0
213621.500,32.715,36.621,36.621,39.062,33.691,0
213621.504,27.832,37.598,32.227,40.039,66.406,0
213621.508,23.926,31.738,30.273,39.551,65.430,0
213621.512,32.715,31.738,31.250,44.434,33.691,0
213621.516,34.668,36.133,31.250,44.922,43.457,0
213621.520,25.879,28.320,34.180,48.828,22.461,0
213621.524,20.996,20.508,34.180,46.387,15.625,0
213621.527,20.508,21.484,25.391,19.531,24.414,0
213621.531,19.043,25.391,21.484,24.902,30.273,0
213621.535,22.461,27.832,26.367,39.062,12.695,0
213621.539,25.391,27.832,24.902,35.156,-11.719,0
213621.543,22.461,23.926,20.020,30.762,-25.391,0
213621.547,21.973,18.066,28.320,32.715,-14.160,0
213621.551,23.438,21.973,35.156,30.762,8.301,0
213621.555,28.809,31.250,41.016,36.621,38.574,0
213621.559,43.457,43.457,45.898,46.387,44.922,0
213621.563,38.574,43.457,32.715,42.480,32.227,0
213621.567,23.438,35.645,23.926,37.109,69.336,0
213621.570,24.902,36.621,25.879,33.203,81.543,0
213621.574,26.367,32.715,23.926,28.809,47.363,0
213621.578,25.879,26.855,23.926,39.062,55.664,0
213621.582,29.297,28.320,31.738,54.199,80.078,0
213621.586,31.250,32.227,24.414,49.316,50.293,0
213621.590,32.227,30.273,21.973,35.156,10.742,0
213621.594,38.086,28.809,39.062,38.574,34.668,0
213621.598,38.086,34.668,44.922,47.852,50.293,0
213621.602,32.227,38.086,42.969,40.527,3.418,0
213621.606,34.180,38.086,35.645,34.668,-20.996,0
213621.610,37.109,41.016,34.668,43.457,-9.277,0
213621.613,39.551,43.945,34.180,47.363,12.207,0
213621.617,42.480,41.504,30.273,39.062,16.113,0
213621.621,34.180,34.180,21.484,36.133,12.207,0
213621.625,29.785,28.809,18.555,32.715,-22.949,0
213621.629,27.832,31.250,27.832,24.414,-19.043,0
213621.633,25.879,33.203,29.785,23.438,-19.531,0
213621.637,30.762,33.691,31.250,32.227,2.930,0
213621.641,34.180,32.715,33.203,31.738,17.578,0
213621.645,31.250,32.227,26.367,23.438,-44.434,0
213621.649,24.414,34.180,12.207,25.391,-30.273,0
213621.652,20.996,38.574,12.695,29.785,10.254,0
213621.656,22.949,42.969,21.973,30.273,21.484,0
213621.660,24.414,39.551,25.879,25.391,-6.348,0
213621.664,15.137,35.645,32.715,13.672,-33.691,0
213621.668,9.277,31.250,40.039,12.207,-10.254,0
213621.672,6.836,25.879,42.480,16.602,25.391,0
213621.676,5.859,29.297,35.156,15.625,62.988,0
213621.680,14.160,32.715,29.297,10.254,72.754,0
213621.684,12.207,35.156,28.320,8.789,54.199,0
213621.688,4.883,32.715,27.832,8.301,36.133,0
213621.692,9.766,25.879,28.809,18.555,51.270,0
213621.695,9.277,25.879,30.762,26.367,63.477,0
213621.699,7.812,27.344,38.086,21.973,82.031,0
213621.703,14.160,25.391,41.016,22.461,78.125,0
213621.707,26.367,28.809,36.621,34.668,19.043,0
213621.711,38.574,31.250,32.715,46.387,7.324,0
213621.715,36.133,30.762,34.180,39.062,21.973,0
213621.719,26.367,32.715,37.109,32.227,18.555,0
213621.723,18.555,30.273,33.203,39.551,-12.695,0
213621.727,19.531,30.762,25.391,35.645,6.836,0
213621.731,21.484,32.715,26.367,25.391,11.719,0
213621.735,27.832,30.273,36.133,29.785,8.301,0
213621.738,35.156,26.367,40.039,35.645,46.875,0
213621.742,33.203,23.926,37.598,34.180,43.945,0
213621.746,32.715,20.508,37.109,34.180,46.387,0
213621.750,28.809,24.414,31.738,38.086,21.973,0
213621.754,23.926,35.156,26.855,46.875,2.441,0
213621.758,26.855,36.133,27.344,43.457,21.484,0
213621.762,22.949,32.227,28.320,25.391,28.809,0
213621.766,17.090,35.645,37.598,18.066,45.410,0
213621.770,19.531,38.574,39.062,20.508,43.457,0
213621.774,19.531,32.715,31.250,20.508,57.617,0
213621.777,22.949,27.832,35.156,21.973,60.547,0
213621.781,27.832,28.809,40.527,20.508,18.555,0
213621.785,31.250,27.832,34.668,20.508,9.766,0
213621.789,34.180,29.297,29.297,33.203,51.270,0
213621.793,34.668,37.598,28.320,45.898,50.293,0
213621.797,36.621,47.363,27.832,41.016,16.602,0
213621.801,33.691,43.457,28.320,29.297,0.488,0
213621.805,26.855,31.738,31.250,30.273,0.488,0
213621.809,25.391,28.809,35.645,36.133,17.578,0
213621.813,26.855,34.668,31.738,27.832,23.438,0
213621.817,29.785,36.621,31.738,23.438,31.250,0
213621.820,35.645,40.039,33.691,36.621,11.719,0
213621.824,45.410,41.016,32.227,41.504,-2.441,0
213621.828,38.086,36.133,31.250,38.574,41.504,0
213621.832,26.367,34.180,25.391,40.039,61.035,0
213621.836,26.855,32.227,27.832,41.016,62.988,0
213621.840,34.180,29.297,39.551,43.457,100.586,1
213621.844,34.668,27.832,42.480,40.527,71.289,0
213621.848,22.949,29.297,41.504,32.715,12.207,0
213621.852,20.020,30.273,37.598,27.344,2.441,0
213621.856,20.508,27.832,33.203,23.926,-12.207,0
213621.860,17.090,25.391,36.133,25.879,-32.227,0
213621.863,20.508,25.391,35.645,31.738,-22.949,0
213621.867,26.855,28.809,25.879,31.738,-6.836,0
213621.871,32.715,28.320,22.949,39.062,19.043,0
213621.875,31.250,29.297,27.344,40.039,17.578,0
213621.879,24.414,30.762,31.738,28.320,15.625,0
213621.883,24.902,32.227,34.668,27.344,26.367,0
213621.887,29.785,36.621,30.762,33.691,22.461,0
213621.891,32.715,37.598,21.973,38.086,59.082,0
213621.895,27.832,34.668,24.414,37.109,62.500,0
213621.899,21.484,27.832,30.762,23.926,8.301,0
213621.902,23.926,26.367,34.180,16.602,13.184,0
213621.906,25.879,29.297,32.227,22.949,68.848,0
213621.910,31.738,35.645,29.785,26.855,61.523,0
213621.914,33.691,35.156,30.762,22.949,18.555,0
213621.918,31.738,29.785,30.762,26.855,16.602,0
213621.922,29.785,34.668,33.691,31.250,8.789,0
213621.926,31.738,39.062,34.180,31.738,-12.207,0
213621.930,41.016,40.039,32.715,41.992,16.113,0
213621.934,37.109,34.180,23.926,41.016,13.672,0
213621.938,30.762,32.227,19.043,27.344,32.715,0
213621.942,27.832,40.039,26.855,23.438,71.777,0
213621.945,19.531,43.457,29.785,12.695,19.531,0
213621.949,17.090,38.574,27.832,11.719,18.066,0
213621.953,21.973,38.086,24.414,24.902,10.742,0
213621.957,29.297,40.527,24.902,25.391,-35.156,0
213621.961,31.738,40.527,29.297,24.414,-54.688,0
213621.965,28.809,36.133,29.785,26.855,-39.551,0
213621.969,27.832,33.203,32.715,31.250,-3.418,0
213621.973,29.297,43.457,38.574,32.715,-18.555,0
213621.977,29.785,42.480,21.973,28.809,-37.598,0
213621.981,35.156,31.738,10.742,33.691,10.254,0
213621.985,43.457,27.344,21.484,37.598,41.016,0
213621.988,34.668,26.367,24.902,31.250,28.320,0
213621.992,19.043,23.438,32.715,24.902,9.766,0
213621.996,18.555,22.461,44.922,28.320,4.395,0
213622.000,22.461,25.391,44.434,35.645,41.016,0
213622.004,21.973,26.855,41.504,32.227,46.387,0
213622.008,21.973,30.762,39.551,25.879,15.625,0
213622.012,31.250,32.715,34.180,31.250,-1.953,0
213622.016,39.551,32.715,31.250,35.156,26.855,0
213622.020,41.504,34.180,28.809,34.668,39.062,0
213622.024,44.922,29.785,27.832,36.621,42.969,0
213622.027,31.738,23.926,29.785,34.180,37.109,0
213622.031,26.367,23.926,30.762,33.691,56.152,0
213622.035,28.809,21.973,39.062,37.598,35.645,0
213622.039,15.137,19.043,46.387,31.250,0.977,0
213622.043,14.160,21.484,44.434,30.762,31.738,0
213622.047,31.738,32.715,33.691,49.316,40.527,0
213622.051,42.480,39.551,23.926,66.895,35.156,0
213622.055,26.855,28.320,25.391,45.410,18.066,0
213622.059,16.602,21.484,32.227,29.785,53.223,0
213622.063,18.555,25.391,32.715,33.691,72.266,0
213622.067,18.066,22.949,36.621,32.227,37.598,0
213622.070,24.414,21.973,41.992,36.133,17.090,0
213622.074,29.785,29.297,41.992,40.039,34.668,0
213622.078,30.273,36.621,41.016,36.133,45.898,0
213622.082,35.645,34.668,38.574,28.809,30.762,0
213622.086,30.273,29.297,32.715,29.297,45.898,0
213622.090,24.414,29.297,28.809,34.180,94.727,0
213622.094,30.762,28.809,26.367,40.039,93.750,0
213622.098,30.762,28.809,30.762,36.133,93.750,0
213622.102,25.391,29.785,31.738,26.855,87.891,0
213622.106,27.832,26.855,31.250,28.320,56.152,0
213622.110,32.715,24.902,27.344,30.762,50.781,0
213622.113,34.668,25.879,21.973,25.391,61.523,0
213622.117,33.203,32.715,24.414,20.508,50.781,0
213622.121,37.598,38.086,27.832,30.273,54.199,0
213622.125,31.250,34.668,27.344,25.879,57.129,0
213622.129,22.461,39.062,29.297,21.484,60.059,0
213622.133,25.879,44.434,41.504,37.598,112.305,0
213622.137,25.391,38.086,35.645,39.062,99.609,0
213622.141,28.809,32.227,24.902,31.250,61.035,0
213622.145,35.156,35.645,22.949,31.738,48.828,0
213622.149,24.902,32.715,24.414,39.551,44.922,0
213622.152,20.020,30.762,28.809,34.180,69.824,0
213622.156,22.461,32.227,28.809,24.902,112.305,0
213622.160,21.973,30.273,23.438,24.902,122.559,0
213622.164,28.320,32.715,16.602,32.715,84.961,0
213622.168,28.320,30.762,8.301,32.715,50.293,0
213622.172,26.855,31.738,20.996,17.090,33.203,0
213622.176,30.273,38.574,34.180,19.043,13.184,0
213622.180,28.320,32.715,31.250,27.832,0.488,0
213622.184,20.508,19.043,36.621,25.879,0.977,0
213622.188,18.555,14.648,34.180,23.926,26.367,0
213622.192,23.438,15.625,31.738,26.367,38.574,0
213622.195,25.391,22.461,29.785,34.668,31.738,0
213622.199,25.879,27.832,29.297,32.227,6.836,0
213622.203,20.996,26.367,29.297,29.785,-0.977,0
213622.207,21.973,28.809,21.484,48.340,58.594,0
213622.211,31.250,35.156,29.297,56.152,64.453,0
213622.215,24.902,34.180,35.645,31.250,22.949,0
213622.219,16.113,23.438,33.691,20.508,61.523,0
213622.223,21.973,21.973,37.598,29.785,46.387,0
213622.227,32.715,27.344,40.527,31.738,-27.344,0
213622.231,42.969,27.832,32.227,35.645,-23.438,0
213622.235,34.180,29.297,16.113,38.086,22.949,0
213622.238,20.996,30.273,17.090,36.133,44.434,0
213622.242,24.902,27.832,35.645,29.785,46.875,0
213622.246,24.414,27.832,40.527,17.090,72.754,0
213622.250,24.902,32.715,38.086,19.043,53.223,0
213622.254,29.785,33.691,36.133,20.996,12.207,0
213622.258,30.762,33.203,29.785,22.461,-1.953,0
213622.262,30.762,34.180,24.902,34.180,2.441,0
213622.266,31.250,36.621,24.414,27.832,33.203,0
213622.270,35.156,41.504,26.855,27.832,58.594,0
213622.274,40.527,44.434,31.738,34.668,28.809,0
213622.277,35.156,38.574,24.902,23.926,0.000,0
213622.281,30.273,35.156,17.578,23.438,18.555,0
213622.285,33.691,35.645,22.461,30.273,19.043,0
213622.289,34.180,30.273,26.367,24.902,26.855,0
213622.293,34.180,26.855,30.762,21.484,62.500,0
213622.297,34.180,35.156,35.156,26.855,70.801,0
213622.301,31.738,36.133,30.273,32.227,41.016,0
213622.305,33.203,32.715,23.926,41.992,-3.906,0
213622.309,33.203,33.691,22.949,36.621,-14.160,0
213622.313,31.250,38.086,29.785,25.391,17.578,0
213622.317,35.156,40.039,33.691,29.785,40.039,0
213622.320,35.156,34.668,31.250,27.832,21.973,0
213622.324,34.180,33.691,30.762,25.391,30.762,0
213622.328,32.227,32.715,28.809,37.109,45.410,0
213622.332,35.645,29.297,32.227,44.434,20.996,0
213622.336,33.691,25.879,33.203,39.062,10.254,0
213622.340,24.902,27.344,29.785,30.762,24.414,0
213622.344,31.250,26.855,34.180,24.902,54.688,0
213622.348,39.062,28.320,32.227,29.785,46.875,0
213622.352,33.691,32.227,19.043,30.273,-36.621,0
213622.356,29.297,32.715,29.785,24.902,-45.410,0
213622.360,25.879,34.668,41.992,24.902,29.785,0
213622.363,28.320,33.691,38.574,22.949,56.641,0
213622.367,27.344,29.297,35.156,24.414,34.180,0
213622.371,23.438,29.297,33.203,29.297,44.922,0
213622.375,33.691,34.180,26.367,48.340,55.176,0
213622.379,42.969,37.109,20.996,49.316,37.598,0
213622.383,35.645,32.715,29.785,36.133,58.594,0
213622.387,29.297,25.879,34.668,30.273,81.055,0
213622.391,37.598,28.809,22.949,32.715,75.684,0
213622.395,39.062,37.109,16.602,33.691,52.246,0
213622.399,27.832,40.527,20.996,28.809,29.785,0
213622.402,26.855,39.062,27.832,24.902,25.391,0
213622.406,28.320,36.133,35.645,21.484,80.078,0
213622.410,29.297,38.086,35.645,24.414,62.500,0
213622.414,31.738,35.156,28.320,34.180,37.598,0
213622.418,28.809,23.438,29.785,36.133,92.773,0
213622.422,33.203,25.879,32.715,43.945,91.309,0
213622.426,35.156,37.598,25.879,45.898,74.219,0
213622.430,23.438,33.691,19.531,29.297,70.312,0
213622.434,20.508,27.832,25.391,29.297,85.938,0
213622.438,25.391,34.180,33.203,27.832,92.285,0
213622.442,20.996,34.180,30.762,16.602,27.344,0
213622.445,16.113,30.273,30.273,14.160,2.441,0
213622.449,21.973,34.180,23.926,21.973,6.836,0
213622.453,32.715,37.598,11.230,30.273,1.465,0
213622.457,31.250,34.180,17.090,31.250,-22.949,0
213622.461,22.461,30.273,30.762,26.855,-23.926,0
213622.465,21.484,27.832,37.598,22.949,16.113,0
213622.469,24.414,27.832,38.574,28.809,-0.488,0
213622.473,24.414,27.344,43.457,38.086,5.859,0
213622.477,20.020,28.809,40.527,36.621,39.062,0
213622.481,19.043,30.762,35.156,28.809,32.227,0
213622.485,25.879,28.320,34.180,30.762,-3.906,0
213622.488,32.715,28.320,20.996,34.180,-6.836,0
213622.492,22.461,27.344,18.555,31.250,25.391,0
213622.496,16.602,28.809,34.668,41.016,14.648,0
213622.500,24.414,32.227,40.527,40.039,-47.363,0
213622.504,24.414,32.227,38.086,26.367,-64.941,0
213622.508,29.785,34.668,25.879,40.527,12.207,0
213622.512,38.574,34.668,20.020,39.551,13.184,0
213622.516,37.598,31.250,38.086,33.203,-18.066,0
213622.520,30.762,28.809,42.480,33.203,-12.695,0
213622.524,22.949,28.320,40.527,22.949,4.395,0
213622.527,22.949,30.273,39.062,17.090,9.277,0
213622.531,21.484,31.738,38.086,17.578,-35.645,1
213622.535,19.043,32.715,36.133,17.578,-38.574,0
213622.539,22.461,34.668,28.809,23.438,0.977,0
213622.543,28.809,37.598,26.367,21.484,-12.207,0
213622.547,29.785,35.156,28.809,15.137,-59.082,0
213622.551,17.090,32.227,31.250,18.066,-17.578,0
213622.555,9.277,32.715,29.785,21.484,23.926,0
213622.559,17.578,35.645,31.738,32.227,40.039,0
213622.563,19.043,33.203,33.691,35.156,62.500,0
213622.567,23.926,26.367,31.738,27.344,50.781,0
213622.570,31.250,23.926,34.668,24.902,54.688,0
213622.574,29.785,24.414,35.645,25.879,46.387,0
213622.578,27.344,26.367,26.855,23.438,27.832,0
213622.582,21.973,26.367,21.484,21.973,71.289,0
213622.586,25.879,28.320,27.344,24.414,67.871,0
213622.590,26.855,33.203,33.203,25.879,27.832,0
213622.594,30.273,38.574,30.762,19.043,8.789,0
213622.598,37.598,40.527,26.367,22.949,21.973,0
213622.602,37.598,43.457,33.203,31.250,32.227,0
213622.606,44.922,42.969,31.250,32.227,10.254,0
213622.610,37.109,31.250,22.461,21.973,48.828,0
213622.613,25.391,22.461,29.785,26.855,121.582,0
213622.617,33.691,25.391,28.320,34.668,121.582,0
213622.621,40.039,29.297,19.531,27.832,83.496,0
213622.625,35.156,26.367,23.926,25.391,69.336,0
213622.629,29.785,27.344,31.250,27.832,44.434,0
213622.633,20.508,27.832,36.621,28.320,45.410,0
213622.637,18.555,27.832,37.109,26.367,46.387,0
213622.641,24.414,33.691,37.598,31.738,66.406,0
213622.645,19.531,37.598,30.762,32.715,71.777,0
213622.649,12.695,33.203,18.555,21.484,62.012,0
213622.652,5.371,25.879,19.531,10.254,31.738,0
213622.656,12.695,27.344,19.531,22.949,50.293,0
213622.660,25.879,34.668,13.672,36.133,66.406,0
213622.664,32.227,36.621,22.461,26.855,74.707,0
213622.668,32.715,33.691,33.691,27.344,68.359,0
213622.672,27.832,32.715,37.598,25.879,52.246,0
213622.676,28.809,30.273,37.598,20.508,41.016,0
213622.680,24.414,25.391,30.273,18.066,12.695,0
213622.684,27.344,24.414,29.297,23.926,23.438,0
213622.688,32.227,29.297,31.738,33.203,35.645,0
213622.692,28.809,32.715,26.855,29.785,35.645,0
213622.695,27.344,33.691,20.020,24.414,1.465,0
213622.699,26.855,25.391,21.484,25.391,-2.930,0
213622.703,22.461,20.508,26.855,26.855,4.883,0
213622.707,25.391,27.832,25.391,37.109,14.160,0
213622.711,29.785,33.203,21.484,30.273,20.020,0
213622.715,24.902,36.133,17.578,11.719,-10.742,0
213622.719,22.461,36.621,18.066,14.648,-2.930,0
213622.723,23.438,38.086,22.949,15.137,37.109,0
213622.727,19.043,36.133,30.273,13.184,27.832,0
213622.731,18.066,36.133,31.738,19.531,-15.137,0
213622.735,20.996,35.645,26.855,20.996,7.812,0
213622.738,18.066,30.273,32.227,13.672,34.180,0
213622.742,15.137,24.414,38.086,9.277,-20.020,0
213622.746,22.949,24.414,31.250,17.578,-34.668,0
213622.750,26.367,29.297,20.508,28.320,12.207,0
213622.754,21.484,34.668,24.902,24.414,-12.695,0
213622.758,30.273,40.039,35.156,23.438,-38.574,0
213622.762,39.551,35.645,35.156,25.391,-40.527,0
213622.766,27.832,29.785,30.273,22.949,-5.371,0
213622.770,19.531,28.809,26.855,23.926,-8.789,0
213622.774,22.461,31.250,29.297,30.762,-27.344,0
213622.777,26.367,36.621,33.203,43.457,8.789,0
213622.781,29.785,33.203,35.156,44.434,15.625,0
213622.785,34.668,29.297,35.156,23.926,-31.738,0
213622.789,29.297,29.297,24.902,7.324,-32.227,0
213622.793,29.297,31.738,22.461,18.555,38.574,0
213622.797,32.227,32.227,27.832,29.785,22.461,0
213622.801,24.414,23.926,30.273,24.414,18.066,0
213622.805,24.414,22.949,29.785,24.414,37.598,0
213622.809,24.902,27.832,29.785,24.414,54.688,0
213622.813,28.809,28.320,28.320,22.949,49.316,0
213622.817,30.762,30.273,26.367,29.785,-4.883,0
213622.820,24.414,28.809,23.926,27.344,-0.488,0
213622.824,22.949,27.832,29.297,23.926,42.480,0
213622.828,24.902,32.715,36.133,21.484,17.578,0
213622.832,25.391,36.621,26.855,17.090,-32.227,0
213622.836,23.438,33.203,23.438,20.996,10.742,0
213622.840,22.949,30.273,28.809,23.438,58.105,0
213622.844,29.297,33.203,33.203,26.855,16.602,0
213622.848,32.227,34.668,29.297,30.762,-1.465,0
213622.852,24.902,30.273,22.949,24.414,43.945,0
213622.856,22.461,27.344,21.484,20.020,40.039,0
213622.860,26.367,30.273,21.484,26.855,12.695,0
213622.863,27.344,29.297,27.832,28.320,63.477,0
213622.867,28.809,24.414,29.785,23.438,64.941,0
213622.871,30.762,25.391,30.273,25.879,30.273,0
213622.875,32.715,30.273,31.250,28.809,16.602,0
213622.879,27.832,31.250,33.203,21.973,18.066,0
213622.883,24.414,27.832,29.785,20.996,44.922,0
213622.887,25.391,26.855,22.949,24.414,41.992,0
213622.891,29.785,28.320,24.902,29.785,44.922,0
213622.895,30.762,33.691,30.273,38.574,65.430,0
213622.899,28.809,39.062,30.273,35.156,72.754,0
213622.902,38.086,41.016,17.578,36.621,58.594,0
213622.906,41.504,41.992,18.555,40.527,31.738,0
213622.910,31.738,41.016,33.691,27.344,28.320,0
213622.914,32.715,41.504,36.133,33.203,41.992,0
213622.918,35.645,39.062,32.715,39.551,25.879,0
213622.922,31.738,40.527,35.645,28.809,-2.441,0
213622.926,33.203,42.969,37.598,35.645,35.156,0
213622.930,30.762,38.574,29.785,39.062,68.359,0
213622.934,27.832,34.180,28.809,27.832,36.621,0
213622.938,34.668,30.273,30.273,29.785,11.230,0
213622.942,36.133,25.879,30.762,36.621,43.457,0
213622.945,31.250,27.832,30.762,38.574,42.480,0
213622.949,29.785,35.645,30.273,47.363,47.363,0
213622.953,29.785,36.621,31.250,33.203,24.414,0
213622.957,27.832,32.715,27.832,17.578,18.555,0
213622.961,18.066,30.273,29.785,28.320,35.645,0
213622.965,14.160,29.297,28.320,31.738,14.160,0
213622.969,15.625,31.738,27.344,24.414,28.320,0
213622.973,14.160,30.273,33.203,26.855,93.262,0
213622.977,13.672,24.902,29.785,31.738,76.172,0
213622.981,16.602,23.438,26.855,25.879,17.578,0
213622.985,23.438,21.484,28.809,22.949,21.484,0
213622.988,33.691,20.508,30.762,38.574,30.762,0
213622.992,35.156,25.879,33.203,41.504,39.062,0
213622.996,27.344,32.227,37.109,26.367,49.805,0
213623.000,24.414,32.227,32.715,26.367,39.062,0
213623.004,24.414,34.668,24.902,33.203,51.758,0
213623.008,22.949,35.156,27.832,30.762,64.453,0
213623.012,21.484,35.645,34.180,32.227,55.664,0
213623.016,14.160,34.180,29.785,23.438,52.734,0
213623.020,16.602,29.785,22.461,16.602,45.898,0
213623.024,24.902,29.785,26.367,26.367,59.570,0
213623.027,26.367,28.320,32.715,23.926,48.828,0
213623.031,26.855,27.832,34.180,29.785,29.785,0
213623.035,25.879,34.180,34.668,35.156,38.574,0
213623.039,23.926,37.598,34.668,26.367,27.344,0
213623.043,25.391,35.645,32.227,23.926,57.129,0
213623.047,24.902,32.227,31.738,23.926,70.312,0
213623.051,24.902,31.738,33.203,25.391,60.547,0
213623.055,29.785,38.086,32.715,34.668,98.145,0
213623.059,28.320,38.574,33.691,34.180,77.148,0
213623.063,26.855,32.715,36.621,35.645,27.344,0
213623.067,27.344,25.879,32.227,33.203,37.109,0
213623.070,26.367,22.461,27.832,26.855,33.203,0
213623.074,38.574,36.133,33.203,37.598,24.902,0
213623.078,47.852,48.828,31.250,43.457,58.105,0
213623.082,39.062,41.016,28.809,30.762,30.762,0
213623.086,36.133,34.180,31.250,24.414,-12.207,0
213623.090,42.969,34.180,33.203,37.598,49.805,0
213623.094,43.457,31.738,37.109,44.922,99.609,0
213623.098,45.898,32.715,40.527,45.410,83.008,0
213623.102,53.223,34.180,38.574,46.387,29.785,0
213623.106,52.734,29.297,38.086,47.363,43.457,0
213623.110,43.945,27.344,41.504,39.551,52.734,0
213623.113,39.551,29.785,39.062,34.180,4.883,0
213623.117,36.621,26.855,31.738,40.039,33.691,0
213623.121,29.785,22.461,28.809,34.668,32.715,0
213623.125,31.250,28.809,30.762,32.227,20.996,0
213623.129,36.621,34.180,30.273,33.691,29.297,0
213623.133,34.180,32.227,31.738,30.273,19.531,0
213623.137,22.949,29.297,35.645,23.926,63.965,0
213623.141,21.484,26.855,36.133,17.578,82.520,0
213623.145,27.344,27.832,32.227,15.137,52.734,0
213623.149,19.531,24.902,21.973,11.230,41.504,0
213623.152,9.766,23.926,21.973,12.695,43.457,0
213623.156,-0.977,31.738,28.809,18.555,54.688,0
213623.160,-3.906,32.227,25.879,15.625,20.020,0
213623.164,6.348,26.367,23.926,18.066,12.207,0
213623.168,11.719,21.973,28.809,19.531,54.199,0
213623.172,18.066,22.949,35.645,15.137,48.828,0
213623.176,21.484,23.926,35.156,13.184,18.066,0
213623.180,17.578,20.996,30.762,19.043,30.762,0
213623.184,19.531,30.273,26.855,28.320,46.875,0
213623.188,27.344,39.551,25.391,30.762,35.156,0
213623.192,35.645,38.574,23.438,34.180,59.570,0
213623.195,33.691,37.598,27.832,30.273,77.148,1
213623.199,30.762,35.156,30.273,23.926,84.473,0
213623.203,33.203,35.645,26.855,26.855,85.938,0
213623.207,32.227,33.203,22.949,23.438,51.270,0
213623.211,33.203,29.297,20.020,24.902,79.590,0
213623.215,37.109,30.762,26.367,40.039,93.262,0
213623.219,37.109,33.203,34.668,34.180,45.898,0
213623.223,35.156,36.133,35.156,26.855,53.711,0
213623.227,38.574,36.621,34.180,34.668,62.988,0
213623.231,48.340,34.668,32.227,38.086,71.289,0
213623.235,50.293,34.180,22.461,41.992,79.102,0
213623.238,50.781,36.621,18.555,43.945,67.871,0
213623.242,44.922,35.156,33.203,51.758,83.496,0
213623.246,41.504,33.203,37.109,53.711,55.664,0
213623.250,33.691,35.156,29.297,30.762,22.461,0
213623.254,19.531,35.156,31.738,14.160,38.086,0
213623.258,25.391,36.133,37.109,26.367,91.797,0
213623.262,31.250,37.598,35.156,35.645,92.773,0
213623.266,28.809,35.156,35.156,34.180,34.180,0
213623.270,29.297,35.645,35.645,36.133,35.645,0
213623.274,26.855,36.621,33.203,40.039,59.570,0
213623.277,28.809,37.598,35.156,47.852,34.180,0
213623.281,33.691,40.527,41.992,50.781,21.973,0
213623.285,34.668,38.086,39.551,42.969,66.895,0
213623.289,29.297,29.297,29.297,41.992,55.176,0
213623.293,23.438,22.949,29.785,30.273,37.598,0
213623.297,21.973,20.020,33.691,14.160,7.324,0
213623.301,23.926,25.879,35.156,17.090,4.883,0
213623.305,24.902,31.250,34.180,25.879,21.973,0
213623.309,22.461,30.273,28.809,32.715,33.691,0
213623.313,25.391,35.645,23.438,38.086,46.875,0
213623.317,27.344,35.645,26.367,37.109,23.926,0
213623.320,25.879,29.297,30.762,36.621,13.672,0
213623.324,22.461,26.367,32.227,30.762,-5.371,0
213623.328,22.461,31.738,30.762,30.762,16.602,0
213623.332,29.297,34.668,27.832,40.527,26.855,0
213623.336,34.668,29.785,31.250,43.945,4.395,0
213623.340,37.598,24.902,31.738,35.645,-15.137,0
213623.344,35.645,23.438,27.344,29.785,-30.762,0
213623.348,29.785,22.461,27.832,32.715,-6.348,0
213623.352,31.250,22.949,26.855,38.086,12.207,0
213623.356,36.621,25.879,20.020,40.527,-9.766,0
213623.360,40.039,30.273,21.484,41.992,27.832,0
213623.363,44.434,36.621,21.973,41.504,51.758,0
213623.367,47.363,39.551,27.832,39.551,22.949,0
213623.371,53.711,41.992,34.180,41.504,5.371,0
213623.375,51.758,43.457,36.133,44.922,20.020,0
213623.379,39.551,38.086,38.086,41.992,60.059,0
213623.383,34.668,29.785,32.715,39.062,53.711,0
213623.387,30.273,29.785,28.809,35.645,37.109,0
213623.391,26.855,33.691,31.250,34.668,30.762,0
213623.395,33.691,35.156,35.645,40.527,0.000,0
213623.399,32.715,34.668,38.574,37.598,33.203,0
213623.402,26.367,33.691,38.574,37.598,19.043,0
213623.406,31.250,35.156,37.598,37.598,30.762,0
213623.410,32.715,34.180,37.598,26.367,83.496,0
213623.414,29.297,34.180,35.645,17.578,13.184,0
213623.418,25.879,38.574,37.598,19.043,13.672,0
213623.422,17.090,39.551,32.227,24.902,36.133,0
213623.426,9.277,35.156,24.414,13.184,48.828,0
213623.430,10.742,30.762,27.832,6.836,32.227,0
213623.434,9.766,27.832,26.367,16.113,26.855,0
213623.438,11.719,30.762,24.414,16.602,54.688,0
213623.442,18.066,33.203,31.250,20.996,44.922,0
213623.445,17.578,33.203,29.297,25.391,6.836,0
213623.449,18.066,34.668,27.344,17.090,-19.043,0
213623.453,16.602,28.320,31.250,13.672,12.207,0
213623.457,13.184,27.344,30.273,26.855,31.250,0
213623.461,14.648,29.785,26.367,24.414,19.043,0
213623.465,18.555,27.344,19.531,17.578,18.555,0
213623.469,21.484,21.973,20.508,24.414,47.852,0
213623.473,22.949,21.973,26.367,26.855,45.410,0
213623.477,30.762,31.738,25.391,32.227,21.973,0
213623.481,33.203,29.785,34.180,37.109,33.691,0
213623.485,30.273,27.344,38.086,34.668,21.973,0
213623.488,32.227,33.691,30.273,29.785,11.719,0
213623.492,32.227,32.715,29.297,22.461,-3.906,0
213623.496,35.156,28.809,29.785,23.438,-21.484,0
213623.500,40.527,28.809,27.832,30.762,11.719,0
213623.504,37.598,30.273,28.809,30.273,21.484,0
213623.508,31.250,33.691,31.738,29.297,26.367,0
213623.512,31.738,34.668,32.227,35.156,23.926,0
213623.516,31.250,29.297,27.832,38.086,7.812,0
213623.520,33.203,28.809,32.715,36.621,20.020,0
213623.524,42.480,37.109,38.574,39.551,18.555,0
213623.527,40.527,41.016,32.227,45.410,41.016,0
213623.531,33.691,40.527,24.414,34.668,54.688,0
213623.535,27.344,36.621,24.902,21.973,-4.883,0
213623.539,24.414,30.273,26.367,20.508,-11.719,0
213623.543,24.902,31.250,26.367,29.297,27.344,0
213623.547,22.949,36.133,32.715,31.250,29.297,0
213623.551,26.855,34.668,35.156,29.297,30.273,0
213623.555,28.320,34.180,32.715,34.180,12.695,0
213623.559,24.414,34.180,37.109,26.855,19.043,0
213623.563,21.484,35.645,39.551,21.484,15.625,0
213623.567,22.461,39.551,34.180,23.926,2.441,0
213623.570,23.926,39.062,27.832,22.461,18.066,0
213623.574,27.344,35.156,25.879,25.879,18.555,0
213623.578,27.832,34.668,21.484,27.832,16.602,0
213623.582,26.367,32.715,18.555,19.531,-9.277,0
213623.586,34.668,30.762,24.414,16.602,-1.953,0
213623.590,39.062,32.227,29.297,20.020,18.066,0
213623.594,32.227,34.180,33.691,25.391,14.160,0
213623.598,35.156,34.668,28.320,35.156,32.227,0
213623.602,34.668,28.809,25.879,30.762,45.898,0
213623.606,21.973,21.973,29.297,19.531,63.477,0
213623.610,22.949,26.855,28.809,29.297,62.988,0
213623.613,26.367,36.133,33.691,32.227,37.598,0
213623.617,22.461,39.062,36.133,15.625,26.855,0
213623.621,20.996,37.598,31.250,16.602,-9.766,0
213623.625,16.602,34.180,23.926,21.484,10.742,0
213623.629,13.184,31.738,21.973,19.043,85.938,0
213623.633,16.113,32.227,28.320,27.344,108.887,0
213623.637,20.996,32.715,30.762,31.250,46.387,0
213623.641,18.555,26.855,30.273,20.508,-15.137,0
213623.645,18.066,26.367,26.855,19.043,7.812,0
213623.649,20.020,30.762,27.344,23.926,44.922,0
213623.652,19.043,26.367,29.785,20.020,32.715,0
213623.656,28.320,24.902,32.715,27.832,57.129,0
213623.660,37.598,29.785,31.250,43.945,45.410,0
213623.664,27.832,26.855,26.367,31.250,13.184,0
213623.668,20.020,23.926,30.273,17.578,33.203,0
213623.672,23.926,27.344,30.273,19.531,39.062,0
213623.676,30.762,32.227,25.391,22.949,26.367,0
213623.680,34.180,31.250,24.414,20.996,29.297,0
213623.684,28.809,22.949,26.367,16.113,32.715,0
213623.688,29.297,23.926,34.668,25.879,46.387,0
213623.692,39.551,30.273,35.156,39.551,28.809,0
213623.695,43.457,30.762,34.180,32.227,-14.160,0
213623.699,45.410,30.273,36.133,22.949,-23.926,0
213623.703,43.945,30.273,35.156,34.180,-21.973,0
213623.707,34.668,31.738,36.621,37.109,9.766,0
213623.711,32.227,25.879,25.879,34.180,25.879,0
213623.715,36.621,20.020,15.137,25.879,26.367,0
213623.719,36.133,23.926,15.625,19.531,11.230,0
213623.723,21.484,22.949,21.484,26.367,19.531,0
213623.727,13.672,28.809,31.250,27.832,23.926,0
213623.731,17.578,37.598,34.668,25.391,15.137,0
213623.735,19.531,33.203,32.227,22.461,41.016,0
213623.738,24.414,29.297,27.832,28.809,19.531,0
213623.742,24.902,31.738,27.832,30.762,18.555,0
213623.746,23.926,32.715,28.809,22.461,14.648,0
213623.750,30.762,38.086,29.785,39.551,-12.207,0
213623.754,33.203,41.016,29.785,51.758,-2.441,0
213623.758,28.320,32.227,23.438,27.344,28.320,0
213623.762,28.809,34.668,20.020,18.555,75.684,0
213623.766,25.391,38.574,23.926,22.949,62.500,0
213623.770,24.902,34.668,23.438,19.531,66.406,0
213623.774,28.320,31.738,20.508,20.996,62.012,0
213623.777,22.949,33.691,21.973,17.578,-9.766,0
213623.781,22.461,39.062,20.996,18.066,11.719,0
213623.785,30.273,43.945,18.555,26.367,41.992,0
213623.789,33.203,40.527,24.414,27.344,11.719,0
213623.793,27.344,33.691,35.156,27.832,16.113,0
213623.797,30.762,38.574,36.133,34.180,0.000,0
213623.801,33.691,41.992,30.273,35.156,-8.789,0
213623.805,27.832,37.598,25.879,25.879,10.742,0
213623.809,25.879,31.738,20.508,19.531,-2.441,0
213623.813,25.391,29.297,17.090,16.602,-26.855,0
213623.817,22.949,30.762,18.066,13.672,-34.668,0
213623.820,21.973,27.344,23.438,13.184,-54.199,0
213623.824,29.297,28.809,30.762,19.531,-34.668,0
213623.828,36.621,34.668,27.832,32.715,16.113,0
213623.832,33.203,29.785,16.113,39.551,22.461,0
213623.836,39.062,24.902,20.020,42.969,30.273,0
213623.840,45.410,32.715,32.227,46.387,39.551,0
213623.844,24.414,29.297,35.645,28.809,68.359,0
213623.848,15.625,23.438,40.039,12.695,47.852,0
213623.852,22.461,29.297,39.551,27.344,0.488,0
213623.856,17.578,29.297,31.738,27.832,45.410,0
213623.860,12.695,30.762,29.785,16.113,61.035,0
213623.863,13.672,34.180,32.227,26.855,58.594,0
213623.867,20.020,33.691,27.344,34.668,42.969,0
213623.871,24.414,34.180,25.391,37.109,49.805,0
213623.875,24.902,31.250,32.227,32.715,104.980,0
213623.879,24.414,31.250,32.227,32.715,122.559,0
213623.883,23.926,34.180,31.250,31.738,105.957,0
213623.887,22.461,31.250,34.180,26.367,117.676,0
213623.891,23.438,28.320,29.297,24.902,114.258,1
213623.895,26.367,28.809,29.297,25.391,106.445,0
213623.899,29.297,32.227,30.273,28.809,121.582,0
213623.902,30.762,30.762,21.484,33.691,100.586,0
213623.906,26.855,26.367,15.625,32.227,83.984,0
213623.910,24.414,34.668,26.855,22.461,56.641,0
213623.914,24.414,41.016,35.645,16.602,39.062,0
213623.918,24.902,41.992,33.691,24.414,93.262,0
213623.922,22.949,41.016,26.855,27.344,97.656,0
213623.926,23.438,40.527,24.414,24.414,78.613,0
213623.930,25.391,42.480,29.785,24.902,62.012,0
213623.934,30.762,41.992,34.180,34.668,65.430,0
213623.938,32.715,36.133,31.738,49.316,86.426,0
213623.942,27.344,28.320,24.902,37.109,95.215,0
213623.945,20.508,25.391,23.438,17.090,58.594,0
213623.949,15.137,29.785,32.227,19.043,44.922,0
213623.953,13.184,31.738,35.156,23.438,69.336,0
213623.957,18.555,30.762,34.180,20.020,20.996,0
213623.961,29.785,35.156,37.598,24.902,17.578,0
213623.965,29.297,36.621,34.668,29.785,8.301,0
213623.969,22.949,26.367,31.738,17.578,-24.902,0
213623.973,25.879,23.926,35.156,12.207,0.977,0
213623.977,26.855,32.227,37.598,23.438,12.695,0
213623.981,25.391,27.344,37.598,32.227,31.738,0
213623.985,23.438,19.043,28.809,29.785,9.766,0
213623.988,19.531,23.438,21.484,33.691,41.504,0
213623.992,18.066,26.855,21.484,31.738,84.473,0
213623.996,16.602,25.391,27.832,35.645,74.219,0
213624.000,18.066,33.691,30.762,36.621,66.406,0
213624.004,18.555,36.133,27.832,24.414,52.246,0
213624.008,20.508,33.691,30.273,23.438,73.242,0
213624.012,22.461,37.109,28.809,20.508,83.008,0
213624.016,18.555,37.598,30.273,15.625,74.219,0
213624.020,18.555,31.250,32.227,19.043,56.152,0
213624.024,24.414,27.344,28.320,21.973,62.988,0
213624.027,24.902,27.832,25.879,18.066,51.270,0
213624.031,27.344,33.203,24.414,25.879,38.574,0
213624.035,37.109,35.645,28.809,37.109,28.809,0
213624.039,42.969,34.180,35.645,39.062,20.996,0
213624.043,41.504,30.273,32.227,39.551,26.855,0
213624.047,32.715,30.273,29.297,25.879,-13.672,0
213624.051,30.762,37.598,37.109,24.414,0.000,0
213624.055,36.133,41.016,45.898,42.969,64.941,0
213624.059,32.715,36.133,38.574,34.180,69.824,0
213624.063,26.367,29.785,29.297,17.578,34.668,0
213624.067,31.250,32.227,31.738,21.484,10.742,0
213624.070,33.691,34.180,33.691,23.438,19.043,0
213624.074,28.809,27.344,29.297,23.438,21.484,0
213624.078,24.414,26.367,27.832,20.996,23.438,0
213624.082,26.367,30.273,37.109,19.531,38.086,0
213624.086,33.691,25.879,36.621,22.949,22.949,0
213624.090,32.715,25.391,32.715,34.180,23.926,0
213624.094,32.715,31.738,41.016,31.250,42.480,0
213624.098,39.062,34.180,43.945,18.066,61.035,0
213624.102,39.062,32.227,33.691,20.996,28.809,0
213624.106,39.062,36.621,27.344,25.391,-29.785,0
213624.110,35.156,37.598,25.879,20.996,-6.348,0
213624.113,28.809,36.133,27.344,26.855,-0.977,0
213624.117,26.367,32.715,36.621,34.668,-38.574,0
213624.121,26.855,28.320,41.016,29.297,-5.859,0
213624.125,27.832,27.344,41.504,26.367,4.395,0
213624.129,24.902,30.762,40.039,25.391,24.414,0
213624.133,23.438,32.227,41.016,28.320,44.922,0
213624.137,25.391,29.297,39.551,38.086,3.906,0
213624.141,25.879,32.227,36.621,41.992,-26.367,0
213624.145,32.715,35.645,35.645,40.039,-29.297,0
213624.149,33.691,34.668,30.273,36.133,-30.762,0
213624.152,33.691,35.156,30.273,29.785,-62.012,0
213624.156,43.457,41.504,40.527,39.551,-51.758,0
213624.160,43.457,45.410,37.598,45.898,-7.812,0
213624.164,34.668,40.527,29.785,32.715,-14.648,0
213624.168,33.203,39.062,29.785,30.273,-28.320,0
213624.172,37.109,39.551,25.879,37.598,-20.996,0
213624.176,35.156,36.621,26.855,42.969,-9.277,0
213624.180,34.180,36.133,30.762,36.621,0.977,0
213624.184,32.715,34.180,28.320,34.180,-26.367,0
213624.188,26.855,27.344,26.855,33.203,-31.738,0
213624.192,30.273,25.391,31.250,20.996,-6.348,0
213624.195,34.180,32.227,37.598,20.996,-23.926,0
213624.199,34.668,38.086,36.621,27.832,-9.766,0
213624.203,39.062,39.062,33.203,27.832,23.438,0
213624.207,41.504,43.457,28.320,32.715,51.270,0
213624.211,32.227,36.621,21.973,23.926,21.973,0
213624.215,17.578,20.020,17.578,10.742,-13.184,0
213624.219,17.090,25.391,19.043,20.020,21.973,0
213624.223,23.438,31.250,24.414,26.855,51.758,0
213624.227,28.809,33.691,26.367,27.832,38.574,0
213624.231,23.926,32.715,25.391,28.809,21.484,0
213624.235,17.090,26.367,28.320,24.414,42.480,0
213624.238,22.949,29.785,31.738,32.227,51.270,0
213624.242,25.391,33.691,33.691,36.133,32.715,0
213624.246,25.391,32.227,35.156,32.227,34.180,0
213624.250,25.879,28.320,30.273,35.156,50.781,0
213624.254,20.996,23.438,26.367,33.691,41.016,0
213624.258,21.484,27.344,28.809,32.715,23.926,0
213624.262,22.949,27.344,33.203,32.227,54.199,0
213624.266,26.367,27.344,34.180,33.203,79.102,0
213624.270,26.367,33.691,34.180,28.320,44.434,0
213624.274,26.367,31.250,25.391,25.391,58.594,0
213624.277,25.879,29.785,21.484,33.203,84.473,0
213624.281,22.461,31.250,26.367,33.203,65.918,0
213624.285,27.344,28.809,30.273,20.508,67.871,0
213624.289,32.715,32.715,33.691,14.160,9.277,0
213624.293,27.832,30.273,30.762,19.531,15.137,0
213624.297,25.391,25.391,28.320,13.184,64.941,0
213624.301,21.973,25.391,26.367,9.277,38.574,0
213624.305,24.414,26.367,28.809,20.020,42.969,0
213624.309,28.809,30.762,30.762,21.484,53.711,0
213624.313,28.809,38.574,31.738,20.996,29.785,0
213624.317,32.715,42.480,26.855,26.367,32.715,0
213624.320,33.691,36.621,24.902,29.785,49.316,0
213624.324,29.297,33.203,28.809,35.156,33.691,0
213624.328,24.902,38.574,28.320,31.738,11.719,0
213624.332,26.855,41.016,27.832,26.367,-13.184,0
213624.336,28.320,38.086,38.574,32.715,22.461,0
213624.340,28.320,32.227,39.062,33.203,28.320,0
213624.344,28.809,25.391,25.391,30.273,-5.859,0
213624.348,26.367,23.926,25.879,26.855,0.000,0
213624.352,23.438,26.855,34.180,28.809,29.785,0
213624.356,24.902,31.738,28.320,40.527,48.828,0
213624.360,31.250,37.109,23.438,45.898,46.387,0
213624.363,37.598,40.527,27.832,42.969,47.852,0
213624.367,39.062,39.551,23.438,34.180,61.035,0
213624.371,28.809,33.691,19.531,20.508,32.227,0
213624.375,21.484,30.273,29.785,16.602,19.531,0
213624.379,25.879,29.297,37.598,28.320,14.648,0
213624.383,22.461,26.367,33.691,28.809,58.594,0
213624.387,21.973,24.414,28.320,18.555,70.801,0
213624.391,27.832,25.879,28.320,16.602,8.301,0
213624.395,23.926,25.879,25.879,16.602,26.855,0
213624.399,18.066,25.879,19.531,19.043,79.590,0
213624.402,19.043,26.855,25.879,20.508,72.266,0
213624.406,22.949,29.785,31.738,22.949,76.172,0
213624.410,21.484,35.645,29.297,26.367,125.000,0
213624.414,14.160,33.691,29.297,32.715,97.168,0
213624.418,20.508,27.344,24.902,26.855,66.406,0
213624.422,24.414,23.926,23.926,10.254,48.340,0
213624.426,20.508,29.297,33.203,12.695,34.668,0
213624.430,24.902,35.645,30.762,25.879,60.547,0
213624.434,28.809,32.227,20.996,28.809,72.754,0
213624.438,24.414,27.832,24.414,23.438,73.242,0
213624.442,19.531,28.809,30.273,20.996,70.801,0
213624.445,28.809,35.645,33.691,27.344,30.762,0
213624.449,39.062,39.062,34.180,35.156,1.465,0
213624.453,33.691,32.227,29.785,31.738,-3.418,0
213624.457,20.996,26.855,28.809,27.344,11.719,0
213624.461,17.090,23.926,24.414,22.461,33.203,0
213624.465,14.648,22.949,21.484,25.391,-1.953,0
213624.469,14.648,29.297,29.785,29.297,-5.859,0
213624.473,20.020,27.832,29.785,24.902,0.488,0
213624.477,22.461,26.367,28.320,22.461,13.184,0
213624.481,30.273,32.227,35.645,20.508,10.742,0
213624.485,31.738,32.715,39.551,22.461,-11.230,0
213624.488,31.250,39.062,36.621,32.715,35.156,0
213624.492,35.645,47.852,36.133,28.809,50.781,0
213624.496,31.738,41.992,33.203,15.625,52.246,0
213624.500,28.809,30.762,27.344,12.695,66.406,0
213624.504,36.621,24.414,28.809,14.648,33.691,0
213624.508,39.062,26.855,34.668,28.320,-7.324,0
213624.512,26.367,34.180,29.785,33.691,31.250,0
213624.516,25.391,37.109,21.484,36.133,42.969,0
213624.520,36.133,40.527,25.391,47.363,12.207,0
213624.524,34.668,41.992,34.180,43.457,42.969,1
213624.527,31.250,32.227,39.551,35.156,46.875,0
213624.531,34.180,28.809,40.527,33.691,52.246,0
213624.535,27.344,34.668,34.668,33.691,45.410,0
213624.539,23.926,33.203,25.879,35.645,18.066,0
213624.543,26.855,26.367,24.414,35.645,17.090,0
213624.547,24.902,23.438,24.902,32.227,3.418,0
213624.551,23.926,25.391,30.273,31.738,17.090,0
213624.555,30.273,28.809,32.227,30.762,11.230,0
213624.559,37.598,29.785,31.250,24.414,-1.465,0
213624.563,31.250,24.414,33.691,25.879,8.789,0
213624.567,30.762,22.461,37.598,37.598,7.812,0
213624.570,28.320,26.855,36.621,27.832,-18.066,0
213624.574,14.160,23.438,38.086,14.648,-23.438,0
213624.578,14.648,20.020,44.922,26.367,-3.418,0
213624.582,16.113,23.438,44.434,29.785,2.441,0
213624.586,13.184,28.320,39.062,25.391,3.418,0
213624.590,20.020,33.691,38.574,28.320,-20.508,0
213624.594,31.250,38.086,36.133,30.762,-14.648,0
213624.598,27.832,36.133,33.203,32.715,19.531,0
213624.602,21.484,30.273,36.621,30.273,20.020,0
213624.606,31.738,31.250,36.621,31.738,6.348,0
213624.610,40.039,39.551,37.598,50.781,16.602,0
213624.613,34.668,41.016,37.109,49.805,12.695,0
213624.617,32.227,35.645,35.645,34.180,-36.621,0
213624.621,34.668,29.297,38.574,34.668,-6.348,0
213624.625,30.762,25.879,34.668,35.156,25.879,0
213624.629,27.344,30.273,35.156,37.109,13.672,0
213624.633,21.973,29.297,38.574,34.180,-12.695,0
213624.637,25.879,29.297,39.062,35.645,3.418,0
213624.641,34.180,38.574,37.109,46.387,33.691,0
213624.645,32.715,41.992,29.785,43.457,7.324,0
213624.649,29.785,38.086,31.250,36.133,30.762,0
213624.652,33.203,38.086,40.527,39.062,25.879,0
213624.656,36.621,37.598,34.668,45.410,0.000,0
213624.660,30.762,32.227,27.832,31.250,-29.297,0
213624.664,27.344,30.762,29.297,18.555,-42.480,0
213624.668,31.250,30.762,29.785,31.250,13.672,0
213624.672,31.250,29.297,36.133,32.715,35.645,0
213624.676,28.809,25.391,33.203,25.391,64.453,0
213624.680,28.809,29.297,25.391,28.809,66.895,0
213624.684,23.926,37.598,27.344,31.250,42.480,0
213624.688,26.367,41.504,29.297,27.832,8.789,0
213624.692,26.367,42.480,31.250,25.879,-8.789,0
213624.695,16.602,39.551,31.250,18.066,8.301,0
213624.699,19.531,36.621,29.297,20.508,11.230,0
213624.703,28.809,36.621,32.227,27.832,11.230,0
213624.707,24.902,34.180,30.273,16.602,7.812,0
213624.711,23.926,28.809,21.484,15.137,44.922,0
213624.715,26.855,26.855,23.438,20.996,55.664,0
213624.719,20.508,27.344,33.203,22.949,46.875,0
213624.723,20.996,28.809,36.621,27.344,49.316,0
213624.727,25.879,30.762,36.133,24.902,53.223,0
213624.731,29.785,34.180,38.086,25.391,68.359,0
213624.735,33.691,38.086,44.434,30.273,59.570,0
213624.738,30.762,32.227,43.457,28.320,40.039,0
213624.742,32.227,24.902,34.668,38.086,47.363,0
213624.746,33.203,29.297,31.738,41.016,53.711,0
213624.750,27.832,29.785,33.691,19.043,19.531,0
213624.754,24.902,28.809,32.227,16.602,8.301,0
213624.758,24.414,32.227,39.551,26.855,87.891,0
213624.762,28.809,35.645,40.039,39.551,126.953,0
213624.766,28.809,35.645,34.668,32.715,67.383,0
213624.770,25.879,34.180,35.156,21.484,88.867,0
213624.774,26.855,37.109,35.156,30.762,114.746,0
213624.777,31.738,37.109,34.180,33.691,96.680,0
213624.781,31.250,33.691,35.156,28.809,48.828,0
213624.785,23.926,32.715,37.598,29.297,14.648,0
213624.789,20.508,37.598,32.227,37.109,17.090,0
213624.793,30.762,32.715,31.250,37.598,-12.207,0
213624.797,36.621,27.344,24.902,27.344,-13.184,0
213624.801,31.738,35.645,18.555,23.438,25.391,0
213624.805,27.344,39.062,26.855,28.320,65.918,0
213624.809,26.855,35.645,35.156,23.438,75.195,0
213624.813,22.461,31.738,33.691,15.625,48.340,0
213624.817,23.926,32.715,27.832,24.414,50.293,0
213624.820,29.297,34.180,27.832,34.668,43.457,0
213624.824,31.738,35.156,31.250,43.457,45.898,0
213624.828,34.180,34.180,33.203,43.945,9.277,0
213624.832,30.762,31.250,35.156,30.762,-27.344,0
213624.836,29.297,29.297,35.156,35.156,-15.625,0
213624.840,29.297,30.762,27.832,41.504,-36.621,0
213624.844,27.344,31.250,27.344,26.367,-62.988,0
213624.848,25.879,29.297,28.320,21.484,-42.480,0
213624.852,20.996,30.762,23.926,28.320,-18.555,0
213624.856,18.555,28.320,29.785,20.508,-38.086,0
213624.860,24.414,27.344,31.250,20.020,-15.625,0
213624.863,24.902,32.715,25.879,26.855,11.230,0
213624.867,21.973,37.109,28.809,26.855,-17.578,0
213624.871,22.949,36.133,31.738,28.320,11.719,0
213624.875,21.973,31.738,31.250,27.832,27.344,0
213624.879,24.414,30.273,28.320,33.203,12.695,0
213624.883,28.320,36.621,26.367,37.109,5.371,0
213624.887,26.855,40.527,29.297,23.438,-8.301,0
213624.891,25.879,36.133,29.785,11.719,-7.324,0
213624.895,23.926,33.203,31.250,18.555,14.160,0
213624.899,24.414,33.691,33.691,26.367,7.812,0
213624.902,26.367,35.156,28.809,21.484,-25.879,0
213624.906,22.949,33.691,25.879,24.902,13.672,0
213624.910,24.414,30.273,24.902,35.156,25.879,0
213624.914,23.926,24.902,23.438,33.691,18.066,0
213624.918,18.555,24.414,25.879,33.203,3.418,0
213624.922,18.066,32.715,24.414,37.109,13.672,0
213624.926,30.762,39.062,26.367,33.691,29.785,0
213624.930,37.598,43.945,37.109,34.668,38.086,0
213624.934,30.273,39.551,41.992,29.785,6.348,0
213624.938,25.391,31.250,35.156,25.879,-28.320,0
213624.942,24.414,29.297,27.344,31.738,-10.254,0
213624.945,24.902,30.762,28.320,22.949,-32.227,0
213624.949,24.414,30.762,32.227,15.625,-55.664,0
213624.953,29.785,31.250,34.668,24.414,-38.086,0
213624.957,38.574,32.227,36.621,27.832,-42.969,0
213624.961,37.598,33.691,35.645,31.250,-38.086,0
213624.965,27.832,32.227,33.203,31.738,-27.832,0
213624.969,24.414,30.762,39.062,24.414,6.836,0
213624.973,22.461,31.250,40.039,24.902,28.809,0
213624.977,19.531,27.832,30.762,22.949,20.508,0
213624.981,20.020,25.879,27.832,29.785,8.301,0
213624.985,19.531,24.414,24.414,30.762,23.438,0
213624.988,18.066,21.484,20.020,20.020,26.855,0
213624.992,16.602,22.461,28.320,24.414,43.457,0
213624.996,16.602,23.926,33.691,28.320,49.805,0
213625.000,24.902,24.902,35.156,27.344,25.879,0
213625.004,31.250,29.297,28.809,33.691,8.789,0
213625.008,29.785,32.227,22.949,24.902,3.906,0
213625.012,29.785,31.738,24.902,19.531,30.762,0
213625.016,32.227,33.203,23.438,21.484,43.457,0
213625.020,32.227,39.062,23.926,25.391,40.039,0
213625.024,29.785,43.457,27.344,33.691,46.387,0
213625.027,28.809,27.344,32.715,22.949,34.668,0
213625.031,31.738,4.395,29.785,18.066,24.902,0
213625.035,33.203,11.719,24.414,20.020,21.484,0
213625.039,24.902,41.992,31.250,28.320,10.742,0
213625.043,34.180,58.594,36.621,39.551,26.855,0
213625.047,43.945,58.105,32.715,34.668,31.250,0
213625.051,33.203,54.688,34.668,29.785,41.016,0
213625.055,25.391,49.316,34.180,27.344,69.336,0
213625.059,24.414,43.945,31.250,24.414,60.547,0
213625.063,28.809,42.969,33.203,27.832,46.875,0
213625.067,32.227,41.504,31.738,35.156,48.340,0
213625.070,31.738,36.621,28.809,34.668,14.160,0
213625.074,30.273,28.809,25.879,32.227,4.883,0
213625.078,30.273,26.855,32.227,36.133,20.996,0
213625.082,32.227,34.180,36.133,30.273,0.000,0
213625.086,33.691,37.598,34.180,36.133,23.438,0
213625.090,38.574,37.109,34.668,50.781,92.773,0
213625.094,41.504,35.156,27.344,39.551,110.352,0
213625.098,37.598,28.809,33.691,30.273,88.867,0
213625.102,38.574,30.762,49.805,43.457,79.102,0
213625.106,41.992,36.621,49.805,44.922,59.082,0
213625.110,41.016,35.645,45.898,35.156,28.320,0
213625.113,40.039,29.785,41.504,34.180,9.277,0
213625.117,40.039,29.297,34.180,45.410,22.461,0
213625.121,34.180,32.715,30.273,45.898,12.207,0
213625.125,30.762,34.668,28.320,36.133,-15.625,0
213625.129,29.785,31.250,32.715,39.551,-32.715,0
213625.133,26.367,28.320,38.574,46.387,16.113,1
213625.137,19.531,25.391,36.621,39.062,21.484,0
213625.141,18.555,20.508,41.992,28.809,34.180,0
213625.145,27.832,21.484,48.340,33.203,95.703,0
213625.149,25.879,23.438,41.016,33.203,94.238,0
213625.152,18.066,28.809,31.738,23.438,70.801,0
213625.156,21.973,32.715,30.762,16.113,71.289,0
213625.160,27.344,32.227,25.391,20.996,35.156,0
213625.164,29.297,37.598,18.555,27.832,30.762,0
213625.168,31.738,42.969,20.996,30.762,60.059,0
213625.172,32.715,39.551,38.086,22.461,15.625,0
213625.176,22.949,34.668,46.875,18.066,6.836,0
213625.180,18.066,28.809,41.016,23.926,31.250,0
213625.184,22.949,24.414,33.203,21.973,32.227,0
213625.188,26.367,34.668,29.297,28.809,30.762,0
213625.192,27.832,41.504,32.227,32.227,27.344,0
213625.195,24.902,39.551,26.855,22.949,35.156,0
213625.199,24.902,38.574,20.020,29.297,55.176,0
213625.203,32.227,41.992,18.555,30.762,87.891,0
213625.207,31.738,43.457,23.926,21.484,72.754,0
213625.211,25.879,38.086,28.809,20.508,48.828,0
213625.215,28.320,34.180,23.926,16.602,39.551,0
213625.219,34.668,40.039,28.809,20.508,50.781,0
213625.223,38.574,43.945,33.203,38.086,71.289,0
213625.227,32.227,36.621,28.320,24.414,57.129,0
213625.231,25.879,27.832,28.809,12.695,47.852,0
213625.235,21.484,23.438,28.320,20.020,59.570,0
213625.238,18.555,27.832,27.344,25.879,59.570,0
213625.242,19.043,35.156,30.273,28.320,27.832,0
213625.246,17.578,36.621,35.156,23.438,14.160,0
213625.250,17.578,34.180,36.621,24.902,32.227,0
213625.254,18.555,28.809,33.691,28.809,30.273,0
213625.258,20.508,31.738,38.574,22.949,27.344,0
213625.262,22.461,35.156,35.156,26.367,61.035,0
213625.266,19.531,34.180,26.367,26.367,62.012,0
213625.270,22.461,31.250,32.715,20.508,4.883,0
213625.274,25.391,27.344,31.250,19.531,2.441,0
213625.277,20.996,25.391,25.879,17.090,-2.930,0
213625.281,20.508,20.020,32.715,26.367,8.789,0
213625.285,23.438,22.461,33.691,36.621,38.574,0
213625.289,25.879,29.297,31.738,28.809,10.742,0
213625.293,28.809,28.320,35.156,32.715,41.016,0
213625.297,26.855,30.762,40.039,44.922,82.031,0
213625.301,28.809,32.715,41.992,45.410,81.055,0
213625.305,39.551,34.668,37.109,44.434,48.340,0
213625.309,29.297,32.227,26.367,46.875,16.113,0
213625.313,8.789,22.461,28.320,23.926,5.371,0
213625.317,3.906,20.020,41.992,10.742,30.762,0
213625.320,5.859,19.531,42.969,9.766,20.508,0
213625.324,13.184,22.461,36.133,11.230,-0.977,0
213625.328,17.578,29.297,35.156,25.879,43.457,0
213625.332,20.996,37.598,33.203,27.344,38.574,0
213625.336,30.273,42.480,29.785,26.367,38.086,0
213625.340,36.621,42.969,33.691,30.273,84.473,0
213625.344,39.062,43.945,34.668,32.227,72.754,0
213625.348,36.621,39.551,28.320,27.832,34.180,0
213625.352,35.645,38.086,25.879,25.879,15.137,0
213625.356,40.039,45.410,29.785,27.832,54.688,0
213625.360,36.621,45.410,26.855,30.273,102.051,0
213625.363,31.250,40.527,14.648,23.926,54.199,0
213625.367,29.785,36.621,9.277,8.789,9.766,0
213625.371,30.762,34.668,14.648,16.602,60.059,0
213625.375,32.715,32.227,23.438,25.391,66.895,0
213625.379,25.391,27.344,28.809,7.324,4.395,0
213625.383,17.578,29.785,31.738,2.930,-27.344,0
213625.387,23.438,36.133,29.785,16.602,-5.371,0
213625.391,21.973,40.039,27.344,23.438,27.344,0
213625.395,15.137,37.109,29.297,19.043,33.691,0
213625.399,16.602,26.855,29.785,18.066,40.527,0
213625.402,18.555,26.855,28.809,28.320,50.781,0
213625.406,20.996,31.250,25.879,41.504,26.367,0
213625.410,15.625,27.344,20.508,22.461,-25.879,0
213625.414,12.207,26.855,27.832,9.766,-17.578,0
213625.418,20.996,27.832,35.645,21.484,9.277,0
213625.422,25.879,23.926,29.297,27.832,8.301,0
213625.426,24.902,20.020,30.762,31.738,13.184,0
213625.430,24.902,20.020,34.668,28.809,33.691,0
213625.434,26.367,20.508,28.320,37.598,75.684,0
213625.438,28.809,26.367,32.227,44.434,88.379,0
213625.442,27.832,28.320,38.086,40.039,41.992,0
213625.445,28.320,23.438,31.250,37.598,14.160,0
213625.449,35.645,20.508,27.832,39.062,39.551,0
213625.453,35.645,22.461,29.297,34.180,31.738,0
213625.457,34.180,29.297,33.203,21.973,-9.277,0
213625.461,40.039,35.156,35.156,24.902,-30.273,0
213625.465,40.039,33.203,39.062,29.785,-13.184,0
213625.469,34.668,29.297,41.016,29.297,-21.484,0
213625.473,31.738,23.926,41.504,37.598,-29.785,0
213625.477,31.250,25.879,40.527,40.039,-0.488,0
213625.481,30.273,30.762,42.480,36.133,1.465,0
213625.485,24.902,29.297,43.457,31.250,-19.043,0
213625.488,16.602,25.391,35.645,22.461,-7.812,0
213625.492,18.555,29.297,31.250,27.344,18.066,0
213625.496,24.902,33.691,29.785,33.691,32.227,0
213625.500,27.832,31.738,28.809,18.066,8.301,0
213625.504,26.855,30.762,28.809,12.207,0.000,0
213625.508,25.879,32.227,23.926,22.461,32.227,0
213625.512,29.297,35.156,20.020,31.738,74.219,0
213625.516,32.715,41.016,24.902,32.715,64.453,0
213625.520,34.668,43.945,26.367,32.227,61.523,0
213625.524,37.598,44.434,35.645,41.504,85.449,0
213625.527,37.109,43.457,44.434,37.109,76.660,0
213625.531,35.156,38.086,31.738,28.320,69.336,0
213625.535,35.156,38.086,19.531,32.715,85.938,0
213625.539,32.227,37.109,24.414,34.180,64.941,0
213625.543,24.902,30.273,24.414,28.320,24.414,0
213625.547,20.996,30.273,27.832,26.367,0.977,0
213625.551,23.926,32.715,27.344,29.785,36.621,0
213625.555,27.832,34.180,28.320,32.715,92.773,0
213625.559,28.320,31.738,35.156,28.809,61.523,0
213625.563,28.320,29.297,36.133,25.391,23.926,0
213625.567,31.738,31.250,39.551,35.645,31.250,0
213625.570,33.691,30.762,36.621,43.945,53.223,0
213625.574,40.039,29.297,31.738,42.480,41.504,0
213625.578,34.668,26.367,24.414,37.109,2.930,0
213625.582,24.902,23.438,18.066,33.203,17.090,0
213625.586,25.879,22.949,25.879,39.551,34.668,0
213625.590,32.227,24.902,35.156,43.945,-6.348,0
213625.594,30.762,24.414,41.016,39.551,-16.113,0
213625.598,27.344,23.926,45.898,31.738,8.301,0
213625.602,32.715,24.414,45.410,31.738,34.668,0
213625.606,29.785,23.926,44.922,35.645,29.785,0
213625.610,32.227,24.902,42.480,35.156,11.719,0
213625.613,39.551,26.367,32.227,33.691,26.855,0
213625.617,36.621,26.855,26.855,30.762,23.438,0
213625.621,39.551,31.250,29.785,36.621,21.973,0
213625.625,38.574,29.297,33.691,34.180,42.969,0
213625.629,34.180,25.879,33.203,32.715,71.777,0
213625.633,35.645,31.250,29.297,38.574,39.551,0
213625.637,40.527,34.180,23.438,34.180,3.906,0
213625.641,45.410,36.133,24.414,31.738,35.156,0
213625.645,47.363,38.086,31.250,25.879,51.758,0
213625.649,42.480,40.039,35.645,21.973,33.203,0
213625.652,32.715,33.203,37.109,15.625,-0.977,0
213625.656,32.227,28.809,33.203,14.160,-13.184,0
213625.660,35.156,26.855,28.320,22.949,39.062,1
213625.664,35.645,31.250,28.809,28.320,65.918,0
213625.668,30.762,44.434,28.809,22.949,31.250,0
213625.672,27.832,43.457,26.367,23.438,6.836,0
213625.676,24.414,34.668,21.973,26.855,10.254,0
213625.680,20.508,33.203,20.508,24.414,-1.953,0
213625.684,22.461,34.668,23.926,20.508,43.457,0
213625.688,15.137,35.156,23.438,17.090,79.590,0
213625.692,10.742,35.645,18.555,17.090,38.086,0
213625.695,14.648,28.809,22.461,16.113,20.996,0
213625.699,21.973,29.785,30.273,26.367,40.527,0
213625.703,23.438,36.133,27.344,24.902,53.711,0
213625.707,13.184,34.668,26.855,11.230,2.441,0
213625.711,12.207,32.715,22.949,10.742,-1.465,0
213625.715,20.020,32.227,17.578,17.578,57.617,0
213625.719,16.113,31.738,20.996,19.043,60.547,0
213625.723,13.672,30.762,24.414,17.578,30.762,0
213625.727,14.160,27.344,28.809,21.973,52.246,0
213625.731,17.090,27.344,32.715,19.043,30.762,0
213625.735,22.949,28.320,33.203,12.695,32.227,0
213625.738,26.855,27.344,28.809,15.625,54.688,0
213625.742,29.297,30.273,31.250,17.090,7.324,0
213625.746,40.039,34.180,35.645,28.320,14.160,0
213625.750,46.387,33.203,31.738,40.527,54.688,0
213625.754,31.250,28.320,29.785,28.320,20.020,0
213625.758,20.508,29.297,29.297,13.184,6.836,0
213625.762,20.508,28.809,25.391,15.137,76.660,0
213625.766,21.484,24.414,23.926,18.066,91.309,0
213625.770,21.484,28.320,28.809,17.578,43.457,0
213625.774,20.020,32.715,32.227,26.367,53.711,0
213625.777,20.996,29.297,33.203,26.367,52.246,0
213625.781,26.367,33.203,29.785,23.926,33.691,0
213625.785,32.227,39.551,21.973,27.832,4.395,0
213625.789,27.832,34.180,20.508,25.391,31.250,0
213625.793,20.508,28.320,31.738,31.250,62.988,0
213625.797,21.973,31.738,41.016,30.273,20.020,0
213625.801,25.391,36.133,42.480,22.461,4.883,0
213625.805,24.414,33.203,41.016,22.949,24.414,0
213625.809,20.508,27.344,28.320,19.043,27.344,0
213625.813,20.508,23.926,23.926,18.066,26.367,0
213625.817,20.020,25.879,20.508,21.484,54.199,0
213625.820,19.531,33.691,14.160,27.344,83.008,0
213625.824,27.344,38.574,20.020,32.227,85.449,0
213625.828,27.832,30.273,26.855,19.043,62.012,0
213625.832,20.996,27.832,27.344,5.859,19.531,0
213625.836,18.066,35.156,31.738,17.578,33.691,0
213625.840,24.414,37.598,34.180,19.531,57.617,0
213625.844,26.367,34.668,32.227,6.348,28.809,0
213625.848,17.578,29.785,30.762,14.160,28.809,0
213625.852,17.090,29.297,31.738,20.020,56.152,0
213625.856,17.090,30.762,24.414,20.020,47.363,0
213625.860,19.531,36.133,12.695,23.926,50.781,0
213625.863,16.113,35.156,20.996,24.902,52.734,0
213625.867,14.160,29.785,31.250,35.156,34.180,0
213625.871,22.461,31.250,37.109,36.133,31.250,0
213625.875,21.973,31.250,33.691,19.531,24.414,0
213625.879,18.066,29.297,31.738,11.719,6.836,0
213625.883,24.414,28.809,36.621,19.043,11.230,0
213625.887,29.785,28.809,39.062,27.344,24.902,0
213625.891,26.367,31.738,35.156,28.320,13.184,0
213625.895,20.508,31.738,28.809,25.879,5.371,0
213625.899,20.508,28.809,31.738,24.414,13.184,0
213625.902,32.227,32.715,37.109,31.738,38.574,0
213625.906,37.109,34.180,36.621,41.016,84.961,0
213625.910,34.180,29.785,32.715,34.180,72.266,0
213625.914,32.227,36.133,29.785,24.414,47.363,0
213625.918,31.738,38.574,32.715,27.832,21.484,0
213625.922,25.391,30.273,30.762,18.066,-31.250,0
213625.926,20.508,31.738,24.902,9.277,16.113,0
213625.930,20.508,38.086,23.926,24.902,48.340,0
213625.934,20.508,33.691,22.949,25.879,54.199,0
213625.938,22.461,28.809,25.879,16.113,71.289,0
213625.942,24.414,28.809,36.133,20.508,54.199,0
213625.945,25.391,31.250,38.086,22.949,60.547,0
213625.949,25.879,34.668,33.691,22.461,87.402,0
213625.953,29.297,34.180,36.621,36.133,74.219,0
213625.957,35.156,38.086,36.621,42.969,64.453,0
213625.961,27.832,35.645,30.273,24.414,70.801,0
213625.965,20.020,25.879,26.855,20.508,76.172,0
213625.969,24.414,28.320,30.273,29.785,74.707,0
213625.973,25.391,33.203,34.668,27.832,60.059,0
213625.977,30.762,31.250,32.227,27.344,70.312,0
213625.981,27.832,29.785,26.855,20.508,58.105,0
213625.985,20.020,33.203,26.855,18.066,56.152,0
213625.988,20.020,35.156,30.273,25.391,69.336,0
213625.992,20.020,33.691,30.762,31.250,8.789,0
213625.996,22.461,35.645,35.156,34.668,5.371,0
213626.000,25.391,34.180,37.109,32.227,52.246,0
213626.004,24.414,31.250,33.691,27.832,72.266,0
213626.008,22.461,32.715,32.227,21.484,41.504,0
213626.012,22.461,31.738,30.762,22.949,32.715,0
213626.016,24.902,28.320,31.250,28.320,24.414,0
213626.020,28.809,24.414,32.227,27.832,10.254,0
213626.024,26.855,23.438,33.691,23.926,4.883,0
213626.027,18.066,23.926,32.227,18.066,-48.828,0
213626.031,17.578,32.715,32.715,19.531,-20.508,0
213626.035,23.438,40.527,32.715,37.598,-13.184,0
213626.039,17.578,32.227,24.414,34.668,-45.898,0
213626.043,8.301,24.902,14.648,11.719,-43.457,0
213626.047,15.625,28.809,21.484,11.230,-7.324,0
213626.051,19.531,34.180,33.691,16.602,18.555,0
213626.055,14.648,29.785,35.645,12.695,32.715,0
213626.059,19.531,24.902,31.738,14.648,14.160,0
213626.063,28.320,27.344,29.297,21.484,1.465,0
213626.067,29.297,27.344,31.250,27.832,19.043,0
213626.070,33.203,26.367,33.203,25.391,4.395,0
213626.074,32.715,23.438,34.180,19.531,-0.488,0
213626.078,26.855,25.879,27.832,27.832,8.301,0
213626.082,24.414,32.227,26.855,30.273,-0.977,0
213626.086,23.926,33.691,31.250,27.344,-14.648,0
213626.090,31.250,37.109,33.691,32.227,16.113,0
213626.094,34.668,37.598,37.598,33.691,29.785,0
213626.098,28.809,31.250,35.156,31.738,28.320,0
213626.102,26.367,27.832,30.762,34.180,50.293,0
213626.106,30.762,29.785,33.691,31.250,57.617,0
213626.110,32.227,27.832,34.668,29.785,46.875,0
213626.113,31.250,27.832,35.156,28.320,24.414,0
213626.117,28.809,24.414,34.180,19.043,9.766,0
213626.121,30.273,24.414,35.645,25.391,42.969,0
213626.125,28.320,33.203,35.156,30.273,62.500,0
213626.129,24.414,31.250,26.855,25.879,49.316,0
213626.133,25.879,30.762,30.762,33.203,34.180,0
213626.137,23.926,35.156,35.645,41.992,51.758,0
213626.141,24.414,34.668,32.227,31.250,39.551,0
213626.145,25.879,32.715,31.250,19.531,32.715,0
213626.149,25.879,30.273,27.832,22.949,68.848,0
213626.152,28.320,26.855,23.926,28.809,19.531,0
213626.156,26.855,25.879,29.297,32.715,4.395,0
213626.160,23.926,30.762,35.156,27.832,7.812,0
213626.164,24.902,34.180,33.203,18.555,6.348,0
213626.168,21.484,31.250,25.879,15.137,25.391,0
213626.172,19.043,32.715,22.461,20.996,5.371,0
213626.176,23.438,36.621,31.738,25.391,5.859,0
213626.180,22.461,29.785,30.762,21.973,21.973,0
213626.184,23.926,21.973,22.949,29.785,33.203,0
213626.188,30.273,28.809,24.902,27.344,41.016,0
213626.192,25.391,32.715,29.297,21.484,43.457,0
213626.195,21.484,27.832,31.250,29.297,67.383,0
213626.199,27.344,32.227,29.785,32.715,57.129,0
213626.203,27.832,34.180,22.949,28.320,44.922,0
213626.207,29.297,30.762,25.879,30.762,24.414,0
213626.211,35.645,33.691,33.203,32.227,14.648,0
213626.215,31.738,33.203,28.320,23.438,31.250,0
213626.219,18.555,29.297,24.902,17.578,41.016,0
213626.223,19.531,30.273,25.879,20.996,34.180,0
213626.227,25.391,33.203,26.367,20.996,65.430,0
213626.231,25.391,31.738,27.832,19.043,71.289,0
213626.235,27.832,30.273,27.832,22.949,27.344,0
213626.238,31.738,36.133,15.625,27.832,56.641,0
213626.242,33.691,38.574,10.254,36.133,96.680,0
213626.246,34.668,36.133,23.438,26.367,32.227,0
213626.250,31.250,37.598,27.344,16.113,8.301,0
213626.254,26.367,41.504,24.902,22.461,42.480,0
213626.258,27.344,37.598,25.391,23.926,65.918,0
213626.262,29.297,28.809,27.344,23.926,82.031,0
213626.266,22.949,28.320,31.738,15.137,93.750,0
213626.270,20.020,26.855,33.691,12.207,101.074,0
213626.274,26.367,24.414,34.668,21.973,112.305,2
213626.277,25.879,27.832,29.297,26.855,75.684,0
213626.281,26.367,34.668,23.438,30.762,54.199,0
213626.285,23.926,35.156,21.484,24.414,52.734,0
213626.289,18.555,30.762,29.297,18.066,10.254,0
213626.293,18.555,31.250,36.621,22.949,11.230,0
213626.297,17.090,31.738,37.598,10.254,-1.465,0
213626.301,16.113,28.809,42.480,10.254,3.906,0
213626.305,13.672,27.344,39.062,20.020,42.480,0
213626.309,11.230,23.926,30.273,16.113,36.621,0
213626.313,13.184,24.414,28.320,20.996,42.480,0
213626.317,16.113,31.250,33.691,33.203,71.289,0
213626.320,18.555,36.133,34.668,25.879,20.996,0
213626.324,24.902,36.621,32.227,18.066,-15.625,0
213626.328,32.715,36.621,26.855,30.762,4.395,0
213626.332,28.320,36.621,24.902,36.133,30.273,0
213626.336,20.508,33.203,25.391,28.320,63.477,0
213626.340,22.949,30.273,28.320,23.438,59.082,0
213626.344,22.949,31.250,38.086,28.809,40.039,0
213626.348,22.949,33.691,35.645,29.785,38.086,0
213626.352,23.926,30.762,28.809,17.578,42.969,0
213626.356,24.414,33.691,20.996,23.926,77.148,0
213626.360,29.785,45.410,20.508,42.969,121.094,0
213626.363,31.738,44.922,29.785,33.691,114.258,0
213626.367,27.344,39.062,30.762,16.602,88.379,0
213626.371,26.855,37.109,29.297,20.996,58.105,0
213626.375,25.391,35.156,30.273,21.484,49.316,0
213626.379,20.996,34.180,29.785,19.043,85.938,0
213626.383,20.508,34.668,24.414,20.508,65.918,0
213626.387,21.484,34.668,23.438,22.949,49.316,0
213626.391,22.949,35.156,28.320,24.414,53.711,0
213626.395,25.391,41.016,29.297,32.227,40.039,0
213626.399,27.832,44.434,23.438,43.945,38.086,0
213626.402,26.855,37.109,23.438,26.367,9.277,0
213626.406,29.297,31.250,29.785,11.719,30.273,0
213626.410,30.273,28.809,39.062,23.438,62.012,0
213626.414,29.297,31.250,40.039,26.855,58.105,0
213626.418,33.203,33.691,34.668,29.297,13.672,0
213626.422,29.785,24.902,35.645,35.645,-2.930,0
213626.426,23.438,26.855,31.250,32.715,5.371,0
213626.430,26.855,32.227,29.297,33.203,3.418,0
213626.434,31.250,32.227,29.785,41.504,22.461,0
213626.438,25.879,35.156,35.156,33.203,-14.160,0
213626.442,26.855,33.691,41.992,28.320,-16.602,0
213626.445,26.367,32.715,38.086,29.785,-22.949,0
213626.449,20.508,28.809,36.621,21.973,-27.832,0
213626.453,21.973,22.461,33.203,23.438,15.137,0
213626.457,24.902,27.832,29.785,31.250,-27.832,0
213626.461,26.855,31.250,33.691,34.180,9.277,0
213626.465,25.391,24.414,35.645,27.344,67.383,0
213626.469,19.043,22.461,34.668,24.414,67.871,0
213626.473,19.531,26.855,26.367,27.832,66.406,0
213626.477,20.996,28.320,20.020,26.855,40.039,0
213626.481,17.090,30.273,26.855,24.902,50.781,0
213626.485,15.625,30.762,30.762,26.855,42.480,0
213626.488,24.902,28.320,27.832,30.762,23.926,0
213626.492,37.109,27.344,24.414,37.109,27.344,0
213626.496,41.504,33.691,26.367,38.086,41.016,0
213626.500,30.273,33.203,28.320,24.414,47.363,0
213626.504,21.484,26.367,29.297,15.625,41.504,0
213626.508,25.879,31.250,32.715,21.484,72.266,0
213626.512,30.762,37.598,34.668,31.738,49.316,0
213626.516,29.785,36.621,32.715,28.320,15.137,0
213626.520,24.414,31.250,24.902,21.484,15.137,0
213626.524,29.785,29.785,20.020,30.273,15.625,0
213626.527,40.527,35.156,24.902,39.551,6.348,0
213626.531,40.527,35.156,28.809,29.785,0.488,0
213626.535,39.062,29.785,27.344,15.137,-17.578,0
213626.539,41.992,27.344,23.926,19.043,-18.066,0
213626.543,40.527,28.320,24.414,33.203,8.301,0
213626.547,35.156,29.785,27.832,27.344,16.113,0
213626.551,28.809,28.809,29.785,22.461,2.930,0
213626.555,30.762,31.250,39.062,39.062,16.113,0
213626.559,33.691,38.086,39.551,42.480,48.340,0
213626.563,30.273,40.039,28.320,35.156,46.387,0
213626.567,22.949,36.621,24.902,33.203,-8.789,0
213626.570,18.555,33.691,30.273,34.180,-9.766,0
213626.574,18.066,34.668,37.109,36.621,46.387,0
213626.578,20.508,36.621,39.551,29.297,52.246,0
213626.582,21.484,31.738,41.504,15.137,1.953,0
213626.586,20.020,29.785,39.551,12.695,-11.719,0
213626.590,22.949,28.809,34.180,22.949,40.527,0
213626.594,28.320,30.273,28.320,34.668,45.898,0
213626.598,31.738,36.621,25.879,35.156,45.898,0
213626.602,32.227,38.086,30.762,33.691,79.102,0
213626.606,32.227,33.691,34.668,35.645,65.430,0
213626.610,27.832,26.855,30.273,30.273,27.344,0
213626.613,24.414,24.902,22.461,24.902,18.555,0
213626.617,23.926,29.785,33.203,34.180,43.457,0
213626.621,25.879,33.203,43.945,31.250,0.000,0
213626.625,30.273,30.273,32.227,17.578,-49.805,0
213626.629,30.762,28.809,19.531,22.949,21.484,0
213626.633,28.320,34.668,26.855,35.156,58.105,0
213626.637,25.879,35.156,36.133,37.598,51.270,0
213626.641,26.855,29.297,37.109,26.855,38.574,0
213626.645,24.414,28.809,32.715,20.996,-36.133,0
213626.649,21.973,28.320,25.391,25.391,-48.828,0
213626.652,23.926,27.344,27.344,27.832,-27.832,0
213626.656,30.762,28.809,32.227,31.250,-6.836,0
213626.660,33.691,26.855,31.250,36.133,38.086,0
213626.664,34.180,29.297,25.879,38.574,58.105,0
213626.668,34.180,33.691,21.484,32.715,0.977,0
213626.672,30.273,37.109,22.461,27.344,-27.344,0
213626.676,28.809,39.062,24.414,30.762,-2.930,0
213626.680,26.855,38.086,26.855,40.039,14.160,0
213626.684,27.344,41.504,29.297,32.227,-27.832,0
213626.688,31.738,38.086,30.762,28.809,-29.785,0
213626.692,41.504,34.668,31.738,37.598,67.383,0
213626.695,39.551,37.109,30.762,31.738,76.660,0
213626.699,25.879,37.598,26.855,20.508,55.176,0
213626.703,23.926,40.527,22.461,19.043,56.641,0
213626.707,28.320,41.016,25.391,20.508,42.969,0
213626.711,31.250,38.086,31.250,23.438,35.645,0
213626.715,28.809,40.039,23.926,20.996,27.344,0
213626.719,25.879,38.574,7.324,15.137,30.273,0
213626.723,25.391,29.785,8.301,23.926,54.199,0
213626.727,30.273,26.367,20.508,33.691,62.988,0
213626.731,30.273,31.738,28.320,20.508,-26.855,0
213626.735,26.855,32.715,35.156,16.113,-18.066,0
213626.738,32.227,29.785,37.109,25.879,2.930,0
213626.742,36.621,32.227,34.180,29.297,-13.184,0
213626.746,39.062,38.574,35.156,32.715,2.930,0
213626.750,41.016,40.039,32.227,32.715,-4.883,0
213626.754,37.598,36.133,22.949,29.297,-3.418,0
213626.758,33.203,28.809,22.949,19.531,-43.457,0
213626.762,34.180,30.762,25.391,20.996,-30.273,0
213626.766,38.086,38.574,29.297,35.156,7.324,0
213626.770,36.621,33.691,36.133,34.180,40.527,0
213626.774,32.715,24.902,33.203,23.438,88.867,0
213626.777,26.367,24.902,31.250,13.672,32.227,0
213626.781,20.996,25.879,33.203,16.602,39.551,0
213626.785,23.438,23.926,36.133,25.879,48.828,0
213626.789,22.949,27.344,40.039,25.879,24.414,0
213626.793,24.902,36.133,37.598,21.973,74.219,0
213626.797,25.391,32.227,38.086,24.902,86.914,0
213626.801,21.484,20.996,35.156,24.414,61.035,0
213626.805,21.484,23.438,25.879,26.855,67.383,1
213626.809,24.902,30.273,26.367,21.973,81.055,0
213626.813,23.926,33.691,24.414,8.301,71.777,0
213626.817,24.902,35.645,11.230,17.578,63.477,0
213626.820,25.879,34.180,13.672,16.602,26.855,0
213626.824,21.484,31.250,30.273,7.812,-3.418,0
213626.828,17.578,27.832,39.551,17.578,44.434,0
213626.832,18.066,29.297,39.062,22.461,77.148,0
213626.836,17.090,26.855,35.156,23.926,43.945,0
213626.840,14.160,21.484,30.273,16.602,17.578,0
213626.844,12.695,26.855,26.855,14.160,10.254,0
213626.848,14.648,37.109,24.414,20.996,27.344,0
213626.852,16.113,40.039,20.508,22.461,25.391,0
213626.856,20.020,39.062,20.996,26.367,10.254,0
213626.860,25.391,35.645,24.902,26.367,-7.324,0
213626.863,26.367,35.156,31.250,27.832,-23.438,0
213626.867,27.832,36.621,26.855,25.879,-19.043,0
213626.871,23.438,31.250,26.367,27.344,4.883,0
213626.875,24.414,33.203,39.551,34.180,35.156,0
213626.879,33.691,35.156,39.551,31.738,30.273,0
213626.883,35.156,29.297,35.645,34.668,27.344,0
213626.887,31.250,28.809,38.086,37.598,25.879,0
213626.891,29.297,32.715,28.809,37.109,14.160,0
213626.895,31.738,32.715,18.555,37.109,41.016,0
213626.899,31.738,32.715,21.973,30.273,62.500,0
213626.902,25.391,25.879,26.855,21.973,43.457,0
213626.906,24.414,16.113,31.250,27.832,22.949,0
213626.910,31.250,21.973,39.062,36.621,17.578,0
213626.914,39.062,29.297,44.922,29.785,28.320,0
213626.918,25.879,27.832,40.527,20.508,68.848,0
213626.922,22.461,31.738,36.133,28.320,74.707,0
213626.926,34.668,34.180,36.133,34.180,43.457,0
213626.930,30.273,25.879,29.297,22.949,48.340,0
213626.934,26.367,24.902,26.855,23.926,54.688,0
213626.938,29.785,29.297,22.461,30.762,37.598,0
213626.942,24.902,27.344,19.043,21.484,17.578,0
213626.945,22.949,24.414,28.320,16.602,29.297,0
213626.949,25.391,29.297,32.715,22.949,20.996,0
213626.953,21.973,31.738,31.738,23.438,-7.324,0
213626.957,23.438,30.273,29.297,18.066,-27.832,0
213626.961,29.297,32.227,34.180,19.531,-13.184,0
213626.965,32.227,30.273,33.203,23.438,20.020,0
213626.969,37.598,28.809,27.344,25.391,20.508,0
213626.973,38.086,30.273,30.762,30.273,12.695,0
213626.977,32.227,31.738,29.297,35.156,22.461,0
213626.981,28.809,34.180,30.762,37.109,32.227,0
213626.985,26.855,32.715,28.809,30.273,32.227,0
213626.988,26.367,29.297,25.391,28.320,9.766,0
213626.992,25.879,31.250,32.715,23.926,11.719,0
213626.996,28.320,36.133,38.574,23.926,13.184,0
213627.000,28.320,35.156,38.086,20.020,-5.859,0
213627.004,24.414,29.785,30.273,16.602,-3.418,0
213627.008,28.809,30.762,19.531,28.320,44.922,0
213627.012,39.551,34.668,21.484,37.109,53.223,0
213627.016,42.480,39.062,32.227,41.504,28.809,0
213627.020,33.691,38.086,26.855,33.691,7.812,0
213627.024,22.949,31.738,20.020,29.297,7.324,0
213627.027,20.020,29.297,26.367,30.762,8.301,0
213627.031,26.367,29.297,24.902,26.855,20.508,0
213627.035,22.949,29.297,19.043,24.414,22.949,0
213627.039,20.508,32.715,24.902,24.902,12.695,0
213627.043,23.438,30.273,33.691,21.484,3.418,0
213627.047,22.461,31.250,38.086,20.508,-20.508,0
213627.051,24.414,37.598,42.969,31.250,-14.160,0
213627.055,26.367,34.180,39.062,33.691,-1.465,0
213627.059,25.391,27.344,34.668,31.250,0.977,0
213627.063,20.508,22.461,33.203,29.785,11.230,0
213627.067,20.996,24.414,30.762,28.809,29.785,0
213627.070,23.926,28.320,24.902,36.621,54.688,0
213627.074,20.996,31.250,20.996,40.527,8.789,0
213627.078,19.531,35.156,24.902,27.832,-13.184,0
213627.082,18.066,28.320,27.832,21.484,48.340,0
213627.086,15.625,22.461,32.227,24.902,74.219,0
213627.090,20.020,29.297,34.668,24.414,13.184,0
213627.094,24.902,29.785,34.180,21.484,-2.930,0
213627.098,20.996,24.902,28.809,25.391,39.551,0
213627.102,19.043,27.344,21.484,24.902,55.176,0
213627.106,19.531,27.832,23.438,20.020,51.758,0
213627.110,20.508,25.391,22.461,16.113,20.508,0
213627.113,22.461,25.391,23.438,21.973,31.250,0
213627.117,19.043,24.902,28.809,26.367,41.992,0
213627.121,18.066,29.297,27.344,18.555,16.113,0
213627.125,23.438,30.762,26.855,21.484,29.297,0
213627.129,24.414,30.762,19.531,26.855,65.430,0
213627.133,28.809,38.086,19.531,29.297,38.574,0
213627.137,39.062,41.016,34.180,34.668,4.883,0
213627.141,32.227,36.621,31.738,32.715,2.930,0
213627.145,18.555,28.809,20.996,25.391,47.363,0
213627.149,17.090,24.414,24.902,20.996,47.852,0
213627.152,21.484,26.367,32.227,21.484,15.137,0
213627.156,22.461,22.949,29.297,35.156,9.766,0
213627.160,23.926,20.508,23.438,32.715,18.555,0
213627.164,26.367,24.414,24.414,24.902,36.621,0
213627.168,31.250,30.273,25.879,33.203,4.883,0
213627.172,30.273,36.621,25.879,26.855,18.066,0
213627.176,22.949,36.621,32.227,18.066,47.852,0
213627.180,28.809,37.109,32.715,26.367,29.297,0
213627.184,32.715,42.969,23.926,28.809,20.508,0
213627.188,24.902,38.574,24.414,15.137,39.062,0
213627.192,15.625,25.879,29.297,11.719,49.316,0
213627.195,20.508,23.926,23.438,18.066,10.742,0
213627.199,35.645,32.227,27.344,26.367,-14.160,0
213627.203,32.715,37.109,31.738,33.691,41.992,0
213627.207,29.785,37.109,27.832,33.691,62.500,0
213627.211,32.227,34.668,26.855,47.363,21.973,0
213627.215,29.785,35.645,19.531,40.527,-5.371,0
213627.219,29.785,34.180,22.949,25.391,11.230,0
213627.223,23.438,20.996,32.227,23.926,20.020,0
213627.227,20.508,20.508,35.645,16.602,4.395,0
213627.231,25.879,31.738,38.086,17.090,-1.465,0
213627.235,23.926,32.715,38.086,15.137,0.000,0
213627.238,26.855,31.738,31.738,19.043,35.156,0
213627.242,27.832,32.715,26.367,21.484,8.789,0
213627.246,27.344,31.738,32.227,24.902,6.836,0
213627.250,33.691,31.738,32.227,30.273,27.344,0
213627.254,32.227,35.156,29.297,28.809,-10.742,0
213627.258,31.738,39.551,32.715,38.574,-31.738,0
213627.262,38.574,43.945,40.527,43.945,-6.836,0
213627.266,27.832,35.645,36.621,30.273,-3.906,0
213627.270,12.695,24.902,30.762,13.672,-21.973,0
213627.274,13.184,23.926,32.715,10.254,-5.859,0
213627.277,20.020,27.344,31.250,16.602,-4.395,0
213627.281,23.926,25.391,26.855,14.648,12.695,0
213627.285,28.809,24.414,26.855,11.719,19.043,0
213627.289,31.250,26.855,23.926,13.672,-9.766,0
213627.293,34.668,34.180,26.855,24.902,16.113,0
213627.297,34.180,42.969,27.832,24.414,28.320,0
213627.301,34.180,43.945,32.227,27.344,-9.277,0
213627.305,38.574,40.039,38.574,35.156,-18.555,0
213627.309,23.438,25.391,33.691,19.531,-2.441,0
213627.313,16.113,19.043,32.715,12.207,4.395,0
213627.317,24.414,26.367,27.344,23.438,10.742,0
213627.320,21.973,24.414,18.066,22.461,-22.949,0
213627.324,20.996,21.973,20.020,18.066,-12.695,0
213627.328,25.391,23.438,19.043,19.531,4.883,0
213627.332,21.973,26.367,21.973,16.113,-33.203,0
213627.336,20.996,26.367,25.879,25.391,2.930,0
213627.340,21.973,24.902,27.832,32.715,48.340,0
213627.344,17.090,23.926,21.973,27.832,38.574,0
213627.348,17.090,22.949,17.578,20.996,39.062,0
213627.352,20.508,26.855,30.762,17.578,47.363,0
213627.356,18.555,31.250,37.598,23.438,41.992,0
213627.360,15.625,30.273,33.203,20.508,36.133,0
213627.363,12.207,27.832,27.832,8.301,13.672,0
213627.367,17.578,30.273,24.902,9.277,16.602,0
213627.371,26.855,30.762,26.367,21.973,38.574,0
213627.375,26.855,25.391,28.809,26.855,12.695,0
213627.379,24.902,27.344,30.273,24.414,-7.324,0
213627.383,28.320,34.180,32.227,27.832,43.457,0
213627.387,28.320,36.133,31.738,21.973,85.938,1
213627.391,28.320,36.621,32.715,24.414,66.406,0
213627.395,27.832,33.203,30.762,25.391,30.762,0
213627.399,23.438,27.832,28.809,21.973,80.078,0
213627.402,22.949,25.391,32.227,21.973,92.773,0
213627.406,27.832,22.461,36.133,24.414,34.668,0
213627.410,30.273,22.461,36.621,29.785,1.953,0
213627.414,23.926,24.414,33.203,32.715,-21.484,0
213627.418,26.855,30.273,29.785,28.809,19.531,0
213627.422,32.715,36.621,31.738,19.531,7.324,0
213627.426,27.832,30.273,32.227,24.414,-34.668,0
213627.430,27.344,25.391,32.715,28.320,13.184,0
213627.434,27.344,29.297,36.621,22.949,53.223,0
213627.438,25.391,29.785,40.527,18.066,47.852,0
213627.442,20.020,23.926,35.156,16.113,43.457,0
213627.445,14.160,21.484,27.344,13.184,41.992,0
213627.449,19.043,25.879,30.273,20.996,43.457,0
213627.453,20.996,27.344,31.250,28.809,54.199,0
213627.457,23.438,29.297,31.250,22.461,53.223,0
213627.461,29.785,27.832,36.621,21.484,59.570,0
213627.465,29.785,28.320,41.016,21.973,17.578,0
213627.469,25.391,35.156,41.016,17.090,4.883,0
213627.473,28.809,37.598,34.668,21.973,79.102,0
213627.477,33.203,38.574,25.879,36.621,46.387,0
213627.481,30.762,38.574,24.414,34.180,9.277,0
213627.485,28.320,36.133,24.414,24.902,58.105,0
213627.488,26.855,29.297,27.344,19.043,76.660,0
213627.492,27.344,26.367,25.391,20.508,33.203,0
213627.496,26.855,32.715,21.484,21.484,30.762,0
213627.500,29.785,38.086,25.391,18.066,82.520,0
213627.504,31.738,34.668,27.832,19.531,76.660,0
213627.508,29.785,32.227,26.367,14.160,35.156,0
213627.512,30.762,35.645,28.320,12.695,16.602,0
213627.516,34.180,35.156,31.250,15.137,46.875,0
213627.520,33.691,35.156,32.715,25.391,60.547,0
213627.524,34.668,35.156,29.785,31.250,42.480,0
213627.527,29.785,29.785,14.648,23.926,26.855,0
213627.531,20.508,28.809,15.625,17.578,24.414,0
213627.535,22.461,33.203,30.762,11.719,12.695,0
213627.539,25.391,32.715,30.762,15.137,-0.488,0
213627.543,25.391,30.762,31.738,17.578,0.977,0
213627.547,28.809,30.273,40.039,24.902,54.199,0
213627.551,27.832,30.762,38.574,34.180,72.266,0
213627.555,25.879,32.227,33.691,32.715,15.625,0
213627.559,31.738,37.109,31.250,33.203,-0.488,0
213627.563,38.086,37.598,32.227,40.039,23.926,0
213627.567,39.062,36.133,33.691,41.016,59.082,0
213627.570,33.203,37.109,29.297,21.973,50.293,0
213627.574,26.367,33.203,28.809,18.555,29.785,0
213627.578,23.926,30.273,30.273,23.438,32.227,0
213627.582,26.367,26.855,25.879,11.230,39.551,0
213627.586,27.344,22.949,21.973,11.230,81.543,0
213627.590,26.367,27.832,29.297,19.043,94.727,0
213627.594,27.344,33.691,36.133,26.367,75.684,0
213627.598,26.855,34.180,38.086,25.879,51.270,0
213627.602,21.973,29.785,46.387,20.020,26.855,0
213627.606,22.949,25.879,43.457,17.578,9.277,0
213627.610,30.273,29.297,40.039,23.926,-20.508,0
213627.613,30.762,29.297,44.922,33.691,2.441,0
213627.617,26.855,26.855,39.551,33.691,50.781,0
213627.621,24.414,28.809,27.832,31.738,75.195,0
213627.625,30.273,34.180,21.484,28.320,70.801,0
213627.629,32.715,34.668,30.273,20.996,56.152,0
213627.633,28.320,31.738,41.016,18.066,39.062,0
213627.637,29.297,35.156,38.086,27.832,58.594,0
213627.641,34.668,38.086,38.574,35.645,81.055,0
213627.645,41.504,41.504,43.945,31.738,39.062,0
213627.649,39.062,39.551,39.062,28.809,2.441,0
213627.652,33.203,32.715,35.156,28.320,21.973,0
213627.656,34.668,34.668,33.203,32.715,72.266,0
213627.660,33.691,40.527,28.809,30.762,61.035,0
213627.664,29.785,39.551,30.273,27.832,4.883,0
213627.668,36.133,39.551,29.785,24.414,23.926,0
213627.672,44.434,38.574,26.367,18.555,14.160,0
213627.676,38.574,37.598,32.227,17.578,-15.625,0
213627.680,33.691,41.504,37.598,20.508,45.898,0
213627.684,33.691,38.086,38.086,23.926,99.121,0
213627.688,27.832,29.785,31.738,23.926,86.426,0
213627.692,23.438,29.297,18.066,18.555,46.875,0
213627.695,26.855,33.691,20.996,24.414,28.809,0
213627.699,31.250,33.691,35.156,33.203,32.227,0
213627.703,25.879,28.809,37.598,21.484,28.809,0
213627.707,24.902,26.855,36.133,11.230,11.719,0
213627.711,27.344,26.367,30.762,16.113,13.672,0
213627.715,27.344,27.832,27.344,17.578,36.621,0
213627.719,31.738,27.344,32.227,19.043,20.996,0
213627.723,30.762,26.855,33.691,20.996,-20.020,0
213627.727,29.297,29.297,30.273,22.949,-11.719,0
213627.731,37.109,30.762,30.762,28.809,29.297,0
213627.735,36.621,27.344,31.738,22.949,21.484,0
213627.738,30.762,27.344,32.715,14.648,32.227,0
213627.742,28.809,32.715,31.738,11.230,77.148,0
213627.746,28.320,35.645,29.785,15.137,66.895,0
213627.750,24.902,32.715,24.902,16.113,17.578,0
213627.754,21.484,32.227,22.949,6.836,14.160,0
213627.758,23.926,35.156,29.785,1.465,27.344,0
213627.762,28.320,37.109,31.250,1.953,30.273,0
213627.766,29.785,33.691,23.926,4.883,49.316,0
213627.770,35.645,33.203,23.926,8.789,61.523,0
213627.774,38.086,36.621,27.344,16.602,55.176,0
213627.777,42.480,34.180,32.227,26.367,44.922,0
213627.781,46.387,32.227,32.227,23.926,39.551,0
213627.785,40.039,37.109,28.320,23.926,49.316,0
213627.789,35.645,41.016,25.879,20.020,21.973,0
213627.793,38.086,38.574,17.578,9.277,-8.301,0
213627.797,43.457,38.574,20.996,8.301,-13.184,0
213627.801,38.086,33.691,34.180,15.625,10.742,0
213627.805,29.297,26.855,37.598,22.949,59.570,0
213627.809,26.367,28.320,33.691,17.578,70.312,0
213627.813,31.250,35.645,34.180,16.602,74.219,0
213627.817,37.598,38.086,35.645,23.926,74.707,0
213627.820,37.598,36.621,20.996,24.902,47.852,0
213627.824,35.156,38.574,15.625,18.555,47.852,0
213627.828,35.156,38.574,21.484,13.184,45.898,0
213627.832,34.668,35.645,20.508,14.648,54.688,0
213627.836,37.109,33.203,28.809,14.648,80.078,0
213627.840,37.598,33.203,35.645,6.836,49.805,0
213627.844,35.156,34.668,34.180,9.766,46.387,0
213627.848,36.133,35.645,32.715,27.832,67.383,0
213627.852,41.504,38.086,33.691,28.320,54.199,0
213627.856,42.480,40.039,34.180,16.113,29.785,0
213627.860,32.227,33.691,32.227,15.137,34.668,0
213627.863,25.879,28.320,26.367,20.508,81.543,0
213627.867,28.809,38.574,23.926,19.043,73.242,0
213627.871,45.898,42.969,21.973,24.414,23.438,0
213627.875,46.387,32.715,25.391,29.297,25.879,0
213627.879,13.672,25.391,32.715,14.648,48.340,0
213627.883,4.395,22.461,30.762,8.789,48.340,0
213627.887,10.742,24.902,37.109,14.160,30.762,0
213627.891,6.836,28.320,39.062,6.836,-11.230,0
213627.895,4.395,29.785,31.738,5.371,-6.836,0
213627.899,1.953,32.715,36.133,9.277,36.133,0
213627.902,1.953,32.227,39.062,3.418,0.977,0
213627.906,8.789,34.180,37.598,4.883,0.977,0
213627.910,17.090,35.645,29.785,8.301,28.809,0
213627.914,20.020,29.297,19.531,7.812,13.672,0
213627.918,21.484,29.297,23.438,12.207,8.789,0
213627.922,23.438,36.621,34.668,17.090,17.090,0
213627.926,22.949,38.574,37.109,25.879,4.883,0
213627.930,25.391,38.086,29.297,18.066,-10.254,0
213627.934,24.414,37.109,27.344,0.488,-27.832,0
213627.938,17.578,36.621,34.668,3.418,-10.254,0
213627.942,22.949,40.039,38.574,2.441,-3.418,0
213627.945,29.785,40.039,38.086,-1.465,-47.852,0
213627.949,18.555,35.156,41.016,-2.441,3.906,0
213627.953,15.625,30.273,38.574,1.953,37.109,0
213627.957,19.043,31.250,33.691,7.324,20.996,0
213627.961,15.625,32.227,31.250,7.812,29.297,0
213627.965,13.672,28.809,29.297,8.789,28.320,0
213627.969,8.301,26.855,26.855,18.066,31.250,0
213627.973,7.324,27.832,31.738,17.090,6.836,0
213627.977,13.184,31.738,31.738,15.137,-14.648,0
213627.981,14.648,35.645,25.879,21.973,-3.418,0
213627.985,19.531,39.551,30.273,25.879,23.438,0
213627.988,23.926,42.480,27.832,20.020,35.156,0
213627.992,25.879,40.527,22.461,5.859,1.953,0
213627.996,28.320,37.598,30.762,13.184,4.395,0
213628.000,24.902,37.598,35.156,23.926,23.438,0
213628.004,24.414,36.133,29.785,16.602,-5.859,0
213628.008,27.344,36.621,31.250,7.324,6.348,0
213628.012,25.391,39.062,32.715,3.906,35.645,0
213628.016,24.414,37.598,32.715,7.812,23.438,0
213628.020,25.391,36.133,31.738,3.906,21.973,0
213628.024,20.996,31.738,27.344,6.836,-2.930,0
213628.027,15.625,29.297,24.414,6.836,-24.414,0
213628.031,20.020,31.738,22.949,1.465,-14.160,0
213628.035,24.902,29.297,23.438,1.465,-17.090,0
213628.039,25.879,20.508,33.203,0.000,-39.062,0
213628.043,31.250,20.508,37.109,12.695,-16.602,0
213628.047,28.320,27.344,34.180,17.090,23.438,0
213628.051,22.949,30.273,31.738,15.625,1.465,0
213628.055,26.367,30.273,29.297,22.949,32.715,0
213628.059,30.273,32.715,26.855,24.902,37.598,0
213628.063,31.738,35.645,26.367,32.227,-0.488,0
213628.067,32.227,30.762,28.320,42.480,3.418,0
213628.070,34.180,25.879,27.832,24.902,7.812,0
213628.074,39.062,30.273,29.297,20.508,25.391,0
213628.078,38.574,36.621,32.715,26.367,-12.695,0
213628.082,32.715,36.133,37.598,11.230,-46.387,0
213628.086,29.785,35.156,34.180,11.230,17.090,1
213628.090,34.180,35.645,26.367,20.996,48.828,0
213628.094,37.109,34.668,30.273,19.043,28.320,0
213628.098,29.785,37.598,36.621,13.184,55.176,0
213628.102,19.531,34.668,29.785,10.254,59.570,0
213628.106,18.555,28.320,28.320,3.906,52.734,0
213628.110,19.043,29.785,31.738,2.930,73.242,0
213628.113,22.461,35.156,26.855,9.277,115.723,0
213628.117,27.344,31.250,23.926,16.113,101.562,0
213628.121,30.273,29.297,22.461,20.508,72.754,0
213628.125,33.691,36.133,26.855,5.371,79.590,0
213628.129,33.691,41.504,30.273,-4.395,62.012,0
213628.133,37.598,41.504,26.367,5.859,53.711,0
213628.137,41.992,38.574,23.926,17.090,67.871,0
213628.141,34.668,39.551,24.414,20.508,42.969,0
213628.145,31.250,39.062,24.414,19.043,25.391,0
213628.149,28.320,37.109,18.066,17.090,88.379,0
213628.152,18.555,29.297,19.531,9.766,104.980,0
213628.156,19.043,26.855,25.879,19.531,39.062,0
213628.160,24.414,30.273,26.855,23.926,23.438,0
213628.164,24.902,31.738,28.320,12.695,23.438,0
213628.168,22.949,32.227,30.273,9.277,-2.930,0
213628.172,24.414,29.297,28.320,10.742,-31.250,0
213628.176,26.855,26.367,32.715,18.066,-6.836,0
213628.180,28.320,31.738,43.945,19.043,41.016,0
213628.184,22.949,33.691,39.551,7.812,2.441,0
213628.188,16.602,30.273,33.203,1.953,-43.457,0
213628.192,14.160,27.344,33.691,9.766,0.000,0
213628.195,18.066,30.273,33.203,19.043,23.926,0
213628.199,21.973,33.691,27.832,29.785,20.020,0
213628.203,20.996,28.809,20.508,18.555,15.137,0
213628.207,17.578,26.855,24.902,2.930,45.410,0
213628.211,15.137,25.391,26.367,4.883,69.824,0
213628.215,17.578,21.973,24.902,6.836,46.387,0
213628.219,19.043,24.902,23.926,12.207,45.898,0
213628.223,22.461,27.832,26.367,27.344,28.320,0
213628.227,26.855,27.344,35.156,29.297,25.879,0
213628.231,20.508,22.949,34.180,21.973,57.129,0
213628.235,10.254,20.508,29.785,27.832,65.430,0
213628.238,12.207,24.414,28.809,20.508,52.734,0
213628.242,19.531,26.367,31.250,13.184,60.547,0
213628.246,21.484,27.344,34.668,18.555,87.891,0
213628.250,20.020,29.297,32.227,22.461,70.801,0
213628.254,24.414,32.227,31.738,29.785,95.703,0
213628.258,29.785,36.133,32.227,33.203,112.305,0
213628.262,25.879,36.621,21.973,21.973,91.797,0
213628.266,28.320,37.598,21.973,21.973,93.750,0
213628.270,30.762,39.062,32.715,23.438,56.152,0
213628.274,25.879,31.250,33.203,13.672,65.430,0
213628.277,22.949,24.414,32.227,3.906,49.805,0
213628.281,20.508,24.902,33.691,6.348,17.090,0
213628.285,22.949,26.367,33.691,24.902,60.547,0
213628.289,27.344,32.715,31.738,30.273,65.918,0
213628.293,28.320,30.762,35.156,27.832,53.711,0
213628.297,31.250,26.367,39.062,37.109,53.711,0
213628.301,40.527,34.180,35.645,44.922,36.621,0
213628.305,46.875,37.598,34.668,43.945,65.918,0
213628.309,41.992,34.668,38.086,36.621,83.496,0
213628.313,25.879,29.785,32.227,17.578,32.227,0
213628.317,20.996,25.879,27.832,9.277,18.555,0
213628.320,26.855,27.832,27.832,13.672,9.277,0
213628.324,25.879,30.273,28.320,20.996,-5.859,0
213628.328,19.531,29.297,31.250,17.090,31.738,0
213628.332,16.602,27.344,25.391,8.789,27.344,0
213628.336,13.184,26.855,23.438,6.836,-12.207,0
213628.340,16.113,30.762,34.668,15.625,2.930,0
213628.344,20.508,32.227,42.480,27.344,49.316,0
213628.348,21.973,29.785,39.062,25.391,42.969,0
213628.352,29.297,27.832,35.156,19.043,37.598,0
213628.356,34.668,27.832,33.691,12.207,23.438,0
213628.360,34.180,28.320,34.668,8.789,36.133,0
213628.363,36.133,23.438,36.133,14.648,68.359,0
213628.367,37.598,23.926,33.691,14.648,49.316,0
213628.371,36.133,28.320,32.227,16.113,45.410,0
213628.375,40.039,35.156,30.762,22.949,28.320,0
213628.379,44.434,39.551,35.645,11.230,29.297,0
213628.383,39.062,37.598,36.621,6.348,12.695,0
213628.387,36.621,33.691,34.668,11.719,1.953,0
213628.391,41.504,30.273,38.086,20.508,23.926,0
213628.395,41.504,32.715,34.668,25.391,14.648,0
213628.399,37.109,35.156,34.180,16.113,20.996,0
213628.402,36.621,33.691,35.645,11.230,33.203,0
213628.406,38.086,29.785,29.785,14.648,20.508,0
213628.410,41.016,29.785,29.785,17.578,47.852,0
213628.414,37.109,33.691,23.438,21.973,58.594,0
213628.418,32.227,34.668,17.090,26.367,83.496,0
213628.422,32.227,34.180,25.879,25.879,70.801,0
213628.426,27.832,30.762,34.668,25.879,16.113,0
213628.430,27.344,27.832,38.086,22.949,35.156,0
213628.434,34.668,28.320,35.645,22.461,24.414,0
213628.438,34.668,35.156,34.180,24.902,-4.395,0
213628.442,31.738,40.039,31.250,30.273,26.367,0
213628.445,35.156,36.133,25.391,37.598,25.391,0
213628.449,35.156,35.156,27.344,34.668,-0.488,0
213628.453,35.645,38.086,32.227,17.578,-20.508,0
213628.457,34.180,38.574,31.250,4.395,-34.180,0
213628.461,35.645,36.621,34.180,15.625,9.277,0
213628.465,34.180,33.691,34.180,22.461,17.578,0
213628.469,35.645,37.598,27.832,13.184,-2.930,0
213628.473,40.039,41.016,32.715,20.020,-0.977,0
213628.477,37.109,42.480,36.133,29.785,22.461,0
213628.481,37.109,41.504,25.879,25.879,39.062,0
213628.485,39.062,33.691,25.879,23.926,41.992,0
213628.488,29.785,26.855,27.344,24.902,15.137,0
213628.492,19.043,25.879,15.625,21.484,1.465,0
213628.496,21.484,30.273,21.484,17.090,41.016,0
213628.500,24.902,34.668,37.109,16.602,29.785,0
213628.504,23.926,31.250,44.434,18.066,-0.977,0
213628.508,22.949,30.273,42.969,23.438,42.969,0
213628.512,25.391,31.250,34.668,23.926,58.105,0
213628.516,29.785,32.227,33.691,30.273,8.301,0
213628.520,37.598,35.645,35.156,30.273,-13.672,0
213628.524,40.527,30.273,30.273,21.484,21.973,0
213628.527,33.691,24.902,24.902,20.508,46.387,0
213628.531,31.250,28.809,30.762,29.785,12.695,0
213628.535,39.062,32.227,35.156,33.203,-22.461,0
213628.539,37.598,31.738,28.809,22.461,-28.320,0
213628.543,34.668,27.344,22.461,20.996,-0.977,0
213628.547,34.180,24.902,25.879,16.113,-30.273,0
213628.551,30.273,25.391,28.320,11.719,-28.320,0
213628.555,25.879,24.902,29.785,17.578,8.301,0
213628.559,22.461,26.367,33.691,16.602,-2.441,0
213628.563,20.020,23.926,35.156,12.207,-3.906,0
213628.567,19.531,21.484,28.809,6.348,-10.254,0
213628.570,21.973,22.461,24.414,14.160,-14.648,0
213628.574,23.438,23.438,20.996,25.391,0.000,0
213628.578,24.414,30.273,20.996,19.531,4.395,0
213628.582,24.414,33.691,30.762,14.160,7.324,0
213628.586,22.461,28.320,34.668,11.719,17.578,0
213628.590,22.461,27.344,22.949,12.695,-10.254,0
213628.594,21.973,26.855,11.719,15.137,-8.789,0
213628.598,20.996,28.809,24.414,9.277,33.691,0
213628.602,25.391,36.133,42.969,11.719,38.574,0
213628.606,25.879,28.809,45.410,16.602,9.277,0
213628.610,21.973,21.484,34.668,12.207,-3.906,0
213628.613,24.902,30.273,29.297,9.277,-28.809,0
213628.617,28.320,33.691,27.832,12.695,-34.180,0
213628.621,26.367,34.668,24.414,21.484,-22.461,0
213628.625,23.926,36.133,25.391,26.855,-26.855,0
213628.629,20.508,30.762,25.391,25.391,-23.438,0
213628.633,20.996,28.809,22.949,21.973,-5.859,0
213628.637,26.367,30.762,26.367,21.484,30.762,0
213628.641,24.902,29.785,32.227,22.461,44.922,0
213628.645,21.973,29.297,38.086,27.344,32.715,0
213628.649,26.855,32.227,38.086,21.973,16.602,0
213628.652,27.344,32.715,31.738,10.742,-33.691,0
213628.656,20.508,28.320,34.668,9.766,-32.715,0
213628.660,19.043,25.391,26.855,11.230,20.508,0
213628.664,19.043,27.344,19.531,15.625,42.480,0
213628.668,20.020,30.762,29.297,23.438,62.012,0
213628.672,22.461,33.203,30.273,22.461,60.547,0
213628.676,19.531,32.227,31.250,20.508,54.688,0
213628.680,22.949,29.785,36.621,25.879,64.941,0
213628.684,30.762,34.668,37.109,34.668,53.711,0
213628.688,30.273,32.715,38.574,22.949,16.113,0
213628.692,22.949,21.484,38.086,9.277,30.762,0
213628.695,17.090,20.996,34.668,5.859,23.926,0
213628.699,15.625,28.320,29.785,1.953,15.137,0
213628.703,20.996,30.762,26.367,11.719,54.199,0
213628.707,32.227,33.203,25.879,29.785,63.965,0
213628.711,38.086,35.156,30.762,35.645,72.266,0
213628.715,24.414,34.668,33.691,13.184,106.934,0
213628.719,7.812,35.156,28.809,-0.488,103.516,0
213628.723,10.254,29.297,28.320,7.812,63.477,0
213628.727,14.648,27.344,34.180,18.066,99.609,0
213628.731,14.160,34.180,35.156,22.461,122.070,0
213628.735,21.973,34.180,28.809,22.461,107.910,0
213628.738,26.367,33.203,24.902,17.578,76.660,0
213628.742,25.879,41.504,21.484,11.719,34.668,0
213628.746,30.762,46.387,23.926,17.090,64.941,0
213628.750,28.320,42.480,23.926,16.113,78.613,0
213628.754,22.949,38.086,26.855,14.160,72.266,0
213628.758,24.902,31.250,38.574,19.531,61.035,0
213628.762,28.809,34.668,43.457,17.090,44.922,0
213628.766,28.320,40.039,38.086,15.625,48.340,0
213628.770,19.043,38.086,27.832,14.160,63.477,0
213628.774,23.926,39.062,27.832,17.578,57.129,0
213628.777,32.715,38.574,32.715,17.090,50.293,0
213628.781,27.344,35.156,31.738,20.020,66.895,0
213628.785,23.926,31.250,25.391,23.926,41.992,0
213628.789,24.414,31.738,29.785,11.230,-5.371,0
213628.793,20.996,36.133,39.062,12.207,54.199,1
213628.797,20.508,30.762,37.109,16.113,69.336,0
213628.801,23.438,28.809,35.156,13.184,32.715,0
213628.805,16.113,29.785,28.809,8.789,68.848,0
213628.809,13.672,25.391,22.461,2.930,46.875,0
213628.813,17.578,26.855,22.949,-1.465,21.484,0
213628.817,18.066,33.691,21.973,7.324,41.992,0
213628.820,16.113,38.086,28.809,10.254,41.992,0
213628.824,5.859,30.273,29.297,3.418,52.734,0
213628.828,5.371,20.996,26.855,3.906,62.500,0
213628.832,11.719,22.461,26.855,-4.395,42.969,0
213628.836,16.113,27.344,32.227,-0.488,67.871,0
213628.840,21.973,30.273,38.574,20.020,106.445,0
213628.844,18.555,32.227,34.180,19.531,84.473,0
213628.848,20.508,30.762,33.203,15.625,21.973,0
213628.852,19.043,28.809,33.691,23.926,33.203,0
213628.856,13.184,28.320,28.809,33.691,73.242,0
213628.860,13.672,24.902,27.832,22.949,32.715,0
213628.863,17.090,22.949,32.227,14.648,43.457,0
213628.867,23.438,24.902,35.645,20.508,57.617,0
213628.871,23.438,28.320,35.645,21.484,19.531,0
213628.875,19.043,32.715,31.250,11.230,8.789,0
213628.879,18.066,31.738,27.344,4.883,26.855,0
213628.883,20.996,31.250,28.320,13.672,39.551,0
213628.887,21.973,35.156,31.738,18.555,38.086,0
213628.891,20.996,32.227,36.133,14.160,-5.371,0
213628.895,21.973,26.855,39.551,9.277,-16.113,0
213628.899,26.855,27.832,35.156,19.531,34.668,0
213628.902,29.785,29.785,29.785,23.926,14.160,0
213628.906,32.715,34.180,31.738,21.973,-19.531,0
213628.910,37.598,38.574,37.109,23.438,-17.090,0
213628.914,34.668,35.156,39.551,20.020,-22.461,0
213628.918,27.344,27.344,37.598,17.090,-11.230,0
213628.922,29.297,24.414,35.645,13.672,-22.461,0
213628.926,32.715,27.832,33.203,20.508,-44.922,0
213628.930,32.227,30.273,29.297,24.902,-47.363,0
213628.934,32.227,29.785,34.668,20.020,-26.855,0
213628.938,33.203,32.227,42.480,16.113,-15.625,0
213628.942,32.715,35.156,37.598,17.578,2.930,0
213628.945,32.227,37.598,26.855,22.461,36.621,0
213628.949,39.062,39.551,26.855,23.926,13.184,0
213628.953,39.062,36.133,32.715,24.414,-9.766,0
213628.957,26.855,33.691,32.227,24.414,10.254,0
213628.961,15.137,29.785,30.273,17.578,18.555,0
213628.965,19.043,25.879,32.715,11.719,51.758,0
213628.969,23.438,28.809,31.738,14.160,34.180,0
213628.973,21.973,31.250,32.227,21.973,22.461,0
213628.977,24.902,27.832,33.691,28.809,53.223,0
213628.981,23.438,27.832,28.320,22.461,32.227,0
213628.985,18.555,28.809,22.949,10.254,24.902,0
213628.988,19.043,27.832,23.926,9.766,69.336,0
213628.992,21.973,26.367,32.227,16.602,51.270,0
213628.996,27.344,29.785,37.598,17.578,5.371,0
213629.000,30.762,35.645,33.691,13.672,3.418,0
213629.004,31.250,37.598,29.297,16.113,38.086,0
213629.008,24.902,30.762,20.996,20.020,48.340,0
213629.012,23.438,26.367,20.020,18.555,46.387,0
213629.016,25.391,28.320,24.902,8.301,34.668,0
213629.020,24.414,28.809,23.438,7.812,29.785,0
213629.024,26.855,28.320,18.066,18.555,26.367,0
213629.027,20.020,22.949,16.602,10.254,-50.293,0
213629.031,11.719,21.484,21.484,1.465,-31.738,0
213629.035,17.090,27.832,24.902,7.324,33.691,0
213629.039,20.996,32.715,27.832,4.883,41.504,0
213629.043,22.949,34.668,27.344,-1.953,44.434,0
213629.047,26.855,36.621,25.879,7.812,81.055,0
213629.051,27.832,35.645,26.855,18.066,65.430,0
213629.055,24.902,34.180,30.273,18.066,43.457,0
213629.059,24.902,31.738,34.668,20.996,75.195,0
213629.063,28.320,25.879,37.598,24.414,108.398,0
213629.067,25.879,24.902,36.621,30.273,90.820,0
213629.070,20.508,31.250,24.414,34.668,39.062,0
213629.074,23.926,36.133,24.414,36.133,49.316,0
213629.078,30.273,36.621,35.645,49.805,119.141,0
213629.082,28.809,34.668,24.902,44.434,131.348,0
213629.086,29.785,33.203,20.508,41.504,80.078,0
213629.090,33.203,35.645,29.785,47.363,69.336,0
213629.094,32.227,31.250,27.832,43.945,53.223,0
213629.098,36.621,30.762,26.367,47.363,41.992,0
213629.102,39.062,37.109,27.832,49.316,70.801,0
213629.106,37.598,39.062,30.273,39.551,62.012,0
213629.110,38.574,40.527,29.297,36.621,46.875,0
213629.113,36.621,37.598,24.902,41.992,47.852,0
213629.117,36.133,34.180,26.855,33.203,23.926,0
213629.121,33.691,34.180,28.809,26.855,54.199,0
213629.125,29.785,31.250,30.762,37.109,84.961,0
213629.129,33.691,32.715,28.320,52.246,37.598,0
213629.133,35.645,38.574,23.926,54.199,15.625,0
213629.137,33.691,34.180,24.414,48.340,38.574,0
213629.141,31.738,28.809,30.762,47.852,13.672,0
213629.145,31.738,34.180,32.227,42.480,1.953,0
213629.149,32.227,38.574,31.738,45.410,0.977,0
213629.152,30.273,35.156,31.250,44.434,-7.812,0
213629.156,29.785,34.180,25.879,38.086,-0.488,0
213629.160,31.250,33.691,24.414,44.922,-16.113,0
213629.164,34.668,31.738,29.297,41.992,-37.598,0
213629.168,32.227,30.762,29.785,39.551,-2.441,0
213629.172,26.367,29.297,16.113,41.992,52.246,0
213629.176,29.297,31.738,17.578,46.875,38.574,0
213629.180,31.250,32.715,26.367,44.922,15.625,0
213629.184,30.273,29.785,28.809,39.062,7.324,0
213629.188,36.133,32.715,31.738,42.480,38.086,0
213629.192,34.180,33.203,24.414,43.457,37.598,0
213629.195,30.273,28.809,22.461,36.133,26.855,0
213629.199,36.621,31.738,28.809,41.992,40.527,0
213629.203,36.133,33.203,24.902,56.152,19.531,0
213629.207,31.250,35.156,18.066,48.340,-28.320,0
213629.211,29.785,37.598,25.879,36.133,-6.836,0
213629.215,32.715,38.574,36.133,36.621,17.090,0
213629.219,36.133,41.992,39.062,38.574,-61.523,0
213629.223,35.156,44.434,43.457,42.969,-50.781,0
213629.227,30.273,41.504,38.086,41.504,39.551,0
213629.231,26.367,34.180,27.832,38.574,32.715,0
213629.235,31.738,34.668,30.762,43.457,-45.410,0
213629.238,30.273,37.598,35.156,45.898,-54.688,0
213629.242,26.855,33.691,27.344,45.410,2.441,0
213629.246,26.367,32.715,23.926,46.387,18.555,0
213629.250,22.949,30.762,23.438,36.133,-13.672,0
213629.254,29.785,32.715,30.273,36.133,-30.273,0
213629.258,39.551,41.992,38.086,41.992,-21.973,0
213629.262,33.203,43.945,28.320,39.551,-14.648,0
213629.266,30.273,38.574,20.508,38.086,-17.578,0
213629.270,30.762,36.621,20.020,39.062,0.977,0
213629.274,31.250,36.621,25.391,41.016,36.621,0
213629.277,40.039,32.227,30.762,48.340,32.227,0
213629.281,31.738,31.250,32.227,42.480,-1.465,0
213629.285,4.395,30.762,28.809,22.949,19.043,0
213629.289,4.395,30.273,20.020,27.344,56.152,0
213629.293,19.043,33.203,18.066,29.297,24.414,0
213629.297,17.090,34.180,30.273,14.160,22.949,0
213629.301,10.254,34.668,35.645,23.926,39.062,0
213629.305,13.672,29.785,35.645,35.156,23.438,0
213629.309,21.973,23.926,35.156,26.855,-0.488,0
213629.313,21.484,25.391,30.762,21.973,-8.301,0
213629.317,20.508,33.203,21.973,25.879,-19.531,0
213629.320,28.809,34.180,16.602,31.738,-16.602,0
213629.324,28.809,34.180,28.809,38.086,8.301,0
213629.328,16.113,34.180,37.598,36.621,19.531,0
213629.332,15.625,24.902,33.203,32.227,14.160,0
213629.336,21.973,23.438,36.621,46.387,51.758,0
213629.340,31.738,35.156,41.016,58.594,70.801,0
213629.344,29.785,26.855,40.039,44.922,24.902,0
213629.348,19.043,16.113,34.668,32.715,36.621,0
213629.352,18.066,19.043,29.785,37.598,31.250,0
213629.356,20.996,20.020,34.668,37.598,29.297,0
213629.360,20.508,27.344,34.180,31.250,24.902,0
213629.363,21.484,37.109,32.227,36.621,24.414,0
213629.367,26.367,43.945,35.645,40.039,25.391,0
213629.371,27.344,43.945,33.691,31.738,13.672,0
213629.375,30.762,37.109,24.902,37.109,26.367,0
213629.379,27.832,30.273,25.391,40.039,38.574,0
213629.383,19.531,31.738,32.715,38.574,37.109,0
213629.387,23.926,34.668,32.227,42.969,51.270,0
213629.391,28.320,33.691,29.785,32.715,55.664,0
213629.395,28.809,29.785,30.762,38.086,45.410,0
213629.399,33.203,32.715,25.391,41.992,52.246,0
213629.402,34.180,37.598,17.090,29.297,25.879,0
213629.406,28.809,37.598,26.855,31.250,27.832,0
213629.410,27.832,39.551,37.109,41.016,34.668,0
213629.414,27.344,41.992,34.180,38.574,12.207,0
213629.418,28.809,33.691,30.762,33.691,29.785,0
213629.422,26.367,28.320,28.809,32.227,24.414,0
213629.426,19.531,29.785,25.391,33.691,12.207,0
213629.430,18.555,31.738,26.855,37.109,40.527,0
213629.434,16.602,36.133,27.344,35.645,20.020,0
213629.438,19.043,35.156,25.879,33.203,-9.277,0
213629.442,22.949,28.320,24.414,39.062,16.113,0
213629.445,29.297,26.855,23.926,31.738,-6.348,0
213629.449,30.273,34.668,28.809,22.461,-13.672,0
213629.453,21.973,35.156,39.062,37.598,32.227,0
213629.457,16.602,26.855,41.504,35.645,33.203,0
213629.461,10.742,27.832,34.180,25.391,-10.742,0
213629.465,11.719,34.668,29.297,27.832,-52.246,0
213629.469,14.160,33.691,33.691,29.785,-42.969,0
213629.473,15.625,31.250,34.180,38.086,-32.715,0
213629.477,20.996,31.250,25.391,44.922,-32.715,1
213629.481,18.555,27.832,24.902,37.598,-27.344,0
213629.485,14.648,25.391,31.738,27.832,-43.457,0
213629.488,15.625,28.320,38.574,29.297,-68.359,0
213629.492,22.461,28.809,40.039,36.621,-64.453,0
213629.496,28.320,29.297,35.645,40.039,-16.602,0
213629.500,21.484,36.133,29.297,35.156,21.973,0
213629.504,16.602,35.645,26.855,22.461,5.371,0
213629.508,17.090,29.297,32.227,21.973,-11.719,0
213629.512,18.066,29.785,40.039,33.203,30.273,0
213629.516,21.484,32.715,35.156,38.086,20.020,0
213629.520,16.602,31.738,27.344,41.504,12.695,0
213629.524,13.184,27.344,34.180,33.691,31.738,0
213629.527,24.414,28.320,39.551,30.762,20.020,0
213629.531,27.832,34.668,32.715,33.203,27.832,0
213629.535,23.438,39.551,30.273,24.902,8.301,0
213629.539,24.414,37.598,32.715,20.020,-13.672,0
213629.543,21.973,30.273,36.621,23.438,12.695,0
213629.547,19.531,32.715,40.039,24.902,29.785,0
213629.551,15.625,33.691,27.832,24.902,12.207,0
213629.555,13.672,32.715,19.043,25.879,12.695,0
213629.559,15.137,36.621,24.902,22.461,35.156,0
213629.563,20.020,40.039,24.902,20.996,30.273,0
213629.567,25.879,43.457,22.949,18.555,45.898,0
213629.570,19.531,45.410,24.902,13.672,75.684,0
213629.574,17.578,43.945,25.391,15.137,51.270,0
213629.578,16.113,40.039,21.484,9.277,14.648,0
213629.582,8.301,36.621,18.555,1.953,28.320,0
213629.586,12.207,36.133,19.531,16.602,19.043,0
213629.590,24.902,36.133,22.949,32.715,18.555,0
213629.594,27.832,30.273,28.320,29.297,3.906,0
213629.598,21.484,30.273,29.785,25.391,-2.930,0
213629.602,17.090,35.156,32.227,22.461,-10.254,0
213629.606,21.484,33.691,31.738,30.273,7.812,0
213629.610,27.344,33.691,27.344,45.410,32.715,0
213629.613,24.902,32.227,28.320,36.133,-3.418,0
213629.617,24.414,30.273,31.250,29.785,-3.418,0
213629.621,29.297,32.715,35.156,37.598,26.367,0
213629.625,24.414,29.297,30.273,29.785,18.066,0
213629.629,20.508,26.855,27.832,25.391,-8.301,0
213629.633,22.949,32.227,36.133,31.738,31.738,0
213629.637,20.508,33.203,37.109,32.715,63.477,0
213629.641,20.020,26.367,32.715,38.574,18.066,0
213629.645,17.578,20.996,33.203,37.109,11.230,0
213629.649,18.066,23.438,31.250,27.344,19.043,0
213629.652,25.879,32.227,31.250,32.715,26.367,0
213629.656,23.926,37.598,32.227,38.086,51.270,0
213629.660,21.484,31.738,24.902,43.945,58.105,0
213629.664,26.855,31.738,26.367,50.293,80.566,0
213629.668,30.762,35.156,30.762,43.945,50.293,0
213629.672,27.832,32.227,31.250,39.062,-8.301,0
213629.676,25.879,33.203,33.691,43.457,29.297,0
213629.680,26.855,33.203,35.645,40.039,92.773,0
213629.684,29.785,31.250,32.715,31.250,76.172,0
213629.688,29.297,37.598,30.273,34.668,67.871,0
213629.692,27.344,37.109,24.414,40.527,71.777,0
213629.695,26.367,30.273,20.508,37.598,67.871,0
213629.699,21.973,34.180,27.344,33.203,57.617,0
213629.703,17.090,37.109,25.391,37.109,71.777,0
213629.707,13.184,41.016,25.879,40.527,73.730,0
213629.711,4.395,43.457,35.645,34.668,55.664,0
213629.715,-13.184,34.180,32.715,17.090,-1.953,0
213629.719,-17.090,30.273,29.297,11.230,-39.062,0
213629.723,-17.578,29.785,25.391,20.508,9.766,0
213629.727,-21.484,31.738,20.508,27.832,52.734,0
213629.731,-20.508,33.203,19.531,21.484,41.504,0
213629.735,-14.160,32.715,20.996,19.043,23.438,0
213629.738,-15.137,28.809,26.367,31.250,42.969,0
213629.742,-19.043,27.832,27.344,35.645,52.734,0
213629.746,-12.695,30.762,30.273,28.320,23.926,0
213629.750,-9.277,32.715,33.691,24.902,14.648,0
213629.754,-4.883,34.180,29.785,35.156,-4.395,0
213629.758,1.953,34.668,25.391,35.156,-27.832,0
213629.762,4.883,31.738,27.344,34.180,0.000,0
213629.766,5.859,30.273,36.133,37.598,21.973,0
213629.770,5.859,33.691,39.551,35.645,47.852,0
213629.774,5.859,32.715,32.715,32.715,71.777,0
213629.777,4.395,21.973,28.809,28.809,36.133,0
213629.781,-0.488,17.578,36.133,27.832,33.203,0
213629.785,-2.441,26.855,33.691,23.926,55.664,0
213629.789,-5.859,29.785,29.785,21.973,54.688,0
213629.793,-12.207,27.344,34.180,22.949,61.523,0
213629.797,-8.789,21.973,32.715,37.109,59.570,0
213629.801,-0.488,20.996,26.367,45.898,2.930,0
213629.805,3.418,10.254,30.762,34.668,-21.484,0
213629.809,4.395,-2.930,38.574,27.344,-12.207,0
213629.813,7.324,13.184,34.180,25.879,-25.391,0
213629.817,8.301,27.344,33.203,35.645,-10.742,0
213629.820,-0.977,33.203,35.645,34.668,-9.277,0
213629.824,-12.207,46.875,28.809,24.414,40.039,0
213629.828,-13.184,48.340,25.879,23.926,100.098,0
213629.832,-11.230,36.133,22.949,24.414,67.871,0
213629.836,-15.137,35.645,17.578,20.996,63.965,0
213629.840,-18.066,40.527,25.879,11.719,80.078,0
213629.844,-13.184,39.062,38.574,15.625,51.270,0
213629.848,-3.906,34.668,36.621,22.949,35.645,0
213629.852,1.953,32.227,31.250,20.020,27.344,0
213629.856,8.301,26.855,32.715,23.926,35.645,0
213629.860,8.301,24.414,33.691,24.902,41.992,0
213629.863,-1.465,31.738,25.391,16.602,26.367,0
213629.867,-8.301,31.250,22.949,9.766,0.488,0
213629.871,-8.301,29.297,29.785,14.648,-14.160,0
213629.875,-1.953,32.227,28.809,27.832,7.324,0
213629.879,0.488,30.762,22.461,33.203,12.695,0
213629.883,1.465,31.250,29.297,45.410,-6.348,0
213629.887,4.395,35.645,39.062,43.945,15.625,0
213629.891,4.883,32.715,37.598,32.715,48.340,0
213629.895,1.465,31.738,36.133,33.691,80.566,0
213629.899,-1.953,35.156,30.762,31.250,54.199,0
213629.902,3.418,33.691,29.297,34.180,3.418,0
213629.906,9.277,31.738,24.414,38.086,50.781,0
213629.910,12.207,33.691,15.625,31.738,23.926,0
213629.914,15.137,31.738,24.414,24.902,-22.949,0
213629.918,20.508,27.832,37.109,34.180,29.785,0
213629.922,28.320,31.738,39.062,43.457,22.461,0
213629.926,26.855,33.691,33.691,27.832,39.062,0
213629.930,29.785,31.250,35.156,22.461,94.727,0
213629.934,43.945,35.156,33.691,33.691,67.383,0
213629.938,50.781,35.156,23.438,41.016,22.461,0
213629.942,46.875,26.855,24.902,47.852,20.020,0
213629.945,52.734,26.367,28.809,44.922,32.715,0
213629.949,63.965,34.668,28.320,41.992,51.270,0
213629.953,57.617,37.109,28.320,41.016,53.223,0
213629.957,51.758,37.598,27.344,30.273,49.316,0
213629.961,50.293,34.180,33.691,31.738,69.824,0
213629.965,50.293,24.902,36.133,41.016,82.520,0
213629.969,49.805,27.344,29.297,35.645,55.176,0
213629.973,46.875,34.180,23.438,31.250,-6.836,0
213629.977,43.945,31.250,21.484,29.785,-17.090,0
213629.981,41.016,26.855,30.273,24.902,14.648,0
213629.985,45.410,30.273,35.645,24.414,6.836,0
213629.988,54.199,39.551,28.320,26.367,-26.367,0
213629.992,56.641,38.574,29.785,30.273,23.438,0
213629.996,49.805,28.809,31.738,20.996,82.031,0
213630.000,52.246,27.344,36.133,18.555,79.590,0
213630.004,54.688,30.273,37.109,18.555,32.227,0
213630.008,49.316,30.762,28.809,22.461,7.324,0
213630.012,54.688,39.062,24.414,35.645,35.156,0
213630.016,60.547,37.598,23.438,36.133,54.199,0
213630.020,56.152,29.297,24.902,34.180,71.289,0
213630.024,56.641,33.691,37.598,40.527,99.121,0
213630.027,62.500,38.574,36.621,46.875,82.031,0
213630.031,62.988,40.039,27.344,44.922,50.781,0
213630.035,60.059,41.016,32.715,37.598,61.035,0
213630.039,59.082,41.504,32.227,37.109,83.984,0
213630.043,57.617,37.109,27.832,35.156,61.035,0
213630.047,53.223,34.180,32.715,28.809,32.227,0
213630.051,51.270,30.762,37.109,21.973,43.945,0
213630.055,51.758,29.785,35.156,23.438,49.805,0
213630.059,50.293,33.203,30.273,26.367,29.785,0
213630.063,52.734,38.574,28.320,20.508,43.457,0
213630.067,53.711,40.039,28.320,26.855,65.918,0
213630.070,54.688,35.156,29.785,39.551,101.562,0
213630.074,55.176,35.156,32.715,41.992,95.215,0
213630.078,51.270,33.203,33.691,28.809,48.828,0
213630.082,46.875,26.855,35.156,21.973,39.551,0
213630.086,41.504,25.879,32.227,24.414,60.059,0
213630.090,40.039,28.320,33.691,20.508,-4.395,0
213630.094,39.062,26.855,39.551,20.508,-23.438,0
213630.098,41.016,29.785,39.551,24.414,51.270,0
213630.102,43.945,33.203,34.180,31.738,56.641,0
213630.106,43.457,33.203,34.668,29.297,34.668,0
213630.110,46.875,37.598,38.574,29.297,33.203,0
213630.113,42.969,37.109,33.691,35.645,59.570,0
213630.117,33.691,29.297,35.645,28.320,75.684,0
213630.121,28.809,19.043,36.621,20.020,24.902,0
213630.125,38.574,22.461,35.645,28.809,31.250,0
213630.129,48.340,34.668,38.086,41.504,55.176,0
213630.133,44.922,37.109,36.621,34.180,22.949,0
213630.137,45.898,34.668,31.738,31.250,-3.418,0
213630.141,46.875,29.297,25.391,39.062,-10.254,0
213630.145,41.016,23.438,26.855,50.781,14.160,0
213630.149,41.504,28.809,35.645,45.898,15.625,0
213630.152,42.969,33.203,36.621,34.668,10.742,0
213630.156,34.180,31.250,36.621,31.250,52.246,0
213630.160,29.297,28.320,38.086,28.320,56.152,0
213630.164,27.344,26.855,36.621,24.902,35.156,0
213630.168,35.156,32.227,37.598,35.156,43.945,0
213630.172,41.504,33.203,33.691,53.711,66.895,0
213630.176,41.504,31.738,28.320,50.781,60.059,0
213630.180,42.480,31.250,28.320,35.645,40.527,0
213630.184,43.457,30.762,39.551,30.273,24.902,0
213630.188,46.875,26.855,50.781,34.180,40.039,0
213630.192,39.062,20.996,46.875,30.273,57.617,0
213630.195,31.738,20.508,37.598,23.926,23.438,0
213630.199,35.156,25.879,29.785,26.367,0.488,0
213630.203,36.133,32.715,24.414,30.762,45.898,0
213630.207,37.598,34.180,29.785,31.738,97.168,0
213630.211,41.016,33.691,32.715,33.203,57.617,1
213630.215,44.922,36.133,28.809,40.527,11.719,0
213630.219,45.410,31.738,29.297,39.551,21.484,0
213630.223,48.828,27.344,34.668,38.574,44.922,0
213630.227,55.664,37.598,41.504,40.039,63.965,0
213630.231,48.828,41.504,39.551,27.344,21.484,0
213630.235,36.133,34.668,25.391,19.043,-11.230,0
213630.238,33.691,35.156,20.020,24.414,26.367,0
213630.242,36.133,31.250,28.320,28.320,32.715,0
213630.246,36.621,24.902,35.645,32.715,12.695,0
213630.250,37.109,30.762,32.227,37.109,4.395,0
213630.254,36.133,35.156,29.785,34.668,-4.883,0
213630.258,38.086,32.227,29.297,39.062,28.320,0
213630.262,36.621,33.691,24.902,39.062,23.438,0
213630.266,39.062,36.621,25.391,36.133,8.301,0
213630.270,42.969,32.715,27.832,49.316,7.812,0
213630.274,42.480,28.809,33.691,49.805,-8.301,0
213630.277,44.434,30.273,31.738,38.574,6.348,0
213630.281,41.992,32.227,27.344,36.133,29.297,0
213630.285,32.227,33.691,23.926,23.926,-14.648,0
213630.289,27.344,26.855,23.926,17.090,-25.391,0
213630.293,26.855,27.832,27.832,23.926,14.648,0
213630.297,33.691,37.109,24.414,29.297,-2.441,0
213630.301,40.039,39.062,29.297,30.762,-20.508,0
213630.305,28.809,27.344,38.086,25.879,-11.719,0
213630.309,24.902,20.020,36.621,26.855,17.090,0
213630.313,28.809,23.926,28.320,28.320,11.719,0
213630.317,30.762,30.762,27.344,28.809,2.930,0
213630.320,38.086,35.645,30.762,36.133,32.715,0
213630.324,35.645,32.227,26.855,34.180,59.570,0
213630.328,33.691,30.762,24.902,25.879,29.785,0
213630.332,34.180,30.273,25.879,17.578,-30.273,0
213630.336,28.809,31.250,22.949,20.508,-23.438,0
213630.340,26.855,29.297,27.832,29.785,15.625,0
213630.344,29.297,26.855,35.156,26.855,26.855,0
213630.348,30.762,29.785,34.668,18.066,20.020,0
213630.352,36.133,39.551,35.156,27.832,17.578,0
213630.356,38.574,41.504,38.086,31.738,50.781,0
213630.360,32.227,34.668,33.691,29.297,35.645,0
213630.363,34.668,29.785,30.762,28.320,3.418,0
213630.367,35.645,29.785,30.762,25.879,21.484,0
213630.371,26.855,34.180,26.367,24.902,15.625,0
213630.375,26.367,31.250,23.438,21.973,-10.742,0
213630.379,25.879,27.344,20.996,21.973,-23.926,0
213630.383,18.555,28.809,13.184,30.273,52.246,0
213630.387,13.672,26.367,17.090,28.809,81.543,0
213630.391,20.020,26.367,40.039,25.391,25.879,0
213630.395,25.879,29.785,52.734,28.320,14.648,0
213630.399,25.879,22.461,43.945,36.621,8.789,0
213630.402,24.902,18.066,25.391,27.832,13.672,0
213630.406,18.066,24.414,22.461,10.254,21.973,0
213630.410,17.578,25.879,29.297,8.789,18.555,0
213630.414,20.508,26.855,29.785,15.137,28.320,0
213630.418,19.531,31.738,30.273,19.043,36.621,0
213630.422,18.555,32.227,31.250,13.672,-17.090,0
213630.426,20.020,31.738,32.227,11.719,-25.391,0
213630.430,23.438,29.297,32.227,19.531,21.973,0
213630.434,22.461,30.273,30.273,26.855,18.555,0
213630.438,28.809,36.621,35.645,33.691,3.906,0
213630.442,35.645,33.691,32.715,37.109,3.906,0
213630.445,30.762,31.250,24.902,40.039,30.273,0
213630.449,25.879,29.785,26.367,28.809,54.199,0
213630.453,29.785,25.391,30.762,20.020,34.180,0
213630.457,33.691,32.227,37.598,27.344,54.199,0
213630.461,27.344,38.086,42.969,25.391,72.754,0
213630.465,26.367,36.621,31.738,15.137,10.742,0
213630.469,32.227,37.109,24.414,15.625,3.906,0
213630.473,35.156,41.016,35.645,32.715,49.316,0
213630.477,33.203,41.504,37.598,41.504,50.781,0
213630.481,34.668,35.156,26.367,32.715,29.297,0
213630.485,34.668,34.668,23.926,20.508,9.766,0
213630.488,30.273,33.691,28.320,20.020,20.020,0
213630.492,33.691,27.832,29.297,29.297,46.387,0
213630.496,37.109,27.344,31.250,31.250,28.320,0
213630.500,37.109,31.250,32.715,31.250,13.184,0
213630.504,35.156,31.738,30.273,40.039,38.574,0
213630.508,33.691,33.691,20.020,40.039,20.508,0
213630.512,37.598,35.645,20.508,33.203,7.324,0
213630.516,39.551,37.598,35.156,35.645,28.809,0
213630.520,40.039,36.621,39.062,43.945,100.098,0
213630.524,37.109,27.344,28.320,37.598,86.426,0
213630.527,31.250,23.926,21.484,25.391,10.742,0
213630.531,23.926,26.367,21.973,21.484,49.805,0
213630.535,25.879,27.832,30.273,20.508,59.570,0
213630.539,27.344,31.250,34.668,26.855,41.992,0
213630.543,19.531,31.250,32.227,28.809,52.734,0
213630.547,20.508,27.832,36.621,28.809,18.066,0
213630.551,26.367,35.156,38.574,37.109,-22.461,0
213630.555,24.414,40.527,30.762,33.203,-24.414,0
213630.559,16.602,34.180,23.926,26.367,1.465,0
213630.563,16.113,27.832,22.949,22.461,24.902,0
213630.567,20.996,30.273,31.738,21.973,38.574,0
213630.570,21.484,29.785,33.691,25.879,17.578,0
213630.574,19.531,30.273,20.020,19.043,8.789,0
213630.578,17.578,31.738,19.531,16.113,22.461,0
213630.582,19.043,32.227,27.832,18.555,16.113,0
213630.586,15.625,30.273,31.250,15.137,20.508,0
213630.590,16.602,27.832,25.879,17.578,62.012,0
213630.594,23.438,34.180,25.391,27.344,81.055,0
213630.598,23.438,35.156,27.832,28.320,44.434,0
213630.602,26.367,28.809,28.809,25.391,23.438,0
213630.606,39.551,33.203,28.320,28.320,30.762,0
213630.610,40.527,36.133,28.809,32.715,25.879,0
213630.613,30.762,30.762,32.227,28.809,46.387,0
213630.617,27.832,34.180,24.902,28.809,62.988,0
213630.621,30.762,36.621,20.996,34.668,62.012,0
213630.625,35.156,35.645,33.203,31.250,93.262,0
213630.629,26.855,33.691,37.109,30.273,62.012,0
213630.633,20.508,35.645,28.320,33.203,30.273,0
213630.637,30.273,37.109,24.414,38.574,56.641,0
213630.641,26.367,29.785,27.832,37.598,43.457,0
213630.645,20.020,27.344,35.645,24.414,58.105,0
