timestamps,TP9,AF7,AF8,TP10,Right AUX,Marker0
213878.133,29.785,23.926,30.273,40.039,81.543,0
213878.137,33.203,19.043,34.668,41.016,81.543,0
213878.141,35.156,20.020,41.992,34.668,56.152,0
213878.145,28.809,27.832,41.016,30.762,30.273,0
213878.149,26.855,32.227,31.738,37.109,33.691,0
213878.152,29.785,24.902,28.320,40.527,36.133,0
213878.156,32.227,20.508,33.203,30.762,38.086,0
213878.160,30.273,19.531,33.691,26.855,41.992,0
213878.164,26.855,14.648,27.832,35.156,14.160,0
213878.168,22.949,26.367,22.949,29.297,-4.395,0
213878.172,18.066,38.086,26.855,22.461,28.320,0
213878.176,24.414,35.156,31.250,32.227,67.383,0
213878.180,33.691,34.668,34.668,34.180,47.363,0
213878.184,29.297,41.992,35.645,28.320,42.480,0
213878.188,27.344,45.898,30.273,27.832,37.109,0
213878.192,30.762,41.016,31.738,35.156,55.664,0
213878.195,33.203,32.227,37.109,39.551,58.105,0
213878.199,35.645,28.809,38.574,36.133,7.324,0
213878.203,30.762,21.973,30.273,28.320,-4.883,0
213878.207,27.344,27.344,34.180,24.414,6.348,0
213878.211,29.297,36.621,38.574,32.715,-21.973,0
213878.215,31.738,36.621,32.715,41.504,-30.273,0
213878.219,36.133,33.203,34.180,32.227,21.973,0
213878.223,41.504,31.738,34.668,34.180,21.973,0
213878.227,39.551,38.574,36.133,36.621,-2.930,0
213878.231,35.645,42.969,37.109,30.273,13.184,0
213878.234,42.480,44.434,24.902,36.133,19.531,0
213878.238,47.363,41.504,25.879,39.551,23.438,0
213878.242,45.410,35.156,40.039,34.668,26.367,0
213878.246,41.016,29.785,31.250,32.227,19.043,0
213878.250,32.227,27.832,18.066,30.762,43.945,0
213878.254,33.691,27.832,27.832,33.203,62.988,0
213878.258,36.133,31.250,42.969,41.992,37.598,0
213878.262,30.273,30.762,42.969,41.504,29.297,0
213878.266,32.715,27.344,32.227,39.551,49.316,0
213878.270,35.645,28.320,27.344,41.992,38.086,0
213878.274,38.086,31.250,26.855,35.156,46.387,0
213878.277,43.457,28.809,29.297,31.738,59.082,0
213878.281,39.062,36.133,34.180,38.086,44.922,0
213878.285,33.203,47.363,30.762,32.715,52.734,0
213878.289,36.621,46.875,23.438,24.902,49.805,0
213878.293,52.246,47.852,31.250,40.527,38.574,0
213878.297,44.434,36.621,39.062,42.480,63.477,0
213878.301,17.090,16.113,32.715,13.672,36.621,0
213878.305,14.648,15.625,25.391,3.906,33.691,0
213878.309,18.555,24.902,27.832,10.254,61.035,0
213878.313,20.020,28.320,39.062,17.090,22.949,0
213878.317,23.926,28.809,41.992,21.484,12.207,0
213878.320,23.926,29.297,36.621,25.391,65.430,0
213878.324,24.414,30.762,43.457,33.691,74.707,0
213878.328,26.367,34.668,52.734,37.109,64.453,0
213878.332,36.133,39.062,48.340,47.852,71.289,0
213878.336,35.645,34.668,36.621,49.805,52.734,0
213878.340,27.832,27.832,30.273,37.109,71.289,0
213878.344,26.367,29.785,30.273,31.250,72.754,0
213878.348,21.484,31.250,34.180,12.207,51.758,0
213878.352,16.113,29.297,29.297,2.930,54.199,0
213878.356,22.949,28.320,27.344,14.160,44.434,0
213878.359,28.320,26.367,34.180,24.902,53.711,0
213878.363,23.926,27.344,33.691,30.273,55.664,0
213878.367,27.832,31.738,33.203,34.668,58.594,0
213878.371,33.691,32.227,35.156,40.527,39.551,0
213878.375,34.180,30.273,37.109,41.992,24.414,0
213878.379,33.691,33.203,38.574,45.410,20.020,0
213878.383,31.738,33.691,34.180,49.805,5.859,0
213878.387,27.832,31.738,33.691,37.109,-4.395,0
213878.391,26.855,24.414,35.156,25.391,11.230,0
213878.395,27.832,22.461,30.762,31.250,29.297,0
213878.399,32.715,20.020,31.250,40.039,66.895,0
213878.402,35.645,17.090,33.203,36.621,80.078,0
213878.406,34.180,27.344,33.691,33.203,58.594,0
213878.410,33.691,33.691,37.109,32.227,45.898,0
213878.414,40.527,33.203,43.945,38.086,35.156,0
213878.418,41.504,32.715,40.039,41.992,42.480,0
213878.422,27.832,27.832,33.203,25.879,39.551,0
213878.426,15.137,24.414,30.273,12.695,27.832,0
213878.430,18.555,21.973,26.855,21.484,24.414,0
213878.434,18.555,27.832,27.832,28.809,20.508,0
213878.438,16.113,31.738,35.156,15.137,-11.719,0
213878.442,20.996,23.926,34.668,14.648,-14.648,0
213878.445,20.996,20.020,32.227,24.414,28.320,0
213878.449,20.996,29.297,39.551,28.320,35.156,0
213878.453,23.926,38.574,38.086,28.320,27.344,0
213878.457,22.461,32.715,36.133,19.043,7.812,0
213878.461,19.531,19.043,30.762,16.113,-18.066,0
213878.465,21.484,19.531,17.578,28.320,10.254,0
213878.469,16.113,34.668,14.648,24.414,47.852,0
213878.473,4.395,40.039,29.785,4.883,3.418,0
213878.477,2.930,32.715,37.598,5.371,-49.805,0
213878.481,5.859,28.809,35.645,5.371,-46.875,0
213878.484,7.324,27.832,33.691,5.859,-1.953,0
213878.488,12.207,26.367,30.273,16.113,45.410,0
213878.492,17.578,26.367,31.738,22.949,14.160,0
213878.496,24.414,23.438,33.203,30.762,-22.461,0
213878.500,28.320,30.762,23.926,33.691,0.977,0
213878.504,23.926,39.062,18.066,29.785,0.488,0
213878.508,20.508,36.133,22.949,30.762,-4.883,0
213878.512,28.320,35.645,24.902,29.785,23.438,0
213878.516,34.668,25.391,27.344,29.297,62.012,0
213878.520,31.738,17.090,27.832,32.715,62.988,0
213878.524,32.715,30.762,31.250,30.762,40.527,1
213878.527,30.273,37.598,42.480,34.668,46.875,0
213878.531,28.809,37.598,50.781,41.016,83.008,0
213878.535,32.715,44.434,44.922,38.574,138.672,0
213878.539,38.086,41.016,32.715,41.992,124.512,0
213878.543,51.270,35.645,26.367,43.945,44.922,0
213878.547,56.152,29.785,30.762,53.223,63.965,0
213878.551,48.828,29.297,38.574,56.152,100.586,0
213878.555,39.062,36.621,36.621,36.621,77.148,0
213878.559,30.273,37.598,36.133,24.414,66.895,0
213878.563,34.180,39.551,38.574,25.879,63.965,0
213878.567,38.086,41.016,41.016,29.297,29.785,0
213878.570,40.039,37.598,36.133,29.297,5.371,0
213878.574,45.410,39.551,26.367,31.250,32.715,0
213878.578,42.969,36.621,32.715,35.645,48.828,0
213878.582,34.668,29.785,40.039,31.738,41.504,0
213878.586,30.273,33.691,30.273,21.973,48.340,0
213878.590,28.809,37.598,23.926,28.809,69.336,0
213878.594,27.344,35.645,30.762,28.809,65.918,0
213878.598,24.902,31.250,38.086,14.648,37.109,0
213878.602,26.367,32.227,40.527,9.277,21.973,0
213878.606,28.320,33.691,39.551,7.812,26.367,0
213878.609,24.902,36.621,37.598,7.324,52.246,0
213878.613,24.902,42.969,29.785,18.066,26.855,0
213878.617,25.391,35.645,31.250,20.996,31.738,0
213878.621,14.648,31.250,32.227,7.324,58.105,0
213878.625,12.695,27.832,31.738,16.602,41.504,0
213878.629,30.762,19.043,33.691,35.645,2.930,0
213878.633,30.273,24.902,30.762,21.973,-31.250,0
213878.637,8.789,32.227,31.250,5.859,20.508,0
213878.641,13.184,37.109,37.598,21.484,66.406,0
213878.645,23.926,35.645,44.434,37.598,84.961,0
213878.649,18.066,29.297,40.039,25.879,46.387,0
213878.652,23.438,30.762,32.715,19.043,16.113,0
213878.656,33.203,40.039,25.391,36.133,24.902,0
213878.660,32.715,40.527,20.508,37.109,26.855,0
213878.664,29.297,38.574,20.996,29.785,12.207,0
213878.668,31.250,35.645,20.996,34.668,4.395,0
213878.672,32.715,30.762,22.949,29.785,26.367,0
213878.676,35.645,32.227,23.926,18.555,21.484,0
213878.680,39.062,27.344,30.762,28.320,6.836,0
213878.684,42.480,27.344,38.574,38.574,60.059,0
213878.688,43.945,36.133,30.762,28.320,58.105,0
213878.692,40.527,37.109,28.320,32.227,31.738,0
213878.695,38.086,37.109,29.785,38.086,39.551,0
213878.699,40.039,30.273,25.391,23.438,43.945,0
213878.703,38.574,22.461,25.879,20.996,28.320,0
213878.707,27.832,24.414,27.832,19.531,14.648,0
213878.711,26.367,27.344,31.250,18.555,53.223,0
213878.715,33.691,27.344,26.855,28.809,45.898,0
213878.719,33.691,31.250,26.367,27.344,28.320,0
213878.723,28.809,35.156,28.320,16.113,22.461,0
213878.727,27.344,36.133,29.297,24.902,0.977,0
213878.731,28.809,41.992,36.621,31.738,32.715,0
213878.734,27.344,43.945,40.039,28.320,48.828,0
213878.738,21.973,39.062,34.668,20.508,39.551,0
213878.742,22.461,32.227,30.273,18.066,41.504,0
213878.746,21.973,29.297,27.344,20.996,32.715,0
213878.750,15.625,27.344,24.902,12.207,58.594,0
213878.754,18.555,29.785,33.691,13.184,53.711,0
213878.758,24.414,31.250,42.969,21.484,42.480,0
213878.762,23.438,28.320,40.527,21.973,56.152,0
213878.766,25.391,30.762,30.762,24.414,32.227,0
213878.770,23.926,26.367,24.902,27.832,37.109,0
213878.774,15.625,19.043,30.273,20.508,22.949,0
213878.777,11.230,17.578,31.250,22.461,8.301,0
213878.781,14.648,21.973,30.273,25.391,55.176,0
213878.785,18.066,25.879,30.273,17.578,87.402,0
213878.789,18.555,23.438,31.250,20.996,88.379,0
213878.793,20.508,25.879,33.203,29.297,68.848,0
213878.797,26.367,30.762,34.668,30.273,33.691,0
213878.801,31.250,29.297,40.039,27.832,60.547,0
213878.805,34.668,26.855,38.086,26.855,67.871,0
213878.809,41.992,28.320,27.832,27.832,45.410,0
213878.813,48.828,28.809,27.344,27.832,68.359,0
213878.817,43.945,22.461,29.297,29.297,103.516,0
213878.820,41.992,26.367,30.762,34.180,114.258,0
213878.824,37.598,28.809,26.855,34.180,79.590,0
213878.828,40.039,37.598,35.156,40.527,37.109,0
213878.832,44.922,45.410,41.016,36.133,44.434,0
213878.836,37.598,35.645,33.203,22.949,45.410,0
213878.840,37.109,27.344,28.809,20.996,33.691,0
213878.844,39.551,30.273,23.438,28.809,51.270,0
213878.848,39.062,35.645,27.832,32.715,51.758,0
213878.852,39.062,33.203,26.855,40.527,24.414,0
213878.856,37.598,28.809,20.996,41.016,20.020,0
213878.859,36.621,34.180,29.785,34.668,25.879,0
213878.863,38.086,50.293,37.598,32.715,-6.348,0
213878.867,45.410,50.293,40.039,34.180,-7.324,0
213878.871,47.363,45.410,36.621,33.203,-28.809,0
213878.875,36.133,42.969,30.762,25.391,-31.738,0
213878.879,29.297,35.156,29.297,28.320,1.953,0
213878.883,25.879,24.902,26.367,30.273,39.551,0
213878.887,27.832,22.949,28.809,27.344,18.066,0
213878.891,33.203,30.762,34.180,22.461,9.766,0
213878.895,32.715,33.691,34.180,29.785,50.781,0
213878.899,34.180,29.785,30.273,34.668,70.312,0
213878.902,35.645,30.762,29.785,31.738,63.965,0
213878.906,35.156,36.621,37.109,42.480,37.109,0
213878.910,33.203,34.180,46.875,41.504,60.547,0
213878.914,24.414,26.855,41.016,23.438,60.059,0
213878.918,23.438,26.367,35.645,15.137,20.508,0
213878.922,26.855,26.855,40.527,17.090,40.527,0
213878.926,21.484,28.809,42.969,22.461,52.734,0
213878.930,19.043,28.320,39.551,20.020,28.809,0
213878.934,24.414,28.320,25.879,20.996,25.391,0
213878.938,31.250,30.273,25.391,33.691,64.453,0
213878.942,25.879,33.203,32.715,30.762,46.387,0
213878.945,19.043,33.691,26.855,23.438,5.859,0
213878.949,23.926,34.180,24.902,27.832,-11.230,0
213878.953,24.902,30.273,30.273,16.602,-9.277,0
213878.957,25.879,32.715,30.762,19.043,7.812,0
213878.961,30.273,43.945,29.297,17.578,-0.488,0
213878.965,31.250,48.828,26.367,13.184,7.812,0
213878.969,34.668,43.457,22.949,29.297,28.320,0
213878.973,42.969,42.480,25.391,38.086,20.508,0
213878.977,38.574,44.434,21.484,27.832,41.016,0
213878.981,28.809,36.133,21.973,15.625,85.449,0
213878.984,32.227,36.621,31.738,16.113,81.543,0
213878.988,33.203,41.504,27.832,24.414,65.430,0
213878.992,33.203,37.598,23.926,32.227,47.852,0
213878.996,30.273,37.109,30.273,21.973,42.969,0
213879.000,30.273,36.621,23.926,12.207,67.871,0
213879.004,30.273,37.598,19.531,18.555,44.922,0
213879.008,24.902,43.457,19.531,23.438,6.836,0
213879.012,24.414,41.016,22.949,21.484,17.578,0
213879.016,26.855,38.574,21.484,22.461,52.734,0
213879.020,28.809,43.945,20.996,28.809,45.410,0
213879.024,23.438,41.016,31.250,23.926,14.160,0
213879.027,19.531,34.180,31.250,17.578,27.344,0
213879.031,23.926,32.227,20.996,28.320,47.852,0
213879.035,26.855,36.621,22.461,31.738,35.156,0
213879.039,27.344,40.039,30.762,21.484,-0.488,0
213879.043,23.438,30.273,33.691,18.555,-13.672,0
213879.047,20.020,23.438,32.715,20.508,3.906,0
213879.051,21.973,29.785,29.297,17.090,-42.480,0
213879.055,26.367,27.832,29.785,20.020,-67.383,1
213879.059,29.785,24.414,26.367,28.320,-36.133,0
213879.063,31.250,20.508,22.949,21.484,-15.137,0
213879.067,33.203,25.879,20.996,21.973,-11.719,0
213879.070,34.668,38.086,21.973,25.391,-14.648,0
213879.074,28.320,33.203,32.227,14.160,21.973,0
213879.078,21.973,25.391,33.691,13.184,22.949,0
213879.082,22.949,28.809,28.809,20.996,9.277,0
213879.086,29.785,33.691,29.297,31.250,0.000,0
213879.090,31.250,28.809,27.832,36.133,3.418,0
213879.094,32.227,27.832,29.785,34.668,13.672,0
213879.098,43.457,38.086,27.832,38.574,-30.273,0
213879.102,47.852,30.762,25.879,44.434,-36.133,0
213879.106,39.551,14.648,33.691,38.086,8.301,0
213879.109,35.156,24.902,36.621,30.762,47.852,0
213879.113,34.180,34.180,37.109,36.133,29.297,0
213879.117,31.738,27.832,37.109,33.691,12.207,0
213879.121,30.273,24.902,32.715,28.809,23.438,0
213879.125,34.668,34.668,30.273,31.738,25.391,0
213879.129,41.992,37.109,26.855,39.062,38.574,0
213879.133,41.504,26.855,27.344,36.621,55.664,0
213879.137,39.551,27.832,31.250,35.156,47.852,0
213879.141,39.551,35.645,26.367,35.156,-7.324,0
213879.145,41.992,39.062,27.344,31.738,-27.344,0
213879.149,43.457,37.109,29.785,33.691,22.461,0
213879.152,40.527,35.645,22.949,32.715,36.133,0
213879.156,40.527,40.039,27.344,32.227,7.812,0
213879.160,39.062,34.180,27.344,24.902,49.316,0
213879.164,37.109,26.367,18.555,17.578,108.398,0
213879.168,35.156,28.320,25.879,12.695,79.590,0
213879.172,31.250,30.762,32.227,16.113,62.500,0
213879.176,35.645,38.086,28.809,25.879,90.332,0
213879.180,42.969,42.969,27.832,33.203,87.891,0
213879.184,39.062,41.504,32.715,32.715,34.180,0
213879.188,35.645,31.738,23.926,28.809,24.414,0
213879.192,36.621,22.949,13.184,31.738,27.832,0
213879.195,32.227,26.855,21.484,37.598,39.062,0
213879.199,27.344,28.809,30.762,32.227,59.082,0
213879.203,26.367,30.273,36.133,23.438,43.457,0
213879.207,25.879,28.809,30.273,20.020,51.758,0
213879.211,28.320,25.879,25.391,25.879,93.262,0
213879.215,34.668,30.273,30.273,35.645,77.148,0
213879.219,35.645,35.156,29.785,42.480,35.645,0
213879.223,31.250,31.738,20.020,36.133,65.430,0
213879.227,28.809,17.578,13.672,25.391,56.641,0
213879.231,25.391,22.949,24.414,23.438,6.348,0
213879.234,25.879,39.551,26.855,26.855,-5.859,0
213879.238,23.926,31.738,26.855,33.203,47.363,0
213879.242,18.066,15.625,26.367,29.297,85.449,0
213879.246,19.043,14.160,23.926,8.301,7.812,0
213879.250,27.344,26.855,32.227,8.789,-13.184,0
213879.254,29.297,33.691,32.227,18.066,53.223,0
213879.258,28.809,32.715,23.926,18.555,52.734,0
213879.262,30.273,30.762,20.020,23.438,14.648,0
213879.266,31.738,31.738,25.879,28.809,-11.230,0
213879.270,30.273,32.227,33.203,30.273,13.184,0
213879.274,38.086,32.227,41.992,31.738,39.062,0
213879.277,43.945,35.645,41.504,40.039,10.742,0
213879.281,33.691,26.367,35.156,33.203,2.930,0
213879.285,21.484,16.113,29.297,23.438,23.438,0
213879.289,18.555,27.344,27.832,31.250,-17.578,0
213879.293,22.461,23.438,27.344,24.902,-32.227,0
213879.297,24.902,16.113,25.391,28.320,24.902,0
213879.301,26.855,33.203,26.367,33.691,24.414,0
213879.305,28.320,43.945,26.855,23.926,24.414,0
213879.309,31.250,37.109,26.367,24.902,8.301,0
213879.313,33.691,40.039,35.645,35.156,-29.785,0
213879.317,36.133,39.551,41.992,40.039,15.137,0
213879.320,39.062,29.297,37.109,36.133,45.898,0
213879.324,34.668,29.785,33.203,31.250,45.410,0
213879.328,31.738,32.227,33.691,36.133,33.203,0
213879.332,30.762,22.949,37.109,49.316,21.973,0
213879.336,26.855,19.531,31.738,43.457,2.441,0
213879.340,30.762,29.785,28.320,41.016,-2.930,0
213879.344,27.832,26.367,28.320,41.992,54.688,0
213879.348,23.926,20.996,24.902,28.320,38.086,0
213879.352,26.855,28.809,38.574,26.855,-7.324,0
213879.356,23.926,28.809,44.922,23.438,21.973,0
213879.359,26.367,24.414,36.133,28.809,51.758,0
213879.363,29.785,19.043,26.855,32.715,34.668,0
213879.367,23.926,16.113,20.996,26.367,11.230,0
213879.371,27.344,21.973,22.949,26.367,0.977,0
213879.375,36.133,29.297,21.484,30.762,1.465,0
213879.379,28.809,25.879,19.531,21.973,-20.508,0
213879.383,29.785,27.344,25.391,18.066,-44.434,0
213879.387,33.691,33.203,36.621,26.367,17.578,0
213879.391,25.879,31.250,40.039,19.531,44.922,0
213879.395,24.414,27.832,31.250,8.789,-5.859,0
213879.399,32.227,30.762,21.484,22.461,-2.441,0
213879.402,29.785,31.738,27.344,30.762,19.531,0
213879.406,20.996,26.855,27.344,17.578,34.668,0
213879.410,27.832,26.855,19.043,18.066,56.641,0
213879.414,36.133,29.297,23.438,24.414,35.156,0
213879.418,36.621,35.156,29.785,24.902,50.781,0
213879.422,41.992,42.480,34.180,26.855,61.523,0
213879.426,43.457,42.969,26.855,23.926,10.254,0
213879.430,37.109,35.645,26.855,24.902,4.883,0
213879.434,36.133,32.715,30.762,35.156,43.945,0
213879.438,38.086,40.527,23.926,33.203,30.762,0
213879.442,36.133,40.039,20.020,23.926,38.574,0
213879.445,37.598,36.133,20.020,33.203,53.711,0
213879.449,40.039,43.457,27.832,33.203,21.484,0
213879.453,37.109,43.945,35.156,20.020,-0.488,0
213879.457,33.691,36.133,30.273,17.578,49.316,0
213879.461,31.250,28.809,21.484,20.996,48.828,0
213879.465,34.668,39.062,23.926,21.484,16.602,0
213879.469,40.039,51.270,23.926,20.508,32.715,0
213879.473,41.504,40.039,22.949,21.484,11.230,0
213879.477,38.086,30.762,27.344,23.926,14.160,0
213879.481,36.621,43.457,29.297,31.738,38.574,0
213879.484,32.715,45.898,28.809,39.062,22.949,0
213879.488,28.809,37.109,26.855,45.898,12.695,0
213879.492,29.297,39.551,29.785,35.156,20.508,0
213879.496,25.879,41.504,32.715,20.996,50.293,0
213879.500,23.438,36.133,31.738,23.926,94.727,0
213879.504,19.043,29.785,28.320,25.879,82.520,0
213879.508,18.555,35.156,27.832,20.996,81.543,0
213879.512,22.949,40.039,35.156,20.508,85.449,0
213879.516,25.879,35.645,35.156,16.113,30.762,0
213879.520,27.832,23.438,27.832,14.648,-7.324,0
213879.524,33.691,15.625,25.391,25.879,34.180,0
213879.527,34.180,25.391,27.832,33.691,66.406,0
213879.531,32.227,38.574,27.832,34.668,46.875,0
213879.535,36.621,46.387,31.738,42.480,54.688,0
213879.539,37.598,41.016,33.203,41.016,35.156,0
213879.543,35.645,31.250,22.461,25.391,1.953,0
213879.547,36.621,36.133,19.043,38.086,11.719,0
213879.551,35.645,35.645,18.555,45.410,28.320,0
213879.555,41.016,39.062,19.531,34.180,65.430,0
213879.559,46.875,49.316,26.367,31.250,75.684,0
213879.563,44.434,47.363,28.809,27.344,27.344,0
213879.567,45.898,43.457,34.180,29.785,36.133,0
213879.570,49.805,41.992,35.156,40.039,48.828,0
213879.574,39.551,38.574,33.203,32.715,23.926,0
213879.578,33.203,38.574,32.227,26.367,23.438,0
213879.582,40.039,46.875,29.785,42.480,39.551,0
213879.586,41.992,46.387,33.691,38.086,37.109,0
213879.590,38.086,40.527,22.949,25.879,26.855,0
213879.594,35.645,45.410,9.277,26.855,18.066,0
213879.598,36.133,49.316,20.020,27.344,20.508,0
213879.602,39.551,41.016,29.785,34.180,22.461,0
213879.606,37.598,30.273,26.855,40.527,20.508,0
213879.609,31.738,29.297,22.949,31.738,38.574,0
213879.613,30.273,36.621,27.344,23.438,71.777,0
213879.617,33.203,42.480,35.156,34.668,49.805,0
213879.621,36.621,41.504,27.344,38.086,10.742,0
213879.625,34.180,36.621,20.996,32.227,4.883,0
213879.629,30.273,25.879,24.414,32.227,19.531,0
213879.633,27.832,30.762,16.602,26.855,42.969,0
213879.637,31.738,41.992,14.160,29.785,33.203,0
213879.641,33.691,37.598,26.367,32.227,-0.488,0
213879.645,27.832,31.250,25.879,31.738,8.789,0
213879.649,34.668,33.203,26.855,35.645,16.602,0
213879.652,40.039,33.691,36.133,36.621,13.184,0
213879.656,33.203,28.320,29.297,35.156,21.484,0
213879.660,28.320,24.414,18.555,32.227,17.090,0
213879.664,25.391,20.996,22.461,31.738,52.734,0
213879.668,25.879,23.438,27.344,28.320,40.527,0
213879.672,27.832,31.250,28.320,28.320,2.930,0
213879.676,26.367,28.809,24.414,24.902,9.277,0
213879.680,26.367,26.367,25.391,19.531,-3.418,0
213879.684,29.297,33.203,29.297,21.484,-13.672,0
213879.688,29.297,32.715,26.367,23.926,4.883,0
213879.692,28.320,27.832,22.949,23.438,21.484,0
213879.695,36.133,33.691,20.996,26.855,42.969,0
213879.699,44.434,41.504,23.926,35.156,25.879,0
213879.703,35.645,35.645,31.250,29.785,28.320,1
213879.707,33.691,21.484,31.250,32.227,45.898,0
213879.711,35.645,16.113,30.762,26.855,23.438,0
213879.715,10.742,19.043,29.785,-0.977,4.883,0
213879.719,-0.977,27.832,24.902,0.488,27.832,0
213879.723,13.184,35.645,21.973,20.020,54.688,0
213879.727,19.531,39.062,23.926,20.508,10.254,0
213879.731,18.066,33.203,27.832,6.348,1.465,0
213879.734,23.438,35.156,25.391,11.230,43.945,0
213879.738,29.785,38.086,20.508,23.926,31.738,0
213879.742,34.180,37.109,22.461,31.738,25.391,0
213879.746,32.715,39.062,27.344,42.480,53.223,0
213879.750,22.949,30.762,28.809,34.180,51.270,0
213879.754,22.461,30.273,23.438,20.996,-7.812,0
213879.758,20.020,32.227,25.879,18.066,-2.930,0
213879.762,15.137,31.250,29.785,20.020,47.363,0
213879.766,16.113,30.273,23.926,34.668,43.945,0
213879.770,18.555,30.273,19.043,32.715,30.273,0
213879.774,21.973,29.785,24.414,15.625,42.969,0
213879.777,22.461,23.926,31.738,15.625,62.500,0
213879.781,20.996,25.391,31.738,18.555,80.566,0
213879.785,26.367,31.738,33.691,18.555,55.664,0
213879.789,30.762,30.273,31.738,23.438,14.160,0
213879.793,28.809,22.949,30.762,24.902,35.645,0
213879.797,31.250,24.414,36.621,23.926,58.594,0
213879.801,33.691,35.645,35.156,31.738,28.320,0
213879.805,23.926,27.344,30.762,31.250,40.039,0
213879.809,20.020,25.391,30.762,30.273,29.297,0
213879.813,23.926,31.738,37.109,25.879,-10.742,0
213879.817,23.926,23.926,41.504,22.949,9.766,0
213879.820,19.043,18.066,38.086,28.809,31.250,0
213879.824,17.578,20.508,33.691,26.367,40.527,0
213879.828,22.461,23.438,31.738,29.297,57.617,0
213879.832,30.762,28.320,34.180,41.016,34.668,0
213879.836,35.156,32.227,32.227,36.621,0.000,0
213879.840,32.227,26.367,33.203,28.320,-1.465,0
213879.844,33.203,22.949,35.156,23.438,-13.184,0
213879.848,31.738,26.855,32.715,24.414,-21.484,0
213879.852,27.832,29.785,33.203,33.203,20.508,0
213879.856,24.414,26.367,37.109,34.180,60.059,0
213879.859,23.438,23.438,43.457,31.250,33.691,0
213879.863,23.926,21.973,46.875,26.367,-14.648,0
213879.867,25.879,24.902,44.434,26.367,-28.320,0
213879.871,36.621,36.133,34.180,32.715,-2.930,0
213879.875,34.668,40.527,28.809,29.297,9.277,0
213879.879,24.902,33.691,34.180,15.625,17.090,0
213879.883,17.578,24.414,37.109,11.230,14.648,0
213879.887,15.137,18.555,33.691,15.137,4.883,0
213879.891,27.832,24.902,29.297,16.602,-27.344,0
213879.895,32.227,30.273,34.668,18.555,-19.531,0
213879.899,25.879,20.996,31.250,21.484,33.203,0
213879.902,28.809,24.414,30.273,31.738,34.668,0
213879.906,30.273,37.109,37.109,21.973,19.043,0
213879.910,22.949,41.016,32.227,11.230,14.160,0
213879.914,20.508,39.551,25.879,19.043,65.430,0
213879.918,29.785,34.668,24.902,22.461,78.125,0
213879.922,33.691,33.691,27.344,21.973,30.273,0
213879.926,30.762,25.879,30.762,23.926,39.551,0
213879.930,32.715,17.578,38.086,26.855,66.895,0
213879.934,32.227,22.461,41.504,20.996,31.250,0
213879.938,33.203,28.809,39.062,18.555,34.668,0
213879.942,30.762,31.738,36.621,14.648,72.754,0
213879.945,22.461,31.250,32.227,13.672,12.695,0
213879.949,20.996,28.320,31.250,24.902,-39.551,0
213879.953,29.297,20.508,32.715,27.832,32.227,0
213879.957,36.621,20.508,36.133,25.879,83.496,0
213879.961,36.133,27.344,34.180,28.809,77.148,0
213879.965,31.738,29.785,34.668,27.344,61.523,0
213879.969,30.762,24.902,30.273,20.996,57.617,0
213879.973,29.297,25.391,21.973,17.578,83.984,0
213879.977,24.414,25.391,32.715,21.973,82.031,0
213879.981,19.043,20.508,42.969,24.902,32.715,0
213879.984,21.484,27.344,37.109,22.461,21.484,0
213879.988,29.297,33.691,27.832,24.414,38.574,0
213879.992,36.133,28.320,32.715,29.785,70.801,0
213879.996,31.250,20.996,40.039,23.926,65.918,0
213880.000,23.438,22.461,39.062,20.508,32.227,0
213880.004,24.902,25.879,32.227,24.414,66.406,0
213880.008,26.855,29.785,25.391,25.391,74.707,0
213880.012,26.855,30.273,25.879,32.227,72.754,0
213880.016,29.785,29.785,31.250,25.879,74.707,0
213880.020,34.668,35.645,36.133,20.020,67.871,0
213880.024,35.156,32.715,25.879,18.066,47.363,0
213880.027,31.250,26.855,18.066,12.207,16.113,0
213880.031,31.738,22.949,31.250,15.137,14.160,0
213880.035,34.180,18.555,40.527,19.531,29.297,0
213880.039,34.668,28.809,37.598,26.367,54.688,0
213880.043,33.203,38.574,30.273,19.043,38.574,0
213880.047,34.668,35.645,30.762,14.648,51.758,0
213880.051,41.504,32.227,35.156,31.738,47.363,0
213880.055,47.363,33.691,33.691,40.039,13.672,0
213880.059,37.598,30.273,34.668,28.320,19.531,0
213880.063,24.414,19.531,30.762,21.484,36.133,0
213880.067,25.391,18.066,20.508,20.020,29.785,0
213880.070,26.367,23.926,28.320,19.531,38.086,0
213880.074,23.926,24.902,35.645,25.391,16.602,0
213880.078,23.926,17.578,32.715,20.996,-14.160,0
213880.082,23.926,19.043,30.762,22.949,31.738,0
213880.086,31.738,34.668,30.273,23.926,25.391,0
213880.090,36.621,41.992,27.832,19.043,10.254,0
213880.094,37.109,39.062,25.879,30.273,33.691,0
213880.098,39.551,35.645,23.438,34.668,4.883,0
213880.102,40.527,32.715,29.297,37.598,1.953,0
213880.106,36.133,31.738,33.203,35.156,8.301,0
213880.109,30.273,32.715,26.855,25.879,35.645,0
213880.113,29.297,30.273,35.156,23.926,3.906,0
213880.117,28.320,31.250,40.527,32.715,-16.113,0
213880.121,29.785,32.715,29.785,34.668,8.789,0
213880.125,35.156,33.203,24.414,40.039,-23.438,0
213880.129,33.203,25.879,26.855,39.062,-2.930,0
213880.133,27.832,23.438,27.832,21.484,7.324,0
213880.137,20.508,27.832,30.762,19.531,-2.930,0
213880.141,22.949,31.250,30.762,22.949,26.367,0
213880.145,33.203,35.156,32.227,32.227,50.293,0
213880.149,33.203,32.227,38.574,29.297,15.137,0
213880.152,30.762,27.344,33.203,15.625,-9.766,0
213880.156,32.715,29.297,22.949,19.043,6.348,0
213880.160,33.203,35.645,21.484,28.809,-3.906,0
213880.164,34.668,36.621,23.438,39.062,-11.719,0
213880.168,32.715,30.273,21.973,43.457,7.812,0
213880.172,30.762,31.738,33.691,33.691,18.555,0
213880.176,30.273,32.227,44.922,18.555,-13.672,0
213880.180,27.344,20.020,42.480,21.484,11.230,0
213880.184,24.414,18.555,40.039,33.203,82.031,0
213880.188,20.508,28.320,40.527,20.996,32.227,0
213880.192,18.555,31.738,36.133,16.113,23.438,0
213880.195,18.066,32.715,29.297,23.926,39.062,0
213880.199,20.508,28.809,30.273,22.949,35.645,0
213880.203,26.855,30.273,27.832,24.414,16.113,0
213880.207,29.297,34.668,17.578,20.996,18.066,0
213880.211,33.691,30.762,20.020,22.949,42.480,0
213880.215,41.992,32.227,33.691,36.133,10.254,0
213880.219,46.875,37.109,41.504,41.992,28.809,0
213880.223,45.410,27.832,37.109,41.992,19.531,0
213880.227,36.621,20.996,36.133,42.480,32.227,0
213880.231,23.438,22.949,35.645,30.273,48.828,0
213880.234,20.996,25.879,29.785,22.949,23.438,0
213880.238,27.344,38.086,29.297,31.738,25.391,0
213880.242,21.484,41.992,33.203,24.414,42.480,0
213880.246,16.113,36.621,31.738,20.508,39.062,0
213880.250,26.367,38.574,30.273,22.461,20.508,0
213880.254,32.715,37.598,32.715,25.879,19.531,0
213880.258,25.391,33.691,29.785,26.367,24.414,0
213880.262,20.996,29.785,27.832,26.855,18.066,0
213880.266,20.508,24.902,24.902,30.273,-11.719,0
213880.270,24.414,26.367,21.484,19.531,-45.410,0
213880.274,22.461,23.926,27.832,18.066,-32.715,0
213880.277,20.508,26.855,37.598,26.855,26.367,0
213880.281,28.809,34.180,42.969,38.574,53.711,0
213880.285,26.855,28.809,42.480,51.270,63.965,0
213880.289,17.578,23.438,38.086,41.016,92.773,0
213880.293,26.367,32.227,33.203,23.926,83.984,0
213880.297,38.086,44.922,18.066,26.367,46.387,0
213880.301,32.227,39.551,5.859,24.902,60.547,0
213880.305,25.879,30.273,24.902,21.973,40.039,0
213880.309,23.438,28.320,40.039,17.090,26.367,1
213880.313,22.461,31.738,42.969,14.648,20.020,0
213880.317,23.438,35.645,42.969,20.508,20.508,0
213880.320,21.973,29.785,39.551,23.438,58.594,0
213880.324,23.926,20.508,35.156,21.484,34.668,0
213880.328,25.391,19.043,29.297,16.602,17.578,0
213880.332,25.879,23.438,35.156,20.996,37.109,0
213880.336,27.832,30.273,41.992,23.438,35.645,0
213880.340,29.785,37.109,36.133,18.066,6.836,0
213880.344,32.227,40.039,27.344,14.648,-11.230,0
213880.348,31.738,36.621,22.949,23.926,37.109,0
213880.352,20.996,29.785,27.344,32.715,73.730,0
213880.356,15.625,26.855,27.344,21.973,20.508,0
213880.359,21.973,24.902,24.902,20.508,0.977,0
213880.363,27.832,22.949,33.203,26.367,44.922,0
213880.367,26.855,26.855,41.016,20.508,46.387,0
213880.371,29.785,32.715,44.434,25.879,25.391,0
213880.375,32.227,35.645,40.527,27.832,62.500,0
213880.379,40.039,36.133,34.180,31.738,83.008,0
213880.383,40.527,39.551,32.715,43.457,35.156,0
213880.387,32.227,40.527,31.250,37.598,62.500,0
213880.391,37.598,34.180,23.438,32.227,91.309,0
213880.395,38.086,26.855,24.414,33.203,82.520,0
213880.399,33.203,25.879,34.180,39.062,76.660,0
213880.402,40.039,28.809,33.203,46.387,9.277,0
213880.406,41.992,36.621,33.203,45.898,9.766,0
213880.410,38.086,42.969,38.086,46.387,80.078,0
213880.414,36.621,39.551,34.668,43.945,84.961,0
213880.418,34.180,32.715,26.367,31.250,24.414,0
213880.422,27.344,28.320,20.996,22.949,45.898,0
213880.426,28.809,28.809,29.785,24.902,79.590,0
213880.430,36.133,29.297,39.551,30.273,53.223,0
213880.434,38.574,32.715,36.621,27.344,27.832,0
213880.438,37.109,41.992,29.297,28.320,29.297,0
213880.442,40.039,41.016,27.832,36.133,-1.953,0
213880.445,46.875,38.574,36.133,38.086,-5.859,0
213880.449,39.551,40.527,37.109,29.297,37.598,0
213880.453,30.762,35.645,29.785,21.484,51.270,0
213880.457,28.320,31.250,21.484,22.461,54.199,0
213880.461,20.508,27.832,18.066,20.996,34.668,0
213880.465,16.602,21.973,23.438,24.902,29.297,0
213880.469,21.484,24.414,26.367,27.832,30.762,0
213880.473,28.320,30.762,25.879,27.832,37.109,0
213880.477,29.785,34.668,28.809,25.391,45.410,0
213880.481,28.320,33.203,33.691,21.484,20.508,0
213880.484,24.902,31.250,32.227,15.625,38.574,0
213880.488,25.879,32.715,26.855,13.184,41.016,0
213880.492,36.621,40.039,23.438,18.555,29.785,0
213880.496,38.086,39.551,29.785,24.414,36.133,0
213880.500,23.926,28.809,29.297,17.578,18.066,0
213880.504,23.438,29.297,25.391,14.648,2.441,0
213880.508,29.297,36.133,32.227,12.695,0.488,0
213880.512,26.367,37.598,31.738,11.230,16.602,0
213880.516,24.414,36.133,26.855,18.066,35.645,0
213880.520,21.973,32.715,26.367,15.625,6.836,0
213880.524,19.043,25.391,22.461,16.602,17.090,0
213880.527,25.391,22.461,22.461,19.531,69.824,0
213880.531,36.621,30.762,22.949,22.461,62.500,0
213880.535,37.598,36.621,23.926,23.438,17.578,0
213880.539,34.668,34.668,34.180,20.996,-15.137,0
213880.543,38.086,40.527,42.480,29.297,-20.508,0
213880.547,42.969,41.992,39.062,35.645,52.734,0
213880.551,38.574,31.738,30.762,28.809,58.105,0
213880.555,31.738,24.902,26.855,26.367,-1.953,0
213880.559,30.762,23.926,28.320,30.273,38.086,0
213880.563,37.598,28.320,29.785,32.227,45.410,0
213880.567,46.387,36.621,29.297,42.969,-20.020,0
213880.570,43.945,39.551,30.273,45.410,-6.348,0
213880.574,38.574,29.297,24.902,36.621,14.648,0
213880.578,41.016,27.344,17.090,34.180,9.277,0
213880.582,37.598,30.273,15.625,39.062,25.879,0
213880.586,29.785,27.344,20.020,30.762,9.766,0
213880.590,29.297,33.203,34.668,25.879,-3.418,0
213880.594,31.738,33.203,38.574,30.273,4.883,0
213880.598,29.785,26.855,33.691,20.020,0.977,0
213880.602,30.273,25.391,33.203,22.461,26.855,0
213880.606,35.156,24.414,32.715,34.180,57.129,0
213880.609,31.738,25.879,32.715,29.297,16.113,0
213880.613,27.344,28.809,35.645,26.367,-4.883,0
213880.617,31.250,35.156,41.504,38.574,25.391,0
213880.621,31.250,34.668,37.109,42.969,38.574,0
213880.625,24.902,26.855,28.809,26.855,24.414,0
213880.629,27.344,27.344,25.391,24.414,35.156,0
213880.633,28.320,22.461,22.949,31.250,20.508,0
213880.637,25.879,18.555,27.344,24.414,-9.766,0
213880.641,21.484,21.973,35.156,18.066,11.230,0
213880.645,21.973,26.367,31.738,20.996,35.156,0
213880.649,24.902,29.785,30.273,26.367,24.414,0
213880.652,23.926,33.691,34.668,30.762,35.645,0
213880.656,25.391,37.598,34.668,28.320,62.988,0
213880.660,29.297,35.156,32.227,24.414,55.664,0
213880.664,26.367,31.250,34.180,28.320,62.500,0
213880.668,26.367,31.250,35.156,22.949,74.219,0
213880.672,30.273,31.250,28.809,21.973,60.059,0
213880.676,27.832,29.785,25.391,31.738,79.590,0
213880.680,28.809,31.738,30.273,37.598,77.637,0
213880.684,31.738,32.227,34.180,36.133,48.340,0
213880.688,34.180,32.715,34.180,27.344,27.832,0
213880.692,37.109,39.062,29.297,30.762,8.301,0
213880.695,36.133,44.922,27.344,46.387,3.418,0
213880.699,39.062,44.434,29.785,49.805,22.949,0
213880.703,40.527,39.551,28.809,30.762,56.641,0
213880.707,37.109,35.156,26.855,24.902,78.125,0
213880.711,40.527,36.133,29.297,31.738,77.148,0
213880.715,40.527,30.762,28.320,34.180,38.086,0
213880.719,35.156,28.320,20.508,39.062,51.270,0
213880.723,33.203,31.250,19.043,36.133,78.613,0
213880.727,41.504,37.598,26.367,29.785,43.945,0
213880.731,47.852,38.574,30.762,32.715,30.762,0
213880.734,39.062,31.250,27.832,30.762,65.430,0
213880.738,36.133,27.832,21.973,27.832,45.410,0
213880.742,41.016,28.809,25.391,38.086,31.250,0
213880.746,36.621,24.414,29.297,30.273,11.230,0
213880.750,36.621,25.391,25.879,23.926,-3.906,0
213880.754,38.086,35.645,27.344,30.762,26.855,0
213880.758,35.645,37.598,32.227,26.367,6.836,0
213880.762,37.109,37.109,31.738,33.203,4.883,0
213880.766,34.668,31.738,28.809,31.250,45.410,0
213880.770,27.344,27.344,22.949,24.902,45.410,0
213880.774,30.762,34.180,20.996,29.297,42.969,0
213880.777,35.156,35.156,21.973,21.973,49.805,0
213880.781,29.297,29.785,24.414,12.695,57.129,0
213880.785,26.367,21.973,27.832,17.090,53.223,0
213880.789,33.691,26.367,27.832,22.461,6.348,0
213880.793,31.250,34.668,26.367,17.578,-1.465,0
213880.797,27.344,35.156,29.297,20.508,67.871,0
213880.801,30.762,33.691,25.879,20.508,70.801,0
213880.805,30.762,34.180,21.973,20.020,14.160,0
213880.809,25.391,36.133,29.297,26.855,15.625,0
213880.813,22.461,33.691,30.273,28.809,6.836,0
213880.817,20.508,31.738,26.367,24.902,-12.695,0
213880.820,20.996,32.715,31.738,16.602,-12.695,0
213880.824,21.973,36.621,38.086,20.020,4.395,0
213880.828,23.926,35.645,37.598,23.438,24.902,0
213880.832,24.902,30.762,33.691,25.879,24.902,0
213880.836,25.879,30.762,23.438,19.043,-12.695,0
213880.840,35.156,32.227,22.461,18.066,-6.348,0
213880.844,31.738,30.273,32.227,29.785,36.133,0
213880.848,30.273,39.551,34.668,35.645,-20.996,0
213880.852,38.574,45.898,24.902,47.852,-10.742,0
213880.856,39.062,38.086,21.484,48.340,32.227,0
213880.859,36.621,28.809,37.598,32.715,49.805,0
213880.863,36.621,32.715,42.969,35.645,31.738,0
213880.867,34.180,39.062,38.086,34.668,26.367,0
213880.871,33.203,36.133,37.598,24.414,34.180,0
213880.875,39.551,29.297,37.109,30.273,10.742,0
213880.879,38.574,28.320,37.109,40.527,-9.766,0
213880.883,36.621,33.691,37.109,48.828,-23.438,0
213880.887,34.180,39.551,27.344,45.898,-4.395,0
213880.891,26.855,35.156,18.555,32.715,-26.367,0
213880.895,20.996,28.809,25.391,29.297,-24.902,0
213880.899,22.461,22.949,38.086,32.715,32.715,0
213880.902,24.902,21.973,46.875,34.180,26.367,0
213880.906,24.414,33.203,47.363,35.156,23.438,0
213880.910,29.785,39.551,42.969,37.598,12.207,0
213880.914,34.180,39.062,36.621,40.527,-22.461,0
213880.918,34.668,37.109,36.133,44.922,-17.090,0
213880.922,39.062,31.738,38.574,52.734,7.812,1
213880.926,37.598,32.227,33.203,41.992,-28.809,0
213880.930,23.438,31.250,29.785,21.484,-57.617,0
213880.934,19.043,22.949,31.250,23.438,0.488,0
213880.938,27.344,20.508,32.715,27.832,22.949,0
213880.942,31.738,27.344,36.621,27.832,-7.812,0
213880.945,30.273,32.715,40.527,25.879,-54.199,0
213880.949,30.762,34.180,37.598,27.344,-39.551,0
213880.953,36.621,35.645,33.691,32.227,-21.484,0
213880.957,38.574,33.203,31.738,36.621,-8.301,0
213880.961,39.062,34.668,32.715,36.621,16.602,0
213880.965,40.039,36.133,31.250,33.691,-9.277,0
213880.969,43.457,30.762,24.902,34.668,13.672,0
213880.973,42.969,28.320,23.438,41.016,24.902,0
213880.977,41.016,30.762,20.508,46.875,19.531,0
213880.981,42.480,36.133,19.531,44.434,35.156,0
213880.984,34.180,41.016,23.438,32.227,33.691,0
213880.988,29.785,35.156,30.762,30.273,33.203,0
213880.992,26.855,26.367,37.109,40.039,37.598,0
213880.996,29.297,32.227,37.109,33.203,62.988,0
213881.000,28.809,31.738,30.273,22.949,47.852,0
213881.004,28.809,25.391,25.391,24.414,80.078,0
213881.008,34.668,30.762,24.414,28.809,111.328,0
213881.012,36.621,34.180,23.926,31.250,101.562,0
213881.016,36.133,29.297,25.879,32.227,79.590,0
213881.020,32.715,25.879,29.297,34.668,54.199,0
213881.024,31.738,29.297,26.367,34.668,102.051,0
213881.027,32.227,31.250,26.367,36.621,98.145,0
213881.031,32.715,30.762,34.668,37.598,75.195,0
213881.035,33.203,28.809,36.133,35.156,77.637,0
213881.039,23.926,26.367,22.461,28.320,56.152,0
213881.043,20.508,31.250,14.648,22.461,65.430,0
213881.047,22.949,34.180,19.043,22.949,86.426,0
213881.051,21.973,27.832,23.438,26.855,68.359,0
213881.055,18.066,20.996,30.273,22.949,44.434,0
213881.059,15.137,24.414,34.180,11.719,32.715,0
213881.063,12.207,32.715,29.785,5.371,16.113,0
213881.067,7.324,32.227,32.227,10.742,25.391,0
213881.070,12.207,29.297,38.086,25.391,35.156,0
213881.074,20.020,30.762,33.691,23.926,-18.066,0
213881.078,22.461,30.762,31.250,21.973,-32.715,0
213881.082,22.949,28.320,30.273,31.250,23.438,0
213881.086,26.855,32.715,19.531,37.109,26.855,0
213881.090,33.203,42.969,18.555,33.203,-7.324,0
213881.094,29.297,36.133,31.738,31.738,19.531,0
213881.098,21.484,17.578,40.527,25.391,41.016,0
213881.102,23.438,19.531,41.016,19.531,42.969,0
213881.106,24.414,22.461,35.645,13.184,18.555,0
213881.109,21.973,17.090,28.320,8.301,15.137,0
213881.113,20.020,23.438,20.020,21.484,21.973,0
213881.117,18.555,32.227,16.113,29.297,48.828,0
213881.121,22.461,32.715,19.043,28.320,57.617,0
213881.125,29.785,32.227,27.344,24.902,60.547,0
213881.129,33.691,30.273,35.156,25.879,88.379,0
213881.133,31.738,27.344,33.203,29.297,49.805,0
213881.137,27.832,30.273,31.250,22.461,21.973,0
213881.141,28.809,30.273,37.109,22.461,28.809,0
213881.145,33.691,32.227,38.574,32.715,38.574,0
213881.149,34.180,32.715,31.250,27.832,39.062,0
213881.152,37.598,27.832,23.926,13.184,-24.414,0
213881.156,40.039,23.438,24.902,18.555,-27.344,0
213881.160,38.086,31.738,24.414,33.203,31.738,0
213881.164,36.133,37.109,24.414,27.344,10.254,0
213881.168,35.156,31.250,31.738,18.066,-44.434,0
213881.172,36.621,38.086,29.785,24.902,-7.324,0
213881.176,35.156,38.086,28.320,30.762,93.750,0
213881.180,36.133,35.645,33.203,26.855,65.430,0
213881.184,37.109,40.039,36.621,36.133,28.320,0
213881.188,30.273,33.203,36.133,39.551,62.012,0
213881.192,29.785,27.344,36.133,26.855,36.621,0
213881.195,28.320,30.762,37.109,24.902,34.180,0
213881.199,21.973,34.180,30.762,25.391,57.617,0
213881.203,20.020,26.367,23.926,21.973,61.035,0
213881.207,20.020,23.926,26.855,20.020,61.035,0
213881.211,22.949,35.645,27.344,19.531,5.859,0
213881.215,29.297,43.457,28.320,26.855,-36.133,0
213881.219,34.180,43.457,30.762,36.621,-10.742,0
213881.223,36.621,32.227,31.738,30.273,2.930,0
213881.227,32.227,25.391,35.156,23.926,-2.441,0
213881.231,27.832,27.832,31.250,26.855,38.086,0
213881.234,35.645,32.227,31.738,30.273,73.730,0
213881.238,39.551,34.668,36.133,29.297,38.086,0
213881.242,30.762,33.691,30.762,31.250,42.969,0
213881.246,29.297,30.762,28.809,26.367,70.312,0
213881.250,38.574,34.668,35.645,24.414,71.777,0
213881.254,43.457,40.039,37.598,37.109,91.309,0
213881.258,42.969,36.621,28.809,39.551,34.180,0
213881.262,39.062,29.785,30.762,37.598,22.949,0
213881.266,33.203,32.227,35.645,32.227,63.477,0
213881.270,32.715,37.598,30.273,30.762,60.059,0
213881.274,35.156,34.180,29.297,38.574,57.617,0
213881.277,36.133,35.156,35.645,41.992,75.195,0
213881.281,36.621,38.086,41.992,36.621,59.082,0
213881.285,41.504,35.645,38.086,35.156,5.859,0
213881.289,41.016,28.809,27.832,35.645,86.426,0
213881.293,36.133,27.832,24.414,33.203,98.145,0
213881.297,37.598,29.297,29.297,29.297,47.852,0
213881.301,36.621,25.879,34.180,24.414,65.430,0
213881.305,30.273,25.391,32.227,24.902,66.406,0
213881.309,27.832,30.762,29.297,25.391,92.285,0
213881.313,32.715,34.668,30.273,28.809,84.961,0
213881.317,32.715,33.691,26.367,32.227,59.570,0
213881.320,31.250,28.809,27.344,23.438,68.359,0
213881.324,35.156,24.902,38.574,21.973,60.059,0
213881.328,29.297,24.414,38.086,23.926,39.062,0
213881.332,18.555,26.367,33.203,23.438,36.621,0
213881.336,17.090,29.297,34.668,31.250,71.777,0
213881.340,24.414,36.621,26.367,29.297,21.484,0
213881.344,31.738,38.574,15.137,23.926,-47.852,0
213881.348,31.250,34.180,19.531,25.391,-37.109,0
213881.352,34.668,31.738,34.668,34.668,-23.926,0
213881.356,32.227,25.391,41.504,37.598,27.344,0
213881.359,23.926,27.832,38.574,25.391,34.668,0
213881.363,26.367,37.109,38.086,31.250,-14.160,0
213881.367,29.785,37.598,36.133,33.203,22.461,0
213881.371,31.250,33.203,27.832,24.902,38.574,0
213881.375,31.738,33.691,21.484,24.414,17.090,0
213881.379,29.297,34.180,26.367,25.391,22.949,0
213881.383,33.691,34.180,23.926,26.855,43.945,0
213881.387,40.527,40.039,20.996,35.645,45.410,0
213881.391,37.109,38.086,32.227,31.738,27.832,0
213881.395,33.691,35.645,39.062,20.508,17.090,0
213881.399,38.574,36.133,38.574,22.461,26.367,0
213881.402,38.086,29.785,37.109,25.879,41.016,0
213881.406,29.785,23.438,32.715,20.996,41.016,0
213881.410,27.832,21.973,21.973,15.137,8.301,0
213881.414,34.180,30.762,22.949,24.902,-12.207,0
213881.418,43.945,44.922,22.949,26.855,28.809,0
213881.422,41.992,35.645,16.602,20.996,69.336,0
213881.426,37.598,24.414,26.855,23.438,23.438,0
213881.430,37.109,32.227,35.645,36.621,-3.906,0
213881.434,30.273,36.621,32.227,37.598,13.184,0
213881.438,25.879,35.645,32.715,27.832,5.859,0
213881.442,21.973,34.668,35.645,20.996,13.184,0
213881.445,13.672,27.832,32.715,16.602,29.297,0
213881.449,15.625,16.113,28.320,14.648,11.230,0
213881.453,29.297,21.484,24.414,12.207,-21.484,0
213881.457,35.645,32.227,16.113,21.484,-19.531,0
213881.461,29.297,33.691,14.648,27.832,3.418,0
213881.465,26.367,33.203,31.738,28.809,-3.418,0
213881.469,29.785,32.715,43.945,28.809,0.977,0
213881.473,29.297,34.180,41.016,25.879,38.086,0
213881.477,24.902,32.227,32.227,22.949,30.762,0
213881.481,20.020,25.391,28.809,17.578,-12.207,0
213881.484,19.043,20.996,29.785,14.648,-11.230,0
213881.488,25.879,20.020,23.926,23.438,67.383,0
213881.492,35.156,27.344,21.484,38.086,76.660,0
213881.496,33.691,34.668,24.902,34.668,20.996,0
213881.500,33.691,34.668,37.109,28.320,30.762,0
213881.504,36.621,36.621,44.434,32.227,69.824,0
213881.508,33.691,35.645,37.109,29.297,72.754,0
213881.512,32.227,26.855,23.926,26.367,41.504,0
213881.516,31.738,26.367,27.832,32.227,53.223,1
213881.520,29.785,29.297,35.156,30.762,37.598,0
213881.524,28.809,26.367,32.715,22.949,-16.113,0
213881.527,27.344,33.691,30.762,26.367,-4.395,0
213881.531,26.367,39.062,22.949,22.949,26.367,0
213881.535,25.879,30.273,25.879,20.996,11.230,0
213881.539,25.391,26.855,36.621,29.297,43.945,0
213881.543,29.297,29.297,37.598,22.949,42.480,0
213881.547,31.250,20.996,35.156,25.879,42.969,0
213881.551,32.715,22.461,32.715,30.762,16.602,0
213881.555,32.227,31.738,33.691,25.391,-48.340,0
213881.559,28.320,32.227,38.086,23.926,-19.043,0
213881.563,29.297,33.203,34.180,22.949,19.531,0
213881.567,29.297,33.691,28.809,22.949,37.109,0
213881.570,31.250,29.785,28.320,31.738,64.453,0
213881.574,36.133,27.832,33.203,42.480,35.156,0
213881.578,36.133,30.762,40.039,38.574,11.230,0
213881.582,34.180,30.273,47.363,35.156,25.391,0
213881.586,30.273,25.391,48.340,29.297,27.344,0
213881.590,28.320,24.902,37.109,28.809,24.414,0
213881.594,26.367,25.391,33.203,33.203,44.922,0
213881.598,28.320,24.902,38.086,26.855,37.598,0
213881.602,30.273,24.902,36.133,29.297,-18.066,0
213881.606,29.297,29.297,36.621,32.227,-11.719,0
213881.609,31.738,30.273,39.551,31.250,4.395,0
213881.613,31.250,23.438,32.715,31.250,1.465,0
213881.617,35.156,24.902,35.645,32.227,10.742,0
213881.621,41.016,32.715,38.574,35.156,0.488,0
213881.625,43.945,38.086,31.738,41.016,38.574,0
213881.629,42.969,36.621,30.762,43.457,51.758,0
213881.633,36.621,33.691,33.203,34.668,2.930,0
213881.637,28.809,25.879,27.832,33.203,24.902,0
213881.641,28.809,25.391,28.809,41.992,50.781,0
213881.645,31.250,32.227,32.715,43.945,22.949,0
213881.649,27.344,26.855,32.227,44.434,35.156,0
213881.652,23.438,22.461,25.879,38.574,60.059,0
213881.656,22.461,27.344,20.508,31.250,41.992,0
213881.660,27.344,32.715,27.344,29.785,33.203,0
213881.664,28.809,32.227,38.574,29.297,21.973,0
213881.668,32.715,30.762,41.992,34.180,30.273,0
213881.672,32.227,28.809,33.691,36.621,52.246,0
213881.676,24.414,31.250,34.180,27.344,3.418,0
213881.680,23.926,31.738,37.598,23.926,13.184,0
213881.684,24.414,21.484,30.762,24.414,72.266,0
213881.688,20.020,17.090,25.879,19.043,28.320,0
213881.692,25.391,22.461,24.414,20.020,20.020,0
213881.695,28.320,30.762,30.273,28.320,71.289,0
213881.699,25.391,34.668,28.320,34.668,72.266,0
213881.703,27.832,30.762,26.367,28.320,56.152,0
213881.707,22.461,26.855,28.809,23.926,44.434,0
213881.711,18.066,31.250,23.926,23.438,46.875,0
213881.715,23.926,34.668,26.855,21.973,42.480,0
213881.719,24.902,29.297,33.691,19.531,4.883,0
213881.723,26.855,25.879,33.203,17.578,-10.254,0
213881.727,26.855,23.438,30.273,18.066,15.625,0
213881.731,26.855,23.926,22.461,23.438,39.062,0
213881.734,30.762,27.344,22.461,23.926,35.156,0
213881.738,32.715,26.367,19.043,24.902,21.484,0
213881.742,33.691,21.973,20.996,20.508,51.270,0
213881.746,29.785,24.414,34.668,22.461,55.176,0
213881.750,22.949,30.273,37.598,26.855,34.180,0
213881.754,22.461,34.180,34.180,19.531,34.668,0
213881.758,23.438,40.039,29.785,29.297,36.133,0
213881.762,21.484,31.738,28.320,41.016,44.434,0
213881.766,20.020,19.043,20.996,20.508,33.203,0
213881.770,24.902,23.438,19.531,9.766,33.203,0
213881.774,30.273,31.738,31.250,23.926,61.035,0
213881.777,29.297,33.691,30.273,27.832,99.609,0
213881.781,30.273,30.273,25.879,29.785,101.074,0
213881.785,30.762,28.809,34.180,31.250,78.125,0
213881.789,19.531,23.438,39.551,25.879,86.914,0
213881.793,13.184,22.461,41.992,26.367,56.641,0
213881.797,26.855,35.156,41.504,34.668,8.789,0
213881.801,33.691,38.574,36.133,25.391,-24.414,0
213881.805,30.273,32.715,26.855,16.113,9.766,0
213881.809,30.762,27.832,20.996,18.555,65.918,0
213881.813,28.809,31.250,22.949,18.066,9.766,0
213881.817,28.320,33.691,25.391,20.020,11.719,0
213881.820,29.785,30.762,24.902,22.461,40.527,0
213881.824,27.344,30.762,26.855,18.066,12.207,0
213881.828,29.297,31.738,37.598,17.090,15.137,0
213881.832,37.598,32.715,45.410,25.391,34.668,0
213881.836,38.086,31.738,40.527,27.832,22.461,0
213881.840,34.180,33.691,31.250,36.621,39.062,0
213881.844,36.621,35.645,26.855,39.062,55.176,0
213881.848,34.180,32.715,29.297,19.043,52.734,0
213881.852,30.273,28.809,28.320,8.789,69.336,0
213881.856,36.133,32.715,25.879,17.090,8.789,0
213881.859,36.621,28.320,27.344,27.832,-35.156,0
213881.863,33.691,22.949,29.785,32.227,-2.441,0
213881.867,39.062,31.250,36.621,33.691,18.066,0
213881.871,35.645,30.273,41.016,31.250,-5.859,0
213881.875,28.809,24.414,32.227,29.297,-29.297,0
213881.879,29.297,27.832,28.320,29.785,1.465,0
213881.883,20.508,33.691,26.367,19.531,-11.230,0
213881.887,20.020,33.203,24.414,21.973,-20.020,0
213881.891,24.902,26.367,32.227,21.973,-7.812,0
213881.895,27.832,32.227,31.250,20.508,4.395,0
213881.899,38.574,43.457,26.367,34.668,16.602,0
213881.902,42.969,42.969,22.461,33.203,-24.414,0
213881.906,36.621,40.527,23.438,20.020,-6.348,0
213881.910,38.086,40.527,25.879,34.180,22.461,0
213881.914,38.086,37.109,22.461,36.621,-0.977,0
213881.918,28.809,22.949,28.809,17.090,-27.832,0
213881.922,26.367,14.648,39.062,23.438,-8.789,0
213881.926,24.414,23.438,34.668,22.949,39.062,0
213881.930,18.066,32.227,28.809,10.742,11.719,0
213881.934,11.719,32.715,30.762,3.906,-18.555,0
213881.938,19.043,35.156,29.785,7.812,13.184,0
213881.942,31.250,35.156,23.438,15.625,-3.418,0
213881.945,25.879,32.227,16.113,16.602,-18.066,0
213881.949,24.902,27.344,25.879,21.484,-38.574,0
213881.953,21.484,20.996,36.621,21.973,-42.480,0
213881.957,15.625,16.602,37.598,25.391,7.812,0
213881.961,29.785,25.879,36.621,33.203,-4.395,0
213881.965,40.039,36.621,27.832,21.484,-48.828,0
213881.969,33.203,33.203,26.855,16.113,-29.297,0
213881.973,27.344,22.461,33.691,19.531,5.859,0
213881.977,23.438,12.695,36.133,22.461,7.324,0
213881.981,19.531,18.066,28.320,20.996,21.484,0
213881.984,17.090,25.879,28.320,14.160,25.879,0
213881.988,23.438,24.902,26.855,19.531,-4.395,0
213881.992,30.762,23.926,22.461,23.926,-28.320,0
213881.996,32.227,26.855,27.832,29.297,-41.016,0
213882.000,34.668,37.109,32.715,43.945,5.859,0
213882.004,33.203,39.551,33.203,52.246,55.664,0
213882.008,26.855,26.855,28.320,36.133,31.738,0
213882.012,25.879,28.809,24.902,26.855,11.230,0
213882.016,36.133,32.715,25.879,37.598,29.297,0
213882.020,35.645,24.414,24.902,30.273,38.086,0
213882.024,29.297,29.785,22.461,20.508,47.363,0
213882.027,34.180,42.969,29.297,35.645,86.914,0
213882.031,33.203,45.410,31.738,41.016,63.477,0
213882.035,29.297,38.574,30.273,38.574,41.992,0
213882.039,34.668,35.156,33.203,39.551,41.992,0
213882.043,38.086,37.598,38.574,40.527,47.852,0
213882.047,37.109,38.574,41.504,47.852,111.328,0
213882.051,40.527,37.109,40.039,35.156,59.082,0
213882.055,41.016,33.691,35.645,17.090,13.672,0
213882.059,40.039,32.227,32.227,24.414,22.461,0
213882.063,43.457,35.156,31.738,36.133,-7.812,0
213882.067,42.480,41.016,28.809,33.203,-18.555,0
213882.070,44.434,38.574,32.227,32.227,-13.184,0
213882.074,45.898,38.086,41.016,37.109,22.461,0
213882.078,43.457,41.504,40.527,38.574,41.016,0
213882.082,45.410,40.527,40.039,39.062,46.387,0
213882.086,44.434,35.156,46.387,38.574,44.434,0
213882.090,42.480,28.320,45.410,43.457,52.734,0
213882.094,41.504,31.738,37.109,36.133,63.477,0
213882.098,33.691,35.645,34.180,22.949,52.734,0
213882.102,34.180,35.156,41.504,31.250,72.266,0
213882.106,40.039,38.086,46.387,41.992,92.773,0
213882.109,36.621,38.086,38.574,40.527,43.457,0
213882.113,32.715,30.273,36.133,36.133,48.828,0
213882.117,35.156,20.996,34.668,37.109,76.172,0
213882.121,41.504,29.297,31.738,43.457,41.992,0
213882.125,46.387,43.457,36.133,46.875,52.734,0
213882.129,43.457,42.480,34.180,46.387,90.820,0
213882.133,39.062,37.109,26.855,33.691,64.453,0
213882.137,38.574,35.645,32.227,24.414,8.789,1
213882.141,41.504,41.016,39.062,29.785,-46.875,0
213882.145,40.527,36.621,33.691,25.879,-34.668,0
213882.149,32.715,28.809,27.344,28.320,46.875,0
213882.152,33.691,28.809,26.367,35.645,38.574,0
213882.156,39.062,32.227,25.391,34.668,-2.930,0
213882.160,39.551,33.203,26.367,33.691,0.488,0
213882.164,45.898,30.273,34.180,38.086,38.086,0
213882.168,50.781,32.715,26.367,36.133,37.598,0
213882.172,37.109,36.621,16.602,37.109,21.973,0
213882.176,25.391,39.062,23.926,38.086,44.922,0
213882.180,23.926,33.691,29.297,26.367,83.008,0
213882.184,27.344,29.297,33.691,21.484,85.449,0
213882.188,32.227,26.855,33.691,28.320,43.457,0
213882.192,34.668,35.156,32.227,39.551,49.316,0
213882.195,39.551,43.457,33.203,45.410,70.312,0
213882.199,42.480,43.945,28.320,37.598,58.105,0
213882.203,37.109,41.992,26.855,25.391,30.762,0
213882.207,34.180,34.180,31.250,31.250,60.547,0
213882.211,32.227,34.668,30.273,36.133,105.469,0
213882.215,22.461,31.250,28.320,35.645,93.262,0
213882.219,23.438,27.344,27.832,34.180,107.422,0
213882.223,27.344,34.180,27.832,26.367,114.746,0
213882.227,29.297,38.086,25.879,24.414,89.844,0
213882.231,34.180,37.109,21.484,22.949,66.895,0
213882.234,39.551,31.738,29.785,28.809,61.523,0
213882.238,39.551,30.273,36.133,31.250,108.887,0
213882.242,27.344,36.133,35.156,15.137,53.711,0
213882.246,25.879,41.016,36.133,0.000,-25.391,0
213882.250,31.250,32.715,33.203,4.883,10.254,0
213882.254,20.508,26.367,24.414,14.160,11.719,0
213882.258,19.043,33.691,22.949,22.461,-20.020,0
213882.262,24.902,34.180,27.832,14.648,-11.230,0
213882.266,19.531,27.832,24.902,1.465,-10.254,0
213882.270,17.090,27.344,28.320,6.836,37.109,0
213882.274,18.555,27.832,31.738,10.254,78.125,0
213882.277,19.531,25.391,19.043,10.742,30.273,0
213882.281,24.414,27.344,16.602,17.090,12.695,0
213882.285,20.020,24.902,22.461,16.602,30.273,0
213882.289,17.090,24.414,22.949,16.113,33.203,0
213882.293,22.949,26.367,26.367,26.855,-2.441,0
213882.297,25.879,30.273,28.809,29.785,40.527,0
213882.301,33.203,30.762,27.832,25.879,76.660,0
213882.305,35.645,26.367,22.949,29.297,46.387,0
213882.309,27.344,26.367,22.949,36.133,49.316,0
213882.313,26.855,28.320,28.320,41.992,82.031,0
213882.317,38.574,37.598,26.855,32.715,83.984,0
213882.320,40.039,42.480,22.461,33.691,18.066,0
213882.324,35.645,40.527,23.438,39.062,-12.207,0
213882.328,31.738,31.738,27.832,31.738,-2.930,0
213882.332,25.879,19.043,30.273,27.832,16.602,0
213882.336,29.297,23.926,22.949,24.902,11.719,0
213882.340,29.785,38.086,20.996,25.879,11.719,0
213882.344,25.391,37.598,23.438,31.738,41.992,0
213882.348,24.414,30.273,20.020,28.320,56.641,0
213882.352,21.484,28.320,25.879,21.484,76.172,0
213882.356,17.090,28.809,30.273,19.531,67.871,0
213882.359,15.625,26.855,31.250,21.484,79.102,0
213882.363,22.949,30.762,24.414,29.785,68.359,0
213882.367,30.762,32.227,22.461,30.273,37.598,0
213882.371,25.879,23.926,26.367,27.344,56.152,0
213882.375,25.391,26.367,27.832,33.691,57.129,0
213882.379,32.715,37.109,26.855,27.832,6.348,0
213882.383,28.809,37.598,26.367,16.113,-43.945,0
213882.387,21.973,37.598,26.855,18.555,-29.297,0
213882.391,21.484,33.691,22.461,26.855,29.785,0
213882.395,23.926,28.809,22.949,37.109,30.273,0
213882.399,25.391,29.785,25.879,31.250,-0.977,0
213882.402,23.926,35.645,26.367,19.043,33.203,0
213882.406,21.973,36.133,26.367,13.672,55.176,0
213882.410,25.391,32.715,26.855,17.090,52.734,0
213882.414,28.809,32.227,26.367,21.973,24.414,0
213882.418,24.902,28.809,23.926,10.742,26.367,0
213882.422,23.438,21.484,27.344,12.695,45.410,0
213882.426,26.855,21.484,30.273,19.043,-7.324,0
213882.430,30.762,36.133,31.738,27.832,-14.160,0
213882.434,30.273,36.621,33.203,42.480,33.691,0
213882.438,23.926,27.832,16.602,40.527,58.594,0
213882.442,23.438,31.250,14.648,28.320,69.336,0
213882.445,19.531,28.809,30.273,16.602,20.508,0
213882.449,18.555,22.949,34.668,17.578,34.668,0
213882.453,26.367,22.949,37.109,27.344,63.477,0
213882.457,27.832,24.414,37.598,33.203,55.176,0
213882.461,30.273,29.297,31.738,29.297,56.641,0
213882.465,30.762,27.832,27.344,26.855,-0.977,0
213882.469,31.250,25.879,31.250,32.227,-18.066,0
213882.473,37.598,28.809,35.645,31.738,-41.504,0
213882.477,33.203,28.320,35.156,34.180,-33.203,0
213882.481,30.762,28.320,24.414,41.016,25.391,0
213882.484,34.668,33.203,23.926,38.574,39.551,0
213882.488,33.691,37.109,34.180,32.715,41.504,0
213882.492,28.809,35.645,31.250,30.762,31.738,0
213882.496,27.832,31.250,21.973,24.902,20.996,0
213882.500,37.598,29.785,24.414,30.762,0.000,0
213882.504,41.504,30.762,34.180,38.574,-0.977,0
213882.508,35.156,26.855,35.645,27.832,9.766,0
213882.512,32.227,26.855,29.785,25.391,16.113,0
213882.516,32.227,36.621,31.250,26.855,23.438,0
213882.520,30.273,43.457,39.062,27.344,56.641,0
213882.524,26.855,37.109,37.109,26.367,88.379,0
213882.527,28.809,28.320,35.156,21.973,83.496,0
213882.531,30.762,28.809,36.621,22.461,76.660,0
213882.535,29.297,30.762,40.039,23.926,74.219,0
213882.539,25.391,27.832,39.551,26.367,42.480,0
213882.543,26.367,26.855,32.227,20.996,19.531,0
213882.547,29.785,23.926,29.297,22.949,-5.371,0
213882.551,23.438,22.949,28.320,23.926,-19.531,0
213882.555,20.508,23.926,29.297,17.578,7.812,0
213882.559,27.832,29.785,24.414,24.414,-8.789,0
213882.563,32.715,34.668,30.273,20.996,-68.359,0
213882.567,33.203,28.320,39.062,30.273,-25.391,0
213882.570,30.273,25.879,32.715,33.203,34.180,0
213882.574,22.461,21.484,25.391,16.602,4.883,0
213882.578,24.902,26.855,26.855,19.043,-6.836,0
213882.582,27.344,35.645,27.344,23.438,18.066,0
213882.586,22.461,29.297,21.973,23.926,57.617,0
213882.590,29.785,27.344,28.809,32.715,39.062,0
213882.594,38.086,30.273,28.320,35.156,10.742,0
213882.598,38.086,32.227,20.020,36.133,36.621,0
213882.602,38.574,36.621,23.438,35.645,46.387,0
213882.606,39.062,38.086,31.250,24.414,41.992,0
213882.609,34.668,35.156,35.156,19.043,5.859,0
213882.613,35.156,35.156,35.645,31.250,-12.695,0
213882.617,40.039,36.621,33.203,35.156,-9.277,0
213882.621,40.527,37.598,29.297,30.762,22.949,0
213882.625,37.109,26.855,29.297,32.227,64.453,0
213882.629,35.645,22.461,34.668,43.457,69.824,0
213882.633,38.574,38.086,36.621,44.434,65.918,0
213882.637,32.227,35.645,34.180,24.414,60.059,0
213882.641,24.902,28.809,35.156,18.066,27.344,0
213882.645,24.414,29.785,32.227,26.367,24.902,0
213882.649,30.762,28.809,24.414,29.297,39.062,0
213882.652,36.621,38.086,28.809,25.391,29.785,0
213882.656,35.156,42.969,39.062,26.855,9.766,0
213882.660,33.203,33.691,32.715,24.414,23.438,0
213882.664,27.832,21.484,27.344,14.648,16.113,0
213882.668,22.949,20.020,39.062,9.277,-36.621,0
213882.672,25.391,21.973,44.434,22.949,-0.488,0
213882.676,24.414,18.066,34.180,27.832,38.574,0
213882.680,23.926,24.414,25.391,19.531,41.992,0
213882.684,27.344,35.156,23.438,19.531,-10.742,0
213882.688,24.414,34.668,22.461,18.066,-46.875,0
213882.692,25.391,32.227,28.809,24.902,6.836,0
213882.695,28.809,33.691,32.227,30.762,15.137,0
213882.699,28.809,29.785,32.715,19.531,19.043,0
213882.703,32.715,31.250,32.715,22.461,63.477,0
213882.707,31.250,36.133,29.297,19.531,48.340,0
213882.711,29.785,36.133,30.762,15.137,49.805,0
213882.715,34.668,36.133,32.227,24.902,78.125,0
213882.719,28.809,26.855,27.344,26.855,62.988,0
213882.723,26.367,28.320,27.832,25.879,41.992,0
213882.727,40.039,41.016,33.691,31.738,26.367,0
213882.731,42.969,41.504,38.086,37.598,41.504,0
213882.734,33.203,38.086,34.668,34.668,66.406,0
213882.738,30.273,39.551,26.855,26.855,45.410,0
213882.742,33.203,40.039,20.996,26.855,7.324,0
213882.746,38.086,33.203,20.996,27.344,36.621,0
213882.750,39.062,28.320,27.344,27.344,76.660,0
213882.754,37.598,33.203,21.973,27.832,59.082,0
213882.758,37.109,32.227,20.996,25.391,21.973,0
213882.762,38.086,28.809,32.227,39.551,28.320,0
213882.766,36.621,24.902,37.109,41.992,40.039,0
213882.770,31.738,24.902,38.574,32.227,6.836,2
213882.774,28.320,29.785,35.645,30.762,7.324,0
213882.777,24.414,34.180,30.762,27.344,42.969,0
213882.781,28.320,35.156,30.273,30.762,63.965,0
213882.785,35.156,28.809,29.785,30.762,41.504,0
213882.789,27.832,32.227,27.344,20.996,11.719,0
213882.793,21.484,35.645,26.367,23.438,15.137,0
213882.797,27.832,30.762,38.086,30.273,24.902,0
213882.801,32.715,32.715,48.340,29.785,-14.160,0
213882.805,31.738,34.668,42.969,21.973,-38.574,0
213882.809,29.297,28.320,31.250,23.926,-1.465,0
213882.813,28.809,27.832,29.297,30.762,15.137,0
213882.817,36.133,34.180,38.574,29.297,27.832,0
213882.820,36.133,23.438,32.715,30.273,24.414,0
213882.824,26.367,11.230,25.879,29.785,25.391,0
213882.828,26.855,21.973,31.738,27.832,36.133,0
213882.832,32.227,33.691,39.062,28.320,42.480,0
213882.836,25.879,36.621,37.109,32.227,42.969,0
213882.840,21.973,34.180,33.691,32.715,39.062,0
213882.844,24.414,27.832,34.180,31.250,73.242,0
213882.848,20.020,20.508,28.809,21.973,39.062,0
213882.852,20.996,22.461,24.902,18.555,20.508,0
213882.856,28.809,32.227,30.762,30.273,37.109,0
213882.859,35.645,31.250,32.715,29.297,12.207,0
213882.863,38.574,22.461,24.414,22.949,15.625,0
213882.867,38.086,26.367,26.855,29.785,35.645,0
213882.871,36.133,31.250,39.062,32.227,23.926,0
213882.875,36.133,41.016,42.969,28.320,0.977,0
213882.879,33.691,41.504,39.551,27.344,0.488,0
213882.883,33.691,35.156,28.809,27.832,20.020,0
213882.887,34.180,34.180,19.531,28.320,25.879,0
213882.891,34.668,37.598,18.555,24.902,-8.301,0
213882.895,34.180,39.551,24.902,28.320,-36.133,0
213882.899,31.738,35.645,29.297,36.621,-16.602,0
213882.902,30.273,28.320,32.227,31.250,16.113,0
213882.906,32.715,24.414,28.320,30.762,37.598,0
213882.910,33.691,27.832,31.250,35.156,44.922,0
213882.914,33.203,38.086,37.109,30.762,41.016,0
213882.918,37.109,46.875,26.855,32.227,50.781,0
213882.922,32.715,37.109,24.414,35.156,49.316,0
213882.926,28.809,27.344,35.156,29.785,55.664,0
213882.930,31.738,30.762,38.574,29.785,47.852,0
213882.934,39.062,33.691,41.504,51.270,15.625,0
213882.938,40.527,28.809,33.691,50.293,34.668,0
213882.942,35.156,26.367,20.996,28.320,47.852,0
213882.945,35.645,30.273,28.320,28.320,28.809,0
213882.949,34.180,27.832,40.039,32.227,50.293,0
213882.953,34.180,21.484,41.016,32.715,49.316,0
213882.957,36.621,28.809,37.598,33.691,60.059,0
213882.961,34.668,36.621,37.109,28.809,90.820,0
213882.965,32.227,35.156,34.668,23.438,66.895,0
213882.969,32.715,34.180,31.250,28.320,24.414,0
213882.973,41.504,37.109,35.156,33.691,23.926,0
213882.977,46.875,39.062,32.227,38.086,4.883,0
213882.981,37.598,30.762,26.367,40.527,-45.410,0
213882.984,30.273,26.855,26.855,34.668,-47.852,0
213882.988,34.668,33.691,28.320,33.203,-48.340,0
213882.992,40.039,37.109,34.668,36.621,-15.625,0
213882.996,45.410,30.762,41.016,38.086,20.020,0
213883.000,46.387,32.715,39.551,44.434,39.551,0
213883.004,39.551,43.945,33.691,46.875,107.910,0
213883.008,36.621,44.434,26.855,33.203,116.699,0
213883.012,39.062,40.039,30.762,34.668,79.590,0
213883.016,37.598,36.621,34.668,40.039,71.289,0
213883.020,35.156,36.621,26.367,31.250,74.219,0
213883.024,36.621,41.016,26.367,26.367,35.645,0
213883.027,39.062,40.527,32.227,31.250,43.457,0
213883.031,40.039,37.598,34.180,28.809,67.383,0
213883.035,37.109,42.969,36.621,25.391,52.734,0
213883.039,35.645,46.387,35.645,26.367,57.617,0
213883.043,32.227,36.621,31.250,24.902,49.805,0
213883.047,29.785,26.367,28.320,22.949,10.742,0
213883.051,27.832,30.762,28.809,20.996,26.855,0
213883.055,26.855,40.039,33.691,23.438,52.734,0
213883.059,26.855,36.621,32.715,21.484,33.203,0
213883.063,20.508,34.180,26.367,19.531,68.848,0
213883.067,19.043,35.156,30.762,21.484,85.449,0
213883.070,24.902,34.180,33.691,29.297,50.781,0
213883.074,26.367,34.668,28.320,24.902,31.738,0
213883.078,25.879,34.180,29.297,22.461,51.758,0
213883.082,27.344,30.273,28.320,26.855,44.434,0
213883.086,28.809,26.855,23.438,20.508,-0.488,0
213883.090,30.762,27.344,32.715,20.996,11.230,0
213883.094,35.156,25.879,44.434,33.203,40.527,0
213883.098,32.715,20.508,42.480,32.227,62.500,0
213883.102,29.785,26.855,31.738,18.066,27.832,0
213883.106,36.133,35.156,26.855,20.508,-10.742,0
213883.109,35.645,32.227,29.297,29.785,9.277,0
213883.113,32.227,28.809,32.715,26.855,19.531,0
213883.117,30.273,28.809,28.809,31.250,35.645,0
213883.121,27.832,31.250,25.391,36.621,25.391,0
213883.125,29.785,36.133,31.738,31.250,-3.418,0
213883.129,37.109,35.156,34.180,25.879,19.531,0
213883.133,32.715,26.855,33.203,20.996,-2.441,0
213883.137,24.902,21.484,33.691,19.043,-5.859,0
213883.141,33.203,34.180,31.738,30.273,34.668,0
213883.145,34.180,38.574,28.320,28.809,14.648,0
213883.149,32.715,34.668,31.250,28.809,-1.465,0
213883.152,35.645,37.598,29.297,36.621,18.555,0
213883.156,30.762,36.621,20.996,29.785,34.668,0
213883.160,29.297,32.715,22.949,22.949,59.082,0
213883.164,30.273,26.367,27.832,30.273,48.340,0
213883.168,23.438,25.879,35.156,27.344,-9.766,0
213883.172,21.973,33.203,38.086,18.066,-29.785,0
213883.176,21.484,31.738,25.879,12.695,-9.277,0
213883.180,18.066,22.949,21.973,7.324,18.555,0
213883.184,21.484,24.902,29.297,13.672,26.855,0
213883.188,22.949,29.297,29.785,17.090,22.949,0
213883.192,18.555,25.391,25.879,13.672,-13.672,0
213883.195,18.066,24.902,21.484,16.602,-10.254,0
213883.199,22.949,25.879,26.367,25.879,23.438,0
213883.203,27.344,21.973,30.762,20.508,-18.066,0
213883.207,28.320,22.461,34.180,15.625,-34.180,0
213883.211,30.273,30.762,38.086,19.531,9.766,0
213883.215,29.785,31.738,31.250,20.996,21.484,0
213883.219,27.832,34.668,28.809,25.391,0.488,0
213883.223,25.879,34.180,29.297,23.438,-44.922,0
213883.227,35.156,25.391,20.020,29.785,-32.227,0
213883.231,32.715,22.461,23.926,35.156,-8.789,0
213883.234,8.789,21.484,35.645,16.602,22.949,0
213883.238,-0.488,20.996,39.551,2.930,46.387,0
213883.242,6.348,26.855,35.645,9.277,38.086,0
213883.246,11.719,30.762,37.598,16.602,29.785,0
213883.250,7.812,27.832,40.039,8.789,39.551,0
213883.254,10.254,29.785,33.203,10.254,46.387,0
213883.258,19.043,34.668,36.621,33.203,73.730,0
213883.262,25.391,29.297,39.062,32.227,69.824,0
213883.266,29.785,24.902,31.738,13.184,26.367,0
213883.270,27.832,26.855,27.344,10.742,35.156,0
213883.274,24.902,29.785,25.879,15.137,125.977,0
213883.277,26.367,31.738,28.809,21.484,124.512,0
213883.281,29.297,34.668,33.691,30.273,58.105,0
213883.285,33.691,34.180,34.180,35.645,68.848,0
213883.289,33.203,28.320,36.133,37.598,68.848,0
213883.293,32.715,26.367,37.598,44.434,81.055,0
213883.297,34.180,29.785,41.016,44.434,83.008,0
213883.301,30.762,33.203,35.156,41.504,82.031,0
213883.305,26.367,31.738,26.855,38.574,81.543,0
213883.309,22.461,27.344,28.809,34.180,78.125,0
213883.313,20.508,24.902,34.668,25.879,48.828,0
213883.317,21.973,22.949,33.691,28.320,27.832,0
213883.320,29.297,26.367,34.180,36.621,53.711,0
213883.324,33.691,35.156,40.527,34.180,54.688,0
213883.328,35.156,36.133,40.527,35.156,62.012,0
213883.332,31.250,31.738,35.156,32.715,102.539,0
213883.336,28.320,30.273,32.715,29.297,115.723,0
213883.340,33.203,37.109,33.691,29.297,77.637,0
213883.344,38.086,41.504,30.273,34.668,45.410,0
213883.348,35.156,35.156,21.484,30.273,52.246,0
213883.352,27.832,29.297,21.973,28.809,72.754,0
213883.356,28.320,30.762,29.785,26.367,44.922,0
213883.359,31.250,26.367,39.062,24.902,-13.672,0
213883.363,29.297,19.531,39.062,29.785,-1.465,0
213883.367,26.855,27.344,29.785,25.879,14.160,0
213883.371,24.414,39.062,28.320,19.043,25.879,0
213883.375,20.508,40.527,30.762,13.672,32.227,0
213883.379,22.949,36.621,35.645,22.949,55.664,0
213883.383,30.762,41.504,37.598,29.297,75.195,0
213883.387,34.668,35.645,30.273,30.762,30.762,2
213883.391,28.809,22.461,27.832,33.691,26.367,0
213883.395,25.391,25.879,38.574,38.086,55.664,0
213883.399,32.715,30.273,40.527,38.574,64.941,0
213883.402,34.180,33.691,36.133,33.691,56.641,0
213883.406,34.668,37.109,38.574,29.785,56.641,0
213883.410,36.621,35.156,34.180,30.762,36.133,0
213883.414,36.133,41.016,27.344,33.691,6.836,0
213883.418,40.039,49.805,29.785,33.691,-25.391,0
213883.422,41.016,43.457,37.598,36.133,-0.977,0
213883.426,37.598,37.598,41.016,29.297,48.828,0
213883.430,31.250,38.574,35.156,23.438,23.438,0
213883.434,28.809,35.156,32.227,26.367,2.441,0
213883.438,35.645,32.227,36.621,32.715,3.906,0
213883.442,35.156,33.691,38.086,29.785,-11.230,0
213883.445,30.762,30.762,35.156,21.973,-9.766,0
213883.449,31.738,28.320,30.273,21.484,12.207,0
213883.453,26.855,31.738,24.902,31.250,10.254,0
213883.457,24.902,36.621,28.809,31.738,18.066,0
213883.461,22.461,33.691,33.203,18.066,28.809,0
213883.465,16.113,31.250,27.832,14.648,-11.719,0
213883.469,17.578,33.691,24.902,28.809,-45.410,0
213883.473,23.926,38.574,26.367,34.180,-36.621,0
213883.477,22.461,36.621,28.320,21.973,20.020,0
213883.481,19.043,31.250,27.832,20.996,59.082,0
213883.484,21.973,31.738,26.367,22.461,54.688,0
213883.488,30.273,33.691,35.645,29.297,47.852,0
213883.492,41.504,30.273,41.992,44.922,51.270,0
213883.496,35.645,26.367,37.109,45.898,62.988,0
213883.500,15.625,27.832,32.715,22.461,68.359,0
213883.504,12.695,32.227,35.156,7.812,34.668,0
213883.508,23.926,32.227,29.785,10.742,-5.859,0
213883.512,25.879,29.297,20.996,22.461,12.207,0
213883.516,15.137,27.344,20.996,29.297,16.113,0
213883.520,11.719,28.320,25.391,15.625,-8.789,0
213883.524,16.602,33.691,24.902,10.254,38.574,0
213883.527,23.438,36.621,27.832,18.555,71.777,0
213883.531,28.320,35.156,31.250,22.949,32.227,0
213883.535,28.320,32.227,31.738,23.926,51.758,0
213883.539,31.250,36.133,36.621,26.855,81.543,0
213883.543,30.273,39.551,36.133,26.855,80.566,0
213883.547,27.344,33.691,35.156,20.996,72.266,0
213883.551,26.367,31.250,27.832,16.113,46.875,0
213883.555,25.391,30.762,19.531,20.020,33.203,0
213883.559,27.344,31.250,24.414,31.738,45.898,0
213883.563,24.902,29.297,26.367,28.320,74.707,0
213883.567,25.879,20.996,28.320,28.320,63.965,0
213883.570,34.180,21.484,33.203,31.250,30.762,0
213883.574,36.133,29.297,38.086,26.367,71.777,0
213883.578,33.691,28.320,38.086,23.926,93.750,0
213883.582,33.203,31.738,35.156,31.250,91.797,0
213883.586,30.273,39.062,34.180,33.203,92.773,0
213883.590,26.855,37.598,32.715,26.367,74.219,0
213883.594,27.344,30.273,28.809,25.879,49.316,0
213883.598,27.344,24.902,29.785,20.996,21.484,0
213883.602,29.785,21.484,31.738,16.113,37.109,0
213883.606,38.086,25.391,32.227,26.367,18.066,0
213883.609,36.133,30.762,32.227,29.785,-4.883,0
213883.613,32.715,29.785,33.691,23.438,41.992,0
213883.617,32.227,30.273,31.250,27.832,35.645,0
213883.621,28.320,32.715,28.809,29.297,12.695,0
213883.625,28.320,33.691,33.691,31.738,32.715,0
213883.629,26.855,31.250,34.668,35.156,-6.348,0
213883.633,27.832,28.320,34.180,26.855,-13.672,0
213883.637,30.273,24.414,33.203,25.391,-9.277,0
213883.641,24.414,21.484,31.250,26.855,-36.133,0
213883.645,19.043,25.879,29.297,27.832,-40.039,0
213883.649,22.461,30.762,27.832,32.227,-9.766,0
213883.652,21.973,34.180,29.297,23.926,-4.883,0
213883.656,28.320,36.133,25.879,11.230,-30.273,0
213883.660,40.039,36.133,28.320,19.531,5.371,0
213883.664,43.457,38.086,22.949,32.715,28.809,0
213883.668,41.504,34.668,18.066,36.621,29.785,0
213883.672,38.574,25.879,20.020,39.551,14.648,0
213883.676,31.738,26.855,22.461,42.969,46.875,0
213883.680,26.367,30.762,33.691,41.504,97.656,0
213883.684,26.855,32.227,37.598,30.273,68.359,0
213883.688,25.391,30.762,33.203,24.902,0.977,0
213883.692,26.855,33.203,32.227,30.273,2.441,0
213883.695,34.668,38.086,34.668,39.551,63.965,0
213883.699,32.227,36.133,32.227,35.156,53.223,0
213883.703,30.273,28.320,27.344,31.250,22.949,0
213883.707,32.715,31.738,30.762,38.574,80.566,0
213883.711,33.203,35.645,31.250,39.551,99.609,0
213883.715,31.738,33.203,22.461,33.691,92.773,0
213883.719,24.902,26.855,30.762,27.344,82.520,0
213883.723,25.879,23.438,40.527,27.832,66.895,0
213883.727,27.344,30.273,35.156,33.691,50.781,0
213883.731,21.973,32.227,32.715,33.691,12.695,0
213883.734,20.996,30.273,29.297,30.762,3.418,0
213883.738,24.902,31.738,22.949,40.039,-4.883,0
213883.742,28.809,33.691,29.785,42.480,4.395,0
213883.746,26.855,36.621,37.109,31.250,36.621,0
213883.750,24.414,38.086,37.109,30.762,33.203,0
213883.754,23.926,38.086,31.250,27.832,49.805,0
213883.758,23.926,34.180,25.391,18.066,40.527,0
213883.762,22.949,30.762,27.344,14.648,7.812,0
213883.766,21.484,32.715,30.273,18.066,25.879,0
213883.770,25.879,28.320,28.320,22.949,36.621,0
213883.774,28.320,24.414,18.555,24.414,5.371,0
213883.777,33.691,30.273,19.043,26.367,-38.574,0
213883.781,32.715,35.156,29.297,26.855,-45.410,0
213883.785,27.344,36.133,35.645,28.320,2.441,0
213883.789,28.320,36.621,32.715,31.250,16.602,0
213883.793,32.715,36.133,35.156,33.691,-8.789,0
213883.797,37.598,31.738,39.062,32.715,28.809,0
213883.801,30.762,29.785,24.902,28.320,51.758,0
213883.805,21.973,27.344,21.973,25.391,-4.395,0
213883.809,23.926,25.391,29.297,26.855,0.488,0
213883.813,25.879,25.879,24.414,24.414,65.430,0
213883.817,23.438,24.902,24.902,20.508,27.832,0
213883.820,22.461,29.785,30.762,23.926,22.949,0
213883.824,21.484,36.133,33.203,25.879,36.621,0
213883.828,26.855,35.156,33.691,29.785,50.781,0
213883.832,34.180,36.621,32.227,32.715,130.371,0
213883.836,33.691,37.598,32.227,27.832,89.355,0
213883.840,32.715,39.062,41.992,28.320,22.461,0
213883.844,36.133,37.109,41.504,34.668,69.824,0
213883.848,35.645,32.715,31.738,31.738,56.152,0
213883.852,33.203,29.785,27.832,19.531,46.387,0
213883.856,30.273,26.367,21.973,16.113,82.520,0
213883.859,26.855,31.738,23.926,16.113,60.059,0
213883.863,31.250,36.133,30.762,15.137,59.570,0
213883.867,31.738,29.297,27.832,12.207,38.574,0
213883.871,26.367,22.461,27.344,13.184,-16.113,0
213883.875,22.461,24.902,28.809,16.113,-11.230,0
213883.879,26.367,31.250,34.180,16.113,-5.859,0
213883.883,33.691,40.527,38.086,20.996,-35.645,0
213883.887,29.297,44.922,35.645,24.902,-30.273,0
213883.891,22.461,41.992,34.180,25.391,-20.996,0
213883.895,25.879,38.086,30.762,26.367,-29.297,0
213883.899,25.879,31.738,30.762,22.461,-20.508,0
213883.902,29.785,27.832,35.156,25.879,19.043,0
213883.906,35.645,29.297,38.574,26.367,13.184,0
213883.910,32.227,23.926,35.645,20.996,-27.344,0
213883.914,32.227,19.043,33.203,26.367,-34.180,0
213883.918,32.227,26.855,32.715,33.203,-23.926,0
213883.922,25.879,37.109,32.227,33.203,-11.230,0
213883.926,19.043,37.598,25.879,23.438,-3.418,0
213883.930,17.090,31.738,28.809,19.531,-5.859,0
213883.934,18.555,30.762,38.574,24.414,-1.465,0
213883.938,18.066,31.738,40.039,26.855,-14.648,0
213883.942,27.832,31.738,40.527,28.320,3.906,0
213883.945,38.574,28.809,41.504,30.273,65.430,0
213883.949,33.691,25.391,39.062,33.203,69.336,0
213883.953,28.809,29.785,33.691,36.133,61.035,0
213883.957,34.180,37.598,29.785,41.504,64.453,0
213883.961,38.086,39.551,26.855,43.457,47.852,0
213883.965,39.551,39.062,25.879,40.527,34.668,0
213883.969,36.621,29.297,28.809,34.668,23.438,0
213883.973,31.738,19.531,33.203,28.320,0.977,0
213883.977,28.320,20.996,37.598,20.020,37.109,0
213883.981,32.227,23.926,38.574,23.926,48.828,0
213883.984,38.086,27.344,36.133,27.832,23.926,0
213883.988,32.715,30.273,36.133,22.461,54.199,0
213883.992,31.250,31.738,34.180,23.926,63.477,0
213883.996,34.668,32.715,32.227,26.367,61.035,0
213884.000,34.180,31.738,32.715,24.414,66.895,0
213884.004,33.691,30.762,34.668,26.367,65.430,0
213884.008,34.180,35.156,38.574,33.691,58.594,0
213884.012,35.645,38.086,35.645,36.621,62.988,0
213884.016,38.086,32.227,28.320,26.367,50.293,0
213884.020,34.668,20.508,35.156,18.555,56.641,0
213884.024,22.949,18.066,42.480,28.809,104.980,0
213884.027,21.484,35.156,42.969,28.809,84.961,0
213884.031,23.926,42.480,43.457,18.066,61.523,0
213884.035,24.414,38.574,43.945,21.484,76.172,0
213884.039,26.855,39.551,39.551,26.855,83.496,0
213884.043,30.273,39.551,35.156,24.902,64.941,0
213884.047,30.762,36.621,31.738,27.832,81.055,0
213884.051,22.461,28.809,26.367,28.809,118.164,0
213884.055,26.855,20.996,30.273,30.273,102.539,0
213884.059,37.109,22.461,36.621,31.250,75.195,0
213884.063,24.414,25.879,36.133,12.695,58.594,0
213884.067,16.113,27.344,31.738,4.395,38.574,0
213884.070,28.809,32.227,28.809,17.090,25.879,0
213884.074,33.691,32.227,27.832,26.367,43.945,0
213884.078,29.297,27.832,27.832,27.344,63.965,0
213884.082,23.926,30.273,25.879,17.578,50.781,0
213884.086,21.484,34.668,22.461,15.137,41.016,0
213884.090,23.438,31.738,20.020,19.531,20.996,0
213884.094,26.367,32.715,18.066,34.180,2.930,1
213884.098,24.902,35.645,20.020,35.645,22.949,0
213884.102,22.949,26.855,30.762,20.508,14.160,0
213884.106,29.297,22.949,34.180,23.438,-20.020,0
213884.109,35.156,32.715,29.297,23.926,-17.090,0
213884.113,34.180,34.668,28.320,22.949,-9.277,0
213884.117,30.273,26.367,32.715,28.320,17.090,0
213884.121,26.367,23.438,30.762,30.762,4.395,0
213884.125,28.809,25.391,18.555,30.762,-47.363,0
213884.129,35.645,28.809,22.461,32.715,-29.297,0
213884.133,40.527,35.645,35.156,41.992,14.648,0
213884.137,34.668,37.109,40.527,35.156,20.508,0
213884.141,29.785,36.133,40.039,24.414,-6.348,0
213884.145,30.762,32.715,36.621,24.414,42.480,0
213884.149,25.391,24.902,36.133,24.414,64.453,0
213884.152,21.484,29.785,36.133,24.902,22.949,0
213884.156,19.043,34.180,29.785,21.973,14.648,0
213884.160,21.484,29.785,25.391,22.461,6.348,0
213884.164,27.832,28.809,20.996,21.973,3.906,0
213884.168,26.367,33.691,19.043,16.602,-40.039,0
213884.172,28.320,38.574,26.367,18.066,-23.926,0
213884.176,32.715,33.691,26.855,21.484,23.926,0
213884.180,28.320,27.344,27.344,24.902,-25.391,0
213884.184,27.832,29.297,35.645,22.461,-23.438,0
213884.188,34.668,33.691,38.086,21.484,33.691,0
213884.192,33.691,33.203,34.668,17.578,20.020,0
213884.195,24.902,28.809,29.785,16.602,17.090,0
213884.199,25.391,34.180,27.832,24.902,19.531,0
213884.203,29.785,36.621,24.414,26.367,-8.789,0
213884.207,32.715,31.738,22.949,32.227,12.695,0
213884.211,34.180,27.832,20.020,32.715,10.254,0
213884.215,35.645,32.715,20.996,21.484,-27.832,0
213884.219,36.621,37.109,23.926,28.320,-2.441,0
213884.223,38.086,35.156,18.066,35.645,-11.230,0
213884.227,37.598,28.809,17.578,41.016,-20.020,0
213884.231,35.645,30.762,22.461,46.875,6.348,0
213884.234,28.809,32.227,22.461,33.691,42.480,0
213884.238,20.996,30.762,24.414,20.020,24.902,0
213884.242,17.090,32.227,23.438,26.367,19.043,0
213884.246,18.066,35.156,25.879,34.668,40.527,0
213884.250,26.855,35.156,36.133,39.062,29.297,0
213884.254,27.832,34.668,39.062,36.621,0.977,0
213884.258,26.367,37.109,34.180,22.461,-24.902,0
213884.262,29.785,32.715,32.715,25.391,-17.090,0
213884.266,31.738,30.273,23.926,30.273,36.133,0
213884.270,35.156,38.574,22.461,26.367,42.480,0
213884.274,36.621,42.969,29.785,31.738,32.227,0
213884.277,33.203,36.621,33.691,31.738,49.316,0
213884.281,30.273,29.785,28.809,28.809,51.270,0
213884.285,33.691,32.227,22.949,31.738,76.660,0
213884.289,32.715,35.156,19.043,27.832,76.660,0
213884.293,34.668,37.598,25.879,30.762,64.941,0
213884.297,34.668,33.691,35.156,34.180,70.312,0
213884.301,20.996,30.273,30.273,23.926,31.738,0
213884.305,14.648,31.738,27.344,17.578,24.414,0
213884.309,17.578,24.902,30.762,30.273,50.781,0
213884.313,16.602,27.832,35.645,37.109,54.199,0
213884.317,19.043,34.668,33.203,32.227,65.430,0
213884.320,26.855,30.762,30.762,31.250,85.449,0
213884.324,29.297,30.273,27.832,31.738,92.773,0
213884.328,27.832,28.809,23.438,23.926,70.801,0
213884.332,28.809,21.484,24.902,22.461,71.289,0
213884.336,30.273,21.484,33.203,31.738,74.707,0
213884.340,34.668,27.832,38.086,39.062,56.152,0
213884.344,35.156,27.344,33.691,40.039,67.383,0
213884.348,37.598,31.738,30.273,39.551,50.293,0
213884.352,42.480,38.574,32.715,42.480,19.043,0
213884.356,40.039,39.062,25.391,43.457,25.879,0
213884.359,35.645,34.180,24.902,31.738,19.531,0
213884.363,36.133,31.738,36.133,23.438,17.090,0
213884.367,41.992,32.227,35.156,29.785,34.668,0
213884.371,44.922,31.738,31.738,38.086,47.363,0
213884.375,43.945,28.320,34.668,38.086,49.316,0
213884.379,41.992,29.297,31.738,26.855,21.484,0
213884.383,36.133,30.273,32.227,27.832,28.320,0
213884.387,33.203,29.297,31.250,35.156,71.289,0
213884.391,33.203,28.809,32.715,29.297,35.156,0
213884.395,33.203,30.762,35.156,24.414,1.953,0
213884.399,32.715,26.855,35.156,33.691,57.129,0
213884.402,32.715,23.438,36.133,40.039,94.238,0
213884.406,32.715,25.879,33.691,37.109,43.945,0
213884.410,32.715,35.645,36.621,46.875,28.320,0
213884.414,35.156,41.016,36.621,47.363,46.387,0
213884.418,34.180,34.668,29.785,35.645,40.039,0
213884.422,29.297,29.785,25.391,37.598,32.227,0
213884.426,24.902,32.227,27.344,32.715,55.176,0
213884.430,28.320,34.668,30.762,29.785,41.504,0
213884.434,27.832,33.691,28.809,41.504,22.461,0
213884.438,23.926,28.809,34.668,32.715,-8.301,0
213884.442,19.531,28.809,31.738,17.090,32.715,0
213884.445,16.602,31.250,21.484,20.996,87.402,0
213884.449,18.066,29.785,22.461,23.438,55.176,0
213884.453,19.043,30.762,24.414,24.414,34.668,0
213884.457,26.855,33.203,32.715,25.391,26.367,0
213884.461,35.645,38.086,40.039,29.785,39.551,0
213884.465,36.621,34.668,38.574,28.809,42.480,0
213884.469,41.016,27.344,30.273,25.391,30.762,0
213884.473,48.340,25.879,28.320,26.367,29.785,0
213884.477,48.828,29.785,30.762,30.762,44.434,0
213884.481,41.504,34.180,29.297,31.250,11.719,0
213884.484,35.645,35.645,23.926,27.344,18.555,0
213884.488,28.809,30.762,22.461,35.156,28.809,0
213884.492,21.973,25.391,26.855,44.434,42.969,0
213884.496,25.879,28.320,32.227,38.086,49.316,0
213884.500,25.391,24.414,39.551,27.344,11.719,0
213884.504,20.020,23.438,37.109,27.832,40.527,0
213884.508,19.531,25.391,34.668,32.227,42.480,0
213884.512,24.902,23.438,36.621,36.133,-17.090,0
213884.516,28.809,23.438,36.133,31.738,-19.531,0
213884.520,29.785,29.785,32.715,34.668,12.207,0
213884.524,29.297,36.133,28.809,32.227,-14.648,0
213884.527,33.203,36.621,31.738,31.738,-5.859,0
213884.531,31.250,37.109,35.645,30.273,27.344,0
213884.535,25.391,37.598,31.250,26.855,25.879,0
213884.539,28.320,37.598,34.180,32.715,25.879,0
213884.543,26.855,33.203,40.039,29.785,20.996,0
213884.547,27.832,32.715,32.227,34.180,35.156,0
213884.551,33.203,35.645,28.320,35.645,40.527,0
213884.555,33.691,38.574,34.180,28.809,16.602,0
213884.559,32.715,37.109,35.645,26.855,9.277,0
213884.563,32.227,26.855,33.203,30.762,46.387,0
213884.567,28.320,22.949,30.273,30.273,54.199,0
213884.570,27.832,30.273,27.344,26.855,24.902,0
213884.574,30.762,30.273,24.902,23.926,16.602,0
213884.578,39.062,26.855,18.066,32.715,16.602,0
213884.582,43.457,33.691,25.879,34.668,1.465,0
213884.586,33.691,36.621,41.992,20.020,-20.996,0
213884.590,28.809,35.156,42.969,14.160,-36.621,0
213884.594,34.668,35.645,36.133,22.949,-16.113,0
213884.598,33.203,36.621,29.785,24.414,25.879,0
213884.602,31.738,36.621,28.320,30.762,48.340,0
213884.606,33.203,28.809,27.344,38.086,51.270,0
213884.609,26.855,21.973,16.602,25.879,44.922,0
213884.613,31.738,21.484,15.625,32.227,44.922,0
213884.617,40.039,20.508,26.367,41.016,49.805,0
213884.621,23.438,20.996,26.367,23.438,41.992,0
213884.625,9.766,27.344,25.879,11.719,20.996,0
213884.629,17.578,37.598,32.227,20.020,19.531,0
213884.633,28.809,40.039,37.109,30.762,24.414,0
213884.637,25.391,34.668,35.645,30.273,15.625,0
213884.641,20.020,30.762,22.949,19.531,9.766,0
213884.645,25.391,24.902,22.949,23.926,13.184,0
213884.649,27.832,24.414,32.227,32.715,22.949,0
213884.652,32.227,31.738,26.367,34.180,31.738,0
213884.656,30.762,28.320,23.438,33.691,49.805,0
213884.660,26.855,20.508,28.320,26.855,55.664,0
213884.664,28.320,21.973,28.320,24.902,61.035,0
213884.668,35.156,31.738,29.785,31.250,62.988,0
213884.672,39.551,38.086,37.598,34.180,51.758,0
213884.676,34.180,33.203,39.062,28.809,43.457,0
213884.680,32.227,27.832,29.297,22.949,22.949,0
213884.684,30.762,25.879,22.461,22.949,7.812,0
213884.688,34.668,29.785,20.996,29.297,22.461,0
213884.692,36.133,39.062,19.531,35.156,20.996,0
213884.695,31.738,44.434,21.973,27.832,-3.906,0
213884.699,27.832,37.598,30.273,18.555,-12.207,0
213884.703,29.785,28.320,37.598,22.949,7.812,0
213884.707,30.762,24.902,34.668,29.297,-2.441,0
213884.711,36.133,24.902,36.133,27.832,-13.184,0
213884.715,47.363,34.180,35.156,33.691,17.578,0
213884.719,45.410,42.969,23.926,30.762,1.953,0
213884.723,36.621,46.875,20.020,24.902,-31.738,0
213884.727,29.297,42.969,21.973,23.926,2.441,0
213884.731,25.391,41.016,21.484,30.273,30.762,0
213884.734,27.344,43.457,31.738,37.598,27.344,0
213884.738,24.902,37.109,31.738,33.691,49.316,0
213884.742,21.973,28.320,26.367,28.320,67.871,0
213884.746,30.273,26.855,36.621,25.391,48.340,0
213884.750,40.527,31.250,38.574,28.320,41.504,0
213884.754,40.527,36.621,33.691,30.273,35.645,0
213884.758,35.156,35.156,34.180,25.879,17.090,0
213884.762,35.156,32.227,36.621,34.180,10.742,0
213884.766,34.180,33.203,30.273,28.809,7.812,1
213884.770,33.691,34.668,30.273,19.043,2.930,0
213884.774,34.180,33.203,26.367,30.762,21.973,0
213884.777,35.645,31.250,22.949,36.133,33.203,0
213884.781,35.156,31.250,32.227,36.621,6.348,0
213884.785,38.086,33.203,34.180,40.527,-14.648,0
213884.789,42.480,33.691,31.250,35.645,-23.926,0
213884.793,35.156,34.668,37.598,28.809,0.488,0
213884.797,32.715,35.645,39.062,35.156,55.664,0
213884.801,37.598,33.691,31.738,38.086,23.438,0
213884.805,34.180,30.762,30.762,34.180,23.926,0
213884.809,39.062,35.156,31.738,36.133,60.547,0
213884.813,39.551,40.039,31.738,40.527,4.395,0
213884.817,25.879,35.645,28.809,34.180,9.766,0
213884.820,22.461,32.715,20.020,36.621,25.879,0
213884.824,25.879,35.645,23.926,35.645,37.598,0
213884.828,26.367,39.062,35.645,26.367,66.406,0
213884.832,29.297,38.086,34.180,32.227,25.879,0
213884.836,37.109,44.434,34.668,39.551,26.367,0
213884.840,36.133,43.457,35.156,33.203,60.059,0
213884.844,28.809,31.250,30.762,26.367,34.668,0
213884.848,27.832,24.902,29.297,24.414,23.926,0
213884.852,30.762,24.902,25.391,26.367,24.414,0
213884.856,33.691,29.297,22.461,29.785,15.137,0
213884.859,34.668,38.574,28.320,32.227,29.785,0
213884.863,37.109,41.504,37.598,37.109,56.152,0
213884.867,39.551,39.551,37.109,34.180,48.340,0
213884.871,40.527,38.574,38.574,31.250,36.621,0
213884.875,40.039,33.691,42.480,30.762,64.941,0
213884.879,40.527,32.227,37.598,34.180,62.988,0
213884.883,45.410,34.668,31.738,38.574,44.434,0
213884.887,47.852,34.668,32.715,36.133,12.207,0
213884.891,45.410,35.156,27.344,41.016,-21.973,0
213884.895,41.992,35.156,19.043,49.805,42.480,0
213884.899,38.574,41.016,31.738,44.922,41.016,0
213884.902,29.785,40.527,43.457,39.062,6.348,0
213884.906,23.438,30.273,40.527,32.227,56.152,0
213884.910,23.926,30.762,44.434,30.762,41.016,0
213884.914,16.602,34.180,38.086,29.785,11.230,0
213884.918,13.672,32.715,27.832,15.137,18.066,0
213884.922,15.625,31.250,24.902,12.695,33.691,0
213884.926,15.137,32.715,21.484,23.926,37.598,0
213884.930,22.949,36.133,31.250,23.926,14.160,0
213884.934,30.273,33.691,35.156,18.555,-16.113,0
213884.938,27.832,31.738,25.391,22.461,17.090,0
213884.942,22.949,25.391,21.484,26.367,71.289,0
213884.945,25.391,20.020,24.414,22.461,31.250,0
213884.949,27.344,27.344,24.414,21.973,0.977,0
213884.953,25.879,33.691,24.414,21.973,8.789,0
213884.957,30.273,36.133,24.902,25.879,24.902,0
213884.961,40.039,39.062,23.438,28.809,0.000,0
213884.965,38.086,35.156,27.344,18.066,-42.480,0
213884.969,33.203,31.250,33.691,20.996,6.836,0
213884.973,41.992,34.180,32.715,38.086,29.785,0
213884.977,48.828,35.156,32.715,38.086,18.555,0
213884.981,43.457,33.691,33.203,35.645,38.086,0
213884.984,37.109,28.320,30.762,33.203,14.648,0
213884.988,36.133,25.391,22.461,25.879,7.324,0
213884.992,36.133,31.250,21.484,22.949,-3.418,0
213884.996,33.203,30.762,29.297,20.996,-33.203,0
213885.000,31.250,26.855,31.738,25.391,13.184,0
213885.004,31.250,32.227,36.133,28.320,41.504,0
213885.008,28.809,29.297,30.762,25.879,5.859,0
213885.012,21.484,25.879,21.973,26.855,7.324,0
213885.016,15.137,28.320,28.320,23.438,51.270,0
213885.020,8.301,28.809,33.691,19.043,15.137,0
213885.024,4.395,29.297,36.133,16.602,-23.926,0
213885.027,4.883,27.344,35.156,16.602,-17.578,0
213885.031,8.789,24.414,30.273,22.461,-44.434,0
213885.035,11.230,20.996,27.344,24.902,-56.641,0
213885.039,12.695,20.020,27.832,20.996,-61.035,0
213885.043,14.648,24.902,34.668,21.973,-73.242,0
213885.047,19.043,26.367,37.109,28.320,-40.527,0
213885.051,22.949,27.832,34.180,26.855,-23.926,0
213885.055,22.461,29.785,29.297,25.391,-51.270,0
213885.059,30.762,29.785,28.809,43.457,-5.859,0
213885.063,40.039,31.738,29.785,55.664,43.457,0
213885.067,37.109,27.344,33.691,42.969,53.711,0
213885.070,37.109,26.855,36.133,39.551,54.199,0
213885.074,36.133,30.273,30.273,45.410,105.957,0
213885.078,36.133,32.227,26.855,41.016,104.492,0
213885.082,37.598,30.762,28.809,33.203,64.453,0
213885.086,35.645,28.809,31.738,30.762,75.684,0
213885.090,29.785,29.297,32.227,27.344,76.660,0
213885.094,24.414,27.832,31.250,27.344,71.289,0
213885.098,25.879,28.809,25.391,26.855,62.012,0
213885.102,28.320,33.203,23.926,22.949,26.367,0
213885.106,28.320,36.133,27.344,21.973,21.484,0
213885.109,28.320,34.180,24.902,20.508,49.316,0
213885.113,24.902,28.320,27.344,16.113,53.223,0
213885.117,21.973,28.809,30.273,16.113,44.922,0
213885.121,21.973,33.203,30.762,19.043,68.848,0
213885.125,23.926,32.227,31.738,17.578,56.152,0
213885.129,24.902,31.250,26.855,21.973,19.043,0
213885.133,23.438,35.156,27.344,22.949,43.457,0
213885.137,24.902,33.691,37.598,23.438,75.684,0
213885.141,22.949,30.273,36.133,25.879,36.133,0
213885.145,22.461,30.273,26.855,23.438,10.254,0
213885.149,26.367,34.180,28.320,27.832,33.691,0
213885.152,22.461,32.715,25.879,34.180,49.805,0
213885.156,14.648,28.809,22.461,26.855,37.598,0
213885.160,16.113,28.809,29.297,19.043,7.812,0
213885.164,21.973,29.297,32.715,25.879,18.555,0
213885.168,26.367,31.738,31.738,27.344,11.230,0
213885.172,27.832,32.715,28.809,20.020,-2.930,0
213885.176,29.785,28.809,26.855,16.113,-0.977,0
213885.180,33.691,27.832,26.855,21.973,19.043,0
213885.184,30.762,29.297,25.391,26.367,22.949,0
213885.188,29.297,35.156,26.855,21.484,-28.320,0
213885.192,34.668,36.133,26.367,24.414,-29.785,0
213885.195,33.691,29.785,20.508,30.273,-16.602,0
213885.199,31.738,33.691,20.996,29.785,-17.090,0
213885.203,28.809,38.574,28.320,23.438,-8.789,0
213885.207,24.902,34.180,32.715,18.066,11.230,0
213885.211,24.414,28.809,27.832,21.973,34.180,0
213885.215,26.855,32.227,32.227,29.785,30.762,0
213885.219,30.273,33.691,33.203,29.785,29.297,0
213885.223,27.832,31.250,28.320,29.785,21.973,0
213885.227,27.832,27.344,28.809,28.320,4.395,0
213885.231,26.855,24.902,23.926,18.555,6.348,0
213885.234,27.344,28.320,20.508,17.578,11.719,0
213885.238,29.297,35.645,27.344,20.508,59.082,0
213885.242,29.297,36.621,28.320,22.949,83.984,0
213885.246,32.227,32.715,25.391,26.367,77.148,0
213885.250,32.715,33.691,26.855,34.180,65.430,0
213885.254,32.227,32.715,27.344,37.598,51.758,0
213885.258,27.344,31.250,30.273,30.762,56.152,0
213885.262,28.809,32.227,29.785,31.738,66.895,0
213885.266,34.180,35.156,31.250,30.273,100.586,0
213885.270,36.621,41.016,36.133,25.879,102.539,0
213885.274,36.621,23.438,34.180,26.855,63.965,0
213885.277,30.762,11.719,26.855,29.297,28.809,0
213885.281,29.785,25.879,26.367,33.203,-4.883,0
213885.285,35.156,33.203,28.809,41.504,14.160,0
213885.289,34.180,33.691,27.832,38.086,23.438,0
213885.293,32.715,31.738,23.926,26.367,-19.043,0
213885.297,39.551,29.297,26.367,32.227,12.207,0
213885.301,45.410,32.227,31.738,42.969,64.941,0
213885.305,42.969,34.180,29.297,43.945,42.969,0
213885.309,41.504,30.273,26.855,41.016,22.949,0
213885.313,44.922,22.949,29.297,40.039,51.270,0
213885.317,47.852,23.438,31.738,44.922,64.453,0
213885.320,42.480,22.461,30.762,36.133,47.363,0
213885.324,35.156,23.438,32.715,37.109,1.953,0
213885.328,37.598,30.762,21.484,40.039,-16.113,0
213885.332,35.156,31.738,14.160,21.973,3.906,0
213885.336,32.715,31.738,25.391,14.648,-0.488,0
213885.340,34.180,36.133,32.715,15.625,22.461,0
213885.344,32.715,34.180,33.203,26.367,83.496,0
213885.348,37.598,31.738,26.367,47.363,92.773,0
213885.352,40.527,35.645,30.762,40.527,42.969,0
213885.356,37.598,37.598,41.992,32.715,50.781,0
213885.359,33.203,27.832,43.457,37.598,87.891,0
213885.363,27.344,21.484,36.133,36.133,70.312,0
213885.367,32.227,27.344,23.926,43.945,47.852,0
213885.371,34.668,28.320,26.855,41.992,37.598,0
213885.375,34.180,26.367,31.738,26.367,42.969,0
213885.379,37.109,30.762,26.367,22.949,41.016,0
213885.383,30.273,34.668,22.949,20.508,43.945,0
213885.387,30.762,34.668,31.738,28.320,16.602,0
213885.391,37.598,37.109,39.062,42.480,-20.996,0
213885.395,32.227,36.133,36.133,35.156,-11.719,0
213885.399,28.320,31.250,35.156,22.949,-6.348,0
213885.402,25.391,24.902,31.738,21.484,13.184,0
213885.406,23.438,23.926,32.227,21.484,-2.441,2
213885.410,24.902,24.902,29.785,21.973,-50.293,0
213885.414,25.391,26.855,31.250,31.250,-53.711,0
213885.418,26.367,28.809,34.668,41.992,-12.695,0
213885.422,25.879,30.762,25.391,30.762,3.906,0
213885.426,26.855,36.133,24.902,12.695,-29.297,0
213885.430,26.855,38.086,38.086,12.695,-45.410,0
213885.434,18.555,34.180,33.691,17.090,10.254,0
213885.438,19.531,33.203,24.414,22.461,13.184,0
213885.442,25.391,32.227,29.785,27.344,-5.859,0
213885.445,31.250,32.715,35.156,26.855,26.367,0
213885.449,41.504,34.180,39.551,34.180,41.016,0
213885.453,32.715,35.156,35.156,31.738,58.105,0
213885.457,15.625,33.203,31.250,16.602,62.500,0
213885.461,19.531,29.785,31.250,21.973,41.016,0
213885.465,32.227,29.785,33.691,39.551,22.461,0
213885.469,31.738,31.738,31.738,41.016,45.410,0
213885.473,31.250,35.645,25.879,27.832,-1.465,0
213885.477,36.621,34.180,31.250,29.297,-36.621,0
213885.481,35.156,33.691,29.785,40.527,16.113,0
213885.484,34.180,30.273,29.297,35.156,17.578,0
213885.488,38.086,25.391,35.156,29.297,0.488,0
213885.492,36.133,26.367,32.715,32.715,25.391,0
213885.496,35.645,31.738,29.785,29.297,47.363,0
213885.500,41.992,29.297,29.785,37.109,51.758,0
213885.504,42.480,25.391,35.156,41.016,23.926,0
213885.508,42.480,28.320,41.504,37.109,20.020,0
213885.512,43.457,33.691,41.016,45.898,73.730,0
213885.516,40.527,38.086,33.691,40.527,62.500,0
213885.520,35.645,40.039,27.344,32.227,12.207,0
213885.524,27.832,37.598,27.344,36.133,24.902,0
213885.527,21.973,31.250,29.297,20.508,47.852,0
213885.531,22.461,28.809,35.156,12.695,39.551,0
213885.535,27.832,26.367,37.109,24.902,22.949,0
213885.539,28.320,26.855,35.645,28.809,59.570,0
213885.543,30.273,30.273,38.574,32.227,57.129,0
213885.547,37.598,34.180,38.086,35.156,22.461,0
213885.551,39.551,37.598,39.062,41.016,27.344,0
213885.555,39.551,31.250,35.645,42.480,50.293,0
213885.559,41.992,34.668,31.250,35.645,30.273,0
213885.563,39.551,40.039,38.086,30.273,-22.949,0
213885.567,36.621,36.133,44.434,32.227,-3.418,0
213885.570,36.133,36.133,46.387,44.434,67.871,0
213885.574,35.645,36.621,43.945,41.992,69.824,0
213885.578,34.668,35.156,34.668,39.062,57.129,0
213885.582,33.203,34.668,25.879,39.551,62.012,0
213885.586,34.668,35.645,31.250,37.598,58.594,0
213885.590,40.527,36.621,45.410,41.016,47.363,0
213885.594,42.969,35.156,47.852,41.504,58.594,0
213885.598,41.504,37.598,32.715,43.457,48.828,0
213885.602,40.039,36.133,24.414,42.480,45.410,0
213885.606,38.086,32.227,30.273,41.016,35.645,0
213885.609,34.668,35.645,32.227,32.715,0.000,0
213885.613,32.227,37.109,34.180,33.691,19.043,0
213885.617,31.738,36.621,32.715,38.086,13.184,0
213885.621,34.180,39.551,26.855,36.621,-2.930,0
213885.625,39.062,38.086,20.020,41.504,11.230,0
213885.629,41.504,35.156,28.809,42.480,9.766,0
213885.633,41.992,36.133,39.551,39.551,5.859,0
213885.637,37.598,32.227,33.691,36.621,16.113,0
213885.641,37.598,30.273,23.438,33.691,41.504,0
213885.645,46.387,34.668,29.785,33.691,65.430,0
213885.649,41.992,36.621,35.645,33.203,59.570,0
213885.652,37.598,36.621,29.297,41.504,17.578,0
213885.656,43.457,36.621,29.297,45.898,-6.348,0
213885.660,44.434,33.203,33.203,31.738,10.254,0
213885.664,41.504,35.156,33.691,27.344,8.301,0
213885.668,41.504,39.062,35.645,34.180,-17.578,0
213885.672,43.457,39.062,33.691,36.621,37.598,0
213885.676,41.992,39.062,30.762,41.504,39.062,0
213885.680,36.621,36.621,25.879,37.598,-1.465,0
213885.684,27.344,30.762,22.461,28.320,8.301,0
213885.688,20.996,27.832,30.762,23.926,22.461,0
213885.692,19.043,24.902,32.227,25.879,21.973,0
213885.695,18.066,20.508,30.762,23.926,-12.207,0
213885.699,23.438,23.438,31.250,27.832,-21.484,0
213885.703,26.855,36.133,31.250,33.203,-13.672,0
213885.707,26.855,38.574,32.715,30.762,21.484,0
213885.711,27.344,34.668,33.691,28.809,-9.277,0
213885.715,27.344,34.668,36.133,32.715,-38.574,0
213885.719,31.250,29.785,31.250,41.016,20.996,0
213885.723,39.062,31.738,29.785,39.551,9.277,0
213885.727,41.016,34.180,34.180,32.715,23.926,0
213885.731,36.621,27.832,34.180,27.832,39.551,0
213885.734,36.133,26.855,31.250,30.762,31.250,0
213885.738,45.410,32.227,34.668,44.922,41.016,0
213885.742,51.270,34.180,38.086,53.223,20.508,0
213885.746,53.711,39.551,37.109,47.852,16.113,0
213885.750,53.223,42.969,32.227,49.316,22.461,0
213885.754,46.875,35.156,24.902,41.992,6.348,0
213885.758,39.551,29.297,23.926,31.738,20.996,0
213885.762,36.133,34.668,31.250,31.250,83.008,0
213885.766,37.598,41.016,38.574,44.434,64.941,0
213885.770,35.156,40.039,33.203,44.922,51.270,0
213885.774,24.902,32.227,27.344,34.180,41.992,0
213885.777,16.602,26.855,27.832,26.367,20.020,0
213885.781,17.090,31.250,27.832,20.996,25.391,0
213885.785,13.672,32.715,29.785,20.508,9.766,0
213885.789,11.719,30.762,33.691,22.949,-8.301,0
213885.793,22.949,32.715,33.203,31.250,-10.254,0
213885.797,30.762,34.668,22.949,44.434,16.602,0
213885.801,22.949,32.227,20.996,33.691,2.930,0
213885.805,14.648,26.855,29.297,9.277,-4.883,0
213885.809,18.066,29.785,32.227,15.625,26.855,0
213885.813,20.996,36.133,31.250,24.414,44.922,0
213885.817,18.555,31.250,31.250,17.578,41.992,0
213885.820,18.555,22.461,25.391,19.531,40.527,0
213885.824,21.484,27.344,21.973,24.902,45.410,0
213885.828,24.414,30.273,25.391,22.461,14.648,0
213885.832,21.484,28.809,28.809,17.578,23.438,0
213885.836,20.020,33.203,35.156,16.602,34.180,0
213885.840,23.926,31.738,36.621,16.602,9.277,0
213885.844,23.926,31.250,30.762,15.137,32.715,0
213885.848,21.484,31.250,28.320,14.648,16.602,0
213885.852,19.531,30.273,36.133,22.461,-2.930,0
213885.856,17.578,29.785,40.527,28.320,26.855,0
213885.859,12.695,28.320,36.133,22.949,38.086,0
213885.863,11.719,22.461,34.180,24.902,7.812,0
213885.867,13.672,23.926,36.133,24.414,-18.555,0
213885.871,14.648,30.273,33.203,20.996,0.977,0
213885.875,18.066,31.250,31.250,17.578,27.344,0
213885.879,21.973,30.273,31.738,15.137,37.109,0
213885.883,23.438,32.715,29.785,19.043,32.715,0
213885.887,25.391,35.156,27.344,20.996,47.852,0
213885.891,25.879,31.738,20.020,23.438,39.551,0
213885.895,27.344,24.414,19.043,23.926,-1.953,0
213885.899,26.367,27.344,27.832,24.414,19.531,0
213885.902,24.414,36.133,37.598,29.785,34.180,0
213885.906,27.344,37.109,34.668,34.180,44.434,0
213885.910,25.391,33.691,26.855,20.508,49.805,0
213885.914,22.461,31.250,25.391,19.531,61.035,0
213885.918,23.438,26.855,24.902,31.250,65.918,0
213885.922,25.391,27.344,25.391,32.227,29.297,0
213885.926,33.203,36.621,22.461,32.227,14.160,0
213885.930,37.109,37.109,24.902,40.039,27.832,0
213885.934,36.621,36.621,33.203,43.945,7.812,0
213885.938,33.203,34.180,37.109,29.785,-31.250,0
213885.942,33.203,31.738,36.621,29.785,12.207,0
213885.945,37.598,36.621,35.156,44.434,46.875,0
213885.949,38.574,34.180,31.738,41.504,33.203,0
213885.953,35.156,30.762,29.785,35.645,-1.953,0
213885.957,29.297,30.762,30.273,33.203,7.324,0
213885.961,29.297,33.691,28.320,29.297,31.250,0
213885.965,38.086,32.227,26.855,34.668,28.320,0
213885.969,41.504,30.762,21.484,41.504,45.410,0
213885.973,39.551,36.621,20.020,48.340,54.199,0
213885.977,40.039,38.574,27.832,51.270,67.383,0
213885.981,33.691,33.691,31.250,32.227,42.969,0
213885.984,26.855,27.832,35.156,17.578,10.742,0
213885.988,31.738,30.273,39.062,23.438,19.043,0
213885.992,33.203,35.156,37.598,30.273,18.066,0
213885.996,25.879,29.297,25.879,31.250,-9.766,0
213886.000,30.273,26.855,18.555,30.273,7.812,0
213886.004,35.645,33.691,24.414,29.785,27.832,0
213886.008,29.785,32.715,28.809,19.531,1.465,0
213886.012,33.203,31.250,28.809,20.996,-37.109,0
213886.016,45.410,36.133,24.414,37.109,-41.504,0
213886.020,48.340,38.086,29.785,38.574,-13.184,0
213886.024,35.645,33.203,33.691,28.320,-16.602,0
213886.027,28.320,30.762,29.297,23.438,-7.812,0
213886.031,31.250,35.156,30.762,23.926,31.738,0
213886.035,32.715,30.273,30.762,29.785,57.617,0
213886.039,32.715,26.855,23.438,35.645,42.480,0
213886.043,27.832,35.645,25.879,26.855,-11.230,0
213886.047,30.762,41.992,34.180,16.113,-14.160,0
213886.051,37.109,42.480,40.527,24.414,28.809,0
213886.055,40.039,41.504,47.363,29.785,39.062,0
213886.059,37.109,41.016,42.969,26.855,22.949,0
213886.063,37.109,41.016,33.691,33.691,37.109,0
213886.067,38.574,38.574,29.297,37.109,55.664,0
213886.070,32.715,31.250,30.273,26.367,27.832,0
213886.074,31.738,30.273,24.414,23.438,23.438,0
213886.078,36.133,37.598,18.066,23.926,23.438,0
213886.082,39.551,43.945,25.391,39.062,29.785,0
213886.086,34.668,42.480,30.273,33.203,64.453,0
213886.090,29.297,32.715,26.855,11.230,45.410,0
213886.094,34.180,28.809,27.344,21.484,69.824,0
213886.098,35.645,34.668,25.879,40.039,74.219,0
213886.102,34.668,37.109,25.879,41.992,59.570,0
213886.106,36.133,29.785,33.203,24.902,59.570,0
213886.109,35.645,26.855,36.133,21.484,34.180,0
213886.113,37.109,33.203,33.691,25.391,47.363,1
213886.117,39.062,36.133,35.645,23.926,78.613,0
213886.121,38.086,44.922,39.551,23.438,84.961,0
213886.125,35.156,43.457,33.203,22.949,41.992,0
213886.129,30.273,28.809,21.973,24.414,27.832,0
213886.133,27.832,21.484,24.902,19.531,29.785,0
213886.137,31.250,20.020,33.691,23.926,20.020,0
213886.141,34.180,32.227,30.762,36.621,11.230,0
213886.145,29.785,34.180,27.344,30.762,-3.906,0
213886.149,20.996,21.484,32.715,25.879,17.090,0
213886.152,20.020,22.461,32.227,29.785,23.438,0
213886.156,18.066,32.715,27.832,29.297,34.668,0
213886.160,19.043,35.645,32.715,20.996,41.992,0
213886.164,27.832,29.297,35.156,21.484,59.570,0
213886.168,28.320,25.879,35.156,26.855,70.801,0
213886.172,27.832,25.879,38.574,28.320,36.621,0
213886.176,30.762,24.414,36.133,30.273,15.137,0
213886.180,28.809,24.414,33.691,22.949,-22.461,0
213886.184,27.832,28.320,33.203,21.484,7.812,0
213886.188,30.762,35.645,30.762,28.809,46.875,0
213886.192,26.367,32.227,33.691,23.438,46.387,0
213886.195,19.531,25.879,34.180,21.973,36.621,0
213886.199,21.484,25.879,25.879,34.180,67.383,0
213886.203,21.484,31.250,25.391,35.645,129.395,0
213886.207,21.973,35.645,27.832,28.320,111.328,0
213886.211,24.414,31.738,25.391,26.855,86.426,0
213886.215,20.508,23.926,31.738,24.414,89.844,0
213886.219,18.555,25.391,31.250,19.043,69.336,0
213886.223,25.391,33.203,22.461,14.160,52.734,0
213886.227,25.879,30.273,24.902,14.160,58.594,0
213886.231,20.996,26.855,33.203,22.461,54.688,0
213886.234,25.879,29.785,39.551,30.273,70.312,0
213886.238,26.367,33.203,37.109,28.809,59.082,0
213886.242,22.949,37.109,32.227,30.762,45.410,0
213886.246,31.738,41.992,37.598,42.969,52.734,0
213886.250,35.156,34.668,35.156,38.574,27.344,0
213886.254,27.832,26.367,29.785,27.832,39.551,0
213886.258,22.461,23.438,30.273,23.438,34.180,0
213886.262,19.043,21.973,26.367,22.461,-1.953,0
213886.266,22.461,21.484,27.832,23.438,-28.809,0
213886.270,29.297,22.461,32.227,23.438,-24.414,0
213886.274,33.691,26.367,30.273,29.785,17.578,0
213886.277,34.180,31.250,26.855,32.715,64.941,0
213886.281,33.691,33.691,32.227,34.668,63.477,0
213886.285,34.668,33.691,36.133,40.039,27.832,0
213886.289,35.156,35.645,34.180,33.691,27.344,0
213886.293,35.156,25.391,38.086,28.809,45.898,0
213886.297,23.438,18.066,31.738,22.949,76.172,0
213886.301,14.160,19.531,25.879,16.113,61.523,0
213886.305,16.602,20.020,31.250,16.602,49.316,0
213886.309,24.414,28.320,32.715,25.879,58.594,0
213886.313,26.367,33.203,23.926,31.738,22.461,0
213886.317,22.461,27.832,22.461,26.855,16.602,0
213886.320,25.879,32.227,31.250,25.879,68.359,0
213886.324,30.273,42.969,35.156,33.691,83.984,0
213886.328,32.227,43.945,36.621,41.504,64.453,0
213886.332,32.227,40.039,32.227,35.156,65.918,0
213886.336,32.227,35.156,26.367,22.949,60.059,0
213886.340,35.156,36.621,24.414,20.020,41.016,0
213886.344,37.598,38.574,24.902,22.461,46.875,0
213886.348,33.203,33.203,25.879,22.949,40.039,0
213886.352,33.691,29.785,27.832,20.020,45.898,0
213886.356,38.574,30.273,27.832,20.996,8.301,0
213886.359,37.109,27.344,25.391,22.461,8.301,0
213886.363,36.133,23.438,31.250,20.020,57.129,0
213886.367,40.039,33.203,37.109,27.344,36.133,0
213886.371,39.551,41.016,32.715,34.668,25.391,0
213886.375,35.645,40.039,28.320,26.367,44.434,0
213886.379,32.227,38.086,30.273,20.020,44.922,0
213886.383,32.227,34.668,29.297,20.508,39.551,0
213886.387,31.250,33.691,33.691,28.320,24.414,0
213886.391,29.297,34.180,38.574,29.297,-1.953,0
213886.395,22.461,31.250,34.180,20.020,5.859,0
213886.399,15.137,33.203,21.973,16.113,3.418,0
213886.402,16.113,34.668,18.066,13.184,-23.926,0
213886.406,15.625,27.832,27.832,13.184,-21.484,0
213886.410,15.625,23.926,32.227,20.020,-6.348,0
213886.414,21.484,24.414,27.832,24.902,16.113,0
213886.418,23.926,27.832,30.273,27.832,50.293,0
213886.422,21.484,32.715,34.180,30.762,60.059,0
213886.426,21.484,31.250,27.344,28.809,47.852,0
213886.430,29.297,33.691,24.414,32.715,44.434,0
213886.434,33.203,41.016,28.809,33.691,1.465,0
213886.438,33.691,41.504,28.809,41.504,13.672,0
213886.442,33.691,31.250,23.926,54.199,25.879,0
213886.445,28.320,24.902,19.531,41.992,7.324,0
213886.449,29.297,33.691,19.531,24.414,4.395,0
213886.453,33.203,33.691,23.926,25.879,9.766,0
213886.457,31.738,29.297,29.297,32.227,26.855,0
213886.461,30.762,31.250,30.273,20.996,-20.020,0
213886.465,31.738,32.227,25.879,16.602,0.488,0
213886.469,29.297,31.738,26.367,25.391,35.645,0
213886.473,27.832,32.227,27.832,28.320,4.883,0
213886.477,27.344,29.297,28.320,24.414,55.664,0
213886.481,28.809,30.273,25.391,27.344,80.078,0
213886.484,27.344,36.133,22.461,33.691,62.988,0
213886.488,27.344,35.645,24.414,28.320,68.359,0
213886.492,33.691,33.691,22.949,20.996,84.473,0
213886.496,31.738,31.738,19.531,23.438,129.395,0
213886.500,30.762,34.668,23.926,32.715,138.184,0
213886.504,34.180,34.668,31.738,33.691,104.980,0
213886.508,35.156,27.832,31.250,26.855,77.148,0
213886.512,36.621,27.344,27.344,19.531,73.242,0
213886.516,32.715,27.344,23.926,23.926,88.379,0
213886.520,32.227,27.832,20.508,29.785,58.594,0
213886.524,35.156,35.156,27.344,28.809,53.711,0
213886.527,32.227,36.133,34.180,26.367,64.941,0
213886.531,31.738,37.109,32.227,22.949,49.316,0
213886.535,33.691,38.086,29.785,28.320,32.715,0
213886.539,28.809,32.715,22.949,38.086,-6.836,0
213886.543,30.273,26.855,20.508,47.852,-10.742,0
213886.547,33.203,26.367,36.133,34.668,28.809,0
213886.551,36.133,27.344,40.039,19.531,8.301,0
213886.555,40.527,28.320,36.621,30.762,-17.090,0
213886.559,36.621,32.715,33.691,40.039,9.277,0
213886.563,29.297,41.016,21.973,34.668,20.996,0
213886.567,20.508,39.551,21.484,23.926,23.438,0
213886.570,7.324,29.297,32.715,14.160,11.719,0
213886.574,12.207,24.414,45.410,16.113,30.273,0
213886.578,28.809,28.809,53.711,21.484,9.766,0
213886.582,33.203,29.297,48.828,23.926,-29.785,0
213886.586,32.227,22.461,36.621,25.879,-10.742,0
213886.590,33.203,23.438,29.785,28.809,23.926,0
213886.594,32.227,33.691,28.809,29.297,-4.395,0
213886.598,35.156,41.504,29.297,34.180,-66.406,0
213886.602,37.109,37.109,22.949,41.992,-50.781,0
213886.606,36.133,34.180,22.949,42.480,-31.250,0
213886.609,35.156,32.227,32.227,40.039,-61.523,0
213886.613,34.180,27.832,35.645,45.410,-40.527,0
213886.617,33.691,28.809,34.668,42.969,-9.277,0
213886.621,32.715,33.691,36.621,33.203,40.527,0
213886.625,35.645,35.645,36.621,38.574,32.715,0
213886.629,38.086,30.762,33.691,30.762,13.672,0
213886.633,35.645,30.762,32.227,22.461,15.137,0
213886.637,35.156,32.227,31.250,27.344,-36.133,0
213886.641,35.156,33.203,20.996,20.996,-35.645,0
213886.645,35.645,39.551,17.578,20.996,-25.879,0
213886.649,36.621,38.574,26.855,30.273,20.508,1
213886.652,35.645,35.645,34.668,29.785,54.199,0
213886.656,33.691,36.621,39.551,25.391,25.391,0
213886.660,40.527,33.203,38.086,33.691,-5.371,0
213886.664,55.664,36.133,39.062,58.594,30.273,0
213886.668,38.574,30.273,36.621,50.293,59.082,0
213886.672,11.230,21.484,29.785,20.020,5.859,0
213886.676,14.160,30.762,21.484,17.578,12.207,0
213886.680,20.508,35.156,20.020,26.367,39.551,0
213886.684,23.438,28.809,31.250,29.297,38.086,0
213886.688,27.832,26.855,36.133,17.578,5.371,0
213886.692,25.391,28.320,32.227,12.695,-1.953,0
213886.695,26.367,29.785,23.926,23.438,43.457,0
213886.699,37.598,34.180,26.855,28.320,44.434,0
213886.703,36.133,41.016,27.344,25.879,67.383,0
213886.707,29.785,37.109,18.066,21.484,47.852,0
213886.711,37.109,28.809,25.879,34.668,28.320,0
213886.715,41.504,28.809,33.691,42.480,38.574,0
213886.719,36.621,32.227,33.203,29.785,20.996,0
213886.723,38.574,34.668,34.668,26.855,48.340,0
213886.727,35.156,31.250,33.691,21.484,42.480,0
213886.731,30.273,34.180,31.738,18.066,-7.812,0
213886.734,35.645,37.598,28.320,26.855,33.691,0
213886.738,36.621,29.785,25.879,31.250,43.945,0
213886.742,37.109,26.855,25.879,35.156,27.832,0
213886.746,38.574,34.668,24.414,38.574,36.621,0
213886.750,35.156,39.062,20.996,24.414,36.133,0
213886.754,30.273,37.109,14.648,21.484,77.637,0
213886.758,28.809,37.598,24.902,31.250,77.637,0
213886.762,25.391,36.621,37.598,21.973,47.363,0
213886.766,22.949,35.156,32.715,11.230,48.828,0
213886.770,23.926,32.227,30.273,19.531,73.730,0
213886.774,24.902,31.250,30.273,24.414,43.945,0
213886.777,31.250,29.297,29.785,22.949,23.438,0
213886.781,33.203,25.391,27.344,30.273,53.223,0
213886.785,27.344,32.715,19.531,40.527,60.547,0
213886.789,24.414,39.062,17.090,33.691,12.207,0
213886.793,25.879,38.086,24.414,20.996,-11.719,0
213886.797,25.879,31.738,29.785,20.508,-18.555,0
213886.801,21.484,29.785,24.414,32.227,-7.324,0
213886.805,24.902,27.832,25.391,38.086,-3.906,0
213886.809,26.367,21.484,34.668,31.738,-11.719,0
213886.813,30.762,27.832,32.715,30.273,-4.883,0
213886.817,37.598,37.598,24.902,31.738,33.203,0
213886.820,30.273,33.691,24.902,28.809,60.547,0
213886.824,22.461,24.414,27.344,28.809,46.875,0
213886.828,22.461,21.973,29.297,38.574,42.969,0
213886.832,23.926,24.902,29.297,44.922,35.156,0
213886.836,24.902,30.273,22.949,33.691,7.324,0
213886.840,27.344,28.320,25.879,24.414,16.602,0
213886.844,23.926,25.879,34.180,24.414,58.105,0
213886.848,22.461,31.250,35.156,29.785,20.996,0
213886.852,22.949,32.227,28.809,30.273,-16.602,0
213886.856,20.508,31.250,25.391,20.508,-0.488,0
213886.859,19.531,27.344,28.809,23.926,29.785,0
213886.863,19.531,23.438,26.855,30.762,41.016,0
213886.867,26.855,30.762,29.785,29.297,48.828,0
213886.871,33.203,32.715,38.574,31.250,56.152,0
213886.875,32.227,24.414,33.691,33.691,41.992,0
213886.879,36.133,26.367,24.414,40.527,32.715,0
213886.883,43.457,37.109,28.320,43.457,2.930,0
213886.887,47.363,39.551,35.156,37.598,55.664,0
213886.891,43.945,33.691,37.109,33.203,140.625,0
213886.895,35.645,31.738,33.203,33.203,147.461,0
213886.899,33.203,27.832,24.902,38.086,116.699,0
213886.902,35.156,27.344,25.391,44.922,137.207,0
213886.906,33.691,33.203,25.879,44.434,141.602,0
213886.910,37.598,39.062,32.227,46.875,80.078,0
213886.914,41.992,36.133,35.645,46.387,63.965,0
213886.918,41.504,29.785,31.250,43.457,66.406,0
213886.922,38.086,28.320,36.133,43.945,55.176,0
213886.926,27.832,31.250,33.203,35.645,20.508,0
213886.930,18.066,29.297,28.320,30.273,32.227,0
213886.934,18.066,20.508,30.273,34.180,101.074,0
213886.938,21.973,19.531,29.785,29.297,94.238,0
213886.942,23.926,25.391,26.855,24.902,71.777,0
213886.945,24.902,27.344,27.832,26.367,47.363,0
213886.949,23.926,30.273,28.320,24.902,42.969,0
213886.953,22.949,31.738,19.043,25.879,66.895,0
213886.957,27.832,32.227,29.785,31.250,61.523,0
213886.961,32.227,34.180,44.922,25.391,52.734,0
213886.965,27.344,23.926,37.598,18.066,34.668,0
213886.969,19.043,12.207,24.414,12.207,25.391,0
213886.973,15.625,20.020,20.508,9.766,24.902,0
213886.977,21.973,31.738,25.879,13.672,27.832,0
213886.981,23.438,33.203,30.762,24.414,63.965,0
213886.984,23.438,32.715,32.227,32.715,65.918,0
213886.988,29.785,35.645,30.762,24.902,1.465,0
213886.992,30.762,32.227,35.156,32.227,39.062,0
213886.996,30.762,29.297,34.668,38.086,84.961,0
213887.000,36.621,27.344,33.691,35.156,68.848,0
213887.004,34.180,24.902,33.691,34.668,70.312,0
213887.008,23.926,31.250,31.250,27.832,36.621,0
213887.012,19.531,35.156,28.809,25.879,10.742,0
213887.016,21.973,31.738,30.273,23.438,33.691,0
213887.020,22.949,26.855,26.367,20.020,46.387,0
213887.024,26.855,26.855,26.855,28.320,53.223,0
213887.027,32.227,31.250,30.273,35.645,68.359,0
213887.031,36.621,33.203,28.320,38.574,45.898,0
213887.035,37.598,30.273,26.855,34.180,25.391,0
213887.039,32.227,30.762,29.297,30.762,49.805,0
213887.043,27.344,32.715,31.738,27.344,86.914,0
213887.047,28.809,30.273,31.250,17.090,62.988,0
213887.051,33.203,29.785,34.180,19.043,51.758,0
213887.055,36.621,33.203,35.156,21.973,67.383,0
213887.059,39.062,34.668,26.855,16.602,30.762,0
213887.063,41.504,32.227,21.484,17.090,21.484,0
213887.067,41.504,32.227,19.531,20.020,57.129,0
213887.070,39.062,32.227,27.344,31.250,60.547,0
213887.074,32.715,29.785,33.691,37.598,62.012,0
213887.078,29.785,32.227,32.227,34.180,31.738,0
213887.082,20.508,29.785,33.691,21.484,-17.578,0
213887.086,15.137,28.320,34.668,21.973,8.789,0
213887.090,17.578,31.250,35.645,24.902,0.977,0
213887.094,17.578,34.668,38.574,18.555,-5.859,0
213887.098,21.484,31.250,37.109,22.461,31.250,0
213887.102,26.367,29.297,27.344,28.320,13.184,0
213887.106,24.902,34.668,20.508,25.391,-15.625,0
213887.109,23.926,27.832,26.855,21.973,-2.930,0
213887.113,23.926,21.484,37.598,33.691,27.832,0
213887.117,21.973,21.973,31.738,34.180,20.996,0
213887.121,22.949,23.926,25.391,27.832,15.625,0
213887.125,26.367,26.367,24.414,23.926,15.625,0
213887.129,28.320,27.344,28.320,20.020,36.133,0
213887.133,25.391,29.297,37.598,12.207,46.875,0
213887.137,26.367,32.227,42.969,14.648,19.043,0
213887.141,22.949,32.227,39.062,22.461,21.973,0
213887.145,21.484,32.227,37.109,25.391,-5.859,0
213887.149,26.367,33.203,39.062,24.414,-59.082,0
213887.152,27.344,28.809,33.691,20.508,-67.383,0
213887.156,32.227,22.949,24.902,22.461,-52.246,0
213887.160,47.363,29.785,22.949,40.039,-37.109,0
213887.164,44.434,30.273,28.320,41.016,19.043,0
213887.168,31.738,20.996,25.391,15.625,-0.488,0
213887.172,29.785,21.484,18.555,15.625,-22.949,0
213887.176,22.461,29.785,28.320,29.785,23.926,0
213887.180,16.113,32.715,38.086,34.668,11.719,0
213887.184,17.090,33.691,38.086,33.691,14.648,0
213887.188,15.625,32.227,38.574,30.273,28.809,0
213887.192,18.555,34.180,38.086,34.668,19.043,0
213887.195,26.855,38.086,35.645,41.504,6.836,0
213887.199,23.926,28.809,30.762,38.086,-0.977,0
213887.203,19.531,27.344,29.785,24.902,44.434,0
213887.207,21.484,32.227,25.391,22.461,96.680,0
213887.211,21.973,27.344,23.438,18.555,62.012,0
213887.215,20.996,23.438,33.691,10.254,28.320,0
213887.219,20.996,25.391,34.180,26.367,66.895,0
213887.223,21.484,34.180,33.203,31.738,75.684,0
213887.227,25.879,37.109,34.180,20.996,85.449,0
213887.231,39.062,35.645,28.320,27.832,105.957,0
213887.234,41.016,39.551,26.855,29.785,69.824,0
213887.238,34.668,41.504,30.273,21.484,35.156,0
213887.242,28.320,33.691,33.203,20.508,23.438,0
213887.246,23.926,28.320,22.949,18.555,21.484,0
213887.250,23.926,32.715,21.484,15.625,43.945,0
213887.254,27.344,35.645,30.273,17.090,40.039,0
213887.258,29.785,33.203,29.785,15.137,10.742,0
213887.262,29.785,29.297,36.133,18.555,31.738,0
213887.266,38.086,27.344,39.551,29.785,76.660,0
213887.270,38.086,35.156,30.762,29.297,68.848,0
213887.274,30.762,41.992,29.297,22.949,6.836,0
213887.277,33.203,41.992,32.227,25.391,-1.465,0
213887.281,42.480,45.898,27.344,38.574,16.602,0
213887.285,42.969,40.039,25.879,43.945,49.805,0
213887.289,34.180,27.344,30.273,27.832,41.016,0
213887.293,27.832,28.320,27.832,12.695,21.484,0
213887.297,22.949,31.738,26.855,14.648,45.898,0
213887.301,24.902,33.203,32.227,20.996,50.781,0
213887.305,32.227,33.203,32.715,22.461,29.297,0
213887.309,35.156,35.156,35.156,23.926,23.438,0
213887.313,33.691,36.133,36.621,26.855,45.898,0
213887.317,31.738,34.180,27.832,28.809,62.988,0
213887.320,32.227,38.574,25.391,34.180,48.828,0
213887.324,37.598,46.875,33.691,37.598,55.664,0
213887.328,35.156,41.016,35.156,39.551,70.801,0
213887.332,29.785,33.203,32.715,32.715,42.969,0
213887.336,27.344,31.250,34.180,22.949,26.855,0
213887.340,22.461,31.250,20.508,18.066,23.438,0
213887.344,24.414,37.598,17.578,16.602,4.395,0
213887.348,33.203,39.551,30.762,19.531,18.066,0
213887.352,33.203,39.551,34.668,28.809,36.133,0
213887.356,28.809,39.551,34.180,32.715,23.926,1
213887.359,31.738,41.016,34.668,28.320,27.344,0
213887.363,41.016,38.574,31.738,38.086,31.738,0
213887.367,43.457,29.785,32.227,37.598,15.625,0
213887.371,38.574,32.715,34.180,24.414,-7.324,0
213887.375,39.062,37.109,36.621,28.809,0.000,0
213887.379,38.574,39.062,41.504,37.109,-13.184,0
213887.383,37.109,41.016,40.039,32.715,-24.414,0
213887.387,37.109,38.086,34.180,29.297,0.488,0
213887.391,31.738,32.715,26.855,20.996,-26.855,0
213887.395,33.203,37.598,28.320,21.973,-31.250,0
213887.399,36.133,42.480,40.527,42.480,18.555,0
213887.402,33.691,37.598,41.504,43.457,10.254,0
213887.406,33.203,36.133,31.250,38.574,-16.602,0
213887.410,29.785,35.645,29.297,36.621,35.156,0
213887.414,27.344,30.762,28.320,33.691,58.105,0
213887.418,37.109,30.762,32.715,39.551,67.383,0
213887.422,42.969,31.738,41.016,37.109,58.594,0
213887.426,39.551,32.227,34.668,33.203,39.551,0
213887.430,36.621,34.668,31.738,33.691,56.641,0
213887.434,33.691,34.668,35.645,34.668,42.480,0
213887.438,35.156,37.109,35.156,40.039,3.418,0
213887.442,35.645,36.621,34.668,45.898,37.109,0
213887.445,33.203,35.156,36.133,46.387,76.172,0
213887.449,33.203,35.645,34.668,36.133,41.016,0
213887.453,25.879,27.832,28.320,19.043,39.062,0
213887.457,26.367,26.855,29.785,20.996,39.551,0
213887.461,29.297,34.180,35.645,23.926,20.996,0
213887.465,20.020,33.203,36.621,19.531,44.434,0
213887.469,20.020,28.809,31.250,16.113,43.945,0
213887.473,25.391,28.320,29.297,17.578,28.809,0
213887.477,25.879,33.203,33.691,20.020,43.945,0
213887.481,29.785,35.645,32.715,22.461,6.836,0
213887.484,27.344,29.785,29.297,16.113,-15.137,0
213887.488,16.113,28.809,31.738,10.742,18.066,0
213887.492,17.090,36.133,23.438,20.996,30.273,0
213887.496,21.973,37.598,11.230,31.250,35.156,0
213887.500,25.879,35.645,21.484,26.855,-8.789,0
213887.504,29.785,38.574,34.668,25.391,-5.371,0
213887.508,31.250,40.039,32.715,28.320,37.109,0
213887.512,32.715,35.156,31.250,31.738,26.855,0
213887.516,31.738,32.227,33.691,40.039,46.875,0
213887.520,31.250,30.762,30.762,34.180,86.426,0
213887.524,26.367,28.809,30.762,20.020,86.914,0
213887.527,30.273,37.109,34.668,20.508,28.320,0
213887.531,32.715,39.062,31.250,23.926,29.785,0
213887.535,35.645,40.527,26.855,30.273,42.969,0
213887.539,42.480,45.410,26.367,39.551,39.551,0
213887.543,36.133,40.527,20.996,33.691,20.996,0
213887.547,34.668,32.227,19.531,24.414,-13.672,0
213887.551,39.062,26.855,31.250,26.367,43.945,0
213887.555,36.133,24.902,38.574,27.344,87.891,0
213887.559,29.785,27.344,35.156,23.438,71.289,0
213887.563,27.344,27.832,34.180,25.391,55.664,0
213887.567,27.832,27.344,33.691,27.344,45.898,0
213887.570,28.320,32.715,26.367,23.926,48.828,0
213887.574,33.691,40.527,22.949,29.785,58.594,0
213887.578,35.645,39.551,24.902,33.691,41.016,0
213887.582,35.156,35.645,29.297,31.738,54.688,0
213887.586,38.574,41.016,27.344,37.598,45.410,0
213887.590,32.227,36.133,22.949,25.391,41.016,0
213887.594,26.367,19.531,27.344,13.184,86.426,0
213887.598,26.855,14.648,19.531,18.555,44.434,0
213887.602,23.926,22.461,12.207,20.508,13.672,0
213887.606,20.508,31.738,24.902,21.973,26.855,0
213887.609,20.996,37.109,36.133,26.855,57.617,0
213887.613,22.949,41.504,34.180,30.273,37.598,0
213887.617,24.414,36.621,34.180,31.250,20.020,0
213887.621,26.367,31.250,35.645,37.109,-1.953,0
213887.625,26.367,36.621,28.320,41.992,-44.922,0
213887.629,22.949,34.668,22.461,31.250,-15.137,0
213887.633,28.320,30.762,21.973,20.508,-31.738,0
213887.637,33.691,28.809,22.461,27.832,-4.395,0
213887.641,24.414,26.855,19.531,29.785,11.719,0
213887.645,14.160,25.879,17.090,20.508,-30.762,0
213887.649,17.578,23.926,21.973,24.902,4.883,0
213887.652,23.926,29.297,25.879,34.180,18.555,0
213887.656,19.531,38.086,28.320,29.785,-13.184,0
213887.660,12.207,36.133,27.832,21.484,-48.828,0
213887.664,18.066,36.621,23.438,25.391,-31.738,0
213887.668,22.949,37.109,21.484,31.250,-4.883,0
213887.672,19.531,36.621,25.391,26.367,-19.043,0
213887.676,24.902,39.551,30.273,19.531,-48.828,0
213887.680,31.738,29.785,26.855,21.973,-29.785,0
213887.684,27.344,22.949,18.066,20.020,51.758,0
213887.688,27.344,19.531,20.996,23.438,21.484,0
213887.692,32.227,20.020,25.879,24.902,0.488,0
213887.695,36.133,32.715,28.320,27.344,26.855,0
213887.699,41.504,41.504,28.320,41.016,34.180,0
213887.703,44.434,38.574,23.438,39.062,26.367,0
213887.707,45.410,37.598,25.879,34.180,-16.602,0
213887.711,44.922,36.621,33.203,37.109,-10.742,0
213887.715,47.852,34.180,41.016,44.922,11.230,0
213887.719,46.387,30.762,37.109,46.875,-21.484,0
213887.723,39.062,20.996,27.344,35.156,-55.664,0
213887.727,37.598,25.391,27.344,30.273,12.207,0
213887.731,38.086,34.668,32.715,35.645,66.406,0
213887.734,38.086,33.691,30.273,45.410,41.992,0
213887.738,40.527,28.809,27.344,48.828,41.992,0
213887.742,36.133,27.344,28.320,40.527,77.148,0
213887.746,33.691,33.691,20.508,36.133,85.938,0
213887.750,35.645,36.133,18.066,41.504,63.477,0
213887.754,27.832,33.691,27.344,38.574,39.551,0
213887.758,24.902,31.250,31.738,30.273,14.160,0
213887.762,30.273,30.762,33.203,41.016,9.766,0
213887.766,29.297,33.203,33.691,39.062,-9.277,0
213887.770,25.391,31.738,30.273,19.531,-41.992,0
213887.774,24.414,29.785,26.855,23.438,11.719,0
213887.777,22.949,30.762,22.461,20.508,62.012,0
213887.781,26.367,32.715,24.414,17.578,48.340,0
213887.785,31.250,35.645,29.297,27.344,43.945,0
213887.789,30.762,31.250,23.926,31.738,14.160,0
213887.793,31.250,23.438,17.090,32.227,23.438,0
213887.797,37.109,25.879,21.973,29.785,12.207,0
213887.801,39.551,34.668,25.879,34.180,31.738,0
213887.805,37.109,39.062,33.691,40.039,62.988,0
213887.809,36.621,40.527,30.762,39.551,4.883,0
213887.813,32.715,41.992,20.996,31.738,0.977,0
213887.817,28.320,33.691,27.832,28.809,39.551,0
213887.820,27.344,25.879,30.273,28.320,71.777,0
213887.824,29.297,26.855,25.391,31.250,46.875,0
213887.828,34.668,27.832,31.250,31.738,26.855,0
213887.832,37.598,28.320,35.645,32.227,45.410,0
213887.836,41.504,31.250,33.691,41.992,44.922,0
213887.840,44.922,34.668,29.297,50.293,33.691,0
213887.844,47.363,31.250,26.855,46.387,27.344,0
213887.848,40.039,29.785,27.832,34.668,24.902,0
213887.852,35.156,35.156,31.250,36.621,21.484,0
213887.856,41.016,39.062,31.250,39.062,-10.254,0
213887.859,39.062,33.691,29.297,33.691,-15.625,0
213887.863,41.016,34.668,27.832,38.574,29.785,0
213887.867,43.457,34.668,26.855,41.016,41.992,0
213887.871,37.598,27.344,31.738,33.203,33.203,0
213887.875,39.551,31.738,40.527,28.320,54.199,0
213887.879,42.480,41.504,42.969,34.668,47.363,0
213887.883,42.969,40.039,42.969,38.574,42.480,0
