timestamps,TP9,AF7,AF8,TP10,Right AUX,Marker0
214144.758,20.508,29.297,19.043,12.207,70.312,1
214144.762,23.926,24.414,28.320,15.137,65.430,0
214144.766,33.691,31.250,43.945,23.926,31.738,0
214144.770,41.504,41.992,45.410,27.344,4.883,0
214144.774,36.133,37.109,28.320,25.879,-13.184,0
214144.777,30.273,31.738,20.996,28.809,0.977,0
214144.781,27.344,34.180,32.227,30.762,7.324,0
214144.785,22.461,26.367,25.391,25.391,-19.531,0
214144.789,17.578,17.578,13.672,28.320,0.000,0
214144.793,13.672,20.508,27.344,25.879,20.996,0
214144.797,12.207,23.438,34.668,20.996,30.273,0
214144.801,18.555,26.855,33.203,18.555,13.672,0
214144.805,21.973,28.320,35.156,16.602,0.977,0
214144.809,20.508,26.855,32.715,26.855,-5.859,0
214144.813,13.672,22.949,26.855,18.555,15.137,0
214144.817,13.184,27.344,27.344,13.672,48.340,0
214144.820,22.461,35.156,24.414,20.020,9.277,0
214144.824,17.090,30.273,19.043,9.277,-5.859,0
214144.828,9.277,24.902,17.090,6.348,-16.602,0
214144.832,10.742,23.926,21.973,17.578,4.395,0
214144.836,16.113,25.391,32.715,17.090,43.457,0
214144.840,19.043,23.926,31.250,6.836,-22.949,0
214144.844,18.555,26.855,27.832,15.137,-37.598,0
214144.848,19.531,32.715,25.879,26.855,14.160,0
214144.852,22.949,36.621,25.879,29.785,31.250,0
214144.856,30.762,44.434,23.926,29.785,27.344,0
214144.860,42.969,49.316,22.461,37.109,18.066,0
214144.863,45.410,39.062,22.461,34.668,39.551,0
214144.867,34.668,28.320,23.438,27.344,30.762,0
214144.871,31.250,32.227,27.832,22.461,6.836,0
214144.875,32.227,30.273,19.043,12.207,-17.090,0
214144.879,35.645,27.344,13.672,17.578,11.719,0
214144.883,29.297,30.273,22.949,22.461,37.598,0
214144.887,24.902,31.250,25.879,20.020,-2.441,0
214144.891,33.691,34.180,27.344,26.855,34.180,0
214144.895,32.227,36.133,23.438,31.738,66.895,0
214144.899,27.832,33.203,22.949,32.715,31.250,0
214144.902,40.039,37.109,31.738,45.410,58.594,0
214144.906,44.434,40.039,29.785,49.316,83.008,0
214144.910,32.715,30.762,27.832,38.574,78.125,0
214144.914,28.320,20.508,36.621,26.855,69.824,0
214144.918,27.832,13.672,31.250,25.879,70.801,0
214144.922,23.926,15.137,21.484,17.578,67.383,0
214144.926,26.367,22.461,27.344,16.602,93.262,0
214144.930,36.133,28.320,30.762,28.320,113.281,0
214144.934,33.691,31.250,26.855,21.484,74.707,0
214144.938,24.902,27.832,20.020,21.484,61.035,0
214144.942,23.438,26.367,22.461,34.668,57.129,0
214144.945,24.902,25.391,33.691,35.645,49.805,0
214144.949,26.367,18.555,32.227,34.180,67.383,0
214144.953,26.367,18.555,24.902,25.391,67.383,0
214144.957,23.926,24.414,20.996,16.602,55.176,0
214144.961,22.461,28.320,22.461,18.066,64.453,0
214144.965,18.555,31.738,26.367,21.973,47.363,0
214144.969,20.020,32.715,29.785,31.738,4.395,0
214144.973,33.203,32.715,27.832,41.992,33.691,0
214144.977,33.691,30.273,18.066,35.156,27.832,0
214144.981,29.297,27.832,17.090,30.762,4.883,0
214144.985,25.391,23.926,32.227,38.574,43.945,0
214144.988,16.113,17.090,40.527,32.227,37.598,0
214144.992,7.812,22.949,35.645,20.996,5.371,0
214144.996,7.812,28.809,29.297,19.531,29.785,0
214145.000,17.578,27.344,28.809,26.367,46.387,0
214145.004,24.414,28.320,21.484,19.043,53.711,0
214145.008,29.297,32.227,18.555,18.066,47.363,0
214145.012,35.645,33.203,25.391,27.832,18.555,0
214145.016,35.156,35.156,31.738,27.344,47.363,0
214145.020,34.668,35.645,25.879,32.227,31.250,0
214145.024,40.527,35.156,27.344,32.715,0.977,0
214145.027,37.109,32.227,48.828,29.297,51.270,0
214145.031,29.297,25.391,44.922,31.250,55.664,0
214145.035,30.273,19.043,35.156,35.156,30.762,0
214145.039,29.297,15.625,32.227,39.062,40.039,0
214145.043,29.297,21.484,29.297,32.227,54.199,0
214145.047,34.668,30.273,27.832,27.344,27.344,0
214145.051,38.086,35.645,22.949,29.297,21.484,0
214145.055,39.062,32.715,15.137,33.691,58.594,0
214145.059,41.504,31.250,20.020,38.574,32.715,0
214145.063,39.551,38.086,31.250,43.457,47.363,0
214145.067,39.551,36.133,34.180,40.039,50.781,0
214145.070,36.133,29.785,33.691,23.926,-11.719,0
214145.074,29.297,27.832,39.062,31.738,23.926,0
214145.078,30.762,25.879,37.598,42.480,44.434,0
214145.082,22.949,19.531,24.414,34.668,28.320,0
214145.086,19.531,14.160,17.578,30.273,41.504,0
214145.090,22.949,17.578,22.949,28.320,62.988,0
214145.094,19.531,26.855,33.691,37.598,59.082,0
214145.098,19.043,35.156,35.156,37.109,45.898,0
214145.102,22.461,41.504,30.762,31.738,75.684,0
214145.106,21.484,43.457,27.344,30.273,40.527,0
214145.110,25.879,44.434,27.832,30.273,-6.836,0
214145.113,32.227,46.387,29.785,33.203,7.324,0
214145.117,34.180,41.992,28.809,29.785,30.762,0
214145.121,26.855,38.086,11.719,37.109,57.617,0
214145.125,21.973,35.645,11.719,41.992,42.969,0
214145.129,29.297,35.645,28.320,23.926,53.223,0
214145.133,30.762,28.809,30.762,12.207,78.125,0
214145.137,27.832,20.996,27.832,19.043,67.871,0
214145.141,36.133,29.297,31.250,22.949,70.801,0
214145.145,40.039,34.180,34.668,22.949,29.297,0
214145.149,37.598,34.668,28.809,28.809,41.016,0
214145.152,40.039,37.598,20.996,36.133,79.102,0
214145.156,40.527,35.156,13.184,29.297,24.414,0
214145.160,38.086,33.691,16.113,30.762,7.324,0
214145.164,31.250,33.203,26.855,29.297,40.039,0
214145.168,25.391,30.762,34.668,19.043,35.645,0
214145.172,29.297,27.344,41.016,24.902,37.598,0
214145.176,36.133,33.203,37.109,36.621,68.848,0
214145.180,29.785,36.133,23.438,34.180,65.918,0
214145.184,24.414,28.320,25.879,22.949,29.785,0
214145.188,26.855,26.367,32.715,27.344,-9.277,0
214145.192,23.926,33.691,35.156,33.203,22.461,0
214145.195,24.414,32.227,33.203,35.645,73.242,0
214145.199,30.273,32.227,27.832,37.109,45.898,0
214145.203,28.320,32.715,22.949,17.090,41.992,0
214145.207,28.320,27.832,25.391,18.066,47.363,0
214145.211,32.715,29.297,21.484,31.250,14.648,0
214145.215,23.926,29.297,13.672,18.066,9.277,0
214145.219,18.555,30.762,23.926,15.625,9.277,0
214145.223,22.949,39.062,26.367,23.926,51.270,0
214145.227,25.391,36.133,17.090,26.367,66.895,0
214145.231,23.926,24.414,17.578,20.996,34.180,0
214145.235,22.461,28.320,29.297,15.625,42.480,0
214145.238,27.832,35.156,34.668,20.020,49.316,0
214145.242,37.598,35.156,31.250,27.344,30.273,0
214145.246,37.598,29.297,14.648,30.273,-25.879,0
214145.250,34.668,26.367,13.184,39.062,-31.250,0
214145.254,31.250,24.902,23.438,39.551,7.812,0
214145.258,27.344,26.855,29.297,35.156,19.531,0
214145.262,32.715,32.227,38.574,28.809,23.926,0
214145.266,30.762,30.273,34.180,25.879,37.109,0
214145.270,29.297,29.785,30.273,36.621,41.504,0
214145.274,25.879,29.785,25.391,29.297,26.855,0
214145.277,15.137,29.297,19.531,13.672,17.090,0
214145.281,17.578,31.738,26.367,20.020,11.230,0
214145.285,25.879,31.738,31.250,22.461,17.090,0
214145.289,26.855,33.691,32.227,20.508,41.016,0
214145.293,27.832,32.715,32.227,28.320,48.828,0
214145.297,30.762,31.250,35.156,28.809,24.902,0
214145.301,28.320,18.555,34.180,20.996,24.902,0
214145.305,30.762,18.066,30.273,19.531,31.738,0
214145.309,30.273,35.645,24.902,14.648,-5.371,0
214145.313,30.762,41.992,25.391,19.043,-24.902,0
214145.317,30.762,37.598,35.156,26.855,10.742,0
214145.320,24.902,28.809,30.762,21.973,19.043,0
214145.324,26.855,25.879,27.832,20.508,-3.906,0
214145.328,35.156,35.645,26.367,26.367,17.578,0
214145.332,37.598,42.969,17.090,37.109,20.508,0
214145.336,29.785,34.668,20.508,39.062,1.953,0
214145.340,20.996,26.367,31.738,16.602,-7.812,0
214145.344,16.602,29.297,33.203,2.441,5.371,0
214145.348,20.508,28.320,32.715,13.672,12.695,0
214145.352,25.391,28.809,22.461,19.043,-9.277,0
214145.356,22.949,37.109,16.113,20.996,-37.598,0
214145.360,15.625,30.762,24.414,20.020,12.207,0
214145.363,9.277,23.438,30.273,16.113,19.531,0
214145.367,14.160,30.762,30.762,18.555,-30.273,2
214145.371,18.555,32.715,33.203,21.973,24.902,0
214145.375,13.672,27.344,31.250,27.832,67.383,0
214145.379,12.207,25.391,23.438,19.531,30.273,0
214145.383,15.137,26.367,30.762,10.742,71.777,0
214145.387,19.043,28.320,28.320,19.531,75.684,0
214145.391,17.090,26.367,19.531,22.949,46.875,0
214145.395,15.625,27.832,22.461,19.043,59.570,0
214145.399,22.461,36.133,18.066,10.742,14.160,0
214145.402,22.949,32.715,17.090,22.949,54.688,0
214145.406,23.438,24.902,17.578,40.527,69.824,0
214145.410,35.645,27.344,18.555,39.551,39.062,0
214145.414,39.551,31.250,35.156,32.715,39.062,0
214145.418,33.203,30.273,41.016,23.926,20.996,0
214145.422,29.297,30.273,31.738,21.973,-15.137,0
214145.426,28.809,34.180,30.273,27.344,2.441,0
214145.430,35.156,35.156,35.156,30.762,24.902,0
214145.434,47.852,37.109,27.832,43.457,0.000,0
214145.438,54.199,39.551,16.113,49.805,26.367,0
214145.442,32.227,32.715,22.461,29.297,36.133,0
214145.445,16.113,27.344,30.273,11.230,17.578,0
214145.449,30.762,31.738,34.668,19.043,34.180,0
214145.453,43.457,34.668,30.762,35.156,60.059,0
214145.457,35.156,37.109,29.297,39.062,20.996,0
214145.461,17.578,31.250,27.832,24.414,-1.953,0
214145.465,19.043,28.320,24.414,23.926,25.879,0
214145.469,28.320,27.344,24.902,32.715,12.695,0
214145.473,24.414,20.996,29.785,20.996,-3.418,0
214145.477,30.273,29.785,37.598,19.531,37.109,0
214145.481,41.992,41.992,30.273,32.227,56.641,0
214145.485,36.133,38.086,27.832,35.156,25.391,0
214145.488,32.227,36.133,36.621,31.250,-19.043,0
214145.492,36.133,40.527,33.203,35.156,-3.418,0
214145.496,29.785,35.156,24.902,47.363,-9.766,0
214145.500,27.832,31.250,31.250,55.664,-28.320,0
214145.504,30.273,31.738,34.180,40.527,-13.672,0
214145.508,36.621,35.645,33.691,25.879,-6.348,0
214145.512,43.457,24.902,32.715,34.180,0.000,0
214145.516,41.016,14.648,29.785,34.668,0.000,0
214145.520,36.621,26.367,27.344,32.715,1.953,0
214145.524,41.504,42.969,19.531,35.645,7.812,0
214145.527,37.109,43.457,23.438,33.691,9.277,0
214145.531,31.738,41.504,30.273,27.344,-4.395,0
214145.535,44.434,45.898,29.297,44.434,-6.836,0
214145.539,43.457,35.645,31.250,50.293,5.859,0
214145.543,37.598,29.785,31.738,36.621,36.133,0
214145.547,32.715,33.203,25.879,22.949,50.781,0
214145.551,20.020,32.227,24.902,14.648,57.129,0
214145.555,17.090,27.832,32.227,24.902,47.852,0
214145.559,18.555,25.391,38.574,29.785,57.617,0
214145.563,24.902,33.691,34.180,30.762,77.148,0
214145.567,29.785,30.762,24.902,27.344,70.801,0
214145.570,28.320,27.344,28.809,25.879,90.332,0
214145.574,26.367,34.180,32.227,25.879,59.570,0
214145.578,22.461,34.668,34.180,17.578,-26.367,0
214145.582,20.996,36.621,38.086,17.578,-28.809,0
214145.586,20.508,34.180,36.621,26.855,61.035,0
214145.590,22.461,36.621,32.715,30.762,83.008,0
214145.594,22.949,38.574,24.414,33.691,51.270,0
214145.598,23.438,30.273,17.578,30.762,63.965,0
214145.602,24.414,27.832,18.555,25.879,65.918,0
214145.606,21.973,29.785,20.996,24.414,61.523,0
214145.610,21.484,30.273,26.367,27.344,85.449,0
214145.613,29.297,27.832,34.180,31.738,97.168,0
214145.617,27.832,23.926,34.180,33.203,66.406,0
214145.621,25.391,31.738,27.832,31.738,12.207,0
214145.625,33.691,37.109,28.809,26.367,5.371,0
214145.629,28.320,29.297,34.180,23.438,50.293,0
214145.633,25.391,29.297,38.574,25.391,71.289,0
214145.637,34.668,37.598,37.598,27.344,64.453,0
214145.641,31.738,34.668,27.832,35.156,48.828,0
214145.645,20.020,24.414,21.484,31.738,37.598,0
214145.649,16.602,22.461,26.855,24.414,40.527,0
214145.652,19.043,24.902,18.555,23.926,43.457,0
214145.656,21.484,24.414,30.273,28.320,50.781,0
214145.660,25.879,27.344,44.434,27.832,83.008,0
214145.664,27.344,35.645,32.715,23.438,97.656,0
214145.668,26.855,36.133,31.738,25.879,59.570,0
214145.672,20.996,28.320,36.133,21.973,25.391,0
214145.676,14.160,21.973,32.227,17.090,34.668,0
214145.680,23.438,27.344,31.738,26.855,62.500,0
214145.684,37.109,39.551,27.344,36.133,32.227,0
214145.688,26.855,31.738,16.113,31.738,19.531,0
214145.692,22.461,26.367,25.879,29.297,2.441,0
214145.695,34.180,38.574,26.367,39.062,6.348,0
214145.699,30.273,40.527,19.531,41.504,-4.883,0
214145.703,25.391,30.762,28.320,34.668,-22.461,0
214145.707,32.227,30.273,33.691,37.598,22.461,0
214145.711,35.645,34.180,22.949,41.504,32.227,0
214145.715,41.992,35.645,20.996,51.270,56.152,0
214145.719,43.457,37.109,33.691,50.781,74.707,0
214145.723,39.062,35.645,32.715,41.992,54.199,0
214145.727,27.344,19.531,28.809,32.715,19.531,0
214145.731,20.508,15.137,28.809,26.367,25.879,0
214145.735,29.785,27.344,25.391,27.832,65.430,0
214145.738,32.227,32.227,29.297,27.832,81.055,0
214145.742,37.109,33.691,32.715,28.809,66.406,0
214145.746,43.945,35.645,33.203,26.855,42.480,0
214145.750,37.598,34.180,33.691,30.762,63.477,0
214145.754,31.738,29.785,26.855,41.016,60.547,0
214145.758,29.297,31.738,24.414,39.062,32.715,0
214145.762,29.785,38.086,28.809,36.133,-16.602,0
214145.766,36.133,38.574,39.062,38.086,5.371,0
214145.770,36.621,25.391,38.086,32.715,34.668,0
214145.774,33.203,21.973,21.484,24.902,11.230,0
214145.777,35.645,32.715,17.090,26.855,20.020,0
214145.781,37.109,36.621,20.020,31.738,14.648,0
214145.785,40.039,32.227,26.367,29.297,-6.836,0
214145.789,41.016,39.062,34.180,30.762,15.137,0
214145.793,28.809,38.574,21.973,32.715,49.805,0
214145.797,25.879,33.691,21.484,25.879,22.461,0
214145.801,32.227,33.691,30.762,16.113,15.137,0
214145.805,31.250,29.785,29.785,18.555,16.113,0
214145.809,35.156,35.156,30.762,29.785,5.371,0
214145.813,38.086,42.969,23.926,30.762,18.066,0
214145.817,37.598,41.504,15.625,23.438,22.461,0
214145.820,35.156,38.086,22.949,21.973,19.043,0
214145.824,29.297,30.273,27.832,23.438,53.223,0
214145.828,30.273,28.320,31.738,26.855,71.777,0
214145.832,37.598,35.645,38.086,36.133,28.320,0
214145.836,36.621,29.297,31.250,40.039,5.859,0
214145.840,23.926,18.066,26.367,24.414,65.430,0
214145.844,19.531,25.879,24.902,18.066,66.895,0
214145.848,19.531,33.691,18.066,23.926,32.715,0
214145.852,25.391,33.691,17.090,25.879,54.199,0
214145.856,29.297,28.320,17.578,24.414,18.555,0
214145.860,25.391,25.879,29.297,15.137,-39.062,0
214145.863,25.879,28.320,41.992,24.902,-54.199,0
214145.867,27.344,27.344,32.227,35.156,-46.875,0
214145.871,26.855,29.297,29.297,35.645,-35.156,0
214145.875,22.949,27.832,28.320,24.902,-35.645,0
214145.879,24.414,26.367,25.391,22.949,-26.367,0
214145.883,28.809,28.809,26.367,29.785,-8.789,0
214145.887,36.133,28.809,18.555,29.785,21.973,0
214145.891,40.039,27.832,16.602,30.762,32.715,0
214145.895,33.203,25.391,15.137,28.809,-1.465,0
214145.899,31.250,28.809,20.020,34.668,24.902,0
214145.902,34.180,33.203,28.320,38.574,57.129,0
214145.906,35.156,31.250,30.762,36.621,4.883,0
214145.910,29.297,25.879,33.203,20.996,35.645,0
214145.914,23.438,24.902,35.645,15.625,90.820,0
214145.918,24.414,29.297,28.809,27.832,81.543,0
214145.922,29.297,27.832,25.879,28.809,84.961,0
214145.926,38.086,29.297,23.438,31.250,129.395,0
214145.930,42.480,35.156,27.832,37.598,130.859,0
214145.934,36.621,28.809,28.809,29.297,86.426,0
214145.938,35.645,21.973,25.391,23.438,47.363,0
214145.942,40.039,28.320,27.344,31.250,28.320,0
214145.945,45.410,34.180,32.715,38.086,55.664,0
214145.949,48.828,32.715,31.250,43.945,26.367,0
214145.953,49.805,28.809,20.996,41.016,33.691,0
214145.957,50.293,33.203,20.020,31.250,81.543,0
214145.961,43.457,36.133,16.113,24.902,116.211,0
214145.965,33.203,31.738,17.578,20.020,94.727,0
214145.969,26.855,30.273,24.902,19.043,44.922,0
214145.973,37.109,36.621,33.691,29.785,43.457,0
214145.977,44.922,41.992,33.203,39.551,87.891,0
214145.981,35.645,36.133,27.832,28.320,107.422,0
214145.985,36.621,29.785,29.297,30.762,70.801,0
214145.988,42.969,34.180,27.344,50.781,29.297,0
214145.992,40.527,34.668,20.020,47.363,77.637,0
214145.996,35.156,26.367,21.484,32.227,89.844,0
214146.000,34.668,32.227,29.297,27.344,-1.953,0
214146.004,29.785,35.156,36.133,26.367,1.465,0
214146.008,26.367,33.691,38.086,21.973,18.555,0
214146.012,29.297,35.645,27.832,21.484,13.184,0
214146.016,32.715,39.551,26.367,31.250,28.320,0
214146.020,30.762,40.039,31.250,35.645,36.621,0
214146.024,27.344,29.785,18.066,37.109,57.617,0
214146.027,28.320,21.484,7.812,35.156,28.320,0
214146.031,24.902,26.855,22.949,26.367,9.277,2
214146.035,22.949,32.227,44.434,23.926,2.441,0
214146.039,24.414,31.738,47.852,23.438,-45.410,0
214146.043,24.902,34.180,39.551,25.391,-37.109,0
214146.047,23.438,33.691,26.367,25.879,-26.855,0
214146.051,16.113,23.926,17.090,16.602,-30.762,0
214146.055,20.020,25.879,23.926,18.066,-26.855,0
214146.059,26.367,22.461,38.574,21.973,-78.613,0
214146.063,23.926,16.602,36.133,21.484,-62.500,0
214146.067,26.367,27.832,22.949,26.367,-35.645,0
214146.070,29.297,38.574,14.160,34.180,-34.180,0
214146.074,29.785,38.086,20.020,38.086,-11.719,0
214146.078,27.832,35.645,36.621,33.691,10.742,0
214146.082,25.391,29.785,37.598,31.738,12.207,0
214146.086,23.438,21.973,29.297,35.156,-37.598,0
214146.090,22.461,23.926,37.109,37.598,-37.598,0
214146.094,27.832,29.297,41.504,32.227,1.465,0
214146.098,33.203,33.203,33.203,27.832,24.902,0
214146.102,30.762,32.227,22.949,29.297,3.906,0
214146.106,30.762,29.297,20.996,35.156,-42.969,0
214146.110,30.762,28.320,28.320,35.156,-17.090,0
214146.113,28.809,31.738,23.438,37.109,23.438,0
214146.117,23.438,35.645,23.438,47.852,-30.273,0
214146.121,17.578,27.344,34.180,31.738,-47.852,0
214146.125,24.414,19.043,30.762,15.625,52.246,0
214146.129,36.621,24.902,27.832,27.344,72.754,0
214146.133,29.297,32.715,25.879,30.762,6.348,0
214146.137,20.996,35.645,26.855,28.320,-0.488,0
214146.141,25.391,38.574,28.809,26.855,-0.488,0
214146.145,32.227,41.992,23.438,31.250,31.250,0
214146.149,42.969,45.410,21.484,32.227,36.621,0
214146.152,43.945,44.922,26.367,37.598,27.344,0
214146.156,35.645,40.039,23.438,44.434,52.246,0
214146.160,26.367,33.691,24.902,26.367,27.832,0
214146.164,18.555,20.508,35.156,11.719,31.738,0
214146.168,20.508,16.113,38.086,22.461,36.621,0
214146.172,32.227,31.738,28.809,41.504,24.414,0
214146.176,40.527,36.133,28.320,46.875,33.691,0
214146.180,33.691,37.598,32.227,31.738,21.484,0
214146.184,22.949,39.551,23.926,18.066,37.598,0
214146.188,30.273,33.203,20.020,20.996,29.785,0
214146.192,40.039,33.691,26.367,31.738,-7.324,0
214146.195,34.668,43.945,38.574,31.250,-0.488,0
214146.199,21.973,41.504,41.016,24.414,26.367,0
214146.203,24.414,25.879,30.273,29.297,43.945,0
214146.207,27.832,13.672,24.902,27.832,28.320,0
214146.211,20.508,12.207,23.438,12.695,7.324,0
214146.215,25.879,23.438,20.020,19.043,20.508,0
214146.219,37.598,33.691,20.508,31.250,31.738,0
214146.223,33.203,29.785,23.926,33.203,15.137,0
214146.227,33.203,23.926,30.273,38.574,12.207,0
214146.231,34.668,25.879,32.227,42.969,29.785,0
214146.235,36.621,29.785,38.086,43.457,-10.254,0
214146.238,42.480,35.645,41.504,36.133,-30.762,0
214146.242,40.527,41.504,35.156,23.926,4.883,0
214146.246,37.109,39.551,34.180,24.902,47.852,0
214146.250,26.855,28.809,25.391,28.809,41.504,0
214146.254,22.949,26.855,19.531,34.668,36.621,0
214146.258,29.785,28.320,26.855,39.062,62.500,0
214146.262,31.250,31.738,33.691,42.480,66.406,0
214146.266,36.133,38.086,29.785,41.504,36.621,0
214146.270,50.781,42.480,29.297,46.875,4.883,0
214146.274,42.480,38.086,23.438,41.016,16.113,0
214146.277,31.738,33.691,25.879,30.762,21.973,0
214146.281,36.621,37.598,33.691,26.367,-19.531,0
214146.285,37.109,37.598,31.738,13.672,-9.766,0
214146.289,41.016,34.180,33.203,24.902,46.875,0
214146.293,36.621,36.133,29.785,30.762,30.273,0
214146.297,32.715,35.645,26.855,31.250,-22.949,0
214146.301,37.109,39.062,27.832,45.898,1.953,0
214146.305,36.621,37.109,29.785,41.504,30.762,0
214146.309,29.785,25.391,27.832,24.414,0.488,0
214146.313,27.344,30.762,22.949,21.484,10.254,0
214146.317,28.320,42.969,26.367,21.973,-7.812,0
214146.320,27.832,42.969,18.066,24.902,-11.230,0
214146.324,22.949,39.062,17.578,24.414,3.418,0
214146.328,21.484,37.109,31.250,12.207,14.160,0
214146.332,23.438,31.738,38.086,13.672,35.645,0
214146.336,24.414,32.227,32.715,25.879,36.133,0
214146.340,18.066,26.855,21.973,24.414,45.410,0
214146.344,12.207,13.184,28.320,21.484,67.871,0
214146.348,15.625,21.973,36.621,23.438,86.426,0
214146.352,15.625,34.668,30.273,23.438,55.664,0
214146.356,19.043,35.156,22.461,25.879,27.832,0
214146.360,29.785,39.551,25.879,31.250,62.500,0
214146.363,32.227,40.527,28.320,29.785,48.340,0
214146.367,34.180,42.969,29.297,25.391,33.203,0
214146.371,35.156,41.504,29.785,29.297,14.648,0
214146.375,25.879,23.438,29.297,22.461,2.441,0
214146.379,15.625,14.648,30.762,16.113,31.250,0
214146.383,15.137,19.043,27.832,12.207,11.230,0
214146.387,25.879,22.949,20.508,16.113,31.738,0
214146.391,35.645,25.879,21.484,24.414,36.133,0
214146.395,28.320,22.461,30.273,25.391,21.973,0
214146.399,16.602,20.996,32.715,23.926,8.301,0
214146.402,21.484,35.156,22.461,19.043,35.645,0
214146.406,25.391,41.016,15.137,18.555,41.992,0
214146.410,33.691,45.410,22.461,28.320,33.203,0
214146.414,43.945,46.875,29.785,39.551,55.664,0
214146.418,39.551,36.621,32.227,32.715,17.090,0
214146.422,25.879,28.320,24.414,21.484,-0.977,0
214146.426,14.648,17.578,17.090,29.297,40.527,0
214146.430,16.602,17.090,21.484,30.762,57.617,0
214146.434,25.879,30.273,30.273,22.461,31.250,0
214146.438,29.785,35.645,42.969,22.949,41.016,0
214146.442,22.949,29.785,45.898,23.438,36.133,0
214146.445,25.391,29.785,38.574,30.762,19.531,0
214146.449,32.227,30.762,28.809,36.133,28.809,0
214146.453,31.738,23.438,18.555,41.504,74.707,0
214146.457,35.156,28.320,14.648,41.016,76.172,0
214146.461,33.203,37.109,22.949,24.902,50.293,0
214146.465,28.320,34.668,28.809,15.625,56.152,0
214146.469,26.367,30.762,40.527,18.555,69.824,0
214146.473,24.414,29.785,49.805,25.391,65.918,0
214146.477,30.273,33.691,51.758,31.738,57.617,0
214146.481,36.133,34.180,38.574,27.344,90.332,0
214146.485,29.297,24.414,22.949,22.461,79.102,0
214146.488,28.320,23.438,21.484,23.926,48.340,0
214146.492,30.273,29.785,21.484,20.020,73.242,0
214146.496,27.832,32.227,20.508,18.066,62.988,0
214146.500,28.320,30.273,16.113,25.391,24.902,0
214146.504,28.809,33.691,17.090,29.297,12.207,0
214146.508,23.926,33.691,24.414,21.484,8.789,0
214146.512,26.367,29.785,31.250,17.090,12.695,0
214146.516,27.832,28.320,34.668,22.949,29.297,0
214146.520,20.996,25.391,31.738,27.344,49.805,0
214146.524,20.020,28.320,33.203,21.484,50.293,0
214146.527,16.602,26.855,31.738,26.855,39.062,0
214146.531,6.836,16.602,29.297,32.715,31.250,0
214146.535,16.113,23.438,29.297,29.785,33.203,0
214146.539,34.180,37.109,28.809,40.039,44.434,0
214146.543,31.738,37.598,21.484,35.156,48.340,0
214146.547,27.344,35.645,17.578,32.715,65.430,0
214146.551,26.855,35.645,31.738,39.062,51.270,0
214146.555,25.391,30.273,41.016,29.297,36.133,0
214146.559,23.926,20.508,30.762,30.762,40.527,0
214146.563,23.926,16.113,20.996,35.156,47.363,0
214146.567,32.715,22.461,27.344,33.203,43.457,0
214146.570,37.598,24.414,32.715,30.273,18.555,0
214146.574,32.715,20.996,30.273,35.156,37.109,0
214146.578,39.062,26.367,32.715,46.387,38.574,0
214146.582,47.852,37.598,32.227,46.387,21.973,1
214146.586,42.480,42.969,34.668,42.969,18.066,0
214146.590,39.062,39.062,40.527,49.805,27.832,0
214146.594,39.062,35.645,29.297,53.711,42.969,0
214146.598,37.598,31.250,27.344,42.480,42.969,0
214146.602,35.645,21.973,27.344,32.715,-10.254,0
214146.606,28.320,19.531,24.414,28.320,-38.086,0
214146.610,27.832,27.832,28.320,30.273,-20.508,0
214146.613,37.598,38.086,27.344,31.738,-34.668,0
214146.617,37.598,35.156,17.090,26.855,-6.836,0
214146.621,32.715,36.621,14.160,25.879,44.434,0
214146.625,33.203,33.691,27.832,29.297,58.594,0
214146.629,27.344,20.996,37.598,29.297,20.996,0
214146.633,23.438,21.484,39.062,28.320,30.762,0
214146.637,27.832,30.273,30.762,18.555,48.828,0
214146.641,28.809,33.691,26.855,10.254,21.973,0
214146.645,29.785,34.180,25.879,23.926,5.371,0
214146.649,36.133,41.016,19.043,37.598,20.508,0
214146.652,37.109,41.016,16.602,29.785,54.688,0
214146.656,30.762,30.762,16.113,20.020,56.152,0
214146.660,35.645,25.391,22.461,24.902,1.465,0
214146.664,37.109,24.902,22.949,33.203,9.277,0
214146.668,31.738,25.391,16.113,24.902,81.543,0
214146.672,34.668,27.344,22.949,18.555,79.590,0
214146.676,34.180,22.461,36.133,25.391,27.344,0
214146.680,33.203,20.020,39.062,30.762,27.344,0
214146.684,32.715,27.344,31.738,31.250,71.777,0
214146.688,31.250,32.715,26.855,30.762,84.961,0
214146.692,38.086,30.273,30.762,28.809,45.898,0
214146.695,39.551,29.785,32.227,32.227,42.480,0
214146.699,41.016,33.691,34.668,40.527,47.852,0
214146.703,42.969,35.156,41.016,40.039,17.578,0
214146.707,38.574,35.156,38.574,33.203,43.945,0
214146.711,31.250,33.203,28.809,34.180,75.684,0
214146.715,19.043,23.926,23.926,39.062,30.273,0
214146.719,13.184,22.949,22.461,32.227,18.555,0
214146.723,20.508,25.879,20.996,27.344,48.828,0
214146.727,28.320,19.043,16.113,40.527,61.035,0
214146.731,34.668,17.090,21.484,41.992,28.320,0
214146.735,34.180,25.391,41.504,33.203,9.277,0
214146.738,34.668,28.809,40.527,35.156,39.551,0
214146.742,38.574,26.855,41.992,40.039,65.430,0
214146.746,37.109,26.367,42.480,35.156,46.875,0
214146.750,33.203,23.438,30.273,26.367,-5.371,0
214146.754,26.855,23.926,22.461,29.785,18.555,0
214146.758,32.227,25.391,16.602,39.551,47.852,0
214146.762,37.598,29.785,13.672,42.480,8.789,0
214146.766,37.598,35.156,25.391,36.133,14.160,0
214146.770,39.551,34.180,37.109,32.227,23.438,0
214146.774,35.645,25.879,36.621,35.645,7.812,0
214146.777,28.320,21.484,32.227,33.691,29.785,0
214146.781,27.832,28.809,30.762,33.203,48.340,0
214146.785,32.227,35.156,33.691,40.039,64.941,0
214146.789,30.273,36.133,32.715,39.551,79.590,0
214146.793,24.902,33.203,24.902,37.598,62.500,0
214146.797,24.414,29.297,29.785,36.133,71.289,0
214146.801,22.461,29.785,34.668,28.809,68.359,0
214146.805,23.438,34.180,26.855,31.250,46.875,0
214146.809,24.902,41.992,13.672,36.133,9.277,0
214146.813,21.973,44.434,6.836,32.227,-31.738,0
214146.817,16.113,30.273,10.742,18.066,15.137,0
214146.820,10.254,26.855,13.184,16.602,30.273,0
214146.824,16.602,34.180,22.461,23.438,9.766,0
214146.828,17.090,29.785,36.133,11.719,26.367,0
214146.832,15.137,23.438,35.156,12.207,19.531,0
214146.836,28.809,20.020,34.180,31.250,-18.555,0
214146.840,34.668,27.832,39.062,40.039,-18.066,0
214146.844,14.160,39.062,28.809,15.137,-8.789,0
214146.848,11.230,41.504,19.531,9.766,10.254,0
214146.852,27.344,39.062,23.438,26.855,22.461,0
214146.856,19.043,30.762,20.020,14.648,0.977,0
214146.860,4.883,27.832,23.926,7.812,48.340,0
214146.863,5.859,31.738,29.297,12.695,21.973,0
214146.867,7.324,29.297,31.738,9.766,-15.137,0
214146.871,6.348,23.926,38.574,9.277,33.691,0
214146.875,15.625,26.367,36.133,23.438,50.781,0
214146.879,22.461,24.414,29.297,35.156,36.621,0
214146.883,20.508,22.461,28.320,23.926,35.645,0
214146.887,26.367,32.715,21.973,20.996,87.891,0
214146.891,37.598,43.945,19.043,37.598,84.473,0
214146.895,41.504,42.480,20.508,34.180,55.664,0
214146.899,42.480,34.180,22.949,25.391,43.457,0
214146.902,39.062,35.156,30.273,30.762,59.570,0
214146.906,34.180,36.621,32.227,30.273,80.078,0
214146.910,29.785,20.996,26.855,27.344,63.477,0
214146.914,22.949,17.090,24.414,24.414,46.875,0
214146.918,23.438,25.391,26.367,27.344,40.527,0
214146.922,33.203,31.250,25.391,38.086,25.391,0
214146.926,39.551,39.062,22.461,42.480,46.387,0
214146.930,38.574,40.039,24.902,37.598,66.895,0
214146.934,33.691,33.691,33.203,38.086,46.875,0
214146.938,33.691,32.715,32.715,40.527,41.504,0
214146.942,35.156,33.691,22.949,34.180,7.812,0
214146.945,39.551,35.645,23.438,33.691,-0.977,0
214146.949,39.551,39.062,27.344,40.527,-0.488,0
214146.953,36.133,39.062,27.344,42.480,-33.203,0
214146.957,39.062,40.527,30.762,40.527,-43.457,0
214146.961,46.387,42.969,36.133,40.039,-14.160,0
214146.965,42.969,36.621,37.109,37.598,-14.160,0
214146.969,33.691,32.227,26.855,37.109,-13.184,0
214146.973,42.969,39.551,16.602,37.109,7.324,0
214146.977,51.270,46.875,24.414,41.992,1.465,0
214146.981,41.016,36.133,30.762,37.109,44.922,0
214146.985,33.691,29.297,33.203,30.273,72.754,0
214146.988,33.203,33.691,35.156,37.109,36.133,0
214146.992,35.156,35.156,38.086,39.551,14.648,0
214146.996,37.109,38.574,42.969,41.016,66.406,0
214147.000,31.250,38.574,40.039,39.062,67.871,0
214147.004,27.344,32.715,36.621,40.527,7.812,0
214147.008,29.785,30.273,41.016,46.875,45.410,0
214147.012,30.273,30.273,40.527,44.922,53.711,0
214147.016,33.203,28.320,34.668,46.387,48.828,0
214147.020,36.621,26.855,32.227,50.781,37.109,0
214147.024,28.809,29.785,19.043,41.504,32.715,0
214147.027,23.926,34.180,21.973,27.344,54.688,0
214147.031,28.809,35.645,27.344,19.531,44.434,0
214147.035,31.738,31.250,21.973,21.484,23.438,0
214147.039,40.527,29.785,31.250,32.715,42.480,0
214147.043,40.039,33.691,37.109,33.691,17.090,0
214147.047,29.785,34.668,33.203,28.320,17.578,0
214147.051,33.691,37.109,30.762,34.668,61.035,0
214147.055,38.574,35.645,30.762,37.598,26.855,0
214147.059,40.527,36.133,30.273,39.551,33.691,0
214147.063,40.527,37.109,30.762,49.316,60.059,0
214147.067,40.527,31.250,20.020,51.270,29.297,0
214147.070,37.109,29.785,20.508,35.156,32.715,0
214147.074,31.250,34.180,38.086,25.879,24.902,0
214147.078,22.461,34.180,37.109,15.625,-4.395,0
214147.082,23.438,33.203,32.227,17.578,11.719,0
214147.086,32.227,32.227,31.738,30.762,47.852,0
214147.090,32.227,25.879,31.250,27.344,27.344,0
214147.094,26.855,25.879,30.762,21.484,49.805,0
214147.098,31.738,32.227,33.203,25.879,93.750,0
214147.102,42.480,34.180,31.738,33.691,85.938,0
214147.106,42.969,39.062,26.367,37.598,69.824,0
214147.110,34.668,37.109,27.832,33.691,67.383,0
214147.113,29.297,30.762,22.949,28.320,93.750,0
214147.117,38.574,37.598,20.996,35.156,114.746,0
214147.121,39.062,41.992,33.203,36.133,83.008,0
214147.125,25.391,33.203,36.133,27.344,43.945,0
214147.129,20.020,27.832,40.527,27.344,77.637,0
214147.133,22.949,28.809,39.062,25.879,100.098,0
214147.137,20.996,28.809,32.715,14.160,62.988,0
214147.141,19.531,31.250,29.785,19.043,37.598,0
214147.145,22.461,39.551,26.855,31.738,61.035,0
214147.149,25.391,44.922,20.020,26.367,51.758,0
214147.152,29.785,40.527,16.113,27.832,24.414,0
214147.156,25.391,31.738,14.648,31.250,1.465,0
214147.160,20.020,28.809,15.625,22.949,-8.789,0
214147.164,19.043,30.273,31.738,10.742,-3.418,0
214147.168,18.555,25.391,41.016,9.766,-32.227,0
214147.172,20.996,21.973,46.387,21.973,-23.926,0
214147.176,20.508,24.414,43.457,26.855,-6.836,0
214147.180,15.625,23.438,34.668,21.484,-2.930,0
214147.184,11.719,17.090,28.809,14.160,-32.227,0
214147.188,17.578,14.160,29.297,20.996,-16.602,0
214147.192,26.367,19.043,30.762,32.227,20.996,0
214147.195,29.297,27.344,26.367,33.691,-5.371,0
214147.199,32.715,28.809,33.691,33.691,-34.668,0
214147.203,36.621,19.531,41.504,33.691,-35.645,0
214147.207,36.621,18.555,41.992,37.598,8.301,0
214147.211,34.180,23.926,42.969,42.969,66.406,0
214147.215,34.180,32.227,33.691,41.992,52.246,0
214147.219,35.645,34.180,32.715,41.992,-5.371,0
214147.223,29.785,28.809,36.133,32.227,10.742,0
214147.227,31.738,29.297,34.668,18.066,15.137,0
214147.231,34.180,22.461,33.691,10.742,-33.203,0
214147.235,31.250,21.973,27.832,14.160,-20.508,0
214147.238,31.738,31.250,26.855,20.508,2.930,0
214147.242,31.250,33.691,31.250,24.902,20.020,0
214147.246,33.691,37.109,28.320,23.438,1.465,0
214147.250,40.039,43.945,31.738,22.949,10.742,0
214147.254,40.039,45.410,35.156,27.344,21.484,0
214147.258,41.992,46.875,30.273,35.156,17.090,0
214147.262,49.316,45.898,27.832,48.340,32.227,0
214147.266,46.875,41.016,22.949,43.457,11.719,0
214147.270,38.574,39.062,25.879,23.438,5.859,0
214147.274,36.133,39.062,29.785,20.508,-2.441,0
214147.277,36.621,37.109,25.879,24.414,10.254,0
214147.281,33.203,35.156,27.344,20.996,18.555,0
214147.285,29.785,40.039,28.320,14.160,-35.645,0
214147.289,26.855,37.598,24.414,16.602,-25.879,0
214147.293,28.320,35.645,21.484,19.531,0.488,0
214147.297,26.855,37.598,19.043,13.672,1.953,0
214147.301,28.809,36.133,18.555,14.648,1.465,0
214147.305,39.551,37.598,22.949,25.391,-12.695,1
214147.309,32.227,36.621,22.461,20.508,-24.902,0
214147.313,17.090,30.273,19.043,2.441,-14.160,0
214147.317,20.996,28.320,30.273,3.418,-9.277,0
214147.320,29.297,33.203,40.039,17.090,-14.648,0
214147.324,26.855,30.273,40.039,26.855,20.996,0
214147.328,30.273,22.949,43.457,41.016,41.016,0
214147.332,40.039,22.461,44.922,42.480,11.230,0
214147.336,36.133,25.879,39.551,32.715,39.062,0
214147.340,28.320,25.879,38.086,31.738,87.891,0
214147.344,32.715,20.020,39.551,36.621,59.570,0
214147.348,41.016,23.926,43.945,44.922,59.570,0
214147.352,34.668,29.785,40.039,47.852,92.285,0
214147.356,30.273,30.762,24.902,48.340,49.316,0
214147.360,40.527,34.668,27.832,43.945,45.898,0
214147.363,39.062,36.133,41.016,31.738,64.941,0
214147.367,29.297,31.250,43.945,18.066,39.551,0
214147.371,35.645,33.691,37.598,25.391,27.832,0
214147.375,40.527,40.527,39.062,39.062,-1.953,0
214147.379,34.180,38.086,35.156,32.715,1.953,0
214147.383,26.367,28.320,32.227,20.508,66.406,0
214147.387,27.344,30.762,39.062,20.508,79.590,0
214147.391,31.250,41.992,27.344,30.762,69.824,0
214147.395,30.762,37.109,24.902,34.668,98.145,0
214147.399,29.785,30.762,34.668,23.926,50.293,0
214147.402,27.344,32.227,35.156,19.531,12.207,0
214147.406,25.879,32.715,33.691,23.438,16.602,0
214147.410,22.949,30.273,36.133,16.602,27.344,0
214147.414,22.461,31.250,32.227,17.090,56.152,0
214147.418,30.762,38.086,30.273,29.785,76.172,0
214147.422,38.574,42.480,37.109,36.133,83.984,0
214147.426,32.715,36.621,37.598,32.715,68.848,0
214147.430,19.043,25.879,32.227,30.762,92.773,0
214147.434,24.414,29.297,30.273,35.156,86.914,0
214147.438,30.273,38.574,31.738,34.668,26.855,0
214147.442,19.531,31.250,29.297,31.250,46.875,0
214147.445,18.066,20.996,26.855,27.832,72.266,0
214147.449,22.949,24.414,28.320,28.320,40.527,0
214147.453,24.902,25.391,24.414,22.949,16.113,0
214147.457,28.320,20.508,20.020,25.879,26.367,0
214147.461,39.551,21.484,28.320,41.016,71.777,0
214147.465,46.875,32.227,29.297,51.758,48.828,0
214147.469,41.992,39.062,30.762,44.434,10.254,0
214147.473,37.598,33.691,29.297,30.273,8.789,0
214147.477,33.691,26.855,32.715,36.621,8.789,0
214147.481,21.484,22.949,25.879,21.484,20.508,0
214147.485,14.160,22.949,18.066,0.488,4.883,0
214147.488,16.602,25.391,29.297,10.742,-15.625,0
214147.492,17.578,27.344,33.203,15.137,11.719,0
214147.496,21.484,28.809,28.320,15.625,11.719,0
214147.500,22.949,30.273,22.949,17.090,-5.371,0
214147.504,25.879,32.227,20.508,33.691,3.418,0
214147.508,30.762,25.391,23.926,41.016,-16.113,0
214147.512,30.273,20.996,37.598,32.227,-22.949,0
214147.516,30.273,31.250,40.527,33.203,11.719,0
214147.520,28.320,40.039,33.203,30.273,44.922,0
214147.524,30.273,39.551,20.020,31.250,40.039,0
214147.527,36.133,38.086,19.043,36.621,18.066,0
214147.531,34.180,30.273,31.738,30.273,-0.977,0
214147.535,28.320,21.973,30.762,25.879,-10.254,0
214147.539,24.902,28.320,22.949,28.809,13.184,0
214147.543,25.391,26.855,28.320,26.367,-12.207,0
214147.547,27.344,21.973,32.715,22.949,-33.203,0
214147.551,22.461,24.414,26.367,19.531,1.465,0
214147.555,19.043,23.438,25.391,23.438,22.461,0
214147.559,22.949,25.879,28.320,23.926,8.789,0
214147.563,27.344,26.367,33.203,22.949,12.207,0
214147.567,30.273,32.715,34.180,39.551,47.363,0
214147.570,28.320,41.504,23.926,37.109,58.105,0
214147.574,22.461,35.645,13.672,20.996,46.387,0
214147.578,24.902,27.344,18.066,25.879,49.805,0
214147.582,27.832,25.879,26.855,21.484,38.086,0
214147.586,30.762,28.809,25.391,11.230,21.484,0
214147.590,43.945,31.250,26.367,20.508,62.012,0
214147.594,50.293,34.180,30.273,32.715,68.848,0
214147.598,39.551,23.926,30.273,35.645,35.645,0
214147.602,39.551,17.090,34.180,36.133,17.578,0
214147.606,42.480,31.738,40.039,41.504,18.555,0
214147.610,37.109,35.645,39.551,43.457,38.086,0
214147.613,36.133,26.367,40.039,41.504,49.316,0
214147.617,38.086,25.879,44.434,40.527,16.602,0
214147.621,39.551,27.832,35.156,44.922,-2.441,0
214147.625,38.086,31.250,19.043,45.410,25.879,0
214147.629,34.668,31.738,22.461,29.297,34.668,0
214147.633,30.762,26.367,34.180,21.973,52.246,0
214147.637,25.879,25.879,35.156,22.949,51.270,0
214147.641,20.508,30.273,34.180,21.973,49.805,0
214147.645,17.090,27.344,34.180,22.949,59.570,0
214147.649,20.996,27.832,40.039,24.902,82.520,0
214147.652,24.414,35.645,39.062,20.508,108.887,0
214147.656,17.578,31.738,20.996,21.484,127.930,0
214147.660,20.508,27.344,18.555,24.414,112.793,0
214147.664,28.320,29.785,30.273,16.602,87.891,0
214147.668,24.414,30.273,33.203,13.672,93.262,0
214147.672,24.414,20.508,31.250,21.484,60.547,0
214147.676,25.879,20.996,26.855,33.691,-4.395,0
214147.680,22.461,27.344,17.578,29.297,22.949,0
214147.684,16.113,28.320,19.043,17.090,45.898,0
214147.688,9.766,31.250,29.785,15.137,21.484,0
214147.692,12.207,34.668,33.203,10.742,-15.625,0
214147.695,18.066,31.738,27.832,10.742,-66.406,0
214147.699,25.391,27.344,23.438,17.090,-18.066,0
214147.703,25.879,32.715,26.855,24.414,59.570,0
214147.707,25.391,36.133,34.180,23.926,37.598,0
214147.711,31.250,37.598,36.133,26.367,18.555,0
214147.715,34.668,45.410,26.367,31.738,36.621,0
214147.719,27.832,33.691,16.602,22.461,21.484,0
214147.723,18.555,24.414,18.066,18.555,1.465,0
214147.727,15.137,27.832,24.902,20.996,29.297,0
214147.731,15.137,21.484,24.902,21.484,41.992,0
214147.735,22.461,21.484,30.273,30.273,20.020,0
214147.738,26.367,25.391,37.598,30.273,-22.949,0
214147.742,28.320,24.414,39.062,22.949,-17.090,0
214147.746,37.109,28.809,30.273,30.762,13.184,0
214147.750,41.992,29.785,32.227,34.668,-14.648,0
214147.754,40.527,29.785,37.598,33.691,-4.395,0
214147.758,36.133,31.738,32.715,35.645,16.113,0
214147.762,38.086,31.250,23.438,38.574,9.766,0
214147.766,39.062,38.086,29.297,39.062,1.953,0
214147.770,31.738,41.504,32.715,30.273,-0.488,0
214147.774,25.879,30.273,28.320,20.020,8.301,0
214147.777,21.484,24.902,31.250,21.973,16.113,0
214147.781,20.508,24.902,35.645,23.438,-2.930,0
214147.785,21.973,18.555,32.715,24.902,0.000,0
214147.789,28.320,18.066,26.367,30.762,20.020,0
214147.793,31.250,27.832,28.809,29.785,-4.395,0
214147.797,28.809,36.133,32.715,32.715,34.668,0
214147.801,32.715,42.480,36.133,34.180,51.270,0
214147.805,40.039,46.387,36.133,34.180,5.859,0
214147.809,38.086,39.062,32.227,38.574,7.812,0
214147.813,30.273,29.297,27.832,34.668,15.137,0
214147.817,27.832,31.250,28.809,26.855,35.156,0
214147.820,25.391,33.691,32.227,25.391,29.297,0
214147.824,29.297,35.645,25.391,28.809,16.602,0
214147.828,41.992,42.969,25.879,29.297,-6.348,0
214147.832,44.434,37.598,34.180,27.832,2.441,0
214147.836,40.527,32.227,31.738,25.391,15.625,0
214147.840,39.062,37.109,29.785,20.020,-24.902,0
214147.844,39.062,29.785,35.156,20.508,-22.949,0
214147.848,38.086,30.273,36.621,28.320,10.742,0
214147.852,33.691,41.016,30.273,33.691,29.297,0
214147.856,31.738,40.039,21.973,31.250,42.969,0
214147.860,34.180,37.109,25.391,33.691,35.645,0
214147.863,29.785,32.227,31.250,26.367,17.578,0
214147.867,30.273,22.461,37.598,29.785,16.113,0
214147.871,36.133,25.391,42.969,42.969,24.414,1
214147.875,30.273,32.715,41.504,30.762,38.574,0
214147.879,32.227,34.668,40.527,23.438,31.738,0
214147.883,40.527,42.480,38.574,33.691,30.762,0
214147.887,41.504,45.898,23.926,32.227,13.184,0
214147.891,34.668,38.086,18.066,27.344,31.250,0
214147.895,31.250,26.367,32.227,31.250,68.848,0
214147.899,33.691,24.414,34.180,29.297,49.805,0
214147.902,33.691,35.645,30.762,34.668,20.020,0
214147.906,35.645,44.434,27.832,44.434,31.738,0
214147.910,39.062,39.062,41.504,36.621,58.594,0
214147.914,34.180,36.621,48.828,35.156,52.246,0
214147.918,33.203,38.574,35.645,40.527,44.434,0
214147.922,38.086,38.574,34.180,43.457,29.297,0
214147.926,37.598,33.203,37.109,35.156,24.414,0
214147.930,30.273,23.438,32.227,23.438,30.762,0
214147.934,24.902,27.832,31.250,16.602,-46.387,0
214147.938,27.344,37.109,32.227,25.391,-29.785,0
214147.942,27.344,39.551,30.273,35.645,54.199,0
214147.945,22.949,36.621,23.438,29.297,24.902,0
214147.949,22.949,28.320,23.438,26.367,0.000,0
214147.953,24.414,31.250,29.297,33.203,45.410,0
214147.957,22.949,38.574,34.668,32.715,51.758,0
214147.961,23.438,38.574,42.480,26.367,32.715,0
214147.965,21.484,34.180,42.480,20.020,34.668,0
214147.969,19.043,24.902,41.016,17.578,37.598,0
214147.973,25.391,21.484,33.691,27.344,58.594,0
214147.977,27.832,30.762,20.996,19.043,36.621,0
214147.981,31.250,38.086,23.438,12.695,19.531,0
214147.985,33.203,37.109,21.484,23.926,46.875,0
214147.988,34.180,35.156,15.137,26.367,24.902,0
214147.992,41.016,33.203,26.367,35.156,28.320,0
214147.996,40.527,39.062,38.086,45.898,82.520,0
214148.000,21.973,35.645,39.062,25.391,95.215,0
214148.004,14.160,27.832,41.016,15.625,57.617,0
214148.008,25.391,34.180,33.203,32.227,4.395,0
214148.012,23.926,35.156,25.391,34.180,-44.922,0
214148.016,19.043,35.156,30.273,36.621,-23.438,0
214148.020,26.367,41.504,27.832,43.457,6.348,0
214148.024,30.273,34.668,18.555,34.180,-35.156,0
214148.027,31.738,29.785,23.926,31.738,-30.762,0
214148.031,34.180,35.645,24.902,36.621,41.016,0
214148.035,36.621,41.016,24.414,42.480,43.457,0
214148.039,36.133,42.480,25.879,34.180,35.156,0
214148.043,32.715,35.156,25.879,21.973,75.195,0
214148.047,37.109,28.320,37.109,25.391,101.562,0
214148.051,45.410,36.621,45.898,28.320,77.148,0
214148.055,47.852,41.504,39.551,27.344,64.941,0
214148.059,41.504,39.551,35.156,25.879,73.242,0
214148.063,32.715,35.156,35.156,22.461,53.223,0
214148.067,26.367,32.227,26.855,19.043,19.531,0
214148.070,35.156,37.109,20.996,24.902,8.789,0
214148.074,33.691,36.621,21.973,35.156,52.246,0
214148.078,22.949,30.762,21.484,30.273,40.039,0
214148.082,18.555,25.879,20.020,11.719,50.781,0
214148.086,17.578,27.344,24.414,11.719,51.758,0
214148.090,23.926,35.156,33.203,29.297,24.414,0
214148.094,30.273,34.180,37.598,42.969,63.965,0
214148.098,28.320,29.785,37.598,33.203,83.496,0
214148.102,22.949,28.320,36.621,22.461,59.082,0
214148.106,24.414,33.691,36.133,30.762,26.855,0
214148.110,19.531,34.668,26.855,31.738,42.480,0
214148.113,19.531,32.227,23.438,23.438,86.426,0
214148.117,25.879,33.691,30.273,25.391,70.312,0
214148.121,16.602,24.902,24.414,20.996,63.965,0
214148.125,17.090,23.438,18.066,20.508,51.270,0
214148.129,20.996,27.832,23.926,29.297,42.969,0
214148.133,20.508,30.762,30.273,18.555,42.480,0
214148.137,23.926,33.691,28.809,18.066,16.113,0
214148.141,24.902,34.668,25.391,23.926,-2.441,0
214148.145,18.555,31.250,28.809,21.484,3.418,0
214148.149,16.602,28.320,32.227,19.531,17.578,0
214148.152,19.531,27.344,29.297,17.090,10.254,0
214148.156,21.484,28.809,25.879,16.602,-18.555,0
214148.160,24.902,30.762,29.297,18.555,-65.430,0
214148.164,26.855,26.367,30.273,24.902,-48.828,0
214148.168,25.879,23.438,25.391,22.461,-3.418,0
214148.172,24.902,30.762,30.762,20.996,1.953,0
214148.176,25.391,32.227,31.250,24.902,0.488,0
214148.180,25.391,26.855,14.648,32.227,39.551,0
214148.184,25.391,32.227,16.602,39.062,53.223,0
214148.188,29.297,38.086,26.367,36.621,39.551,0
214148.192,37.598,36.133,19.531,31.250,66.406,0
214148.195,36.133,33.691,18.066,32.715,63.965,0
214148.199,24.902,27.344,24.902,29.297,84.473,0
214148.203,18.066,19.043,29.785,21.973,26.367,0
214148.207,22.949,25.879,28.809,29.785,-22.461,0
214148.211,25.391,34.180,30.762,40.527,16.113,0
214148.215,21.484,27.832,30.273,27.344,20.996,0
214148.219,24.414,23.926,31.738,23.926,-11.230,0
214148.223,33.691,30.273,29.297,36.621,4.883,0
214148.227,37.598,37.598,27.832,47.852,46.387,0
214148.231,32.715,41.504,22.949,45.410,67.383,0
214148.235,33.691,41.504,23.438,32.715,54.199,0
214148.238,36.621,37.598,35.645,24.902,52.246,0
214148.242,34.668,34.668,32.227,24.414,72.754,0
214148.246,30.273,29.297,25.879,21.973,67.871,0
214148.250,28.320,21.484,27.344,9.277,13.184,0
214148.254,34.668,22.949,30.762,16.602,27.344,0
214148.258,30.273,30.762,24.902,26.855,52.246,0
214148.262,25.879,29.297,22.949,20.508,19.531,0
214148.266,27.832,21.973,22.461,23.926,27.832,0
214148.270,26.367,20.996,21.973,26.855,34.180,0
214148.274,34.668,30.273,36.133,34.180,17.578,0
214148.277,32.715,33.691,43.945,41.992,24.414,0
214148.281,22.461,23.438,38.574,28.320,51.270,0
214148.285,26.855,26.367,34.668,19.043,61.035,0
214148.289,26.855,29.785,31.250,28.809,15.625,0
214148.293,26.855,25.879,23.926,40.039,-32.227,0
214148.297,28.809,30.762,22.949,31.738,-6.836,0
214148.301,22.949,28.320,23.438,18.066,-22.949,0
214148.305,29.785,16.602,29.785,20.020,-23.438,0
214148.309,41.504,23.438,26.855,19.531,-44.922,0
214148.313,30.762,34.668,20.020,16.113,-19.043,0
214148.317,20.996,34.180,31.738,22.461,53.223,0
214148.320,21.973,32.715,39.551,22.461,41.504,0
214148.324,18.066,32.227,40.527,22.949,22.461,0
214148.328,17.090,28.809,38.086,33.691,65.918,0
214148.332,21.484,25.391,25.391,30.762,46.875,0
214148.336,24.902,28.320,20.508,20.996,11.230,0
214148.340,24.902,26.855,25.879,20.020,46.875,0
214148.344,23.438,26.855,24.414,24.902,86.914,0
214148.348,32.715,34.668,29.297,28.320,107.422,0
214148.352,41.016,38.086,27.344,24.902,77.148,0
214148.356,41.016,39.551,20.996,32.227,35.645,0
214148.360,43.457,41.016,22.461,39.062,41.504,0
214148.363,41.992,30.762,26.855,33.691,51.758,0
214148.367,39.062,31.738,29.785,37.598,61.035,0
214148.371,41.016,41.504,29.297,41.504,60.059,0
214148.375,43.945,40.039,31.250,42.480,63.965,0
214148.379,48.340,34.180,34.668,41.992,54.199,0
214148.383,52.246,29.785,35.645,40.039,33.691,0
214148.387,53.711,33.691,28.809,41.504,17.578,0
214148.391,52.246,34.668,28.809,43.945,19.531,0
214148.395,43.457,32.227,30.273,39.062,24.902,0
214148.399,34.180,27.832,27.832,27.832,3.906,0
214148.402,36.133,31.250,16.602,23.926,24.414,0
214148.406,34.180,38.086,14.648,26.855,33.203,0
214148.410,33.203,36.133,32.227,35.156,-16.602,0
214148.414,41.504,24.414,41.504,37.598,-39.551,1
214148.418,41.016,25.879,41.992,36.621,6.836,0
214148.422,19.531,30.273,34.180,16.602,2.930,0
214148.426,8.789,20.996,27.832,6.836,-7.812,0
214148.430,16.602,26.367,26.855,17.090,7.324,0
214148.434,15.625,28.809,24.902,16.602,20.508,0
214148.438,14.160,27.344,23.438,19.043,29.785,0
214148.442,12.695,23.926,22.461,18.555,7.812,0
214148.445,10.742,21.484,21.973,16.113,-0.488,0
214148.449,18.555,29.785,16.602,23.438,46.875,0
214148.453,31.250,39.551,11.719,33.691,57.129,0
214148.457,30.762,35.645,22.461,31.250,28.809,0
214148.461,16.113,24.414,31.738,18.555,34.668,0
214148.465,13.672,22.461,37.598,14.648,33.691,0
214148.469,23.926,25.879,36.621,21.484,20.996,0
214148.473,29.785,34.668,26.367,38.086,43.457,0
214148.477,32.227,38.574,35.156,44.434,85.938,0
214148.481,33.691,32.715,41.992,31.250,118.652,0
214148.485,33.203,29.297,36.133,27.344,135.742,0
214148.488,30.762,28.320,34.180,25.391,129.883,0
214148.492,35.645,27.344,27.344,29.785,106.445,0
214148.496,44.922,26.855,20.508,38.574,98.145,0
214148.500,42.480,32.227,23.926,25.879,102.051,0
214148.504,37.109,41.992,25.879,24.902,86.914,0
214148.508,32.227,35.156,31.250,33.203,86.426,0
214148.512,31.250,28.320,27.832,34.668,102.539,0
214148.516,29.785,25.879,28.320,23.926,72.266,0
214148.520,25.391,26.855,34.180,15.137,18.555,0
214148.524,28.320,30.762,31.738,19.043,29.785,0
214148.527,33.203,31.250,37.598,26.367,82.520,0
214148.531,32.227,31.738,41.016,24.414,32.715,0
214148.535,30.273,32.715,29.297,14.648,5.371,0
214148.539,32.715,41.016,20.508,20.508,60.059,0
214148.543,40.527,55.664,29.297,37.598,67.871,0
214148.547,44.434,53.223,31.250,34.180,52.246,0
214148.551,32.715,31.738,20.996,15.137,75.195,0
214148.555,25.879,25.391,18.555,15.137,81.055,0
214148.559,31.738,29.785,30.762,25.879,70.312,0
214148.563,26.367,24.414,33.203,30.273,51.758,0
214148.567,25.879,20.996,33.691,31.738,22.949,0
214148.570,36.621,29.785,36.621,45.898,55.664,0
214148.574,29.785,27.832,27.344,41.992,102.539,0
214148.578,18.066,24.902,22.949,15.137,74.219,0
214148.582,14.648,28.809,28.809,10.254,23.926,0
214148.586,15.137,30.273,38.086,21.973,42.480,0
214148.590,20.996,32.715,36.133,24.902,48.828,0
214148.594,19.043,33.691,30.273,19.043,36.133,0
214148.598,20.996,35.156,31.738,22.461,60.547,0
214148.602,26.367,31.738,39.062,30.273,44.922,0
214148.606,27.344,24.902,41.016,33.691,14.160,0
214148.610,35.645,31.738,30.273,36.621,31.738,0
214148.613,37.109,40.527,21.973,39.062,23.438,0
214148.617,40.527,44.922,36.621,42.969,43.945,0
214148.621,45.898,42.480,48.340,38.574,27.832,0
214148.625,33.203,25.879,36.133,26.367,-19.043,0
214148.629,20.996,18.066,26.367,25.391,20.508,0
214148.633,24.414,22.949,25.879,21.973,56.641,0
214148.637,27.832,30.273,25.391,20.508,33.691,0
214148.641,25.879,34.668,33.691,34.180,9.766,0
214148.645,26.855,33.691,36.621,45.410,40.039,0
214148.649,30.762,37.598,30.273,36.133,73.242,0
214148.652,33.203,41.504,35.645,36.621,71.777,0
214148.656,31.250,35.645,37.598,40.527,51.270,0
214148.660,37.109,34.180,41.016,38.574,54.199,0
214148.664,40.527,32.715,42.480,39.062,19.043,0
214148.668,34.180,22.949,36.621,42.969,-22.949,0
214148.672,30.762,18.066,32.227,41.016,15.137,0
214148.676,27.832,23.926,25.879,29.785,24.902,0
214148.680,27.832,29.785,24.414,32.715,-15.137,0
214148.684,33.691,28.809,18.555,30.273,-4.883,0
214148.688,37.598,32.715,15.137,29.297,9.277,0
214148.692,30.762,36.621,31.738,40.039,8.301,0
214148.695,26.367,26.367,39.062,37.109,12.207,0
214148.699,30.762,30.762,35.156,33.203,-2.930,0
214148.703,36.621,43.945,36.621,42.969,-11.719,0
214148.707,37.598,38.086,34.180,42.969,-21.973,0
214148.711,32.715,23.926,29.297,25.391,-21.973,0
214148.715,23.438,20.996,23.438,14.160,2.930,0
214148.719,27.832,33.203,25.391,27.344,5.371,0
214148.723,38.574,41.016,21.484,32.227,24.414,0
214148.727,36.133,36.621,13.184,19.043,34.668,0
214148.731,33.691,35.645,22.949,19.043,0.977,0
214148.735,36.621,32.715,26.855,27.832,6.348,0
214148.738,36.621,28.809,26.367,29.785,41.992,0
214148.742,32.227,31.738,32.227,31.738,30.762,0
214148.746,37.598,38.574,40.527,37.109,10.254,0
214148.750,46.875,34.668,37.598,43.945,12.207,0
214148.754,41.992,24.414,25.879,42.969,30.762,0
214148.758,34.180,24.414,20.508,33.203,42.969,0
214148.762,29.785,31.738,23.438,33.203,-12.207,0
214148.766,31.250,34.180,35.645,41.016,-14.648,0
214148.770,32.715,28.809,39.062,44.922,23.926,0
214148.774,30.762,27.832,28.320,37.109,6.348,0
214148.777,34.180,37.109,25.879,35.156,5.859,0
214148.781,34.180,42.969,31.738,34.668,24.902,0
214148.785,29.297,37.109,27.832,33.691,-1.953,0
214148.789,27.344,33.203,28.809,41.992,-19.531,0
214148.793,24.902,27.344,32.227,39.062,38.086,0
214148.797,28.809,23.926,25.391,29.297,51.270,0
214148.801,34.668,34.180,18.555,26.855,6.836,0
214148.805,32.715,39.062,17.578,20.020,10.742,0
214148.809,27.832,30.762,16.602,20.508,43.945,0
214148.813,32.227,33.203,24.414,32.227,76.172,0
214148.817,28.809,38.574,30.273,32.715,46.875,0
214148.820,18.555,36.133,30.762,16.602,-22.949,0
214148.824,24.414,37.598,37.598,21.973,-13.184,0
214148.828,28.809,36.133,38.574,31.738,22.949,0
214148.832,25.391,31.250,29.785,30.273,22.949,0
214148.836,26.367,32.715,24.414,31.738,25.879,0
214148.840,26.367,37.109,29.297,32.715,48.340,0
214148.844,25.391,29.297,32.715,27.832,20.508,0
214148.848,29.297,21.484,32.715,25.879,-3.418,0
214148.852,32.715,29.297,27.344,32.715,-3.418,0
214148.856,27.832,35.156,26.855,32.227,27.344,0
214148.860,25.879,30.762,26.367,36.621,78.125,0
214148.863,27.344,28.320,21.484,29.785,65.430,0
214148.867,22.461,36.133,29.785,28.320,56.152,0
214148.871,18.555,37.109,37.109,42.480,57.129,0
214148.875,20.508,30.273,32.227,30.762,62.500,0
214148.879,20.508,29.785,28.320,18.066,102.051,0
214148.883,17.578,23.926,29.297,13.672,89.355,0
214148.887,17.090,25.391,27.832,10.254,65.430,0
214148.891,16.602,26.855,25.879,17.578,41.016,0
214148.895,22.461,19.531,25.391,22.949,26.855,0
214148.899,30.273,22.949,27.344,19.531,46.875,0
214148.902,31.738,27.832,28.320,22.949,30.762,0
214148.906,25.879,26.855,25.391,22.949,-18.555,0
214148.910,33.691,31.250,34.668,27.832,-49.316,0
214148.914,37.598,30.762,29.297,31.738,-22.461,0
214148.918,35.645,27.344,25.391,33.691,-5.371,0
214148.922,36.621,31.738,31.250,38.086,-16.113,0
214148.926,32.715,31.250,30.762,33.203,-8.301,0
214148.930,31.250,27.344,29.297,24.414,28.320,0
214148.934,29.785,24.902,23.926,21.484,40.039,0
214148.938,28.809,21.484,24.414,23.438,34.180,0
214148.942,26.855,22.949,26.367,32.227,46.387,0
214148.945,23.926,27.832,24.414,38.086,34.180,0
214148.949,27.344,31.738,22.461,26.367,14.648,0
214148.953,29.297,30.273,29.785,19.043,-21.484,0
214148.957,28.320,34.180,36.133,22.461,-24.902,0
214148.961,27.832,35.156,26.367,28.320,-3.906,0
214148.965,24.902,30.273,22.949,18.555,4.395,0
214148.969,26.855,40.039,24.902,11.230,16.113,0
214148.973,31.250,43.457,21.484,22.949,26.855,0
214148.977,30.273,36.133,19.531,14.160,47.852,0
214148.981,31.250,39.062,18.066,8.301,15.625,0
214148.985,39.062,41.992,26.855,21.973,-10.742,0
214148.988,35.156,34.668,30.273,24.902,21.973,0
214148.992,31.250,31.250,17.578,28.320,66.406,0
214148.996,35.156,30.273,16.113,25.391,46.875,0
214149.000,36.621,31.738,27.832,23.438,5.859,0
214149.004,38.086,38.086,38.574,33.691,35.156,0
214149.008,27.832,31.738,33.691,20.508,72.754,0
214149.012,16.602,24.902,22.949,10.254,75.684,0
214149.016,11.719,27.344,26.855,20.996,27.832,0
214149.020,11.230,23.438,28.320,27.832,-10.254,0
214149.024,16.113,22.949,25.879,34.668,2.441,0
214149.027,20.020,26.855,35.645,36.621,-6.836,0
214149.031,29.297,28.320,32.227,32.227,5.859,0
214149.035,30.273,30.273,28.809,37.109,40.527,0
214149.039,27.344,32.227,35.645,40.039,33.691,0
214149.043,31.250,36.133,45.410,40.527,27.344,0
214149.047,29.297,34.180,54.199,41.504,7.324,0
214149.051,20.996,17.578,42.969,29.785,-2.441,0
214149.055,22.461,18.066,29.785,28.809,-4.395,0
214149.059,31.250,20.508,20.508,36.133,-16.113,0
214149.063,28.809,14.648,14.648,23.926,-19.531,1
214149.067,24.414,20.508,23.438,22.461,22.949,0
214149.070,31.738,28.809,38.086,33.691,42.480,0
214149.074,32.227,33.691,40.039,27.832,35.645,0
214149.078,29.297,33.203,38.086,28.809,33.691,0
214149.082,32.715,37.109,33.203,35.645,24.902,0
214149.086,34.668,43.457,34.180,36.621,8.301,0
214149.090,31.250,41.504,36.133,38.086,8.301,0
214149.094,22.949,34.668,27.344,23.438,4.395,0
214149.098,24.902,29.297,21.973,12.207,2.930,0
214149.102,31.738,29.785,23.438,16.602,4.883,0
214149.106,32.715,32.715,26.855,16.113,-4.883,0
214149.110,31.250,34.180,28.809,19.531,-0.488,0
214149.113,32.227,33.203,24.414,21.484,15.625,0
214149.117,38.574,35.156,23.438,27.832,17.090,0
214149.121,41.504,42.480,24.902,38.086,-0.488,0
214149.125,45.898,48.340,23.926,44.922,28.320,0
214149.129,49.316,48.828,27.832,47.363,35.156,0
214149.133,40.527,43.457,29.785,34.668,36.621,0
214149.137,29.297,37.598,31.250,26.855,38.574,0
214149.141,27.832,38.574,28.809,32.227,30.762,0
214149.145,26.855,39.551,26.855,30.273,47.363,0
214149.149,28.320,34.668,15.137,25.391,0.488,0
214149.152,32.227,28.320,9.277,25.391,8.301,0
214149.156,31.250,28.320,24.414,29.297,96.680,0
214149.160,35.645,31.250,34.180,40.039,48.828,0
214149.164,41.504,33.691,42.969,45.410,0.488,0
214149.168,25.391,31.250,36.133,29.785,47.852,0
214149.172,19.043,24.414,23.438,17.090,24.414,0
214149.176,30.762,23.438,28.809,23.438,22.949,0
214149.180,32.227,27.344,34.180,37.109,45.410,0
214149.184,20.996,23.926,27.344,28.809,32.227,0
214149.188,11.230,25.879,17.578,13.184,18.555,0
214149.192,17.090,29.785,19.531,10.254,5.371,0
214149.195,20.020,22.949,23.438,6.348,-31.738,0
214149.199,26.855,24.414,23.926,18.066,-24.902,0
214149.203,39.062,33.691,27.344,30.273,30.762,0
214149.207,35.645,34.180,24.414,23.926,32.227,0
214149.211,27.344,29.785,26.855,22.949,-14.648,0
214149.215,35.645,30.762,31.250,37.109,22.461,0
214149.219,42.480,28.809,33.691,39.551,40.039,0
214149.223,42.969,31.250,37.109,38.574,-5.371,0
214149.227,43.457,31.250,32.227,45.898,-4.883,0
214149.231,37.598,30.273,23.438,32.227,21.484,0
214149.235,36.133,39.551,11.719,18.066,18.066,0
214149.238,34.668,38.086,12.695,16.602,-9.766,0
214149.242,34.668,37.109,31.250,19.043,-5.371,0
214149.246,39.062,38.574,41.016,33.203,60.059,0
214149.250,37.598,30.762,35.645,31.738,83.984,0
214149.254,36.133,27.832,29.297,29.785,20.996,0
214149.258,40.039,28.320,29.785,32.715,29.297,0
214149.262,38.086,31.738,21.973,23.926,79.102,0
214149.266,33.203,33.203,22.949,19.043,80.078,0
214149.270,34.668,25.879,36.133,23.438,70.801,0
214149.274,32.715,25.879,29.785,28.320,82.520,0
214149.277,31.738,31.250,20.020,30.762,90.332,0
214149.281,36.133,33.203,27.344,29.297,61.523,0
214149.285,36.621,39.062,34.668,26.855,-3.418,0
214149.289,39.551,49.805,40.527,36.133,-8.301,0
214149.293,36.133,48.828,34.180,36.133,13.672,0
214149.297,32.715,44.434,26.855,34.668,33.691,0
214149.301,35.156,48.340,30.273,34.668,31.738,0
214149.305,33.203,42.969,26.855,29.785,16.602,0
214149.309,28.809,30.273,20.020,31.738,44.434,0
214149.313,23.438,19.531,23.438,26.855,43.945,0
214149.317,27.832,18.066,31.738,21.484,38.574,0
214149.320,31.738,23.926,19.531,23.926,68.359,0
214149.324,37.109,33.691,20.996,35.645,60.059,0
214149.328,38.086,39.062,35.645,38.086,19.043,0
214149.332,30.273,43.457,43.457,31.738,12.695,0
214149.336,31.738,45.898,38.086,31.738,73.730,0
214149.340,29.297,34.180,26.855,27.344,85.449,0
214149.344,21.484,25.391,34.180,26.367,23.438,0
214149.348,23.438,25.879,41.992,27.832,50.781,0
214149.352,33.691,20.996,35.645,28.320,77.148,0
214149.356,38.574,14.648,28.320,27.344,26.367,0
214149.360,31.738,17.090,30.273,27.344,61.035,0
214149.363,30.273,25.879,36.133,35.645,113.281,0
214149.367,37.109,30.273,34.668,40.039,73.242,0
214149.371,40.039,21.484,36.133,38.086,1.953,0
214149.375,40.039,19.043,36.133,34.668,-33.203,0
214149.379,39.551,27.344,26.367,49.805,-12.695,0
214149.383,32.715,29.297,29.297,55.664,-30.762,0
214149.387,29.297,33.691,38.086,38.086,-47.852,0
214149.391,36.133,36.133,43.457,32.715,-8.301,0
214149.395,42.480,28.320,41.992,32.227,20.508,0
214149.399,32.227,22.461,34.668,26.367,21.484,0
214149.402,21.484,15.137,34.180,21.484,32.227,0
214149.406,23.438,16.113,36.133,29.785,64.453,0
214149.410,28.320,22.461,28.320,37.109,64.941,0
214149.414,35.645,31.250,23.438,36.621,29.297,0
214149.418,35.156,37.598,26.367,36.133,4.883,0
214149.422,30.762,34.668,31.738,33.203,-18.066,0
214149.426,32.715,28.320,30.762,29.297,15.625,0
214149.430,30.273,25.391,25.391,25.391,49.316,0
214149.434,28.809,35.156,31.250,25.879,14.160,0
214149.438,29.297,38.086,31.250,28.320,5.371,0
214149.442,37.109,40.039,32.227,38.086,67.383,0
214149.445,43.945,50.293,38.086,39.062,116.211,0
214149.449,39.551,46.387,18.555,39.062,71.777,0
214149.453,32.227,38.574,-1.953,36.133,26.367,0
214149.457,27.344,33.691,16.602,30.762,10.254,0
214149.461,34.180,35.156,39.551,35.156,-2.930,0
214149.465,44.434,39.062,39.551,36.621,10.254,0
214149.469,41.504,35.645,28.809,32.715,20.508,0
214149.473,34.668,32.715,20.020,28.320,40.527,0
214149.477,32.715,32.715,7.324,17.090,56.641,0
214149.481,24.902,34.668,11.719,12.695,38.086,0
214149.485,22.461,40.039,28.809,20.020,71.777,0
214149.488,30.273,41.016,33.203,24.902,90.332,0
214149.492,28.809,36.621,27.344,23.438,66.895,0
214149.496,29.785,39.062,26.367,27.344,50.781,0
214149.500,24.902,32.715,32.227,25.391,79.102,0
214149.504,12.207,24.902,24.902,9.766,128.418,0
214149.508,14.648,22.949,19.531,6.348,60.059,0
214149.512,26.367,19.531,20.020,16.602,-1.953,0
214149.516,30.762,22.949,30.273,21.973,15.625,0
214149.520,29.785,22.461,31.250,24.902,3.418,0
214149.524,33.691,18.555,31.250,31.250,-33.691,0
214149.527,29.785,15.137,44.922,35.156,-21.484,0
214149.531,21.484,15.625,47.363,35.156,15.625,0
214149.535,25.879,25.879,41.992,32.227,6.348,0
214149.539,26.367,25.391,33.691,28.320,-5.859,0
214149.543,29.785,27.832,41.504,33.203,17.578,0
214149.547,36.133,32.715,48.828,38.574,64.453,0
214149.551,27.344,21.484,38.574,26.855,78.125,0
214149.555,21.973,18.066,34.180,30.762,92.773,0
214149.559,22.949,23.926,28.809,42.480,105.469,0
214149.563,20.020,23.926,28.809,33.203,105.469,0
214149.567,17.578,23.926,35.156,22.949,102.051,0
214149.570,16.113,30.273,37.598,22.461,61.035,0
214149.574,16.113,40.527,34.180,27.344,58.105,0
214149.578,20.020,40.527,30.762,31.738,74.219,0
214149.582,21.973,35.156,30.762,38.574,24.414,0
214149.586,23.926,38.086,27.344,40.039,76.172,0
214149.590,30.762,43.457,25.879,38.086,121.582,0
214149.594,38.574,41.504,25.879,31.738,62.500,0
214149.598,34.668,35.645,21.484,20.996,71.777,0
214149.602,30.273,29.785,22.461,20.508,98.145,0
214149.606,32.227,31.250,24.414,30.273,77.148,0
214149.610,36.621,40.527,18.555,36.621,45.898,0
214149.613,41.504,44.922,20.508,31.250,32.227,0
214149.617,37.598,44.922,18.066,25.879,63.477,0
214149.621,34.668,37.109,7.812,25.391,78.613,0
214149.625,38.086,33.203,16.602,28.320,25.391,0
214149.629,41.992,38.574,20.996,35.156,-5.859,0
214149.633,41.992,41.992,17.578,39.551,19.531,0
214149.637,46.875,48.828,36.621,35.156,48.828,0
214149.641,43.945,50.781,42.480,33.691,54.688,0
214149.645,32.715,42.969,34.668,30.273,15.137,0
214149.649,24.414,35.156,29.297,25.391,4.395,0
214149.652,16.113,25.879,20.996,19.531,25.391,0
214149.656,18.066,26.855,20.020,20.996,9.277,0
214149.660,21.484,28.809,24.414,25.391,-37.109,0
214149.664,22.461,24.414,24.414,26.855,-7.324,0
214149.668,19.531,21.973,20.020,33.203,28.809,0
214149.672,17.090,24.414,26.855,30.762,-41.504,0
214149.676,19.043,31.738,38.574,26.855,-67.383,0
214149.680,15.625,34.668,35.156,17.090,7.324,0
214149.684,22.949,42.480,31.250,24.902,36.621,0
214149.688,30.273,43.457,31.250,42.969,25.879,0
214149.692,20.508,23.926,29.785,28.320,18.066,0
214149.695,18.066,13.672,31.738,20.020,-6.836,0
214149.699,23.926,24.414,32.715,23.926,-9.766,0
214149.703,23.926,34.668,26.367,18.555,-13.184,0
214149.707,23.438,29.297,25.391,21.973,-42.969,0
214149.711,30.762,27.344,27.344,41.992,-6.836,0
214149.715,34.180,33.203,30.762,43.945,28.320,0
214149.719,27.832,31.250,41.992,32.227,19.043,0
214149.723,31.250,35.645,49.805,36.133,38.574,0
214149.727,32.227,33.691,46.387,33.691,46.875,0
214149.731,30.273,25.879,34.668,30.762,53.711,0
214149.735,26.367,29.785,21.973,32.715,74.707,0
214149.738,24.902,30.762,19.531,34.668,63.965,0
214149.742,35.156,35.156,32.227,31.738,65.918,0
214149.746,35.156,32.715,40.527,22.949,32.715,0
214149.750,31.738,26.855,36.621,16.113,10.254,0
214149.754,32.227,27.832,40.039,21.973,22.461,0
214149.758,30.273,25.391,34.668,32.715,34.668,0
214149.762,31.250,33.691,22.949,44.922,50.293,0
214149.766,34.180,41.504,26.855,44.922,74.707,0
214149.770,29.785,42.480,28.809,30.273,70.801,0
214149.774,24.902,43.457,16.602,17.090,33.691,0
214149.777,24.902,45.410,19.531,20.996,13.184,1
214149.781,33.203,42.969,35.645,30.273,0.000,0
214149.785,39.062,38.574,32.227,25.879,-15.137,0
214149.789,30.273,34.668,31.250,21.484,-29.297,0
214149.793,16.113,32.715,24.902,7.812,-20.020,0
214149.797,15.137,37.598,18.555,0.977,-20.508,0
214149.801,24.414,43.945,22.949,16.113,2.441,0
214149.805,29.297,45.410,26.367,33.203,29.785,0
214149.809,18.555,31.738,25.879,23.926,20.508,0
214149.813,12.695,24.902,20.996,16.113,25.879,0
214149.817,20.020,35.156,23.438,27.832,62.500,0
214149.820,21.484,32.715,19.043,31.250,51.270,0
214149.824,17.578,22.461,22.461,22.461,66.895,0
214149.828,17.578,22.461,32.715,16.602,119.629,0
214149.832,24.414,25.391,38.574,23.926,123.535,0
214149.836,32.715,27.832,32.715,27.832,87.402,0
214149.840,31.738,28.809,25.879,36.133,26.367,0
214149.844,24.902,27.832,34.180,39.062,36.133,0
214149.848,20.020,22.461,39.062,32.227,47.363,0
214149.852,18.066,16.602,36.133,26.367,28.320,0
214149.856,15.137,13.672,38.574,22.949,-9.766,0
214149.860,11.719,16.113,39.062,29.785,20.020,0
214149.863,17.090,20.020,30.762,33.203,49.805,0
214149.867,27.832,27.832,30.762,36.621,54.199,0
214149.871,31.250,33.691,36.133,40.039,82.520,0
214149.875,24.902,22.461,28.809,39.551,74.219,0
214149.879,26.855,22.461,21.973,46.387,96.680,0
214149.883,34.180,35.645,32.227,34.668,88.867,0
214149.887,34.180,32.227,38.086,29.297,38.574,0
214149.891,29.785,20.996,33.691,32.227,54.688,0
214149.895,20.508,22.461,29.297,24.414,57.129,0
214149.899,15.625,27.344,32.715,20.020,-11.230,0
214149.902,18.066,24.414,41.504,21.484,-27.832,0
214149.906,17.090,27.832,41.016,29.297,5.859,0
214149.910,12.207,32.715,31.738,28.320,6.836,0
214149.914,13.672,36.133,22.949,23.438,59.082,0
214149.918,18.555,37.598,20.020,24.414,70.801,0
214149.922,25.391,43.457,23.438,40.527,49.805,0
214149.926,30.273,42.969,26.367,39.551,30.273,0
214149.930,25.391,31.738,19.531,21.484,10.254,0
214149.934,23.438,27.832,20.996,19.043,46.875,0
214149.938,29.785,29.297,24.902,28.809,19.531,0
214149.942,32.715,36.621,19.043,29.785,-23.926,0
214149.945,27.832,37.109,20.020,14.648,-42.969,0
214149.949,20.508,28.320,28.809,13.184,-24.414,0
214149.953,19.043,28.809,30.273,16.113,42.480,0
214149.957,19.531,39.062,21.484,17.090,62.012,0
214149.961,27.832,45.410,23.438,22.461,32.715,0
214149.965,33.691,49.316,32.227,21.973,23.926,0
214149.969,24.902,45.898,26.855,20.996,33.203,0
214149.973,23.926,41.016,19.531,30.273,22.949,0
214149.977,34.180,40.527,21.484,41.504,47.363,0
214149.981,28.320,33.203,19.043,34.668,19.043,0
214149.985,16.602,29.785,17.578,20.508,-40.039,0
214149.988,21.973,29.297,19.531,19.043,-22.461,0
214149.992,23.438,22.949,29.785,29.785,-4.883,0
214149.996,20.020,30.273,39.551,37.598,3.418,0
214150.000,22.949,39.551,34.668,32.715,-10.254,0
214150.004,29.785,36.621,30.762,39.062,2.441,0
214150.008,36.621,35.156,34.180,46.875,34.180,0
214150.012,43.945,34.180,37.598,45.410,38.574,0
214150.016,43.945,30.273,37.598,50.293,31.250,0
214150.020,33.691,21.484,27.832,49.316,47.363,0
214150.024,34.180,18.555,19.043,47.852,47.363,0
214150.027,42.969,26.855,30.762,47.363,27.344,0
214150.031,38.086,28.320,35.156,27.344,31.738,0
214150.035,31.250,25.879,32.715,12.695,8.789,0
214150.039,30.762,29.785,33.691,20.996,4.883,0
214150.043,30.762,29.785,37.598,30.762,39.551,0
214150.047,32.715,26.367,40.039,31.250,36.133,0
214150.051,33.203,25.879,41.504,32.227,37.598,0
214150.055,33.203,30.273,42.480,37.598,37.109,0
214150.059,32.227,34.668,36.133,34.180,38.086,0
214150.063,35.645,38.086,32.227,37.109,77.148,0
214150.067,37.598,36.621,31.250,41.016,62.500,0
214150.070,32.715,27.832,36.133,26.855,7.812,0
214150.074,28.809,19.043,36.133,19.531,14.648,0
214150.078,27.832,28.809,28.320,26.855,45.898,0
214150.082,30.273,37.598,29.785,27.344,12.695,0
214150.086,28.809,37.109,30.762,28.809,-2.441,0
214150.090,32.227,46.387,31.738,34.180,39.062,0
214150.094,32.227,43.945,35.156,26.367,18.066,0
214150.098,33.691,32.227,40.039,22.949,16.602,0
214150.102,38.086,29.297,40.527,30.273,44.434,0
214150.106,41.016,30.273,37.598,34.180,-0.977,0
214150.110,48.340,35.645,36.133,41.992,-10.254,0
214150.113,49.316,38.574,32.227,40.039,4.395,0
214150.117,56.152,36.133,27.344,38.574,-1.465,0
214150.121,55.664,32.227,28.320,39.062,-9.277,0
214150.125,32.715,32.227,24.414,17.578,-13.672,0
214150.129,22.461,39.062,34.668,16.113,30.273,0
214150.133,26.367,40.527,41.992,26.855,52.246,0
214150.137,28.809,36.133,30.273,27.832,63.477,0
214150.141,33.203,31.250,26.855,32.715,78.613,0
214150.145,38.086,33.203,29.297,38.086,75.684,0
214150.149,38.086,35.645,27.832,41.016,70.801,0
214150.152,39.062,38.086,31.250,45.410,78.613,0
214150.156,50.781,42.969,44.922,50.781,71.777,0
214150.160,49.805,37.109,39.062,41.504,56.152,0
214150.164,41.504,28.809,27.832,30.762,37.598,0
214150.168,36.621,28.320,22.461,40.039,-11.230,0
214150.172,27.344,30.762,29.297,43.945,13.672,0
214150.176,27.832,29.297,43.457,32.715,46.875,0
214150.180,29.297,24.902,37.598,25.879,26.855,0
214150.184,27.832,27.344,38.574,26.855,2.441,0
214150.188,32.715,25.879,38.574,36.133,26.855,0
214150.192,32.227,21.973,27.832,46.875,66.406,0
214150.195,32.715,32.227,35.645,52.246,35.156,0
214150.199,36.133,35.645,43.945,51.758,-13.672,0
214150.203,37.109,35.645,40.527,40.527,31.738,0
214150.207,42.969,40.527,37.109,38.574,62.500,0
214150.211,43.945,39.551,40.039,46.387,53.223,0
214150.215,43.945,26.367,37.109,47.363,16.602,0
214150.219,37.598,17.578,33.203,39.551,8.301,0
214150.223,31.250,21.973,37.598,43.945,44.434,0
214150.227,33.203,23.926,36.133,34.668,0.977,0
214150.231,33.203,28.809,31.250,14.648,-8.789,0
214150.235,26.855,29.785,31.738,29.297,59.570,0
214150.238,29.297,32.715,37.598,39.062,51.270,0
214150.242,38.086,40.039,37.598,41.504,39.062,0
214150.246,39.551,36.621,37.109,46.875,46.875,0
214150.250,33.691,28.809,35.156,39.551,48.340,0
214150.254,36.133,33.691,37.109,41.992,57.129,0
214150.258,29.785,28.809,34.668,36.621,26.367,0
214150.262,15.137,6.348,23.926,20.020,26.855,0
214150.266,22.949,4.883,25.879,30.762,38.574,0
214150.270,25.879,20.996,31.250,37.109,31.738,0
214150.274,19.043,27.344,29.785,27.832,34.668,0
214150.277,22.949,26.367,32.715,31.250,30.762,0
214150.281,31.738,24.902,33.203,39.551,57.129,0
214150.285,36.621,24.414,33.203,35.645,33.691,0
214150.289,34.180,24.414,35.645,33.691,8.789,0
214150.293,30.273,21.973,31.250,32.227,45.898,0
214150.297,31.250,27.832,33.203,34.668,85.938,0
214150.301,34.180,28.809,29.785,31.250,43.945,0
214150.305,36.133,21.973,24.414,27.344,13.672,0
214150.309,34.668,19.043,23.438,31.738,45.898,0
214150.313,29.785,18.555,29.785,30.762,64.941,0
214150.317,27.344,29.297,34.668,30.762,56.641,0
214150.320,35.645,39.062,25.879,28.809,16.602,0
214150.324,45.410,32.715,27.832,34.668,20.508,0
214150.328,41.016,25.879,29.785,35.156,15.625,0
214150.332,35.156,27.832,25.879,30.273,2.441,0
214150.336,34.668,27.344,27.344,30.762,-8.789,0
214150.340,33.691,29.297,26.367,24.414,-11.719,0
214150.344,38.086,39.551,29.297,25.391,0.488,0
214150.348,36.621,38.574,31.250,26.367,15.625,0
214150.352,35.645,33.691,31.738,30.762,48.340,0
214150.356,31.250,33.691,31.250,24.902,3.418,0
214150.360,28.320,37.109,27.832,21.973,-17.578,0
214150.363,32.227,41.016,25.391,23.438,-17.578,0
214150.367,29.297,35.156,26.367,21.973,-35.645,0
214150.371,29.785,30.762,28.320,31.250,7.324,0
214150.375,39.062,33.203,25.391,37.598,20.996,0
214150.379,40.039,33.691,28.809,33.691,-8.301,0
214150.383,34.668,27.832,35.156,31.250,17.090,0
214150.387,28.809,27.344,23.926,26.855,20.996,0
214150.391,28.320,30.273,16.602,30.273,0.000,0
214150.395,33.691,27.344,28.320,38.086,15.137,0
214150.399,41.992,26.855,32.227,44.434,23.926,0
214150.402,39.062,29.785,33.203,39.062,2.930,0
214150.406,30.273,32.227,31.250,26.367,2.441,0
214150.410,20.996,25.391,28.809,15.625,-20.508,0
214150.414,18.066,22.461,31.738,15.137,2.930,0
214150.418,21.484,30.762,28.809,23.438,48.340,0
214150.422,23.438,28.809,21.973,28.320,51.270,0
214150.426,28.809,26.367,16.113,41.504,57.129,0
214150.430,35.156,28.809,27.832,45.410,53.223,0
214150.434,38.574,31.738,34.180,34.180,68.848,1
214150.438,37.598,33.203,25.391,30.273,24.902,0
214150.442,26.367,25.391,12.207,29.297,-17.090,0
214150.445,17.578,20.996,13.184,27.344,34.180,0
214150.449,24.414,24.902,30.762,31.738,47.363,0
214150.453,25.391,25.391,30.762,25.879,28.809,0
214150.457,21.973,20.508,22.949,12.695,39.551,0
214150.461,28.809,25.879,24.414,22.461,63.477,0
214150.465,35.645,34.180,26.855,36.133,82.031,0
214150.469,37.598,36.621,24.414,37.109,69.336,0
214150.473,34.668,39.551,18.555,40.527,75.195,0
214150.477,27.344,32.227,14.648,35.645,87.891,0
214150.481,29.785,27.344,12.695,19.531,22.461,0
214150.485,25.879,29.785,19.043,14.648,-44.434,0
214150.488,17.090,25.879,24.902,18.066,-13.184,0
214150.492,19.531,22.461,24.902,23.926,12.695,0
214150.496,25.879,27.832,23.438,30.762,-37.109,0
214150.500,31.738,34.668,23.438,35.156,-60.547,0
214150.504,32.227,29.785,25.879,34.180,-29.297,0
214150.508,38.086,32.227,34.668,42.480,0.000,0
214150.512,43.945,41.504,30.762,43.457,12.207,0
214150.516,40.527,38.086,16.602,31.250,-6.348,0
214150.520,35.645,31.738,28.809,35.156,2.930,0
214150.524,38.086,25.391,35.156,40.039,17.578,0
214150.527,40.527,25.879,26.855,38.086,27.344,0
214150.531,34.668,28.320,24.902,31.738,62.988,0
214150.535,34.668,25.391,23.438,32.715,113.281,0
214150.539,35.645,29.297,21.973,41.016,127.441,0
214150.543,44.922,38.574,27.344,36.133,77.637,0
214150.547,50.781,37.109,31.738,34.180,58.594,0
214150.551,38.574,28.809,29.785,33.203,71.289,0
214150.555,37.598,31.738,32.227,40.039,77.148,0
214150.559,37.109,30.762,32.227,43.457,35.645,0
214150.563,26.855,29.785,30.762,39.062,54.199,0
214150.567,25.391,33.691,35.645,35.156,97.656,0
214150.570,33.203,38.086,34.180,37.598,63.965,0
214150.574,36.621,38.086,26.855,36.621,54.688,0
214150.578,32.715,26.855,23.438,23.438,72.266,0
214150.582,36.133,26.367,29.785,28.809,83.496,0
214150.586,29.297,29.785,27.344,34.668,82.520,0
214150.590,16.113,25.391,16.602,19.531,50.781,0
214150.594,14.648,23.926,25.879,14.160,48.828,0
214150.598,17.090,25.879,37.109,15.625,65.918,0
214150.602,20.996,30.273,33.203,11.719,21.484,0
214150.606,28.809,30.762,35.156,19.531,-11.230,0
214150.610,28.320,31.250,33.691,26.367,12.207,0
214150.613,26.367,36.133,25.391,20.996,44.922,0
214150.617,24.414,30.762,29.785,15.625,24.414,0
214150.621,18.555,25.879,33.203,15.137,4.395,0
214150.625,21.484,31.250,26.367,20.996,21.973,0
214150.629,23.926,30.273,21.484,20.996,24.414,0
214150.633,28.809,27.832,28.320,15.137,15.137,0
214150.637,27.344,26.855,29.297,12.695,26.855,0
214150.641,21.973,22.949,26.367,23.438,57.129,0
214150.645,25.879,25.391,33.691,28.809,62.012,0
214150.649,23.438,27.344,34.180,19.531,29.297,0
214150.652,21.973,31.250,33.203,16.113,36.621,0
214150.656,24.414,36.621,37.109,22.949,48.828,0
214150.660,17.578,29.297,24.414,17.578,27.344,0
214150.664,18.066,28.809,19.531,13.184,45.898,0
214150.668,22.461,33.691,21.973,14.648,43.457,0
214150.672,26.367,36.621,23.926,15.137,20.996,0
214150.676,35.645,39.062,34.180,22.949,-0.488,0
214150.680,41.504,31.738,36.621,23.926,-14.648,0
214150.684,41.504,28.320,36.133,31.738,-1.953,0
214150.688,39.551,32.227,23.438,38.086,19.531,0
214150.692,36.621,34.668,17.090,38.574,8.301,0
214150.695,32.715,32.715,31.738,39.551,-8.789,0
214150.699,30.273,26.855,38.086,34.668,28.320,0
214150.703,22.949,22.461,27.344,25.879,13.184,0
214150.707,26.367,27.832,26.855,36.133,20.508,0
214150.711,33.691,34.668,30.762,38.086,53.711,0
214150.715,34.668,30.273,33.203,28.809,23.926,0
214150.719,35.156,30.273,33.203,34.180,21.484,0
214150.723,36.621,39.062,37.109,37.109,17.090,0
214150.727,35.156,37.598,42.480,34.668,-0.488,0
214150.731,24.902,25.879,31.250,28.809,22.461,0
214150.735,14.160,21.973,21.484,21.973,44.434,0
214150.738,14.160,29.297,28.809,17.578,11.230,0
214150.742,20.020,33.203,27.344,20.996,-6.836,0
214150.746,24.414,34.180,24.414,37.598,32.227,0
214150.750,35.156,41.992,32.715,41.016,8.301,0
214150.754,36.621,39.551,39.551,25.879,-0.977,0
214150.758,30.273,33.691,39.551,20.508,69.824,0
214150.762,29.297,35.645,34.668,18.555,44.922,0
214150.766,24.902,36.621,30.273,19.531,5.371,0
214150.770,20.508,35.156,27.344,17.090,7.812,0
214150.774,24.414,26.855,32.227,19.531,29.785,0
214150.777,27.832,22.461,40.527,27.344,52.734,0
214150.781,25.879,32.715,34.180,25.879,18.066,0
214150.785,24.902,39.551,20.020,22.461,11.230,0
214150.789,24.902,39.551,25.391,37.109,22.461,0
214150.793,26.367,41.992,31.738,43.457,45.410,0
214150.797,31.250,37.109,29.785,28.320,16.602,0
214150.801,37.109,32.227,31.250,26.367,-7.812,0
214150.805,36.621,31.250,29.297,31.738,43.945,0
214150.809,28.809,31.738,36.621,26.855,54.199,0
214150.813,23.438,31.250,35.156,17.090,43.457,0
214150.817,20.020,23.926,20.996,13.184,36.133,0
214150.820,18.066,17.090,29.297,17.090,7.324,0
214150.824,25.879,24.902,32.227,26.855,22.949,0
214150.828,32.227,32.715,20.996,23.926,25.879,0
214150.832,28.320,27.344,15.137,17.578,3.418,0
214150.836,30.273,24.902,19.043,32.227,30.273,0
214150.840,38.574,33.691,35.156,40.527,19.043,0
214150.844,40.039,41.016,35.645,33.691,41.504,0
214150.848,34.180,36.621,26.367,33.691,95.703,0
214150.852,25.879,28.809,23.926,32.227,99.609,0
214150.856,21.973,30.762,27.832,41.504,82.520,0
214150.860,25.879,33.203,30.762,46.875,41.016,0
214150.863,30.762,32.227,28.320,35.156,64.453,0
214150.867,32.227,22.461,32.715,30.762,76.660,0
214150.871,25.879,16.602,29.785,26.367,54.688,0
214150.875,33.691,37.598,30.273,33.203,32.715,0
214150.879,42.969,51.758,41.992,43.457,25.391,0
214150.883,31.250,41.016,41.504,36.621,57.129,0
214150.887,23.926,36.133,31.738,30.273,49.805,0
214150.891,30.273,41.016,27.832,29.297,58.594,0
214150.895,40.039,43.457,36.133,30.273,97.168,0
214150.899,42.969,43.945,48.340,39.551,62.988,0
214150.902,31.738,34.668,47.852,40.039,65.430,0
214150.906,27.832,27.832,31.738,27.344,64.941,0
214150.910,34.668,28.809,26.367,23.926,34.180,0
214150.914,37.598,33.203,39.551,39.062,62.500,0
214150.918,41.016,41.016,38.086,57.617,36.621,0
214150.922,45.410,45.898,31.250,55.664,42.480,0
214150.926,36.621,43.945,39.062,40.039,48.340,0
214150.930,26.855,38.086,33.691,35.645,43.457,0
214150.934,25.391,34.668,27.832,26.855,36.621,0
214150.938,24.902,31.250,43.457,28.320,49.805,0
214150.942,31.250,30.273,52.734,39.551,87.891,0
214150.945,35.156,31.738,43.457,29.785,55.176,0
214150.949,26.367,29.297,33.691,28.320,54.688,0
214150.953,22.949,24.902,34.668,32.715,80.078,0
214150.957,33.691,21.973,38.574,37.598,42.969,0
214150.961,43.457,33.203,37.109,49.805,19.531,0
214150.965,44.922,49.316,29.297,55.664,39.062,0
214150.969,41.016,53.223,29.785,42.480,49.316,0
214150.973,31.738,46.875,30.762,27.344,49.805,0
214150.977,25.391,39.062,35.156,23.438,24.414,0
214150.981,30.273,36.621,40.039,19.531,-0.488,0
214150.985,33.691,37.109,38.574,20.020,-15.137,0
214150.988,31.738,33.691,41.992,24.902,-22.461,0
214150.992,34.180,31.738,41.504,31.250,-15.137,0
214150.996,35.645,32.227,38.086,37.598,-11.230,0
214151.000,33.691,30.762,38.086,39.062,26.855,0
214151.004,39.062,34.668,41.504,41.016,56.152,0
214151.008,42.969,42.480,39.551,46.875,53.223,0
214151.012,31.250,37.598,25.879,32.715,0.977,0
214151.016,25.879,29.785,27.832,23.926,-10.254,0
214151.020,29.297,35.645,32.227,35.156,32.715,0
214151.024,23.926,36.621,25.879,23.438,13.184,0
214151.027,19.531,31.250,28.809,9.766,22.949,0
214151.031,25.879,27.832,33.203,19.531,73.730,0
214151.035,36.133,31.738,35.156,28.809,62.500,0
214151.039,41.016,39.062,37.109,25.391,33.691,0
214151.043,37.109,36.621,32.227,26.367,5.859,0
214151.047,41.992,36.621,36.621,32.715,23.438,0
214151.051,48.828,43.945,45.410,36.621,42.969,0
214151.055,41.016,35.645,35.156,34.180,42.969,0
214151.059,34.668,22.949,21.484,24.414,35.645,0
214151.063,30.273,26.367,25.879,16.602,29.785,0
214151.067,29.297,29.785,28.809,21.484,41.504,0
214151.070,37.598,38.086,27.344,31.250,49.805,0
214151.074,36.621,37.598,30.762,32.227,62.012,0
214151.078,33.203,28.809,33.203,24.902,53.223,0
214151.082,32.715,28.320,29.297,22.949,62.500,0
214151.086,29.785,31.738,29.785,28.320,68.848,0
214151.090,31.250,36.133,38.086,33.691,43.457,0
214151.094,37.109,36.133,38.086,39.062,40.527,0
214151.098,47.852,44.434,42.480,53.711,2.441,0
214151.102,46.875,42.969,41.992,56.152,-14.648,0
214151.106,30.273,27.344,23.926,36.133,50.293,0
214151.110,22.949,22.949,21.484,29.785,30.273,0
214151.113,25.879,30.273,30.273,23.438,-8.301,0
214151.117,30.762,35.645,37.109,21.484,7.324,0
214151.121,25.879,31.738,35.645,26.367,25.391,0
214151.125,16.113,28.809,31.738,21.973,8.789,0
214151.129,14.160,27.832,29.297,19.531,25.391,0
214151.133,22.461,27.344,28.320,29.785,41.504,0
214151.137,21.484,24.902,31.250,28.320,32.715,0
214151.141,22.461,30.762,29.785,20.508,47.363,0
214151.145,29.785,38.086,33.203,29.785,58.594,0
214151.149,29.297,43.457,39.062,40.527,61.035,0
214151.152,29.297,42.480,30.273,49.805,76.172,1
214151.156,30.762,32.227,17.578,37.109,37.598,0
214151.160,25.391,28.809,20.996,22.949,-6.348,0
214151.164,19.531,23.438,28.320,27.344,28.320,0
214151.168,17.578,12.695,39.062,31.738,57.129,0
214151.172,16.602,20.996,43.945,37.109,73.242,0
214151.176,22.461,35.156,37.109,33.691,63.477,0
214151.180,22.461,29.297,34.668,28.809,50.293,0
214151.184,22.949,24.902,34.668,26.855,30.273,0
214151.188,31.738,34.180,29.297,26.855,11.230,0
214151.192,34.668,34.180,22.949,30.762,14.648,0
214151.195,36.621,33.691,27.344,36.133,49.805,0
214151.199,41.504,36.621,35.156,45.410,76.660,0
214151.203,37.598,35.156,31.250,27.832,34.668,0
214151.207,28.809,30.762,24.414,15.625,26.367,0
214151.211,33.691,28.809,26.855,28.809,94.727,0
214151.215,36.133,29.785,30.273,35.645,94.238,0
214151.219,33.691,27.832,30.273,36.621,79.102,0
214151.223,34.180,23.438,34.668,26.855,99.609,0
214151.227,33.203,27.344,32.715,29.785,96.191,0
214151.231,32.227,35.156,29.297,34.180,66.406,0
214151.235,36.621,39.062,39.551,33.691,76.660,0
214151.238,41.016,42.480,33.203,38.086,61.035,0
214151.242,37.109,39.551,22.949,37.109,20.996,0
214151.246,34.180,38.574,29.297,34.668,-1.465,0
214151.250,33.203,33.203,28.809,33.203,-14.160,0
214151.254,35.156,30.273,30.762,34.668,-35.156,0
214151.258,36.133,33.203,33.203,33.691,-8.301,0
214151.262,31.738,28.320,32.715,30.273,27.832,0
214151.266,31.250,28.809,36.621,29.297,25.391,0
214151.270,32.715,35.645,33.203,31.738,42.969,0
214151.274,32.715,36.133,34.668,41.016,29.297,0
214151.277,34.180,34.180,44.434,43.945,36.621,0
214151.281,32.227,35.156,37.598,28.320,60.059,0
214151.285,25.879,31.250,28.320,14.160,42.480,0
214151.289,29.785,34.180,25.879,26.855,32.715,0
214151.293,34.180,38.086,29.297,37.598,9.766,0
214151.297,33.691,28.809,29.297,32.227,12.207,0
214151.301,30.762,30.273,26.855,37.109,51.758,0
214151.305,29.297,35.645,33.691,38.574,7.324,0
214151.309,32.227,30.273,37.598,26.855,-38.086,0
214151.313,32.715,30.762,34.180,31.250,19.043,0
214151.317,28.320,31.250,30.762,43.457,64.941,0
214151.320,29.297,25.879,28.320,44.922,25.391,0
214151.324,29.297,27.832,25.391,41.504,41.016,0
214151.328,22.949,27.832,25.391,36.133,65.918,0
214151.332,27.832,31.738,30.273,34.668,20.996,0
214151.336,35.645,38.086,36.621,34.668,17.090,0
214151.340,26.855,27.344,26.855,29.785,15.137,0
214151.344,29.297,28.809,20.996,27.344,8.301,0
214151.348,34.180,40.039,30.762,37.598,40.039,0
214151.352,18.066,35.156,31.738,30.762,20.996,0
214151.356,15.625,34.180,30.273,20.508,2.441,0
214151.360,27.344,33.691,29.785,34.180,25.879,0
214151.363,26.367,20.508,34.668,37.109,53.711,0
214151.367,27.344,26.367,35.645,35.645,51.758,0
214151.371,31.250,38.086,31.250,34.668,38.574,0
214151.375,32.227,39.551,29.785,20.508,23.926,0
214151.379,38.574,36.621,27.344,25.879,43.945,0
214151.383,40.039,32.715,32.715,34.180,52.246,0
214151.387,34.668,38.086,30.273,25.879,31.738,0
214151.391,31.738,37.109,29.785,21.484,31.250,0
214151.395,27.344,27.344,29.785,16.113,49.316,0
214151.399,29.785,27.832,24.902,8.789,-4.883,0
214151.402,33.691,35.645,35.156,7.324,-59.570,0
214151.406,23.438,29.297,35.156,9.766,1.953,0
214151.410,20.020,17.578,27.832,15.625,8.789,0
214151.414,21.484,23.438,33.203,20.508,-27.832,0
214151.418,20.020,34.180,30.762,23.926,-15.137,0
214151.422,21.484,35.156,31.250,30.762,19.043,0
214151.426,20.996,38.574,38.574,27.832,13.672,0
214151.430,21.973,34.180,31.250,24.902,-4.395,0
214151.434,25.391,25.879,27.832,25.879,-25.879,0
214151.438,26.855,30.273,34.668,29.785,1.953,0
214151.442,28.809,37.109,36.133,24.414,35.156,0
214151.445,21.973,30.762,25.391,11.719,2.930,0
214151.449,25.391,31.738,25.391,22.949,37.109,0
214151.453,30.762,35.156,28.809,29.785,39.551,0
214151.457,24.902,28.320,26.855,21.484,6.836,0
214151.461,25.879,25.879,30.762,20.508,44.922,0
214151.465,23.926,25.391,32.715,17.578,69.336,0
214151.469,30.762,32.227,32.227,18.555,14.648,0
214151.473,40.527,40.527,27.344,24.902,-17.090,0
214151.477,37.598,39.062,20.020,28.809,-0.488,0
214151.481,27.832,37.598,22.461,23.438,-1.465,0
214151.485,25.879,37.598,27.832,23.926,-20.996,0
214151.488,32.227,42.480,33.691,28.809,-41.016,0
214151.492,31.250,42.480,36.133,22.461,5.371,0
214151.496,25.879,31.738,32.715,21.973,84.961,0
214151.500,34.668,34.668,37.109,29.785,84.473,0
214151.504,37.598,34.668,38.574,30.273,41.504,0
214151.508,32.227,20.996,39.551,27.344,55.664,0
214151.512,31.738,24.414,33.203,32.227,95.215,0
214151.516,31.250,35.645,19.531,31.250,100.098,0
214151.520,33.691,35.156,18.066,26.855,51.758,0
214151.524,38.086,39.062,21.973,43.945,17.578,0
214151.527,38.086,44.922,25.391,48.340,40.527,0
214151.531,32.227,40.527,34.668,32.715,41.504,0
214151.535,27.832,30.762,37.109,23.926,10.254,0
214151.539,31.738,26.855,33.203,28.809,32.227,0
214151.543,38.086,33.691,38.086,42.969,72.266,0
214151.547,33.203,32.715,37.109,33.203,50.293,0
214151.551,24.902,29.297,33.203,20.508,5.859,0
214151.555,29.297,29.785,31.250,21.484,1.953,0
214151.559,28.320,24.414,32.715,23.438,36.621,0
214151.563,22.461,27.344,36.621,27.344,55.176,0
214151.567,26.855,36.133,35.645,27.344,80.566,0
214151.570,31.738,35.156,35.156,30.762,62.500,0
214151.574,43.457,43.945,38.086,51.270,35.645,0
214151.578,57.129,45.410,38.574,51.758,1.953,0
214151.582,52.246,37.598,34.180,40.527,-32.227,0
214151.586,38.574,28.809,31.250,44.434,33.203,0
214151.590,33.203,17.578,25.879,34.668,33.203,0
214151.594,32.227,12.207,26.367,31.250,17.090,0
214151.598,20.996,12.207,25.879,29.785,80.566,0
214151.602,18.555,22.461,23.926,32.227,99.609,0
214151.606,24.414,31.250,33.691,35.645,70.312,0
214151.610,30.762,36.133,41.992,36.133,80.078,0
214151.613,31.738,35.156,39.062,38.574,110.840,0
214151.617,37.598,34.180,38.574,37.598,83.008,0
214151.621,45.898,38.086,40.527,44.922,58.594,0
214151.625,35.645,31.250,37.598,35.645,85.449,0
214151.629,20.020,22.461,28.809,17.578,82.031,0
214151.633,18.555,25.879,32.715,25.879,40.527,0
214151.637,24.414,25.879,38.574,29.785,-3.418,0
214151.641,29.297,24.902,33.691,29.297,-3.418,0
214151.645,33.691,30.273,31.738,34.668,22.461,0
214151.649,31.250,30.273,33.203,33.691,28.320,0
214151.652,30.762,32.227,41.016,35.156,37.598,0
214151.656,30.762,39.551,28.809,38.574,36.621,0
214151.660,28.809,44.434,23.926,39.551,33.203,0
214151.664,23.438,35.156,40.039,35.645,9.277,0
214151.668,18.066,31.738,41.016,30.762,0.488,0
214151.672,24.902,36.133,36.133,29.297,0.977,0
214151.676,28.809,36.133,35.645,35.645,-2.930,0
214151.680,27.832,29.785,35.156,34.668,-3.906,0
214151.684,27.832,24.902,27.832,24.902,-20.996,0
214151.688,26.367,32.715,24.902,21.484,-0.977,0
214151.692,28.809,36.133,26.367,29.785,24.414,0
214151.695,34.180,33.203,22.949,33.203,25.879,1
214151.699,40.039,36.621,27.832,32.227,22.461,0
214151.703,42.480,39.062,34.180,31.738,19.531,0
214151.707,44.922,37.109,37.598,30.762,25.391,0
214151.711,40.039,41.016,37.109,33.203,45.898,0
214151.715,38.086,46.875,30.273,30.762,42.480,0
214151.719,34.180,43.457,24.902,21.973,31.738,0
214151.723,23.926,37.109,22.949,27.344,41.016,0
214151.727,27.344,33.203,26.855,27.344,31.738,0
214151.731,26.855,27.832,29.785,15.137,43.457,0
214151.735,26.855,24.414,32.227,19.531,39.551,0
214151.738,27.832,21.484,35.645,19.043,52.734,0
214151.742,29.297,25.879,35.645,20.020,35.156,0
214151.746,38.574,35.645,34.180,24.414,3.906,0
214151.750,43.945,45.410,35.645,25.391,-6.348,0
214151.754,43.457,42.969,35.156,29.297,-28.320,0
214151.758,35.645,36.133,32.227,33.691,20.508,0
214151.762,25.879,37.109,26.855,23.926,-5.859,0
214151.766,32.227,37.598,28.809,20.020,-16.113,0
214151.770,33.203,35.156,37.598,34.180,31.738,0
214151.774,25.879,31.738,35.156,35.645,17.578,0
214151.777,34.180,34.180,30.273,29.785,29.785,0
214151.781,31.738,39.062,30.762,32.227,54.688,0
214151.785,34.180,40.039,23.926,34.180,42.480,0
214151.789,43.945,41.992,23.926,32.715,68.848,0
214151.793,40.527,48.340,41.992,33.203,93.750,0
214151.797,40.039,49.805,45.410,40.039,103.027,0
214151.801,43.945,39.551,39.551,38.574,81.543,0
214151.805,34.180,29.785,34.668,23.926,46.387,0
214151.809,26.855,25.879,36.621,20.508,59.082,0
214151.813,31.250,32.227,42.969,30.762,77.148,0
214151.817,28.809,38.086,34.180,28.809,71.289,0
214151.820,18.066,36.621,27.344,20.996,44.922,0
214151.824,20.996,42.969,33.203,30.273,39.062,0
214151.828,30.273,41.992,32.227,27.344,54.199,0
214151.832,30.762,33.203,35.645,22.461,49.316,0
214151.836,22.949,35.645,36.621,28.809,21.484,0
214151.840,25.879,46.387,32.715,26.855,22.949,0
214151.844,32.715,48.828,31.250,24.414,58.105,0
214151.848,30.762,39.062,26.367,22.949,27.832,0
214151.852,25.879,31.250,30.762,18.066,32.227,0
214151.856,20.020,25.391,39.551,21.484,21.484,0
214151.860,27.832,25.879,49.316,33.203,-11.230,0
214151.863,42.480,41.016,56.152,43.945,-10.254,0
214151.867,34.668,41.992,44.434,43.945,-18.555,0
214151.871,20.996,32.227,28.320,37.109,20.020,0
214151.875,23.926,37.598,28.320,33.691,21.484,0
214151.879,22.461,38.574,32.715,32.715,41.992,0
214151.883,21.484,33.203,36.133,29.785,42.969,0
214151.887,28.320,29.297,38.574,25.879,23.438,0
214151.891,25.391,24.414,36.621,31.250,50.781,0
214151.895,24.414,27.832,32.715,35.645,6.836,0
214151.899,21.484,24.902,27.832,21.484,-16.602,0
214151.902,15.137,25.391,26.855,17.090,14.648,0
214151.906,21.973,32.227,31.250,21.973,6.348,0
214151.910,24.902,36.621,31.738,14.160,0.488,0
214151.914,20.508,33.691,29.785,12.695,33.203,0
214151.918,21.484,31.250,32.227,26.855,59.082,0
214151.922,26.855,34.180,31.250,38.574,64.453,0
214151.926,24.414,33.691,19.043,33.691,62.500,0
214151.930,25.879,34.180,21.973,25.879,39.551,0
214151.934,37.109,33.691,40.527,34.180,42.480,0
214151.938,37.109,33.691,42.969,44.434,87.402,0
214151.942,26.367,27.344,31.250,33.203,40.039,0
214151.945,25.879,28.320,32.227,27.344,7.324,0
214151.949,26.855,28.809,36.621,28.809,41.504,0
214151.953,24.902,22.949,34.668,21.484,37.109,0
214151.957,23.438,27.344,32.715,22.461,28.809,0
214151.961,22.949,31.250,25.879,25.879,66.895,0
214151.965,25.879,31.738,25.879,31.250,69.824,0
214151.969,26.855,29.297,30.273,29.297,54.688,0
214151.973,27.344,30.273,36.621,24.414,31.250,0
214151.977,29.785,32.715,39.062,35.156,17.578,0
214151.981,33.203,34.668,33.203,33.203,18.555,0
214151.985,33.691,28.320,28.809,21.484,28.809,0
214151.988,33.691,20.020,28.320,19.043,64.453,0
214151.992,34.668,30.762,27.344,20.996,62.500,0
214151.996,28.809,40.039,20.996,25.879,68.359,0
214152.000,24.414,37.598,23.438,20.020,-3.418,0
214152.004,33.691,38.574,35.645,15.137,-23.438,0
214152.008,31.738,35.645,28.320,18.066,8.789,0
214152.012,17.578,27.832,14.648,22.949,-15.137,0
214152.016,21.484,21.484,20.020,33.203,25.879,0
214152.020,27.344,18.555,26.855,36.133,83.496,0
214152.024,33.691,25.879,37.109,33.691,58.594,0
214152.027,38.574,35.645,41.992,32.715,28.320,0
214152.031,36.621,27.344,44.434,35.156,43.945,0
214152.035,38.086,27.832,39.551,37.598,56.152,0
214152.039,39.062,35.645,35.645,39.062,36.621,0
214152.043,38.574,31.250,38.086,38.574,49.805,0
214152.047,34.180,31.250,35.156,36.621,40.527,0
214152.051,29.297,35.156,31.250,32.227,-0.977,0
214152.055,38.086,34.180,27.344,42.969,5.859,0
214152.059,42.969,34.180,28.809,50.781,29.785,0
214152.063,34.668,29.785,36.133,44.434,73.730,0
214152.067,32.227,24.902,35.645,36.621,74.707,0
214152.070,33.691,28.320,32.715,24.414,30.273,0
214152.074,24.414,21.973,35.156,21.973,27.832,0
214152.078,19.531,20.996,39.551,28.320,69.336,0
214152.082,30.273,32.715,43.457,30.762,72.754,0
214152.086,29.297,34.668,30.762,23.926,1.465,0
214152.090,25.391,33.691,18.555,22.949,7.324,0
214152.094,31.250,36.133,27.832,30.762,10.254,0
214152.098,34.668,32.715,41.016,32.227,15.137,0
214152.102,31.250,29.297,37.109,25.879,2.441,0
214152.106,25.879,30.762,29.785,20.996,-36.133,0
214152.110,23.926,37.109,36.133,29.297,-20.996,0
214152.113,26.367,32.715,38.574,32.715,-13.184,0
214152.117,29.297,28.320,29.785,29.785,-11.719,0
214152.121,31.250,26.367,24.902,37.598,33.691,0
214152.125,41.504,24.902,30.762,47.363,57.617,0
214152.129,45.898,28.320,30.762,53.711,28.809,0
214152.133,28.809,24.414,30.273,44.922,11.230,0
214152.137,17.578,22.949,32.227,22.949,43.457,0
214152.141,21.484,30.273,33.691,19.531,65.918,0
214152.145,29.297,35.645,39.062,32.227,76.172,0
214152.149,40.527,43.457,39.062,34.668,45.410,0
214152.152,35.645,41.504,33.203,26.855,15.625,0
214152.156,21.973,27.832,25.391,27.832,56.152,0
214152.160,19.043,21.484,26.855,24.414,79.102,0
214152.164,18.066,26.855,24.902,18.066,45.898,0
214152.168,23.438,31.738,21.484,24.902,24.902,0
214152.172,28.320,24.414,32.227,30.762,43.457,0
214152.176,29.297,23.926,41.016,30.762,61.035,0
214152.180,26.855,32.227,36.133,34.668,40.039,0
214152.184,27.344,35.156,25.879,33.691,21.973,0
214152.188,36.621,40.527,28.809,33.691,66.895,0
214152.192,40.039,41.016,28.320,28.320,58.594,0
214152.195,34.180,35.645,25.879,19.531,17.090,0
214152.199,31.250,32.715,35.645,26.367,25.391,0
214152.203,33.203,31.250,33.691,37.598,11.230,0
214152.207,29.785,29.785,29.785,33.691,-23.926,0
214152.211,24.902,27.832,25.391,25.391,-25.879,0
214152.215,23.926,25.879,20.508,30.762,19.043,0
214152.219,23.926,23.926,28.320,30.762,49.805,0
214152.223,26.367,26.855,32.715,34.180,73.242,0
214152.227,24.414,33.203,27.832,30.762,63.477,0
214152.231,26.855,38.086,32.227,24.902,49.316,0
214152.235,36.133,37.598,38.086,37.598,36.621,0
214152.238,31.738,31.738,33.691,35.645,2.930,0
214152.242,20.508,23.926,37.598,24.902,17.578,0
214152.246,18.066,23.438,41.504,28.809,31.738,0
214152.250,24.902,26.367,34.180,33.203,11.719,0
214152.254,29.297,27.832,27.344,34.180,49.316,0
214152.258,30.762,27.832,23.926,31.250,68.359,0
214152.262,37.109,30.273,31.738,37.598,32.715,0
214152.266,33.691,34.180,37.598,41.016,34.668,0
214152.270,20.996,30.762,32.715,18.555,23.926,1
214152.274,18.066,23.926,36.621,13.672,53.711,0
214152.277,24.414,24.902,37.109,29.785,35.156,0
214152.281,25.391,31.738,26.855,32.715,-19.531,0
214152.285,22.461,28.809,22.461,24.902,-41.016,0
214152.289,22.461,23.438,26.855,16.602,-31.250,0
214152.293,31.738,31.250,32.715,20.996,22.949,0
214152.297,35.156,30.762,36.621,23.926,49.316,0
214152.301,30.273,35.645,31.250,18.555,21.973,0
214152.305,34.668,43.457,27.832,30.762,51.758,0
214152.309,40.527,36.621,31.250,45.410,55.664,0
214152.313,37.109,32.715,31.250,36.133,41.016,0
214152.317,30.762,39.062,28.809,23.926,66.895,0
214152.320,26.367,42.969,20.996,23.926,70.801,0
214152.324,33.203,42.480,25.879,29.297,19.043,0
214152.328,38.086,43.945,31.250,25.391,-12.695,0
214152.332,20.508,37.598,23.926,11.719,66.406,0
214152.336,12.695,31.738,21.484,21.973,112.793,0
214152.340,20.996,34.668,17.090,35.156,73.730,0
214152.344,25.879,35.156,17.578,20.508,43.457,0
214152.348,22.461,33.691,23.926,17.090,-17.578,0
214152.352,20.508,37.109,25.391,23.438,-65.918,0
214152.356,20.020,33.203,30.762,24.902,-64.941,0
214152.360,22.461,29.785,33.691,30.762,-30.273,0
214152.363,22.949,31.738,23.926,20.996,-3.906,0
214152.367,23.438,27.832,21.484,14.160,5.371,0
214152.371,25.879,34.180,20.020,18.555,-8.301,0
214152.375,27.344,32.715,9.766,13.184,-8.301,0
214152.379,32.227,30.762,16.602,20.508,20.508,0
214152.383,32.227,34.668,25.879,29.785,22.461,0
214152.387,27.832,32.227,25.879,24.414,5.859,0
214152.391,30.762,35.645,27.832,30.762,18.066,0
214152.395,27.832,32.715,25.391,33.203,20.508,0
214152.399,27.344,30.762,26.367,30.273,16.602,0
214152.402,31.250,35.156,26.855,31.250,28.320,0
214152.406,30.762,27.832,22.461,26.367,35.645,0
214152.410,31.738,22.949,23.438,21.484,28.320,0
214152.414,31.250,24.414,20.508,22.461,6.836,0
214152.418,28.809,24.414,9.277,25.879,-32.715,0
214152.422,25.391,20.508,17.090,30.762,-4.883,0
214152.426,29.785,24.902,29.297,32.227,11.230,0
214152.430,36.133,36.133,30.273,29.785,12.207,0
214152.434,44.922,40.527,27.344,29.785,32.715,0
214152.438,52.246,40.039,30.273,34.668,68.359,0
214152.442,32.227,32.715,31.250,24.902,122.070,0
214152.445,21.484,34.668,23.438,15.137,85.449,0
214152.449,33.691,42.480,22.949,24.902,74.707,0
214152.453,30.273,32.715,21.973,23.438,71.289,0
214152.457,15.137,20.996,23.438,12.207,41.504,0
214152.461,11.230,24.902,25.879,11.230,32.715,0
214152.465,16.113,29.297,20.508,14.648,5.859,0
214152.469,27.344,32.227,25.879,23.438,-7.812,0
214152.473,38.086,33.203,26.855,38.574,15.137,0
214152.477,37.109,34.668,19.043,33.691,20.996,0
214152.481,29.297,33.203,25.879,21.973,-20.996,0
214152.485,32.715,34.668,33.691,26.367,14.160,0
214152.488,29.297,39.062,33.203,20.508,73.242,0
214152.492,23.438,35.645,29.297,11.719,89.355,0
214152.496,27.832,30.762,25.391,14.648,39.551,0
214152.500,32.227,32.227,29.297,18.066,6.348,0
214152.504,40.039,39.551,25.879,19.531,4.883,0
214152.508,38.086,39.551,13.672,24.414,7.324,0
214152.512,32.715,31.738,17.578,31.250,0.000,0
214152.516,29.785,28.320,23.438,31.250,-19.043,0
214152.520,26.367,31.250,29.297,35.645,-29.297,0
214152.524,29.785,30.762,31.250,36.133,-66.895,0
214152.527,30.273,25.391,29.297,26.367,-64.453,0
214152.531,21.484,24.414,31.250,21.484,-20.996,0
214152.535,18.066,34.668,29.785,17.578,-20.996,0
214152.539,18.555,37.598,28.320,19.043,-38.086,0
214152.543,17.090,31.250,26.367,22.461,-16.113,0
214152.547,28.809,37.109,31.738,31.250,25.391,0
214152.551,41.016,45.898,37.109,41.992,60.547,0
214152.555,33.203,41.992,30.273,30.762,56.641,0
214152.559,21.484,26.855,25.879,15.625,40.527,0
214152.563,24.414,20.508,19.531,15.137,63.477,0
214152.567,25.879,24.414,17.090,14.160,21.484,0
214152.570,20.020,30.273,26.367,9.277,-14.160,0
214152.574,20.508,38.086,27.832,20.508,46.875,0
214152.578,24.414,37.109,28.320,37.598,63.965,0
214152.582,28.809,31.250,32.227,39.551,49.805,0
214152.586,35.156,27.344,27.344,30.273,46.875,0
214152.590,36.621,23.438,24.902,28.809,67.871,0
214152.594,37.598,25.879,32.227,32.715,62.500,0
214152.598,29.785,31.250,38.086,20.996,58.594,0
214152.602,21.484,35.645,31.738,15.625,53.711,0
214152.606,22.949,37.598,26.367,26.855,49.805,0
214152.610,25.391,35.156,26.367,33.691,108.887,0
214152.613,27.832,28.809,34.668,22.949,80.078,0
214152.617,30.273,25.391,35.645,22.461,53.711,0
214152.621,28.320,20.020,36.621,36.621,74.707,0
214152.625,26.855,25.879,39.551,46.875,44.434,0
214152.629,24.902,37.598,30.273,41.504,27.344,0
214152.633,26.855,37.109,28.809,31.250,62.988,0
214152.637,37.109,40.039,34.668,34.180,85.938,0
214152.641,36.621,38.086,34.668,31.250,61.523,0
214152.645,30.273,35.645,32.227,29.785,41.992,0
214152.649,31.250,37.109,37.109,35.156,46.387,0
214152.652,27.344,26.855,35.645,29.785,48.340,0
214152.656,25.879,20.508,34.668,28.809,22.949,0
214152.660,31.250,26.367,40.039,32.715,-2.441,0
214152.664,33.203,28.320,35.645,37.598,13.184,0
214152.668,32.715,28.320,32.715,40.039,41.504,0
214152.672,31.738,36.133,33.691,40.039,31.738,0
214152.676,28.320,38.086,35.156,43.457,22.949,0
214152.680,32.715,26.855,33.203,44.922,47.363,0
214152.684,36.133,30.273,37.109,40.527,25.879,0
214152.688,35.156,38.086,44.922,26.855,9.766,0
214152.692,40.039,39.062,46.387,24.902,30.762,0
214152.695,39.551,41.992,50.781,33.203,34.180,0
214152.699,35.156,40.039,44.922,37.598,13.672,0
214152.703,34.668,34.180,34.668,31.738,-20.020,0
214152.707,31.250,27.832,32.715,30.273,-13.672,0
214152.711,28.320,23.438,37.598,40.527,45.410,0
214152.715,31.738,27.344,39.062,42.969,43.945,0
214152.719,34.668,38.574,36.133,41.504,12.207,0
214152.723,32.227,43.945,36.133,37.598,29.297,0
214152.727,32.227,39.551,36.133,46.387,46.387,0
214152.731,40.527,35.645,43.945,51.758,35.645,0
214152.735,46.875,38.574,54.688,45.898,27.344,0
214152.738,43.945,38.574,54.688,45.898,11.719,0
214152.742,36.133,36.621,45.410,41.504,20.020,0
214152.746,31.250,32.227,35.156,33.203,31.250,0
214152.750,29.785,27.832,32.227,29.297,-1.465,0
214152.754,27.832,34.180,37.109,30.762,13.184,0
214152.758,27.344,40.527,39.551,30.273,-7.324,0
214152.762,29.785,35.156,32.227,27.832,-22.461,0
214152.766,29.785,25.391,30.762,29.297,-21.973,0
214152.770,33.203,30.273,34.668,34.180,11.230,0
214152.774,36.133,39.062,27.832,30.273,-10.254,0
214152.777,36.621,44.434,35.645,34.668,-38.574,0
214152.781,38.086,46.875,47.852,39.551,11.230,0
214152.785,41.016,38.086,35.645,35.645,33.691,0
214152.789,38.574,34.180,21.484,34.180,13.184,0
214152.793,33.203,39.062,27.344,26.367,-28.320,0
214152.797,32.227,30.762,39.551,24.902,3.906,0
214152.801,29.297,26.855,38.086,24.902,48.340,0
214152.805,25.879,31.250,34.180,24.414,34.180,0
214152.809,22.949,29.297,27.344,20.996,23.926,0
214152.813,22.461,29.297,29.297,20.508,45.410,0
214152.817,30.273,32.715,32.715,30.762,86.426,0
214152.820,34.668,34.668,28.809,32.715,53.711,0
214152.824,31.738,31.250,36.133,32.715,-13.184,0
214152.828,30.762,26.367,39.551,39.062,33.203,0
214152.832,29.785,26.855,32.715,40.039,109.375,1
214152.836,35.645,31.738,28.809,41.992,137.207,0
214152.840,32.227,37.109,30.762,51.270,122.070,0
214152.844,22.461,37.109,28.809,49.805,130.371,0
214152.848,30.273,39.551,27.344,41.992,151.367,0
214152.852,32.715,41.504,34.668,36.621,97.168,0
214152.856,23.438,30.273,35.645,30.762,54.688,0
214152.860,26.367,23.926,37.598,27.832,105.469,0
214152.863,31.250,34.668,37.598,23.438,123.047,0
214152.867,30.762,41.016,34.180,19.531,104.492,0
214152.871,29.785,39.551,30.762,17.090,109.863,0
214152.875,32.227,37.598,29.297,20.020,80.566,0
214152.879,30.762,36.133,23.438,20.508,72.266,0
214152.883,24.414,30.273,20.996,20.996,87.402,0
214152.887,24.902,31.738,30.762,26.855,85.938,0
214152.891,28.320,32.227,28.809,32.227,79.590,0
214152.895,24.414,30.762,22.461,33.203,44.434,0
214152.899,20.020,34.180,30.273,31.250,-28.320,0
214152.902,17.090,28.320,40.039,31.250,-27.832,0
214152.906,20.508,23.438,45.898,33.203,41.992,0
214152.910,30.273,35.156,42.969,37.109,29.297,0
214152.914,36.621,41.016,39.551,39.062,-20.020,0
214152.918,32.227,37.598,40.527,29.785,18.066,0
214152.922,25.391,28.809,36.133,24.902,51.270,0
214152.926,28.809,26.855,29.785,30.273,22.461,0
214152.930,26.367,31.738,25.879,24.902,15.625,0
214152.934,23.438,33.203,23.926,20.508,20.996,0
214152.938,28.809,33.203,22.949,30.762,13.184,0
214152.942,39.551,34.180,25.879,38.574,-6.836,0
214152.945,39.062,29.297,25.879,22.949,-37.109,0
214152.949,29.297,31.250,27.832,23.926,-19.531,0
214152.953,26.367,36.621,37.598,38.086,-4.395,0
214152.957,23.438,30.762,35.645,31.250,30.762,0
214152.961,30.273,28.809,35.645,32.227,45.410,0
214152.965,44.434,38.574,46.875,46.387,45.898,0
214152.969,42.969,42.480,44.922,39.551,46.387,0
214152.973,28.809,36.133,29.785,26.367,22.949,0
214152.977,18.066,26.855,23.438,28.809,36.133,0
214152.981,17.578,24.414,32.227,29.785,33.203,0
214152.985,20.996,29.785,39.551,18.066,42.480,0
214152.988,18.555,26.855,36.621,9.277,15.625,0
214152.992,16.602,23.926,33.691,14.648,-9.277,0
214152.996,17.578,29.297,32.715,23.438,37.109,0
214153.000,17.578,34.180,25.879,31.738,12.695,0
214153.004,21.484,35.156,25.391,28.809,4.395,0
214153.008,25.879,34.180,33.691,28.809,0.488,0
214153.012,25.391,34.668,40.039,33.691,16.602,0
214153.016,28.320,37.109,41.016,35.645,49.805,0
214153.020,32.227,32.227,30.762,34.668,6.836,0
214153.024,28.809,27.832,25.879,28.320,-9.766,0
214153.027,26.855,26.855,23.926,22.949,-9.766,0
214153.031,25.879,27.832,17.578,18.555,-0.977,0
214153.035,26.855,29.785,29.297,17.090,-4.395,0
214153.039,34.668,37.109,44.922,29.785,-4.395,0
214153.043,36.621,38.574,43.457,38.574,1.953,0
214153.047,35.156,39.062,41.504,35.156,9.766,0
214153.051,39.551,41.504,38.086,38.574,41.992,0
214153.055,34.180,33.203,32.715,28.320,32.715,0
214153.059,21.484,21.973,28.320,18.555,29.297,0
214153.063,25.879,25.879,28.320,25.391,36.133,0
214153.067,25.879,31.738,28.320,29.297,43.945,0
214153.070,22.461,30.273,22.949,29.785,33.203,0
214153.074,24.902,34.180,25.391,32.227,30.273,0
214153.078,21.973,35.645,29.785,24.902,6.348,0
214153.082,24.414,35.645,28.809,17.578,-5.859,0
214153.086,34.668,35.156,37.109,21.973,33.691,0
214153.090,37.598,32.227,39.551,23.438,36.621,0
214153.094,27.344,36.133,31.250,25.391,14.160,0
214153.098,16.113,40.039,30.273,22.949,38.574,0
214153.102,15.625,37.109,35.156,19.043,46.875,0
214153.106,14.160,29.297,28.320,18.555,3.906,0
214153.110,13.184,25.391,21.973,21.484,-27.832,0
214153.113,16.113,21.484,15.137,21.973,-5.859,0
214153.117,17.578,26.367,14.648,24.414,7.324,0
214153.121,26.855,36.621,24.414,26.855,4.883,0
214153.125,35.156,34.668,28.809,18.555,11.719,0
214153.129,25.879,34.668,26.367,21.484,40.039,0
214153.133,21.484,39.062,30.762,28.809,56.152,0
214153.137,27.832,36.621,35.156,31.250,87.891,0
214153.141,27.832,27.832,28.320,29.297,61.523,0
214153.145,28.809,27.344,29.297,32.227,56.641,0
214153.149,34.668,34.668,23.926,41.016,58.594,0
214153.152,41.504,33.691,23.926,51.270,24.414,0
214153.156,37.109,28.809,30.273,44.922,15.137,0
214153.160,27.344,26.855,27.344,41.504,26.855,0
214153.164,29.785,27.344,36.133,49.316,24.902,0
214153.168,31.738,34.180,44.434,43.457,-6.836,0
214153.172,27.344,31.250,43.457,44.434,7.324,0
214153.176,22.461,23.926,41.992,46.387,32.227,0
214153.180,20.996,19.531,33.691,33.691,31.738,0
214153.184,20.996,19.531,22.949,16.113,4.883,0
214153.188,24.902,24.414,28.320,12.207,15.137,0
214153.192,34.180,30.273,30.762,28.320,61.035,0
214153.195,39.062,38.086,17.578,38.574,73.730,0
214153.199,41.992,33.203,26.855,37.109,57.617,0
214153.203,38.086,24.414,38.574,40.527,49.316,0
214153.207,36.133,28.809,40.527,45.410,67.383,0
214153.211,43.945,39.551,44.922,46.875,51.270,0
214153.215,32.715,28.320,33.691,38.086,8.789,0
214153.219,28.320,16.602,29.785,28.320,-1.465,0
214153.223,38.574,28.809,40.527,36.621,40.039,0
214153.227,35.156,28.809,27.832,41.016,65.430,0
214153.231,32.227,28.320,18.066,44.434,59.082,0
214153.235,28.320,32.227,29.785,36.621,43.457,0
214153.238,27.344,39.062,30.762,26.367,15.137,0
214153.242,36.133,41.992,30.762,35.645,27.832,0
214153.246,34.668,30.273,36.621,33.203,59.570,0
214153.250,34.180,29.785,37.598,30.762,73.242,0
214153.254,34.180,35.156,37.109,37.598,88.867,0
214153.258,35.645,35.645,40.527,51.270,64.453,0
214153.262,42.480,35.156,38.574,57.129,36.621,0
214153.266,41.992,35.645,36.621,40.039,19.043,0
214153.270,34.668,34.668,34.668,21.973,19.043,0
214153.274,31.250,25.391,27.344,9.277,-11.719,0
214153.277,34.180,18.066,25.879,13.672,-0.977,0
214153.281,39.551,19.531,24.902,29.297,27.832,0
214153.285,38.086,29.297,28.320,38.086,48.828,0
214153.289,32.227,33.691,40.039,45.898,73.730,0
214153.293,34.180,26.855,39.551,39.062,69.336,0
214153.297,33.203,24.902,37.598,29.297,72.754,0
214153.301,28.320,23.438,37.598,25.879,57.617,0
214153.305,30.273,26.855,33.691,24.902,45.898,0
214153.309,34.180,31.738,35.156,29.785,32.715,0
214153.313,34.668,33.691,39.551,39.551,30.762,0
214153.317,37.109,36.621,29.785,49.316,16.602,0
214153.320,40.039,33.691,18.066,43.457,-0.488,0
214153.324,42.480,27.344,26.367,41.016,35.645,0
214153.328,38.574,30.273,35.156,44.434,-0.977,0
214153.332,28.809,29.785,32.227,31.250,-58.105,0
214153.336,27.832,26.855,27.832,24.902,14.648,0
214153.340,25.391,30.762,29.297,26.367,48.340,0
214153.344,18.555,34.668,32.715,27.344,14.648,0
214153.348,23.926,37.598,39.551,31.250,15.625,0
214153.352,32.227,36.621,41.992,40.527,7.812,0
214153.356,24.414,28.809,26.855,43.457,24.414,0
214153.360,23.926,32.715,18.555,33.691,40.527,0
214153.363,28.320,39.062,15.625,15.625,-15.625,0
214153.367,25.391,38.086,20.508,13.184,-34.668,0
214153.371,30.273,36.133,33.691,32.715,20.508,0
214153.375,35.645,31.250,33.203,45.410,31.250,0
214153.379,36.621,31.738,31.250,36.133,21.484,0
214153.383,41.992,33.691,34.668,25.391,53.711,0
214153.387,46.387,36.621,34.180,25.879,70.312,0
214153.391,44.922,41.992,28.809,25.391,49.316,0
214153.395,41.992,42.480,22.949,26.367,28.320,0
214153.399,42.969,40.527,29.297,29.297,30.762,0
214153.402,38.574,33.203,38.574,28.809,36.621,0
214153.406,33.203,31.250,37.598,22.949,9.277,0
214153.410,25.879,34.668,34.180,17.090,6.348,0
214153.414,18.555,29.785,33.691,22.461,40.527,0
214153.418,17.578,21.973,32.715,25.391,34.180,0
214153.422,20.508,22.461,28.809,26.367,-18.555,0
214153.426,17.578,25.391,19.531,24.902,-5.371,0
214153.430,18.066,25.391,23.438,19.531,35.645,0
214153.434,26.855,30.273,32.227,21.484,20.996,0
214153.438,33.691,39.551,27.344,22.949,32.227,0
214153.442,33.691,43.457,32.715,24.414,65.430,0
214153.445,25.879,33.691,33.203,19.531,65.918,0
214153.449,26.367,25.391,28.809,15.625,58.594,0
214153.453,35.156,29.785,24.902,16.113,32.227,0
214153.457,30.762,22.461,23.926,16.113,41.504,0
214153.461,25.391,15.137,33.203,23.438,84.961,0
214153.465,30.762,24.414,35.156,29.785,74.707,0
214153.469,38.574,35.645,33.203,36.621,59.570,0
214153.473,35.645,32.227,31.738,37.598,39.551,0
214153.477,27.832,27.832,31.250,30.273,36.133,1
214153.481,32.227,40.527,35.156,37.598,50.781,0
214153.485,32.715,47.852,36.133,36.133,66.406,0
214153.488,19.043,38.086,24.414,18.555,52.734,0
214153.492,16.602,37.109,20.508,18.555,47.852,0
214153.496,20.508,35.645,24.414,19.043,24.414,0
214153.500,23.438,32.715,27.832,25.391,-28.320,0
214153.504,36.133,33.691,41.992,41.016,-37.109,0
214153.508,36.133,27.832,32.715,36.621,-7.812,0
214153.512,26.367,28.809,26.855,27.832,7.324,0
214153.516,28.809,33.691,41.992,24.414,12.695,0
214153.520,21.484,24.902,34.180,21.973,18.555,0
214153.524,16.113,25.879,22.461,20.996,0.000,0
214153.527,18.555,27.344,31.250,21.484,1.465,0
214153.531,11.230,27.832,39.062,12.695,10.742,0
214153.535,9.766,28.320,36.133,4.395,15.625,0
214153.539,28.809,24.902,32.715,22.949,14.160,0
214153.543,37.109,28.809,32.715,33.691,4.883,0
214153.547,13.672,33.203,35.156,18.066,23.926,0
214153.551,11.230,34.668,25.879,11.719,41.016,0
214153.555,20.996,40.039,20.508,22.461,50.781,0
214153.559,21.484,37.598,31.738,26.855,14.160,0
214153.563,26.855,33.691,33.691,29.297,-0.977,0
214153.567,26.855,28.809,28.809,25.879,56.641,0
214153.570,24.414,24.902,28.320,23.926,22.461,0
214153.574,22.461,29.297,33.203,29.297,32.227,0
214153.578,19.043,32.227,33.691,25.879,71.289,0
214153.582,25.391,39.551,28.320,20.020,64.453,0
214153.586,29.297,39.551,29.785,21.484,73.242,0
214153.590,22.461,32.227,31.738,18.066,83.984,0
214153.594,22.461,34.180,32.715,20.020,82.520,0
214153.598,26.855,34.180,31.250,24.414,77.148,0
214153.602,22.949,30.273,23.438,24.902,39.551,0
214153.606,28.320,30.273,29.297,33.691,9.766,0
214153.610,36.133,32.227,35.156,37.109,32.715,0
214153.613,32.715,32.715,24.414,31.250,52.246,0
214153.617,36.621,33.691,28.320,29.297,23.926,0
214153.621,34.668,34.180,37.598,28.320,-9.277,0
214153.625,25.391,30.762,40.039,32.227,7.812,0
214153.629,21.484,23.926,32.715,26.855,35.645,0
214153.633,23.926,32.715,29.785,23.438,28.320,0
214153.637,35.156,52.246,37.598,41.992,10.254,0
214153.641,38.086,49.316,29.297,39.551,-9.277,0
214153.645,34.180,36.621,13.184,24.902,11.230,0
214153.649,35.156,36.621,16.602,32.227,-15.137,0
214153.652,34.180,34.180,33.691,33.691,-6.836,0
214153.656,35.645,33.203,49.316,31.738,46.875,0
214153.660,35.156,37.598,45.410,27.344,15.137,0
214153.664,39.062,37.109,36.133,21.484,-18.066,0
214153.668,44.434,33.691,39.062,23.438,17.090,0
214153.672,42.969,36.621,40.039,35.156,37.598,0
214153.676,38.086,42.969,32.715,40.527,3.418,0
214153.680,32.227,41.992,28.809,31.250,13.184,0
214153.684,32.227,39.062,29.297,35.645,39.551,0
214153.688,30.762,37.598,29.785,39.062,0.488,0
214153.692,29.785,37.109,31.738,34.180,-24.902,0
214153.695,37.598,37.109,34.668,46.387,-8.789,0
214153.699,41.504,36.133,27.344,57.129,4.395,0
214153.703,37.598,37.109,26.367,37.109,7.812,0
214153.707,50.293,42.480,41.016,33.691,6.836,0
214153.711,56.152,48.340,44.434,43.945,-7.324,0
214153.715,39.551,41.504,35.645,40.039,9.766,0
214153.719,29.297,33.691,28.809,37.598,44.922,0
214153.723,31.250,30.273,26.855,45.898,37.109,0
214153.727,37.109,26.855,24.414,48.828,70.801,0
214153.731,33.203,21.484,25.391,36.621,61.523,0
214153.735,32.227,25.879,31.738,40.039,19.531,0
214153.738,40.527,33.691,27.832,35.156,30.762,0
214153.742,31.738,35.156,32.227,20.020,30.762,0
214153.746,20.508,41.016,39.551,20.508,46.875,0
214153.750,23.926,40.527,35.156,19.531,102.539,0
214153.754,25.391,33.203,30.762,16.602,88.867,0
214153.758,20.996,33.691,26.367,15.137,49.805,0
214153.762,23.926,38.086,18.555,10.742,75.684,0
214153.766,28.320,40.039,23.438,9.766,90.820,0
214153.770,28.320,39.062,35.645,13.672,73.242,0
214153.774,30.273,31.250,36.621,16.602,34.668,0
214153.777,30.762,29.785,33.203,18.555,38.574,0
214153.781,27.832,38.574,32.715,10.254,57.617,0
214153.785,28.809,33.203,29.297,3.906,49.316,0
214153.789,28.809,29.297,25.879,18.066,64.941,0
214153.793,26.855,33.691,24.414,34.668,48.340,0
214153.797,25.879,34.180,23.438,32.227,11.230,0
214153.801,26.367,32.715,33.203,25.879,6.836,0
214153.805,33.691,31.250,35.156,25.391,37.109,0
214153.809,40.039,33.691,32.715,29.785,47.363,0
214153.813,39.551,36.133,35.645,37.598,28.809,0
214153.817,32.227,30.762,31.250,32.715,32.715,0
214153.820,25.391,28.320,28.320,26.367,34.668,0
214153.824,29.785,39.551,29.785,25.879,24.414,0
214153.828,36.133,39.551,27.832,23.926,33.203,0
214153.832,34.180,28.809,18.555,22.461,5.371,0
214153.836,27.832,26.367,16.113,21.484,24.414,0
214153.840,24.902,28.809,26.367,22.949,67.383,0
214153.844,25.391,31.250,27.832,20.996,69.824,0
214153.848,28.320,28.809,28.809,21.484,70.801,0
214153.852,34.180,33.203,33.203,35.645,33.203,0
214153.856,45.898,42.480,33.691,46.875,5.859,0
214153.860,49.805,41.504,33.691,48.340,19.531,0
214153.863,36.133,37.598,28.320,35.645,39.551,0
214153.867,26.367,38.574,18.555,27.344,35.156,0
214153.871,33.691,45.410,17.578,27.832,-0.488,0
214153.875,37.598,39.551,26.367,17.578,-24.414,0
214153.879,28.320,27.344,34.668,23.438,-4.883,0
214153.883,22.461,29.785,34.180,32.715,22.949,0
214153.887,23.438,32.715,30.762,21.484,33.203,0
214153.891,27.832,31.738,36.133,12.695,15.625,0
214153.895,29.297,37.598,41.016,22.949,29.297,0
214153.899,34.180,41.504,41.504,36.133,62.012,0
214153.902,39.551,36.621,39.551,39.062,68.359,0
214153.906,37.598,30.762,34.668,41.992,79.590,0
214153.910,35.156,35.156,31.250,40.527,77.637,0
214153.914,34.180,42.480,24.414,33.203,80.566,0
214153.918,31.250,39.551,20.020,29.297,66.895,0
214153.922,29.297,32.715,24.414,25.879,66.406,0
214153.926,26.855,30.273,26.855,25.879,57.617,0
214153.930,23.438,28.809,27.832,28.320,32.715,0
214153.934,25.391,26.367,27.344,22.461,10.254,0
214153.938,26.855,26.855,33.203,22.461,5.859,0
214153.942,20.996,29.297,29.297,24.414,-14.160,0
214153.945,25.391,41.016,20.508,37.109,-29.785,0
214153.949,36.133,47.852,28.320,52.734,6.836,0
214153.953,39.062,48.340,39.062,47.852,64.941,0
214153.957,31.250,40.527,39.062,38.086,79.102,0
214153.961,21.973,30.273,29.785,19.531,37.598,0
214153.965,22.461,26.367,25.391,14.648,-21.973,0
214153.969,25.391,21.973,26.367,24.414,5.371,0
214153.973,25.391,24.902,32.715,31.250,52.246,0
214153.977,27.344,31.250,34.668,30.762,27.832,0
214153.981,34.668,31.738,32.227,26.855,-11.719,0
214153.985,38.574,34.668,38.086,36.133,-12.695,0
214153.988,33.203,32.715,44.434,42.480,20.996,0
214153.992,31.250,32.227,45.898,41.992,34.668,0
214153.996,39.062,31.250,45.410,38.574,38.086,0
214154.000,40.527,32.227,35.156,32.715,54.199,0
214154.004,33.691,37.109,21.484,27.344,42.969,0
214154.008,27.344,36.133,10.742,34.180,21.973,0
214154.012,28.320,38.574,3.906,38.574,22.461,0
214154.016,26.367,31.738,20.996,27.832,11.719,0
214154.020,20.508,21.973,42.969,27.344,10.742,0
214154.024,26.855,31.250,53.711,28.809,-18.066,0
214154.027,21.973,26.855,47.363,23.926,-10.254,0
214154.031,15.625,14.160,36.133,25.391,51.758,0
214154.035,30.273,18.066,39.551,32.715,44.922,0
214154.039,27.832,25.879,36.133,27.344,-2.441,0
214154.043,9.277,33.691,29.785,8.789,-15.137,0
214154.047,15.137,38.086,24.414,4.883,41.016,0
214154.051,22.949,40.039,16.602,10.254,35.156,0
214154.055,20.996,42.480,21.973,6.348,6.836,0
214154.059,21.973,36.133,36.621,11.230,40.527,0
214154.063,18.555,26.367,37.598,25.391,53.223,0
214154.067,26.367,30.273,40.039,26.367,58.105,0
214154.070,29.785,29.297,39.551,9.766,19.043,0
214154.074,18.555,22.949,26.367,8.301,49.316,0
214154.078,18.555,21.973,23.926,12.207,85.938,0
214154.082,23.438,23.926,22.949,15.625,46.875,0
214154.086,21.484,27.344,15.137,21.484,78.613,0
214154.090,20.508,31.738,15.625,20.508,114.746,0
214154.094,18.555,30.273,27.832,17.578,56.152,0
214154.098,15.137,24.902,36.621,20.508,26.367,0
214154.102,20.508,26.855,34.180,29.785,43.457,0
214154.106,23.926,23.926,23.926,28.809,19.531,0
214154.110,28.320,21.973,26.367,31.738,19.531,0
214154.113,28.320,25.879,25.391,28.809,26.855,0
214154.117,20.996,21.973,21.484,18.066,19.043,0
214154.121,23.926,21.484,25.879,27.344,42.969,0
214154.125,33.691,32.227,22.949,40.039,49.805,0
214154.129,30.273,38.086,18.066,41.992,41.504,0
214154.133,21.973,32.715,26.367,31.250,18.066,0
214154.137,25.879,32.227,33.203,26.855,-9.277,0
214154.141,31.738,36.621,33.203,32.715,-14.648,0
214154.145,27.344,31.250,30.762,27.344,-12.695,0
214154.149,22.949,22.949,24.414,18.066,-21.484,0
214154.152,31.250,25.391,23.438,26.855,-9.766,0
214154.156,35.645,34.180,26.367,34.180,-25.879,0
214154.160,28.809,35.156,28.320,25.391,-44.434,0
214154.164,27.832,29.297,21.484,19.531,-15.137,0
214154.168,33.691,34.180,25.879,23.438,12.207,0
214154.172,37.598,43.457,40.039,29.785,12.207,0
214154.176,32.715,34.180,42.480,26.367,0.488,0
214154.180,26.367,23.926,39.062,25.391,20.996,0
214154.184,24.414,27.832,30.762,28.809,16.602,0
214154.188,27.832,28.320,29.785,31.738,0.977,1
214154.192,30.273,26.367,27.344,34.668,23.926,0
214154.195,27.344,27.832,20.020,33.691,34.668,0
214154.199,28.809,32.227,21.973,34.668,5.859,0
214154.203,26.367,31.250,31.738,37.109,-44.922,0
214154.207,20.996,25.391,37.109,36.133,-48.828,0
214154.211,27.344,30.762,37.598,35.645,4.395,0
214154.215,28.809,34.668,35.645,28.320,10.742,0
214154.219,28.320,31.738,32.227,28.809,-14.160,0
214154.223,31.250,26.855,32.227,34.180,32.715,0
214154.227,30.762,24.414,30.762,34.668,61.523,0
214154.231,36.133,28.320,29.785,41.504,57.129,0
214154.235,35.645,27.832,22.949,34.668,34.180,0
214154.238,28.320,25.391,14.160,20.996,4.883,0
214154.242,32.227,35.645,25.391,25.879,19.043,0
214154.246,36.133,40.039,37.598,32.715,-0.977,0
214154.250,29.297,29.785,30.273,24.414,-13.184,0
214154.254,25.391,24.414,24.902,23.438,30.762,0
214154.258,25.391,30.762,27.832,34.668,58.594,0
214154.262,22.949,26.855,35.156,30.762,32.715,0
214154.266,18.066,19.531,35.645,24.414,23.926,0
214154.270,16.113,27.832,29.297,32.227,61.035,0
214154.274,21.484,32.227,23.926,32.227,15.625,0
214154.277,22.949,32.227,21.973,22.461,-18.066,0
214154.281,20.508,34.668,30.273,24.902,-20.996,0
214154.285,22.949,37.109,29.297,27.832,24.414,0
214154.289,29.297,41.504,22.949,28.320,67.871,0
214154.293,32.715,29.297,29.785,32.715,34.180,0
214154.297,32.227,19.043,37.598,38.086,5.371,0
214154.301,29.297,28.320,39.062,33.691,2.930,0
214154.305,27.832,31.250,35.156,25.879,20.996,0
214154.309,33.691,32.715,32.227,24.414,-5.371,0
214154.313,40.527,36.133,32.227,32.227,-2.930,0
214154.317,37.109,39.062,22.461,40.039,-8.301,0
214154.320,33.691,36.133,18.066,35.645,-63.965,0
214154.324,35.645,28.809,28.809,40.039,-53.711,0
214154.328,29.297,25.879,33.203,39.062,-28.320,0
214154.332,26.367,26.855,28.809,25.879,-70.312,0
214154.336,30.762,30.273,26.367,27.832,-67.871,0
214154.340,33.691,31.250,30.273,33.203,-35.645,0
214154.344,22.461,25.391,31.738,30.762,-8.301,0
214154.348,15.625,19.043,29.297,27.832,37.109,0
214154.352,20.508,15.137,27.344,22.949,11.230,0
214154.356,23.926,25.391,30.762,25.391,-3.418,0
214154.360,31.738,44.434,32.715,36.621,23.926,0
214154.363,30.273,44.922,20.508,37.598,25.391,0
214154.367,23.438,32.227,14.648,31.738,17.578,0
214154.371,23.926,25.391,26.367,27.832,23.438,0
214154.375,22.949,22.461,32.715,29.297,41.992,0
214154.379,26.367,26.855,24.902,38.086,66.895,0
214154.383,32.227,34.180,22.949,30.762,30.762,0
214154.387,31.738,37.598,26.855,20.508,23.926,0
214154.391,30.762,39.062,26.855,22.949,56.152,0
214154.395,28.809,35.645,29.297,23.926,67.383,0
214154.399,31.250,36.133,32.227,24.414,35.156,0
214154.402,34.668,41.016,31.250,27.832,10.254,0
214154.406,34.668,38.574,23.438,30.273,46.875,0
214154.410,39.551,34.668,15.137,31.738,74.707,0
214154.414,39.551,35.645,20.508,33.691,85.449,0
214154.418,24.902,27.832,34.668,34.180,104.004,0
214154.422,26.367,22.949,38.086,33.691,120.117,0
214154.426,30.762,26.855,35.645,29.297,73.242,0
214154.430,20.996,30.273,34.668,29.785,20.020,0
214154.434,20.508,31.250,29.785,32.715,27.832,0
214154.438,26.367,32.715,30.762,36.133,59.570,0
214154.442,25.391,31.738,27.344,37.598,20.020,0
214154.445,25.391,33.203,20.020,35.156,-25.391,0
214154.449,27.344,30.273,30.273,32.227,27.344,0
214154.453,28.809,28.809,36.133,36.133,29.785,0
214154.457,26.855,33.691,24.902,35.645,17.578,0
214154.461,26.855,34.180,25.879,36.621,28.320,0
214154.465,29.297,30.273,36.133,37.109,20.508,0
214154.469,23.438,26.855,39.062,34.668,29.785,0
214154.473,15.625,26.367,37.598,32.715,41.016,0
214154.477,13.184,27.832,33.691,22.949,18.066,0
214154.481,13.184,32.715,24.414,21.973,36.621,0
214154.485,17.578,36.621,20.996,34.668,32.227,0
214154.488,18.066,31.738,20.996,36.621,3.906,0
214154.492,13.184,23.438,20.020,15.625,46.875,0
214154.496,12.695,22.461,19.043,7.324,62.988,0
214154.500,18.555,29.297,18.555,16.602,20.020,0
214154.504,25.879,36.133,27.832,23.438,4.395,0
214154.508,26.855,29.785,32.715,33.203,1.465,0
214154.512,32.227,24.414,35.645,34.668,46.387,0
