timestamps,TP9,AF7,AF8,TP10,Right AUX,Marker0
213749.649,16.113,36.133,18.555,21.484,72.266,0
213749.652,20.020,31.738,25.879,23.438,82.031,0
213749.656,25.391,34.180,34.180,23.926,53.223,0
213749.660,19.531,39.551,35.645,30.273,46.387,0
213749.664,18.066,38.086,32.715,34.668,41.016,0
213749.668,17.090,32.715,33.203,30.762,19.531,0
213749.672,9.766,36.133,29.785,26.855,19.531,0
213749.676,18.555,38.574,23.926,34.668,23.926,0
213749.680,26.367,31.738,21.484,32.715,37.598,0
213749.684,21.973,14.648,21.973,24.414,37.598,0
213749.688,17.578,13.184,27.832,26.855,18.555,0
213749.692,18.066,39.062,34.668,23.438,25.879,0
213749.695,22.949,52.734,36.621,28.320,39.062,0
213749.699,24.414,47.852,36.133,30.762,-9.766,0
213749.703,17.578,42.480,36.133,23.926,5.371,0
213749.707,12.207,37.598,32.227,24.414,41.992,0
213749.711,16.113,33.691,33.691,26.367,19.043,0
213749.715,22.949,33.691,28.320,33.203,-0.977,0
213749.719,30.762,34.668,14.648,43.457,-19.043,0
213749.723,31.250,29.785,23.926,43.457,-5.371,0
213749.727,34.668,25.391,39.062,29.785,-11.230,0
213749.731,40.527,22.461,43.945,27.344,-5.859,0
213749.735,39.551,24.414,41.992,33.691,-5.371,0
213749.738,41.016,32.227,33.691,37.598,-17.578,0
213749.742,36.133,36.621,36.133,34.668,6.348,0
213749.746,29.297,32.715,37.598,29.785,30.762,0
213749.750,33.203,32.227,35.645,36.621,28.320,0
213749.754,37.109,33.691,33.203,39.062,34.668,0
213749.758,37.109,30.762,31.738,31.738,44.922,0
213749.762,33.203,34.668,28.809,39.062,30.762,0
213749.766,33.691,40.527,26.855,40.527,5.859,0
213749.770,39.551,35.645,34.180,34.180,-11.719,0
213749.774,42.969,31.250,35.645,35.645,14.648,0
213749.777,43.945,33.691,23.438,39.551,80.078,0
213749.781,39.062,38.574,21.973,31.738,66.895,0
213749.785,33.203,31.738,34.668,21.484,57.617,0
213749.789,28.809,26.855,45.410,21.484,41.016,0
213749.793,28.320,36.621,46.387,19.531,61.035,0
213749.797,27.832,44.434,34.668,15.137,93.750,0
213749.801,27.832,40.039,26.367,19.531,47.852,0
213749.805,29.297,34.180,26.367,27.344,37.598,0
213749.809,28.320,39.551,32.227,22.949,96.191,0
213749.813,33.691,40.527,36.621,14.160,96.680,0
213749.817,39.551,40.039,29.297,9.766,30.273,0
213749.820,33.691,42.480,25.879,3.906,39.062,0
213749.824,26.367,44.434,27.832,2.441,62.500,0
213749.828,21.484,45.410,26.855,-1.953,39.062,0
213749.832,18.555,45.410,27.832,-6.348,61.523,0
213749.836,16.602,49.805,23.926,-7.812,112.793,0
213749.840,15.625,50.781,19.531,-8.789,109.863,0
213749.844,19.531,53.223,27.832,0.488,68.848,0
213749.848,6.836,63.477,22.949,-17.578,72.266,0
213749.852,-24.414,61.523,12.695,-47.363,64.941,0
213749.856,-30.273,60.547,23.926,-36.621,17.090,0
213749.860,-27.344,66.895,32.227,-34.668,20.508,0
213749.863,-41.016,62.988,29.297,-58.105,44.922,0
213749.867,-52.246,57.129,29.785,-65.430,51.758,0
213749.871,-64.941,53.223,31.738,-68.359,9.766,0
213749.875,-73.730,50.781,36.621,-75.195,20.020,0
213749.879,-83.984,56.152,38.086,-83.008,40.527,0
213749.883,-85.449,55.176,31.250,-86.426,53.223,0
213749.887,-84.473,50.293,25.879,-84.473,67.871,0
213749.891,-89.844,53.711,31.738,-85.938,59.082,0
213749.895,-90.332,70.312,35.645,-89.844,83.008,0
213749.899,-95.703,74.707,36.621,-87.891,83.984,0
213749.902,-97.656,63.965,35.645,-86.914,45.898,0
213749.906,-103.516,49.805,27.832,-101.074,21.973,0
213749.910,-106.934,43.457,26.367,-101.074,57.129,0
213749.914,-99.609,52.734,23.926,-85.449,94.727,0
213749.918,-89.355,54.199,16.602,-78.125,80.566,0
213749.922,-82.520,49.316,19.531,-73.242,51.758,0
213749.926,-80.566,48.828,34.668,-57.129,63.965,0
213749.930,-67.871,51.758,40.039,-45.410,13.672,0
213749.934,-58.105,51.270,33.691,-44.922,-13.672,0
213749.938,-51.270,50.293,34.180,-35.645,20.020,0
213749.942,-42.480,44.922,37.598,-26.367,-2.441,0
213749.945,-40.527,35.645,38.574,-17.578,19.043,0
213749.949,-33.203,35.156,34.668,-20.508,24.902,0
213749.953,-20.020,39.062,28.809,-29.785,-0.488,0
213749.957,-17.090,40.527,25.879,-20.508,19.043,0
213749.961,-12.207,38.574,20.020,-14.160,-4.395,0
213749.965,-4.883,39.062,22.949,-9.766,12.207,0
213749.969,-2.441,40.039,31.250,3.906,35.645,0
213749.973,1.465,34.180,30.273,8.789,50.293,0
213749.977,0.977,25.879,31.250,5.371,70.801,0
213749.981,4.395,30.273,29.297,12.695,65.918,0
213749.985,18.066,44.434,28.320,25.879,86.914,0
213749.988,30.762,49.805,38.086,36.133,86.914,0
213749.992,38.574,45.410,28.320,32.227,64.941,0
213749.996,33.203,34.668,9.766,16.602,42.969,0
213750.000,26.855,27.344,9.277,16.602,24.414,0
213750.004,32.227,33.203,23.926,24.902,38.086,0
213750.008,33.203,35.156,26.855,26.367,17.578,0
213750.012,30.762,28.809,24.414,29.297,-7.324,0
213750.016,31.738,20.508,31.250,32.715,1.953,0
213750.020,38.086,21.484,28.809,40.527,24.902,0
213750.024,42.480,27.344,16.113,41.016,62.012,0
213750.027,43.457,29.297,15.137,36.133,66.406,1
213750.031,47.852,34.668,23.926,41.992,55.176,0
213750.035,51.758,32.715,22.949,50.781,57.617,0
213750.039,51.270,16.602,23.438,49.316,41.504,0
213750.043,46.387,14.648,20.508,41.016,43.457,0
213750.047,47.852,21.973,18.555,33.203,54.199,0
213750.051,47.852,20.508,24.902,41.992,57.129,0
213750.055,44.434,18.555,16.113,44.922,25.879,0
213750.059,42.480,22.949,14.160,34.180,15.137,0
213750.063,45.898,19.531,20.996,40.039,54.199,0
213750.067,53.711,13.184,23.438,48.828,36.621,0
213750.070,60.059,17.090,32.227,49.805,33.203,0
213750.074,64.453,22.461,31.738,56.152,33.691,0
213750.078,62.988,22.461,27.832,62.500,34.668,0
213750.082,64.453,18.555,30.762,61.035,32.715,0
213750.086,69.824,20.996,37.598,73.242,-2.441,0
213750.090,75.195,25.391,35.156,74.219,-11.719,0
213750.094,71.289,20.996,17.090,63.477,-24.414,0
213750.098,62.500,11.230,12.207,62.988,1.465,0
213750.102,62.012,10.254,24.414,60.059,-3.906,0
213750.106,60.059,8.789,36.621,59.570,6.836,0
213750.110,58.594,7.812,38.086,57.129,68.359,0
213750.113,62.988,9.766,37.109,60.547,35.645,0
213750.117,62.988,6.348,36.621,63.477,24.902,0
213750.121,64.453,11.230,34.180,73.242,37.598,0
213750.125,70.312,24.414,32.715,79.102,25.879,0
213750.129,63.477,20.996,25.879,61.035,17.578,0
213750.133,51.758,13.672,21.973,55.176,6.348,0
213750.137,48.828,17.578,26.855,58.105,-11.230,0
213750.141,56.152,14.160,29.785,55.176,-3.906,0
213750.145,70.801,14.648,34.180,62.500,-38.086,0
213750.149,61.523,22.949,40.527,57.617,-89.844,0
213750.152,36.133,19.043,40.039,40.527,-32.227,0
213750.156,40.527,25.879,33.691,55.176,33.691,0
213750.160,55.664,38.574,30.762,72.266,43.945,0
213750.164,47.363,33.203,29.297,53.223,5.371,0
213750.168,41.992,26.855,29.297,48.828,-3.418,0
213750.172,51.758,28.320,29.297,60.059,-17.090,0
213750.176,55.176,31.250,24.414,65.430,-14.648,0
213750.180,49.805,31.250,20.020,58.105,-19.043,0
213750.184,50.293,31.738,16.113,50.781,-31.738,0
213750.188,55.176,31.738,17.090,58.594,-18.555,0
213750.192,53.711,28.809,18.066,46.875,-40.039,0
213750.195,47.852,24.902,23.438,43.945,-22.461,0
213750.199,45.410,21.973,31.250,53.711,22.949,0
213750.203,48.828,22.461,30.762,62.012,49.316,0
213750.207,53.711,20.996,28.320,61.035,50.781,0
213750.211,49.805,20.020,27.832,49.316,49.316,0
213750.215,48.340,30.762,29.785,54.199,70.312,0
213750.219,53.711,29.785,26.367,56.641,58.105,0
213750.223,56.152,15.137,20.020,53.711,35.156,0
213750.227,52.246,19.043,21.484,50.781,3.418,0
213750.231,44.434,33.203,28.809,46.875,23.926,0
213750.235,43.457,41.992,30.762,39.062,25.391,0
213750.238,41.992,41.504,29.785,34.180,-5.859,0
213750.242,42.969,39.062,31.738,43.945,32.227,0
213750.246,48.828,38.574,28.809,53.223,37.109,0
213750.250,51.758,38.574,30.762,49.805,6.836,0
213750.254,54.688,37.109,36.621,46.875,7.812,0
213750.258,56.152,32.715,30.273,54.199,29.297,0
213750.262,52.246,26.367,23.438,59.570,60.059,0
213750.266,51.758,25.391,23.438,54.688,56.641,0
213750.270,55.176,25.879,31.250,53.223,51.270,0
213750.274,52.734,19.043,36.133,55.176,83.496,0
213750.277,51.270,11.230,38.086,51.758,90.332,0
213750.281,52.246,14.160,41.504,44.922,84.473,0
213750.285,58.105,26.367,44.434,45.898,65.430,0
213750.289,62.988,33.691,44.922,56.152,41.016,0
213750.293,59.570,30.273,41.016,57.129,34.668,0
213750.297,58.594,30.762,37.109,44.434,55.176,0
213750.301,50.293,33.691,35.156,50.781,66.895,0
213750.305,47.363,36.133,28.809,62.012,99.609,0
213750.309,49.316,34.668,34.668,45.898,126.953,0
213750.313,41.016,26.367,43.457,45.898,97.168,0
213750.317,41.992,23.926,39.551,51.270,73.242,0
213750.320,48.340,24.414,43.457,44.434,81.543,0
213750.324,49.316,25.879,43.457,42.969,54.199,0
213750.328,45.898,24.414,33.203,41.016,45.898,0
213750.332,39.551,20.508,32.715,41.992,70.801,0
213750.336,33.691,23.926,33.691,41.504,80.078,0
213750.340,33.691,31.250,35.645,37.598,71.777,0
213750.344,34.180,33.203,40.527,30.273,25.879,0
213750.348,26.367,23.438,39.551,25.391,52.734,0
213750.352,18.555,20.996,33.691,18.066,42.480,0
213750.356,17.090,23.438,31.250,19.531,21.484,0
213750.360,13.184,22.949,26.855,29.297,48.828,0
213750.363,18.066,31.250,21.484,35.156,40.527,0
213750.367,26.367,34.668,24.414,33.691,37.109,0
213750.371,22.461,27.344,26.855,21.973,39.551,0
213750.375,16.602,20.020,31.738,15.137,42.969,0
213750.379,16.113,21.973,32.227,21.484,73.730,0
213750.383,22.949,18.555,26.367,30.762,48.828,0
213750.387,28.809,6.836,20.508,31.250,18.555,0
213750.391,33.203,20.508,22.461,32.715,46.387,0
213750.395,38.086,34.668,27.832,42.969,52.734,0
213750.399,41.504,33.691,29.297,39.551,39.062,0
213750.402,41.016,29.785,27.344,34.668,16.113,0
213750.406,39.062,25.879,28.320,47.852,10.254,0
213750.410,41.504,28.320,26.855,53.223,45.410,0
213750.414,43.945,28.809,22.461,46.875,28.809,0
213750.418,50.293,27.344,22.949,40.527,-0.488,0
213750.422,51.758,30.762,18.066,45.898,28.809,0
213750.426,51.758,33.691,21.484,49.316,73.730,0
213750.430,43.945,24.414,31.250,37.109,63.477,0
213750.434,34.180,23.926,32.715,32.227,19.531,0
213750.438,35.645,31.250,30.762,35.645,31.738,0
213750.442,35.156,33.203,29.785,34.668,48.340,0
213750.445,29.297,35.645,27.344,26.367,14.648,0
213750.449,26.367,36.133,16.602,28.809,2.930,0
213750.453,27.832,33.691,13.672,35.156,41.992,0
213750.457,28.320,32.227,22.949,32.715,45.410,0
213750.461,31.738,35.156,33.203,33.691,50.293,0
213750.465,38.086,34.180,35.156,34.668,58.594,0
213750.469,33.691,35.156,27.344,38.086,46.875,0
213750.473,23.438,38.086,25.879,34.180,53.711,0
213750.477,19.043,33.691,23.438,18.066,24.414,0
213750.481,19.043,22.461,23.926,10.742,26.855,0
213750.485,22.949,18.555,28.809,19.043,72.266,0
213750.488,24.902,31.250,27.344,27.832,41.016,0
213750.492,20.996,38.086,24.902,26.367,9.766,0
213750.496,22.461,39.551,28.320,28.320,23.438,0
213750.500,28.320,36.621,28.320,38.574,25.879,0
213750.504,34.668,33.203,23.926,33.203,32.715,0
213750.508,35.156,39.062,29.297,26.855,32.227,0
213750.512,33.203,43.457,30.273,29.297,30.273,0
213750.516,36.133,40.039,24.902,30.273,11.230,0
213750.520,37.109,41.016,22.461,34.180,-2.441,0
213750.524,38.574,41.016,22.461,37.598,9.766,0
213750.527,42.969,37.109,25.391,49.316,18.066,0
213750.531,45.898,38.574,33.203,50.781,67.871,0
213750.535,50.293,41.016,31.738,44.434,41.992,0
213750.539,49.805,35.156,26.367,50.293,-17.090,0
213750.543,46.875,25.879,26.367,54.199,-26.367,0
213750.547,49.316,30.762,31.250,42.969,-17.090,0
213750.551,47.363,32.227,36.621,40.039,21.973,0
213750.555,41.504,27.344,36.133,41.504,1.953,0
213750.559,40.039,34.668,31.250,40.039,-59.570,0
213750.563,45.410,42.480,31.250,48.828,-12.695,0
213750.567,46.387,42.480,31.250,46.875,-1.465,0
213750.570,43.457,40.527,30.273,50.781,10.742,0
213750.574,42.969,39.062,33.691,57.129,51.270,0
213750.578,45.898,38.086,29.785,53.711,14.160,0
213750.582,49.316,37.109,22.461,54.688,-14.160,0
213750.586,46.875,37.109,23.926,58.105,2.930,0
213750.590,46.875,36.133,30.762,41.992,3.906,0
213750.594,41.992,38.086,29.785,21.484,-11.719,0
213750.598,37.109,42.480,27.344,33.691,22.461,0
213750.602,43.945,40.039,32.227,34.180,63.477,0
213750.606,41.992,36.621,38.574,23.926,81.543,0
213750.610,33.203,35.156,35.156,14.648,47.363,0
213750.613,34.180,32.227,28.320,13.184,40.039,0
213750.617,35.156,32.715,26.367,19.531,66.895,0
213750.621,28.809,33.203,26.367,23.438,31.738,0
213750.625,19.043,25.879,28.320,27.344,10.742,0
213750.629,19.043,29.785,30.762,31.250,25.879,0
213750.633,22.949,38.574,33.203,30.762,45.898,0
213750.637,21.973,28.320,30.273,36.621,61.035,0
213750.641,17.090,23.438,21.484,30.273,44.922,0
213750.645,15.137,28.320,22.461,14.160,36.133,0
213750.649,19.531,30.273,28.320,20.996,40.039,0
213750.652,26.855,30.762,24.902,29.785,49.805,0
213750.656,28.320,28.320,22.461,22.949,34.180,0
213750.660,28.320,23.926,32.227,27.344,30.762,0
213750.664,25.879,22.461,34.668,42.480,42.480,2
213750.668,28.809,27.344,35.156,34.180,21.973,0
213750.672,37.598,36.621,33.203,28.809,4.883,0
213750.676,34.180,41.016,25.391,36.133,50.293,0
213750.680,27.832,34.180,27.344,31.250,70.312,0
213750.684,34.180,34.180,32.227,28.320,65.430,0
213750.688,44.922,38.086,34.668,39.551,65.430,0
213750.692,49.805,35.645,37.109,47.852,75.195,0
213750.695,50.781,28.320,33.203,43.457,76.172,0
213750.699,44.434,27.832,30.273,41.016,24.414,0
213750.703,41.992,33.691,32.715,41.992,18.555,0
213750.707,41.016,32.227,33.691,41.504,22.461,0
213750.711,39.551,30.762,33.691,46.875,-2.441,0
213750.715,36.133,27.344,30.273,44.434,-1.953,0
213750.719,31.738,28.809,32.715,44.434,16.602,0
213750.723,34.668,35.156,39.551,50.293,68.359,0
213750.727,34.180,31.250,41.016,40.039,71.289,0
213750.731,27.344,24.902,40.527,39.062,37.109,0
213750.735,30.273,27.832,37.598,49.316,23.926,0
213750.738,37.598,36.133,37.109,47.852,32.227,0
213750.742,35.645,40.527,33.691,30.273,46.875,0
213750.746,33.691,35.645,27.344,18.555,7.324,0
213750.750,31.250,29.785,31.250,19.043,-31.738,0
213750.754,28.320,30.273,32.715,31.250,10.742,0
213750.758,24.902,29.785,29.297,31.738,64.941,0
213750.762,24.414,28.809,23.926,20.996,28.809,0
213750.766,31.738,26.855,21.973,17.578,7.812,0
213750.770,38.086,24.902,27.832,17.578,25.879,0
213750.774,36.133,31.250,31.250,23.926,22.949,0
213750.777,29.785,33.203,30.273,21.973,42.480,0
213750.781,31.250,34.180,32.227,25.391,61.035,0
213750.785,37.109,43.457,36.621,34.180,49.805,0
213750.789,31.250,42.969,28.809,23.926,37.598,0
213750.793,23.438,33.691,19.043,13.672,35.645,0
213750.797,24.414,31.738,19.531,15.625,22.949,0
213750.801,21.973,34.668,22.949,13.672,30.273,0
213750.805,20.996,31.250,23.438,15.625,-0.488,0
213750.809,23.926,24.902,19.531,18.555,-39.062,0
213750.813,26.367,23.438,20.020,21.484,-4.883,0
213750.817,37.109,22.461,26.855,35.156,33.203,0
213750.820,43.457,30.273,35.156,51.270,16.113,0
213750.824,19.531,39.551,40.039,35.156,7.324,0
213750.828,0.000,34.668,32.227,17.578,23.926,0
213750.832,7.812,28.320,30.762,26.855,51.758,0
213750.836,10.254,28.809,34.180,28.320,45.898,0
213750.840,12.207,29.297,37.109,29.297,19.531,0
213750.844,16.602,29.785,41.504,32.227,24.902,0
213750.848,17.090,32.227,32.715,43.945,56.641,0
213750.852,23.438,37.109,25.391,52.734,18.066,0
213750.856,27.832,36.621,36.133,37.109,-24.902,0
213750.860,32.715,29.785,42.969,41.504,20.996,0
213750.863,33.203,28.320,35.156,32.715,8.789,0
213750.867,29.297,26.367,28.809,22.949,14.160,0
213750.871,33.691,23.438,29.297,29.785,9.277,0
213750.875,38.574,27.344,34.668,27.344,-3.906,0
213750.879,36.621,31.738,30.762,23.438,10.254,0
213750.883,39.062,34.668,24.414,27.344,10.742,0
213750.887,38.574,38.086,32.715,36.133,27.344,0
213750.891,33.691,39.551,37.598,32.227,26.367,0
213750.895,36.621,43.945,36.133,27.832,-3.906,0
213750.899,37.109,45.898,30.273,35.156,4.395,0
213750.902,30.762,35.156,18.066,36.621,47.852,0
213750.906,32.715,29.785,19.531,24.902,39.062,0
213750.910,30.762,31.250,27.344,27.344,56.152,0
213750.914,21.973,29.297,28.320,21.973,68.848,0
213750.918,15.137,31.250,29.297,17.090,37.598,0
213750.922,17.578,36.621,34.180,34.668,8.789,0
213750.926,21.484,37.109,40.039,32.227,-21.973,0
213750.930,24.414,35.645,41.016,29.297,11.230,0
213750.934,24.902,36.133,35.645,34.668,51.270,0
213750.938,25.391,39.062,30.762,36.133,20.020,0
213750.942,25.391,33.691,29.297,31.738,6.348,0
213750.945,19.531,26.367,31.738,30.273,32.227,0
213750.949,20.508,30.273,30.273,41.016,66.895,0
213750.953,31.738,37.109,26.855,43.457,85.449,0
213750.957,33.691,36.133,28.809,39.062,81.055,0
213750.961,23.438,29.297,34.180,37.109,101.074,0
213750.965,16.602,28.320,31.738,35.645,102.539,0
213750.969,24.902,30.273,28.320,41.016,83.008,0
213750.973,34.180,28.320,35.645,44.922,90.332,0
213750.977,32.715,29.785,33.203,33.203,92.773,0
213750.981,26.367,33.203,29.297,31.250,80.078,0
213750.985,27.832,33.203,27.344,29.297,53.711,0
213750.988,32.715,39.062,24.902,29.785,27.344,0
213750.992,34.668,41.992,31.250,40.527,13.184,0
213750.996,37.598,44.434,30.273,38.086,14.160,0
213751.000,36.133,45.898,21.973,32.715,-1.465,0
213751.004,33.691,41.504,31.250,31.250,9.277,0
213751.008,35.645,40.039,41.504,29.297,48.828,0
213751.012,41.992,39.062,35.156,32.227,42.480,0
213751.016,39.551,34.180,26.855,29.297,20.996,0
213751.020,38.574,30.762,27.344,31.738,3.906,0
213751.024,43.945,35.645,26.367,36.133,23.926,0
213751.027,42.969,41.016,23.438,29.785,49.805,0
213751.031,42.969,40.039,25.391,28.320,8.789,0
213751.035,42.969,42.969,27.344,25.879,10.742,0
213751.039,37.598,47.852,20.020,25.391,26.855,0
213751.043,33.203,43.457,26.855,24.414,-29.785,0
213751.047,27.344,35.645,39.551,21.484,-30.762,0
213751.051,29.297,40.039,38.574,36.621,-18.066,0
213751.055,36.133,45.898,34.668,46.387,-0.977,0
213751.059,29.785,37.109,30.762,22.949,15.137,0
213751.063,23.438,36.133,27.344,11.719,16.113,0
213751.067,25.391,39.062,24.902,18.555,31.738,0
213751.070,25.879,34.668,30.273,20.996,66.406,0
213751.074,24.902,33.203,37.598,25.391,82.520,0
213751.078,30.273,38.086,35.156,26.855,55.176,0
213751.082,32.715,37.598,31.738,35.156,85.938,0
213751.086,23.438,29.297,26.855,36.133,103.516,0
213751.090,12.207,19.531,26.855,17.090,55.664,0
213751.094,13.672,20.996,33.691,16.113,54.199,0
213751.098,17.578,26.367,24.902,20.020,42.969,0
213751.102,22.949,25.391,20.508,20.996,20.996,0
213751.106,23.438,21.973,33.691,27.832,36.133,0
213751.110,13.184,23.926,33.691,31.738,18.066,0
213751.113,18.555,28.320,32.715,35.156,-8.789,0
213751.117,27.344,32.227,45.410,36.133,7.324,0
213751.121,19.531,31.250,40.039,31.738,38.574,0
213751.125,12.695,24.902,25.879,27.832,22.461,0
213751.129,8.301,24.902,18.066,14.648,46.387,0
213751.133,4.395,28.809,14.160,0.000,52.734,0
213751.137,6.348,29.297,21.484,2.441,5.371,0
213751.141,10.254,33.691,24.414,10.254,17.090,0
213751.145,16.602,38.086,21.973,20.020,53.223,0
213751.149,22.461,38.086,23.438,20.508,49.316,0
213751.152,24.902,39.062,29.297,24.902,40.527,0
213751.156,26.855,38.086,32.715,29.785,61.035,0
213751.160,33.691,36.621,29.785,31.250,65.918,0
213751.164,36.621,35.645,21.484,34.668,44.434,0
213751.168,37.109,33.203,18.555,35.645,38.574,0
213751.172,39.551,34.668,19.043,32.715,61.035,0
213751.176,38.086,31.250,22.461,36.133,82.520,0
213751.180,32.715,25.879,28.809,40.039,55.176,0
213751.184,31.738,31.250,28.320,33.203,36.621,0
213751.188,37.598,39.062,34.180,43.945,55.664,0
213751.192,32.227,37.109,40.039,49.316,64.453,0
213751.195,26.367,32.227,38.574,36.133,8.301,0
213751.199,29.785,27.344,39.551,34.668,-20.996,0
213751.203,25.879,25.391,37.109,31.250,88.867,0
213751.207,22.461,26.367,27.344,29.297,125.000,0
213751.211,22.461,26.367,29.785,33.203,57.129,0
213751.215,18.066,27.832,35.156,28.320,39.551,0
213751.219,15.625,25.879,29.785,28.809,51.270,0
213751.223,17.090,19.531,27.344,36.133,51.270,0
213751.227,21.973,17.090,35.645,22.461,-14.160,0
213751.231,23.438,21.973,41.016,18.066,-5.371,0
213751.235,13.184,23.926,35.156,21.973,65.918,0
213751.238,9.766,22.461,26.367,16.113,51.758,1
213751.242,14.160,24.414,24.414,16.113,2.441,0
213751.246,21.973,26.855,30.762,22.461,6.348,0
213751.250,21.973,25.879,29.297,22.949,45.410,0
213751.254,20.020,25.879,27.344,23.926,30.762,0
213751.258,22.949,25.879,28.809,32.715,3.906,0
213751.262,22.949,27.832,29.785,38.086,14.648,0
213751.266,24.414,32.227,31.250,29.785,17.578,0
213751.270,30.273,40.527,31.738,26.367,-1.465,0
213751.274,35.645,44.434,31.738,21.484,-45.898,0
213751.277,34.180,38.574,29.785,19.531,-37.598,0
213751.281,29.785,34.180,26.367,29.785,-5.859,0
213751.285,26.855,34.180,28.809,31.250,3.418,0
213751.289,18.066,30.273,33.203,22.949,22.949,0
213751.293,13.184,23.926,36.621,23.438,42.969,0
213751.297,18.555,30.762,33.203,32.227,42.480,0
213751.301,23.926,39.062,27.344,27.832,12.207,0
213751.305,24.414,38.574,35.156,26.855,-12.207,0
213751.309,19.043,33.203,38.574,28.809,-6.348,0
213751.313,20.508,28.320,32.715,30.762,8.301,0
213751.317,26.367,28.320,28.320,23.926,-17.090,0
213751.320,30.273,27.344,28.320,29.785,-0.977,0
213751.324,34.180,32.227,30.762,49.805,62.500,0
213751.328,32.227,34.668,34.668,39.551,33.691,0
213751.332,31.250,29.785,38.086,32.227,10.742,0
213751.336,32.227,25.879,37.109,40.527,56.641,0
213751.340,34.180,28.809,35.645,38.086,30.273,0
213751.344,36.133,34.180,33.203,28.809,-24.902,0
213751.348,37.598,29.297,32.715,26.367,23.926,0
213751.352,30.273,27.344,27.344,33.691,51.758,0
213751.356,23.438,31.250,29.297,35.156,20.996,0
213751.360,23.926,30.762,36.133,22.461,7.324,0
213751.363,23.926,31.738,41.016,17.578,-30.273,0
213751.367,20.508,24.902,51.758,28.320,-10.742,0
213751.371,22.461,21.973,50.781,40.039,8.301,0
213751.375,25.879,29.297,38.086,38.086,-15.625,0
213751.379,23.926,25.391,31.738,36.621,-8.301,0
213751.383,25.879,20.996,31.250,36.621,-21.973,0
213751.387,31.250,24.902,28.809,37.598,-11.230,0
213751.391,39.551,29.785,26.855,38.086,-15.625,0
213751.395,41.016,29.785,34.668,25.879,-9.277,0
213751.399,32.715,30.273,42.969,25.391,3.906,0
213751.402,30.762,30.762,41.992,31.250,-32.715,0
213751.406,33.691,31.738,41.016,30.762,-39.551,0
213751.410,37.109,41.016,41.016,32.715,-7.812,0
213751.414,37.109,43.945,37.109,42.969,26.367,0
213751.418,32.227,38.574,39.551,35.645,1.953,0
213751.422,27.832,39.551,42.480,32.227,20.020,0
213751.426,27.832,37.109,33.203,33.203,43.457,0
213751.430,33.691,35.645,29.785,32.227,-11.719,0
213751.434,41.016,41.504,31.738,40.527,-3.906,0
213751.438,41.992,39.551,27.344,37.598,44.922,0
213751.442,36.133,31.250,23.926,31.250,57.617,0
213751.445,33.691,30.762,19.531,34.668,66.406,0
213751.449,31.250,37.109,25.879,26.855,57.129,0
213751.453,33.203,45.898,38.574,29.297,32.227,0
213751.457,36.133,47.852,41.016,29.785,2.441,0
213751.461,27.344,39.551,31.738,20.508,33.691,0
213751.465,26.855,37.598,26.367,23.926,39.062,0
213751.469,34.668,39.551,28.809,16.113,23.438,0
213751.473,34.180,39.551,23.926,16.113,67.383,0
213751.477,36.133,40.527,24.902,26.855,51.270,0
213751.481,39.062,39.062,31.250,29.297,54.688,0
213751.485,36.133,33.691,32.227,18.555,107.422,0
213751.488,30.273,29.297,34.180,11.230,96.191,0
213751.492,25.879,25.879,35.156,11.719,59.570,0
213751.496,24.414,28.320,33.203,19.043,12.695,0
213751.500,16.602,32.227,32.227,23.926,6.348,0
213751.504,11.719,30.762,26.855,17.578,47.852,0
213751.508,19.531,30.762,14.648,23.926,31.250,0
213751.512,25.391,30.762,13.672,30.762,18.555,0
213751.516,27.832,26.367,27.832,33.203,9.766,0
213751.520,31.738,25.879,38.086,32.715,1.465,0
213751.524,29.785,33.203,38.574,22.461,-5.859,0
213751.527,23.438,34.180,38.086,19.531,10.742,0
213751.531,21.973,27.832,37.109,34.180,23.926,0
213751.535,22.949,26.367,29.785,39.551,18.555,0
213751.539,21.973,26.855,24.414,28.809,12.695,0
213751.543,24.414,26.367,24.414,29.297,3.418,0
213751.547,28.809,28.809,27.832,30.762,15.625,0
213751.551,31.738,27.344,27.832,33.203,15.137,0
213751.555,31.738,23.926,23.438,29.785,-11.230,0
213751.559,32.227,30.273,23.438,17.090,-13.184,0
213751.563,37.598,31.250,25.391,20.508,23.926,0
213751.567,39.551,31.738,28.320,26.367,48.340,0
213751.570,37.109,37.109,31.250,28.809,31.250,0
213751.574,32.715,38.086,33.203,28.809,49.316,0
213751.578,31.250,33.203,27.344,28.809,91.797,0
213751.582,32.715,28.320,24.902,32.715,48.828,0
213751.586,27.832,27.344,23.926,32.715,24.902,0
213751.590,28.320,23.926,20.020,34.180,54.199,0
213751.594,27.344,25.879,32.227,31.738,37.109,0
213751.598,21.973,28.809,35.156,19.043,25.879,0
213751.602,25.879,26.367,24.902,18.066,0.000,0
213751.606,25.879,24.414,30.762,16.113,18.555,0
213751.610,20.996,23.438,39.551,22.949,63.477,0
213751.613,22.461,25.391,35.156,26.855,60.059,0
213751.617,20.996,33.691,30.762,23.926,37.598,0
213751.621,15.625,36.133,29.297,23.926,57.129,0
213751.625,14.648,35.156,22.949,22.461,94.727,0
213751.629,17.578,35.156,24.414,23.926,78.613,0
213751.633,24.414,34.180,32.227,34.180,62.012,0
213751.637,35.156,37.598,32.715,40.527,76.660,0
213751.641,38.086,34.668,36.133,39.062,68.848,0
213751.645,31.250,33.203,33.691,25.879,47.363,0
213751.649,25.879,34.668,28.320,14.648,11.230,0
213751.652,26.855,35.156,31.250,33.203,31.250,0
213751.656,28.809,36.621,28.320,41.504,25.879,0
213751.660,29.785,27.344,23.926,28.320,-26.367,0
213751.664,28.809,24.902,25.879,21.484,16.113,0
213751.668,34.180,33.203,34.180,31.738,43.945,0
213751.672,41.016,35.156,32.227,38.574,58.105,0
213751.676,43.457,30.762,29.785,40.039,24.902,0
213751.680,42.969,31.738,33.203,47.852,11.719,0
213751.684,36.133,36.621,30.762,37.109,64.941,0
213751.688,27.344,33.691,28.809,27.832,45.410,0
213751.692,27.832,34.180,30.273,29.785,-7.324,0
213751.695,33.203,34.668,31.250,27.832,16.602,0
213751.699,29.297,27.832,26.367,32.715,68.359,0
213751.703,29.785,32.227,26.367,33.203,63.477,0
213751.707,35.645,36.133,32.227,28.320,45.410,0
213751.711,39.062,31.738,25.879,32.715,28.809,0
213751.715,37.598,30.762,23.438,38.086,32.227,0
213751.719,31.250,36.133,28.320,35.645,5.371,0
213751.723,29.297,37.598,35.645,34.180,24.902,0
213751.727,22.949,27.832,35.156,30.762,62.988,0
213751.731,18.066,23.438,29.785,23.926,-11.719,0
213751.735,22.461,27.832,31.738,23.926,-65.430,0
213751.738,26.367,32.715,33.691,26.367,-5.371,0
213751.742,30.273,38.086,32.227,35.156,41.016,0
213751.746,36.621,37.598,29.297,39.062,44.922,0
213751.750,40.527,34.180,30.762,34.668,49.316,0
213751.754,35.645,33.203,31.250,30.762,35.645,0
213751.758,33.203,28.809,25.879,37.598,47.852,0
213751.762,30.762,22.949,28.320,41.016,51.758,0
213751.766,26.367,26.367,28.809,25.391,40.527,0
213751.770,28.809,35.645,30.762,23.438,53.711,0
213751.774,26.855,38.086,37.109,39.551,64.941,0
213751.777,21.484,31.250,36.133,34.180,69.336,0
213751.781,20.508,30.762,33.203,19.043,43.945,0
213751.785,23.926,30.762,33.691,21.973,51.270,2
213751.789,26.367,32.227,33.691,24.414,65.918,0
213751.793,32.715,41.016,22.461,25.391,42.969,0
213751.797,39.062,41.016,20.996,30.762,7.812,0
213751.801,33.691,35.156,34.668,32.715,-13.672,0
213751.805,32.227,30.273,35.645,33.203,-14.160,0
213751.809,34.668,22.461,29.785,34.180,-1.953,0
213751.813,32.715,26.367,30.762,36.133,19.043,0
213751.817,28.809,34.180,34.180,32.227,29.785,0
213751.820,23.438,34.668,35.645,24.902,28.320,0
213751.824,25.391,34.668,28.809,27.832,-2.441,0
213751.828,26.855,36.133,24.902,27.344,-25.391,0
213751.832,25.391,35.156,24.902,27.344,-26.367,0
213751.836,29.785,35.156,19.531,34.668,0.977,0
213751.840,31.250,36.133,20.508,41.016,69.336,0
213751.844,30.273,32.227,32.715,28.320,71.289,0
213751.848,26.367,25.879,41.016,23.438,46.387,0
213751.852,23.438,27.344,40.039,28.320,28.320,0
213751.856,26.855,32.227,39.551,25.391,13.672,0
213751.860,32.227,32.227,36.133,25.391,18.555,0
213751.863,32.715,32.227,31.250,26.367,32.227,0
213751.867,25.391,29.785,34.668,36.133,18.066,0
213751.871,20.020,27.344,33.691,41.504,12.695,0
213751.875,24.414,30.273,30.762,38.574,27.832,0
213751.879,23.926,31.738,32.715,34.180,35.645,0
213751.883,16.602,31.250,30.762,21.484,37.109,0
213751.887,17.578,30.762,26.367,10.742,16.602,0
213751.891,20.996,31.738,32.715,18.555,25.391,0
213751.895,25.391,34.668,37.109,31.250,53.223,0
213751.899,30.762,37.598,39.551,29.785,62.012,0
213751.902,36.133,41.504,39.551,40.527,84.473,0
213751.906,40.039,40.527,32.715,51.270,75.684,0
213751.910,33.203,36.621,32.227,40.527,76.660,0
213751.914,27.344,29.297,31.738,27.832,69.824,0
213751.918,27.344,21.973,31.250,21.484,54.688,0
213751.922,26.367,21.973,33.691,24.414,54.688,0
213751.926,24.414,23.438,28.809,34.180,58.105,0
213751.930,21.484,30.273,23.438,37.109,58.105,0
213751.934,23.926,35.645,23.438,35.156,46.875,0
213751.938,25.391,35.645,19.531,41.992,53.223,0
213751.942,22.461,37.109,21.484,37.598,53.223,0
213751.945,19.531,35.156,31.738,27.832,57.129,0
213751.949,22.461,33.203,38.086,28.320,70.312,0
213751.953,23.438,31.250,35.645,28.809,62.012,0
213751.957,23.438,29.785,30.762,30.273,66.406,0
213751.961,30.273,35.645,25.879,31.250,59.570,0
213751.965,31.250,39.062,22.461,22.949,20.996,0
213751.969,31.738,30.762,27.832,17.090,5.371,0
213751.973,34.668,24.902,26.367,20.020,5.371,0
213751.977,31.738,35.156,24.414,21.973,-18.555,0
213751.981,33.203,48.828,30.762,30.762,-0.977,0
213751.985,40.527,44.434,30.273,40.527,64.453,0
213751.988,36.621,36.133,24.414,33.203,19.043,0
213751.992,33.691,40.039,19.531,37.598,-10.742,0
213751.996,37.109,40.039,16.602,49.316,56.641,0
213752.000,35.645,37.109,19.043,46.387,59.082,0
213752.004,35.645,40.527,29.785,38.574,3.418,0
213752.008,30.273,39.551,34.180,34.180,-7.812,0
213752.012,23.438,33.203,30.273,30.762,0.488,0
213752.016,24.902,34.180,29.785,26.855,17.090,0
213752.020,27.344,34.180,19.043,22.461,22.949,0
213752.024,27.344,25.879,8.301,18.066,25.391,0
213752.027,28.809,21.973,17.578,26.855,62.500,0
213752.031,29.297,28.809,27.344,30.762,89.844,0
213752.035,24.902,31.250,31.738,26.367,62.500,0
213752.039,23.926,31.250,28.320,26.367,-8.301,0
213752.043,28.809,30.762,28.809,25.879,-2.930,0
213752.047,30.762,32.715,37.598,27.344,34.180,0
213752.051,26.855,31.738,37.598,32.227,11.230,0
213752.055,29.785,23.926,29.297,28.809,2.441,0
213752.059,29.785,23.438,30.273,19.531,42.969,0
213752.063,31.738,33.203,34.668,21.484,19.531,0
213752.067,34.668,33.691,29.785,18.555,-29.297,0
213752.070,30.762,24.902,29.297,19.043,-23.926,0
213752.074,38.574,25.391,33.203,29.785,-16.602,0
213752.078,42.480,35.645,38.574,34.180,-6.836,0
213752.082,33.691,40.527,36.133,35.156,-11.719,0
213752.086,32.227,34.180,23.926,25.879,-42.480,0
213752.090,34.668,29.297,21.484,27.344,-6.348,0
213752.094,37.109,33.203,29.297,38.574,27.832,0
213752.098,39.062,36.621,30.273,37.109,17.090,0
213752.102,34.180,34.668,33.691,33.203,26.855,0
213752.106,30.762,31.738,35.645,33.203,19.043,0
213752.110,32.227,30.762,31.738,26.855,-12.207,0
213752.113,36.133,32.227,34.180,20.996,-26.367,0
213752.117,40.039,33.691,40.527,31.250,19.043,0
213752.121,43.945,39.551,36.621,37.109,55.664,0
213752.125,40.039,40.527,23.926,29.297,51.270,0
213752.129,30.273,32.715,25.879,22.949,48.340,0
213752.133,25.879,27.344,35.645,26.367,60.059,0
213752.137,26.855,30.273,38.574,31.738,67.871,0
213752.141,28.320,31.738,34.668,38.086,47.852,0
213752.145,31.738,33.691,35.156,46.875,43.945,0
213752.149,31.250,34.668,31.738,41.992,67.383,0
213752.152,32.227,33.691,22.461,36.621,52.734,0
213752.156,37.598,38.574,26.367,35.156,20.508,0
213752.160,36.133,36.621,36.133,34.180,26.855,0
213752.164,37.109,32.227,34.668,41.016,37.598,0
213752.168,36.621,34.180,34.668,37.109,22.949,0
213752.172,27.344,28.809,41.504,28.320,43.945,0
213752.176,22.949,23.926,43.945,25.391,94.727,0
213752.180,24.902,27.344,43.457,32.715,127.930,0
213752.184,26.367,29.297,42.480,33.203,96.680,0
213752.188,31.738,26.367,35.156,26.855,44.434,0
213752.192,33.691,25.879,31.250,30.762,66.895,0
213752.195,27.832,34.668,38.086,29.785,54.688,0
213752.199,27.832,41.016,37.598,26.367,4.883,0
213752.203,26.855,38.574,31.738,30.273,-0.488,0
213752.207,29.785,36.621,26.855,33.203,41.992,0
213752.211,38.086,36.621,18.066,33.203,104.980,0
213752.215,28.809,29.297,13.184,23.438,58.594,0
213752.219,14.160,21.973,20.996,20.996,27.344,0
213752.223,16.113,24.902,34.668,27.832,48.340,0
213752.227,27.344,27.832,41.016,30.762,64.941,0
213752.231,29.785,25.879,38.574,31.738,61.523,0
213752.235,28.320,31.738,31.738,32.715,41.504,0
213752.238,30.273,35.645,33.203,31.250,44.922,0
213752.242,27.832,30.762,36.621,25.879,21.973,0
213752.246,26.367,30.273,33.203,28.320,8.301,0
213752.250,28.320,39.062,24.414,37.598,24.414,0
213752.254,33.203,46.875,20.020,37.109,20.020,0
213752.258,28.809,36.133,29.297,31.250,18.066,0
213752.262,25.391,24.414,30.273,25.391,-30.273,0
213752.266,26.367,26.855,28.320,20.020,-51.270,0
213752.270,26.367,32.227,37.598,30.273,-9.277,0
213752.274,28.320,35.156,39.551,39.062,22.949,0
213752.277,27.832,35.156,35.645,38.086,43.457,0
213752.281,32.715,34.180,34.180,41.992,10.254,0
213752.285,35.645,39.062,39.062,55.664,13.672,0
213752.289,30.273,38.574,45.898,48.828,25.391,0
213752.293,25.391,30.273,41.992,27.832,-12.207,0
213752.297,27.344,31.250,34.668,27.344,-12.695,0
213752.301,28.320,31.250,36.621,33.691,7.812,0
213752.305,29.297,30.273,40.039,33.691,-27.344,0
213752.309,32.715,35.645,35.156,28.809,-23.438,0
213752.313,33.691,40.527,29.785,31.738,32.715,0
213752.317,34.180,41.504,35.156,34.668,46.387,0
213752.320,34.668,37.598,34.668,31.250,39.551,0
213752.324,33.691,32.227,24.414,27.344,35.156,0
213752.328,37.109,34.668,27.344,30.273,66.895,0
213752.332,40.039,35.645,38.574,35.156,56.152,0
213752.336,36.133,32.227,37.109,36.133,12.207,0
213752.340,34.668,28.320,28.320,36.133,-1.465,0
213752.344,34.180,24.414,22.949,36.621,5.859,0
213752.348,35.645,31.738,23.926,41.504,-11.230,0
213752.352,35.156,39.062,28.320,41.504,-58.594,0
213752.356,31.250,37.109,30.273,32.227,-44.434,0
213752.360,28.809,34.180,26.855,30.273,18.555,0
213752.363,24.414,31.250,23.438,19.043,21.484,0
213752.367,20.508,30.762,23.438,10.254,-8.301,0
213752.371,21.484,30.762,31.738,17.090,7.812,0
213752.375,26.367,30.273,39.062,24.414,29.785,0
213752.379,28.809,29.785,37.598,23.438,13.672,0
213752.383,26.367,29.785,22.461,27.344,3.906,0
213752.387,25.391,32.227,18.066,28.320,7.812,0
213752.391,25.879,29.297,32.715,22.949,20.020,0
213752.395,29.297,22.461,33.203,28.809,14.160,0
213752.399,32.715,24.902,29.297,30.273,-10.742,0
213752.402,28.809,30.273,31.250,26.367,14.160,0
213752.406,24.414,32.715,29.785,34.668,24.414,0
213752.410,24.414,28.320,31.738,31.738,-5.371,0
213752.414,24.902,22.461,27.832,21.484,-1.465,0
213752.418,24.414,24.902,29.297,28.809,20.020,0
213752.422,24.902,31.250,36.621,36.621,26.367,0
213752.426,30.273,35.645,32.227,38.574,27.832,0
213752.430,34.668,35.645,31.738,30.273,29.785,0
213752.434,29.785,32.227,34.180,19.043,17.578,0
213752.438,26.367,26.855,33.203,15.625,1.953,0
213752.442,22.949,21.973,32.715,18.066,-14.160,0
213752.445,25.391,20.996,31.738,31.250,1.953,0
213752.449,25.879,22.461,33.203,43.457,22.461,0
213752.453,11.230,24.902,33.203,24.902,-4.883,0
213752.457,8.789,30.273,35.645,13.672,11.719,0
213752.461,21.484,35.645,36.133,25.391,41.992,1
213752.465,25.879,38.574,33.691,29.297,39.062,0
213752.469,23.438,39.551,31.738,30.762,41.992,0
213752.473,26.855,42.480,27.832,30.762,36.133,0
213752.477,25.391,35.645,28.809,27.832,18.555,0
213752.481,23.438,27.344,26.367,29.785,8.789,0
213752.485,23.926,28.809,26.855,17.578,-30.273,0
213752.488,21.484,28.809,34.668,5.371,-60.547,0
213752.492,26.367,30.273,33.203,16.602,-29.297,0
213752.496,31.738,34.180,32.227,28.320,19.043,0
213752.500,31.738,30.273,36.621,32.715,16.602,0
213752.504,35.156,28.320,40.039,38.086,9.277,0
213752.508,39.062,35.645,39.551,40.527,35.156,0
213752.512,34.180,37.598,33.691,36.621,75.684,0
213752.516,30.273,34.180,32.227,32.715,76.660,0
213752.520,22.461,30.273,38.086,28.809,65.430,0
213752.524,15.137,25.391,33.203,23.438,60.547,0
213752.527,14.648,20.996,25.391,20.508,42.969,0
213752.531,12.695,21.484,27.832,12.207,44.434,0
213752.535,14.648,23.438,31.250,14.160,62.988,0
213752.539,20.020,24.902,25.391,25.879,63.477,0
213752.543,25.879,28.320,21.484,33.691,-4.395,0
213752.547,32.715,34.180,28.320,30.273,-19.043,0
213752.551,31.250,29.297,31.738,22.461,5.371,0
213752.555,29.297,23.926,31.738,33.203,4.883,0
213752.559,27.832,24.902,26.367,35.156,15.137,0
213752.563,25.391,28.809,25.391,19.043,33.691,0
213752.567,27.344,34.668,32.227,27.344,54.688,0
213752.570,27.344,35.645,29.297,32.715,65.918,0
213752.574,27.344,34.668,19.531,20.996,53.223,0
213752.578,27.832,34.180,23.438,14.160,41.016,0
213752.582,26.367,35.645,32.715,21.484,32.227,0
213752.586,28.809,31.250,33.691,32.715,7.324,0
213752.590,31.738,27.344,37.109,33.691,12.695,0
213752.594,33.203,32.715,37.109,32.715,38.086,0
213752.598,32.227,35.156,29.297,30.762,51.758,0
213752.602,28.320,36.621,20.508,29.785,28.320,0
213752.606,28.320,36.621,24.414,43.945,4.883,0
213752.610,29.785,33.203,25.879,41.504,20.996,0
213752.613,28.320,32.227,22.949,24.414,15.625,0
213752.617,26.855,33.691,33.691,27.832,2.441,0
213752.621,26.367,34.180,34.668,22.949,20.996,0
213752.625,28.320,39.062,36.621,23.926,27.344,0
213752.629,33.203,42.969,39.551,34.668,41.992,0
213752.633,36.133,39.062,35.156,36.133,52.246,0
213752.637,28.320,32.227,32.227,27.832,24.902,0
213752.641,23.438,29.297,31.738,24.902,24.902,0
213752.645,24.902,28.809,31.250,34.668,45.898,0
213752.649,23.926,25.879,25.879,32.227,3.418,0
213752.652,27.344,25.391,23.926,30.273,-19.531,0
213752.656,27.344,28.320,27.344,29.297,41.016,0
213752.660,21.973,29.297,29.297,18.066,54.688,0
213752.664,24.414,32.227,30.762,18.555,43.945,0
213752.668,25.391,35.156,31.738,27.832,29.297,0
213752.672,25.879,35.156,20.020,29.297,30.273,0
213752.676,33.203,38.086,18.066,31.250,51.758,0
213752.680,31.250,38.086,29.785,28.809,8.301,0
213752.684,25.391,32.227,36.133,19.043,-45.410,0
213752.688,21.973,24.414,34.668,17.090,-12.207,0
213752.692,20.508,21.484,28.809,17.578,14.160,0
213752.695,20.508,23.438,29.297,23.438,21.484,0
213752.699,21.484,23.438,26.855,33.691,37.109,0
213752.703,19.043,22.949,24.414,38.086,62.988,0
213752.707,18.066,26.855,25.391,27.832,42.480,0
213752.711,19.043,34.180,31.250,18.555,38.086,0
213752.715,20.508,38.086,35.156,27.832,28.809,0
213752.719,22.949,33.203,29.297,31.738,13.672,0
213752.723,28.320,28.320,21.973,22.461,50.293,0
213752.727,28.320,27.344,27.344,11.719,57.129,0
213752.731,19.043,20.996,40.039,16.113,69.824,0
213752.735,25.879,19.531,36.621,41.504,97.656,0
213752.738,35.156,26.367,28.809,46.875,92.773,0
213752.742,31.250,29.785,37.109,34.668,52.246,0
213752.746,26.855,30.273,38.086,31.738,38.574,0
213752.750,26.855,35.645,39.551,36.133,48.828,0
213752.754,29.297,41.016,43.945,34.180,30.273,0
213752.758,24.414,30.762,33.203,32.715,42.480,0
213752.762,21.973,22.461,28.320,30.273,55.176,0
213752.766,26.367,22.949,37.598,31.250,41.504,0
213752.770,26.855,20.996,41.016,25.391,23.926,0
213752.774,32.227,22.949,40.039,15.137,16.602,0
213752.777,35.645,29.785,36.133,26.367,20.508,0
213752.781,31.250,31.250,29.785,32.715,-2.930,0
213752.785,27.832,30.273,26.855,27.832,13.672,0
213752.789,28.809,32.715,21.484,27.832,8.789,0
213752.793,26.855,31.250,17.090,24.902,32.715,0
213752.797,23.438,28.320,20.996,16.602,43.457,0
213752.801,21.484,25.879,26.855,16.113,14.160,0
213752.805,26.367,27.344,30.273,22.949,37.109,0
213752.809,32.715,27.832,25.391,29.785,30.762,0
213752.813,29.785,28.320,22.949,24.902,24.414,0
213752.817,30.762,37.598,30.762,18.066,27.832,0
213752.820,31.250,42.480,31.738,24.414,41.992,0
213752.824,28.809,39.551,21.973,32.227,91.309,0
213752.828,22.949,34.180,22.949,30.273,95.215,0
213752.832,21.484,29.785,29.785,20.020,87.402,0
213752.836,24.902,28.809,26.855,20.020,100.586,0
213752.840,26.855,30.762,21.973,20.020,78.125,0
213752.844,33.203,31.738,21.484,19.531,94.727,0
213752.848,37.109,34.180,21.484,24.902,115.234,0
213752.852,34.668,40.527,27.344,23.438,68.848,0
213752.856,36.621,43.457,32.227,23.438,50.781,0
213752.860,39.062,41.504,37.598,25.391,49.805,0
213752.863,33.691,37.598,41.992,23.926,43.457,0
213752.867,33.203,35.645,35.156,24.902,63.477,0
213752.871,33.691,35.156,30.273,28.809,25.391,0
213752.875,32.227,35.645,35.645,30.762,17.578,0
213752.879,28.809,28.320,28.320,32.715,48.828,0
213752.883,26.367,28.809,16.602,26.367,46.387,0
213752.887,27.832,33.691,28.320,28.320,58.105,0
213752.891,34.668,28.320,39.062,35.156,60.059,0
213752.895,35.645,31.250,39.551,35.645,53.711,0
213752.899,27.832,33.691,33.691,36.621,61.035,0
213752.902,28.320,32.715,32.715,36.621,47.852,0
213752.906,37.598,37.109,33.203,41.504,-7.812,0
213752.910,40.527,36.621,36.621,48.828,3.418,0
213752.914,38.086,35.645,40.039,43.457,43.945,0
213752.918,38.574,36.133,34.180,40.039,37.109,0
213752.922,37.598,34.668,36.621,40.527,1.953,0
213752.926,30.762,36.621,36.621,35.156,8.301,0
213752.930,28.320,35.645,27.832,23.438,21.484,0
213752.934,29.785,32.715,28.809,19.531,-8.301,0
213752.938,28.809,31.738,36.621,35.645,-27.832,0
213752.942,31.738,38.086,35.156,46.387,-11.719,0
213752.945,34.668,43.457,37.109,39.551,17.090,0
213752.949,29.785,39.062,36.133,32.227,28.809,0
213752.953,21.973,37.598,38.574,32.715,15.137,0
213752.957,22.461,38.086,44.434,32.715,36.621,0
213752.961,21.973,37.109,41.504,22.949,10.742,0
213752.965,23.926,38.086,35.156,27.832,-20.996,0
213752.969,29.297,36.133,30.762,29.785,16.113,0
213752.973,30.273,34.668,28.320,28.320,43.457,0
213752.977,30.273,31.250,28.320,36.133,44.922,0
213752.981,28.320,30.273,35.156,33.203,48.340,0
213752.985,28.320,28.320,39.062,26.855,29.297,0
213752.988,28.809,23.926,37.598,32.715,26.855,0
213752.992,27.344,29.297,29.785,29.297,23.926,0
213752.996,27.832,35.645,27.344,20.996,-15.625,0
213753.000,25.879,36.133,36.621,25.879,-3.418,0
213753.004,26.855,34.180,41.992,30.762,29.297,0
213753.008,33.203,35.645,34.668,26.367,40.039,0
213753.012,32.227,35.156,31.250,22.461,24.414,0
213753.016,27.344,25.391,39.551,16.602,24.414,0
213753.020,26.855,20.996,38.574,18.066,39.062,0
213753.024,30.273,26.367,29.785,19.531,38.086,0
213753.027,34.180,34.668,26.855,22.949,18.555,0
213753.031,37.598,39.062,33.203,35.645,29.785,0
213753.035,36.133,33.691,35.645,35.156,8.301,0
213753.039,24.414,27.832,28.809,20.020,-27.832,0
213753.043,19.531,32.227,25.391,26.855,-19.043,0
213753.047,28.320,39.062,31.250,41.992,9.766,0
213753.051,24.414,35.156,35.156,25.391,28.809,0
213753.055,20.020,27.832,33.203,11.230,5.859,0
213753.059,27.832,27.832,37.109,28.809,21.484,0
213753.063,26.367,31.738,37.109,32.715,42.969,0
213753.067,24.414,30.762,37.598,25.879,59.082,0
213753.070,26.367,32.715,36.133,26.367,41.504,0
213753.074,31.738,40.039,39.062,24.414,25.879,0
213753.078,38.086,41.992,39.062,33.691,48.340,0
213753.082,36.621,34.180,31.250,32.715,30.762,0
213753.086,30.762,27.832,28.809,21.484,37.109,0
213753.090,33.691,26.855,27.832,27.832,51.270,0
213753.094,38.086,25.879,31.250,35.645,39.551,0
213753.098,33.691,30.762,33.203,37.598,7.324,0
213753.102,30.762,32.715,29.297,27.832,-19.043,0
213753.106,31.738,31.250,29.297,22.461,-0.977,0
213753.110,33.691,36.133,33.203,25.879,36.133,0
213753.113,36.133,40.039,32.715,29.785,12.695,0
213753.117,37.109,37.598,29.297,33.203,3.906,0
213753.121,34.668,35.156,25.879,30.762,21.484,0
213753.125,28.809,36.133,27.344,28.320,11.230,0
213753.129,20.020,30.762,31.738,23.926,6.348,0
213753.133,25.879,24.902,31.738,21.973,24.902,0
213753.137,36.133,26.855,31.738,28.320,31.250,0
213753.141,34.668,28.320,32.227,31.250,40.527,0
213753.145,28.320,30.273,27.344,28.809,22.949,1
213753.149,32.715,37.109,28.320,32.715,-11.230,0
213753.152,38.086,39.062,28.809,37.109,8.301,0
213753.156,37.109,34.668,23.438,40.527,34.668,0
213753.160,48.828,33.203,23.926,46.875,17.090,0
213753.164,41.504,33.203,22.461,40.039,-3.418,0
213753.168,12.207,24.414,20.996,16.602,27.832,0
213753.172,8.301,21.973,28.320,6.836,30.273,0
213753.176,20.020,32.227,30.273,18.066,18.066,0
213753.180,20.020,35.156,28.320,25.391,37.109,0
213753.184,19.043,33.691,33.203,25.879,45.410,0
213753.188,18.066,34.668,31.250,25.879,6.836,0
213753.192,17.578,30.762,27.832,24.414,-22.949,0
213753.195,21.484,31.250,30.273,22.461,-1.953,0
213753.199,25.879,32.715,29.297,34.668,35.156,0
213753.203,31.250,30.762,26.367,42.480,28.320,0
213753.207,33.203,32.227,30.762,43.457,22.949,0
213753.211,33.691,36.621,36.133,45.898,21.484,0
213753.215,30.273,37.109,34.668,33.691,7.812,0
213753.219,25.879,33.203,28.809,22.461,18.555,0
213753.223,27.832,32.227,28.809,29.297,0.977,0
213753.227,31.738,33.691,34.668,29.297,-29.785,0
213753.231,33.203,33.691,34.180,30.762,-10.742,0
213753.235,31.250,30.273,32.227,33.203,-4.883,0
213753.238,27.832,29.297,33.691,25.879,-15.625,0
213753.242,25.391,29.297,37.598,28.320,14.160,0
213753.246,27.832,31.738,38.574,36.133,40.039,0
213753.250,27.832,35.156,36.133,27.344,41.504,0
213753.254,22.461,32.715,34.180,21.973,15.137,0
213753.258,24.414,32.227,30.273,30.762,9.766,0
213753.262,24.902,34.180,21.484,26.855,45.898,0
213753.266,23.438,33.203,21.973,13.672,45.898,0
213753.270,30.762,32.715,28.320,19.043,56.152,0
213753.274,37.598,34.180,34.180,31.738,43.457,0
213753.277,35.156,35.156,35.156,31.738,0.977,0
213753.281,32.227,33.691,31.250,22.949,-21.973,0
213753.285,31.738,30.273,36.133,24.902,4.883,0
213753.289,33.691,27.832,45.410,36.133,60.547,0
213753.293,39.062,28.320,47.852,31.738,39.551,0
213753.297,40.039,26.855,36.621,29.785,0.488,0
213753.301,41.504,27.832,23.438,39.062,17.090,0
213753.305,38.086,32.227,20.996,36.621,45.898,0
213753.309,34.180,35.156,26.855,32.715,25.391,0
213753.313,33.691,35.156,36.621,27.344,26.855,0
213753.317,28.809,33.691,39.551,14.160,40.527,0
213753.320,22.461,31.250,37.109,19.531,37.109,0
213753.324,19.043,30.273,32.227,17.578,59.082,0
213753.328,20.020,31.738,26.855,9.277,53.711,0
213753.332,21.484,29.785,30.762,17.578,79.590,0
213753.336,21.484,28.809,37.598,19.043,75.195,0
213753.340,16.113,30.762,32.715,10.742,27.344,0
213753.344,18.066,32.227,30.273,10.254,39.551,0
213753.348,27.832,30.273,25.391,15.625,43.457,0
213753.352,26.855,23.926,22.949,11.230,26.855,0
213753.356,22.949,23.926,33.691,8.789,34.180,0
213753.360,28.320,32.715,33.691,19.043,34.668,0
213753.363,31.250,35.156,27.832,28.320,50.293,0
213753.367,26.367,31.738,27.344,24.902,59.082,0
213753.371,30.273,29.785,20.996,22.461,25.879,0
213753.375,38.086,27.344,20.996,29.785,-2.441,0
213753.379,40.527,30.273,28.809,29.785,-17.578,0
213753.383,41.016,38.086,28.809,32.227,12.695,0
213753.387,36.133,38.574,32.227,25.391,20.508,0
213753.391,30.762,32.227,37.598,13.184,-2.441,0
213753.395,38.574,27.344,33.203,29.297,-15.137,0
213753.399,37.598,19.043,28.320,33.691,-12.695,0
213753.402,21.484,23.926,29.785,17.090,-22.461,0
213753.406,18.066,34.668,29.785,14.160,-7.324,0
213753.410,23.438,36.621,32.715,24.414,-9.766,0
213753.414,19.531,37.109,34.668,28.320,-24.414,0
213753.418,19.043,38.086,28.809,27.832,-2.930,0
213753.422,23.438,34.180,30.762,17.578,40.039,0
213753.426,17.578,24.414,33.203,4.395,71.777,0
213753.430,14.648,23.926,36.133,1.953,53.711,0
213753.434,22.461,29.785,36.133,6.348,20.020,0
213753.438,25.879,30.273,34.180,20.020,38.574,0
213753.442,33.203,30.273,34.180,30.762,42.969,0
213753.445,47.852,35.156,34.180,37.109,38.574,0
213753.449,48.340,35.156,35.645,44.434,40.527,0
213753.453,36.621,28.320,27.344,41.504,62.988,0
213753.457,34.668,29.297,21.973,39.551,79.590,0
213753.461,38.574,30.762,29.785,40.527,39.551,0
213753.465,35.645,27.344,32.227,32.715,11.230,0
213753.469,29.785,20.996,28.809,25.391,-15.137,0
213753.473,32.227,21.484,25.391,21.484,-16.113,0
213753.477,33.203,28.320,24.902,16.602,-35.645,0
213753.481,33.691,34.668,32.227,25.391,-32.227,0
213753.485,36.621,31.738,30.273,32.715,24.902,0
213753.488,35.156,26.367,22.461,26.855,25.879,0
213753.492,29.785,26.367,27.832,22.949,25.391,0
213753.496,30.273,29.297,37.109,28.320,26.367,0
213753.500,33.203,32.715,32.227,38.086,19.043,0
213753.504,32.715,33.203,27.832,34.668,48.828,0
213753.508,28.320,30.273,35.156,27.832,53.711,0
213753.512,19.531,23.438,33.691,25.879,45.898,0
213753.516,14.648,22.949,27.832,20.508,45.898,0
213753.520,19.531,28.320,25.391,23.926,22.949,0
213753.524,23.438,23.926,24.414,15.625,-12.207,0
213753.527,23.926,18.555,29.297,11.230,27.344,0
213753.531,26.367,29.297,29.297,17.578,40.039,0
213753.535,26.367,37.109,22.949,16.113,-9.766,0
213753.539,26.855,37.109,27.344,25.879,17.090,0
213753.543,26.367,38.574,34.180,24.414,34.668,0
213753.547,24.902,29.297,26.855,16.602,41.504,0
213753.551,22.949,23.926,21.973,11.230,80.566,0
213753.555,25.391,26.855,35.156,13.184,59.570,0
213753.559,32.227,31.250,41.016,24.902,47.852,0
213753.563,34.180,31.250,33.203,35.645,66.406,0
213753.567,31.738,32.227,33.691,33.691,37.109,0
213753.570,28.320,30.762,34.180,28.320,24.414,0
213753.574,25.879,26.367,33.203,40.527,51.270,0
213753.578,33.691,33.691,34.668,40.527,47.852,0
213753.582,37.598,44.922,30.273,33.203,25.391,0
213753.586,36.133,40.039,23.926,31.738,19.043,0
213753.590,37.109,29.785,24.902,21.973,26.367,0
213753.594,34.180,29.297,27.344,25.391,13.672,0
213753.598,37.598,28.320,26.855,35.156,12.207,0
213753.602,41.504,29.297,33.203,40.039,45.898,0
213753.606,38.574,30.273,37.598,42.969,53.711,0
213753.610,39.062,28.809,35.156,44.434,15.625,0
213753.613,38.574,33.203,35.156,43.945,-12.695,0
213753.617,31.250,32.715,34.180,44.434,20.020,0
213753.621,24.414,29.785,33.691,43.945,13.184,0
213753.625,27.832,32.227,37.109,28.809,3.906,0
213753.629,33.691,32.227,39.062,30.273,11.230,0
213753.633,32.715,27.832,35.156,35.645,20.020,0
213753.637,33.691,28.320,25.391,27.832,16.602,0
213753.641,32.715,34.180,23.438,25.391,20.996,0
213753.645,28.320,31.738,31.738,16.113,47.363,0
213753.649,24.902,29.785,34.180,12.695,29.297,0
213753.652,21.484,27.832,30.762,15.137,-21.484,0
213753.656,22.461,28.809,30.762,17.090,-64.453,0
213753.660,25.879,31.738,38.086,30.762,-84.473,0
213753.664,20.996,28.320,32.715,31.738,-36.133,0
213753.668,18.555,26.367,21.973,21.484,-7.324,0
213753.672,23.926,22.461,21.484,20.508,-23.926,0
213753.676,22.949,20.020,28.809,22.949,-17.578,0
213753.680,26.855,18.066,35.645,32.715,-9.277,0
213753.684,27.832,17.090,36.133,31.250,-5.371,0
213753.688,27.832,25.879,29.297,20.020,-1.953,0
213753.692,31.738,32.227,30.762,21.484,10.254,0
213753.695,31.250,33.691,41.504,23.926,35.156,0
213753.699,39.062,38.086,38.086,27.344,9.766,0
213753.703,42.969,36.621,28.809,29.785,-3.906,0
213753.707,25.879,25.391,27.832,34.180,52.734,0
213753.711,21.973,23.438,24.902,36.133,78.613,0
213753.715,30.273,26.855,24.414,31.738,27.832,0
213753.719,31.738,31.250,34.668,32.227,21.484,0
213753.723,33.203,34.668,41.504,33.203,37.598,0
213753.727,33.691,32.715,35.645,39.551,44.434,0
213753.731,34.180,26.855,33.203,39.551,64.453,0
213753.735,35.156,25.879,33.691,27.344,79.102,0
213753.738,42.480,38.574,31.250,35.156,98.145,0
213753.742,38.574,43.457,35.156,40.527,88.867,0
213753.746,25.391,33.691,29.785,28.809,92.773,0
213753.750,22.461,26.855,29.785,27.344,54.199,0
213753.754,23.438,23.438,31.250,31.250,50.781,0
213753.758,22.949,24.902,23.926,33.203,75.195,0
213753.762,24.414,31.250,22.949,32.715,62.988,0
213753.766,36.621,33.691,27.344,43.945,33.203,0
213753.770,35.156,34.668,32.227,37.109,58.105,0
213753.774,15.625,30.762,28.809,6.348,78.613,0
213753.777,17.090,29.297,29.297,2.930,36.133,0
213753.781,23.926,32.227,33.203,20.508,62.500,0
213753.785,12.695,24.902,33.203,15.137,70.312,0
213753.789,8.301,22.461,22.949,5.371,58.105,0
213753.793,14.160,25.879,17.090,13.672,47.852,0
213753.797,14.648,27.832,29.297,18.555,62.012,0
213753.801,21.973,29.297,36.621,23.926,63.965,0
213753.805,27.344,31.250,33.203,22.949,23.438,0
213753.809,25.879,31.738,28.809,18.555,18.066,0
213753.813,26.855,35.156,25.879,29.297,32.715,0
213753.817,26.855,38.574,31.738,30.762,35.156,0
213753.820,23.438,33.691,37.598,22.949,32.227,0
213753.824,20.996,25.879,34.668,15.625,33.691,0
213753.828,20.508,21.484,33.691,16.113,40.527,0
213753.832,20.020,21.484,34.668,23.926,45.410,1
213753.836,15.625,26.855,30.762,15.625,39.062,0
213753.840,11.719,35.645,29.785,10.742,27.832,0
213753.844,9.277,39.062,35.156,17.578,40.527,0
213753.848,13.672,37.598,34.668,18.066,53.711,0
213753.852,21.484,38.086,31.250,16.113,11.230,0
213753.856,24.414,37.598,35.156,26.855,-7.324,0
213753.860,23.926,38.086,37.598,40.039,53.223,0
213753.863,24.902,39.062,34.668,31.738,48.828,0
213753.867,30.762,37.598,29.297,24.902,12.207,0
213753.871,38.086,36.133,30.273,29.785,43.945,0
213753.875,42.480,36.621,35.645,35.156,57.617,0
213753.879,39.551,37.598,35.156,33.691,54.199,0
213753.883,34.180,35.156,29.785,22.949,47.363,0
213753.887,37.598,32.227,27.832,32.715,17.090,0
213753.891,44.922,39.551,35.645,44.922,13.184,0
213753.895,45.898,46.387,41.992,41.504,1.953,0
213753.899,41.992,40.527,37.109,29.785,-26.855,0
213753.902,39.551,37.598,32.715,31.738,23.926,0
213753.906,46.387,41.016,29.785,50.781,69.824,0
213753.910,51.270,39.062,25.879,44.922,51.270,0
213753.914,41.504,37.109,26.855,26.855,64.941,0
213753.918,37.109,38.574,30.273,30.762,82.520,0
213753.922,36.133,38.086,26.855,34.668,94.727,0
213753.926,22.949,28.809,24.414,29.297,56.641,0
213753.930,19.531,26.367,29.785,24.902,37.598,0
213753.934,26.367,28.320,29.297,25.879,46.387,0
213753.938,31.250,26.367,31.738,40.527,53.223,0
213753.942,30.273,29.785,30.273,37.598,61.035,0
213753.945,37.109,40.527,31.738,31.250,39.551,0
213753.949,47.852,48.340,45.410,48.340,29.297,0
213753.953,41.504,43.945,42.480,41.504,54.199,0
213753.957,30.273,36.133,27.344,28.320,80.566,0
213753.961,24.902,29.785,26.855,30.273,63.965,0
213753.965,20.996,27.344,29.297,29.785,57.617,0
213753.969,22.949,28.320,28.809,30.273,52.734,0
213753.973,28.320,21.973,31.250,33.691,51.270,0
213753.977,28.809,21.484,36.621,41.992,55.176,0
213753.981,34.668,28.809,29.297,53.711,24.902,0
213753.985,41.504,33.203,29.297,44.922,-24.414,0
213753.988,43.457,36.133,39.551,37.598,-29.785,0
213753.992,38.086,34.180,36.133,44.434,14.160,0
213753.996,35.156,34.180,31.738,32.715,28.320,0
213754.000,31.738,33.691,27.832,24.414,5.859,0
213754.004,27.832,31.738,22.949,26.367,15.137,0
213754.008,34.180,33.203,27.832,27.832,55.176,0
213754.012,37.598,33.203,31.250,31.738,72.266,0
213754.016,35.156,34.180,26.367,33.203,48.828,0
213754.020,41.016,38.574,32.227,39.551,11.719,0
213754.024,50.781,37.109,35.156,40.039,26.855,0
213754.027,45.410,30.762,27.344,36.621,43.945,0
213754.031,35.645,26.367,21.973,33.203,9.277,0
213754.035,34.668,31.738,20.996,21.973,-7.812,0
213754.039,34.180,36.621,19.531,20.508,26.855,0
213754.043,35.156,35.156,17.578,30.762,23.926,0
213754.047,30.273,33.691,21.484,32.227,16.602,0
213754.051,26.855,33.691,29.297,32.715,39.551,0
213754.055,31.250,34.668,35.645,36.621,49.805,0
213754.059,31.738,28.320,34.180,38.086,38.086,0
213754.063,34.668,23.438,28.809,34.180,41.504,0
213754.067,41.504,32.227,33.203,44.922,69.824,0
213754.070,36.133,30.762,33.691,54.688,89.355,0
213754.074,30.273,26.367,27.832,35.156,59.570,0
213754.078,31.738,34.668,28.320,20.020,-13.184,0
213754.082,28.809,37.109,29.297,25.879,14.648,0
213754.086,27.344,32.715,32.715,31.738,75.684,0
213754.090,33.203,35.156,32.227,29.785,48.828,0
213754.094,37.598,31.738,28.320,36.621,12.695,0
213754.098,31.738,22.461,29.297,41.504,45.898,0
213754.102,34.668,26.855,24.902,30.273,55.176,0
213754.106,42.969,35.156,28.809,31.738,51.758,0
213754.110,41.016,41.016,38.574,41.992,70.801,0
213754.113,34.668,38.574,32.715,45.410,67.871,0
213754.117,30.273,35.156,23.926,35.156,72.754,0
213754.121,31.738,31.250,27.832,32.227,56.641,0
213754.125,35.645,27.832,34.668,45.410,55.664,0
213754.129,36.133,29.785,31.738,39.062,65.918,0
213754.133,35.645,30.273,27.832,28.809,52.734,0
213754.137,34.668,25.879,25.879,27.344,2.441,0
213754.141,35.156,25.879,24.902,25.879,20.996,0
213754.145,41.504,29.297,27.832,40.527,45.410,0
213754.149,49.316,35.645,38.086,40.527,27.344,0
213754.152,51.758,41.504,38.574,36.621,25.879,0
213754.156,47.852,40.527,27.832,41.504,10.742,0
213754.160,41.016,39.062,17.578,41.016,-5.371,0
213754.164,35.645,37.109,25.391,36.133,-9.277,0
213754.168,25.879,30.762,34.668,23.926,-9.766,0
213754.172,23.926,30.273,27.832,19.043,-7.812,0
213754.176,26.367,29.297,22.461,28.320,25.391,0
213754.180,22.949,24.414,28.809,23.926,-1.465,0
213754.184,31.738,28.320,30.762,19.531,-13.672,0
213754.188,40.039,32.715,29.785,34.668,23.926,0
213754.192,33.203,31.250,32.227,43.457,10.742,0
213754.195,31.250,30.762,30.273,43.457,-16.113,0
213754.199,27.344,32.715,30.762,32.227,-11.719,0
213754.203,23.438,30.762,30.762,22.949,-3.906,0
213754.207,27.344,23.926,30.762,24.902,13.184,0
213754.211,28.320,24.414,26.367,26.367,10.742,0
213754.215,29.297,27.832,20.996,16.602,-25.391,0
213754.219,30.273,27.832,26.855,18.066,-26.367,0
213754.223,30.273,30.273,33.203,27.832,29.785,0
213754.227,31.250,29.785,33.691,26.855,38.086,0
213754.231,31.738,23.926,36.133,33.691,12.695,0
213754.235,33.691,28.320,36.133,42.480,24.414,0
213754.238,36.621,39.062,31.738,40.039,35.156,0
213754.242,35.645,41.016,32.715,39.062,34.180,0
213754.246,31.738,36.133,30.273,35.645,24.902,0
213754.250,30.273,31.738,22.949,37.109,38.574,0
213754.254,32.227,30.762,24.414,35.156,55.664,0
213754.258,29.297,27.344,29.297,35.156,46.875,0
213754.262,25.879,25.391,27.832,32.715,25.391,0
213754.266,28.809,29.785,30.762,26.367,25.391,0
213754.270,29.297,30.273,37.109,23.438,29.297,0
213754.274,31.738,27.344,39.062,21.973,23.438,0
213754.277,38.086,26.367,36.621,38.086,36.133,0
213754.281,34.668,27.344,25.879,41.016,21.484,0
213754.285,30.273,27.832,18.555,27.832,33.203,0
213754.289,36.133,33.203,25.879,33.691,65.430,0
213754.293,32.227,32.715,31.250,35.156,55.664,0
213754.297,23.438,27.344,32.715,20.508,66.406,0
213754.301,21.973,26.367,34.180,17.578,62.988,0
213754.305,24.414,27.832,37.109,24.414,25.879,0
213754.309,28.809,25.391,35.156,26.367,43.457,0
213754.313,30.273,26.367,31.250,25.879,34.668,0
213754.317,27.832,30.762,27.832,23.438,-4.883,0
213754.320,22.949,30.762,27.344,13.672,6.348,0
213754.324,21.484,28.320,32.715,15.137,28.320,0
213754.328,29.785,33.203,34.180,28.809,20.996,0
213754.332,27.832,33.203,30.273,29.297,8.301,0
213754.336,20.508,22.949,30.273,21.484,6.348,0
213754.340,19.043,22.461,29.785,22.461,40.527,0
213754.344,24.902,27.832,29.297,16.113,54.688,0
213754.348,28.809,28.809,36.133,20.996,40.527,0
213754.352,28.809,34.180,39.062,27.832,47.363,0
213754.356,27.344,38.574,35.645,27.344,26.367,0
213754.360,24.902,37.109,30.273,24.902,14.160,0
213754.363,23.438,33.691,27.832,18.066,20.996,0
213754.367,22.949,28.809,30.762,18.066,58.105,0
213754.371,26.855,28.809,29.785,22.461,71.777,0
213754.375,27.344,31.250,28.320,24.414,69.336,0
213754.379,28.809,31.738,30.762,30.762,38.086,0
213754.383,32.715,28.809,34.180,35.645,1.465,0
213754.387,31.738,31.738,31.738,28.320,27.344,0
213754.391,27.832,37.598,26.855,23.438,44.922,0
213754.395,24.902,35.156,23.926,20.020,26.855,0
213754.399,24.902,33.203,28.809,20.996,43.945,0
213754.402,27.344,36.621,34.668,24.902,49.316,0
213754.406,28.809,35.645,39.062,25.391,46.875,0
213754.410,25.391,27.832,39.551,29.785,56.152,0
213754.414,28.809,25.391,31.738,37.598,8.301,0
213754.418,34.180,28.320,29.297,44.434,-18.555,0
213754.422,28.320,26.855,29.297,44.922,-3.418,0
213754.426,26.855,26.855,27.832,37.598,-7.812,0
213754.430,27.344,32.227,29.297,33.691,-7.324,0
213754.434,18.555,27.832,32.715,26.855,-17.090,0
213754.438,18.066,22.949,35.645,30.762,4.883,0
213754.442,24.414,23.926,37.109,32.715,29.297,0
213754.445,24.902,25.391,36.621,33.203,32.715,0
213754.449,27.832,26.855,36.621,41.504,8.789,0
213754.453,29.297,27.344,30.762,31.738,5.371,0
213754.457,31.738,30.273,18.066,32.715,41.504,0
213754.461,37.109,35.156,19.531,47.363,74.707,0
213754.465,40.039,34.668,32.227,37.598,17.090,0
213754.469,37.598,29.297,38.086,22.949,26.855,0
213754.473,28.320,25.391,40.039,26.855,61.523,0
213754.477,22.949,26.367,40.039,29.785,42.480,0
213754.481,27.832,24.902,40.527,28.320,63.477,0
213754.485,31.250,21.973,38.086,27.344,69.824,0
213754.488,34.180,30.273,33.691,33.203,12.695,0
213754.492,38.086,37.109,32.227,38.086,-41.016,0
213754.496,42.480,36.621,27.344,35.645,24.414,0
213754.500,52.246,39.062,26.367,46.875,72.266,0
213754.504,55.664,36.133,34.180,53.711,63.477,1
213754.508,43.945,32.715,32.227,36.133,59.082,0
213754.512,28.320,30.273,29.297,17.578,41.504,0
213754.516,23.926,31.738,32.715,16.602,64.941,0
213754.520,24.414,34.180,36.133,25.391,85.938,0
213754.524,24.414,30.273,32.227,25.879,84.961,0
213754.527,26.855,31.250,24.902,25.879,69.824,0
213754.531,32.227,38.574,32.715,23.438,65.430,0
213754.535,39.062,41.992,34.180,30.273,90.820,0
213754.539,36.621,37.598,31.738,43.457,78.125,0
213754.543,31.738,34.668,34.180,36.133,50.781,0
213754.547,29.785,35.645,37.109,22.461,68.359,0
213754.551,26.855,33.691,35.156,31.250,110.840,0
213754.555,27.832,32.227,28.809,36.133,80.566,0
213754.559,29.785,33.691,32.715,21.484,25.879,0
213754.563,27.344,32.715,34.668,24.414,36.133,0
213754.567,26.855,33.691,30.273,27.832,47.363,0
213754.570,27.344,35.156,27.344,20.996,61.035,0
213754.574,26.855,29.785,31.738,23.438,83.496,0
213754.578,30.762,31.738,41.016,26.367,88.867,0
213754.582,33.203,39.551,41.504,28.320,51.270,0
213754.586,33.203,37.109,33.203,40.527,64.941,0
213754.590,35.156,36.133,28.320,43.945,67.383,0
213754.594,34.180,38.086,27.832,36.133,23.926,0
213754.598,33.203,32.715,29.785,32.715,67.871,0
213754.602,27.344,31.250,32.227,19.531,10.254,0
213754.606,30.273,33.203,37.598,19.043,-28.320,0
213754.610,40.527,33.203,39.062,41.992,27.344,0
213754.613,41.504,41.016,39.551,39.551,30.762,0
213754.617,42.480,45.410,40.039,30.273,13.672,0
213754.621,40.527,41.504,35.156,32.715,15.625,0
213754.625,37.598,36.133,32.715,34.668,17.090,0
213754.629,39.551,36.621,35.156,40.039,22.461,0
213754.633,41.016,37.598,28.320,34.180,65.430,0
213754.637,32.227,30.273,22.461,22.949,41.016,0
213754.641,26.367,30.762,26.855,18.555,14.648,0
213754.645,34.668,40.039,25.879,23.438,-0.488,0
213754.649,34.180,40.039,31.250,24.902,-46.875,0
213754.652,28.809,36.133,35.645,29.785,-28.809,0
213754.656,32.715,37.598,35.645,35.156,-4.395,0
213754.660,31.738,39.062,42.480,30.762,-21.973,0
213754.664,30.273,38.574,41.992,32.715,11.230,0
213754.668,34.668,36.621,35.645,34.668,63.965,0
213754.672,27.344,32.715,30.762,30.273,70.801,0
213754.676,19.531,30.762,27.832,35.156,38.086,0
213754.680,22.949,30.762,28.809,32.227,6.836,0
213754.684,27.344,33.691,36.621,22.461,3.906,0
213754.688,25.391,37.109,41.992,22.949,18.555,0
213754.692,24.414,33.203,34.668,17.090,2.441,0
213754.695,25.391,30.762,27.344,17.578,12.207,0
213754.699,29.785,38.574,27.832,30.273,41.016,0
213754.703,34.668,44.922,30.762,33.203,15.625,0
213754.707,33.203,41.504,36.621,32.715,28.320,0
213754.711,31.738,36.133,41.504,31.250,71.289,0
213754.715,29.785,34.668,39.551,26.855,60.547,0
213754.719,26.367,35.645,33.203,26.855,32.227,0
213754.723,21.484,33.691,27.832,31.250,52.734,0
213754.727,18.555,29.785,25.391,32.227,57.617,0
213754.731,23.438,30.762,32.715,25.879,41.504,0
213754.735,29.785,35.645,37.598,17.578,10.254,0
213754.738,27.344,39.062,39.062,20.996,-2.441,0
213754.742,22.949,37.598,42.969,26.367,31.738,0
213754.746,18.555,31.250,39.551,22.461,43.457,0
213754.750,14.160,29.785,35.645,21.484,43.945,0
213754.754,11.719,31.250,32.715,25.391,58.105,0
213754.758,12.695,32.227,28.809,28.320,80.566,0
213754.762,16.602,31.250,27.344,23.438,80.566,0
213754.766,19.531,32.227,26.367,20.996,73.730,0
213754.770,13.184,33.691,26.855,24.902,56.641,0
213754.774,6.836,35.156,32.227,25.879,77.148,0
213754.777,10.254,37.598,38.574,19.531,60.059,0
213754.781,12.695,37.598,35.645,12.207,-6.348,0
213754.785,11.719,33.691,28.809,10.742,-12.695,0
213754.789,8.301,28.320,31.250,15.137,4.395,0
213754.793,12.695,28.809,27.832,20.020,1.465,0
213754.797,18.066,28.320,22.949,28.809,-2.441,0
213754.801,17.090,28.320,33.691,33.691,-10.742,0
213754.805,26.367,31.738,46.387,38.574,10.254,0
213754.809,28.809,26.367,38.574,33.203,27.832,0
213754.813,25.879,20.020,26.367,29.297,1.465,0
213754.817,30.273,22.949,33.203,34.180,14.160,0
213754.820,32.227,30.273,41.504,34.180,28.320,0
213754.824,35.645,32.227,39.551,33.203,11.230,0
213754.828,39.062,29.785,36.133,22.949,-26.367,0
213754.832,39.551,28.809,34.180,28.320,-6.348,0
213754.836,41.016,29.297,28.809,35.156,47.363,0
213754.840,39.551,30.762,28.320,31.250,23.438,0
213754.844,43.945,32.715,32.227,38.574,42.480,0
213754.848,47.852,33.691,34.180,31.250,66.406,0
213754.852,48.340,32.227,39.551,24.414,27.344,0
213754.856,47.363,30.273,39.551,30.273,18.555,0
213754.860,43.457,29.785,27.832,25.391,18.066,0
213754.863,46.875,32.715,29.297,28.320,43.457,0
213754.867,44.434,29.297,33.691,34.668,29.785,0
213754.871,36.621,22.949,25.391,33.691,17.090,0
213754.875,37.598,29.297,27.832,37.109,45.410,0
213754.879,39.551,32.715,36.133,34.180,31.250,0
213754.883,32.227,28.320,34.668,30.273,8.789,0
213754.887,25.879,28.320,32.227,23.438,-31.250,0
213754.891,31.738,25.879,29.785,23.438,-28.809,0
213754.895,39.062,25.879,31.250,38.086,7.812,0
213754.899,36.133,32.227,37.598,40.527,3.418,0
213754.902,35.156,38.086,38.574,45.898,33.691,0
213754.906,34.668,37.109,36.133,41.992,54.199,0
213754.910,25.879,29.297,36.133,34.668,50.781,0
213754.914,24.902,27.344,35.156,39.062,69.824,0
213754.918,26.855,27.344,33.203,39.551,72.266,0
213754.922,23.926,24.414,34.180,36.133,60.059,0
213754.926,23.438,23.926,34.180,30.762,53.711,0
213754.930,25.391,29.297,26.367,28.809,34.668,0
213754.934,32.227,32.227,25.391,26.855,28.320,0
213754.938,34.668,31.738,28.320,29.785,56.641,0
213754.942,31.250,31.250,30.273,30.762,50.781,0
213754.945,27.832,32.227,33.691,24.902,0.488,0
213754.949,25.391,28.320,29.785,14.160,20.020,0
213754.953,27.832,25.391,24.902,18.555,28.320,0
213754.957,27.344,27.832,21.484,24.414,-14.648,0
213754.961,28.809,32.227,30.273,21.484,35.645,0
213754.965,26.367,30.273,35.645,25.391,3.906,0
213754.969,27.832,25.391,29.297,31.738,-0.488,0
213754.973,35.156,30.273,27.832,28.320,78.125,0
213754.977,31.738,38.086,26.855,19.531,34.668,0
213754.981,26.855,38.086,27.832,25.391,12.207,0
213754.985,29.785,31.250,29.785,39.551,61.035,0
213754.988,27.832,27.832,31.738,31.250,83.496,0
213754.992,22.461,28.320,32.227,20.996,60.547,0
213754.996,25.879,25.391,28.320,26.367,50.781,0
213755.000,32.227,27.344,25.391,26.855,35.156,0
213755.004,34.180,32.227,28.320,27.832,16.113,0
213755.008,32.227,32.715,31.738,29.785,29.785,0
213755.012,26.367,29.297,31.738,26.367,38.574,0
213755.016,20.996,24.414,30.273,33.691,49.316,0
213755.020,23.438,28.320,28.809,33.691,5.859,0
213755.024,22.949,30.762,31.250,18.066,-18.066,0
213755.027,17.090,21.484,35.645,17.578,23.926,0
213755.031,16.113,22.949,31.738,27.344,9.277,0
213755.035,20.508,31.738,29.297,27.344,18.066,0
213755.039,25.391,33.203,34.180,26.855,54.199,0
213755.043,26.367,33.691,40.039,34.180,53.223,0
213755.047,29.297,34.668,40.527,39.551,7.324,0
213755.051,33.691,36.621,34.180,41.016,-8.789,0
213755.055,37.598,41.992,33.691,57.129,30.273,0
213755.059,40.039,43.945,33.691,52.246,37.598,0
213755.063,30.273,33.691,31.738,25.391,24.902,0
213755.067,23.438,24.902,33.691,16.113,24.902,0
213755.070,23.926,22.461,38.086,20.508,45.898,0
213755.074,25.391,23.438,40.527,29.785,61.523,0
213755.078,28.320,24.414,33.203,29.785,59.082,0
213755.082,26.855,22.949,27.344,29.297,46.875,0
213755.086,33.203,26.855,29.785,31.250,44.434,0
213755.090,43.945,37.109,33.691,37.109,66.406,0
213755.094,41.016,44.434,34.668,41.016,56.152,0
213755.098,33.691,41.504,26.855,37.598,12.695,0
213755.102,33.203,40.039,27.344,30.762,-0.488,0
213755.106,35.645,42.480,30.762,29.785,-5.859,0
213755.110,29.297,36.133,27.344,31.250,-10.742,0
213755.113,26.855,31.738,22.949,27.832,-43.457,0
213755.117,30.273,34.668,16.602,31.250,-25.879,0
213755.121,31.250,37.598,15.625,30.273,22.949,0
213755.125,35.156,37.109,23.926,22.949,1.465,0
213755.129,35.156,30.273,34.668,28.320,-18.066,0
213755.133,30.273,24.902,35.645,25.391,7.812,0
213755.137,32.227,30.273,29.297,17.578,-0.488,0
213755.141,34.668,37.109,28.809,24.902,18.066,0
213755.145,35.645,38.574,34.180,37.109,33.691,0
213755.149,39.062,38.574,32.715,29.785,17.578,0
213755.152,37.109,35.645,22.949,22.949,31.250,0
213755.156,30.762,31.250,19.531,22.461,-8.789,0
213755.160,34.668,26.855,25.391,35.156,-7.812,0
213755.164,43.945,27.344,33.203,51.758,35.156,0
213755.168,39.062,30.762,35.645,39.062,45.898,0
213755.172,28.320,30.273,33.691,24.414,30.762,0
213755.176,29.297,31.250,29.785,23.926,15.137,0
213755.180,27.832,31.250,32.715,26.855,72.754,0
213755.184,19.531,31.738,33.203,29.297,84.961,0
213755.188,22.949,32.227,28.809,29.785,4.883,0
213755.192,35.645,33.691,23.926,32.227,-1.465,1
213755.195,32.715,37.109,21.484,34.668,27.344,0
213755.199,23.926,33.691,30.273,29.297,27.344,0
213755.203,23.438,28.320,35.645,27.344,41.992,0
213755.207,23.926,28.809,30.762,33.691,73.242,0
213755.211,23.926,22.461,33.203,38.086,58.105,0
213755.215,19.531,22.461,39.062,32.227,29.785,0
213755.219,20.508,29.785,33.691,28.809,5.859,0
213755.223,23.926,29.785,26.855,30.762,42.480,0
213755.227,26.367,32.715,29.297,34.668,37.598,0
213755.231,31.738,35.156,32.227,37.109,-0.977,0
213755.235,30.762,33.691,30.762,28.809,-0.977,0
213755.238,26.367,31.250,25.879,22.461,17.090,0
213755.242,23.926,27.832,24.414,29.297,15.625,0
213755.246,23.926,21.973,31.250,31.738,-11.719,0
213755.250,28.320,25.879,33.691,23.438,-4.395,0
213755.254,29.785,35.156,31.738,25.879,10.742,0
213755.258,32.227,35.645,34.180,32.715,1.953,0
213755.262,28.320,34.180,33.691,21.484,14.160,0
213755.266,21.484,32.227,30.762,18.066,11.719,0
213755.270,26.367,34.668,28.320,27.344,-7.324,0
213755.274,34.180,36.133,32.715,32.227,13.184,0
213755.277,34.180,36.133,35.156,28.809,17.090,0
213755.281,32.227,33.691,19.531,23.438,15.625,0
213755.285,33.691,32.227,13.184,23.438,9.766,0
213755.289,34.180,37.109,25.391,25.391,-3.906,0
213755.293,35.156,39.551,39.062,25.879,-40.527,0
213755.297,33.691,33.691,39.062,25.879,-36.621,0
213755.301,28.320,27.832,35.645,32.227,-10.254,0
213755.305,26.855,21.973,33.203,34.180,16.602,0
213755.309,32.227,25.879,30.273,21.484,14.160,0
213755.313,39.551,36.133,29.297,28.809,10.742,0
213755.317,41.016,37.109,29.297,32.227,49.805,0
213755.320,42.969,35.645,34.180,20.996,75.684,0
213755.324,40.527,34.668,38.086,23.438,66.895,0
213755.328,36.133,36.133,37.598,30.762,21.973,0
213755.332,37.109,36.621,39.062,35.645,6.348,0
213755.336,40.039,37.109,43.457,41.016,8.301,0
213755.340,40.527,39.062,36.621,49.316,-5.859,0
213755.344,41.992,38.086,26.367,46.875,7.812,0
213755.348,41.992,34.180,24.902,38.574,0.977,0
213755.352,43.945,32.715,31.250,37.598,-35.645,0
213755.356,45.898,39.062,41.016,40.039,-37.109,0
213755.360,42.480,41.016,41.504,37.109,21.973,0
213755.363,39.062,38.574,40.527,27.344,40.039,0
213755.367,38.574,37.109,39.551,29.785,-12.207,0
213755.371,39.062,34.668,36.621,39.062,-24.902,0
213755.375,37.109,38.574,31.250,28.809,6.836,0
213755.379,29.785,41.504,28.320,20.020,36.621,0
213755.383,21.973,35.645,34.668,23.438,52.246,0
213755.387,21.973,33.203,45.410,27.832,52.734,0
213755.391,22.461,30.762,42.969,26.855,34.668,0
213755.395,22.461,29.785,33.203,20.996,7.812,0
213755.399,21.484,33.203,29.297,24.414,-13.672,0
213755.402,17.578,33.203,25.391,22.949,38.574,0
213755.406,22.949,38.086,30.762,20.020,36.133,0
213755.410,27.832,37.598,30.273,25.391,-26.855,0
213755.414,27.344,28.809,16.602,25.879,-0.488,0
213755.418,28.320,31.250,21.973,28.320,61.523,0
213755.422,26.855,32.227,36.133,30.762,54.199,0
213755.426,26.367,28.809,36.621,33.691,54.688,0
213755.430,25.879,27.344,32.227,31.738,85.449,0
213755.434,23.438,26.855,33.691,26.367,58.594,0
213755.438,25.391,30.273,34.180,27.344,16.113,0
213755.442,29.785,34.180,33.203,23.438,-8.789,0
213755.445,27.344,35.156,29.297,17.578,3.418,0
213755.449,30.273,38.086,28.809,31.738,60.547,0
213755.453,34.180,41.016,30.762,41.016,68.359,0
213755.457,33.203,39.062,26.367,34.668,42.480,0
213755.461,38.574,39.551,20.996,41.016,48.340,0
213755.465,41.016,37.598,29.297,49.805,64.453,0
213755.469,39.551,34.668,38.086,37.109,65.430,0
213755.473,45.410,38.086,37.598,33.691,47.363,0
213755.477,41.992,36.133,34.668,34.180,67.383,0
213755.481,31.738,29.297,26.855,26.855,58.105,0
213755.485,27.344,32.715,20.996,27.344,40.039,0
213755.488,27.344,38.086,27.344,26.855,43.945,0
213755.492,33.691,41.992,34.668,33.691,36.133,0
213755.496,34.180,44.434,31.738,41.504,29.785,0
213755.500,27.832,40.039,21.484,26.367,-7.324,0
213755.504,38.086,40.039,26.367,31.250,-30.762,0
213755.508,46.875,40.039,32.715,50.293,-13.672,0
213755.512,37.598,30.762,27.344,39.551,9.277,0
213755.516,30.273,25.391,29.785,25.391,29.785,0
213755.520,25.879,24.902,34.180,23.926,9.277,0
213755.524,25.391,24.414,39.062,33.203,25.391,0
213755.527,28.320,28.320,35.156,35.156,56.641,0
213755.531,24.902,29.297,23.926,19.531,10.254,0
213755.535,20.996,29.785,24.902,21.973,-15.625,0
213755.539,17.578,27.344,31.250,31.250,-0.977,0
213755.543,11.719,20.996,35.645,24.414,26.367,0
213755.547,12.207,22.949,34.180,17.090,27.344,0
213755.551,16.113,27.832,32.715,14.648,17.578,0
213755.555,19.043,29.785,30.762,17.578,33.691,0
213755.559,20.020,27.832,30.273,20.508,17.090,0
213755.563,17.578,21.973,31.250,18.555,-0.488,0
213755.567,17.090,22.949,26.367,21.973,-4.883,0
213755.570,11.719,20.996,21.973,22.461,-18.066,0
213755.574,6.836,20.996,25.879,28.809,0.977,0
213755.578,6.348,25.879,29.297,26.855,17.090,0
213755.582,10.742,31.250,31.250,19.531,46.875,0
213755.586,18.555,36.621,31.250,24.902,41.504,0
213755.590,20.508,35.156,29.785,24.902,26.855,0
213755.594,26.367,36.133,27.344,19.531,42.480,0
213755.598,32.227,41.992,18.555,22.949,48.340,0
213755.602,33.203,43.457,15.625,24.414,46.875,0
213755.606,35.645,38.574,22.461,22.949,7.812,0
213755.610,31.738,34.180,28.320,23.926,22.949,0
213755.613,26.855,30.762,28.320,29.297,41.992,0
213755.617,30.762,28.320,23.926,36.133,17.578,0
213755.621,34.668,29.785,27.832,35.156,26.367,0
213755.625,33.691,34.180,37.598,33.203,5.859,0
213755.629,32.715,39.551,37.109,30.762,-3.906,0
213755.633,30.762,43.945,27.832,25.879,-22.461,0
213755.637,32.715,42.480,28.320,25.879,-37.109,0
213755.641,31.250,37.598,34.180,30.762,15.625,0
213755.645,29.785,34.180,33.691,31.738,39.551,0
213755.649,28.809,33.691,33.691,27.344,26.367,0
213755.652,27.344,32.227,32.715,26.367,19.043,0
213755.656,32.715,34.180,33.691,33.203,31.738,0
213755.660,34.668,38.574,34.668,39.062,79.590,0
213755.664,28.809,32.715,25.391,38.574,91.797,0
213755.668,18.555,23.438,20.508,23.438,62.012,0
213755.672,17.578,26.855,26.855,15.137,52.246,0
213755.676,21.973,34.180,35.645,25.391,67.871,0
213755.680,20.996,34.668,40.039,21.484,42.969,0
213755.684,17.578,31.250,37.109,13.184,7.324,0
213755.688,20.020,24.414,30.273,17.578,58.594,0
213755.692,22.949,27.832,24.414,23.438,82.031,0
213755.695,24.902,31.250,28.809,26.367,56.641,0
213755.699,25.879,27.832,29.785,31.738,22.461,0
213755.703,21.484,29.785,31.250,29.785,3.418,0
213755.707,20.020,28.809,36.621,18.555,18.555,0
213755.711,20.996,24.902,31.250,19.043,9.277,0
213755.715,21.973,23.438,22.461,20.020,-9.277,0
213755.719,29.785,20.508,30.762,18.066,-18.555,0
213755.723,34.668,25.879,35.645,28.320,12.207,0
213755.727,33.203,34.180,30.273,35.645,17.090,0
213755.731,37.109,32.715,25.879,35.156,16.602,0
213755.735,39.551,32.715,26.855,30.762,52.246,0
213755.738,28.809,32.715,31.250,29.785,26.367,0
213755.742,27.344,29.297,36.621,36.621,21.973,0
213755.746,34.180,32.227,44.434,31.250,56.641,0
213755.750,29.297,28.809,36.133,19.043,52.734,0
213755.754,23.438,22.949,24.414,19.531,72.266,0
213755.758,26.367,25.879,30.273,23.438,88.867,0
213755.762,29.297,29.297,34.668,18.066,63.477,0
213755.766,26.367,30.273,29.297,20.020,49.805,0
213755.770,24.414,32.715,22.949,28.320,65.918,0
213755.774,26.855,34.668,24.902,21.484,47.363,0
213755.777,30.273,31.738,34.668,23.926,55.664,1
213755.781,33.203,35.156,35.156,29.785,56.152,0
213755.785,34.180,41.016,32.227,30.273,10.254,0
213755.789,34.668,35.645,32.715,22.949,30.762,0
213755.793,34.668,30.273,28.320,18.555,20.996,0
213755.797,33.203,31.738,28.809,21.973,25.879,0
213755.801,31.738,36.621,32.715,26.855,52.246,0
213755.805,28.809,39.062,28.809,23.926,17.090,0
213755.809,29.785,38.086,35.645,19.043,0.000,0
213755.813,30.273,35.645,40.527,24.414,23.438,0
213755.817,26.367,31.738,30.273,25.391,1.953,0
213755.820,23.438,28.809,26.855,16.113,-29.785,0
213755.824,17.578,22.461,35.156,14.160,-0.977,0
213755.828,20.996,25.879,39.062,22.949,4.883,0
213755.832,26.855,36.621,37.598,24.902,26.367,0
213755.836,22.461,36.133,25.391,22.461,57.617,0
213755.840,18.555,30.762,15.137,23.926,47.852,0
213755.844,20.508,27.344,25.391,26.367,49.316,0
213755.848,21.973,28.809,36.621,25.879,57.129,0
213755.852,28.809,34.180,38.086,29.785,35.645,0
213755.856,36.133,37.109,29.785,32.227,44.434,0
213755.860,27.832,31.250,26.855,30.273,44.922,0
213755.863,21.973,27.344,30.273,25.879,71.289,0
213755.867,30.273,31.738,32.715,27.344,115.234,0
213755.871,34.180,35.645,30.762,31.250,93.750,0
213755.875,32.715,34.180,25.391,25.879,91.309,0
213755.879,40.039,29.785,30.273,34.180,109.375,0
213755.883,38.086,30.273,36.621,43.457,101.074,0
213755.887,25.879,32.227,34.668,32.715,61.523,0
213755.891,31.250,32.227,30.273,26.855,24.902,0
213755.895,42.969,35.156,29.297,41.504,2.930,0
213755.899,40.527,35.156,24.902,53.223,50.781,0
213755.902,34.668,33.203,20.020,43.457,87.402,0
213755.906,34.180,33.203,20.996,26.367,54.199,0
213755.910,35.156,34.180,28.320,17.578,39.551,0
213755.914,32.227,31.250,37.598,35.156,44.434,0
213755.918,41.016,27.832,36.621,51.758,64.453,0
213755.922,42.969,29.785,29.297,42.969,36.621,0
213755.926,14.648,25.879,21.973,16.602,34.180,0
213755.930,12.695,22.461,25.879,16.113,81.055,0
213755.934,27.344,30.762,29.297,30.273,63.965,0
213755.938,24.902,35.156,23.926,24.414,60.059,0
213755.942,30.273,37.109,20.996,32.227,48.340,0
213755.945,33.691,35.645,23.926,44.434,30.762,0
213755.949,28.809,30.273,26.367,39.551,45.898,0
213755.953,23.926,25.879,20.020,30.762,41.992,0
213755.957,23.926,27.344,22.461,38.574,11.719,0
213755.961,27.344,33.691,34.668,44.922,7.812,0
213755.965,20.996,33.691,32.227,35.645,25.879,0
213755.969,13.672,26.855,25.391,25.879,7.324,0
213755.973,11.719,23.438,26.855,20.508,33.691,0
213755.977,16.602,27.832,29.297,20.996,39.551,0
213755.981,26.855,34.668,29.297,28.809,28.320,0
213755.985,36.133,39.062,23.926,35.156,27.344,0
213755.988,35.645,34.668,24.414,32.227,47.852,0
213755.992,24.902,26.855,31.738,30.762,83.496,0
213755.996,21.973,24.902,33.691,31.738,87.891,0
213756.000,26.367,25.879,29.297,27.832,33.203,0
213756.004,32.715,33.203,20.020,22.461,6.348,0
213756.008,38.086,42.969,19.531,27.832,30.273,0
213756.012,35.645,40.527,29.785,25.391,10.742,0
213756.016,26.855,37.109,38.086,17.090,-0.977,0
213756.020,27.344,35.156,40.039,22.949,32.227,0
213756.024,35.156,33.691,40.039,35.156,36.621,0
213756.027,37.598,31.250,39.551,35.156,40.039,0
213756.031,30.273,25.879,30.273,27.344,41.504,0
213756.035,20.996,23.926,27.832,23.438,26.855,0
213756.039,19.531,32.227,34.180,25.879,19.043,0
213756.043,18.555,30.273,32.227,27.344,46.875,0
213756.047,14.648,23.438,23.438,22.461,41.016,0
213756.051,13.672,22.461,22.461,29.785,27.344,0
213756.055,23.926,24.414,32.227,21.484,15.625,0
213756.059,26.367,28.320,33.691,6.348,-0.977,0
213756.063,25.879,24.902,32.715,21.973,42.480,0
213756.067,33.691,24.414,37.598,35.156,40.039,0
213756.070,37.109,33.203,38.574,36.133,17.578,0
213756.074,36.133,36.133,28.320,39.551,12.207,0
213756.078,29.785,30.273,26.855,39.062,17.090,0
213756.082,21.484,26.855,34.180,29.785,22.461,0
213756.086,23.438,27.832,38.086,20.508,3.906,0
213756.090,23.926,32.227,38.086,22.949,18.066,0
213756.094,17.578,32.227,37.109,22.949,22.949,0
213756.098,23.438,32.227,35.156,25.879,19.531,0
213756.102,28.320,29.785,36.133,26.855,12.695,0
213756.106,30.762,31.250,33.691,21.484,9.766,0
213756.110,36.621,37.109,32.227,24.902,31.250,0
213756.113,32.227,37.598,28.320,24.902,3.906,0
213756.117,28.320,38.086,29.785,25.879,4.395,0
213756.121,29.297,35.156,34.668,34.180,8.301,0
213756.125,28.320,27.344,37.109,37.598,-14.160,0
213756.129,28.320,29.785,32.715,32.227,4.883,0
213756.133,29.785,34.668,24.414,29.297,35.156,0
213756.137,36.621,40.527,32.227,33.203,33.203,0
213756.141,41.504,43.945,39.551,41.992,54.199,0
213756.145,41.992,41.504,36.133,39.062,53.711,0
213756.149,40.527,42.480,37.109,27.832,-1.953,0
213756.152,43.457,44.434,38.574,42.969,42.480,0
213756.156,50.293,46.387,40.039,54.688,51.270,0
213756.160,49.316,46.387,38.574,40.039,22.461,0
213756.164,43.457,43.457,28.809,35.156,27.344,0
213756.168,40.527,37.109,25.879,40.527,21.973,0
213756.172,40.527,32.715,34.180,41.992,51.270,0
213756.176,40.527,32.715,37.598,39.551,35.645,0
213756.180,43.945,32.715,38.086,39.062,36.621,0
213756.184,45.410,39.551,40.527,43.945,40.527,0
213756.188,40.039,43.457,39.551,47.363,8.789,0
213756.192,35.156,40.527,38.574,39.551,-23.438,0
213756.195,40.039,41.504,36.621,32.715,-4.883,0
213756.199,45.410,43.945,29.785,39.062,6.348,0
213756.203,37.109,39.062,29.785,33.203,-30.273,0
213756.207,28.320,28.320,32.715,32.715,13.184,0
213756.211,27.344,23.926,28.809,35.645,53.223,0
213756.215,27.832,29.297,32.715,30.273,39.551,0
213756.219,29.785,34.668,31.250,33.691,25.879,0
213756.223,34.180,34.180,28.809,39.551,34.668,0
213756.227,29.785,26.367,33.691,33.691,7.324,0
213756.231,23.926,26.367,35.156,29.785,-7.324,0
213756.235,26.855,30.273,35.645,34.180,-7.812,0
213756.238,30.273,34.180,38.086,31.738,-13.672,0
213756.242,27.832,37.109,35.156,24.414,20.508,0
213756.246,20.020,31.250,27.832,18.066,14.160,0
213756.250,14.648,22.461,25.879,11.230,-20.020,0
213756.254,17.578,27.344,26.855,8.301,0.977,0
213756.258,19.043,30.762,26.855,11.719,22.461,0
213756.262,31.738,31.738,29.785,28.809,40.039,0
213756.266,43.945,35.645,35.645,41.504,45.898,0
213756.270,21.973,31.738,33.691,20.020,7.324,0
213756.274,2.930,30.762,31.738,10.254,14.648,0
213756.277,8.301,24.902,39.062,23.926,26.855,0
213756.281,11.230,19.531,41.504,21.973,-26.855,0
213756.285,7.812,29.785,39.062,11.230,-20.996,0
213756.289,5.371,32.227,34.668,9.766,35.645,0
213756.293,8.789,25.879,27.344,15.625,52.734,0
213756.297,16.113,29.297,27.344,20.996,10.254,0
213756.301,22.461,35.645,29.785,25.879,25.391,0
213756.305,28.320,37.109,29.297,27.832,39.551,0
213756.309,31.250,36.133,24.414,27.832,10.254,0
213756.313,33.203,35.645,25.391,32.227,7.324,0
213756.317,32.227,35.156,29.785,34.668,-6.836,0
213756.320,32.715,36.133,31.250,39.062,22.949,0
213756.324,37.109,33.203,32.227,45.410,16.602,0
213756.328,38.086,38.574,30.273,35.645,-45.898,0
213756.332,34.668,43.945,31.250,27.344,-10.742,0
213756.336,28.320,37.109,31.250,31.250,22.461,0
213756.340,23.438,30.273,25.391,21.973,9.766,0
213756.344,22.949,32.227,20.996,18.555,-1.953,0
213756.348,22.461,32.227,28.320,33.691,-5.371,1
213756.352,21.484,25.879,38.574,37.109,38.574,0
213756.356,24.414,29.785,40.039,28.320,22.949,0
213756.360,22.949,36.133,40.039,23.926,19.043,0
213756.363,20.508,28.809,38.574,27.344,53.711,0
213756.367,27.832,26.855,38.086,35.645,30.762,0
213756.371,31.738,29.297,33.691,33.203,-3.906,0
213756.375,33.691,30.762,31.738,24.902,13.184,0
213756.379,34.668,34.668,34.180,23.926,60.059,0
213756.383,30.273,34.180,39.062,32.227,40.039,0
213756.387,31.738,31.250,37.598,34.668,-12.207,0
213756.391,28.320,28.320,30.762,24.902,24.902,0
213756.395,23.926,25.879,31.250,17.578,66.406,0
213756.399,34.180,22.949,33.691,18.066,10.742,0
213756.402,40.039,24.902,35.156,8.789,-1.465,0
213756.406,34.668,20.508,33.691,5.371,31.250,0
213756.410,26.367,13.184,38.574,21.973,45.898,0
213756.414,25.391,20.996,39.551,23.926,57.617,0
213756.418,29.785,29.297,32.227,22.949,35.156,0
213756.422,31.250,29.785,35.156,31.250,25.879,0
213756.426,32.715,28.809,41.992,41.992,46.387,0
213756.430,35.156,29.785,40.527,45.410,29.785,0
213756.434,28.320,27.832,28.320,34.668,2.441,0
213756.438,22.949,23.926,26.367,32.715,14.648,0
213756.442,25.879,20.508,34.180,41.016,27.344,0
213756.445,22.949,19.531,33.691,27.832,32.227,0
213756.449,20.996,21.973,30.762,23.438,41.992,0
213756.453,24.414,24.902,33.203,28.320,28.809,0
213756.457,22.949,25.879,36.133,24.414,53.223,0
213756.461,26.367,27.832,40.039,23.438,44.434,0
213756.465,26.855,28.320,42.480,25.879,26.367,0
213756.469,27.344,28.320,38.574,34.668,48.828,0
213756.473,27.832,32.227,28.320,34.668,6.836,0
213756.477,21.484,30.762,24.414,19.531,1.465,0
213756.481,20.996,28.320,24.902,12.207,36.133,0
213756.485,23.926,27.832,20.996,18.066,55.176,0
213756.488,25.391,28.320,25.391,20.508,67.871,0
213756.492,24.902,32.715,32.227,22.949,65.918,0
213756.496,25.391,36.621,32.715,17.090,51.270,0
213756.500,32.715,37.598,33.691,18.555,26.367,0
213756.504,36.133,36.133,32.715,34.668,-13.184,0
213756.508,39.551,39.551,25.879,50.293,-16.113,0
213756.512,40.527,38.086,20.508,39.062,33.203,0
213756.516,34.180,25.391,24.414,18.555,42.969,0
213756.520,33.691,26.367,22.949,24.902,19.043,0
213756.524,38.086,36.621,19.043,30.762,26.367,0
213756.527,33.691,32.715,22.461,27.344,56.641,0
213756.531,24.414,29.785,23.926,25.391,62.012,0
213756.535,20.996,29.785,23.926,23.438,39.062,0
213756.539,22.949,27.344,27.344,24.414,59.082,0
213756.543,28.809,29.785,35.645,32.227,62.012,0
213756.547,30.273,30.273,36.621,32.227,69.336,0
213756.551,25.391,26.855,32.715,21.973,85.938,0
213756.555,24.414,20.508,33.691,25.879,27.832,0
213756.559,29.297,22.949,33.203,42.969,20.020,0
213756.563,32.715,33.203,34.180,43.457,60.547,0
213756.567,33.203,28.320,33.691,27.344,5.859,0
213756.570,32.227,19.531,35.156,24.414,-5.859,0
213756.574,28.320,21.484,42.969,33.203,47.363,0
213756.578,32.227,27.344,46.875,33.203,88.867,0
213756.582,38.086,30.273,40.527,31.250,99.609,0
213756.586,32.715,27.344,32.715,32.715,93.262,0
213756.590,27.832,24.902,29.297,39.062,87.891,0
213756.594,31.738,29.297,31.250,44.922,36.133,0
213756.598,35.645,38.574,34.668,34.668,9.766,0
213756.602,37.598,45.410,38.574,28.320,12.695,0
213756.606,35.645,37.109,30.762,29.297,24.902,0
213756.610,32.715,34.668,31.250,28.320,43.457,0
213756.613,38.574,43.457,39.062,29.785,31.738,0
213756.617,40.527,40.527,33.691,26.367,52.246,0
213756.621,32.715,31.738,23.926,26.367,20.020,0
213756.625,33.691,32.227,25.879,30.273,-22.949,0
213756.629,38.574,38.086,34.180,24.414,23.926,0
213756.633,36.621,44.434,31.738,20.020,59.082,0
213756.637,37.598,43.457,32.227,25.391,75.195,0
213756.641,39.062,40.039,33.691,30.762,80.566,0
213756.645,41.992,41.016,34.180,30.762,68.359,0
213756.649,44.922,44.434,39.062,33.203,36.133,0
213756.652,39.062,41.992,32.715,35.156,8.301,0
213756.656,32.715,34.668,22.949,22.949,7.812,0
213756.660,34.180,27.344,22.949,15.137,18.066,0
213756.664,33.691,25.391,24.414,21.973,54.688,0
213756.668,37.109,31.250,26.855,26.855,22.461,0
213756.672,37.598,26.367,29.785,26.367,-7.812,0
213756.676,28.320,21.973,33.203,26.855,48.340,0
213756.680,24.414,29.785,38.574,33.691,76.172,0
213756.684,24.414,34.180,37.109,42.969,37.109,0
213756.688,25.879,33.691,32.715,36.621,35.156,0
213756.692,27.344,32.715,33.691,28.320,67.871,0
213756.695,28.320,36.621,34.668,46.387,63.965,0
213756.699,29.785,41.016,36.133,47.363,38.086,0
213756.703,24.414,30.273,33.691,18.555,5.371,0
213756.707,13.672,20.996,32.715,10.742,6.836,0
213756.711,10.742,22.461,33.203,18.066,28.320,0
213756.715,15.137,22.949,36.133,23.926,31.250,0
213756.719,10.254,21.484,40.039,20.996,21.973,0
213756.723,11.719,18.066,36.621,20.996,39.551,0
213756.727,22.949,18.066,34.668,24.902,56.641,0
213756.731,28.809,26.367,40.527,24.414,61.035,0
213756.735,22.461,27.832,40.039,28.809,49.316,0
213756.738,13.672,20.508,34.668,37.598,47.363,0
213756.742,14.160,18.066,32.227,32.715,72.266,0
213756.746,20.508,18.555,30.273,30.762,66.406,0
213756.750,26.855,17.090,33.203,36.621,66.406,0
213756.754,31.738,20.996,39.062,37.598,76.172,0
213756.758,30.273,25.879,42.969,34.668,65.918,0
213756.762,26.855,30.762,35.156,23.926,45.410,0
213756.766,34.180,34.668,31.738,31.738,57.129,0
213756.770,40.039,33.203,33.203,40.527,98.633,0
213756.774,41.504,33.203,28.809,32.715,57.129,0
213756.777,43.945,31.738,31.738,29.785,32.715,0
213756.781,46.387,28.320,33.691,38.086,75.195,0
213756.785,44.434,27.832,30.762,41.992,79.590,0
213756.789,39.062,28.320,32.227,42.969,24.414,0
213756.793,39.062,33.691,34.668,49.805,9.277,0
213756.797,35.645,34.180,26.855,53.711,49.805,0
213756.801,29.297,31.738,21.973,41.504,71.289,0
213756.805,34.668,38.574,28.809,32.227,35.645,0
213756.809,40.039,42.480,33.691,31.738,15.137,0
213756.813,31.738,35.156,28.809,32.715,49.316,0
213756.817,26.367,30.273,23.926,30.273,62.500,0
213756.820,24.902,33.691,27.344,24.414,42.480,0
213756.824,24.902,31.738,27.832,26.367,33.203,0
213756.828,29.297,30.762,26.855,25.391,36.133,0
213756.832,33.203,38.086,27.832,23.926,22.461,0
213756.836,32.715,38.086,23.438,27.344,15.137,0
213756.840,28.320,27.344,20.996,34.668,32.715,0
213756.844,25.879,23.926,25.391,30.762,56.152,0
213756.848,28.809,29.297,28.809,31.250,92.285,0
213756.852,26.367,28.320,22.461,25.879,51.270,0
213756.856,15.625,21.484,23.926,15.137,8.789,0
213756.860,16.602,22.461,35.156,25.391,68.848,0
213756.863,23.926,27.832,35.645,35.645,71.777,0
213756.867,25.879,29.785,33.203,44.434,58.105,0
213756.871,26.855,24.902,37.598,44.922,69.336,0
213756.875,21.484,20.020,39.062,30.762,84.961,0
213756.879,17.578,20.508,40.039,26.367,71.289,0
213756.883,23.438,24.902,40.039,31.250,55.176,0
213756.887,26.855,27.344,34.668,31.738,55.664,0
213756.891,23.438,22.949,33.691,32.715,84.961,0
213756.895,17.578,21.484,37.598,33.203,79.102,0
213756.899,12.695,24.414,37.598,38.086,38.086,0
213756.902,16.113,24.414,37.109,36.133,36.621,0
213756.906,20.996,24.902,31.738,28.320,67.383,0
213756.910,23.926,29.297,21.484,26.855,67.871,1
213756.914,27.344,34.180,27.832,29.785,28.320,0
213756.918,29.785,34.180,38.574,38.086,66.406,0
213756.922,30.762,35.156,31.250,38.574,75.684,0
213756.926,28.320,34.668,21.973,20.508,47.363,0
213756.930,27.344,32.227,20.996,12.207,59.570,0
213756.934,28.320,29.297,23.926,20.508,26.367,0
213756.938,30.273,26.855,25.879,17.578,-9.277,0
213756.942,28.809,29.297,22.461,14.648,40.039,0
213756.945,29.785,37.109,20.508,23.438,55.664,0
213756.949,33.203,42.969,23.438,26.855,59.082,0
213756.953,41.504,45.410,31.738,32.715,67.383,0
213756.957,43.457,48.340,36.621,37.598,8.789,0
213756.961,33.203,45.410,30.273,21.973,1.465,0
213756.965,25.391,39.062,24.414,13.184,57.129,0
213756.969,22.461,39.062,27.832,13.672,34.180,0
213756.973,25.879,40.527,27.344,15.625,-8.301,0
213756.977,34.180,45.898,24.414,26.855,7.812,0
213756.981,36.133,46.387,32.715,31.250,8.789,0
213756.985,31.738,41.504,35.645,26.367,7.812,0
213756.988,26.855,41.016,29.785,20.020,-26.367,0
213756.992,29.785,41.992,30.762,27.832,-2.441,0
213756.996,32.715,42.969,30.273,33.691,38.086,0
213757.000,28.809,43.945,28.809,33.691,35.156,0
213757.004,28.809,42.480,35.645,41.504,28.320,0
213757.008,29.297,41.992,28.809,33.691,4.883,0
213757.012,12.695,37.598,16.602,15.137,-29.785,0
213757.016,8.789,37.109,21.484,6.348,-46.387,0
213757.020,21.484,42.480,29.297,16.602,23.926,0
213757.024,18.066,41.016,27.832,20.020,59.082,0
213757.027,16.113,41.504,23.438,22.461,35.645,0
213757.031,18.066,42.969,25.879,19.043,17.578,0
213757.035,16.113,37.598,32.715,12.207,10.742,0
213757.039,20.020,36.133,33.203,20.996,51.270,0
213757.043,20.508,37.109,32.227,25.879,66.895,0
213757.047,22.461,29.785,32.227,28.809,29.297,0
213757.051,24.414,27.344,24.902,31.250,15.137,0
213757.055,24.414,29.297,18.555,31.250,31.738,0
213757.059,23.438,24.414,27.344,30.273,39.551,0
213757.063,20.996,27.344,35.645,22.949,38.086,0
213757.067,22.949,36.133,29.785,25.879,33.203,0
213757.070,21.973,36.133,25.391,33.203,70.312,0
213757.074,23.926,33.203,28.320,28.809,52.246,0
213757.078,31.250,35.645,32.227,20.996,-0.488,0
213757.082,35.156,38.086,33.203,29.297,26.855,0
213757.086,36.133,38.086,28.809,38.086,50.781,0
213757.090,32.715,37.598,27.832,30.273,10.742,0
213757.094,27.832,33.203,31.250,22.949,12.207,0
213757.098,23.926,34.180,32.715,21.484,59.570,0
213757.102,28.320,38.086,36.133,23.438,66.406,0
213757.106,34.180,41.016,37.109,29.297,41.992,0
213757.110,27.832,40.527,35.645,23.926,35.645,0
213757.113,23.926,38.574,38.086,24.414,33.691,0
213757.117,24.414,37.598,33.691,23.926,11.719,0
213757.121,23.926,38.086,31.738,30.273,11.230,0
213757.125,26.367,38.086,32.227,40.039,9.277,0
213757.129,28.809,37.598,30.762,29.297,30.762,0
213757.133,31.250,41.992,34.668,24.414,28.320,0
213757.137,24.902,41.016,34.180,20.996,-0.488,0
213757.141,17.090,40.527,31.738,13.672,3.906,0
213757.145,22.461,38.574,32.227,19.531,40.527,0
213757.149,25.391,31.738,34.180,20.996,43.945,0
213757.152,18.555,28.320,29.297,13.184,34.668,0
213757.156,14.160,29.785,24.902,11.230,18.066,0
213757.160,18.066,33.203,22.461,18.066,24.414,0
213757.164,23.438,32.227,28.320,31.738,49.316,0
213757.168,23.926,29.297,41.992,21.484,29.785,0
213757.172,16.602,28.809,42.969,4.395,36.133,0
213757.176,15.137,32.227,36.133,10.742,58.105,0
213757.180,18.066,35.156,34.180,10.254,34.668,0
213757.184,15.625,34.668,27.344,0.977,13.184,0
213757.188,16.113,30.762,24.902,6.348,40.527,0
213757.192,16.602,29.785,26.367,13.672,45.410,0
213757.195,18.066,29.297,22.949,16.113,-1.465,0
213757.199,29.297,30.762,23.926,20.508,-1.953,0
213757.203,34.180,31.738,24.902,23.926,21.484,0
213757.207,34.668,31.250,26.367,24.902,9.766,0
213757.211,34.668,38.086,25.879,22.949,15.625,0
213757.215,27.832,36.621,21.973,22.461,48.340,0
213757.219,29.785,37.109,26.367,32.715,40.527,0
213757.223,36.133,46.875,32.715,39.551,4.883,0
213757.227,34.180,45.898,31.250,21.484,-31.738,0
213757.231,32.715,37.109,20.996,9.277,-14.648,0
213757.235,35.645,33.203,14.648,13.184,26.855,0
213757.238,34.180,33.203,20.020,16.602,22.949,0
213757.242,33.691,35.645,23.926,21.484,50.293,0
213757.246,36.621,38.086,30.273,35.156,60.059,0
213757.250,36.621,39.551,36.133,35.156,33.691,0
213757.254,33.691,36.621,34.668,25.391,41.992,0
213757.258,31.738,30.762,34.180,24.902,51.758,0
213757.262,31.738,26.855,31.250,30.273,55.176,0
213757.266,33.691,33.691,28.809,37.109,67.383,0
213757.270,32.227,41.504,22.949,23.926,12.207,0
213757.274,25.391,37.109,21.484,14.160,-39.551,0
213757.277,22.949,34.668,29.297,25.391,10.742,0
213757.281,28.809,35.645,32.227,32.715,22.949,0
213757.285,30.762,32.715,35.156,35.645,4.395,0
213757.289,29.297,32.715,38.574,43.945,14.648,0
213757.293,25.879,33.203,37.109,36.133,11.230,0
213757.297,27.832,32.715,33.691,32.715,20.020,0
213757.301,32.227,31.738,31.738,32.715,20.996,0
213757.305,30.273,29.297,25.879,29.297,13.184,0
213757.309,27.832,27.344,18.555,32.715,23.926,0
213757.313,20.508,24.902,21.484,22.461,15.625,0
213757.317,11.230,20.508,24.902,14.160,19.043,0
213757.320,12.695,19.531,29.297,18.555,7.324,0
213757.324,18.555,24.902,36.133,28.320,18.555,0
213757.328,23.438,30.273,38.574,34.180,23.926,0
213757.332,24.414,29.785,40.039,23.926,0.488,0
213757.336,22.949,27.832,37.598,15.137,2.930,0
213757.340,23.438,24.414,34.180,21.973,35.156,0
213757.344,23.926,21.484,27.832,20.020,68.848,0
213757.348,29.297,26.367,25.879,14.648,64.453,0
213757.352,29.785,25.879,26.367,18.066,14.648,0
213757.356,26.855,26.855,20.996,23.926,25.879,0
213757.360,31.738,33.203,23.438,22.461,68.848,0
213757.363,28.320,36.133,33.203,13.672,6.348,0
213757.367,21.484,32.715,35.645,14.648,25.879,0
213757.371,27.344,31.250,36.133,18.555,80.566,0
213757.375,26.855,30.273,32.715,15.625,31.738,0
213757.379,19.043,23.926,27.344,8.301,3.906,0
213757.383,16.602,25.879,24.414,10.254,18.066,0
213757.387,16.113,28.809,24.902,12.207,36.621,0
213757.391,21.484,27.832,27.832,14.160,37.598,0
213757.395,31.250,30.273,28.320,20.996,30.762,0
213757.399,33.691,35.156,24.902,23.926,32.227,0
213757.402,34.668,36.133,20.508,32.227,20.996,0
213757.406,41.504,35.156,26.855,37.109,-12.695,0
213757.410,38.086,35.645,30.273,24.902,7.324,0
213757.414,23.438,32.715,28.320,19.043,54.199,0
213757.418,17.090,31.738,28.809,14.160,22.461,0
213757.422,20.020,33.203,29.297,12.207,22.949,0
213757.426,23.926,31.738,30.762,18.066,37.109,0
213757.430,20.996,32.227,26.367,22.461,23.926,0
213757.434,23.438,36.621,20.996,14.160,23.438,0
213757.438,25.879,36.133,19.043,7.324,9.766,0
213757.442,23.438,39.551,25.879,16.113,24.902,0
213757.445,22.949,41.992,27.344,20.996,65.430,1
213757.449,23.926,38.086,26.367,24.902,52.246,0
213757.453,27.832,41.992,34.668,30.762,13.672,0
213757.457,26.367,43.945,35.156,25.879,-13.184,0
213757.461,21.973,34.668,31.250,21.484,-33.691,0
213757.465,17.090,27.832,24.414,25.879,-19.043,0
213757.469,18.555,25.879,20.996,27.832,54.688,0
213757.473,23.438,25.391,24.414,22.461,74.219,0
213757.477,25.391,25.391,26.855,20.996,43.945,0
213757.481,23.438,23.926,28.320,23.438,64.453,0
213757.485,25.879,28.320,29.785,29.785,49.805,0
213757.488,28.320,32.227,33.691,34.668,18.066,0
213757.492,22.949,32.715,33.691,21.484,44.434,0
213757.496,17.578,30.762,28.320,11.719,25.879,0
213757.500,14.160,27.344,31.738,17.090,33.691,0
213757.504,16.113,24.902,34.668,21.484,83.984,0
213757.508,23.438,27.344,34.668,28.320,47.363,0
213757.512,18.555,26.367,34.668,25.879,-6.836,0
213757.516,10.742,22.461,29.297,13.672,-6.348,0
213757.520,18.555,27.832,23.438,16.113,62.500,0
213757.524,20.508,32.227,25.391,20.508,76.172,0
213757.527,21.973,31.738,31.738,18.555,27.344,0
213757.531,26.367,29.785,29.297,18.066,23.438,0
213757.535,25.879,27.344,16.602,20.020,32.715,0
213757.539,27.344,25.391,20.020,17.578,44.922,0
213757.543,27.344,24.902,26.367,18.555,47.363,0
213757.547,27.832,29.785,27.344,25.391,30.273,0
213757.551,27.344,32.227,29.297,20.996,-10.254,0
213757.555,24.902,29.785,27.344,15.625,-25.391,0
213757.559,24.414,29.297,28.809,17.090,0.000,0
213757.563,30.762,35.156,34.668,28.809,4.395,0
213757.567,37.598,39.062,34.668,29.297,-15.625,0
213757.570,37.598,37.598,27.832,23.926,-16.113,0
213757.574,27.832,35.156,25.879,22.461,-9.277,0
213757.578,16.113,29.297,26.855,15.137,20.020,0
213757.582,22.461,30.762,27.832,20.996,32.227,0
213757.586,25.391,36.621,32.227,25.879,51.758,0
213757.590,22.949,36.133,34.180,20.508,13.672,0
213757.594,27.344,35.156,37.109,25.879,2.930,0
213757.598,28.809,39.551,37.109,40.527,44.922,0
213757.602,24.414,37.598,32.715,38.574,7.324,0
213757.606,18.555,31.250,26.855,34.668,30.273,0
213757.610,19.531,33.203,19.531,31.250,71.777,0
213757.613,22.461,38.086,28.320,18.066,29.297,0
213757.617,26.367,38.086,37.109,21.973,30.762,0
213757.621,29.297,38.086,31.250,25.879,39.062,0
213757.625,26.855,30.762,30.762,20.020,27.344,0
213757.629,22.949,21.973,33.203,20.996,21.484,0
213757.633,22.949,30.273,32.715,27.832,10.742,0
213757.637,27.344,37.598,33.691,31.250,17.578,0
213757.641,30.273,34.180,32.715,23.438,-7.812,0
213757.645,24.902,27.344,26.367,14.648,-41.504,0
213757.649,18.066,22.461,23.926,15.625,-4.883,0
213757.652,21.484,28.809,25.391,27.344,13.672,0
213757.656,24.902,32.715,26.367,32.715,-24.414,0
213757.660,24.902,29.297,31.250,18.555,-28.809,0
213757.664,23.926,27.832,28.320,12.695,-0.977,0
213757.668,18.066,22.949,23.926,21.484,-13.672,0
213757.672,18.066,20.508,26.367,25.391,5.371,0
213757.676,24.414,27.832,30.762,28.320,26.367,0
213757.680,28.809,30.762,28.809,30.273,13.672,0
213757.684,27.832,21.484,28.320,17.090,7.324,0
213757.688,22.461,20.996,27.832,11.719,7.812,0
213757.692,22.949,31.738,24.414,12.207,3.906,0
213757.695,28.809,34.180,30.273,18.555,28.320,0
213757.699,37.109,34.668,38.574,33.203,64.941,0
213757.703,41.016,35.645,39.062,35.156,43.945,0
213757.707,41.016,35.645,32.715,39.551,32.227,0
213757.711,40.039,38.086,36.133,47.363,41.992,0
213757.715,36.621,35.156,39.062,41.016,43.457,0
213757.719,37.598,32.227,32.715,35.156,38.574,0
213757.723,45.410,37.598,34.180,45.410,43.945,0
213757.727,46.387,40.527,37.598,50.781,41.992,0
213757.731,38.086,37.109,36.133,41.992,15.137,0
213757.735,40.039,35.645,35.645,42.480,-1.465,0
213757.738,47.363,36.133,35.645,41.504,-14.160,0
213757.742,47.852,34.180,33.691,38.086,-5.371,0
213757.746,46.387,34.668,27.832,36.621,9.766,0
213757.750,41.016,39.062,29.785,27.344,19.043,0
213757.754,40.039,42.969,36.133,32.227,43.457,0
213757.758,40.527,43.945,36.133,39.551,51.758,0
213757.762,39.062,42.480,28.320,35.156,49.316,0
213757.766,42.480,40.039,27.344,31.250,45.410,0
213757.770,39.551,37.109,35.156,27.344,42.969,0
213757.774,36.621,39.062,41.992,29.297,48.340,0
213757.777,38.574,38.086,41.992,35.645,45.410,0
213757.781,38.086,31.250,39.551,32.715,51.270,0
213757.785,35.645,30.762,37.109,33.691,32.227,0
213757.789,34.668,25.391,33.691,37.598,46.387,0
213757.793,30.762,18.066,26.855,34.668,75.195,0
213757.797,31.738,23.926,25.879,35.645,73.242,0
213757.801,35.645,31.250,33.691,38.574,69.824,0
213757.805,38.574,29.297,36.621,43.457,89.844,0
213757.809,35.156,27.344,33.203,36.621,95.215,0
213757.813,24.902,30.273,30.762,29.785,56.641,0
213757.817,20.020,27.832,27.344,29.297,25.879,0
213757.820,15.625,26.855,29.785,25.879,21.484,0
213757.824,11.230,25.391,37.109,17.578,-2.441,0
213757.828,12.695,26.367,34.668,10.742,-22.461,0
213757.832,13.672,26.855,30.762,23.438,-11.230,0
213757.836,18.555,20.996,32.715,36.621,3.906,0
213757.840,23.926,21.484,34.180,35.156,-12.695,0
213757.844,20.020,27.344,36.621,25.391,-24.414,0
213757.848,18.066,31.738,34.180,20.508,-6.348,0
213757.852,21.973,41.016,32.715,25.391,16.602,0
213757.856,23.438,43.945,33.203,26.855,58.105,0
213757.860,28.320,40.527,35.156,25.391,44.434,0
213757.863,31.250,39.551,31.738,28.809,21.484,0
213757.867,24.414,38.574,25.879,30.762,49.316,0
213757.871,21.973,35.156,28.809,31.250,49.805,0
213757.875,24.414,30.273,31.250,26.855,32.227,0
213757.879,30.273,31.738,29.297,23.438,24.902,0
213757.883,28.809,38.086,26.855,29.785,33.203,0
213757.887,24.902,43.457,23.438,26.367,-18.555,0
213757.891,24.902,40.039,22.949,27.344,-4.883,0
213757.895,21.484,31.250,24.414,33.203,71.777,0
213757.899,23.926,32.715,28.809,24.414,26.855,0
213757.902,25.391,34.668,33.691,20.996,2.930,0
213757.906,19.531,31.738,31.250,19.043,39.551,0
213757.910,17.090,33.203,25.391,15.137,23.926,0
213757.914,16.602,30.273,30.273,13.184,6.348,0
213757.918,13.672,29.785,34.180,13.672,7.812,0
213757.922,15.137,32.227,31.738,19.043,8.301,0
213757.926,17.090,28.809,28.809,20.020,-5.371,0
213757.930,16.113,31.250,23.438,23.926,-27.344,0
213757.934,22.949,34.180,22.949,32.227,-4.395,0
213757.938,31.738,33.203,30.762,49.316,55.664,0
213757.942,21.484,29.785,35.156,34.668,53.711,0
213757.945,7.812,19.043,35.156,7.812,10.742,0
213757.949,12.207,15.625,36.621,13.184,6.836,0
213757.953,15.137,21.973,38.574,18.555,10.254,0
213757.957,14.648,25.391,41.016,20.020,4.883,0
213757.961,20.020,22.949,41.504,23.438,16.113,0
213757.965,22.949,20.996,36.621,24.902,41.016,0
213757.969,24.414,27.832,33.691,29.297,42.480,0
213757.973,22.949,26.855,25.879,27.832,29.785,0
213757.977,24.414,27.344,20.020,21.973,5.859,0
213757.981,28.320,31.250,27.832,30.762,26.367,0
213757.985,31.738,29.297,32.227,41.504,45.898,0
213757.988,33.203,28.809,32.227,30.762,45.898,0
213757.992,27.344,27.832,32.715,35.156,54.688,0
213757.996,25.391,21.484,31.738,44.434,72.266,0
213758.000,28.809,19.531,31.250,23.438,47.363,0
213758.004,25.879,28.320,27.344,17.578,15.137,0
213758.008,22.461,34.668,31.250,20.996,10.742,0
213758.012,23.926,33.691,33.203,22.461,-15.625,0
213758.016,29.297,36.621,29.297,29.785,-22.461,1
213758.020,34.668,37.598,27.344,28.320,-5.859,0
213758.024,28.320,28.320,27.344,20.996,-27.344,0
213758.027,24.902,27.344,34.180,31.738,4.883,0
213758.031,32.227,36.133,38.086,39.551,32.715,0
213758.035,35.156,38.086,37.598,31.250,9.766,0
213758.039,31.250,37.598,32.715,23.926,18.066,0
213758.043,33.691,36.621,27.832,31.250,62.012,0
213758.047,36.133,32.227,32.227,36.133,82.031,0
213758.051,30.273,32.227,36.133,26.855,54.688,0
213758.055,32.715,36.621,30.762,28.809,39.551,0
213758.059,36.621,41.016,25.879,27.344,30.273,0
213758.063,29.297,43.945,29.785,23.438,3.906,0
213758.067,26.367,40.527,30.273,22.461,-9.277,0
213758.070,23.926,38.574,23.926,20.996,20.508,0
213758.074,26.367,38.574,18.555,28.320,24.414,0
213758.078,33.691,38.086,21.973,29.297,-15.137,0
213758.082,29.785,37.109,30.273,20.508,-15.137,0
213758.086,21.973,33.203,31.738,13.672,23.926,0
213758.090,19.531,32.715,30.762,14.648,39.551,0
213758.094,19.531,34.180,30.762,15.625,35.156,0
213758.098,21.484,27.344,30.273,18.555,31.250,0
213758.102,24.902,24.414,33.691,34.668,60.059,0
213758.106,22.461,27.832,32.227,37.109,68.848,0
213758.110,22.949,29.785,25.879,27.832,41.992,0
213758.113,26.855,29.785,27.832,20.508,24.902,0
213758.117,26.367,28.809,35.645,29.297,11.230,0
213758.121,30.273,29.297,34.668,37.598,18.066,0
213758.125,33.203,27.832,31.738,27.344,4.883,0
213758.129,31.250,29.297,28.809,22.949,0.977,0
213758.133,37.598,26.855,22.461,31.250,26.855,0
213758.137,35.156,21.484,26.855,30.762,49.316,0
213758.141,32.227,28.320,32.715,34.668,72.266,0
213758.145,40.039,36.133,28.809,41.016,8.789,0
213758.149,39.062,30.762,31.738,36.133,-9.766,0
213758.152,37.598,27.344,36.621,39.062,52.246,0
213758.156,36.621,32.715,36.621,35.156,29.785,0
213758.160,29.785,35.156,35.156,27.832,37.598,0
213758.164,27.344,34.668,24.414,29.785,77.148,0
213758.168,31.738,38.574,17.090,35.156,26.855,0
213758.172,29.785,33.691,29.785,35.645,-7.324,0
213758.176,27.832,25.391,36.133,27.344,30.273,0
213758.180,30.762,33.691,30.273,29.297,65.430,0
213758.184,25.391,41.992,25.391,31.250,46.875,0
213758.188,20.996,38.086,24.902,20.020,2.930,0
213758.192,22.461,32.715,27.832,22.949,16.602,0
213758.195,23.926,35.156,29.785,43.945,69.336,0
213758.199,21.973,32.715,24.414,36.621,55.664,0
213758.203,20.508,23.438,24.902,19.531,37.598,0
213758.207,23.438,22.461,32.715,29.297,52.246,0
213758.211,24.902,26.855,30.762,39.551,30.273,0
213758.215,22.949,34.180,31.250,34.668,20.020,0
213758.219,25.391,39.062,34.180,27.832,37.598,0
213758.223,26.367,39.551,32.715,33.691,25.391,0
213758.227,25.391,36.133,29.785,34.668,20.020,0
213758.231,25.879,32.227,26.367,29.297,57.617,0
213758.235,27.344,33.691,22.949,28.809,55.664,0
213758.238,31.250,32.715,24.902,29.297,40.039,0
213758.242,30.762,30.762,31.250,33.203,54.688,0
213758.246,25.391,33.691,34.668,30.762,34.668,0
213758.250,24.902,29.297,28.320,24.902,10.254,0
213758.254,26.367,27.832,27.344,33.203,35.156,0
213758.258,21.973,33.691,30.273,29.785,72.754,0
213758.262,23.438,34.668,25.391,11.719,38.086,0
213758.266,26.367,33.203,24.902,15.625,5.371,0
213758.270,25.879,32.715,31.250,32.227,16.113,0
213758.274,22.461,27.344,30.762,25.391,43.457,0
213758.277,19.043,24.414,28.320,14.160,66.406,0
213758.281,15.625,25.879,32.715,15.625,63.477,0
213758.285,18.555,27.344,35.645,25.391,68.359,0
213758.289,25.391,27.832,38.086,28.809,37.598,0
213758.293,23.438,29.297,33.691,22.949,35.645,0
213758.297,21.484,25.391,29.785,27.832,89.355,0
213758.301,23.926,23.438,28.320,36.133,105.957,0
213758.305,28.809,29.785,28.809,31.738,71.289,0
213758.309,26.855,34.180,35.156,14.648,13.672,0
213758.313,27.344,32.715,40.527,17.578,-4.395,0
213758.317,36.621,31.250,35.645,32.715,34.180,0
213758.320,32.227,34.668,27.344,33.691,41.016,0
213758.324,22.949,35.156,33.691,32.715,45.410,0
213758.328,28.809,34.668,31.738,35.156,51.270,0
213758.332,38.086,37.109,23.438,34.668,41.504,0
213758.336,34.668,38.086,27.832,32.715,20.996,0
213758.340,26.855,34.180,29.785,29.297,21.973,0
213758.344,26.855,31.250,31.738,28.320,45.410,0
213758.348,27.344,37.598,35.156,31.738,17.578,0
213758.352,28.809,34.180,31.250,29.785,12.695,0
213758.356,33.203,23.438,25.879,20.020,19.531,0
213758.360,35.645,25.391,28.320,22.461,49.316,0
213758.363,36.621,32.715,35.645,36.621,78.125,0
213758.367,37.598,37.109,38.086,37.598,10.742,0
213758.371,38.086,37.109,32.227,33.691,-20.508,0
213758.375,34.180,36.621,25.391,30.762,10.742,0
213758.379,26.367,34.668,23.438,30.273,38.086,0
213758.383,26.367,33.203,26.367,34.668,35.645,0
213758.387,31.738,32.227,29.297,30.762,-6.836,0
213758.391,28.809,25.879,31.250,25.879,-7.324,0
213758.395,29.785,28.809,38.574,27.832,0.977,0
213758.399,29.785,34.668,40.039,24.414,-64.941,0
213758.402,20.508,30.273,36.621,24.902,-34.668,0
213758.406,20.508,26.855,30.273,28.809,46.875,0
213758.410,24.414,33.203,13.184,27.832,21.484,0
213758.414,23.926,40.527,8.301,29.297,34.180,0
213758.418,23.438,39.062,21.973,31.250,90.820,0
213758.422,24.902,33.691,26.367,29.785,70.801,0
213758.426,31.738,33.203,24.414,25.391,46.875,0
213758.430,35.645,40.527,28.809,24.414,28.320,0
213758.434,36.133,40.527,33.203,27.344,18.555,0
213758.438,37.598,34.668,31.738,28.320,36.133,0
213758.442,37.109,34.180,25.879,23.438,12.207,0
213758.445,39.062,33.203,22.949,20.508,-21.484,0
213758.449,35.156,25.879,25.879,31.738,40.039,0
213758.453,31.250,25.879,26.855,39.551,74.219,0
213758.457,36.133,34.180,31.250,32.715,41.016,0
213758.461,32.715,35.645,38.086,25.391,40.527,0
213758.465,28.809,34.668,29.297,22.461,25.879,0
213758.469,28.809,38.574,22.949,24.902,18.066,0
213758.473,27.832,41.504,30.273,32.715,39.551,0
213758.477,27.344,38.086,26.855,38.574,31.250,0
213758.481,24.414,31.738,20.508,40.527,23.438,0
213758.485,20.508,28.809,23.926,32.227,13.672,0
213758.488,24.902,33.691,32.715,26.367,-3.906,0
213758.492,32.227,37.109,38.086,33.691,13.672,0
213758.496,30.273,31.738,39.062,30.273,55.176,0
213758.500,29.297,31.738,38.574,24.902,39.062,0
213758.504,27.832,39.062,36.133,28.320,12.207,0
213758.508,23.438,38.574,28.809,26.855,33.691,0
213758.512,22.949,32.227,28.809,27.344,48.340,0
213758.516,23.438,26.367,28.320,27.832,42.969,0
213758.520,28.809,29.297,29.297,29.297,52.246,0
213758.524,28.809,33.203,32.227,29.785,103.027,0
213758.527,29.785,33.691,27.832,33.203,116.211,0
213758.531,35.645,35.645,26.855,30.273,86.914,0
213758.535,35.645,34.180,30.273,32.227,73.242,0
213758.539,37.598,36.621,36.621,46.387,100.586,0
213758.543,37.109,37.598,37.109,41.992,103.516,0
213758.547,36.621,36.133,39.062,27.832,99.609,0
213758.551,40.039,36.133,38.086,22.949,102.051,0
213758.555,34.180,36.133,24.902,28.320,76.172,1
213758.559,23.926,34.668,20.508,23.438,56.152,0
213758.563,21.484,33.691,28.809,14.648,49.316,0
213758.567,24.414,33.203,29.785,18.066,39.062,0
213758.570,22.461,30.762,29.297,27.832,43.457,0
213758.574,25.391,34.180,32.227,27.832,9.277,0
213758.578,29.297,39.551,37.109,19.531,-25.879,0
213758.582,22.949,33.691,41.016,23.438,13.184,0
213758.586,23.438,29.785,41.992,30.762,45.898,0
213758.590,27.832,34.180,38.574,26.367,21.973,0
213758.594,27.832,33.203,32.715,20.020,-13.184,0
213758.598,26.367,23.438,27.344,15.137,-6.348,0
213758.602,21.973,23.438,24.902,12.695,58.594,0
213758.606,23.438,32.715,30.273,11.719,66.895,0
213758.610,29.297,33.691,36.133,19.043,22.949,0
213758.613,29.297,33.203,36.133,21.973,15.137,0
213758.617,26.367,34.180,34.180,20.508,8.789,0
213758.621,30.273,35.645,32.715,19.531,10.742,0
213758.625,36.133,40.039,28.320,20.996,20.996,0
213758.629,35.156,41.504,28.320,35.645,2.441,0
213758.633,28.809,32.715,28.320,31.738,-17.090,0
213758.637,23.438,27.832,22.949,11.719,-25.391,0
213758.641,24.902,30.762,23.438,18.555,-4.883,0
213758.645,22.461,30.273,27.344,32.227,18.066,0
213758.649,20.020,28.320,26.367,29.297,-2.441,0
213758.652,26.367,29.785,29.297,29.297,30.273,0
213758.656,31.738,32.715,31.250,32.227,57.129,0
213758.660,31.738,34.668,30.762,24.414,39.062,0
213758.664,25.879,35.645,30.762,20.996,62.988,0
213758.668,21.484,34.180,27.344,26.367,65.918,0
213758.672,25.391,37.598,34.180,34.668,55.664,0
213758.676,27.832,39.062,39.062,32.227,45.410,0
213758.680,21.973,31.250,31.250,15.137,-3.418,0
213758.684,18.555,26.855,29.785,7.324,-16.602,0
213758.688,19.531,29.785,37.109,16.602,5.859,0
213758.692,18.066,30.762,31.250,23.926,24.902,0
213758.695,23.926,34.668,26.855,33.203,50.781,0
213758.699,25.879,32.227,29.297,32.227,46.875,0
213758.703,21.973,26.367,28.809,27.832,15.137,0
213758.707,20.020,28.320,36.133,30.273,30.273,0
213758.711,24.414,35.156,42.480,27.344,54.688,0
213758.715,28.809,41.992,41.992,29.785,48.340,0
213758.719,21.973,32.227,35.645,32.227,55.664,0
213758.723,13.184,21.484,26.367,26.855,51.270,0
213758.727,12.207,21.973,20.020,21.973,25.391,0
213758.731,13.672,23.438,23.926,20.020,19.531,0
213758.735,15.625,24.414,36.621,25.391,52.246,0
213758.738,23.926,26.855,39.062,28.809,42.969,0
213758.742,25.391,30.762,38.574,14.648,-0.488,0
213758.746,22.949,32.227,42.969,15.137,21.484,0
213758.750,29.297,36.621,39.062,24.902,38.574,0
213758.754,35.156,38.574,34.180,31.250,23.926,0
213758.758,36.621,35.645,33.203,38.086,4.395,0
213758.762,37.598,36.621,27.832,37.598,2.441,0
213758.766,34.668,35.645,20.996,34.668,17.578,0
213758.770,32.227,30.762,21.973,32.227,-56.152,0
213758.774,28.809,24.414,24.902,26.855,-85.938,0
213758.777,22.949,23.438,23.438,25.391,4.883,0
213758.781,26.367,32.715,27.344,28.809,-11.719,0
213758.785,31.250,36.133,30.273,30.762,-40.527,0
213758.789,33.203,31.250,33.691,26.855,16.602,0
213758.793,31.738,29.785,32.715,27.832,41.504,0
213758.797,29.785,31.250,28.320,26.367,-8.789,0
213758.801,27.344,32.227,31.738,25.391,0.977,0
213758.805,27.832,37.109,34.180,31.250,18.066,0
213758.809,31.738,40.527,25.879,38.574,0.977,0
213758.813,29.785,36.621,21.973,46.875,33.203,0
213758.817,31.738,31.250,22.949,40.039,20.020,0
213758.820,31.250,28.809,25.391,28.320,-9.766,0
213758.824,26.367,26.367,28.320,31.250,12.695,0
213758.828,25.879,23.926,27.344,36.133,28.809,0
213758.832,25.879,24.414,33.691,34.668,29.297,0
213758.836,23.438,22.461,38.086,24.902,48.340,0
213758.840,23.438,24.414,38.086,26.367,63.965,0
213758.844,27.344,34.180,38.086,37.598,43.457,0
213758.848,27.832,33.691,34.668,38.574,31.738,0
213758.852,29.785,28.320,34.668,33.203,58.105,0
213758.856,33.691,29.297,33.691,34.180,31.738,0
213758.860,29.297,26.367,23.438,33.691,5.371,0
213758.863,27.832,24.902,28.320,34.180,-9.277,0
213758.867,31.738,29.297,39.062,41.016,18.066,0
213758.871,31.250,32.227,35.645,39.062,24.414,0
213758.875,27.344,28.320,33.203,27.832,6.836,0
213758.879,21.973,25.391,30.762,24.414,28.320,0
213758.883,19.043,30.762,25.391,19.043,48.828,0
213758.887,22.949,35.156,25.879,21.973,58.105,0
213758.891,29.297,37.109,34.180,30.273,74.219,0
213758.895,30.762,39.551,29.297,32.715,62.012,0
213758.899,33.691,38.574,22.949,35.645,19.043,0
213758.902,33.203,29.297,28.320,27.832,-38.086,0
213758.906,30.762,26.855,29.297,21.973,-55.664,0
213758.910,32.715,32.715,31.738,23.438,-14.160,0
213758.914,30.762,31.250,36.133,25.879,3.418,0
213758.918,23.926,26.855,33.203,32.227,-6.836,0
213758.922,20.996,21.484,32.715,37.598,1.953,0
213758.926,25.879,25.879,36.621,34.180,52.734,0
213758.930,25.879,30.762,31.250,25.879,87.402,0
213758.934,28.320,31.250,25.391,31.250,54.199,0
213758.938,36.133,40.039,22.949,38.574,39.062,0
213758.942,33.203,43.945,30.273,29.785,79.102,0
213758.945,25.391,36.133,40.527,23.926,90.332,0
213758.949,24.414,30.762,41.016,25.879,57.129,0
213758.953,20.508,28.320,36.133,15.625,8.301,0
213758.957,18.066,26.855,35.156,18.066,39.062,0
213758.961,24.414,27.832,34.180,34.668,62.500,0
213758.965,22.949,22.949,32.227,32.227,24.902,0
213758.969,28.320,19.531,33.203,20.508,32.227,0
213758.973,35.645,25.879,30.762,17.090,42.480,0
213758.977,26.367,29.297,26.855,23.438,51.758,0
213758.981,25.391,32.715,27.832,21.973,74.219,0
213758.985,34.668,38.574,27.344,19.043,50.781,0
213758.988,34.180,39.062,27.832,20.020,19.043,0
213758.992,37.109,35.156,30.762,26.855,-18.066,0
213758.996,33.691,32.227,27.832,25.879,0.000,0
213759.000,23.438,26.367,24.414,19.043,13.184,0
213759.004,23.926,25.879,28.320,26.367,45.898,0
213759.008,23.926,32.715,33.203,25.879,65.918,0
213759.012,23.926,33.691,33.691,20.508,55.176,0
213759.016,25.391,31.250,31.250,22.461,80.078,0
213759.020,26.855,32.227,28.809,38.086,76.172,0
213759.024,29.297,35.156,32.715,49.805,43.457,0
213759.027,27.832,34.668,38.086,27.832,58.105,0
213759.031,25.391,31.250,38.086,14.160,93.750,0
213759.035,17.090,28.320,33.203,20.996,88.379,0
213759.039,10.742,23.926,29.785,20.020,59.082,0
213759.043,12.695,24.902,26.855,19.531,27.832,0
213759.047,14.160,31.250,26.855,22.461,40.527,0
213759.051,16.602,31.250,32.227,24.902,62.012,0
213759.055,19.043,28.320,34.180,24.414,19.043,0
213759.059,21.484,33.203,29.785,19.531,-2.930,0
213759.063,31.250,37.109,31.738,23.926,51.270,0
213759.067,36.621,35.156,34.180,31.738,70.312,0
213759.070,34.668,29.297,32.227,32.227,69.824,0
213759.074,35.645,20.508,33.691,30.273,50.293,0
213759.078,35.156,18.066,36.133,26.367,43.945,0
213759.082,33.203,27.344,34.668,24.902,67.383,0
213759.086,37.598,36.133,41.992,30.762,59.082,0
213759.090,36.133,34.180,43.457,29.297,31.250,0
213759.094,29.785,28.320,29.785,26.855,25.391,0
213759.098,30.273,28.320,28.320,27.344,38.086,0
213759.102,26.367,31.250,37.598,21.973,41.992,0
213759.106,22.949,26.855,44.434,26.855,18.555,0
213759.110,24.414,24.902,41.016,32.227,23.438,0
213759.113,26.855,26.855,28.809,20.020,28.809,0
213759.117,30.762,22.461,20.020,15.137,-5.859,0
213759.121,25.391,20.508,22.949,18.555,8.301,0
213759.125,18.066,27.344,33.203,21.484,9.277,0
213759.129,21.484,32.227,34.180,19.531,-14.648,0
213759.133,24.414,30.762,29.297,14.160,-14.160,0
213759.137,26.855,31.738,29.297,22.949,16.602,0
213759.141,27.832,37.109,30.273,28.320,63.477,0
213759.145,23.926,36.133,30.273,26.367,75.195,0
213759.149,19.531,27.832,24.414,23.926,45.898,0
213759.152,18.066,22.461,22.949,27.344,54.688,0
213759.156,25.879,24.902,26.367,31.738,60.547,0
213759.160,28.320,30.273,30.273,30.273,62.500,0
213759.164,16.602,31.250,22.949,18.066,17.090,0
213759.168,16.113,33.691,19.531,12.695,-18.555,0
213759.172,25.879,35.156,21.484,23.438,5.859,0
213759.176,28.320,35.156,20.020,28.809,-9.277,0
213759.180,29.297,35.645,21.973,30.762,-20.508,0
213759.184,32.715,32.227,24.414,35.156,5.371,0
213759.188,35.645,30.762,25.879,36.133,5.371,0
213759.192,36.133,27.344,23.438,23.926,-7.812,0
213759.195,32.715,18.066,18.555,15.137,15.625,0
213759.199,31.250,19.043,27.832,18.555,49.316,0
213759.203,33.203,26.855,30.762,21.973,52.734,0
213759.207,29.785,28.320,24.414,35.645,70.801,0
213759.211,26.367,27.344,28.809,39.551,58.105,0
213759.215,27.832,33.691,40.527,29.785,9.277,0
213759.219,30.273,35.645,41.992,27.344,40.527,0
213759.223,24.414,26.855,33.691,24.414,63.477,0
213759.227,18.066,23.926,28.320,20.996,40.527,0
213759.231,19.043,24.902,24.414,28.320,42.480,0
213759.235,22.461,30.762,22.949,31.250,14.648,0
213759.238,19.531,27.832,28.320,15.137,6.836,0
213759.242,17.090,21.484,30.762,8.789,29.297,0
213759.246,18.555,28.320,29.297,17.578,27.832,0
213759.250,21.973,34.668,34.668,21.484,17.090,0
213759.254,25.879,34.668,39.551,26.367,8.789,0
213759.258,29.297,33.203,35.645,30.273,47.852,0
213759.262,28.320,29.785,27.832,34.180,53.711,0
213759.266,29.785,29.785,25.879,37.109,41.016,0
213759.270,31.250,28.320,22.949,36.133,53.223,0
213759.274,33.691,30.762,28.809,36.621,55.176,0
213759.277,38.574,33.203,36.621,35.156,62.012,0
213759.281,41.992,33.203,35.156,31.738,31.250,1
213759.285,45.898,37.598,33.691,38.574,11.719,0
213759.289,40.527,30.762,36.621,38.574,32.227,0
213759.293,33.691,23.926,36.621,22.461,22.949,0
213759.297,34.668,30.273,32.715,23.438,0.000,0
213759.301,30.762,31.250,34.180,29.785,-5.371,0
213759.305,26.855,30.273,38.574,28.320,36.133,0
213759.309,29.785,32.715,35.645,27.832,8.301,0
213759.313,30.273,34.180,36.133,28.320,-32.227,0
213759.317,26.855,28.809,39.062,33.691,24.902,0
213759.320,27.344,27.344,38.086,38.574,52.734,0
213759.324,31.738,35.156,36.621,29.297,0.977,0
213759.328,29.785,37.598,37.109,16.113,-0.977,0
213759.332,23.926,31.250,34.180,10.742,44.434,0
213759.336,24.414,26.367,28.320,16.113,26.367,0
213759.340,30.762,31.738,29.297,18.555,-11.719,0
213759.344,35.156,41.992,32.715,15.137,-16.602,0
213759.348,36.133,42.480,31.738,19.043,27.832,0
213759.352,35.156,41.992,33.691,26.367,37.109,0
213759.356,33.203,42.969,31.250,28.320,30.762,0
213759.360,31.738,37.598,21.484,31.250,53.223,0
213759.363,30.762,37.598,30.273,41.992,28.320,0
213759.367,28.320,35.645,38.574,41.504,-26.367,0
213759.371,23.926,28.809,36.621,25.391,-4.395,0
213759.375,23.926,31.250,36.621,25.879,65.430,0
213759.379,29.785,35.156,33.203,36.133,62.500,0
213759.383,25.879,32.227,28.320,36.133,57.617,0
213759.387,25.879,26.367,33.691,30.762,11.230,0
213759.391,31.738,26.855,41.504,32.715,9.766,0
213759.395,32.715,32.715,38.574,40.039,33.691,0
213759.399,29.785,34.180,27.344,35.156,15.625,0
213759.402,30.762,33.203,24.414,33.691,24.414,0
213759.406,35.645,36.133,30.273,40.527,18.066,0
