timestamps,TP9,AF7,AF8,TP10,Right AUX,Marker0
159258.658,-20.020,-20.020,-46.387,-5.859,0.000,0
159258.662,-17.578,-22.949,-41.992,-6.348,0.000,0
159258.666,-18.066,-25.391,-24.902,-16.113,0.000,0
159258.670,-15.137,-26.855,-36.133,-4.883,0.000,0
159258.674,-23.438,-28.320,-44.922,1.465,0.000,0
159258.678,-41.504,-25.879,-32.227,-23.438,0.000,0
159258.681,-51.270,-24.414,-30.273,-37.598,0.000,0
159258.685,-41.016,-30.273,-41.992,-47.852,0.000,0
159258.689,-30.762,-30.273,-29.785,-45.410,0.000,0
159258.693,-27.344,-28.320,-3.906,-25.879,0.000,0
159258.697,-20.996,-30.273,-22.949,-21.973,0.000,0
159258.701,-19.531,-25.879,-38.086,-24.414,0.000,0
159258.705,-24.414,-26.855,-10.254,-33.203,0.000,0
159258.709,-22.949,-22.949,0.977,-33.691,0.000,0
159258.713,-16.113,-17.090,-23.926,-19.043,0.000,0
159258.717,-20.508,-22.949,-35.156,-32.715,0.000,0
159258.721,-35.645,-25.391,-34.668,-36.621,0.000,0
159258.724,-38.574,-25.879,-25.391,-25.879,0.000,0
159258.728,-24.414,-24.414,-31.738,-33.203,0.000,0
159258.732,-21.484,-14.648,-49.316,-26.855,0.000,0
159258.736,-30.273,-13.184,-27.344,-15.137,0.000,0
159258.740,-34.668,-18.066,-17.090,-20.508,0.000,0
159258.744,-28.809,-22.461,-20.508,-34.180,0.000,0
159258.748,-21.973,-24.902,-12.695,-25.391,0.000,0
159258.752,-16.113,-20.996,-20.508,-20.508,0.000,0
159258.756,-20.508,-21.484,-11.719,-28.809,0.000,0
159258.760,-26.367,-22.461,-33.691,-17.090,0.000,0
159258.763,-24.414,-20.996,-36.621,-24.902,0.000,0
159258.767,-32.715,-23.926,-15.137,-40.039,0.000,0
159258.771,-31.250,-20.996,-22.461,-30.273,0.000,0
159258.775,-18.066,-22.461,-39.062,-21.973,0.000,0
159258.779,-14.648,-27.344,-43.945,-20.508,0.000,0
159258.783,-22.461,-26.367,-13.184,-30.273,0.000,0
159258.787,-19.043,-25.879,-13.184,-42.480,0.000,0
159258.791,-12.207,-26.367,-36.133,-32.227,0.000,0
159258.795,-17.090,-25.391,-26.367,-25.391,0.000,0
159258.799,-21.973,-25.879,-33.691,-22.949,0.000,0
159258.803,-17.090,-30.762,-35.645,-27.344,0.000,0
159258.806,-18.066,-28.809,-18.555,-33.203,0.000,0
159258.810,-13.672,-22.461,-21.484,-13.672,0.000,0
159258.814,-7.324,-25.391,-24.414,-9.766,0.000,0
159258.818,-7.812,-21.484,-30.762,-17.578,0.000,0
159258.822,-4.883,-21.973,-38.574,-6.836,0.000,0
159258.826,-9.277,-23.438,-10.254,-16.602,0.000,0
159258.830,-14.160,-21.973,-6.348,-28.320,0.000,0
159258.834,-12.207,-20.996,-41.016,-23.438,0.000,0
159258.838,-18.555,-15.137,-41.992,-20.996,0.000,0
159258.842,-25.391,-20.020,-21.484,-25.879,0.000,0
159258.846,-22.949,-22.949,-9.277,-21.973,0.000,0
159258.849,-20.020,-16.602,-33.203,-11.719,0.000,0
159258.853,-22.461,-19.043,-37.109,-12.207,0.000,0
159258.857,-31.250,-28.320,-20.996,-14.160,0.000,0
159258.861,-32.715,-26.855,-35.156,-16.602,0.000,0
159258.865,-23.438,-23.438,-30.273,-24.902,0.000,0
159258.869,-27.344,-22.461,-23.926,-27.832,0.000,0
159258.873,-33.203,-20.020,-20.020,-13.184,0.000,0
159258.877,-20.508,-16.602,-28.809,-9.277,0.000,0
159258.881,-11.230,-20.996,-35.645,-14.160,0.000,0
159258.885,-11.230,-18.066,-14.160,-15.625,0.000,0
159258.888,-12.207,-14.648,-22.461,-17.578,0.000,0
159258.892,-13.672,-14.160,-39.062,-19.531,0.000,0
159258.896,-14.648,-8.301,-29.785,-15.625,0.000,0
159258.900,-22.949,-17.090,-25.391,-6.836,0.000,0
159258.904,-23.438,-21.484,-17.578,-26.855,0.000,0
159258.908,-19.531,-25.879,-19.043,-28.320,0.000,0
159258.912,-26.367,-24.902,-27.344,-13.672,0.000,0
159258.916,-28.809,-15.137,-25.391,-16.113,0.000,0
159258.920,-24.902,-23.926,-29.297,-20.508,0.000,0
159258.924,-16.602,-26.855,-29.785,-24.902,0.000,0
159258.928,-12.695,-19.531,-23.926,-21.484,0.000,0
159258.931,-12.207,-23.438,-23.438,-16.113,0.000,0
159258.935,-16.602,-23.438,-31.738,-14.160,0.000,0
159258.939,-18.555,-20.508,-32.715,-5.859,0.000,0
159258.943,-16.113,-21.973,-10.254,-13.672,0.000,0
159258.947,-20.020,-20.508,-17.090,-19.043,0.000,0
159258.951,-13.184,-20.508,-47.852,-8.301,0.000,0
159258.955,-15.625,-23.926,-48.340,-13.672,0.000,0
159258.959,-22.949,-27.344,-28.320,-13.184,0.000,0
159258.963,-27.832,-25.879,1.953,-17.578,0.000,0
159258.967,-28.809,-23.926,-19.043,-21.973,0.000,0
159258.971,-18.066,-27.832,-56.152,-20.020,0.000,0
159258.974,-19.043,-30.273,-38.086,-15.137,0.000,0
159258.978,-26.855,-28.809,-26.855,-5.859,0.000,0
159258.982,-23.438,-28.320,-23.438,-15.137,0.000,0
159258.986,-22.949,-23.926,-29.785,-14.160,0.000,0
159258.990,-27.344,-20.996,-29.785,-6.836,0.000,0
159258.994,-31.250,-20.508,-24.414,-12.207,0.000,0
159258.998,-29.297,-19.043,-33.691,-10.254,0.000,0
159259.002,-18.555,-20.996,-25.879,-23.926,0.000,0
159259.006,-22.461,-22.461,-21.973,-40.527,0.000,0
159259.010,-25.391,-17.090,-24.902,-29.785,0.000,0
159259.013,-11.719,-14.648,-29.297,-16.602,0.000,0
159259.017,-15.137,-19.531,-54.199,-21.484,0.000,0
159259.021,-21.484,-22.461,-14.160,-24.902,0.000,0
159259.025,-0.488,-17.578,7.812,-2.930,0.000,0
159259.029,0.000,-14.648,-29.297,-10.742,0.000,0
159259.033,-27.344,-15.625,-27.344,-34.668,0.000,0
159259.037,-32.227,-11.230,-25.879,-27.832,0.000,0
159259.041,-25.391,-11.230,-13.672,-24.902,0.000,0
159259.045,-19.531,-11.230,-7.324,-34.668,0.000,0
159259.049,-27.344,-8.789,-18.066,-32.715,0.000,0
159259.053,-43.457,-13.184,-23.438,-29.297,0.000,0
159259.056,-33.691,-11.719,-29.785,-21.973,0.000,0
159259.060,-21.484,-13.184,-22.949,-22.461,0.000,0
159259.064,-22.949,-12.695,2.930,-34.180,0.000,0
159259.068,-24.414,-5.371,-1.465,-32.227,0.000,0
159259.072,-22.461,-9.766,-23.438,-17.578,0.000,0
159259.076,-24.414,-15.625,-31.250,-8.301,0.000,0
159259.080,-29.297,-17.090,-13.672,-17.578,0.000,0
159259.084,-24.902,-18.066,-8.789,-34.180,0.000,0
159259.088,-13.672,-11.230,-26.367,-21.484,0.000,0
159259.092,-16.113,-9.766,-18.555,-11.230,0.000,0
159259.096,-12.695,-9.766,-14.648,-13.672,0.000,0
159259.099,-11.230,-8.789,-18.555,-20.020,0.000,0
159259.103,-14.648,-7.812,-26.855,-35.645,0.000,0
159259.107,-3.906,-7.324,-27.832,-39.062,0.000,0
159259.111,-9.766,-8.789,-2.441,-28.809,0.000,0
159259.115,-17.090,-8.301,-4.883,-18.555,0.000,0
159259.119,-15.137,-7.324,-22.949,-32.227,0.000,0
159259.123,-18.066,-10.254,-6.348,-41.016,0.000,0
159259.127,-9.277,-7.324,-8.301,-10.742,0.000,0
159259.131,-2.441,-6.836,-22.461,-14.160,0.000,0
159259.135,-8.789,-5.859,-36.621,-23.926,0.000,0
159259.138,-17.090,-10.254,-26.367,-25.391,0.000,0
159259.142,-16.113,-12.207,-3.906,-35.645,0.000,0
159259.146,-15.625,-5.371,-6.836,-29.785,0.000,0
159259.150,-21.484,-6.836,-32.715,-26.855,0.000,0
159259.154,-21.973,-13.184,-48.340,-23.926,0.000,0
159259.158,-30.273,-17.578,-16.602,-32.227,0.000,0
159259.162,-23.438,-18.066,-14.648,-37.598,0.000,0
159259.166,-15.625,-13.672,-31.738,-31.250,0.000,0
159259.170,-21.484,-12.207,-24.902,-30.273,0.000,0
159259.174,-14.160,-7.324,-26.367,-20.020,0.000,0
159259.178,-16.113,-2.930,-18.555,-25.391,0.000,0
159259.181,-25.391,-9.766,-16.113,-38.086,0.000,0
159259.185,-23.926,-12.207,-10.254,-44.434,0.000,0
159259.189,-24.902,-14.648,-24.414,-34.180,0.000,0
159259.193,-25.391,-17.090,-43.945,-16.602,0.000,0
159259.197,-14.648,-5.859,-35.156,-22.949,0.000,0
159259.201,-9.766,-2.441,-18.066,-29.297,0.000,0
159259.205,-24.414,-8.789,-20.020,-23.926,0.000,0
159259.209,-22.949,-9.277,-38.086,-27.832,0.000,0
159259.213,-10.254,-10.742,-28.809,-24.902,0.000,0
159259.217,-9.766,-15.625,-22.461,-23.438,0.000,0
159259.221,-19.531,-11.230,-15.137,-36.133,0.000,0
159259.224,-26.367,-13.672,-20.020,-36.133,0.000,0
159259.228,-22.461,-12.207,-24.902,-22.461,0.000,0
159259.232,-16.602,-6.348,-27.832,-15.137,0.000,0
159259.236,-18.555,-11.719,-26.367,-20.020,0.000,0
159259.240,-16.113,-15.137,-9.766,-31.250,0.000,0
159259.244,-19.531,-7.812,-9.766,-31.250,0.000,0
159259.248,-20.020,-10.742,-19.531,-27.344,0.000,0
159259.252,-13.184,-16.602,-39.551,-16.113,0.000,0
159259.256,-8.789,-12.207,-29.785,-11.230,0.000,0
159259.260,-5.371,-5.859,-3.906,-19.043,0.000,0
159259.263,-7.812,-9.766,-24.902,-17.090,0.000,0
159259.267,-9.766,-20.996,-36.133,-12.207,0.000,0
159259.271,-13.672,-15.625,-22.949,-2.930,0.000,0
159259.275,-7.324,-12.695,-17.578,-5.859,0.000,0
159259.279,-8.301,-16.113,-17.090,-26.855,0.000,0
159259.283,-22.461,-13.672,-32.227,-31.738,0.000,0
159259.287,-24.902,-15.625,-23.926,-22.461,0.000,0
159259.291,-17.090,-15.137,-11.719,-8.789,0.000,0
159259.295,-13.184,-15.625,-21.973,-10.742,0.000,0
159259.299,-12.695,-14.160,-14.160,-9.766,0.000,0
159259.303,-19.531,-13.672,-11.719,-7.324,0.000,0
159259.306,-19.043,-23.438,-25.879,-11.719,0.000,0
159259.310,-20.020,-21.484,-29.785,-11.719,0.000,0
159259.314,-29.785,-18.066,-21.973,-18.066,0.000,0
159259.318,-20.020,-21.973,-14.648,-24.902,0.000,0
159259.322,-15.625,-21.973,-17.090,-20.996,0.000,0
159259.326,-21.484,-26.367,-18.066,-15.625,0.000,0
159259.330,-19.043,-21.973,-21.973,-3.906,0.000,0
159259.334,-11.230,-16.602,-17.578,-6.348,0.000,0
159259.338,-5.371,-12.207,2.930,-7.812,0.000,0
159259.342,-8.301,-11.719,-16.602,7.324,0.000,0
159259.346,-8.301,-14.648,-40.527,7.324,0.000,0
159259.349,-13.672,-12.695,-25.879,-4.395,0.000,0
159259.353,-21.484,-15.625,-8.789,-14.648,0.000,0
159259.357,-16.113,-20.508,-0.488,-28.320,0.000,0
159259.361,-22.949,-12.207,-6.836,-35.156,0.000,0
159259.365,-28.809,-10.254,-20.508,-25.879,0.000,0
159259.369,-27.344,-15.625,-27.832,-20.508,0.000,0
159259.373,-29.297,-15.625,-26.367,-27.344,0.000,0
159259.377,-23.438,-12.207,-17.578,-26.367,0.000,0
159259.381,-26.855,-11.230,-18.066,-14.160,0.000,0
159259.385,-22.461,-5.859,-31.250,-13.184,0.000,0
159259.388,-12.695,-8.301,-36.621,-17.090,0.000,0
159259.392,-19.043,-10.742,-20.996,-20.020,0.000,0
159259.396,-20.508,-12.207,14.160,-21.973,0.000,0
159259.400,-18.066,-13.184,-9.277,-25.391,0.000,0
159259.404,-17.090,-15.625,-31.250,-24.414,0.000,0
159259.408,-8.789,-17.090,-18.555,-10.254,0.000,0
159259.412,-5.859,-15.137,-17.578,-6.836,0.000,0
159259.416,-18.555,-17.090,-12.695,-30.273,0.000,0
159259.420,-26.855,-20.020,-24.414,-35.156,0.000,0
159259.424,-25.391,-20.996,-30.273,-26.855,0.000,0
159259.428,-27.832,-20.020,-20.996,-22.461,0.000,0
159259.431,-23.926,-22.461,-43.457,-17.090,0.000,0
159259.435,-13.184,-29.297,-39.062,-27.344,0.000,0
159259.439,-23.926,-20.508,-9.277,-24.414,0.000,0
159259.443,-32.227,-14.648,-7.812,-16.602,0.000,0
159259.447,-21.484,-22.461,-35.645,-28.320,0.000,0
159259.451,-28.809,-26.367,-40.527,-29.785,0.000,0
159259.455,-30.762,-21.973,-7.324,-28.320,0.000,0
159259.459,-29.297,-23.926,-21.484,-32.715,0.000,0
159259.463,-35.645,-25.879,-39.062,-31.250,0.000,0
159259.467,-28.809,-20.020,-30.273,-13.184,0.000,0
159259.471,-26.855,-17.578,-28.320,-9.766,0.000,0
159259.474,-30.273,-23.438,-27.832,-26.855,0.000,0
159259.478,-35.156,-25.391,-27.832,-27.344,0.000,0
159259.482,-38.574,-23.926,-36.621,-26.855,0.000,0
159259.486,-28.320,-23.438,-22.949,-25.879,0.000,0
159259.490,-16.113,-27.832,-33.203,-21.973,0.000,0
159259.494,-21.484,-26.855,-36.133,-34.668,0.000,0
159259.498,-26.367,-22.949,-26.367,-39.551,0.000,0
159259.502,-25.879,-21.484,-33.691,-32.227,0.000,0
159259.506,-24.414,-17.578,-38.574,-21.484,0.000,0
159259.510,-27.344,-18.555,-38.574,-16.602,0.000,0
159259.513,-20.996,-17.090,-25.391,-20.020,0.000,0
159259.517,-18.555,-19.531,-29.297,-21.484,0.000,0
159259.521,-29.297,-26.367,-38.574,-20.508,0.000,0
159259.525,-21.973,-20.020,-37.598,-19.043,0.000,0
159259.529,-23.438,-20.996,-29.785,-12.207,0.000,0
159259.533,-28.320,-25.391,-21.484,-13.184,0.000,0
159259.537,-22.949,-24.414,-27.832,-28.809,0.000,0
159259.541,-21.484,-21.973,-36.133,-23.438,0.000,0
159259.545,-21.484,-16.602,-38.574,-7.324,0.000,0
159259.549,-22.461,-20.020,-38.574,-10.742,0.000,0
159259.553,-22.949,-21.484,-39.062,-17.578,0.000,0
159259.556,-19.043,-15.137,-38.574,-12.207,0.000,0
159259.560,-19.043,-16.602,-27.344,-11.719,0.000,0
159259.564,-28.809,-22.949,-25.391,-23.926,0.000,0
159259.568,-33.203,-21.484,-36.133,-18.066,0.000,0
159259.572,-25.391,-20.020,-41.504,-12.695,0.000,0
159259.576,-27.344,-22.949,-20.996,-24.902,0.000,0
159259.580,-27.344,-22.461,-33.691,-18.555,0.000,0
159259.584,-20.508,-19.043,-47.852,-7.812,0.000,0
159259.588,-22.949,-20.020,-29.785,-9.766,0.000,0
159259.592,-21.484,-23.926,-25.879,-14.648,0.000,0
159259.596,-24.902,-22.461,-20.508,-18.555,0.000,0
159259.599,-31.738,-19.043,-38.086,-20.508,0.000,0
159259.603,-28.320,-20.020,-43.945,-25.879,0.000,0
159259.607,-26.367,-26.855,-32.227,-15.625,0.000,0
159259.611,-27.832,-25.879,-32.715,-20.508,0.000,0
159259.615,-26.855,-19.531,-22.461,-38.086,0.000,0
159259.619,-30.273,-17.090,-21.973,-23.926,0.000,0
159259.623,-36.621,-19.531,-23.926,-13.672,0.000,0
159259.627,-27.344,-19.043,-33.203,-30.273,0.000,0
159259.631,-32.715,-19.531,-27.344,-41.016,0.000,0
159259.635,-30.273,-22.461,-17.090,-42.480,0.000,0
159259.638,-17.090,-20.508,-25.879,-35.156,0.000,0
159259.642,-21.973,-17.578,-26.367,-26.855,0.000,0
159259.646,-21.484,-17.578,-28.809,-19.043,0.000,0
159259.650,-25.879,-22.949,-30.273,-32.227,0.000,0
159259.654,-21.484,-20.508,-19.531,-33.203,0.000,0
159259.658,-14.160,-18.555,-22.949,-8.301,0.000,0
159259.662,-19.043,-24.414,-30.273,-3.906,0.000,0
159259.666,-22.949,-20.020,-20.020,-9.277,0.000,0
159259.670,-8.789,-14.648,-18.066,-6.348,0.000,0
159259.674,-3.418,-16.602,-16.602,-18.066,0.000,0
159259.678,-11.719,-17.578,-22.461,-20.508,0.000,0
159259.681,-10.742,-20.020,-32.715,-16.113,0.000,0
159259.685,-13.672,-24.414,-39.551,-14.160,0.000,0
159259.689,-17.090,-21.484,-19.531,-14.648,0.000,0
159259.693,-16.113,-24.414,-17.090,-23.438,0.000,0
159259.697,-14.648,-27.344,-35.645,-20.508,0.000,0
159259.701,-11.230,-28.320,-40.527,-18.066,0.000,0
159259.705,-17.090,-25.879,-32.227,-12.695,0.000,0
159259.709,-23.438,-25.879,-18.555,-17.578,0.000,0
159259.713,-28.320,-31.738,-5.859,-39.062,0.000,0
159259.717,-33.203,-25.391,-32.227,-42.480,0.000,0
159259.721,-25.391,-18.066,-49.805,-24.902,0.000,0
159259.724,-19.043,-19.043,-28.809,-14.648,0.000,0
159259.728,-20.020,-22.949,-17.578,-22.461,0.000,0
159259.732,-19.043,-24.414,-13.672,-37.598,0.000,0
159259.736,-19.043,-22.461,-19.531,-33.203,0.000,0
159259.740,-21.973,-22.461,-22.461,-28.809,0.000,0
159259.744,-21.484,-24.902,-29.297,-26.367,0.000,0
159259.748,-20.020,-21.484,-37.598,-13.184,0.000,0
159259.752,-23.926,-14.648,-17.578,-28.809,0.000,0
159259.756,-32.715,-19.531,-22.461,-29.297,0.000,0
159259.760,-28.320,-25.391,-48.340,-14.160,0.000,0
159259.763,-25.879,-23.926,-45.898,-20.020,0.000,0
159259.767,-26.367,-20.020,-32.715,-17.090,0.000,0
159259.771,-31.738,-27.832,-0.977,-25.391,0.000,0
159259.775,-27.344,-22.949,-18.066,-23.438,0.000,0
159259.779,-16.113,-19.531,-47.852,-23.438,0.000,0
159259.783,-31.738,-24.902,-42.969,-28.320,0.000,0
159259.787,-37.109,-22.949,-24.902,-30.762,0.000,0
159259.791,-26.367,-21.484,-13.672,-32.715,0.000,0
159259.795,-23.926,-24.414,-44.434,-18.066,0.000,0
159259.799,-27.344,-23.926,-41.504,-14.648,0.000,0
159259.803,-25.879,-17.090,-23.926,-6.836,0.000,0
159259.806,-20.508,-14.160,-26.855,-10.254,0.000,0
159259.810,-24.414,-17.090,-27.832,-28.320,0.000,0
159259.814,-22.949,-22.461,-20.508,-25.879,0.000,0
159259.818,-21.973,-22.949,-26.367,-23.926,0.000,0
159259.822,-27.832,-18.555,-43.457,-18.066,0.000,0
159259.826,-24.414,-18.555,-29.785,-20.508,0.000,0
159259.830,-32.227,-15.625,-14.648,-32.227,0.000,0
159259.834,-25.391,-8.789,-39.062,-17.090,0.000,0
159259.838,-11.719,-12.695,-52.246,-16.602,0.000,0
159259.842,-20.996,-13.672,-23.926,-16.113,0.000,0
159259.846,-24.414,-11.719,-11.719,-0.488,0.000,0
159259.849,-21.973,-17.090,-18.066,-21.484,0.000,0
159259.853,-23.438,-17.090,-23.926,-36.621,0.000,0
159259.857,-30.762,-14.648,-23.438,-26.367,0.000,0
159259.861,-33.691,-19.043,-25.879,-25.391,0.000,0
159259.865,-24.902,-18.066,-40.039,-28.809,0.000,0
159259.869,-28.320,-14.648,-25.391,-30.762,0.000,0
159259.873,-26.855,-14.648,-25.391,-24.902,0.000,0
159259.877,-18.066,-13.672,-35.156,-23.438,0.000,0
159259.881,-25.391,-14.648,-36.621,-34.180,0.000,0
159259.885,-24.902,-19.043,-35.156,-35.156,0.000,0
159259.888,-24.414,-18.066,-24.414,-39.062,0.000,0
159259.892,-31.250,-14.160,-25.391,-41.504,0.000,0
159259.896,-30.273,-14.160,-40.039,-36.133,0.000,0
159259.900,-23.438,-15.625,-41.504,-29.297,0.000,0
159259.904,-26.367,-18.555,-23.926,-21.484,0.000,0
159259.908,-22.461,-22.461,-22.949,-28.809,0.000,0
159259.912,-8.789,-18.066,-40.527,-34.180,0.000,0
159259.916,-22.461,-20.020,-35.645,-30.762,0.000,0
159259.920,-30.762,-20.020,-25.391,-17.578,0.000,0
159259.924,-20.508,-15.137,-38.574,-11.719,0.000,0
159259.928,-22.949,-16.602,-35.156,-35.156,0.000,0
159259.931,-19.531,-17.090,-24.414,-35.645,0.000,0
159259.935,-12.695,-15.625,-32.715,-17.578,0.000,0
159259.939,-17.578,-13.672,-35.645,-18.066,0.000,0
159259.943,-26.855,-11.230,-23.926,-26.367,0.000,0
159259.947,-21.484,-12.695,-9.766,-37.109,0.000,0
159259.951,-25.879,-16.113,-23.438,-47.852,0.000,0
159259.955,-29.785,-18.555,-42.480,-45.410,0.000,0
159259.959,-35.645,-18.066,-38.574,-42.480,0.000,0
159259.963,-40.039,-17.090,-41.992,-31.738,0.000,0
159259.967,-31.250,-19.043,-27.344,-30.273,0.000,0
159259.971,-28.320,-17.090,-27.344,-33.691,0.000,0
159259.974,-28.809,-10.254,-35.645,-25.391,0.000,0
159259.978,-31.738,-10.254,-33.203,-26.367,0.000,0
159259.982,-22.461,-11.230,-34.180,-25.879,0.000,0
159259.986,-14.160,-7.324,-13.184,-32.227,0.000,0
159259.990,-24.414,-10.254,-9.766,-41.016,0.000,0
159259.994,-28.809,-13.672,-10.742,-33.203,0.000,0
159259.998,-20.020,-16.113,-25.391,-20.020,0.000,0
159260.002,-16.113,-16.113,-30.273,-18.066,0.000,0
159260.006,-26.367,-8.301,-7.812,-18.555,0.000,0
159260.010,-25.391,-7.324,-24.414,-6.348,0.000,0
159260.013,-14.160,-8.789,-48.828,-3.418,0.000,0
159260.017,-15.137,-12.207,-48.828,-12.695,0.000,0
159260.021,-13.672,-14.648,-20.996,-7.812,0.000,0
159260.025,-14.648,-22.949,0.488,-18.555,0.000,0
159260.029,-23.438,-28.320,-22.949,-37.598,0.000,0
159260.033,-26.855,-24.902,-30.273,-21.484,0.000,0
159260.037,-20.508,-21.973,-20.508,-8.301,0.000,0
159260.041,-18.555,-20.996,-29.785,-17.578,0.000,0
159260.045,-25.391,-20.996,-24.414,-29.785,0.000,0
159260.049,-26.855,-20.020,-27.832,-29.785,0.000,0
159260.053,-24.414,-21.484,-38.086,-23.438,0.000,0
159260.056,-30.273,-26.367,-33.203,-33.203,0.000,0
159260.060,-25.391,-28.320,-37.598,-31.250,0.000,0
159260.064,-23.438,-26.367,-28.809,-37.109,0.000,0
159260.068,-31.738,-20.508,-19.043,-43.945,0.000,0
159260.072,-23.438,-14.648,-31.738,-25.879,0.000,0
159260.076,-11.719,-14.648,-48.828,-24.902,0.000,0
159260.080,-17.578,-18.555,-47.363,-33.691,0.000,0
159260.084,-26.855,-22.461,-25.391,-23.926,0.000,0
159260.088,-29.297,-29.785,-28.809,-28.809,0.000,0
159260.092,-29.785,-31.250,-49.805,-49.316,0.000,0
159260.096,-30.273,-23.438,-40.527,-40.527,0.000,0
159260.099,-33.203,-22.461,-24.902,-28.320,0.000,0
159260.103,-25.391,-25.391,-19.531,-39.062,0.000,0
159260.107,-19.043,-23.438,-28.809,-35.156,0.000,0
159260.111,-22.949,-21.973,-38.574,-19.043,0.000,0
159260.115,-19.531,-21.484,-34.668,-16.602,0.000,0
159260.119,-15.137,-24.414,-33.203,-14.160,0.000,0
159260.123,-24.414,-25.391,-15.137,-35.645,0.000,0
159260.127,-28.809,-24.902,-20.020,-39.062,0.000,0
159260.131,-27.832,-25.391,-29.785,-27.344,0.000,0
159260.135,-22.461,-21.484,-34.180,-18.066,0.000,0
159260.138,-11.719,-16.602,-42.480,-2.930,0.000,0
159260.142,-18.066,-21.973,-7.324,-15.137,0.000,0
159260.146,-12.695,-18.066,-20.996,-17.090,0.000,0
159260.150,-2.930,-14.160,-41.504,0.977,0.000,0
159260.154,-5.371,-20.020,-30.762,-0.488,0.000,0
159260.158,-6.348,-21.484,-34.668,1.465,0.000,0
159260.162,-13.672,-24.902,-31.250,-10.254,0.000,0
159260.166,-20.508,-25.879,-31.250,-36.133,0.000,0
159260.170,-24.902,-26.855,-27.832,-33.203,0.000,0
159260.174,-16.113,-25.879,-25.879,-10.742,0.000,0
159260.178,-15.625,-20.508,-35.645,-13.672,0.000,0
159260.181,-25.879,-20.508,-34.180,-25.879,0.000,0
159260.185,-23.926,-22.949,-17.578,-29.785,0.000,0
159260.189,-21.484,-23.926,-8.789,-35.645,0.000,0
159260.193,-17.578,-21.484,-45.410,-27.344,0.000,0
159260.197,-14.160,-23.926,-52.734,-18.555,0.000,0
159260.201,-21.973,-23.926,-16.113,-28.320,0.000,0
159260.205,-16.113,-17.578,9.766,-40.527,0.000,0
159260.209,-8.789,-11.719,-24.414,-22.461,0.000,0
159260.213,-17.090,-17.578,-48.828,-11.230,0.000,0
159260.217,-27.344,-22.461,-25.391,-20.020,0.000,0
159260.221,-27.344,-20.996,-18.555,-22.461,0.000,0
159260.224,-29.785,-22.949,-26.855,-18.066,0.000,0
159260.228,-31.738,-21.973,-37.598,-23.438,0.000,0
159260.232,-27.344,-20.996,-22.461,-26.855,0.000,0
159260.236,-18.066,-19.531,-24.414,-23.438,0.000,0
159260.240,-21.484,-19.043,-25.879,-23.438,0.000,0
159260.244,-29.785,-17.090,-14.160,-32.715,0.000,0
159260.248,-21.973,-15.625,-25.879,-25.391,0.000,0
159260.252,-21.484,-20.508,-33.203,-17.090,0.000,0
159260.256,-20.508,-27.832,-34.668,-19.531,0.000,0
159260.260,-27.832,-31.738,-28.809,-27.832,0.000,0
159260.263,-34.180,-20.508,-25.391,-38.086,0.000,0
159260.267,-24.902,-17.090,-32.715,-30.273,0.000,0
159260.271,-26.367,-18.066,-24.414,-28.320,0.000,0
159260.275,-30.762,-17.090,-21.484,-20.996,0.000,0
159260.279,-24.902,-18.555,-22.949,-18.066,0.000,0
159260.283,-14.160,-21.484,-30.273,-34.180,0.000,0
159260.287,-20.508,-27.344,-38.086,-25.879,0.000,0
159260.291,-29.785,-26.855,-33.203,-20.020,0.000,0
159260.295,-31.738,-23.438,-41.992,-31.738,0.000,0
159260.299,-33.203,-26.855,-43.457,-33.203,0.000,0
159260.303,-30.273,-30.762,-32.227,-42.969,0.000,0
159260.306,-31.738,-30.273,-23.438,-50.293,0.000,0
159260.310,-27.832,-27.344,-42.969,-34.180,0.000,0
159260.314,-22.461,-24.414,-63.477,-16.602,0.000,0
159260.318,-28.320,-22.461,-27.832,-19.531,0.000,0
159260.322,-39.551,-18.066,-2.441,-34.180,0.000,0
159260.326,-32.715,-16.602,-31.250,-27.344,0.000,0
159260.330,-23.438,-20.508,-47.363,-20.996,0.000,0
159260.334,-25.879,-20.996,-42.969,-26.367,0.000,0
159260.338,-24.902,-23.438,-34.180,-31.738,0.000,0
159260.342,-24.414,-26.855,-29.297,-38.574,0.000,0
159260.346,-25.879,-21.484,-41.992,-42.480,0.000,0
159260.349,-21.484,-21.484,-37.598,-30.762,0.000,0
159260.353,-10.742,-21.973,-37.109,-14.648,0.000,0
159260.357,-13.672,-16.602,-36.621,-19.043,0.000,0
159260.361,-21.973,-16.602,-22.949,-26.367,0.000,0
159260.365,-22.461,-18.066,-35.156,-18.555,0.000,0
159260.369,-20.508,-15.625,-32.715,-20.508,0.000,0
159260.373,-15.137,-13.184,-41.992,-21.973,0.000,0
159260.377,-14.648,-16.602,-53.223,-16.602,0.000,0
159260.381,-27.832,-18.555,-20.020,-25.879,0.000,0
159260.385,-30.762,-14.648,-17.090,-23.438,0.000,0
159260.388,-24.414,-15.137,-35.645,-15.625,0.000,0
159260.392,-23.438,-18.555,-40.527,-13.184,0.000,0
159260.396,-26.367,-21.484,-34.180,-16.602,0.000,0
159260.400,-26.855,-23.926,-26.855,-33.203,0.000,0
159260.404,-13.184,-24.902,-36.133,-28.320,0.000,0
159260.408,-9.766,-22.461,-24.902,-23.438,0.000,0
159260.412,-25.879,-21.484,-20.996,-23.438,0.000,0
159260.416,-33.203,-22.461,-38.086,-2.930,0.000,0
159260.420,-29.297,-22.461,-23.438,-9.766,0.000,0
159260.424,-20.996,-20.996,-19.043,-20.508,0.000,0
159260.428,-26.367,-20.020,-25.879,-12.695,0.000,0
159260.431,-20.020,-19.043,-39.551,-16.602,0.000,0
159260.435,-8.789,-23.926,-39.062,-17.090,0.000,0
159260.439,-11.719,-22.461,-15.137,-32.715,0.000,0
159260.443,-13.672,-18.066,-22.949,-39.551,0.000,1
159260.447,-19.531,-15.625,-34.668,-37.109,0.000,0
159260.451,-17.090,-14.648,-30.273,-30.762,0.000,0
159260.455,-19.043,-14.160,-31.738,-18.066,0.000,0
159260.459,-16.113,-13.184,-22.461,-14.648,0.000,0
159260.463,-11.230,-18.555,-26.367,-27.832,0.000,0
159260.467,-8.301,-14.160,-47.852,-30.762,0.000,0
159260.471,-14.160,-11.719,-34.180,-23.438,0.000,0
159260.474,-22.461,-11.719,-14.648,-20.020,0.000,0
159260.478,-17.578,-11.230,-18.066,-19.531,0.000,0
159260.482,-16.113,-8.301,-18.066,-20.020,0.000,0
159260.486,-15.137,-10.254,-17.090,-19.531,0.000,0
159260.490,-14.160,-14.648,-22.461,-11.230,0.000,0
159260.494,-12.695,-17.578,-30.762,4.395,0.000,0
159260.498,-16.602,-14.648,-14.648,-14.648,0.000,0
159260.502,-23.926,-13.672,-2.441,-25.391,0.000,0
159260.506,-28.320,-15.137,-24.414,-10.254,0.000,0
159260.510,-23.926,-14.648,-34.180,-14.648,0.000,0
159260.513,-24.414,-16.113,-25.879,-14.160,0.000,0
159260.517,-31.250,-16.113,-5.859,-17.090,0.000,0
159260.521,-23.926,-19.531,-16.602,-20.996,0.000,0
159260.525,-21.973,-25.391,-32.715,-23.926,0.000,0
159260.529,-31.738,-20.020,-29.785,-29.785,0.000,0
159260.533,-29.785,-16.602,-33.691,-24.902,0.000,0
159260.537,-20.020,-19.531,-22.461,-20.020,0.000,0
159260.541,-19.531,-20.020,-19.043,-19.043,0.000,0
159260.545,-18.066,-20.996,-34.180,-14.160,0.000,0
159260.549,-17.090,-22.461,-33.691,-19.531,0.000,0
159260.553,-26.367,-20.020,-22.461,-20.508,0.000,0
159260.556,-26.367,-15.625,-31.250,-20.508,0.000,0
159260.560,-21.973,-17.578,-25.879,-19.531,0.000,0
159260.564,-20.508,-19.531,-14.160,-13.184,0.000,0
159260.568,-13.672,-23.926,-30.273,-4.883,0.000,0
159260.572,-19.043,-25.879,-34.668,-9.766,0.000,0
159260.576,-14.648,-24.902,-16.602,-14.160,0.000,0
159260.580,-9.277,-28.809,-20.996,-12.207,0.000,0
159260.584,-13.184,-25.879,-31.738,-9.277,0.000,0
159260.588,-10.254,-26.367,-23.926,-1.465,0.000,0
159260.592,-9.766,-26.367,-23.926,8.301,0.000,0
159260.596,-10.254,-23.438,-33.691,4.883,0.000,0
159260.599,-7.324,-22.949,-24.902,-12.207,0.000,0
159260.603,-7.324,-20.996,-21.484,-7.324,0.000,0
159260.607,-14.648,-25.391,-28.809,-8.301,0.000,0
159260.611,-8.789,-30.273,-35.645,-22.461,0.000,0
159260.615,-13.184,-29.297,-31.250,-23.438,0.000,0
159260.619,-18.555,-23.926,-32.715,-26.855,0.000,0
159260.623,-19.043,-20.996,-30.273,-30.762,0.000,0
159260.627,-18.555,-20.508,-27.344,-20.020,0.000,0
159260.631,-11.719,-20.996,-44.922,-5.859,0.000,0
159260.635,-10.254,-17.090,-33.203,-5.371,0.000,0
159260.638,-14.648,-15.137,-12.207,-20.020,0.000,0
159260.642,-18.066,-19.531,-29.785,-12.207,0.000,0
159260.646,-28.809,-20.996,-35.645,-11.230,0.000,0
159260.650,-34.180,-17.090,-24.902,-18.555,0.000,0
159260.654,-35.645,-18.555,-20.508,-21.484,0.000,0
159260.658,-26.855,-19.531,-23.926,-26.855,0.000,0
159260.662,-19.531,-16.113,-27.832,-19.531,0.000,0
159260.666,-14.160,-19.531,-27.344,-12.207,0.000,0
159260.670,-18.066,-26.367,-31.738,-5.371,0.000,0
159260.674,-29.785,-25.879,-32.227,-16.113,0.000,0
159260.678,-26.367,-25.391,-15.625,-30.273,0.000,0
159260.681,-23.438,-25.391,-20.508,-18.066,0.000,0
159260.685,-22.949,-20.020,-25.391,-11.719,0.000,0
159260.689,-24.902,-17.090,-22.949,-14.648,0.000,0
159260.693,-29.785,-21.973,-17.090,-13.184,0.000,0
159260.697,-38.574,-29.297,-9.277,-29.785,0.000,0
159260.701,-36.621,-29.297,-32.715,-34.180,0.000,0
159260.705,-23.438,-19.531,-35.156,-23.438,0.000,0
159260.709,-19.043,-13.672,-28.320,-6.836,0.000,0
159260.713,-21.484,-16.113,-28.320,-19.531,0.000,0
159260.717,-26.367,-23.926,-21.484,-33.691,0.000,0
159260.721,-24.414,-20.508,-27.344,-20.020,0.000,0
159260.724,-20.508,-22.949,-32.715,-20.020,0.000,0
159260.728,-20.020,-20.020,-36.133,-11.230,0.000,0
159260.732,-24.414,-17.578,-23.438,-14.648,0.000,0
159260.736,-28.809,-20.508,-13.184,-27.832,0.000,0
159260.740,-30.273,-17.578,-21.973,-20.508,0.000,0
159260.744,-24.414,-19.531,-38.574,-16.113,0.000,0
159260.748,-18.066,-25.391,-51.270,-12.695,0.000,0
159260.752,-26.367,-20.996,-19.531,-26.367,0.000,0
159260.756,-33.203,-16.602,2.930,-38.574,0.000,0
159260.760,-24.902,-20.508,-25.391,-30.273,0.000,0
159260.763,-19.531,-18.066,-33.203,-30.762,0.000,0
159260.767,-18.066,-13.672,-25.879,-21.973,0.000,0
159260.771,-15.625,-11.719,-15.137,-21.973,0.000,0
159260.775,-15.137,-9.766,-9.766,-34.180,0.000,0
159260.779,-19.043,-13.672,-40.039,-27.832,0.000,0
159260.783,-19.043,-14.648,-36.621,-20.508,0.000,0
159260.787,-20.020,-10.254,-18.066,-15.625,0.000,0
159260.791,-17.578,-14.648,-21.484,-34.180,0.000,0
159260.795,-19.043,-20.020,-28.320,-46.875,0.000,0
159260.799,-31.250,-21.484,-17.578,-29.785,0.000,0
159260.803,-29.785,-18.555,0.977,-22.461,0.000,0
159260.806,-19.531,-19.531,-29.297,-20.020,0.000,0
159260.810,-22.461,-20.996,-38.574,-31.250,0.000,0
159260.814,-20.020,-13.672,-3.418,-48.340,0.000,0
159260.818,-25.879,-7.812,-13.184,-30.762,0.000,0
159260.822,-28.809,-14.648,-50.293,-17.578,0.000,0
159260.826,-16.113,-15.137,-41.016,-22.461,0.000,0
159260.830,-23.926,-14.160,-21.973,-21.973,0.000,0
159260.834,-25.879,-13.672,-9.766,-22.949,0.000,0
159260.838,-18.555,-8.301,-8.789,-18.555,0.000,0
159260.842,-27.344,-13.672,-19.043,-14.160,0.000,0
159260.846,-28.320,-13.672,-23.438,-8.789,0.000,0
159260.849,-14.648,-11.719,-25.879,-8.789,0.000,0
159260.853,-6.348,-15.137,-18.555,-16.602,0.000,0
159260.857,-10.742,-17.578,-19.043,-4.395,0.000,0
159260.861,-15.137,-20.020,-28.320,-4.883,0.000,0
159260.865,-12.695,-17.090,-30.273,-20.996,0.000,0
159260.869,-8.789,-11.719,-20.996,-20.508,0.000,0
159260.873,-6.348,-12.207,-7.812,-22.461,0.000,0
159260.877,-17.090,-10.742,-17.578,-31.250,0.000,0
159260.881,-24.902,-8.789,-29.785,-19.531,0.000,0
159260.885,-16.602,-9.277,-39.551,1.465,0.000,0
159260.888,-16.602,-16.113,-30.762,-4.883,0.000,0
159260.892,-29.785,-18.555,-15.625,-17.090,0.000,0
159260.896,-28.320,-14.648,-42.480,-6.836,0.000,0
159260.900,-20.508,-14.648,-50.781,-8.301,0.000,0
159260.904,-25.391,-15.625,-34.180,-22.461,0.000,0
159260.908,-25.879,-16.602,-24.902,-20.996,0.000,0
159260.912,-14.648,-11.230,-24.414,-21.484,0.000,0
159260.916,-20.996,-11.719,-9.277,-37.109,0.000,0
159260.920,-23.926,-17.090,-17.578,-27.344,0.000,0
159260.924,-19.531,-16.113,-44.434,-11.719,0.000,0
159260.928,-30.762,-16.602,-31.250,-18.555,0.000,0
159260.931,-37.598,-14.648,-9.766,-24.902,0.000,0
159260.935,-26.855,-10.254,-3.418,-35.156,0.000,0
159260.939,-12.695,-9.277,-24.902,-35.156,0.000,0
159260.943,-11.230,-9.766,-38.574,-27.832,0.000,0
159260.947,-13.184,-9.766,-32.715,-13.672,0.000,0
159260.951,-13.672,-17.090,-16.602,-21.973,0.000,0
159260.955,-14.160,-17.578,-25.391,-27.832,0.000,0
159260.959,-12.207,-14.648,-48.340,-13.184,0.000,0
159260.963,-13.184,-14.160,-36.621,-13.184,0.000,0
159260.967,-18.555,-16.602,-21.484,-17.578,0.000,0
159260.971,-15.625,-13.184,-10.742,-20.020,0.000,0
159260.974,-22.949,-7.324,-18.555,-31.738,0.000,0
159260.978,-27.344,-15.137,-29.785,-32.227,0.000,0
159260.982,-20.508,-11.230,-21.973,-25.391,0.000,0
159260.986,-20.508,-8.789,-37.598,-22.461,0.000,0
159260.990,-16.113,-12.695,-25.391,-30.273,0.000,0
159260.994,-17.578,-5.859,-20.020,-25.391,0.000,0
159260.998,-17.090,-4.395,-34.668,-2.930,0.000,0
159261.002,-8.301,-13.672,-37.109,-9.766,0.000,0
159261.006,-11.230,-18.066,-32.715,-16.113,0.000,0
159261.010,-26.367,-22.461,-21.973,-24.414,0.000,0
159261.013,-29.297,-20.508,-25.879,-34.668,0.000,0
159261.017,-26.367,-10.254,-34.668,-34.180,0.000,0
159261.021,-26.855,-12.207,-22.461,-32.227,0.000,0
159261.025,-22.949,-14.160,-18.555,-25.391,0.000,0
159261.029,-19.043,-18.555,-33.691,-31.738,0.000,0
159261.033,-17.578,-18.555,-50.781,-36.133,0.000,0
159261.037,-20.508,-19.531,-49.805,-33.203,0.000,0
159261.041,-22.949,-21.973,-29.297,-36.621,0.000,0
159261.045,-24.414,-15.625,-37.598,-39.062,0.000,0
159261.049,-23.438,-18.066,-29.297,-48.340,0.000,0
159261.053,-20.996,-21.973,-15.625,-48.340,0.000,0
159261.056,-22.949,-20.020,-25.391,-34.180,0.000,0
159261.060,-17.090,-17.578,-37.109,-24.414,0.000,0
159261.064,-18.555,-16.602,-39.551,-19.043,0.000,0
159261.068,-26.855,-19.531,-10.742,-24.414,0.000,1
159261.072,-24.414,-14.648,-6.348,-20.508,0.000,0
159261.076,-24.414,-8.789,-45.898,-13.184,0.000,0
159261.080,-31.738,-13.184,-48.828,-23.926,0.000,0
159261.084,-32.715,-18.555,-25.391,-26.855,0.000,0
159261.088,-27.832,-21.484,-6.836,-30.273,0.000,0
159261.092,-25.879,-20.996,-8.789,-36.621,0.000,0
159261.096,-26.367,-20.996,-31.250,-26.855,0.000,0
159261.099,-33.203,-20.508,-35.645,-24.414,0.000,0
159261.103,-36.133,-14.160,-31.738,-22.949,0.000,0
159261.107,-32.227,-13.672,-21.484,-28.320,0.000,0
159261.111,-34.180,-14.648,-15.137,-35.645,0.000,0
159261.115,-28.809,-15.137,-17.578,-25.879,0.000,0
159261.119,-28.320,-21.973,-29.297,-25.879,0.000,0
159261.123,-27.832,-22.461,-48.828,-21.484,0.000,0
159261.127,-25.879,-23.438,-32.715,-14.648,0.000,0
159261.131,-30.762,-16.602,-7.324,-20.996,0.000,0
159261.135,-22.461,-11.719,-29.785,-21.484,0.000,0
159261.138,-9.766,-12.207,-51.758,-13.184,0.000,0
159261.142,-11.719,-10.742,-34.668,-10.742,0.000,0
159261.146,-18.066,-16.602,-12.207,-17.090,0.000,0
159261.150,-17.090,-22.461,-8.301,-28.320,0.000,0
159261.154,-17.090,-28.809,-20.020,-26.855,0.000,0
159261.158,-27.344,-30.762,-22.949,-18.555,0.000,0
159261.162,-26.855,-21.484,-28.320,-11.230,0.000,0
159261.166,-19.531,-20.996,-35.645,-24.414,0.000,0
159261.170,-25.391,-23.926,-36.133,-37.598,0.000,0
159261.174,-31.738,-22.461,-22.461,-24.902,0.000,0
159261.178,-30.273,-20.996,-16.113,-20.996,0.000,0
159261.181,-26.367,-23.438,-38.086,-24.902,0.000,0
159261.185,-27.344,-21.973,-32.227,-22.461,0.000,0
159261.189,-29.785,-18.555,-12.695,-29.785,0.000,0
159261.193,-30.762,-22.949,-19.043,-42.480,0.000,0
159261.197,-21.484,-19.043,-37.598,-28.809,0.000,0
159261.201,-17.090,-16.602,-42.969,-9.766,0.000,0
159261.205,-21.973,-22.461,-25.879,-10.742,0.000,0
159261.209,-23.926,-21.973,-16.602,-17.578,0.000,0
159261.213,-14.648,-20.508,-36.621,-12.695,0.000,0
159261.217,-9.277,-27.344,-47.852,-13.184,0.000,0
159261.221,-25.391,-23.926,-20.508,-19.043,0.000,0
159261.224,-21.484,-17.090,-28.320,-16.113,0.000,0
159261.228,-9.766,-20.508,-32.715,-27.344,0.000,0
159261.232,-11.719,-17.090,-20.996,-21.484,0.000,0
159261.236,-8.789,-18.066,-31.250,-16.113,0.000,0
159261.240,-4.883,-20.020,-42.480,-15.137,0.000,0
159261.244,-10.254,-20.996,-45.410,-17.578,0.000,0
159261.248,-14.648,-21.973,-21.973,-30.273,0.000,0
159261.252,-19.531,-16.113,-9.766,-31.738,0.000,0
159261.256,-18.555,-14.648,-17.090,-26.367,0.000,0
159261.260,-15.625,-14.160,-30.762,-25.879,0.000,0
159261.263,-14.160,-15.137,-27.344,-17.578,0.000,0
159261.267,-9.766,-14.160,-5.859,-19.043,0.000,0
159261.271,-8.789,-7.812,-16.602,-24.414,0.000,0
159261.275,-3.906,-9.277,-26.855,-12.695,0.000,0
159261.279,-3.906,-12.207,-28.320,-9.766,0.000,0
159261.283,-11.719,-16.113,-23.438,-10.254,0.000,0
159261.287,-8.789,-22.949,-21.484,-23.438,0.000,0
159261.291,-17.090,-20.020,-26.855,-29.297,0.000,0
159261.295,-28.809,-21.484,-28.320,-25.879,0.000,0
159261.299,-24.902,-21.484,-29.785,-19.531,0.000,0
159261.303,-22.461,-6.348,-30.273,-5.371,0.000,0
159261.306,-22.949,-7.812,-24.902,-13.672,0.000,0
159261.310,-29.785,-14.160,-18.555,-9.766,0.000,0
159261.314,-14.648,-11.719,-29.785,-3.418,0.000,0
159261.318,2.930,-13.672,-40.039,-8.789,0.000,0
159261.322,-15.625,-15.137,-27.832,-9.277,0.000,0
159261.326,-20.020,-7.324,-17.578,-21.973,0.000,0
159261.330,-12.207,-5.859,-15.625,-37.109,0.000,0
159261.334,-17.090,-8.301,-26.855,-32.715,0.000,0
159261.338,-17.578,-12.695,-39.062,-14.160,0.000,0
159261.342,-23.926,-13.672,-30.273,-11.230,0.000,0
159261.346,-31.250,-14.648,-19.043,-29.297,0.000,0
159261.349,-24.414,-19.043,-18.555,-25.879,0.000,0
159261.353,-20.508,-18.066,-21.484,-12.207,0.000,0
159261.357,-25.391,-15.625,-20.020,-19.531,0.000,0
159261.361,-25.879,-14.160,-41.992,-19.531,0.000,0
159261.365,-26.855,-12.695,-25.391,-30.762,0.000,0
159261.369,-25.391,-10.254,-13.184,-36.133,0.000,0
159261.373,-21.973,-10.742,-31.738,-27.344,0.000,0
159261.377,-23.438,-18.066,-41.504,-24.902,0.000,0
159261.381,-22.949,-12.207,-42.969,-15.137,0.000,0
159261.385,-22.949,-12.207,-16.602,-30.762,0.000,0
159261.388,-16.602,-17.090,-11.719,-39.062,0.000,0
159261.392,-13.672,-18.066,-35.645,-20.996,0.000,0
159261.396,-20.996,-21.973,-36.133,-23.438,0.000,0
159261.400,-23.926,-20.020,-23.438,-9.766,0.000,0
159261.404,-16.113,-20.508,-12.695,-11.230,0.000,0
159261.408,-9.277,-20.508,-28.809,-32.715,0.000,0
159261.412,-8.301,-17.578,-37.109,-27.344,0.000,0
159261.416,-8.789,-18.066,-28.320,-17.578,0.000,0
159261.420,-13.184,-18.066,-35.645,-20.020,0.000,0
159261.424,-14.160,-16.113,-17.578,-29.297,0.000,0
159261.428,-8.789,-8.301,-4.883,-27.832,0.000,0
159261.431,-6.836,-12.695,-23.438,-35.156,0.000,0
159261.435,-12.695,-20.020,-21.484,-43.945,0.000,0
159261.439,-14.648,-13.184,-32.715,-22.949,0.000,0
159261.443,-14.648,-14.648,-22.949,-11.719,0.000,0
159261.447,-17.090,-13.672,-7.812,-23.438,0.000,0
159261.451,-18.066,-11.719,-36.621,-26.367,0.000,0
159261.455,-18.555,-15.137,-55.176,-23.438,0.000,0
159261.459,-17.578,-19.043,-43.457,-14.160,0.000,0
159261.463,-24.414,-22.461,-23.438,-16.113,0.000,0
159261.467,-31.250,-19.043,-16.113,-34.668,0.000,0
159261.471,-18.555,-17.090,-23.926,-24.902,0.000,0
159261.474,-12.695,-12.207,-21.484,-19.531,0.000,0
159261.478,-23.926,-12.207,-42.480,-20.020,0.000,0
159261.482,-22.949,-17.090,-41.016,-21.973,0.000,0
159261.486,-28.809,-16.113,-18.066,-32.227,0.000,0
159261.490,-29.297,-19.531,-35.645,-20.996,0.000,0
159261.494,-19.531,-16.602,-47.363,-17.578,0.000,0
159261.498,-21.484,-19.043,-55.664,-20.508,0.000,0
159261.502,-24.414,-19.043,-34.668,-16.113,0.000,0
159261.506,-27.832,-10.254,4.395,-21.973,0.000,0
159261.510,-18.555,-10.742,-14.160,-25.879,0.000,0
159261.513,-16.602,-14.160,-31.738,-20.996,0.000,0
159261.517,-28.320,-14.160,-24.902,-7.812,0.000,0
159261.521,-33.203,-18.555,-21.484,-10.254,0.000,0
159261.525,-36.621,-26.367,-27.832,-25.879,0.000,0
159261.529,-27.344,-22.949,-40.527,-20.508,0.000,0
159261.533,-26.855,-18.555,-37.109,-21.484,0.000,0
159261.537,-34.668,-18.555,-20.508,-29.297,0.000,0
159261.541,-30.762,-16.113,-18.555,-30.273,0.000,0
159261.545,-33.203,-16.113,-28.320,-38.574,0.000,0
159261.549,-36.621,-17.578,-20.508,-42.480,0.000,0
159261.553,-34.180,-23.438,-23.926,-33.203,0.000,0
159261.556,-28.320,-23.926,-45.898,-24.414,0.000,0
159261.560,-21.484,-16.602,-41.016,-22.949,0.000,0
159261.564,-19.043,-10.742,-25.879,-16.113,0.000,0
159261.568,-17.578,-10.254,-27.832,-11.230,0.000,0
159261.572,-13.184,-10.742,-35.156,-21.484,0.000,0
159261.576,-16.602,-8.301,-32.227,-18.555,0.000,0
159261.580,-30.273,-12.207,-21.973,-19.531,0.000,0
159261.584,-32.227,-19.043,-12.695,-32.715,0.000,0
159261.588,-27.832,-17.090,-28.809,-31.250,0.000,0
159261.592,-32.227,-16.113,-34.668,-29.297,0.000,0
159261.596,-35.645,-18.555,-25.879,-31.738,0.000,0
159261.599,-30.273,-19.531,-31.738,-30.762,0.000,0
159261.603,-27.344,-15.137,-19.531,-27.344,0.000,0
159261.607,-28.320,-14.648,-26.367,-26.367,0.000,0
159261.611,-21.484,-21.484,-34.668,-23.438,0.000,0
159261.615,-9.766,-19.043,-32.715,-0.977,0.000,0
159261.619,-11.230,-10.254,-23.438,-0.977,0.000,0
159261.623,-20.996,-16.602,-14.160,-25.391,0.000,0
159261.627,-23.438,-21.973,-31.738,-17.578,0.000,0
159261.631,-17.578,-22.949,-32.715,-8.301,0.000,0
159261.635,-11.230,-19.531,-29.297,-18.066,0.000,0
159261.638,-15.625,-17.578,-12.207,-20.996,0.000,0
159261.642,-10.742,-19.043,-6.348,-25.879,0.000,1
159261.646,0.977,-10.742,-36.133,-26.367,0.000,0
159261.650,-6.348,-10.254,-34.668,-21.973,0.000,0
159261.654,-21.973,-16.602,-24.414,-3.418,0.000,0
159261.658,-14.648,-17.578,-28.320,-3.418,0.000,0
159261.662,-13.184,-17.090,-20.020,-17.578,0.000,0
159261.666,-24.414,-18.555,-23.926,-3.906,0.000,0
159261.670,-22.949,-24.902,-32.715,-12.695,0.000,0
159261.674,-25.879,-17.578,-29.297,-23.926,0.000,0
159261.678,-37.109,-12.207,-25.879,-20.508,0.000,0
159261.681,-33.691,-14.648,-10.254,-28.320,0.000,0
159261.685,-29.785,-13.672,-13.672,-30.762,0.000,0
159261.689,-20.996,-16.113,-29.785,-18.066,0.000,0
159261.693,-17.090,-16.602,-41.992,-3.906,0.000,0
159261.697,-16.602,-19.043,-28.809,-11.230,0.000,0
159261.701,-12.207,-18.555,-4.883,-16.602,0.000,0
159261.705,-11.230,-12.695,-20.996,-7.324,0.000,0
159261.709,-10.254,-13.184,-31.250,-12.207,0.000,0
159261.713,-15.625,-13.184,-22.461,-14.160,0.000,0
159261.717,-20.996,-9.766,-17.090,-17.578,0.000,0
159261.721,-23.438,-10.254,-10.254,-27.344,0.000,0
159261.724,-26.855,-10.742,-15.625,-30.273,0.000,0
159261.728,-26.855,-12.695,-19.531,-25.391,0.000,0
159261.732,-17.090,-17.090,-37.109,-15.137,0.000,0
159261.736,-16.602,-19.531,-42.480,-17.090,0.000,0
159261.740,-25.879,-15.137,-7.812,-34.180,0.000,0
159261.744,-30.762,-15.137,-3.418,-20.996,0.000,0
159261.748,-21.484,-20.020,-38.086,-10.742,0.000,0
159261.752,-25.391,-20.996,-41.016,-27.832,0.000,0
159261.756,-37.109,-23.926,-31.738,-36.133,0.000,0
159261.760,-31.738,-26.855,-11.230,-44.434,0.000,0
159261.763,-17.578,-26.367,-17.578,-37.598,0.000,0
159261.767,-13.184,-25.879,-27.344,-20.996,0.000,0
159261.771,-34.180,-19.043,-20.996,-20.020,0.000,0
159261.775,-42.969,-20.508,-23.438,-24.902,0.000,0
159261.779,-29.785,-25.879,-14.160,-38.086,0.000,0
159261.783,-36.133,-21.973,-15.625,-37.109,0.000,0
159261.787,-31.250,-24.902,-22.949,-28.809,0.000,0
159261.791,-15.137,-20.020,-22.461,-20.020,0.000,0
159261.795,-6.348,-12.207,-30.762,-7.812,0.000,0
159261.799,-7.812,-13.184,-8.789,-11.719,0.000,0
159261.803,-15.625,-10.742,-7.324,-9.766,0.000,0
159261.806,-13.672,-11.230,-30.273,9.766,0.000,0
159261.810,-11.230,-11.230,-28.809,9.277,0.000,0
159261.814,-11.230,-17.090,-19.531,-0.488,0.000,0
159261.818,-20.996,-21.973,-8.301,-11.230,0.000,0
159261.822,-30.762,-20.020,-30.762,-22.949,0.000,0
159261.826,-26.367,-25.391,-47.852,-21.484,0.000,0
159261.830,-17.090,-25.391,-24.414,-5.371,0.000,0
159261.834,-22.461,-18.555,-8.301,-6.348,0.000,0
159261.838,-32.715,-17.578,-20.508,-19.531,0.000,0
159261.842,-32.715,-20.020,-26.855,-20.996,0.000,0
159261.846,-30.273,-19.043,-22.949,-22.949,0.000,0
159261.849,-16.113,-17.090,-29.297,-9.277,0.000,0
159261.853,-17.090,-14.648,-23.926,-9.766,0.000,0
159261.857,-30.273,-12.207,-20.508,-25.879,0.000,0
159261.861,-26.367,-12.207,-30.273,-26.367,0.000,0
159261.865,-22.949,-15.625,-29.785,-20.508,0.000,0
159261.869,-17.578,-20.996,-41.504,-16.113,0.000,0
159261.873,-12.695,-18.066,-41.992,-10.254,0.000,0
159261.877,-19.531,-9.277,-14.160,-11.230,0.000,0
159261.881,-12.695,-6.836,-30.273,-7.812,0.000,0
159261.885,1.953,-11.230,-44.922,-4.883,0.000,0
159261.888,-11.719,-14.160,-33.691,-11.719,0.000,0
159261.892,-22.949,-15.137,-31.250,-11.230,0.000,0
159261.896,-17.578,-12.207,-28.809,-23.926,0.000,0
159261.900,-12.695,-19.043,-29.785,-30.273,0.000,0
159261.904,-15.137,-21.484,-35.645,-24.414,0.000,0
159261.908,-17.090,-13.672,-32.227,-31.738,0.000,0
159261.912,-20.508,-15.625,-23.438,-25.879,0.000,0
159261.916,-27.344,-15.137,-21.484,-21.484,0.000,0
159261.920,-28.809,-13.672,-24.414,-20.996,0.000,0
159261.924,-31.738,-14.648,-26.367,-19.043,0.000,0
159261.928,-24.902,-17.578,-32.227,-19.531,0.000,0
159261.931,-26.855,-21.484,-34.180,-22.949,0.000,0
159261.935,-31.738,-19.043,-27.344,-28.809,0.000,0
159261.939,-33.203,-18.555,-31.738,-32.227,0.000,0
159261.943,-36.621,-22.949,-33.691,-39.551,0.000,0
159261.947,-26.855,-20.020,-22.461,-32.227,0.000,0
159261.951,-13.672,-18.066,-38.086,-15.625,0.000,0
159261.955,-20.996,-25.879,-29.785,-16.602,0.000,0
159261.959,-31.738,-24.902,-24.902,-22.949,0.000,0
159261.963,-28.320,-18.066,-25.879,-26.367,0.000,0
159261.967,-28.809,-16.602,-19.531,-21.973,0.000,0
159261.971,-24.414,-20.020,-34.180,-20.508,0.000,0
159261.974,-16.602,-25.391,-36.133,-21.973,0.000,0
159261.978,-20.996,-24.902,-20.996,-21.973,0.000,0
159261.982,-21.973,-25.879,-29.297,-13.672,0.000,0
159261.986,-14.648,-24.414,-37.109,-6.836,0.000,0
159261.990,-17.578,-20.020,-35.645,-13.184,0.000,0
159261.994,-27.344,-20.996,-14.648,-29.297,0.000,0
159261.998,-19.531,-22.949,-12.695,-31.250,0.000,0
159262.002,-12.207,-22.461,-25.391,-26.367,0.000,0
159262.006,-20.996,-20.020,-36.621,-19.043,0.000,0
159262.010,-24.902,-18.066,-39.062,-4.395,0.000,0
159262.013,-22.461,-19.043,-13.672,-21.973,0.000,0
159262.017,-18.555,-22.949,-21.973,-28.809,0.000,0
159262.021,-12.695,-24.902,-43.457,-10.254,0.000,0
159262.025,-9.766,-19.043,-37.109,-12.207,0.000,0
159262.029,-12.695,-22.949,-25.879,-17.090,0.000,0
159262.033,-19.043,-26.855,-11.719,-27.344,0.000,0
159262.037,-18.555,-20.996,-7.324,-38.574,0.000,0
159262.041,-22.461,-16.113,-27.344,-33.691,0.000,0
159262.045,-31.738,-20.508,-26.855,-32.227,0.000,0
159262.049,-27.832,-24.414,-22.949,-29.297,0.000,0
159262.053,-22.461,-21.484,-15.625,-25.879,0.000,0
159262.056,-22.461,-21.973,-8.789,-23.926,0.000,0
159262.060,-16.602,-22.461,-29.297,-17.578,0.000,0
159262.064,-11.230,-23.926,-38.086,-24.414,0.000,0
159262.068,-19.043,-22.461,-27.344,-20.996,0.000,0
159262.072,-26.855,-23.926,-15.137,-33.203,0.000,0
159262.076,-33.203,-23.926,-15.625,-45.410,0.000,0
159262.080,-28.809,-22.461,-34.180,-30.762,0.000,0
159262.084,-22.949,-22.949,-34.180,-18.555,0.000,0
159262.088,-25.391,-16.113,-25.391,-22.949,0.000,0
159262.092,-20.508,-16.113,-16.113,-31.738,0.000,0
159262.096,-23.438,-15.137,-4.883,-35.156,0.000,0
159262.099,-31.738,-15.137,-9.766,-32.715,0.000,0
159262.103,-26.855,-17.090,-4.883,-34.668,0.000,0
159262.107,-21.484,-12.207,-24.414,-27.832,0.000,0
159262.111,-27.344,-14.160,-21.973,-31.738,0.000,0
159262.115,-33.691,-21.484,-10.742,-46.875,0.000,0
159262.119,-29.297,-23.926,-31.250,-32.227,0.000,0
159262.123,-27.344,-24.414,-40.039,-20.020,0.000,0
159262.127,-34.180,-23.926,-39.062,-28.809,0.000,0
159262.131,-30.273,-25.391,-20.996,-28.809,0.000,0
159262.135,-29.297,-23.438,-8.789,-27.832,0.000,0
159262.138,-19.531,-19.043,-29.297,-35.645,0.000,0
159262.142,-12.695,-21.484,-36.621,-28.320,0.000,0
159262.146,-24.902,-24.902,-25.391,-13.672,0.000,0
159262.150,-29.297,-24.414,-22.461,-23.438,0.000,0
159262.154,-26.855,-26.855,-34.180,-37.598,0.000,0
159262.158,-34.180,-22.461,-46.875,-30.273,0.000,0
159262.162,-41.992,-18.555,-29.785,-19.531,0.000,0
159262.166,-33.691,-16.602,-30.762,-18.555,0.000,0
159262.170,-28.809,-14.648,-27.832,-21.973,0.000,0
159262.174,-25.391,-19.531,-15.137,-30.762,0.000,0
159262.178,-21.973,-18.066,-19.531,-30.273,0.000,0
159262.181,-25.391,-11.230,-21.973,-27.832,0.000,0
159262.185,-24.414,-13.184,-29.297,-23.438,0.000,1
159262.189,-21.973,-10.742,-25.879,-17.090,0.000,0
159262.193,-27.832,-8.301,-17.578,-20.508,0.000,0
159262.197,-34.180,-15.625,-36.133,-20.020,0.000,0
159262.201,-30.273,-21.973,-20.020,-33.691,0.000,0
159262.205,-26.855,-14.160,0.000,-28.809,0.000,0
159262.209,-32.715,-12.695,-39.062,-15.625,0.000,0
159262.213,-33.203,-17.090,-42.969,-29.785,0.000,0
159262.217,-34.180,-19.531,-39.062,-30.273,0.000,0
159262.221,-36.621,-24.414,-45.410,-23.926,0.000,0
159262.224,-31.738,-24.902,-44.434,-16.113,0.000,0
159262.228,-28.809,-22.949,-25.391,-19.043,0.000,0
159262.232,-28.320,-23.926,-18.066,-24.414,0.000,0
159262.236,-28.809,-31.738,-35.156,-17.578,0.000,0
159262.240,-39.062,-26.367,-34.668,-22.461,0.000,0
159262.244,-31.250,-19.043,-41.504,-26.367,0.000,0
159262.248,-23.438,-20.996,-28.320,-31.738,0.000,0
159262.252,-32.227,-16.113,-0.488,-32.227,0.000,0
159262.256,-25.879,-11.230,-35.156,-20.508,0.000,0
159262.260,-18.555,-17.578,-56.641,-20.020,0.000,0
159262.263,-20.996,-23.438,-34.668,-16.602,0.000,0
159262.267,-12.695,-19.531,-20.508,-20.508,0.000,0
159262.271,-6.836,-19.531,-26.367,-28.809,0.000,0
159262.275,-11.719,-21.484,-27.344,-27.832,0.000,0
159262.279,-13.672,-19.531,-16.602,-20.508,0.000,0
159262.283,-11.719,-18.555,-17.090,-3.906,0.000,0
159262.287,-17.090,-17.090,-20.996,-14.160,0.000,0
159262.291,-27.832,-12.207,-13.184,-31.250,0.000,0
159262.295,-20.508,-12.207,-20.996,-14.648,0.000,0
159262.299,-11.719,-13.672,-34.668,-11.230,0.000,0
159262.303,-13.184,-14.160,-34.668,-12.695,0.000,0
159262.306,-16.113,-16.113,-25.879,-21.484,0.000,0
159262.310,-25.391,-14.648,-29.297,-29.297,0.000,0
159262.314,-8.789,-14.648,-47.852,-24.414,0.000,0
159262.318,-7.812,-20.020,-55.176,-22.949,0.000,0
159262.322,-27.832,-19.531,-51.270,-16.602,0.000,0
159262.326,-20.996,-20.020,-31.738,-31.250,0.000,0
159262.330,-21.973,-17.090,-25.391,-33.203,0.000,0
159262.334,-24.902,-17.090,-40.039,-20.020,0.000,0
159262.338,-23.926,-24.414,-38.086,-24.414,0.000,0
159262.342,-25.879,-24.902,-35.156,-23.926,0.000,0
159262.346,-20.996,-22.461,-33.203,-29.297,0.000,0
159262.349,-21.484,-27.344,-14.648,-36.133,0.000,0
159262.353,-20.020,-22.461,-20.508,-28.809,0.000,0
159262.357,-23.926,-16.113,-39.551,-20.020,0.000,0
159262.361,-24.414,-17.578,-42.480,-19.531,0.000,0
159262.365,-8.789,-17.090,-14.160,-22.461,0.000,0
159262.369,-12.695,-17.578,-12.695,-20.996,0.000,0
159262.373,-15.137,-10.254,-53.223,-12.695,0.000,0
159262.377,-12.207,-9.766,-47.852,-18.555,0.000,0
159262.381,-21.973,-14.648,-20.020,-23.926,0.000,0
159262.385,-14.160,-17.578,-8.301,-30.273,0.000,0
159262.388,-1.465,-20.996,-24.902,-38.086,0.000,0
159262.392,-4.883,-16.113,-32.227,-35.645,0.000,0
159262.396,-20.996,-11.230,-25.879,-26.855,0.000,0
159262.400,-21.973,-15.625,-37.598,-23.926,0.000,0
159262.404,-12.207,-12.695,-24.902,-31.250,0.000,0
159262.408,-9.766,-11.230,-10.254,-23.438,0.000,0
159262.412,-9.277,-12.207,-22.461,-7.812,0.000,0
159262.416,-11.719,-13.672,-22.949,-13.184,0.000,0
159262.420,-13.672,-21.484,-26.855,-18.066,0.000,0
159262.424,-14.160,-22.949,-28.809,-16.113,0.000,0
159262.428,-21.484,-17.090,-17.090,-22.949,0.000,0
159262.431,-22.461,-11.719,-23.438,-16.602,0.000,0
159262.435,-24.414,-17.578,-41.016,-11.230,0.000,0
159262.439,-19.043,-18.555,-49.316,-16.602,0.000,0
159262.443,-20.508,-12.695,-21.973,-20.508,0.000,0
159262.447,-18.555,-17.578,-10.742,-16.602,0.000,0
159262.451,-20.020,-21.973,-24.902,-18.066,0.000,0
159262.455,-32.227,-19.043,-16.113,-25.879,0.000,0
159262.459,-28.809,-16.113,-31.250,-5.859,0.000,0
159262.463,-25.391,-18.066,-36.133,-10.742,0.000,0
159262.467,-30.273,-20.996,-27.832,-29.785,0.000,0
159262.471,-34.180,-21.973,-38.086,-19.531,0.000,0
159262.474,-38.086,-28.320,-41.992,-13.184,0.000,0
159262.478,-28.809,-22.949,-47.363,-10.254,0.000,0
159262.482,-21.484,-23.926,-50.781,-16.602,0.000,0
159262.486,-25.879,-25.879,-20.996,-32.715,0.000,0
159262.490,-23.438,-21.484,-18.066,-36.133,0.000,0
159262.494,-23.438,-24.902,-34.180,-40.039,0.000,0
159262.498,-22.461,-22.949,-35.156,-22.461,0.000,0
159262.502,-13.184,-25.879,-29.785,-7.812,0.000,0
159262.506,-16.602,-23.926,-21.484,-32.227,0.000,0
159262.510,-18.555,-19.531,-40.527,-30.273,0.000,0
159262.513,-20.020,-23.926,-46.875,-12.695,0.000,0
159262.517,-26.367,-26.367,-33.691,-4.883,0.000,0
159262.521,-24.902,-20.996,-24.414,-5.859,0.000,0
159262.525,-28.320,-20.996,-37.109,-24.902,0.000,0
159262.529,-30.273,-20.020,-40.039,-38.086,0.000,0
159262.533,-31.250,-21.973,-14.160,-31.250,0.000,0
159262.537,-29.785,-19.043,-28.320,-22.949,0.000,0
159262.541,-24.414,-11.719,-37.598,-31.250,0.000,0
159262.545,-22.461,-17.578,-12.207,-37.598,0.000,0
159262.549,-23.438,-19.531,-22.949,-19.531,0.000,0
159262.553,-22.949,-17.090,-45.898,-18.555,0.000,0
159262.556,-34.180,-19.043,-32.715,-35.645,0.000,0
159262.560,-41.504,-21.973,-17.578,-21.973,0.000,0
159262.564,-30.762,-23.926,-8.301,-26.855,0.000,0
159262.568,-31.738,-18.066,-7.324,-33.691,0.000,0
159262.572,-36.133,-18.066,-27.344,-19.043,0.000,0
159262.576,-34.668,-19.043,-25.879,-19.043,0.000,0
159262.580,-34.180,-19.043,-7.324,-23.438,0.000,0
159262.584,-26.367,-19.531,-21.484,-19.043,0.000,0
159262.588,-23.438,-20.020,-34.668,-15.137,0.000,0
159262.592,-27.344,-20.508,-27.832,-21.484,0.000,0
159262.596,-18.555,-24.414,-18.555,-17.578,0.000,0
159262.599,-13.184,-25.879,-20.996,-18.555,0.000,0
159262.603,-14.160,-22.461,-13.672,-30.273,0.000,0
159262.607,-10.254,-24.414,-20.508,-33.203,0.000,0
159262.611,-11.719,-21.973,-34.668,-24.414,0.000,0
159262.615,-24.902,-20.020,-27.832,-19.531,0.000,0
159262.619,-23.926,-14.160,-21.973,-20.996,0.000,0
159262.623,-15.625,-15.137,-4.395,-18.066,0.000,0
159262.627,-9.766,-15.625,-11.719,-14.160,0.000,0
159262.631,-5.371,-12.695,-27.832,-21.484,0.000,0
159262.635,-4.883,-13.672,-21.484,-15.137,0.000,0
159262.638,-16.113,-12.207,-27.344,-10.742,0.000,0
159262.642,-22.461,-16.602,-25.391,-35.645,0.000,0
159262.646,-18.066,-15.137,-23.926,-37.598,0.000,0
159262.650,-12.695,-10.742,-25.391,-20.996,0.000,0
159262.654,-9.766,-15.625,-27.832,-22.949,0.000,0
159262.658,-14.648,-13.184,-27.832,-27.344,0.000,0
159262.662,-15.625,-8.789,-20.508,-20.508,0.000,0
159262.666,-29.785,-14.160,-25.879,-29.297,0.000,0
159262.670,-34.180,-18.555,-45.898,-41.504,0.000,0
159262.674,-23.926,-18.555,-58.105,-22.461,0.000,0
159262.678,-27.344,-19.531,-40.527,-19.043,0.000,0
159262.681,-33.203,-18.555,-16.113,-38.574,0.000,0
159262.685,-24.902,-12.695,-27.832,-29.297,0.000,0
159262.689,-18.555,-6.348,-28.809,-15.137,0.000,0
159262.693,-16.602,-6.836,-15.625,-19.531,0.000,0
159262.697,-9.277,-10.742,-14.160,-24.414,0.000,0
159262.701,-17.578,-13.184,-16.113,-38.574,0.000,0
159262.705,-20.508,-9.766,-28.320,-33.203,0.000,0
159262.709,-16.113,-7.812,-18.555,-15.137,0.000,0
159262.713,-15.625,-15.137,-17.090,-9.277,0.000,0
159262.717,-9.766,-17.578,-34.668,-19.531,0.000,0
159262.721,-11.230,-13.184,-30.273,-24.414,0.000,0
159262.724,-19.043,-20.020,-31.738,-15.625,0.000,0
159262.728,-15.137,-24.902,-38.086,-20.508,0.000,1
159262.732,-7.324,-18.555,-38.086,-17.090,0.000,0
159262.736,-19.531,-18.066,-33.203,-14.160,0.000,0
159262.740,-22.461,-22.949,-15.137,-22.949,0.000,0
159262.744,-13.184,-25.879,-25.879,-9.766,0.000,0
159262.748,-17.578,-22.461,-41.504,-14.160,0.000,0
159262.752,-22.949,-20.996,-50.781,-21.484,0.000,0
159262.756,-28.809,-19.043,-35.156,-20.508,0.000,0
159262.760,-25.391,-19.043,-20.508,-30.762,0.000,0
159262.763,-5.859,-17.578,-44.434,-21.484,0.000,0
159262.767,-23.438,-17.578,-29.297,-24.902,0.000,0
159262.771,-34.668,-23.926,-21.484,-18.066,0.000,0
159262.775,-22.949,-26.855,-30.273,-11.230,0.000,0
159262.779,-26.855,-22.949,-16.602,-22.461,0.000,0
159262.783,-24.902,-21.973,-36.621,-13.184,0.000,0
159262.787,-25.391,-29.297,-44.434,-7.812,0.000,0
159262.791,-26.855,-28.320,-37.109,-17.090,0.000,0
159262.795,-24.414,-22.949,-13.672,-24.414,0.000,0
159262.799,-25.879,-26.367,-6.348,-26.367,0.000,0
159262.803,-24.414,-26.855,-26.855,-24.902,0.000,0
159262.806,-16.113,-22.949,-37.109,-19.043,0.000,0
159262.810,-22.949,-25.391,-49.805,-10.742,0.000,0
159262.814,-38.086,-27.832,-26.855,-21.973,0.000,0
159262.818,-29.297,-21.484,-15.625,-35.156,0.000,0
159262.822,-19.043,-17.578,-29.785,-23.438,0.000,0
159262.826,-28.320,-17.090,-21.973,-13.672,0.000,0
159262.830,-27.344,-16.113,-20.996,-15.137,0.000,0
159262.834,-25.391,-17.578,-25.879,-30.273,0.000,0
159262.838,-21.973,-19.043,-15.137,-34.180,0.000,0
159262.842,-29.785,-18.066,-15.625,-27.344,0.000,0
159262.846,-31.250,-21.484,-19.043,-23.926,0.000,0
159262.849,-33.203,-19.043,-25.391,-16.113,0.000,0
159262.853,-37.598,-19.531,-35.156,-11.719,0.000,0
159262.857,-29.785,-25.879,0.488,-17.090,0.000,0
159262.861,-30.762,-21.484,0.977,-9.766,0.000,0
159262.865,-31.738,-18.555,-48.340,1.465,0.000,0
159262.869,-29.785,-20.508,-42.969,-15.625,0.000,0
159262.873,-24.414,-22.461,-29.785,-18.555,0.000,0
159262.877,-28.320,-23.438,-22.949,-13.184,0.000,0
159262.881,-25.391,-25.879,-30.762,-22.949,0.000,0
159262.885,-15.625,-29.297,-36.621,-20.020,0.000,0
159262.888,-16.602,-24.902,-30.273,-11.230,0.000,0
159262.892,-20.996,-22.461,-31.250,-12.207,0.000,0
159262.896,-24.414,-25.391,-28.809,-14.648,0.000,0
159262.900,-23.926,-20.996,-34.180,-9.766,0.000,0
159262.904,-27.832,-24.414,-35.645,-13.184,0.000,0
159262.908,-28.320,-30.762,-38.574,-15.625,0.000,0
159262.912,-17.578,-27.344,-48.340,-9.766,0.000,0
159262.916,-19.043,-27.832,-37.109,-17.090,0.000,0
159262.920,-23.926,-27.832,-36.133,-27.344,0.000,0
159262.924,-26.855,-23.438,-43.945,-24.414,0.000,0
159262.928,-23.438,-20.996,-41.504,-8.301,0.000,0
159262.931,-20.508,-24.414,-41.016,-8.301,0.000,0
159262.935,-13.184,-25.391,-23.926,-20.508,0.000,0
159262.939,-13.184,-24.902,-21.973,-23.926,0.000,0
159262.943,-28.320,-32.715,-37.109,-28.809,0.000,0
159262.947,-28.320,-29.785,-32.715,-20.508,0.000,0
159262.951,-36.133,-25.391,-37.109,-17.090,0.000,0
159262.955,-40.527,-32.715,-46.875,-37.598,0.000,0
159262.959,-30.762,-31.250,-27.344,-35.645,0.000,0
159262.963,-20.020,-24.902,-31.738,-26.367,0.000,0
159262.967,-24.414,-19.531,-55.176,-26.855,0.000,0
159262.971,-32.715,-19.043,-51.758,-31.738,0.000,0
159262.974,-27.344,-21.973,-28.809,-39.062,0.000,0
159262.978,-23.926,-27.344,-21.484,-40.527,0.000,0
159262.982,-31.250,-27.832,-30.273,-40.527,0.000,0
159262.986,-32.227,-20.996,-23.926,-33.691,0.000,0
159262.990,-30.273,-18.555,-21.973,-10.254,0.000,0
159262.994,-33.691,-19.043,-7.812,-20.508,0.000,0
159262.998,-30.273,-17.578,-14.160,-34.180,0.000,0
159263.002,-19.043,-14.160,-38.086,-17.578,0.000,0
159263.006,-20.508,-19.043,-26.855,-17.578,0.000,0
159263.010,-19.531,-18.555,-18.555,-15.625,0.000,0
159263.013,-14.648,-16.113,-11.719,-18.555,0.000,0
159263.017,-20.508,-16.113,-18.066,-35.645,0.000,0
159263.021,-18.066,-15.625,-25.391,-32.715,0.000,0
159263.025,-3.906,-17.578,-20.508,-19.043,0.000,0
159263.029,-8.301,-14.648,-33.691,-8.789,0.000,0
159263.033,-22.461,-16.602,-26.855,-28.809,0.000,0
159263.037,-24.414,-19.531,-13.184,-30.273,0.000,0
159263.041,-15.137,-19.043,-29.297,-7.812,0.000,0
159263.045,-7.812,-18.555,-42.969,-15.137,0.000,0
159263.049,-14.648,-22.949,-43.457,-21.484,0.000,0
159263.053,-20.508,-27.344,-20.020,-25.879,0.000,0
159263.056,-19.043,-21.973,-16.602,-28.320,0.000,0
159263.060,-14.160,-17.090,-24.902,-29.785,0.000,0
159263.064,-13.184,-17.578,-17.578,-24.902,0.000,0
159263.068,-20.020,-10.742,-41.016,-9.766,0.000,0
159263.072,-20.020,-13.184,-26.855,-26.855,0.000,0
159263.076,-19.531,-18.555,-11.230,-24.902,0.000,0
159263.080,-26.855,-15.137,-38.574,-14.648,0.000,0
159263.084,-32.227,-16.113,-38.086,-25.879,0.000,0
159263.088,-23.438,-17.090,-33.203,-23.926,0.000,0
159263.092,-19.043,-16.602,-32.715,-26.855,0.000,0
159263.096,-26.855,-16.602,-19.043,-36.621,0.000,0
159263.099,-28.809,-13.672,-13.672,-32.227,0.000,0
159263.103,-18.066,-16.602,-26.367,-26.855,0.000,0
159263.107,-11.719,-18.555,-38.574,-24.902,0.000,0
159263.111,-20.020,-17.090,-17.090,-32.715,0.000,0
159263.115,-20.508,-16.113,-14.648,-44.434,0.000,0
159263.119,-23.926,-15.625,-38.574,-36.133,0.000,0
159263.123,-25.879,-18.066,-29.785,-28.809,0.000,0
159263.127,-20.508,-13.672,-24.414,-22.461,0.000,0
159263.131,-30.273,-10.254,-23.438,-20.996,0.000,0
159263.135,-29.297,-14.160,-16.113,-34.668,0.000,0
159263.138,-26.367,-13.672,-20.996,-31.738,0.000,0
159263.142,-28.320,-14.648,-16.602,-24.414,0.000,0
159263.146,-29.297,-19.043,-22.949,-30.273,0.000,0
159263.150,-27.344,-25.879,-39.551,-28.320,0.000,0
159263.154,-24.902,-27.344,-24.902,-36.621,0.000,0
159263.158,-22.461,-22.949,-21.973,-39.551,0.000,0
159263.162,-20.996,-22.949,-19.531,-36.133,0.000,0
159263.166,-20.020,-20.020,-23.926,-23.926,0.000,0
159263.170,-11.230,-12.695,-37.598,-10.742,0.000,0
159263.174,-6.348,-16.602,-18.555,-20.996,0.000,0
159263.178,-24.414,-22.461,-17.578,-16.113,0.000,0
159263.181,-29.785,-20.508,-48.340,-13.184,0.000,0
159263.185,-19.043,-21.484,-54.199,-19.531,0.000,0
159263.189,-23.926,-22.949,-19.043,-20.020,0.000,0
159263.193,-24.414,-21.484,-8.789,-27.344,0.000,0
159263.197,-16.602,-16.602,-29.785,-26.367,0.000,0
159263.201,-14.648,-14.160,-30.762,-21.973,0.000,0
159263.205,-17.578,-20.508,-33.203,-14.160,0.000,0
159263.209,-13.184,-18.555,-36.621,-12.695,0.000,0
159263.213,-15.137,-13.672,-26.855,-28.320,0.000,0
159263.217,-20.508,-20.020,-30.762,-29.297,0.000,0
159263.221,-20.020,-17.090,-31.250,-14.160,0.000,0
159263.224,-23.926,-18.555,-29.297,-18.555,0.000,0
159263.228,-17.578,-20.508,-39.062,-24.414,0.000,0
159263.232,-14.648,-22.461,-22.461,-25.879,0.000,0
159263.236,-31.738,-20.508,-14.160,-29.297,0.000,0
159263.240,-27.344,-15.625,-34.668,-20.996,0.000,0
159263.244,-24.414,-14.648,-30.273,-22.949,0.000,0
159263.248,-22.461,-12.695,-21.484,-28.320,0.000,0
159263.252,-26.367,-18.555,-18.555,-28.320,0.000,0
159263.256,-36.621,-21.484,-24.414,-17.090,0.000,0
159263.260,-29.297,-11.719,-39.551,-21.484,0.000,0
159263.263,-26.367,-9.766,-33.691,-35.156,0.000,0
159263.267,-34.180,-18.066,-17.090,-34.668,0.000,0
159263.271,-23.926,-18.555,-21.484,-37.598,0.000,0
159263.275,-20.020,-20.020,-21.484,-30.762,0.000,0
159263.279,-33.203,-21.973,-20.020,-23.926,0.000,0
159263.283,-35.645,-21.973,-41.016,-29.297,0.000,0
159263.287,-31.250,-17.578,-32.227,-29.785,0.000,0
159263.291,-20.508,-13.672,-2.441,-31.738,0.000,0
159263.295,-20.996,-16.113,-16.113,-34.180,0.000,0
159263.299,-24.902,-19.043,-32.227,-28.320,0.000,0
159263.303,-24.902,-14.160,-22.461,-22.949,0.000,0
159263.306,-27.344,-15.137,-15.137,-26.367,0.000,0
159263.310,-24.414,-14.160,-12.695,-33.203,0.000,0
159263.314,-29.297,-14.160,-22.461,-31.738,0.000,0
159263.318,-39.551,-15.137,-29.785,-30.273,0.000,0
159263.322,-34.668,-16.113,-22.949,-25.879,0.000,0
159263.326,-20.996,-15.625,-21.973,-27.832,0.000,0
159263.330,-23.926,-15.137,-25.879,-31.250,0.000,0
159263.334,-30.762,-14.160,-32.715,-25.391,0.000,0
159263.338,-25.879,-12.207,-21.973,-23.438,0.000,0
159263.342,-26.855,-18.066,-32.227,-14.160,0.000,0
159263.346,-29.297,-21.973,-39.551,-14.160,0.000,0
159263.349,-24.414,-20.996,-19.043,-20.996,0.000,0
159263.353,-20.020,-20.020,-26.855,-13.184,0.000,0
159263.357,-20.508,-20.020,-33.691,-18.555,0.000,0
159263.361,-26.367,-17.578,-28.320,-21.484,0.000,0
159263.365,-32.715,-11.230,-17.090,-18.555,0.000,0
159263.369,-33.203,-17.578,0.000,-34.668,0.000,0
159263.373,-33.203,-18.066,-25.879,-37.598,0.000,0
159263.377,-28.809,-16.113,-42.480,-24.414,0.000,0
159263.381,-24.902,-14.160,-38.574,-7.812,0.000,0
159263.385,-23.438,-14.160,-25.879,-11.719,0.000,0
159263.388,-24.414,-17.090,-7.324,-23.926,0.000,0
159263.392,-21.484,-12.695,-16.602,-8.789,0.000,0
159263.396,-21.973,-11.230,-20.508,-3.906,0.000,0
159263.400,-23.926,-12.695,-20.996,-20.020,0.000,0
159263.404,-25.879,-12.207,-20.996,-26.855,0.000,0
159263.408,-29.297,-13.184,-2.441,-27.344,0.000,0
159263.412,-23.926,-14.648,-20.996,-20.996,0.000,0
159263.416,-18.066,-17.578,-46.387,-18.066,0.000,0
159263.420,-10.254,-10.742,-41.016,-11.230,0.000,0
159263.424,-6.348,-0.488,-21.973,-6.348,0.000,0
159263.428,-14.648,-7.812,10.742,-22.461,0.000,1
159263.431,-16.602,-19.531,-17.090,-24.414,0.000,0
159263.435,-13.184,-15.625,-47.363,-24.902,0.000,0
159263.439,-13.672,-14.648,-37.109,-30.762,0.000,0
159263.443,-20.508,-20.020,-25.879,-26.855,0.000,0
159263.447,-24.902,-23.438,-22.461,-35.645,0.000,0
159263.451,-21.973,-24.414,-29.785,-31.250,0.000,0
159263.455,-16.602,-19.043,-26.855,-13.184,0.000,0
159263.459,-20.508,-13.184,-28.320,-14.648,0.000,0
159263.463,-19.043,-14.648,-51.758,-18.555,0.000,0
159263.467,-14.648,-14.648,-35.645,-32.715,0.000,0
159263.471,-14.160,-15.137,-4.883,-29.785,0.000,0
159263.474,-18.555,-15.625,-18.066,-19.531,0.000,0
159263.478,-23.438,-18.555,-34.668,-29.785,0.000,0
159263.482,-23.926,-20.020,-43.457,-20.996,0.000,0
159263.486,-33.691,-20.020,-23.926,-25.879,0.000,0
159263.490,-37.598,-24.902,-17.578,-32.715,0.000,0
159263.494,-10.742,-17.090,-48.340,-13.184,0.000,0
159263.498,-8.789,-16.602,-54.199,-9.766,0.000,0
159263.502,-34.180,-22.461,-31.738,-16.602,0.000,0
159263.506,-24.902,-17.090,-17.578,-20.508,0.000,0
159263.510,-12.695,-11.719,-35.156,-28.809,0.000,0
159263.513,-27.832,-14.648,-32.715,-40.039,0.000,0
159263.517,-23.926,-16.602,-18.555,-20.996,0.000,0
159263.521,-11.719,-15.625,-29.297,-12.207,0.000,0
159263.525,-25.879,-22.461,-23.438,-42.480,0.000,0
159263.529,-29.297,-21.484,-29.785,-42.969,0.000,0
159263.533,-15.625,-20.020,-36.133,-27.344,0.000,0
159263.537,-17.578,-19.531,-35.156,-32.715,0.000,0
159263.541,-22.949,-19.531,-32.715,-33.691,0.000,0
159263.545,-22.949,-20.508,-15.625,-31.738,0.000,0
159263.549,-21.484,-13.184,-21.484,-35.156,0.000,0
159263.553,-16.113,-12.207,-30.762,-27.344,0.000,0
159263.556,-11.719,-19.043,-37.598,-18.555,0.000,0
159263.560,-16.113,-20.996,-31.250,-17.090,0.000,0
159263.564,-9.277,-19.531,-30.273,-16.602,0.000,0
159263.568,-2.441,-15.625,-28.320,-18.066,0.000,0
159263.572,-22.461,-17.090,-20.996,-8.301,0.000,0
159263.576,-28.320,-17.090,-39.551,-3.906,0.000,0
159263.580,-18.555,-12.207,-38.574,-7.324,0.000,0
159263.584,-17.090,-10.254,-28.809,-15.137,0.000,0
159263.588,-28.320,-20.996,-23.926,-37.598,0.000,0
159263.592,-21.484,-24.414,-28.320,-28.320,0.000,0
159263.596,-21.973,-21.973,-43.457,-17.090,0.000,0
159263.599,-37.109,-26.367,-43.945,-27.832,0.000,0
159263.603,-31.250,-28.320,-16.602,-25.391,0.000,0
159263.607,-22.461,-24.414,-13.184,-28.320,0.000,0
159263.611,-17.090,-21.484,-41.992,-33.203,0.000,0
159263.615,-14.160,-21.484,-37.109,-29.297,0.000,0
159263.619,-12.695,-18.555,-26.855,-12.695,0.000,0
159263.623,-10.742,-15.625,-20.996,-16.113,0.000,0
159263.627,-13.184,-14.648,-28.320,-29.297,0.000,0
159263.631,-21.484,-15.625,-40.527,-13.672,0.000,0
159263.635,-27.832,-14.160,-29.297,-12.695,0.000,0
159263.638,-27.832,-23.438,-29.785,-22.949,0.000,0
159263.642,-23.438,-27.832,-26.367,-27.832,0.000,0
159263.646,-20.996,-14.648,-27.344,-31.250,0.000,0
159263.650,-20.996,-11.230,-24.414,-20.996,0.000,0
159263.654,-22.949,-12.695,-20.020,-14.648,0.000,0
159263.658,-22.949,-14.160,-33.203,-11.230,0.000,0
159263.662,-25.391,-17.090,-19.531,-19.531,0.000,0
159263.666,-25.879,-19.043,-20.020,-24.902,0.000,0
159263.670,-20.508,-24.902,-32.715,-27.344,0.000,0
159263.674,-20.508,-23.438,-33.203,-26.855,0.000,0
159263.678,-28.809,-25.391,-39.062,-7.324,0.000,0
159263.681,-32.227,-28.320,-25.391,-10.742,0.000,0
159263.685,-20.020,-16.113,-24.902,-21.484,0.000,0
159263.689,-17.090,-13.184,-25.879,-27.832,0.000,0
159263.693,-23.926,-13.184,-10.254,-20.996,0.000,0
159263.697,-23.926,-14.648,-21.973,-11.230,0.000,0
159263.701,-18.066,-15.625,-20.996,-28.320,0.000,0
159263.705,-13.184,-12.207,-10.254,-27.832,0.000,0
159263.709,-9.766,-16.113,-23.438,-3.418,0.000,0
159263.713,-5.371,-17.090,-27.344,-6.348,0.000,0
159263.717,-8.789,-11.230,-28.809,-7.812,0.000,0
159263.721,-14.648,-13.672,-6.348,-15.137,0.000,0
159263.724,-12.695,-10.742,1.953,-25.879,0.000,0
159263.728,-11.719,-8.301,-22.949,-17.578,0.000,0
159263.732,-8.789,-13.184,-38.086,-15.625,0.000,0
159263.736,-11.719,-14.648,-30.762,-9.277,0.000,0
159263.740,-15.625,-15.137,-7.324,-15.625,0.000,0
159263.744,-10.742,-11.719,-16.113,-24.414,0.000,0
159263.748,-4.395,-12.695,-41.504,-13.184,0.000,0
159263.752,-2.930,-16.602,-24.414,-12.207,0.000,0
159263.756,-12.207,-12.695,0.000,-15.625,0.000,0
159263.760,-14.160,-16.602,-0.488,-22.949,0.000,0
159263.763,-9.766,-18.555,-10.254,-37.109,0.000,0
159263.767,-16.602,-16.113,-20.020,-29.785,0.000,0
159263.771,-24.902,-17.090,-24.414,-27.344,0.000,0
159263.775,-23.438,-18.066,-36.621,-25.879,0.000,0
159263.779,-17.578,-9.766,-38.574,-19.043,0.000,0
159263.783,-22.949,-7.324,-20.020,-26.855,0.000,0
159263.787,-23.438,-18.066,-25.391,-18.066,0.000,0
159263.791,-23.438,-17.090,-34.180,-21.973,0.000,0
159263.795,-27.344,-15.137,-49.316,-33.691,0.000,0
159263.799,-24.414,-21.973,-31.250,-29.785,0.000,0
159263.803,-23.438,-23.438,0.488,-26.367,0.000,0
159263.806,-23.926,-20.508,-24.414,-23.926,0.000,0
159263.810,-16.602,-21.484,-39.551,-9.766,0.000,0
159263.814,-9.766,-20.996,-39.551,-9.277,0.000,0
159263.818,-13.184,-16.602,-25.879,-16.602,0.000,0
159263.822,-13.184,-19.043,-12.207,-18.555,0.000,0
159263.826,-15.137,-22.949,-29.297,-25.879,0.000,0
159263.830,-24.414,-22.461,-40.527,-28.320,0.000,0
159263.834,-18.555,-22.461,-35.645,-13.184,0.000,0
159263.838,-11.719,-21.973,-32.715,-15.625,0.000,0
159263.842,-14.160,-18.066,-21.484,-26.855,0.000,0
159263.846,-15.137,-21.973,-24.414,-16.602,0.000,0
159263.849,-11.719,-29.297,-39.551,-6.348,0.000,0
159263.853,-7.812,-27.344,-41.504,-4.883,0.000,0
159263.857,-15.625,-21.484,-27.832,-15.137,0.000,0
159263.861,-24.414,-25.391,-25.391,-27.344,0.000,0
159263.865,-18.066,-18.066,-38.574,-21.973,0.000,0
159263.869,-18.066,-11.719,-31.738,-19.531,0.000,0
159263.873,-23.438,-14.160,-27.344,-9.277,0.000,0
159263.877,-24.414,-16.113,-27.832,-12.695,0.000,0
159263.881,-26.855,-16.113,-33.203,-25.391,0.000,0
159263.885,-24.902,-9.277,-35.156,-18.066,0.000,0
159263.888,-25.391,-14.648,-22.949,-16.602,0.000,0
159263.892,-20.508,-23.438,-35.156,-17.578,0.000,0
159263.896,-16.602,-17.578,-38.086,-25.879,0.000,0
159263.900,-22.461,-13.672,-15.137,-33.203,0.000,0
159263.904,-23.438,-15.137,-20.020,-24.414,0.000,0
159263.908,-22.461,-15.137,-31.250,-8.789,0.000,0
159263.912,-22.949,-13.672,-36.621,-10.742,0.000,0
159263.916,-23.926,-14.160,-26.367,-20.508,0.000,0
159263.920,-28.320,-11.230,-21.484,-17.090,0.000,0
159263.924,-30.762,-7.324,-30.273,-10.742,0.000,0
159263.928,-35.645,-4.395,-27.344,-17.090,0.000,0
159263.931,-36.133,-2.930,-20.996,-19.531,0.000,0
159263.935,-26.855,-3.906,-14.648,-20.020,0.000,0
159263.939,-25.391,-3.906,-17.578,-32.715,0.000,0
159263.943,-31.250,-9.277,-28.809,-35.645,0.000,0
159263.947,-27.344,-13.672,-28.809,-18.555,0.000,0
159263.951,-12.207,-10.254,-22.461,-5.371,0.000,0
159263.955,-8.789,-3.906,-15.625,-6.836,0.000,0
159263.959,-17.578,-2.441,-9.277,-24.414,0.000,0
159263.963,-21.973,-5.859,-20.996,-34.668,0.000,0
159263.967,-23.926,-13.184,-27.344,-33.691,0.000,0
159263.971,-29.297,-8.789,-29.785,-28.320,0.000,0
159263.974,-27.832,-8.789,-26.367,-25.391,0.000,0
159263.978,-23.438,-15.625,1.953,-42.480,0.000,0
159263.982,-25.391,-13.184,-19.531,-35.156,0.000,0
159263.986,-22.949,-12.695,-59.570,-20.508,0.000,0
159263.990,-8.301,-11.230,-42.480,-11.719,0.000,0
159263.994,-6.836,-9.766,-18.066,-21.973,0.000,0
159263.998,-15.625,-3.418,-12.207,-40.039,0.000,0
159264.002,-8.789,-7.324,-24.414,-31.250,0.000,0
159264.006,-9.277,-13.672,-24.902,-23.438,0.000,0
159264.010,-12.695,-9.277,-29.297,-17.090,0.000,0
159264.013,-4.883,-13.672,-34.668,-12.207,0.000,0
159264.017,-12.695,-21.973,-18.555,-23.926,0.000,0
159264.021,-19.531,-20.020,-26.855,-21.484,0.000,0
159264.025,-20.508,-15.625,-47.363,-11.719,0.000,0
159264.029,-21.973,-12.695,-59.082,-10.254,0.000,0
159264.033,-18.066,-14.648,-45.898,-17.090,0.000,0
159264.037,-20.996,-16.602,-7.812,-34.180,0.000,0
159264.041,-23.438,-16.113,-17.090,-32.715,0.000,0
159264.045,-23.438,-19.531,-40.039,-35.645,0.000,0
159264.049,-22.461,-21.484,-37.109,-29.297,0.000,0
159264.053,-19.531,-18.066,-21.973,-21.484,0.000,0
159264.056,-14.160,-20.020,-11.719,-30.273,0.000,0
159264.060,-12.695,-28.809,-33.203,-26.855,0.000,0
159264.064,-20.020,-29.297,-38.086,-24.902,0.000,0
159264.068,-28.809,-27.344,-28.320,-26.855,0.000,0
159264.072,-22.461,-30.273,-40.527,-33.691,0.000,0
159264.076,-17.578,-26.855,-32.227,-40.527,0.000,0
159264.080,-19.531,-22.949,-13.672,-33.691,0.000,0
159264.084,-26.367,-22.461,-13.184,-31.250,0.000,0
159264.088,-25.879,-24.902,-35.645,-19.043,0.000,0
159264.092,-19.043,-23.926,-38.574,-15.137,0.000,0
159264.096,-28.809,-22.949,-18.066,-36.621,0.000,0
159264.099,-35.156,-17.090,-25.391,-33.203,0.000,0
159264.103,-30.762,-20.020,-40.039,-26.855,0.000,0
159264.107,-29.297,-19.531,-33.691,-27.344,0.000,0
159264.111,-30.762,-20.020,-31.250,-27.344,0.000,0
159264.115,-29.297,-21.973,-24.414,-36.621,0.000,0
159264.119,-22.461,-20.020,-25.391,-40.039,0.000,0
159264.123,-14.648,-23.926,-45.410,-26.367,0.000,1
159264.127,-24.902,-21.484,-33.203,-25.391,0.000,0
159264.131,-33.203,-16.113,-19.531,-29.785,0.000,0
159264.135,-33.691,-14.160,-17.090,-41.016,0.000,0
159264.138,-34.180,-15.625,-14.648,-37.598,0.000,0
159264.142,-24.902,-13.184,-24.414,-28.320,0.000,0
159264.146,-25.391,-14.160,-33.203,-28.320,0.000,0
159264.150,-25.879,-13.184,-39.062,-13.184,0.000,0
159264.154,-16.113,-9.277,-22.949,-15.137,0.000,0
159264.158,-22.949,-11.230,-13.672,-23.438,0.000,0
159264.162,-25.391,-13.672,-24.414,-11.230,0.000,0
159264.166,-10.742,-14.648,-34.180,-13.184,0.000,0
159264.170,-20.508,-12.695,-37.109,-22.461,0.000,0
159264.174,-28.809,-11.230,-0.977,-23.926,0.000,0
159264.178,-13.672,-4.883,-12.207,-27.344,0.000,0
159264.181,-14.648,-6.348,-30.762,-30.762,0.000,0
159264.185,-24.902,-14.648,-14.160,-23.926,0.000,0
159264.189,-27.832,-18.066,-29.297,-7.812,0.000,0
159264.193,-31.250,-18.555,-33.203,-13.184,0.000,0
159264.197,-28.809,-17.090,-23.438,-27.832,0.000,0
159264.201,-25.879,-21.484,-13.672,-33.203,0.000,0
159264.205,-29.297,-22.461,-30.273,-29.297,0.000,0
159264.209,-33.691,-20.020,-39.551,-32.715,0.000,0
159264.213,-28.809,-19.531,-40.527,-41.016,0.000,0
159264.217,-16.602,-14.648,-26.367,-38.574,0.000,0
159264.221,-17.578,-9.766,-7.812,-31.250,0.000,0
159264.224,-18.555,-10.742,-27.832,-29.785,0.000,0
159264.228,-21.484,-13.184,-33.203,-19.531,0.000,0
159264.232,-20.996,-12.207,-12.207,-20.508,0.000,0
159264.236,-12.695,-7.812,-9.277,-31.250,0.000,0
159264.240,-9.766,-7.812,-26.367,-18.066,0.000,0
159264.244,-16.602,-14.160,-27.344,-17.090,0.000,0
159264.248,-29.297,-14.160,-18.066,-32.227,0.000,0
159264.252,-21.484,-15.625,-14.160,-29.785,0.000,0
159264.256,-20.996,-17.578,-14.648,-34.180,0.000,0
159264.260,-30.762,-18.555,-27.832,-38.086,0.000,0
159264.263,-35.645,-25.879,-28.320,-31.738,0.000,0
159264.267,-29.297,-16.602,-30.273,-30.273,0.000,0
159264.271,-24.414,-12.207,-31.738,-31.250,0.000,0
159264.275,-29.785,-16.602,-25.391,-25.879,0.000,0
159264.279,-27.832,-15.625,-37.598,-17.578,0.000,0
159264.283,-28.809,-24.414,-34.668,-28.809,0.000,0
159264.287,-34.180,-25.879,-23.438,-32.227,0.000,0
159264.291,-29.297,-20.020,-39.062,-21.484,0.000,0
159264.295,-25.879,-20.996,-31.250,-24.414,0.000,0
159264.299,-25.391,-20.996,-29.785,-20.508,0.000,0
159264.303,-33.203,-14.648,-39.062,-15.137,0.000,0
159264.306,-41.016,-14.648,-41.016,-24.414,0.000,0
159264.310,-32.715,-17.090,-30.762,-31.250,0.000,0
159264.314,-15.137,-18.555,-30.762,-35.156,0.000,0
159264.318,-19.043,-19.043,-37.598,-38.086,0.000,0
159264.322,-25.391,-14.160,-33.203,-37.598,0.000,0
159264.326,-20.020,-14.648,-38.574,-27.832,0.000,0
159264.330,-16.602,-16.113,-38.086,-25.391,0.000,0
159264.334,-12.207,-15.625,-17.578,-29.297,0.000,0
159264.338,-17.090,-12.695,-19.043,-23.438,0.000,0
159264.342,-14.648,-12.695,-33.203,-17.578,0.000,0
159264.346,-8.301,-13.672,-36.621,-14.648,0.000,0
159264.349,-26.367,-13.184,-22.461,-21.973,0.000,0
159264.353,-32.227,-14.648,1.465,-30.273,0.000,0
159264.357,-15.137,-15.137,-19.043,-24.414,0.000,0
159264.361,-20.020,-17.090,-41.504,-21.973,0.000,0
159264.365,-30.273,-11.230,-34.668,-15.137,0.000,0
159264.369,-20.508,-6.348,-20.996,-9.766,0.000,0
159264.373,-21.973,-9.766,-7.324,-19.043,0.000,0
159264.377,-34.668,-11.230,-19.043,-11.719,0.000,0
159264.381,-33.691,-18.066,-42.969,-15.137,0.000,0
159264.385,-29.785,-24.414,-28.320,-23.438,0.000,0
159264.388,-26.367,-24.414,-4.395,-20.996,0.000,0
159264.392,-24.902,-16.602,-19.531,-27.344,0.000,0
159264.396,-27.832,-16.113,-28.320,-27.344,0.000,0
159264.400,-30.273,-18.555,-14.160,-22.461,0.000,0
159264.404,-22.949,-20.996,-34.668,-20.020,0.000,0
159264.408,-20.508,-22.949,-46.387,-25.879,0.000,0
159264.412,-26.367,-21.973,-17.578,-34.180,0.000,0
159264.416,-16.113,-19.531,-19.043,-16.113,0.000,0
159264.420,-9.277,-17.578,-26.855,-3.906,0.000,0
159264.424,-16.113,-16.113,-22.461,-3.906,0.000,0
159264.428,-18.066,-15.137,-22.461,-4.883,0.000,0
159264.431,-19.043,-19.531,-11.230,-12.695,0.000,0
159264.435,-21.973,-22.461,-15.625,-14.160,0.000,0
159264.439,-25.391,-20.996,-23.926,-6.348,0.000,0
159264.443,-33.691,-22.949,-23.438,-3.906,0.000,0
159264.447,-40.039,-24.414,-33.691,-17.578,0.000,0
159264.451,-35.645,-27.344,-22.949,-31.250,0.000,0
159264.455,-27.344,-21.973,-16.602,-19.043,0.000,0
159264.459,-30.273,-14.160,-2.930,-13.672,0.000,0
159264.463,-32.715,-20.020,-14.648,-19.531,0.000,0
159264.467,-31.738,-23.926,-26.855,-25.879,0.000,0
159264.471,-32.715,-26.855,-6.836,-41.992,0.000,0
159264.474,-25.391,-21.973,-12.207,-40.527,0.000,0
159264.478,-16.602,-16.113,-33.691,-21.973,0.000,0
159264.482,-19.043,-22.949,-35.156,-16.602,0.000,0
159264.486,-19.043,-25.391,-23.438,-15.625,0.000,0
159264.490,-24.902,-18.555,-16.113,-21.484,0.000,0
159264.494,-27.344,-15.137,-18.066,-28.320,0.000,0
159264.498,-20.020,-13.184,-18.066,-25.879,0.000,0
159264.502,-23.926,-14.648,-17.578,-23.926,0.000,0
159264.506,-22.949,-16.602,-28.320,-9.277,0.000,0
159264.510,-16.602,-19.531,-28.809,-21.973,0.000,0
159264.513,-24.414,-24.414,-29.785,-45.410,0.000,0
159264.517,-20.996,-34.180,-30.762,-24.902,0.000,0
159264.521,-25.391,-31.250,-32.227,-21.973,0.000,0
159264.525,-35.645,-23.926,-38.086,-30.273,0.000,0
159264.529,-35.645,-23.926,-27.832,-30.273,0.000,0
159264.533,-28.809,-22.461,-17.090,-29.785,0.000,0
159264.537,-23.926,-20.508,-20.020,-25.391,0.000,0
159264.541,-26.367,-19.043,-26.855,-22.461,0.000,0
159264.545,-21.484,-24.902,-46.387,-16.113,0.000,0
159264.549,-25.879,-29.297,-14.160,-16.113,0.000,0
159264.553,-26.367,-21.973,1.465,-27.832,0.000,0
159264.556,-19.043,-20.996,-38.086,-22.461,0.000,0
159264.560,-20.996,-21.484,-45.410,-20.996,0.000,0
159264.564,-24.414,-23.438,-29.785,-27.832,0.000,0
159264.568,-20.020,-25.879,-20.508,-22.461,0.000,0
159264.572,-19.531,-23.438,-14.160,-23.926,0.000,0
159264.576,-14.160,-18.555,-18.555,-16.602,0.000,0
159264.580,-18.066,-17.090,-25.391,-14.160,0.000,0
159264.584,-26.367,-20.996,-28.809,-16.113,0.000,0
159264.588,-26.855,-24.414,-30.762,-25.879,0.000,0
159264.592,-27.832,-24.414,-24.414,-36.621,0.000,0
159264.596,-26.367,-19.043,-29.297,-23.926,0.000,0
159264.599,-12.695,-19.531,-35.645,-20.996,0.000,0
159264.603,-15.625,-19.531,-24.902,-22.949,0.000,0
159264.607,-16.602,-21.484,-25.391,-19.531,0.000,0
159264.611,-11.230,-24.902,-22.949,-32.715,0.000,0
159264.615,-16.113,-21.973,-31.738,-28.320,0.000,0
159264.619,-24.414,-24.902,-43.457,-12.207,0.000,0
159264.623,-27.832,-26.367,-29.297,-15.625,0.000,0
159264.627,-17.090,-24.414,-20.996,-22.949,0.000,0
159264.631,-13.672,-26.855,-19.043,-39.062,0.000,0
159264.635,-24.414,-25.391,-22.949,-30.273,0.000,0
159264.638,-26.855,-21.973,-12.207,-14.648,0.000,0
159264.642,-25.879,-18.066,-30.273,-19.531,0.000,0
159264.646,-22.949,-18.066,-44.922,-24.414,0.000,0
159264.650,-24.902,-15.137,-23.438,-27.344,0.000,0
159264.654,-22.461,-12.207,-26.367,-26.367,0.000,0
159264.658,-22.461,-10.742,-39.062,-28.320,0.000,0
159264.662,-21.973,-9.277,-40.527,-24.902,0.000,0
159264.666,-10.742,-12.695,-19.531,-17.090,0.000,0
159264.670,-16.602,-7.324,1.953,-29.785,0.000,0
159264.674,-22.949,-7.812,-11.230,-28.809,0.000,0
159264.678,-27.832,-14.160,-28.320,-14.160,0.000,0
159264.681,-27.344,-7.812,-29.297,-10.254,0.000,0
159264.685,-15.137,-7.812,-16.113,-14.160,0.000,0
159264.689,-12.207,-12.695,-16.113,-29.785,0.000,0
159264.693,-19.043,-15.137,-35.645,-28.320,0.000,0
159264.697,-23.438,-19.043,-36.133,-19.531,0.000,0
159264.701,-21.973,-20.996,-29.785,-23.438,0.000,0
159264.705,-27.344,-21.973,-14.160,-33.203,0.000,0
159264.709,-24.414,-18.555,-23.438,-38.574,0.000,0
159264.713,-22.949,-16.602,-33.691,-37.598,0.000,0
159264.717,-17.090,-15.625,-23.438,-29.297,0.000,0
159264.721,-15.625,-11.230,-29.297,-23.438,0.000,0
159264.724,-28.809,-13.184,-31.738,-27.832,0.000,0
159264.728,-33.691,-18.066,-18.066,-27.344,0.000,0
159264.732,-23.926,-18.066,-34.180,-14.648,0.000,0
159264.736,-7.324,-9.766,-38.574,-14.648,0.000,0
159264.740,-11.230,-8.301,-27.832,-13.672,0.000,0
159264.744,-27.832,-9.277,-28.809,-18.066,0.000,0
159264.748,-22.949,-8.301,-16.602,-39.551,0.000,0
159264.752,-23.438,-11.230,-19.531,-40.039,0.000,0
159264.756,-22.949,-15.625,-24.902,-33.203,0.000,0
159264.760,-19.043,-18.066,-34.668,-20.996,0.000,0
159264.763,-15.625,-10.742,-31.250,-15.137,0.000,0
159264.767,-18.066,-11.719,-9.277,-29.297,0.000,0
159264.771,-29.297,-15.137,-17.578,-21.973,0.000,0
159264.775,-26.367,-15.137,-21.973,-13.184,0.000,0
159264.779,-8.789,-12.207,-33.691,-10.742,0.000,0
159264.783,-15.137,-15.625,-37.598,-11.230,0.000,0
159264.787,-15.137,-17.578,-11.719,-24.902,0.000,0
159264.791,-14.648,-17.090,-11.230,-33.203,0.000,0
159264.795,-21.484,-11.719,-36.621,-28.320,0.000,0
159264.799,-14.160,-13.184,-44.434,-15.625,0.000,0
159264.803,-10.742,-19.043,-12.207,-18.555,0.000,1
159264.806,-17.090,-17.578,4.883,-28.809,0.000,0
159264.810,-12.695,-11.719,-37.109,-19.043,0.000,0
159264.814,-10.254,-11.719,-31.738,-16.602,0.000,0
159264.818,-17.578,-16.113,-13.184,-11.230,0.000,0
159264.822,-18.555,-18.066,-32.715,-6.836,0.000,0
159264.826,-13.184,-14.648,-31.738,-19.043,0.000,0
159264.830,-16.602,-16.113,-20.020,-19.531,0.000,0
159264.834,-30.273,-20.508,-16.602,-26.367,0.000,0
159264.838,-22.461,-18.555,-35.156,-27.832,0.000,0
159264.842,-17.090,-15.625,-26.855,-31.738,0.000,0
159264.846,-25.391,-14.160,-16.602,-40.527,0.000,0
159264.849,-27.832,-15.625,-34.668,-39.062,0.000,0
159264.853,-23.926,-18.555,-42.969,-33.203,0.000,0
159264.857,-31.250,-20.996,-48.828,-18.555,0.000,0
159264.861,-42.969,-25.391,-37.598,-23.926,0.000,0
159264.865,-35.645,-19.043,-24.414,-28.809,0.000,0
159264.869,-34.180,-14.160,-41.016,-17.578,0.000,0
159264.873,-35.156,-21.484,-45.410,-14.648,0.000,0
159264.877,-34.180,-23.438,-32.227,-11.230,0.000,0
159264.881,-30.273,-24.902,-38.086,-20.020,0.000,0
159264.885,-15.137,-19.531,-34.668,-24.414,0.000,0
159264.888,-26.367,-14.160,-30.273,-21.484,0.000,0
159264.892,-33.203,-19.531,-40.039,-27.832,0.000,0
159264.896,-17.578,-20.020,-42.480,-19.043,0.000,0
159264.900,-23.926,-19.043,-27.832,-19.531,0.000,0
159264.904,-30.273,-17.578,-19.531,-26.367,0.000,0
159264.908,-23.926,-24.414,-35.156,-24.414,0.000,0
159264.912,-30.273,-22.461,-46.875,-28.320,0.000,0
159264.916,-27.344,-13.672,-33.691,-24.902,0.000,0
159264.920,-25.879,-16.602,-15.137,-22.949,0.000,0
159264.924,-26.367,-16.113,-32.227,-37.109,0.000,0
159264.928,-19.043,-13.672,-47.852,-37.109,0.000,0
159264.931,-21.973,-14.160,-37.109,-31.250,0.000,0
159264.935,-27.344,-18.066,-38.574,-25.879,0.000,0
159264.939,-26.855,-23.438,-36.621,-21.973,0.000,0
159264.943,-26.855,-19.043,-31.250,-23.438,0.000,0
159264.947,-19.531,-16.113,-28.809,-18.066,0.000,0
159264.951,-20.996,-16.602,-27.832,-18.555,0.000,0
159264.955,-25.879,-20.996,-38.574,-17.578,0.000,0
159264.959,-23.438,-20.020,-32.715,-13.672,0.000,0
159264.963,-21.484,-15.625,-11.719,-31.738,0.000,0
159264.967,-27.344,-17.090,-19.531,-41.992,0.000,0
159264.971,-19.043,-27.832,-41.016,-30.273,0.000,0
159264.974,-19.531,-24.902,-45.898,-28.809,0.000,0
159264.978,-35.156,-21.973,-34.180,-34.668,0.000,0
159264.982,-24.414,-23.438,-24.902,-35.156,0.000,0
159264.986,-18.066,-19.043,-37.598,-30.273,0.000,0
159264.990,-28.809,-16.602,-35.645,-29.785,0.000,0
159264.994,-24.902,-19.043,-28.320,-19.531,0.000,0
159264.998,-25.391,-17.090,-27.832,-22.461,0.000,0
159265.002,-33.203,-14.648,-20.996,-34.180,0.000,0
159265.006,-34.668,-13.184,-31.250,-27.344,0.000,0
159265.010,-33.691,-17.090,-21.484,-27.832,0.000,0
159265.013,-25.879,-19.531,-38.086,-21.973,0.000,0
159265.017,-15.137,-21.484,-42.480,-23.438,0.000,0
159265.021,-20.020,-22.461,-8.789,-36.621,0.000,0
159265.025,-29.785,-18.555,-20.508,-33.203,0.000,0
159265.029,-26.855,-22.461,-35.156,-22.949,0.000,0
159265.033,-23.926,-25.391,-36.621,-15.625,0.000,0
159265.037,-28.320,-24.414,-28.320,-17.578,0.000,0
159265.041,-27.344,-23.438,-13.184,-35.156,0.000,0
159265.045,-22.949,-20.508,-27.832,-28.809,0.000,0
159265.049,-18.555,-23.926,-39.062,-14.160,0.000,0
159265.053,-22.949,-20.996,-28.320,-16.113,0.000,0
159265.056,-30.762,-17.578,-22.461,-24.414,0.000,0
159265.060,-19.043,-27.344,-24.902,-39.551,0.000,0
159265.064,-17.578,-30.762,-31.250,-38.086,0.000,0
159265.068,-25.391,-29.297,-30.762,-30.762,0.000,0
159265.072,-29.297,-28.809,-43.945,-20.996,0.000,0
159265.076,-15.625,-31.738,-51.270,-22.949,0.000,0
159265.080,-13.184,-33.691,-20.996,-28.320,0.000,0
159265.084,-26.855,-32.715,-28.809,-23.438,0.000,0
159265.088,-16.602,-37.109,-45.898,-27.344,0.000,0
159265.092,-14.160,-27.832,-38.574,-27.344,0.000,0
159265.096,-18.066,-15.625,-25.879,-12.207,0.000,0
159265.099,-20.020,-13.672,-8.789,-20.508,0.000,0
159265.103,-28.320,-14.160,-16.602,-37.598,0.000,0
159265.107,-23.438,-11.719,-41.992,-31.250,0.000,0
159265.111,-17.090,-14.160,-29.297,-18.555,0.000,0
159265.115,-28.320,-22.461,-8.789,-13.672,0.000,0
159265.119,-25.879,-25.391,-10.742,-25.391,0.000,0
159265.123,-15.137,-13.672,-23.926,-19.531,0.000,0
159265.127,-16.113,-14.648,-29.785,-9.766,0.000,0
159265.131,-17.578,-20.996,-22.461,-15.137,0.000,0
159265.135,-13.672,-19.043,-18.066,-22.949,0.000,0
159265.138,-15.625,-23.926,-20.996,-34.180,0.000,0
159265.142,-16.602,-21.973,-26.367,-29.785,0.000,0
159265.146,-21.484,-19.043,-20.996,-12.207,0.000,0
159265.150,-22.949,-21.973,-39.551,-4.395,0.000,0
159265.154,-24.902,-17.090,-40.527,-19.043,0.000,0
159265.158,-36.621,-18.555,-7.812,-32.227,0.000,0
159265.162,-27.832,-18.066,-22.461,-27.832,0.000,0
159265.166,-18.555,-14.648,-33.203,-25.879,0.000,0
159265.170,-18.555,-16.602,-25.879,-4.883,0.000,0
159265.174,-20.020,-15.625,-27.832,-9.766,0.000,0
159265.178,-30.762,-12.695,-19.043,-38.574,0.000,0
159265.181,-25.391,-14.648,-25.391,-24.414,0.000,0
159265.185,-21.973,-16.602,-33.203,-17.090,0.000,0
159265.189,-27.832,-14.160,-32.227,-25.391,0.000,0
159265.193,-25.879,-13.184,-29.785,-20.020,0.000,0
159265.197,-37.109,-17.578,-29.297,-32.227,0.000,0
159265.201,-43.457,-19.043,-14.648,-47.852,0.000,0
159265.205,-34.668,-23.438,-24.414,-39.551,0.000,0
159265.209,-16.602,-24.902,-52.734,-22.461,0.000,0
159265.213,-20.020,-14.160,-39.551,-16.113,0.000,0
159265.217,-27.344,-18.555,-32.227,-22.461,0.000,0
159265.221,-18.555,-19.043,-46.875,-14.160,0.000,0
159265.224,-20.508,-17.578,-53.223,-10.742,0.000,0
159265.228,-25.879,-20.508,-42.480,-17.578,0.000,0
159265.232,-23.438,-14.648,-36.133,-12.207,0.000,0
159265.236,-31.738,-19.531,-34.180,-20.508,0.000,0
159265.240,-39.551,-22.949,-40.039,-28.320,0.000,0
159265.244,-28.320,-14.648,-37.598,-18.555,0.000,0
159265.248,-24.902,-15.137,-28.320,-16.602,0.000,0
159265.252,-28.320,-16.602,-35.156,-21.973,0.000,0
159265.256,-25.391,-15.625,-27.832,-26.367,0.000,0
159265.260,-20.508,-19.531,-27.344,-24.414,0.000,0
159265.263,-18.555,-19.043,-35.645,-16.113,0.000,0
159265.267,-23.438,-18.555,-31.250,-9.277,0.000,0
159265.271,-29.785,-17.090,-38.086,-14.648,0.000,0
159265.275,-32.227,-15.625,-22.949,-24.902,0.000,0
159265.279,-22.949,-21.484,-15.625,-27.832,0.000,0
159265.283,-20.020,-24.902,-32.715,-26.367,0.000,0
159265.287,-24.414,-27.344,-41.992,-21.484,0.000,0
159265.291,-25.879,-23.438,-32.227,-25.391,0.000,0
159265.295,-19.531,-19.043,-13.184,-19.043,0.000,0
159265.299,-11.230,-15.625,-33.203,-12.207,0.000,0
159265.303,-12.695,-13.672,-38.574,-20.996,0.000,0
159265.306,-13.672,-15.625,-24.902,-22.949,0.000,0
159265.310,-6.836,-10.254,-24.414,-15.137,0.000,0
159265.314,-9.766,-14.648,-14.160,-32.227,0.000,0
159265.318,-22.461,-15.625,-13.672,-34.668,0.000,0
159265.322,-20.020,-12.207,-39.062,-18.555,0.000,0
159265.326,-10.742,-17.578,-41.504,-17.578,0.000,0
159265.330,-12.207,-19.043,-29.785,-17.090,0.000,0
159265.334,-22.461,-18.555,-6.836,-32.715,0.000,0
159265.338,-19.043,-15.137,-2.441,-29.785,0.000,0
159265.342,-7.324,-9.766,-25.391,-25.879,0.000,0
159265.346,-19.531,-12.695,-32.227,-32.715,0.000,0
159265.349,-22.949,-13.672,-28.809,-22.949,0.000,0
159265.353,-20.020,-16.113,-25.879,-33.691,0.000,0
159265.357,-20.508,-17.090,-27.344,-39.062,0.000,0
159265.361,-11.719,-11.230,-32.715,-26.855,0.000,0
159265.365,-18.555,-11.719,-24.414,-22.461,0.000,0
159265.369,-22.461,-13.184,-21.484,-20.508,0.000,0
159265.373,-21.484,-12.695,-18.555,-34.668,0.000,0
159265.377,-25.879,-17.090,-13.184,-34.668,0.000,0
159265.381,-23.438,-16.113,-16.113,-27.344,0.000,0
159265.385,-19.531,-7.324,-13.184,-25.391,0.000,0
159265.388,-12.207,-11.230,-39.062,-19.531,0.000,0
159265.392,-17.090,-15.137,-31.250,-31.738,0.000,0
159265.396,-26.855,-14.648,-8.789,-36.133,0.000,0
159265.400,-21.973,-12.695,-26.855,-26.367,0.000,0
159265.404,-13.672,-12.207,-33.691,-29.785,0.000,0
159265.408,-24.902,-17.090,-35.156,-29.785,0.000,0
159265.412,-27.832,-15.137,-20.508,-33.691,0.000,0
159265.416,-16.602,-14.648,-6.348,-42.969,0.000,0
159265.420,-19.043,-17.578,-39.551,-39.551,0.000,0
159265.424,-22.949,-17.578,-54.199,-29.297,0.000,0
159265.428,-30.273,-18.555,-42.969,-22.461,0.000,0
159265.431,-14.160,-24.902,-45.410,-18.066,0.000,0
159265.435,4.395,-21.973,-26.367,0.488,0.000,0
159265.439,-26.367,-12.695,-28.320,-15.137,0.000,0
159265.443,-34.180,-14.160,-28.320,-38.086,0.000,0
159265.447,-18.066,-18.555,-29.297,-34.180,0.000,0
159265.451,-23.926,-15.625,-31.738,-37.598,0.000,0
159265.455,-26.855,-9.766,-16.113,-38.086,0.000,0
159265.459,-28.320,-17.090,-25.879,-30.273,0.000,0
159265.463,-21.484,-16.602,-40.527,-22.461,0.000,0
159265.467,-15.137,-13.184,-45.410,-14.160,0.000,0
159265.471,-17.578,-15.625,-23.926,-17.578,0.000,0
159265.474,-18.555,-15.137,-9.277,-24.902,0.000,0
159265.478,-17.090,-16.113,-37.109,-25.391,0.000,0
159265.482,-20.508,-16.113,-37.598,-20.996,0.000,0
159265.486,-22.949,-20.508,-21.484,-9.766,0.000,1
159265.490,-15.137,-20.996,-21.973,-20.020,0.000,0
159265.494,-16.602,-15.625,-25.879,-26.367,0.000,0
159265.498,-16.602,-20.996,-41.504,-14.160,0.000,0
159265.502,-20.508,-25.879,-42.969,-20.508,0.000,0
159265.506,-25.879,-24.902,-45.898,-24.902,0.000,0
159265.510,-18.555,-23.926,-33.691,-11.230,0.000,0
159265.513,-13.184,-21.484,-20.508,-7.812,0.000,0
159265.517,-19.043,-15.137,-24.902,-26.855,0.000,0
159265.521,-20.996,-7.324,-38.086,-25.391,0.000,0
159265.525,-23.926,-9.766,-50.293,-11.719,0.000,0
159265.529,-25.879,-12.695,-40.527,-13.672,0.000,0
159265.533,-18.555,-13.672,-20.996,-21.973,0.000,0
159265.537,-22.949,-18.066,-45.898,-24.414,0.000,0
159265.541,-33.691,-27.344,-54.199,-28.809,0.000,0
159265.545,-29.297,-25.879,-34.668,-25.879,0.000,0
159265.549,-19.043,-20.020,-26.855,-30.273,0.000,0
159265.553,-21.973,-19.043,-32.715,-37.109,0.000,0
159265.556,-33.203,-16.602,-45.410,-40.527,0.000,0
159265.560,-34.668,-15.137,-31.250,-34.180,0.000,0
159265.564,-30.762,-15.137,-28.809,-18.555,0.000,0
159265.568,-27.344,-18.066,-28.809,-22.461,0.000,0
159265.572,-23.926,-19.531,-20.508,-26.855,0.000,0
159265.576,-19.043,-12.695,-19.531,-9.766,0.000,0
159265.580,-16.602,-9.766,-32.715,-13.184,0.000,0
159265.584,-11.230,-8.789,-39.062,-18.066,0.000,0
159265.588,-16.113,-9.277,-23.926,-20.508,0.000,0
159265.592,-19.043,-12.695,-16.602,-26.367,0.000,0
159265.596,-12.207,-13.672,-24.414,-20.508,0.000,0
159265.599,-12.207,-11.230,-23.438,-20.996,0.000,0
159265.603,-14.648,-10.742,-26.367,-19.043,0.000,0
159265.607,-10.742,-17.578,-26.855,-22.461,0.000,0
159265.611,-16.113,-14.648,-13.184,-21.973,0.000,0
159265.615,-20.508,-9.766,-21.484,-14.160,0.000,0
159265.619,-15.137,-5.859,-19.531,-20.508,0.000,0
159265.623,-21.484,-4.883,-21.973,-13.184,0.000,0
159265.627,-27.832,-13.672,-43.457,-8.301,0.000,0
159265.631,-23.438,-16.602,-29.785,-26.367,0.000,0
159265.635,-20.996,-10.254,-19.531,-22.461,0.000,0
159265.638,-19.531,-9.277,-30.762,-10.742,0.000,0
159265.642,-19.043,-7.324,-34.180,-16.113,0.000,0
159265.646,-20.508,-10.742,-22.461,-23.438,0.000,0
159265.650,-23.438,-9.766,-9.766,-28.320,0.000,0
159265.654,-17.578,-8.789,-28.809,-23.926,0.000,0
159265.658,-21.484,-13.672,-29.785,-18.555,0.000,0
159265.662,-30.762,-13.184,-26.855,-18.066,0.000,0
159265.666,-27.832,-10.254,-22.461,-11.719,0.000,0
159265.670,-24.902,-11.230,-19.531,-18.555,0.000,0
159265.674,-26.367,-13.672,-34.668,-20.996,0.000,0
159265.678,-29.785,-13.184,-40.527,-22.949,0.000,0
159265.681,-24.414,-20.020,-33.203,-25.879,0.000,0
159265.685,-15.137,-23.438,-22.461,-22.461,0.000,0
159265.689,-17.090,-17.578,-14.160,-38.086,0.000,0
159265.693,-19.043,-20.508,-20.996,-37.598,0.000,0
159265.697,-21.973,-22.949,-21.484,-29.785,0.000,0
159265.701,-39.551,-21.973,-32.715,-31.250,0.000,0
159265.705,-36.133,-24.902,-49.805,-30.762,0.000,0
159265.709,-26.367,-24.414,-23.438,-29.297,0.000,0
159265.713,-24.414,-19.531,-21.973,-25.879,0.000,0
159265.717,-18.066,-17.090,-46.875,-18.555,0.000,0
159265.721,-17.578,-18.066,-44.434,-12.695,0.000,0
159265.724,-23.926,-17.090,-27.344,-13.672,0.000,0
159265.728,-28.320,-17.090,-18.066,-21.973,0.000,0
159265.732,-27.344,-16.113,-34.668,-23.438,0.000,0
159265.736,-23.926,-16.602,-50.781,-25.391,0.000,0
159265.740,-16.113,-21.484,-40.527,-17.578,0.000,0
159265.744,-6.836,-16.602,-26.367,-16.113,0.000,0
159265.748,-10.254,-12.695,-12.695,-36.133,0.000,0
159265.752,-15.137,-9.277,-25.391,-28.320,0.000,0
159265.756,-17.090,-12.207,-31.738,-11.719,0.000,0
159265.760,-15.625,-17.090,-36.621,-14.160,0.000,0
159265.763,-5.859,-16.602,-38.574,-19.531,0.000,0
159265.767,-18.066,-25.391,-20.508,-35.156,0.000,0
159265.771,-32.227,-21.484,-6.836,-28.320,0.000,0
159265.775,-24.414,-11.719,-17.090,-16.602,0.000,0
159265.779,-18.555,-12.695,-32.227,-10.742,0.000,0
159265.783,-17.090,-14.160,-32.715,-19.043,0.000,0
159265.787,-14.648,-17.090,-20.508,-34.180,0.000,0
159265.791,-20.020,-13.184,-29.785,-18.066,0.000,0
159265.795,-22.461,-11.230,-46.387,-9.766,0.000,0
159265.799,-17.578,-13.672,-35.156,-19.043,0.000,0
159265.803,-18.066,-11.719,-21.973,-17.090,0.000,0
159265.806,-22.461,-10.742,-28.320,-24.902,0.000,0
159265.810,-15.625,-10.742,-35.645,-26.367,0.000,0
159265.814,-29.785,-16.602,-25.879,-25.879,0.000,0
159265.818,-41.016,-17.578,-25.391,-26.367,0.000,0
159265.822,-25.879,-13.184,-37.109,-28.809,0.000,0
159265.826,-27.344,-20.996,-12.695,-34.180,0.000,0
159265.830,-29.785,-21.973,-11.230,-28.809,0.000,0
159265.834,-23.438,-19.531,-34.668,-27.832,0.000,0
159265.838,-20.996,-20.508,-44.922,-31.250,0.000,0
159265.842,-14.648,-16.602,-42.969,-18.555,0.000,0
159265.846,-19.531,-18.555,-21.484,-20.996,0.000,0
159265.849,-35.156,-23.438,-22.461,-30.762,0.000,0
159265.853,-33.203,-17.090,-40.527,-19.043,0.000,0
159265.857,-24.902,-17.090,-39.062,-13.672,0.000,0
159265.861,-21.973,-19.043,-20.996,-12.207,0.000,0
159265.865,-21.973,-17.578,-21.973,-20.020,0.000,0
159265.869,-21.484,-17.090,-36.621,-22.949,0.000,0
159265.873,-20.996,-11.230,-34.180,-22.461,0.000,0
159265.877,-1.953,-5.859,-15.625,3.418,0.000,0
159265.881,14.160,-10.254,-23.438,23.438,0.000,0
159265.885,-7.812,-19.043,-43.457,-26.367,0.000,0
159265.888,-27.832,-16.602,-34.668,-44.434,0.000,0
159265.892,-20.996,-18.066,-27.344,-14.648,0.000,0
159265.896,-18.066,-14.648,-23.438,-12.207,0.000,0
159265.900,-9.277,-8.789,-33.203,-13.184,0.000,0
159265.904,-5.859,-13.184,-26.367,-16.602,0.000,0
159265.908,-27.832,-10.254,-4.883,-30.762,0.000,0
159265.912,-21.484,-8.789,-16.602,-27.344,0.000,0
159265.916,-7.812,-14.648,-15.137,-9.277,0.000,0
159265.920,-14.160,-6.348,-21.484,-1.465,0.000,0
159265.924,-11.230,-7.812,-21.973,-15.137,0.000,0
159265.928,0.000,-14.160,-6.348,-29.297,0.000,0
159265.931,-10.254,-12.207,-37.109,-11.230,0.000,0
159265.935,-20.508,-15.137,-36.133,-12.695,0.000,0
159265.939,-18.555,-13.672,-25.391,-13.672,0.000,0
159265.943,-19.043,-10.742,-20.020,-5.371,0.000,0
159265.947,-16.602,-12.695,-10.254,-16.113,0.000,0
159265.951,-20.996,-10.742,-7.812,-10.254,0.000,0
159265.955,-25.879,-15.625,-25.391,-7.812,0.000,0
159265.959,-18.066,-17.578,-38.086,-12.695,0.000,0
159265.963,-18.555,-13.672,-17.090,-17.090,0.000,0
159265.967,-25.879,-20.996,-5.371,-19.531,0.000,0
159265.971,-22.461,-17.090,-33.691,-13.184,0.000,0
159265.974,-17.578,-8.789,-42.480,-9.766,0.000,0
159265.978,-18.555,-13.184,-22.949,-12.695,0.000,0
159265.982,-14.160,-12.695,-4.883,-18.066,0.000,0
159265.986,-14.160,-11.719,-10.742,-28.320,0.000,0
159265.990,-25.879,-15.625,-26.855,-30.762,0.000,0
159265.994,-23.926,-8.301,-15.137,-19.043,0.000,0
159265.998,-24.902,-12.695,-14.160,-15.137,0.000,0
159266.002,-21.973,-21.973,-30.762,-25.391,0.000,0
159266.006,-18.555,-22.949,-22.461,-36.133,0.000,0
159266.010,-15.625,-23.438,-24.414,-25.391,0.000,0
159266.013,-18.066,-22.949,-28.320,-20.020,0.000,0
159266.017,-19.531,-21.973,-33.691,-12.207,0.000,0
159266.021,-23.438,-20.508,-35.645,-13.184,0.000,0
159266.025,-31.250,-19.043,-13.184,-22.949,0.000,0
159266.029,-25.879,-20.996,-18.066,-20.020,0.000,0
159266.033,-27.832,-20.508,-37.109,-24.902,0.000,0
159266.037,-28.809,-16.602,-41.016,-20.996,0.000,0
159266.041,-21.973,-15.137,-21.484,-18.555,0.000,0
159266.045,-13.672,-18.555,-15.625,-27.344,0.000,0
159266.049,-10.742,-17.090,-34.668,-27.832,0.000,0
159266.053,-9.277,-19.531,-32.227,-19.043,0.000,2
159266.056,-6.836,-19.043,-33.203,-1.465,0.000,0
159266.060,-5.859,-22.461,-41.016,-2.441,0.000,0
159266.064,-10.254,-25.391,-20.020,-18.066,0.000,0
159266.068,-19.043,-18.066,-26.855,-15.625,0.000,0
159266.072,-19.043,-20.508,-42.480,-17.578,0.000,0
159266.076,-20.020,-27.832,-37.598,-22.949,0.000,0
159266.080,-23.438,-23.438,-30.762,-24.902,0.000,0
159266.084,-21.484,-20.020,-11.719,-32.227,0.000,0
159266.088,-31.250,-19.043,-7.812,-37.598,0.000,0
159266.092,-24.902,-13.672,-25.391,-29.785,0.000,0
159266.096,-9.277,-14.648,-45.898,-7.324,0.000,0
159266.099,-11.719,-19.531,-30.273,-2.441,0.000,0
159266.103,-14.648,-17.090,-7.324,-23.438,0.000,0
159266.107,-14.160,-18.066,-28.320,-29.297,0.000,0
159266.111,-14.648,-15.625,-29.297,-27.832,0.000,0
159266.115,-18.555,-12.207,-15.137,-17.578,0.000,0
159266.119,-22.949,-13.184,-19.531,-9.277,0.000,0
159266.123,-28.320,-17.090,-15.137,-31.250,0.000,0
159266.127,-26.367,-24.414,-22.949,-33.203,0.000,0
159266.131,-33.203,-28.320,-24.414,-27.344,0.000,0
159266.135,-33.691,-21.484,-36.621,-25.879,0.000,0
159266.138,-17.090,-19.531,-67.383,-15.625,0.000,0
159266.142,-18.066,-20.020,-39.062,-22.949,0.000,0
159266.146,-28.320,-15.137,-18.555,-16.113,0.000,0
159266.150,-20.508,-18.555,-42.480,-7.812,0.000,0
159266.154,-20.508,-20.508,-46.387,-23.926,0.000,0
159266.158,-22.461,-19.043,-36.133,-26.367,0.000,0
159266.162,-15.137,-21.973,-10.254,-28.320,0.000,0
159266.166,-20.508,-21.484,-11.719,-34.180,0.000,0
159266.170,-18.555,-16.113,-26.367,-15.625,0.000,0
159266.174,-12.207,-18.066,-27.344,-10.254,0.000,0
159266.178,-23.438,-22.949,-28.320,-14.648,0.000,0
159266.181,-22.461,-24.902,-28.809,-17.090,0.000,0
159266.185,-14.648,-23.438,-39.062,-36.133,0.000,0
159266.189,-24.902,-19.043,-28.320,-40.527,0.000,0
159266.193,-31.738,-17.090,-11.230,-36.133,0.000,0
159266.197,-17.578,-23.438,-30.273,-20.508,0.000,0
159266.201,-9.277,-22.461,-12.207,-23.926,0.000,0
159266.205,-15.137,-13.672,-3.418,-18.066,0.000,0
159266.209,-19.043,-15.625,-25.879,-1.465,0.000,0
159266.213,-21.973,-20.996,-44.922,-8.789,0.000,0
159266.217,-19.043,-21.484,-23.926,-11.230,0.000,0
159266.221,-20.508,-19.531,-2.930,-19.531,0.000,0
159266.224,-30.273,-20.996,-14.648,-24.902,0.000,0
159266.228,-21.973,-25.391,-21.973,-18.555,0.000,0
159266.232,-19.043,-25.391,-16.602,-16.113,0.000,0
159266.236,-21.484,-20.508,-19.043,-10.254,0.000,0
159266.240,-7.324,-21.484,-24.902,-11.719,0.000,0
159266.244,-7.324,-21.973,-23.926,-15.625,0.000,0
159266.248,-12.695,-20.020,-26.367,-6.836,0.000,0
159266.252,-9.766,-20.996,-28.320,-16.602,0.000,0
159266.256,-8.301,-21.484,-30.273,-21.484,0.000,0
159266.260,-8.301,-22.949,-15.137,-15.625,0.000,0
159266.263,-5.859,-21.484,-20.020,-21.973,0.000,0
159266.267,-6.836,-16.602,-27.344,-21.484,0.000,0
159266.271,-11.230,-17.578,-30.273,-5.371,0.000,0
159266.275,-20.508,-23.926,-29.785,-14.648,0.000,0
159266.279,-20.996,-22.949,-3.418,-31.250,0.000,0
159266.283,-17.578,-27.832,-18.066,-20.996,0.000,0
159266.287,-22.461,-24.902,-41.016,-16.113,0.000,0
159266.291,-19.531,-13.672,-24.902,-14.648,0.000,0
159266.295,-26.367,-18.066,-26.855,-16.602,0.000,0
159266.299,-32.715,-19.043,-27.832,-29.297,0.000,0
159266.303,-28.809,-15.625,-31.250,-30.273,0.000,0
159266.306,-25.879,-13.184,-36.133,-21.973,0.000,0
159266.310,-18.555,-10.254,-27.832,-12.695,0.000,0
159266.314,-20.020,-15.137,-29.297,-12.695,0.000,0
159266.318,-30.762,-19.043,-18.555,-29.297,0.000,0
159266.322,-33.691,-14.160,-15.137,-27.832,0.000,0
159266.326,-26.855,-15.137,-26.367,-21.973,0.000,0
159266.330,-17.578,-19.043,-30.273,-15.137,0.000,0
159266.334,-12.207,-17.578,-26.367,-10.742,0.000,0
159266.338,-17.578,-19.043,-28.320,-19.531,0.000,0
159266.342,-22.461,-22.949,-31.738,-17.090,0.000,0
159266.346,-22.461,-24.902,-38.574,-6.348,0.000,0
159266.349,-22.461,-21.973,-47.852,-15.137,0.000,0
159266.353,-20.020,-18.555,-36.133,-25.391,0.000,0
159266.357,-20.996,-20.020,-22.461,-25.879,0.000,0
159266.361,-16.113,-17.090,-31.250,-23.926,0.000,0
159266.365,-26.367,-20.020,-27.832,-21.484,0.000,0
159266.369,-33.203,-21.484,-29.297,-10.254,0.000,0
159266.373,-21.973,-11.230,-33.691,-12.695,0.000,0
159266.377,-32.227,-5.371,-7.812,-27.344,0.000,0
159266.381,-39.551,-12.207,-25.879,-24.902,0.000,0
159266.385,-31.250,-20.996,-51.270,-25.879,0.000,0
159266.388,-29.297,-16.113,-39.062,-31.738,0.000,0
159266.392,-30.762,-15.137,-23.438,-27.344,0.000,0
159266.396,-24.414,-20.020,-5.859,-33.691,0.000,0
159266.400,-20.996,-16.602,-23.926,-41.992,0.000,0
159266.404,-18.555,-10.742,-30.273,-31.738,0.000,0
159266.408,-21.484,-14.160,-26.855,-17.578,0.000,0
159266.412,-30.273,-15.137,-26.367,-22.949,0.000,0
159266.416,-20.996,-12.695,-20.508,-31.250,0.000,0
159266.420,-23.926,-17.578,-48.828,-21.973,0.000,0
159266.424,-31.250,-25.879,-47.852,-23.926,0.000,0
159266.428,-34.180,-23.926,-14.160,-25.391,0.000,0
159266.431,-29.297,-20.996,-18.555,-29.785,0.000,0
159266.435,-33.691,-24.902,-15.137,-36.133,0.000,0
159266.439,-30.762,-15.137,-19.531,-26.367,0.000,0
159266.443,-19.531,-14.160,-34.180,-18.555,0.000,0
159266.447,-26.367,-23.926,-47.852,-19.531,0.000,0
159266.451,-30.762,-24.902,-36.621,-28.320,0.000,0
159266.455,-33.691,-20.996,-8.301,-31.738,0.000,0
159266.459,-37.598,-17.578,-17.090,-26.855,0.000,0
159266.463,-32.715,-22.461,-38.086,-29.785,0.000,0
159266.467,-22.461,-13.672,-40.527,-20.996,0.000,0
159266.471,-18.555,-8.301,-1.953,-12.207,0.000,0
159266.474,-15.137,-10.254,0.977,-24.902,0.000,0
159266.478,-22.949,-7.324,-24.902,-23.438,0.000,0
159266.482,-30.273,-8.789,-25.391,-7.812,0.000,0
159266.486,-23.438,-10.742,-26.855,-12.695,0.000,0
159266.490,-17.090,-12.695,-21.973,-26.367,0.000,0
159266.494,-12.207,-6.836,-6.348,-30.762,0.000,0
159266.498,-6.348,-11.719,-20.996,-21.973,0.000,0
159266.502,-2.441,-15.625,-28.320,-19.531,0.000,0
159266.506,-12.695,-13.184,-21.484,-16.602,0.000,0
159266.510,-21.973,-14.648,-33.691,-8.301,0.000,0
159266.513,-20.508,-17.090,-27.344,-26.855,0.000,0
159266.517,-26.367,-21.973,-27.344,-27.832,0.000,0
159266.521,-23.926,-28.320,-45.410,-17.578,0.000,0
159266.525,-21.484,-28.320,-32.715,-21.484,0.000,0
159266.529,-32.227,-25.391,-26.855,-23.926,0.000,0
159266.533,-33.203,-25.391,-14.160,-41.992,0.000,0
159266.537,-30.273,-18.555,-14.648,-38.086,0.000,0
159266.541,-36.621,-18.066,-35.645,-30.762,0.000,0
159266.545,-33.203,-19.531,-27.344,-28.320,0.000,0
159266.549,-26.855,-15.137,-28.320,-9.766,0.000,0
159266.553,-20.996,-7.324,-17.090,-23.926,0.000,0
159266.556,-19.531,-4.883,-8.789,-29.785,0.000,0
159266.560,-23.926,-9.277,-11.719,-20.996,0.000,0
159266.564,-17.090,-13.184,-27.344,-27.832,0.000,0
159266.568,-9.766,-25.879,-41.016,-32.227,0.000,0
159266.572,-20.020,-27.832,-20.020,-26.367,0.000,0
159266.576,-22.461,-22.461,-15.625,-23.438,0.000,0
159266.580,-21.484,-26.367,-31.250,-24.414,0.000,0
159266.584,-26.367,-21.484,-37.109,-18.066,0.000,0
159266.588,-29.297,-19.043,-26.367,-20.508,0.000,0
159266.592,-22.949,-17.090,-16.602,-23.438,0.000,0
159266.596,-24.414,-16.113,-27.344,-17.090,0.000,0
159266.599,-29.297,-18.555,-37.109,-13.672,0.000,0
159266.603,-26.855,-13.184,-23.926,-7.324,0.000,1
159266.607,-33.203,-16.113,-15.137,-4.395,0.000,0
159266.611,-35.156,-18.555,-21.484,-22.949,0.000,0
159266.615,-26.855,-11.230,-26.855,-40.527,0.000,0
159266.619,-29.785,-14.160,-35.645,-38.086,0.000,0
159266.623,-36.621,-17.090,-30.273,-30.273,0.000,0
159266.627,-29.785,-23.926,-36.621,-24.414,0.000,0
159266.631,-21.484,-21.973,-28.320,-27.832,0.000,0
159266.635,-20.508,-16.113,-20.996,-37.598,0.000,0
159266.638,-25.391,-17.090,-26.367,-35.645,0.000,0
159266.642,-26.855,-12.695,-37.598,-28.809,0.000,0
159266.646,-19.531,-9.277,-30.273,-19.043,0.000,0
159266.650,-19.531,-7.812,-4.883,-23.438,0.000,0
159266.654,-20.996,-16.113,-10.742,-37.598,0.000,0
159266.658,-16.602,-21.484,-38.574,-26.855,0.000,0
159266.662,-22.461,-15.137,-34.668,-12.695,0.000,0
159266.666,-20.508,-12.207,-28.320,-16.113,0.000,0
159266.670,-16.113,-14.648,-16.602,-23.438,0.000,0
159266.674,-18.066,-17.090,-15.625,-12.695,0.000,0
159266.678,-21.484,-14.648,-32.715,-17.578,0.000,0
159266.681,-23.926,-15.137,-26.367,-25.879,0.000,0
159266.685,-16.602,-20.996,-31.738,-5.859,0.000,0
159266.689,-8.789,-23.926,-27.344,-16.113,0.000,0
159266.693,-17.578,-23.438,-16.602,-28.809,0.000,0
159266.697,-22.949,-17.578,-28.809,-17.090,0.000,0
159266.701,-7.324,-17.578,-35.645,-12.207,0.000,0
159266.705,-3.418,-21.484,-32.227,-8.789,0.000,0
159266.709,-18.066,-29.297,-15.137,-18.066,0.000,0
159266.713,-16.602,-27.344,-19.043,-32.715,0.000,0
159266.717,-11.719,-24.902,-41.992,-29.785,0.000,0
159266.721,-27.344,-24.902,-37.598,-19.531,0.000,0
159266.724,-29.297,-12.207,-35.645,-10.742,0.000,0
159266.728,-20.020,-14.160,-38.574,-21.973,0.000,0
159266.732,-16.113,-20.996,-24.902,-20.020,0.000,0
159266.736,-7.324,-16.113,-29.297,-6.836,0.000,0
159266.740,-0.488,-12.695,-28.809,-15.625,0.000,0
159266.744,-4.883,-18.066,-24.414,-20.508,0.000,0
159266.748,-5.371,-16.113,-34.668,-23.926,0.000,0
159266.752,-6.836,-15.137,-30.273,-28.320,0.000,0
159266.756,-14.160,-15.625,-12.695,-18.555,0.000,0
159266.760,-20.996,-20.996,-22.949,-10.742,0.000,0
159266.763,-25.391,-21.484,-40.527,-10.742,0.000,0
159266.767,-26.855,-15.625,-19.531,-18.066,0.000,0
159266.771,-26.855,-15.137,-6.836,-14.648,0.000,0
159266.775,-21.973,-15.137,-29.297,-4.883,0.000,0
159266.779,-12.695,-18.066,-37.598,-11.230,0.000,0
159266.783,-22.461,-17.090,-33.691,-13.184,0.000,0
159266.787,-30.762,-15.625,-27.832,-15.137,0.000,0
159266.791,-19.043,-14.648,-22.461,-25.391,0.000,0
159266.795,-18.555,-12.695,-28.809,-31.250,0.000,0
159266.799,-22.461,-14.648,-34.180,-24.902,0.000,0
159266.803,-20.020,-17.090,-30.273,-12.695,0.000,0
159266.806,-13.184,-18.066,-30.273,-15.137,0.000,0
159266.810,-14.648,-20.508,-21.973,-27.832,0.000,0
159266.814,-19.043,-21.973,-30.762,-26.367,0.000,0
159266.818,-18.555,-25.879,-32.715,-24.902,0.000,0
159266.822,-20.508,-24.902,-28.320,-18.066,0.000,0
159266.826,-25.879,-23.438,-26.855,-19.531,0.000,0
159266.830,-29.785,-31.250,-23.926,-38.086,0.000,0
159266.834,-28.809,-30.273,-22.949,-34.180,0.000,0
159266.838,-21.484,-27.832,-39.062,-22.949,0.000,0
159266.842,-10.742,-25.391,-46.875,-16.113,0.000,0
159266.846,-16.113,-20.996,-16.602,-21.484,0.000,0
159266.849,-22.949,-18.066,-16.113,-26.855,0.000,0
159266.853,-23.926,-19.531,-37.109,-15.625,0.000,0
159266.857,-23.438,-25.879,-28.320,-16.113,0.000,0
159266.861,-17.090,-22.949,-26.855,-18.066,0.000,0
159266.865,-21.484,-25.879,-33.691,-21.973,0.000,0
159266.869,-23.438,-30.762,-21.973,-18.066,0.000,0
159266.873,-25.391,-21.973,-16.602,-5.371,0.000,0
159266.877,-18.555,-20.508,-28.320,-12.695,0.000,0
159266.881,-21.973,-23.926,-38.574,-22.949,0.000,0
159266.885,-21.484,-22.949,-30.273,-18.066,0.000,0
159266.888,-14.160,-20.508,-7.812,-20.020,0.000,0
159266.892,-11.719,-19.043,-15.625,-22.949,0.000,0
159266.896,-5.859,-21.484,-29.785,-15.137,0.000,0
159266.900,-10.254,-20.508,-35.156,-6.836,0.000,0
159266.904,-13.672,-22.461,-26.855,-11.719,0.000,0
159266.908,-8.301,-21.484,-18.555,-11.719,0.000,0
159266.912,-10.254,-14.160,-44.434,2.930,0.000,0
159266.916,-16.113,-14.160,-51.758,0.000,0.000,0
159266.920,-16.602,-15.625,-22.461,-1.465,0.000,0
159266.924,-16.113,-19.043,-12.695,-5.371,0.000,0
159266.928,-26.367,-18.066,-20.508,-11.719,0.000,0
159266.931,-34.668,-11.719,-17.578,-16.602,0.000,0
159266.935,-32.227,-10.254,-11.719,-20.020,0.000,0
159266.939,-29.297,-14.648,-41.504,-21.484,0.000,0
159266.943,-24.902,-16.602,-28.809,-29.785,0.000,0
159266.947,-19.531,-15.625,0.000,-30.762,0.000,0
159266.951,-23.926,-16.602,-33.203,-16.602,0.000,0
159266.955,-23.438,-12.695,-41.016,-17.090,0.000,0
159266.959,-14.160,-6.348,-24.414,-11.719,0.000,0
159266.963,-20.508,-14.160,-22.949,-17.090,0.000,0
159266.967,-34.180,-17.090,-22.461,-29.785,0.000,0
159266.971,-32.715,-14.648,-33.691,-30.762,0.000,0
159266.974,-36.133,-20.996,-37.109,-26.855,0.000,0
159266.978,-34.668,-22.461,-23.438,-17.578,0.000,0
159266.982,-28.809,-19.043,-29.297,-25.391,0.000,0
159266.986,-24.414,-16.602,-29.785,-29.297,0.000,0
159266.990,-23.438,-22.949,-37.109,-21.973,0.000,0
159266.994,-34.180,-25.879,-41.992,-24.902,0.000,0
159266.998,-31.250,-20.508,-41.992,-20.996,0.000,0
159267.002,-26.367,-25.879,-31.250,-29.297,0.000,0
159267.006,-26.855,-22.461,-9.277,-42.969,0.000,0
159267.010,-27.344,-21.484,-21.484,-37.109,0.000,0
159267.013,-18.066,-27.344,-42.480,-14.160,0.000,0
159267.017,-9.766,-23.926,-40.039,3.906,0.000,0
159267.021,-31.250,-18.555,-26.367,-23.926,0.000,0
159267.025,-43.457,-16.602,-15.137,-45.410,0.000,0
159267.029,-27.832,-17.090,-48.340,-33.691,0.000,0
159267.033,-27.344,-11.719,-62.012,-33.691,0.000,0
159267.037,-34.180,-6.836,-39.551,-27.344,0.000,0
159267.041,-38.574,-20.508,-35.156,-24.902,0.000,0
159267.045,-37.109,-22.461,-26.367,-34.668,0.000,0
159267.049,-39.062,-11.719,-13.672,-34.668,0.000,0
159267.053,-39.062,-17.578,-26.855,-28.320,0.000,0
159267.056,-26.367,-21.973,-40.039,-19.531,0.000,0
159267.060,-18.555,-20.508,-34.668,-14.160,0.000,0
159267.064,-20.996,-18.066,-21.484,-34.180,0.000,0
159267.068,-20.020,-17.090,-21.484,-41.504,0.000,0
159267.072,-14.160,-22.461,-38.574,-37.598,0.000,0
159267.076,-14.160,-22.461,-51.758,-21.484,0.000,0
159267.080,-22.461,-28.320,-47.363,-18.066,0.000,0
159267.084,-34.668,-31.738,-3.418,-38.086,0.000,0
159267.088,-35.645,-24.414,-20.020,-33.203,0.000,0
159267.092,-24.414,-18.066,-53.711,-25.391,0.000,0
159267.096,-21.484,-20.020,-43.945,-35.156,0.000,0
159267.099,-25.391,-24.902,-24.414,-34.180,0.000,0
159267.103,-28.809,-26.367,-5.859,-44.922,0.000,0
159267.107,-23.438,-25.879,-17.090,-36.133,0.000,0
159267.111,-20.996,-25.879,-26.855,-16.113,0.000,0
159267.115,-23.438,-20.508,-30.273,-20.508,0.000,0
159267.119,-17.090,-19.043,-40.039,-25.391,0.000,0
159267.123,-12.695,-18.066,-29.297,-33.203,0.000,0
159267.127,-9.766,-13.672,-17.578,-24.414,0.000,0
159267.131,-18.555,-10.742,-17.090,-13.672,0.000,0
159267.135,-21.484,-10.742,-26.855,-15.625,0.000,0
159267.138,-16.602,-15.137,-23.926,-26.367,0.000,0
159267.142,-15.625,-16.113,-4.883,-30.762,0.000,0
159267.146,-24.902,-7.324,-15.137,-33.203,0.000,0
159267.150,-26.367,-12.695,-33.203,-34.668,0.000,0
159267.154,-15.137,-18.066,-36.621,-17.578,0.000,0
159267.158,-14.160,-13.184,-28.809,-10.254,0.000,0
159267.162,-18.555,-13.672,-17.578,-19.043,0.000,0
159267.166,-19.531,-15.625,-29.785,-25.391,0.000,0
159267.170,-12.207,-13.184,-32.227,-22.949,0.000,1
159267.174,-19.043,-9.277,-2.441,-25.391,0.000,0
159267.178,-19.531,-10.742,-26.367,-8.301,0.000,0
159267.181,-11.230,-14.648,-13.672,-37.109,0.000,0
159267.185,-18.555,-14.160,5.371,-48.340,0.000,0
159267.189,-19.043,-9.766,-41.504,-11.719,0.000,0
159267.193,-11.230,-13.184,-42.969,-15.625,0.000,0
159267.197,-15.625,-20.508,-25.391,-20.996,0.000,0
159267.201,-23.926,-16.602,-16.602,-25.391,0.000,0
159267.205,-13.184,-11.719,-29.785,-25.879,0.000,0
159267.209,-20.996,-12.207,-30.762,-23.438,0.000,0
159267.213,-24.414,-15.625,-31.738,-22.461,0.000,0
159267.217,-22.461,-23.438,-25.879,-13.184,0.000,0
159267.221,-19.531,-21.973,-14.160,-25.391,0.000,0
159267.224,-15.625,-23.926,-32.227,-28.320,0.000,0
159267.228,-29.297,-27.832,-38.574,-19.043,0.000,0
159267.232,-29.785,-19.043,-27.344,-18.555,0.000,0
159267.236,-28.809,-19.043,-26.855,-9.766,0.000,0
159267.240,-22.461,-17.090,-15.137,-19.043,0.000,0
159267.244,-26.367,-20.020,-19.531,-27.832,0.000,0
159267.248,-38.086,-24.902,-24.902,-26.367,0.000,0
159267.252,-28.320,-17.578,-15.137,-24.414,0.000,0
159267.256,-18.066,-17.090,-27.832,-10.254,0.000,0
159267.260,-22.461,-18.555,-21.973,-17.578,0.000,0
159267.263,-35.645,-17.090,-24.414,-25.879,0.000,0
159267.267,-32.227,-16.113,-42.480,-12.695,0.000,0
159267.271,-18.555,-19.043,-35.156,-8.789,0.000,0
159267.275,-24.414,-26.367,-32.715,-13.184,0.000,0
159267.279,-26.855,-26.855,-29.785,-22.461,0.000,0
159267.283,-14.160,-24.414,-25.391,-24.902,0.000,0
159267.287,-14.160,-24.902,-19.531,-16.113,0.000,0
159267.291,-24.414,-22.949,-21.973,-12.207,0.000,0
159267.295,-27.344,-23.926,-32.715,-14.648,0.000,0
159267.299,-27.344,-27.832,-18.066,-20.020,0.000,0
159267.303,-18.066,-29.785,-18.555,-21.973,0.000,0
159267.306,-24.902,-27.344,-25.879,-22.949,0.000,0
159267.310,-34.180,-20.508,-25.391,-21.973,0.000,0
159267.314,-22.461,-20.020,-36.133,-18.066,0.000,0
159267.318,-16.602,-20.996,-16.602,-27.832,0.000,0
159267.322,-24.414,-22.461,-11.230,-33.691,0.000,0
159267.326,-29.297,-23.926,-36.133,-19.043,0.000,0
159267.330,-20.508,-22.949,-53.223,-15.137,0.000,0
159267.334,-18.066,-21.973,-32.715,-24.902,0.000,0
159267.338,-13.184,-19.043,1.953,-30.273,0.000,0
159267.342,-10.742,-21.484,-10.254,-28.320,0.000,0
159267.346,-17.578,-20.020,-34.180,-33.203,0.000,0
159267.349,-21.484,-17.578,-16.602,-30.762,0.000,0
159267.353,-18.555,-16.602,-13.672,-4.395,0.000,0
159267.357,-14.160,-20.508,-33.203,-17.090,0.000,0
159267.361,-16.113,-25.391,-41.992,-43.945,0.000,0
159267.365,-11.719,-26.367,-37.109,-23.926,0.000,0
159267.369,-10.254,-21.973,-22.461,-5.859,0.000,0
159267.373,-11.719,-21.484,-36.621,-4.883,0.000,0
159267.377,-7.324,-28.320,-30.273,-18.555,0.000,0
159267.381,-15.625,-24.414,-20.996,-33.203,0.000,0
159267.385,-24.414,-17.578,-38.574,-28.809,0.000,0
159267.388,-15.137,-20.508,-50.781,-23.438,0.000,0
159267.392,-29.297,-22.461,-44.922,-15.137,0.000,0
159267.396,-41.992,-24.902,-28.809,-21.484,0.000,0
159267.400,-32.227,-25.391,-28.809,-34.668,0.000,0
159267.404,-26.855,-21.973,-43.945,-15.625,0.000,0
159267.408,-15.137,-25.391,-44.434,-6.836,0.000,0
159267.412,-21.973,-23.926,-29.785,-15.137,0.000,0
159267.416,-19.531,-21.484,-15.625,-26.855,0.000,0
159267.420,-4.395,-21.484,-17.090,-35.156,0.000,0
159267.424,-6.348,-18.066,-23.926,-24.414,0.000,0
159267.428,-12.695,-20.508,-24.414,-17.578,0.000,0
159267.431,-16.602,-20.020,-35.645,-9.766,0.000,0
159267.435,-20.508,-21.973,-26.367,-22.461,0.000,0
159267.439,-20.020,-27.344,-15.625,-29.785,0.000,0
159267.443,-20.508,-28.809,-33.691,-11.719,0.000,0
159267.447,-29.785,-30.273,-45.898,-18.066,0.000,0
159267.451,-34.180,-30.273,-54.688,-25.879,0.000,0
159267.455,-20.020,-28.320,-20.020,-19.043,0.000,0
159267.459,-15.625,-22.949,0.488,-22.461,0.000,0
159267.463,-14.648,-21.973,-34.180,-28.320,0.000,0
159267.467,-6.348,-22.949,-31.250,-19.531,0.000,0
159267.471,-13.672,-22.461,-27.344,-21.484,0.000,0
159267.474,-18.066,-22.461,-25.879,-29.297,0.000,0
159267.478,-11.719,-22.461,-21.973,-23.438,0.000,0
159267.482,-14.160,-18.066,-35.156,-12.695,0.000,0
159267.486,-16.113,-22.461,-31.738,-4.883,0.000,0
159267.490,-15.137,-30.273,-28.320,-7.812,0.000,0
159267.494,-16.113,-24.414,-40.039,-27.832,0.000,0
159267.498,-17.578,-27.832,-36.133,-34.180,0.000,0
159267.502,-46.387,-31.250,-16.602,-26.367,0.000,0
159267.506,-45.410,-22.949,-25.391,-21.973,0.000,0
159267.510,-13.672,-21.484,-42.480,-15.625,0.000,0
159267.513,-14.648,-29.297,-32.227,-23.926,0.000,0
159267.517,-30.273,-30.273,-15.137,-36.621,0.000,0
159267.521,-37.109,-26.855,-33.203,-35.156,0.000,0
159267.525,-31.738,-25.879,-42.969,-30.762,0.000,0
159267.529,-24.414,-24.902,-32.227,-27.832,0.000,0
159267.533,-22.949,-22.949,-29.297,-18.555,0.000,0
159267.537,-27.832,-24.414,-27.344,-24.902,0.000,0
159267.541,-27.832,-26.855,-29.297,-24.902,0.000,0
159267.545,-39.062,-31.738,-33.691,-19.043,0.000,0
159267.549,-36.133,-31.250,-32.227,-22.461,0.000,0
159267.553,-26.855,-28.320,-34.180,-22.949,0.000,0
159267.556,-20.020,-28.320,-20.508,-24.414,0.000,0
159267.560,-22.949,-26.855,-17.578,-16.113,0.000,0
159267.564,-25.391,-22.949,-36.133,-12.207,0.000,0
159267.568,-14.648,-26.367,-48.340,-20.508,0.000,0
159267.572,-23.438,-32.227,-45.898,-24.414,0.000,0
159267.576,-22.461,-23.438,-25.391,-29.785,0.000,0
159267.580,-21.973,-25.391,-26.367,-30.273,0.000,0
159267.584,-26.855,-25.879,-31.250,-15.625,0.000,0
159267.588,-21.484,-20.508,-34.180,-12.207,0.000,0
159267.592,-9.277,-19.531,-24.902,-19.531,0.000,0
159267.596,-13.672,-24.414,-14.160,-31.250,0.000,0
159267.599,-15.625,-26.855,-27.832,-37.109,0.000,0
159267.603,-26.367,-21.484,-20.996,-39.551,0.000,0
159267.607,-19.531,-20.020,-18.066,-25.391,0.000,0
159267.611,-19.043,-20.996,-33.203,-10.742,0.000,0
159267.615,-19.531,-19.043,-21.484,-23.926,0.000,0
159267.619,-9.277,-18.066,-12.695,-26.367,0.000,0
159267.623,-14.648,-25.391,-29.785,-14.160,0.000,0
159267.627,-20.996,-30.762,-37.109,-14.160,0.000,0
159267.631,-24.902,-25.391,-37.109,-20.020,0.000,0
159267.635,-36.621,-22.461,-16.113,-30.762,0.000,0
159267.638,-30.273,-21.973,-11.230,-37.598,0.000,0
159267.642,-22.949,-20.508,-36.133,-25.391,0.000,0
159267.646,-32.715,-17.578,-46.387,-22.949,0.000,0
159267.650,-23.438,-15.625,-37.109,-36.621,0.000,0
159267.654,-20.020,-17.090,-21.484,-38.574,0.000,0
159267.658,-18.555,-16.113,-34.180,-27.344,0.000,0
159267.662,-28.320,-16.113,-36.133,-41.992,0.000,0
159267.666,-27.832,-14.648,-30.273,-26.367,0.000,0
159267.670,-4.883,-13.184,-36.621,-0.977,0.000,0
159267.674,-10.742,-16.113,-23.926,-19.531,0.000,0
159267.678,-21.973,-12.207,-18.066,-12.207,0.000,0
159267.681,-9.766,-13.672,-24.902,5.859,0.000,0
159267.685,-8.789,-22.461,-38.574,-6.836,0.000,0
159267.689,-34.668,-21.484,-48.828,-29.785,0.000,0
159267.693,-41.016,-21.973,-24.414,-46.387,0.000,0
159267.697,-17.090,-18.066,-4.395,-41.992,0.000,0
159267.701,-15.137,-11.719,-21.484,-31.250,0.000,0
159267.705,-23.926,-17.090,-28.809,-30.273,0.000,0
159267.709,-25.879,-14.160,-22.461,-17.578,0.000,0
159267.713,-20.996,-9.766,-15.137,-24.902,0.000,0
159267.717,-5.859,-13.672,-21.973,-24.902,0.000,0
159267.721,-20.996,-14.160,-33.203,-6.348,0.000,0
159267.724,-31.250,-15.137,-24.902,-10.742,0.000,0
159267.728,-29.297,-13.184,-31.250,-18.555,0.000,0
159267.732,-27.344,-16.602,-32.715,-20.020,0.000,0
159267.736,-20.020,-20.996,-19.531,-32.227,0.000,0
159267.740,-19.043,-17.578,-21.484,-28.809,0.000,0
159267.744,-27.832,-18.555,-32.715,-10.254,0.000,0
159267.748,-27.832,-16.602,-42.480,-15.137,0.000,0
159267.752,-17.578,-19.531,-21.973,-24.902,0.000,0
159267.756,-18.066,-20.508,-10.254,-25.391,0.000,0
159267.760,-23.926,-14.648,-24.414,-20.996,0.000,0
159267.763,-19.531,-14.160,-19.043,-26.855,0.000,0
159267.767,-16.602,-20.020,-20.996,-22.949,0.000,0
159267.771,-19.531,-20.508,-20.996,-20.996,0.000,0
159267.775,-14.648,-15.137,-20.996,-30.273,0.000,0
159267.779,-17.090,-14.160,-41.016,-27.832,0.000,2
159267.783,-20.996,-16.113,-40.039,-21.973,0.000,0
159267.787,-29.785,-11.230,-25.879,-8.789,0.000,0
159267.791,-22.461,-12.207,-13.672,-12.695,0.000,0
159267.795,-12.207,-25.879,-17.090,-22.949,0.000,0
159267.799,-25.879,-26.367,-38.086,-16.602,0.000,0
159267.803,-23.438,-21.973,-37.598,-22.461,0.000,0
159267.806,-24.902,-26.367,-32.227,-24.414,0.000,0
159267.810,-10.254,-21.973,-29.297,-21.484,0.000,0
159267.814,-12.695,-21.484,-16.113,-29.297,0.000,0
159267.818,-35.645,-20.020,-11.230,-26.855,0.000,0
159267.822,-31.250,-14.648,-19.531,-10.254,0.000,0
159267.826,-15.137,-16.602,-41.016,-12.207,0.000,0
159267.830,-20.020,-22.461,-19.043,-21.484,0.000,0
159267.834,-28.320,-24.902,-0.977,-24.414,0.000,0
159267.838,-11.230,-25.879,-35.645,-22.949,0.000,0
159267.842,-15.625,-22.949,-35.156,-20.996,0.000,0
159267.846,-19.043,-20.508,-30.762,-24.902,0.000,0
159267.849,-20.020,-23.926,-29.785,-32.227,0.000,0
159267.853,-25.879,-22.949,-14.160,-42.969,0.000,0
159267.857,-21.484,-9.766,-12.695,-39.062,0.000,0
159267.861,-27.832,-6.348,-23.438,-26.855,0.000,0
159267.865,-24.414,-14.648,-37.598,-20.508,0.000,0
159267.869,-16.113,-14.648,-27.344,-29.297,0.000,0
159267.873,-24.902,-21.484,-28.320,-33.203,0.000,0
159267.877,-27.832,-23.438,-22.461,-28.320,0.000,0
159267.881,-14.160,-20.996,-17.090,-20.020,0.000,0
159267.885,1.465,-20.996,-33.203,-13.184,0.000,0
159267.888,-20.996,-20.508,-26.855,-15.137,0.000,0
159267.892,-22.461,-22.461,-19.043,-24.414,0.000,0
159267.896,-11.230,-24.414,-41.016,-25.391,0.000,0
