timestamps,TP9,AF7,AF8,TP10,Right AUX,Marker0
159523.502,-19.531,-23.926,-31.738,-14.648,0.000,0
159523.506,-23.438,-22.949,-16.602,-21.973,0.000,0
159523.510,-26.367,-23.438,-32.715,-19.531,0.000,0
159523.513,-26.855,-17.578,-52.246,-17.578,0.000,0
159523.517,-20.996,-18.555,-42.969,-32.715,0.000,0
159523.521,-19.531,-21.973,-21.973,-39.551,0.000,0
159523.525,-24.414,-18.555,-14.160,-38.574,0.000,0
159523.529,-15.625,-15.625,-35.156,-42.480,0.000,0
159523.533,-9.766,-19.043,-29.785,-34.180,0.000,0
159523.537,-19.531,-19.531,-24.414,-10.742,0.000,0
159523.541,-26.855,-17.090,-30.273,-10.742,0.000,0
159523.545,-22.461,-20.020,-22.461,-33.203,0.000,0
159523.549,-18.066,-17.578,-26.367,-40.039,0.000,0
159523.553,-21.973,-17.090,-31.250,-33.203,0.000,0
159523.556,-20.020,-20.508,-28.320,-32.227,0.000,0
159523.560,-16.602,-21.973,-33.203,-33.691,0.000,0
159523.564,-23.926,-20.020,-25.879,-41.504,0.000,0
159523.568,-26.855,-19.043,-24.902,-39.551,0.000,0
159523.572,-32.227,-25.391,-32.227,-30.762,0.000,0
159523.576,-31.738,-23.926,-54.688,-26.855,0.000,0
159523.580,-23.926,-20.508,-49.316,-30.762,0.000,0
159523.584,-31.738,-22.949,-19.531,-30.762,0.000,0
159523.588,-31.738,-23.438,-40.039,-13.672,0.000,0
159523.592,-24.902,-15.137,-53.223,-17.090,0.000,0
159523.596,-30.273,-13.672,-38.574,-14.648,0.000,0
159523.599,-32.715,-13.672,-32.227,-6.348,0.000,0
159523.603,-30.762,-10.742,-25.391,-19.531,0.000,0
159523.607,-28.320,-12.695,-19.043,-36.621,0.000,0
159523.611,-26.367,-10.742,-22.461,-27.344,0.000,0
159523.615,-24.414,-11.719,-25.879,-17.090,0.000,0
159523.619,-20.020,-19.043,-39.551,-20.508,0.000,0
159523.623,-18.066,-18.066,-32.227,-25.391,0.000,0
159523.627,-23.926,-14.160,-16.113,-32.715,0.000,0
159523.631,-24.902,-17.578,-20.508,-15.625,0.000,0
159523.635,-16.602,-12.207,-24.414,-13.184,0.000,0
159523.638,-8.301,-10.254,-25.391,-11.719,0.000,0
159523.642,-11.719,-20.996,-19.531,-17.090,0.000,0
159523.646,-16.602,-24.414,-20.508,-30.762,0.000,0
159523.650,-12.695,-20.996,-38.086,-25.391,0.000,0
159523.654,-8.301,-22.949,-44.922,-27.832,0.000,0
159523.658,-12.695,-17.578,-28.320,-11.230,0.000,0
159523.662,-21.484,-17.090,-18.066,-11.230,0.000,0
159523.666,-22.461,-22.949,-31.250,-35.645,0.000,0
159523.670,-15.625,-21.484,-36.621,-24.414,0.000,0
159523.674,-25.391,-22.461,-15.137,-20.508,0.000,0
159523.678,-38.574,-16.602,-25.879,-16.602,0.000,0
159523.681,-32.227,-17.578,-25.391,-31.250,0.000,0
159523.685,-33.691,-25.391,-17.578,-29.785,0.000,0
159523.689,-41.992,-26.367,-44.922,-17.090,0.000,0
159523.693,-34.668,-32.227,-52.246,-33.203,0.000,0
159523.697,-29.785,-31.250,-47.852,-35.645,0.000,0
159523.701,-38.086,-35.156,-22.949,-26.855,0.000,0
159523.705,-35.645,-33.203,-12.695,-36.621,0.000,0
159523.709,-37.598,-21.973,-36.133,-51.758,0.000,0
159523.713,-36.133,-25.391,-50.781,-38.086,0.000,0
159523.717,-30.762,-26.367,-38.574,-23.926,0.000,0
159523.721,-25.879,-20.996,-12.695,-32.227,0.000,0
159523.724,-21.484,-20.020,-28.320,-28.809,0.000,0
159523.728,-24.902,-21.973,-48.340,-13.672,0.000,0
159523.732,-26.855,-20.996,-41.016,-25.879,0.000,0
159523.736,-22.461,-15.625,-36.133,-23.438,0.000,0
159523.740,-22.461,-13.184,-24.414,-28.809,0.000,0
159523.744,-32.227,-16.602,-17.090,-53.223,0.000,0
159523.748,-20.508,-16.602,-22.461,-33.691,0.000,0
159523.752,-24.414,-14.160,-28.320,-33.203,0.000,0
159523.756,-36.133,-17.578,-33.203,-33.203,0.000,0
159523.760,-37.109,-17.090,-25.879,-29.785,0.000,0
159523.763,-39.551,-15.137,-12.207,-25.391,0.000,0
159523.767,-27.832,-12.207,-28.320,-12.207,0.000,0
159523.771,-19.531,-4.883,-38.086,-20.020,0.000,0
159523.775,-23.438,-8.789,-32.227,-27.832,0.000,0
159523.779,-24.902,-11.719,-23.926,-29.297,0.000,0
159523.783,-24.414,-13.184,-10.254,-44.434,0.000,0
159523.787,-20.508,-12.695,-26.367,-22.949,0.000,0
159523.791,-19.531,-11.230,-36.133,-1.953,0.000,0
159523.795,-23.926,-16.602,-27.344,-29.297,0.000,0
159523.799,-28.320,-17.090,-25.879,-36.133,0.000,0
159523.803,-34.668,-13.672,-15.137,-32.227,0.000,0
159523.806,-28.320,-12.695,-16.602,-34.668,0.000,0
159523.810,-23.926,-12.207,-30.273,-20.996,0.000,0
159523.814,-25.879,-15.625,-43.457,-18.066,0.000,0
159523.818,-25.391,-20.020,-39.551,-26.855,0.000,0
159523.822,-20.508,-25.391,-19.043,-30.762,0.000,0
159523.826,-19.043,-20.508,-24.414,-27.832,0.000,0
159523.830,-19.043,-18.066,-35.645,-22.949,0.000,0
159523.834,-9.277,-22.461,-28.320,-13.184,0.000,0
159523.838,-10.742,-19.043,-14.648,-15.137,0.000,0
159523.842,-14.160,-17.090,-13.672,-25.391,0.000,0
159523.846,-20.508,-16.113,-21.484,-24.902,0.000,0
159523.849,-24.902,-17.578,-18.066,-19.531,0.000,0
159523.853,-23.438,-13.672,-15.137,-19.043,0.000,0
159523.857,-24.902,-12.207,-30.273,-19.531,0.000,0
159523.861,-23.438,-20.508,-36.133,-35.645,0.000,0
159523.865,-27.832,-24.902,-21.973,-32.715,0.000,0
159523.869,-32.715,-24.414,-26.855,-31.250,0.000,0
159523.873,-31.250,-26.367,-33.691,-36.133,0.000,0
159523.877,-28.320,-30.273,-37.598,-14.160,0.000,0
159523.881,-32.715,-26.367,-26.367,-23.926,0.000,0
159523.885,-35.156,-25.391,-12.695,-46.387,0.000,0
159523.888,-29.297,-24.902,-29.785,-44.922,0.000,0
159523.892,-34.668,-24.414,-48.340,-29.297,0.000,0
159523.896,-35.156,-28.809,-30.273,-23.926,0.000,0
159523.900,-18.555,-32.715,-21.973,-10.742,0.000,0
159523.904,-6.836,-32.227,-33.691,1.465,0.000,0
159523.908,-28.320,-33.691,-34.668,-25.879,0.000,0
159523.912,-46.387,-31.738,-31.738,-43.457,0.000,0
159523.916,-33.691,-22.949,-36.621,-27.832,0.000,0
159523.920,-39.551,-22.949,-35.645,-47.852,0.000,0
159523.924,-44.434,-26.367,-36.133,-74.219,0.000,0
159523.928,-39.551,-27.832,-44.922,-49.316,0.000,0
159523.931,-45.898,-29.297,-42.480,-23.926,0.000,0
159523.935,-35.156,-27.832,-36.133,-20.508,0.000,0
159523.939,-26.855,-29.297,-28.809,-22.461,0.000,0
159523.943,-35.156,-28.809,-38.086,-26.855,0.000,0
159523.947,-35.156,-29.297,-49.805,-40.527,0.000,0
159523.951,-33.203,-27.832,-47.363,-39.062,0.000,0
159523.955,-23.926,-24.414,-34.668,-26.367,0.000,0
159523.959,-21.484,-23.926,-10.742,-31.250,0.000,0
159523.963,-22.949,-22.461,-20.020,-47.852,0.000,0
159523.967,-18.066,-17.578,-31.738,-36.621,0.000,0
159523.971,-15.625,-16.602,-22.461,-12.695,0.000,0
159523.974,-11.719,-16.113,-20.996,-19.531,0.000,0
159523.978,-6.348,-13.672,-14.648,-28.320,0.000,0
159523.982,-17.090,-18.066,-13.672,-28.320,0.000,0
159523.986,-31.738,-19.043,-5.859,-32.715,0.000,0
159523.990,-33.691,-17.090,-7.812,-30.273,0.000,0
159523.994,-21.484,-17.090,-31.738,0.000,0.000,0
159523.998,-14.160,-18.066,-31.250,-2.930,0.000,0
159524.002,-20.508,-20.508,-22.949,-23.438,0.000,0
159524.006,-23.926,-23.438,-21.973,-22.949,0.000,0
159524.010,-22.949,-21.973,-39.062,-27.832,0.000,0
159524.013,-24.902,-25.391,-40.527,-26.855,0.000,0
159524.017,-29.297,-28.320,-18.555,-35.156,0.000,0
159524.021,-31.250,-18.066,-13.184,-41.504,0.000,0
159524.025,-24.414,-19.043,-27.832,-34.668,0.000,0
159524.029,-23.926,-20.508,-33.203,-26.855,0.000,0
159524.033,-21.973,-14.648,-34.668,-20.996,0.000,0
159524.037,-26.367,-19.043,-24.414,-32.227,0.000,0
159524.041,-34.180,-21.484,-25.391,-33.691,0.000,0
159524.045,-23.438,-18.555,-37.598,-18.555,0.000,0
159524.049,-24.414,-21.484,-20.996,-6.836,0.000,0
159524.053,-29.785,-17.578,-21.973,-22.461,0.000,0
159524.056,-26.855,-14.160,-21.973,-40.039,0.000,0
159524.060,-29.785,-18.555,-15.137,-35.645,0.000,0
159524.064,-30.762,-19.043,-23.926,-23.438,0.000,0
159524.068,-21.973,-19.043,-22.949,-25.391,0.000,0
159524.072,-13.672,-16.113,-33.203,-27.832,0.000,0
159524.076,-17.578,-10.742,-16.602,-31.738,0.000,0
159524.080,-18.555,-11.719,3.906,-30.273,0.000,0
159524.084,-23.438,-10.254,-15.625,-18.066,0.000,0
159524.088,-29.297,-12.207,-26.367,-40.039,0.000,0
159524.092,-32.715,-15.625,-18.066,-38.574,0.000,0
159524.096,-35.156,-20.508,-16.113,-16.602,0.000,0
159524.099,-27.832,-23.438,-19.043,-32.715,0.000,0
159524.103,-19.043,-14.160,-26.855,-28.809,0.000,0
159524.107,-14.648,-15.137,-29.297,-23.438,0.000,0
159524.111,-19.043,-20.996,-30.273,-23.438,0.000,0
159524.115,-24.414,-23.926,-28.320,-22.461,0.000,0
159524.119,-21.484,-25.879,-22.461,-32.227,0.000,0
159524.123,-19.531,-24.902,-30.762,-19.043,0.000,0
159524.127,-21.973,-20.508,-29.785,-11.230,0.000,0
159524.131,-20.020,-18.555,-29.297,-10.254,0.000,0
159524.135,-23.926,-24.902,-34.668,-23.438,0.000,0
159524.138,-31.250,-21.484,-11.719,-45.410,0.000,0
159524.142,-22.461,-19.531,-19.043,-48.340,0.000,0
159524.146,-22.949,-20.996,-41.016,-42.969,0.000,0
159524.150,-29.297,-21.973,-29.785,-28.809,0.000,0
159524.154,-28.809,-24.902,-23.438,-30.762,0.000,0
159524.158,-23.438,-24.902,-27.344,-41.016,0.000,0
159524.162,-20.508,-26.855,-41.016,-32.227,0.000,0
159524.166,-25.879,-25.391,-38.086,-23.926,0.000,0
159524.170,-25.879,-22.461,-27.832,-16.602,0.000,0
159524.174,-22.461,-19.531,-24.414,-10.254,0.000,0
159524.178,-22.461,-20.508,-23.926,-23.926,0.000,0
159524.181,-24.414,-23.438,-22.461,-21.484,0.000,0
159524.185,-31.738,-20.508,-24.902,-18.066,0.000,0
159524.189,-27.832,-18.066,-37.109,-24.414,0.000,0
159524.193,-27.344,-18.555,-34.180,-32.715,0.000,0
159524.197,-23.926,-17.578,-27.344,-18.066,0.000,0
159524.201,-20.996,-16.113,-27.832,-15.625,0.000,0
159524.205,-27.344,-15.625,-32.227,-37.109,0.000,0
159524.209,-21.484,-24.902,-36.133,-15.137,0.000,0
159524.213,-21.484,-19.043,-37.598,-6.836,0.000,0
159524.217,-32.227,-15.625,-22.949,-29.785,0.000,0
159524.221,-35.645,-24.414,-30.762,-25.391,0.000,0
159524.224,-41.016,-28.320,-47.852,-19.531,0.000,0
159524.228,-47.363,-27.832,-38.086,-28.809,0.000,0
159524.232,-39.062,-27.832,-35.156,-24.902,0.000,0
159524.236,-26.855,-26.855,-38.086,-29.785,0.000,0
159524.240,-31.738,-29.297,-32.227,-28.809,0.000,0
159524.244,-33.691,-27.344,-33.691,-20.508,0.000,0
159524.248,-30.762,-24.414,-41.504,-14.648,0.000,0
159524.252,-35.645,-28.320,-38.574,-12.695,0.000,0
159524.256,-32.227,-22.949,-18.066,-24.414,0.000,0
159524.260,-31.738,-18.066,-23.926,-25.879,0.000,0
159524.263,-30.273,-20.996,-36.133,-21.484,0.000,0
159524.267,-22.461,-25.879,-28.809,-29.297,0.000,0
159524.271,-18.555,-21.484,-21.484,-25.391,0.000,0
159524.275,-25.391,-16.113,-16.602,-25.879,0.000,0
159524.279,-25.391,-13.184,-21.973,-28.809,0.000,0
159524.283,-21.973,-12.207,-37.598,-26.367,0.000,0
159524.287,-27.832,-18.066,-40.039,-20.508,0.000,0
159524.291,-34.180,-19.043,-19.043,-12.207,0.000,0
159524.295,-32.715,-17.578,-23.438,-10.254,0.000,0
159524.299,-27.344,-15.137,-38.574,-13.184,0.000,0
159524.303,-23.926,-17.578,-27.832,-25.879,0.000,0
159524.306,-22.461,-17.578,-26.367,-21.484,0.000,0
159524.310,-23.926,-16.113,-26.367,-5.371,0.000,0
159524.314,-29.785,-13.184,-13.184,-20.020,0.000,0
159524.318,-29.785,-7.812,-16.602,-23.926,0.000,0
159524.322,-19.531,-19.043,-36.621,-18.555,0.000,0
159524.326,-18.555,-23.438,-54.688,-38.086,0.000,0
159524.330,-30.762,-17.090,-26.367,-31.738,0.000,0
159524.334,-37.109,-17.090,2.930,-25.879,0.000,0
159524.338,-26.855,-17.578,-28.320,-33.203,0.000,0
159524.342,-17.578,-16.113,-39.062,-33.691,0.000,0
159524.346,-31.250,-18.555,-38.574,-22.949,0.000,0
159524.349,-33.203,-20.020,-40.039,-17.090,0.000,0
159524.353,-22.461,-20.508,-30.762,-33.203,0.000,0
159524.357,-19.531,-20.996,-40.039,-30.762,0.000,0
159524.361,-24.902,-14.160,-38.574,-18.555,0.000,0
159524.365,-29.785,-11.719,-31.250,-28.809,0.000,0
159524.369,-21.484,-20.508,-30.762,-39.062,0.000,0
159524.373,-23.926,-24.414,-24.414,-37.109,0.000,0
159524.377,-36.133,-17.578,-17.578,-42.480,0.000,0
159524.381,-28.320,-19.531,-17.578,-46.875,0.000,0
159524.385,-20.508,-21.973,-29.785,-32.227,0.000,0
159524.388,-27.344,-27.344,-34.180,-31.250,0.000,0
159524.392,-34.180,-33.203,-21.484,-50.293,0.000,0
159524.396,-32.227,-23.926,-32.715,-35.645,0.000,0
159524.400,-29.297,-19.531,-40.527,-21.973,0.000,0
159524.404,-22.949,-19.043,-39.062,-25.391,0.000,0
159524.408,-8.789,-16.113,-26.855,-5.371,0.000,0
159524.412,-18.555,-14.160,-21.484,-15.137,0.000,0
159524.416,-23.438,-13.672,-32.227,-26.855,0.000,0
159524.420,-25.391,-20.996,-24.902,-5.859,0.000,0
159524.424,-26.855,-18.555,-28.809,-1.953,0.000,0
159524.428,-24.902,-7.324,-23.926,-28.320,0.000,0
159524.431,-27.832,-10.254,-11.230,-28.320,0.000,0
159524.435,-23.438,-12.207,-21.484,-2.441,0.000,0
159524.439,-20.996,-9.277,-21.973,-26.855,0.000,0
159524.443,-20.508,-15.137,-25.879,-32.715,0.000,0
159524.447,-27.832,-21.484,-16.602,-28.809,0.000,0
159524.451,-34.668,-18.555,-5.371,-44.922,0.000,0
159524.455,-29.785,-15.625,-23.438,-35.645,0.000,0
159524.459,-31.738,-20.020,-39.062,-27.832,0.000,0
159524.463,-25.391,-18.555,-26.855,-15.625,0.000,0
159524.467,-17.578,-15.625,-10.254,-9.766,0.000,0
159524.471,-13.672,-14.160,-15.137,-20.508,0.000,0
159524.474,-11.230,-16.113,-27.344,-17.578,0.000,0
159524.478,-16.113,-19.043,-23.926,-14.648,0.000,0
159524.482,-10.254,-11.230,-21.484,-12.695,0.000,0
159524.486,-13.184,-13.672,-29.785,-8.301,0.000,0
159524.490,-26.855,-13.672,-24.414,-14.160,0.000,0
159524.494,-28.320,-9.277,-25.879,-13.184,0.000,0
159524.498,-20.508,-13.184,-22.949,-21.484,0.000,0
159524.502,-18.066,-10.254,-28.320,-29.785,0.000,0
159524.506,-24.414,-13.672,-33.203,-31.250,0.000,0
159524.510,-27.832,-17.578,-11.719,-32.227,0.000,0
159524.513,-23.438,-13.672,-20.508,-31.738,0.000,0
159524.517,-21.484,-15.625,-31.738,-41.992,0.000,0
159524.521,-20.508,-20.508,-31.738,-30.762,0.000,0
159524.525,-11.230,-15.137,-29.297,-18.066,0.000,0
159524.529,-15.137,-14.160,-19.043,-22.461,0.000,0
159524.533,-21.973,-19.531,-25.879,-3.906,0.000,0
159524.537,-12.695,-13.672,-26.855,2.930,0.000,0
159524.541,-20.020,-12.207,-25.879,-7.324,0.000,0
159524.545,-23.926,-14.648,-20.996,-16.602,0.000,0
159524.549,-18.066,-15.137,-11.230,-19.043,0.000,0
159524.553,-30.762,-15.625,-11.230,-11.230,0.000,0
159524.556,-37.109,-23.438,-17.090,-37.598,0.000,0
159524.560,-33.203,-23.438,-33.203,-36.621,0.000,0
159524.564,-34.180,-22.949,-35.645,-24.414,0.000,0
159524.568,-33.691,-23.438,-23.438,-34.180,0.000,0
159524.572,-29.297,-20.508,-41.016,-39.062,0.000,0
159524.576,-22.461,-23.926,-59.082,-34.180,0.000,0
159524.580,-21.484,-21.973,-38.086,-21.484,0.000,0
159524.584,-21.484,-21.484,-18.555,-19.043,0.000,0
159524.588,-10.254,-20.508,-13.672,-21.484,0.000,0
159524.592,-14.160,-13.184,-21.973,-33.691,0.000,0
159524.596,-14.160,-11.230,-19.531,-30.762,0.000,0
159524.599,-14.648,-16.602,-23.926,-14.648,0.000,0
159524.603,-29.785,-19.531,-28.320,-14.648,0.000,0
159524.607,-26.855,-20.996,-26.855,-19.531,0.000,0
159524.611,-27.832,-22.949,-38.574,-24.902,0.000,0
159524.615,-30.762,-29.297,-30.762,-19.043,0.000,0
159524.619,-22.949,-25.391,-25.391,-18.555,0.000,0
159524.623,-23.438,-20.996,-36.621,-33.691,0.000,0
159524.627,-32.227,-21.484,-31.250,-43.457,0.000,0
159524.631,-33.691,-17.090,-25.391,-35.645,0.000,0
159524.635,-28.320,-19.043,-38.574,-27.344,0.000,0
159524.638,-23.926,-20.020,-48.828,-23.926,0.000,0
159524.642,-19.043,-21.973,-36.133,-14.648,0.000,0
159524.646,-22.949,-22.461,-10.254,-20.996,0.000,0
159524.650,-29.785,-15.137,-18.555,-34.180,0.000,0
159524.654,-27.832,-13.184,-46.875,-34.180,0.000,0
159524.658,-37.109,-17.090,-29.785,-33.691,0.000,0
159524.662,-43.945,-17.090,-17.090,-24.902,0.000,0
159524.666,-28.320,-13.672,-15.625,-29.785,0.000,0
159524.670,-24.902,-16.113,-15.625,-35.156,0.000,0
159524.674,-37.598,-23.438,-32.715,-30.762,0.000,0
159524.678,-32.715,-26.855,-35.645,-21.973,0.000,0
159524.681,-29.297,-27.832,-36.621,-20.996,0.000,0
159524.685,-32.715,-24.414,-22.949,-35.645,0.000,0
159524.689,-30.762,-20.508,-24.414,-31.250,0.000,0
159524.693,-38.086,-19.043,-35.156,-24.414,0.000,0
159524.697,-39.551,-22.949,-30.762,-38.086,0.000,0
159524.701,-27.344,-23.926,-40.039,-30.273,0.000,0
159524.705,-22.461,-17.090,-24.414,-28.320,0.000,0
159524.709,-26.367,-10.742,-19.531,-31.250,0.000,0
159524.713,-32.715,-16.113,-39.062,-23.438,0.000,0
159524.717,-41.504,-20.508,-36.133,-27.344,0.000,0
159524.721,-39.062,-20.996,-29.785,-23.438,0.000,0
159524.724,-33.691,-22.461,-25.879,-26.855,0.000,0
159524.728,-25.879,-18.555,-17.578,-22.461,0.000,0
159524.732,-26.367,-16.602,-15.625,-13.672,0.000,0
159524.736,-33.691,-22.461,-21.484,-28.809,0.000,0
159524.740,-34.180,-21.484,-42.480,-33.203,0.000,0
159524.744,-31.738,-25.391,-40.527,-36.133,0.000,0
159524.748,-26.855,-28.320,-18.555,-40.039,0.000,0
159524.752,-20.508,-21.484,-20.020,-28.320,0.000,0
159524.756,-15.137,-27.832,-40.039,-32.227,0.000,0
159524.760,-15.625,-26.367,-38.574,-21.973,0.000,0
159524.763,-11.230,-21.973,-14.160,-6.348,0.000,0
159524.767,-15.137,-26.855,-12.207,-24.414,0.000,0
159524.771,-19.043,-21.484,-26.855,-34.668,0.000,0
159524.775,-22.461,-20.996,-22.461,-20.996,0.000,0
159524.779,-22.461,-26.367,-24.414,-14.648,0.000,0
159524.783,-17.578,-29.297,-22.461,-20.508,0.000,0
159524.787,-29.785,-27.832,-17.090,-42.969,0.000,0
159524.791,-32.715,-29.297,-28.809,-36.133,0.000,0
159524.795,-25.391,-30.762,-20.996,-20.020,0.000,0
159524.799,-19.531,-25.879,-20.996,-15.625,0.000,0
159524.803,-17.090,-19.531,-29.785,-2.441,0.000,0
159524.806,-22.949,-19.043,-21.484,-17.578,0.000,0
159524.810,-20.996,-22.461,-21.973,-20.996,0.000,0
159524.814,-18.555,-24.414,-32.715,-13.672,0.000,0
159524.818,-22.461,-22.461,-44.922,-11.719,0.000,0
159524.822,-23.926,-25.879,-26.367,-17.578,0.000,0
159524.826,-22.461,-23.926,-10.742,-24.414,0.000,0
159524.830,-20.020,-11.230,-21.484,-26.855,0.000,0
159524.834,-22.949,-11.719,-24.902,-38.086,0.000,0
159524.838,-28.809,-16.602,-21.973,-19.043,0.000,0
159524.842,-29.785,-21.484,-26.367,-5.859,0.000,0
159524.846,-18.066,-19.531,-27.344,-22.461,0.000,0
159524.849,-12.207,-20.996,-28.320,-20.508,0.000,0
159524.853,-20.020,-28.320,-37.109,-13.184,0.000,0
159524.857,-20.508,-26.855,-41.992,-18.555,0.000,0
159524.861,-17.090,-26.855,-31.250,-27.344,0.000,0
159524.865,-13.184,-22.461,-10.254,-38.574,0.000,0
159524.869,-7.324,-18.555,-15.625,-28.320,0.000,0
159524.873,-13.184,-21.973,-24.902,-21.484,0.000,0
159524.877,-15.625,-21.484,-20.996,-18.555,0.000,0
159524.881,-16.113,-27.832,-18.555,-14.160,0.000,0
159524.885,-15.625,-30.762,-3.906,-20.020,0.000,0
159524.888,-8.301,-19.043,-11.230,-13.184,0.000,0
159524.892,-9.766,-20.996,-27.832,-9.277,0.000,0
159524.896,-19.043,-29.297,-20.996,-29.785,0.000,0
159524.900,-22.461,-24.902,-19.531,-26.367,0.000,0
159524.904,-14.160,-15.625,-15.137,-11.719,0.000,0
159524.908,-15.625,-22.949,-28.320,-20.508,0.000,0
159524.912,-27.344,-28.320,-13.672,-24.414,0.000,0
159524.916,-25.879,-24.902,-7.324,-19.531,0.000,0
159524.920,-14.648,-23.926,-37.598,-20.020,0.000,0
159524.924,-18.066,-20.508,-25.391,-30.762,0.000,0
159524.928,-37.109,-20.020,-18.555,-25.391,0.000,0
159524.931,-30.273,-20.020,-22.949,-24.902,0.000,0
159524.935,-18.066,-20.020,-29.785,-27.832,0.000,0
159524.939,-23.438,-19.531,-40.039,-28.320,0.000,0
159524.943,-30.273,-18.555,-15.625,-44.922,0.000,0
159524.947,-30.762,-16.602,-2.441,-43.457,0.000,0
159524.951,-22.461,-14.160,-23.926,-29.297,0.000,0
159524.955,-24.414,-18.555,-35.156,-29.785,0.000,0
159524.959,-32.227,-25.391,-39.062,-31.250,0.000,0
159524.963,-37.109,-27.832,-27.832,-38.574,0.000,0
159524.967,-40.527,-24.902,-35.645,-36.133,0.000,0
159524.971,-33.691,-15.625,-34.668,-29.297,0.000,0
159524.974,-37.598,-20.020,-24.902,-38.086,0.000,0
159524.978,-38.086,-24.414,-40.527,-25.879,0.000,0
159524.982,-33.691,-22.461,-28.809,-24.414,0.000,0
159524.986,-39.551,-18.555,-12.207,-24.414,0.000,0
159524.990,-30.762,-17.090,-22.949,-14.160,0.000,0
159524.994,-27.344,-21.973,-30.273,-25.391,0.000,0
159524.998,-38.086,-22.461,-27.832,-25.879,0.000,0
159525.002,-41.016,-22.461,-10.742,-32.227,0.000,0
159525.006,-36.621,-16.602,-13.672,-33.203,0.000,0
159525.010,-38.574,-16.113,-34.180,-28.809,0.000,0
159525.013,-39.062,-19.531,-25.879,-21.484,0.000,0
159525.017,-33.691,-12.695,-20.996,-27.832,0.000,0
159525.021,-34.180,-14.648,-28.320,-27.832,0.000,0
159525.025,-29.297,-19.043,-33.203,-11.230,0.000,0
159525.029,-22.949,-14.160,-41.016,-17.090,0.000,0
159525.033,-33.203,-17.578,-22.949,-27.344,0.000,0
159525.037,-43.945,-17.090,-16.602,-23.438,0.000,0
159525.041,-40.527,-19.531,-21.973,-29.785,0.000,0
159525.045,-39.551,-21.973,-16.113,-34.668,0.000,0
159525.049,-31.250,-20.996,-20.508,-20.020,0.000,0
159525.053,-25.879,-22.461,-26.855,-14.648,0.000,0
159525.056,-22.461,-17.090,-39.062,-15.137,0.000,0
159525.060,-17.578,-19.043,-22.461,-24.414,0.000,0
159525.064,-20.508,-19.531,-7.324,-20.996,0.000,0
159525.068,-20.508,-15.137,-28.809,-10.254,0.000,0
159525.072,-27.832,-16.113,-45.410,-20.996,0.000,0
159525.076,-28.320,-16.602,-44.922,-23.438,0.000,0
159525.080,-29.785,-15.137,-4.883,-26.855,0.000,0
159525.084,-34.668,-19.531,-4.883,-33.203,0.000,0
159525.088,-24.414,-17.090,-28.809,-36.621,0.000,0
159525.092,-24.902,-17.090,-17.090,-30.273,0.000,0
159525.096,-27.832,-20.996,-21.973,-19.043,0.000,0
159525.099,-21.973,-24.902,-24.902,-36.621,0.000,0
159525.103,-15.625,-25.391,-17.578,-41.992,0.000,0
159525.107,-22.461,-18.066,-28.809,-28.809,0.000,0
159525.111,-27.344,-15.137,-28.320,-25.879,0.000,0
159525.115,-17.090,-18.066,-23.438,-24.902,0.000,0
159525.119,-20.020,-16.602,-21.484,-29.785,0.000,0
159525.123,-27.344,-15.625,-22.461,-41.016,0.000,0
159525.127,-19.531,-17.578,-25.879,-43.457,0.000,0
159525.131,-12.695,-18.066,-34.180,-21.973,0.000,0
159525.135,-21.973,-22.949,-40.039,-19.043,0.000,0
159525.138,-23.438,-20.996,-29.785,-43.945,0.000,0
159525.142,-15.137,-12.207,-26.367,-35.156,0.000,0
159525.146,-18.066,-17.090,-32.715,-20.996,0.000,0
159525.150,-17.090,-18.066,-29.785,-28.320,0.000,0
159525.154,-12.695,-12.695,-26.855,-27.832,0.000,0
159525.158,-15.625,-13.672,-23.926,-30.762,0.000,0
159525.162,-15.625,-22.949,-20.508,-34.180,0.000,0
159525.166,-17.578,-15.137,-19.531,-17.090,0.000,0
159525.170,-14.160,-10.254,-21.484,-20.020,0.000,0
159525.174,-5.371,-15.137,-32.227,-26.855,0.000,0
159525.178,-9.277,-14.648,-19.531,-13.672,0.000,0
159525.181,-17.578,-19.043,-11.719,-19.531,0.000,0
159525.185,-19.531,-20.020,-25.391,-24.414,0.000,0
159525.189,-20.508,-20.020,-33.691,0.000,0.000,0
159525.193,-13.184,-24.902,-33.691,5.859,0.000,0
159525.197,-14.160,-18.555,-16.602,-21.973,0.000,0
159525.201,-13.184,-16.113,-19.043,-33.203,0.000,0
159525.205,-16.602,-23.926,-38.574,-19.043,0.000,0
159525.209,-34.180,-27.832,-32.227,-25.391,0.000,0
159525.213,-34.180,-30.762,-19.043,-27.832,0.000,0
159525.217,-29.297,-29.297,-22.949,-20.020,0.000,0
159525.221,-33.203,-24.902,-35.156,-24.902,0.000,0
159525.224,-29.785,-20.508,-27.832,-25.391,0.000,0
159525.228,-25.391,-20.996,-30.762,-18.066,0.000,0
159525.232,-22.949,-20.020,-41.504,-7.812,0.000,0
159525.236,-24.414,-21.484,-35.645,-18.555,0.000,0
159525.240,-21.973,-24.414,-29.297,-29.297,0.000,0
159525.244,-21.484,-27.344,-27.832,-27.832,0.000,0
159525.248,-21.484,-25.391,-31.738,-18.555,0.000,0
159525.252,-19.531,-24.902,-34.668,-20.508,0.000,0
159525.256,-28.809,-25.391,-25.391,-32.715,0.000,0
159525.260,-34.180,-25.391,-18.555,-42.969,0.000,0
159525.263,-20.996,-26.367,-30.762,-31.250,0.000,0
159525.267,-21.973,-25.391,-38.574,-13.672,0.000,0
159525.271,-32.227,-28.320,-43.945,-19.531,0.000,0
159525.275,-28.320,-31.250,-40.527,-21.484,0.000,0
159525.279,-26.855,-28.809,-27.832,-13.672,0.000,0
159525.283,-27.344,-27.344,-33.203,-22.949,0.000,0
159525.287,-21.973,-26.855,-35.156,-15.625,0.000,0
159525.291,-22.461,-21.973,-33.203,-9.277,0.000,0
159525.295,-24.902,-18.066,-28.809,-27.344,0.000,0
159525.299,-28.320,-13.672,-20.508,-39.551,0.000,0
159525.303,-30.762,-13.672,-31.250,-32.227,0.000,0
159525.306,-27.344,-19.043,-46.875,-23.438,0.000,0
159525.310,-26.855,-16.602,-48.828,-26.367,0.000,0
159525.314,-33.691,-13.184,-28.809,-25.391,0.000,0
159525.318,-39.062,-13.672,-0.488,-27.832,0.000,0
159525.322,-37.598,-16.113,-28.809,-34.668,0.000,0
159525.326,-35.156,-18.555,-27.832,-40.527,0.000,0
159525.330,-32.715,-24.414,-29.297,-29.785,0.000,0
159525.334,-36.133,-26.855,-43.945,-22.949,0.000,0
159525.338,-29.785,-23.438,-31.738,-41.016,0.000,0
159525.342,-20.996,-25.879,-34.180,-33.691,0.000,0
159525.346,-23.926,-25.391,-35.156,-31.250,0.000,0
159525.349,-23.926,-18.066,-31.738,-23.926,0.000,0
159525.353,-22.949,-21.973,-39.062,-22.461,0.000,0
159525.357,-27.832,-25.879,-33.203,-43.945,0.000,0
159525.361,-30.762,-15.137,-19.531,-35.645,0.000,0
159525.365,-35.156,-10.742,-13.184,-25.391,0.000,0
159525.369,-27.832,-16.113,-33.203,-20.020,0.000,0
159525.373,-19.043,-17.578,-34.668,-14.648,0.000,0
159525.377,-22.461,-21.484,-13.672,-37.598,0.000,0
159525.381,-17.578,-20.020,-26.367,-34.668,0.000,0
159525.385,-17.090,-21.484,-39.062,-10.742,0.000,0
159525.388,-21.973,-24.414,-35.645,-12.207,0.000,0
159525.392,-23.438,-16.113,-23.926,-30.762,0.000,0
159525.396,-29.785,-19.531,-19.531,-36.621,0.000,0
159525.400,-31.250,-20.020,-28.809,-34.180,0.000,0
159525.404,-34.180,-18.066,-35.645,-23.438,0.000,0
159525.408,-43.945,-16.602,-33.691,-29.785,0.000,0
159525.412,-35.156,-16.113,-31.250,-41.992,0.000,0
159525.416,-26.367,-22.461,-24.414,-35.156,0.000,0
159525.420,-23.926,-15.625,-30.273,-19.043,0.000,0
159525.424,-18.555,-10.742,-37.598,-13.184,0.000,0
159525.428,-20.020,-15.625,-27.832,-26.855,0.000,0
159525.431,-16.113,-15.137,-30.762,-26.367,0.000,0
159525.435,-9.766,-15.625,-36.133,-19.043,0.000,0
159525.439,-14.160,-15.625,-30.273,-25.391,0.000,0
159525.443,-17.578,-17.578,-20.020,-17.578,0.000,0
159525.447,-19.043,-28.320,-34.668,-16.113,0.000,0
159525.451,-20.996,-30.273,-37.109,-25.391,0.000,0
159525.455,-27.344,-28.320,-7.324,-22.949,0.000,0
159525.459,-29.785,-25.879,-28.809,-18.555,0.000,0
159525.463,-20.020,-23.438,-50.293,-16.602,0.000,0
159525.467,-12.695,-29.297,-27.832,-18.555,0.000,0
159525.471,-23.926,-35.156,-20.996,-16.113,0.000,0
159525.474,-26.855,-35.156,-20.996,-18.555,0.000,0
159525.478,-21.484,-28.320,-16.113,-28.809,0.000,0
159525.482,-24.902,-21.484,-17.578,-22.461,0.000,0
159525.486,-19.531,-19.531,-27.832,-17.578,0.000,0
159525.490,-15.137,-21.484,-32.227,-20.996,0.000,0
159525.494,-24.414,-29.785,-22.949,-34.668,0.000,0
159525.498,-32.227,-37.598,-18.555,-41.992,0.000,0
159525.502,-26.367,-29.297,-26.855,-27.832,0.000,0
159525.506,-25.879,-22.461,-33.203,-26.855,0.000,0
159525.510,-22.949,-25.391,-34.668,-24.414,0.000,0
159525.513,-20.996,-25.879,-16.113,-26.367,0.000,0
159525.517,-25.391,-21.484,-13.184,-27.832,0.000,0
159525.521,-22.949,-23.926,-34.180,-19.531,0.000,0
159525.525,-15.137,-27.832,-41.016,-20.508,0.000,0
159525.529,-21.973,-22.461,-22.461,-17.578,0.000,0
159525.533,-30.762,-20.508,-20.020,-20.996,0.000,0
159525.537,-26.855,-21.973,-37.598,-24.414,0.000,0
159525.541,-20.996,-23.438,-28.320,-20.996,0.000,0
159525.545,-29.297,-21.973,-12.695,-19.531,0.000,0
159525.549,-22.461,-20.996,-29.297,-15.137,0.000,0
159525.553,-9.766,-27.344,-29.297,-17.090,0.000,0
159525.556,-20.508,-32.715,-16.602,-35.645,0.000,0
159525.560,-33.203,-25.879,-26.855,-33.203,0.000,0
159525.564,-33.203,-24.414,-35.645,-24.902,0.000,0
159525.568,-23.926,-20.996,-26.367,-20.020,0.000,0
159525.572,-24.902,-15.137,-13.184,-22.949,0.000,0
159525.576,-25.391,-16.602,-15.137,-32.227,0.000,0
159525.580,-20.996,-23.438,-31.738,-23.438,0.000,0
159525.584,-35.645,-28.320,-35.645,-21.484,0.000,0
159525.588,-38.574,-25.391,-29.785,-23.438,0.000,0
159525.592,-27.344,-21.973,-32.715,-21.973,0.000,0
159525.596,-25.391,-24.414,-26.855,-28.809,0.000,0
159525.599,-25.879,-26.855,-27.832,-34.668,0.000,0
159525.603,-21.484,-26.367,-28.320,-37.109,0.000,0
159525.607,-18.555,-24.414,-28.809,-33.203,0.000,0
159525.611,-28.320,-25.391,-25.879,-41.992,0.000,0
159525.615,-26.855,-23.926,-17.090,-37.109,0.000,0
159525.619,-31.250,-21.484,-21.484,-22.461,0.000,0
159525.623,-39.062,-20.996,-32.715,-23.926,0.000,0
159525.627,-34.668,-22.949,-40.039,-22.461,0.000,0
159525.631,-38.574,-23.438,-26.855,-29.785,0.000,0
159525.635,-35.156,-20.508,-13.672,-35.645,0.000,0
159525.638,-22.461,-25.391,-39.062,-31.738,0.000,0
159525.642,-24.902,-25.879,-62.012,-29.297,0.000,0
159525.646,-28.809,-21.973,-43.457,-27.344,0.000,0
159525.650,-22.949,-18.555,-18.555,-20.508,0.000,0
159525.654,-18.555,-15.625,-20.996,-41.016,0.000,0
159525.658,-21.484,-17.578,-30.273,-49.316,0.000,0
159525.662,-27.832,-19.531,-19.531,-30.273,0.000,0
159525.666,-35.645,-20.508,-26.855,-33.203,0.000,0
159525.670,-33.691,-21.973,-36.621,-35.645,0.000,0
159525.674,-29.785,-25.391,-23.438,-43.457,0.000,0
159525.678,-37.109,-27.832,-25.879,-46.387,0.000,0
159525.681,-31.250,-22.949,-33.203,-30.762,0.000,0
159525.685,-20.996,-18.066,-39.062,-20.508,0.000,0
159525.689,-20.020,-21.484,-38.086,-22.949,0.000,0
159525.693,-26.367,-26.367,-4.395,-28.320,0.000,0
159525.697,-33.691,-23.438,-19.043,-29.785,0.000,0
159525.701,-31.738,-21.973,-41.016,-28.809,0.000,0
159525.705,-29.297,-22.949,-30.762,-26.855,0.000,0
159525.709,-29.297,-25.879,-22.461,-25.879,0.000,0
159525.713,-23.438,-31.738,-13.672,-37.598,0.000,0
159525.717,-19.043,-27.832,-25.391,-38.574,0.000,0
159525.721,-16.113,-21.973,-32.715,-30.273,0.000,0
159525.724,-21.973,-23.926,-41.016,-18.066,0.000,0
159525.728,-26.855,-22.461,-48.828,-6.836,0.000,0
159525.732,-21.973,-29.297,-38.574,-25.391,0.000,0
159525.736,-29.785,-28.320,-28.809,-30.762,0.000,0
159525.740,-33.691,-22.949,-12.695,-32.715,0.000,0
159525.744,-29.785,-27.344,-44.922,-36.621,0.000,0
159525.748,-24.902,-26.367,-55.176,-28.809,0.000,0
159525.752,-27.832,-24.902,-20.508,-32.715,0.000,0
159525.756,-21.973,-28.320,-28.809,-24.414,0.000,0
159525.760,-4.395,-26.367,-49.316,-2.930,0.000,0
159525.763,-26.367,-17.090,-40.527,-15.625,0.000,0
159525.767,-42.480,-10.254,-23.438,-29.785,0.000,0
159525.771,-39.062,-9.766,-20.020,-28.320,0.000,0
159525.775,-24.902,-12.695,-32.227,-21.973,0.000,0
159525.779,-12.695,-12.207,-34.668,-14.648,0.000,0
159525.783,-29.785,-11.719,-13.672,-19.531,0.000,0
159525.787,-35.645,-10.254,-23.438,-29.297,0.000,0
159525.791,-29.785,-16.113,-28.809,-33.203,0.000,0
159525.795,-31.250,-19.043,-28.809,-40.039,0.000,0
159525.799,-29.297,-14.160,-31.250,-46.875,0.000,0
159525.803,-29.297,-13.672,-30.762,-30.762,0.000,0
159525.806,-32.227,-14.648,-32.715,-20.020,0.000,0
159525.810,-28.809,-14.648,-14.160,-20.020,0.000,0
159525.814,-26.367,-15.625,-20.508,-21.484,0.000,0
159525.818,-27.344,-18.066,-36.621,-20.020,0.000,0
159525.822,-19.043,-17.578,-35.156,-17.090,0.000,0
159525.826,-19.043,-13.184,-31.250,-15.137,0.000,0
159525.830,-29.785,-14.160,-12.695,-27.344,0.000,0
159525.834,-20.508,-14.648,-19.531,-44.434,0.000,0
159525.838,-17.090,-14.160,-26.855,-35.645,0.000,0
159525.842,-17.578,-19.531,-9.277,-26.855,0.000,0
159525.846,-17.090,-17.090,-18.555,-22.949,0.000,0
159525.849,-22.461,-15.137,-28.320,-21.484,0.000,0
159525.853,-21.973,-21.973,-26.367,-26.855,0.000,0
159525.857,-26.855,-23.438,-22.461,-34.668,0.000,0
159525.861,-28.320,-23.438,-14.648,-37.598,0.000,0
159525.865,-20.508,-21.484,-18.066,-16.113,0.000,0
159525.869,-29.297,-26.367,-25.879,-20.508,0.000,0
159525.873,-36.133,-30.762,-22.461,-26.855,0.000,0
159525.877,-23.438,-30.273,-31.250,-8.789,0.000,0
159525.881,-23.438,-26.367,-42.480,-15.625,0.000,0
159525.885,-27.832,-22.461,-32.227,-20.508,0.000,0
159525.888,-28.320,-22.461,-15.625,-7.324,0.000,0
159525.892,-25.879,-21.973,-14.160,-16.113,0.000,0
159525.896,-20.508,-22.949,-12.695,-38.574,0.000,0
159525.900,-25.879,-26.855,-13.184,-29.297,0.000,0
159525.904,-34.180,-23.926,-28.320,-23.438,0.000,0
159525.908,-30.762,-20.996,-26.855,-26.855,0.000,0
159525.912,-28.320,-21.973,-20.020,-21.484,0.000,0
159525.916,-30.273,-22.949,-28.320,-16.602,0.000,0
159525.920,-29.785,-17.090,-23.438,-14.160,0.000,0
159525.924,-12.695,-13.184,-28.320,-18.066,0.000,0
159525.928,-18.066,-20.020,-27.832,-16.602,0.000,0
159525.931,-33.691,-23.438,-22.461,-18.066,0.000,0
159525.935,-27.344,-17.578,-32.715,-32.227,0.000,0
159525.939,-28.320,-13.184,-39.062,-33.203,0.000,0
159525.943,-29.297,-11.719,-34.668,-35.156,0.000,0
159525.947,-27.832,-9.766,-15.625,-20.996,0.000,0
159525.951,-31.250,-14.648,-18.555,-17.578,0.000,0
159525.955,-36.621,-20.996,-40.527,-24.414,0.000,0
159525.959,-30.762,-20.508,-33.203,-23.438,0.000,0
159525.963,-27.344,-19.043,-16.113,-22.461,0.000,0
159525.967,-19.043,-14.648,-15.625,-20.508,0.000,0
159525.971,-7.324,-16.113,-26.855,-25.879,0.000,0
159525.974,-12.695,-23.926,-34.180,-24.414,0.000,0
159525.978,-19.043,-24.414,-25.391,-9.766,0.000,0
159525.982,-17.578,-19.043,-21.973,0.977,0.000,0
159525.986,-18.066,-15.137,-17.090,-4.883,0.000,0
159525.990,-28.320,-19.043,-13.184,-20.996,0.000,0
159525.994,-28.320,-22.949,-29.297,-18.555,0.000,0
159525.998,-21.484,-26.855,-37.598,-9.766,0.000,0
159526.002,-24.902,-21.484,-36.621,-10.254,0.000,0
159526.006,-25.391,-10.742,-18.555,-15.137,0.000,0
159526.010,-23.926,-10.742,0.488,-28.809,0.000,0
159526.013,-22.949,-14.160,-23.926,-42.969,0.000,0
159526.017,-22.461,-14.160,-36.133,-22.949,0.000,0
159526.021,-17.090,-14.648,-29.785,-10.742,0.000,0
159526.025,-16.602,-15.625,-25.391,-20.020,0.000,0
159526.029,-21.484,-14.160,-18.066,-31.250,0.000,0
159526.033,-21.973,-10.742,-28.320,-34.180,0.000,0
159526.037,-22.949,-11.719,-22.949,-32.227,0.000,0
159526.041,-28.809,-14.648,-24.414,-10.254,0.000,0
159526.045,-24.414,-20.020,-28.320,1.953,0.000,1
159526.049,-25.879,-22.461,-17.578,-29.297,0.000,0
159526.053,-29.785,-16.602,-32.227,-23.926,0.000,0
159526.056,-20.996,-18.066,-37.109,-8.301,0.000,0
159526.060,-16.602,-18.066,-39.551,-11.230,0.000,0
159526.064,-25.879,-21.484,-14.160,-29.785,0.000,0
159526.068,-19.531,-23.926,-5.371,-33.203,0.000,0
159526.072,-12.207,-21.484,-38.574,-25.879,0.000,0
159526.076,-22.949,-22.461,-35.645,-26.367,0.000,0
159526.080,-20.020,-22.949,-31.250,-17.578,0.000,0
159526.084,-18.066,-22.949,-24.414,-35.156,0.000,0
159526.088,-20.020,-25.391,-23.926,-35.156,0.000,0
159526.092,-17.090,-25.879,-32.227,-24.414,0.000,0
159526.096,-19.531,-24.414,-24.414,-26.855,0.000,0
159526.099,-24.902,-23.926,-31.738,-15.137,0.000,0
159526.103,-23.438,-20.020,-42.480,-23.438,0.000,0
159526.107,-24.414,-14.160,-23.438,-36.621,0.000,0
159526.111,-22.949,-11.230,-9.277,-18.066,0.000,0
159526.115,-21.484,-15.625,-23.438,-17.578,0.000,0
159526.119,-13.672,-14.648,-40.527,-20.020,0.000,0
159526.123,-9.277,-18.066,-28.809,-13.184,0.000,0
159526.127,-26.367,-21.484,-17.578,-19.043,0.000,0
159526.131,-23.926,-11.719,-30.273,-27.832,0.000,0
159526.135,-19.531,-12.695,-41.016,-20.508,0.000,0
159526.138,-24.414,-11.230,-28.809,-16.113,0.000,0
159526.142,-27.344,-9.277,-18.066,-30.762,0.000,0
159526.146,-29.297,-20.996,-28.809,-37.598,0.000,0
159526.150,-27.344,-21.973,-29.297,-41.992,0.000,0
159526.154,-36.133,-18.066,-30.273,-34.668,0.000,0
159526.158,-31.250,-16.602,-34.668,-8.301,0.000,0
159526.162,-20.508,-14.648,-35.645,-19.043,0.000,0
159526.166,-25.879,-14.160,-25.391,-42.969,0.000,0
159526.170,-23.926,-17.090,-34.180,-34.668,0.000,0
159526.174,-21.973,-22.949,-35.156,-35.645,0.000,0
159526.178,-28.320,-18.066,-32.227,-39.062,0.000,0
159526.181,-24.902,-16.113,-46.387,-34.180,0.000,0
159526.185,-25.391,-16.602,-34.180,-45.410,0.000,0
159526.189,-26.855,-10.254,-24.414,-36.133,0.000,0
159526.193,-21.484,-12.207,-29.785,-26.855,0.000,0
159526.197,-16.602,-16.602,-34.668,-27.344,0.000,0
159526.201,-23.438,-21.484,-21.973,-25.391,0.000,0
159526.205,-32.715,-23.438,-20.996,-37.598,0.000,0
159526.209,-25.879,-21.973,-40.039,-43.945,0.000,0
159526.213,-23.926,-23.438,-37.598,-34.180,0.000,0
159526.217,-35.645,-24.902,-37.109,-29.785,0.000,0
159526.221,-27.832,-21.973,-38.574,-26.855,0.000,0
159526.224,-20.020,-15.625,-21.973,-25.879,0.000,0
159526.228,-20.508,-16.113,-23.438,-21.484,0.000,0
159526.232,-24.414,-13.672,-32.227,-8.301,0.000,0
159526.236,-24.902,-14.648,-36.621,-31.738,0.000,0
159526.240,-28.320,-11.719,-41.016,-39.062,0.000,0
159526.244,-30.762,-11.719,-21.484,-24.902,0.000,0
159526.248,-26.855,-7.324,-14.648,-24.902,0.000,0
159526.252,-22.949,-6.836,-27.832,-30.762,0.000,0
159526.256,-27.344,-18.555,-27.344,-35.645,0.000,0
159526.260,-24.902,-13.672,-33.203,-21.484,0.000,0
159526.263,-22.461,-19.043,-30.273,-20.508,0.000,0
159526.267,-31.738,-26.367,-35.156,-22.461,0.000,0
159526.271,-29.297,-23.926,-39.062,-22.949,0.000,0
159526.275,-20.996,-21.484,-30.762,-22.949,0.000,0
159526.279,-20.020,-18.066,-20.996,-27.344,0.000,0
159526.283,-24.414,-16.113,-15.625,-36.621,0.000,0
159526.287,-25.879,-15.137,-21.973,-31.250,0.000,0
159526.291,-20.508,-16.113,-30.273,-21.484,0.000,0
159526.295,-16.113,-15.625,-43.945,-30.762,0.000,0
159526.299,-20.508,-16.113,-35.645,-38.086,0.000,0
159526.303,-25.391,-18.066,-17.090,-35.645,0.000,0
159526.306,-22.461,-15.625,-19.531,-35.156,0.000,0
159526.310,-19.043,-19.043,-26.855,-31.250,0.000,0
159526.314,-26.367,-21.973,-31.250,-15.137,0.000,0
159526.318,-25.391,-15.137,-27.832,-12.695,0.000,0
159526.322,-19.531,-16.602,-25.879,-31.250,0.000,0
159526.326,-8.301,-21.484,-35.645,-38.086,0.000,0
159526.330,-8.789,-24.902,-32.715,-22.949,0.000,0
159526.334,-46.387,-20.996,-29.297,-32.227,0.000,0
159526.338,-53.223,-14.648,-35.156,-52.246,0.000,0
159526.342,-25.879,-18.066,-15.137,-46.875,0.000,0
159526.346,-23.926,-19.043,-8.789,-41.504,0.000,0
159526.349,-31.738,-21.484,-24.414,-41.504,0.000,0
159526.353,-38.086,-25.391,-37.109,-37.109,0.000,0
159526.357,-39.062,-24.902,-37.598,-40.527,0.000,0
159526.361,-28.809,-20.508,-22.949,-38.086,0.000,0
159526.365,-24.414,-16.602,-19.531,-22.949,0.000,0
159526.369,-16.602,-21.484,-31.250,-3.418,0.000,0
159526.373,-12.695,-18.555,-28.809,-9.277,0.000,0
159526.377,-23.438,-16.602,-21.484,-22.461,0.000,0
159526.381,-33.203,-20.996,-18.066,-20.508,0.000,0
159526.385,-29.785,-20.508,-35.156,-24.414,0.000,0
159526.388,-25.391,-20.508,-37.109,-26.855,0.000,0
159526.392,-25.879,-19.531,-25.879,-9.277,0.000,0
159526.396,-25.391,-19.043,-24.902,-20.996,0.000,0
159526.400,-22.461,-18.555,-19.043,-40.039,0.000,0
159526.404,-12.207,-14.160,-28.320,-25.879,0.000,0
159526.408,-19.043,-13.184,-31.250,-11.230,0.000,0
159526.412,-22.949,-17.090,-29.785,-17.578,0.000,0
159526.416,-19.531,-18.555,-21.484,-14.160,0.000,0
159526.420,-21.973,-15.625,-10.742,-7.324,0.000,0
159526.424,-20.996,-12.207,-15.137,-22.949,0.000,0
159526.428,-25.391,-12.695,-26.855,-29.785,0.000,0
159526.431,-25.879,-15.625,-47.363,-22.461,0.000,0
159526.435,-18.555,-18.066,-23.438,-24.902,0.000,0
159526.439,-25.391,-20.508,-2.441,-26.855,0.000,0
159526.443,-32.715,-25.879,-37.109,-19.043,0.000,0
159526.447,-33.203,-22.949,-40.527,-18.555,0.000,0
159526.451,-29.785,-19.531,-29.785,-24.414,0.000,0
159526.455,-32.227,-20.508,-17.578,-24.414,0.000,0
159526.459,-35.645,-14.648,-19.531,-29.297,0.000,0
159526.463,-26.855,-12.207,-33.203,-23.926,0.000,0
159526.467,-17.090,-17.090,-31.250,-13.184,0.000,0
159526.471,-21.973,-25.391,-23.926,-19.531,0.000,0
159526.474,-18.555,-19.043,-18.066,-24.902,0.000,0
159526.478,-21.973,-12.695,-19.043,-17.090,0.000,0
159526.482,-36.133,-20.996,-28.809,-25.391,0.000,0
159526.486,-31.250,-22.949,-35.645,-31.250,0.000,0
159526.490,-31.738,-20.996,-25.879,-29.785,0.000,0
159526.494,-33.203,-18.066,-14.648,-35.156,0.000,0
159526.498,-25.879,-18.066,-18.555,-24.902,0.000,0
159526.502,-26.367,-15.137,-28.809,-20.996,0.000,0
159526.506,-24.902,-15.625,-28.320,-28.320,0.000,0
159526.510,-27.832,-22.461,-21.484,-21.973,0.000,0
159526.513,-28.809,-24.414,-19.043,-30.273,0.000,0
159526.517,-22.949,-22.949,-20.508,-35.645,0.000,0
159526.521,-26.367,-22.949,-20.020,-26.855,0.000,0
159526.525,-23.438,-30.273,-20.508,-31.250,0.000,0
159526.529,-16.602,-26.367,-32.715,-18.555,0.000,0
159526.533,-20.996,-19.531,-26.367,-36.133,0.000,0
159526.537,-26.855,-26.855,-25.391,-34.668,0.000,0
159526.541,-31.250,-26.367,-34.668,-7.324,0.000,0
159526.545,-26.855,-16.602,-36.621,-16.113,0.000,0
159526.549,-28.320,-22.461,-35.156,-21.973,0.000,0
159526.553,-30.273,-23.926,-11.230,-20.020,0.000,0
159526.556,-23.438,-20.508,-21.484,-11.719,0.000,0
159526.560,-20.508,-18.555,-42.969,-12.695,0.000,0
159526.564,-30.762,-17.090,-31.738,-19.043,0.000,0
159526.568,-36.621,-27.344,-26.367,-29.297,0.000,0
159526.572,-41.504,-32.227,-23.438,-41.504,0.000,0
159526.576,-29.785,-28.320,-32.227,-36.133,0.000,0
159526.580,-19.531,-20.996,-43.945,-30.273,0.000,0
159526.584,-24.414,-24.414,-20.996,-20.508,0.000,0
159526.588,-25.879,-23.926,-15.137,-18.555,0.000,0
159526.592,-34.180,-25.879,-28.809,-33.203,0.000,0
159526.596,-32.227,-27.832,-25.391,-38.086,0.000,0
159526.599,-26.367,-20.508,-22.461,-25.391,0.000,0
159526.603,-17.090,-19.043,-32.227,-10.742,0.000,0
159526.607,-14.160,-23.926,-33.691,-11.719,0.000,0
159526.611,-20.996,-30.273,-18.066,-23.926,0.000,0
159526.615,-27.344,-29.297,-11.719,-27.344,0.000,0
159526.619,-24.902,-24.902,-24.902,-20.508,0.000,0
159526.623,-21.484,-23.926,-32.227,-18.555,0.000,0
159526.627,-26.367,-24.414,-18.555,-23.926,0.000,0
159526.631,-39.062,-25.879,-3.418,-30.273,0.000,0
159526.635,-41.504,-26.367,-18.555,-23.438,0.000,0
159526.638,-29.297,-28.809,-41.992,-24.902,0.000,0
159526.642,-27.344,-32.715,-43.457,-25.879,0.000,0
159526.646,-25.391,-25.391,-31.738,-16.113,0.000,0
159526.650,-26.855,-28.809,-20.996,-16.113,0.000,0
159526.654,-37.109,-31.250,-13.184,-26.855,0.000,0
159526.658,-38.574,-24.902,-21.484,-28.809,0.000,0
159526.662,-40.039,-27.832,-29.785,-31.250,0.000,0
159526.666,-40.527,-31.250,-45.898,-29.785,0.000,0
159526.670,-37.109,-27.832,-39.062,-32.227,0.000,0
159526.674,-41.504,-25.879,-13.184,-35.645,0.000,0
159526.678,-33.691,-28.320,-26.367,-28.809,0.000,0
159526.681,-21.973,-29.297,-42.480,-28.809,0.000,0
159526.685,-29.297,-24.902,-32.715,-14.648,0.000,0
159526.689,-29.785,-19.531,-15.625,-22.949,0.000,0
159526.693,-23.438,-21.484,-18.066,-38.086,0.000,0
159526.697,-26.855,-25.391,-44.922,-29.785,0.000,0
159526.701,-27.344,-22.461,-36.621,-30.273,0.000,0
159526.705,-28.320,-16.602,-19.043,-19.531,0.000,0
159526.709,-34.668,-21.973,-27.344,-21.973,0.000,0
159526.713,-37.598,-25.391,-39.062,-42.480,0.000,0
159526.717,-37.109,-23.926,-36.133,-30.762,0.000,0
159526.721,-29.785,-27.832,-19.531,-11.719,0.000,0
159526.724,-26.367,-28.320,-37.598,-21.973,0.000,0
159526.728,-26.855,-25.391,-25.879,-45.898,0.000,0
159526.732,-17.090,-23.438,-7.812,-42.480,0.000,1
159526.736,-17.090,-20.508,-23.926,-19.043,0.000,0
159526.740,-16.602,-19.043,-24.902,-21.973,0.000,0
159526.744,-10.742,-13.672,-33.203,-14.648,0.000,0
159526.748,-9.766,-9.277,-30.762,-15.137,0.000,0
159526.752,-12.207,-8.301,-16.602,-25.391,0.000,0
159526.756,-15.625,-10.742,-29.297,-3.906,0.000,0
159526.760,-12.207,-11.719,-28.320,-1.465,0.000,0
159526.763,-29.297,-16.113,-14.160,-27.832,0.000,0
159526.767,-41.016,-14.648,-27.832,-30.762,0.000,0
159526.771,-33.203,-5.371,-44.922,-20.508,0.000,0
159526.775,-30.273,-8.789,-39.062,-22.461,0.000,0
159526.779,-26.855,-11.719,-44.434,-15.137,0.000,0
159526.783,-37.109,-5.371,-47.852,-27.344,0.000,0
159526.787,-45.898,1.465,-27.344,-53.223,0.000,0
159526.791,-37.109,6.348,-28.809,-40.039,0.000,0
159526.795,-31.738,11.230,-55.664,-24.902,0.000,0
159526.799,-31.250,16.602,-56.641,-20.508,0.000,0
159526.803,-35.645,20.508,-46.875,-24.902,0.000,0
159526.806,-38.574,25.391,-27.832,-34.668,0.000,0
159526.810,-20.996,24.902,-33.203,-16.602,0.000,0
159526.814,-18.066,34.180,-47.363,-11.230,0.000,0
159526.818,-32.227,43.457,-42.480,-29.297,0.000,0
159526.822,-18.555,38.086,-30.273,-21.973,0.000,0
159526.826,-11.719,33.691,-26.367,-23.926,0.000,0
159526.830,-24.414,24.414,-40.039,-38.086,0.000,0
159526.834,-33.691,15.137,-41.016,-26.855,0.000,0
159526.838,-27.832,17.578,-21.973,-15.137,0.000,0
159526.842,-18.555,16.602,-22.461,-22.461,0.000,0
159526.846,-27.344,9.766,-26.855,-46.387,0.000,0
159526.849,-28.809,6.348,-14.160,-68.848,0.000,0
159526.853,-29.297,-0.488,-22.949,-48.340,0.000,0
159526.857,-35.156,-9.766,-50.293,-30.273,0.000,0
159526.861,-37.109,-14.648,-42.969,-43.457,0.000,0
159526.865,-42.969,-15.625,-21.973,-42.969,0.000,0
159526.869,-37.598,-17.090,-28.320,-41.016,0.000,0
159526.873,-35.156,-21.973,-45.410,-54.688,0.000,0
159526.877,-34.180,-29.297,-40.527,-52.246,0.000,0
159526.881,-41.992,-32.227,-32.227,-38.086,0.000,0
159526.885,-45.898,-27.832,-24.414,-42.969,0.000,0
159526.888,-30.273,-29.785,-26.367,-45.410,0.000,0
159526.892,-20.996,-33.203,-36.133,-33.203,0.000,0
159526.896,-22.949,-31.250,-29.297,-23.438,0.000,0
159526.900,-28.809,-35.156,-31.250,-24.414,0.000,0
159526.904,-34.668,-39.551,-30.273,-31.250,0.000,0
159526.908,-37.598,-41.016,-25.391,-25.391,0.000,0
159526.912,-34.668,-40.039,-16.602,-29.297,0.000,0
159526.916,-23.926,-35.156,-20.020,-34.668,0.000,0
159526.920,-31.250,-43.457,-38.086,-27.832,0.000,0
159526.924,-26.367,-46.387,-32.227,-21.973,0.000,0
159526.928,-22.461,-41.016,-22.461,-33.203,0.000,0
159526.931,-29.297,-41.504,-45.898,-36.621,0.000,0
159526.935,-25.391,-41.992,-52.734,-20.996,0.000,0
159526.939,-30.273,-46.875,-39.551,-26.367,0.000,0
159526.943,-40.039,-48.828,-36.133,-30.273,0.000,0
159526.947,-41.992,-44.434,-34.668,-31.250,0.000,0
159526.951,-35.156,-44.434,-41.504,-35.645,0.000,0
159526.955,-33.691,-44.434,-28.320,-22.949,0.000,0
159526.959,-30.762,-40.527,-27.344,-24.414,0.000,0
159526.963,-22.949,-41.016,-33.203,-28.809,0.000,0
159526.967,-31.250,-39.551,-33.691,-13.672,0.000,0
159526.971,-22.949,-35.645,-43.457,-10.742,0.000,0
159526.974,-18.066,-40.527,-42.969,-21.973,0.000,0
159526.978,-27.344,-41.016,-45.898,-24.902,0.000,0
159526.982,-21.484,-33.203,-24.414,-44.434,0.000,0
159526.986,-31.738,-31.250,-13.672,-47.363,0.000,0
159526.990,-36.621,-29.785,-27.344,-22.461,0.000,0
159526.994,-25.391,-31.250,-51.270,-30.273,0.000,0
159526.998,-21.973,-33.203,-44.922,-40.527,0.000,0
159527.002,-24.414,-31.250,-11.230,-31.738,0.000,0
159527.006,-23.438,-33.691,-28.809,-26.367,0.000,0
159527.010,-20.996,-33.691,-41.016,-27.832,0.000,0
159527.013,-23.438,-31.250,-25.879,-31.738,0.000,0
159527.017,-25.879,-31.738,-26.855,-22.461,0.000,0
159527.021,-20.996,-28.809,-21.484,-28.809,0.000,0
159527.025,-15.625,-30.273,-27.832,-41.992,0.000,0
159527.029,-22.461,-36.133,-38.574,-39.062,0.000,0
159527.033,-31.738,-35.645,-25.391,-25.391,0.000,0
159527.037,-24.414,-34.180,-24.414,-20.996,0.000,0
159527.041,-22.461,-35.645,-25.879,-34.668,0.000,0
159527.045,-24.902,-33.691,-17.090,-35.156,0.000,0
159527.049,-22.949,-27.344,-30.273,-33.691,0.000,0
159527.053,-15.137,-28.320,-32.227,-42.480,0.000,0
159527.056,-10.742,-24.414,-20.020,-21.484,0.000,0
159527.060,-15.625,-23.438,-6.836,-15.625,0.000,0
159527.064,-12.695,-25.391,10.254,-33.203,0.000,0
159527.068,-11.230,-19.043,-15.625,-16.602,0.000,0
159527.072,-20.996,-23.438,-31.738,-8.789,0.000,0
159527.076,-24.902,-23.438,-19.043,-16.113,0.000,0
159527.080,-27.832,-19.531,-16.113,-14.648,0.000,0
159527.084,-31.250,-20.020,-11.230,-29.785,0.000,0
159527.088,-28.320,-20.508,-5.371,-29.785,0.000,0
159527.092,-25.879,-23.926,-9.766,-23.926,0.000,0
159527.096,-21.484,-27.832,-34.668,-32.227,0.000,0
159527.099,-17.090,-31.250,-29.297,-29.297,0.000,0
159527.103,-22.461,-27.832,-13.184,-28.809,0.000,0
159527.107,-26.855,-19.531,-30.762,-35.156,0.000,0
159527.111,-23.438,-19.043,-33.691,-36.621,0.000,0
159527.115,-21.484,-25.391,-25.879,-30.273,0.000,0
159527.119,-23.438,-30.762,-10.254,-20.508,0.000,0
159527.123,-33.691,-33.691,-8.301,-32.715,0.000,0
159527.127,-38.086,-34.668,-26.367,-43.457,0.000,0
159527.131,-40.527,-36.621,-32.715,-32.227,0.000,0
159527.135,-43.457,-36.621,-33.203,-15.625,0.000,0
159527.138,-42.480,-33.203,-25.879,-31.250,0.000,0
159527.142,-35.645,-28.320,-26.367,-35.645,0.000,0
159527.146,-31.250,-22.949,-26.855,-17.578,0.000,0
159527.150,-36.133,-25.879,-31.738,-18.066,0.000,0
159527.154,-37.598,-26.367,-35.645,-16.602,0.000,0
159527.158,-29.785,-27.344,-32.715,-22.949,0.000,0
159527.162,-26.367,-29.785,-31.250,-37.109,0.000,0
159527.166,-31.250,-32.715,-19.043,-40.527,0.000,0
159527.170,-27.832,-33.691,-28.809,-32.715,0.000,0
159527.174,-24.902,-30.273,-47.363,-31.738,0.000,0
159527.178,-35.645,-28.320,-20.020,-28.320,0.000,0
159527.181,-40.039,-24.902,-5.371,-27.344,0.000,0
159527.185,-36.621,-21.973,-29.785,-37.109,0.000,0
159527.189,-42.480,-23.438,-37.598,-38.086,0.000,0
159527.193,-47.363,-26.855,-34.668,-36.621,0.000,0
159527.197,-45.898,-33.691,-36.133,-18.066,0.000,0
159527.201,-37.598,-32.227,-31.250,-29.785,0.000,0
159527.205,-35.645,-22.461,-27.832,-48.340,0.000,0
159527.209,-38.086,-19.531,-31.738,-28.320,0.000,0
159527.213,-33.203,-17.578,-33.203,-21.973,0.000,0
159527.217,-24.414,-16.113,-27.344,-26.855,0.000,0
159527.221,-28.320,-21.973,-16.602,-33.691,0.000,0
159527.224,-37.598,-26.855,-25.879,-30.273,0.000,0
159527.228,-36.621,-26.367,-30.762,-38.574,0.000,0
159527.232,-26.367,-23.438,-28.809,-35.156,0.000,0
159527.236,-27.344,-23.438,-39.551,-21.973,0.000,0
159527.240,-35.645,-26.367,-22.949,-38.086,0.000,0
159527.244,-28.809,-22.949,-27.832,-36.621,0.000,0
159527.248,-24.414,-19.531,-41.016,-27.344,0.000,0
159527.252,-23.438,-20.996,-29.785,-29.297,0.000,0
159527.256,-20.508,-23.438,-26.367,-29.785,0.000,0
159527.260,-20.996,-28.809,-27.344,-35.156,0.000,0
159527.263,-22.949,-27.344,-31.738,-34.668,0.000,0
159527.267,-22.461,-20.020,-10.742,-29.785,0.000,0
159527.271,-24.902,-17.090,-8.789,-16.602,0.000,0
159527.275,-18.066,-14.648,-36.133,-2.930,0.000,0
159527.279,-13.672,-16.602,-24.414,-22.461,0.000,0
159527.283,-22.949,-24.902,-21.484,-31.250,0.000,0
159527.287,-22.461,-30.273,-26.855,-20.508,0.000,0
159527.291,-22.949,-27.344,-36.133,-33.691,0.000,0
159527.295,-29.785,-23.438,-39.062,-40.527,0.000,0
159527.299,-25.391,-23.926,-23.438,-33.691,0.000,0
159527.303,-28.809,-26.367,-26.367,-22.949,0.000,0
159527.306,-32.227,-28.809,-41.016,-25.391,0.000,0
159527.310,-27.344,-29.297,-38.574,-23.926,0.000,0
159527.314,-33.203,-19.531,-28.320,-16.602,0.000,0
159527.318,-32.227,-18.066,-14.648,-20.020,0.000,0
159527.322,-22.949,-26.367,-16.113,-27.832,0.000,0
159527.326,-25.879,-26.855,-35.645,-29.785,0.000,0
159527.330,-31.738,-20.020,-14.648,-27.832,0.000,0
159527.334,-28.320,-15.625,-11.719,-27.832,0.000,0
159527.338,-22.461,-16.113,-22.949,-34.180,0.000,0
159527.342,-22.949,-19.043,-11.230,-37.109,0.000,0
159527.346,-20.996,-18.555,-23.926,-29.785,0.000,0
159527.349,-13.184,-13.672,-42.480,-23.926,0.000,0
159527.353,-21.973,-19.043,-42.480,-15.625,0.000,0
159527.357,-31.738,-20.996,-20.020,-22.461,0.000,0
159527.361,-30.762,-17.578,-7.324,-45.898,0.000,0
159527.365,-32.715,-17.090,-20.996,-36.133,0.000,0
159527.369,-27.344,-20.508,-20.508,-38.086,0.000,0
159527.373,-22.949,-22.461,-20.996,-27.344,0.000,0
159527.377,-21.973,-21.973,-17.578,-17.090,0.000,0
159527.381,-13.672,-22.461,-21.973,-36.621,0.000,0
159527.385,-15.137,-18.066,-31.250,-27.344,0.000,0
159527.388,-22.949,-16.113,-32.227,-22.949,0.000,0
159527.392,-29.297,-17.578,-38.574,-27.344,0.000,0
159527.396,-20.508,-22.949,-22.949,-30.762,0.000,0
159527.400,-20.020,-30.762,-15.625,-42.480,0.000,0
159527.404,-28.320,-31.250,-33.691,-44.434,0.000,0
159527.408,-22.949,-21.484,-28.320,-41.992,0.000,0
159527.412,-23.438,-19.043,-36.621,-37.598,0.000,0
159527.416,-27.344,-22.461,-36.621,-41.504,0.000,0
159527.420,-27.344,-21.484,-15.137,-33.691,0.000,0
159527.424,-26.855,-20.996,-32.227,-19.043,0.000,0
159527.428,-22.949,-24.414,-44.922,-17.578,0.000,0
159527.431,-24.902,-20.508,-37.109,-16.602,0.000,0
159527.435,-26.855,-17.578,-22.461,-20.508,0.000,0
159527.439,-29.785,-20.020,-24.414,-21.484,0.000,1
159527.443,-23.926,-18.066,-39.062,-24.414,0.000,0
159527.447,-18.066,-14.648,-30.273,-32.715,0.000,0
159527.451,-25.879,-18.555,-23.438,-28.809,0.000,0
159527.455,-30.762,-18.066,-23.926,-26.855,0.000,0
159527.459,-30.273,-13.672,-22.461,-27.344,0.000,0
159527.463,-30.273,-18.555,-25.879,-25.879,0.000,0
159527.467,-26.367,-17.090,-33.203,-22.949,0.000,0
159527.471,-22.949,-15.625,-37.598,-32.715,0.000,0
159527.474,-33.203,-17.090,-25.391,-41.992,0.000,0
159527.478,-26.855,-19.043,-20.020,-34.668,0.000,0
159527.482,-17.578,-17.090,-14.648,-26.367,0.000,0
159527.486,-16.602,-8.301,-16.602,-8.301,0.000,0
159527.490,-11.719,-5.859,-23.438,6.836,0.000,0
159527.494,-15.137,-11.719,-22.461,0.977,0.000,0
159527.498,-18.555,-18.555,-24.414,-16.113,0.000,0
159527.502,-18.066,-17.090,-30.273,-11.719,0.000,0
159527.506,-16.602,-15.625,-27.344,-6.836,0.000,0
159527.510,-23.438,-14.648,-20.020,-18.066,0.000,0
159527.513,-29.785,-23.438,-31.738,-26.855,0.000,0
159527.517,-27.832,-25.879,-35.645,-32.227,0.000,0
159527.521,-38.574,-17.090,-26.367,-35.156,0.000,0
159527.525,-39.551,-17.578,-36.133,-40.527,0.000,0
159527.529,-29.785,-20.996,-42.969,-35.645,0.000,0
159527.533,-32.227,-21.484,-31.250,-24.414,0.000,0
159527.537,-31.738,-23.438,-16.113,-27.344,0.000,0
159527.541,-28.320,-22.461,-23.438,-24.902,0.000,0
159527.545,-23.926,-23.438,-37.109,-24.414,0.000,0
159527.549,-25.391,-22.949,-36.133,-29.785,0.000,0
159527.553,-25.879,-19.043,-25.879,-15.137,0.000,0
159527.556,-14.648,-18.555,-17.578,-15.625,0.000,0
159527.560,-11.230,-20.508,-31.738,-21.484,0.000,0
159527.564,-9.766,-21.973,-34.180,-13.184,0.000,0
159527.568,-6.348,-17.578,-26.367,-10.742,0.000,0
159527.572,-21.484,-15.625,-20.508,-17.578,0.000,0
159527.576,-31.250,-19.043,-12.207,-28.809,0.000,0
159527.580,-31.738,-17.578,-14.648,-23.926,0.000,0
159527.584,-26.855,-21.973,-24.902,-23.438,0.000,0
159527.588,-19.043,-20.996,-30.273,-15.625,0.000,0
159527.592,-23.926,-22.949,-26.855,-16.113,0.000,0
159527.596,-26.367,-20.996,-17.578,-20.508,0.000,0
159527.599,-23.438,-18.555,-20.508,-8.789,0.000,0
159527.603,-10.254,-19.531,-31.250,-10.742,0.000,0
159527.607,-15.137,-20.508,-42.480,-21.973,0.000,0
159527.611,-22.461,-19.531,-23.438,-23.926,0.000,0
159527.615,-18.066,-20.996,-8.789,-22.461,0.000,0
159527.619,-30.273,-19.043,-31.738,-35.645,0.000,0
159527.623,-36.133,-23.926,-40.039,-47.852,0.000,0
159527.627,-31.738,-23.926,-35.156,-33.691,0.000,0
159527.631,-29.297,-23.926,-27.832,-27.832,0.000,0
159527.635,-27.832,-26.367,-16.113,-32.715,0.000,0
159527.638,-27.832,-23.438,-31.250,-22.949,0.000,0
159527.642,-24.414,-18.555,-30.762,-24.414,0.000,0
159527.646,-14.648,-20.996,-25.879,-23.438,0.000,0
159527.650,-21.484,-31.250,-42.480,-21.484,0.000,0
159527.654,-23.926,-24.414,-28.320,-25.879,0.000,0
159527.658,-15.137,-20.020,-16.113,-31.250,0.000,0
159527.662,-14.160,-25.879,-35.156,-23.926,0.000,0
159527.666,-17.090,-23.926,-38.086,-6.836,0.000,0
159527.670,-26.855,-19.531,-27.344,-14.648,0.000,0
159527.674,-31.738,-20.508,-20.996,-21.973,0.000,0
159527.678,-24.902,-21.484,-33.203,-13.672,0.000,0
159527.681,-22.949,-19.531,-44.434,-25.391,0.000,0
159527.685,-27.832,-17.578,-37.109,-31.738,0.000,0
159527.689,-30.762,-18.555,-27.832,-19.531,0.000,0
159527.693,-38.086,-17.578,-19.531,-40.527,0.000,0
159527.697,-36.621,-16.113,-25.879,-40.039,0.000,0
159527.701,-31.738,-16.602,-32.715,-20.996,0.000,0
159527.705,-32.715,-14.648,-29.785,-21.973,0.000,0
159527.709,-24.414,-18.555,-33.691,-24.902,0.000,0
159527.713,-33.203,-21.973,-20.508,-25.879,0.000,0
159527.717,-33.691,-15.625,-19.043,-20.996,0.000,0
159527.721,-29.785,-17.578,-29.297,-22.461,0.000,0
159527.724,-34.180,-17.578,-33.691,-27.344,0.000,0
159527.728,-30.273,-20.508,-33.691,-10.254,0.000,0
159527.732,-27.832,-25.391,-12.695,-5.859,0.000,0
159527.736,-24.414,-25.879,-19.043,-12.695,0.000,0
159527.740,-23.926,-26.367,-41.992,2.930,0.000,0
159527.744,-27.344,-26.367,-36.133,-5.859,0.000,0
159527.748,-28.809,-26.367,-13.184,-18.555,0.000,0
159527.752,-23.438,-25.391,-5.371,-28.320,0.000,0
159527.756,-27.832,-22.461,-23.926,-39.062,0.000,0
159527.760,-23.926,-19.531,-39.062,-40.527,0.000,0
159527.763,-15.625,-20.996,-27.832,-19.043,0.000,0
159527.767,-31.738,-21.973,-22.949,-20.508,0.000,0
159527.771,-39.551,-22.949,-20.508,-37.598,0.000,0
159527.775,-38.086,-20.020,-20.508,-28.320,0.000,0
159527.779,-39.062,-18.066,-28.809,-9.766,0.000,0
159527.783,-34.180,-17.090,-35.156,-15.137,0.000,0
159527.787,-35.645,-20.020,-31.250,-22.949,0.000,0
159527.791,-30.762,-26.367,-19.531,-40.039,0.000,0
159527.795,-31.738,-19.043,-13.672,-48.828,0.000,0
159527.799,-30.762,-15.137,-30.762,-41.504,0.000,0
159527.803,-28.809,-22.461,-37.109,-31.250,0.000,0
159527.806,-31.250,-21.484,-31.250,-26.855,0.000,0
159527.810,-29.297,-14.648,-19.043,-31.250,0.000,0
159527.814,-23.438,-13.672,-22.949,-26.855,0.000,0
159527.818,-10.742,-16.113,-38.086,-30.762,0.000,0
159527.822,-20.996,-11.719,-27.344,-20.508,0.000,0
159527.826,-18.555,-10.742,-19.043,-11.230,0.000,0
159527.830,2.930,-14.160,-11.719,-24.414,0.000,0
159527.834,-6.348,-14.160,-10.254,-26.855,0.000,0
159527.838,-23.438,-12.207,-14.160,-12.695,0.000,0
159527.842,-18.555,-16.602,-31.250,-11.719,0.000,0
159527.846,-15.625,-21.484,-40.039,-20.996,0.000,0
159527.849,-19.531,-18.066,-18.066,-22.461,0.000,0
159527.853,-27.344,-17.578,-8.789,-29.785,0.000,0
159527.857,-36.621,-20.020,-28.320,-33.691,0.000,0
159527.861,-37.598,-21.484,-27.832,-33.203,0.000,0
159527.865,-38.086,-17.578,-17.090,-32.715,0.000,0
159527.869,-32.715,-23.438,-27.832,-34.180,0.000,0
159527.873,-31.250,-22.949,-26.367,-38.574,0.000,0
159527.877,-39.551,-11.719,-31.250,-32.715,0.000,0
159527.881,-41.992,-17.578,-30.273,-34.180,0.000,0
159527.885,-41.016,-23.926,-22.949,-30.762,0.000,0
159527.888,-41.504,-25.391,-37.109,-35.645,0.000,0
159527.892,-41.504,-22.461,-32.227,-41.504,0.000,0
159527.896,-35.645,-20.020,-22.461,-37.109,0.000,0
159527.900,-30.762,-25.391,-28.320,-31.738,0.000,0
159527.904,-26.855,-27.832,-43.945,-15.137,0.000,0
159527.908,-25.391,-27.832,-41.992,-18.066,0.000,0
159527.912,-33.203,-25.391,-20.508,-26.367,0.000,0
159527.916,-35.645,-29.785,-27.344,-20.020,0.000,0
159527.920,-26.855,-30.273,-40.039,-24.902,0.000,0
159527.924,-20.996,-20.996,-34.180,-25.391,0.000,0
159527.928,-19.531,-22.461,-24.902,-13.672,0.000,0
159527.931,-19.043,-25.879,-20.508,-22.949,0.000,0
159527.935,-17.578,-20.508,-23.926,-31.738,0.000,0
159527.939,-11.719,-17.578,-29.785,-19.043,0.000,0
159527.943,-17.090,-19.043,-19.531,-8.789,0.000,0
159527.947,-28.320,-20.508,-19.043,-21.484,0.000,0
159527.951,-25.879,-21.484,-21.973,-29.297,0.000,0
159527.955,-21.484,-20.508,-25.879,-16.602,0.000,0
159527.959,-18.066,-20.996,-31.250,-4.883,0.000,0
159527.963,-21.484,-19.043,-34.668,0.000,0.000,0
159527.967,-27.832,-21.973,-29.785,-23.438,0.000,0
159527.971,-27.832,-20.508,-20.996,-43.457,0.000,0
159527.974,-36.133,-18.555,-26.855,-27.344,0.000,0
159527.978,-32.715,-22.461,-39.551,-25.879,0.000,0
159527.982,-16.113,-17.578,-46.387,-17.578,0.000,0
159527.986,-17.578,-20.508,-22.461,-9.766,0.000,0
159527.990,-25.879,-22.461,-5.371,-15.137,0.000,0
159527.994,-20.020,-11.719,-34.668,-10.742,0.000,0
159527.998,-17.090,-11.719,-46.875,-19.043,0.000,0
159528.002,-14.648,-15.625,-26.855,-31.738,0.000,0
159528.006,-15.137,-18.066,-25.879,-28.809,0.000,0
159528.010,-21.973,-20.996,-27.832,-40.039,0.000,0
159528.013,-21.973,-18.555,-26.855,-46.387,0.000,1
159528.017,-28.809,-19.531,-29.297,-32.227,0.000,0
159528.021,-33.691,-23.926,-41.992,-33.691,0.000,0
159528.025,-36.133,-19.043,-50.293,-42.480,0.000,0
159528.029,-30.273,-15.137,-27.832,-44.922,0.000,0
159528.033,-26.855,-12.695,-11.230,-40.039,0.000,0
159528.037,-29.785,-18.066,-26.367,-32.715,0.000,0
159528.041,-28.809,-19.043,-37.109,-30.273,0.000,0
159528.045,-28.809,-13.672,-31.738,-34.668,0.000,0
159528.049,-31.250,-9.766,-11.719,-39.551,0.000,0
159528.053,-32.227,-11.719,-23.438,-37.109,0.000,0
159528.056,-29.785,-17.578,-52.734,-33.691,0.000,0
159528.060,-20.996,-14.160,-42.969,-20.020,0.000,0
159528.064,-18.066,-12.207,-19.043,-25.879,0.000,0
159528.068,-22.949,-16.113,-12.207,-35.645,0.000,0
159528.072,-18.555,-15.137,-30.762,-25.391,0.000,0
159528.076,-24.414,-17.090,-22.461,-9.766,0.000,0
159528.080,-22.949,-24.902,-23.926,2.441,0.000,0
159528.084,-17.090,-24.414,-37.109,-29.297,0.000,0
159528.088,-23.926,-20.508,-32.227,-42.480,0.000,0
159528.092,-24.414,-19.531,-39.551,-29.297,0.000,0
159528.096,-22.461,-20.020,-28.320,-31.738,0.000,0
159528.099,-23.926,-19.531,-27.344,-32.715,0.000,0
159528.103,-32.227,-19.531,-20.508,-46.387,0.000,0
159528.107,-37.598,-23.438,-22.949,-52.246,0.000,0
159528.111,-32.715,-18.555,-38.086,-44.434,0.000,0
159528.115,-36.621,-16.113,-31.250,-36.133,0.000,0
159528.119,-39.551,-20.508,-20.020,-33.203,0.000,0
159528.123,-30.273,-22.461,-17.578,-35.645,0.000,0
159528.127,-27.344,-20.996,-29.785,-30.273,0.000,0
159528.131,-27.344,-17.578,-31.738,-23.926,0.000,0
159528.135,-26.855,-15.137,-25.879,-23.926,0.000,0
159528.138,-23.438,-14.160,-26.855,-13.184,0.000,0
159528.142,-20.020,-18.555,-16.602,-22.461,0.000,0
159528.146,-24.414,-16.113,-10.254,-37.109,0.000,0
159528.150,-24.902,-12.695,-14.160,-39.062,0.000,0
159528.154,-24.414,-12.695,-22.461,-30.273,0.000,0
159528.158,-21.973,-12.207,-28.320,-19.531,0.000,0
159528.162,-20.020,-10.742,-12.207,-23.438,0.000,0
159528.166,-26.855,-13.672,-3.418,-15.137,0.000,0
159528.170,-28.809,-15.625,-32.227,-14.160,0.000,0
159528.174,-23.438,-15.625,-35.156,-33.203,0.000,0
159528.178,-32.715,-13.672,-20.020,-34.180,0.000,0
159528.181,-36.133,-15.137,-10.742,-39.062,0.000,0
159528.185,-34.180,-19.531,-6.348,-44.922,0.000,0
159528.189,-39.551,-21.484,-37.598,-36.621,0.000,0
159528.193,-41.016,-22.461,-35.645,-23.926,0.000,0
159528.197,-42.480,-25.879,-27.832,-32.227,0.000,0
159528.201,-31.738,-24.414,-31.738,-36.133,0.000,0
159528.205,-26.855,-22.949,-27.832,-30.273,0.000,0
159528.209,-29.785,-23.926,-22.949,-34.180,0.000,0
159528.213,-28.320,-23.438,-28.809,-34.180,0.000,0
159528.217,-30.762,-23.926,-46.875,-25.391,0.000,0
159528.221,-29.785,-23.926,-36.621,-38.574,0.000,0
159528.224,-38.574,-20.996,-5.859,-49.805,0.000,0
159528.228,-32.715,-17.578,-13.184,-33.203,0.000,0
159528.232,-17.090,-18.555,-26.855,-17.090,0.000,0
159528.236,-19.043,-16.113,-22.461,-23.438,0.000,0
159528.240,-25.391,-14.648,-16.113,-19.043,0.000,0
159528.244,-28.809,-18.555,-15.625,-26.367,0.000,0
159528.248,-24.902,-25.879,-23.926,-34.668,0.000,0
159528.252,-31.738,-28.809,-28.809,-30.273,0.000,0
159528.256,-41.504,-23.926,-31.738,-20.020,0.000,0
159528.260,-30.273,-23.438,-27.832,-12.695,0.000,0
159528.263,-24.414,-33.203,-25.879,-20.996,0.000,0
159528.267,-34.668,-30.762,-25.879,-11.719,0.000,0
159528.271,-38.574,-29.297,-25.391,-12.695,0.000,0
159528.275,-28.320,-33.203,-37.109,-32.715,0.000,0
159528.279,-20.020,-30.762,-31.250,-26.855,0.000,0
159528.283,-29.785,-20.996,-21.973,-36.133,0.000,0
159528.287,-45.898,-20.508,-28.320,-46.875,0.000,0
159528.291,-42.969,-16.602,-40.527,-41.016,0.000,0
159528.295,-36.621,-10.742,-51.758,-33.203,0.000,0
159528.299,-40.039,-19.531,-35.645,-24.414,0.000,0
159528.303,-41.992,-20.508,-37.598,-27.832,0.000,0
159528.306,-35.156,-20.020,-55.176,-24.414,0.000,0
159528.310,-28.809,-16.113,-27.832,-22.949,0.000,0
159528.314,-24.414,-21.484,-15.625,-20.020,0.000,0
159528.318,-25.879,-27.832,-26.855,-25.879,0.000,0
159528.322,-33.691,-21.973,-20.996,-49.805,0.000,0
159528.326,-38.086,-24.902,-26.367,-42.969,0.000,0
159528.330,-32.227,-25.391,-30.273,-26.855,0.000,0
159528.334,-27.344,-24.414,-35.156,-22.461,0.000,0
159528.338,-33.691,-27.344,-14.160,-39.062,0.000,0
159528.342,-33.691,-22.461,0.000,-38.086,0.000,0
159528.346,-33.203,-18.555,-25.879,-12.207,0.000,0
159528.349,-28.809,-21.973,-26.855,-20.508,0.000,0
159528.353,-27.344,-22.949,-32.227,-31.738,0.000,0
159528.357,-35.645,-25.391,-15.137,-38.574,0.000,0
159528.361,-34.180,-27.832,-11.719,-44.922,0.000,0
159528.365,-33.203,-30.762,-38.574,-39.062,0.000,0
159528.369,-35.645,-29.785,-35.156,-32.715,0.000,0
159528.373,-32.715,-28.320,-33.691,-34.180,0.000,0
159528.377,-31.738,-27.832,-21.973,-36.133,0.000,0
159528.381,-31.738,-27.344,-16.602,-31.738,0.000,0
159528.385,-31.250,-24.902,-22.461,-29.297,0.000,0
159528.388,-28.320,-20.508,-7.812,-31.250,0.000,0
159528.392,-24.414,-19.531,-21.484,-25.391,0.000,0
159528.396,-24.414,-22.949,-33.691,-23.926,0.000,0
159528.400,-22.461,-23.438,-19.531,-25.879,0.000,0
159528.404,-25.879,-25.879,-24.414,-20.996,0.000,0
159528.408,-29.785,-21.973,-35.156,-28.809,0.000,0
159528.412,-21.484,-20.996,-37.598,-29.785,0.000,0
159528.416,-21.973,-25.879,-21.973,-33.691,0.000,0
159528.420,-23.438,-26.855,-15.625,-35.645,0.000,0
159528.424,-14.648,-26.855,-28.320,-27.832,0.000,0
159528.428,-14.160,-22.461,-24.414,-25.879,0.000,0
159528.431,-15.625,-14.648,-26.367,-17.578,0.000,0
159528.435,-7.324,-17.578,-23.438,-17.578,0.000,0
159528.439,-16.602,-19.043,-13.184,-31.250,0.000,0
159528.443,-28.320,-19.043,-20.996,-28.809,0.000,0
159528.447,-21.973,-22.949,-16.602,-18.555,0.000,0
159528.451,-16.602,-21.973,-25.391,-11.230,0.000,0
159528.455,-12.207,-31.250,-38.574,-26.855,0.000,0
159528.459,-12.695,-29.297,-20.508,-45.410,0.000,0
159528.463,-16.602,-21.484,-27.832,-36.133,0.000,0
159528.467,-17.578,-27.344,-42.480,-29.297,0.000,0
159528.471,-20.020,-29.297,-43.457,-18.066,0.000,0
159528.474,-24.414,-26.855,-24.414,-23.926,0.000,0
159528.478,-25.879,-23.438,-9.277,-25.391,0.000,0
159528.482,-22.949,-26.855,-25.879,-16.602,0.000,0
159528.486,-22.461,-27.344,-31.738,-20.996,0.000,0
159528.490,-31.250,-26.367,-20.508,-28.809,0.000,0
159528.494,-32.227,-28.809,-12.695,-42.969,0.000,0
159528.498,-27.832,-25.879,-25.879,-47.363,0.000,0
159528.502,-24.902,-21.484,-41.016,-40.039,0.000,0
159528.506,-20.508,-16.602,-31.738,-17.578,0.000,0
159528.510,-23.438,-20.020,-24.902,-11.719,0.000,0
159528.513,-23.926,-20.020,-23.438,-18.066,0.000,0
159528.517,-27.344,-22.461,-20.508,-10.254,0.000,0
159528.521,-31.738,-20.996,-27.832,-9.277,0.000,0
159528.525,-27.344,-15.625,-27.344,-24.414,0.000,0
159528.529,-22.949,-19.531,-27.344,-26.367,0.000,0
159528.533,-22.461,-21.973,-30.273,-25.879,0.000,0
159528.537,-28.809,-26.367,-32.227,-40.527,0.000,0
159528.541,-25.879,-27.832,-32.227,-33.203,0.000,0
159528.545,-22.461,-22.949,-36.133,-22.461,0.000,0
159528.549,-17.578,-23.438,-36.621,-24.902,0.000,0
159528.553,-21.484,-27.832,-20.020,-23.926,0.000,0
159528.556,-37.598,-28.809,-13.672,-37.109,0.000,0
159528.560,-32.227,-29.297,-26.855,-41.992,0.000,0
159528.564,-33.203,-29.785,-24.902,-38.086,0.000,0
159528.568,-40.039,-28.809,-27.832,-31.738,0.000,0
159528.572,-34.180,-20.996,-38.086,-36.621,0.000,0
159528.576,-31.738,-18.555,-20.508,-37.109,0.000,0
159528.580,-29.297,-17.578,-20.020,-14.160,0.000,0
159528.584,-24.414,-19.043,-38.086,-21.484,0.000,0
159528.588,-23.438,-21.484,-42.480,-30.762,0.000,0
159528.592,-16.602,-22.461,-36.621,-25.879,0.000,0
159528.596,-17.090,-19.531,-4.883,-27.832,0.000,0
159528.599,-26.367,-22.949,-9.766,-32.227,0.000,0
159528.603,-20.996,-24.902,-35.645,-30.273,0.000,0
159528.607,-20.996,-20.996,-36.621,-28.809,0.000,0
159528.611,-29.297,-20.996,-33.203,-22.461,0.000,1
159528.615,-26.367,-21.484,-21.973,-26.855,0.000,0
159528.619,-24.902,-18.066,-24.902,-30.273,0.000,0
159528.623,-18.555,-16.113,-33.691,-19.531,0.000,0
159528.627,-19.531,-16.113,-20.996,-19.531,0.000,0
159528.631,-28.320,-20.020,-22.461,-14.648,0.000,0
159528.635,-26.367,-22.461,-31.738,-27.832,0.000,0
159528.638,-27.344,-18.066,-25.391,-39.551,0.000,0
159528.642,-26.855,-19.043,-14.648,-24.902,0.000,0
159528.646,-27.344,-16.602,-28.320,-12.207,0.000,0
159528.650,-14.648,-14.160,-43.457,-23.438,0.000,0
159528.654,-10.742,-16.113,-20.020,-33.203,0.000,0
159528.658,-29.297,-15.625,-18.555,-20.020,0.000,0
159528.662,-25.879,-17.090,-36.621,-18.555,0.000,0
159528.666,-22.949,-24.902,-34.668,-28.809,0.000,0
159528.670,-31.738,-21.484,-27.832,-33.203,0.000,0
159528.674,-30.273,-18.066,-9.766,-41.016,0.000,0
159528.678,-25.879,-20.508,-7.324,-49.316,0.000,0
159528.681,-19.531,-17.090,-28.320,-31.738,0.000,0
159528.685,-19.531,-18.555,-29.297,-18.066,0.000,0
159528.689,-22.461,-19.043,-19.043,-11.230,0.000,0
159528.693,-20.996,-22.949,-19.531,-22.949,0.000,0
159528.697,-24.902,-24.902,-28.320,-28.809,0.000,0
159528.701,-18.555,-20.508,-36.133,-14.160,0.000,0
159528.705,-14.648,-21.973,-38.086,-21.484,0.000,0
159528.709,-20.020,-25.391,-41.016,-18.066,0.000,0
159528.713,-19.043,-22.461,-23.926,-20.508,0.000,0
159528.717,-16.602,-18.066,-13.184,-31.250,0.000,0
159528.721,-25.879,-23.926,-21.484,-29.785,0.000,0
159528.724,-32.715,-23.926,-28.320,-28.320,0.000,0
159528.728,-25.391,-17.578,-37.109,-25.391,0.000,0
159528.732,-23.438,-18.555,-20.020,-26.855,0.000,0
159528.736,-31.250,-23.438,-22.949,-36.133,0.000,0
159528.740,-23.926,-22.949,-41.016,-31.738,0.000,0
159528.744,-21.973,-23.438,-25.391,-29.297,0.000,0
159528.748,-31.250,-20.996,-31.250,-28.809,0.000,0
159528.752,-25.391,-20.020,-37.598,-31.738,0.000,0
159528.756,-20.996,-18.066,-20.020,-30.762,0.000,0
159528.760,-20.508,-17.578,-19.531,-20.508,0.000,0
159528.763,-17.090,-16.113,-27.832,-28.809,0.000,0
159528.767,-25.391,-19.043,-31.250,-30.273,0.000,0
159528.771,-31.738,-24.902,-32.227,-30.762,0.000,0
159528.775,-28.320,-19.043,-17.578,-34.668,0.000,0
159528.779,-22.949,-15.137,-20.508,-25.391,0.000,0
159528.783,-20.020,-23.438,-41.992,-24.414,0.000,0
159528.787,-19.043,-19.531,-41.992,-29.785,0.000,0
159528.791,-24.414,-14.648,-27.832,-25.391,0.000,0
159528.795,-21.484,-19.531,-18.555,-22.461,0.000,0
159528.799,-23.926,-22.949,-40.527,-14.160,0.000,0
159528.803,-34.668,-26.367,-39.062,-26.367,0.000,0
159528.806,-32.715,-23.926,-30.273,-24.414,0.000,0
159528.810,-31.738,-23.438,-35.156,-13.672,0.000,0
159528.814,-35.645,-28.809,-27.832,-36.621,0.000,0
159528.818,-39.551,-26.855,-36.133,-43.457,0.000,0
159528.822,-27.832,-21.484,-24.902,-17.090,0.000,0
159528.826,-28.320,-17.578,-22.461,-8.301,0.000,0
159528.830,-37.598,-20.508,-38.574,-25.879,0.000,0
159528.834,-34.180,-25.391,-31.738,-39.062,0.000,0
159528.838,-29.785,-21.484,-31.738,-26.855,0.000,0
159528.842,-29.297,-20.996,-34.668,-17.090,0.000,0
159528.846,-32.715,-22.461,-34.668,-28.320,0.000,0
159528.849,-36.621,-23.926,-30.762,-19.531,0.000,0
159528.853,-37.598,-25.391,-32.715,-17.090,0.000,0
159528.857,-34.180,-29.297,-41.504,-34.668,0.000,0
159528.861,-32.715,-31.250,-34.180,-33.691,0.000,0
159528.865,-41.504,-21.973,-25.879,-25.391,0.000,0
159528.869,-40.527,-21.973,-28.809,-24.902,0.000,0
159528.873,-38.086,-21.484,-32.715,-31.250,0.000,0
159528.877,-33.691,-13.184,-34.668,-32.715,0.000,0
159528.881,-27.344,-14.648,-35.645,-32.715,0.000,0
159528.885,-29.297,-25.879,-31.250,-27.344,0.000,0
159528.888,-30.273,-24.414,-35.156,-19.531,0.000,0
159528.892,-35.156,-20.508,-27.832,-23.926,0.000,0
159528.896,-38.086,-20.020,-20.020,-26.367,0.000,0
159528.900,-37.109,-17.578,-37.598,-13.672,0.000,0
159528.904,-42.969,-21.973,-41.992,-30.273,0.000,0
159528.908,-38.086,-23.926,-34.180,-30.762,0.000,0
159528.912,-30.762,-17.578,-25.879,-15.625,0.000,0
159528.916,-29.785,-17.578,-29.297,-27.344,0.000,0
159528.920,-25.879,-23.926,-41.016,-29.785,0.000,0
159528.924,-34.180,-21.484,-38.086,-33.203,0.000,0
159528.928,-38.574,-15.137,-32.715,-29.785,0.000,0
159528.931,-30.762,-15.137,-25.879,-34.668,0.000,0
159528.935,-36.133,-19.043,-33.691,-40.527,0.000,0
159528.939,-41.504,-22.949,-41.992,-37.598,0.000,0
159528.943,-27.832,-19.531,-37.598,-29.785,0.000,0
159528.947,-18.066,-20.508,-36.133,-16.602,0.000,0
159528.951,-22.949,-20.996,-30.762,-25.391,0.000,0
159528.955,-29.785,-17.578,-27.344,-42.480,0.000,0
159528.959,-30.762,-18.555,-22.461,-38.086,0.000,0
159528.963,-18.555,-21.484,-30.273,-20.508,0.000,0
159528.967,-15.625,-30.273,-56.152,-13.184,0.000,0
159528.971,-30.762,-30.273,-24.902,-41.504,0.000,0
159528.974,-37.109,-17.578,-5.371,-45.410,0.000,0
159528.978,-34.668,-20.508,-40.039,-27.344,0.000,0
159528.982,-36.133,-22.461,-38.086,-23.926,0.000,0
159528.986,-31.738,-12.695,-31.738,-20.508,0.000,0
159528.990,-20.508,-18.066,-29.297,-20.020,0.000,0
159528.994,-23.438,-20.020,-29.297,-20.508,0.000,0
159528.998,-36.621,-21.973,-45.410,-14.648,0.000,0
159529.002,-32.227,-21.973,-40.527,-7.324,0.000,0
159529.006,-28.320,-18.066,-26.367,-3.906,0.000,0
159529.010,-30.273,-23.926,-27.832,-19.043,0.000,0
159529.013,-33.203,-25.879,-27.344,-45.410,0.000,0
159529.017,-32.715,-23.926,-23.438,-35.156,0.000,0
159529.021,-36.133,-25.391,-33.203,-26.855,0.000,0
159529.025,-37.598,-27.832,-34.180,-36.621,0.000,0
159529.029,-31.250,-28.809,-16.602,-42.480,0.000,0
159529.033,-30.762,-27.344,-31.250,-32.227,0.000,0
159529.037,-24.902,-28.320,-35.645,-23.926,0.000,0
159529.041,-20.996,-29.297,-21.973,-21.973,0.000,0
159529.045,-21.973,-27.832,-20.996,-23.926,0.000,0
159529.049,-27.344,-28.809,-18.066,-40.039,0.000,0
159529.053,-25.391,-20.508,-23.926,-41.504,0.000,0
159529.056,-20.508,-14.160,-21.484,-36.133,0.000,0
159529.060,-30.273,-17.090,-17.090,-44.434,0.000,0
159529.064,-29.785,-17.090,-34.668,-23.926,0.000,0
159529.068,-18.555,-14.160,-23.438,-22.949,0.000,0
159529.072,-17.578,-18.066,-16.602,-27.344,0.000,0
159529.076,-23.438,-18.555,-26.367,-16.602,0.000,0
159529.080,-23.438,-15.625,-33.203,-15.137,0.000,0
159529.084,-24.902,-19.531,-32.227,-17.090,0.000,0
159529.088,-24.414,-20.020,-5.859,-30.762,0.000,0
159529.092,-20.020,-20.508,-9.277,-29.297,0.000,0
159529.096,-23.926,-25.391,-24.414,-29.785,0.000,0
159529.099,-26.367,-18.555,-25.879,-26.855,0.000,0
159529.103,-28.809,-20.996,-33.691,-14.648,0.000,0
159529.107,-30.273,-26.367,-12.207,-21.484,0.000,0
159529.111,-15.137,-20.020,-17.578,-17.090,0.000,0
159529.115,-14.160,-18.066,-43.457,-7.812,0.000,0
159529.119,-27.832,-18.555,-44.922,-23.926,0.000,0
159529.123,-27.344,-22.461,-27.832,-21.973,0.000,0
159529.127,-23.926,-25.391,-17.578,-21.484,0.000,0
159529.131,-33.691,-22.461,-22.949,-35.645,0.000,0
159529.135,-39.551,-15.625,-21.973,-35.645,0.000,0
159529.138,-28.320,-13.672,-23.926,-22.461,0.000,0
159529.142,-20.020,-19.043,-30.762,-18.555,0.000,0
159529.146,-22.949,-20.020,-14.160,-15.625,0.000,0
159529.150,-15.137,-16.602,-16.602,-8.789,0.000,0
159529.154,-12.207,-18.555,-27.832,-12.207,0.000,0
159529.158,-10.742,-19.043,-23.438,-16.602,0.000,0
159529.162,-6.836,-16.602,-20.020,-12.695,0.000,0
159529.166,-17.090,-19.531,-20.508,-25.391,0.000,0
159529.170,-24.902,-22.461,-28.320,-33.691,0.000,0
159529.174,-26.855,-20.020,-40.527,-14.648,0.000,0
159529.178,-31.250,-19.531,-35.645,-13.184,0.000,0
159529.181,-25.879,-21.484,-22.461,-21.973,0.000,0
159529.185,-26.367,-22.949,-24.414,-21.484,0.000,0
159529.189,-34.180,-19.531,-27.832,-23.438,0.000,0
159529.193,-34.180,-18.066,-24.902,-13.184,0.000,0
159529.197,-25.391,-18.066,-29.785,-15.137,0.000,0
159529.201,-27.344,-18.555,-39.551,-17.090,0.000,0
159529.205,-32.715,-15.137,-23.926,-20.508,0.000,0
159529.209,-29.297,-12.207,-6.348,-22.949,0.000,0
159529.213,-24.902,-14.648,-11.719,-13.184,0.000,0
159529.217,-22.461,-14.648,-29.297,0.488,0.000,0
159529.221,-22.461,-17.578,-35.156,-5.859,0.000,0
159529.224,-19.043,-17.090,-10.254,-26.855,0.000,0
159529.228,-20.020,-20.508,-18.555,-31.738,0.000,0
159529.232,-11.719,-21.484,-38.574,-32.227,0.000,0
159529.236,-2.930,-19.043,-24.414,-24.902,0.000,0
159529.240,-16.113,-19.531,-14.648,-21.484,0.000,0
159529.244,-18.555,-17.090,-23.438,-35.645,0.000,0
159529.248,-16.113,-28.809,-43.945,-32.715,0.000,0
159529.252,-23.438,-29.785,-34.180,-14.648,0.000,0
159529.256,-25.879,-15.625,-11.719,-8.789,0.000,1
159529.260,-20.996,-17.090,-26.855,-15.137,0.000,0
159529.263,-22.949,-20.996,-21.484,-29.297,0.000,0
159529.267,-22.461,-23.438,-22.949,-30.273,0.000,0
159529.271,-17.578,-20.996,-24.414,-23.438,0.000,0
159529.275,-22.461,-18.555,-21.484,-18.066,0.000,0
159529.279,-17.090,-22.461,-25.879,-13.184,0.000,0
159529.283,-15.625,-23.926,-25.879,-30.762,0.000,0
159529.287,-21.973,-19.531,-24.902,-26.855,0.000,0
159529.291,-25.391,-18.555,-29.297,-11.719,0.000,0
159529.295,-27.344,-16.602,-28.809,-12.207,0.000,0
159529.299,-26.367,-17.578,-19.531,-14.160,0.000,0
159529.303,-20.996,-17.578,-10.254,-33.691,0.000,0
159529.306,-12.695,-15.625,-20.020,-40.527,0.000,0
159529.310,-16.602,-23.926,-29.297,-34.668,0.000,0
159529.314,-19.531,-25.391,-20.020,-23.926,0.000,0
159529.318,-18.555,-24.902,-33.203,-14.160,0.000,0
159529.322,-17.578,-27.344,-36.621,-29.297,0.000,0
159529.326,-19.043,-25.391,-24.414,-38.574,0.000,0
159529.330,-20.508,-27.832,-26.367,-24.902,0.000,0
159529.334,-24.902,-26.367,-32.227,-30.762,0.000,0
159529.338,-18.066,-28.809,-27.832,-40.039,0.000,0
159529.342,-16.602,-29.785,-18.066,-29.785,0.000,0
159529.346,-17.578,-21.484,-22.949,-35.645,0.000,0
159529.349,-10.254,-18.066,-37.598,-37.598,0.000,0
159529.353,-10.254,-16.602,-34.180,-18.555,0.000,0
159529.357,-19.043,-17.578,-32.227,-17.090,0.000,0
159529.361,-34.180,-24.414,-23.926,-28.809,0.000,0
159529.365,-31.250,-21.973,-27.832,-17.090,0.000,0
159529.369,-21.484,-17.578,-40.039,-7.324,0.000,0
159529.373,-23.926,-23.926,-33.691,-24.414,0.000,0
159529.377,-28.809,-23.926,-35.645,-31.738,0.000,0
159529.381,-21.484,-22.461,-27.832,-29.297,0.000,0
159529.385,-19.043,-23.438,-29.785,-42.480,0.000,0
159529.388,-36.133,-24.902,-27.832,-39.551,0.000,0
159529.392,-42.480,-28.809,-32.715,-26.367,0.000,0
159529.396,-34.668,-28.320,-52.246,-31.738,0.000,0
159529.400,-33.691,-29.785,-31.250,-37.109,0.000,0
159529.404,-41.016,-27.832,-16.113,-30.273,0.000,0
159529.408,-36.621,-20.020,-33.691,-31.250,0.000,0
159529.412,-28.320,-16.113,-40.527,-34.668,0.000,0
159529.416,-29.785,-17.090,-28.320,-30.273,0.000,0
159529.420,-31.250,-25.879,-15.137,-39.062,0.000,0
159529.424,-31.738,-26.855,-23.926,-43.945,0.000,0
159529.428,-30.273,-23.926,-43.457,-27.832,0.000,0
159529.431,-31.250,-24.414,-43.945,-30.273,0.000,0
159529.435,-37.598,-23.926,-38.574,-28.809,0.000,0
159529.439,-31.250,-24.902,-36.621,-23.438,0.000,0
159529.443,-22.949,-23.926,-24.902,-30.273,0.000,0
159529.447,-18.066,-25.879,-29.297,-16.602,0.000,0
159529.451,-10.742,-30.273,-34.180,1.465,0.000,0
159529.455,-26.367,-21.973,-36.621,-1.953,0.000,0
159529.459,-39.062,-18.555,-28.809,-23.438,0.000,0
159529.463,-30.762,-16.113,-18.066,-31.738,0.000,0
159529.467,-20.996,-9.766,-34.668,-19.043,0.000,0
159529.471,-19.531,-8.301,-38.086,-22.461,0.000,0
159529.474,-26.367,-8.789,-24.414,-15.137,0.000,0
159529.478,-26.367,-16.113,-18.066,-9.766,0.000,0
159529.482,-9.277,-16.113,-19.531,-18.066,0.000,0
159529.486,-8.789,-11.230,-28.320,-20.996,0.000,0
159529.490,-29.297,-11.230,-23.438,-22.461,0.000,0
159529.494,-30.762,-13.184,-26.855,-14.648,0.000,0
159529.498,-25.879,-12.695,-32.227,-23.926,0.000,0
159529.502,-25.879,-21.973,-28.809,-29.297,0.000,0
159529.506,-21.973,-20.020,-27.832,-15.625,0.000,0
159529.510,-16.602,-9.277,-19.531,-15.137,0.000,0
159529.513,-27.344,-13.184,-26.855,-15.625,0.000,0
159529.517,-28.320,-16.602,-19.531,-33.203,0.000,0
159529.521,-16.113,-10.742,-1.465,-33.203,0.000,0
159529.525,-23.438,-13.184,-16.113,-22.461,0.000,0
159529.529,-26.367,-20.508,-32.227,-24.414,0.000,0
159529.533,-24.414,-19.043,-38.574,-23.926,0.000,0
159529.537,-26.367,-16.113,-24.902,-30.273,0.000,0
159529.541,-23.438,-13.184,-18.066,-31.250,0.000,0
159529.545,-20.020,-16.113,-39.551,-17.578,0.000,0
159529.549,-23.926,-17.578,-37.598,-18.066,0.000,0
159529.553,-31.738,-16.113,-28.809,-36.133,0.000,0
159529.556,-26.855,-14.648,-33.203,-25.879,0.000,0
159529.560,-23.438,-12.207,-29.297,-28.320,0.000,0
159529.564,-33.203,-14.160,-28.320,-29.785,0.000,0
159529.568,-26.367,-13.184,-21.484,-18.066,0.000,0
159529.572,-20.508,-16.113,-28.809,-20.508,0.000,0
159529.576,-24.414,-18.555,-41.016,-25.391,0.000,0
159529.580,-26.367,-15.137,-28.320,-28.320,0.000,0
159529.584,-38.086,-18.555,-27.344,-34.180,0.000,0
159529.588,-34.668,-20.996,-37.109,-41.992,0.000,0
159529.592,-24.414,-24.414,-35.156,-32.715,0.000,0
159529.596,-33.691,-27.344,-38.086,-27.832,0.000,0
159529.599,-38.574,-22.949,-35.156,-31.738,0.000,0
159529.603,-35.156,-18.555,-34.668,-28.320,0.000,0
159529.607,-32.715,-17.578,-37.598,-27.832,0.000,0
159529.611,-30.273,-17.090,-30.762,-21.484,0.000,0
159529.615,-35.156,-14.648,-32.227,-21.973,0.000,0
159529.619,-37.109,-11.230,-30.273,-39.062,0.000,0
159529.623,-23.926,-19.043,-27.344,-39.551,0.000,0
159529.627,-29.297,-18.555,-19.531,-30.762,0.000,0
159529.631,-45.410,-13.672,-15.137,-35.156,0.000,0
159529.635,-44.434,-15.625,-36.621,-33.203,0.000,0
159529.638,-47.852,-18.555,-20.020,-34.668,0.000,0
159529.642,-44.434,-22.461,-14.648,-27.832,0.000,0
159529.646,-35.156,-22.461,-38.086,-27.344,0.000,0
159529.650,-35.156,-21.484,-43.945,-32.715,0.000,0
159529.654,-38.574,-24.902,-35.156,-26.367,0.000,0
159529.658,-33.203,-30.762,-11.230,-23.438,0.000,0
159529.662,-28.809,-30.273,-4.883,-24.414,0.000,0
159529.666,-25.879,-25.391,-22.461,-27.344,0.000,0
159529.670,-23.438,-26.367,-36.621,-27.344,0.000,0
159529.674,-36.133,-30.273,-28.320,-22.461,0.000,0
159529.678,-39.062,-30.273,-19.043,-32.715,0.000,0
159529.681,-30.273,-32.715,-35.645,-38.574,0.000,0
159529.685,-30.762,-28.809,-43.457,-26.855,0.000,0
159529.689,-31.250,-27.344,-32.715,-23.438,0.000,0
159529.693,-27.344,-36.133,-39.551,-19.531,0.000,0
159529.697,-16.113,-31.738,-30.762,-26.367,0.000,0
159529.701,-11.719,-21.973,-20.020,-33.203,0.000,0
159529.705,-22.461,-24.414,-32.715,-23.926,0.000,0
159529.709,-26.367,-25.879,-33.691,-20.508,0.000,0
159529.713,-19.043,-24.414,-49.316,-28.320,0.000,0
159529.717,-25.879,-20.508,-33.203,-32.715,0.000,0
159529.721,-29.297,-25.879,-0.488,-32.227,0.000,0
159529.724,-28.809,-33.203,-23.926,-43.457,0.000,0
159529.728,-32.715,-28.320,-41.992,-51.758,0.000,0
159529.732,-35.645,-26.855,-47.363,-29.297,0.000,0
159529.736,-37.598,-26.367,-35.645,-17.578,0.000,0
159529.740,-30.762,-23.926,-26.855,-44.922,0.000,0
159529.744,-22.461,-19.531,-32.715,-47.363,0.000,0
159529.748,-15.137,-18.066,-32.227,-31.738,0.000,0
159529.752,-20.996,-19.043,-29.785,-35.645,0.000,0
159529.756,-24.902,-22.461,-23.438,-33.691,0.000,0
159529.760,-17.578,-25.391,-18.066,-31.738,0.000,0
159529.763,-29.785,-23.926,-21.484,-40.039,0.000,0
159529.767,-34.668,-26.367,-28.809,-39.062,0.000,0
159529.771,-23.926,-27.344,-40.527,-26.367,0.000,0
159529.775,-9.766,-28.320,-28.809,-26.367,0.000,0
159529.779,-6.348,-29.297,-15.137,-32.715,0.000,0
159529.783,-15.137,-27.344,-30.273,-15.625,0.000,0
159529.787,-18.555,-31.738,-34.668,-14.648,0.000,0
159529.791,-17.578,-29.297,-24.902,-35.156,0.000,0
159529.795,-22.949,-29.297,-18.555,-31.250,0.000,0
159529.799,-30.762,-31.250,-27.344,-40.039,0.000,0
159529.803,-26.855,-28.809,-36.621,-42.969,0.000,0
159529.806,-31.250,-27.344,-24.902,-22.461,0.000,0
159529.810,-30.762,-29.297,-27.344,-19.531,0.000,0
159529.814,-21.973,-26.367,-39.062,-25.879,0.000,0
159529.818,-26.855,-21.484,-28.809,-35.645,0.000,0
159529.822,-35.156,-25.391,-35.645,-35.645,0.000,0
159529.826,-25.391,-21.484,-31.738,-24.414,0.000,0
159529.830,-25.391,-22.949,-45.898,-22.949,0.000,0
159529.834,-36.621,-29.297,-55.176,-33.691,0.000,0
159529.838,-38.086,-30.273,-28.320,-36.133,0.000,0
159529.842,-36.133,-28.320,-27.344,-30.762,0.000,0
159529.846,-36.621,-28.320,-31.250,-37.109,0.000,0
159529.849,-33.203,-30.273,-35.156,-23.438,0.000,0
159529.853,-28.809,-28.320,-22.461,-2.930,0.000,0
159529.857,-31.738,-21.973,-19.531,-10.742,0.000,0
159529.861,-27.832,-22.461,-44.922,-25.879,0.000,0
159529.865,-31.250,-25.879,-40.039,-28.809,0.000,0
159529.869,-36.133,-30.273,-31.738,-25.879,0.000,0
159529.873,-33.691,-27.344,-29.785,-27.832,0.000,0
159529.877,-26.855,-17.578,-14.160,-27.832,0.000,0
159529.881,-13.672,-16.602,-13.184,-26.855,0.000,0
159529.885,-10.254,-18.555,-24.414,-21.973,0.000,0
159529.888,-12.207,-17.578,-22.461,-24.902,0.000,0
159529.892,-16.113,-21.484,-21.484,-27.344,0.000,0
159529.896,-25.879,-25.391,-14.648,-33.691,0.000,0
159529.900,-30.762,-24.414,-22.461,-25.879,0.000,0
159529.904,-27.832,-21.484,-33.691,-14.160,0.000,0
159529.908,-26.367,-28.320,-35.645,-21.973,0.000,0
159529.912,-35.156,-31.738,-35.645,-21.973,0.000,0
159529.916,-36.133,-24.902,-24.902,-28.320,0.000,0
159529.920,-25.391,-20.020,-27.832,-27.832,0.000,2
159529.924,-20.020,-20.508,-32.715,-13.184,0.000,0
159529.928,-29.785,-20.508,-23.926,-12.207,0.000,0
159529.931,-29.297,-19.043,-32.227,-18.066,0.000,0
159529.935,-25.391,-20.020,-36.133,-25.391,0.000,0
159529.939,-36.133,-17.578,-17.090,-27.344,0.000,0
159529.943,-32.715,-19.531,-20.996,-20.020,0.000,0
159529.947,-30.762,-20.020,-41.504,-24.414,0.000,0
159529.951,-27.344,-19.043,-49.805,-20.020,0.000,0
159529.955,-24.414,-23.926,-27.832,-23.438,0.000,0
159529.959,-23.926,-21.973,-5.859,-32.227,0.000,0
159529.963,-22.461,-21.973,-26.855,-21.973,0.000,0
159529.967,-17.578,-22.461,-40.527,-16.602,0.000,0
159529.971,-12.207,-20.020,-27.344,-15.625,0.000,0
159529.974,-15.625,-20.996,-12.207,-24.902,0.000,0
159529.978,-18.066,-18.555,-18.555,-26.855,0.000,0
159529.982,-17.578,-22.461,-34.180,-26.855,0.000,0
159529.986,-21.973,-22.949,-23.926,-23.926,0.000,0
159529.990,-20.996,-20.508,-24.414,-18.555,0.000,0
159529.994,-18.066,-20.020,-20.020,-20.996,0.000,0
159529.998,-25.879,-15.137,-25.879,-11.230,0.000,0
159530.002,-26.367,-22.949,-32.715,-8.789,0.000,0
159530.006,-20.508,-25.879,-15.625,-12.695,0.000,0
159530.010,-18.066,-19.043,-27.832,-23.926,0.000,0
159530.013,-22.949,-21.484,-30.762,-41.992,0.000,0
159530.017,-31.250,-23.438,-21.484,-36.133,0.000,0
159530.021,-21.484,-25.879,-26.367,-32.715,0.000,0
159530.025,-13.672,-23.438,-27.832,-24.414,0.000,0
159530.029,-20.020,-23.438,-21.973,-18.066,0.000,0
159530.033,-23.438,-17.090,-13.672,-27.344,0.000,0
159530.037,-23.438,-12.695,-14.160,-17.090,0.000,0
159530.041,-22.461,-18.066,-27.344,-21.484,0.000,0
159530.045,-20.508,-21.484,-35.645,-37.109,0.000,0
159530.049,-23.926,-20.508,-25.879,-18.066,0.000,0
159530.053,-23.926,-18.066,-17.578,-26.367,0.000,0
159530.056,-26.855,-20.996,-26.855,-38.574,0.000,0
159530.060,-33.203,-20.508,-36.621,-24.902,0.000,0
159530.064,-22.949,-23.438,-32.227,-22.949,0.000,0
159530.068,-22.461,-29.785,-34.668,-27.344,0.000,0
159530.072,-32.227,-29.785,-33.203,-43.945,0.000,0
159530.076,-30.762,-24.414,-19.043,-48.828,0.000,0
159530.080,-29.785,-17.578,-24.414,-30.273,0.000,0
159530.084,-28.809,-22.949,-26.855,-28.809,0.000,0
159530.088,-28.320,-26.367,-30.762,-25.879,0.000,0
159530.092,-28.809,-22.461,-21.973,-26.855,0.000,0
159530.096,-32.227,-24.902,-8.789,-39.062,0.000,0
159530.099,-26.367,-24.414,-34.668,-27.344,0.000,0
159530.103,-25.391,-24.902,-38.574,-21.973,0.000,0
159530.107,-31.738,-27.832,-30.762,-22.461,0.000,0
159530.111,-22.949,-28.320,-22.949,-26.367,0.000,0
159530.115,-13.184,-27.344,-14.160,-32.227,0.000,0
159530.119,-2.930,-22.949,-21.973,-12.207,0.000,0
159530.123,-4.395,-30.762,-30.273,-9.766,0.000,0
159530.127,-27.832,-21.973,-22.949,-37.598,0.000,0
159530.131,-40.527,-14.160,-25.879,-38.086,0.000,0
159530.135,-32.715,-17.090,-20.020,-29.297,0.000,0
159530.138,-25.391,-9.277,-1.465,-23.438,0.000,0
159530.142,-30.273,-7.324,-17.090,-19.531,0.000,0
159530.146,-27.832,-10.254,-30.762,-24.902,0.000,0
159530.150,-21.973,-14.160,-18.555,-23.926,0.000,0
159530.154,-18.066,-12.207,-8.301,-25.879,0.000,0
159530.158,-16.602,-4.395,-17.090,-15.137,0.000,0
159530.162,-21.973,-8.301,-23.438,-13.672,0.000,0
159530.166,-26.855,-18.555,-24.902,-13.184,0.000,0
159530.170,-17.578,-23.926,-18.066,-19.043,0.000,0
159530.174,-9.766,-20.020,-5.371,-21.484,0.000,0
159530.178,-24.902,-16.602,-17.090,-14.648,0.000,0
159530.181,-31.250,-21.484,-36.133,-21.484,0.000,0
159530.185,-32.715,-20.020,-32.227,-18.555,0.000,0
159530.189,-26.855,-16.602,-31.250,-13.672,0.000,0
159530.193,-28.320,-18.555,-24.414,-29.297,0.000,0
159530.197,-26.855,-20.996,-22.461,-33.691,0.000,0
159530.201,-20.020,-21.484,-33.203,-20.508,0.000,0
159530.205,-23.438,-17.090,-31.250,-15.625,0.000,0
159530.209,-27.832,-20.020,-22.949,-17.090,0.000,0
159530.213,-24.902,-20.508,-19.043,-16.602,0.000,0
159530.217,-23.926,-21.484,-29.785,-21.973,0.000,0
159530.221,-28.320,-26.855,-34.180,-30.762,0.000,0
159530.224,-27.832,-21.973,-27.832,-23.438,0.000,0
159530.228,-26.367,-17.090,-18.555,-16.602,0.000,0
159530.232,-27.832,-13.672,-20.020,-17.578,0.000,0
159530.236,-24.414,-18.555,-38.086,-27.832,0.000,0
159530.240,-25.879,-19.531,-35.156,-24.902,0.000,0
159530.244,-17.578,-16.602,-34.180,-6.836,0.000,0
159530.248,-13.184,-13.672,-36.621,-11.719,0.000,0
159530.252,-21.973,-15.137,-26.367,-20.508,0.000,0
159530.256,-19.531,-18.555,-21.484,-21.484,0.000,0
159530.260,-21.484,-17.578,-28.809,-33.691,0.000,0
159530.263,-26.367,-18.066,-36.621,-31.738,0.000,0
159530.267,-24.902,-19.531,-41.504,-18.555,0.000,0
159530.271,-21.484,-17.578,-20.996,-34.668,0.000,0
159530.275,-34.180,-17.578,-19.043,-38.574,0.000,0
159530.279,-41.504,-16.113,-43.457,-26.855,0.000,0
159530.283,-30.273,-15.625,-38.574,-19.043,0.000,0
159530.287,-29.785,-20.508,-18.555,-9.277,0.000,0
159530.291,-32.227,-18.066,-11.719,-14.160,0.000,0
159530.295,-27.832,-15.137,-27.832,-25.879,0.000,0
159530.299,-25.879,-20.020,-46.875,-32.715,0.000,0
159530.303,-26.855,-21.973,-41.504,-26.367,0.000,0
159530.306,-30.762,-19.043,-28.809,-33.691,0.000,0
159530.310,-26.855,-18.066,-22.949,-35.645,0.000,0
159530.314,-26.367,-17.578,-31.738,-18.555,0.000,0
159530.318,-36.621,-20.020,-40.527,-29.297,0.000,0
159530.322,-32.715,-20.508,-35.156,-33.691,0.000,0
159530.326,-27.832,-15.625,-36.621,-24.414,0.000,0
159530.330,-22.461,-20.508,-30.762,-36.133,0.000,0
159530.334,-6.836,-26.855,-26.855,-16.602,0.000,0
159530.338,-28.320,-29.297,-34.668,-17.090,0.000,0
159530.342,-65.430,-30.273,-32.227,-54.199,0.000,0
159530.346,-59.570,-28.809,-36.621,-53.223,0.000,0
159530.349,-47.852,-32.227,-39.551,-37.109,0.000,0
159530.353,-40.527,-30.762,-30.273,-29.785,0.000,0
159530.357,-35.156,-22.461,-41.016,-29.297,0.000,0
159530.361,-41.504,-24.902,-42.969,-45.410,0.000,0
159530.365,-40.039,-28.320,-31.250,-36.621,0.000,0
159530.369,-26.367,-29.785,-31.250,-33.203,0.000,0
159530.373,-22.949,-27.344,-39.062,-48.340,0.000,0
159530.377,-28.320,-21.484,-25.879,-33.691,0.000,0
159530.381,-27.832,-21.484,-13.184,-17.090,0.000,0
159530.385,-29.785,-31.738,-36.621,-17.090,0.000,0
159530.388,-33.691,-34.668,-21.973,-25.879,0.000,0
159530.392,-36.133,-28.809,-16.113,-29.297,0.000,0
159530.396,-32.227,-27.344,-34.668,-22.461,0.000,0
159530.400,-23.926,-30.762,-39.062,-29.785,0.000,0
159530.404,-19.531,-31.738,-38.574,-25.879,0.000,0
159530.408,-20.508,-30.762,-23.926,-35.645,0.000,0
159530.412,-16.602,-31.250,-18.066,-37.109,0.000,0
159530.416,-8.789,-31.738,-25.391,-25.391,0.000,0
159530.420,-21.973,-27.344,-23.438,-13.184,0.000,0
159530.424,-28.320,-22.461,-18.555,-4.883,0.000,0
159530.428,-23.438,-24.902,-16.113,-18.066,0.000,0
159530.431,-27.344,-27.832,-25.879,-22.461,0.000,0
159530.435,-25.391,-22.461,-20.508,-13.672,0.000,0
159530.439,-30.273,-24.902,-18.555,-16.113,0.000,0
159530.443,-36.621,-31.250,-33.203,-18.555,0.000,0
159530.447,-24.902,-31.738,-39.062,-33.691,0.000,0
159530.451,-25.879,-26.367,-28.320,-34.180,0.000,0
159530.455,-20.996,-20.996,-24.414,-27.344,0.000,0
159530.459,-22.949,-20.508,-30.273,-30.273,0.000,0
159530.463,-28.320,-25.879,-36.621,-23.926,0.000,0
159530.467,-31.738,-28.320,-20.996,-35.156,0.000,0
159530.471,-34.668,-23.926,-23.926,-45.410,0.000,0
159530.474,-24.414,-19.043,-45.898,-32.715,0.000,0
159530.478,-23.926,-21.484,-43.945,-22.949,0.000,0
159530.482,-25.879,-24.414,-33.203,-26.367,0.000,0
159530.486,-19.531,-21.484,-19.531,-38.574,0.000,0
159530.490,-13.672,-22.461,-17.578,-34.668,0.000,0
159530.494,-16.602,-20.996,-26.855,-25.391,0.000,0
159530.498,-24.902,-23.438,-34.668,-30.762,0.000,0
159530.502,-20.996,-27.344,-33.691,-19.043,0.000,0
159530.506,-24.414,-25.391,-27.344,-18.555,0.000,0
159530.510,-33.203,-27.344,-24.902,-33.691,0.000,0
159530.513,-25.391,-32.227,-24.414,-32.227,0.000,0
159530.517,-20.508,-28.320,-40.527,-17.090,0.000,0
159530.521,-28.320,-27.344,-41.504,-24.414,0.000,0
159530.525,-27.344,-28.809,-21.973,-34.180,0.000,0
159530.529,-29.297,-23.926,-24.902,-28.809,0.000,0
159530.533,-30.762,-25.391,-55.176,-35.156,0.000,0
159530.537,-23.438,-30.273,-55.176,-32.227,0.000,0
159530.541,-20.020,-26.855,-24.414,-14.648,0.000,0
159530.545,-26.855,-25.879,-16.602,-19.531,0.000,0
159530.549,-32.715,-24.414,-34.180,-30.762,0.000,0
159530.553,-29.785,-23.926,-28.809,-28.809,0.000,0
159530.556,-31.738,-25.391,-21.484,-19.531,0.000,0
159530.560,-35.156,-23.438,-32.227,-18.066,0.000,0
159530.564,-22.949,-24.902,-36.621,-26.855,0.000,0
159530.568,-18.555,-28.320,-21.484,-23.438,0.000,0
159530.572,-20.020,-23.926,-19.043,-21.484,0.000,0
159530.576,-12.695,-21.484,-25.879,-21.484,0.000,0
159530.580,-11.719,-20.996,-33.203,-12.207,0.000,0
159530.584,-11.230,-17.090,-29.297,-10.254,0.000,0
159530.588,-20.996,-20.996,-20.020,-16.602,0.000,0
159530.592,-21.973,-24.902,-28.809,-13.672,0.000,0
159530.596,-10.254,-26.855,-33.691,-1.953,0.000,1
159530.599,-22.461,-29.297,-27.832,-6.836,0.000,0
159530.603,-23.926,-21.973,-13.184,-12.207,0.000,0
159530.607,-10.254,-19.531,-18.066,-12.207,0.000,0
159530.611,-15.625,-23.926,-47.852,-11.719,0.000,0
159530.615,-17.578,-22.461,-43.457,-13.184,0.000,0
159530.619,-17.578,-20.996,-34.180,-9.766,0.000,0
159530.623,-21.973,-26.367,-35.645,-5.371,0.000,0
159530.627,-19.043,-24.902,-23.926,-12.207,0.000,0
159530.631,-10.742,-23.438,-29.785,-14.648,0.000,0
159530.635,-21.484,-22.949,-34.180,-16.602,0.000,0
159530.638,-32.227,-23.438,-36.133,-24.902,0.000,0
159530.642,-34.668,-23.926,-37.109,-27.832,0.000,0
159530.646,-36.621,-25.879,-27.832,-31.738,0.000,0
159530.650,-40.039,-25.391,-34.180,-30.273,0.000,0
159530.654,-33.203,-26.367,-41.992,-27.832,0.000,0
159530.658,-29.297,-29.297,-40.527,-22.461,0.000,0
159530.662,-35.645,-28.320,-32.227,-19.043,0.000,0
159530.666,-29.785,-17.578,-30.762,-22.461,0.000,0
159530.670,-19.531,-10.254,-41.992,-11.230,0.000,0
159530.674,-19.043,-11.719,-38.574,-11.719,0.000,0
159530.678,-24.414,-17.578,-36.133,-15.625,0.000,0
159530.681,-21.484,-21.973,-33.691,-25.391,0.000,0
159530.685,-17.090,-23.926,-20.996,-32.715,0.000,0
159530.689,-19.531,-19.043,-25.879,-30.762,0.000,0
159530.693,-26.367,-23.438,-35.156,-28.320,0.000,0
159530.697,-23.926,-23.438,-47.363,-26.855,0.000,0
159530.701,-19.043,-20.020,-43.945,-23.438,0.000,0
159530.705,-26.367,-21.973,-10.742,-22.461,0.000,0
159530.709,-38.086,-23.438,-16.113,-24.902,0.000,0
159530.713,-27.344,-26.367,-42.480,-29.297,0.000,0
159530.717,-22.949,-25.879,-40.527,-37.598,0.000,0
159530.721,-28.320,-29.297,-18.555,-30.762,0.000,0
159530.724,-23.926,-26.367,0.488,-28.320,0.000,0
159530.728,-22.461,-24.414,-20.508,-26.367,0.000,0
159530.732,-19.531,-22.461,-25.879,-17.090,0.000,0
159530.736,-18.066,-19.531,-21.484,-26.855,0.000,0
159530.740,-24.902,-24.414,-29.297,-33.203,0.000,0
159530.744,-12.695,-28.809,-22.949,-33.691,0.000,0
159530.748,-2.930,-25.391,-30.762,-38.574,0.000,0
159530.752,-22.949,-26.855,-17.090,-37.598,0.000,0
159530.756,-30.273,-26.367,-19.043,-38.574,0.000,0
159530.760,-19.531,-19.531,-23.926,-29.297,0.000,0
159530.763,-29.297,-19.043,-24.902,-34.668,0.000,0
159530.767,-34.668,-21.484,-37.109,-38.086,0.000,0
159530.771,-30.273,-22.949,-44.434,-20.020,0.000,0
159530.775,-27.344,-21.484,-43.945,-12.695,0.000,0
159530.779,-28.320,-22.949,-33.203,-21.973,0.000,0
159530.783,-32.227,-24.414,-16.602,-34.668,0.000,0
159530.787,-33.691,-23.926,-14.160,-28.320,0.000,0
159530.791,-35.156,-20.020,-24.414,-26.367,0.000,0
159530.795,-33.203,-18.555,-34.180,-25.879,0.000,0
159530.799,-40.039,-20.508,-24.902,-21.973,0.000,0
159530.803,-29.785,-23.926,-20.508,-35.645,0.000,0
159530.806,-28.809,-25.879,-28.320,-30.762,0.000,0
159530.810,-35.156,-21.484,-35.645,-22.949,0.000,0
159530.814,-22.461,-22.949,-37.109,-16.113,0.000,0
159530.818,-24.902,-28.320,-41.992,-19.043,0.000,0
159530.822,-32.715,-26.855,-35.645,-37.598,0.000,0
159530.826,-27.344,-19.531,-20.020,-30.762,0.000,0
159530.830,-32.227,-18.066,-29.297,-29.297,0.000,0
159530.834,-41.504,-21.973,-32.715,-18.555,0.000,0
159530.838,-37.598,-20.996,-37.109,-11.719,0.000,0
159530.842,-41.504,-18.066,-23.926,-22.461,0.000,0
159530.846,-44.434,-17.090,-20.508,-27.344,0.000,0
159530.849,-37.109,-16.113,-40.039,-20.996,0.000,0
159530.853,-26.367,-18.066,-28.809,-18.555,0.000,0
159530.857,-13.184,-16.113,-22.949,-23.926,0.000,0
159530.861,-20.996,-16.113,-19.531,-26.367,0.000,0
159530.865,-26.855,-21.484,-23.438,-23.438,0.000,0
159530.869,-15.625,-16.602,-30.762,-17.578,0.000,0
159530.873,-18.555,-17.090,-23.438,-20.996,0.000,0
159530.877,-22.461,-20.020,-26.367,-30.273,0.000,0
159530.881,-33.203,-22.949,-20.996,-32.715,0.000,0
159530.885,-42.969,-26.855,-20.996,-25.391,0.000,0
159530.888,-33.203,-27.344,-25.879,-17.090,0.000,0
159530.892,-20.996,-30.273,-28.320,-14.160,0.000,0
159530.896,-3.418,-28.809,-34.180,-1.465,0.000,0
159530.900,-14.160,-26.367,-24.902,-14.648,0.000,0
159530.904,-44.922,-27.344,-21.484,-42.969,0.000,0
159530.908,-41.992,-30.273,-37.109,-31.738,0.000,0
159530.912,-28.320,-26.855,-34.668,-25.879,0.000,0
159530.916,-12.695,-22.949,-25.391,-19.531,0.000,0
159530.920,-26.855,-22.461,-20.996,-22.461,0.000,0
159530.924,-36.621,-16.602,-11.719,-37.598,0.000,0
159530.928,-24.902,-15.137,-20.020,-20.996,0.000,0
159530.931,-30.273,-18.066,-20.020,-9.766,0.000,0
159530.935,-25.391,-14.160,-24.414,-15.137,0.000,0
159530.939,-23.438,-19.043,-32.715,-15.625,0.000,0
159530.943,-24.902,-22.949,-23.926,-16.602,0.000,0
159530.947,-19.043,-16.113,-31.250,-17.090,0.000,0
159530.951,-18.066,-13.672,-35.645,-13.672,0.000,0
159530.955,-22.949,-14.160,-32.227,-13.184,0.000,0
159530.959,-25.391,-20.996,-24.902,-26.367,0.000,0
159530.963,-21.484,-26.367,-13.184,-38.574,0.000,0
159530.967,-24.902,-21.973,-28.320,-33.203,0.000,0
159530.971,-31.738,-23.438,-38.574,-32.715,0.000,0
159530.974,-33.203,-28.320,-27.832,-21.973,0.000,0
159530.978,-34.180,-17.578,-16.113,-13.184,0.000,0
159530.982,-27.344,-13.672,-15.137,-29.297,0.000,0
159530.986,-23.438,-15.625,-21.973,-25.391,0.000,0
159530.990,-20.020,-14.160,-18.555,-16.602,0.000,0
159530.994,-18.066,-17.578,-22.949,-19.043,0.000,0
159530.998,-23.926,-22.949,-16.602,-26.855,0.000,0
159531.002,-23.438,-19.531,-7.812,-27.344,0.000,0
159531.006,-14.648,-19.043,-19.043,-26.367,0.000,0
159531.010,-16.113,-23.926,-27.832,-29.297,0.000,0
159531.013,-23.926,-24.414,-38.574,-18.555,0.000,0
159531.017,-27.344,-23.926,-17.578,-21.484,0.000,0
159531.021,-28.320,-24.902,-12.207,-30.762,0.000,0
159531.025,-22.949,-26.367,-45.898,-30.762,0.000,0
159531.029,-22.949,-24.414,-48.828,-39.062,0.000,0
159531.033,-30.762,-19.531,-26.367,-25.879,0.000,0
159531.037,-35.645,-17.090,-3.418,-33.691,0.000,0
159531.041,-25.391,-17.578,-14.648,-35.645,0.000,0
159531.045,-21.973,-16.113,-30.762,-25.879,0.000,0
159531.049,-28.320,-18.555,-20.996,-22.461,0.000,0
159531.053,-27.832,-21.484,-22.461,-12.695,0.000,0
159531.056,-25.879,-21.484,-15.625,-28.809,0.000,0
159531.060,-25.391,-23.438,-13.184,-27.832,0.000,0
159531.064,-31.250,-25.391,-24.902,-12.207,0.000,0
159531.068,-36.133,-22.461,-26.855,-9.277,0.000,0
159531.072,-32.227,-20.996,-33.203,-4.395,0.000,0
159531.076,-20.508,-20.508,-23.926,-13.184,0.000,0
159531.080,-19.043,-21.973,-2.441,-28.809,0.000,0
159531.084,-22.949,-16.602,-11.719,-16.113,0.000,0
159531.088,-16.113,-22.949,-24.414,-9.766,0.000,0
159531.092,-19.043,-24.902,-20.508,-8.789,0.000,0
159531.096,-28.809,-16.602,-13.184,-7.324,0.000,0
159531.099,-19.043,-20.508,-18.066,-33.691,0.000,0
159531.103,-18.555,-19.531,-33.203,-38.086,0.000,0
159531.107,-31.250,-21.973,-27.832,-23.926,0.000,0
159531.111,-29.297,-22.949,-23.926,-12.695,0.000,0
159531.115,-27.832,-19.531,-30.273,-7.812,0.000,0
159531.119,-23.926,-22.949,-26.367,-19.531,0.000,0
159531.123,-30.762,-20.508,-27.832,-20.020,0.000,0
159531.127,-30.762,-22.461,-38.086,-6.348,0.000,0
159531.131,-19.043,-27.344,-45.410,-10.254,0.000,0
159531.135,-20.020,-24.414,-28.809,-20.508,0.000,0
159531.138,-26.367,-24.414,-17.090,-37.598,0.000,0
159531.142,-23.438,-21.484,-33.203,-27.832,0.000,0
159531.146,-15.137,-21.973,-34.668,-20.508,0.000,0
159531.150,-19.043,-21.973,-31.250,-23.926,0.000,0
159531.154,-12.207,-19.043,-28.809,-9.766,0.000,0
159531.158,-5.859,-13.672,-16.113,-15.137,0.000,0
159531.162,-17.090,-14.648,-29.785,-9.766,0.000,0
159531.166,-18.555,-22.949,-36.133,-16.602,0.000,0
159531.170,-25.879,-23.926,-19.043,-18.066,0.000,0
159531.174,-27.832,-25.879,-26.367,-5.371,0.000,0
159531.178,-27.832,-24.414,-34.180,-24.414,0.000,0
159531.181,-29.297,-20.508,-29.785,-27.344,0.000,0
159531.185,-21.484,-18.066,-32.227,-20.996,0.000,0
159531.189,-21.973,-18.555,-42.969,-19.531,0.000,0
159531.193,-20.996,-25.391,-39.551,-20.996,0.000,0
159531.197,-24.414,-28.809,-22.949,-33.691,0.000,0
159531.201,-29.785,-35.156,-32.227,-30.762,0.000,0
159531.205,-26.855,-32.227,-36.621,-18.066,0.000,0
159531.209,-22.461,-18.555,-31.738,-21.484,0.000,0
159531.213,-23.438,-17.578,-31.738,-20.020,0.000,0
159531.217,-25.879,-18.066,-20.508,-28.809,0.000,0
159531.221,-10.254,-19.531,-29.297,-30.762,0.000,0
159531.224,-11.719,-25.879,-38.086,-27.344,0.000,0
159531.228,-25.391,-34.180,-39.551,-32.715,0.000,0
159531.232,-26.855,-35.156,-38.086,-27.832,0.000,0
159531.236,-34.668,-32.227,-26.367,-20.020,0.000,0
159531.240,-33.691,-30.762,-29.297,-30.273,0.000,0
159531.244,-33.691,-29.785,-43.457,-36.133,0.000,0
159531.248,-36.621,-32.715,-41.992,-37.598,0.000,0
159531.252,-26.855,-31.738,-34.180,-38.086,0.000,0
159531.256,-28.809,-30.762,-20.508,-40.039,0.000,0
159531.260,-37.598,-28.809,-25.879,-42.969,0.000,0
159531.263,-36.621,-30.762,-48.340,-38.086,0.000,0
159531.267,-33.203,-34.180,-32.715,-44.434,0.000,0
159531.271,-25.879,-28.809,-28.320,-41.504,0.000,0
159531.275,-25.391,-28.320,-33.691,-50.781,0.000,0
159531.279,-31.250,-26.855,-38.574,-41.992,0.000,1
159531.283,-35.156,-26.367,-35.156,-31.250,0.000,0
159531.287,-40.039,-26.367,-28.809,-30.273,0.000,0
159531.291,-39.062,-22.949,-33.691,-34.180,0.000,0
159531.295,-30.762,-23.438,-24.414,-39.551,0.000,0
159531.299,-26.367,-28.809,-27.344,-27.344,0.000,0
159531.303,-31.738,-30.273,-26.367,-29.297,0.000,0
159531.306,-25.391,-28.320,-27.832,-32.227,0.000,0
159531.310,-10.742,-22.461,-30.762,-28.320,0.000,0
159531.314,-15.137,-21.484,-15.137,-38.574,0.000,0
159531.318,-20.020,-22.949,-18.066,-27.832,0.000,0
159531.322,-15.137,-19.043,-23.438,-22.949,0.000,0
159531.326,-23.926,-22.949,-40.039,-23.926,0.000,0
159531.330,-33.203,-25.879,-35.645,-23.438,0.000,0
159531.334,-34.180,-27.344,-13.672,-41.016,0.000,0
159531.338,-30.762,-26.855,-21.484,-32.227,0.000,0
159531.342,-33.691,-28.809,-16.113,-29.785,0.000,0
159531.346,-29.297,-27.344,-29.297,-30.762,0.000,0
159531.349,-28.320,-28.809,-29.297,-28.320,0.000,0
159531.353,-33.691,-28.809,-19.043,-36.133,0.000,0
159531.357,-30.273,-25.391,-27.832,-29.785,0.000,0
159531.361,-28.320,-27.344,-33.691,-16.602,0.000,0
159531.365,-24.902,-26.855,-19.531,-21.484,0.000,0
159531.369,-12.207,-24.902,-15.625,-32.715,0.000,0
159531.373,-20.020,-31.738,-23.926,-34.668,0.000,0
159531.377,-26.855,-38.086,-41.504,-22.949,0.000,0
159531.381,-27.832,-27.344,-37.598,-20.020,0.000,0
159531.385,-29.785,-20.020,-25.391,-23.926,0.000,0
159531.388,-26.367,-21.484,-21.973,-16.113,0.000,0
159531.392,-31.250,-25.879,-16.602,-26.855,0.000,0
159531.396,-25.391,-21.973,-20.020,-28.809,0.000,0
159531.400,-18.555,-17.578,-37.109,-12.207,0.000,0
159531.404,-20.996,-19.531,-47.363,-13.184,0.000,0
159531.408,-20.996,-19.531,-19.531,-17.090,0.000,0
159531.412,7.812,-17.578,-11.230,2.930,0.000,0
159531.416,-12.207,-25.391,-34.180,-2.441,0.000,0
159531.420,-61.035,-26.367,-32.227,-39.551,0.000,0
159531.424,-42.480,-17.578,-27.344,-32.715,0.000,0
159531.428,-26.855,-19.043,-30.273,-27.832,0.000,0
159531.431,-32.715,-17.090,-21.973,-34.668,0.000,0
159531.435,-29.785,-12.695,-25.391,-24.902,0.000,0
159531.439,-34.180,-18.555,-31.250,-35.645,0.000,0
159531.443,-39.551,-17.578,-34.180,-32.227,0.000,0
159531.447,-34.668,-17.578,-23.438,-18.066,0.000,0
159531.451,-30.762,-17.578,-9.277,-23.926,0.000,0
159531.455,-29.785,-12.207,-25.391,-34.180,0.000,0
159531.459,-31.738,-10.254,-35.645,-33.203,0.000,0
159531.463,-30.273,-12.695,-31.250,-17.578,0.000,0
159531.467,-25.391,-15.625,-19.531,-28.809,0.000,0
159531.471,-20.020,-13.184,-20.508,-41.992,0.000,0
159531.474,-19.531,-9.277,-34.668,-28.320,0.000,0
159531.478,-28.809,-15.625,-30.762,-21.973,0.000,0
159531.482,-20.508,-17.578,-26.855,-20.020,0.000,0
159531.486,-13.184,-12.695,-16.113,-24.414,0.000,0
159531.490,-28.809,-22.461,-26.367,-32.227,0.000,0
159531.494,-37.109,-26.855,-29.297,-37.598,0.000,0
159531.498,-40.527,-23.926,-25.391,-41.504,0.000,0
159531.502,-36.133,-21.973,-37.598,-27.832,0.000,0
159531.506,-31.738,-21.484,-26.367,-24.902,0.000,0
159531.510,-35.645,-20.508,-22.949,-33.691,0.000,0
159531.513,-32.227,-20.508,-33.203,-21.484,0.000,0
159531.517,-25.879,-25.879,-29.785,-25.391,0.000,0
159531.521,-25.879,-23.926,-20.020,-25.879,0.000,0
159531.525,-20.996,-20.020,-10.254,-23.438,0.000,0
159531.529,-17.090,-19.531,-14.160,-33.691,0.000,0
159531.533,-26.367,-24.414,-30.762,-30.273,0.000,0
159531.537,-31.738,-31.250,-33.691,-17.090,0.000,0
159531.541,-21.973,-27.344,-32.227,-5.371,0.000,0
159531.545,-15.625,-27.344,-32.227,-20.996,0.000,0
159531.549,-22.949,-31.738,-26.855,-20.508,0.000,0
159531.553,-27.832,-30.762,-32.227,-17.090,0.000,0
159531.556,-26.367,-27.832,-30.273,-21.973,0.000,0
159531.560,-23.926,-24.902,-25.879,-8.789,0.000,0
159531.564,-21.484,-27.344,-25.879,-6.836,0.000,0
159531.568,-15.625,-27.832,-17.090,-24.414,0.000,0
159531.572,-18.555,-25.391,-20.996,-20.996,0.000,0
159531.576,-16.113,-21.973,-44.434,-9.277,0.000,0
159531.580,-14.648,-20.996,-35.156,-10.742,0.000,0
159531.584,-27.832,-22.949,-10.254,-22.461,0.000,0
159531.588,-23.438,-26.367,-23.438,-31.738,0.000,0
159531.592,-19.531,-29.785,-50.293,-43.945,0.000,0
159531.596,-30.762,-30.273,-30.762,-36.621,0.000,0
159531.599,-24.414,-26.855,-19.043,-0.977,0.000,0
159531.603,-25.879,-24.414,-31.250,-12.695,0.000,0
159531.607,-26.855,-26.367,-27.832,-14.648,0.000,0
159531.611,-20.996,-26.855,-22.461,-5.371,0.000,0
159531.615,-23.926,-30.273,-31.250,-13.672,0.000,0
159531.619,-30.273,-32.227,-40.527,-11.719,0.000,0
159531.623,-29.785,-28.320,-27.832,-17.090,0.000,0
159531.627,-31.738,-26.367,-19.531,-22.949,0.000,0
159531.631,-32.715,-31.738,-26.855,-14.648,0.000,0
159531.635,-21.973,-30.762,-36.133,-19.043,0.000,0
159531.638,-19.531,-27.344,-45.410,-26.855,0.000,0
159531.642,-37.598,-35.156,-21.973,-32.227,0.000,0
159531.646,-39.062,-33.203,-23.926,-29.785,0.000,0
159531.650,-24.414,-29.785,-49.805,-21.484,0.000,0
159531.654,-23.438,-25.391,-40.039,-27.344,0.000,0
159531.658,-30.762,-27.344,-28.809,-31.738,0.000,0
159531.662,-30.762,-31.738,-23.926,-33.203,0.000,0
159531.666,-19.043,-25.879,-30.273,-22.461,0.000,0
159531.670,-18.066,-23.438,-23.926,-31.738,0.000,0
159531.674,-20.996,-21.973,-27.832,-34.668,0.000,0
159531.678,-22.949,-20.020,-42.969,-5.859,0.000,0
159531.681,-24.414,-19.043,-28.320,-20.996,0.000,0
159531.685,-25.391,-17.090,-24.902,-26.855,0.000,0
159531.689,-27.832,-20.508,-29.297,-17.090,0.000,0
159531.693,-26.855,-22.949,-41.992,-22.461,0.000,0
159531.697,-31.738,-21.484,-43.945,-12.695,0.000,0
159531.701,-30.762,-20.508,-23.438,-20.996,0.000,0
159531.705,-32.715,-23.926,-25.879,-35.156,0.000,0
159531.709,-29.785,-22.461,-41.016,-24.902,0.000,0
159531.713,-24.902,-20.508,-41.992,-21.973,0.000,0
159531.717,-26.855,-16.602,-32.715,-19.531,0.000,0
159531.721,-27.832,-16.602,-26.855,-19.531,0.000,0
159531.724,-28.320,-22.461,-31.250,-27.832,0.000,0
159531.728,-16.602,-25.391,-31.738,-29.297,0.000,0
159531.732,-17.578,-24.902,-20.996,-34.180,0.000,0
159531.736,-20.508,-16.113,-25.879,-27.832,0.000,0
159531.740,-20.508,-15.625,-35.645,-26.367,0.000,0
159531.744,-26.367,-19.531,-16.602,-38.086,0.000,0
159531.748,-26.367,-21.973,-9.277,-37.598,0.000,0
159531.752,-16.113,-27.344,-45.410,-14.160,0.000,0
159531.756,-24.902,-23.438,-49.805,-7.324,0.000,0
159531.760,-41.016,-23.926,-12.695,-19.043,0.000,0
159531.763,-29.785,-24.902,-24.414,-15.625,0.000,0
159531.767,-20.508,-21.973,-44.434,-22.949,0.000,0
159531.771,-30.273,-23.438,-21.973,-28.809,0.000,0
159531.775,-36.621,-32.227,-17.578,-19.531,0.000,0
159531.779,-29.785,-28.320,-30.762,-23.438,0.000,0
159531.783,-16.113,-21.484,-36.133,-27.344,0.000,0
159531.787,-17.578,-20.508,-37.598,-14.648,0.000,0
159531.791,-24.414,-24.902,-32.227,-13.184,0.000,0
159531.795,-20.020,-24.902,-29.785,-18.066,0.000,0
159531.799,-25.879,-26.855,-18.555,-28.320,0.000,0
159531.803,-36.133,-34.180,-25.391,-41.016,0.000,0
159531.806,-33.691,-26.855,-33.203,-39.551,0.000,0
159531.810,-28.809,-22.949,-25.879,-18.555,0.000,0
159531.814,-27.832,-23.438,-27.832,-3.418,0.000,0
159531.818,-29.785,-18.066,-23.438,-11.719,0.000,0
159531.822,-34.668,-20.996,-20.996,-26.367,0.000,0
159531.826,-33.203,-24.414,-47.363,-18.555,0.000,0
159531.830,-28.320,-26.367,-54.688,-12.207,0.000,0
159531.834,-24.414,-21.973,-34.180,-21.973,0.000,0
159531.838,-26.855,-20.996,-18.066,-33.691,0.000,0
159531.842,-35.156,-25.879,-19.043,-32.227,0.000,0
159531.846,-33.203,-24.414,-23.438,-22.949,0.000,0
159531.849,-31.250,-22.461,-24.414,-17.090,0.000,0
159531.853,-25.391,-22.949,-36.133,-18.066,0.000,0
159531.857,-10.742,-19.043,-30.762,-18.555,0.000,0
159531.861,-21.484,-17.578,-13.672,-22.949,0.000,0
159531.865,-30.273,-17.578,-13.184,-22.949,0.000,0
159531.869,-23.926,-19.043,-35.156,-26.367,0.000,0
159531.873,-22.949,-21.484,-31.738,-24.902,0.000,0
159531.877,-21.973,-20.996,-7.324,-25.879,0.000,0
159531.881,-29.297,-18.555,-3.906,-31.738,0.000,0
159531.885,-29.785,-18.066,-29.297,-26.855,0.000,0
159531.888,-18.066,-18.066,-42.969,-11.719,0.000,0
159531.892,-5.371,-17.578,-28.320,-2.441,0.000,0
159531.896,-18.066,-20.996,-15.625,-15.137,0.000,0
159531.900,-26.855,-29.785,-28.320,-15.625,0.000,0
159531.904,-19.531,-31.250,-45.410,-11.719,0.000,0
159531.908,-23.926,-27.832,-41.504,-18.555,0.000,0
159531.912,-27.832,-26.367,-27.344,-19.531,0.000,0
159531.916,-20.508,-31.738,-33.691,-13.672,0.000,0
159531.920,-20.020,-30.273,-44.434,-18.555,0.000,0
159531.924,-27.832,-24.414,-30.762,-24.902,0.000,0
159531.928,-30.762,-27.832,-18.555,-9.277,0.000,0
159531.931,-29.785,-26.367,-35.645,-18.555,0.000,0
159531.935,-36.133,-28.809,-39.062,-28.320,0.000,0
159531.939,-35.645,-31.738,-27.344,-21.973,0.000,0
159531.943,-30.762,-31.738,-27.344,-26.367,0.000,0
159531.947,-32.227,-30.762,-36.133,-34.668,0.000,0
159531.951,-27.832,-28.809,-38.574,-25.879,0.000,0
159531.955,-28.809,-32.715,-28.809,-29.785,0.000,0
159531.959,-33.203,-28.809,-22.949,-40.039,0.000,0
159531.963,-22.461,-25.879,-36.133,-24.414,0.000,0
159531.967,-21.484,-26.367,-35.156,-19.531,0.000,0
159531.971,-19.531,-24.902,-16.602,-24.902,0.000,0
159531.974,-8.301,-27.344,-7.324,-33.691,0.000,0
159531.978,-17.090,-24.414,-32.227,-24.902,0.000,0
159531.982,-15.137,-18.066,-36.133,-16.602,0.000,0
159531.986,-10.742,-20.508,-33.691,-13.672,0.000,0
159531.990,-10.742,-21.973,-33.203,-19.531,0.000,0
159531.994,-10.254,-21.484,-12.207,-36.621,0.000,0
159531.998,-25.391,-25.879,-32.715,-28.320,0.000,1
159532.002,-25.879,-29.785,-51.758,-21.484,0.000,0
159532.006,-17.578,-24.414,-33.203,-20.996,0.000,0
159532.010,-26.855,-23.926,-23.438,-25.391,0.000,0
159532.013,-24.902,-22.461,-19.531,-38.086,0.000,0
159532.017,-16.113,-20.996,-35.645,-34.668,0.000,0
159532.021,-5.371,-23.438,-29.785,-27.344,0.000,0
159532.025,-0.488,-22.949,-20.508,-16.602,0.000,0
159532.029,-6.836,-22.949,-28.320,-15.137,0.000,0
159532.033,-9.766,-25.391,-21.484,-38.086,0.000,0
159532.037,-14.160,-20.020,-25.391,-37.109,0.000,0
159532.041,-29.785,-18.066,-31.738,-21.973,0.000,0
159532.045,-35.645,-27.344,-36.133,-21.484,0.000,0
159532.049,-33.691,-35.645,-35.645,-29.297,0.000,0
159532.053,-34.668,-34.180,-31.250,-34.668,0.000,0
159532.056,-31.250,-33.691,-24.414,-33.203,0.000,0
159532.060,-31.250,-31.738,-27.832,-28.320,0.000,0
159532.064,-23.438,-24.902,-49.805,-28.809,0.000,0
159532.068,-13.184,-21.973,-40.039,-22.461,0.000,0
159532.072,-18.555,-24.902,-7.812,-27.344,0.000,0
159532.076,-17.090,-25.879,-14.160,-33.203,0.000,0
159532.080,-9.766,-24.414,-38.086,-13.672,0.000,0
159532.084,-10.254,-25.879,-36.621,-9.766,0.000,0
159532.088,-7.812,-34.668,-31.250,-15.137,0.000,0
159532.092,-11.230,-33.691,-24.414,-33.203,0.000,0
159532.096,-38.086,-24.414,-28.809,-51.758,0.000,0
159532.099,-40.039,-18.066,-39.551,-35.645,0.000,0
159532.103,-19.531,-15.625,-35.645,-19.531,0.000,0
159532.107,-20.020,-20.508,-42.480,-19.531,0.000,0
159532.111,-30.273,-30.762,-31.250,-37.598,0.000,0
159532.115,-34.180,-25.879,-29.785,-47.852,0.000,0
159532.119,-25.391,-18.066,-32.227,-41.992,0.000,0
159532.123,-24.414,-27.344,-25.879,-38.574,0.000,0
159532.127,-24.414,-26.855,-32.227,-27.832,0.000,0
159532.131,-26.855,-22.949,-20.508,-26.855,0.000,0
159532.135,-22.949,-18.555,-23.438,-31.250,0.000,0
159532.138,-17.578,-16.113,-33.691,-17.578,0.000,0
159532.142,-23.438,-20.508,-27.344,-19.531,0.000,0
159532.146,-32.715,-20.508,-22.461,-21.973,0.000,0
159532.150,-31.250,-26.855,-25.879,-28.809,0.000,0
159532.154,-20.508,-25.391,-31.738,-33.203,0.000,0
159532.158,-19.531,-23.926,-27.832,-37.598,0.000,0
159532.162,-26.855,-24.414,-16.113,-39.062,0.000,0
159532.166,-24.902,-21.484,-31.738,-26.367,0.000,0
159532.170,-31.250,-20.508,-27.832,-25.879,0.000,0
159532.174,-36.621,-24.414,-20.020,-28.809,0.000,0
159532.178,-33.691,-30.762,-29.785,-22.461,0.000,0
159532.181,-32.227,-27.832,-40.039,-19.043,0.000,0
159532.185,-30.762,-30.273,-53.223,-25.391,0.000,0
159532.189,-31.738,-32.715,-36.133,-30.273,0.000,0
159532.193,-27.832,-29.297,-20.996,-38.086,0.000,0
159532.197,-22.461,-26.855,-41.504,-35.645,0.000,0
159532.201,-21.973,-31.738,-62.500,-15.625,0.000,0
159532.205,-28.320,-34.180,-40.527,-9.277,0.000,0
159532.209,-28.809,-25.391,-15.137,-21.973,0.000,0
159532.213,-14.648,-24.414,-32.227,-27.832,0.000,0
159532.217,-16.113,-22.949,-41.504,-28.809,0.000,0
159532.221,-22.461,-24.414,-24.414,-25.391,0.000,0
159532.224,-21.484,-25.879,-27.344,-19.531,0.000,0
159532.228,-19.043,-21.484,-34.668,-18.066,0.000,0
159532.232,-20.996,-23.926,-26.855,-27.344,0.000,0
159532.236,-20.020,-26.367,-19.531,-24.414,0.000,0
159532.240,-20.020,-22.949,-29.785,-10.254,0.000,0
159532.244,-17.578,-26.855,-52.734,-9.766,0.000,0
159532.248,-8.789,-25.879,-44.922,-24.902,0.000,0
159532.252,-23.926,-21.484,-16.602,-29.785,0.000,0
159532.256,-30.273,-22.461,-29.785,-32.715,0.000,0
159532.260,-17.090,-18.555,-36.621,-26.367,0.000,0
159532.263,-25.879,-20.020,-36.133,-21.484,0.000,0
159532.267,-30.273,-27.832,-38.086,-20.020,0.000,0
159532.271,-29.785,-27.344,-30.273,-25.879,0.000,0
159532.275,-29.297,-23.926,-30.762,-27.832,0.000,0
159532.279,-11.719,-20.508,-29.785,-15.137,0.000,0
159532.283,-18.555,-16.113,-37.598,-18.066,0.000,0
159532.287,-29.785,-19.531,-34.668,-17.090,0.000,0
159532.291,-23.926,-21.973,-18.555,-28.809,0.000,0
159532.295,-27.832,-21.484,-23.926,-41.016,0.000,0
159532.299,-20.996,-22.461,-25.879,-26.855,0.000,0
159532.303,-9.766,-20.996,-36.621,-12.695,0.000,0
159532.306,-15.137,-21.484,-31.738,-34.668,0.000,0
159532.310,-18.066,-24.902,-16.602,-46.875,0.000,0
159532.314,-26.367,-22.461,-32.715,-29.785,0.000,0
159532.318,-31.738,-22.461,-38.574,-36.621,0.000,0
159532.322,-23.926,-24.414,-27.344,-39.551,0.000,0
159532.326,-17.578,-25.391,-12.695,-28.320,0.000,0
159532.330,-21.973,-21.973,-13.672,-33.691,0.000,0
159532.334,-31.738,-21.484,-31.738,-37.598,0.000,0
159532.338,-34.668,-26.367,-28.320,-40.039,0.000,0
159532.342,-31.250,-23.438,-28.320,-15.625,0.000,0
159532.346,-25.879,-25.879,-38.574,-20.020,0.000,0
159532.349,-24.902,-30.273,-30.273,-42.969,0.000,0
159532.353,-22.949,-27.344,-30.762,-25.391,0.000,0
159532.357,-23.438,-22.949,-35.156,-22.949,0.000,0
159532.361,-24.902,-23.438,-35.645,-29.297,0.000,0
159532.365,-27.832,-25.879,-38.574,-37.109,0.000,0
159532.369,-25.391,-25.879,-27.344,-44.434,0.000,0
159532.373,-28.809,-24.902,-33.691,-41.016,0.000,0
159532.377,-34.180,-29.297,-40.527,-39.062,0.000,0
159532.381,-30.762,-30.762,-39.551,-26.367,0.000,0
159532.385,-25.879,-30.762,-21.973,-31.738,0.000,0
159532.388,-27.832,-33.691,-9.766,-42.969,0.000,0
159532.392,-31.250,-30.762,-41.016,-24.414,0.000,0
159532.396,-21.484,-25.879,-44.434,-13.672,0.000,0
159532.400,-21.484,-28.320,-37.598,-20.508,0.000,0
159532.404,-31.738,-36.621,-37.109,-25.391,0.000,0
159532.408,-29.785,-34.180,-23.438,-42.480,0.000,0
159532.412,-29.785,-27.832,-30.762,-42.969,0.000,0
159532.416,-32.715,-26.367,-40.039,-35.645,0.000,0
159532.420,-31.738,-30.273,-39.551,-31.738,0.000,0
159532.424,-29.297,-29.785,-41.992,-23.438,0.000,0
159532.428,-39.551,-27.344,-37.598,-19.043,0.000,0
159532.431,-51.758,-34.668,-35.156,-26.855,0.000,0
159532.435,-41.504,-31.738,-38.086,-36.133,0.000,0
159532.439,-27.344,-26.367,-33.203,-36.133,0.000,0
159532.443,-38.574,-33.203,-33.691,-32.715,0.000,0
159532.447,-38.086,-34.180,-24.902,-34.180,0.000,0
159532.451,-20.508,-26.367,-26.367,-32.715,0.000,0
159532.455,-20.996,-28.320,-41.504,-29.297,0.000,0
159532.459,-24.902,-26.855,-37.598,-24.414,0.000,0
159532.463,-26.367,-18.555,-32.715,-27.344,0.000,0
159532.467,-32.227,-20.996,-25.391,-41.504,0.000,0
159532.471,-27.832,-23.926,-26.367,-40.527,0.000,0
159532.474,-21.973,-28.320,-31.250,-37.109,0.000,0
159532.478,-27.344,-30.273,-22.949,-36.133,0.000,0
159532.482,-22.461,-28.809,-37.109,-20.508,0.000,0
159532.486,-13.184,-28.320,-29.297,-18.066,0.000,0
159532.490,-17.090,-20.996,-23.926,-20.020,0.000,0
159532.494,-11.719,-15.137,-37.109,-13.672,0.000,0
159532.498,-21.973,-18.066,-38.086,-15.625,0.000,0
159532.502,-32.227,-24.902,-27.832,-28.809,0.000,0
159532.506,-27.344,-23.926,-13.184,-43.945,0.000,0
159532.510,-25.391,-18.555,-32.715,-37.598,0.000,0
159532.513,-20.996,-24.414,-44.434,-31.250,0.000,0
159532.517,-23.438,-24.902,-27.344,-22.461,0.000,0
159532.521,-24.414,-22.461,-15.137,-17.578,0.000,0
159532.525,-15.625,-22.461,-9.277,-22.461,0.000,0
159532.529,-13.184,-25.879,-27.344,-21.973,0.000,0
159532.533,-18.555,-29.785,-31.250,-19.531,0.000,0
159532.537,-20.508,-20.508,-11.230,-16.113,0.000,0
159532.541,-15.625,-18.066,-23.438,-20.508,0.000,0
159532.545,-16.602,-21.973,-24.414,-29.297,0.000,0
159532.549,-15.625,-23.926,-24.414,-22.949,0.000,0
159532.553,-9.766,-22.461,-25.879,-18.066,0.000,0
159532.556,-12.207,-18.555,-26.367,-5.371,0.000,0
159532.560,-20.508,-15.625,-30.273,-1.953,0.000,0
159532.564,-17.090,-17.578,-24.902,-16.113,0.000,0
159532.568,-19.531,-18.066,-25.879,-17.578,0.000,0
159532.572,-25.879,-20.996,-38.574,-20.020,0.000,0
159532.576,-28.320,-23.438,-41.016,-25.879,0.000,0
159532.580,-32.227,-17.090,-21.484,-24.414,0.000,0
159532.584,-38.086,-21.484,-22.949,-39.062,0.000,2
159532.588,-38.574,-23.926,-27.344,-51.270,0.000,0
159532.592,-26.855,-17.090,-25.879,-34.668,0.000,0
159532.596,-21.484,-12.207,-41.992,-21.484,0.000,0
159532.599,-20.020,-14.648,-40.039,-19.043,0.000,0
159532.603,-13.672,-17.578,-20.020,-13.672,0.000,0
159532.607,-30.273,-19.043,-13.184,-23.926,0.000,0
159532.611,-40.527,-17.090,-21.973,-40.527,0.000,0
159532.615,-24.902,-18.066,-27.832,-37.109,0.000,0
159532.619,-25.391,-21.973,-46.875,-26.855,0.000,0
159532.623,-35.156,-24.414,-35.645,-34.668,0.000,0
159532.627,-32.715,-25.391,-15.625,-30.762,0.000,0
159532.631,-26.855,-26.855,-42.480,-17.578,0.000,0
159532.635,-18.555,-24.902,-42.480,-25.391,0.000,0
159532.638,-17.578,-21.973,-28.320,-19.043,0.000,0
159532.642,-27.344,-25.391,-22.461,-19.531,0.000,0
159532.646,-27.344,-26.855,-28.809,-32.715,0.000,0
159532.650,-25.879,-24.902,-45.410,-41.992,0.000,0
159532.654,-19.531,-27.344,-43.457,-30.273,0.000,0
159532.658,-18.066,-23.438,-35.645,-19.043,0.000,0
159532.662,-23.438,-29.297,-40.039,-18.555,0.000,0
159532.666,-17.578,-33.691,-38.574,-13.672,0.000,0
159532.670,-24.902,-27.832,-31.738,-6.348,0.000,0
159532.674,-31.738,-27.832,-34.180,-5.859,0.000,0
159532.678,-24.902,-31.738,-44.922,-21.973,0.000,0
159532.681,-30.762,-39.062,-32.227,-35.645,0.000,0
159532.685,-35.156,-35.156,-30.273,-32.715,0.000,0
159532.689,-27.832,-32.227,-42.480,-20.020,0.000,0
159532.693,-25.391,-34.180,-38.086,-24.414,0.000,0
159532.697,-31.738,-32.715,-49.316,-13.184,0.000,0
159532.701,-35.645,-29.297,-25.879,-11.230,0.000,0
159532.705,-38.574,-26.855,-17.578,-26.855,0.000,0
159532.709,-38.086,-29.785,-40.039,-29.785,0.000,0
