timestamps,TP9,AF7,AF8,TP10,Right AUX,Marker0
159000.846,-17.578,-10.254,-4.883,-23.926,0.000,0
159000.849,-4.883,-11.719,-70.801,2.930,0.000,0
159000.853,9.766,-9.277,-68.848,-12.207,0.000,0
159000.857,-9.766,-8.789,-23.438,-14.648,0.000,0
159000.861,-15.625,-14.648,7.324,-24.902,0.000,0
159000.865,-9.766,-11.230,3.906,-33.203,0.000,0
159000.869,-12.695,-6.348,-5.859,-21.973,0.000,0
159000.873,-19.043,-8.789,-8.301,-0.977,0.000,0
159000.877,-8.789,-15.625,-32.227,3.906,0.000,0
159000.881,-10.254,-11.719,-0.488,-21.973,0.000,0
159000.885,-14.160,-6.348,-12.207,-10.254,0.000,0
159000.888,1.465,-5.371,-48.828,2.930,0.000,0
159000.892,5.371,2.441,-36.621,-1.465,0.000,0
159000.896,3.906,0.000,1.465,-10.742,0.000,0
159000.900,-3.418,-10.742,16.113,-19.531,0.000,0
159000.904,-6.348,-8.301,-37.109,-10.254,0.000,0
159000.908,2.441,-3.906,-65.918,4.883,0.000,0
159000.912,-11.719,-6.348,-20.508,12.207,0.000,0
159000.916,-18.066,-8.789,17.578,2.441,0.000,0
159000.920,-7.812,-6.348,-29.297,-10.742,0.000,0
159000.924,-11.230,-5.859,-50.293,-20.020,0.000,0
159000.928,-20.508,-13.184,-22.461,-19.043,0.000,0
159000.931,-18.066,-15.137,-20.020,0.000,0.000,0
159000.935,-14.160,-13.184,-31.250,-10.742,0.000,0
159000.939,-19.531,-8.789,-20.020,-30.273,0.000,0
159000.943,-21.484,-6.348,-13.184,-22.949,0.000,0
159000.947,-9.277,-11.230,-48.340,-8.301,0.000,0
159000.951,-9.766,-9.766,-67.383,0.488,0.000,0
159000.955,-23.926,-14.648,-33.691,-4.395,0.000,0
159000.959,-18.555,-21.973,37.109,-17.578,0.000,0
159000.963,-6.836,-12.695,18.066,-13.672,0.000,0
159000.967,-12.207,-13.672,-17.090,-20.020,0.000,0
159000.971,-15.625,-18.555,-38.086,-5.371,0.000,0
159000.974,-17.090,-15.137,-8.789,2.441,0.000,0
159000.978,-2.930,-12.207,12.695,-33.691,0.000,0
159000.982,1.953,-13.184,-10.254,-22.949,0.000,0
159000.986,-2.441,-12.695,-54.199,10.742,0.000,0
159000.990,-10.254,-13.672,-41.016,3.906,0.000,0
159000.994,-14.648,-18.555,-7.812,0.488,0.000,0
159000.998,-7.812,-16.113,-6.836,-15.137,0.000,0
159001.002,-13.184,-9.766,-26.855,-25.879,0.000,0
159001.006,-22.461,-12.207,-24.902,-20.508,0.000,0
159001.010,-21.973,-13.672,-53.223,-5.371,0.000,0
159001.013,-19.531,-18.066,-67.383,-13.672,0.000,0
159001.017,-25.391,-17.090,-9.766,-34.668,0.000,0
159001.021,-19.531,-13.672,-14.648,-21.973,0.000,0
159001.025,-4.395,-16.113,-50.781,8.301,0.000,0
159001.029,-3.418,-16.602,-41.016,5.859,0.000,0
159001.033,-11.230,-13.672,-11.719,-3.418,0.000,0
159001.037,-13.184,-11.719,-10.742,-21.973,0.000,0
159001.041,-11.719,-14.648,-35.645,-27.832,0.000,0
159001.045,-15.137,-15.625,-21.973,-6.836,0.000,0
159001.049,-20.020,-13.184,-17.578,0.000,0.000,0
159001.053,-21.973,-10.254,-25.879,-20.020,0.000,0
159001.056,-16.113,-20.508,-28.320,-40.039,0.000,0
159001.060,-1.465,-16.113,-50.293,-25.391,0.000,0
159001.064,-11.230,-10.254,0.977,-30.762,0.000,0
159001.068,-3.906,-16.113,-15.625,-30.762,0.000,0
159001.072,14.648,-17.578,-48.828,-31.250,0.000,0
159001.076,-7.324,-18.066,3.418,-58.105,0.000,0
159001.080,-14.160,-13.672,-11.719,-54.688,0.000,0
159001.084,3.906,-11.230,-37.109,-35.645,0.000,0
159001.088,11.230,-5.859,-84.961,-16.602,0.000,0
159001.092,6.348,-4.883,-72.266,-16.113,0.000,0
159001.096,-14.648,-12.695,7.324,-29.297,0.000,0
159001.099,-32.227,-10.742,-10.254,-27.344,0.000,0
159001.103,-44.922,-9.277,-52.734,-24.414,0.000,0
159001.107,-44.922,-8.301,-53.223,-12.207,0.000,0
159001.111,-39.551,-7.324,-20.508,-2.930,0.000,0
159001.115,-29.297,-18.066,-27.344,-40.527,0.000,0
159001.119,-25.391,-16.113,-58.105,-25.879,0.000,0
159001.123,-28.809,-9.277,-50.781,-0.977,0.000,0
159001.127,-27.344,-12.695,-47.852,-11.230,0.000,0
159001.131,-18.555,-16.602,-44.922,-7.812,0.000,0
159001.135,-17.578,-17.090,0.000,-28.320,0.000,0
159001.138,-24.902,-10.742,-9.277,-27.832,0.000,0
159001.142,-20.020,-6.836,-22.949,-10.742,0.000,0
159001.146,-25.879,-14.160,-19.043,-12.695,0.000,0
159001.150,-27.832,-20.996,-38.574,-16.602,0.000,0
159001.154,-22.949,-17.090,0.000,-40.039,0.000,0
159001.158,-15.137,-14.160,-14.160,-22.949,0.000,0
159001.162,0.488,-6.348,-51.758,1.465,0.000,0
159001.166,-3.418,-8.301,-33.203,0.977,0.000,0
159001.170,-12.695,-17.090,-27.832,-1.465,0.000,0
159001.174,-9.766,-16.602,-7.324,-25.879,0.000,0
159001.178,-13.184,-13.672,-12.207,-18.066,0.000,0
159001.181,-14.648,-10.254,-11.719,-7.812,0.000,0
159001.185,-16.113,-14.648,1.465,-40.039,0.000,0
159001.189,-17.090,-8.789,-51.758,-27.344,0.000,0
159001.193,-8.301,-8.301,-27.832,-7.324,0.000,0
159001.197,-10.742,-12.695,-0.488,0.000,0.000,0
159001.201,-7.324,-10.742,-28.809,7.324,0.000,0
159001.205,-0.488,-11.719,-47.363,-9.766,0.000,0
159001.209,-8.301,-20.996,-17.090,-26.367,0.000,0
159001.213,-8.301,-22.461,10.742,-35.156,0.000,0
159001.217,-8.301,-12.695,-24.902,-27.344,0.000,0
159001.221,-9.277,-18.066,-45.410,-17.090,0.000,0
159001.224,-11.719,-23.438,-30.762,-4.395,0.000,0
159001.228,-13.184,-21.484,-9.277,-8.301,0.000,0
159001.232,-15.137,-22.949,-10.254,-39.551,0.000,0
159001.236,-19.043,-22.461,-42.969,-25.879,0.000,0
159001.240,-20.020,-15.625,-26.855,-15.137,0.000,0
159001.244,-17.578,-9.766,-11.719,-22.949,0.000,0
159001.248,-7.324,-14.648,-41.504,-20.996,0.000,0
159001.252,-15.625,-13.184,-24.414,-33.691,0.000,0
159001.256,-19.531,-5.859,-13.184,-33.203,0.000,0
159001.260,-10.254,-6.836,-26.367,-13.672,0.000,0
159001.263,-12.695,-6.836,-40.527,-3.906,0.000,0
159001.267,-11.719,-11.230,-42.969,-16.602,0.000,0
159001.271,-12.695,-14.160,-17.578,-28.809,0.000,0
159001.275,-17.578,-8.301,-19.043,-26.855,0.000,0
159001.279,-4.883,-5.859,-31.250,-18.555,0.000,0
159001.283,-3.906,-3.906,-35.156,-3.906,0.000,0
159001.287,-7.324,-2.441,-32.715,4.395,0.000,0
159001.291,1.953,-0.488,-10.742,-13.672,0.000,0
159001.295,6.836,2.441,-54.199,-4.883,0.000,0
159001.299,-5.859,-0.488,-52.734,7.812,0.000,0
159001.303,-13.672,-2.930,-22.949,0.000,0.000,0
159001.306,-7.812,-6.836,-28.320,-5.859,0.000,0
159001.310,-14.648,-5.371,-2.930,-25.879,0.000,0
159001.314,-5.859,-0.977,-12.207,-25.879,0.000,0
159001.318,-2.441,-2.441,-36.621,-2.930,0.000,0
159001.322,-4.883,-5.859,-51.758,16.602,0.000,0
159001.326,-6.836,-12.695,-34.180,5.859,0.000,0
159001.330,-17.090,-13.184,-8.301,-20.508,0.000,0
159001.334,-23.926,-11.230,-37.109,-11.230,0.000,0
159001.338,-20.020,-13.184,-58.594,-2.441,0.000,0
159001.342,-13.184,-15.137,-69.824,-11.719,0.000,0
159001.346,-30.762,-13.184,-4.883,-20.020,0.000,0
159001.349,-32.715,-15.137,-9.766,-36.621,0.000,0
159001.353,-12.695,-14.648,-54.688,-28.320,0.000,0
159001.357,-7.324,-13.184,-27.832,-26.855,0.000,0
159001.361,-15.625,-15.625,-34.180,-12.695,0.000,0
159001.365,-19.531,-12.207,-38.574,-7.812,0.000,0
159001.369,-20.020,-8.301,-18.555,-21.973,0.000,0
159001.373,-14.648,-8.789,-22.949,-3.418,0.000,1
159001.377,-6.348,-10.254,-30.273,-7.812,0.000,0
159001.381,-17.090,-8.301,-29.785,-13.672,0.000,0
159001.385,-15.137,-10.742,-57.129,-23.438,0.000,0
159001.388,-18.066,-15.137,-20.996,-55.176,0.000,0
159001.392,-24.902,-10.742,3.906,-45.410,0.000,0
159001.396,-8.301,-9.766,-57.617,-27.344,0.000,0
159001.400,-8.301,-10.742,-83.984,-11.230,0.000,0
159001.404,-10.254,-8.301,-43.945,-7.812,0.000,0
159001.408,-7.324,-9.766,-3.906,-27.832,0.000,0
159001.412,-15.625,-8.301,-42.969,-25.879,0.000,0
159001.416,-13.184,-2.930,-48.828,-21.484,0.000,0
159001.420,-10.742,-6.836,-28.809,-21.484,0.000,0
159001.424,-19.531,-5.371,-31.250,-27.344,0.000,0
159001.428,-16.602,0.977,-15.137,-48.340,0.000,0
159001.431,-10.742,1.465,-26.367,-42.969,0.000,0
159001.435,-22.461,0.488,-29.785,-22.461,0.000,0
159001.439,-10.742,1.465,-42.480,-2.930,0.000,0
159001.443,4.883,3.906,-37.598,-10.254,0.000,0
159001.447,-3.906,-1.465,9.766,-54.688,0.000,0
159001.451,-10.742,-0.977,-17.578,-40.039,0.000,0
159001.455,-6.836,0.000,-40.039,-20.020,0.000,0
159001.459,-2.441,-2.930,-34.668,-13.672,0.000,0
159001.463,-9.277,-3.906,-42.969,-0.488,0.000,0
159001.467,-11.719,-3.906,-22.461,-37.109,0.000,0
159001.471,-5.371,-2.441,-33.203,-34.180,0.000,0
159001.474,-8.301,-3.418,-43.457,-1.465,0.000,0
159001.478,-7.812,-5.859,-30.762,-4.395,0.000,0
159001.482,-14.160,-7.324,-28.320,-7.812,0.000,0
159001.486,-15.625,-10.742,-24.902,-18.555,0.000,0
159001.490,-11.230,-9.766,-14.648,-20.020,0.000,0
159001.494,-6.836,-5.371,-14.648,-25.879,0.000,0
159001.498,-3.418,2.441,-44.434,-6.348,0.000,0
159001.502,-6.836,2.441,-66.895,6.348,0.000,0
159001.506,-2.441,-7.812,-20.020,-24.902,0.000,0
159001.510,3.418,-2.930,1.465,-20.508,0.000,0
159001.513,-3.418,7.812,-39.551,-7.324,0.000,0
159001.517,-9.277,0.488,-51.270,-13.672,0.000,0
159001.521,-21.973,-2.441,-29.785,-17.578,0.000,0
159001.525,-28.320,-5.371,13.184,-34.668,0.000,0
159001.529,-13.672,-9.277,-15.625,-24.902,0.000,0
159001.533,0.488,-9.766,-61.035,-19.043,0.000,0
159001.537,-5.371,-14.160,-52.246,-16.602,0.000,0
159001.541,-10.254,-10.254,-46.875,11.230,0.000,0
159001.545,-11.230,-8.789,-23.926,-6.836,0.000,0
159001.549,-3.906,-15.137,-29.785,-17.578,0.000,0
159001.553,7.324,-13.184,-78.125,-0.977,0.000,0
159001.556,3.906,-13.672,-61.035,-6.348,0.000,0
159001.560,3.906,-14.160,-46.387,4.395,0.000,0
159001.564,0.977,-16.602,-45.410,-15.137,0.000,0
159001.568,-14.648,-14.160,-34.668,-44.922,0.000,0
159001.572,-18.555,-7.324,-27.832,-24.902,0.000,0
159001.576,-9.277,-11.230,-59.082,-3.906,0.000,0
159001.580,-7.812,-16.113,-105.957,0.977,0.000,0
159001.584,-10.254,-12.207,-64.941,-7.812,0.000,0
159001.588,-7.812,-8.789,-41.992,-10.254,0.000,0
159001.592,-4.883,-11.230,-57.617,-2.441,0.000,0
159001.596,-14.160,-15.137,-21.484,-1.953,0.000,0
159001.599,-20.996,-10.742,-40.039,3.906,0.000,0
159001.603,-17.578,-14.648,-52.246,-10.742,0.000,0
159001.607,-17.090,-18.555,-25.391,-23.926,0.000,0
159001.611,-20.996,-13.672,-50.293,-11.230,0.000,0
159001.615,-22.461,-14.160,-55.664,-2.930,0.000,0
159001.619,-13.672,-12.695,-58.105,0.488,0.000,0
159001.623,-4.395,-7.324,-51.758,0.488,0.000,0
159001.627,-4.395,-10.742,-24.902,-15.625,0.000,0
159001.631,-12.695,-7.812,-28.320,-16.113,0.000,0
159001.635,-6.348,-4.883,-39.062,-18.555,0.000,0
159001.638,5.371,-11.719,-48.340,-18.066,0.000,0
159001.642,4.395,-9.766,-31.250,3.906,0.000,0
159001.646,-3.418,-10.254,-13.184,-2.930,0.000,0
159001.650,-7.324,-10.254,-46.875,-8.301,0.000,0
159001.654,-12.695,-12.207,-58.594,3.906,0.000,0
159001.658,-13.184,-10.742,-41.016,7.324,0.000,0
159001.662,-20.996,-8.301,-26.855,4.395,0.000,0
159001.666,-20.996,-12.207,-21.973,-24.414,0.000,0
159001.670,-9.766,-11.719,-41.992,-27.832,0.000,0
159001.674,-11.719,-13.672,-38.086,-14.648,0.000,0
159001.678,-9.277,-9.766,-32.715,-5.859,0.000,0
159001.681,0.488,-9.277,-62.012,-19.531,0.000,0
159001.685,-6.836,-12.695,-44.434,-20.508,0.000,0
159001.689,-23.438,-6.348,-42.969,2.441,0.000,0
159001.693,-25.879,-8.301,-48.340,-6.836,0.000,0
159001.697,-18.555,-14.648,-30.273,-18.555,0.000,0
159001.701,-21.973,-15.625,-66.895,-13.184,0.000,0
159001.705,-24.414,-9.277,-26.367,-30.273,0.000,0
159001.709,-14.160,-3.418,1.465,-20.508,0.000,0
159001.713,-1.953,-3.418,-46.387,-3.418,0.000,0
159001.717,0.000,5.859,-70.312,8.789,0.000,0
159001.721,-7.324,1.465,-15.137,2.441,0.000,0
159001.724,-7.812,-4.395,27.344,-17.090,0.000,0
159001.728,-5.371,1.465,-12.695,-1.465,0.000,0
159001.732,3.418,4.883,-49.805,7.324,0.000,0
159001.736,-1.465,1.465,-0.977,12.695,0.000,0
159001.740,5.859,1.953,10.254,0.000,0.000,0
159001.744,15.625,8.789,13.184,-29.785,0.000,0
159001.748,10.742,9.766,-0.977,-18.066,0.000,0
159001.752,7.324,8.789,-23.438,-2.441,0.000,0
159001.756,4.395,12.695,-26.367,0.000,0.000,0
159001.760,5.371,9.277,-34.180,-11.230,0.000,0
159001.763,1.953,-0.977,-13.672,-17.090,0.000,0
159001.767,-2.441,1.953,-11.230,-6.836,0.000,0
159001.771,-0.977,4.395,-48.828,-6.348,0.000,0
159001.775,-6.348,-0.488,-46.875,0.488,0.000,0
159001.779,-17.090,-1.953,-27.832,-9.277,0.000,0
159001.783,-23.926,0.488,-13.184,-32.227,0.000,0
159001.787,-23.438,1.953,-31.250,-23.926,0.000,0
159001.791,-13.672,0.977,-48.828,-0.488,0.000,0
159001.795,-13.672,-8.789,-40.039,-13.672,0.000,0
159001.799,-18.066,-14.648,-14.648,-24.414,0.000,0
159001.803,-17.578,-3.418,-16.602,1.465,0.000,0
159001.806,-12.207,1.465,-11.230,-13.672,0.000,0
159001.810,-13.184,-4.883,20.996,-20.996,0.000,0
159001.814,-9.277,-5.859,-0.977,-3.418,0.000,0
159001.818,-0.977,-7.812,-35.645,4.395,0.000,0
159001.822,0.000,-11.230,23.926,-0.977,0.000,0
159001.826,1.465,-8.301,37.109,-4.395,0.000,0
159001.830,13.672,-6.348,-1.465,6.348,0.000,0
159001.834,16.602,-7.812,-3.418,15.625,0.000,0
159001.838,13.184,-11.230,8.789,9.277,0.000,0
159001.842,7.812,-11.719,50.781,-11.230,0.000,0
159001.846,9.766,-6.348,46.387,-19.043,0.000,0
159001.849,15.137,-4.883,10.742,-4.395,0.000,0
159001.853,3.906,-7.812,18.066,13.672,0.000,0
159001.857,-0.488,-8.301,29.785,28.809,0.000,0
159001.861,12.695,-10.254,28.320,6.348,0.000,0
159001.865,7.324,-6.348,21.973,2.441,0.000,0
159001.869,1.953,-4.395,7.812,17.090,0.000,0
159001.873,6.348,-6.836,8.301,13.184,0.000,0
159001.877,8.301,-2.930,5.859,18.066,0.000,0
159001.881,4.395,-11.230,26.367,-3.418,0.000,0
159001.885,-4.883,-12.695,33.691,-23.438,0.000,0
159001.888,-5.859,-13.184,9.277,-23.926,0.000,0
159001.892,0.488,-15.625,-5.371,0.977,0.000,0
159001.896,-6.836,-16.113,3.906,13.672,0.000,0
159001.900,-21.484,-16.113,41.992,-24.414,0.000,0
159001.904,-5.371,-14.160,4.883,-20.508,0.000,0
159001.908,2.930,-17.090,-43.457,-7.812,0.000,0
159001.912,0.488,-18.066,-50.781,-5.859,0.000,0
159001.916,-9.766,-23.438,-30.273,-4.395,0.000,0
159001.920,-19.531,-28.320,-27.344,-35.645,0.000,0
159001.924,-7.812,-20.020,-19.043,-34.668,0.000,0
159001.928,-4.883,-15.625,-17.578,-13.672,0.000,0
159001.931,-14.160,-17.090,-34.668,-5.371,0.000,0
159001.935,-14.160,-20.508,-49.316,-2.441,0.000,0
159001.939,-14.648,-20.996,-26.367,-13.672,0.000,0
159001.943,-24.902,-20.020,-1.953,0.977,0.000,0
159001.947,-22.949,-19.531,-13.184,12.207,0.000,0
159001.951,-3.906,-17.578,-43.945,-4.883,0.000,0
159001.955,-2.441,-16.602,-45.898,-22.461,0.000,0
159001.959,-5.371,-15.625,-19.043,-15.625,0.000,0
159001.963,-7.812,-15.625,-3.906,-11.719,0.000,2
159001.967,-7.324,-20.020,-53.223,-8.789,0.000,0
159001.971,-2.930,-20.020,-85.938,-1.953,0.000,0
159001.974,-6.348,-22.461,-51.758,-8.301,0.000,0
159001.978,-5.859,-24.902,-26.855,-6.348,0.000,0
159001.982,-6.348,-18.555,-35.156,-19.043,0.000,0
159001.986,-2.930,-16.602,-42.480,-8.301,0.000,0
159001.990,5.371,-14.160,-17.090,16.113,0.000,0
159001.994,10.742,-11.230,-44.434,24.902,0.000,0
159001.998,7.812,-12.207,-47.363,10.254,0.000,0
159002.002,0.488,-12.207,-34.668,-16.113,0.000,0
159002.006,-9.277,-17.090,6.836,-2.930,0.000,0
159002.010,-10.742,-17.578,10.742,7.324,0.000,0
159002.013,-3.418,-8.789,-64.453,4.883,0.000,0
159002.017,-4.395,-9.766,-51.758,-6.836,0.000,0
159002.021,-10.254,-14.648,8.789,-27.344,0.000,0
159002.025,-8.789,-11.230,-0.977,-23.438,0.000,0
159002.029,8.789,-2.930,-33.691,-8.301,0.000,0
159002.033,11.719,-1.465,-47.363,2.441,0.000,0
159002.037,-1.465,-8.301,-16.113,0.488,0.000,0
159002.041,0.000,-8.301,2.441,-39.551,0.000,0
159002.045,3.418,-1.953,-45.410,-27.832,0.000,0
159002.049,-6.836,-3.418,-33.691,-4.395,0.000,0
159002.053,-15.137,-3.418,-1.465,-17.090,0.000,0
159002.056,0.000,-0.488,-13.672,-16.113,0.000,0
159002.060,7.812,-4.883,-2.441,-29.297,0.000,0
159002.064,-5.859,-6.348,-9.766,-36.621,0.000,0
159002.068,-18.066,-2.441,-31.250,-25.391,0.000,0
159002.072,-6.348,-4.395,-53.223,3.906,0.000,0
159002.076,-1.465,-5.371,-27.344,-2.930,0.000,0
159002.080,-1.953,-6.348,12.695,-16.602,0.000,0
159002.084,0.000,-3.418,-33.691,1.465,0.000,0
159002.088,-2.441,-4.395,-63.477,-15.625,0.000,0
159002.092,-4.883,-6.836,-67.383,-7.324,0.000,0
159002.096,-11.719,-10.742,-19.043,2.930,0.000,0
159002.099,-11.719,-11.719,1.465,-34.668,0.000,0
159002.103,-6.836,-9.766,-51.270,-30.762,0.000,0
159002.107,-6.836,-13.184,-33.691,-8.301,0.000,0
159002.111,-5.371,-12.207,-17.578,-1.953,0.000,0
159002.115,4.395,-5.371,-79.590,-4.395,0.000,0
159002.119,-4.395,-12.695,-64.941,-29.297,0.000,0
159002.123,-13.184,-15.137,-53.223,-33.203,0.000,0
159002.127,-15.625,-16.602,-43.457,-20.020,0.000,0
159002.131,-23.926,-9.766,-28.320,-7.324,0.000,0
159002.135,-19.043,-7.812,-83.008,7.812,0.000,0
159002.138,-18.555,-20.508,-46.875,-19.531,0.000,0
159002.142,-32.715,-20.020,-12.207,-23.926,0.000,0
159002.146,-18.066,-14.160,-86.914,0.488,0.000,0
159002.150,-10.254,-12.695,-107.910,-16.113,0.000,0
159002.154,-25.391,-15.625,-65.918,-19.531,0.000,0
159002.158,-26.367,-16.113,-13.672,-31.738,0.000,0
159002.162,-17.090,-9.277,-44.434,-38.086,0.000,0
159002.166,-16.113,-4.395,-61.035,-31.250,0.000,0
159002.170,-21.973,-7.324,-44.922,-34.180,0.000,0
159002.174,-24.902,-9.766,-62.988,-24.902,0.000,0
159002.178,-18.555,-9.766,-47.363,-28.320,0.000,0
159002.181,-18.066,-11.230,-33.203,-31.250,0.000,0
159002.185,-23.438,-10.742,-36.133,-8.789,0.000,0
159002.189,-11.719,-7.812,-45.898,-2.441,0.000,0
159002.193,-8.789,-9.277,-62.500,-13.672,0.000,0
159002.197,-17.090,-15.625,-37.598,-39.062,0.000,0
159002.201,-22.949,-13.672,-31.250,-44.434,0.000,0
159002.205,-14.648,-11.230,-72.266,-27.832,0.000,0
159002.209,-11.230,-13.672,-58.105,-20.508,0.000,0
159002.213,-6.836,-15.137,-21.484,-39.062,0.000,0
159002.217,-11.230,-12.207,-37.109,-41.504,0.000,0
159002.221,-25.879,-13.184,-52.246,-25.879,0.000,0
159002.224,-16.113,-14.648,-37.109,2.441,0.000,0
159002.228,-13.184,-12.695,-32.227,0.000,0.000,0
159002.232,-20.996,-10.254,-32.715,-8.789,0.000,0
159002.236,-13.184,-12.207,-49.805,-23.438,0.000,0
159002.240,-12.695,-16.113,-54.688,-34.180,0.000,0
159002.244,-12.695,-17.578,-38.086,-23.438,0.000,0
159002.248,-10.254,-15.137,-44.434,-14.648,0.000,0
159002.252,-19.531,-12.695,-61.035,-11.230,0.000,0
159002.256,-19.043,-15.625,-22.949,-19.043,0.000,0
159002.260,-9.766,-15.137,0.488,-6.836,0.000,0
159002.263,-5.859,-8.789,-56.152,15.625,0.000,0
159002.267,-6.836,-6.348,-81.055,0.977,0.000,0
159002.271,-22.949,-9.766,-39.062,-12.695,0.000,0
159002.275,-23.438,-8.789,1.465,-9.766,0.000,0
159002.279,-5.859,-5.371,-14.648,-23.438,0.000,0
159002.283,-2.441,-9.277,-58.594,-23.926,0.000,0
159002.287,-6.836,-12.207,-50.781,-6.348,0.000,0
159002.291,-20.996,-7.812,-30.273,2.930,0.000,0
159002.295,-22.461,-6.348,-29.785,-13.184,0.000,0
159002.299,-10.254,-5.371,-32.715,-28.320,0.000,0
159002.303,-13.184,-10.254,-42.480,-29.785,0.000,0
159002.306,-18.555,-15.137,-29.785,-30.273,0.000,0
159002.310,-25.879,-14.160,-42.480,-2.441,0.000,0
159002.314,-20.996,-21.484,-29.297,-14.648,0.000,0
159002.318,-15.137,-20.996,-15.625,-26.367,0.000,0
159002.322,-17.578,-5.859,-35.156,-8.301,0.000,0
159002.326,-18.066,-3.906,-36.133,-3.906,0.000,0
159002.330,-14.648,-10.254,-55.664,-11.719,0.000,0
159002.334,-18.066,-15.137,-39.062,-20.020,0.000,0
159002.338,-16.602,-15.137,-14.160,-35.156,0.000,0
159002.342,-6.348,-16.113,-42.969,-35.645,0.000,0
159002.346,-1.465,-16.602,-41.016,-25.391,0.000,0
159002.349,-4.883,-14.160,-41.992,-0.977,0.000,0
159002.353,-5.859,-19.043,-45.898,-9.766,0.000,0
159002.357,-5.859,-16.113,-26.367,-40.039,0.000,0
159002.361,-6.348,-14.648,-36.133,-9.277,0.000,0
159002.365,-19.043,-13.672,-28.320,-1.953,0.000,0
159002.369,-17.578,-13.184,-44.434,-17.578,0.000,0
159002.373,-9.277,-20.996,-40.527,-21.973,0.000,0
159002.377,-15.137,-22.461,-5.371,-40.527,0.000,0
159002.381,-20.020,-16.602,-26.367,-33.203,0.000,0
159002.385,-11.230,-19.043,-48.340,-16.602,0.000,0
159002.388,-11.719,-20.020,-55.664,0.488,0.000,0
159002.392,-14.160,-19.043,-29.785,-6.348,0.000,0
159002.396,-18.066,-20.508,0.977,-35.156,0.000,0
159002.400,-23.438,-17.578,-45.898,-13.184,0.000,0
159002.404,-19.043,-13.184,-53.711,6.348,0.000,0
159002.408,-19.531,-12.207,-31.250,-0.977,0.000,0
159002.412,-24.902,-6.836,-26.855,-12.695,0.000,0
159002.416,-22.949,-6.348,-8.301,-40.039,0.000,0
159002.420,-24.902,-11.230,-27.832,-33.691,0.000,0
159002.424,-25.879,-5.859,-41.992,-11.230,0.000,0
159002.428,-22.461,-8.301,-19.531,7.324,0.000,0
159002.431,-12.207,-9.766,-43.945,5.371,0.000,0
159002.435,-16.113,-11.230,-26.367,-25.391,0.000,0
159002.439,-19.043,-11.230,-37.598,-9.766,0.000,0
159002.443,-11.719,-9.766,-54.688,0.000,0.000,0
159002.447,-12.695,-8.301,-48.828,-7.324,0.000,0
159002.451,-3.906,-1.465,-44.434,-7.812,0.000,0
159002.455,0.488,-7.324,-2.930,-38.086,0.000,0
159002.459,-4.883,-6.836,-9.277,-39.062,0.000,0
159002.463,-6.836,-2.441,-50.293,-3.906,0.000,0
159002.467,3.418,-5.371,-83.984,-6.348,0.000,0
159002.471,-1.465,-8.789,-20.020,-4.883,0.000,0
159002.474,0.000,-12.207,26.367,-19.043,0.000,0
159002.478,7.812,-10.742,-27.344,-19.531,0.000,0
159002.482,0.000,-7.812,-33.691,-16.602,0.000,0
159002.486,-14.160,-7.812,-27.832,-12.695,0.000,0
159002.490,-18.555,-13.672,-48.828,7.812,0.000,0
159002.494,-20.020,-19.531,-11.230,-16.602,0.000,0
159002.498,-19.043,-20.020,-14.160,-24.414,0.000,0
159002.502,-12.207,-15.625,-45.898,5.859,0.000,0
159002.506,-6.348,-9.766,-30.273,15.137,0.000,0
159002.510,0.000,-6.348,-49.316,4.395,0.000,0
159002.513,-5.859,-10.742,-20.508,-13.184,0.000,0
159002.517,-10.254,-5.371,20.996,-21.973,0.000,0
159002.521,2.441,-2.441,-24.414,-11.719,0.000,0
159002.525,5.371,-12.695,-21.484,-14.648,0.000,0
159002.529,-5.859,-11.230,-29.785,9.277,0.000,0
159002.533,-7.812,-12.695,-25.391,10.254,0.000,0
159002.537,-8.789,-9.766,-24.902,-12.695,0.000,0
159002.541,-14.160,-2.441,-45.410,6.836,0.000,0
159002.545,-16.113,-6.348,-20.508,8.789,0.000,0
159002.549,-11.719,-11.230,-26.855,-8.301,0.000,0
159002.553,-6.348,-8.301,-27.832,-7.324,0.000,0
159002.556,-9.277,-6.836,-10.254,-20.020,0.000,0
159002.560,-12.207,-13.184,-13.672,-22.461,0.000,0
159002.564,-4.395,-4.883,-52.246,8.789,0.000,0
159002.568,-5.859,0.000,-46.875,-1.953,0.000,0
159002.572,-6.836,-3.418,-9.766,-22.461,0.000,0
159002.576,0.488,2.930,-15.625,-8.301,0.000,0
159002.580,0.977,4.395,-35.645,-1.465,0.000,0
159002.584,-4.395,-1.465,-33.203,-15.137,0.000,0
159002.588,-15.625,-5.859,-14.160,-24.414,0.000,0
159002.592,-12.695,-7.324,-5.371,-20.508,0.000,0
159002.596,-10.254,-7.324,-10.254,-14.648,0.000,0
159002.599,-21.973,-4.395,-21.484,-1.953,0.000,0
159002.603,-14.648,-5.371,-10.742,17.578,0.000,0
159002.607,-2.441,-6.348,-8.301,3.418,0.000,0
159002.611,-5.371,-5.371,-19.043,-6.836,0.000,0
159002.615,-7.324,-0.977,-26.367,-0.488,0.000,0
159002.619,-1.465,-4.883,-18.555,-8.301,0.000,0
159002.623,-0.977,-7.324,-31.250,-25.391,0.000,0
159002.627,0.000,-0.977,-71.777,-18.066,0.000,0
159002.631,-6.836,-6.348,-11.230,-12.207,0.000,0
159002.635,-16.602,-7.812,21.484,-31.738,0.000,0
159002.638,-13.184,0.488,-26.367,-13.184,0.000,0
159002.642,-11.719,-1.465,-30.273,-4.883,0.000,0
159002.646,-17.090,-5.859,-14.160,-7.324,0.000,0
159002.650,-16.602,-8.301,2.441,-15.137,0.000,0
159002.654,-9.277,-10.254,-22.461,-30.762,0.000,0
159002.658,-9.277,-11.719,-37.109,-37.109,0.000,0
159002.662,-15.625,-10.742,-18.066,-20.996,0.000,0
159002.666,-12.695,-6.836,-43.457,-0.977,0.000,0
159002.670,-9.277,-9.277,-26.367,-26.855,0.000,2
159002.674,-10.254,-12.207,-1.465,-30.273,0.000,0
159002.678,-12.695,-17.578,-34.668,-16.113,0.000,0
159002.681,-11.719,-20.996,-47.363,-24.902,0.000,0
159002.685,-17.090,-20.020,-44.434,-15.137,0.000,0
159002.689,-21.484,-22.461,-6.348,-31.738,0.000,0
159002.693,-17.578,-14.160,3.418,-41.504,0.000,0
159002.697,-25.391,-7.324,-38.086,-35.645,0.000,0
159002.701,-18.066,-9.766,-70.312,-28.320,0.000,0
159002.705,-9.766,-14.160,-62.988,-4.883,0.000,0
159002.709,-24.414,-23.438,4.883,-23.926,0.000,0
159002.713,-20.996,-16.113,-7.812,-31.738,0.000,0
159002.717,-11.719,-9.766,-65.918,-3.906,0.000,0
159002.721,-10.254,-13.184,-20.996,-5.859,0.000,0
159002.724,-7.324,-8.789,-33.203,-3.418,0.000,0
159002.728,-5.371,-7.324,-52.246,0.488,0.000,0
159002.732,-13.184,-14.160,-24.902,-13.184,0.000,0
159002.736,-20.020,-18.555,-23.438,-16.113,0.000,0
159002.740,-13.672,-18.555,-33.203,-4.395,0.000,0
159002.744,-2.930,-18.066,-76.172,5.371,0.000,0
159002.748,-8.789,-14.648,-55.176,-19.043,0.000,0
159002.752,-8.301,-8.789,-2.441,-17.090,0.000,0
159002.756,-9.766,-9.766,1.465,5.859,0.000,0
159002.760,-11.719,-11.719,-33.203,-10.742,0.000,0
159002.763,-10.742,-12.207,-44.922,-4.883,0.000,0
159002.767,-14.648,-12.695,-17.578,-11.719,0.000,0
159002.771,-7.812,-18.555,-7.324,-31.738,0.000,0
159002.775,-11.230,-18.555,-34.180,-20.996,0.000,0
159002.779,-21.484,-10.742,-44.922,-5.371,0.000,0
159002.783,-19.531,-8.789,-47.852,-6.348,0.000,0
159002.787,-20.020,-9.277,-23.926,-19.531,0.000,0
159002.791,-15.625,-7.812,-10.254,-23.926,0.000,0
159002.795,-17.578,-6.348,-30.762,-22.461,0.000,0
159002.799,-31.250,-9.766,-23.926,-35.645,0.000,0
159002.803,-23.438,-8.301,-47.852,-12.695,0.000,0
159002.806,-2.930,-9.277,-44.922,2.930,0.000,0
159002.810,-6.348,-15.625,-8.789,-25.391,0.000,0
159002.814,-13.184,-12.695,-32.227,-14.648,0.000,0
159002.818,-9.277,-5.859,-58.594,-2.441,0.000,0
159002.822,-6.836,-11.230,-31.738,-23.926,0.000,0
159002.826,-20.996,-16.113,12.695,-37.109,0.000,0
159002.830,-22.461,-13.184,-11.719,-36.621,0.000,0
159002.834,-15.137,-8.789,-47.852,-27.344,0.000,0
159002.838,-15.137,-10.742,-63.965,-25.391,0.000,0
159002.842,-17.090,-12.695,-52.246,-9.277,0.000,0
159002.846,-17.090,-13.672,-11.230,-2.930,0.000,0
159002.849,-13.672,-12.207,-15.137,-27.832,0.000,0
159002.853,-14.648,-6.348,-54.199,-7.812,0.000,0
159002.857,-13.184,-0.977,-45.898,8.789,0.000,0
159002.861,-15.137,-1.953,-20.996,5.371,0.000,0
159002.865,-5.859,-5.371,-18.555,-3.906,0.000,0
159002.869,-1.953,-6.836,0.000,-26.855,0.000,0
159002.873,-7.324,-4.883,-12.695,-20.996,0.000,0
159002.877,-11.230,2.441,-15.137,-6.348,0.000,0
159002.881,-11.230,-0.488,-26.855,3.418,0.000,0
159002.885,-6.348,-5.371,-45.410,3.418,0.000,0
159002.888,-6.836,-4.883,11.719,-17.578,0.000,0
159002.892,-5.859,-1.465,5.859,-10.742,0.000,0
159002.896,-2.930,-1.953,-48.828,-10.254,0.000,0
159002.900,-15.625,-14.160,-21.484,-19.531,0.000,0
159002.904,-7.324,-10.742,-23.926,-14.648,0.000,0
159002.908,-1.465,-6.348,-12.695,-22.949,0.000,0
159002.912,-10.254,-11.719,-11.230,-32.715,0.000,0
159002.916,-8.301,-12.207,-43.457,-19.531,0.000,0
159002.920,-16.602,-9.277,-37.598,0.977,0.000,0
159002.924,-17.578,-9.766,-17.578,-16.113,0.000,0
159002.928,-7.812,-12.695,6.348,-29.297,0.000,0
159002.931,-11.230,-14.648,-34.668,-7.812,0.000,0
159002.935,-18.555,-7.812,-41.016,-3.418,0.000,0
159002.939,-10.254,-7.812,-42.969,-14.160,0.000,0
159002.943,0.000,-11.719,-46.875,-9.766,0.000,0
159002.947,-5.371,-12.207,-21.484,-21.973,0.000,0
159002.951,-5.371,-11.719,-34.668,-32.227,0.000,0
159002.955,6.348,-4.883,-47.363,-15.137,0.000,0
159002.959,12.695,-4.883,-35.645,6.348,0.000,0
159002.963,10.742,-4.395,-28.320,12.207,0.000,0
159002.967,-0.488,-7.812,-13.184,-9.277,0.000,0
159002.971,-10.742,-6.348,-21.484,-7.324,0.000,0
159002.974,-5.371,-7.324,-36.133,-3.906,0.000,0
159002.978,-14.160,-12.207,-12.207,-10.254,0.000,0
159002.982,-16.602,-6.348,-39.062,7.812,0.000,0
159002.986,-2.441,-5.371,-58.105,-7.812,0.000,0
159002.990,0.488,-8.789,-19.531,-16.113,0.000,0
159002.994,-6.348,-6.836,-21.484,5.859,0.000,0
159002.998,-1.465,-8.301,-48.828,5.371,0.000,0
159003.002,0.488,-6.836,-47.363,-3.418,0.000,0
159003.006,-10.254,-6.348,-2.930,-21.484,0.000,0
159003.010,-14.160,-9.277,-3.418,-13.184,0.000,0
159003.013,-9.766,-6.348,-36.621,-12.695,0.000,0
159003.017,-2.930,-7.324,-38.086,-3.906,0.000,0
159003.021,-14.160,-4.395,-33.203,8.301,0.000,0
159003.025,-11.719,2.930,-4.395,-11.230,0.000,0
159003.029,6.836,1.465,-2.441,-32.715,0.000,0
159003.033,4.395,1.465,-48.828,-16.113,0.000,0
159003.037,-0.488,-4.395,-64.941,2.441,0.000,0
159003.041,-8.301,-16.602,-40.039,-11.719,0.000,0
159003.045,2.441,-10.254,-19.531,-27.344,0.000,0
159003.049,6.836,-6.836,-26.855,-22.461,0.000,0
159003.053,-1.465,-6.348,-42.969,-25.879,0.000,0
159003.056,-2.930,-8.301,-53.711,-21.973,0.000,0
159003.060,-4.883,-11.230,-71.289,3.418,0.000,0
159003.064,-13.672,-10.254,-32.715,-19.043,0.000,0
159003.068,-20.020,-3.906,-5.859,-19.043,0.000,0
159003.072,-9.766,-0.977,-40.527,0.977,0.000,0
159003.076,4.883,-9.277,-62.988,-9.766,0.000,0
159003.080,3.418,-8.789,-57.129,-9.766,0.000,0
159003.084,-5.371,-8.301,8.789,-14.648,0.000,0
159003.088,-2.441,-8.789,29.785,-27.344,0.000,0
159003.092,10.254,-3.906,-22.461,-19.531,0.000,0
159003.096,7.812,-3.906,-37.109,-2.441,0.000,0
159003.099,-1.953,-8.301,-35.156,6.836,0.000,0
159003.103,-6.836,-15.137,-10.742,-28.320,0.000,0
159003.107,-6.348,-10.742,0.000,-34.180,0.000,0
159003.111,-4.395,-7.324,-21.973,4.395,0.000,0
159003.115,-12.207,-8.301,-9.277,-0.488,0.000,0
159003.119,-10.254,-6.836,-33.203,-3.418,0.000,0
159003.123,6.836,-14.648,-28.320,-19.043,0.000,0
159003.127,4.395,-17.090,21.973,-33.203,0.000,0
159003.131,-10.742,-16.113,26.855,-27.832,0.000,0
159003.135,-9.277,-18.066,-20.508,-13.672,0.000,0
159003.138,-8.789,-14.648,-84.473,4.883,0.000,0
159003.142,-17.578,-14.648,-29.297,-17.090,0.000,0
159003.146,-20.020,-10.254,26.855,-35.645,0.000,0
159003.150,-12.695,-8.301,-44.434,-28.809,0.000,0
159003.154,-8.789,-14.160,-68.359,-25.391,0.000,0
159003.158,-13.184,-9.766,-28.809,-7.812,0.000,0
159003.162,-17.578,-6.348,-11.719,-14.160,0.000,0
159003.166,-11.230,-10.254,-43.457,-33.691,0.000,0
159003.170,-11.230,-14.648,-77.148,-6.348,0.000,0
159003.174,-21.484,-11.230,-23.926,1.953,0.000,0
159003.178,-21.484,-9.766,-12.695,-3.418,0.000,0
159003.181,-14.160,-11.719,-29.785,-15.137,0.000,0
159003.185,-19.531,-11.719,-1.465,-29.297,0.000,0
159003.189,-20.508,-14.160,-17.578,-25.879,0.000,0
159003.193,-20.020,-15.137,-23.438,-24.902,0.000,0
159003.197,-16.113,-13.184,-43.457,-0.488,0.000,0
159003.201,-17.090,-15.625,-31.250,1.465,0.000,0
159003.205,-20.020,-19.043,12.695,-20.996,0.000,0
159003.209,-17.578,-18.555,-22.461,0.488,0.000,0
159003.213,-26.855,-17.090,-55.176,-4.883,0.000,0
159003.217,-24.414,-17.090,-42.969,-11.719,0.000,0
159003.221,-17.578,-24.902,-10.254,0.000,0.000,0
159003.224,-4.883,-21.484,-5.859,-23.438,0.000,0
159003.228,5.859,-10.254,-31.738,-22.949,0.000,0
159003.232,-3.906,-11.719,-26.367,-12.207,0.000,0
159003.236,-10.742,-10.742,-22.461,-3.418,0.000,0
159003.240,3.906,-7.324,-58.594,0.000,0.000,0
159003.244,7.324,-6.348,-45.410,-17.578,0.000,0
159003.248,-4.395,-10.742,-32.227,-6.348,0.000,0
159003.252,2.930,-8.789,-29.297,7.812,0.000,0
159003.256,-0.488,-1.953,-8.789,2.441,0.000,0
159003.260,-7.324,-10.742,-26.367,-1.465,0.000,0
159003.263,-5.859,-14.648,-9.766,-16.602,0.000,0
159003.267,-12.207,-9.766,-12.695,-31.250,0.000,0
159003.271,0.000,-10.254,-61.035,-31.738,0.000,0
159003.275,4.395,-6.836,-48.340,-21.973,0.000,0
159003.279,-3.906,1.953,-16.113,-8.301,0.000,0
159003.283,-13.184,-2.441,-19.043,-4.883,0.000,0
159003.287,-16.113,-6.836,-45.898,-5.371,0.000,0
159003.291,-12.695,-8.789,-33.203,-12.695,0.000,0
159003.295,-12.695,-11.230,-21.484,-11.719,0.000,0
159003.299,-11.230,-3.418,-33.203,-3.418,0.000,0
159003.303,-15.625,-0.977,-27.832,-13.184,0.000,0
159003.306,-20.996,-7.812,-11.719,-26.367,0.000,0
159003.310,-20.996,-1.953,-9.277,-7.324,0.000,0
159003.314,1.465,1.465,-48.828,0.977,0.000,0
159003.318,2.441,-0.488,-65.918,-10.742,0.000,0
159003.322,-13.672,-2.930,-21.484,-34.180,0.000,0
159003.326,-10.742,-5.859,-12.695,-37.109,0.000,0
159003.330,-4.395,-3.418,-46.875,-10.254,0.000,0
159003.334,-9.766,-6.348,-54.199,-18.555,0.000,0
159003.338,-10.254,-12.207,-34.668,-2.930,0.000,0
159003.342,-12.695,-10.254,-21.973,0.977,0.000,0
159003.346,-12.695,-6.836,-30.762,-7.812,0.000,0
159003.349,-11.719,-10.254,-47.363,3.906,0.000,0
159003.353,-16.113,-16.602,-34.180,11.719,0.000,0
159003.357,-10.742,-13.184,-22.461,11.230,0.000,0
159003.361,-3.906,-12.695,-27.832,-15.625,0.000,0
159003.365,-5.859,-13.672,-27.832,-26.855,0.000,0
159003.369,-17.090,-4.883,-33.691,-23.438,0.000,0
159003.373,-17.578,-2.930,-35.645,-14.160,0.000,0
159003.377,-18.555,-5.859,-50.781,0.000,0.000,2
159003.381,-22.461,-6.348,-20.508,-31.250,0.000,0
159003.385,-22.461,-1.465,-4.883,-34.668,0.000,0
159003.388,-21.973,-2.441,-52.734,4.395,0.000,0
159003.392,-16.602,-5.371,-54.199,-2.930,0.000,0
159003.396,-11.719,-11.230,-11.230,-6.836,0.000,0
159003.400,-8.301,-9.766,7.812,-23.926,0.000,0
159003.404,-7.812,-8.301,-10.742,-39.551,0.000,0
159003.408,-7.812,-11.230,-30.273,-33.203,0.000,0
159003.412,-11.719,-12.207,-3.906,-20.996,0.000,0
159003.416,-9.766,-13.672,-15.625,-1.953,0.000,0
159003.420,0.000,-6.836,-26.367,-33.691,0.000,0
159003.424,-0.977,-2.441,-13.672,-29.785,0.000,0
159003.428,-10.742,-4.395,-28.809,13.184,0.000,0
159003.431,-20.508,-5.859,-38.574,-6.836,0.000,0
159003.435,-18.066,-5.859,-47.363,-16.113,0.000,0
159003.439,-16.113,-5.859,-5.859,-22.949,0.000,0
159003.443,-21.484,-5.859,1.953,-25.391,0.000,0
159003.447,-19.531,-5.859,-32.715,-9.766,0.000,0
159003.451,-20.020,-10.254,-46.387,-5.371,0.000,0
159003.455,-17.090,-13.672,-50.781,6.348,0.000,0
159003.459,-16.113,-6.348,14.160,-4.395,0.000,0
159003.463,-15.137,0.000,5.859,-10.742,0.000,0
159003.467,-7.324,0.000,-66.895,-9.766,0.000,0
159003.471,-8.301,-2.441,-36.621,-15.137,0.000,0
159003.474,-2.930,-0.977,-21.973,6.348,0.000,0
159003.478,-4.883,-5.859,-13.184,-5.371,0.000,0
159003.482,-9.277,-9.766,-13.184,-36.133,0.000,0
159003.486,-4.395,-9.766,-40.039,-24.414,0.000,0
159003.490,-13.184,-9.277,-29.297,-4.395,0.000,0
159003.494,-7.812,-5.859,-54.688,-3.418,0.000,0
159003.498,0.488,-5.859,-50.293,-22.461,0.000,0
159003.502,-7.812,-3.418,1.953,-35.645,0.000,0
159003.506,-17.578,-3.906,-4.395,-21.973,0.000,0
159003.510,-11.719,-3.418,-25.391,-23.926,0.000,0
159003.513,-9.766,-7.324,-42.480,-4.395,0.000,0
159003.517,-14.160,-7.812,-24.414,5.371,0.000,0
159003.521,-10.742,0.000,4.395,-27.344,0.000,0
159003.525,-9.277,-2.930,-29.785,-20.508,0.000,0
159003.529,-8.301,-7.324,-40.527,6.836,0.000,0
159003.533,-19.531,-10.254,-37.109,10.254,0.000,0
159003.537,-23.926,-15.625,-18.066,-13.672,0.000,0
159003.541,-4.395,-17.090,4.883,-41.504,0.000,0
159003.545,-10.742,-9.277,-5.371,-23.926,0.000,0
159003.549,-17.090,-6.836,-13.184,4.883,0.000,0
159003.553,-6.836,-13.184,-52.734,0.488,0.000,0
159003.556,-4.395,-19.531,-27.344,-42.480,0.000,0
159003.560,-14.648,-20.020,-18.555,-24.902,0.000,0
159003.564,-14.160,-14.648,-83.496,-4.395,0.000,0
159003.568,-0.488,-20.020,-87.402,-16.602,0.000,0
159003.572,-1.953,-19.531,-63.477,-12.207,0.000,0
159003.576,-13.672,-15.625,-4.883,-31.250,0.000,0
159003.580,-0.488,-8.789,1.465,-39.062,0.000,0
159003.584,-8.789,-3.906,-27.344,-31.738,0.000,0
159003.588,-8.789,-10.254,-35.645,-26.367,0.000,0
159003.592,1.465,-8.301,-28.809,-16.113,0.000,0
159003.596,-4.883,-11.230,-25.391,-30.273,0.000,0
159003.599,-1.465,-18.066,-51.270,-29.785,0.000,0
159003.603,0.000,-9.766,-53.711,-14.160,0.000,0
159003.607,-6.348,-2.930,-34.180,-18.555,0.000,0
159003.611,-12.695,-6.348,-49.316,-9.766,0.000,0
159003.615,-15.625,-13.184,-50.293,-17.578,0.000,0
159003.619,-21.973,-10.742,-27.344,-35.645,0.000,0
159003.623,-23.438,-12.207,-35.645,-35.156,0.000,0
159003.627,-12.207,-14.160,-47.363,-21.484,0.000,0
159003.631,-15.137,-15.137,-52.246,-10.254,0.000,0
159003.635,-21.973,-18.555,-25.879,-20.020,0.000,0
159003.638,-26.855,-14.160,-3.906,-17.090,0.000,0
159003.642,-22.949,-16.602,-30.762,-17.578,0.000,0
159003.646,-12.207,-16.602,-58.594,-17.578,0.000,0
159003.650,-16.113,-13.184,-66.406,-10.254,0.000,0
159003.654,-13.672,-11.719,-27.832,-7.812,0.000,0
159003.658,-1.953,-9.277,-18.555,-21.484,0.000,0
159003.662,-9.277,-6.836,-35.645,-26.367,0.000,0
159003.666,-19.531,-8.789,-41.016,-8.789,0.000,0
159003.670,-12.695,-7.812,-45.410,-10.742,0.000,0
159003.674,-14.648,-8.789,-36.621,-18.555,0.000,0
159003.678,-14.160,-11.230,-7.812,-26.367,0.000,0
159003.681,-12.207,-5.859,-15.137,-25.879,0.000,0
159003.685,-17.090,-9.277,-28.320,-27.344,0.000,0
159003.689,-12.695,-14.648,-54.688,-11.230,0.000,0
159003.693,-8.789,-13.184,-41.992,0.977,0.000,0
159003.697,-22.461,-17.090,-8.789,-34.668,0.000,0
159003.701,-21.484,-14.160,-40.039,-22.461,0.000,0
159003.705,-10.254,-7.324,-44.922,-1.953,0.000,0
159003.709,-15.625,-3.906,-30.273,-1.953,0.000,0
159003.713,-23.438,-2.930,-17.578,-12.207,0.000,0
159003.717,-20.508,-7.324,-21.973,-37.598,0.000,0
159003.721,-13.672,-11.719,-36.133,-30.273,0.000,0
159003.724,-23.926,-4.883,-11.719,-19.531,0.000,0
159003.728,-23.438,-0.488,-16.602,-2.930,0.000,0
159003.732,-10.742,-6.836,-53.223,-21.973,0.000,0
159003.736,-17.578,-17.578,-29.297,-40.039,0.000,0
159003.740,-27.344,-14.160,-40.039,-7.812,0.000,0
159003.744,-20.996,-16.113,-43.945,-6.348,0.000,0
159003.748,-22.461,-19.531,-51.758,-6.836,0.000,0
159003.752,-15.137,-11.719,-71.777,-9.277,0.000,0
159003.756,-14.160,-13.672,-3.906,-37.109,0.000,0
159003.760,-17.090,-12.207,-2.441,-36.133,0.000,0
159003.763,-14.648,-12.695,-39.551,-26.855,0.000,0
159003.767,-16.113,-13.184,-52.734,-9.277,0.000,0
159003.771,-30.273,-12.207,-28.320,-15.625,0.000,0
159003.775,-17.090,-17.578,-20.508,-39.062,0.000,0
159003.779,7.812,-14.648,-73.730,-10.742,0.000,0
159003.783,0.488,-7.812,-67.871,-4.395,0.000,0
159003.787,-11.719,-9.277,-3.906,-9.277,0.000,0
159003.791,-2.930,-10.742,0.000,-11.719,0.000,0
159003.795,0.977,-12.695,5.859,-38.086,0.000,0
159003.799,-8.789,-14.648,-9.766,-29.297,0.000,0
159003.803,-2.930,-15.137,-35.645,-6.836,0.000,0
159003.806,2.441,-11.719,-42.969,-0.488,0.000,0
159003.810,-0.488,-12.695,-34.668,-0.488,0.000,0
159003.814,-0.977,-11.230,-2.441,-16.602,0.000,0
159003.818,-4.883,-8.789,-22.461,-20.020,0.000,0
159003.822,0.000,-13.672,-43.945,-18.555,0.000,0
159003.826,0.000,-11.230,-53.223,-8.789,0.000,0
159003.830,-4.395,-9.277,-29.785,-3.906,0.000,0
159003.834,-12.695,-13.672,35.156,-22.461,0.000,0
159003.838,-7.812,-10.254,-2.441,-17.578,0.000,0
159003.842,4.883,-9.277,-45.410,6.836,0.000,0
159003.846,-0.488,-12.207,-16.602,7.324,0.000,0
159003.849,-1.465,-6.348,-23.926,0.000,0.000,0
159003.853,4.883,-9.766,-39.551,-20.996,0.000,0
159003.857,3.418,-11.230,-9.277,-9.766,0.000,0
159003.861,2.930,-4.395,-7.324,7.812,0.000,0
159003.865,-0.977,-6.836,-22.461,3.418,0.000,0
159003.869,7.812,-10.254,-68.848,6.836,0.000,0
159003.873,-0.488,-15.137,-52.246,-9.766,0.000,0
159003.877,-18.066,-17.578,13.184,-10.254,0.000,0
159003.881,2.441,-8.789,-26.855,4.395,0.000,0
159003.885,7.324,-9.766,-60.059,1.953,0.000,0
159003.888,-8.789,-14.648,-33.691,4.395,0.000,0
159003.892,-17.090,-14.160,7.812,-10.254,0.000,0
159003.896,-13.184,-16.602,-18.066,-24.414,0.000,0
159003.900,-9.277,-18.555,-64.453,-21.484,0.000,0
159003.904,-19.043,-14.160,-21.973,-7.324,0.000,0
159003.908,-19.043,-11.230,-24.414,9.277,0.000,0
159003.912,-19.043,-10.254,-30.273,-12.695,0.000,0
159003.916,-26.367,-8.301,-29.785,-27.832,0.000,0
159003.920,-22.949,-5.371,-37.598,-6.348,0.000,0
159003.924,-20.996,-4.883,-15.625,-1.953,0.000,0
159003.928,-13.672,-5.371,-44.922,-2.930,0.000,0
159003.931,-2.930,-9.277,-55.664,-8.301,0.000,0
159003.935,2.441,-11.719,-28.809,-26.367,0.000,0
159003.939,2.930,-10.742,-28.809,-28.320,0.000,0
159003.943,-0.488,-8.789,-45.898,-3.906,0.000,0
159003.947,3.418,-8.301,-40.527,-0.488,0.000,0
159003.951,-2.441,-8.789,-15.137,-12.207,0.000,0
159003.955,-5.859,-7.324,-40.527,-1.953,0.000,0
159003.959,1.953,-9.766,-41.016,7.812,0.000,0
159003.963,2.441,-5.859,-44.922,0.000,0.000,0
159003.967,-11.230,-4.395,-31.250,-2.441,0.000,0
159003.971,-12.207,-8.301,-17.090,-10.742,0.000,0
159003.974,-12.207,-4.883,-24.414,-22.461,0.000,0
159003.978,-10.254,-9.766,-49.316,-11.230,0.000,0
159003.982,-7.812,-13.184,-63.965,2.930,0.000,0
159003.986,-8.301,-7.324,-55.664,5.859,0.000,0
159003.990,-1.953,-6.348,-32.227,-12.207,0.000,0
159003.994,-5.859,-7.324,-3.906,-38.086,0.000,0
159003.998,-12.695,-0.488,-20.508,-16.113,0.000,0
159004.002,-16.602,-3.418,-32.227,-12.207,0.000,0
159004.006,-17.578,-5.859,-29.785,-3.906,0.000,0
159004.010,-14.648,-4.395,-26.855,7.324,0.000,0
159004.013,-15.625,-2.441,0.488,-13.184,0.000,0
159004.017,-11.230,-1.465,-34.668,-10.254,0.000,0
159004.021,-11.230,-5.371,-52.246,3.906,0.000,0
159004.025,0.488,-1.953,-30.273,3.906,0.000,1
159004.029,14.648,-2.930,-17.578,-5.859,0.000,0
159004.033,5.859,-7.324,-2.930,-27.344,0.000,0
159004.037,-7.324,1.465,-18.555,-25.391,0.000,0
159004.041,-2.441,3.906,-17.090,-15.137,0.000,0
159004.045,2.930,2.930,-14.160,-0.488,0.000,0
159004.049,0.000,1.465,-26.855,1.465,0.000,0
159004.053,-6.348,-2.930,2.930,-31.250,0.000,0
159004.056,-9.766,-7.812,33.691,-31.250,0.000,0
159004.060,-3.418,-6.836,-3.418,-0.488,0.000,0
159004.064,-6.348,4.883,-49.805,6.836,0.000,0
159004.068,-11.230,1.465,-17.090,-4.395,0.000,0
159004.072,-11.230,0.488,24.414,-26.367,0.000,0
159004.076,-13.672,0.977,-11.230,-27.832,0.000,0
159004.080,-11.719,2.441,-29.785,-18.066,0.000,0
159004.084,-11.719,5.859,-35.645,-0.977,0.000,0
159004.088,-11.230,-0.977,-16.602,-2.441,0.000,0
159004.092,-2.930,0.977,22.949,-21.484,0.000,0
159004.096,-3.418,6.836,-7.812,-10.254,0.000,0
159004.099,-12.207,3.418,-36.133,-5.859,0.000,0
159004.103,-17.578,-1.953,-8.301,-2.441,0.000,0
159004.107,-10.742,-4.395,-9.766,-8.301,0.000,0
159004.111,-6.348,-6.836,-31.738,-34.180,0.000,0
159004.115,-11.230,-6.836,-44.434,-29.785,0.000,0
159004.119,-7.812,-5.859,-18.555,-18.555,0.000,0
159004.123,-5.859,-8.789,-32.715,-7.324,0.000,0
159004.127,-11.230,-3.418,-32.715,-13.672,0.000,0
159004.131,-21.973,-4.883,11.719,-42.480,0.000,0
159004.135,-21.484,-6.348,-24.414,-20.996,0.000,0
159004.138,-10.742,0.488,-39.062,-11.230,0.000,0
159004.142,-9.277,2.930,-14.160,-24.414,0.000,0
159004.146,-20.508,-3.906,-11.230,-8.301,0.000,0
159004.150,-16.113,-4.883,7.812,-22.461,0.000,0
159004.154,-8.301,0.488,-12.695,-22.949,0.000,0
159004.158,-12.207,-2.441,-35.645,-8.301,0.000,0
159004.162,-20.508,-1.465,-27.832,-0.977,0.000,0
159004.166,-11.719,-3.418,-65.918,-5.859,0.000,0
159004.170,-7.324,-7.812,-34.180,-32.227,0.000,0
159004.174,-9.766,-2.441,-15.625,-24.902,0.000,0
159004.178,-2.441,-6.836,-12.695,-3.418,0.000,0
159004.181,-10.742,-3.418,-20.508,-11.230,0.000,0
159004.185,-16.113,-4.395,-46.875,-6.836,0.000,0
159004.189,-15.137,-13.184,-13.184,-24.414,0.000,0
159004.193,-23.438,-16.113,-8.301,-39.551,0.000,0
159004.197,-18.555,-16.602,-51.758,-9.766,0.000,0
159004.201,-9.766,-22.949,-92.285,-14.160,0.000,0
159004.205,-8.301,-24.902,-62.012,-30.273,0.000,0
159004.209,-14.648,-21.973,25.879,-37.598,0.000,0
159004.213,-12.207,-16.602,-13.672,-34.668,0.000,0
159004.217,-2.930,-7.324,-76.172,-21.973,0.000,0
159004.221,-4.395,-7.324,-45.410,-16.602,0.000,0
159004.224,-7.324,-7.324,-30.762,1.953,0.000,0
159004.228,-2.441,-4.883,-21.484,-14.648,0.000,0
159004.232,-4.395,-8.789,-22.949,-21.973,0.000,0
159004.236,-12.695,-10.254,-32.715,0.488,0.000,0
159004.240,-13.672,-3.906,-16.602,-8.789,0.000,0
159004.244,2.441,-4.395,-31.738,0.488,0.000,0
159004.248,25.391,-9.277,-42.480,17.090,0.000,0
159004.252,3.906,-8.301,14.160,-1.465,0.000,0
159004.256,-31.738,-7.324,0.488,-39.551,0.000,0
159004.260,-24.414,-8.301,-32.227,-29.785,0.000,0
159004.263,4.395,-2.930,-33.691,7.324,0.000,0
159004.267,-3.418,0.488,-36.621,-1.953,0.000,0
159004.271,-31.738,-1.465,-6.348,-33.203,0.000,0
159004.275,-20.508,-4.883,-48.828,-35.645,0.000,0
159004.279,-7.812,-7.324,-76.172,-16.602,0.000,0
159004.283,-15.625,-1.465,-35.645,-1.465,0.000,0
159004.287,-12.207,-2.930,-4.883,-12.695,0.000,0
159004.291,-4.883,-4.883,-18.066,-22.461,0.000,0
159004.295,-3.418,-4.395,-41.016,-10.742,0.000,0
159004.299,-10.742,-7.324,-13.184,3.906,0.000,0
159004.303,-7.324,-4.395,-39.551,3.418,0.000,0
159004.306,-7.324,-10.742,-35.645,-9.277,0.000,0
159004.310,-5.859,-9.766,-14.160,-8.301,0.000,0
159004.314,-3.906,-7.812,-41.016,-10.254,0.000,0
159004.318,-7.812,-8.789,-42.480,-12.695,0.000,0
159004.322,-4.883,-9.766,-43.945,-2.441,0.000,0
159004.326,-11.719,-11.230,-10.742,-19.043,0.000,0
159004.330,-18.066,-14.160,16.602,-33.203,0.000,0
159004.334,-17.090,-21.484,-22.949,-20.020,0.000,0
159004.338,-15.625,-7.812,-31.250,-10.254,0.000,0
159004.342,-19.043,1.465,-5.859,-11.230,0.000,0
159004.346,-18.066,-3.418,-14.648,-22.949,0.000,0
159004.349,-15.625,-9.766,-37.109,-34.668,0.000,0
159004.353,-26.367,-12.207,-33.203,-35.156,0.000,0
159004.357,-11.719,-8.301,-12.695,-20.996,0.000,0
159004.361,-0.977,-9.766,-24.414,-10.742,0.000,0
159004.365,-9.766,-9.766,-34.668,-21.484,0.000,0
159004.369,-9.277,-9.277,-42.969,-20.996,0.000,0
159004.373,-11.230,-5.859,-27.344,-12.695,0.000,0
159004.377,-12.695,-3.906,-25.879,-1.465,0.000,0
159004.381,-9.766,-12.207,-43.945,-2.441,0.000,0
159004.385,-14.160,-13.672,-25.391,-9.766,0.000,0
159004.388,-20.996,-17.090,12.695,-19.531,0.000,0
159004.392,-14.160,-13.184,-41.016,-31.250,0.000,0
159004.396,-5.859,-4.395,-70.312,-23.438,0.000,0
159004.400,-16.602,-11.230,-60.547,-1.953,0.000,0
159004.404,-17.090,-8.301,-29.785,3.418,0.000,0
159004.408,-1.953,-0.488,1.465,-21.973,0.000,0
159004.412,-6.836,0.488,-31.250,-16.113,0.000,0
159004.416,-11.230,0.000,-39.551,-0.977,0.000,0
159004.420,-10.742,1.465,-31.250,1.953,0.000,0
159004.424,-12.207,-2.930,-24.414,-7.812,0.000,0
159004.428,-7.812,-6.836,-6.348,-32.227,0.000,0
159004.431,-13.672,-2.441,-7.812,-23.926,0.000,0
159004.435,-18.555,-5.371,-23.926,-10.742,0.000,0
159004.439,-10.742,-13.672,-59.570,4.395,0.000,0
159004.443,-8.301,-11.719,-46.387,-7.324,0.000,0
159004.447,-13.184,-11.230,15.137,-34.180,0.000,0
159004.451,-16.113,-10.254,-29.297,-9.277,0.000,0
159004.455,-3.906,-8.301,-76.172,4.883,0.000,0
159004.459,-6.836,-10.742,-53.711,-2.930,0.000,0
159004.463,-8.301,-15.137,-13.672,-4.395,0.000,0
159004.467,2.441,-6.836,-20.996,-19.043,0.000,0
159004.471,4.883,3.906,-52.734,-12.207,0.000,0
159004.474,-1.953,-2.441,-14.648,16.113,0.000,0
159004.478,-4.883,-11.230,-52.734,18.066,0.000,0
159004.482,-4.395,-15.137,-58.105,-26.367,0.000,0
159004.486,-0.977,-14.160,-18.555,-26.367,0.000,0
159004.490,0.977,-14.648,-19.531,9.277,0.000,0
159004.494,0.977,-13.184,-10.254,8.301,0.000,0
159004.498,2.930,-8.789,-33.691,3.906,0.000,0
159004.502,-3.906,-11.230,-10.254,-17.578,0.000,0
159004.506,-13.184,-11.230,16.113,-39.062,0.000,0
159004.510,-8.789,-7.324,-28.809,-20.508,0.000,0
159004.513,-7.812,-6.836,-61.035,-1.953,0.000,0
159004.517,-18.555,-9.766,-58.594,-1.953,0.000,0
159004.521,-23.926,-13.184,-24.414,-13.672,0.000,0
159004.525,-17.090,-5.371,-40.527,-38.574,0.000,0
159004.529,-15.625,-5.371,-49.316,-30.762,0.000,0
159004.533,-23.438,-11.230,-1.953,-19.531,0.000,0
159004.537,-19.531,-10.254,-31.738,-10.742,0.000,0
159004.541,-14.160,-13.672,-34.180,-10.254,0.000,0
159004.545,-23.438,-13.672,-28.320,-21.973,0.000,0
159004.549,-24.902,-14.648,-44.922,-4.395,0.000,0
159004.553,-17.578,-17.578,-39.062,-0.977,0.000,0
159004.556,-17.578,-16.602,-36.621,-9.277,0.000,0
159004.560,-20.508,-20.508,-12.695,-27.832,0.000,0
159004.564,-33.691,-20.996,-15.625,-40.039,0.000,0
159004.568,-25.879,-19.043,-28.809,-28.809,0.000,0
159004.572,-17.578,-20.508,-28.320,-17.578,0.000,0
159004.576,-22.461,-20.508,-39.062,-11.719,0.000,0
159004.580,-19.531,-20.996,-16.602,-20.996,0.000,0
159004.584,-13.672,-16.602,-36.621,-25.879,0.000,0
159004.588,-9.766,-13.184,-66.406,-2.441,0.000,1
159004.592,-9.766,-12.207,-41.504,-1.953,0.000,0
159004.596,-9.766,-10.254,-35.156,-1.465,0.000,0
159004.599,-10.254,-16.602,-31.250,-12.207,0.000,0
159004.603,-9.766,-19.043,-15.137,-32.227,0.000,0
159004.607,-10.254,-8.301,-2.930,-22.949,0.000,0
159004.611,-9.277,-9.766,-18.555,-6.348,0.000,0
159004.615,-13.672,-21.484,-41.016,-2.441,0.000,0
159004.619,-15.625,-20.020,-30.762,-8.301,0.000,0
159004.623,-20.996,-12.207,6.836,-8.301,0.000,0
159004.627,-7.812,-9.277,-16.602,-1.465,0.000,0
159004.631,2.441,-14.160,-51.270,-10.254,0.000,0
159004.635,-12.207,-18.066,-32.227,-19.531,0.000,0
159004.638,-17.578,-13.672,-2.441,-24.414,0.000,0
159004.642,-1.953,-13.672,-6.836,-31.738,0.000,0
159004.646,-0.977,-10.254,-30.273,-31.250,0.000,0
159004.650,-12.207,-6.348,-23.926,-9.766,0.000,0
159004.654,-12.695,-14.648,-24.902,0.000,0.000,0
159004.658,-11.719,-14.160,-19.043,-8.789,0.000,0
159004.662,-11.230,-9.277,-16.113,-13.672,0.000,0
159004.666,-11.719,-10.254,-25.391,-13.672,0.000,0
159004.670,-15.137,-5.859,-9.277,-10.254,0.000,0
159004.674,-8.789,-2.930,-20.508,-15.137,0.000,0
159004.678,-7.324,-2.930,-26.855,-22.949,0.000,0
159004.681,-12.695,-5.371,-35.645,-25.879,0.000,0
159004.685,-16.113,-13.672,-41.504,-23.926,0.000,0
159004.689,-14.160,-21.484,-51.758,-17.090,0.000,0
159004.693,-7.324,-15.137,-59.082,-16.602,0.000,0
159004.697,-13.184,-9.277,-40.527,-21.973,0.000,0
159004.701,-12.207,-7.324,-27.344,-33.691,0.000,0
159004.705,-3.906,-7.812,-42.969,-28.320,0.000,0
159004.709,-4.883,-8.789,-31.738,-16.113,0.000,0
159004.713,-15.137,-5.859,-26.367,-1.465,0.000,0
159004.717,-11.230,-10.742,-32.715,-9.766,0.000,0
159004.721,-4.883,-12.695,-25.879,-23.926,0.000,0
159004.724,0.977,-2.930,-26.367,-7.324,0.000,0
159004.728,5.859,1.953,-28.320,3.418,0.000,0
159004.732,2.441,1.465,-45.898,-0.977,0.000,0
159004.736,5.859,-2.930,-30.273,-5.859,0.000,0
159004.740,0.977,-7.812,3.906,-16.602,0.000,0
159004.744,-7.812,-5.859,-18.555,-20.020,0.000,0
159004.748,-7.812,-5.859,-59.570,-23.438,0.000,0
159004.752,-16.602,-4.883,-67.871,-2.930,0.000,0
159004.756,-27.344,-2.930,-6.836,8.789,0.000,0
159004.760,-26.855,-3.906,39.551,-14.160,0.000,0
159004.763,-15.137,-5.371,-34.180,0.000,0.000,0
159004.767,-5.859,-6.348,-50.781,12.207,0.000,0
159004.771,-9.277,-9.277,-24.902,0.000,0.000,0
159004.775,-11.719,-12.207,-18.066,-11.230,0.000,0
159004.779,-12.695,-11.719,-19.043,-21.484,0.000,0
159004.783,-9.766,-4.883,-45.898,-12.695,0.000,0
159004.787,-7.324,-12.695,-27.832,-5.371,0.000,0
159004.791,-4.883,-10.742,-34.180,8.789,0.000,0
159004.795,-4.883,-6.348,-19.531,-20.508,0.000,0
159004.799,-14.648,-9.277,-4.395,-26.855,0.000,0
159004.803,-19.043,-10.254,-25.879,6.348,0.000,0
159004.806,-15.625,-12.207,-33.203,0.000,0.000,0
159004.810,-11.719,-8.301,-74.707,-3.906,0.000,0
159004.814,-11.719,-12.207,-8.301,-11.719,0.000,0
159004.818,-10.254,-10.742,49.805,-27.832,0.000,0
159004.822,-2.441,-7.812,-19.531,-20.020,0.000,0
159004.826,0.977,-10.742,-43.457,-9.277,0.000,0
159004.830,-7.324,-13.184,-47.852,-9.766,0.000,0
159004.834,-16.113,-16.113,-13.184,-19.531,0.000,0
159004.838,-12.207,-15.625,-5.371,-20.508,0.000,0
159004.842,-3.906,-10.254,-45.898,-3.906,0.000,0
159004.846,-7.324,-6.348,-32.715,-9.766,0.000,0
159004.849,-11.230,-10.742,-13.672,-12.207,0.000,0
159004.853,-3.418,-12.695,-13.672,-19.531,0.000,0
159004.857,-2.930,-15.625,-7.324,-22.949,0.000,0
159004.861,-17.578,-16.602,1.465,-8.789,0.000,0
159004.865,-9.277,-13.184,-13.184,0.488,0.000,0
159004.869,10.254,-8.301,-37.109,8.301,0.000,0
159004.873,-0.977,-4.395,-18.066,-8.789,0.000,0
159004.877,-15.625,-7.324,30.762,-49.316,0.000,0
159004.881,-7.324,-11.719,-12.695,-34.180,0.000,0
159004.885,-11.719,-8.789,-73.242,-16.113,0.000,0
159004.888,-18.066,-6.836,-42.969,-14.160,0.000,0
159004.892,-17.090,-5.859,-15.137,0.488,0.000,0
159004.896,-12.695,-5.371,-13.184,-18.066,0.000,0
159004.900,-5.859,-10.742,-21.973,-19.043,0.000,0
159004.904,-13.184,-12.207,-12.695,-6.348,0.000,0
159004.908,-14.648,-15.137,-26.855,5.371,0.000,0
159004.912,1.953,-14.648,-56.152,2.930,0.000,0
159004.916,-7.812,-13.184,-23.926,-21.973,0.000,0
159004.920,-16.602,-13.672,-19.043,-31.250,0.000,0
159004.924,-11.230,-9.766,-36.621,-30.762,0.000,0
159004.928,-5.859,-8.789,-58.594,-2.441,0.000,0
159004.931,-8.301,-12.207,-57.129,4.395,0.000,0
159004.935,-17.090,-20.508,-15.625,-15.625,0.000,0
159004.939,-9.277,-19.043,-24.902,-9.766,0.000,0
159004.943,-9.277,-12.207,-41.504,-2.441,0.000,0
159004.947,-0.488,-10.742,-57.129,1.953,0.000,0
159004.951,0.488,-7.324,-20.996,6.836,0.000,0
159004.955,-8.301,-6.836,9.766,-18.555,0.000,0
159004.959,-3.418,-9.277,-44.434,-34.668,0.000,0
159004.963,-4.883,-7.812,-45.898,-12.695,0.000,0
159004.967,-6.836,-11.230,-41.992,0.488,0.000,0
159004.971,-8.789,-17.578,-47.852,-9.766,0.000,0
159004.974,-17.578,-16.602,-37.109,-20.020,0.000,0
159004.978,-23.438,-20.020,-28.809,-26.855,0.000,0
159004.982,-13.184,-17.090,-41.504,-25.879,0.000,0
159004.986,-14.160,-15.137,-71.777,-8.301,0.000,0
159004.990,-22.461,-22.461,-53.223,-4.395,0.000,0
159004.994,-20.996,-24.902,-30.762,-22.949,0.000,0
159004.998,-23.438,-18.555,-31.250,-32.715,0.000,0
159005.002,-19.043,-16.602,-57.617,-9.766,0.000,0
159005.006,-7.812,-15.137,-67.871,5.859,0.000,0
159005.010,-22.461,-16.602,-48.828,2.441,0.000,0
159005.013,-29.785,-18.555,-20.996,-17.578,0.000,0
159005.017,-7.812,-19.531,-47.363,-17.090,0.000,0
159005.021,-2.930,-17.090,-51.270,-22.461,0.000,0
159005.025,-3.906,-9.277,-29.297,-20.508,0.000,0
159005.029,-9.277,-6.348,-50.293,15.625,0.000,0
159005.033,-3.418,-5.859,-35.645,4.883,0.000,0
159005.037,4.395,-3.906,-9.766,-11.719,0.000,0
159005.041,-14.648,-10.254,-36.133,0.000,0.000,0
159005.045,-17.578,-16.113,-79.102,3.418,0.000,0
159005.049,-7.812,-12.207,-85.938,-5.371,0.000,0
159005.053,-16.602,-20.508,-47.852,-22.949,0.000,0
159005.056,-30.762,-18.555,-8.301,-34.180,0.000,0
159005.060,-23.926,-5.371,-23.438,-19.043,0.000,0
159005.064,-18.066,-7.324,-51.758,-14.160,0.000,0
159005.068,-19.043,-11.230,-40.527,0.488,0.000,0
159005.072,-13.672,-10.254,-6.348,-11.230,0.000,0
159005.076,-14.648,-10.742,-25.879,-23.926,0.000,0
159005.080,-15.137,-5.371,-56.152,4.395,0.000,0
159005.084,-13.184,0.000,-25.391,7.812,0.000,0
159005.088,-11.230,-6.348,-8.789,4.395,0.000,0
159005.092,-2.930,-11.719,-18.555,-9.277,0.000,0
159005.096,-15.137,-12.695,-34.180,-27.832,0.000,0
159005.099,-19.531,-14.160,-32.227,-22.949,0.000,0
159005.103,-5.859,-13.672,-33.691,-12.695,0.000,0
159005.107,-3.418,-16.602,-64.453,2.441,0.000,0
159005.111,-1.953,-14.160,-26.855,-10.742,0.000,0
159005.115,0.000,-5.859,2.441,-22.461,0.000,0
159005.119,-0.977,-7.324,-29.785,-8.301,0.000,0
159005.123,-1.465,-8.301,-30.273,-8.789,0.000,0
159005.127,-8.789,-10.254,-25.391,-1.953,0.000,0
159005.131,-18.555,-11.719,-1.465,-20.020,0.000,0
159005.135,-6.836,-10.254,-9.766,-41.992,0.000,0
159005.138,-7.324,-14.160,-52.246,-25.879,0.000,0
159005.142,-15.625,-12.207,-51.270,-12.207,0.000,0
159005.146,-18.555,-4.883,-34.180,-6.348,0.000,0
159005.150,-16.113,-11.719,6.348,-25.879,0.000,0
159005.154,-14.160,-19.531,11.719,-41.504,0.000,0
159005.158,-15.625,-13.184,-42.480,-16.602,0.000,0
159005.162,-13.184,-14.160,-43.457,-17.090,0.000,0
159005.166,-13.672,-16.602,-34.668,-14.648,0.000,0
159005.170,-11.230,-11.719,-14.648,-26.855,0.000,0
159005.174,-11.719,-13.672,3.906,-46.387,0.000,0
159005.178,-19.043,-10.742,-18.555,-24.902,0.000,0
159005.181,-14.648,-3.906,-49.805,-2.441,0.000,0
159005.185,-2.930,0.977,-65.918,-1.465,0.000,0
159005.189,-15.137,-6.836,-9.766,-11.719,0.000,0
159005.193,-25.879,-10.742,14.648,-21.973,0.000,0
159005.197,-6.836,0.977,-29.785,-19.531,0.000,0
159005.201,2.930,0.000,-26.367,-24.902,0.000,0
159005.205,-7.324,-6.348,-22.461,-20.508,0.000,0
159005.209,-8.789,-2.930,-27.832,3.906,0.000,1
159005.213,-6.836,-4.395,-7.324,-5.859,0.000,0
159005.217,-8.301,-4.395,-33.691,-2.930,0.000,0
159005.221,-10.254,-11.230,-51.270,5.371,0.000,0
159005.224,-17.578,-14.648,-41.504,-3.906,0.000,0
159005.228,-10.742,-11.719,-63.477,-11.719,0.000,0
159005.232,-4.395,-11.230,-57.129,-27.832,0.000,0
159005.236,-14.648,-2.441,-2.441,-27.344,0.000,0
159005.240,-17.578,-2.930,7.812,-24.902,0.000,0
159005.244,-4.395,-9.766,-53.711,-18.555,0.000,0
159005.248,-1.465,-11.230,-42.480,-2.930,0.000,0
159005.252,-2.441,-9.766,3.906,-24.414,0.000,0
159005.256,4.395,-2.441,-23.926,-16.602,0.000,0
159005.260,3.906,-1.953,-53.223,1.465,0.000,0
159005.263,-7.812,-5.859,-35.156,-7.324,0.000,0
159005.267,-15.625,-7.812,-6.836,-8.789,0.000,0
159005.271,-12.207,-9.766,0.000,-20.020,0.000,0
159005.275,-9.277,-9.766,-15.137,-26.367,0.000,0
159005.279,-15.137,-12.207,-14.160,-18.066,0.000,0
159005.283,-25.391,-13.672,-10.742,-15.625,0.000,0
159005.287,-8.789,-8.301,-33.691,-2.441,0.000,0
159005.291,3.418,-8.789,0.000,-20.020,0.000,0
159005.295,-11.230,-11.719,-15.137,-14.648,0.000,0
159005.299,-5.371,-7.812,-45.898,7.812,0.000,0
159005.303,-1.465,-6.836,-34.180,0.488,0.000,0
159005.306,-10.254,-10.254,-29.297,-1.953,0.000,0
159005.310,-13.672,-12.207,-14.648,-21.484,0.000,0
159005.314,-12.207,-12.207,-19.043,-26.855,0.000,0
159005.318,-22.949,-15.625,-16.602,-16.113,0.000,0
159005.322,-17.578,-15.625,-42.969,-2.441,0.000,0
159005.326,-12.695,-12.695,-37.598,-1.465,0.000,0
159005.330,-24.902,-12.207,-6.348,-19.531,0.000,0
159005.334,-12.207,-9.766,-37.598,0.488,0.000,0
159005.338,-4.883,-8.301,-67.383,5.859,0.000,0
159005.342,-7.324,-10.742,-47.852,-9.766,0.000,0
159005.346,-1.465,-9.277,-36.621,-5.859,0.000,0
159005.349,-1.465,-9.277,-29.785,-20.020,0.000,0
159005.353,-2.441,-16.602,-16.113,-27.832,0.000,0
159005.357,0.488,-13.672,-32.227,-20.020,0.000,0
159005.361,4.883,-7.324,-48.828,-5.859,0.000,0
159005.365,1.465,-9.766,-46.387,18.555,0.000,0
159005.369,-16.113,-19.043,-7.812,-8.789,0.000,0
159005.373,-11.719,-14.648,11.719,-20.508,0.000,0
159005.377,-1.953,-10.742,-48.340,-15.137,0.000,0
159005.381,-14.160,-17.090,-55.664,-18.066,0.000,0
159005.385,-11.719,-16.602,-33.203,4.883,0.000,0
159005.388,0.000,-14.160,-11.230,-9.277,0.000,0
159005.392,-2.930,-10.742,-8.789,-21.484,0.000,0
159005.396,-10.742,-12.207,-28.809,-7.812,0.000,0
159005.400,-12.695,-14.160,-36.621,-10.254,0.000,0
159005.404,-10.742,-16.113,-49.316,-3.906,0.000,0
159005.408,-19.043,-19.043,-30.762,-24.902,0.000,0
159005.412,-24.414,-20.508,-31.738,-44.922,0.000,0
159005.416,-24.414,-22.461,-24.902,-23.438,0.000,0
159005.420,-22.949,-15.625,-24.414,-10.742,0.000,0
159005.424,-13.184,-9.277,-71.777,-0.488,0.000,0
159005.428,-8.301,-10.254,-38.086,-25.391,0.000,0
159005.431,-12.207,-12.695,-20.020,-35.645,0.000,0
159005.435,-10.254,-10.742,-51.758,-11.230,0.000,0
159005.439,-3.418,-11.230,-45.410,-11.230,0.000,0
159005.443,-7.812,-8.789,-43.945,-9.277,0.000,0
159005.447,-16.602,-10.742,-14.648,-27.344,0.000,0
159005.451,-15.625,-10.254,-0.488,-41.504,0.000,0
159005.455,-8.789,-8.789,-33.203,-29.297,0.000,0
159005.459,-17.090,-10.742,-30.273,-18.066,0.000,0
159005.463,-25.879,-9.277,-34.180,-0.488,0.000,0
159005.467,-3.418,-7.812,-18.555,-19.531,0.000,0
159005.471,6.348,-1.953,-5.859,-22.461,0.000,0
159005.474,-3.906,-3.418,-23.926,0.488,0.000,0
159005.478,-9.766,-8.301,-33.203,-15.625,0.000,0
159005.482,-6.348,-13.184,-45.410,-15.137,0.000,0
159005.486,-8.789,-21.484,-9.277,-23.438,0.000,0
159005.490,-15.625,-14.648,11.719,-44.922,0.000,0
159005.494,-16.113,-8.301,-16.602,-25.391,0.000,0
159005.498,-17.090,-14.648,-19.531,-2.930,0.000,0
159005.502,-6.348,-21.484,-42.480,6.836,0.000,0
159005.506,-13.672,-21.484,-7.324,-12.207,0.000,0
159005.510,-18.555,-14.648,-11.719,-23.926,0.000,0
159005.513,-0.977,-14.648,-70.801,-5.859,0.000,0
159005.517,-3.418,-12.207,-41.504,2.930,0.000,0
159005.521,-14.160,-9.766,-9.766,-0.977,0.000,0
159005.525,-15.137,-11.719,-4.883,-26.367,0.000,0
159005.529,-19.531,-15.137,-19.531,-36.133,0.000,0
159005.533,-19.043,-15.625,-23.926,-21.484,0.000,0
159005.537,-5.859,-12.207,-26.855,-15.137,0.000,0
159005.541,-6.348,-10.254,-41.992,-8.301,0.000,0
159005.545,-6.348,-13.672,-9.277,-26.367,0.000,0
159005.549,-6.836,-15.625,2.441,-37.109,0.000,0
159005.553,-12.695,-7.812,-13.672,-29.785,0.000,0
159005.556,-15.137,-7.812,-31.738,-27.344,0.000,0
159005.560,-14.648,-5.859,-77.637,-13.672,0.000,0
159005.564,-14.160,-6.348,6.348,-25.879,0.000,0
159005.568,-9.766,-6.836,26.855,-35.645,0.000,0
159005.572,2.930,1.465,-64.941,-15.137,0.000,0
159005.576,3.418,3.418,-63.965,-10.742,0.000,0
159005.580,-9.277,-1.953,-21.484,-9.277,0.000,0
159005.584,-12.207,-7.324,1.465,-17.090,0.000,0
159005.588,-3.906,-6.836,-31.738,-33.203,0.000,0
159005.592,-10.254,-4.883,-48.828,-36.133,0.000,0
159005.596,-21.484,-5.371,-13.672,-20.020,0.000,0
159005.599,-24.902,-3.906,-13.672,-5.859,0.000,0
159005.603,-14.648,-6.836,-2.441,-33.203,0.000,0
159005.607,-10.254,-9.766,-8.789,-39.551,0.000,0
159005.611,-35.645,-6.348,-23.438,-16.602,0.000,0
159005.615,-25.391,-7.812,-44.434,-11.230,0.000,0
159005.619,-12.207,-11.719,-60.059,-8.789,0.000,0
159005.623,-24.414,-14.648,-42.480,-19.043,0.000,0
159005.627,-29.297,-13.184,-36.621,-45.410,0.000,0
159005.631,-22.461,-4.395,-60.059,-38.086,0.000,0
159005.635,-17.090,-7.324,-79.102,-4.395,0.000,0
159005.638,-25.879,-18.555,-65.430,2.930,0.000,0
159005.642,-22.949,-11.230,-49.805,-13.184,0.000,0
159005.646,-19.043,-8.789,-33.691,-35.156,0.000,0
159005.650,-20.508,-9.277,-39.551,-11.230,0.000,0
159005.654,-18.555,-1.465,-25.391,3.906,0.000,0
159005.658,-9.766,1.465,-43.457,-10.742,0.000,0
159005.662,-9.277,-2.441,-64.453,-13.184,0.000,0
159005.666,-14.160,-4.883,-27.344,-30.762,0.000,0
159005.670,-15.137,0.977,-19.043,-32.227,0.000,0
159005.674,-6.348,5.859,-46.875,-7.324,0.000,0
159005.678,1.953,-0.977,-62.012,-0.488,0.000,0
159005.681,-11.719,-6.836,-30.762,-22.949,0.000,0
159005.685,-23.438,-2.930,-9.766,-13.672,0.000,0
159005.689,-14.648,-1.465,-39.062,5.371,0.000,0
159005.693,-21.484,-4.883,-42.969,-7.812,0.000,0
159005.697,-31.738,-1.465,-33.691,-11.719,0.000,0
159005.701,-29.297,1.465,-2.930,-20.508,0.000,0
159005.705,-22.949,-0.977,12.695,-39.551,0.000,0
159005.709,-10.254,1.953,-55.176,-21.973,0.000,0
159005.713,-0.488,5.859,-68.848,-5.371,0.000,0
159005.717,-5.859,2.441,-26.367,1.465,0.000,0
159005.721,-7.324,-6.836,-20.996,-2.930,0.000,0
159005.724,-4.883,-9.277,-4.395,-23.438,0.000,0
159005.728,-7.324,-2.930,-15.137,-22.949,0.000,0
159005.732,-10.742,-3.906,-20.508,-19.531,0.000,0
159005.736,-11.230,-3.418,-28.320,-0.488,0.000,0
159005.740,-12.207,-2.441,-33.203,8.301,0.000,0
159005.744,-15.625,-6.836,9.277,-22.461,0.000,0
159005.748,-17.090,-5.371,-2.441,-12.207,0.000,0
159005.752,0.000,0.977,-45.898,8.301,0.000,0
159005.756,-3.418,0.488,-35.645,-2.930,0.000,0
159005.760,-21.484,-7.324,-2.930,-19.531,0.000,0
159005.763,-6.348,-11.230,17.090,-21.484,0.000,0
159005.767,-2.930,-8.789,-10.742,-12.695,0.000,0
159005.771,-15.625,-12.207,-18.066,-14.648,0.000,0
159005.775,-25.879,-16.602,-33.691,-3.418,0.000,0
159005.779,-11.719,-15.625,-41.016,-3.906,0.000,0
159005.783,0.000,-14.160,2.441,-29.297,0.000,0
159005.787,-16.602,-10.742,-6.836,-5.371,0.000,0
159005.791,-29.297,-8.301,-14.160,1.953,0.000,0
159005.795,-21.973,-5.371,-41.016,-2.441,0.000,0
159005.799,-11.719,-4.883,-61.035,-7.324,0.000,0
159005.803,-3.418,-5.859,-13.184,-42.969,0.000,0
159005.806,-9.277,-3.418,0.000,-44.434,0.000,0
159005.810,-23.438,-5.859,-32.227,-36.621,0.000,0
159005.814,6.836,-9.277,-81.543,1.953,0.000,0
159005.818,16.602,-10.742,-51.270,10.742,0.000,0
159005.822,-15.137,-2.441,4.395,-41.504,0.000,0
159005.826,-10.742,7.324,-46.387,-26.367,0.000,0
159005.830,-22.461,4.395,-65.430,-14.648,0.000,0
159005.834,-35.156,0.488,-27.832,-13.184,0.000,0
159005.838,-24.414,-0.488,-20.020,-5.371,0.000,0
159005.842,-25.879,-3.906,-21.484,-43.945,0.000,0
159005.846,-26.367,-1.953,-32.227,-42.480,0.000,0
159005.849,-14.160,-1.465,-21.973,-9.277,0.000,0
159005.853,-15.625,-4.395,-35.645,4.883,0.000,0
159005.857,-19.043,-2.930,-47.852,4.883,0.000,0
159005.861,-19.531,-7.324,-22.461,-30.762,0.000,0
159005.865,-22.461,-9.277,-37.598,-22.461,0.000,0
159005.869,-17.578,-9.766,-58.594,-0.977,0.000,0
159005.873,-14.648,-14.648,-44.922,-9.277,0.000,1
159005.877,-18.066,-9.766,-31.738,-7.324,0.000,0
159005.881,-18.066,-8.789,1.465,-9.277,0.000,0
159005.885,-10.742,-8.789,12.207,-15.625,0.000,0
159005.888,-3.418,-5.371,-46.387,-9.277,0.000,0
159005.892,-7.324,-4.395,-50.293,-11.719,0.000,0
159005.896,-26.855,-3.418,5.859,-11.230,0.000,0
159005.900,-14.648,-6.836,10.254,-20.508,0.000,0
159005.904,-7.324,-11.719,16.113,-49.805,0.000,0
159005.908,-25.391,-11.719,0.488,-35.645,0.000,0
159005.912,-14.160,-6.836,-20.020,-16.113,0.000,0
159005.916,-2.441,-8.301,-70.801,13.672,0.000,0
159005.920,-7.812,-10.742,-43.945,2.930,0.000,0
159005.924,-14.160,0.977,7.812,-21.973,0.000,0
159005.928,-18.555,1.953,-19.043,-1.465,0.000,0
159005.931,-16.602,-4.395,-52.246,0.488,0.000,0
159005.935,-12.695,-4.883,-60.059,-5.371,0.000,0
159005.939,-21.484,-5.371,6.836,-4.883,0.000,0
159005.943,-8.301,0.000,2.441,-8.301,0.000,0
159005.947,1.953,5.371,-45.898,-12.207,0.000,0
159005.951,-2.930,-0.488,-27.344,-7.812,0.000,0
159005.955,-2.441,-0.488,-30.273,5.859,0.000,0
159005.959,-3.418,-3.418,-47.363,-14.648,0.000,0
159005.963,-7.812,-6.836,-49.316,-33.691,0.000,0
159005.967,-11.230,-8.301,-56.641,-14.648,0.000,0
159005.971,-4.395,-9.766,-52.734,-6.348,0.000,0
159005.974,0.488,-4.883,-48.340,-1.953,0.000,0
159005.978,-7.324,0.488,-42.969,-2.930,0.000,0
159005.982,-9.277,1.953,-26.855,-27.832,0.000,0
159005.986,-7.812,-0.977,-5.859,-28.809,0.000,0
159005.990,-1.953,-2.441,-44.434,-12.695,0.000,0
159005.994,-4.395,-0.977,-80.078,-7.812,0.000,0
159005.998,-13.184,1.465,-47.363,-12.695,0.000,0
159006.002,-11.719,1.465,-17.090,-20.508,0.000,0
159006.006,6.348,2.930,-41.016,-4.395,0.000,0
159006.010,8.301,-3.906,-62.500,-0.488,0.000,0
159006.013,-0.977,-5.859,-13.672,-5.859,0.000,0
159006.017,1.953,1.465,-23.438,-3.906,0.000,0
159006.021,-4.395,-5.859,-19.043,-34.180,0.000,0
159006.025,-17.090,-8.789,-3.906,-32.227,0.000,0
159006.029,-18.066,-4.883,-11.719,-7.812,0.000,0
159006.033,-6.348,-0.977,-25.879,-9.277,0.000,0
159006.037,-0.488,5.371,-33.691,-15.137,0.000,0
159006.041,-5.859,7.324,-15.625,-14.160,0.000,0
159006.045,-4.883,1.953,-43.457,-9.766,0.000,0
159006.049,-1.465,-1.953,-46.875,-15.625,0.000,0
159006.053,-4.883,2.441,-33.203,-16.113,0.000,0
159006.056,-8.789,-3.418,-21.484,-18.555,0.000,0
159006.060,-4.395,-3.906,-4.395,-39.062,0.000,0
159006.064,-0.977,0.000,-23.926,-22.949,0.000,0
159006.068,-5.859,-6.348,-29.785,3.906,0.000,0
159006.072,-9.277,-5.859,-37.109,-6.348,0.000,0
159006.076,-7.812,-6.836,-10.742,-23.438,0.000,0
159006.080,2.930,-8.301,-1.465,-38.086,0.000,0
159006.084,7.812,-7.812,-27.344,-31.738,0.000,0
159006.088,-8.301,-11.719,-20.508,-24.414,0.000,0
159006.092,-13.184,-15.625,-38.574,-19.531,0.000,0
159006.096,-12.207,-19.043,-53.223,-20.996,0.000,0
159006.099,-12.695,-17.090,-8.789,-38.574,0.000,0
159006.103,-14.160,-11.719,-9.766,-22.461,0.000,0
159006.107,-13.672,-11.719,-42.969,-14.160,0.000,0
159006.111,-12.695,-13.184,-45.898,-15.137,0.000,0
159006.115,-17.578,-10.742,-26.367,-12.207,0.000,0
159006.119,-29.297,-12.207,23.438,-38.574,0.000,0
159006.123,-12.207,-6.836,-2.930,-32.227,0.000,0
159006.127,2.441,-3.418,-65.430,-9.766,0.000,0
159006.131,-20.508,-6.836,-61.035,-13.184,0.000,0
159006.135,-26.367,-5.371,-29.785,-9.277,0.000,0
159006.138,-20.020,-9.766,-5.859,-23.926,0.000,0
159006.142,-20.020,-8.789,-45.410,-8.301,0.000,0
159006.146,-18.066,-5.859,-51.758,2.930,0.000,0
159006.150,-21.973,-11.719,-25.391,-1.953,0.000,0
159006.154,-17.578,-16.602,-26.367,-1.953,0.000,0
159006.158,-11.719,-14.648,-6.348,-26.367,0.000,0
159006.162,-20.508,-11.719,-17.578,-22.461,0.000,0
159006.166,-22.461,-10.254,-22.461,-11.230,0.000,0
159006.170,-5.859,-6.348,-47.363,0.488,0.000,0
159006.174,4.395,-4.395,-68.359,8.789,0.000,0
159006.178,-1.953,-2.441,-8.789,-12.695,0.000,0
159006.181,-15.137,-2.930,20.020,-0.488,0.000,0
159006.185,-15.137,-5.859,-21.484,4.883,0.000,0
159006.189,-14.160,-9.277,-32.715,-9.277,0.000,0
159006.193,-19.043,-9.277,-21.973,0.000,0.000,0
159006.197,-15.625,-12.207,-1.953,-14.160,0.000,0
159006.201,-5.859,-11.719,-17.578,-22.949,0.000,0
159006.205,-7.324,-4.395,-29.297,-2.441,0.000,0
159006.209,-9.766,-2.930,-28.809,6.348,0.000,0
159006.213,-7.812,-6.348,-44.434,0.488,0.000,0
159006.217,-3.418,-6.348,-16.602,-11.719,0.000,0
159006.221,-5.859,-7.812,9.766,-20.996,0.000,0
159006.224,-10.742,-7.324,-23.438,-26.855,0.000,0
159006.228,-12.207,-6.348,-64.941,-10.742,0.000,0
159006.232,-20.020,-11.230,-51.270,9.766,0.000,0
159006.236,-22.949,-10.742,-12.695,-15.137,0.000,0
159006.240,-21.973,-11.719,-38.574,-15.625,0.000,0
159006.244,-19.531,-14.160,-61.523,0.488,0.000,0
159006.248,-17.090,-12.207,-50.293,1.465,0.000,0
159006.252,-17.578,-14.160,-26.367,-14.160,0.000,0
159006.256,-19.531,-12.695,-27.832,-24.902,0.000,0
159006.260,-6.836,-14.648,-83.984,-22.949,0.000,0
159006.263,-4.883,-17.090,-60.547,-14.648,0.000,0
159006.267,-14.648,-17.090,-15.137,1.465,0.000,0
159006.271,-11.719,-16.602,-47.852,-9.277,0.000,0
159006.275,-14.648,-12.695,-48.340,-9.277,0.000,0
159006.279,-12.695,-8.789,-41.016,16.113,0.000,0
159006.283,-3.418,-6.836,-52.246,-9.277,0.000,0
159006.287,-5.371,-6.348,-57.129,-1.465,0.000,0
159006.291,-15.137,-8.789,-41.992,-2.441,0.000,0
159006.295,-13.184,-10.254,-13.672,-27.344,0.000,0
159006.299,-11.230,-8.789,-18.066,-12.207,0.000,0
159006.303,-12.695,-8.789,-18.066,-1.953,0.000,0
159006.306,-4.883,-5.371,-50.781,6.836,0.000,0
159006.310,-7.324,-8.789,-10.742,-2.930,0.000,0
159006.314,-6.836,-8.301,8.789,-13.184,0.000,0
159006.318,-0.488,-10.742,-40.527,-13.672,0.000,0
159006.322,0.000,-9.766,-12.695,-28.809,0.000,0
159006.326,-3.418,3.906,-26.855,-6.836,0.000,0
159006.330,-10.254,0.977,-29.297,-5.859,0.000,0
159006.334,-8.789,-1.953,1.953,-23.438,0.000,0
159006.338,-12.207,-2.441,-19.043,-16.602,0.000,0
159006.342,-17.578,-16.602,-49.316,-6.836,0.000,0
159006.346,-15.625,-15.625,-44.922,3.418,0.000,0
159006.349,-16.113,-11.719,-30.762,-7.812,0.000,0
159006.353,-13.184,-11.719,-4.883,-37.109,0.000,0
159006.357,-9.766,-4.883,1.465,-14.160,0.000,0
159006.361,1.953,-2.930,-29.297,-12.207,0.000,0
159006.365,0.488,-7.324,-35.645,-22.461,0.000,0
159006.369,-8.789,-8.301,-19.531,2.441,0.000,0
159006.373,-2.441,-4.395,-11.230,-13.672,0.000,0
159006.377,1.465,-3.418,-28.320,-18.066,0.000,0
159006.381,-8.789,-3.906,-27.832,1.465,0.000,0
159006.385,-11.230,-4.395,-20.508,-4.883,0.000,0
159006.388,-7.324,-8.301,-22.461,-20.508,0.000,0
159006.392,-9.277,-5.859,-8.301,-26.855,0.000,0
159006.396,-11.230,-5.371,-15.137,-21.484,0.000,0
159006.400,-15.137,-13.184,-14.648,-21.973,0.000,0
159006.404,-17.578,-14.160,-33.203,-11.719,0.000,0
159006.408,-6.836,-17.090,-58.105,-17.578,0.000,0
159006.412,-4.395,-22.949,-18.555,-37.598,0.000,0
159006.416,-12.695,-20.508,-16.602,-13.184,0.000,0
159006.420,-12.695,-15.137,-38.574,-4.395,0.000,0
159006.424,-11.719,-18.555,-24.414,-24.414,0.000,0
159006.428,-15.137,-14.160,-13.672,-21.973,0.000,0
159006.431,-8.301,-14.160,6.348,-29.785,0.000,0
159006.435,-0.488,-13.184,-20.508,-29.785,0.000,0
159006.439,-4.395,-12.207,-35.156,-19.531,0.000,0
159006.443,-16.602,-14.648,-24.414,-4.883,0.000,0
159006.447,-11.719,-21.973,-2.441,4.883,0.000,0
159006.451,-2.441,-21.484,5.859,-31.738,0.000,0
159006.455,-14.160,-12.695,-40.039,-38.574,0.000,0
159006.459,-14.648,-9.766,-71.289,-16.602,0.000,0
159006.463,-14.648,-11.230,-40.039,-10.254,0.000,0
159006.467,-6.348,-11.719,-19.043,-22.949,0.000,0
159006.471,-1.953,-11.230,-3.418,-50.781,0.000,0
159006.474,-3.418,-6.836,-19.043,-33.203,0.000,0
159006.478,0.000,-2.930,-28.809,-13.672,0.000,0
159006.482,-1.953,-4.395,-38.574,-2.441,0.000,0
159006.486,1.465,-7.812,-45.410,-1.953,0.000,0
159006.490,-14.160,-6.836,-5.371,-21.973,0.000,0
159006.494,-19.043,-6.836,-28.320,-23.926,0.000,0
159006.498,-5.859,-12.207,-83.008,-24.902,0.000,0
159006.502,-13.184,-9.277,-60.547,-13.672,0.000,0
159006.506,-22.949,-5.371,-7.324,-9.766,0.000,0
159006.510,-10.254,-3.418,16.602,-30.762,0.000,0
159006.513,-4.883,0.000,-9.277,-34.180,0.000,0
159006.517,-12.695,-5.371,-40.527,-24.414,0.000,0
159006.521,-20.020,-11.230,-37.598,-10.254,0.000,0
159006.525,-14.160,-10.254,-10.254,-22.461,0.000,0
159006.529,-18.066,-6.836,-9.766,-36.621,0.000,2
159006.533,-19.531,-3.418,-46.387,-10.254,0.000,0
159006.537,-19.043,-2.441,-30.762,6.836,0.000,0
159006.541,-22.461,-0.488,-33.203,-2.441,0.000,0
159006.545,-18.066,4.395,-63.965,-18.555,0.000,0
159006.549,-19.531,0.488,-13.184,-26.367,0.000,0
159006.553,-28.320,-4.395,38.086,-20.020,0.000,0
159006.556,-28.320,-3.906,-28.320,-17.090,0.000,0
159006.560,-27.832,-13.672,-57.617,-25.391,0.000,0
159006.564,-28.320,-9.277,-35.645,-25.391,0.000,0
159006.568,-28.320,-10.254,-13.672,-37.598,0.000,0
159006.572,-31.250,-10.254,-20.020,-48.828,0.000,0
159006.576,-23.438,-6.836,-65.918,-45.410,0.000,0
159006.580,-29.297,-12.207,-42.480,-48.340,0.000,0
159006.584,-24.902,-7.812,-19.043,-3.906,0.000,0
159006.588,-14.160,-7.812,-45.410,-11.719,0.000,0
159006.592,-14.648,-9.766,-59.570,-39.062,0.000,0
159006.596,-23.438,-6.836,-19.043,-14.648,0.000,0
159006.599,-20.508,-9.277,-16.602,-13.184,0.000,0
159006.603,-11.230,-12.695,-49.805,-18.555,0.000,0
159006.607,-15.137,-13.184,-27.344,-23.926,0.000,0
159006.611,-14.648,-12.695,-12.207,-36.133,0.000,0
159006.615,-18.066,-11.719,-27.832,-31.738,0.000,0
159006.619,-11.719,-7.324,-29.785,-12.695,0.000,0
159006.623,-2.441,-3.418,-43.945,-10.742,0.000,0
159006.627,-3.906,-5.371,-6.348,-23.926,0.000,0
159006.631,-7.324,-1.953,-1.465,-4.883,0.000,0
159006.635,-17.578,1.953,-44.922,6.348,0.000,0
159006.638,-24.902,-2.441,-22.461,-3.906,0.000,0
159006.642,-13.184,-6.836,-20.020,-2.930,0.000,0
159006.646,-7.324,-10.742,-32.715,-20.020,0.000,0
159006.650,-15.625,-6.836,-27.344,-27.832,0.000,0
159006.654,-19.531,-3.906,-32.227,-5.371,0.000,0
159006.658,-10.742,-2.930,-45.410,-2.441,0.000,0
159006.662,2.441,-3.906,-44.922,6.348,0.000,0
159006.666,-7.812,-4.395,-2.930,-20.996,0.000,0
159006.670,-11.230,-1.465,-5.371,-23.926,0.000,0
159006.674,-11.230,-7.812,-31.250,8.301,0.000,0
159006.678,-12.207,-7.812,-19.043,-1.465,0.000,0
159006.681,-8.301,-3.418,-15.137,0.000,0.000,0
159006.685,-9.277,-0.488,12.695,-11.230,0.000,0
159006.689,-9.766,1.953,-17.090,-27.344,0.000,0
159006.693,-1.953,4.883,-61.035,-11.230,0.000,0
159006.697,4.395,4.883,-30.273,10.742,0.000,0
159006.701,2.930,4.883,-5.859,13.184,0.000,0
159006.705,-4.395,2.441,-8.789,-1.953,0.000,0
159006.709,-6.836,-1.465,-24.414,-4.883,0.000,0
159006.713,-4.395,0.488,-29.785,1.465,0.000,0
159006.717,-4.395,-2.930,-25.879,5.371,0.000,0
159006.721,-8.301,-2.930,-39.062,-10.742,0.000,0
159006.724,-22.461,-3.906,-1.953,-39.551,0.000,0
159006.728,-17.578,-6.348,25.879,-20.020,0.000,0
159006.732,14.648,-4.883,-45.898,26.855,0.000,0
159006.736,0.000,-7.812,-75.684,3.906,0.000,0
159006.740,-18.555,-8.301,-37.109,-24.414,0.000,0
159006.744,-15.625,-7.812,-5.371,-28.809,0.000,0
159006.748,-16.602,-3.418,-29.785,-26.855,0.000,0
159006.752,-3.906,-2.441,-62.988,-36.621,0.000,0
159006.756,-9.277,-1.953,-47.363,-9.766,0.000,0
159006.760,-16.113,-1.465,-19.531,2.441,0.000,0
159006.763,-7.812,-1.953,-0.977,-16.602,0.000,0
159006.767,-6.348,-3.906,-21.484,-5.859,0.000,0
159006.771,-10.254,-5.859,-33.203,-3.906,0.000,0
159006.775,0.000,-2.930,-35.645,-1.465,0.000,0
159006.779,4.883,0.488,-30.762,-6.348,0.000,0
159006.783,-5.859,-2.930,0.977,-40.527,0.000,0
159006.787,-13.184,-4.395,-12.207,-38.086,0.000,0
159006.791,-6.836,-4.395,-25.879,-21.484,0.000,0
159006.795,2.930,-0.488,-35.156,0.488,0.000,0
159006.799,-4.883,1.465,-32.227,-1.953,0.000,0
159006.803,-15.137,-8.301,5.859,-24.902,0.000,0
159006.806,-13.184,-10.254,-20.996,-9.277,0.000,0
159006.810,-0.977,1.465,-61.523,1.465,0.000,0
159006.814,9.766,5.371,-47.852,-1.465,0.000,0
159006.818,-8.301,-0.977,-24.902,-5.371,0.000,0
159006.822,-19.531,-3.418,-25.391,-20.996,0.000,0
159006.826,-3.418,-3.418,-50.781,-41.016,0.000,0
159006.830,-7.812,-7.812,-9.766,-42.480,0.000,0
159006.834,-20.020,-7.812,2.441,-0.977,0.000,0
159006.838,-9.766,-10.742,-55.664,-3.418,0.000,0
159006.842,-9.766,-19.043,-25.879,-33.691,0.000,0
159006.846,-16.113,-14.160,-19.043,-16.602,0.000,0
159006.849,-20.508,-11.230,-46.875,2.441,0.000,0
159006.853,-19.531,-15.625,-73.242,-8.301,0.000,0
159006.857,-4.883,-14.160,-64.941,-9.766,0.000,0
159006.861,-9.766,-16.602,9.277,-22.461,0.000,0
159006.865,-17.578,-14.160,13.672,-28.809,0.000,0
159006.869,-15.625,-13.184,-37.109,-20.996,0.000,0
159006.873,-12.695,-15.137,-67.871,-8.301,0.000,0
159006.877,-13.672,-17.578,-26.367,0.488,0.000,0
159006.881,-14.648,-15.625,10.254,-18.066,0.000,0
159006.885,-14.160,-11.230,-46.387,-18.066,0.000,0
159006.888,-10.742,-12.207,-50.293,-10.254,0.000,0
159006.892,-6.348,-9.277,-17.090,-18.066,0.000,0
159006.896,-9.766,-10.254,-27.832,1.465,0.000,0
159006.900,-16.602,-16.602,-2.930,-25.879,0.000,0
159006.904,-17.090,-14.160,-4.883,-40.039,0.000,0
159006.908,-19.043,-12.695,-40.527,-7.812,0.000,0
159006.912,-22.461,-13.672,-38.086,-8.789,0.000,0
159006.916,-15.137,-9.277,-65.430,-13.184,0.000,0
159006.920,-19.043,-12.695,-48.828,-31.250,0.000,0
159006.924,-34.180,-12.207,1.465,-43.457,0.000,0
159006.928,-21.484,-9.277,-24.902,-40.527,0.000,0
159006.931,-15.137,-7.812,-2.930,-34.668,0.000,0
159006.935,-18.555,-3.418,-20.508,3.906,0.000,0
159006.939,-20.020,-10.742,-40.527,-2.930,0.000,0
159006.943,-22.949,-8.301,-29.297,-25.879,0.000,0
159006.947,-14.648,-4.395,-44.922,-5.859,0.000,0
159006.951,-13.672,-5.859,-38.086,-4.395,0.000,0
159006.955,-20.020,-3.418,-39.062,-13.672,0.000,0
159006.959,-23.926,-4.395,-22.949,-13.672,0.000,0
159006.963,-20.020,-7.324,-16.113,-24.902,0.000,0
159006.967,-27.832,-15.137,-16.113,-29.297,0.000,0
159006.971,-30.273,-12.695,-33.691,-18.555,0.000,0
159006.974,-17.090,-9.766,-57.129,2.930,0.000,0
159006.978,-18.066,-8.789,-26.855,-14.160,0.000,0
159006.982,-33.203,-1.465,-0.488,-35.156,0.000,0
159006.986,-27.832,0.000,-45.410,7.324,0.000,0
159006.990,-10.742,-3.418,-77.637,0.488,0.000,0
159006.994,-12.695,-6.836,-52.246,-14.648,0.000,0
159006.998,-16.113,-3.906,-7.812,-19.531,0.000,0
159007.002,-16.602,-3.906,-10.742,-43.457,0.000,0
159007.006,-25.391,-2.441,-31.738,-43.945,0.000,0
159007.010,-28.809,-4.883,-17.578,-23.926,0.000,0
159007.013,-27.832,-6.836,-11.230,-7.812,0.000,0
159007.017,-15.625,-4.395,-30.273,-24.902,0.000,0
159007.021,-6.836,-3.906,-29.785,-47.363,0.000,0
159007.025,-15.625,-8.301,-35.156,-20.508,0.000,0
159007.029,-15.625,-12.695,-45.410,-12.207,0.000,0
159007.033,-14.648,-18.066,-32.227,-27.832,0.000,0
159007.037,-17.090,-11.230,-41.504,-28.320,0.000,0
159007.041,-17.578,-4.883,-33.691,-32.715,0.000,0
159007.045,-14.160,-9.766,-42.480,-20.996,0.000,0
159007.049,-13.672,-13.672,-67.383,-19.531,0.000,0
159007.053,-21.484,-14.648,-46.875,-24.414,0.000,0
159007.056,-20.508,-16.602,-14.648,-14.160,0.000,0
159007.060,-18.555,-13.672,3.418,-25.879,0.000,0
159007.064,-13.184,-7.324,-45.410,-24.414,0.000,0
159007.068,-16.113,-4.395,-51.270,-23.926,0.000,0
159007.072,-23.438,-9.766,-41.016,-16.113,0.000,0
159007.076,-15.625,-14.160,-47.363,-12.695,0.000,0
159007.080,-7.812,-13.184,-26.367,-36.621,0.000,0
159007.084,-19.531,-14.160,-34.668,-25.879,0.000,0
159007.088,-22.949,-14.648,-43.945,-6.836,0.000,0
159007.092,-15.625,-11.719,-49.805,-6.348,0.000,0
159007.096,-23.438,-17.090,-40.039,-23.926,0.000,0
159007.099,-19.043,-16.113,-11.230,-25.391,0.000,0
159007.103,-23.926,-9.766,-17.578,-15.625,0.000,0
159007.107,-24.902,-13.184,-33.691,-26.367,0.000,0
159007.111,-9.277,-9.766,-48.828,-11.230,0.000,0
159007.115,-11.719,-8.301,-43.945,-0.977,0.000,0
159007.119,-20.020,-16.113,-15.137,-26.367,0.000,0
159007.123,-20.020,-8.789,-41.504,-3.418,0.000,0
159007.127,-15.625,-3.906,-50.781,23.926,0.000,0
159007.131,-1.465,-6.348,-35.156,7.324,0.000,0
159007.135,-9.277,-4.883,-34.180,-30.762,0.000,0
159007.138,-14.160,-6.348,-35.156,-32.227,0.000,0
159007.142,-5.859,-6.348,-61.035,-20.508,0.000,0
159007.146,-20.508,-6.348,-28.320,-22.949,0.000,0
159007.150,-20.996,-10.254,-31.250,-5.859,0.000,0
159007.154,-13.184,-11.230,-67.871,1.953,0.000,0
159007.158,-15.137,-14.160,-18.555,-26.855,0.000,0
159007.162,-26.855,-16.602,-27.832,-22.461,0.000,0
159007.166,-25.391,-11.230,-59.570,-16.113,0.000,0
159007.170,-8.789,-4.395,-64.453,-21.973,0.000,0
159007.174,-15.625,-10.742,-53.223,-20.508,0.000,0
159007.178,-17.578,-14.648,-8.301,-42.969,0.000,0
159007.181,-12.695,-9.766,-29.297,-53.711,0.000,0
159007.185,-15.625,-7.812,-52.246,-33.691,0.000,0
159007.189,-15.137,-5.859,-46.875,-17.578,0.000,0
159007.193,-13.672,-4.883,-30.273,-2.930,0.000,0
159007.197,-17.578,-9.277,-14.160,-7.812,0.000,1
159007.201,-19.043,-9.766,-57.129,-14.648,0.000,0
159007.205,-14.160,-10.254,-61.035,-6.348,0.000,0
159007.209,-11.719,-11.719,-3.418,-10.742,0.000,0
159007.213,-7.324,-13.672,-15.137,-15.625,0.000,0
159007.217,-14.160,-20.020,-10.254,-33.691,0.000,0
159007.221,-26.367,-16.602,-1.465,-46.875,0.000,0
159007.224,-21.484,-12.695,-12.207,-20.996,0.000,0
159007.228,-3.418,-14.648,-39.551,6.348,0.000,0
159007.232,-6.836,-14.648,-49.316,6.348,0.000,0
159007.236,-23.926,-16.113,-8.301,-16.113,0.000,0
159007.240,-9.766,-10.254,-5.859,-29.785,0.000,0
159007.244,6.836,-2.930,-17.578,-21.973,0.000,0
159007.248,-1.953,-6.348,-22.949,-24.414,0.000,0
159007.252,-9.277,-13.184,-37.598,3.906,0.000,0
159007.256,-6.348,-17.090,-26.367,2.930,0.000,0
159007.260,0.488,-12.695,-16.602,-16.113,0.000,0
159007.263,-8.789,-18.066,-26.367,0.000,0.000,0
159007.267,-20.996,-17.090,-11.230,2.930,0.000,0
159007.271,-19.043,-7.324,-31.738,-2.441,0.000,0
159007.275,-19.531,-12.695,-38.086,-20.508,0.000,0
159007.279,-11.230,-12.207,2.441,-33.203,0.000,0
159007.283,-8.789,-11.230,-11.230,-16.602,0.000,0
159007.287,-14.648,-12.207,-22.949,-9.277,0.000,0
159007.291,-3.906,-9.766,-41.992,-0.488,0.000,0
159007.295,0.000,-14.648,-37.598,-11.230,0.000,0
159007.299,-13.672,-10.742,25.879,-18.555,0.000,0
159007.303,-5.859,-7.324,-20.020,2.441,0.000,0
159007.306,4.395,-8.301,-42.480,5.371,0.000,0
159007.310,-5.371,-6.348,-16.113,0.977,0.000,0
159007.314,-13.672,-8.301,-3.906,-5.371,0.000,0
159007.318,0.488,-2.930,-9.766,-26.367,0.000,0
159007.322,13.672,6.348,-23.926,-18.066,0.000,0
159007.326,3.418,5.371,-4.883,0.000,0.000,0
159007.330,-4.395,-1.465,-21.484,11.719,0.000,0
159007.334,-9.277,-4.395,-25.391,-13.184,0.000,0
159007.338,-14.648,-4.395,-14.160,-22.949,0.000,0
159007.342,-14.648,-2.441,-18.555,5.371,0.000,0
159007.346,-6.348,-3.418,-11.719,-5.859,0.000,0
159007.349,-1.953,-0.977,-30.762,-7.324,0.000,0
159007.353,-10.742,-3.418,-58.594,6.836,0.000,0
159007.357,-4.883,-8.789,-16.602,-15.137,0.000,0
159007.361,1.953,-8.301,-10.742,-20.020,0.000,0
159007.365,0.488,-11.719,-38.086,-10.742,0.000,0
159007.369,-0.977,-13.184,-46.387,-6.348,0.000,0
159007.373,-4.395,-10.742,-20.996,0.488,0.000,0
159007.377,-6.348,-10.742,-0.488,-8.789,0.000,0
159007.381,-12.207,-11.230,-20.996,-2.441,0.000,0
159007.385,-12.207,-11.230,-32.715,1.953,0.000,0
159007.388,-19.531,-18.555,-7.812,-1.953,0.000,0
159007.392,-9.277,-16.602,-15.137,-9.766,0.000,0
159007.396,-9.277,-12.695,-1.953,-28.809,0.000,0
159007.400,-15.625,-9.277,-8.301,-19.531,0.000,0
159007.404,-5.859,-4.395,-38.574,5.859,0.000,0
159007.408,-6.348,-7.812,-44.922,6.348,0.000,0
159007.412,-14.648,-10.742,-22.949,-13.184,0.000,0
159007.416,-19.043,-11.230,12.695,-26.367,0.000,0
159007.420,-13.184,-5.371,-23.926,-22.461,0.000,0
159007.424,-7.812,-3.418,-33.203,-17.578,0.000,0
159007.428,-11.230,-3.418,-23.438,-3.906,0.000,0
159007.431,-19.043,-1.953,-17.090,-4.883,0.000,0
159007.435,-15.137,-8.301,-4.395,-26.855,0.000,0
159007.439,-7.324,-13.184,-45.898,-18.555,0.000,0
159007.443,-7.324,-10.254,-53.711,-0.488,0.000,0
159007.447,-7.812,-3.418,-17.090,-5.371,0.000,0
159007.451,-12.207,-10.742,-17.090,-26.855,0.000,0
159007.455,-8.301,-18.066,-33.691,-27.344,0.000,0
159007.459,-15.625,-9.277,-20.020,-17.578,0.000,0
159007.463,-19.531,-8.301,-20.020,-24.414,0.000,0
159007.467,-8.301,-10.742,-36.133,-11.719,0.000,0
159007.471,-10.742,-8.789,-44.434,-6.348,0.000,0
159007.474,-22.461,-6.836,-9.277,-34.180,0.000,0
159007.478,-24.414,-2.930,5.371,-10.742,0.000,0
159007.482,-15.625,-7.324,-32.715,19.531,0.000,0
159007.486,-1.953,-6.348,-73.242,4.883,0.000,0
159007.490,-6.836,-9.277,-50.781,-21.484,0.000,0
159007.494,-14.160,-14.160,18.555,-44.922,0.000,0
159007.498,-10.742,-5.371,-7.324,-32.715,0.000,0
159007.502,-14.648,-4.883,-28.320,-17.578,0.000,0
159007.506,-16.602,-7.324,-21.484,1.953,0.000,0
159007.510,-22.949,-6.836,-26.855,7.324,0.000,0
159007.513,-20.508,-10.742,2.930,-24.902,0.000,0
159007.517,-17.578,-16.113,-29.297,-1.953,0.000,0
159007.521,-19.531,-16.602,-8.789,-27.344,0.000,0
159007.525,-14.648,-8.301,-1.953,-41.016,0.000,0
159007.529,-9.277,-4.883,-53.711,-5.371,0.000,0
159007.533,-11.230,-7.812,-20.020,-29.785,0.000,0
159007.537,-15.137,-3.906,-35.156,-32.227,0.000,0
159007.541,-9.277,-0.977,-47.852,-9.277,0.000,0
159007.545,-7.324,-8.301,-43.457,0.977,0.000,0
159007.549,-18.066,-12.695,-10.742,-23.438,0.000,0
159007.553,-17.090,-7.324,-49.316,-19.531,0.000,0
159007.556,-12.207,-8.789,-80.566,-13.672,0.000,0
159007.560,-12.207,-10.254,-43.945,-14.648,0.000,0
159007.564,-16.113,-9.277,-10.742,-20.020,0.000,0
159007.568,-18.066,-11.719,1.465,-37.598,0.000,0
159007.572,-16.602,-5.371,-1.953,-22.461,0.000,0
159007.576,-20.508,-2.441,6.836,-3.418,0.000,0
159007.580,-25.391,-10.742,-21.484,-17.090,0.000,0
159007.584,-16.602,-14.648,-40.527,-26.855,0.000,0
159007.588,-21.973,-19.043,-4.883,-44.434,0.000,0
159007.592,-26.367,-17.578,-10.254,-43.457,0.000,0
159007.596,-13.672,-14.160,-25.391,-28.320,0.000,0
159007.599,-7.812,-13.672,-48.340,-27.832,0.000,0
159007.603,-12.207,-20.508,-41.016,-21.973,0.000,0
159007.607,-12.207,-23.926,-8.789,-38.086,0.000,0
159007.611,-5.371,-14.160,-29.297,-24.902,0.000,0
159007.615,-9.277,-11.230,-48.340,-3.418,0.000,0
159007.619,-12.695,-12.695,-36.621,-12.207,0.000,0
159007.623,-17.578,-8.789,-18.066,-24.902,0.000,0
159007.627,-13.184,-12.695,-19.531,-30.273,0.000,0
159007.631,-19.531,-11.230,-47.363,-26.855,0.000,0
159007.635,-20.508,-4.883,-49.316,-38.574,0.000,0
159007.638,-15.625,-8.301,-32.227,-33.203,0.000,0
159007.642,-15.137,-10.742,-56.152,-7.324,0.000,0
159007.646,-17.090,-15.137,-20.020,-35.156,0.000,0
159007.650,-15.137,-12.207,-18.555,-30.273,0.000,0
159007.654,-14.160,-14.160,-65.430,4.395,0.000,0
159007.658,-23.438,-15.625,-47.363,-13.184,0.000,0
159007.662,-20.996,-11.230,-38.086,-15.137,0.000,0
159007.666,-32.715,-16.602,-7.324,-29.785,0.000,0
159007.670,-26.855,-15.625,-7.812,-51.758,0.000,0
159007.674,-1.953,-9.766,-43.945,-29.297,0.000,0
159007.678,-11.719,-10.254,-43.457,-1.465,0.000,0
159007.681,-21.973,-9.766,-48.828,-4.883,0.000,0
159007.685,-18.555,-11.719,-25.391,-18.555,0.000,0
159007.689,-13.184,-10.254,-21.484,-20.020,0.000,0
159007.693,-15.625,-8.789,-38.086,-13.184,0.000,0
159007.697,-19.043,-15.137,-43.457,-8.301,0.000,0
159007.701,-15.625,-10.742,-53.223,0.000,0.000,0
159007.705,-18.555,-11.230,-26.367,-33.203,0.000,0
159007.709,-24.902,-17.578,-15.625,-42.969,0.000,0
159007.713,-19.531,-15.625,-31.250,-13.184,0.000,0
159007.717,7.812,-9.277,-55.176,7.812,0.000,0
159007.721,14.160,-13.672,-58.594,8.789,0.000,0
159007.724,-9.277,-12.695,-10.254,-23.438,0.000,0
159007.728,-7.812,-9.766,-24.902,-19.043,0.000,0
159007.732,2.930,-11.230,-69.336,-6.348,0.000,1
159007.736,0.488,-14.648,-48.340,-10.742,0.000,0
159007.740,-0.488,-14.648,-29.297,-8.301,0.000,0
159007.744,-4.395,-11.230,-13.672,-15.137,0.000,0
159007.748,-17.578,-11.230,-17.090,-11.230,0.000,0
159007.752,-20.020,-9.277,-32.715,-8.301,0.000,0
159007.756,-17.090,-15.137,-23.438,7.812,0.000,0
159007.760,-14.160,-15.625,-29.297,12.207,0.000,0
159007.763,-10.254,-14.648,-26.855,-24.414,0.000,0
159007.767,-11.719,-17.090,-24.414,-33.691,0.000,0
159007.771,-5.859,-15.625,-28.320,-18.066,0.000,0
159007.775,-3.906,-16.113,-24.902,-11.230,0.000,0
159007.779,-5.859,-13.184,-53.711,3.418,0.000,0
159007.783,-3.906,-13.184,-28.320,-14.160,0.000,0
159007.787,-13.184,-14.160,5.859,-29.297,0.000,0
159007.791,-21.484,-11.230,-26.855,-8.301,0.000,0
159007.795,-1.465,-10.254,-43.457,4.883,0.000,0
159007.799,-5.371,-8.789,-41.016,-2.930,0.000,0
159007.803,-19.043,-14.160,-16.113,-25.391,0.000,0
159007.806,-5.859,-15.625,-10.254,-32.227,0.000,0
159007.810,-11.230,-4.883,-27.832,-25.879,0.000,0
159007.814,-17.578,-6.348,-27.344,-23.438,0.000,0
159007.818,-16.113,-9.277,-40.527,4.883,0.000,0
159007.822,-13.184,-13.672,-32.227,-7.324,0.000,0
159007.826,-4.395,-10.742,-12.207,-23.926,0.000,0
159007.830,-4.395,-3.418,-39.062,1.465,0.000,0
159007.834,3.418,-7.812,-48.828,7.812,0.000,0
159007.838,5.371,-4.883,-43.457,4.883,0.000,0
159007.842,-2.441,-4.395,-13.672,-22.949,0.000,0
159007.846,-9.277,-7.324,-0.977,-49.316,0.000,0
159007.849,-11.719,-4.395,-28.809,-22.461,0.000,0
159007.853,-3.418,-4.395,-27.344,-0.977,0.000,0
159007.857,-6.836,-6.348,-70.312,8.789,0.000,0
159007.861,-18.066,-11.719,-29.297,-6.348,0.000,0
159007.865,-29.297,-12.695,4.883,-20.020,0.000,0
159007.869,-9.277,0.000,-82.031,3.906,0.000,0
159007.873,-3.906,2.930,-75.684,-3.418,0.000,0
159007.877,-20.996,-3.906,-33.203,-8.789,0.000,0
159007.881,-12.207,-4.395,-19.531,-15.137,0.000,0
159007.885,6.836,-2.930,-15.137,-25.879,0.000,0
159007.888,2.441,-3.906,-11.719,-13.672,0.000,0
159007.892,-27.832,-9.277,-11.230,-9.766,0.000,0
159007.896,-32.715,-4.883,-37.109,-9.277,0.000,0
159007.900,-24.414,1.465,-29.785,-29.785,0.000,0
159007.904,-21.973,-0.977,7.324,-35.156,0.000,0
159007.908,-13.672,-0.977,-3.906,-23.926,0.000,0
159007.912,-8.789,-3.418,-42.480,-28.809,0.000,0
159007.916,-10.254,-6.348,-58.594,-16.113,0.000,0
159007.920,-9.277,-4.883,-36.133,-3.418,0.000,0
159007.924,-10.742,-7.812,2.930,-12.695,0.000,0
159007.928,-11.230,-10.254,-26.855,-22.461,0.000,0
159007.931,-6.836,-8.789,-76.660,-14.160,0.000,0
159007.935,-14.648,-15.137,-59.082,-7.812,0.000,0
159007.939,-15.625,-16.602,-18.555,-13.184,0.000,0
159007.943,-13.184,-11.230,-2.441,-20.996,0.000,0
159007.947,-16.113,-11.719,-26.855,-26.367,0.000,0
159007.951,-5.859,-17.578,-21.973,-9.277,0.000,0
159007.955,-0.488,-13.672,6.348,-9.766,0.000,0
159007.959,7.324,-8.789,-42.480,-2.930,0.000,0
159007.963,11.230,-11.230,-59.082,-4.395,0.000,0
159007.967,-1.465,-8.301,-30.762,-14.160,0.000,0
159007.971,-6.348,-9.766,-34.668,-10.254,0.000,0
159007.974,-11.230,-12.695,-36.621,0.000,0.000,0
159007.978,-20.020,-16.113,-24.414,5.371,0.000,0
159007.982,-23.926,-20.020,-7.812,-15.625,0.000,0
159007.986,-15.625,-12.695,-20.996,-27.344,0.000,0
159007.990,-11.230,-17.090,-26.855,-8.789,0.000,0
159007.994,-14.648,-19.043,-25.391,-4.883,0.000,0
159007.998,-13.184,-14.648,-35.645,-6.836,0.000,0
159008.002,-4.395,-15.625,-41.504,-20.996,0.000,0
159008.006,0.000,-8.789,-45.410,-17.578,0.000,0
159008.010,-7.324,-5.371,-38.574,0.488,0.000,0
159008.013,-3.418,-8.789,-36.133,0.977,0.000,0
159008.017,1.465,-11.230,-48.828,5.859,0.000,0
159008.021,-3.906,-12.695,-30.762,-18.066,0.000,0
159008.025,-6.348,-8.789,-14.648,-31.250,0.000,0
159008.029,-3.418,-6.836,-26.855,-16.602,0.000,0
159008.033,-5.859,-9.766,-41.992,1.465,0.000,0
159008.037,-8.789,-12.207,-36.621,9.766,0.000,0
159008.041,-15.137,-13.672,6.836,-8.789,0.000,0
159008.045,-16.602,-10.742,-12.695,-32.715,0.000,0
159008.049,-11.230,-17.090,-83.496,-23.926,0.000,0
159008.053,-10.254,-16.113,-73.242,-8.301,0.000,0
159008.056,-12.695,-16.602,-10.742,-16.113,0.000,0
159008.060,-20.508,-19.043,-1.465,-41.016,0.000,0
159008.064,-6.348,-13.672,-63.477,-43.457,0.000,0
159008.068,-3.906,-11.719,-54.688,-7.812,0.000,0
159008.072,-11.230,-9.277,-15.625,1.953,0.000,0
159008.076,-8.789,-12.695,-28.320,-4.395,0.000,0
159008.080,-12.695,-12.695,-23.926,-19.531,0.000,0
159008.084,-24.414,-8.789,-20.508,-30.273,0.000,0
159008.088,-27.344,-4.395,-26.367,-26.855,0.000,0
159008.092,-17.090,-3.418,-28.809,-19.043,0.000,0
159008.096,-13.672,-7.324,-51.270,0.000,0.000,0
159008.099,-17.578,-12.207,-21.484,-10.254,0.000,0
159008.103,-25.879,-10.742,-11.719,-26.855,0.000,0
159008.107,-13.184,-6.348,-62.012,-1.465,0.000,0
159008.111,-4.395,-7.324,-65.918,7.324,0.000,0
159008.115,-9.766,-4.395,-41.016,-3.906,0.000,0
159008.119,-11.230,-10.254,-6.348,-22.461,0.000,0
159008.123,-7.324,-10.742,-7.324,-43.945,0.000,0
159008.127,-5.371,-3.906,-23.438,-41.504,0.000,0
159008.131,-25.391,-10.254,5.371,-27.832,0.000,0
159008.135,-18.555,-3.906,-14.160,-2.930,0.000,0
159008.138,8.789,0.488,-14.160,-19.043,0.000,0
159008.142,6.836,-3.418,4.395,-39.551,0.000,0
159008.146,-10.254,-4.395,-33.691,-20.508,0.000,0
159008.150,-14.648,-6.836,-45.410,-15.137,0.000,0
159008.154,-7.812,-10.742,-45.898,-2.441,0.000,0
159008.158,-18.066,-11.719,-5.859,-20.996,0.000,0
159008.162,-20.020,-9.277,20.508,-45.898,0.000,0
159008.166,-17.090,-5.859,-28.320,-30.762,0.000,0
159008.170,-14.648,-7.324,-58.105,-21.484,0.000,0
159008.174,-10.254,-10.254,-59.570,6.836,0.000,0
159008.178,-14.160,-13.184,-16.113,-11.230,0.000,0
159008.181,-9.766,-14.160,-49.316,-25.391,0.000,0
159008.185,-2.930,-13.672,-83.008,-7.812,0.000,0
159008.189,-14.648,-10.254,-21.484,-10.254,0.000,0
159008.193,-18.555,-7.812,-14.160,-16.602,0.000,0
159008.197,-3.418,-12.207,-21.973,-28.809,0.000,0
159008.201,-6.836,-8.301,-12.207,-28.320,0.000,0
159008.205,-8.789,-1.953,-9.277,-29.297,0.000,0
159008.209,0.488,-10.254,-39.062,-10.254,0.000,0
159008.213,1.465,-12.695,-63.965,0.488,0.000,0
159008.217,-3.906,-6.836,-22.949,-23.926,0.000,0
159008.221,-8.789,-3.906,-17.090,-13.672,0.000,0
159008.224,-9.277,-6.836,-39.551,9.766,0.000,0
159008.228,-1.953,-6.836,-53.711,-2.930,0.000,0
159008.232,-1.953,-2.441,-60.547,-10.254,0.000,0
159008.236,-16.113,-10.742,8.789,-8.301,0.000,0
159008.240,4.395,-15.625,-8.789,-11.230,0.000,0
159008.244,8.301,-5.859,-46.875,0.000,0.000,0
159008.248,-2.930,-1.465,-37.109,14.160,0.000,0
159008.252,-1.953,-3.906,-40.527,8.301,0.000,0
159008.256,-2.930,-5.859,-22.949,-8.789,0.000,0
159008.260,-1.465,0.000,-3.906,-21.973,0.000,0
159008.263,-0.488,3.906,-20.020,-15.137,0.000,0
159008.267,1.465,0.488,-34.668,-4.883,0.000,0
159008.271,-8.301,-8.789,-36.133,5.859,0.000,0
159008.275,-20.508,-7.324,-30.273,13.184,0.000,0
159008.279,-17.090,-4.395,-15.137,0.488,0.000,0
159008.283,-4.883,-2.930,-31.250,3.418,0.000,0
159008.287,5.859,1.465,-44.922,20.020,0.000,0
159008.291,0.488,4.395,-30.762,6.348,0.000,0
159008.295,-9.766,1.465,-15.137,-19.043,0.000,0
159008.299,-1.465,-3.418,-26.855,-25.391,0.000,0
159008.303,2.441,-4.395,-33.691,-27.832,0.000,0
159008.306,-7.324,-5.859,-21.973,-34.180,0.000,0
159008.310,-11.230,-12.207,-39.551,-4.395,0.000,0
159008.314,-16.113,-13.672,-34.668,-5.859,0.000,0
159008.318,-14.648,-12.207,-11.230,-28.809,0.000,0
159008.322,-9.277,-13.184,-26.855,-1.953,0.000,0
159008.326,-18.066,-14.648,-19.043,0.000,0.000,0
159008.330,-14.648,-16.113,-46.875,-20.020,0.000,0
159008.334,-7.324,-12.695,-37.109,-19.043,0.000,0
159008.338,-7.812,-9.277,-5.371,-30.762,0.000,0
159008.342,-4.883,-4.883,-21.484,-22.949,0.000,0
159008.346,-2.930,-1.953,-30.762,-6.836,0.000,0
159008.349,-4.395,-8.301,-45.410,-0.977,0.000,0
159008.353,-10.742,-16.113,-13.184,-7.324,0.000,0
159008.357,-16.602,-18.555,5.859,-23.926,0.000,0
159008.361,-9.766,-15.137,-36.133,-2.930,0.000,0
159008.365,-12.695,-19.043,-34.180,-3.418,0.000,0
159008.369,-13.184,-15.137,5.859,-13.184,0.000,0
159008.373,-5.371,-10.254,-13.672,-9.277,0.000,0
159008.377,-5.859,-13.184,-34.180,-27.344,0.000,0
159008.381,-15.137,-7.324,-32.227,-26.367,0.000,0
159008.385,-15.625,-8.789,-24.902,-21.973,0.000,0
159008.388,-6.348,-11.719,-41.016,-10.254,0.000,0
159008.392,-14.648,-10.742,-29.297,-12.695,0.000,0
159008.396,-11.719,-8.789,-0.977,-18.066,0.000,0
159008.400,4.395,-2.441,-39.551,-1.465,0.000,0
159008.404,1.465,0.488,-56.641,-4.395,0.000,0
159008.408,-6.348,-4.395,-40.527,-3.906,0.000,0
159008.412,-16.602,-10.254,-7.324,-12.207,0.000,0
159008.416,-26.855,-8.301,32.715,-37.109,0.000,0
159008.420,-13.184,-5.859,-13.672,-33.691,0.000,0
159008.424,-12.695,-5.859,-41.016,-26.367,0.000,0
159008.428,-18.066,-8.789,-38.574,-7.812,0.000,0
159008.431,-16.602,-10.742,-31.738,-1.465,0.000,0
159008.435,-19.531,-5.859,2.441,-18.066,0.000,0
159008.439,-11.230,1.465,-13.672,-9.766,0.000,0
159008.443,-11.719,1.953,-21.973,-16.602,0.000,0
159008.447,-17.578,3.418,-33.691,-4.883,0.000,0
159008.451,-11.719,-2.930,-47.363,2.930,0.000,0
159008.455,-12.695,-6.836,-1.953,-33.691,0.000,2
159008.459,-18.066,-8.301,-5.859,-37.109,0.000,0
159008.463,-21.973,-10.742,-47.852,-5.371,0.000,0
159008.467,-10.742,-6.836,-69.336,-7.812,0.000,0
159008.471,-7.324,-8.301,-13.184,-18.066,0.000,0
159008.474,-24.414,-12.207,43.457,-13.184,0.000,0
159008.478,-20.020,-13.184,-16.602,-15.625,0.000,0
159008.482,-7.812,-17.578,-58.105,-21.484,0.000,0
159008.486,-13.672,-16.602,-42.480,-7.324,0.000,0
159008.490,-21.484,-13.184,-29.785,6.836,0.000,0
159008.494,-14.648,-17.090,-4.395,-19.531,0.000,0
159008.498,-15.625,-15.137,-35.156,-21.484,0.000,0
159008.502,-17.578,-13.672,-55.176,-2.441,0.000,0
159008.506,-16.113,-7.812,-26.367,5.859,0.000,0
159008.510,-17.090,-7.812,-34.180,-6.348,0.000,0
159008.513,-3.906,-11.719,-41.016,-42.480,0.000,0
159008.517,-12.207,-16.113,-20.996,-39.551,0.000,0
159008.521,-30.762,-12.695,-0.977,-21.484,0.000,0
159008.525,-12.207,-7.812,-34.180,0.000,0.000,0
159008.529,-1.465,-7.324,-54.688,-3.418,0.000,0
159008.533,-14.160,-6.348,-2.930,-24.902,0.000,0
159008.537,-20.020,-9.766,-12.695,-5.371,0.000,0
159008.541,-12.207,-14.160,-67.383,4.395,0.000,0
159008.545,-11.230,-4.883,-56.152,-6.348,0.000,0
159008.549,-20.508,-3.418,-17.578,-11.719,0.000,0
159008.553,-14.160,-7.324,9.766,-16.113,0.000,0
159008.556,-5.371,-6.836,0.488,-27.344,0.000,0
159008.560,-11.230,-9.277,-40.039,-18.555,0.000,0
159008.564,-21.973,-12.695,-37.109,-2.441,0.000,0
159008.568,-9.277,-9.277,-12.695,-13.184,0.000,0
159008.572,-0.977,-12.207,-10.254,-11.719,0.000,0
159008.576,-9.766,-9.766,-39.062,7.812,0.000,0
159008.580,-5.371,-0.977,-45.898,6.348,0.000,0
159008.584,-3.906,-5.859,-37.598,1.953,0.000,0
159008.588,-6.836,-13.184,-26.855,-11.230,0.000,0
159008.592,-6.836,-8.301,-2.930,-31.250,0.000,0
159008.596,-7.812,-4.883,-15.625,-22.461,0.000,0
159008.599,-9.766,-4.883,-24.414,-7.812,0.000,0
159008.603,-7.324,-8.301,-47.852,-17.578,0.000,0
159008.607,-15.137,-13.672,-18.066,-19.531,0.000,0
159008.611,-14.648,-12.695,14.648,-15.137,0.000,0
159008.615,1.465,-4.883,-31.250,-16.602,0.000,0
159008.619,-1.465,-6.836,-17.090,-10.742,0.000,0
159008.623,-9.277,-8.789,-10.742,-0.977,0.000,0
159008.627,-2.441,-9.766,-38.574,3.906,0.000,0
159008.631,-6.836,-17.090,-24.414,-26.855,0.000,0
159008.635,-12.207,-16.602,-9.277,-22.461,0.000,0
159008.638,1.465,-15.625,-26.367,6.836,0.000,0
159008.642,2.930,-16.602,-36.133,4.883,0.000,0
159008.646,-9.766,-12.207,-34.668,-10.254,0.000,0
159008.650,-15.625,-12.207,-7.324,-13.184,0.000,0
159008.654,-13.672,-14.160,1.465,-14.160,0.000,0
159008.658,-3.906,-5.371,-28.320,-18.555,0.000,0
159008.662,0.977,-4.395,-43.457,-6.348,0.000,0
159008.666,2.441,-8.301,-37.598,11.230,0.000,0
159008.670,-2.930,-14.160,6.348,-23.438,0.000,0
159008.674,-7.324,-19.043,-7.812,-35.156,0.000,0
159008.678,-8.789,-16.113,-82.031,0.977,0.000,0
159008.681,-24.414,-14.648,-58.594,-22.949,0.000,0
159008.685,-32.227,-22.461,-34.180,-21.973,0.000,0
159008.689,-24.414,-25.879,-23.926,-19.531,0.000,0
159008.693,-23.926,-21.973,-20.020,-35.156,0.000,0
159008.697,-30.273,-18.066,-26.367,-26.855,0.000,0
159008.701,-21.973,-11.719,-25.391,-6.348,0.000,0
159008.705,-9.277,-14.648,-41.992,5.859,0.000,0
159008.709,-11.230,-13.672,-15.625,-2.441,0.000,0
159008.713,-10.254,-6.836,-22.461,-12.695,0.000,0
159008.717,-8.301,-9.277,-45.898,-13.184,0.000,0
159008.721,-3.418,-15.137,-39.551,-21.973,0.000,0
159008.724,-10.254,-16.113,-41.016,-9.766,0.000,0
159008.728,-12.695,-14.160,-19.531,-18.555,0.000,0
159008.732,-6.836,-18.066,-24.414,-45.898,0.000,0
159008.736,-1.953,-17.578,-29.297,-29.297,0.000,0
159008.740,0.977,-12.695,-24.414,-7.812,0.000,0
159008.744,-15.625,-11.230,-24.902,-17.578,0.000,0
159008.748,-18.066,-12.695,-20.508,-32.715,0.000,0
159008.752,-12.695,-6.836,-33.691,-19.043,0.000,0
159008.756,-18.555,-7.324,-30.762,-15.137,0.000,0
159008.760,-19.531,-11.719,-46.387,-9.766,0.000,0
159008.763,-20.020,-7.812,-44.434,-19.531,0.000,0
159008.767,-20.020,-6.836,-10.254,-39.062,0.000,0
159008.771,-28.809,-3.906,-5.859,-30.273,0.000,0
159008.775,-31.738,-2.441,-54.199,-11.719,0.000,0
159008.779,-15.625,-3.906,-102.051,-10.254,0.000,0
159008.783,-18.555,-7.812,-64.453,-20.996,0.000,0
159008.787,-31.250,-15.625,-2.441,-39.551,0.000,0
159008.791,-26.367,-17.578,-19.531,-43.945,0.000,0
159008.795,-22.949,-13.184,-74.219,-33.691,0.000,0
159008.799,-26.367,-10.254,-53.711,-21.973,0.000,0
159008.803,-36.133,-17.090,-10.742,-9.766,0.000,0
159008.806,-33.203,-17.090,-4.395,-35.156,0.000,0
159008.810,-26.367,-8.789,-35.645,-29.297,0.000,0
159008.814,-19.531,-9.766,-59.570,-3.906,0.000,0
159008.818,-17.578,-15.625,-42.480,2.441,0.000,0
159008.822,-8.301,-10.254,-35.156,-16.113,0.000,0
159008.826,-2.441,-10.742,-8.301,-27.344,0.000,0
159008.830,-19.043,-12.695,-15.137,-18.555,0.000,0
159008.834,-24.902,-13.672,-20.020,-17.578,0.000,0
159008.838,-7.812,-15.137,-52.734,-8.301,0.000,0
159008.842,-0.488,-19.531,-80.566,-2.441,0.000,0
159008.846,-11.719,-19.531,11.230,-23.926,0.000,0
159008.849,0.488,-7.812,10.254,-3.418,0.000,0
159008.853,15.625,-4.395,-46.387,11.230,0.000,0
159008.857,4.395,-9.277,-38.086,4.883,0.000,0
159008.861,-8.301,-13.184,-33.691,2.930,0.000,0
159008.865,-17.090,-19.043,-11.230,-14.648,0.000,0
159008.869,-9.277,-14.648,-16.602,-9.766,0.000,0
159008.873,-5.859,-10.742,-32.715,-8.789,0.000,0
159008.877,-4.883,-0.488,-29.297,10.254,0.000,0
159008.881,-2.441,-1.465,-37.109,20.020,0.000,0
159008.885,-6.836,-10.742,-33.691,-13.184,0.000,0
159008.888,0.000,5.371,-24.414,2.930,0.000,0
159008.892,-8.789,8.301,0.977,12.695,0.000,0
159008.896,-10.254,-0.488,-18.066,-16.113,0.000,0
159008.900,4.883,4.395,-7.324,-5.859,0.000,0
159008.904,25.391,15.625,-23.926,17.090,0.000,0
159008.908,-2.441,9.766,-53.711,-21.973,0.000,0
159008.912,-29.297,14.160,-67.871,-37.598,0.000,0
159008.916,-16.602,29.297,-74.219,5.859,0.000,0
159008.920,-17.090,36.621,-62.988,1.953,0.000,0
159008.924,-11.230,43.945,-45.410,-24.414,0.000,0
159008.928,-8.301,50.781,-60.547,-5.859,0.000,0
159008.931,-15.137,58.105,-73.730,-6.348,0.000,0
159008.935,-24.414,61.523,-40.527,-6.348,0.000,0
159008.939,-20.020,61.523,-46.387,2.441,0.000,0
159008.943,-18.555,60.059,-62.012,-8.789,0.000,0
159008.947,-24.414,55.664,-39.551,-27.344,0.000,0
159008.951,-17.090,53.223,-32.227,-14.648,0.000,0
159008.955,-0.488,45.410,-38.574,-6.348,0.000,0
159008.959,-2.441,40.039,-37.598,-15.137,0.000,0
159008.963,-7.812,34.180,-38.086,-29.297,0.000,0
159008.967,-8.301,29.297,-16.113,-37.109,0.000,0
159008.971,-10.254,33.691,-12.207,-20.020,0.000,0
159008.974,-22.461,25.391,-31.738,-24.902,0.000,0
159008.978,-28.809,11.719,-44.434,-13.184,0.000,0
159008.982,-24.902,12.207,-1.465,-6.836,0.000,0
159008.986,-13.672,7.812,-2.441,-21.973,0.000,0
159008.990,-9.277,-4.395,-48.340,-15.137,0.000,0
159008.994,-7.812,-4.883,-41.992,-21.484,0.000,0
159008.998,-1.953,-1.465,-6.348,-23.438,0.000,0
159009.002,-1.465,-4.883,10.742,-21.973,0.000,0
159009.006,-1.953,-9.277,10.742,-23.926,0.000,0
159009.010,-1.953,-13.184,-0.488,-31.250,0.000,0
159009.013,-3.418,-18.555,-8.789,-16.602,0.000,0
159009.017,-5.371,-21.973,-18.066,4.883,0.000,0
159009.021,-20.508,-27.832,-4.883,-7.812,0.000,0
159009.025,-22.461,-26.855,17.578,-34.668,0.000,0
159009.029,-11.719,-20.508,-8.301,-9.277,0.000,0
159009.033,-1.465,-23.438,-24.414,8.789,0.000,0
159009.037,-1.953,-25.391,-7.324,-19.043,0.000,0
159009.041,-8.301,-26.855,10.254,-20.996,0.000,0
159009.045,-5.859,-25.391,16.113,-23.926,0.000,0
159009.049,-0.488,-23.926,0.488,-25.879,0.000,0
159009.053,2.441,-24.902,-25.879,-9.766,0.000,1
159009.056,-0.488,-28.809,-13.184,2.441,0.000,0
159009.060,-0.488,-27.832,-3.906,-16.602,0.000,0
159009.064,-0.977,-21.973,9.277,-28.809,0.000,0
159009.068,2.441,-19.531,15.137,-18.555,0.000,0
159009.072,-7.324,-27.832,22.949,-16.602,0.000,0
159009.076,-11.230,-37.598,-27.344,-9.766,0.000,0
159009.080,-10.742,-39.551,-34.668,-23.926,0.000,0
159009.084,-14.160,-38.086,12.695,-41.504,0.000,0
159009.088,-8.789,-32.715,-35.645,-24.902,0.000,0
159009.092,-5.371,-33.203,-65.918,-10.742,0.000,0
159009.096,-5.859,-34.180,-60.059,-13.184,0.000,0
159009.099,-13.184,-32.715,-20.020,-19.531,0.000,0
159009.103,-16.113,-32.227,38.086,-25.879,0.000,0
159009.107,-6.836,-27.832,-2.930,-21.484,0.000,0
159009.111,-2.441,-27.832,-55.176,-35.156,0.000,0
159009.115,-7.324,-31.250,-12.695,-4.883,0.000,0
159009.119,-16.602,-28.809,-1.953,9.766,0.000,0
159009.123,-17.578,-33.203,-12.207,-33.203,0.000,0
159009.127,-13.184,-28.809,-27.344,-23.438,0.000,0
159009.131,-17.578,-19.043,-29.785,3.906,0.000,0
159009.135,-8.789,-17.090,-29.785,3.418,0.000,0
159009.138,-2.441,-21.484,-27.344,0.488,0.000,0
159009.142,-7.324,-28.320,0.488,-18.555,0.000,0
159009.146,-5.371,-18.555,-15.137,-8.789,0.000,0
159009.150,-3.418,-14.648,-23.926,-3.418,0.000,0
159009.154,-6.348,-17.090,-26.367,-12.207,0.000,0
159009.158,-0.977,-13.184,-42.969,1.953,0.000,0
159009.162,-9.277,-13.184,-21.973,-20.020,0.000,0
159009.166,-15.625,-10.254,-21.973,-26.855,0.000,0
159009.170,-4.883,-12.207,-38.574,-1.953,0.000,0
159009.174,-6.348,-18.066,-31.738,7.324,0.000,0
159009.178,-20.996,-13.672,-21.973,5.859,0.000,0
159009.181,-9.766,-16.113,-5.371,-27.832,0.000,0
159009.185,-6.348,-17.578,-13.672,-34.180,0.000,0
159009.189,-14.160,-16.113,-49.805,-9.277,0.000,0
159009.193,-8.789,-13.672,-53.223,-0.488,0.000,0
159009.197,0.000,-9.277,-47.363,10.254,0.000,0
159009.201,-4.883,-11.719,-7.324,-22.949,0.000,0
159009.205,-8.301,-13.672,-5.371,-19.531,0.000,0
159009.209,-9.277,-16.113,-30.273,8.789,0.000,0
159009.213,-12.207,-15.625,-43.457,0.488,0.000,0
159009.217,-9.766,-13.184,-57.129,-5.371,0.000,0
159009.221,-19.531,-15.625,15.625,-38.086,0.000,0
159009.224,-19.531,-16.113,6.836,-27.344,0.000,0
159009.228,8.301,-17.578,-77.637,13.672,0.000,0
159009.232,20.508,-20.996,-67.871,31.738,0.000,0
159009.236,-10.254,-18.066,-17.090,5.371,0.000,0
159009.240,-33.691,-28.809,0.977,-42.480,0.000,0
159009.244,-25.879,-32.715,-37.109,-29.297,0.000,0
159009.248,-15.625,-25.879,-47.363,-12.207,0.000,0
159009.252,-14.160,-25.879,-18.066,-18.066,0.000,0
159009.256,-26.855,-24.414,-14.648,-13.672,0.000,0
159009.260,-20.996,-21.973,-38.574,-34.180,0.000,0
159009.263,-5.859,-22.461,-41.016,-35.645,0.000,0
159009.267,-14.160,-26.367,0.977,-2.930,0.000,0
159009.271,-8.301,-30.273,-32.715,-0.488,0.000,0
159009.275,-3.418,-19.531,-57.129,-6.348,0.000,0
159009.279,-18.066,-19.531,-28.809,-16.113,0.000,0
159009.283,-26.855,-23.438,-7.812,-39.062,0.000,0
159009.287,-18.555,-20.996,-7.812,-62.500,0.000,0
159009.291,-8.301,-18.066,-48.828,-35.645,0.000,0
159009.295,-17.578,-15.137,-57.617,-9.766,0.000,0
159009.299,-13.184,-15.137,-21.973,-21.973,0.000,0
159009.303,-5.859,-18.555,-9.277,-39.551,0.000,0
159009.306,-17.578,-13.184,-30.762,-11.230,0.000,0
159009.310,-29.785,-11.719,-32.227,0.488,0.000,0
159009.314,-23.438,-11.230,-33.203,-5.371,0.000,0
159009.318,-6.836,-12.207,-29.785,-2.441,0.000,0
159009.322,-8.301,-17.578,-20.508,-24.902,0.000,0
159009.326,-18.066,-20.508,-31.738,-23.926,0.000,0
159009.330,-4.883,-23.926,-37.109,-14.648,0.000,0
159009.334,2.441,-19.531,-47.363,3.418,0.000,0
159009.338,-1.465,-20.020,-29.785,-10.742,0.000,0
159009.342,-8.301,-19.043,-6.348,-22.461,0.000,0
159009.346,-0.488,-13.672,-46.875,0.000,0.000,0
159009.349,3.906,-18.555,-48.340,3.418,0.000,0
159009.353,-10.742,-21.484,-34.180,0.977,0.000,0
159009.357,-11.230,-22.949,3.906,-0.488,0.000,0
159009.361,-1.465,-20.996,-13.672,-17.090,0.000,0
159009.365,-0.977,-23.926,-44.922,-20.508,0.000,0
159009.369,-4.883,-27.832,-24.414,-4.883,0.000,0
159009.373,-5.371,-20.996,-47.363,9.766,0.000,0
159009.377,-6.348,-20.020,-47.363,-13.184,0.000,0
159009.381,-6.348,-17.090,-28.320,-39.062,0.000,0
159009.385,-9.277,-12.695,-43.945,-5.859,0.000,0
159009.388,1.465,-13.672,-7.812,-4.883,0.000,0
159009.392,3.418,-6.348,-52.734,6.348,0.000,0
159009.396,-8.301,-11.230,-56.641,11.719,0.000,0
159009.400,-7.324,-17.578,18.066,-20.508,0.000,0
159009.404,-5.859,-10.254,-13.184,-18.555,0.000,0
159009.408,0.488,-4.883,-76.172,2.441,0.000,0
159009.412,-3.906,-11.230,-82.520,4.883,0.000,0
159009.416,-12.207,-16.113,-18.555,-5.859,0.000,0
159009.420,-3.906,-17.090,4.395,-21.973,0.000,0
159009.424,-5.859,-16.602,-47.852,-7.812,0.000,0
159009.428,-14.648,-18.066,-48.828,7.324,0.000,0
159009.431,-7.812,-16.602,-30.273,3.418,0.000,0
159009.435,1.465,-20.020,-27.344,-8.789,0.000,0
159009.439,-7.324,-20.020,-9.766,-37.598,0.000,0
159009.443,-24.414,-12.695,-18.555,-22.461,0.000,0
159009.447,-23.438,-12.695,-18.066,4.883,0.000,0
159009.451,-8.301,-13.184,-44.922,0.977,0.000,0
159009.455,-7.324,-16.602,-53.223,-16.113,0.000,0
159009.459,-15.137,-13.672,-2.930,-41.504,0.000,0
159009.463,-15.137,-9.766,-27.344,-27.344,0.000,0
159009.467,-3.906,-16.602,-67.383,-21.484,0.000,0
159009.471,-1.465,-18.066,-64.453,-18.066,0.000,0
159009.474,-11.230,-16.113,-45.898,-9.277,0.000,0
159009.478,-18.555,-21.484,-10.254,-34.668,0.000,0
159009.482,-9.766,-18.555,-25.879,-22.949,0.000,0
159009.486,-5.371,-21.484,-46.875,3.418,0.000,0
159009.490,-18.555,-18.555,-20.996,0.977,0.000,0
159009.494,-25.391,-12.695,-9.277,-9.766,0.000,0
159009.498,-6.836,-9.277,-38.086,-31.738,0.000,0
159009.502,0.488,-6.836,-45.898,-23.438,0.000,0
159009.506,-9.277,-12.207,-14.648,-10.254,0.000,0
159009.510,-14.160,-12.207,-29.297,-4.395,0.000,0
159009.513,-15.137,-12.695,-59.082,-1.953,0.000,0
159009.517,-21.484,-13.672,-2.930,-27.344,0.000,0
159009.521,-23.926,-7.324,-4.883,-18.555,0.000,0
159009.525,-15.137,-5.859,-53.223,2.441,0.000,0
159009.529,-16.602,-6.348,-55.176,-10.254,0.000,0
159009.533,-19.043,-4.883,-35.645,-15.137,0.000,0
159009.537,-9.766,-0.977,-11.719,-20.996,0.000,0
159009.541,-3.906,-3.418,-9.766,-30.273,0.000,0
159009.545,-2.441,-2.441,-51.758,-19.043,0.000,0
159009.549,-3.418,2.930,-48.340,1.465,0.000,0
159009.553,-16.113,-2.441,6.836,4.883,0.000,0
159009.556,-12.207,-11.719,2.441,-22.949,0.000,0
159009.560,-16.602,-12.695,-36.133,-26.855,0.000,0
159009.564,-24.902,-10.254,-44.434,-15.625,0.000,0
159009.568,-15.625,-9.277,-27.344,-14.160,0.000,0
159009.572,-17.578,-11.719,-28.320,-2.930,0.000,0
159009.576,-7.812,-12.695,-10.742,-21.484,0.000,0
159009.580,-4.883,-7.324,-6.348,-25.391,0.000,0
159009.584,-19.531,-12.207,-14.160,-5.371,0.000,0
159009.588,-17.578,-10.742,-40.527,1.953,0.000,0
159009.592,-11.719,-8.789,-54.688,-4.883,0.000,0
159009.596,-23.438,-18.555,6.836,-32.715,0.000,0
159009.599,-23.926,-7.324,-10.254,-24.902,0.000,1
159009.603,-13.184,-3.418,-55.176,-12.207,0.000,0
159009.607,-20.996,-10.254,-37.598,-20.508,0.000,0
159009.611,-20.508,-11.719,-38.086,-3.418,0.000,0
159009.615,-2.930,-13.184,-38.574,-18.066,0.000,0
159009.619,2.930,-4.883,-20.508,-25.391,0.000,0
159009.623,-12.695,-6.836,-30.762,1.465,0.000,0
159009.627,-20.996,-11.719,-44.922,5.371,0.000,0
159009.631,-20.996,-11.719,-42.969,-4.883,0.000,0
159009.635,-21.973,-12.695,-22.949,-7.324,0.000,0
159009.638,-22.461,-14.648,-4.395,-2.441,0.000,0
159009.642,-21.484,-8.301,0.000,-11.230,0.000,0
159009.646,-18.066,-8.789,-33.203,-26.367,0.000,0
159009.650,-11.719,-12.695,-48.340,-10.742,0.000,0
159009.654,-1.953,-10.742,-23.438,-12.695,0.000,0
159009.658,-10.254,-17.090,-20.996,-22.949,0.000,0
159009.662,-9.766,-17.090,-46.875,-0.488,0.000,0
159009.666,-6.348,-14.648,-44.922,7.812,0.000,0
159009.670,-6.348,-10.742,-21.973,6.836,0.000,0
159009.674,-1.953,-6.348,-12.207,9.277,0.000,0
159009.678,-10.254,-10.254,-16.602,-21.973,0.000,0
159009.681,-10.742,-10.742,-23.926,-24.414,0.000,0
159009.685,-1.953,-4.883,-1.465,-6.348,0.000,0
159009.689,-5.859,-5.371,-21.973,8.789,0.000,0
159009.693,-4.395,-13.672,-52.246,5.371,0.000,0
159009.697,-7.324,-13.672,-6.348,-34.180,0.000,0
159009.701,-12.207,-13.672,0.488,-40.527,0.000,0
159009.705,-4.395,-12.695,-62.988,2.441,0.000,0
159009.709,-6.836,-14.160,-78.613,1.465,0.000,0
159009.713,-16.113,-19.043,-47.363,-15.137,0.000,0
159009.717,-17.578,-17.090,-9.277,-30.762,0.000,0
159009.721,-14.648,-15.137,-13.184,-29.785,0.000,0
159009.724,-24.902,-16.602,-23.438,-18.555,0.000,0
159009.728,-29.297,-15.137,-54.199,-8.301,0.000,0
159009.732,-22.949,-9.277,-19.531,-14.160,0.000,0
159009.736,-12.207,-11.719,-9.766,-33.691,0.000,0
159009.740,-6.836,-13.184,-56.641,-26.855,0.000,0
159009.744,-10.254,-12.695,-54.199,-28.809,0.000,0
159009.748,-3.418,-7.812,-46.387,-20.996,0.000,0
159009.752,-2.441,-12.695,-37.598,-13.672,0.000,0
159009.756,-11.230,-15.137,-11.230,-27.832,0.000,0
159009.760,-11.230,-11.230,-26.367,-18.555,0.000,0
159009.763,-0.977,-8.789,-52.246,0.000,0.000,0
159009.767,-8.789,-4.395,-51.758,12.207,0.000,0
159009.771,-16.113,-9.766,-16.113,-1.953,0.000,0
159009.775,-18.066,-13.184,11.230,-24.902,0.000,0
159009.779,-20.996,-14.160,-37.598,-13.672,0.000,0
159009.783,-13.672,-10.254,-55.664,-2.441,0.000,0
159009.787,-12.695,-8.301,-30.762,-4.883,0.000,0
159009.791,-20.020,-13.184,-8.789,-8.789,0.000,0
159009.795,-19.043,-10.254,0.977,-35.156,0.000,0
159009.799,-10.254,-8.789,-15.137,-32.227,0.000,0
159009.803,-3.418,-8.301,8.301,-23.438,0.000,0
159009.806,-16.113,-8.789,-23.438,-10.254,0.000,0
159009.810,-15.625,-9.766,-51.758,-6.348,0.000,0
159009.814,2.930,-6.836,-4.395,-29.785,0.000,0
159009.818,-2.930,-2.441,-0.977,-17.578,0.000,0
159009.822,-10.254,-9.766,-13.672,-14.648,0.000,0
159009.826,-9.277,-8.301,-40.527,-36.621,0.000,0
159009.830,-7.324,-5.859,-53.711,-15.137,0.000,0
159009.834,-11.230,-13.184,0.000,-30.762,0.000,0
159009.838,-5.859,-6.836,-1.953,-28.809,0.000,0
159009.842,5.371,-3.418,-44.922,-5.371,0.000,0
159009.846,-4.883,-6.836,-51.270,-10.254,0.000,0
159009.849,-15.137,-9.766,-32.227,-18.555,0.000,0
159009.853,-15.625,-11.230,3.906,-34.180,0.000,0
159009.857,-11.230,-5.859,-14.648,-29.785,0.000,0
159009.861,-13.184,-4.883,-31.250,-26.855,0.000,0
159009.865,-21.973,-4.883,-20.020,-6.836,0.000,0
159009.869,-15.625,-7.812,-31.738,3.906,0.000,0
159009.873,-5.859,-9.766,-7.324,-26.367,0.000,0
159009.877,-15.137,-6.836,-11.230,-24.902,0.000,0
159009.881,-20.020,-11.719,-42.480,1.953,0.000,0
159009.885,-19.531,-13.184,-42.969,-10.254,0.000,0
159009.888,-7.324,-10.254,-39.551,-16.113,0.000,0
159009.892,-9.766,-16.113,-8.301,-35.156,0.000,0
159009.896,-20.020,-14.648,-19.043,-45.410,0.000,0
159009.900,-16.113,-18.555,-2.930,-28.320,0.000,0
159009.904,-13.184,-16.113,1.953,-2.930,0.000,0
159009.908,-19.043,-12.207,-28.809,5.371,0.000,0
159009.912,-20.996,-16.602,-27.344,-20.996,0.000,0
159009.916,-4.883,-13.184,-80.078,-20.996,0.000,0
159009.920,-24.902,-20.020,-64.453,-31.250,0.000,0
159009.924,-35.645,-18.066,-3.418,-23.926,0.000,0
159009.928,-9.766,-18.066,-11.230,-32.715,0.000,0
159009.931,-6.836,-20.996,-12.207,-46.387,0.000,0
159009.935,-10.742,-18.555,-19.043,-11.719,0.000,0
159009.939,-4.883,-17.090,-47.363,7.324,0.000,0
159009.943,-1.953,-14.160,-55.176,-9.766,0.000,0
159009.947,-0.977,-15.137,-22.949,-21.484,0.000,0
159009.951,-9.766,-15.137,-13.672,-14.160,0.000,0
159009.955,-14.160,-9.766,-39.062,-10.742,0.000,0
159009.959,-24.902,-9.277,-42.480,-17.090,0.000,0
159009.963,-12.695,-9.277,-52.734,-20.996,0.000,0
159009.967,-9.277,-11.719,-11.719,-31.250,0.000,0
159009.971,-17.090,-6.836,7.812,-44.434,0.000,0
159009.974,-9.277,-7.812,-43.945,-22.949,0.000,0
159009.978,-5.859,-11.719,-42.969,0.000,0.000,0
159009.982,-10.742,-13.184,-22.949,3.418,0.000,0
159009.986,-13.184,-10.742,-13.672,-7.324,0.000,0
159009.990,-12.695,-11.230,-15.625,-26.855,0.000,0
159009.994,-17.090,-20.508,-43.945,-26.855,0.000,0
159009.998,-21.973,-18.066,-33.203,-31.738,0.000,0
159010.002,-9.766,-10.254,-18.555,-32.227,0.000,0
159010.006,-13.672,-12.695,-33.203,-13.184,0.000,0
159010.010,-24.414,-14.160,-33.691,-10.742,0.000,0
159010.013,-26.367,-9.277,-13.672,-3.418,0.000,0
159010.017,-9.766,-2.930,-40.527,10.742,0.000,0
159010.021,-0.488,-4.395,-57.617,9.766,0.000,0
159010.025,-5.371,-5.371,-29.785,-0.977,0.000,0
159010.029,-3.906,2.441,-13.672,-17.090,0.000,0
159010.033,-2.930,-0.488,-32.227,-15.625,0.000,0
159010.037,-15.137,-8.789,-41.504,-14.648,0.000,0
159010.041,-14.160,-4.883,-54.688,-4.883,0.000,0
159010.045,-6.836,-2.441,-44.922,2.441,0.000,0
159010.049,-4.395,-9.277,-18.066,-13.184,0.000,0
159010.053,-14.160,-13.184,-41.992,-0.488,0.000,0
159010.056,-27.344,-15.137,-46.875,1.465,0.000,0
159010.060,-28.809,-18.066,-48.340,-15.137,0.000,0
159010.064,-14.160,-18.066,-48.828,-17.578,0.000,0
159010.068,-4.395,-12.207,-19.043,-28.320,0.000,0
159010.072,-20.020,-6.836,-24.902,-26.367,0.000,0
159010.076,-16.602,-6.348,-46.875,-13.672,0.000,0
159010.080,-4.395,-3.418,-50.293,-9.277,0.000,0
159010.084,-23.438,-5.371,-24.414,-12.695,0.000,0
159010.088,-21.484,-11.230,-2.930,-14.160,0.000,0
159010.092,-11.719,-19.043,-52.246,-1.953,0.000,0
159010.096,-10.254,-20.996,-57.129,-6.348,0.000,0
159010.099,-12.695,-15.137,-22.949,-7.324,0.000,0
159010.103,-15.137,-10.742,1.953,-4.395,0.000,0
159010.107,-14.160,-12.207,-11.230,-30.762,0.000,0
159010.111,-10.254,-11.230,-41.504,-34.180,0.000,0
159010.115,-6.348,-8.789,-40.527,-7.324,0.000,0
159010.119,-3.418,-10.254,-42.480,13.184,0.000,0
159010.123,-3.418,-11.719,-27.344,-15.625,0.000,0
159010.127,-9.277,-7.812,-6.836,-36.621,0.000,0
159010.131,-2.441,-12.695,-24.902,-14.648,0.000,0
159010.135,-6.836,-17.090,-25.391,-13.672,0.000,0
159010.138,-9.277,-13.184,-40.039,-5.371,0.000,0
159010.142,0.000,-18.066,-14.160,-9.766,0.000,0
159010.146,3.418,-17.090,28.809,-18.555,0.000,0
159010.150,3.906,-11.230,-14.160,5.371,0.000,0
159010.154,5.371,-10.254,-63.477,0.488,0.000,0
159010.158,-3.906,-13.672,-37.109,-6.348,0.000,1
159010.162,-8.301,-18.066,32.715,-0.977,0.000,0
159010.166,0.000,-16.113,18.066,-13.184,0.000,0
159010.170,0.000,-8.789,-43.945,-28.320,0.000,0
159010.174,-9.766,-10.254,-33.203,-23.926,0.000,0
159010.178,-11.230,-10.254,-16.602,0.488,0.000,0
159010.181,-1.953,-11.719,-9.766,-11.230,0.000,0
159010.185,-1.465,-9.277,2.930,-27.344,0.000,0
159010.189,-9.766,-6.836,-35.645,-6.348,0.000,0
159010.193,-18.555,-16.602,-38.574,9.766,0.000,0
159010.197,-11.719,-18.066,-45.410,7.812,0.000,0
159010.201,8.301,-13.184,-45.410,-8.301,0.000,0
159010.205,-4.395,-14.648,18.555,-30.273,0.000,0
159010.209,-16.602,-14.648,-2.441,-25.391,0.000,0
159010.213,-4.883,-15.625,-47.363,-8.789,0.000,0
159010.217,-7.324,-10.254,-40.527,13.672,0.000,0
159010.221,-15.625,-12.207,-22.949,3.418,0.000,0
159010.224,-16.113,-11.719,-7.324,-10.742,0.000,0
159010.228,-8.301,-0.488,-34.668,-1.465,0.000,0
159010.232,-0.488,-4.395,-46.387,-1.953,0.000,0
159010.236,-20.996,-14.648,-22.949,0.488,0.000,0
159010.240,-41.504,-14.648,-25.879,-7.812,0.000,0
159010.244,-19.043,-13.184,-27.832,-20.508,0.000,0
159010.248,-8.789,-12.695,-16.602,-26.855,0.000,0
159010.252,-24.414,-11.719,-4.395,-16.113,0.000,0
159010.256,-15.137,-9.766,-48.828,-2.930,0.000,0
159010.260,-9.277,-9.277,-48.340,-12.695,0.000,0
159010.263,-18.066,-12.207,-9.277,-20.020,0.000,0
159010.267,-20.508,-9.766,-33.691,-7.324,0.000,0
159010.271,-15.625,-4.883,-50.781,-18.555,0.000,0
159010.275,-16.113,-5.371,-37.598,-14.160,0.000,0
159010.279,-13.184,-9.277,-17.090,-6.348,0.000,0
159010.283,-2.930,-8.789,-1.465,-26.855,0.000,0
159010.287,-6.348,-8.301,-20.996,-21.973,0.000,0
159010.291,-3.906,-11.230,-48.340,-3.418,0.000,0
159010.295,-5.859,-11.719,-28.809,-3.906,0.000,0
159010.299,-8.789,-8.301,-17.578,5.371,0.000,0
159010.303,-1.465,-8.301,-33.203,-5.859,0.000,0
159010.306,-3.418,-8.301,-11.230,-35.645,0.000,0
159010.310,-3.418,-6.348,-22.949,-36.621,0.000,0
159010.314,-3.906,-7.812,-58.105,-6.836,0.000,0
159010.318,-9.766,-13.184,-60.547,15.137,0.000,0
159010.322,-14.160,-17.090,-41.504,-17.090,0.000,0
159010.326,-10.254,-13.184,-14.160,-16.602,0.000,0
159010.330,-5.371,-9.766,-18.066,7.812,0.000,0
159010.334,-11.719,-10.742,-34.180,-4.395,0.000,0
159010.338,-15.137,-10.742,-43.457,-10.254,0.000,0
159010.342,-20.996,-9.277,-11.230,-22.949,0.000,0
159010.346,-15.137,-2.930,-29.297,-25.391,0.000,0
159010.349,-9.277,-1.953,-69.336,-20.020,0.000,0
159010.353,-20.508,-10.254,-45.898,-12.207,0.000,0
159010.357,-13.184,-8.789,-34.180,-7.812,0.000,0
159010.361,-1.953,-7.812,-24.414,-24.902,0.000,0
159010.365,1.465,-8.301,-23.926,0.977,0.000,0
159010.369,-5.371,-8.789,-32.715,13.184,0.000,0
159010.373,0.977,-7.812,-35.645,-8.789,0.000,0
159010.377,14.648,0.977,-30.273,-2.930,0.000,0
159010.381,-0.488,-3.418,-5.859,-17.578,0.000,0
159010.385,-11.230,-4.395,16.113,-37.109,0.000,0
159010.388,-16.602,-0.488,0.488,-23.926,0.000,0
