timestamps,TP9,AF7,AF8,TP10,Right AUX,Marker0
159393.471,-15.137,9.277,7.812,7.324,0.000,0
159393.474,-15.625,2.930,7.812,-7.324,0.000,0
159393.478,-15.625,-4.395,6.348,-14.648,0.000,0
159393.482,-15.137,-1.953,5.859,-14.160,0.000,0
159393.486,-18.555,2.441,3.906,-7.324,0.000,0
159393.490,-16.113,3.418,0.488,3.906,0.000,0
159393.494,-12.695,0.000,2.930,-3.418,0.000,0
159393.498,-18.066,-4.395,8.301,-18.066,0.000,0
159393.502,-12.695,-10.742,-15.137,0.488,0.000,0
159393.506,3.906,-11.230,-27.344,2.930,0.000,0
159393.510,-12.695,-8.301,-11.230,-16.602,0.000,0
159393.513,-10.742,-10.742,8.301,-19.043,0.000,0
159393.517,7.324,-5.371,12.207,-15.137,0.000,0
159393.521,-2.930,-5.371,1.465,-7.324,0.000,0
159393.525,-14.160,-10.742,2.441,-10.742,0.000,0
159393.529,-14.648,-7.812,0.977,-11.230,0.000,0
159393.533,-12.695,-10.742,-11.719,-5.371,0.000,0
159393.537,-18.555,-6.836,-7.324,-14.160,0.000,0
159393.541,-12.695,-1.465,-9.766,-7.324,0.000,0
159393.545,-9.277,-9.766,-6.836,0.488,0.000,0
159393.549,-17.090,-9.766,-13.184,-8.789,0.000,0
159393.553,-16.113,-12.695,-11.230,-10.254,0.000,0
159393.556,-8.301,-15.137,-4.395,-9.277,0.000,0
159393.560,-4.395,-7.324,-4.883,-0.488,0.000,0
159393.564,2.930,-8.789,-20.020,15.137,0.000,0
159393.568,13.184,-8.301,-28.320,11.230,0.000,0
159393.572,9.277,-2.930,-1.465,4.883,0.000,0
159393.576,8.301,-7.812,18.066,-11.719,0.000,0
159393.580,7.812,-14.648,-1.465,-12.207,0.000,0
159393.584,4.883,-9.766,-3.906,-9.277,0.000,0
159393.588,-3.906,-8.301,-2.930,-14.648,0.000,0
159393.592,-10.254,-11.719,-14.648,-7.324,0.000,0
159393.596,1.465,-14.160,-9.277,-18.066,0.000,0
159393.599,1.953,-13.672,-16.602,-14.160,0.000,0
159393.603,-11.230,-12.695,-21.973,0.488,0.000,0
159393.607,-10.742,-12.695,-20.996,-5.859,0.000,0
159393.611,-9.277,-16.113,-20.020,-15.137,0.000,0
159393.615,-11.230,-13.672,-4.883,-16.113,0.000,0
159393.619,-18.066,-5.859,-13.672,-16.602,0.000,0
159393.623,-35.156,-8.301,-21.484,-20.996,0.000,0
159393.627,-24.902,-12.207,-22.949,-15.137,0.000,0
159393.631,-18.555,-16.602,-27.832,-14.648,0.000,0
159393.635,-37.109,-20.996,-6.836,-33.691,0.000,0
159393.638,-28.320,-21.484,-27.832,-38.574,0.000,0
159393.642,-19.043,-15.625,-46.875,-15.625,0.000,0
159393.646,-23.438,-15.625,-40.527,-12.207,0.000,0
159393.650,-27.832,-21.973,-31.250,-25.391,0.000,0
159393.654,-29.297,-15.137,-24.414,-27.344,0.000,0
159393.658,-19.531,-14.648,-41.992,-28.320,0.000,0
159393.662,-19.043,-20.996,-35.156,-29.297,0.000,0
159393.666,-14.648,-19.531,-36.621,-14.160,0.000,0
159393.670,-9.277,-20.508,-27.344,-25.391,0.000,0
159393.674,-24.902,-19.531,-4.883,-36.621,0.000,0
159393.678,-39.062,-19.531,-20.996,0.488,0.000,0
159393.681,-33.203,-22.949,-29.297,-0.977,0.000,0
159393.685,-27.832,-14.648,-34.668,-27.344,0.000,0
159393.689,-30.273,-15.137,-16.113,-32.227,0.000,0
159393.693,-42.969,-26.367,1.465,-41.504,0.000,0
159393.697,-38.574,-21.484,-26.855,-30.762,0.000,0
159393.701,-25.391,-20.508,-31.738,-20.508,0.000,0
159393.705,-16.113,-22.949,-18.555,-12.695,0.000,0
159393.709,-14.160,-16.113,-11.719,-17.090,0.000,0
159393.713,-20.508,-23.438,-23.438,-23.438,0.000,0
159393.717,-19.531,-29.785,-36.621,-6.348,0.000,0
159393.721,-16.113,-22.461,-19.043,-7.812,0.000,0
159393.724,-23.438,-22.949,-3.906,-18.066,0.000,0
159393.728,-22.461,-27.832,-24.414,-15.625,0.000,0
159393.732,-15.625,-31.738,-30.273,-21.973,0.000,0
159393.736,-20.996,-27.344,-5.859,-33.203,0.000,0
159393.740,-24.902,-23.438,-10.742,-29.785,0.000,0
159393.744,-26.367,-27.344,-27.832,-24.414,0.000,0
159393.748,-28.320,-29.785,-25.391,-19.043,0.000,0
159393.752,-32.715,-28.809,-2.441,-36.621,0.000,0
159393.756,-25.391,-28.320,-10.742,-36.621,0.000,0
159393.760,-16.602,-28.320,-45.898,-19.043,0.000,0
159393.763,-18.066,-29.297,-37.598,-16.602,0.000,0
159393.767,-23.438,-28.809,-22.949,-10.254,0.000,0
159393.771,-24.902,-27.832,-8.301,-16.113,0.000,0
159393.775,-35.645,-25.879,-12.695,-21.484,0.000,0
159393.779,-39.062,-29.297,-27.832,-12.207,0.000,0
159393.783,-31.250,-33.203,-21.973,-13.672,0.000,0
159393.787,-31.738,-29.785,-26.855,-32.227,0.000,0
159393.791,-33.691,-24.414,-22.461,-45.898,0.000,0
159393.795,-37.598,-25.391,-26.855,-36.133,0.000,0
159393.799,-36.133,-30.762,-41.016,-23.926,0.000,0
159393.803,-22.949,-26.855,-37.109,-24.414,0.000,0
159393.806,-35.156,-20.996,-37.109,-21.484,0.000,0
159393.810,-40.039,-20.996,-25.879,-31.250,0.000,0
159393.814,-21.484,-24.902,-29.297,-26.855,0.000,0
159393.818,-9.766,-25.391,-36.133,-7.324,0.000,0
159393.822,-5.371,-24.414,-37.598,-10.742,0.000,0
159393.826,-9.277,-27.344,-25.879,-24.414,0.000,0
159393.830,-3.906,-21.484,-13.184,-30.762,0.000,0
159393.834,5.859,-17.578,-30.762,-20.996,0.000,0
159393.838,-3.906,-26.855,-28.809,-15.137,0.000,0
159393.842,-9.766,-26.855,-30.762,-13.672,0.000,0
159393.846,-4.395,-20.508,-39.062,-17.090,0.000,0
159393.849,-6.348,-27.344,-31.738,-28.320,0.000,0
159393.853,-13.672,-26.367,-20.996,-29.785,0.000,0
159393.857,-16.113,-24.902,-26.367,-32.227,0.000,0
159393.861,-17.578,-23.926,-39.062,-15.137,0.000,0
159393.865,-23.438,-23.438,-37.598,-14.648,0.000,0
159393.869,-16.113,-25.879,-24.902,-28.320,0.000,0
159393.873,-12.207,-22.461,-4.883,-23.438,0.000,0
159393.877,-2.930,-12.207,-17.090,-24.414,0.000,0
159393.881,-9.766,-12.695,-37.598,-19.043,0.000,0
159393.885,-26.855,-18.066,-32.715,-7.324,0.000,0
159393.888,-14.648,-18.066,-11.230,-20.996,0.000,0
159393.892,-8.789,-15.137,-16.113,-23.438,0.000,0
159393.896,-9.277,-10.742,-32.227,-10.742,0.000,0
159393.900,-12.207,-11.719,-20.996,-4.883,0.000,0
159393.904,-19.043,-15.137,-23.438,-21.484,0.000,0
159393.908,-18.555,-9.766,-18.066,-45.898,0.000,0
159393.912,-18.066,-6.348,-10.742,-45.410,0.000,0
159393.916,-23.926,-12.207,-21.973,-30.273,0.000,0
159393.920,-19.531,-15.625,-34.668,-21.484,0.000,0
159393.924,-20.508,-14.648,-41.992,-22.461,0.000,0
159393.928,-26.855,-15.137,-16.113,-45.410,0.000,0
159393.931,-22.461,-14.160,-15.625,-50.781,0.000,0
159393.935,-20.020,-15.137,-34.180,-24.902,0.000,0
159393.939,-20.020,-13.184,-29.785,-26.855,0.000,0
159393.943,-25.391,-5.371,-32.715,-29.297,0.000,0
159393.947,-27.344,-8.301,-24.902,-32.715,0.000,0
159393.951,-29.785,-12.207,-20.508,-40.527,0.000,0
159393.955,-29.785,-8.301,-32.227,-31.738,0.000,0
159393.959,-30.273,-3.418,-26.367,-26.855,0.000,0
159393.963,-19.531,0.488,-21.484,-15.137,0.000,0
159393.967,-5.859,-5.859,-22.949,-18.555,0.000,0
159393.971,-16.113,-13.184,-16.602,-31.738,0.000,0
159393.974,-27.344,-8.789,-17.578,-26.855,0.000,0
159393.978,-22.461,-4.883,-23.438,-22.949,0.000,0
159393.982,-25.391,-11.719,-38.086,-12.695,0.000,0
159393.986,-30.762,-14.160,-30.273,-15.137,0.000,0
159393.990,-28.809,-13.672,-11.230,-36.133,0.000,0
159393.994,-20.996,-15.625,-26.855,-24.902,0.000,0
159393.998,-8.789,-21.484,-43.945,-0.488,0.000,0
159394.002,-12.207,-17.578,-34.180,0.977,0.000,0
159394.006,-24.414,-21.973,-12.695,-17.090,0.000,0
159394.010,-41.016,-34.668,-23.438,-50.293,0.000,0
159394.013,-51.758,-27.832,-43.945,-60.059,0.000,0
159394.017,-47.852,-29.297,-42.480,-49.316,0.000,0
159394.021,-40.039,-35.645,-34.668,-41.992,0.000,0
159394.025,-39.551,-34.668,-22.461,-41.016,0.000,0
159394.029,-37.109,-32.227,-19.531,-36.621,0.000,0
159394.033,-30.762,-36.621,-37.109,-19.531,0.000,0
159394.037,-22.949,-38.086,-38.574,-11.719,0.000,0
159394.041,-22.949,-29.785,-32.227,-21.484,0.000,0
159394.045,-28.809,-24.902,-32.715,-30.762,0.000,0
159394.049,-26.367,-27.344,-26.855,-30.762,0.000,0
159394.053,-21.973,-32.227,-26.367,-36.133,0.000,0
159394.056,-18.555,-33.203,-44.922,-34.668,0.000,0
159394.060,-21.484,-31.738,-57.617,-26.855,0.000,0
159394.064,-31.250,-35.156,-39.551,-30.273,0.000,0
159394.068,-29.785,-31.738,-26.367,-24.414,0.000,0
159394.072,-25.391,-25.879,-40.527,-10.254,0.000,0
159394.076,-26.367,-26.367,-42.969,-16.602,0.000,0
159394.080,-31.250,-25.391,-29.297,-23.926,0.000,0
159394.084,-27.344,-25.391,-32.715,-12.695,0.000,0
159394.088,-20.020,-25.879,-32.227,-31.250,0.000,0
159394.092,-30.762,-28.320,-33.203,-38.086,0.000,0
159394.096,-30.273,-30.762,-47.852,-13.672,0.000,0
159394.099,-39.551,-29.785,-52.734,-22.461,0.000,0
159394.103,-41.504,-26.367,-56.152,-41.016,0.000,0
159394.107,-34.180,-30.762,-47.852,-41.504,0.000,0
159394.111,-38.574,-31.250,-23.926,-36.621,0.000,0
159394.115,-30.762,-30.762,-26.855,-32.715,0.000,0
159394.119,-15.625,-32.227,-42.969,-27.344,0.000,0
159394.123,-18.066,-22.461,-26.367,-11.719,0.000,0
159394.127,-25.391,-20.996,-16.113,-19.043,0.000,0
159394.131,-15.137,-22.949,-34.180,-21.484,0.000,0
159394.135,-3.906,-20.996,-54.199,-11.230,0.000,0
159394.138,-6.836,-22.949,-40.527,-13.184,0.000,0
159394.142,-14.160,-19.531,-20.020,-12.207,0.000,0
159394.146,-24.414,-18.066,-19.531,-17.090,0.000,0
159394.150,-29.785,-22.949,-29.297,-33.691,0.000,0
159394.154,-23.926,-19.043,-22.949,-27.832,0.000,0
159394.158,-21.973,-20.020,-30.762,-7.324,0.000,0
159394.162,-25.879,-24.902,-41.504,-10.742,0.000,0
159394.166,-29.785,-24.414,-19.531,-34.180,0.000,0
159394.170,-22.461,-22.461,-30.273,-28.809,0.000,0
159394.174,-25.391,-23.438,-41.992,-22.461,0.000,0
159394.178,-19.531,-21.484,-33.691,-14.160,0.000,0
159394.181,-12.695,-25.391,-25.879,-9.277,0.000,0
159394.185,-23.926,-25.391,-13.672,-27.344,0.000,0
159394.189,-20.020,-22.949,-20.508,-24.414,0.000,0
159394.193,-21.484,-24.902,-29.785,-17.578,0.000,0
159394.197,-26.855,-24.902,-39.551,-13.184,0.000,0
159394.201,-24.414,-26.855,-25.391,-19.043,0.000,0
159394.205,-13.672,-26.855,-24.414,-26.855,0.000,0
159394.209,-6.836,-20.508,-46.387,-4.883,0.000,0
159394.213,1.953,-18.066,-51.758,10.254,0.000,0
159394.217,-8.301,-20.996,-36.133,-11.230,0.000,0
159394.221,-25.391,-16.113,-16.602,-32.715,0.000,0
159394.224,-27.344,-19.043,-13.184,-37.598,0.000,0
159394.228,-28.320,-17.578,-25.879,-28.320,0.000,0
159394.232,-29.785,-17.578,-31.250,-11.230,0.000,0
159394.236,-32.715,-21.484,-37.109,-9.277,0.000,0
159394.240,-37.109,-18.066,-27.832,-21.973,0.000,0
159394.244,-44.434,-19.043,-10.254,-42.969,0.000,0
159394.248,-22.949,-23.438,-30.273,-43.945,0.000,0
159394.252,-8.301,-19.531,-36.621,-24.414,0.000,0
159394.256,-13.184,-15.625,-18.555,-8.301,0.000,0
159394.260,-20.508,-17.578,-13.184,-1.465,0.000,0
159394.263,-32.227,-22.949,-15.625,-19.531,0.000,0
159394.267,-33.691,-24.414,-14.160,-35.645,0.000,0
159394.271,-28.809,-20.020,-8.301,-28.809,0.000,0
159394.275,-33.691,-22.461,-21.973,-11.719,0.000,0
159394.279,-33.691,-30.762,-28.320,-20.020,0.000,0
159394.283,-24.902,-29.785,-10.742,-39.551,0.000,0
159394.287,-24.902,-27.344,-6.348,-39.551,0.000,0
159394.291,-35.645,-26.855,-2.930,-40.039,0.000,0
159394.295,-28.809,-27.344,-14.648,-31.250,0.000,0
159394.299,-16.113,-27.344,-22.949,-18.555,0.000,0
159394.303,-28.809,-34.668,0.488,-42.480,0.000,0
159394.306,-26.855,-30.273,-3.906,-32.715,0.000,0
159394.310,-11.719,-29.297,-20.508,-16.602,0.000,0
159394.314,-15.625,-33.691,-24.902,-26.855,0.000,0
159394.318,-17.578,-31.250,-16.113,-19.043,0.000,0
159394.322,-11.230,-30.762,0.000,-22.461,0.000,0
159394.326,-20.020,-31.738,-17.578,-32.227,0.000,0
159394.330,-31.250,-31.738,-40.527,-35.156,0.000,0
159394.334,-39.062,-33.203,-28.809,-19.043,0.000,0
159394.338,-27.344,-32.715,-25.391,-8.301,0.000,0
159394.342,-15.137,-31.738,-25.391,-24.414,0.000,0
159394.346,-22.461,-33.691,-34.668,-24.902,0.000,0
159394.349,-27.344,-35.645,-33.203,-19.043,0.000,0
159394.353,-28.320,-31.738,-24.414,-26.855,0.000,0
159394.357,-14.648,-29.785,-21.973,-1.465,0.000,0
159394.361,-14.160,-29.785,-7.812,-12.207,0.000,0
159394.365,-18.066,-23.438,-14.160,-36.621,0.000,0
159394.369,-7.812,-24.902,-20.020,-28.320,0.000,0
159394.373,-11.230,-27.832,-19.043,-32.715,0.000,0
159394.377,-15.137,-29.297,-43.945,-27.832,0.000,0
159394.381,-19.531,-27.344,-30.273,-25.391,0.000,0
159394.385,-23.926,-24.902,-20.020,-18.555,0.000,0
159394.388,-20.508,-26.855,-36.621,-16.602,0.000,0
159394.392,-21.973,-25.391,-24.902,-10.742,0.000,0
159394.396,-21.973,-29.785,-20.020,-17.090,0.000,0
159394.400,-23.926,-33.691,-31.250,-41.504,0.000,0
159394.404,-23.438,-27.344,-24.902,-41.016,0.000,0
159394.408,-22.461,-28.320,-32.715,-20.020,0.000,0
159394.412,-23.438,-29.297,-44.434,-21.484,0.000,0
159394.416,-17.578,-23.438,-34.180,-25.879,0.000,0
159394.420,-14.160,-23.926,-23.926,-22.949,0.000,0
159394.424,-5.859,-25.391,-30.762,-24.414,0.000,0
159394.428,-14.648,-24.414,-35.156,-26.855,0.000,0
159394.431,-27.344,-23.438,-41.992,-29.785,0.000,0
159394.435,-19.043,-24.414,-33.203,-20.996,0.000,0
159394.439,-20.996,-25.879,-6.348,-20.020,0.000,0
159394.443,-25.391,-23.926,-25.391,-30.273,0.000,0
159394.447,-18.066,-17.090,-48.828,-32.715,0.000,0
159394.451,-22.461,-18.066,-33.691,-29.785,0.000,0
159394.455,-32.715,-18.555,-18.066,-25.391,0.000,0
159394.459,-17.578,-20.508,-17.090,-20.996,0.000,0
159394.463,-10.254,-20.996,-20.020,-31.250,0.000,0
159394.467,-16.602,-14.648,-18.066,-35.156,0.000,0
159394.471,-19.043,-15.137,-13.672,-29.785,0.000,0
159394.474,-22.949,-17.578,-23.438,-18.066,0.000,0
159394.478,-25.391,-21.484,-37.598,-10.254,0.000,0
159394.482,-29.297,-21.973,-22.949,-18.066,0.000,0
159394.486,-18.066,-15.137,-19.531,-9.277,0.000,0
159394.490,-16.602,-15.137,-39.062,-15.137,0.000,0
159394.494,-23.926,-21.484,-41.504,-19.043,0.000,0
159394.498,-15.137,-16.113,-24.902,-14.648,0.000,0
159394.502,-11.230,-10.254,-25.879,-28.809,0.000,0
159394.506,-17.090,-13.184,-38.574,-36.621,0.000,0
159394.510,-18.555,-12.207,-35.156,-25.391,0.000,0
159394.513,-12.207,-8.301,-25.879,-12.695,0.000,0
159394.517,-22.461,-9.277,-16.602,-21.484,0.000,0
159394.521,-26.367,-16.113,-23.926,-27.832,0.000,0
159394.525,-35.156,-17.090,-31.250,-25.879,0.000,0
159394.529,-36.133,-13.672,-28.320,-27.832,0.000,0
159394.533,-33.203,-16.113,-39.551,-35.645,0.000,0
159394.537,-45.898,-20.996,-31.738,-47.363,0.000,0
159394.541,-36.621,-20.996,-21.484,-43.457,0.000,0
159394.545,-35.645,-19.043,-32.715,-36.621,0.000,0
159394.549,-37.109,-22.949,-39.551,-35.156,0.000,0
159394.553,-38.086,-23.438,-38.086,-38.086,0.000,0
159394.556,-37.109,-16.113,-21.484,-31.738,0.000,0
159394.560,-36.133,-18.066,-24.902,-24.414,0.000,0
159394.564,-50.781,-19.043,-49.805,-23.926,0.000,0
159394.568,-49.316,-21.484,-45.410,-25.391,0.000,0
159394.572,-38.574,-20.020,-22.461,-31.738,0.000,0
159394.576,-40.527,-12.695,-14.160,-40.527,0.000,0
159394.580,-37.598,-13.672,-43.457,-44.922,0.000,0
159394.584,-20.508,-13.672,-42.969,-31.250,0.000,0
159394.588,-20.508,-8.789,-23.926,-22.461,0.000,0
159394.592,-35.645,-13.672,-26.367,-26.855,0.000,0
159394.596,-30.762,-22.949,-19.531,-33.691,0.000,0
159394.599,-25.391,-18.555,-12.695,-43.945,0.000,0
159394.603,-27.344,-14.648,-22.949,-33.691,0.000,0
159394.607,-35.156,-17.578,-28.809,-32.715,0.000,0
159394.611,-39.062,-16.113,-35.645,-32.715,0.000,0
159394.615,-36.133,-15.137,-18.555,-22.949,0.000,0
159394.619,-32.227,-13.672,-3.418,-22.949,0.000,0
159394.623,-21.973,-12.695,-27.344,-14.648,0.000,0
159394.627,-21.973,-19.531,-43.945,-21.484,0.000,0
159394.631,-38.086,-23.926,-38.086,-31.738,0.000,0
159394.635,-32.227,-29.785,-20.996,-39.551,0.000,0
159394.638,-26.367,-27.832,-20.020,-47.363,0.000,0
159394.642,-34.180,-20.020,-30.762,-40.527,0.000,0
159394.646,-29.785,-17.090,-19.531,-33.203,0.000,0
159394.650,-14.160,-15.625,-21.973,-26.855,0.000,0
159394.654,-20.996,-25.391,-21.484,-21.484,0.000,0
159394.658,-30.762,-28.320,-11.230,-30.273,0.000,0
159394.662,-32.227,-21.484,-20.020,-21.484,0.000,0
159394.666,-27.832,-28.809,-25.391,-6.348,0.000,0
159394.670,-12.695,-31.250,-30.273,-10.742,0.000,0
159394.674,-18.555,-23.926,-17.090,-17.578,0.000,0
159394.678,-20.508,-21.973,-7.324,-33.203,0.000,0
159394.681,-16.113,-19.531,-18.066,-29.297,0.000,0
159394.685,-18.555,-18.066,-24.902,-15.137,0.000,0
159394.689,-12.207,-18.555,-32.715,-20.020,0.000,0
159394.693,-14.648,-23.438,-22.949,-21.973,0.000,0
159394.697,-25.879,-29.785,-13.672,-27.832,0.000,0
159394.701,-19.531,-22.949,-22.949,-18.555,0.000,0
159394.705,-15.137,-17.578,-25.391,-18.066,0.000,0
159394.709,-17.578,-19.043,-21.973,-27.832,0.000,0
159394.713,-16.602,-20.996,-30.762,-15.625,0.000,0
159394.717,-12.695,-26.367,-34.180,-10.742,0.000,0
159394.721,-19.043,-24.902,-15.625,-33.691,0.000,0
159394.724,-36.621,-26.367,-4.883,-50.293,0.000,0
159394.728,-31.738,-22.949,-32.227,-35.156,0.000,0
159394.732,-17.090,-18.555,-35.645,-23.438,0.000,0
159394.736,-17.578,-20.996,-13.184,-26.855,0.000,0
159394.740,-19.043,-16.602,-25.391,-26.855,0.000,0
159394.744,-18.555,-15.137,-46.875,-19.531,0.000,0
159394.748,-11.230,-15.625,-36.621,-14.648,0.000,0
159394.752,-18.555,-11.230,-14.648,-19.043,0.000,0
159394.756,-27.832,-18.066,-8.301,-27.832,0.000,0
159394.760,-22.949,-18.555,-17.090,-30.273,0.000,0
159394.763,-28.809,-9.277,-33.691,-23.438,0.000,0
159394.767,-25.879,-7.324,-18.066,-19.531,0.000,0
159394.771,-24.414,-10.254,-4.395,-18.066,0.000,0
159394.775,-27.344,-19.531,-25.879,-18.066,0.000,0
159394.779,-36.133,-20.508,-25.879,-19.043,0.000,0
159394.783,-30.762,-21.484,-26.367,-25.879,0.000,0
159394.787,-20.508,-23.438,-32.227,-22.949,0.000,0
159394.791,-21.484,-21.484,-34.668,-4.395,0.000,0
159394.795,-19.043,-19.531,-26.855,-0.977,0.000,0
159394.799,-23.438,-20.020,-23.926,-14.648,0.000,0
159394.803,-20.020,-24.414,-28.809,-29.785,0.000,0
159394.806,-19.043,-20.996,-33.203,-29.297,0.000,0
159394.810,-26.855,-20.508,-29.785,-26.855,0.000,0
159394.814,-31.738,-19.531,-7.324,-33.203,0.000,0
159394.818,-21.484,-12.207,-21.484,-23.926,0.000,0
159394.822,-8.789,-15.625,-33.691,-17.090,0.000,0
159394.826,-20.508,-23.438,-30.273,-18.066,0.000,0
159394.830,-23.926,-26.367,-38.086,-15.137,0.000,0
159394.834,-18.555,-30.762,-29.297,-14.160,0.000,0
159394.838,-20.996,-26.367,-25.879,-8.789,0.000,0
159394.842,-23.438,-20.996,-30.762,-15.625,0.000,0
159394.846,-34.180,-22.461,-34.180,-22.461,0.000,0
159394.849,-27.832,-22.461,-35.156,-11.719,0.000,0
159394.853,-16.602,-21.484,-26.367,-7.324,0.000,0
159394.857,-15.137,-19.043,-18.555,-20.996,0.000,0
159394.861,-33.203,-20.020,-29.297,-26.855,0.000,0
159394.865,-29.297,-23.438,-44.922,-14.160,0.000,0
159394.869,-13.184,-23.438,-37.598,-3.418,0.000,0
159394.873,-18.555,-22.949,-16.602,-15.137,0.000,0
159394.877,-24.902,-22.949,-21.484,-24.902,0.000,0
159394.881,-21.484,-22.949,-27.344,-19.531,0.000,0
159394.885,-11.719,-26.855,-28.320,-23.926,0.000,0
159394.888,-18.555,-27.344,-32.715,-28.320,0.000,0
159394.892,-21.973,-24.902,-10.254,-33.691,0.000,0
159394.896,-17.578,-27.344,-10.742,-33.203,0.000,0
159394.900,-26.367,-29.297,-20.996,-29.297,0.000,0
159394.904,-33.691,-20.508,-13.184,-15.137,0.000,0
159394.908,-20.996,-19.531,-27.832,-6.836,0.000,0
159394.912,-17.090,-23.438,-22.461,-30.762,0.000,0
159394.916,-20.996,-28.320,-16.113,-31.250,0.000,0
159394.920,-24.414,-33.203,-43.457,-23.438,0.000,0
159394.924,-24.414,-32.227,-39.551,-22.949,0.000,0
159394.928,-20.996,-39.551,-40.039,-19.043,0.000,0
159394.931,-31.738,-36.133,-15.625,-24.414,0.000,0
159394.935,-20.020,-20.508,10.742,-27.832,0.000,0
159394.939,-5.371,-21.484,-7.324,-14.648,0.000,0
159394.943,-13.184,-23.438,-21.973,-8.789,0.000,0
159394.947,-21.484,-17.578,-24.414,-13.184,0.000,0
159394.951,-26.367,-22.461,-11.230,-13.672,0.000,0
159394.955,-24.902,-29.785,-23.438,-17.090,0.000,0
159394.959,-26.367,-28.320,-38.086,-10.742,0.000,0
159394.963,-30.762,-25.879,-28.320,-14.648,0.000,0
159394.967,-39.062,-18.555,-36.621,-20.020,0.000,0
159394.971,-40.039,-22.461,-31.250,-27.344,0.000,0
159394.974,-27.344,-27.344,-15.625,-39.062,0.000,0
159394.978,-27.832,-19.043,-40.039,-24.414,0.000,0
159394.982,-34.668,-16.602,-38.574,-26.367,0.000,0
159394.986,-26.855,-22.461,-29.785,-15.137,0.000,0
159394.990,-24.414,-24.902,-29.785,-9.766,0.000,0
159394.994,-33.691,-23.926,-20.508,-33.203,0.000,0
159394.998,-30.762,-22.461,-35.645,-32.715,0.000,0
159395.002,-17.090,-21.484,-38.086,-27.832,0.000,0
159395.006,-18.066,-18.066,-34.180,-19.043,0.000,0
159395.010,-24.414,-17.090,-29.785,-23.438,0.000,0
159395.013,-22.461,-25.879,-30.762,-29.297,0.000,0
159395.017,-21.973,-24.414,-37.598,-22.461,0.000,0
159395.021,-24.902,-17.578,-27.832,-22.949,0.000,0
159395.025,-25.391,-21.484,-29.785,-18.555,0.000,0
159395.029,-20.996,-25.391,-33.203,-21.484,0.000,0
159395.033,-16.602,-28.809,-17.090,-27.832,0.000,0
159395.037,-17.578,-28.320,-24.414,-20.508,0.000,0
159395.041,-25.879,-24.414,-33.203,-17.578,0.000,0
159395.045,-23.438,-22.949,-43.945,-7.812,0.000,0
159395.049,-5.371,-26.855,-40.039,-5.371,0.000,0
159395.053,-16.602,-25.879,-0.977,-24.902,0.000,0
159395.056,-24.902,-17.578,-10.254,-18.555,0.000,0
159395.060,-14.160,-18.066,-38.086,-13.184,0.000,0
159395.064,-21.484,-20.996,-30.762,-22.949,0.000,0
159395.068,-16.113,-16.113,-22.461,-20.508,0.000,0
159395.072,-16.113,-27.344,-28.809,-18.555,0.000,0
159395.076,-25.879,-34.180,-39.062,-27.832,0.000,0
159395.080,-35.156,-25.391,-36.133,-23.926,0.000,0
159395.084,-36.621,-22.461,-29.297,-17.578,0.000,0
159395.088,-12.207,-13.184,-23.438,-19.043,0.000,0
159395.092,-7.812,-7.812,-23.438,-10.742,0.000,0
159395.096,-24.414,-7.812,-19.043,-5.371,0.000,0
159395.099,-22.949,-14.160,-21.484,-8.301,0.000,0
159395.103,-14.160,-20.508,-27.344,-12.695,0.000,0
159395.107,-13.184,-17.090,-23.926,-12.695,0.000,0
159395.111,-16.113,-17.578,-22.461,-15.625,0.000,0
159395.115,-11.230,-21.973,-28.809,-23.926,0.000,0
159395.119,-0.488,-20.020,-30.762,-14.648,0.000,0
159395.123,-5.859,-17.090,-26.367,-11.719,0.000,0
159395.127,-12.207,-21.973,-23.926,-11.230,0.000,0
159395.131,-11.230,-22.949,-13.672,-14.160,0.000,0
159395.135,-6.348,-13.672,-18.066,-15.137,0.000,0
159395.138,-3.906,-15.625,-28.809,-14.160,0.000,0
159395.142,-8.789,-22.461,-15.625,-13.672,0.000,0
159395.146,-18.066,-15.137,-20.996,-7.812,0.000,0
159395.150,-11.719,-11.230,-22.949,-18.555,0.000,0
159395.154,-13.672,-17.578,-15.625,-26.367,0.000,0
159395.158,-15.137,-23.438,-32.715,-11.719,0.000,0
159395.162,-8.789,-24.902,-41.504,-0.977,0.000,0
159395.166,-14.648,-20.020,-36.621,-4.395,0.000,0
159395.170,-6.348,-24.414,-22.949,-21.973,0.000,0
159395.174,-7.812,-20.508,-21.484,-25.391,0.000,0
159395.178,-20.508,-16.113,-30.762,-14.648,0.000,0
159395.181,-10.742,-20.996,-44.922,-9.277,0.000,0
159395.185,-17.090,-19.043,-39.551,-10.254,0.000,0
159395.189,-21.973,-18.066,-5.859,-22.949,0.000,0
159395.193,-14.160,-14.648,-26.855,-22.461,0.000,0
159395.197,-12.695,-13.184,-48.828,-14.648,0.000,0
159395.201,-12.207,-19.043,-29.785,-22.949,0.000,0
159395.205,-21.973,-21.484,-27.832,-12.695,0.000,0
159395.209,-26.855,-20.508,-25.879,-5.371,0.000,0
159395.213,-27.344,-21.973,-26.367,-16.113,0.000,0
159395.217,-18.555,-21.484,-25.391,-3.906,0.000,0
159395.221,-20.996,-21.484,-27.832,-1.465,0.000,0
159395.224,-29.297,-17.090,-36.621,-18.066,0.000,0
159395.228,-18.066,-10.254,-26.855,-15.137,0.000,0
159395.232,-24.414,-7.812,-17.090,-6.348,0.000,0
159395.236,-41.016,-12.207,-20.020,-15.137,0.000,0
159395.240,-27.344,-21.484,-33.691,-12.695,0.000,0
159395.244,-19.531,-23.926,-36.133,-9.766,0.000,0
159395.248,-18.555,-19.043,-22.461,-23.438,0.000,0
159395.252,-22.949,-21.973,-22.949,-21.484,0.000,0
159395.256,-30.762,-24.902,-34.668,-22.461,0.000,0
159395.260,-32.715,-23.438,-32.227,-33.691,0.000,0
159395.263,-45.898,-27.344,-39.551,-21.484,0.000,0
159395.267,-42.480,-34.668,-29.785,-28.809,0.000,0
159395.271,-34.180,-34.668,-20.996,-26.855,0.000,0
159395.275,-33.203,-32.715,-31.738,-13.672,0.000,0
159395.279,-34.668,-36.621,-28.809,-22.461,0.000,0
159395.283,-40.527,-33.691,-45.898,-19.043,0.000,0
159395.287,-25.391,-26.367,-38.574,-30.762,0.000,0
159395.291,-22.949,-20.508,-15.625,-38.574,0.000,0
159395.295,-22.461,-20.020,-44.922,-18.555,0.000,0
159395.299,-10.254,-22.461,-53.711,-21.973,0.000,0
159395.303,-15.137,-25.879,-42.480,-24.414,0.000,0
159395.306,-22.949,-22.949,-15.137,-22.949,0.000,0
159395.310,-23.926,-24.414,0.000,-30.273,0.000,0
159395.314,-20.996,-20.508,-18.066,-22.461,0.000,0
159395.318,-14.160,-10.254,-10.742,-16.602,0.000,0
159395.322,-22.949,-12.207,-11.719,-10.742,0.000,0
159395.326,-21.484,-17.090,-16.113,-13.184,0.000,0
159395.330,-15.137,-20.508,-17.090,-18.555,0.000,0
159395.334,-15.137,-14.648,-31.738,-5.859,0.000,0
159395.338,-11.719,-11.230,-33.691,-7.812,0.000,0
159395.342,-20.996,-18.555,-27.344,-24.414,0.000,0
159395.346,-22.461,-23.926,-27.832,-33.691,0.000,0
159395.349,-15.625,-21.484,-15.625,-36.133,0.000,0
159395.353,-17.090,-16.602,-15.625,-40.527,0.000,0
159395.357,-22.949,-19.043,-20.020,-34.180,0.000,0
159395.361,-9.766,-18.066,-25.879,-12.207,0.000,1
159395.365,-6.836,-13.184,-22.461,-8.301,0.000,0
159395.369,-17.090,-18.555,-5.859,-16.602,0.000,0
159395.373,-20.996,-13.184,-21.484,-13.672,0.000,0
159395.377,-18.555,-13.184,-41.016,-16.602,0.000,0
159395.381,-27.344,-21.973,-35.156,-24.414,0.000,0
159395.385,-35.156,-23.926,-24.902,-24.414,0.000,0
159395.388,-19.043,-25.391,-22.949,-23.926,0.000,0
159395.392,-17.090,-23.438,-19.043,-33.691,0.000,0
159395.396,-17.090,-21.973,-28.809,-34.180,0.000,0
159395.400,-14.648,-19.043,-40.039,-18.555,0.000,0
159395.404,-26.367,-25.391,-35.156,-24.414,0.000,0
159395.408,-24.902,-25.879,-25.391,-32.715,0.000,0
159395.412,-29.297,-19.531,-20.020,-27.344,0.000,0
159395.416,-30.273,-23.926,-28.809,-25.391,0.000,0
159395.420,-21.973,-22.949,-35.156,-21.973,0.000,0
159395.424,-29.297,-21.484,-26.367,-10.254,0.000,0
159395.428,-27.344,-25.391,-24.902,-23.926,0.000,0
159395.431,-19.531,-24.414,-32.227,-36.133,0.000,0
159395.435,-18.066,-22.949,-34.180,-25.391,0.000,0
159395.439,-15.625,-24.902,-33.203,-17.090,0.000,0
159395.443,-22.949,-27.344,-34.180,-24.414,0.000,0
159395.447,-43.945,-20.996,-25.391,-45.410,0.000,0
159395.451,-43.457,-10.742,-28.320,-43.945,0.000,0
159395.455,-28.320,-16.113,-44.434,-32.227,0.000,0
159395.459,-25.879,-17.578,-31.250,-19.043,0.000,0
159395.463,-20.020,-9.766,-39.551,-15.625,0.000,0
159395.467,-11.230,-12.695,-45.898,-33.691,0.000,0
159395.471,-28.320,-16.113,-25.391,-34.668,0.000,0
159395.474,-35.156,-13.184,-20.996,-20.508,0.000,0
159395.478,-17.090,-15.137,-37.109,-21.484,0.000,0
159395.482,-14.648,-15.625,-31.738,-29.785,0.000,0
159395.486,-12.695,-6.348,-6.836,-29.297,0.000,0
159395.490,-12.207,-4.395,-14.648,-27.344,0.000,0
159395.494,-13.184,-9.277,-25.391,-39.551,0.000,0
159395.498,-18.066,-12.207,-23.438,-30.762,0.000,0
159395.502,-27.344,-15.625,-37.109,-16.602,0.000,0
159395.506,-25.879,-10.254,-14.160,-24.902,0.000,0
159395.510,-34.180,-9.277,-22.461,-9.277,0.000,0
159395.513,-38.574,-12.695,-28.809,-1.953,0.000,0
159395.517,-24.414,-9.277,-6.836,-8.789,0.000,0
159395.521,-27.832,-14.648,-21.973,-25.391,0.000,0
159395.525,-40.039,-18.555,-28.320,-37.598,0.000,0
159395.529,-33.203,-13.672,-27.344,-31.250,0.000,0
159395.533,-33.203,-13.184,-27.344,-29.297,0.000,0
159395.537,-27.344,-18.066,-30.762,-23.926,0.000,0
159395.541,-23.438,-20.020,-29.297,-25.879,0.000,0
159395.545,-30.762,-17.578,-15.625,-19.531,0.000,0
159395.549,-34.668,-19.043,-27.832,-6.836,0.000,0
159395.553,-39.062,-17.578,-33.203,-23.926,0.000,0
159395.556,-26.855,-14.160,-36.133,-19.531,0.000,0
159395.560,-25.391,-15.137,-23.438,-17.090,0.000,0
159395.564,-27.344,-16.602,-3.418,-34.668,0.000,0
159395.568,-26.367,-12.695,-25.879,-33.691,0.000,0
159395.572,-36.133,-17.090,-44.434,-29.297,0.000,0
159395.576,-35.645,-20.020,-31.738,-21.484,0.000,0
159395.580,-32.227,-20.996,-24.902,-12.695,0.000,0
159395.584,-23.926,-23.438,-12.695,-14.160,0.000,0
159395.588,-13.184,-16.113,-15.625,-11.230,0.000,0
159395.592,-17.578,-17.578,-24.414,-12.207,0.000,0
159395.596,-22.949,-21.973,-21.484,-24.414,0.000,0
159395.599,-20.020,-20.508,-19.531,-25.879,0.000,0
159395.603,-19.531,-21.484,-13.184,-34.180,0.000,0
159395.607,-35.645,-24.414,-13.184,-35.645,0.000,0
159395.611,-30.762,-22.461,-33.203,-21.973,0.000,0
159395.615,-4.395,-20.996,-36.133,-20.020,0.000,0
159395.619,-1.465,-18.555,-20.508,-17.090,0.000,0
159395.623,-13.184,-19.043,-1.465,-29.785,0.000,0
159395.627,-18.066,-22.461,-18.555,-41.016,0.000,0
159395.631,-8.789,-20.508,-37.109,-40.527,0.000,0
159395.635,-15.625,-22.461,-24.902,-32.715,0.000,0
159395.638,-20.996,-21.973,-23.926,-15.625,0.000,0
159395.642,-9.277,-18.066,-16.113,-20.996,0.000,0
159395.646,-11.719,-19.531,-20.996,-22.949,0.000,0
159395.650,-17.090,-23.438,-23.926,-4.395,0.000,0
159395.654,-26.367,-29.785,-23.926,-13.672,0.000,0
159395.658,-25.391,-28.320,-35.156,-20.996,0.000,0
159395.662,-20.996,-21.973,-17.090,-27.832,0.000,0
159395.666,-22.949,-22.461,-15.625,-31.250,0.000,0
159395.670,-20.996,-25.391,-26.855,-25.879,0.000,0
159395.674,-26.855,-25.391,-34.180,-20.996,0.000,0
159395.678,-32.715,-24.414,-40.527,-15.625,0.000,0
159395.681,-25.391,-20.996,-20.996,-28.809,0.000,0
159395.685,-16.602,-20.508,-37.109,-26.367,0.000,0
159395.689,-14.648,-29.297,-52.246,-16.602,0.000,0
159395.693,-29.785,-30.273,-27.344,-16.602,0.000,0
159395.697,-40.527,-22.949,-19.043,-24.902,0.000,0
159395.701,-29.785,-20.508,-34.668,-28.320,0.000,0
159395.705,-20.020,-21.973,-46.387,-31.738,0.000,0
159395.709,-21.973,-21.973,-37.598,-30.762,0.000,0
159395.713,-20.020,-25.879,-36.621,-18.555,0.000,0
159395.717,-25.391,-28.809,-41.504,-21.484,0.000,0
159395.721,-20.508,-26.855,-28.320,-20.508,0.000,0
159395.724,-6.836,-27.832,-32.715,-12.695,0.000,0
159395.728,-9.277,-24.902,-41.504,-17.090,0.000,0
159395.732,-14.648,-19.043,-32.227,-20.020,0.000,0
159395.736,-20.020,-19.531,-26.855,-18.555,0.000,0
159395.740,-24.414,-23.926,-30.762,-19.531,0.000,0
159395.744,-21.973,-23.438,-39.551,-25.391,0.000,0
159395.748,-15.137,-18.066,-38.574,-23.926,0.000,0
159395.752,-21.973,-20.508,-37.109,-14.160,0.000,0
159395.756,-22.949,-21.484,-29.785,-10.254,0.000,0
159395.760,-9.277,-22.949,-23.438,-15.625,0.000,0
159395.763,-6.836,-19.043,-30.273,-15.137,0.000,0
159395.767,-12.207,-14.648,-23.926,-24.902,0.000,0
159395.771,-13.672,-15.137,-20.508,-33.691,0.000,0
159395.775,-14.160,-16.113,-30.273,-20.020,0.000,0
159395.779,-20.996,-21.484,-19.531,-25.391,0.000,0
159395.783,-18.066,-20.996,-11.719,-39.062,0.000,0
159395.787,-30.273,-19.531,-16.113,-33.691,0.000,0
159395.791,-31.738,-18.555,-30.762,-27.344,0.000,0
159395.795,-8.789,-18.555,-38.574,-20.508,0.000,0
159395.799,-14.648,-16.113,14.160,-25.391,0.000,0
159395.803,-16.602,-9.277,17.090,-23.926,0.000,0
159395.806,-7.812,-15.625,-35.156,-15.137,0.000,0
159395.810,-16.113,-22.949,-38.086,-19.531,0.000,0
159395.814,-27.344,-18.555,-26.855,-16.602,0.000,0
159395.818,-17.090,-18.066,-16.113,-20.020,0.000,0
159395.822,0.000,-20.508,-21.973,-16.113,0.000,0
159395.826,-19.531,-21.484,-41.992,-19.531,0.000,0
159395.830,-21.484,-10.742,-23.926,-32.227,0.000,0
159395.834,-11.719,-5.371,-17.090,-16.113,0.000,0
159395.838,-17.578,-1.953,-26.367,-25.391,0.000,0
159395.842,-18.066,1.465,-33.203,-37.598,0.000,0
159395.846,-30.762,-1.953,-19.043,-43.457,0.000,0
159395.849,-40.527,-6.348,-26.367,-42.969,0.000,0
159395.853,-32.227,-7.812,-44.922,-26.855,0.000,0
159395.857,-21.484,-4.883,-25.391,-29.785,0.000,0
159395.861,-26.367,-3.906,-25.879,-25.391,0.000,0
159395.865,-20.020,0.977,-47.852,-12.695,0.000,0
159395.869,-13.184,-6.836,-38.574,-16.602,0.000,0
159395.873,-19.531,-13.672,-21.484,-21.484,0.000,0
159395.877,-29.785,-11.230,-7.812,-30.273,0.000,0
159395.881,-32.715,-13.672,-13.672,-37.109,0.000,0
159395.885,-34.668,-10.742,-28.320,-38.574,0.000,0
159395.888,-30.273,-14.160,-26.367,-31.738,0.000,0
159395.892,-26.367,-19.531,-28.320,-17.578,0.000,0
159395.896,-21.973,-21.484,-23.438,-26.367,0.000,0
159395.900,-11.719,-26.855,0.000,-28.809,0.000,0
159395.904,-15.137,-24.414,-15.137,-11.719,0.000,0
159395.908,-18.066,-19.043,-39.062,-10.254,0.000,0
159395.912,-5.371,-17.090,-32.227,-20.020,0.000,0
159395.916,-11.230,-14.160,-10.742,-33.691,0.000,1
159395.920,-27.344,-13.184,4.395,-34.180,0.000,0
159395.924,-19.531,-13.184,-10.254,-15.137,0.000,0
159395.928,-13.184,-17.090,-23.438,-8.789,0.000,0
159395.931,-16.113,-19.043,-27.344,-10.254,0.000,0
159395.935,-16.602,-20.020,-3.906,-14.648,0.000,0
159395.939,-11.719,-17.578,-12.695,-17.578,0.000,0
159395.943,-8.301,-18.555,-38.086,-18.066,0.000,0
159395.947,-12.695,-23.926,-17.090,-19.043,0.000,0
159395.951,-22.461,-22.461,-21.973,-15.625,0.000,0
159395.955,-17.578,-19.531,-20.996,-20.508,0.000,0
159395.959,-6.836,-16.602,-10.742,-25.879,0.000,0
159395.963,-25.391,-18.066,-25.391,-29.297,0.000,0
159395.967,-26.367,-20.020,-30.762,-17.090,0.000,0
159395.971,-16.602,-20.020,-32.227,-21.484,0.000,0
159395.974,-17.090,-20.020,-31.738,-24.902,0.000,0
159395.978,-25.879,-19.043,-20.020,-13.672,0.000,0
159395.982,-36.621,-23.438,-20.020,-25.391,0.000,0
159395.986,-27.832,-25.879,-30.762,-26.855,0.000,0
159395.990,-27.344,-17.578,-31.738,-6.836,0.000,0
159395.994,-36.133,-18.555,-26.855,-22.461,0.000,0
159395.998,-23.926,-18.555,-18.555,-37.109,0.000,0
159396.002,-22.461,-17.090,-16.602,-19.531,0.000,0
159396.006,-27.832,-21.484,-28.320,-7.324,0.000,0
159396.010,-20.996,-19.531,-41.992,-9.277,0.000,0
159396.013,-23.926,-23.438,-24.414,-19.531,0.000,0
159396.017,-22.461,-25.391,-15.625,-26.367,0.000,0
159396.021,-20.996,-20.996,-26.855,-19.531,0.000,0
159396.025,-33.203,-19.531,-25.391,-16.602,0.000,0
159396.029,-17.090,-18.066,-37.598,-11.230,0.000,0
159396.033,-10.742,-16.113,-44.434,-11.230,0.000,0
159396.037,-22.461,-20.020,-20.020,-22.461,0.000,0
159396.041,-22.461,-22.949,-34.180,-15.137,0.000,0
159396.045,-25.391,-19.531,-53.223,-20.020,0.000,0
159396.049,-26.855,-16.113,-41.016,-17.090,0.000,0
159396.053,-23.438,-16.602,-19.043,-14.160,0.000,0
159396.056,-20.020,-18.066,-7.812,-33.691,0.000,0
159396.060,-15.137,-21.973,-27.344,-24.414,0.000,0
159396.064,-26.855,-28.809,-30.762,-15.625,0.000,0
159396.068,-24.414,-23.926,-20.996,-9.766,0.000,0
159396.072,-12.207,-23.926,-28.320,-2.930,0.000,0
159396.076,-10.742,-23.926,-31.738,-14.648,0.000,0
159396.080,-3.418,-21.484,-35.156,-17.090,0.000,0
159396.084,-14.160,-21.973,-20.508,-11.230,0.000,0
159396.088,-28.320,-20.020,-15.137,-15.625,0.000,0
159396.092,-20.020,-20.508,-32.227,-24.414,0.000,0
159396.096,-17.090,-25.879,-18.066,-33.203,0.000,0
159396.099,-21.973,-22.461,-16.602,-30.762,0.000,0
159396.103,-6.836,-25.391,-15.625,-16.602,0.000,0
159396.107,-2.930,-27.832,-25.391,-11.719,0.000,0
159396.111,-25.391,-18.555,-38.574,-18.555,0.000,0
159396.115,-27.832,-25.879,-21.484,-30.273,0.000,0
159396.119,-30.762,-29.297,-36.621,-34.668,0.000,0
159396.123,-40.039,-24.902,-46.387,-37.109,0.000,0
159396.127,-49.805,-23.438,-24.414,-29.785,0.000,0
159396.131,-39.062,-20.020,-20.508,-23.438,0.000,0
159396.135,-38.086,-26.367,-31.738,-39.062,0.000,0
159396.138,-46.387,-30.762,-37.109,-48.828,0.000,0
159396.142,-44.434,-33.203,-40.527,-28.809,0.000,0
159396.146,-41.016,-27.832,-41.992,-18.555,0.000,0
159396.150,-43.945,-20.996,-33.203,-28.809,0.000,0
159396.154,-45.898,-22.949,-26.367,-38.574,0.000,0
159396.158,-49.805,-25.391,-40.039,-41.016,0.000,0
159396.162,-34.668,-23.438,-34.668,-26.855,0.000,0
159396.166,-26.855,-18.555,-42.969,-9.277,0.000,0
159396.170,-27.832,-23.926,-39.551,-19.043,0.000,0
159396.174,-25.879,-22.461,-3.418,-41.504,0.000,0
159396.178,-24.414,-13.184,-20.996,-29.785,0.000,0
159396.181,-14.160,-18.066,-29.297,-24.414,0.000,0
159396.185,-12.207,-20.508,-14.648,-22.461,0.000,0
159396.189,-18.066,-19.043,-17.090,-16.602,0.000,0
159396.193,-4.395,-18.555,-11.719,-32.227,0.000,0
159396.197,2.441,-18.555,-10.254,-33.691,0.000,0
159396.201,-6.348,-25.391,-10.742,-24.414,0.000,0
159396.205,-13.184,-26.855,-12.207,-13.672,0.000,0
159396.209,-18.555,-21.973,-20.020,-10.742,0.000,0
159396.213,-11.719,-21.484,-18.066,-30.762,0.000,0
159396.217,-6.348,-26.367,-22.461,-26.367,0.000,0
159396.221,-21.973,-21.973,-27.344,-17.090,0.000,0
159396.224,-21.484,-18.066,-32.715,-25.879,0.000,0
159396.228,-13.184,-19.043,-21.973,-15.625,0.000,0
159396.232,-25.879,-21.973,-3.418,-16.113,0.000,0
159396.236,-19.531,-24.414,-16.602,-24.902,0.000,0
159396.240,-17.090,-20.508,-28.809,-27.344,0.000,0
159396.244,-21.973,-20.508,-36.133,-18.066,0.000,0
159396.248,-23.438,-23.926,-20.508,-24.902,0.000,0
159396.252,-24.414,-21.484,-8.301,-37.109,0.000,0
159396.256,-25.879,-22.461,-32.227,-27.832,0.000,0
159396.260,-30.762,-23.438,-37.109,-27.832,0.000,0
159396.263,-26.855,-23.438,-20.508,-27.344,0.000,0
159396.267,-18.066,-26.367,-31.250,-29.785,0.000,0
159396.271,-23.438,-23.438,-20.996,-36.133,0.000,0
159396.275,-24.414,-22.461,-21.973,-36.621,0.000,0
159396.279,-25.879,-26.367,-36.621,-30.273,0.000,0
159396.283,-22.949,-22.461,-39.062,-20.020,0.000,0
159396.287,-22.461,-20.996,-28.809,-23.926,0.000,0
159396.291,-26.367,-19.043,-8.301,-41.504,0.000,0
159396.295,-20.996,-17.578,-20.020,-30.762,0.000,0
159396.299,-27.344,-20.508,-29.297,-25.391,0.000,0
159396.303,-34.668,-23.438,-26.855,-42.969,0.000,0
159396.306,-33.203,-21.973,-21.973,-30.273,0.000,0
159396.310,-36.133,-15.625,-9.766,-32.227,0.000,0
159396.314,-27.344,-15.625,-30.762,-48.340,0.000,0
159396.318,-27.832,-23.438,-35.645,-36.133,0.000,0
159396.322,-36.133,-18.555,-20.996,-21.484,0.000,0
159396.326,-33.203,-13.672,-25.879,-17.090,0.000,0
159396.330,-33.691,-20.020,-15.137,-29.785,0.000,0
159396.334,-38.574,-20.996,-14.160,-40.039,0.000,0
159396.338,-32.715,-18.555,-30.762,-39.551,0.000,0
159396.342,-28.320,-26.367,-38.086,-32.227,0.000,0
159396.346,-28.320,-34.180,-41.504,-23.926,0.000,0
159396.349,-41.504,-25.391,-21.973,-40.039,0.000,0
159396.353,-45.410,-17.578,-4.883,-46.875,0.000,0
159396.357,-29.785,-23.438,-32.227,-31.250,0.000,0
159396.361,-16.602,-22.949,-38.086,-19.043,0.000,0
159396.365,-26.367,-18.555,-24.902,-28.320,0.000,0
159396.369,-39.062,-23.926,-14.648,-39.551,0.000,0
159396.373,-29.297,-29.297,-26.855,-31.250,0.000,0
159396.377,-23.438,-24.902,-34.668,-22.949,0.000,0
159396.381,-27.832,-17.578,-22.461,-24.902,0.000,0
159396.385,-28.320,-25.879,-30.273,-14.160,0.000,0
159396.388,-18.555,-25.391,-28.320,-18.066,0.000,0
159396.392,-18.555,-17.090,-20.020,-28.809,0.000,0
159396.396,-32.227,-25.879,-35.156,-25.391,0.000,0
159396.400,-30.762,-20.020,-29.785,-24.414,0.000,0
159396.404,-31.738,-17.090,-32.715,-12.207,0.000,0
159396.408,-27.344,-25.391,-29.785,-18.066,0.000,0
159396.412,-23.926,-22.949,-4.883,-34.668,0.000,0
159396.416,-24.414,-23.926,-26.855,-9.766,0.000,0
159396.420,-20.020,-22.949,-47.363,0.488,0.000,0
159396.424,-26.855,-20.508,-43.457,-20.020,0.000,0
159396.428,-36.621,-23.438,-28.320,-28.320,0.000,0
159396.431,-31.250,-18.555,-24.902,-19.531,0.000,0
159396.435,-25.391,-18.066,-36.133,-14.160,0.000,0
159396.439,-32.227,-22.949,-35.645,-11.230,0.000,0
159396.443,-31.250,-19.043,-26.367,-14.160,0.000,0
159396.447,-26.855,-20.996,-31.250,-23.926,0.000,0
159396.451,-24.414,-24.414,-27.344,-27.344,0.000,0
159396.455,-24.414,-24.414,-27.344,-28.320,0.000,0
159396.459,-28.320,-20.996,-34.180,-23.926,0.000,0
159396.463,-21.484,-20.020,-38.574,-16.113,0.000,0
159396.467,-17.578,-17.090,-28.320,-14.160,0.000,0
159396.471,-23.438,-17.578,-20.996,-19.043,0.000,0
159396.474,-9.766,-20.508,-35.156,-20.996,0.000,0
159396.478,1.953,-20.996,-35.645,-22.461,0.000,0
159396.482,-8.789,-15.137,-28.809,-13.672,0.000,0
159396.486,-20.020,-15.625,-24.902,-17.090,0.000,0
159396.490,-17.578,-15.137,-23.926,-15.625,0.000,0
159396.494,-16.113,-12.207,-40.527,-9.277,0.000,0
159396.498,-32.227,-11.719,-35.156,-5.859,0.000,0
159396.502,-36.133,-10.254,-8.789,-2.930,0.000,0
159396.506,-26.855,-14.648,-14.648,-19.531,0.000,0
159396.510,-29.297,-19.043,-19.043,-31.250,0.000,0
159396.513,-29.297,-18.555,-12.695,-34.668,0.000,0
159396.517,-23.926,-20.020,-25.879,-27.832,0.000,0
159396.521,-23.926,-19.043,-40.039,-21.484,0.000,0
159396.525,-19.043,-14.648,-18.555,-29.297,0.000,0
159396.529,-22.461,-19.531,-4.883,-26.367,0.000,0
159396.533,-24.414,-20.020,-12.207,-17.090,0.000,0
159396.537,-15.137,-15.137,-13.184,-15.625,0.000,0
159396.541,-22.461,-20.020,-26.855,-13.184,0.000,0
159396.545,-20.996,-24.902,-8.789,-26.367,0.000,0
159396.549,-23.438,-20.996,-2.441,-33.691,0.000,0
159396.553,-35.156,-21.973,-31.738,-29.297,0.000,0
159396.556,-33.203,-28.320,-31.250,-21.973,0.000,0
159396.560,-34.668,-26.855,-28.809,-6.348,0.000,0
159396.564,-23.438,-19.531,-8.789,-26.367,0.000,1
159396.568,-23.926,-19.531,-9.766,-37.109,0.000,0
159396.572,-35.156,-21.973,-42.480,-23.438,0.000,0
159396.576,-28.320,-26.367,-37.598,-24.414,0.000,0
159396.580,-21.484,-23.926,-29.297,-21.973,0.000,0
159396.584,-24.902,-20.020,-29.785,-27.344,0.000,0
159396.588,-22.461,-18.555,-24.902,-34.668,0.000,0
159396.592,-26.855,-18.066,-21.973,-22.461,0.000,0
159396.596,-25.391,-19.531,-29.785,-3.418,0.000,0
159396.599,-13.184,-12.695,-31.250,-2.441,0.000,0
159396.603,-11.719,-18.066,-11.230,-17.090,0.000,0
159396.607,-4.395,-22.461,-14.648,-4.395,0.000,0
159396.611,-4.883,-9.766,-24.902,-3.906,0.000,0
159396.615,-20.508,-10.254,-11.230,-37.109,0.000,0
159396.619,-29.297,-15.137,-24.414,-23.438,0.000,0
159396.623,-24.414,-16.602,-27.832,-20.508,0.000,0
159396.627,-37.109,-16.602,-13.672,-43.945,0.000,0
159396.631,-35.156,-19.043,-21.973,-32.227,0.000,0
159396.635,-19.043,-17.090,-19.531,-10.254,0.000,0
159396.638,-20.508,-13.184,-22.949,-3.906,0.000,0
159396.642,-8.301,-14.648,-19.531,-22.949,0.000,0
159396.646,-7.324,-10.254,-6.836,-32.227,0.000,0
159396.650,-16.113,-8.789,-18.066,-30.762,0.000,0
159396.654,-22.949,-11.719,-24.414,-35.645,0.000,0
159396.658,-28.809,-12.207,-30.273,-30.762,0.000,0
159396.662,-40.039,-16.113,-17.090,-31.250,0.000,0
159396.666,-34.668,-18.555,-7.812,-32.227,0.000,0
159396.670,-17.578,-15.625,-33.203,-32.227,0.000,0
159396.674,-25.879,-20.508,-38.574,-35.645,0.000,0
159396.678,-35.156,-19.043,-27.832,-19.531,0.000,0
159396.681,-33.203,-12.695,-19.531,-13.184,0.000,0
159396.685,-19.043,-15.625,-16.113,-35.156,0.000,0
159396.689,-15.625,-12.695,-36.133,-44.922,0.000,0
159396.693,-30.762,-12.207,-35.156,-38.086,0.000,0
159396.697,-29.785,-20.508,-28.809,-26.367,0.000,0
159396.701,-25.391,-22.461,-30.273,-25.391,0.000,0
159396.705,-32.227,-20.020,-20.508,-34.668,0.000,0
159396.709,-33.203,-15.625,-26.855,-18.555,0.000,0
159396.713,-21.973,-18.555,-33.203,-7.324,0.000,0
159396.717,-15.625,-19.043,-22.461,-27.344,0.000,0
159396.721,-17.578,-14.160,-25.391,-25.879,0.000,0
159396.724,-23.438,-14.648,-26.367,-17.578,0.000,0
159396.728,-19.043,-19.043,-26.855,-29.785,0.000,0
159396.732,-14.648,-22.461,-37.109,-29.297,0.000,0
159396.736,-18.555,-17.090,-40.039,-17.090,0.000,0
159396.740,-16.602,-12.695,-29.785,-18.066,0.000,0
159396.744,-17.090,-12.695,-14.160,-28.320,0.000,0
159396.748,-10.742,-8.789,-30.273,-21.484,0.000,0
159396.752,-15.625,-10.254,-47.363,-18.066,0.000,0
159396.756,-10.254,-14.648,-37.109,-18.555,0.000,0
159396.760,3.418,-14.648,-22.461,-16.602,0.000,0
159396.763,-16.113,-16.602,-19.531,-20.508,0.000,0
159396.767,-20.996,-12.695,-27.832,-18.555,0.000,0
159396.771,-17.090,-14.648,-30.762,-10.742,0.000,0
159396.775,-19.531,-19.043,-30.273,-11.230,0.000,0
159396.779,-20.508,-17.090,-38.086,-18.555,0.000,0
159396.783,-25.391,-16.113,-22.949,-15.137,0.000,0
159396.787,-38.086,-17.578,-18.555,-12.695,0.000,0
159396.791,-36.133,-19.531,-37.598,-32.227,0.000,0
159396.795,-22.461,-18.555,-31.738,-35.645,0.000,0
159396.799,-33.203,-20.996,-25.879,-35.156,0.000,0
159396.803,-45.898,-20.020,-27.832,-45.410,0.000,0
159396.806,-44.434,-22.461,-37.598,-52.734,0.000,0
159396.810,-32.715,-21.484,-48.340,-31.250,0.000,0
159396.814,-31.738,-10.254,-32.715,-16.602,0.000,0
159396.818,-34.668,-14.160,-14.648,-43.457,0.000,0
159396.822,-33.203,-22.949,-13.672,-54.688,0.000,0
159396.826,-23.926,-20.996,-32.227,-33.203,0.000,0
159396.830,-26.367,-18.066,-20.508,-25.879,0.000,0
159396.834,-36.133,-20.996,-14.648,-20.996,0.000,0
159396.838,-17.090,-27.832,-40.527,-14.648,0.000,0
159396.842,-20.020,-26.855,-24.902,-34.180,0.000,0
159396.846,-33.691,-21.484,-15.625,-34.180,0.000,0
159396.849,-23.926,-19.531,-21.973,-22.949,0.000,0
159396.853,-20.020,-20.508,-28.320,-21.973,0.000,0
159396.857,-13.672,-28.320,-26.855,-23.926,0.000,0
159396.861,-15.137,-31.738,-8.301,-37.598,0.000,0
159396.865,-18.066,-20.508,-11.719,-41.504,0.000,0
159396.869,-2.441,-18.555,-27.832,-36.133,0.000,0
159396.873,-7.812,-20.508,-32.227,-24.902,0.000,0
159396.877,-19.531,-20.020,-31.250,-15.625,0.000,0
159396.881,-18.555,-19.531,-19.043,-26.855,0.000,0
159396.885,-12.207,-20.508,-23.926,-27.344,0.000,0
159396.888,-8.301,-19.531,-32.715,-12.207,0.000,0
159396.892,-21.973,-19.043,-27.344,-15.625,0.000,0
159396.896,-20.508,-20.508,-34.180,-17.090,0.000,0
159396.900,-6.348,-23.926,-24.902,-18.555,0.000,0
159396.904,-8.789,-18.066,-19.531,-27.344,0.000,0
159396.908,-21.484,-12.695,-30.273,-25.879,0.000,0
159396.912,-21.973,-17.090,-29.785,-23.926,0.000,0
159396.916,-8.789,-19.043,-45.410,-15.625,0.000,0
159396.920,-20.508,-18.555,-29.297,-19.531,0.000,0
159396.924,-33.691,-19.531,-6.836,-36.133,0.000,0
159396.928,-29.785,-18.555,-37.109,-22.949,0.000,0
159396.931,-30.273,-17.090,-54.199,-16.113,0.000,0
159396.935,-40.039,-20.508,-43.457,-27.832,0.000,0
159396.939,-50.781,-26.855,-31.250,-40.039,0.000,0
159396.943,-49.316,-23.438,-24.902,-38.574,0.000,0
159396.947,-39.551,-17.090,-20.508,-32.227,0.000,0
159396.951,-32.715,-23.926,-26.855,-33.691,0.000,0
159396.955,-34.180,-26.367,-38.086,-31.738,0.000,0
159396.959,-50.293,-22.461,-29.297,-37.598,0.000,0
159396.963,-46.875,-21.484,-17.578,-45.410,0.000,0
159396.967,-38.574,-22.949,-13.184,-41.504,0.000,0
159396.971,-36.133,-22.949,-28.809,-41.992,0.000,0
159396.974,-40.527,-23.438,-47.852,-33.203,0.000,0
159396.978,-41.504,-24.902,-31.250,-26.367,0.000,0
159396.982,-36.621,-26.367,-14.648,-36.133,0.000,0
159396.986,-34.668,-23.926,-42.969,-37.109,0.000,0
159396.990,-33.691,-23.438,-55.664,-29.297,0.000,0
159396.994,-35.645,-23.926,-36.621,-17.578,0.000,0
159396.998,-35.645,-23.926,-1.465,-44.434,0.000,0
159397.002,-29.785,-27.832,-5.371,-58.105,0.000,0
159397.006,-28.809,-23.438,-32.227,-29.785,0.000,0
159397.010,-28.809,-20.020,-15.137,-17.578,0.000,0
159397.013,-14.160,-19.531,-21.484,-4.883,0.000,0
159397.017,-2.441,-15.625,-20.020,-20.508,0.000,0
159397.021,-13.184,-19.043,-18.066,-33.203,0.000,0
159397.025,-23.926,-24.414,-16.602,-28.809,0.000,0
159397.029,-12.695,-20.508,-22.949,-20.508,0.000,0
159397.033,-8.789,-18.555,-38.086,-4.883,0.000,0
159397.037,-9.277,-22.461,-19.531,-6.348,0.000,0
159397.041,-9.766,-22.949,-13.184,-14.160,0.000,0
159397.045,-24.902,-19.043,-35.645,-32.715,0.000,0
159397.049,-31.738,-19.043,-40.527,-37.598,0.000,0
159397.053,-33.203,-15.625,-28.809,-25.391,0.000,0
159397.056,-33.203,-20.508,-29.785,-35.156,0.000,0
159397.060,-32.227,-20.508,-36.133,-28.320,0.000,0
159397.064,-24.414,-20.996,-35.645,-17.090,0.000,0
159397.068,-13.184,-19.043,-20.996,-28.320,0.000,0
159397.072,-17.578,-9.766,-16.113,-27.832,0.000,0
159397.076,-22.461,-10.742,-15.137,-18.555,0.000,0
159397.080,-30.762,-14.648,-13.184,-17.578,0.000,0
159397.084,-29.297,-16.113,-20.020,-20.996,0.000,0
159397.088,-28.320,-11.719,-34.668,-23.926,0.000,0
159397.092,-44.434,-18.066,-39.551,-22.461,0.000,0
159397.096,-46.875,-22.461,-23.926,-24.902,0.000,0
159397.099,-37.598,-16.602,-15.625,-25.879,0.000,0
159397.103,-38.086,-20.020,-27.344,-18.066,0.000,0
159397.107,-36.621,-24.414,-38.086,-20.508,0.000,0
159397.111,-32.715,-21.973,-31.738,-27.832,0.000,0
159397.115,-33.691,-22.949,-5.859,-31.250,0.000,0
159397.119,-33.203,-22.461,-19.531,-38.086,0.000,0
159397.123,-29.297,-19.531,-37.598,-36.621,0.000,0
159397.127,-21.973,-20.020,-28.809,-35.645,0.000,0
159397.131,-26.855,-19.531,-33.203,-31.250,0.000,0
159397.135,-24.902,-19.043,-39.551,-22.461,0.000,0
159397.138,-21.973,-19.043,-27.832,-29.297,0.000,0
159397.142,-30.273,-20.996,-19.531,-37.109,0.000,0
159397.146,-31.250,-28.320,-16.602,-35.156,0.000,0
159397.150,-18.066,-24.902,-33.203,-22.461,0.000,0
159397.154,-11.719,-19.531,-38.086,-19.531,0.000,0
159397.158,-16.602,-16.602,-6.836,-24.414,0.000,0
159397.162,-15.625,-14.160,-12.695,-12.695,0.000,0
159397.166,-2.930,-20.020,-43.457,-11.719,0.000,0
159397.170,-8.789,-20.508,-40.527,-10.742,0.000,0
159397.174,-21.973,-14.160,-14.648,-12.695,0.000,0
159397.178,-10.254,-16.602,-3.906,-31.250,0.000,0
159397.181,-6.348,-19.531,-17.578,-27.344,0.000,0
159397.185,-21.973,-19.043,-20.996,-14.160,0.000,0
159397.189,-31.250,-14.648,-26.367,-12.207,0.000,1
159397.193,-21.484,-17.090,-27.344,-8.301,0.000,0
159397.197,-20.508,-18.555,-18.555,-20.996,0.000,0
159397.201,-32.715,-15.625,-30.762,-27.832,0.000,0
159397.205,-33.203,-20.996,-22.949,-13.672,0.000,0
159397.209,-28.320,-15.625,-28.320,-17.578,0.000,0
159397.213,-27.344,-14.160,-32.715,-32.227,0.000,0
159397.217,-25.391,-21.973,-19.531,-23.926,0.000,0
159397.221,-31.738,-20.020,-36.621,-12.695,0.000,0
159397.224,-24.414,-11.719,-44.434,-22.461,0.000,0
159397.228,-17.578,-15.625,-38.574,-28.320,0.000,0
159397.232,-21.973,-20.508,-24.902,-27.832,0.000,0
159397.236,-17.578,-16.602,-14.160,-27.344,0.000,0
159397.240,-13.672,-16.113,-23.926,-15.137,0.000,0
159397.244,-13.184,-17.578,-24.414,-10.742,0.000,0
159397.248,-20.020,-15.137,-17.578,-1.953,0.000,0
159397.252,-26.367,-15.625,-15.625,-1.953,0.000,0
159397.256,-36.133,-25.879,-25.391,-29.297,0.000,0
159397.260,-34.668,-24.902,-28.320,-23.438,0.000,0
159397.263,-23.438,-20.508,-18.066,-10.742,0.000,0
159397.267,-37.109,-21.484,-31.250,-19.043,0.000,0
159397.271,-37.598,-20.508,-35.645,-22.461,0.000,0
159397.275,-33.691,-20.508,-5.859,-31.250,0.000,0
159397.279,-37.598,-22.461,-20.508,-26.367,0.000,0
159397.283,-30.762,-23.438,-38.086,-22.461,0.000,0
159397.287,-25.879,-23.926,-29.785,-30.762,0.000,0
159397.291,-20.020,-23.438,-32.715,-26.855,0.000,0
159397.295,-20.508,-17.090,-1.465,-22.461,0.000,0
159397.299,-20.020,-17.090,-6.836,-18.555,0.000,0
159397.303,-19.531,-15.137,-31.738,-9.277,0.000,0
159397.306,-23.926,-11.719,-29.785,-1.465,0.000,0
159397.310,-26.855,-15.137,-25.879,-12.695,0.000,0
159397.314,-29.297,-17.090,-8.301,-25.391,0.000,0
159397.318,-22.949,-17.090,-19.043,-34.180,0.000,0
159397.322,-21.973,-15.625,-24.414,-41.016,0.000,0
159397.326,-20.020,-14.160,-12.695,-27.344,0.000,0
159397.330,-9.766,-11.719,-19.043,-8.789,0.000,0
159397.334,-20.508,-9.277,-16.113,-29.785,0.000,0
159397.338,-22.949,-10.254,-7.812,-39.062,0.000,0
159397.342,-15.625,-10.254,-22.461,-26.367,0.000,0
159397.346,-23.438,-9.277,-48.828,-30.273,0.000,0
159397.349,-25.879,-9.766,-25.391,-40.039,0.000,0
159397.353,-11.719,-12.207,-5.371,-31.738,0.000,0
159397.357,-10.742,-10.742,-23.438,-16.602,0.000,0
159397.361,-23.438,-9.766,-26.855,-22.461,0.000,0
159397.365,-31.250,-13.184,-29.785,-28.320,0.000,0
159397.369,-20.508,-15.625,-35.156,-31.250,0.000,0
159397.373,-16.602,-14.160,-23.438,-41.504,0.000,0
159397.377,-30.273,-9.766,-16.113,-29.785,0.000,0
159397.381,-26.367,-10.742,-13.672,-17.090,0.000,0
159397.385,-17.090,-10.742,-18.066,-20.020,0.000,0
159397.388,-14.160,-11.719,-23.926,-28.809,0.000,0
159397.392,-16.602,-15.625,-11.719,-35.645,0.000,0
159397.396,-29.785,-17.578,-18.066,-40.039,0.000,0
159397.400,-28.320,-19.531,-26.367,-32.715,0.000,0
159397.404,-27.344,-19.043,-29.297,-27.344,0.000,0
159397.408,-19.531,-15.137,-20.508,-27.344,0.000,0
159397.412,-13.184,-13.184,-5.859,-24.902,0.000,0
159397.416,-19.531,-9.766,-20.996,-24.414,0.000,0
159397.420,-24.902,-8.789,-35.645,-19.043,0.000,0
159397.424,-26.367,-16.113,-23.438,-21.973,0.000,0
159397.428,-27.344,-13.184,-6.836,-33.203,0.000,0
159397.431,-22.461,-9.277,-15.137,-35.156,0.000,0
159397.435,-20.020,-10.254,-41.504,-35.156,0.000,0
159397.439,-21.973,-9.277,-19.043,-30.762,0.000,0
159397.443,-24.414,-13.672,-0.977,-24.902,0.000,0
159397.447,-19.531,-18.066,-28.320,-26.367,0.000,0
159397.451,-26.855,-16.602,-18.555,-23.926,0.000,0
159397.455,-20.508,-14.648,-18.066,-13.672,0.000,0
159397.459,-6.836,-15.137,-27.344,-7.324,0.000,0
159397.463,-16.113,-14.648,-20.508,-10.742,0.000,0
159397.467,-22.949,-15.625,-24.414,-17.578,0.000,0
159397.471,-22.461,-18.066,-19.043,-25.391,0.000,0
159397.474,-20.508,-20.996,-18.066,-23.926,0.000,0
159397.478,-20.508,-26.367,-41.992,-16.113,0.000,0
159397.482,-22.461,-34.180,-52.246,-15.137,0.000,0
159397.486,-34.668,-33.691,-29.297,-19.531,0.000,0
159397.490,-33.691,-23.438,-10.742,-21.973,0.000,0
159397.494,-13.672,-19.043,-22.949,-20.996,0.000,0
159397.498,-4.883,-18.066,-22.949,-24.902,0.000,0
159397.502,-13.672,-13.672,-23.438,-20.020,0.000,0
159397.506,-21.484,-12.695,-35.645,-11.230,0.000,0
159397.510,-19.043,-19.043,-36.621,-13.672,0.000,0
159397.513,-34.180,-22.949,-19.043,-20.996,0.000,0
159397.517,-32.227,-18.555,-24.902,-20.996,0.000,0
159397.521,-31.250,-13.672,-35.645,-18.066,0.000,0
159397.525,-39.551,-13.672,-34.668,-22.949,0.000,0
159397.529,-32.227,-18.066,-24.414,-27.344,0.000,0
159397.533,-27.344,-16.113,-12.207,-21.973,0.000,0
159397.537,-21.973,-15.137,-26.855,-16.113,0.000,0
159397.541,-12.207,-14.648,-23.926,-18.555,0.000,0
159397.545,-22.461,-13.184,-15.625,-17.090,0.000,0
159397.549,-28.320,-16.602,-19.531,-19.531,0.000,0
159397.553,-19.531,-14.648,-26.855,-17.578,0.000,0
159397.556,-18.066,-16.602,-35.156,0.000,0.000,0
159397.560,-13.672,-17.578,-27.832,-13.672,0.000,0
159397.564,-15.625,-16.602,-26.855,-25.879,0.000,0
159397.568,-28.320,-14.648,-26.855,-32.715,0.000,0
159397.572,-31.250,-19.043,-27.832,-34.180,0.000,0
159397.576,-32.227,-19.043,-20.508,-21.973,0.000,0
159397.580,-40.039,-18.555,-23.438,-21.973,0.000,0
159397.584,-27.344,-24.414,-47.363,-24.414,0.000,0
159397.588,-20.020,-22.461,-30.762,-35.156,0.000,0
159397.592,-20.996,-15.625,-21.484,-30.762,0.000,0
159397.596,-16.602,-11.230,-43.457,-16.113,0.000,0
159397.599,-20.020,-18.555,-43.945,-21.484,0.000,0
159397.603,-20.996,-20.996,-32.715,-20.508,0.000,0
159397.607,-24.902,-11.719,-14.648,-14.160,0.000,0
159397.611,-33.203,-14.648,-14.648,-33.203,0.000,0
159397.615,-28.809,-17.578,-21.973,-40.039,0.000,0
159397.619,-22.949,-16.113,-23.926,-24.902,0.000,0
159397.623,-33.203,-17.090,-23.438,-19.531,0.000,0
159397.627,-27.832,-19.531,-18.066,-26.855,0.000,0
159397.631,-13.184,-22.949,-20.508,-29.297,0.000,0
159397.635,-9.766,-27.344,-33.691,-18.555,0.000,0
159397.638,-22.949,-26.367,-35.645,-24.902,0.000,0
159397.642,-35.156,-17.090,-34.180,-34.668,0.000,0
159397.646,-38.086,-15.137,-26.855,-38.086,0.000,0
159397.650,-36.621,-15.625,-23.926,-41.504,0.000,0
159397.654,-23.438,-15.625,-41.504,-22.949,0.000,0
159397.658,-26.367,-17.578,-38.574,-23.438,0.000,0
159397.662,-26.367,-16.602,-27.344,-22.949,0.000,0
159397.666,-24.414,-16.602,-14.160,-14.160,0.000,0
159397.670,-24.902,-10.742,-9.766,-30.273,0.000,0
159397.674,-20.996,-8.301,-30.273,-36.621,0.000,0
159397.678,-26.367,-11.719,-21.973,-29.297,0.000,0
159397.681,-22.949,-15.625,-26.367,-16.602,0.000,0
159397.685,-25.879,-20.020,-35.156,-20.508,0.000,0
159397.689,-36.133,-18.066,-17.578,-31.250,0.000,0
159397.693,-41.016,-24.902,-20.508,-28.809,0.000,0
159397.697,-34.668,-24.414,-29.785,-24.414,0.000,0
159397.701,-18.555,-16.602,-34.180,-17.578,0.000,0
159397.705,-17.090,-16.602,-29.297,-21.973,0.000,0
159397.709,-21.973,-20.508,-10.742,-31.738,0.000,0
159397.713,-26.855,-24.414,-13.184,-32.227,0.000,0
159397.717,-30.273,-22.461,-27.344,-23.438,0.000,0
159397.721,-22.949,-24.414,-50.293,-22.949,0.000,0
159397.724,-25.391,-30.273,-38.574,-20.020,0.000,0
159397.728,-21.484,-28.320,-8.301,-16.602,0.000,0
159397.732,-18.555,-23.438,-30.762,-21.484,0.000,0
159397.736,-20.508,-18.555,-41.016,-20.996,0.000,0
159397.740,-20.508,-18.555,-20.508,-18.555,0.000,0
159397.744,-14.160,-22.949,-17.578,-21.484,0.000,0
159397.748,-19.043,-21.973,-14.160,-30.762,0.000,0
159397.752,-24.902,-25.879,-23.438,-30.273,0.000,0
159397.756,-25.879,-23.926,-30.762,-29.785,0.000,0
159397.760,-25.391,-19.043,-31.738,-22.461,0.000,0
159397.763,-20.996,-13.184,-35.645,-22.949,0.000,0
159397.767,-17.090,-10.742,-27.344,-25.391,0.000,0
159397.771,-17.578,-15.137,-16.113,-16.113,0.000,0
159397.775,-12.695,-18.066,-10.254,-12.695,0.000,0
159397.779,-3.906,-18.066,-22.949,-20.020,0.000,2
159397.783,-17.578,-15.625,-21.973,-25.879,0.000,0
159397.787,-18.555,-16.602,-16.602,-32.715,0.000,0
159397.791,-9.766,-14.160,-17.090,-33.691,0.000,0
159397.795,-15.625,-13.184,-20.996,-21.484,0.000,0
159397.799,-20.508,-17.090,-29.297,-24.902,0.000,0
159397.803,-24.414,-16.602,-31.738,-27.344,0.000,0
159397.806,-19.043,-18.555,-19.531,-22.461,0.000,0
159397.810,-11.230,-24.414,-17.578,-31.250,0.000,0
159397.814,-21.484,-18.066,-25.391,-31.738,0.000,0
159397.818,-33.691,-14.648,-17.090,-26.855,0.000,0
159397.822,-24.902,-21.973,-30.762,-21.484,0.000,0
159397.826,-17.578,-21.484,-31.250,-21.484,0.000,0
159397.830,-22.949,-17.090,-17.090,-25.391,0.000,0
159397.834,-35.156,-22.461,-27.832,-8.301,0.000,0
159397.838,-25.879,-24.414,-43.945,3.906,0.000,0
159397.842,-2.441,-20.020,-41.016,0.000,0.000,0
159397.846,-11.230,-18.066,-18.555,-10.254,0.000,0
159397.849,-40.527,-20.996,-20.996,-37.598,0.000,0
159397.853,-33.691,-22.461,-36.621,-46.875,0.000,0
159397.857,-14.648,-23.926,-51.270,-27.832,0.000,0
159397.861,-33.691,-22.949,-42.969,-19.531,0.000,0
159397.865,-52.734,-23.438,-15.137,-31.738,0.000,0
159397.869,-51.758,-23.926,-30.273,-42.480,0.000,0
159397.873,-28.809,-24.414,-50.293,-22.461,0.000,0
159397.877,-14.160,-24.414,-45.410,-5.371,0.000,0
159397.881,-14.160,-20.996,-33.203,-5.371,0.000,0
159397.885,-20.996,-25.879,-25.391,-21.973,0.000,0
159397.888,-33.203,-31.250,-29.297,-30.273,0.000,0
159397.892,-28.320,-23.926,-31.738,-21.973,0.000,0
159397.896,-28.809,-20.508,-29.297,-10.742,0.000,0
159397.900,-24.414,-23.926,-53.711,-12.207,0.000,0
159397.904,-9.277,-20.508,-39.551,-37.598,0.000,0
159397.908,-17.578,-19.043,-11.230,-34.180,0.000,0
159397.912,-11.719,-16.113,-27.832,-17.578,0.000,0
159397.916,-1.465,-16.113,-32.227,-19.531,0.000,0
159397.920,-18.555,-19.043,-29.297,-10.254,0.000,0
159397.924,-25.879,-21.484,-14.160,-2.930,0.000,0
159397.928,-30.273,-23.438,-16.113,-13.672,0.000,0
159397.931,-30.273,-22.461,-34.180,-25.879,0.000,0
159397.935,-21.973,-24.414,-38.086,-16.113,0.000,0
159397.939,-29.785,-22.461,-35.156,-14.648,0.000,0
159397.943,-23.438,-22.461,-21.973,-32.227,0.000,0
159397.947,-22.461,-23.438,-23.926,-21.484,0.000,0
159397.951,-31.250,-22.461,-13.672,-18.555,0.000,0
159397.955,-26.855,-21.973,-21.484,-32.715,0.000,0
159397.959,-25.879,-30.762,-54.688,-22.461,0.000,0
159397.963,-28.320,-34.668,-31.738,-27.832,0.000,0
159397.967,-25.879,-26.367,-17.090,-25.391,0.000,0
159397.971,-35.645,-24.902,-27.832,-2.930,0.000,0
159397.974,-23.438,-28.320,-30.273,-22.461,0.000,0
159397.978,-11.719,-24.902,-23.438,-31.250,0.000,0
159397.982,-25.391,-25.879,-9.766,-29.297,0.000,0
159397.986,-36.621,-31.250,-18.555,-40.527,0.000,0
159397.990,-34.180,-27.344,-25.391,-36.133,0.000,0
159397.994,-31.250,-27.344,-13.184,-28.320,0.000,0
159397.998,-31.738,-31.250,-19.043,-27.832,0.000,0
159398.002,-29.785,-33.203,-24.902,-40.527,0.000,0
159398.006,-25.391,-34.668,-23.926,-31.250,0.000,0
159398.010,-30.273,-37.109,-26.367,-18.555,0.000,0
159398.013,-36.621,-39.062,-38.574,-31.738,0.000,0
159398.017,-40.527,-41.504,-42.969,-40.527,0.000,0
159398.021,-39.062,-35.645,-18.555,-39.551,0.000,0
159398.025,-37.109,-33.691,-14.648,-36.133,0.000,0
159398.029,-30.762,-31.250,-26.855,-36.621,0.000,0
159398.033,-21.484,-32.227,-29.785,-31.738,0.000,0
159398.037,-17.578,-32.227,-28.809,-12.207,0.000,0
159398.041,-22.461,-25.879,-10.742,-14.160,0.000,0
159398.045,-23.438,-22.949,-19.043,-24.902,0.000,0
159398.049,-19.043,-23.926,-51.758,-17.578,0.000,0
159398.053,-20.020,-29.297,-39.551,-20.508,0.000,0
159398.056,-30.762,-22.949,-9.766,-20.508,0.000,0
159398.060,-28.809,-25.879,-25.879,-20.508,0.000,0
159398.064,-28.809,-28.809,-39.551,-29.297,0.000,0
159398.068,-45.898,-28.320,-32.715,-38.574,0.000,0
159398.072,-29.297,-31.738,-20.996,-34.668,0.000,0
159398.076,-19.531,-27.832,-28.320,-27.344,0.000,0
159398.080,-24.414,-25.879,-21.973,-27.832,0.000,0
159398.084,-28.809,-27.344,-17.578,-31.738,0.000,0
159398.088,-30.762,-26.367,-38.086,-29.785,0.000,0
159398.092,-18.555,-25.879,-40.527,-20.020,0.000,0
159398.096,-31.738,-22.461,-33.691,-23.438,0.000,0
159398.099,-39.551,-20.508,-12.695,-25.391,0.000,0
159398.103,-29.785,-22.461,-4.883,-33.203,0.000,0
159398.107,-20.020,-23.438,-25.391,-28.809,0.000,0
159398.111,-17.090,-23.438,-33.691,-21.973,0.000,0
159398.115,-23.438,-18.555,-18.555,-20.508,0.000,0
159398.119,-21.973,-24.414,-19.531,-21.484,0.000,0
159398.123,-15.137,-21.484,-27.344,-27.832,0.000,0
159398.127,-22.461,-14.648,-20.020,-26.367,0.000,0
159398.131,-31.738,-19.043,-13.672,-29.297,0.000,0
159398.135,-23.926,-24.414,-30.273,-31.250,0.000,0
159398.138,-23.926,-29.785,-27.344,-34.668,0.000,0
159398.142,-15.625,-27.832,-14.648,-41.992,0.000,0
159398.146,-25.391,-24.902,-6.836,-28.809,0.000,0
159398.150,-31.250,-26.367,-27.832,-23.926,0.000,0
159398.154,-17.090,-30.762,-30.273,-28.320,0.000,0
159398.158,-17.578,-28.809,-7.324,-36.133,0.000,0
159398.162,-34.180,-20.508,-21.484,-35.156,0.000,0
159398.166,-41.504,-24.902,-43.945,-30.762,0.000,0
159398.170,-30.762,-25.391,-35.645,-31.738,0.000,0
159398.174,-26.855,-22.949,-16.113,-20.508,0.000,0
159398.178,-18.066,-19.043,-11.230,-22.949,0.000,0
159398.181,-12.207,-18.555,-30.762,-16.602,0.000,0
159398.185,-16.602,-22.461,-17.578,2.441,0.000,0
159398.189,-14.160,-20.996,-5.371,-10.254,0.000,0
159398.193,-9.766,-19.043,-21.973,-15.137,0.000,0
159398.197,-13.672,-20.508,-20.996,-10.254,0.000,0
159398.201,-13.672,-23.438,-17.578,-22.461,0.000,0
159398.205,-16.602,-24.902,-15.625,-27.344,0.000,0
159398.209,-21.484,-23.926,-30.273,-17.090,0.000,0
159398.213,-34.668,-22.461,-30.762,-22.949,0.000,0
159398.217,-31.250,-24.414,-8.301,-28.320,0.000,0
159398.221,-9.277,-20.508,-17.578,-21.484,0.000,0
159398.224,-19.043,-14.648,-31.250,-21.973,0.000,0
159398.228,-19.531,-16.113,-34.668,-16.113,0.000,0
159398.232,-17.090,-20.020,-8.789,-13.672,0.000,0
159398.236,-7.812,-10.254,1.953,-29.297,0.000,0
159398.240,-7.324,-13.672,-22.949,-36.133,0.000,0
159398.244,-7.324,-22.949,-26.367,-32.227,0.000,0
159398.248,-6.836,-21.973,-27.344,-13.184,0.000,0
159398.252,-17.578,-24.414,-26.855,-10.254,0.000,0
159398.256,-18.066,-30.762,-6.836,-27.344,0.000,0
159398.260,-24.414,-31.738,-22.949,-16.602,0.000,0
159398.263,-26.367,-27.344,-41.992,-14.648,0.000,0
159398.267,-19.531,-31.250,-38.086,-18.555,0.000,0
159398.271,-25.391,-33.203,-32.715,-25.391,0.000,0
159398.275,-31.250,-32.227,-17.090,-39.551,0.000,0
159398.279,-16.602,-28.809,-16.602,-43.457,0.000,0
159398.283,-10.254,-29.297,-41.504,-31.250,0.000,0
159398.287,-15.625,-28.320,-54.688,-10.254,0.000,0
159398.291,-13.184,-23.438,-22.949,-12.207,0.000,0
159398.295,-18.555,-21.484,-3.418,-23.926,0.000,0
159398.299,-21.484,-21.484,-28.320,-14.160,0.000,0
159398.303,-12.695,-20.508,-31.250,-14.648,0.000,0
159398.306,-17.090,-22.949,-24.414,-12.207,0.000,0
159398.310,-15.625,-23.438,-26.367,-10.254,0.000,0
159398.314,-10.254,-26.367,-17.090,-32.715,0.000,0
159398.318,-19.043,-30.273,-21.484,-26.367,0.000,0
159398.322,-35.645,-22.949,-19.531,-13.672,0.000,0
159398.326,-22.461,-18.066,-28.809,-20.996,0.000,0
159398.330,-16.602,-20.996,-36.621,-27.344,0.000,0
159398.334,-29.785,-18.555,-12.207,-32.227,0.000,0
159398.338,-27.832,-19.043,-18.555,-32.715,0.000,0
159398.342,-17.090,-23.926,-41.992,-35.156,0.000,0
159398.346,-29.297,-30.762,-47.363,-24.414,0.000,0
159398.349,-41.016,-24.414,-38.574,-22.461,0.000,0
159398.353,-33.203,-23.438,-21.973,-38.086,0.000,1
159398.357,-30.273,-27.344,-20.508,-28.809,0.000,0
159398.361,-36.133,-19.531,-34.180,-11.719,0.000,0
159398.365,-35.156,-17.578,-47.363,-13.184,0.000,0
159398.369,-27.344,-17.090,-32.227,-14.648,0.000,0
159398.373,-23.438,-19.531,-30.273,-23.926,0.000,0
159398.377,-29.297,-21.973,-41.504,-37.598,0.000,0
159398.381,-34.668,-13.672,-35.645,-32.227,0.000,0
159398.385,-37.109,-11.230,-33.203,-16.113,0.000,0
159398.388,-31.738,-16.113,-47.852,-0.977,0.000,0
159398.392,-30.273,-19.043,-40.527,-23.926,0.000,0
159398.396,-29.297,-17.090,-31.738,-30.762,0.000,0
159398.400,-29.297,-15.625,-46.875,-10.254,0.000,0
159398.404,-22.949,-15.137,-45.410,-14.648,0.000,0
159398.408,-22.461,-15.625,-34.180,-14.648,0.000,0
159398.412,-36.133,-16.602,-18.066,-20.020,0.000,0
159398.416,-30.762,-17.578,-22.949,-28.320,0.000,0
159398.420,-18.066,-17.090,-37.598,-18.555,0.000,0
159398.424,-16.602,-18.066,-29.297,-9.277,0.000,0
159398.428,-20.508,-15.625,-18.555,-11.719,0.000,0
159398.431,-26.367,-14.648,-28.809,-21.973,0.000,0
159398.435,-25.879,-16.602,-30.273,-24.414,0.000,0
159398.439,-29.785,-19.531,-33.203,-15.625,0.000,0
159398.443,-25.391,-21.973,-33.691,-17.090,0.000,0
159398.447,-23.438,-24.902,-34.668,-18.066,0.000,0
159398.451,-32.227,-20.996,-25.391,-15.625,0.000,0
159398.455,-31.250,-21.973,-16.602,-20.996,0.000,0
159398.459,-35.645,-26.367,-34.180,-27.344,0.000,0
159398.463,-32.715,-27.344,-43.945,-20.020,0.000,0
159398.467,-28.809,-25.879,-44.922,-15.137,0.000,0
159398.471,-33.203,-17.578,-21.973,-19.531,0.000,0
159398.474,-32.715,-16.602,-13.672,-27.344,0.000,0
159398.478,-20.508,-20.996,-40.527,-24.902,0.000,0
159398.482,-24.902,-30.273,-39.551,-25.391,0.000,0
159398.486,-30.762,-28.320,-27.344,-21.973,0.000,0
159398.490,-20.996,-21.484,-24.414,-22.461,0.000,0
159398.494,-19.043,-22.461,-22.461,-29.785,0.000,0
159398.498,-9.277,-23.926,-26.855,-24.902,0.000,0
159398.502,-13.672,-24.902,-27.344,-16.602,0.000,0
159398.506,-19.531,-26.855,-27.344,-14.648,0.000,0
159398.510,-23.438,-27.832,-30.273,-27.832,0.000,0
159398.513,-33.203,-27.832,-21.973,-45.410,0.000,0
159398.517,-35.645,-25.391,-10.742,-41.504,0.000,0
159398.521,-29.297,-21.973,-18.555,-26.855,0.000,0
159398.525,-26.367,-20.020,-25.879,-12.207,0.000,0
159398.529,-25.391,-21.973,-24.902,-23.926,0.000,0
159398.533,-18.555,-20.508,-14.160,-34.180,0.000,0
159398.537,-7.812,-22.461,-21.484,-26.855,0.000,0
159398.541,-13.184,-28.809,-39.551,-30.762,0.000,0
159398.545,-36.621,-28.320,-38.574,-21.973,0.000,0
159398.549,-33.691,-25.879,-33.203,-21.484,0.000,0
159398.553,-20.508,-21.973,-20.508,-34.668,0.000,0
159398.556,-15.625,-24.414,-24.902,-30.762,0.000,0
159398.560,-9.766,-32.715,-27.832,-27.832,0.000,0
159398.564,-9.766,-28.809,-35.156,-16.602,0.000,0
159398.568,-29.785,-25.879,-36.133,-29.785,0.000,0
159398.572,-41.016,-23.926,-24.902,-50.293,0.000,0
159398.576,-26.855,-21.973,-37.109,-26.855,0.000,0
159398.580,-25.391,-27.832,-52.246,-31.738,0.000,0
159398.584,-37.598,-29.297,-47.852,-43.945,0.000,0
159398.588,-40.039,-30.762,-29.785,-41.504,0.000,0
159398.592,-39.062,-35.645,-20.508,-49.805,0.000,0
159398.596,-33.691,-19.531,-33.203,-44.434,0.000,0
159398.599,-29.785,-16.602,-37.109,-29.297,0.000,0
159398.603,-27.344,-23.926,-44.434,-24.902,0.000,0
159398.607,-32.715,-26.855,-24.414,-32.227,0.000,0
159398.611,-30.762,-26.367,-16.113,-38.086,0.000,0
159398.615,-30.273,-26.855,-43.457,-32.715,0.000,0
159398.619,-32.227,-26.855,-42.969,-40.039,0.000,0
159398.623,-20.996,-22.461,-34.180,-31.250,0.000,0
159398.627,-20.996,-21.484,-39.062,-19.043,0.000,0
159398.631,-31.250,-23.926,-31.250,-41.504,0.000,0
159398.635,-31.250,-24.414,-30.273,-39.062,0.000,0
159398.638,-27.344,-24.414,-38.574,-20.508,0.000,0
159398.642,-26.367,-28.320,-38.574,-12.695,0.000,0
159398.646,-32.715,-25.879,-33.203,-19.043,0.000,0
159398.650,-42.969,-25.391,-15.137,-31.250,0.000,0
159398.654,-35.645,-25.879,-19.043,-18.555,0.000,0
159398.658,-16.602,-18.555,-34.180,-17.578,0.000,0
159398.662,-21.484,-13.184,-37.109,-25.391,0.000,0
159398.666,-28.320,-14.160,-21.973,-24.902,0.000,0
159398.670,-24.902,-14.160,-16.113,-33.203,0.000,0
159398.674,-13.184,-17.578,-41.504,-34.668,0.000,0
159398.678,-6.836,-14.648,-32.715,-29.297,0.000,0
159398.681,-16.113,-12.695,-26.855,-35.645,0.000,0
159398.685,-13.184,-18.555,-24.414,-33.691,0.000,0
159398.689,-18.066,-22.949,-8.301,-31.250,0.000,0
159398.693,-35.645,-22.949,-25.391,-33.691,0.000,0
159398.697,-27.832,-21.484,-41.016,-23.438,0.000,0
159398.701,-10.254,-23.438,-47.363,-18.555,0.000,0
159398.705,-9.277,-21.484,-42.969,-31.250,0.000,0
159398.709,-29.785,-24.902,-13.184,-43.945,0.000,0
159398.713,-34.668,-31.250,-25.879,-32.227,0.000,0
159398.717,-22.461,-26.855,-40.527,-21.484,0.000,0
159398.721,-20.996,-27.832,-32.715,-24.414,0.000,0
159398.724,-21.973,-28.809,-28.320,-26.367,0.000,0
159398.728,-22.949,-29.785,-21.484,-31.250,0.000,0
159398.732,-24.902,-24.902,-29.785,-33.203,0.000,0
159398.736,-21.973,-23.438,-29.297,-28.320,0.000,0
159398.740,-26.367,-27.832,-35.156,-24.414,0.000,0
159398.744,-23.926,-20.996,-47.852,-26.855,0.000,0
159398.748,-24.902,-16.602,-32.715,-21.973,0.000,0
159398.752,-28.809,-17.578,-20.020,-16.602,0.000,0
159398.756,-38.086,-19.043,-27.832,-29.297,0.000,0
159398.760,-33.203,-20.020,-33.691,-29.785,0.000,0
159398.763,-19.531,-19.531,-35.156,-21.973,0.000,0
159398.767,-28.320,-24.902,-13.184,-46.387,0.000,0
159398.771,-27.344,-28.809,-12.207,-50.781,0.000,0
159398.775,-23.926,-21.484,-41.504,-32.227,0.000,0
159398.779,-23.438,-16.113,-45.410,-20.996,0.000,0
159398.783,-31.250,-23.438,-27.344,-22.461,0.000,0
159398.787,-38.086,-29.297,-12.695,-33.203,0.000,0
159398.791,-35.645,-25.879,-25.879,-25.391,0.000,0
159398.795,-24.902,-23.926,-46.875,-25.879,0.000,0
159398.799,-21.973,-24.414,-26.855,-24.902,0.000,0
159398.803,-26.855,-25.879,-13.184,-16.602,0.000,0
159398.806,-23.926,-26.855,-23.926,-30.273,0.000,0
159398.810,-26.367,-27.832,-17.090,-42.969,0.000,0
159398.814,-33.203,-29.785,-23.438,-29.297,0.000,0
159398.818,-37.598,-24.414,-27.344,-19.043,0.000,0
159398.822,-22.461,-24.414,-24.414,-29.297,0.000,0
159398.826,-19.043,-24.414,-12.695,-31.250,0.000,0
159398.830,-21.973,-26.855,-15.137,-30.273,0.000,0
159398.834,-23.438,-32.227,-25.391,-36.621,0.000,0
159398.838,-10.742,-33.203,-31.738,-35.156,0.000,0
159398.842,-14.648,-33.691,-37.598,-23.438,0.000,0
159398.846,-29.785,-28.320,-15.137,-30.762,0.000,0
159398.849,-25.879,-24.902,-16.602,-34.180,0.000,0
159398.853,-26.367,-26.855,-32.227,-19.043,0.000,0
159398.857,-32.715,-27.832,-28.809,-13.184,0.000,0
159398.861,-32.715,-20.996,-26.855,-9.766,0.000,0
159398.865,-29.297,-20.508,-20.508,-10.742,0.000,0
159398.869,-36.621,-17.578,-14.160,-22.949,0.000,0
159398.873,-33.691,-19.531,-16.602,-35.645,0.000,0
159398.877,-36.621,-24.414,-25.391,-27.344,0.000,0
159398.881,-34.668,-17.090,-36.133,-14.648,0.000,0
159398.885,-28.320,-19.043,-28.809,-24.414,0.000,0
159398.888,-41.992,-21.973,-8.301,-18.555,0.000,0
159398.892,-42.480,-25.391,-14.648,-12.207,0.000,0
159398.896,-27.344,-20.508,-36.133,-15.625,0.000,0
159398.900,-25.879,-16.113,-26.367,-16.113,0.000,0
159398.904,-28.320,-19.531,-11.230,-23.926,0.000,0
159398.908,-31.738,-24.414,-19.531,-25.391,0.000,0
159398.912,-38.574,-23.438,-34.668,-21.973,0.000,0
159398.916,-35.645,-19.531,-32.715,-20.508,0.000,0
159398.920,-26.367,-25.391,-36.621,-23.926,0.000,0
159398.924,-34.180,-28.320,-21.484,-37.598,0.000,0
159398.928,-38.086,-21.484,-13.184,-35.645,0.000,0
159398.931,-28.320,-20.508,-28.809,-18.066,0.000,0
159398.935,-26.367,-23.438,-22.949,-28.809,0.000,0
159398.939,-26.367,-18.555,-26.855,-31.738,0.000,0
159398.943,-23.926,-22.949,-27.344,-34.668,0.000,0
159398.947,-30.762,-20.508,-19.531,-45.410,0.000,0
159398.951,-37.109,-14.648,-20.508,-29.785,0.000,0
159398.955,-33.691,-18.066,-29.785,-16.602,0.000,0
159398.959,-34.668,-19.043,-39.551,-12.695,0.000,0
159398.963,-29.297,-19.531,-22.461,-29.785,0.000,0
159398.967,-27.344,-20.996,-22.949,-28.809,0.000,0
159398.971,-32.715,-17.578,-37.598,-23.926,0.000,0
159398.974,-36.621,-18.555,-27.344,-33.203,0.000,0
159398.978,-27.344,-19.531,-17.578,-26.855,0.000,0
159398.982,-20.020,-20.020,-20.508,-33.203,0.000,0
159398.986,-24.414,-22.461,-26.367,-36.621,0.000,0
159398.990,-29.297,-20.508,-34.668,-41.504,0.000,0
159398.994,-32.715,-20.508,-36.621,-41.016,0.000,0
159398.998,-23.926,-20.020,-30.762,-27.832,0.000,0
159399.002,-22.949,-22.461,-18.555,-36.621,0.000,0
159399.006,-20.996,-21.973,-5.371,-30.273,0.000,0
159399.010,-15.137,-17.090,-20.996,-9.277,0.000,0
159399.013,-24.902,-17.090,-30.273,-29.297,0.000,0
159399.017,-19.043,-19.531,-30.273,-25.391,0.000,0
159399.021,-15.625,-20.508,-29.297,-4.395,0.000,0
159399.025,-27.344,-22.461,-15.625,-21.973,0.000,0
159399.029,-23.438,-20.996,-24.902,-32.715,0.000,0
159399.033,-10.254,-19.043,-34.180,-24.414,0.000,1
159399.037,-14.160,-20.508,-22.461,-22.461,0.000,0
159399.041,-32.227,-26.367,-18.555,-23.438,0.000,0
159399.045,-37.109,-30.273,-21.484,-31.250,0.000,0
159399.049,-29.785,-28.809,-36.621,-33.203,0.000,0
159399.053,-29.785,-29.785,-34.180,-40.039,0.000,0
159399.056,-33.691,-27.832,-27.344,-32.715,0.000,0
159399.060,-29.297,-21.973,-37.598,-28.809,0.000,0
159399.064,-29.297,-26.855,-30.273,-46.387,0.000,0
159399.068,-25.391,-26.367,-20.996,-36.133,0.000,0
159399.072,-26.367,-18.066,-29.785,-16.113,0.000,0
159399.076,-27.344,-22.461,-42.480,-19.043,0.000,0
159399.080,-16.602,-26.367,-26.855,-26.855,0.000,0
159399.084,-4.395,-21.484,-19.043,-22.461,0.000,0
159399.088,-10.742,-19.531,-30.762,-24.414,0.000,0
159399.092,-30.762,-21.973,-35.156,-25.879,0.000,0
159399.096,-31.250,-20.508,-38.086,-23.438,0.000,0
159399.099,-21.973,-18.555,-34.668,-28.320,0.000,0
159399.103,-35.156,-17.090,-21.484,-38.086,0.000,0
159399.107,-42.969,-21.973,-35.156,-37.109,0.000,0
159399.111,-23.438,-21.484,-49.805,-34.668,0.000,0
159399.115,-25.879,-18.066,-44.434,-24.902,0.000,0
159399.119,-28.809,-16.113,-46.875,-15.625,0.000,0
159399.123,-28.320,-15.137,-40.527,-38.086,0.000,0
159399.127,-41.992,-17.090,-33.203,-49.316,0.000,0
159399.131,-40.527,-19.531,-23.438,-41.016,0.000,0
159399.135,-27.344,-18.066,-27.832,-23.438,0.000,0
159399.138,-34.668,-15.625,-28.320,-16.602,0.000,0
159399.142,-31.250,-18.555,-15.137,-38.086,0.000,0
159399.146,-20.996,-20.508,-28.320,-32.227,0.000,0
159399.150,-20.508,-18.555,-39.062,-21.484,0.000,0
159399.154,-20.996,-14.160,-19.531,-18.555,0.000,0
159399.158,-26.855,-19.531,-13.672,-20.508,0.000,0
159399.162,-23.926,-22.461,-17.578,-39.551,0.000,0
159399.166,-26.367,-20.020,-22.461,-29.785,0.000,0
159399.170,-35.156,-23.926,-35.645,-24.902,0.000,0
159399.174,-35.156,-27.344,-28.809,-31.250,0.000,0
159399.178,-25.879,-26.367,-21.484,-38.086,0.000,0
159399.181,-21.484,-21.973,-8.301,-41.016,0.000,0
159399.185,-22.949,-21.484,-30.273,-36.133,0.000,0
159399.189,-23.926,-19.531,-37.109,-41.016,0.000,0
159399.193,-23.438,-18.555,-32.227,-27.832,0.000,0
159399.197,-12.207,-21.973,-44.434,-25.391,0.000,0
159399.201,-17.090,-22.461,-20.020,-41.504,0.000,0
159399.205,-26.855,-20.020,-15.625,-29.785,0.000,0
159399.209,-26.367,-25.879,-30.273,-11.230,0.000,0
159399.213,-21.484,-28.320,-43.945,-17.090,0.000,0
159399.217,-22.949,-26.367,-27.344,-13.672,0.000,0
159399.221,-20.996,-30.762,-1.953,-15.625,0.000,0
159399.224,-19.531,-31.738,-26.855,-42.969,0.000,0
159399.228,-19.043,-25.391,-44.434,-43.457,0.000,0
159399.232,-22.949,-24.414,-28.320,-28.809,0.000,0
159399.236,-20.508,-22.461,-18.555,-23.438,0.000,0
159399.240,-9.766,-18.066,-11.230,-21.484,0.000,0
159399.244,-12.207,-15.625,-16.602,-16.602,0.000,0
159399.248,-15.625,-10.254,-17.090,-13.184,0.000,0
159399.252,-17.578,-9.277,-15.137,-3.906,0.000,0
159399.256,-23.438,-16.602,-19.531,-9.766,0.000,0
159399.260,-23.438,-17.578,-19.531,-38.086,0.000,0
159399.263,-23.926,-17.578,-15.625,-35.645,0.000,0
159399.267,-16.602,-20.508,-22.949,-29.297,0.000,0
159399.271,-17.578,-20.508,-38.574,-12.695,0.000,0
159399.275,-30.762,-23.438,-35.645,-25.879,0.000,0
159399.279,-29.297,-23.926,-22.949,-33.691,0.000,0
159399.283,-22.949,-18.555,-34.180,-16.602,0.000,0
159399.287,-28.320,-27.832,-34.180,-22.461,0.000,0
159399.291,-29.297,-27.344,-36.621,-14.648,0.000,0
159399.295,-17.090,-19.531,-29.785,-20.020,0.000,0
159399.299,-15.625,-19.043,-15.137,-19.531,0.000,0
159399.303,-20.020,-17.090,-18.555,-15.137,0.000,0
159399.306,-27.344,-18.555,-27.344,-26.367,0.000,0
159399.310,-20.020,-17.578,-43.457,-20.020,0.000,0
159399.314,-5.371,-18.555,-28.809,-16.602,0.000,0
159399.318,-12.695,-19.531,-11.719,-24.902,0.000,0
159399.322,-26.367,-17.090,-31.738,-21.484,0.000,0
159399.326,-30.762,-17.578,-41.504,-21.484,0.000,0
159399.330,-36.621,-18.066,-38.086,-27.344,0.000,0
159399.334,-38.086,-18.066,-22.949,-33.691,0.000,0
159399.338,-37.598,-22.949,-14.160,-39.062,0.000,0
159399.342,-29.297,-23.926,-39.062,-27.344,0.000,0
159399.346,-20.996,-20.020,-45.898,-13.184,0.000,0
159399.349,-26.855,-25.391,-20.508,-3.906,0.000,0
159399.353,-30.273,-20.508,-4.395,-9.766,0.000,0
159399.357,-17.578,-15.625,-15.137,-23.926,0.000,0
159399.361,-13.184,-20.020,-30.273,-14.648,0.000,0
159399.365,-26.855,-19.043,-21.973,-14.160,0.000,0
159399.369,-22.949,-14.648,-26.855,-19.043,0.000,0
159399.373,-26.855,-18.066,-36.621,-19.531,0.000,0
159399.377,-21.484,-19.043,-23.926,-32.715,0.000,0
159399.381,-13.184,-17.090,-33.203,-26.855,0.000,0
159399.385,-14.648,-21.484,-30.762,-23.926,0.000,0
159399.388,-11.230,-16.113,-20.020,-24.902,0.000,0
159399.392,-12.207,-16.113,-35.156,-15.137,0.000,0
159399.396,-15.137,-25.391,-18.555,-29.785,0.000,0
159399.400,-13.672,-26.367,-15.625,-24.902,0.000,0
159399.404,-24.414,-26.855,-22.949,-14.648,0.000,0
159399.408,-31.738,-29.785,-31.250,-21.484,0.000,0
159399.412,-30.273,-26.367,-27.832,-23.926,0.000,0
159399.416,-19.531,-22.461,-17.578,-34.180,0.000,0
159399.420,-19.043,-18.555,-27.344,-31.250,0.000,0
159399.424,-31.250,-21.973,-28.809,-27.832,0.000,0
159399.428,-24.902,-25.391,-26.855,-36.133,0.000,0
159399.431,-13.672,-18.066,-24.414,-21.484,0.000,0
159399.435,-6.348,-17.578,-12.207,-21.973,0.000,0
159399.439,-19.043,-16.602,-7.324,-30.273,0.000,0
159399.443,-31.250,-19.043,-16.602,-15.625,0.000,0
159399.447,-13.672,-17.578,-35.156,-11.230,0.000,0
159399.451,-8.301,-14.648,-37.598,-13.184,0.000,0
159399.455,-24.414,-20.020,-12.695,-18.555,0.000,0
159399.459,-31.738,-19.043,-16.602,-16.602,0.000,0
159399.463,-20.020,-19.043,-37.109,-19.531,0.000,0
159399.467,-27.832,-20.996,-26.367,-14.648,0.000,0
159399.471,-34.180,-21.973,-24.902,-2.441,0.000,0
159399.474,-17.578,-26.367,-22.461,-20.020,0.000,0
159399.478,-11.719,-26.855,-21.484,-32.715,0.000,0
159399.482,-13.672,-21.973,-23.926,-19.531,0.000,0
159399.486,-17.090,-21.973,-21.973,-9.766,0.000,0
159399.490,-24.414,-24.902,-32.227,-18.555,0.000,0
159399.494,-23.926,-24.902,-24.414,-26.367,0.000,0
159399.498,-20.996,-20.508,-11.230,-22.949,0.000,0
159399.502,-18.555,-16.602,-14.648,-17.578,0.000,0
159399.506,-13.184,-12.207,-29.785,-14.648,0.000,0
159399.510,-14.160,-14.648,-41.016,-11.719,0.000,0
159399.513,-18.555,-20.020,-19.531,-20.996,0.000,0
159399.517,-18.555,-19.531,-17.578,-28.320,0.000,0
159399.521,-4.883,-18.555,-41.992,-19.531,0.000,0
159399.525,-4.395,-20.508,-45.410,-9.766,0.000,0
159399.529,-14.648,-21.973,-29.297,-15.137,0.000,0
159399.533,-24.902,-24.414,-4.395,-20.508,0.000,0
159399.537,-25.879,-22.461,-9.277,-22.949,0.000,0
159399.541,-24.414,-23.438,-36.621,-39.062,0.000,0
159399.545,-30.762,-26.367,-31.738,-31.250,0.000,0
159399.549,-35.645,-30.762,-24.414,-9.277,0.000,0
159399.553,-29.785,-29.297,-32.715,-21.484,0.000,0
159399.556,-32.227,-25.879,-34.180,-29.297,0.000,0
159399.560,-37.598,-23.438,-40.527,-20.508,0.000,0
159399.564,-20.996,-22.949,-32.227,-21.973,0.000,0
159399.568,-26.855,-22.461,-35.156,-20.996,0.000,0
159399.572,-34.668,-23.438,-27.832,-25.879,0.000,0
159399.576,-32.715,-26.855,-26.367,-34.668,0.000,0
159399.580,-27.344,-22.949,-39.062,-29.785,0.000,0
159399.584,-27.344,-23.926,-40.039,-24.902,0.000,0
159399.588,-27.344,-21.484,-45.410,-20.020,0.000,0
159399.592,-18.555,-23.438,-21.484,-17.090,0.000,0
159399.596,-12.695,-24.414,-12.695,-20.508,0.000,0
159399.599,-11.719,-15.137,-45.410,-17.090,0.000,0
159399.603,-14.160,-17.578,-41.504,-4.395,0.000,0
159399.607,-10.742,-16.113,-20.020,-3.906,0.000,0
159399.611,-5.859,-16.113,-12.695,-22.461,0.000,0
159399.615,-10.254,-15.625,-16.602,-28.809,0.000,0
159399.619,-20.508,-16.602,-25.879,-16.113,0.000,0
159399.623,-28.809,-20.996,-28.809,-15.137,0.000,0
159399.627,-27.344,-20.020,-37.598,-19.531,0.000,0
159399.631,-21.973,-26.367,-29.297,-18.066,0.000,0
159399.635,-25.391,-25.879,-20.508,-18.555,0.000,0
159399.638,-31.250,-20.996,-28.320,-18.555,0.000,0
159399.642,-28.809,-24.414,-42.969,-31.738,0.000,0
159399.646,-8.301,-24.902,-35.156,-20.508,0.000,0
159399.650,-6.836,-27.344,-15.625,-14.160,0.000,0
159399.654,-46.875,-27.832,-23.438,-53.711,0.000,0
159399.658,-49.316,-13.184,-36.621,-55.664,0.000,0
159399.662,-29.785,-13.184,-31.738,-28.320,0.000,0
159399.666,-33.203,-20.508,-34.180,-34.180,0.000,0
159399.670,-41.016,-17.090,-28.809,-50.781,0.000,0
159399.674,-41.504,-11.230,-20.508,-53.711,0.000,0
159399.678,-40.527,-15.625,-32.715,-38.086,0.000,0
159399.681,-34.180,-13.672,-22.949,-28.809,0.000,0
159399.685,-26.855,-6.348,-31.738,-28.320,0.000,0
159399.689,-27.344,-11.719,-36.621,-28.809,0.000,0
159399.693,-23.926,-13.184,-17.578,-31.738,0.000,0
159399.697,-27.832,-16.602,-17.578,-20.508,0.000,0
159399.701,-24.414,-15.625,-22.461,-20.996,0.000,0
159399.705,-28.809,-10.254,-36.133,-32.715,0.000,0
159399.709,-37.109,-12.695,-20.020,-37.109,0.000,0
159399.713,-33.691,-15.137,-1.953,-36.621,0.000,0
159399.717,-29.785,-10.742,-14.648,-30.762,0.000,0
159399.721,-33.691,-8.789,-16.113,-37.598,0.000,0
159399.724,-36.133,-7.812,-10.742,-25.391,0.000,0
159399.728,-31.250,-8.789,-13.672,-10.742,0.000,0
159399.732,-26.367,-17.090,-20.508,-26.855,0.000,0
159399.736,-23.926,-19.531,-30.273,-30.762,0.000,0
159399.740,-26.855,-21.973,-37.598,-24.902,0.000,0
159399.744,-29.297,-23.926,-39.062,-21.973,0.000,1
159399.748,-21.973,-17.090,-30.273,-30.273,0.000,0
159399.752,-23.926,-16.113,-21.484,-39.551,0.000,0
159399.756,-31.738,-20.508,-30.273,-44.434,0.000,0
159399.760,-22.461,-16.602,-31.738,-35.645,0.000,0
159399.763,-24.902,-16.113,-31.250,-25.879,0.000,0
159399.767,-31.250,-26.367,-29.785,-32.715,0.000,0
159399.771,-40.039,-29.297,-22.949,-37.598,0.000,0
159399.775,-41.016,-25.879,-33.203,-34.668,0.000,0
159399.779,-36.133,-29.297,-45.898,-19.531,0.000,0
159399.783,-29.785,-30.273,-29.785,-23.438,0.000,0
159399.787,-15.137,-22.949,-4.883,-21.484,0.000,0
159399.791,-14.648,-19.043,-17.578,-24.414,0.000,0
159399.795,-17.578,-22.949,-31.738,-36.133,0.000,0
159399.799,-31.250,-23.438,-9.277,-43.457,0.000,0
159399.803,-33.203,-26.367,-15.625,-32.227,0.000,0
159399.806,-28.320,-27.344,-50.781,-22.949,0.000,0
159399.810,-32.227,-19.043,-32.227,-31.250,0.000,0
159399.814,-28.809,-19.043,-12.207,-18.555,0.000,0
159399.818,-16.113,-21.484,-20.508,-16.602,0.000,0
159399.822,-11.719,-20.508,-35.156,-27.832,0.000,0
159399.826,-16.113,-27.344,-42.480,-23.926,0.000,0
159399.830,-21.484,-22.949,-10.254,-30.762,0.000,0
159399.834,-23.438,-14.648,0.000,-41.504,0.000,0
159399.838,-13.672,-18.555,-30.762,-25.879,0.000,0
159399.842,-14.160,-18.066,-34.180,-27.344,0.000,0
159399.846,-22.949,-19.531,-28.320,-35.156,0.000,0
159399.849,-15.137,-20.996,-14.648,-29.297,0.000,0
159399.853,0.488,-19.531,-17.578,-25.879,0.000,0
159399.857,-3.906,-20.020,-28.320,-20.996,0.000,0
159399.861,-23.438,-17.578,-20.996,-13.184,0.000,0
159399.865,-32.715,-18.555,-24.902,-10.254,0.000,0
159399.869,-16.113,-20.996,-24.902,-20.996,0.000,0
159399.873,-10.742,-18.555,-15.137,-32.227,0.000,0
159399.877,-21.973,-17.090,-18.066,-27.344,0.000,0
159399.881,-19.043,-19.043,-24.414,-20.996,0.000,0
159399.885,-11.230,-20.020,-24.414,-18.555,0.000,0
159399.888,-11.719,-21.973,-6.836,-18.066,0.000,0
159399.892,-15.137,-18.066,-8.789,-31.738,0.000,0
159399.896,-15.625,-19.043,-29.297,-37.109,0.000,0
159399.900,-24.902,-25.391,-18.555,-31.738,0.000,0
159399.904,-28.320,-26.855,-20.508,-20.996,0.000,0
159399.908,-34.180,-24.414,-28.809,-23.926,0.000,0
159399.912,-37.598,-25.391,-21.973,-33.203,0.000,0
159399.916,-32.715,-30.273,-35.645,-23.438,0.000,0
159399.920,-38.086,-29.785,-28.809,-25.391,0.000,0
159399.924,-32.715,-24.902,-22.949,-28.320,0.000,0
159399.928,-26.367,-25.391,-26.367,-29.785,0.000,0
159399.931,-28.809,-25.391,-19.043,-31.250,0.000,0
159399.935,-14.648,-20.020,-25.391,-29.297,0.000,0
159399.939,-14.160,-23.926,-29.297,-27.832,0.000,0
159399.943,-22.461,-25.391,-36.621,-19.043,0.000,0
159399.947,-24.414,-21.484,-17.578,-21.973,0.000,0
159399.951,-27.832,-23.438,-14.160,-21.484,0.000,0
159399.955,-33.691,-20.996,-32.715,-17.578,0.000,0
159399.959,-31.738,-23.438,-33.691,-24.414,0.000,0
159399.963,-32.715,-25.391,-45.410,-27.344,0.000,0
159399.967,-42.969,-25.391,-25.879,-20.996,0.000,0
159399.971,-30.762,-26.367,-18.555,-24.414,0.000,0
159399.974,-21.484,-22.949,-38.086,-34.668,0.000,0
159399.978,-34.180,-22.949,-30.273,-23.926,0.000,0
159399.982,-34.180,-22.461,-28.320,-13.672,0.000,0
159399.986,-25.391,-20.508,-23.438,-16.602,0.000,0
159399.990,-29.785,-17.090,-16.602,-24.414,0.000,0
159399.994,-34.180,-19.043,-33.691,-22.949,0.000,0
159399.998,-25.391,-20.508,-35.156,-21.484,0.000,0
159400.002,-25.879,-18.066,-23.438,-20.508,0.000,0
159400.006,-26.367,-22.461,-28.320,-18.555,0.000,0
159400.010,-22.461,-19.043,-8.301,-35.156,0.000,0
159400.013,-13.672,-17.578,-6.836,-23.438,0.000,0
159400.017,-12.207,-22.949,-43.945,-7.812,0.000,0
159400.021,-20.020,-19.043,-39.062,-20.508,0.000,0
159400.025,-25.879,-19.531,-26.855,-25.879,0.000,0
159400.029,-23.438,-20.508,-23.438,-29.785,0.000,0
159400.033,-11.719,-20.020,-33.203,-23.438,0.000,0
159400.037,-18.555,-22.461,-26.855,-21.973,0.000,0
159400.041,-19.043,-24.414,-31.250,-20.020,0.000,0
159400.045,-14.648,-20.508,-38.574,-13.672,0.000,0
159400.049,-17.578,-20.996,-23.438,-26.855,0.000,0
159400.053,-24.902,-23.926,-28.809,-25.391,0.000,0
159400.056,-26.367,-20.508,-43.457,-13.672,0.000,0
159400.060,-25.391,-20.020,-50.781,-8.789,0.000,0
159400.064,-22.461,-22.461,-43.945,-16.113,0.000,0
159400.068,-22.461,-23.438,-18.066,-34.180,0.000,0
159400.072,-20.996,-19.531,-9.766,-29.297,0.000,0
159400.076,-22.461,-20.508,-26.855,-25.391,0.000,0
159400.080,-32.227,-20.020,-33.203,-22.949,0.000,0
159400.084,-29.785,-16.113,-23.438,-19.043,0.000,0
159400.088,-33.691,-19.043,-17.578,-28.320,0.000,0
159400.092,-31.738,-16.602,-32.227,-28.320,0.000,0
159400.096,-17.090,-16.113,-30.762,-20.508,0.000,0
159400.099,-24.414,-17.090,-15.625,-14.648,0.000,0
159400.103,-34.180,-20.508,-13.184,-22.949,0.000,0
159400.107,-29.785,-17.578,-24.414,-41.504,0.000,0
159400.111,-31.250,-15.625,-20.996,-55.176,0.000,0
159400.115,-25.391,-20.508,-16.602,-39.062,0.000,0
159400.119,-26.855,-21.973,-35.156,-14.160,0.000,0
159400.123,-29.297,-21.973,-39.551,-20.508,0.000,0
159400.127,-20.508,-20.508,-29.785,-21.484,0.000,0
159400.131,-24.902,-25.879,-28.320,-23.438,0.000,0
159400.135,-24.902,-25.879,-35.156,-24.902,0.000,0
159400.138,-22.461,-18.555,-34.668,-14.160,0.000,0
159400.142,-31.738,-23.926,-29.297,-8.301,0.000,0
159400.146,-35.156,-25.391,-19.531,-27.832,0.000,0
159400.150,-19.531,-23.438,-30.273,-21.484,0.000,0
159400.154,-19.531,-29.297,-47.363,-7.324,0.000,0
159400.158,-31.250,-33.691,-30.273,-15.137,0.000,0
159400.162,-30.762,-28.809,-17.090,-23.926,0.000,0
159400.166,-34.180,-25.879,-23.926,-22.461,0.000,0
159400.170,-37.598,-22.461,-30.762,-20.020,0.000,0
159400.174,-34.180,-26.367,-33.691,-20.020,0.000,0
159400.178,-40.039,-26.367,-33.203,-28.809,0.000,0
159400.181,-33.203,-21.973,-28.320,-31.738,0.000,0
159400.185,-20.996,-22.461,-20.996,-27.832,0.000,0
159400.189,-20.508,-14.648,-27.832,-24.902,0.000,0
159400.193,-31.738,-14.648,-37.109,-22.949,0.000,0
159400.197,-30.762,-17.578,-46.387,-17.578,0.000,0
159400.201,-27.344,-20.996,-40.527,-14.648,0.000,0
159400.205,-26.855,-16.113,-10.254,-21.973,0.000,0
159400.209,-10.254,-9.277,-24.902,-24.414,0.000,0
159400.213,-19.043,-20.020,-33.203,-33.691,0.000,0
159400.217,-30.273,-16.602,-28.809,-31.738,0.000,0
159400.221,-18.555,-0.488,-28.320,-14.160,0.000,0
159400.224,-7.324,0.977,-23.926,-18.066,0.000,0
159400.228,-24.414,-0.977,-40.039,-34.180,0.000,0
159400.232,-40.527,3.906,-50.293,-48.828,0.000,0
159400.236,-29.297,13.672,-42.969,-26.855,0.000,0
159400.240,-21.973,21.973,-38.574,-5.859,0.000,0
159400.244,-7.812,28.320,-38.086,-24.414,0.000,0
159400.248,-0.977,32.227,-31.738,-18.555,0.000,0
159400.252,-5.859,35.645,-23.438,-8.789,0.000,0
159400.256,0.488,40.039,-42.969,-7.324,0.000,0
159400.260,-17.578,34.668,-46.387,-31.250,0.000,0
159400.263,-37.109,37.109,-14.648,-47.852,0.000,0
159400.267,-29.297,41.016,-27.344,-28.320,0.000,0
159400.271,-22.461,33.691,-48.340,-41.992,0.000,0
159400.275,-25.879,32.227,-34.668,-47.852,0.000,0
159400.279,-21.973,31.738,-16.602,-31.738,0.000,0
159400.283,-27.832,31.250,-16.113,-40.527,0.000,0
159400.287,-32.227,23.438,-31.250,-39.062,0.000,0
159400.291,-34.180,18.066,-31.738,-31.738,0.000,0
159400.295,-50.293,20.508,-22.949,-20.508,0.000,0
159400.299,-41.992,13.184,-31.738,-23.438,0.000,0
159400.303,-35.156,5.371,-18.066,-46.387,0.000,0
159400.306,-32.715,4.883,-20.508,-37.598,0.000,0
159400.310,-32.715,6.836,-25.391,-39.551,0.000,0
159400.314,-31.250,0.977,-14.160,-40.039,0.000,0
159400.318,-31.250,-5.859,-16.113,-25.391,0.000,0
159400.322,-36.621,-13.672,-20.020,-25.879,0.000,0
159400.326,-29.297,-10.742,-21.484,-37.109,0.000,0
159400.330,-30.762,-9.277,-23.926,-43.457,0.000,0
159400.334,-37.598,-17.578,-31.738,-30.273,0.000,0
159400.338,-28.809,-22.461,-35.645,-20.508,0.000,0
159400.342,-21.973,-24.902,-18.066,-27.344,0.000,0
159400.346,-24.902,-26.367,-29.297,-19.531,0.000,0
159400.349,-22.461,-27.832,-45.898,-21.973,0.000,0
159400.353,-26.855,-32.715,-34.668,-39.551,0.000,0
159400.357,-19.531,-33.691,-29.297,-42.480,0.000,0
159400.361,-20.996,-35.156,-23.926,-54.688,0.000,0
159400.365,-26.367,-33.203,-16.113,-56.152,0.000,0
159400.369,-22.949,-30.762,-18.555,-32.715,0.000,0
159400.373,-16.113,-26.855,-27.832,-26.855,0.000,0
159400.377,-9.277,-27.344,-26.855,-20.020,0.000,0
159400.381,-22.461,-38.086,-11.719,-26.367,0.000,0
159400.385,-35.156,-33.203,-11.719,-36.621,0.000,0
159400.388,-20.020,-29.785,-30.273,-28.809,0.000,0
159400.392,-20.020,-36.621,-36.133,-36.133,0.000,0
159400.396,-27.344,-35.156,-30.762,-36.621,0.000,0
159400.400,-20.020,-32.227,-20.996,-37.109,0.000,0
159400.404,-19.531,-27.344,-13.672,-30.762,0.000,0
159400.408,-18.555,-22.949,-33.691,-20.508,0.000,0
159400.412,-4.883,-24.902,-36.621,-17.578,0.000,0
159400.416,-9.277,-30.762,-9.277,-3.906,0.000,0
159400.420,-15.625,-32.227,-4.395,-7.812,0.000,0
159400.424,-14.160,-27.832,-30.762,-17.578,0.000,0
159400.428,-14.160,-27.832,-19.531,-6.348,0.000,0
159400.431,-11.719,-29.785,-1.953,0.000,0.000,0
159400.435,-12.695,-25.879,-25.391,3.906,0.000,0
159400.439,-19.043,-25.391,-23.438,0.000,0.000,0
159400.443,-28.809,-32.715,-17.090,-15.137,0.000,0
159400.447,-33.691,-41.504,-38.086,-16.602,0.000,0
159400.451,-31.738,-55.176,-48.340,-22.461,0.000,0
159400.455,-41.016,-48.340,-36.621,-24.414,0.000,0
159400.459,-39.062,-41.504,-27.832,-23.926,0.000,0
159400.463,-34.668,-43.457,-26.367,-30.273,0.000,0
159400.467,-35.645,-43.457,-37.598,-26.367,0.000,0
159400.471,-32.715,-43.457,-49.316,-10.742,0.000,1
159400.474,-24.902,-41.504,-34.180,-20.020,0.000,0
159400.478,-10.254,-38.574,-31.738,-33.203,0.000,0
159400.482,-11.719,-38.086,-38.086,-26.855,0.000,0
159400.486,-20.508,-39.062,-39.062,-24.414,0.000,0
159400.490,-30.762,-38.086,-26.367,-27.344,0.000,0
159400.494,-29.297,-40.527,-36.133,-27.344,0.000,0
159400.498,-19.043,-38.574,-31.250,-27.344,0.000,0
159400.502,-20.996,-29.785,-13.672,-29.785,0.000,0
159400.506,-20.996,-35.645,-30.762,-30.762,0.000,0
159400.510,-18.066,-34.180,-41.992,-24.414,0.000,0
159400.513,-22.949,-27.344,-37.598,-8.789,0.000,0
159400.517,-20.020,-32.227,-22.949,-24.902,0.000,0
159400.521,-23.438,-33.691,-30.762,-47.363,0.000,0
159400.525,-23.926,-27.832,-38.086,-27.344,0.000,0
159400.529,-30.762,-30.273,-24.414,-19.043,0.000,0
159400.533,-24.414,-30.273,-30.762,-17.090,0.000,0
159400.537,-19.531,-30.273,-37.109,-21.484,0.000,0
159400.541,-25.391,-36.621,-40.527,-30.273,0.000,0
159400.545,-18.555,-33.691,-35.645,-23.438,0.000,0
159400.549,-14.160,-28.320,-30.273,-15.137,0.000,0
159400.553,-19.531,-27.344,-38.574,-21.973,0.000,0
159400.556,-20.996,-27.344,-22.461,-37.109,0.000,0
159400.560,-21.973,-25.391,-12.695,-35.645,0.000,0
159400.564,-20.508,-26.367,-24.902,-24.902,0.000,0
159400.568,-22.949,-27.832,-23.926,-9.277,0.000,0
159400.572,-26.855,-28.809,-42.480,-12.207,0.000,0
159400.576,-24.414,-34.180,-30.762,-22.461,0.000,0
159400.580,-21.973,-31.738,-11.719,-16.113,0.000,0
159400.584,-21.484,-28.809,-36.621,-6.836,0.000,0
159400.588,-22.949,-29.785,-39.551,-19.043,0.000,0
159400.592,-21.484,-29.297,-32.715,-34.180,0.000,0
159400.596,-22.461,-29.297,-12.207,-29.785,0.000,0
159400.599,-19.531,-26.855,-14.648,-28.809,0.000,0
159400.603,-23.926,-26.855,-31.738,-42.969,0.000,0
159400.607,-24.902,-31.738,-28.809,-36.133,0.000,0
159400.611,-24.902,-29.785,-29.785,-21.484,0.000,0
159400.615,-33.203,-31.250,-20.508,-41.992,0.000,0
159400.619,-26.367,-32.227,-16.602,-43.457,0.000,0
159400.623,-22.461,-28.809,-22.949,-27.344,0.000,0
159400.627,-25.879,-30.273,-25.879,-28.809,0.000,0
159400.631,-29.297,-28.809,-26.367,-20.996,0.000,0
159400.635,-32.227,-27.344,-24.902,-25.879,0.000,0
159400.638,-27.344,-30.762,-19.531,-42.480,0.000,0
159400.642,-17.578,-30.273,-34.668,-46.387,0.000,0
159400.646,-15.137,-29.785,-42.480,-42.969,0.000,0
159400.650,-19.043,-27.344,-28.320,-28.320,0.000,0
159400.654,-26.367,-29.785,-16.113,-30.273,0.000,0
159400.658,-31.250,-35.645,-18.555,-36.621,0.000,0
159400.662,-24.414,-31.738,-28.809,-20.020,0.000,0
159400.666,-29.297,-32.715,-17.090,-14.160,0.000,0
159400.670,-28.320,-33.203,-21.484,-16.602,0.000,0
159400.674,-19.043,-33.691,-38.574,-29.297,0.000,0
159400.678,-21.484,-30.273,-26.855,-44.434,0.000,0
159400.681,-26.367,-23.926,-25.391,-22.461,0.000,0
159400.685,-33.203,-27.832,-32.715,-20.996,0.000,0
159400.689,-31.250,-24.414,-36.133,-38.574,0.000,0
159400.693,-30.762,-23.438,-23.438,-37.109,0.000,0
159400.697,-31.250,-25.879,-7.324,-38.574,0.000,0
159400.701,-36.621,-24.902,-30.273,-33.203,0.000,0
159400.705,-30.273,-29.785,-41.016,-31.738,0.000,0
159400.709,-27.832,-32.715,-27.832,-20.996,0.000,0
159400.713,-28.809,-28.809,-21.484,-10.742,0.000,0
159400.717,-28.320,-25.879,-23.926,-25.391,0.000,0
159400.721,-31.738,-22.461,-38.574,-43.457,0.000,0
159400.724,-23.926,-29.297,-34.668,-30.762,0.000,0
159400.728,-23.438,-30.762,-27.344,-18.555,0.000,0
159400.732,-36.621,-21.973,-20.508,-21.484,0.000,0
159400.736,-36.133,-21.973,-28.320,-19.531,0.000,0
159400.740,-19.043,-23.926,-35.156,-27.344,0.000,0
159400.744,-21.973,-23.438,-20.996,-27.832,0.000,0
159400.748,-28.320,-25.879,-27.344,-16.602,0.000,0
159400.752,-25.879,-26.855,-28.809,-18.555,0.000,0
159400.756,-29.297,-24.902,-19.531,-29.297,0.000,0
159400.760,-25.879,-18.066,-20.996,-24.902,0.000,0
159400.763,-11.230,-21.973,-34.180,-27.832,0.000,0
159400.767,-14.160,-22.949,-45.898,-34.180,0.000,0
159400.771,-23.926,-21.973,-26.367,-38.086,0.000,0
159400.775,-11.719,-24.414,-14.648,-41.016,0.000,0
159400.779,-5.371,-21.484,-23.926,-32.715,0.000,0
159400.783,-12.695,-23.438,-17.578,-23.438,0.000,0
159400.787,-26.367,-23.926,-20.020,-17.090,0.000,0
159400.791,-32.715,-16.602,-27.832,-15.625,0.000,0
159400.795,-16.602,-20.508,-20.996,-19.043,0.000,0
159400.799,-18.066,-20.020,-15.137,-19.043,0.000,0
159400.803,-32.227,-17.578,-25.879,-21.973,0.000,0
159400.806,-25.391,-20.996,-40.039,-23.438,0.000,0
159400.810,-14.648,-22.949,-44.922,-17.090,0.000,0
159400.814,-20.996,-24.414,-25.391,-22.461,0.000,0
159400.818,-22.949,-23.438,-8.789,-32.227,0.000,0
159400.822,-13.184,-24.902,-30.762,-28.320,0.000,0
159400.826,-21.973,-27.832,-44.434,-22.949,0.000,0
159400.830,-33.691,-24.414,-24.414,-24.414,0.000,0
159400.834,-34.668,-23.438,7.324,-36.621,0.000,0
159400.838,-32.715,-29.297,-18.555,-24.414,0.000,0
159400.842,-21.484,-26.367,-53.711,-7.812,0.000,0
159400.846,-14.160,-22.461,-22.949,-13.184,0.000,0
159400.849,-8.301,-22.949,-4.395,4.395,0.000,0
159400.853,0.000,-24.902,-19.531,0.000,0.000,0
159400.857,-22.949,-27.832,-37.109,-40.039,0.000,0
159400.861,-39.551,-26.367,-17.090,-33.691,0.000,0
159400.865,-28.320,-21.973,-4.395,-10.254,0.000,0
159400.869,-23.926,-23.926,-27.344,-9.766,0.000,0
159400.873,-31.738,-33.691,-20.996,-20.996,0.000,0
159400.877,-42.969,-31.250,-12.207,-32.227,0.000,0
159400.881,-31.738,-23.926,-24.414,-31.250,0.000,0
159400.885,-13.672,-26.367,-35.645,-25.879,0.000,0
159400.888,-21.484,-24.902,-38.086,-11.719,0.000,0
159400.892,-20.508,-28.320,-15.137,-12.695,0.000,0
159400.896,-18.555,-25.879,-5.859,-27.832,0.000,0
159400.900,-26.367,-19.043,-21.973,-27.832,0.000,0
159400.904,-23.926,-24.902,-28.320,-22.949,0.000,0
159400.908,-28.809,-30.273,-21.973,-25.391,0.000,0
159400.912,-24.902,-31.250,-12.207,-35.645,0.000,0
159400.916,-17.090,-28.320,-15.625,-33.203,0.000,0
159400.920,-19.043,-28.320,-17.578,-18.066,0.000,0
159400.924,-14.160,-21.973,-13.184,-9.766,0.000,0
159400.928,-3.418,-20.996,-25.391,-12.695,0.000,0
159400.931,-2.441,-24.902,-13.184,-20.020,0.000,0
159400.935,-23.438,-26.855,2.441,-21.973,0.000,0
159400.939,-37.109,-27.344,-14.160,-18.555,0.000,0
159400.943,-21.973,-21.973,-24.414,-4.395,0.000,0
159400.947,-17.090,-19.531,-27.832,0.488,0.000,0
159400.951,-19.043,-18.066,-6.836,-7.812,0.000,0
159400.955,-14.160,-16.602,4.883,-25.391,0.000,0
159400.959,-13.672,-18.066,-26.367,-26.855,0.000,0
159400.963,-17.090,-30.273,-25.391,-22.461,0.000,0
159400.967,-21.484,-28.809,-24.902,-20.020,0.000,0
159400.971,-23.438,-24.414,-21.973,-36.621,0.000,0
159400.974,-22.461,-28.320,-22.461,-37.598,0.000,0
159400.978,-20.020,-23.926,-33.203,-20.020,0.000,0
159400.982,-19.043,-26.367,-25.391,-18.066,0.000,0
159400.986,-13.184,-23.438,-18.066,-20.020,0.000,0
159400.990,-19.043,-25.879,-20.508,-37.109,0.000,0
159400.994,-28.320,-29.785,-20.996,-42.969,0.000,0
159400.998,-31.250,-26.367,-12.695,-37.109,0.000,0
159401.002,-43.945,-26.855,-24.414,-26.367,0.000,0
159401.006,-34.180,-25.879,-40.039,-21.484,0.000,0
159401.010,-23.438,-27.832,-20.996,-20.020,0.000,0
159401.013,-23.926,-29.785,-14.648,-24.902,0.000,0
159401.017,-19.531,-25.391,-31.738,-22.949,0.000,0
159401.021,-14.648,-25.879,-31.738,-23.926,0.000,0
159401.025,-20.508,-27.344,-22.461,-28.809,0.000,1
159401.029,-37.109,-21.973,-17.090,-31.250,0.000,0
159401.033,-36.133,-23.926,-20.508,-41.992,0.000,0
159401.037,-30.273,-22.949,-26.367,-32.715,0.000,0
159401.041,-38.574,-22.949,-26.855,-24.902,0.000,0
159401.045,-35.645,-21.973,-33.203,-22.461,0.000,0
159401.049,-18.066,-23.926,-31.738,-19.531,0.000,0
159401.053,-25.391,-25.879,-20.996,-34.180,0.000,0
159401.056,-38.086,-20.020,-22.461,-27.832,0.000,0
159401.060,-29.785,-22.461,-21.973,-19.531,0.000,0
159401.064,-26.855,-24.902,-30.762,-3.906,0.000,0
159401.068,-23.438,-20.996,-31.738,-8.789,0.000,0
159401.072,-32.227,-24.902,-23.438,-37.598,0.000,0
159401.076,-32.715,-26.367,-29.297,-31.738,0.000,0
159401.080,-26.855,-26.367,-30.762,-21.973,0.000,0
159401.084,-32.227,-24.414,-28.809,-24.414,0.000,0
159401.088,-39.551,-29.297,-30.273,-28.809,0.000,0
159401.092,-42.969,-34.668,-31.738,-41.992,0.000,0
159401.096,-39.062,-34.180,-54.688,-42.480,0.000,0
159401.099,-39.062,-30.273,-42.480,-28.809,0.000,0
159401.103,-42.969,-26.855,-26.367,-20.508,0.000,0
159401.107,-44.434,-30.273,-37.598,-21.484,0.000,0
159401.111,-41.504,-28.809,-28.320,-28.320,0.000,0
159401.115,-40.039,-29.297,-31.250,-36.621,0.000,0
159401.119,-31.738,-29.785,-37.598,-30.762,0.000,0
159401.123,-30.762,-20.996,-37.598,-24.902,0.000,0
159401.127,-33.691,-27.832,-37.598,-31.250,0.000,0
159401.131,-28.809,-29.297,-16.602,-36.621,0.000,0
159401.135,-25.879,-22.461,-19.043,-33.691,0.000,0
159401.138,-27.344,-25.391,-43.457,-28.320,0.000,0
159401.142,-20.996,-29.297,-40.039,-16.602,0.000,0
159401.146,-31.738,-27.344,-19.531,-16.113,0.000,0
159401.150,-45.410,-25.879,-17.090,-32.715,0.000,0
159401.154,-37.598,-28.320,-40.039,-33.691,0.000,0
159401.158,-33.203,-24.902,-46.875,-34.668,0.000,0
159401.162,-33.691,-20.996,-32.715,-31.250,0.000,0
159401.166,-31.738,-20.020,-33.691,-14.160,0.000,0
159401.170,-28.320,-19.531,-26.855,-16.113,0.000,0
159401.174,-30.273,-20.996,-21.484,-23.926,0.000,0
159401.178,-26.367,-20.996,-33.691,-19.043,0.000,0
159401.181,-28.320,-20.508,-41.016,-19.043,0.000,0
159401.185,-30.273,-20.996,-39.551,-27.344,0.000,0
159401.189,-29.785,-20.508,-20.996,-34.668,0.000,0
159401.193,-29.297,-19.043,-22.949,-29.785,0.000,0
159401.197,-23.438,-18.066,-38.574,-24.902,0.000,0
159401.201,-23.926,-23.438,-33.203,-22.461,0.000,0
159401.205,-29.297,-24.902,-32.227,-18.555,0.000,0
159401.209,-27.832,-17.578,-23.438,-26.367,0.000,0
159401.213,-22.949,-17.578,-24.902,-30.273,0.000,0
159401.217,-23.438,-22.949,-34.668,-18.555,0.000,0
159401.221,-25.879,-17.090,-26.855,-16.113,0.000,0
159401.224,-28.809,-14.648,-31.250,-24.414,0.000,0
159401.228,-19.531,-22.461,-33.691,-29.297,0.000,0
159401.232,-24.902,-25.391,-25.391,-28.320,0.000,0
159401.236,-29.785,-23.438,-23.438,-30.762,0.000,0
159401.240,-27.344,-24.414,-26.855,-31.738,0.000,0
159401.244,-28.320,-28.809,-32.227,-27.832,0.000,0
159401.248,-20.508,-23.926,-27.344,-28.320,0.000,0
159401.252,-9.277,-15.625,-32.715,-26.367,0.000,0
159401.256,-7.812,-18.555,-41.016,-13.184,0.000,0
159401.260,-10.742,-23.926,-41.992,-12.207,0.000,0
159401.263,-14.160,-21.484,-36.133,-10.742,0.000,0
159401.267,-23.438,-24.902,-22.461,-11.719,0.000,0
159401.271,-41.992,-29.297,-23.438,-24.414,0.000,0
159401.275,-46.875,-24.902,-39.062,-24.414,0.000,0
159401.279,-42.969,-26.367,-32.715,-25.391,0.000,0
159401.283,-31.250,-26.855,-30.273,-17.578,0.000,0
159401.287,-23.926,-21.484,-29.785,-30.273,0.000,0
159401.291,-24.902,-18.555,-20.996,-32.227,0.000,0
159401.295,-25.879,-25.879,-26.367,-15.137,0.000,0
159401.299,-25.879,-27.832,-27.344,-21.484,0.000,0
159401.303,-17.090,-21.973,-33.691,-21.484,0.000,0
159401.306,-21.973,-19.043,-37.598,-34.668,0.000,0
159401.310,-27.344,-22.949,-18.066,-43.945,0.000,0
159401.314,-32.715,-20.996,-13.672,-28.320,0.000,0
159401.318,-31.250,-19.531,-26.367,-22.949,0.000,0
159401.322,-19.531,-17.578,-50.293,-20.996,0.000,0
159401.326,-23.438,-16.113,-31.738,-24.902,0.000,0
159401.330,-30.762,-20.020,-9.766,-31.738,0.000,0
159401.334,-19.531,-23.438,-42.480,-23.438,0.000,0
159401.338,-21.973,-20.020,-41.016,-14.648,0.000,0
159401.342,-25.391,-15.137,-27.832,-12.695,0.000,0
159401.346,-15.625,-17.578,-11.230,-18.066,0.000,0
159401.349,-33.203,-17.090,-19.043,-23.926,0.000,0
159401.353,-32.227,-20.996,-32.227,-14.648,0.000,0
159401.357,-20.508,-18.555,-33.203,-3.418,0.000,0
159401.361,-20.996,-24.902,-29.785,-4.883,0.000,0
159401.365,-32.227,-26.367,-26.855,-25.391,0.000,0
159401.369,-36.133,-20.508,-21.973,-36.133,0.000,0
159401.373,-30.273,-17.578,-20.508,-22.461,0.000,0
159401.377,-30.762,-20.508,-33.203,-34.668,0.000,0
159401.381,-23.438,-24.414,-39.551,-39.551,0.000,0
159401.385,-17.090,-27.832,-25.879,-35.156,0.000,0
159401.388,-29.785,-28.320,-28.809,-38.574,0.000,0
159401.392,-36.133,-26.855,-38.086,-26.367,0.000,0
159401.396,-27.344,-23.438,-29.297,-13.184,0.000,0
159401.400,-29.785,-26.367,-25.879,-11.230,0.000,0
159401.404,-35.645,-27.832,-28.809,-21.484,0.000,0
159401.408,-33.203,-22.949,-25.879,-35.645,0.000,0
159401.412,-22.461,-20.020,-23.926,-30.273,0.000,0
159401.416,-20.996,-19.043,-16.113,-11.719,0.000,0
159401.420,-20.508,-18.066,-31.250,-9.277,0.000,0
159401.424,-10.254,-18.066,-33.691,-25.391,0.000,0
159401.428,-18.555,-18.066,-20.020,-37.109,0.000,0
159401.431,-28.809,-20.996,-28.809,-26.367,0.000,0
159401.435,-28.320,-22.949,-37.598,-17.578,0.000,0
159401.439,-36.133,-23.438,-40.039,-26.855,0.000,0
159401.443,-24.902,-28.320,-25.391,-34.668,0.000,0
159401.447,-28.809,-28.320,-7.324,-44.434,0.000,0
159401.451,-36.133,-25.391,-36.621,-40.039,0.000,0
159401.455,-37.598,-24.902,-50.781,-30.762,0.000,0
159401.459,-41.016,-33.203,-23.926,-17.578,0.000,0
159401.463,-35.645,-32.715,-16.113,-21.484,0.000,0
159401.467,-34.668,-23.438,-20.508,-30.762,0.000,0
159401.471,-35.645,-20.020,-33.691,-22.461,0.000,0
159401.474,-29.785,-20.996,-31.250,-29.785,0.000,0
159401.478,-32.227,-23.926,-21.484,-31.250,0.000,0
159401.482,-26.855,-22.949,-22.949,-34.180,0.000,0
159401.486,-31.250,-25.391,-21.484,-42.480,0.000,0
159401.490,-41.992,-31.738,-15.625,-36.133,0.000,0
159401.494,-37.598,-34.180,-20.996,-26.367,0.000,0
159401.498,-25.879,-25.391,-28.320,-24.902,0.000,0
159401.502,-28.809,-23.926,-27.344,-24.902,0.000,0
159401.506,-28.809,-31.738,-19.043,-30.273,0.000,0
159401.510,-23.926,-29.297,-31.738,-26.367,0.000,0
159401.513,-37.598,-34.180,-41.504,-31.250,0.000,0
159401.517,-35.156,-32.715,-36.621,-28.809,0.000,0
159401.521,-29.297,-30.273,-15.137,-18.555,0.000,0
159401.525,-31.738,-24.902,-7.812,-20.996,0.000,0
159401.529,-39.062,-20.020,-24.902,-28.320,0.000,0
159401.533,-31.250,-27.832,-39.551,-28.320,0.000,0
159401.537,-23.926,-30.273,-40.527,-24.414,0.000,0
159401.541,-23.926,-20.996,-24.902,-21.484,0.000,0
159401.545,-22.949,-21.484,-12.695,-33.691,0.000,0
159401.549,-23.926,-26.367,-12.695,-41.016,0.000,0
159401.553,-25.391,-24.902,-22.949,-39.062,0.000,0
159401.556,-31.738,-22.461,-41.504,-27.832,0.000,0
159401.560,-24.902,-26.855,-42.969,-24.414,0.000,0
159401.564,-11.719,-25.879,-4.395,-36.621,0.000,0
159401.568,-24.902,-23.438,-7.324,-24.902,0.000,0
159401.572,-33.691,-22.461,-41.992,-10.254,0.000,0
159401.576,-32.715,-22.461,-34.180,-20.020,0.000,0
159401.580,-27.344,-22.949,-18.555,-31.250,0.000,0
159401.584,-28.320,-20.508,-10.254,-31.250,0.000,0
159401.588,-37.598,-22.949,-30.273,-24.902,0.000,0
159401.592,-21.484,-25.879,-42.480,-28.809,0.000,0
159401.596,-20.020,-20.996,-23.438,-25.879,0.000,0
159401.599,-25.391,-20.996,-28.809,-25.391,0.000,0
159401.603,-20.996,-28.809,-32.715,-41.016,0.000,0
159401.607,-23.438,-30.273,-39.551,-36.133,0.000,0
159401.611,-32.227,-27.344,-20.996,-28.809,0.000,0
159401.615,-18.555,-29.785,-24.902,-22.461,0.000,0
159401.619,-13.672,-26.367,-37.109,-17.090,0.000,0
159401.623,-26.855,-26.855,-18.555,-31.738,0.000,0
159401.627,-27.832,-26.855,-23.438,-25.879,0.000,0
159401.631,-21.973,-21.484,-24.414,-16.113,0.000,0
159401.635,-14.160,-20.508,-27.344,-18.555,0.000,0
159401.638,-23.926,-20.996,-33.691,-25.879,0.000,0
159401.642,-21.973,-15.625,-6.348,-25.391,0.000,0
159401.646,-22.461,-21.484,-10.254,-11.719,0.000,0
159401.650,-35.156,-31.250,-36.133,-10.742,0.000,0
159401.654,-30.273,-29.297,-22.461,-20.020,0.000,0
159401.658,-20.508,-27.832,-24.414,-17.578,0.000,0
159401.662,-14.160,-25.391,-21.973,-37.598,0.000,0
159401.666,-14.160,-24.902,-21.484,-35.645,0.000,0
159401.670,-24.414,-26.367,-27.344,-30.273,0.000,0
159401.674,-25.391,-23.926,-32.715,-35.156,0.000,0
159401.678,-13.184,-24.902,-33.691,-28.809,0.000,0
159401.681,-24.414,-27.344,-7.812,-36.621,0.000,0
159401.685,-29.297,-20.996,-15.625,-40.039,0.000,0
159401.689,-14.648,-21.484,-40.039,-31.738,0.000,0
159401.693,-20.020,-23.438,-28.809,-21.484,0.000,1
159401.697,-21.973,-22.461,-27.832,-13.672,0.000,0
159401.701,-29.785,-27.344,-13.672,-30.762,0.000,0
159401.705,-29.297,-33.691,-18.066,-44.434,0.000,0
159401.709,-17.578,-27.832,-42.969,-33.203,0.000,0
159401.713,-23.926,-20.996,-39.551,-31.738,0.000,0
159401.717,-38.086,-22.949,-27.344,-34.180,0.000,0
159401.721,-32.227,-22.949,-21.973,-28.320,0.000,0
159401.724,-24.414,-26.367,-27.832,-32.715,0.000,0
159401.728,-21.973,-32.715,-35.156,-38.086,0.000,0
159401.732,-20.996,-29.785,-26.367,-26.367,0.000,0
159401.736,-21.973,-27.832,-35.645,-21.973,0.000,0
159401.740,-20.996,-26.855,-34.668,-34.180,0.000,0
159401.744,-20.508,-21.484,-17.578,-37.109,0.000,0
159401.748,-28.320,-20.508,-23.438,-28.320,0.000,0
159401.752,-20.996,-22.949,-44.434,-27.832,0.000,0
159401.756,-14.648,-22.949,-33.691,-25.391,0.000,0
159401.760,-26.367,-26.367,-20.508,-28.320,0.000,0
159401.763,-29.297,-24.414,-29.785,-35.645,0.000,0
159401.767,-20.508,-19.531,-47.852,-28.809,0.000,0
159401.771,-13.184,-22.949,-52.734,-24.902,0.000,0
159401.775,-16.113,-20.020,-33.203,-15.625,0.000,0
159401.779,-28.809,-20.996,-26.367,-10.742,0.000,0
159401.783,-29.297,-21.484,-26.855,-21.484,0.000,0
159401.787,-20.508,-23.926,-33.203,-14.160,0.000,0
159401.791,-26.855,-21.973,-21.484,-20.020,0.000,0
159401.795,-31.250,-23.438,-27.832,-35.156,0.000,0
159401.799,-28.320,-23.926,-31.250,-28.809,0.000,0
159401.803,-35.156,-19.043,-21.484,-32.715,0.000,0
159401.806,-30.762,-21.484,-29.297,-40.039,0.000,0
159401.810,-28.320,-22.949,-31.250,-34.668,0.000,0
159401.814,-25.879,-20.508,-32.227,-10.254,0.000,0
159401.818,-24.414,-17.578,-28.320,-16.602,0.000,0
159401.822,-34.180,-16.113,-26.367,-32.227,0.000,0
159401.826,-20.996,-13.672,-40.527,-23.926,0.000,0
159401.830,-25.391,-14.648,-38.574,-22.461,0.000,0
159401.834,-34.180,-15.625,-16.602,-20.996,0.000,0
159401.838,-21.973,-25.391,-16.113,-33.203,0.000,0
159401.842,-9.766,-20.508,-20.508,-37.109,0.000,0
159401.846,-10.254,-10.742,-17.578,-30.762,0.000,0
159401.849,-17.578,-15.625,-20.508,-33.691,0.000,0
159401.853,-18.066,-17.090,-34.668,-25.391,0.000,0
159401.857,-20.996,-16.113,-23.438,-30.273,0.000,0
159401.861,-22.461,-12.695,-18.555,-30.273,0.000,0
159401.865,-19.043,-17.090,-36.621,-24.414,0.000,0
159401.869,-18.555,-20.020,-34.180,-22.461,0.000,0
159401.873,-10.254,-15.137,-29.297,-15.137,0.000,0
159401.877,-0.977,-11.230,-6.836,-23.438,0.000,0
159401.881,-11.230,-14.160,-6.836,-30.273,0.000,0
159401.885,-7.324,-15.137,-31.250,-20.996,0.000,0
159401.888,-3.906,-12.695,-39.062,-17.090,0.000,0
159401.892,-18.555,-21.973,-31.250,-14.648,0.000,0
159401.896,-30.273,-27.832,-8.301,-12.207,0.000,0
159401.900,-33.691,-20.020,-26.367,-32.715,0.000,0
159401.904,-37.109,-14.648,-39.062,-39.551,0.000,0
159401.908,-32.715,-11.719,-17.578,-30.273,0.000,0
159401.912,-16.602,-15.625,-17.578,-23.438,0.000,0
159401.916,-20.020,-19.043,-17.090,-25.391,0.000,0
159401.920,-27.344,-24.902,-14.160,-34.180,0.000,0
159401.924,-21.973,-29.785,-26.367,-18.066,0.000,0
159401.928,-24.414,-23.926,-22.949,-16.113,0.000,0
159401.931,-21.973,-20.508,-34.668,-22.461,0.000,0
159401.935,-21.973,-24.414,-24.414,-20.508,0.000,0
159401.939,-41.016,-26.367,-2.930,-37.109,0.000,0
159401.943,-22.461,-21.973,-18.555,-34.668,0.000,0
159401.947,-10.742,-22.461,-25.879,-21.484,0.000,0
159401.951,-29.785,-25.879,-34.668,-23.926,0.000,0
159401.955,-22.949,-28.320,-24.902,-28.809,0.000,0
159401.959,-17.090,-20.996,-12.695,-26.855,0.000,0
159401.963,-25.879,-15.137,-38.574,-7.812,0.000,0
159401.967,-21.973,-20.508,-42.969,-16.113,0.000,0
159401.971,-25.879,-21.973,-20.996,-27.344,0.000,0
159401.974,-33.203,-24.414,-9.277,-26.855,0.000,0
159401.978,-29.785,-21.973,-22.461,-36.133,0.000,0
159401.982,-20.508,-18.066,-24.414,-30.762,0.000,0
159401.986,-23.438,-24.902,-10.742,-31.738,0.000,0
159401.990,-31.738,-28.809,-45.410,-11.719,0.000,0
159401.994,-27.344,-24.414,-32.227,-15.625,0.000,0
159401.998,-28.320,-21.484,-33.203,-20.996,0.000,0
159402.002,-32.227,-21.484,-57.617,-24.414,0.000,0
159402.006,-25.879,-23.926,-43.945,-23.926,0.000,0
159402.010,-26.855,-23.926,-31.738,-20.508,0.000,0
159402.013,-31.738,-22.949,-15.137,-32.227,0.000,0
159402.017,-41.504,-27.344,-18.555,-28.809,0.000,0
159402.021,-33.691,-27.344,-24.902,-27.832,0.000,0
159402.025,-21.484,-20.020,-18.555,-28.809,0.000,0
159402.029,-29.297,-21.973,-20.996,-21.484,0.000,0
159402.033,-29.785,-31.250,-30.273,-38.086,0.000,0
159402.037,-20.996,-27.832,-31.738,-30.273,0.000,0
159402.041,-23.926,-24.902,-23.926,-12.207,0.000,0
159402.045,-28.809,-29.297,-25.391,-16.113,0.000,0
159402.049,-26.367,-28.320,-27.344,-19.531,0.000,0
159402.053,-15.625,-25.391,-19.043,-31.738,0.000,0
159402.056,-15.137,-25.879,-5.859,-40.527,0.000,0
159402.060,-22.461,-25.391,-16.602,-34.180,0.000,0
159402.064,-17.578,-22.949,-50.293,-22.949,0.000,0
159402.068,-21.973,-22.949,-45.898,-24.414,0.000,0
159402.072,-31.250,-26.855,-13.672,-28.809,0.000,0
159402.076,-19.531,-25.879,-20.020,-28.320,0.000,0
159402.080,-7.812,-34.180,-38.086,-26.855,0.000,0
159402.084,-19.043,-33.691,-32.227,-29.785,0.000,0
159402.088,-27.832,-24.902,-35.156,-22.461,0.000,0
159402.092,-20.020,-29.785,-32.715,-27.344,0.000,0
159402.096,-27.344,-25.391,-23.438,-34.668,0.000,0
159402.099,-31.250,-19.043,-31.250,-20.996,0.000,0
159402.103,-19.531,-21.973,-37.598,-20.020,0.000,0
159402.107,-11.719,-16.113,-33.691,-20.996,0.000,0
159402.111,-15.625,-10.742,-20.020,-13.672,0.000,0
159402.115,-18.066,-20.508,-17.578,-18.066,0.000,0
159402.119,-21.484,-18.066,-27.832,-21.484,0.000,0
159402.123,-12.695,-14.648,-29.297,0.977,0.000,0
159402.127,1.465,-15.625,-37.598,5.371,0.000,0
159402.131,-27.344,-16.113,-23.926,-25.391,0.000,0
159402.135,-51.758,-19.531,-24.414,-52.734,0.000,0
159402.138,-34.668,-10.254,-37.598,-29.297,0.000,0
159402.142,-24.902,-9.277,-25.391,-16.602,0.000,0
159402.146,-39.062,-16.113,-25.391,-32.227,0.000,0
159402.150,-34.668,-15.137,-29.785,-30.762,0.000,0
159402.154,-19.531,-20.508,-30.762,-32.715,0.000,0
159402.158,-21.973,-19.531,-33.203,-32.227,0.000,0
159402.162,-29.785,-15.625,-13.184,-24.414,0.000,0
159402.166,-25.879,-19.531,-18.066,-28.320,0.000,0
159402.170,-16.113,-20.508,-37.109,-30.762,0.000,0
159402.174,-20.996,-24.902,-21.973,-37.109,0.000,0
159402.178,-41.016,-28.809,-19.043,-26.855,0.000,0
159402.181,-24.414,-27.344,-32.715,-21.973,0.000,0
159402.185,-14.160,-19.531,-30.273,-36.133,0.000,0
159402.189,-21.484,-15.137,-19.531,-28.320,0.000,0
159402.193,-21.973,-18.066,-16.113,-27.344,0.000,0
159402.197,-25.391,-25.879,-34.180,-31.738,0.000,0
159402.201,-24.902,-24.414,-38.086,-25.879,0.000,0
159402.205,-24.902,-24.414,-37.109,-21.484,0.000,0
159402.209,-26.855,-26.855,-26.367,-23.438,0.000,0
159402.213,-33.691,-35.156,-31.250,-29.297,0.000,0
159402.217,-21.484,-33.203,-49.805,-29.297,0.000,0
159402.221,-27.832,-25.391,-21.973,-21.484,0.000,0
159402.224,-39.062,-26.855,-10.742,-23.438,0.000,0
159402.228,-26.367,-25.391,-20.508,-32.227,0.000,0
159402.232,-23.438,-28.320,-12.695,-33.203,0.000,0
159402.236,-27.832,-23.926,-27.832,-31.738,0.000,0
159402.240,-22.949,-26.367,-37.109,-22.949,0.000,0
159402.244,-15.625,-28.809,-36.133,-14.160,0.000,1
159402.248,-23.926,-24.414,-26.855,-21.973,0.000,0
159402.252,-27.832,-24.414,-7.324,-33.691,0.000,0
159402.256,-10.742,-21.484,-18.066,-27.344,0.000,0
159402.260,-20.020,-24.902,-36.133,-27.344,0.000,0
159402.263,-28.320,-28.320,-37.598,-25.391,0.000,0
159402.267,-25.879,-25.879,-6.348,-13.672,0.000,0
159402.271,-21.973,-24.414,-13.672,-25.879,0.000,0
159402.275,-13.672,-25.879,-27.832,-32.715,0.000,0
159402.279,-15.137,-22.949,-25.879,-1.953,0.000,0
159402.283,-22.461,-19.531,-42.969,-0.488,0.000,0
159402.287,-21.973,-20.508,-43.457,-19.043,0.000,0
159402.291,-28.809,-25.879,-25.879,-29.785,0.000,0
159402.295,-21.973,-25.879,-30.762,-29.297,0.000,0
159402.299,-20.996,-21.973,-42.969,-33.203,0.000,0
159402.303,-34.668,-20.020,-43.945,-27.832,0.000,0
159402.306,-23.926,-21.484,-48.340,-23.926,0.000,0
159402.310,-30.273,-27.832,-21.484,-38.574,0.000,0
159402.314,-41.504,-25.391,-16.602,-30.273,0.000,0
159402.318,-27.832,-24.414,-44.922,-23.438,0.000,0
159402.322,-25.879,-20.508,-36.621,-21.973,0.000,0
159402.326,-20.996,-16.113,-21.973,-23.438,0.000,0
159402.330,-15.137,-21.484,-18.066,-29.785,0.000,0
159402.334,-20.508,-18.066,-27.832,-25.879,0.000,0
159402.338,-20.508,-19.043,-28.320,-28.320,0.000,0
159402.342,-21.484,-24.902,-24.414,-28.320,0.000,0
159402.346,-18.066,-20.020,-27.832,-23.926,0.000,0
159402.349,-11.230,-17.090,-24.414,-18.066,0.000,0
159402.353,-16.602,-16.602,-27.832,-20.996,0.000,0
159402.357,-23.926,-13.672,-26.855,-23.438,0.000,0
159402.361,-20.508,-15.625,-30.762,-14.648,0.000,0
159402.365,-37.109,-22.949,-38.086,-26.855,0.000,0
159402.369,-33.203,-20.508,-17.578,-41.992,0.000,0
159402.373,-18.555,-13.672,-16.602,-26.855,0.000,0
159402.377,-27.832,-18.555,-31.738,-21.484,0.000,0
159402.381,-25.879,-18.555,-27.832,-13.672,0.000,0
159402.385,-30.762,-13.184,-31.250,-11.719,0.000,0
159402.388,-39.062,-24.414,-27.344,-27.344,0.000,0
159402.392,-30.273,-26.367,-24.414,-40.039,0.000,0
159402.396,-26.855,-18.555,-33.203,-45.898,0.000,0
159402.400,-29.785,-18.555,-27.832,-38.574,0.000,0
159402.404,-32.715,-20.020,-25.391,-26.367,0.000,0
159402.408,-21.973,-19.531,-31.738,-23.438,0.000,0
159402.412,-17.090,-15.625,-22.949,-29.785,0.000,0
159402.416,-27.832,-17.090,-26.855,-24.414,0.000,0
159402.420,-23.926,-23.926,-41.016,-16.602,0.000,0
159402.424,-22.461,-27.344,-38.574,-19.531,0.000,0
159402.428,-27.832,-21.484,-18.555,-23.438,0.000,0
159402.431,-16.602,-19.043,-12.207,-32.715,0.000,0
159402.435,-21.484,-20.020,-30.273,-40.527,0.000,0
159402.439,-26.367,-20.508,-31.250,-32.715,0.000,0
159402.443,-23.926,-19.043,-26.367,-18.066,0.000,0
159402.447,-29.297,-21.484,-19.043,-23.438,0.000,0
159402.451,-24.902,-25.879,-28.320,-22.949,0.000,0
159402.455,-30.273,-20.508,-43.457,-15.137,0.000,0
159402.459,-29.785,-20.508,-38.086,-23.438,0.000,0
159402.463,-25.391,-24.414,-37.109,-27.832,0.000,0
159402.467,-32.715,-27.832,-41.504,-22.949,0.000,0
159402.471,-36.133,-26.367,-34.180,-26.367,0.000,0
159402.474,-38.086,-26.855,-24.902,-46.387,0.000,0
159402.478,-34.668,-26.367,-38.086,-40.039,0.000,0
159402.482,-24.414,-23.438,-51.758,-20.996,0.000,0
159402.486,-19.531,-26.855,-43.945,-18.066,0.000,0
159402.490,-33.203,-28.809,-20.996,-27.344,0.000,0
159402.494,-35.156,-20.020,-30.762,-22.949,0.000,0
159402.498,-27.832,-23.926,-41.992,-31.250,0.000,0
159402.502,-26.855,-25.879,-39.062,-30.762,0.000,0
159402.506,-15.137,-25.391,-26.855,-12.695,0.000,0
159402.510,-5.371,-24.902,-15.625,-7.812,0.000,0
159402.513,-19.043,-23.438,-22.949,-23.926,0.000,0
159402.517,-43.457,-25.879,-28.809,-41.992,0.000,0
159402.521,-43.945,-33.691,-34.180,-28.809,0.000,0
159402.525,-16.113,-29.297,-24.902,-19.043,0.000,0
159402.529,-26.855,-27.344,-18.555,-29.297,0.000,0
159402.533,-40.039,-29.297,-29.297,-28.809,0.000,0
159402.537,-30.273,-31.738,-28.809,-20.508,0.000,0
159402.541,-21.973,-34.668,-39.062,-13.672,0.000,0
159402.545,-16.602,-28.809,-33.203,-12.207,0.000,0
159402.549,-23.926,-27.344,-17.090,-24.902,0.000,0
159402.553,-11.719,-27.832,-23.926,-23.438,0.000,0
159402.556,-5.371,-21.484,-27.344,-16.602,0.000,0
159402.560,-21.484,-20.996,-30.762,-20.508,0.000,0
159402.564,-27.344,-29.785,-26.367,-20.020,0.000,0
159402.568,-30.273,-27.832,-13.672,-33.203,0.000,0
159402.572,-29.785,-25.391,-35.645,-29.785,0.000,0
159402.576,-25.391,-29.297,-28.320,-31.738,0.000,0
159402.580,-28.809,-28.320,-15.137,-23.438,0.000,0
159402.584,-18.066,-19.043,-32.715,-5.371,0.000,0
159402.588,-9.766,-16.113,-26.367,-25.879,0.000,0
159402.592,-17.578,-21.484,-28.809,-25.391,0.000,0
159402.596,-23.926,-24.902,-33.691,-11.719,0.000,0
159402.599,-25.879,-23.438,-28.320,-16.602,0.000,0
159402.603,-24.902,-20.508,-32.715,-26.367,0.000,0
159402.607,-25.391,-25.879,-13.184,-36.621,0.000,0
159402.611,-28.809,-23.926,-12.695,-35.645,0.000,0
159402.615,-20.996,-24.414,-26.855,-30.762,0.000,0
159402.619,-6.348,-25.391,-34.668,-19.043,0.000,0
159402.623,-18.555,-26.367,-30.273,-20.996,0.000,0
159402.627,-31.738,-28.809,-7.812,-35.156,0.000,0
159402.631,-20.508,-26.855,-18.555,-27.832,0.000,0
159402.635,-20.996,-29.785,-43.945,-26.367,0.000,0
159402.638,-25.391,-29.297,-39.062,-30.273,0.000,0
159402.642,-22.461,-32.227,-14.160,-27.832,0.000,0
159402.646,-22.949,-41.504,-13.672,-41.504,0.000,0
159402.650,-31.738,-38.574,-36.133,-36.621,0.000,0
159402.654,-30.273,-33.691,-44.434,-24.902,0.000,0
159402.658,-22.949,-31.250,-31.250,-26.855,0.000,0
159402.662,-25.879,-26.855,-29.785,-20.508,0.000,0
159402.666,-24.902,-26.855,-19.043,-29.785,0.000,0
159402.670,-27.344,-27.832,-26.855,-31.250,0.000,0
159402.674,-29.785,-30.762,-37.109,-29.297,0.000,0
159402.678,-22.461,-31.250,-30.273,-28.809,0.000,0
159402.681,-22.949,-20.996,-25.879,-27.832,0.000,0
159402.685,-22.461,-18.555,-13.184,-33.691,0.000,0
159402.689,-16.602,-17.578,-10.742,-26.855,0.000,0
159402.693,-17.090,-19.043,-26.855,-16.113,0.000,0
159402.697,-20.508,-15.625,-28.809,-9.277,0.000,0
159402.701,-31.250,-16.113,-26.367,-17.090,0.000,0
