timestamps,TP9,AF7,AF8,TP10,Right AUX,Marker0
159130.596,4.395,-12.695,-40.039,4.395,0.000,0
159130.599,13.672,-14.160,-45.898,6.836,0.000,0
159130.603,6.348,-7.324,-13.184,-16.113,0.000,0
159130.607,-11.719,-8.301,-7.324,-34.668,0.000,0
159130.611,-23.926,-12.207,-23.438,-24.902,0.000,0
159130.615,-34.180,-10.254,-21.484,-36.621,0.000,0
159130.619,-37.109,-15.625,-12.207,-44.922,0.000,0
159130.623,-19.043,-17.090,-7.812,-30.273,0.000,0
159130.627,-20.020,-19.043,-27.344,-39.551,0.000,0
159130.631,-26.855,-16.602,-31.250,-34.668,0.000,0
159130.635,-19.043,-17.090,-33.203,-20.020,0.000,0
159130.638,-14.648,-23.926,-40.039,-21.973,0.000,0
159130.642,-17.578,-27.344,-18.066,-32.715,0.000,0
159130.646,-23.438,-27.832,-19.043,-33.203,0.000,0
159130.650,-25.879,-20.996,-39.062,-34.180,0.000,0
159130.654,-25.879,-23.926,-38.574,-20.996,0.000,0
159130.658,-23.926,-24.902,-35.156,-3.906,0.000,0
159130.662,-21.484,-20.020,-7.812,-18.066,0.000,0
159130.666,-23.926,-20.996,-12.695,-30.273,0.000,0
159130.670,-20.020,-20.508,-49.316,-22.461,0.000,0
159130.674,-12.695,-18.555,-65.430,-15.137,0.000,0
159130.678,-22.949,-21.484,-46.387,-16.602,0.000,0
159130.681,-25.879,-25.879,-17.090,-25.391,0.000,0
159130.685,-26.367,-21.484,-25.391,-34.180,0.000,0
159130.689,-24.902,-20.996,-37.109,-24.902,0.000,0
159130.693,-17.578,-22.461,-30.762,-11.719,0.000,0
159130.697,-22.949,-16.113,-43.457,-4.883,0.000,0
159130.701,-16.602,-19.531,-30.762,-14.160,0.000,0
159130.705,-19.043,-22.949,-13.672,-18.066,0.000,0
159130.709,-30.273,-18.555,-32.227,-9.766,0.000,0
159130.713,-24.902,-24.414,-47.363,-9.766,0.000,0
159130.717,-20.996,-28.809,-64.453,-14.648,0.000,0
159130.721,-24.414,-24.902,-37.109,-21.973,0.000,0
159130.724,-26.367,-26.367,-3.418,-23.438,0.000,0
159130.728,-23.926,-25.879,-20.020,-20.996,0.000,0
159130.732,-20.996,-25.391,-40.527,-20.020,0.000,0
159130.736,-22.461,-22.949,-39.062,-15.137,0.000,0
159130.740,-19.531,-21.484,-13.184,-20.996,0.000,0
159130.744,-15.137,-25.879,-13.184,-22.949,0.000,0
159130.748,-12.207,-16.113,-40.527,-9.766,0.000,0
159130.752,-10.254,-8.789,-28.320,-13.672,0.000,0
159130.756,-16.113,-15.625,-18.066,-18.066,0.000,0
159130.760,-12.207,-20.020,-24.414,-23.438,0.000,0
159130.763,-7.812,-20.996,-13.672,-30.273,0.000,0
159130.767,-21.484,-21.973,-6.836,-22.461,0.000,0
159130.771,-26.855,-25.391,-16.113,-11.719,0.000,0
159130.775,-16.602,-26.855,-41.504,-5.859,0.000,0
159130.779,-11.719,-21.973,-26.367,-13.672,0.000,0
159130.783,-17.578,-20.020,-16.602,-23.438,0.000,0
159130.787,-16.113,-15.625,-38.574,-14.160,0.000,0
159130.791,-4.883,-14.648,-32.227,-3.906,0.000,0
159130.795,0.000,-14.160,-24.902,1.953,0.000,0
159130.799,-4.395,-14.648,-24.902,-3.418,0.000,0
159130.803,-3.906,-20.020,-22.949,-13.184,0.000,0
159130.806,-10.254,-17.090,-27.344,-14.160,0.000,0
159130.810,-14.160,-20.996,-51.270,-12.695,0.000,0
159130.814,-19.531,-22.461,-37.109,-13.184,0.000,0
159130.818,-22.949,-18.555,-26.367,-14.648,0.000,0
159130.822,-16.113,-15.137,-27.344,-23.926,0.000,0
159130.826,-15.625,-16.113,-7.812,-32.227,0.000,0
159130.830,-15.625,-18.066,-14.160,-37.598,0.000,0
159130.834,-13.672,-16.113,-43.945,-24.414,0.000,0
159130.838,-7.812,-19.043,-41.992,-6.348,0.000,0
159130.842,-7.324,-20.508,-17.090,-12.207,0.000,0
159130.846,-12.207,-13.672,-20.020,-14.648,0.000,0
159130.849,-12.695,-11.719,-36.621,-4.395,0.000,0
159130.853,-12.207,-15.137,-52.246,-6.348,0.000,0
159130.857,-14.160,-10.742,-27.832,-8.789,0.000,0
159130.861,-9.766,-8.301,11.719,-15.137,0.000,0
159130.865,-9.277,-13.672,-23.926,-20.508,0.000,0
159130.869,-14.648,-15.625,-39.551,-21.973,0.000,0
159130.873,-17.578,-13.184,-32.227,-10.254,0.000,0
159130.877,-19.531,-15.625,-36.621,-5.371,0.000,0
159130.881,-18.066,-16.602,-22.949,-21.973,0.000,0
159130.885,-18.066,-16.602,-26.367,-13.672,0.000,0
159130.888,-20.996,-22.949,-45.898,-9.766,0.000,0
159130.892,-16.113,-20.020,-40.527,-15.137,0.000,0
159130.896,-13.184,-17.578,-30.273,-13.184,0.000,0
159130.900,-19.043,-22.949,-42.969,-29.297,0.000,0
159130.904,-28.809,-26.367,-31.250,-34.180,0.000,0
159130.908,-28.320,-20.996,-20.020,-24.414,0.000,0
159130.912,-24.414,-17.578,-41.504,-18.555,0.000,0
159130.916,-30.273,-20.996,-46.387,-16.602,0.000,0
159130.920,-28.809,-19.043,-27.344,-26.367,0.000,0
159130.924,-18.066,-19.531,-36.133,-18.066,0.000,0
159130.928,-14.160,-23.926,-42.480,-14.160,0.000,0
159130.931,-17.578,-15.137,-19.043,-26.855,0.000,0
159130.935,-18.066,-10.742,-38.574,-14.648,0.000,0
159130.939,-16.602,-14.160,-30.762,-21.973,0.000,0
159130.943,-25.879,-14.648,-19.043,-41.992,0.000,0
159130.947,-30.273,-17.578,-31.250,-29.297,0.000,0
159130.951,-28.320,-15.137,-35.156,-17.090,0.000,0
159130.955,-24.414,-12.695,-40.527,-26.367,0.000,0
159130.959,-20.996,-17.578,-20.020,-33.691,0.000,0
159130.963,-22.461,-20.996,-19.043,-22.949,0.000,0
159130.967,-24.414,-19.043,-39.551,-23.438,0.000,0
159130.971,-25.391,-14.648,-33.203,-25.879,0.000,0
159130.974,-20.996,-14.160,-31.250,-15.625,0.000,0
159130.978,-22.461,-17.578,-19.043,-26.367,0.000,0
159130.982,-20.996,-16.602,-23.438,-32.227,0.000,0
159130.986,-15.137,-17.090,-41.992,-15.625,0.000,0
159130.990,-17.578,-19.043,-34.668,-9.766,0.000,0
159130.994,-18.555,-16.602,-20.508,-5.371,0.000,0
159130.998,-19.531,-16.602,-10.742,-21.484,0.000,0
159131.002,-20.508,-12.207,-23.438,-30.273,0.000,0
159131.006,-15.625,-13.672,-20.508,-29.297,0.000,0
159131.010,-21.484,-22.949,-29.785,-31.738,0.000,0
159131.013,-24.414,-21.484,-59.082,-11.230,0.000,0
159131.017,-17.578,-19.531,-44.922,-28.320,0.000,0
159131.021,-23.438,-23.438,-21.484,-38.086,0.000,0
159131.025,-27.344,-20.020,-18.066,-14.648,0.000,0
159131.029,-20.020,-9.277,-22.461,-7.812,0.000,0
159131.033,-17.090,-5.859,-20.020,-13.672,0.000,0
159131.037,-23.926,-7.812,-8.789,-20.020,0.000,0
159131.041,-29.297,-10.742,-3.906,-30.762,0.000,0
159131.045,-26.855,-12.695,-28.320,-30.762,0.000,0
159131.049,-26.367,-18.555,-38.086,-21.973,0.000,0
159131.053,-27.832,-14.160,-40.527,-11.230,0.000,0
159131.056,-14.648,-6.836,-16.602,-18.066,0.000,0
159131.060,-8.301,-9.766,-4.883,-20.996,0.000,0
159131.064,-15.625,-14.160,-42.480,-13.184,0.000,0
159131.068,-14.648,-15.625,-44.434,-15.137,0.000,0
159131.072,-18.066,-12.207,-24.414,-12.207,0.000,0
159131.076,-25.879,-17.578,-14.160,-30.762,0.000,0
159131.080,-24.902,-21.973,-9.766,-41.016,0.000,0
159131.084,-23.926,-16.113,-30.762,-21.973,0.000,0
159131.088,-26.855,-13.184,-44.922,-15.137,0.000,0
159131.092,-25.391,-20.508,-55.664,-13.184,0.000,0
159131.096,-20.508,-24.902,-38.086,-20.996,0.000,0
159131.099,-22.461,-18.066,-8.789,-20.508,0.000,0
159131.103,-22.461,-17.090,-28.320,-11.230,0.000,0
159131.107,-20.508,-15.137,-34.668,-17.578,0.000,0
159131.111,-17.090,-11.719,-19.531,-8.789,0.000,0
159131.115,-17.090,-22.461,-21.484,-10.742,0.000,0
159131.119,-24.414,-23.926,-20.996,-32.227,0.000,0
159131.123,-19.531,-18.066,-33.203,-29.785,0.000,0
159131.127,-19.531,-16.602,-41.992,-20.996,0.000,0
159131.131,-26.855,-20.996,-32.715,-23.926,0.000,0
159131.135,-30.273,-22.949,-34.180,-25.879,0.000,0
159131.138,-30.762,-26.367,-45.898,-33.691,0.000,0
159131.142,-23.926,-25.391,-36.133,-34.180,0.000,0
159131.146,-24.414,-16.602,-12.207,-24.414,0.000,0
159131.150,-16.602,-14.160,-38.574,-20.508,0.000,0
159131.154,-10.742,-10.742,-36.621,-10.254,0.000,0
159131.158,-12.695,-10.742,-7.324,-14.648,0.000,0
159131.162,-11.230,-11.719,-17.578,-15.137,0.000,0
159131.166,-8.789,-20.020,-33.691,-10.254,0.000,0
159131.170,-12.695,-20.996,-35.156,-14.160,0.000,0
159131.174,-27.344,-16.602,-18.066,-22.949,0.000,0
159131.178,-33.691,-24.414,-7.324,-37.109,0.000,0
159131.181,-26.367,-19.043,-17.090,-34.180,0.000,0
159131.185,-25.391,-13.184,-22.461,-35.156,0.000,0
159131.189,-28.809,-12.695,-15.625,-33.691,0.000,0
159131.193,-20.020,-6.836,-17.578,-20.020,0.000,0
159131.197,-10.742,-9.277,-24.902,-27.344,0.000,0
159131.201,-15.137,-11.230,-31.738,-25.879,0.000,0
159131.205,-13.672,-10.742,-31.250,-9.766,0.000,0
159131.209,-7.324,-11.719,-33.691,-4.395,0.000,0
159131.213,-11.230,-14.648,-34.668,2.441,0.000,0
159131.217,-22.461,-16.602,-21.484,-9.277,0.000,0
159131.221,-20.508,-14.160,-22.949,-21.484,0.000,0
159131.224,-20.020,-19.531,-24.414,-18.066,0.000,0
159131.228,-22.949,-18.555,-41.992,-12.207,0.000,0
159131.232,-26.855,-14.160,-44.922,-8.789,0.000,0
159131.236,-25.879,-14.160,6.348,-31.250,0.000,0
159131.240,-17.578,-12.695,-16.602,-32.227,0.000,0
159131.244,-19.043,-12.207,-50.293,-14.648,0.000,0
159131.248,-24.414,-12.695,-41.992,-34.668,0.000,0
159131.252,-24.414,-18.555,-37.109,-31.738,0.000,0
159131.256,-18.555,-15.625,-22.461,-27.344,0.000,0
159131.260,-24.902,-9.766,-20.020,-42.480,0.000,0
159131.263,-27.832,-19.531,-30.273,-33.203,0.000,0
159131.267,-25.391,-21.484,-36.621,-27.832,0.000,0
159131.271,-25.879,-16.602,-34.668,-26.367,0.000,0
159131.275,-16.602,-13.184,-22.461,-24.902,0.000,0
159131.279,-25.391,-16.113,-17.578,-22.461,0.000,0
159131.283,-32.715,-16.602,-32.227,-21.973,0.000,0
159131.287,-21.973,-15.137,-46.875,-25.879,0.000,0
159131.291,-22.949,-19.043,-39.062,-20.508,0.000,0
159131.295,-23.438,-17.578,-16.113,-26.855,0.000,0
159131.299,-24.902,-18.555,-13.672,-36.133,0.000,0
159131.303,-15.625,-14.648,-43.945,-21.484,0.000,0
159131.306,-4.395,-13.672,-43.945,-5.859,0.000,0
159131.310,-11.719,-17.578,-22.949,-5.371,0.000,0
159131.314,-18.066,-16.602,-5.859,-22.461,0.000,0
159131.318,-15.625,-16.602,-12.207,-38.574,0.000,0
159131.322,-12.207,-20.508,-23.438,-33.203,0.000,0
159131.326,-12.695,-16.113,-8.301,-23.926,0.000,0
159131.330,-10.254,-12.695,-30.273,-11.719,0.000,0
159131.334,-11.230,-24.414,-41.016,-18.555,0.000,0
159131.338,-13.184,-27.344,-11.230,-38.086,0.000,0
159131.342,-11.230,-24.902,-28.320,-18.066,0.000,0
159131.346,-11.719,-22.949,-64.453,-6.348,0.000,0
159131.349,-18.066,-20.020,-58.105,-23.926,0.000,0
159131.353,-18.555,-23.926,-21.973,-32.715,0.000,0
159131.357,-17.578,-22.461,1.953,-37.109,0.000,0
159131.361,-20.020,-19.531,-26.367,-36.621,0.000,0
159131.365,-20.020,-25.391,-39.551,-28.320,0.000,0
159131.369,-24.414,-22.949,-34.180,-10.254,0.000,0
159131.373,-17.090,-19.043,-17.090,-28.320,0.000,0
159131.377,-14.648,-18.555,-21.973,-41.992,0.000,0
159131.381,-20.020,-17.090,-35.645,-21.484,0.000,0
159131.385,-13.672,-14.648,-37.109,-21.484,0.000,0
159131.388,-13.672,-16.113,-39.551,-22.949,0.000,0
159131.392,-17.090,-17.578,-17.578,-27.344,0.000,0
159131.396,-22.461,-11.719,-3.418,-41.992,0.000,0
159131.400,-20.996,-11.719,-22.461,-33.203,0.000,0
159131.404,-15.625,-18.066,-31.738,-20.508,0.000,0
159131.408,-15.137,-20.996,-39.551,-15.137,0.000,0
159131.412,-23.438,-23.438,-21.484,-24.902,0.000,0
159131.416,-25.391,-26.367,-5.371,-17.578,0.000,0
159131.420,-20.020,-15.625,-48.340,-12.207,0.000,0
159131.424,-20.508,-15.137,-64.941,-30.762,0.000,0
159131.428,-27.344,-18.066,-27.344,-24.414,0.000,0
159131.431,-25.879,-10.742,-0.977,-20.508,0.000,0
159131.435,-18.555,-10.254,-21.484,-28.809,0.000,0
159131.439,-20.020,-13.184,-17.578,-32.227,0.000,0
159131.443,-18.066,-13.672,-4.395,-21.973,0.000,0
159131.447,-16.113,-18.555,-53.223,-5.859,0.000,0
159131.451,-24.902,-24.902,-57.617,-23.926,0.000,0
159131.455,-31.250,-20.508,-24.902,-27.832,0.000,0
159131.459,-37.109,-17.578,-9.766,-15.137,0.000,0
159131.463,-26.367,-18.555,-21.973,-20.996,0.000,0
159131.467,-11.230,-16.113,-41.504,-16.113,0.000,0
159131.471,-15.137,-18.066,-32.227,-20.020,0.000,0
159131.474,-22.461,-22.949,-1.465,-33.203,0.000,0
159131.478,-20.020,-17.578,-14.160,-23.438,0.000,0
159131.482,-17.090,-20.996,-55.176,-16.113,0.000,0
159131.486,-15.137,-20.020,-47.363,-11.230,0.000,0
159131.490,-15.137,-18.555,-12.207,-8.301,0.000,0
159131.494,-11.719,-15.625,3.418,-18.555,0.000,0
159131.498,-5.859,-11.230,-14.160,-19.531,0.000,0
159131.502,-15.625,-11.230,-23.438,-25.879,0.000,0
159131.506,-22.461,-13.672,-18.555,-18.555,0.000,0
159131.510,-11.719,-15.625,-36.621,-5.859,0.000,0
159131.513,-9.766,-7.812,-30.273,-19.531,0.000,0
159131.517,-18.066,-6.836,-13.184,-17.578,0.000,0
159131.521,-15.625,-8.301,-13.672,-1.465,0.000,0
159131.525,-13.184,-6.836,-21.973,-10.254,0.000,0
159131.529,-15.137,-7.324,-19.043,-7.324,0.000,0
159131.533,-26.367,-6.836,-8.789,-15.625,0.000,0
159131.537,-34.668,-3.418,-28.320,-32.715,0.000,0
159131.541,-19.531,-9.766,-41.504,-38.086,0.000,0
159131.545,-18.555,-14.648,-20.508,-27.832,0.000,0
159131.549,-26.367,-14.648,-22.949,-11.230,0.000,0
159131.553,-28.809,-15.625,-21.484,-28.320,0.000,0
159131.556,-33.203,-12.207,-21.484,-22.949,0.000,0
159131.560,-26.855,-10.742,-46.387,-12.207,0.000,0
159131.564,-32.715,-12.695,-20.508,-21.973,0.000,0
159131.568,-35.156,-12.207,-10.742,-20.508,0.000,0
159131.572,-20.508,-16.602,-25.879,-27.344,0.000,0
159131.576,-20.508,-20.508,-21.484,-37.598,0.000,0
159131.580,-27.832,-12.695,-22.949,-22.949,0.000,0
159131.584,-22.949,-12.207,-41.992,-6.348,0.000,0
159131.588,-18.066,-13.672,-50.781,-9.766,0.000,0
159131.592,-20.996,-14.648,-16.602,-14.648,0.000,0
159131.596,-21.484,-20.996,-12.207,-6.348,0.000,0
159131.599,-22.461,-16.602,-28.809,-6.836,0.000,0
159131.603,-15.137,-12.207,-36.133,-12.207,0.000,0
159131.607,-14.648,-13.672,-27.832,-9.277,0.000,0
159131.611,-19.531,-21.973,0.000,-15.625,0.000,0
159131.615,-10.742,-20.508,-21.973,-19.531,0.000,0
159131.619,-14.160,-16.113,-36.133,-22.949,0.000,0
159131.623,-24.414,-23.438,-29.297,-17.090,0.000,0
159131.627,-30.273,-29.785,-36.133,-19.043,0.000,0
159131.631,-21.973,-27.832,-28.809,-26.855,0.000,0
159131.635,-15.625,-21.973,-31.250,-19.531,0.000,0
159131.638,-18.555,-24.902,-40.039,-14.160,0.000,0
159131.642,-15.625,-24.902,-25.879,-20.508,0.000,0
159131.646,-17.090,-20.020,-21.484,-19.531,0.000,0
159131.650,-14.160,-20.996,-25.391,-28.809,0.000,0
159131.654,-14.648,-20.508,-14.160,-30.762,0.000,0
159131.658,-22.461,-19.043,-29.297,-16.602,0.000,0
159131.662,-13.184,-17.090,-51.758,-8.301,0.000,0
159131.666,-10.742,-21.484,-44.922,-7.812,0.000,0
159131.670,-14.648,-18.066,-10.254,-17.578,0.000,0
159131.674,-8.789,-14.160,-3.418,-19.043,0.000,0
159131.678,-7.812,-13.672,-22.461,-19.531,0.000,0
159131.681,-13.184,-8.301,-12.207,-20.020,0.000,0
159131.685,-14.160,-11.230,-29.297,-4.395,0.000,0
159131.689,-18.066,-10.254,-22.461,-21.973,0.000,0
159131.693,-28.809,-18.066,-8.789,-35.645,0.000,0
159131.697,-26.367,-17.090,-33.203,-7.812,0.000,0
159131.701,-25.391,-12.207,-37.109,2.930,0.000,0
159131.705,-19.531,-17.090,-46.875,-2.930,0.000,0
159131.709,-17.578,-22.461,-23.926,-20.508,0.000,0
159131.713,-35.156,-26.855,-13.672,-27.344,0.000,0
159131.717,-33.203,-27.832,-53.223,-13.184,0.000,0
159131.721,-24.414,-22.461,-61.523,-15.625,0.000,0
159131.724,-17.090,-16.113,-49.316,1.465,0.000,0
159131.728,-0.488,-18.555,-23.926,10.742,0.000,0
159131.732,-20.020,-16.602,-20.020,-18.555,0.000,0
159131.736,-38.086,-11.719,-47.852,-20.996,0.000,0
159131.740,-26.855,-10.742,-42.969,-11.719,0.000,0
159131.744,-27.344,-8.301,-27.344,-13.672,0.000,0
159131.748,-18.066,-10.254,-15.625,-14.648,0.000,0
159131.752,-18.066,-13.672,-20.020,-28.809,0.000,0
159131.756,-27.344,-4.395,-38.086,-23.926,0.000,0
159131.760,-18.555,2.441,-35.156,-0.977,0.000,0
159131.763,-9.277,0.977,-27.832,17.090,0.000,0
159131.767,-9.766,-0.977,-26.367,-0.977,0.000,0
159131.771,-17.578,-7.324,-13.184,-13.184,0.000,0
159131.775,-11.230,-12.695,-33.203,-1.465,0.000,0
159131.779,-6.348,-15.137,-43.457,-8.789,0.000,0
159131.783,-18.066,-8.789,-34.668,-7.812,0.000,0
159131.787,-27.344,-9.766,-15.137,0.488,0.000,0
159131.791,-23.926,-14.160,-3.418,-25.879,0.000,0
159131.795,-8.789,-10.254,-19.531,-34.180,0.000,0
159131.799,-4.883,-4.395,-31.250,-12.207,0.000,0
159131.803,-18.066,-12.695,-39.062,-11.230,0.000,0
159131.806,-25.391,-16.113,-20.020,-16.113,0.000,0
159131.810,-22.949,-11.719,-13.672,-20.996,0.000,0
159131.814,-19.043,-10.742,-33.691,-5.371,0.000,0
159131.818,-22.461,-8.789,-29.297,0.000,0.000,0
159131.822,-20.508,-11.719,-25.391,-4.883,0.000,0
159131.826,-15.625,-12.207,-30.273,-7.812,0.000,0
159131.830,-12.695,-13.672,-14.160,-16.113,0.000,0
159131.834,-16.113,-13.184,-16.602,-11.230,0.000,0
159131.838,-23.438,-11.719,-35.645,-11.230,0.000,0
159131.842,-20.996,-13.672,-49.316,-18.555,0.000,0
159131.846,-21.973,-15.137,-44.922,-21.484,0.000,0
159131.849,-24.902,-19.531,-3.418,-27.344,0.000,0
159131.853,-21.484,-17.090,6.836,-35.156,0.000,0
159131.857,-20.996,-11.230,-30.762,-36.621,0.000,0
159131.861,-21.484,-12.695,-48.340,-23.438,0.000,0
159131.865,-22.949,-14.160,-32.227,-12.695,0.000,0
159131.869,-26.367,-18.066,-26.367,-26.367,0.000,0
159131.873,-22.461,-16.113,-34.180,-25.391,0.000,0
159131.877,-23.438,-16.602,-34.668,-11.230,0.000,0
159131.881,-32.715,-18.066,-31.250,-14.160,0.000,0
159131.885,-28.809,-17.090,-44.434,-19.531,0.000,0
159131.888,-28.809,-25.879,-40.039,-32.715,0.000,0
159131.892,-38.086,-24.902,-17.578,-40.039,0.000,0
159131.896,-30.762,-17.090,-16.113,-25.391,0.000,0
159131.900,-18.555,-15.137,-45.410,-19.531,0.000,0
159131.904,-17.578,-18.555,-56.641,-23.926,0.000,0
159131.908,-25.391,-20.508,-27.832,-29.785,0.000,0
159131.912,-23.438,-16.113,-29.297,-29.785,0.000,0
159131.916,-16.602,-18.555,-50.781,-22.461,0.000,0
159131.920,-17.090,-15.625,-44.434,-26.855,0.000,0
159131.924,-22.461,-12.695,-28.320,-23.438,0.000,0
159131.928,-24.902,-14.160,-11.719,-26.367,0.000,0
159131.931,-18.555,-15.137,-25.879,-40.039,0.000,0
159131.935,-16.602,-20.508,-46.875,-24.414,0.000,0
159131.939,-24.902,-20.996,-21.973,-11.230,0.000,0
159131.943,-25.879,-17.578,-27.832,-16.602,0.000,0
159131.947,-19.043,-17.090,-27.344,-27.344,0.000,0
159131.951,-20.508,-14.160,-29.297,-21.973,0.000,0
159131.955,-21.973,-14.648,-28.320,-20.020,0.000,0
159131.959,-19.043,-21.973,-32.227,-26.367,0.000,0
159131.963,-13.672,-19.531,-62.012,-14.160,0.000,0
159131.967,-13.672,-15.137,-35.645,-24.414,0.000,0
159131.971,-15.625,-16.113,-15.625,-35.645,0.000,0
159131.974,-19.043,-10.742,-20.020,-22.949,0.000,0
159131.978,-21.973,-17.578,-46.387,-14.648,0.000,0
159131.982,-21.973,-23.926,-47.363,-16.113,0.000,0
159131.986,-24.414,-15.137,-5.859,-28.809,0.000,0
159131.990,-16.602,-9.766,-14.648,-32.715,0.000,0
159131.994,-7.324,-7.812,-29.297,-25.391,0.000,0
159131.998,-13.184,-13.672,-21.484,-17.578,0.000,0
159132.002,-20.508,-13.184,-41.992,-6.836,0.000,0
159132.006,-16.602,-14.160,-36.133,-20.508,0.000,0
159132.010,-14.648,-15.137,-16.602,-34.180,0.000,0
159132.013,-19.531,-9.277,-26.855,-23.926,0.000,0
159132.017,-15.625,-3.418,-38.574,-14.160,0.000,0
159132.021,-13.184,-2.930,-37.598,-14.648,0.000,0
159132.025,-18.066,-7.812,-17.090,-31.738,0.000,2
159132.029,-16.113,-9.277,1.465,-33.691,0.000,0
159132.033,-5.859,-2.930,-7.812,-15.625,0.000,0
159132.037,-3.906,-5.371,-31.738,-17.578,0.000,0
159132.041,-15.137,-11.230,-37.109,-17.578,0.000,0
159132.045,-13.672,-10.254,-13.184,-27.344,0.000,0
159132.049,-11.719,-11.230,-7.324,-37.598,0.000,0
159132.053,-14.648,-8.301,-41.016,-20.020,0.000,0
159132.056,-15.625,-15.625,-19.531,-23.926,0.000,0
159132.060,-5.859,-17.578,-5.371,-20.508,0.000,0
159132.064,-3.418,-10.742,-34.180,-2.441,0.000,0
159132.068,-5.859,-12.695,-30.273,-8.301,0.000,0
159132.072,-9.766,-12.695,-19.043,-9.277,0.000,0
159132.076,-18.066,-13.672,-14.160,0.488,0.000,0
159132.080,-12.207,-17.578,-41.504,10.742,0.000,0
159132.084,-13.184,-20.508,-34.180,-19.531,0.000,0
159132.088,-18.066,-16.113,-10.254,-37.109,0.000,0
159132.092,-13.672,-17.090,-33.691,-19.043,0.000,0
159132.096,-11.230,-16.602,-36.621,-19.043,0.000,0
159132.099,-9.766,-10.742,-31.738,-15.625,0.000,0
159132.103,-11.719,-12.207,-21.973,-23.438,0.000,0
159132.107,-9.277,-18.555,-11.230,-31.738,0.000,0
159132.111,-10.742,-25.391,-27.344,-27.344,0.000,0
159132.115,-14.160,-20.020,-32.715,-11.230,0.000,0
159132.119,-13.672,-17.090,-30.273,0.977,0.000,0
159132.123,-10.742,-15.137,-19.531,-14.648,0.000,0
159132.127,-0.977,-13.184,-16.113,-22.461,0.000,0
159132.131,-12.207,-16.113,-26.367,-15.137,0.000,0
159132.135,-14.648,-14.160,-36.133,-17.578,0.000,0
159132.138,1.465,-9.766,-33.203,-6.348,0.000,0
159132.142,0.977,-6.836,-20.020,-3.418,0.000,0
159132.146,-14.648,-7.812,-7.324,-22.461,0.000,0
159132.150,-18.555,-10.254,-19.531,-21.484,0.000,0
159132.154,-15.137,-11.230,-38.086,-12.695,0.000,0
159132.158,-12.695,-14.160,-36.133,-8.789,0.000,0
159132.162,-17.578,-19.043,-20.020,-9.766,0.000,0
159132.166,-28.809,-15.137,9.277,-30.762,0.000,0
159132.170,-23.438,-11.719,-25.391,-30.273,0.000,0
159132.174,-15.137,-17.578,-56.152,-28.320,0.000,0
159132.178,-20.020,-21.484,-28.320,-22.949,0.000,0
159132.181,-21.484,-20.996,-21.973,-7.812,0.000,0
159132.185,-24.414,-20.508,-22.461,-22.949,0.000,0
159132.189,-21.973,-14.160,-27.344,-24.414,0.000,0
159132.193,-14.648,-15.137,-37.109,-8.789,0.000,0
159132.197,-20.996,-18.555,-33.203,-13.672,0.000,0
159132.201,-23.926,-14.648,-33.203,-16.602,0.000,0
159132.205,-20.020,-10.742,-14.648,-22.461,0.000,0
159132.209,-27.344,-12.207,-7.324,-25.391,0.000,0
159132.213,-22.461,-11.230,-19.043,-24.902,0.000,0
159132.217,-7.812,-11.719,-34.668,-14.648,0.000,0
159132.221,-16.602,-13.672,-41.016,-8.789,0.000,0
159132.224,-20.020,-14.160,-20.020,-20.996,0.000,0
159132.228,-13.672,-14.648,-25.879,-14.160,0.000,0
159132.232,-7.324,-21.484,-47.852,2.930,0.000,0
159132.236,-12.695,-23.438,-34.668,-8.301,0.000,0
159132.240,-30.273,-17.578,-15.137,-36.133,0.000,0
159132.244,-31.250,-18.066,-6.348,-43.945,0.000,0
159132.248,-21.973,-24.414,-17.090,-42.480,0.000,0
159132.252,-25.391,-30.273,-35.645,-42.480,0.000,0
159132.256,-30.273,-24.902,-20.996,-29.297,0.000,0
159132.260,-25.879,-16.602,-27.344,-25.879,0.000,0
159132.263,-15.625,-15.625,-42.969,-31.250,0.000,0
159132.267,-15.137,-19.531,-11.230,-34.180,0.000,0
159132.271,-23.438,-18.066,-1.953,-16.113,0.000,0
159132.275,-16.602,-18.555,-35.156,-12.207,0.000,0
159132.279,-9.277,-20.508,-32.715,-25.391,0.000,0
159132.283,-9.766,-13.672,-14.648,-26.855,0.000,0
159132.287,-19.531,-18.066,-23.438,-34.668,0.000,0
159132.291,-25.391,-24.902,-39.062,-31.250,0.000,0
159132.295,-24.414,-29.297,-40.527,-16.113,0.000,0
159132.299,-27.832,-27.832,-41.992,-16.113,0.000,0
159132.303,-25.879,-26.367,-32.227,-25.391,0.000,0
159132.306,-21.484,-22.461,-22.461,-29.785,0.000,0
159132.310,-20.020,-14.160,-26.367,-29.297,0.000,0
159132.314,-17.578,-16.113,-12.207,-21.973,0.000,0
159132.318,-18.555,-19.043,-26.855,-6.348,0.000,0
159132.322,-11.230,-20.020,-34.180,-16.113,0.000,0
159132.326,-14.160,-20.020,-21.973,-40.039,0.000,0
159132.330,-19.043,-23.926,-36.133,-18.555,0.000,0
159132.334,-18.066,-28.809,-44.434,-0.488,0.000,0
159132.338,-16.113,-23.438,-45.898,-5.371,0.000,0
159132.342,-17.090,-21.973,-14.648,-12.695,0.000,0
159132.346,-20.508,-17.578,-7.812,-15.137,0.000,0
159132.349,-12.695,-11.230,-31.738,-11.719,0.000,0
159132.353,-7.812,-15.625,-45.410,-16.602,0.000,0
159132.357,-18.555,-16.113,-41.504,-3.906,0.000,0
159132.361,-25.879,-17.578,-2.441,-7.324,0.000,0
159132.365,-22.461,-17.578,-16.113,-19.531,0.000,0
159132.369,-18.066,-12.695,-45.898,-18.066,0.000,0
159132.373,-18.555,-17.578,-28.320,-17.578,0.000,0
159132.377,-22.949,-21.484,0.000,-28.320,0.000,0
159132.381,-16.602,-16.602,-24.414,-28.320,0.000,0
159132.385,-18.066,-21.973,-54.688,-19.043,0.000,0
159132.388,-19.531,-24.902,-40.039,-19.531,0.000,0
159132.392,-14.648,-15.137,-39.062,-8.789,0.000,0
159132.396,-22.461,-21.484,-50.781,-11.719,0.000,0
159132.400,-26.367,-27.832,-21.484,-29.785,0.000,0
159132.404,-24.414,-27.344,-10.254,-26.367,0.000,0
159132.408,-16.602,-25.879,-40.039,-21.484,0.000,0
159132.412,-12.695,-24.902,-42.969,-23.438,0.000,0
159132.416,-23.926,-33.203,-38.086,-30.273,0.000,0
159132.420,-23.926,-29.785,-14.648,-43.945,0.000,0
159132.424,-18.555,-19.531,-21.973,-36.621,0.000,0
159132.428,-20.020,-19.043,-45.410,-29.785,0.000,0
159132.431,-21.973,-21.484,-40.039,-19.531,0.000,0
159132.435,-15.625,-17.090,-39.062,-8.789,0.000,0
159132.439,-10.742,-16.113,-19.531,-29.297,0.000,0
159132.443,-19.531,-24.902,-27.344,-36.621,0.000,0
159132.447,-26.367,-24.414,-35.156,-21.973,0.000,0
159132.451,-23.438,-20.020,-31.250,-26.367,0.000,0
159132.455,-20.020,-16.113,-40.039,-31.738,0.000,0
159132.459,-28.809,-13.184,-11.230,-38.086,0.000,0
159132.463,-29.785,-13.184,-5.371,-34.668,0.000,0
159132.467,-26.855,-11.719,-35.156,-28.809,0.000,0
159132.471,-27.832,-8.789,-29.297,-32.715,0.000,0
159132.474,-18.066,-11.719,-38.086,-16.113,0.000,0
159132.478,-16.113,-12.695,-30.273,-18.555,0.000,0
159132.482,-25.879,-6.836,-27.832,-20.508,0.000,0
159132.486,-20.508,-10.254,-58.594,-15.137,0.000,0
159132.490,-16.113,-12.207,-36.133,-18.066,0.000,0
159132.494,-25.391,-16.113,-16.602,-17.578,0.000,0
159132.498,-14.648,-12.695,-28.320,-25.391,0.000,0
159132.502,-4.883,-6.836,-32.227,-29.785,0.000,0
159132.506,-8.301,-11.719,-28.320,-14.160,0.000,0
159132.510,-5.371,-11.230,-29.297,-3.906,0.000,0
159132.513,-8.789,-7.812,-34.668,-7.324,0.000,0
159132.517,-11.230,-4.883,-24.902,-11.230,0.000,0
159132.521,-8.789,-2.441,-14.648,-16.602,0.000,0
159132.525,-11.230,-6.836,-24.902,-15.625,0.000,0
159132.529,-16.602,-12.207,-28.809,-13.184,0.000,0
159132.533,-24.902,-19.531,-42.969,-7.812,0.000,0
159132.537,-29.785,-19.531,-32.715,-10.254,0.000,0
159132.541,-27.832,-17.090,-14.160,-19.043,0.000,0
159132.545,-31.250,-19.043,-30.762,-19.043,0.000,0
159132.549,-30.273,-18.066,-50.781,-17.578,0.000,0
159132.553,-26.367,-20.020,-27.832,-9.766,0.000,0
159132.556,-31.250,-21.484,-13.672,-11.719,0.000,0
159132.560,-28.809,-18.555,-23.438,-23.926,0.000,0
159132.564,-22.461,-18.066,-24.414,-25.879,0.000,0
159132.568,-23.926,-9.277,-25.879,-18.555,0.000,1
159132.572,-21.973,-2.441,-26.855,-13.672,0.000,0
159132.576,-22.949,-8.301,-29.785,-20.996,0.000,0
159132.580,-17.578,-13.184,-40.527,-23.438,0.000,0
159132.584,-13.672,-16.602,-36.133,-10.742,0.000,0
159132.588,-18.066,-17.090,-42.969,-11.719,0.000,0
159132.592,-17.090,-20.508,-59.082,-15.137,0.000,0
159132.596,-25.391,-23.926,-36.133,-16.113,0.000,0
159132.599,-35.156,-15.137,-2.441,-27.344,0.000,0
159132.603,-27.344,-13.672,-42.480,-26.855,0.000,0
159132.607,-29.297,-15.625,-59.082,-25.879,0.000,0
159132.611,-28.809,-16.602,-39.062,-18.066,0.000,0
159132.615,-28.809,-17.090,-25.879,-18.066,0.000,0
159132.619,-31.250,-15.625,-21.973,-25.391,0.000,0
159132.623,-29.785,-11.719,-34.180,-11.719,0.000,0
159132.627,-37.109,-19.043,-32.227,-16.602,0.000,0
159132.631,-37.109,-16.113,-32.715,-17.578,0.000,0
159132.635,-20.996,-5.859,-49.316,-13.184,0.000,0
159132.638,-17.090,-6.836,-34.668,-26.367,0.000,0
159132.642,-31.250,-8.789,-1.953,-28.809,0.000,0
159132.646,-24.414,-7.324,-12.695,-14.648,0.000,0
159132.650,-17.090,-12.695,-47.363,-8.301,0.000,0
159132.654,-25.879,-16.113,-33.203,-14.648,0.000,0
159132.658,-26.855,-6.348,-0.488,-22.949,0.000,0
159132.662,-16.113,-2.930,-19.531,-11.230,0.000,0
159132.666,-7.812,-5.859,-47.852,-10.742,0.000,0
159132.670,-6.348,-9.766,-38.086,-12.207,0.000,0
159132.674,-5.859,-14.648,-8.789,-10.742,0.000,0
159132.678,-7.324,-16.113,-7.324,-19.531,0.000,0
159132.681,-13.184,-15.137,-25.879,-11.230,0.000,0
159132.685,-24.902,-16.602,-18.555,-2.930,0.000,0
159132.689,-24.414,-15.625,-23.438,-7.324,0.000,0
159132.693,-19.043,-19.043,-22.949,-29.785,0.000,0
159132.697,-21.973,-23.926,-20.020,-41.504,0.000,0
159132.701,-20.020,-18.066,-31.250,-32.715,0.000,0
159132.705,-21.973,-24.414,-25.879,-31.250,0.000,0
159132.709,-23.926,-26.367,-36.133,-19.043,0.000,0
159132.713,-20.020,-14.648,-17.090,-20.996,0.000,0
159132.717,-28.809,-19.043,-7.324,-40.527,0.000,0
159132.721,-28.320,-21.484,-32.227,-28.809,0.000,0
159132.724,-17.578,-12.207,-25.879,-16.602,0.000,0
159132.728,-20.996,-14.648,-19.531,-20.508,0.000,0
159132.732,-23.926,-19.043,-9.766,-26.855,0.000,0
159132.736,-21.484,-16.602,-15.625,-34.180,0.000,0
159132.740,-21.973,-19.043,-29.297,-31.738,0.000,0
159132.744,-16.602,-18.066,-13.184,-25.391,0.000,0
159132.748,-20.996,-17.578,-28.809,-22.461,0.000,0
159132.752,-24.902,-16.602,-30.273,-32.227,0.000,0
159132.756,-21.973,-10.742,-6.836,-28.320,0.000,0
159132.760,-17.090,-4.883,-20.020,-11.230,0.000,0
159132.763,-16.113,-3.906,-31.250,-20.020,0.000,0
159132.767,-20.508,-7.812,-29.297,-18.066,0.000,0
159132.771,-26.855,-12.695,-18.555,-13.184,0.000,0
159132.775,-29.297,-9.766,1.465,-29.785,0.000,0
159132.779,-27.344,-8.301,-10.254,-35.156,0.000,0
159132.783,-24.902,-9.766,-36.133,-29.785,0.000,0
159132.787,-23.926,-16.113,-53.223,-15.625,0.000,0
159132.791,-29.297,-16.602,-30.762,-20.996,0.000,0
159132.795,-32.715,-12.207,-7.324,-34.180,0.000,0
159132.799,-24.902,-17.578,-41.504,-19.043,0.000,0
159132.803,-27.344,-19.531,-37.598,-15.625,0.000,0
159132.806,-35.645,-11.719,-25.391,-23.438,0.000,0
159132.810,-28.809,-9.766,-24.902,-23.926,0.000,0
159132.814,-28.809,-16.113,-20.996,-37.598,0.000,0
159132.818,-41.504,-17.090,-26.367,-38.574,0.000,0
159132.822,-35.156,-17.578,-19.043,-12.695,0.000,0
159132.826,-27.344,-18.066,-33.203,-11.230,0.000,0
159132.830,-29.297,-15.137,-41.016,-32.715,0.000,0
159132.834,-28.809,-19.531,-21.973,-41.992,0.000,0
159132.838,-26.855,-22.461,-36.621,-31.738,0.000,0
159132.842,-17.578,-26.367,-55.664,-25.879,0.000,0
159132.846,-11.719,-26.367,-51.270,-23.438,0.000,0
159132.849,-18.066,-20.020,-27.344,-19.043,0.000,0
159132.853,-15.625,-18.066,-1.953,-27.832,0.000,0
159132.857,-10.254,-14.160,-13.184,-31.738,0.000,0
159132.861,-15.137,-12.695,-28.809,-19.531,0.000,0
159132.865,-23.926,-12.207,-21.973,-21.484,0.000,0
159132.869,-27.832,-9.766,-15.625,-28.809,0.000,0
159132.873,-20.996,-13.184,-22.949,-38.086,0.000,0
159132.877,-15.625,-14.160,-28.320,-41.992,0.000,0
159132.881,-16.602,-12.207,-25.391,-39.062,0.000,0
159132.885,-15.625,-13.184,-18.066,-31.250,0.000,0
159132.888,-14.160,-13.672,-34.180,-19.043,0.000,0
159132.892,-20.508,-12.695,-24.414,-30.273,0.000,0
159132.896,-24.902,-15.137,-15.137,-29.785,0.000,0
159132.900,-23.438,-17.090,-33.203,-14.648,0.000,0
159132.904,-19.043,-17.578,-26.855,-22.461,0.000,0
159132.908,-21.973,-12.695,-13.672,-24.414,0.000,0
159132.912,-25.879,-19.043,-10.742,-33.691,0.000,0
159132.916,-28.320,-19.043,-23.438,-50.781,0.000,0
159132.920,-29.785,-10.742,-40.527,-42.480,0.000,0
159132.924,-30.273,-14.648,-26.855,-27.344,0.000,0
159132.928,-29.785,-19.531,-10.254,-16.113,0.000,0
159132.931,-21.484,-22.461,-24.902,-23.438,0.000,0
159132.935,-20.020,-19.043,-31.250,-17.578,0.000,0
159132.939,-22.949,-11.230,-21.973,-6.836,0.000,0
159132.943,-21.973,-12.695,-23.926,-13.184,0.000,0
159132.947,-14.648,-18.066,-35.645,-15.625,0.000,0
159132.951,-13.184,-14.160,-15.137,-19.531,0.000,0
159132.955,-21.484,-17.578,-17.090,-24.414,0.000,0
159132.959,-26.367,-22.461,-31.250,-13.184,0.000,0
159132.963,-27.832,-19.531,-41.504,-2.441,0.000,0
159132.967,-26.855,-21.973,-75.684,-9.277,0.000,0
159132.971,-31.738,-24.414,-25.391,-20.996,0.000,0
159132.974,-32.227,-25.879,-16.113,-21.484,0.000,0
159132.978,-18.066,-30.273,-66.406,1.953,0.000,0
159132.982,-7.324,-22.949,-46.387,6.836,0.000,0
159132.986,-25.391,-12.695,-16.113,-30.273,0.000,0
159132.990,-41.016,-18.555,-24.414,-47.852,0.000,0
159132.994,-26.855,-18.066,-47.363,-41.992,0.000,0
159132.998,-24.902,-12.695,-49.805,-35.156,0.000,0
159133.002,-31.738,-15.625,-40.527,-25.391,0.000,0
159133.006,-41.016,-20.508,-43.457,-33.691,0.000,0
159133.010,-43.945,-20.508,-41.016,-49.316,0.000,0
159133.013,-38.086,-18.066,-20.996,-65.918,0.000,0
159133.017,-33.203,-17.090,-17.090,-51.758,0.000,0
159133.021,-26.367,-14.160,-39.062,-33.203,0.000,0
159133.025,-23.438,-16.113,-47.363,-24.414,0.000,0
159133.029,-23.438,-16.602,-24.902,-25.879,0.000,0
159133.033,-24.902,-16.113,-19.043,-46.875,0.000,0
159133.037,-17.090,-16.113,-36.621,-31.250,0.000,0
159133.041,-8.789,-14.648,-29.785,-9.766,0.000,0
159133.045,-12.695,-13.672,-26.855,-12.207,0.000,0
159133.049,-5.371,-9.766,-25.879,-3.906,0.000,0
159133.053,-4.395,-4.883,-17.090,-13.672,0.000,0
159133.056,-9.766,-6.348,-20.508,-24.414,0.000,0
159133.060,-9.766,-14.160,-8.789,-11.230,0.000,0
159133.064,-13.184,-15.625,-28.320,-1.465,0.000,0
159133.068,-12.207,-14.160,-41.992,-19.531,0.000,0
159133.072,-15.137,-13.672,-14.160,-27.832,0.000,0
159133.076,-14.160,-11.719,-31.250,-5.371,0.000,0
159133.080,-10.742,-11.230,-42.480,-4.883,0.000,0
159133.084,-18.555,-19.531,-44.922,-16.113,0.000,0
159133.088,-24.414,-23.926,-7.812,-32.715,0.000,0
159133.092,-22.461,-17.578,-18.066,-37.109,0.000,0
159133.096,-16.113,-21.484,-48.340,-24.902,0.000,0
159133.099,-16.113,-14.648,-24.902,-15.625,0.000,0
159133.103,-25.879,-11.719,-11.230,-8.789,0.000,0
159133.107,-25.879,-20.996,0.000,-27.832,0.000,0
159133.111,-17.578,-16.602,-21.973,-29.785,0.000,0
159133.115,-24.902,-12.207,-35.156,-22.949,0.000,0
159133.119,-25.391,-17.090,-22.461,-22.461,0.000,0
159133.123,-17.090,-18.555,-28.320,-21.973,0.000,0
159133.127,-16.602,-17.090,-20.020,-34.180,0.000,0
159133.131,-17.578,-11.719,-20.508,-31.738,0.000,0
159133.135,-22.461,-11.230,-34.668,-25.879,0.000,0
159133.138,-23.926,-16.602,-44.922,-21.973,0.000,0
159133.142,-21.973,-19.531,-48.340,-21.484,0.000,0
159133.146,-31.250,-20.020,-36.133,-34.668,0.000,0
159133.150,-32.715,-20.020,-27.832,-32.715,0.000,0
159133.154,-23.926,-24.902,-42.969,-23.438,0.000,0
159133.158,-21.484,-20.508,-43.457,-22.461,0.000,0
159133.162,-22.461,-18.555,-36.621,-24.902,0.000,0
159133.166,-23.438,-23.926,-30.273,-37.598,0.000,0
159133.170,-19.531,-22.461,-22.949,-36.621,0.000,0
159133.174,-17.578,-18.555,-27.832,-23.926,0.000,0
159133.178,-21.484,-18.066,-27.344,-23.438,0.000,0
159133.181,-22.461,-21.484,-33.691,-17.090,0.000,0
159133.185,-13.672,-20.996,-25.391,-19.531,0.000,0
159133.189,-15.625,-16.113,-16.602,-27.344,0.000,0
159133.193,-22.949,-16.602,-20.020,-27.344,0.000,0
159133.197,-21.484,-19.531,-22.461,-25.391,0.000,0
159133.201,-17.090,-17.090,-51.758,-7.812,0.000,0
159133.205,-13.184,-17.090,-44.434,-14.648,0.000,0
159133.209,-13.184,-20.508,-10.742,-24.902,0.000,0
159133.213,-14.648,-12.207,-24.902,-13.672,0.000,0
159133.217,-12.695,-8.789,-43.457,-6.836,0.000,0
159133.221,-5.859,-6.348,-23.926,-2.930,0.000,0
159133.224,-10.254,-12.695,-7.324,-11.719,0.000,0
159133.228,-8.301,-21.484,-21.973,-24.902,0.000,0
159133.232,-10.742,-17.578,-31.250,-26.855,0.000,0
159133.236,-17.090,-20.996,-23.926,-26.367,0.000,0
159133.240,-28.320,-20.508,-34.668,-14.160,0.000,0
159133.244,-28.320,-18.555,-40.039,-7.812,0.000,0
159133.248,-23.438,-24.902,-37.598,-21.484,0.000,0
159133.252,-26.855,-25.879,-31.250,-10.742,0.000,1
159133.256,-27.832,-19.043,-18.066,-0.977,0.000,0
159133.260,-25.391,-23.438,-34.180,-10.254,0.000,0
159133.263,-21.973,-21.973,-40.039,-15.137,0.000,0
159133.267,-25.391,-12.207,-21.973,-22.461,0.000,0
159133.271,-28.320,-15.137,-31.738,-22.949,0.000,0
159133.275,-22.461,-16.602,-43.945,-14.648,0.000,0
159133.279,-20.996,-12.207,-50.293,-7.324,0.000,0
159133.283,-18.555,-15.625,-23.926,-20.508,0.000,0
159133.287,-19.531,-19.043,-18.066,-20.996,0.000,0
159133.291,-14.160,-11.230,-62.988,-6.348,0.000,0
159133.295,-17.578,-11.719,-27.344,-16.602,0.000,0
159133.299,-23.438,-13.672,6.836,-14.160,0.000,0
159133.303,-12.207,-11.719,-15.625,-11.230,0.000,0
159133.306,-17.090,-11.719,-20.508,-20.996,0.000,0
159133.310,-21.973,-18.555,-31.738,-15.137,0.000,0
159133.314,-11.719,-16.602,-42.969,-4.883,0.000,0
159133.318,-8.301,-8.301,-44.434,1.953,0.000,0
159133.322,-14.160,-15.625,-18.555,-10.742,0.000,0
159133.326,-16.602,-12.695,-12.695,-8.789,0.000,0
159133.330,-20.508,-11.719,-30.273,-2.930,0.000,0
159133.334,-18.066,-16.602,-15.137,-14.160,0.000,0
159133.338,-18.066,-20.996,-26.855,-20.508,0.000,0
159133.342,-23.926,-23.926,-7.812,-34.180,0.000,0
159133.346,-14.160,-19.531,-0.977,-35.645,0.000,0
159133.349,-12.695,-19.531,-37.598,-24.902,0.000,0
159133.353,-7.324,-16.113,-24.902,-17.578,0.000,0
159133.357,23.926,-11.719,-5.371,7.324,0.000,0
159133.361,15.137,-19.531,-3.418,-9.277,0.000,0
159133.365,-24.414,-17.578,-3.906,-48.828,0.000,0
159133.369,-11.719,-15.137,-13.184,-28.809,0.000,0
159133.373,7.324,-9.766,-14.160,-9.766,0.000,0
159133.377,-8.301,-0.488,-20.508,-7.324,0.000,0
159133.381,-18.066,-3.906,-18.066,-11.230,0.000,0
159133.385,-17.090,-5.859,5.859,-18.555,0.000,0
159133.388,-16.602,-5.371,-10.742,-6.836,0.000,0
159133.392,-6.348,-5.371,-33.691,1.465,0.000,0
159133.396,-7.812,-11.230,-3.418,-15.625,0.000,0
159133.400,-16.113,-13.672,18.066,-23.438,0.000,0
159133.404,-11.719,-12.695,-21.484,-18.066,0.000,0
159133.408,-15.137,-16.602,-37.598,-21.973,0.000,0
159133.412,-28.809,-17.090,-30.273,-13.672,0.000,0
159133.416,-24.902,-18.555,-33.691,-2.441,0.000,0
159133.420,-24.902,-20.508,-15.625,-15.625,0.000,0
159133.424,-29.785,-9.277,-14.648,-21.484,0.000,0
159133.428,-25.391,-9.766,-37.598,-15.137,0.000,0
159133.431,-28.320,-12.207,-29.785,-13.184,0.000,0
159133.435,-24.414,-9.766,-41.016,-17.090,0.000,0
159133.439,-14.648,-8.789,-26.367,-26.367,0.000,0
159133.443,-18.066,-16.602,-25.391,-32.715,0.000,0
159133.447,-24.902,-18.066,-40.039,-26.855,0.000,0
159133.451,-25.391,-14.160,-34.668,-19.043,0.000,0
159133.455,-20.996,-13.672,-37.109,-12.695,0.000,0
159133.459,-25.391,-14.648,-21.973,-28.320,0.000,0
159133.463,-30.273,-15.137,-29.785,-25.391,0.000,0
159133.467,-24.902,-14.160,-43.945,-10.742,0.000,0
159133.471,-17.578,-15.625,-29.785,-16.602,0.000,0
159133.474,-22.461,-15.137,-21.484,-11.719,0.000,0
159133.478,-30.762,-13.672,-27.832,-31.738,0.000,0
159133.482,-31.738,-13.672,-18.066,-42.480,0.000,0
159133.486,-21.484,-10.254,-20.996,-22.949,0.000,0
159133.490,-21.484,-11.230,-17.578,-13.184,0.000,0
159133.494,-19.531,-12.207,-22.461,-14.648,0.000,0
159133.498,-18.066,-12.207,-11.230,-28.809,0.000,0
159133.502,-21.484,-16.113,-7.324,-31.738,0.000,0
159133.506,-19.531,-11.719,-25.879,-24.414,0.000,0
159133.510,-13.184,-7.812,-25.391,-17.090,0.000,0
159133.513,-14.648,-10.742,-31.250,-12.207,0.000,0
159133.517,-22.949,-7.324,-13.672,-25.879,0.000,0
159133.521,-25.879,-4.395,-4.395,-29.297,0.000,0
159133.525,-21.484,-8.301,-36.621,-20.020,0.000,0
159133.529,-12.695,-9.277,-49.316,-11.230,0.000,0
159133.533,-19.531,-6.836,-6.836,-16.113,0.000,0
159133.537,-20.996,-3.418,11.230,-37.109,0.000,0
159133.541,-17.578,-3.906,-30.762,-36.621,0.000,0
159133.545,-10.742,-3.906,-41.504,-23.926,0.000,0
159133.549,-4.395,-5.859,-20.508,-15.137,0.000,0
159133.553,-9.766,-12.695,-22.949,-7.324,0.000,0
159133.556,-9.766,-17.090,-23.438,-22.949,0.000,0
159133.560,-13.672,-17.090,-22.949,-25.391,0.000,0
159133.564,-19.043,-11.719,-18.555,-5.859,0.000,0
159133.568,-17.578,-12.695,-19.531,-6.836,0.000,0
159133.572,-16.602,-12.207,-41.504,-10.254,0.000,0
159133.576,-26.855,-9.766,-26.367,-20.020,0.000,0
159133.580,-34.180,-15.625,-3.418,-32.715,0.000,0
159133.584,-13.672,-15.137,-20.996,-19.043,0.000,0
159133.588,-2.930,-12.695,-26.855,3.906,0.000,0
159133.592,-40.527,-16.113,-30.273,-18.555,0.000,0
159133.596,-54.199,-13.672,-20.020,-45.898,0.000,0
159133.599,-40.039,-11.719,-17.090,-42.969,0.000,0
159133.603,-41.016,-11.719,-41.016,-36.621,0.000,0
159133.607,-24.414,-14.160,-57.129,-13.184,0.000,0
159133.611,-24.902,-17.578,-36.621,-15.625,0.000,0
159133.615,-41.992,-16.113,-18.555,-38.086,0.000,0
159133.619,-40.527,-19.043,-23.926,-37.109,0.000,0
159133.623,-40.527,-21.484,-23.926,-31.250,0.000,0
159133.627,-41.016,-20.508,-38.574,-33.691,0.000,0
159133.631,-28.809,-17.578,-55.664,-26.367,0.000,0
159133.635,-20.996,-9.766,-19.531,-34.180,0.000,0
159133.638,-22.461,-14.160,-21.973,-37.598,0.000,0
159133.642,-21.973,-18.066,-47.852,-30.273,0.000,0
159133.646,-20.996,-17.578,-35.645,-35.645,0.000,0
159133.650,-26.855,-20.996,-20.996,-38.086,0.000,0
159133.654,-25.879,-23.926,-2.441,-41.016,0.000,0
159133.658,-29.297,-21.484,-17.578,-43.945,0.000,0
159133.662,-30.762,-18.555,-35.645,-29.297,0.000,0
159133.666,-23.438,-21.484,-25.391,-16.113,0.000,0
159133.670,-19.531,-19.043,-25.879,-19.043,0.000,0
159133.674,-12.695,-17.578,-24.902,-34.180,0.000,0
159133.678,-15.625,-13.184,-27.832,-31.738,0.000,0
159133.681,-18.555,-16.113,-33.203,-22.949,0.000,0
159133.685,-20.020,-19.043,-30.273,-41.016,0.000,0
159133.689,-20.020,-16.602,-45.898,-37.598,0.000,0
159133.693,-17.090,-13.672,-28.320,-36.621,0.000,0
159133.697,-18.066,-10.742,-13.184,-45.410,0.000,0
159133.701,-9.766,-11.230,-29.785,-26.855,0.000,0
159133.705,-13.184,-16.602,-31.738,-20.996,0.000,0
159133.709,-21.484,-13.184,-47.852,-17.578,0.000,0
159133.713,-18.066,-16.602,-17.578,-25.391,0.000,0
159133.717,-18.555,-22.461,-1.953,-33.203,0.000,0
159133.721,-9.766,-15.625,-53.711,-30.273,0.000,0
159133.724,-9.277,-13.184,-55.664,-27.832,0.000,0
159133.728,-20.508,-9.766,-36.133,-13.672,0.000,0
159133.732,-23.438,-11.719,-20.996,-23.438,0.000,0
159133.736,-19.043,-16.602,-17.090,-32.227,0.000,0
159133.740,-19.043,-15.625,-34.668,-13.672,0.000,0
159133.744,-26.855,-17.578,-40.039,-8.789,0.000,0
159133.748,-20.020,-16.602,-42.480,-9.277,0.000,0
159133.752,-11.719,-13.672,-32.227,-1.465,0.000,0
159133.756,-19.531,-10.742,-21.484,-14.160,0.000,0
159133.760,-25.391,-5.859,-29.785,-26.367,0.000,0
159133.763,-10.742,-4.883,-32.227,-12.207,0.000,0
159133.767,-9.766,-8.789,-44.922,-1.465,0.000,0
159133.771,-17.578,-8.789,-24.414,-13.672,0.000,0
159133.775,-18.555,-12.207,-2.930,-19.043,0.000,0
159133.779,-17.090,-13.672,-48.828,-12.207,0.000,0
159133.783,-12.207,-6.348,-58.594,-18.066,0.000,0
159133.787,-8.301,-4.395,-28.320,-10.254,0.000,0
159133.791,-10.254,-12.207,-15.137,-11.230,0.000,0
159133.795,-7.324,-10.742,-10.254,-21.484,0.000,0
159133.799,-4.883,-4.395,-13.184,-17.578,0.000,0
159133.803,-20.508,-14.160,-9.277,-10.254,0.000,0
159133.806,-23.926,-17.090,-18.555,-0.488,0.000,0
159133.810,-18.066,-16.602,-51.270,-12.207,0.000,0
159133.814,-22.461,-19.531,-41.504,-29.297,0.000,0
159133.818,-26.367,-20.020,-28.320,-17.578,0.000,0
159133.822,-26.367,-20.508,-25.879,-14.648,0.000,0
159133.826,-19.043,-17.090,-26.855,-20.996,0.000,0
159133.830,-21.973,-20.508,-14.160,-30.762,0.000,0
159133.834,-24.414,-22.949,5.859,-41.016,0.000,0
159133.838,-18.555,-17.090,-4.395,-37.598,0.000,0
159133.842,-16.602,-15.625,-36.133,-31.738,0.000,0
159133.846,-14.160,-18.555,-42.969,-20.996,0.000,0
159133.849,-17.578,-20.020,-13.672,-15.137,0.000,0
159133.853,-16.602,-18.066,-4.395,-20.020,0.000,0
159133.857,-9.766,-19.043,-37.109,-22.461,0.000,0
159133.861,-5.371,-21.973,-30.762,-24.414,0.000,0
159133.865,-8.789,-17.090,3.906,-12.695,0.000,0
159133.869,-4.395,-7.812,-19.531,-5.859,0.000,0
159133.873,-1.953,-8.789,-18.066,-17.090,0.000,0
159133.877,-5.371,-11.719,-7.812,-21.973,0.000,0
159133.881,-8.789,-9.766,-16.113,-9.277,0.000,0
159133.885,-1.953,-15.137,-28.809,-4.395,0.000,0
159133.888,0.000,-15.625,-28.809,-5.371,0.000,1
159133.892,-6.348,-12.207,-18.066,-18.555,0.000,0
159133.896,-12.207,-18.066,-19.531,-26.367,0.000,0
159133.900,-23.438,-21.973,-23.926,-28.320,0.000,0
159133.904,-18.066,-21.973,-47.363,-21.973,0.000,0
159133.908,-21.973,-20.996,-30.762,-4.883,0.000,0
159133.912,-23.926,-16.113,-13.672,-15.137,0.000,0
159133.916,-9.277,-14.648,-38.086,-23.926,0.000,0
159133.920,-10.254,-17.090,-36.621,-14.648,0.000,0
159133.924,-15.137,-19.043,-41.992,-13.184,0.000,0
159133.928,-17.578,-22.461,-44.434,-16.602,0.000,0
159133.931,-11.719,-22.461,-31.250,-25.391,0.000,0
159133.935,-9.766,-19.043,-23.926,-27.832,0.000,0
159133.939,-18.066,-17.090,-24.414,-32.227,0.000,0
159133.943,-17.578,-13.672,-37.109,-19.531,0.000,0
159133.947,-12.207,-14.160,-48.828,-1.465,0.000,0
159133.951,-12.695,-16.602,-24.902,-20.020,0.000,0
159133.955,-11.719,-15.625,-11.230,-15.137,0.000,0
159133.959,-5.371,-9.277,-38.086,-3.906,0.000,0
159133.963,-1.465,-6.348,-37.109,-12.207,0.000,0
159133.967,-8.789,-11.230,-23.438,-10.742,0.000,0
159133.971,-14.648,-15.137,-11.230,-20.508,0.000,0
159133.974,-9.277,-12.207,-22.461,-23.926,0.000,0
159133.978,-12.695,-15.137,-24.414,-20.996,0.000,0
159133.982,-19.531,-23.438,-20.996,-12.695,0.000,0
159133.986,-18.066,-21.973,-23.438,-16.113,0.000,0
159133.990,-23.926,-18.555,-24.414,-39.062,0.000,0
159133.994,-28.809,-15.625,-32.715,-23.926,0.000,0
159133.998,-32.227,-18.066,-16.113,-16.602,0.000,0
159134.002,-26.855,-20.508,-30.273,-21.484,0.000,0
159134.006,-22.461,-22.461,-35.645,-24.414,0.000,0
159134.010,-26.855,-28.320,-14.160,-34.668,0.000,0
159134.013,-28.320,-22.949,-22.949,-30.762,0.000,0
159134.017,-25.391,-19.531,-25.879,-32.227,0.000,0
159134.021,-17.578,-19.043,-55.176,-15.137,0.000,0
159134.025,-19.531,-15.137,-38.574,-13.184,0.000,0
159134.029,-23.926,-14.160,3.906,-26.367,0.000,0
159134.033,-17.090,-15.625,-20.020,-7.812,0.000,0
159134.037,-24.414,-12.695,-32.715,-13.672,0.000,0
159134.041,-28.809,-19.043,-30.273,-24.414,0.000,0
159134.045,-22.461,-20.508,-39.062,-9.766,0.000,0
159134.049,-16.113,-17.578,-43.945,-26.855,0.000,0
159134.053,-9.277,-16.602,-38.574,-25.391,0.000,0
159134.056,-11.719,-12.207,-31.738,-9.277,0.000,0
159134.060,-17.090,-9.277,-34.180,-9.277,0.000,0
159134.064,-14.160,-10.742,-32.227,-9.277,0.000,0
159134.068,-7.812,-18.555,-8.789,-23.438,0.000,0
159134.072,-7.812,-8.789,-12.695,-27.832,0.000,0
159134.076,-11.719,-7.812,-42.969,-29.297,0.000,0
159134.080,-15.625,-17.578,-43.457,-27.344,0.000,0
159134.084,-22.461,-15.137,-20.020,-16.602,0.000,0
159134.088,-26.367,-18.066,5.371,-27.344,0.000,0
159134.092,-7.812,-21.484,-31.738,-14.648,0.000,0
159134.096,-14.648,-16.602,-55.664,-12.207,0.000,0
159134.099,-38.574,-13.672,-44.434,-43.945,0.000,0
159134.103,-34.180,-15.137,-47.852,-39.551,0.000,0
159134.107,-25.391,-15.137,-25.391,-45.410,0.000,0
159134.111,-31.250,-11.230,-7.324,-57.129,0.000,0
159134.115,-40.039,-11.719,-32.227,-44.922,0.000,0
159134.119,-43.457,-14.160,-50.293,-36.133,0.000,0
159134.123,-39.551,-13.184,-59.570,-20.996,0.000,0
159134.127,-34.668,-13.672,-35.645,-27.832,0.000,0
159134.131,-37.109,-6.348,-20.508,-31.738,0.000,0
159134.135,-34.668,-3.418,-35.156,-12.207,0.000,0
159134.138,-28.809,-12.207,-44.434,-10.254,0.000,0
159134.142,-32.227,-15.137,-51.758,-25.879,0.000,0
159134.146,-33.691,-11.230,-3.418,-31.250,0.000,0
159134.150,-24.414,-10.254,-0.488,-26.855,0.000,0
159134.154,-21.973,-9.766,-33.691,-25.879,0.000,0
159134.158,-28.320,-10.254,-37.598,-25.391,0.000,0
159134.162,-24.902,-10.742,-32.715,-23.926,0.000,0
159134.166,-21.484,-17.578,-27.344,-32.715,0.000,0
159134.170,-19.531,-14.648,-33.203,-26.855,0.000,0
159134.174,-20.020,-9.277,-39.551,-17.578,0.000,0
159134.178,-27.344,-11.230,-23.438,-21.973,0.000,0
159134.181,-20.020,-8.789,-18.555,-18.066,0.000,0
159134.185,-19.043,-11.719,-28.320,-21.484,0.000,0
159134.189,-32.227,-14.648,-12.695,-28.809,0.000,0
159134.193,-37.598,-10.742,-7.324,-28.809,0.000,0
159134.197,-20.020,-12.695,-34.668,-16.113,0.000,0
159134.201,-17.090,-19.531,-41.504,-16.602,0.000,0
159134.205,-33.203,-26.367,-32.227,-22.461,0.000,0
159134.209,-27.344,-20.508,-27.344,-33.691,0.000,0
159134.213,-20.996,-20.020,-19.043,-49.805,0.000,0
159134.217,-20.508,-20.996,-41.016,-36.621,0.000,0
159134.221,-23.926,-15.625,-48.340,-18.066,0.000,0
159134.224,-33.203,-17.090,-35.156,-26.367,0.000,0
159134.228,-35.156,-20.996,-40.039,-38.574,0.000,0
159134.232,-31.250,-19.531,-48.828,-23.926,0.000,0
159134.236,-34.668,-17.578,-25.879,-14.160,0.000,0
159134.240,-35.645,-16.113,-34.668,-22.949,0.000,0
159134.244,-22.461,-17.090,-37.598,-20.020,0.000,0
159134.248,-21.484,-12.207,-12.207,-28.809,0.000,0
159134.252,-25.879,-10.742,-28.809,-38.086,0.000,0
159134.256,-14.648,-10.742,-30.273,-36.133,0.000,0
159134.260,-3.906,-8.301,-43.457,-17.090,0.000,0
159134.263,-13.184,-12.695,-37.109,-13.672,0.000,0
159134.267,-16.602,-11.230,2.441,-18.066,0.000,0
159134.271,-16.113,-7.812,-12.207,-1.953,0.000,0
159134.275,-11.719,-10.742,-43.945,-10.742,0.000,0
159134.279,-8.301,-15.137,-32.227,-15.625,0.000,0
159134.283,-14.648,-9.766,13.184,-15.625,0.000,0
159134.287,2.930,1.465,1.953,-26.855,0.000,0
159134.291,7.324,-0.977,-26.855,-27.344,0.000,0
159134.295,-7.324,-9.277,-18.555,-21.973,0.000,0
159134.299,-0.977,-9.766,-20.020,-7.324,0.000,0
159134.303,3.418,-9.766,-14.160,-4.395,0.000,0
159134.306,-7.324,-13.184,-3.906,-16.113,0.000,0
159134.310,-11.719,-13.672,-24.414,-9.277,0.000,0
159134.314,-11.230,-16.113,-20.020,-17.578,0.000,0
159134.318,-9.277,-16.602,-16.113,-11.230,0.000,0
159134.322,-13.672,-14.160,-27.344,-6.348,0.000,0
159134.326,-21.973,-18.555,-9.766,-26.367,0.000,0
159134.330,-16.602,-16.113,-20.508,-18.555,0.000,0
159134.334,-16.602,-14.160,-40.527,-4.883,0.000,0
159134.338,-26.855,-20.020,-48.340,-1.465,0.000,0
159134.342,-31.250,-17.090,-38.574,-6.836,0.000,0
159134.346,-23.438,-14.648,-17.090,-11.230,0.000,0
159134.349,-20.508,-17.090,-39.062,-1.465,0.000,0
159134.353,-24.414,-20.020,-43.457,0.488,0.000,0
159134.357,-22.461,-20.996,-34.668,0.977,0.000,0
159134.361,-19.531,-23.438,-37.598,1.465,0.000,0
159134.365,-19.043,-20.020,-19.531,-15.625,0.000,0
159134.369,-21.484,-13.672,-21.973,-17.090,0.000,0
159134.373,-20.996,-13.672,-28.809,4.883,0.000,0
159134.377,-5.859,-13.184,-42.480,5.859,0.000,0
159134.381,-2.441,-14.160,-41.504,-6.836,0.000,0
159134.385,-12.207,-16.602,-11.719,-22.949,0.000,0
159134.388,-15.137,-16.602,-27.832,-19.043,0.000,0
159134.392,-15.137,-14.648,-44.922,-20.020,0.000,0
159134.396,-10.254,-14.648,-34.180,-17.090,0.000,0
159134.400,-7.324,-13.184,-26.855,-1.465,0.000,0
159134.404,-3.906,-6.836,-13.672,-10.742,0.000,0
159134.408,-8.301,-10.254,-27.832,-24.902,0.000,0
159134.412,-16.113,-9.766,-31.738,-19.531,0.000,0
159134.416,-12.207,-5.371,-4.883,-12.695,0.000,0
159134.420,-17.090,-8.301,-13.672,-17.578,0.000,0
159134.424,-18.555,-11.719,-25.879,-30.273,0.000,0
159134.428,-15.137,-11.719,-23.438,-26.855,0.000,0
159134.431,-22.949,-17.578,-30.273,-21.973,0.000,0
159134.435,-26.855,-12.695,-35.645,-16.113,0.000,0
159134.439,-20.020,-7.324,-46.875,-4.395,0.000,0
159134.443,-20.020,-7.812,-24.414,-19.043,0.000,0
159134.447,-22.461,-9.766,-18.066,-22.461,0.000,0
159134.451,-21.484,-14.648,-42.480,-16.113,0.000,0
159134.455,-25.879,-18.555,-47.852,-19.531,0.000,0
159134.459,-28.809,-21.484,-40.039,-18.555,0.000,0
159134.463,-29.297,-18.555,-3.418,-31.738,0.000,0
159134.467,-20.508,-18.555,-16.602,-41.504,0.000,0
159134.471,-13.672,-18.555,-55.176,-35.645,0.000,0
159134.474,-16.602,-21.484,-51.270,-25.391,0.000,0
159134.478,-17.090,-16.113,-35.645,-19.531,0.000,0
159134.482,-20.020,-19.043,-14.648,-31.250,0.000,0
159134.486,-30.273,-22.949,-15.137,-27.832,0.000,0
159134.490,-32.715,-19.531,-39.551,-14.648,0.000,0
159134.494,-29.785,-19.043,-41.992,-20.020,0.000,0
159134.498,-23.926,-17.090,-38.574,-18.555,0.000,0
159134.502,-23.438,-17.090,-32.715,-30.762,0.000,0
159134.506,-27.344,-10.742,-24.902,-35.645,0.000,0
159134.510,-23.926,-3.906,-31.738,-21.484,0.000,0
159134.513,-21.484,-9.277,-53.223,-17.090,0.000,0
159134.517,-21.973,-15.137,-49.805,-22.461,0.000,0
159134.521,-32.715,-20.996,-9.766,-26.367,0.000,0
159134.525,-35.156,-14.648,-21.973,-23.438,0.000,0
159134.529,-29.297,-9.277,-44.434,-22.949,0.000,0
159134.533,-21.973,-12.695,-29.785,-20.020,0.000,0
159134.537,-19.043,-14.648,-19.531,-17.578,0.000,0
159134.541,-20.996,-14.648,-23.926,-20.020,0.000,0
159134.545,-21.484,-15.137,-15.137,-24.902,0.000,0
159134.549,-19.531,-21.973,-24.414,-25.879,0.000,0
159134.553,-20.996,-14.160,-28.809,-21.484,0.000,0
159134.556,-21.484,-8.789,-36.621,-18.555,0.000,0
159134.560,-17.090,-18.066,-47.363,-21.484,0.000,0
159134.564,-20.020,-19.531,-19.531,-27.832,0.000,0
159134.568,-24.902,-14.648,4.883,-21.973,0.000,0
159134.572,-18.066,-18.555,-22.949,-20.508,0.000,0
159134.576,-15.137,-23.438,-42.480,-12.695,0.000,0
159134.580,-17.090,-16.113,-24.414,-10.742,0.000,0
159134.584,-20.020,-18.555,-23.926,-15.625,0.000,0
159134.588,-25.879,-19.531,-38.086,-10.742,0.000,0
159134.592,-26.367,-15.137,-40.527,-17.578,0.000,0
159134.596,-28.809,-15.625,-23.926,-18.555,0.000,0
159134.599,-27.832,-16.113,-7.324,-29.785,0.000,0
159134.603,-21.484,-20.508,-22.461,-35.645,0.000,0
159134.607,-22.461,-18.555,-21.973,-33.203,0.000,1
159134.611,-19.531,-13.672,-14.160,-27.344,0.000,0
159134.615,-7.812,-12.207,-32.715,-14.648,0.000,0
159134.619,11.230,-14.648,1.465,-17.578,0.000,0
159134.623,-4.883,-19.531,-1.465,-20.020,0.000,0
159134.627,-35.156,-15.625,-36.133,-28.809,0.000,0
159134.631,-28.809,-20.020,-35.156,-31.738,0.000,0
159134.635,-21.973,-18.066,-31.738,-26.855,0.000,0
159134.638,-36.621,-15.625,-17.090,-45.410,0.000,0
159134.642,-36.621,-22.949,-25.879,-51.270,0.000,0
159134.646,-33.203,-16.602,-24.902,-34.180,0.000,0
159134.650,-31.250,-9.277,-31.738,-25.391,0.000,0
159134.654,-22.949,-9.277,-39.062,-12.207,0.000,0
159134.658,-18.555,-10.254,-13.184,-11.719,0.000,0
159134.662,-12.207,-10.254,-19.531,-7.324,0.000,0
159134.666,-10.254,-20.508,-45.410,5.859,0.000,0
159134.670,-12.207,-22.461,-43.945,4.395,0.000,0
159134.674,-23.926,-13.672,-35.645,-3.418,0.000,0
159134.678,-23.438,-15.625,-22.949,-11.719,0.000,0
159134.681,-20.996,-14.648,-15.625,-20.508,0.000,0
159134.685,-21.973,-14.160,-20.020,-13.672,0.000,0
159134.689,-14.160,-13.672,-20.996,-2.441,0.000,0
159134.693,-18.066,-13.672,-31.250,-5.859,0.000,0
159134.697,-23.438,-19.531,-9.766,-20.508,0.000,0
159134.701,-25.391,-18.555,2.930,-20.508,0.000,0
159134.705,-20.508,-17.090,-40.527,-18.555,0.000,0
159134.709,-10.254,-11.719,-37.109,-19.531,0.000,0
159134.713,-8.301,-7.324,-17.090,-3.418,0.000,0
159134.717,-5.371,-10.254,-5.859,-19.043,0.000,0
159134.721,-3.418,-13.184,-14.648,-27.832,0.000,0
159134.724,-5.859,-15.625,-32.227,-13.672,0.000,0
159134.728,-7.324,-13.184,-32.715,-10.254,0.000,0
159134.732,-10.254,-14.648,-41.016,-11.230,0.000,0
159134.736,-7.812,-14.160,-32.715,-9.277,0.000,0
159134.740,-10.742,-15.625,-29.785,-17.090,0.000,0
159134.744,-15.137,-17.090,-20.508,-21.973,0.000,0
159134.748,-11.719,-15.625,-12.695,-22.949,0.000,0
159134.752,0.977,-15.625,-37.598,-13.184,0.000,0
159134.756,-0.488,-16.113,-33.691,-10.742,0.000,0
159134.760,-3.906,-13.184,-9.766,-19.043,0.000,0
159134.763,0.488,-10.254,-23.926,-8.301,0.000,0
159134.767,0.000,-11.719,-33.691,-0.977,0.000,0
159134.771,-1.465,-12.695,-27.832,-1.953,0.000,0
159134.775,-12.207,-15.625,-11.230,-29.297,0.000,0
159134.779,-16.113,-22.461,-8.789,-39.062,0.000,0
159134.783,-9.277,-21.973,-28.809,-21.973,0.000,0
159134.787,-20.020,-17.090,-32.715,-18.066,0.000,0
159134.791,-28.320,-15.625,-35.156,-13.184,0.000,0
159134.795,-15.137,-18.555,-34.668,-25.391,0.000,0
159134.799,-8.301,-16.602,-16.602,-41.016,0.000,0
159134.803,-9.766,-7.812,-20.020,-21.973,0.000,0
159134.806,-13.184,-8.789,-30.762,-10.254,0.000,0
159134.810,-1.465,-12.695,-29.297,-12.207,0.000,0
159134.814,13.184,-11.719,-18.555,-2.930,0.000,0
159134.818,-2.441,-13.184,-1.953,-18.066,0.000,0
159134.822,-34.668,-17.578,-20.996,-53.223,0.000,0
159134.826,-36.133,-20.508,-27.344,-51.758,0.000,0
159134.830,-20.508,-11.719,-27.832,-18.066,0.000,0
159134.834,-27.344,-10.254,-21.973,-26.367,0.000,0
159134.838,-36.621,-8.301,-24.414,-33.203,0.000,0
159134.842,-32.715,-8.301,-62.500,-27.344,0.000,0
159134.846,-19.043,-14.648,-52.734,-25.391,0.000,0
159134.849,-21.973,-12.207,-28.320,-16.113,0.000,0
159134.853,-31.250,-9.766,-30.762,-26.367,0.000,0
159134.857,-20.020,-8.789,-29.297,-36.133,0.000,0
159134.861,-18.066,-11.230,-21.973,-28.809,0.000,0
159134.865,-24.414,-10.742,-27.344,-14.648,0.000,0
159134.869,-19.043,-17.578,-35.156,-7.812,0.000,0
159134.873,-20.508,-23.926,-25.879,-28.809,0.000,0
159134.877,-24.414,-14.160,-16.113,-31.250,0.000,0
159134.881,-17.090,-15.625,-27.344,-13.184,0.000,0
159134.885,-18.066,-19.531,-32.227,-18.555,0.000,0
159134.888,-10.742,-19.043,-33.691,-14.648,0.000,0
159134.892,-13.184,-21.484,-13.672,-15.137,0.000,0
159134.896,-22.461,-24.902,-6.836,-27.344,0.000,0
159134.900,-14.160,-28.320,-51.758,-21.484,0.000,0
159134.904,-14.160,-26.367,-68.848,-20.996,0.000,0
159134.908,-16.602,-21.484,-31.738,-17.578,0.000,0
159134.912,-16.113,-19.043,-17.578,-12.695,0.000,0
159134.916,-15.625,-18.066,-24.902,-27.344,0.000,0
159134.920,-12.207,-16.602,-31.250,-30.762,0.000,0
159134.924,-15.625,-16.113,-25.879,-17.578,0.000,0
159134.928,-21.484,-20.020,-27.344,-12.695,0.000,0
159134.931,-20.996,-24.902,-20.996,-27.832,0.000,0
159134.935,-19.531,-19.531,-23.926,-31.250,0.000,0
159134.939,-25.879,-18.555,-22.949,-16.113,0.000,0
159134.943,-26.367,-29.785,-36.621,-19.043,0.000,0
159134.947,-23.926,-26.367,-40.527,-21.973,0.000,0
159134.951,-23.926,-18.555,-26.855,-17.578,0.000,0
159134.955,-27.832,-17.090,-25.879,-32.227,0.000,0
159134.959,-26.367,-19.043,-40.039,-35.645,0.000,0
159134.963,-24.902,-20.508,-50.781,-35.645,0.000,0
159134.967,-34.180,-20.020,-41.992,-30.273,0.000,0
159134.971,-34.180,-18.066,-28.809,-30.762,0.000,0
159134.974,-30.762,-17.090,-16.602,-42.969,0.000,0
159134.978,-26.367,-17.578,-27.344,-22.949,0.000,0
159134.982,-21.484,-19.043,-21.484,-16.113,0.000,0
159134.986,-21.973,-20.996,-32.715,-20.508,0.000,0
159134.990,-18.555,-17.578,-45.410,-23.438,0.000,0
159134.994,-19.043,-16.602,-20.020,-38.574,0.000,0
159134.998,-25.391,-15.625,-16.113,-35.156,0.000,0
159135.002,-20.996,-15.625,-29.297,-20.996,0.000,0
159135.006,-17.090,-17.578,-43.945,-9.766,0.000,0
159135.010,-21.484,-22.461,-32.715,-21.484,0.000,0
159135.013,-26.855,-22.949,-7.812,-34.180,0.000,0
159135.017,-31.738,-20.020,-36.621,-18.066,0.000,0
159135.021,-25.879,-17.578,-44.434,-17.578,0.000,0
159135.025,-16.113,-20.020,-14.648,-29.297,0.000,0
159135.029,-14.648,-20.020,-19.531,-13.184,0.000,0
159135.033,-8.789,-18.555,-14.160,-30.762,0.000,0
159135.037,-10.254,-19.531,-41.992,-33.203,0.000,0
159135.041,-12.695,-14.648,-59.082,-6.348,0.000,0
159135.045,-14.648,-10.254,-35.156,-6.836,0.000,0
159135.049,-15.625,-18.066,-28.809,-20.020,0.000,0
159135.053,-13.184,-22.949,-9.766,-33.691,0.000,0
159135.056,-11.719,-16.602,-15.625,-28.809,0.000,0
159135.060,-17.090,-19.043,-29.297,-30.273,0.000,0
159135.064,-18.555,-22.949,-30.273,-29.785,0.000,0
159135.068,-17.090,-19.043,-40.039,-15.625,0.000,0
159135.072,-21.973,-20.996,-28.320,-25.391,0.000,0
159135.076,-26.855,-22.461,-25.879,-31.738,0.000,0
159135.080,-28.809,-20.996,-55.664,-21.484,0.000,0
159135.084,-25.879,-22.949,-53.223,-23.438,0.000,0
159135.088,-22.461,-20.020,-24.902,-14.648,0.000,0
159135.092,-15.137,-14.160,0.000,-15.625,0.000,0
159135.096,-8.789,-19.043,-18.066,-21.973,0.000,0
159135.099,-14.648,-19.043,-21.484,-20.996,0.000,0
159135.103,-19.531,-12.207,-20.508,-9.766,0.000,0
159135.107,-16.602,-12.207,-40.527,5.859,0.000,0
159135.111,-19.043,-16.113,-17.090,-15.625,0.000,0
159135.115,-26.855,-18.066,-13.184,-21.484,0.000,0
159135.119,-32.715,-13.184,-31.738,-7.324,0.000,0
159135.123,-24.902,-12.695,-44.434,-10.254,0.000,0
159135.127,-18.555,-17.578,-45.410,-12.207,0.000,0
159135.131,-24.902,-11.230,-20.020,-19.043,0.000,0
159135.135,-20.508,-3.906,-16.602,-23.926,0.000,0
159135.138,-16.113,-4.395,-32.715,-16.602,0.000,0
159135.142,-15.137,-11.230,-53.711,-4.883,0.000,0
159135.146,-14.648,-12.207,-43.945,-0.977,0.000,0
159135.150,-13.184,-5.859,-10.254,-9.766,0.000,0
159135.154,-9.277,-7.324,-29.297,-13.184,0.000,1
159135.158,-15.625,-15.625,-45.410,-13.672,0.000,0
159135.162,-22.949,-20.996,-23.926,-20.020,0.000,0
159135.166,-21.973,-19.043,-24.414,-14.160,0.000,0
159135.170,-17.578,-20.996,-31.738,-23.438,0.000,0
159135.174,-17.578,-20.020,-28.320,-31.250,0.000,0
159135.178,-23.926,-17.090,-23.438,-21.973,0.000,0
159135.181,-18.555,-14.160,-31.738,-10.742,0.000,0
159135.185,-18.555,-18.066,-49.316,-13.672,0.000,0
159135.189,-22.949,-19.531,-40.039,-22.949,0.000,0
159135.193,-16.113,-10.254,-15.625,-16.602,0.000,0
159135.197,-10.742,-7.324,-32.715,-4.395,0.000,0
159135.201,-10.254,-10.254,-47.363,-5.371,0.000,0
159135.205,-16.113,-13.184,-37.109,-9.277,0.000,0
159135.209,-28.320,-15.137,-17.090,-13.672,0.000,0
159135.213,-29.297,-16.602,-9.277,-25.879,0.000,0
159135.217,-19.531,-12.695,-33.691,-22.949,0.000,0
159135.221,-19.531,-11.719,-35.156,-12.207,0.000,0
159135.224,-23.926,-13.184,-4.883,-2.930,0.000,0
159135.228,-23.926,-14.648,-13.672,-8.789,0.000,0
159135.232,-19.531,-14.160,-23.926,-21.973,0.000,0
159135.236,-18.555,-16.602,-16.602,-27.344,0.000,0
159135.240,-23.438,-20.508,-8.301,-26.367,0.000,0
159135.244,-15.625,-11.719,-38.574,-13.184,0.000,0
159135.248,-4.883,-10.254,-37.109,-6.836,0.000,0
159135.252,-16.602,-16.113,-2.930,-23.438,0.000,0
159135.256,-27.832,-17.090,-9.766,-24.902,0.000,0
159135.260,-17.090,-14.648,-24.902,-6.836,0.000,0
159135.263,-16.602,-14.160,-32.715,-8.301,0.000,0
159135.267,-21.973,-11.230,1.465,-8.301,0.000,0
159135.271,-20.508,-9.766,-0.488,-17.578,0.000,0
159135.275,-10.742,-12.695,-36.133,-20.508,0.000,0
159135.279,-5.371,-12.695,-21.484,-15.137,0.000,0
159135.283,-11.719,-10.254,-20.996,-6.348,0.000,0
159135.287,-11.230,-9.277,-31.250,-8.789,0.000,0
159135.291,-7.324,-12.695,-21.484,-26.367,0.000,0
159135.295,-15.625,-12.695,-22.949,-23.926,0.000,0
159135.299,-18.555,-4.883,-20.508,-13.184,0.000,0
159135.303,-21.484,-4.395,-24.414,-14.160,0.000,0
159135.306,-27.344,-11.230,-27.344,-23.438,0.000,0
159135.310,-23.438,-9.766,-9.766,-31.250,0.000,0
159135.314,-26.855,-6.836,0.977,-28.809,0.000,0
159135.318,-14.160,-8.301,-20.508,-19.043,0.000,0
159135.322,-8.789,-6.836,-40.039,-2.441,0.000,0
159135.326,-14.648,-13.672,-25.879,-7.324,0.000,0
159135.330,-20.020,-13.672,-11.230,-26.855,0.000,0
159135.334,-22.949,-6.348,-40.039,-17.090,0.000,0
159135.338,-22.461,-6.348,-37.598,-18.555,0.000,0
159135.342,-28.320,-7.812,-13.672,-30.273,0.000,0
159135.346,-20.996,-8.789,-34.668,-17.578,0.000,0
159135.349,-12.695,-12.695,-19.531,-25.879,0.000,0
159135.353,-22.461,-16.113,-16.113,-33.691,0.000,0
159135.357,-33.691,-12.695,-19.531,-20.020,0.000,0
159135.361,-24.902,-11.719,-25.391,-12.695,0.000,0
159135.365,-12.695,-13.184,-35.645,-31.250,0.000,0
159135.369,-21.484,-13.672,-17.090,-46.875,0.000,0
159135.373,-21.484,-10.254,-32.227,-25.391,0.000,0
159135.377,-4.395,-5.371,-36.133,-9.277,0.000,0
159135.381,-2.441,-5.859,-27.832,-15.625,0.000,0
159135.385,-13.672,-11.230,-28.809,-21.973,0.000,0
159135.388,-18.555,-12.207,-13.672,-34.180,0.000,0
159135.392,-10.742,-8.789,-21.484,-28.320,0.000,0
159135.396,-19.531,-9.277,-35.156,-18.555,0.000,0
159135.400,-24.414,-5.859,-46.387,-14.160,0.000,0
159135.404,-18.555,-5.859,-29.297,-13.184,0.000,0
159135.408,-13.672,-11.230,-17.578,-32.715,0.000,0
159135.412,-13.184,-15.625,-34.668,-28.320,0.000,0
159135.416,-17.090,-21.484,-36.133,-22.461,0.000,0
159135.420,-22.949,-19.043,-38.086,-31.738,0.000,0
159135.424,-22.461,-17.090,-44.922,-16.602,0.000,0
159135.428,-27.344,-21.484,-18.555,-27.344,0.000,0
159135.431,-35.645,-19.531,-13.672,-33.691,0.000,0
159135.435,-22.949,-14.160,-34.668,-8.301,0.000,0
159135.439,-16.602,-14.648,-42.969,-3.418,0.000,0
159135.443,-20.020,-14.648,-32.227,-4.395,0.000,0
159135.447,-21.973,-13.672,6.836,-14.160,0.000,0
159135.451,-19.043,-15.137,-14.160,-19.531,0.000,0
159135.455,-10.742,-19.531,-48.828,-17.090,0.000,0
159135.459,-6.348,-22.461,-31.250,-9.766,0.000,0
159135.463,-14.648,-22.461,-25.391,0.000,0.000,0
159135.467,-8.301,-20.996,-17.090,-5.371,0.000,0
159135.471,13.672,-23.438,-23.438,-2.441,0.000,0
159135.474,2.930,-18.555,-27.344,-3.906,0.000,0
159135.478,-26.855,-14.648,-24.414,-31.250,0.000,0
159135.482,-18.066,-17.578,-36.621,-28.320,0.000,0
159135.486,-6.836,-19.043,-26.855,-22.949,0.000,0
159135.490,-17.090,-19.531,-29.297,-31.738,0.000,0
159135.494,-22.461,-13.184,-25.391,-27.832,0.000,0
159135.498,-21.484,-12.695,-39.062,-19.531,0.000,0
159135.502,-15.625,-17.578,-66.406,-21.484,0.000,0
159135.506,-20.020,-15.137,-30.762,-32.715,0.000,0
159135.510,-27.344,-12.207,0.488,-24.902,0.000,0
159135.513,-18.066,-10.742,-27.832,-17.090,0.000,0
159135.517,-19.531,-18.555,-40.527,-24.414,0.000,0
159135.521,-24.902,-22.461,-38.574,-21.973,0.000,0
159135.525,-20.996,-19.531,-29.297,-28.320,0.000,0
159135.529,-14.648,-16.602,-23.926,-40.527,0.000,0
159135.533,-10.742,-18.555,-30.273,-28.809,0.000,0
159135.537,-9.277,-19.043,-33.203,-9.277,0.000,0
159135.541,-3.906,-11.230,-43.945,-4.395,0.000,0
159135.545,3.418,-9.766,-36.621,-3.418,0.000,0
159135.549,-5.371,-14.160,-9.766,-6.348,0.000,0
159135.553,-20.508,-18.066,-12.695,-10.254,0.000,0
159135.556,-21.973,-12.695,-41.992,-1.953,0.000,0
159135.560,-16.113,-12.207,-40.039,-4.395,0.000,0
159135.564,-12.695,-15.625,-20.508,-16.113,0.000,0
159135.568,-21.973,-11.719,-11.719,-34.668,0.000,0
159135.572,-23.438,-10.742,-29.297,-36.133,0.000,0
159135.576,-20.996,-14.160,-37.109,-28.320,0.000,0
159135.580,-20.508,-19.043,-29.785,-30.273,0.000,0
159135.584,-22.461,-21.973,-22.949,-32.227,0.000,0
159135.588,-20.508,-21.973,-19.043,-44.922,0.000,0
159135.592,-11.230,-13.672,-43.945,-43.457,0.000,0
159135.596,-17.090,-16.113,-38.086,-36.133,0.000,0
159135.599,-24.902,-21.484,-11.719,-23.926,0.000,0
159135.603,-21.973,-23.926,-38.574,-25.879,0.000,0
159135.607,-27.832,-26.367,-36.133,-40.039,0.000,0
159135.611,-31.250,-23.926,-33.203,-26.855,0.000,0
159135.615,-25.879,-21.484,-47.363,-14.160,0.000,0
159135.619,-27.344,-25.391,-54.688,-26.367,0.000,0
159135.623,-25.391,-18.066,-41.504,-33.691,0.000,0
159135.627,-28.320,-14.160,-16.113,-36.621,0.000,0
159135.631,-33.203,-16.113,-27.832,-37.598,0.000,0
159135.635,-20.996,-15.625,-51.758,-29.297,0.000,0
159135.638,-16.113,-16.602,-61.523,-10.742,0.000,0
159135.642,-22.461,-13.672,-15.137,-13.672,0.000,0
159135.646,-20.996,-12.207,-1.465,-32.715,0.000,0
159135.650,-13.672,-18.066,-45.410,-29.297,0.000,0
159135.654,-19.043,-21.973,-33.203,-35.645,0.000,0
159135.658,-26.855,-20.020,-36.621,-24.902,0.000,0
159135.662,-26.367,-22.461,-39.551,-22.949,0.000,0
159135.666,-26.367,-22.461,-25.879,-33.691,0.000,0
159135.670,-26.855,-17.090,-38.086,-22.461,0.000,0
159135.674,-24.902,-16.113,-39.062,-14.648,0.000,0
159135.678,-26.367,-16.602,-47.852,-7.812,0.000,0
159135.681,-30.762,-14.648,-56.641,-20.020,0.000,0
159135.685,-31.250,-16.602,-37.109,-33.203,0.000,0
159135.689,-35.645,-12.207,-16.602,-17.090,0.000,0
159135.693,-23.438,-9.766,-26.367,-12.207,0.000,0
159135.697,-18.066,-10.254,-29.785,-12.695,0.000,0
159135.701,-24.414,-8.789,-17.578,-12.695,0.000,0
159135.705,-21.973,-14.648,-13.184,-23.926,0.000,0
159135.709,-18.555,-7.324,-24.902,-23.926,0.000,0
159135.713,-13.672,0.488,-18.555,-7.324,0.000,0
159135.717,-17.578,-6.836,-17.090,-6.836,0.000,0
159135.721,-20.996,-9.766,-25.879,-12.207,0.000,0
159135.724,-15.137,-8.789,-10.254,-19.531,0.000,0
159135.728,-11.230,-15.625,-8.301,-25.879,0.000,0
159135.732,-12.207,-13.672,-12.695,-17.090,0.000,0
159135.736,-14.648,-5.371,-36.133,-10.742,0.000,0
159135.740,-18.555,-7.812,-32.227,-27.832,0.000,0
159135.744,-23.926,-8.301,-3.418,-41.992,0.000,0
159135.748,-20.996,-7.324,-26.855,-19.043,0.000,1
159135.752,-18.555,-9.277,-33.203,-12.207,0.000,0
159135.756,-22.461,-5.859,-26.367,-22.949,0.000,0
159135.760,-25.879,-7.812,-22.949,-21.973,0.000,0
159135.763,-20.508,-10.254,-15.137,-24.902,0.000,0
159135.767,-14.648,-7.812,-36.133,-16.602,0.000,0
159135.771,-21.973,-11.230,-37.598,-14.648,0.000,0
159135.775,-30.762,-11.719,-27.832,-11.230,0.000,0
159135.779,-23.438,-7.812,-20.996,-14.648,0.000,0
159135.783,-14.160,-9.277,-22.949,-23.926,0.000,0
159135.787,-19.531,-7.812,-41.992,-13.672,0.000,0
159135.791,-14.648,-7.812,-45.898,-9.277,0.000,0
159135.795,-18.066,-14.648,-41.504,-12.207,0.000,0
159135.799,-17.578,-8.301,-32.227,-12.207,0.000,0
159135.803,-17.578,-13.672,-24.414,-21.484,0.000,0
159135.806,-25.879,-20.508,-34.180,-31.738,0.000,0
159135.810,-21.973,-18.555,-33.691,-25.391,0.000,0
159135.814,-25.879,-21.973,-38.574,-15.137,0.000,0
159135.818,-29.297,-17.090,-38.086,-14.648,0.000,0
159135.822,-25.879,-13.672,-19.531,-26.855,0.000,0
159135.826,-17.090,-14.160,-29.785,-23.926,0.000,0
159135.830,-7.812,-12.207,-39.551,-8.301,0.000,0
159135.834,-9.766,-8.789,-21.973,-4.395,0.000,0
159135.838,-19.043,-12.695,-24.414,-13.672,0.000,0
159135.842,-21.973,-16.602,-15.625,-23.438,0.000,0
159135.846,-18.555,-8.301,-20.996,-29.785,0.000,0
159135.849,-18.555,-5.859,-38.574,-28.320,0.000,0
159135.853,-15.625,-9.766,-34.668,-20.020,0.000,0
159135.857,-14.648,-11.719,-18.066,-24.902,0.000,0
159135.861,-25.879,-14.160,-21.484,-31.250,0.000,0
159135.865,-32.227,-9.766,-22.461,-26.855,0.000,0
159135.869,-17.090,-9.766,-23.438,-8.301,0.000,0
159135.873,-2.441,-10.742,-34.668,-8.301,0.000,0
159135.877,-5.371,-7.812,-23.926,-12.207,0.000,0
159135.881,-8.301,-8.301,-9.766,-20.020,0.000,0
159135.885,-7.812,-2.441,-13.184,-26.855,0.000,0
159135.888,-9.277,-3.418,-25.879,-13.184,0.000,0
159135.892,-15.625,-7.324,-26.367,-15.137,0.000,0
159135.896,-15.137,-8.789,-17.578,-21.484,0.000,0
159135.900,-14.160,-9.766,-10.742,-11.230,0.000,0
159135.904,-21.484,-9.277,-34.668,-9.766,0.000,0
159135.908,-20.508,-10.254,-41.504,-19.043,0.000,0
159135.912,-20.020,-9.766,-18.066,-16.602,0.000,0
159135.916,-18.066,-9.277,-34.180,-15.137,0.000,0
159135.920,-16.113,-13.184,-44.434,-28.320,0.000,0
159135.924,-18.555,-14.648,-16.602,-31.250,0.000,0
159135.928,-21.484,-9.277,2.930,-7.812,0.000,0
159135.931,-20.020,-11.230,-24.414,-0.488,0.000,0
159135.935,-20.996,-10.742,-35.645,-16.602,0.000,0
159135.939,-23.438,-13.184,-10.742,-21.484,0.000,0
159135.943,-21.973,-14.648,-18.066,-28.809,0.000,0
159135.947,-13.672,-17.090,-41.504,-39.062,0.000,0
159135.951,-18.066,-20.508,-45.410,-30.273,0.000,0
159135.955,-24.902,-16.113,-31.738,-20.020,0.000,0
159135.959,-18.555,-16.113,-3.906,-26.855,0.000,0
159135.963,-19.043,-12.207,-21.973,-22.461,0.000,0
159135.967,-15.137,-9.766,-29.297,-9.277,0.000,0
159135.971,-18.555,-11.719,-21.973,-0.977,0.000,0
159135.974,-10.254,-9.766,-19.531,-5.859,0.000,0
159135.978,-5.371,-8.789,-11.230,-20.996,0.000,0
159135.982,-11.230,-6.348,-21.973,-17.578,0.000,0
159135.986,-10.742,-5.859,-23.438,-12.695,0.000,0
159135.990,-13.184,-11.230,-31.738,-9.277,0.000,0
159135.994,-11.719,-10.254,-27.344,-10.742,0.000,0
159135.998,-13.184,-9.277,-6.836,-19.043,0.000,0
159136.002,-8.789,-9.277,-28.320,-4.395,0.000,0
159136.006,-2.930,-7.812,-28.809,-0.977,0.000,0
159136.010,-5.371,-3.418,-25.879,-11.230,0.000,0
159136.013,-7.324,-4.395,-9.766,-12.695,0.000,0
159136.017,-7.812,-4.395,1.465,-23.926,0.000,0
159136.021,-8.301,-2.930,-22.949,-31.738,0.000,0
159136.025,-5.371,-9.277,-11.719,-31.738,0.000,0
159136.029,-15.625,-6.348,-25.391,-11.719,0.000,0
159136.033,-14.160,-4.395,-36.621,-6.348,0.000,0
159136.037,-12.207,-12.695,-17.578,-24.902,0.000,0
159136.041,-22.461,-7.812,-23.438,-21.484,0.000,0
159136.045,-14.160,-1.953,-24.414,-11.719,0.000,0
159136.049,-14.648,-6.348,-32.227,-7.324,0.000,0
159136.053,-25.391,-10.254,-35.156,-2.441,0.000,0
159136.056,-14.160,-9.277,-10.254,-21.973,0.000,0
159136.060,-19.043,-10.254,-3.906,-28.809,0.000,0
159136.064,-20.020,-12.207,-25.391,-17.090,0.000,0
159136.068,-18.066,-15.625,-40.039,-18.066,0.000,0
159136.072,-20.020,-16.113,-49.316,-13.672,0.000,0
159136.076,-21.973,-14.648,-14.648,-20.996,0.000,0
159136.080,-18.066,-9.766,-16.602,-18.066,0.000,0
159136.084,-19.043,-13.672,-54.688,-19.043,0.000,0
159136.088,-35.156,-16.602,-42.969,-27.344,0.000,0
159136.092,-37.598,-16.113,-30.273,-13.672,0.000,0
159136.096,-26.855,-16.113,-16.602,-19.531,0.000,0
159136.099,-24.902,-7.324,-20.996,-16.602,0.000,0
159136.103,-36.133,-9.277,-37.598,-1.953,0.000,0
159136.107,-27.832,-17.578,-38.574,-6.836,0.000,0
159136.111,-18.555,-12.207,-42.969,-3.906,0.000,0
159136.115,-26.367,-12.695,-26.367,-11.719,0.000,0
159136.119,-39.062,-18.555,-21.973,-27.832,0.000,0
159136.123,-32.227,-12.695,-30.273,-23.926,0.000,0
159136.127,-20.508,-10.742,-34.180,-11.230,0.000,0
159136.131,-26.855,-15.625,-40.527,-5.371,0.000,0
159136.135,-30.762,-20.996,-22.949,-24.414,0.000,0
159136.138,-23.926,-22.461,-25.879,-21.973,0.000,0
159136.142,-23.438,-16.602,-55.176,0.977,0.000,0
159136.146,-26.855,-13.672,-39.062,-2.930,0.000,0
159136.150,-32.227,-13.184,-20.508,-17.578,0.000,0
159136.154,-33.203,-17.090,-41.504,-28.809,0.000,0
159136.158,-24.414,-16.602,-55.176,-42.480,0.000,0
159136.162,-19.531,-18.555,-47.852,-30.762,0.000,0
159136.166,-21.484,-21.484,-28.809,-23.438,0.000,0
159136.170,-17.578,-15.137,-21.973,-25.391,0.000,0
159136.174,-11.230,-12.695,-36.133,-16.602,0.000,0
159136.178,-7.812,-17.090,-31.738,-12.207,0.000,0
159136.181,-14.160,-17.578,-33.691,-9.766,0.000,0
159136.185,-18.555,-20.996,-45.410,-19.531,0.000,0
159136.189,-17.578,-14.648,-32.227,-18.066,0.000,0
159136.193,-16.602,-8.301,-11.230,-21.484,0.000,0
159136.197,-20.508,-14.648,-6.836,-31.250,0.000,0
159136.201,-14.160,-16.113,-34.180,-29.785,0.000,0
159136.205,-1.953,-13.184,-47.852,-17.578,0.000,0
159136.209,-1.465,-14.160,-21.484,-10.742,0.000,0
159136.213,-4.395,-20.020,-13.184,-20.508,0.000,0
159136.217,-4.395,-16.113,-24.902,-24.902,0.000,0
159136.221,-11.719,-11.719,-28.809,-24.902,0.000,0
159136.224,-14.160,-9.766,-16.113,-26.367,0.000,0
159136.228,-11.230,-11.719,-23.438,-20.996,0.000,0
159136.232,-14.160,-9.766,-26.855,-27.344,0.000,0
159136.236,-15.625,-8.789,-22.461,-31.738,0.000,0
159136.240,-21.484,-13.672,-23.926,-20.020,0.000,0
159136.244,-25.391,-11.719,-32.227,-14.648,0.000,0
159136.248,-24.414,-13.672,-54.688,-18.555,0.000,0
159136.252,-22.461,-19.043,-37.109,-25.391,0.000,0
159136.256,-30.273,-18.555,8.301,-26.855,0.000,0
159136.260,-26.367,-15.137,-26.367,-30.762,0.000,0
159136.263,-14.648,-15.137,-50.781,-35.156,0.000,0
159136.267,-19.531,-19.531,-36.133,-23.926,0.000,0
159136.271,-21.484,-15.625,-2.441,-26.855,0.000,0
159136.275,-14.648,-14.648,-15.137,-27.344,0.000,0
159136.279,-19.531,-19.043,-47.363,-12.695,0.000,0
159136.283,-25.391,-20.996,-30.762,-11.230,0.000,0
159136.287,-32.715,-22.949,-21.484,-20.020,0.000,0
159136.291,-38.086,-20.508,-18.555,-22.949,0.000,0
159136.295,-32.227,-23.926,-22.949,-33.203,0.000,0
159136.299,-33.691,-20.020,-11.719,-33.203,0.000,0
159136.303,-36.621,-13.184,-14.648,-27.832,0.000,0
159136.306,-18.555,-11.719,-38.086,-12.207,0.000,0
159136.310,-16.113,-10.254,-24.902,-13.184,0.000,0
159136.314,-25.879,-8.301,0.000,-31.738,0.000,0
159136.318,-20.508,-9.277,-34.180,-28.320,0.000,0
159136.322,-20.508,-16.113,-58.594,-26.855,0.000,0
159136.326,-16.602,-17.578,-33.203,-20.508,0.000,0
159136.330,-10.742,-17.578,-3.418,-21.973,0.000,0
159136.334,-16.113,-11.230,-2.930,-34.180,0.000,0
159136.338,-17.578,-9.277,-24.414,-34.180,0.000,0
159136.342,-22.949,-10.742,-8.301,-21.973,0.000,0
159136.346,-31.250,-15.625,-10.742,-15.137,0.000,0
159136.349,-13.672,-12.207,-19.531,-27.832,0.000,0
159136.353,-5.371,-11.230,-11.719,-20.020,0.000,0
159136.357,-10.254,-12.695,-29.785,-5.859,0.000,0
159136.361,-9.277,-8.301,-27.344,-11.230,0.000,0
159136.365,-10.254,-12.207,-39.062,-4.395,0.000,0
159136.369,-12.207,-18.066,-27.832,-18.066,0.000,0
159136.373,-10.742,-13.184,9.766,-25.391,0.000,0
159136.377,-7.812,-8.789,-10.254,-1.465,0.000,0
159136.381,-14.648,-14.160,-33.691,2.441,0.000,0
159136.385,-20.996,-13.184,-33.691,-2.930,0.000,0
159136.388,-19.531,-16.602,-10.254,-19.043,0.000,0
159136.392,-12.207,-18.066,-25.391,-18.555,0.000,0
159136.396,-9.766,-18.555,-54.199,-5.859,0.000,0
159136.400,-18.066,-19.531,-41.992,-16.113,0.000,0
159136.404,-22.461,-20.020,-40.527,-22.461,0.000,0
159136.408,-13.672,-23.926,-24.902,-27.832,0.000,0
159136.412,-5.371,-21.973,-12.207,-29.297,0.000,0
159136.416,-13.184,-15.137,-27.832,-19.043,0.000,0
159136.420,-16.602,-20.020,-42.969,-13.184,0.000,0
159136.424,-13.672,-20.996,-41.992,-16.113,0.000,0
159136.428,-20.508,-17.090,-24.414,-18.555,0.000,0
159136.431,-24.414,-19.043,-16.113,-24.902,0.000,0
159136.435,-20.508,-15.625,-28.809,-25.391,0.000,0
159136.439,-15.137,-20.508,-36.621,-20.508,0.000,0
159136.443,-14.160,-24.414,-40.039,-12.695,0.000,0
159136.447,-13.184,-18.066,-37.598,-21.973,0.000,0
159136.451,-14.648,-21.973,-24.902,-37.598,0.000,0
159136.455,-10.254,-22.461,-34.180,-23.438,0.000,0
159136.459,-15.625,-20.508,-33.691,-19.043,0.000,0
159136.463,-20.996,-20.996,-27.344,-19.531,0.000,0
159136.467,-20.996,-20.508,-23.926,-19.043,0.000,0
159136.471,-20.996,-22.461,-10.254,-28.320,0.000,2
159136.474,-18.555,-25.391,-20.020,-24.414,0.000,0
159136.478,-21.484,-22.949,-17.578,-24.902,0.000,0
159136.482,-24.414,-22.949,-43.945,-14.648,0.000,0
159136.486,-26.855,-27.832,-54.199,-14.648,0.000,0
159136.490,-27.832,-23.926,-13.672,-19.043,0.000,0
159136.494,-17.090,-22.461,-37.109,-7.324,0.000,0
159136.498,-17.090,-27.344,-64.941,-13.672,0.000,0
159136.502,-19.531,-18.066,-48.340,-11.230,0.000,0
159136.506,-21.973,-15.625,-21.973,-13.184,0.000,0
159136.510,-25.391,-18.066,-3.418,-30.273,0.000,0
159136.513,-18.066,-10.254,-13.184,-30.762,0.000,0
159136.517,-20.020,-13.672,-20.508,-19.531,0.000,0
159136.521,-25.391,-13.672,-7.324,-8.301,0.000,0
159136.525,-16.602,-14.160,-19.043,-14.160,0.000,0
159136.529,-10.742,-12.207,-34.668,-23.438,0.000,0
159136.533,-14.648,-8.301,-39.062,-17.578,0.000,0
159136.537,-11.230,-14.648,-27.832,-10.742,0.000,0
159136.541,-0.488,-15.625,-11.719,-1.953,0.000,0
159136.545,-2.930,-11.719,-19.531,-3.906,0.000,0
159136.549,-28.809,-8.301,-14.648,-35.645,0.000,0
159136.553,-39.551,-8.789,-23.438,-45.898,0.000,0
159136.556,-25.879,-11.719,-36.133,-28.809,0.000,0
159136.560,-16.113,-4.883,-35.156,-12.207,0.000,0
159136.564,-24.902,-3.418,-32.715,-14.648,0.000,0
159136.568,-29.785,-7.324,-12.207,-27.832,0.000,0
159136.572,-21.973,-5.371,-17.090,-30.762,0.000,0
159136.576,-18.555,-7.812,-35.645,-32.227,0.000,0
159136.580,-20.020,-15.625,-20.996,-32.715,0.000,0
159136.584,-20.020,-12.207,-23.438,-23.926,0.000,0
159136.588,-10.742,-10.254,-28.809,-23.438,0.000,0
159136.592,-6.348,-16.602,-27.832,-25.391,0.000,0
159136.596,-14.648,-22.949,-35.156,-20.508,0.000,0
159136.599,-19.043,-21.973,-42.969,-18.066,0.000,0
159136.603,-11.230,-13.184,-41.504,-13.672,0.000,0
159136.607,-12.207,-11.719,-18.066,-17.578,0.000,0
159136.611,-22.949,-14.648,-13.184,-16.602,0.000,0
159136.615,-20.996,-6.836,-24.414,-20.508,0.000,0
159136.619,-9.277,-2.441,-36.621,-21.484,0.000,0
159136.623,-3.906,-6.836,-44.434,-7.812,0.000,0
159136.627,-5.371,-5.371,2.930,-8.301,0.000,0
159136.631,-8.789,-3.906,6.348,-9.277,0.000,0
159136.635,-8.789,-10.254,-38.574,-9.277,0.000,0
159136.638,-7.812,-16.602,-29.297,-5.859,0.000,0
159136.642,-15.137,-13.184,-25.391,-8.789,0.000,0
159136.646,-20.996,-11.230,-17.578,-26.367,0.000,0
159136.650,-15.625,-12.695,-22.949,-30.273,0.000,0
159136.654,-12.695,-13.672,-24.902,-32.227,0.000,0
159136.658,-20.508,-15.137,-22.949,-34.180,0.000,0
159136.662,-27.832,-16.602,-42.480,-21.973,0.000,0
159136.666,-25.391,-22.461,-41.504,-33.203,0.000,0
159136.670,-33.203,-18.066,-27.832,-30.273,0.000,0
159136.674,-33.691,-9.766,-23.926,-15.137,0.000,0
159136.678,-22.461,-12.695,-40.527,-17.578,0.000,0
159136.681,-22.461,-12.207,-39.062,-20.508,0.000,0
159136.685,-25.391,-13.672,-17.090,-33.691,0.000,0
159136.689,-22.949,-10.742,-18.555,-38.574,0.000,0
159136.693,-14.648,-9.277,-31.250,-25.879,0.000,0
159136.697,-15.137,-9.277,-35.645,-17.578,0.000,0
159136.701,-24.414,-7.812,-42.969,-12.207,0.000,0
159136.705,-28.809,-15.625,-21.973,-26.367,0.000,0
159136.709,-27.832,-18.555,-13.184,-29.785,0.000,0
159136.713,-27.344,-19.531,-46.387,-12.695,0.000,0
159136.717,-33.203,-18.555,-36.621,-18.066,0.000,0
159136.721,-31.738,-14.160,-21.973,-23.926,0.000,0
159136.724,-20.020,-16.602,-27.344,-27.832,0.000,0
159136.728,-18.555,-17.578,-19.043,-33.691,0.000,0
159136.732,-16.113,-9.277,-34.180,-20.508,0.000,0
159136.736,-12.695,-11.230,-41.504,-11.719,0.000,0
159136.740,-14.160,-13.672,-45.410,-15.137,0.000,0
159136.744,-15.625,-13.672,-18.555,-20.996,0.000,0
159136.748,-20.996,-15.625,-13.672,-20.996,0.000,0
159136.752,-20.996,-12.207,-39.062,-7.812,0.000,0
159136.756,-22.949,-15.625,-30.762,-11.230,0.000,0
159136.760,-20.020,-15.625,-26.367,-13.184,0.000,0
159136.763,-13.184,-13.184,-12.207,-20.508,0.000,0
159136.767,-14.648,-12.695,-21.484,-42.480,0.000,0
159136.771,-17.578,-7.324,-35.156,-32.227,0.000,0
159136.775,-17.578,-10.742,-19.531,-9.277,0.000,0
159136.779,-20.020,-15.625,-23.926,-14.648,0.000,0
159136.783,-29.297,-20.996,-25.391,-37.109,0.000,0
159136.787,-29.785,-24.902,-24.902,-37.109,0.000,0
159136.791,-27.832,-22.461,-33.203,-33.691,0.000,0
159136.795,-29.785,-19.531,-35.156,-40.527,0.000,0
159136.799,-28.320,-19.043,-45.898,-28.320,0.000,0
159136.803,-27.832,-17.090,-18.555,-20.508,0.000,0
159136.806,-26.855,-16.602,-2.441,-27.344,0.000,0
159136.810,-21.484,-19.531,-37.598,-24.414,0.000,0
159136.814,-17.090,-21.973,-47.852,-26.855,0.000,0
159136.818,-18.066,-19.043,-33.691,-25.879,0.000,0
159136.822,-17.090,-17.578,-7.812,-25.879,0.000,0
159136.826,-15.137,-16.602,-9.766,-28.320,0.000,0
159136.830,-20.508,-17.578,-30.762,-27.832,0.000,0
159136.834,-21.973,-19.531,-27.344,-22.461,0.000,0
159136.838,-19.043,-19.043,-29.785,-12.207,0.000,0
159136.842,-14.160,-24.902,-21.973,-24.414,0.000,0
159136.846,-22.461,-30.762,-22.949,-33.691,0.000,0
159136.849,-31.250,-22.949,-42.480,-24.902,0.000,0
159136.853,-19.043,-14.648,-31.738,-12.207,0.000,0
159136.857,-5.859,-12.695,-33.203,-8.789,0.000,0
159136.861,-6.348,-11.719,-31.250,-11.230,0.000,0
159136.865,-11.230,-10.254,-1.465,-18.066,0.000,0
159136.869,-10.254,-12.207,-6.836,-15.625,0.000,0
159136.873,-11.719,-16.602,-27.832,-10.254,0.000,0
159136.877,-16.113,-13.672,-33.691,-12.695,0.000,0
159136.881,-20.996,-11.230,-15.137,-18.066,0.000,0
159136.885,-21.973,-17.090,-2.441,-22.461,0.000,0
159136.888,-15.137,-15.625,-45.410,-11.719,0.000,0
159136.892,-13.672,-12.207,-47.363,-11.719,0.000,0
159136.896,-14.160,-10.742,-16.602,-5.859,0.000,0
159136.900,-20.508,-17.090,-27.344,-12.695,0.000,0
159136.904,-29.785,-25.879,-23.926,-23.926,0.000,0
159136.908,-29.785,-13.672,-10.254,-14.160,0.000,0
159136.912,-27.832,-5.859,-13.672,-4.395,0.000,0
159136.916,-18.555,-6.348,-42.480,-4.883,0.000,0
159136.920,-16.113,-3.906,-32.715,-21.484,0.000,0
159136.924,-21.484,-7.324,-10.254,-35.156,0.000,0
159136.928,-17.090,-9.766,-25.391,-29.297,0.000,0
159136.931,-17.090,-8.301,-33.691,-23.438,0.000,0
159136.935,-22.949,-6.348,-28.809,-11.230,0.000,0
159136.939,-20.996,-8.301,-20.508,-4.883,0.000,0
159136.943,-18.555,-13.672,-10.254,-23.438,0.000,0
159136.947,-19.531,-11.719,-25.879,-18.555,0.000,0
159136.951,-17.090,-16.113,-59.570,-13.672,0.000,0
159136.955,-17.578,-22.461,-33.203,-11.230,0.000,0
159136.959,-19.531,-11.719,-10.254,-6.348,0.000,0
159136.963,-16.113,-9.766,-20.020,-21.973,0.000,0
159136.967,-18.555,-15.137,-28.320,-28.809,0.000,0
159136.971,-19.531,-16.113,-25.879,-27.832,0.000,0
159136.974,-13.184,-12.695,-39.551,-12.695,0.000,0
159136.978,-13.672,-9.766,-48.340,-7.812,0.000,0
159136.982,-7.812,-15.137,-21.484,-22.461,0.000,0
159136.986,-7.324,-13.184,-11.230,-20.020,0.000,0
159136.990,-22.461,-12.207,-39.551,-12.207,0.000,0
159136.994,-22.461,-17.090,-57.129,-13.184,0.000,0
159136.998,-21.973,-20.508,-37.109,-13.184,0.000,0
159137.002,-27.344,-20.020,-0.488,-18.066,0.000,0
159137.006,-15.137,-21.484,-29.785,-16.113,0.000,0
159137.010,-14.160,-24.902,-49.316,-16.113,0.000,0
159137.013,-17.578,-19.531,-49.316,-7.812,0.000,0
159137.017,-5.371,-14.648,-36.133,-2.930,0.000,0
159137.021,-4.395,-15.137,-12.695,-13.184,0.000,0
159137.025,-10.254,-17.578,-29.297,-5.859,0.000,0
159137.029,-10.742,-14.160,-41.016,0.977,0.000,0
159137.033,-10.254,-10.254,-40.527,-3.418,0.000,2
159137.037,-6.836,-17.578,-26.855,-6.836,0.000,0
159137.041,-0.488,-19.043,-17.090,-21.973,0.000,0
159137.045,-9.277,-14.648,-13.184,-26.367,0.000,0
159137.049,-15.137,-17.578,-22.949,-20.996,0.000,0
159137.053,-2.441,-14.160,-48.340,-5.371,0.000,0
159137.056,0.977,-14.160,-35.156,-8.301,0.000,0
159137.060,-8.301,-19.043,-5.371,-28.320,0.000,0
159137.064,-12.207,-19.043,-36.133,-16.113,0.000,0
159137.068,-9.766,-16.602,-50.781,-7.324,0.000,0
159137.072,-9.766,-12.207,-33.203,-8.301,0.000,0
159137.076,-12.207,-15.625,-22.949,-7.324,0.000,0
159137.080,-13.184,-17.578,-12.207,-19.043,0.000,0
159137.084,-15.625,-17.090,-19.531,-26.855,0.000,0
159137.088,-12.207,-14.160,-15.625,-20.508,0.000,0
159137.092,-15.625,-11.719,-1.465,-12.207,0.000,0
159137.096,-14.648,-16.113,-39.551,-5.859,0.000,0
159137.099,-9.766,-23.926,-32.715,-19.531,0.000,0
159137.103,-20.020,-22.461,-19.043,-31.250,0.000,0
159137.107,-24.902,-20.508,-28.320,-30.762,0.000,0
159137.111,-14.648,-20.020,-31.738,-17.578,0.000,0
159137.115,-16.602,-19.531,-41.504,0.000,0.000,0
159137.119,-18.066,-23.926,-19.531,-16.602,0.000,0
159137.123,-14.160,-20.996,-21.484,-23.926,0.000,0
159137.127,-15.137,-18.066,-38.574,-8.301,0.000,0
159137.131,-15.137,-17.578,-35.645,-6.348,0.000,0
159137.135,-22.461,-16.602,-27.344,-8.301,0.000,0
159137.138,-23.926,-18.555,-5.859,-20.508,0.000,0
159137.142,-15.137,-14.648,-25.391,-33.203,0.000,0
159137.146,-18.555,-11.230,-55.176,-25.391,0.000,0
159137.150,-20.996,-15.137,-37.109,-12.695,0.000,0
159137.154,-13.672,-13.672,-31.738,-13.672,0.000,0
159137.158,-18.555,-15.137,-26.855,-25.879,0.000,0
159137.162,-23.438,-18.066,-20.020,-25.391,0.000,0
159137.166,-21.973,-11.230,-31.250,-9.277,0.000,0
159137.170,-17.090,-10.742,-36.133,-5.371,0.000,0
159137.174,-12.207,-13.672,-31.250,-1.953,0.000,0
159137.178,-21.973,-14.648,-18.555,-14.160,0.000,0
159137.181,-29.785,-11.230,-12.695,-36.133,0.000,0
159137.185,-12.695,-8.301,-35.645,-24.902,0.000,0
159137.189,-6.348,-12.207,-32.715,-7.324,0.000,0
159137.193,-11.230,-11.719,-12.207,-12.207,0.000,0
159137.197,-11.230,-6.836,-30.273,-8.301,0.000,0
159137.201,-14.648,-5.371,-29.785,-6.348,0.000,0
159137.205,-5.859,-8.301,-36.621,3.906,0.000,0
159137.209,-2.441,-12.695,-34.668,7.812,0.000,0
159137.213,-11.230,-16.113,-27.832,0.000,0.000,0
159137.217,-9.766,-12.207,-24.902,-5.859,0.000,0
159137.221,-13.672,-14.648,-11.719,-20.020,0.000,0
159137.224,-28.809,-18.555,-13.184,-24.902,0.000,0
159137.228,-28.320,-13.184,-21.484,-20.020,0.000,0
159137.232,-17.578,-15.137,-43.945,-23.438,0.000,0
159137.236,-19.531,-15.625,-35.645,-27.832,0.000,0
159137.240,-18.066,-11.719,-15.625,-17.090,0.000,0
159137.244,-15.625,-11.230,-37.598,-11.230,0.000,0
159137.248,-12.695,-9.277,-41.016,-6.836,0.000,0
159137.252,-10.742,-5.859,-24.414,-3.906,0.000,0
159137.256,-10.254,-6.348,-15.137,-19.531,0.000,0
159137.260,-15.137,-6.836,-8.789,-26.855,0.000,0
159137.263,-15.137,-4.883,-34.180,-26.367,0.000,0
159137.267,-7.812,-5.859,-49.805,-17.578,0.000,0
159137.271,-16.113,-14.160,-17.090,-16.602,0.000,0
159137.275,-17.090,-17.090,-4.883,-23.438,0.000,0
159137.279,-9.766,-14.160,-26.855,-25.879,0.000,0
159137.283,-8.789,-15.625,-34.668,-29.785,0.000,0
159137.287,-11.719,-15.137,4.883,-28.320,0.000,0
159137.291,-9.277,-10.742,-9.277,-24.902,0.000,0
159137.295,-9.766,-13.184,-10.254,-38.086,0.000,0
159137.299,-11.719,-12.207,-7.812,-40.039,0.000,0
159137.303,-4.883,-17.090,-26.367,-17.090,0.000,0
159137.306,9.766,-14.648,-25.879,-0.977,0.000,0
159137.310,-6.836,-7.324,-12.695,-17.090,0.000,0
159137.314,-30.762,-18.066,-6.348,-45.410,0.000,0
159137.318,-29.297,-20.996,-15.625,-48.828,0.000,0
159137.322,-30.762,-19.531,-36.133,-43.945,0.000,0
159137.326,-30.762,-18.066,-38.574,-34.180,0.000,0
159137.330,-30.273,-19.531,-29.785,-16.113,0.000,0
159137.334,-17.578,-24.902,-25.391,-26.367,0.000,0
159137.338,-7.812,-20.508,-19.043,-28.809,0.000,0
159137.342,-10.254,-18.066,-20.508,-10.254,0.000,0
159137.346,-9.766,-20.508,-29.297,-11.719,0.000,0
159137.349,-3.418,-12.207,-33.691,-10.742,0.000,0
159137.353,-6.836,-13.184,-13.184,-20.020,0.000,0
159137.357,-15.625,-19.043,-5.371,-35.156,0.000,0
159137.361,-13.184,-17.578,2.930,-39.551,0.000,0
159137.365,-17.578,-17.090,-20.020,-20.508,0.000,0
159137.369,-34.180,-22.461,-53.711,-8.789,0.000,0
159137.373,-38.574,-25.391,-10.254,-28.809,0.000,0
159137.377,-27.344,-21.484,-2.930,-30.273,0.000,0
159137.381,-15.625,-21.484,-62.012,-18.066,0.000,0
159137.385,-13.672,-25.391,-62.012,-18.066,0.000,0
159137.388,-17.090,-18.066,-33.203,-17.090,0.000,0
159137.392,-11.719,-17.578,-3.418,-30.273,0.000,0
159137.396,-16.602,-22.461,-1.953,-43.945,0.000,0
159137.400,-21.484,-18.555,-35.645,-23.438,0.000,0
159137.404,-17.578,-19.043,-26.367,-10.254,0.000,0
159137.408,-20.508,-19.043,-23.438,-4.395,0.000,0
159137.412,-25.879,-21.973,-35.156,-5.859,0.000,0
159137.416,-27.344,-28.320,-30.762,-20.508,0.000,0
159137.420,-29.297,-27.832,-20.996,-20.508,0.000,0
159137.424,-22.949,-20.996,-31.250,-16.602,0.000,0
159137.428,-9.277,-22.949,-46.875,-6.836,0.000,0
159137.431,-19.043,-28.809,-34.668,-15.625,0.000,0
159137.435,-23.438,-26.367,-5.859,-35.645,0.000,0
159137.439,-13.672,-21.973,-30.762,-18.066,0.000,0
159137.443,-5.859,-21.484,-53.711,-5.371,0.000,0
159137.447,-6.348,-26.855,-37.109,-6.836,0.000,0
159137.451,-15.137,-27.832,-12.207,-16.602,0.000,0
159137.455,-17.090,-22.461,-2.441,-31.738,0.000,0
159137.459,-16.602,-16.602,-17.578,-23.926,0.000,0
159137.463,-23.438,-11.230,-15.137,-18.555,0.000,0
159137.467,-26.855,-9.277,-20.508,-8.301,0.000,0
159137.471,-24.414,-13.184,-38.574,-14.160,0.000,0
159137.474,-23.926,-19.043,-27.344,-28.320,0.000,0
159137.478,-26.367,-18.066,-41.016,-16.602,0.000,0
159137.482,-29.785,-12.207,-48.828,-16.602,0.000,0
159137.486,-26.367,-12.695,-48.340,-18.555,0.000,0
159137.490,-23.438,-15.137,-38.086,-16.113,0.000,0
159137.494,-21.484,-14.648,-20.020,-23.926,0.000,0
159137.498,-20.996,-11.230,-24.902,-34.668,0.000,0
159137.502,-19.531,-11.719,-30.273,-25.391,0.000,0
159137.506,-24.902,-14.648,-41.992,-9.766,0.000,0
159137.510,-23.438,-19.043,-31.250,-11.719,0.000,0
159137.513,-16.602,-19.531,-35.156,-29.785,0.000,0
159137.517,-20.996,-14.160,-52.246,-34.668,0.000,0
159137.521,-17.578,-11.719,-38.574,-20.996,0.000,0
159137.525,-16.602,-14.160,-30.273,-24.414,0.000,0
159137.529,-17.090,-11.719,-38.086,-25.879,0.000,0
159137.533,-16.602,-13.672,-34.180,-30.273,0.000,0
159137.537,-22.461,-16.113,-24.414,-31.250,0.000,0
159137.541,-25.391,-10.254,-25.879,-27.344,0.000,0
159137.545,-22.461,-11.719,-45.898,-21.973,0.000,0
159137.549,-23.438,-17.090,-41.016,-19.043,0.000,0
159137.553,-28.809,-13.672,-14.648,-25.879,0.000,0
159137.556,-32.715,-15.137,-25.879,-15.625,0.000,0
159137.560,-25.391,-18.555,-50.781,-9.766,0.000,0
159137.564,-11.230,-18.066,-66.895,-16.602,0.000,0
159137.568,-24.414,-15.137,-34.668,-11.230,0.000,0
159137.572,-24.414,-12.207,-10.742,-17.090,0.000,0
159137.576,-16.113,-14.160,-31.250,-23.438,0.000,0
159137.580,-28.809,-15.137,-38.574,-12.695,0.000,0
159137.584,-31.738,-13.672,-37.109,-7.812,0.000,0
159137.588,-30.273,-18.066,-32.227,-15.625,0.000,0
159137.592,-29.297,-17.578,-24.902,-20.020,0.000,0
159137.596,-32.227,-9.277,-34.668,-18.555,0.000,0
159137.599,-32.227,-3.418,-35.156,-16.113,0.000,0
159137.603,-28.320,-3.418,-22.949,-18.066,0.000,0
159137.607,-22.461,-4.883,-47.363,-18.066,0.000,0
159137.611,-22.949,-7.324,-36.621,-25.391,0.000,0
159137.615,-30.762,-8.789,-19.531,-31.738,0.000,0
159137.619,-20.996,-14.160,-51.758,-18.066,0.000,0
159137.623,-9.766,-12.695,-51.270,-6.348,0.000,0
159137.627,-12.207,-8.301,-24.902,-1.953,0.000,0
159137.631,-17.578,-9.766,-10.254,-23.438,0.000,0
159137.635,-5.371,-5.371,-24.902,-35.156,0.000,0
159137.638,-5.371,-8.789,-31.250,-23.438,0.000,0
159137.642,-21.484,-16.113,-18.066,-19.043,0.000,0
159137.646,-20.020,-14.160,-20.508,-0.488,0.000,0
159137.650,-12.207,-17.090,-31.250,-8.789,0.000,0
159137.654,-10.742,-16.602,-28.809,-24.902,0.000,0
159137.658,-8.301,-12.695,-2.441,-0.488,0.000,0
159137.662,-8.301,-13.184,0.000,5.859,0.000,0
159137.666,-5.859,-11.230,-29.297,-9.277,0.000,0
159137.670,-7.812,-14.648,-9.766,-18.066,0.000,1
159137.674,-14.648,-21.484,-4.883,-22.461,0.000,0
159137.678,-12.207,-20.996,-32.227,-19.531,0.000,0
159137.681,-8.301,-17.090,-43.457,-6.836,0.000,0
159137.685,-15.625,-16.113,-43.945,0.977,0.000,0
159137.689,-17.578,-17.578,-9.277,-17.578,0.000,0
159137.693,-14.160,-12.695,4.883,-25.391,0.000,0
159137.697,-8.301,-9.766,-37.598,-4.883,0.000,0
159137.701,-3.418,-9.277,-31.250,-3.418,0.000,0
159137.705,-6.348,-9.766,-0.977,0.488,0.000,0
159137.709,-5.859,-17.578,-8.301,-12.695,0.000,0
159137.713,-7.812,-20.508,-24.902,-38.086,0.000,0
159137.717,-11.719,-18.066,-27.832,-32.715,0.000,0
159137.721,-15.625,-20.508,-26.855,-22.949,0.000,0
159137.724,-7.812,-13.184,-38.574,-8.789,0.000,0
159137.728,-4.395,-12.207,-16.602,-21.484,0.000,0
159137.732,-17.578,-18.555,-11.230,-33.691,0.000,0
159137.736,-13.672,-10.254,-33.203,-14.160,0.000,0
159137.740,-10.742,-11.719,-28.320,-6.836,0.000,0
159137.744,-13.184,-10.742,-41.016,-9.277,0.000,0
159137.748,-14.160,-3.906,-16.113,-21.973,0.000,0
159137.752,-11.230,-8.301,3.418,-30.762,0.000,0
159137.756,-9.766,-8.301,-33.203,-28.320,0.000,0
159137.760,-22.949,-12.695,-40.039,-20.996,0.000,0
159137.763,-31.250,-19.531,-51.758,-22.461,0.000,0
159137.767,-26.855,-16.113,-31.250,-31.738,0.000,0
159137.771,-15.625,-17.578,-21.973,-29.785,0.000,0
159137.775,-22.461,-17.578,-38.086,-21.973,0.000,0
159137.779,-29.297,-17.090,-35.645,-24.902,0.000,0
159137.783,-23.438,-19.043,-38.086,-25.391,0.000,0
159137.787,-21.484,-18.066,-32.715,-21.484,0.000,0
159137.791,-20.020,-13.672,-25.391,-25.391,0.000,0
159137.795,-22.949,-17.090,-25.879,-18.555,0.000,0
159137.799,-15.625,-11.719,-41.504,-10.254,0.000,0
159137.803,-7.812,-6.348,-43.945,-11.719,0.000,0
159137.806,-20.020,-9.766,-19.531,-15.137,0.000,0
159137.810,-19.043,-9.277,-23.926,-28.320,0.000,0
159137.814,-7.324,-9.277,-54.688,-27.344,0.000,0
159137.818,-7.812,-7.812,-38.574,-27.832,0.000,0
159137.822,-16.602,-15.625,-28.809,-20.020,0.000,0
159137.826,-20.996,-15.137,-27.344,-10.254,0.000,0
159137.830,-20.996,-11.719,-15.625,-24.414,0.000,0
159137.834,-18.066,-9.277,-24.902,-12.207,0.000,0
159137.838,-16.113,-0.488,-13.184,1.465,0.000,0
159137.842,-21.973,-8.301,-14.160,-10.742,0.000,0
159137.846,-18.555,-15.137,-38.574,-20.996,0.000,0
159137.849,-16.113,-13.184,-15.625,-33.691,0.000,0
159137.853,-22.461,-11.230,-19.043,-32.227,0.000,0
159137.857,-24.414,-14.648,-33.203,-13.672,0.000,0
159137.861,-15.137,-14.160,-40.039,-0.977,0.000,0
159137.865,-17.578,-15.137,-41.016,-6.348,0.000,0
159137.869,-31.738,-13.672,-20.020,-22.949,0.000,0
159137.873,-25.879,-10.254,-32.715,-20.020,0.000,0
159137.877,-21.973,-12.695,-47.363,-12.695,0.000,0
159137.881,-30.273,-11.719,-38.574,-19.531,0.000,0
159137.885,-30.273,-11.719,-29.297,-22.461,0.000,0
159137.888,-23.438,-15.137,-29.297,-32.715,0.000,0
159137.892,-24.414,-19.531,-35.645,-41.016,0.000,0
159137.896,-30.273,-15.137,-33.203,-31.250,0.000,0
159137.900,-31.250,-13.672,-40.527,-17.578,0.000,0
159137.904,-19.043,-18.555,-48.828,-19.531,0.000,0
159137.908,-16.602,-19.043,-17.090,-36.133,0.000,0
159137.912,-28.809,-18.066,-23.926,-27.832,0.000,0
159137.916,-25.391,-16.602,-54.688,-18.555,0.000,0
159137.920,-15.625,-14.160,-50.293,-24.902,0.000,0
159137.924,-18.066,-16.602,-35.645,-24.414,0.000,0
159137.928,-27.344,-23.438,-1.953,-32.227,0.000,0
159137.931,-27.832,-16.602,-15.625,-34.668,0.000,0
159137.935,-16.602,-7.324,-43.945,-18.066,0.000,0
159137.939,-11.230,-8.301,-38.086,-9.277,0.000,0
159137.943,-22.461,-12.207,-16.602,-17.090,0.000,0
159137.947,-22.461,-12.695,-1.953,-23.926,0.000,0
159137.951,-20.996,-7.324,-20.020,-32.715,0.000,0
159137.955,-21.973,-1.465,-20.996,-29.785,0.000,0
159137.959,-27.344,-6.836,-14.160,-28.809,0.000,0
159137.963,-27.344,-11.719,-30.762,-21.484,0.000,0
159137.967,-23.438,-6.348,-20.508,-28.320,0.000,0
159137.971,-31.250,-10.742,-6.348,-38.574,0.000,0
159137.974,-28.809,-13.184,-25.879,-24.902,0.000,0
159137.978,-19.043,-12.207,-48.340,-20.996,0.000,0
159137.982,-18.555,-15.137,-52.246,-23.438,0.000,0
159137.986,-15.625,-10.742,-7.812,-25.879,0.000,0
159137.990,-15.137,-10.742,16.602,-36.621,0.000,0
159137.994,-20.020,-15.625,-20.996,-39.551,0.000,0
159137.998,-23.438,-14.160,-35.645,-28.809,0.000,0
159138.002,-26.855,-10.742,-27.832,-20.508,0.000,0
159138.006,-23.438,-11.230,-10.254,-37.598,0.000,0
159138.010,-20.020,-14.160,0.977,-42.480,0.000,0
159138.013,-22.949,-14.160,-33.691,-22.949,0.000,0
159138.017,-23.926,-13.672,-47.852,-13.672,0.000,0
159138.021,-30.762,-17.090,-32.715,-12.207,0.000,0
159138.025,-30.273,-18.066,-39.551,-24.414,0.000,0
159138.029,-30.273,-18.066,-23.926,-36.133,0.000,0
159138.033,-33.203,-16.602,-4.883,-29.297,0.000,0
159138.037,-22.461,-11.230,-18.555,-9.277,0.000,0
159138.041,-12.695,-11.230,-52.246,0.000,0.000,0
159138.045,-17.090,-15.137,-30.762,-13.184,0.000,0
159138.049,-20.996,-12.207,-19.531,-5.371,0.000,0
159138.053,-23.438,-14.160,-43.457,9.277,0.000,0
159138.056,-17.578,-19.531,-50.781,1.953,0.000,0
159138.060,-22.461,-17.578,-50.781,-7.812,0.000,0
159138.064,-26.367,-11.230,-23.438,-18.066,0.000,0
159138.068,-18.555,-6.348,-11.719,-24.902,0.000,0
159138.072,-20.996,-6.836,-32.715,-23.438,0.000,0
159138.076,-28.320,-9.277,-26.855,-20.508,0.000,0
159138.080,-27.344,-13.672,-19.043,-25.391,0.000,0
159138.084,-20.508,-17.578,-12.207,-35.156,0.000,0
159138.088,-20.508,-9.766,-14.648,-30.273,0.000,0
159138.092,-20.508,-10.742,-33.203,-20.996,0.000,0
159138.096,-14.160,-14.160,-46.387,-24.414,0.000,0
159138.099,-10.742,-9.277,-35.645,-19.531,0.000,0
159138.103,-13.672,-10.254,-8.301,-29.785,0.000,0
159138.107,-18.555,-13.672,-8.789,-34.668,0.000,0
159138.111,-22.461,-14.160,-10.254,-29.785,0.000,0
159138.115,-24.902,-9.277,-27.344,-15.137,0.000,0
159138.119,-23.438,-11.719,-27.344,-8.301,0.000,0
159138.123,-23.438,-15.625,11.230,-20.508,0.000,0
159138.127,-10.742,-15.625,-17.090,-22.949,0.000,0
159138.131,-11.230,-13.672,-36.621,-19.043,0.000,0
159138.135,-20.996,-16.113,-20.996,-17.090,0.000,0
159138.138,-14.160,-19.531,-26.367,0.488,0.000,0
159138.142,-10.742,-10.742,-14.648,-9.766,0.000,0
159138.146,-22.461,-12.207,-12.207,-25.391,0.000,0
159138.150,-22.949,-16.113,-19.531,-8.301,0.000,0
159138.154,-18.066,-18.555,-26.367,-6.836,0.000,0
159138.158,-13.672,-16.113,-32.715,-10.254,0.000,0
159138.162,-19.531,-13.672,-25.391,-13.672,0.000,0
159138.166,-22.461,-18.066,-12.695,-22.461,0.000,0
159138.170,-10.742,-17.090,-14.160,-21.973,0.000,0
159138.174,-7.324,-15.137,-29.785,-19.043,0.000,0
159138.178,-11.230,-16.113,-38.086,-3.906,0.000,0
159138.181,-9.766,-14.160,-16.602,-9.766,0.000,0
159138.185,-7.812,-20.020,-15.625,-27.344,0.000,0
159138.189,-4.883,-22.461,-36.133,-10.742,0.000,0
159138.193,-4.395,-13.184,-26.855,-3.906,0.000,0
159138.197,-16.113,-19.043,-24.902,-16.602,0.000,0
159138.201,-16.113,-18.555,-20.020,-21.484,0.000,0
159138.205,-13.184,-15.625,-10.254,-25.391,0.000,0
159138.209,-16.113,-18.555,-18.555,-20.020,0.000,0
159138.213,-25.879,-19.043,-11.230,-29.297,0.000,1
159138.217,-14.160,-13.672,-43.457,-17.090,0.000,0
159138.221,0.977,-12.207,-58.594,-8.789,0.000,0
159138.224,-11.230,-15.625,-35.645,-29.297,0.000,0
159138.228,-10.742,-12.695,-33.691,-14.648,0.000,0
159138.232,-3.906,-15.137,-32.227,-4.395,0.000,0
159138.236,-9.277,-17.090,-29.297,-7.324,0.000,0
159138.240,-13.184,-15.625,-17.090,-8.301,0.000,0
159138.244,-8.301,-14.160,-14.648,-20.020,0.000,0
159138.248,-1.465,-14.648,-21.484,-16.113,0.000,0
159138.252,-4.883,-13.184,-20.508,-7.324,0.000,0
159138.256,-11.719,-13.672,-22.461,-6.836,0.000,0
159138.260,-9.277,-12.207,-20.996,-10.254,0.000,0
159138.263,-13.672,-10.742,-23.926,-18.555,0.000,0
159138.267,-18.555,-11.719,-33.691,-17.090,0.000,0
159138.271,-12.207,-11.230,-30.762,-15.625,0.000,0
159138.275,-14.648,-15.625,-33.691,-13.184,0.000,0
159138.279,-13.672,-15.625,-37.109,-18.555,0.000,0
159138.283,-14.648,-10.742,-19.531,-24.902,0.000,0
159138.287,-24.414,-16.113,-12.695,-28.809,0.000,0
159138.291,-21.484,-18.555,-26.855,-28.809,0.000,0
159138.295,-13.184,-18.555,-42.969,-23.438,0.000,0
159138.299,-12.207,-20.996,-35.156,-19.531,0.000,0
159138.303,-13.672,-24.414,-5.859,-28.809,0.000,0
159138.306,-18.066,-20.996,-20.996,-31.738,0.000,0
159138.310,-15.137,-20.020,-51.758,-26.855,0.000,0
159138.314,-11.719,-23.926,-38.086,-17.578,0.000,0
159138.318,-15.625,-22.949,-12.695,-0.488,0.000,0
159138.322,-4.883,-16.602,-8.789,-4.883,0.000,0
159138.326,0.488,-12.207,-27.832,-7.812,0.000,0
159138.330,-5.371,-19.531,-47.852,-6.348,0.000,0
159138.334,-5.859,-24.414,-32.715,-2.930,0.000,0
159138.338,-8.301,-18.555,-22.949,-3.906,0.000,0
159138.342,-8.789,-22.949,-20.996,-18.555,0.000,0
159138.346,-9.277,-21.484,-29.785,-20.020,0.000,0
159138.349,-12.695,-19.531,-30.762,-12.207,0.000,0
159138.353,-2.930,-22.461,-52.246,2.930,0.000,0
159138.357,2.930,-19.043,-51.270,0.488,0.000,0
159138.361,-16.113,-24.902,-5.859,-19.531,0.000,0
159138.365,-31.250,-23.926,-23.438,-13.672,0.000,0
159138.369,-21.973,-17.578,-49.805,-5.859,0.000,0
159138.373,-17.578,-15.625,-35.156,-0.488,0.000,0
159138.377,-21.484,-13.184,-26.367,-8.789,0.000,0
159138.381,-24.902,-18.555,-15.137,-40.527,0.000,0
159138.385,-23.438,-18.066,-24.414,-40.039,0.000,0
159138.388,-17.090,-21.973,-37.109,-23.926,0.000,0
159138.392,-22.461,-22.949,-37.109,-18.066,0.000,0
159138.396,-23.438,-16.602,-36.133,-21.484,0.000,0
159138.400,-19.531,-13.672,-24.902,-32.715,0.000,0
159138.404,-20.996,-14.648,-38.086,-21.973,0.000,0
159138.408,-34.668,-20.508,-17.090,-22.949,0.000,0
159138.412,-31.250,-14.648,-27.832,-32.715,0.000,0
159138.416,-19.043,-11.230,-37.109,-24.902,0.000,0
159138.420,-20.020,-15.137,-12.695,-28.320,0.000,0
159138.424,-18.555,-11.230,-26.367,-28.809,0.000,0
159138.428,-24.414,-12.207,-42.480,-31.738,0.000,0
159138.431,-27.832,-17.090,-42.480,-27.344,0.000,0
159138.435,-20.020,-15.137,-27.832,-18.066,0.000,0
159138.439,-18.066,-16.113,-8.789,-26.855,0.000,0
159138.443,-29.297,-19.043,-28.320,-26.855,0.000,0
159138.447,-34.668,-18.066,-52.734,-26.367,0.000,0
159138.451,-22.949,-16.602,-28.809,-20.508,0.000,0
159138.455,-10.742,-14.160,-17.578,-22.461,0.000,0
159138.459,-11.719,-21.484,-22.461,-36.621,0.000,0
159138.463,-22.461,-23.438,-27.344,-34.668,0.000,0
159138.467,-23.438,-11.230,-23.926,-15.625,0.000,0
159138.471,-18.555,-12.207,-34.180,-9.766,0.000,0
159138.474,-15.137,-18.555,-41.504,-7.812,0.000,0
159138.478,-12.695,-11.719,-25.879,-9.766,0.000,0
159138.482,-18.555,-8.789,-11.719,-11.230,0.000,0
159138.486,-20.508,-13.672,-16.113,-10.254,0.000,0
159138.490,-25.879,-20.996,-25.879,-19.531,0.000,0
159138.494,-31.738,-18.066,-43.945,-23.926,0.000,0
159138.498,-34.180,-18.066,-12.207,-34.180,0.000,0
159138.502,-31.738,-16.602,-7.324,-33.203,0.000,0
159138.506,-24.902,-12.207,-54.688,-21.484,0.000,0
159138.510,-24.414,-16.113,-58.594,-19.531,0.000,0
159138.513,-28.809,-17.578,-33.203,-22.461,0.000,0
159138.517,-28.320,-18.555,-4.883,-31.738,0.000,0
159138.521,-29.785,-22.461,-25.391,-27.344,0.000,0
159138.525,-27.344,-18.066,-37.598,-20.996,0.000,0
159138.529,-26.855,-12.695,-32.227,-10.254,0.000,0
159138.533,-26.855,-14.648,-33.203,-2.930,0.000,0
159138.537,-23.438,-17.578,-17.090,-18.555,0.000,0
159138.541,-23.926,-17.090,-26.367,-20.508,0.000,0
159138.545,-16.602,-11.719,-42.969,-14.648,0.000,0
159138.549,-11.230,-9.766,-41.992,-14.160,0.000,0
159138.553,-20.508,-20.020,-33.691,-15.625,0.000,0
159138.556,-26.367,-20.020,-25.391,-26.367,0.000,0
159138.560,-20.020,-13.184,-33.691,-20.996,0.000,0
159138.564,-16.113,-15.625,-51.758,-15.625,0.000,0
159138.568,-12.695,-12.695,-35.645,-13.672,0.000,0
159138.572,-15.625,-16.602,-27.832,-10.254,0.000,0
159138.576,-27.832,-22.461,-32.715,-23.438,0.000,0
159138.580,-24.414,-16.602,-37.109,-20.020,0.000,0
159138.584,-20.508,-14.160,-31.738,-12.695,0.000,0
159138.588,-27.832,-13.672,-24.902,-22.949,0.000,0
159138.592,-21.484,-13.184,-47.852,-24.902,0.000,0
159138.596,-15.137,-14.160,-38.574,-30.762,0.000,0
159138.599,-20.996,-13.672,-27.344,-33.203,0.000,0
159138.603,-27.832,-19.043,-36.621,-21.973,0.000,0
159138.607,-27.344,-20.020,-41.504,-12.207,0.000,0
159138.611,-25.391,-15.625,-44.922,-12.207,0.000,0
159138.615,-23.438,-12.207,-23.926,-20.508,0.000,0
159138.619,-20.996,-16.113,-18.555,-23.438,0.000,0
159138.623,-27.832,-16.113,-44.922,-21.484,0.000,0
159138.627,-34.180,-11.230,-59.082,-21.973,0.000,0
159138.631,-26.367,-13.672,-38.574,-11.719,0.000,0
159138.635,-19.043,-14.160,-23.438,-17.578,0.000,0
159138.638,-16.113,-11.230,-35.645,-35.645,0.000,0
159138.642,-14.160,-5.859,-33.203,-14.648,0.000,0
159138.646,-14.160,-7.324,-8.301,-2.441,0.000,0
159138.650,-10.742,-7.324,-20.996,-11.230,0.000,0
159138.654,-4.395,-10.742,-10.742,-24.414,0.000,0
159138.658,-4.395,-10.254,-1.465,-24.414,0.000,0
159138.662,-7.324,-7.812,-18.555,-18.066,0.000,0
159138.666,-4.395,-11.230,-19.043,-20.020,0.000,0
159138.670,-2.930,-15.137,-24.414,-2.441,0.000,0
159138.674,-3.906,-21.484,-15.137,-10.254,0.000,0
159138.678,-11.719,-15.625,-12.695,-22.949,0.000,0
159138.681,-10.254,-12.695,-29.297,-9.766,0.000,0
159138.685,-4.395,-17.578,-29.785,-5.859,0.000,0
159138.689,-8.301,-14.648,-20.996,-10.742,0.000,0
159138.693,-13.184,-18.066,-10.254,-26.367,0.000,0
159138.697,-12.207,-19.531,-24.414,-37.109,0.000,0
159138.701,-7.812,-11.230,-29.785,-26.855,0.000,0
159138.705,-9.277,-6.836,-23.438,-16.113,0.000,0
159138.709,-15.625,-9.766,-40.039,-14.648,0.000,0
159138.713,-19.531,-12.695,-27.344,-33.691,0.000,0
159138.717,-22.949,-12.695,-14.160,-41.992,0.000,0
159138.721,-23.926,-13.672,-25.879,-21.484,0.000,0
159138.724,-26.367,-17.090,-29.297,-19.043,0.000,0
159138.728,-33.203,-15.137,-41.504,-31.250,0.000,0
159138.732,-32.227,-12.695,-22.949,-36.621,0.000,0
159138.736,-25.391,-11.719,-3.418,-40.527,0.000,0
159138.740,-20.020,-15.625,-32.227,-32.227,0.000,0
159138.744,-25.391,-9.766,-42.480,-20.020,0.000,0
159138.748,-31.250,-5.371,-33.203,-13.672,0.000,0
159138.752,-32.227,-12.207,-11.230,-28.320,0.000,0
159138.756,-32.715,-9.277,-18.066,-37.109,0.000,0
159138.760,-26.855,-7.324,-46.875,-19.531,0.000,0
159138.763,-22.461,-12.207,-33.691,-11.230,0.000,0
159138.767,-29.785,-14.160,-21.973,-15.625,0.000,0
159138.771,-29.297,-18.555,-11.719,-24.902,0.000,0
159138.775,-22.461,-19.043,-25.879,-33.203,0.000,0
159138.779,-41.504,-12.207,-30.273,-29.297,0.000,0
159138.783,-37.598,-8.789,-13.184,-10.254,0.000,0
159138.787,-11.230,-4.883,-33.691,-5.859,0.000,0
159138.791,-13.672,-3.906,-19.043,-22.949,0.000,0
159138.795,-20.508,-8.789,-13.184,-24.902,0.000,0
159138.799,-11.719,-2.930,-39.551,-9.277,0.000,0
159138.803,-4.395,5.371,-39.551,-18.555,0.000,0
159138.806,-5.859,0.488,-26.367,-15.625,0.000,0
159138.810,-7.812,-4.395,-10.742,-7.324,0.000,0
159138.814,-2.930,-7.812,0.977,-21.484,0.000,0
159138.818,-7.324,-4.883,-10.742,-20.508,0.000,0
159138.822,-6.836,-2.441,-25.391,-12.207,0.000,0
159138.826,0.000,-1.953,-19.531,-8.789,0.000,0
159138.830,-6.348,-11.230,-15.137,-10.742,0.000,0
159138.834,-4.883,-7.812,-30.762,-17.578,0.000,0
159138.838,-1.953,-2.441,-32.715,-15.625,0.000,0
159138.842,-2.441,-7.812,-19.043,-10.254,0.000,0
159138.846,0.000,-10.254,-37.598,-3.418,0.000,0
159138.849,-0.488,-11.719,-36.621,-0.488,0.000,0
159138.853,-6.836,-13.672,-10.742,-16.602,0.000,0
159138.857,-12.207,-13.184,-25.879,-19.043,0.000,0
159138.861,-14.160,-9.766,-51.758,-12.207,0.000,0
159138.865,-20.020,-15.625,-39.062,-15.625,0.000,0
159138.869,-21.973,-19.043,-7.812,-13.184,0.000,0
159138.873,-20.508,-20.508,-2.930,-23.438,0.000,0
159138.877,-19.043,-18.066,-33.203,-37.598,0.000,0
159138.881,-20.508,-16.113,-27.832,-31.250,0.000,0
159138.885,-20.508,-18.066,-23.438,-19.043,0.000,0
159138.888,-20.508,-18.066,-27.832,-17.578,0.000,0
159138.892,-18.555,-16.602,-22.461,-31.250,0.000,0
159138.896,-18.066,-17.578,-29.297,-24.414,0.000,0
159138.900,-17.578,-16.113,-33.691,-17.578,0.000,0
159138.904,-19.531,-13.184,-31.738,-21.484,0.000,2
159138.908,-21.973,-17.090,-35.156,-20.020,0.000,0
159138.912,-28.809,-22.461,-31.738,-30.273,0.000,0
159138.916,-32.227,-17.090,-22.949,-39.062,0.000,0
159138.920,-25.391,-15.625,-33.203,-25.391,0.000,0
159138.924,-19.043,-17.090,-62.500,-10.254,0.000,0
159138.928,-21.973,-17.090,-52.246,-14.160,0.000,0
159138.931,-35.645,-19.531,-1.465,-37.109,0.000,0
159138.935,-32.227,-21.484,-28.320,-31.250,0.000,0
159138.939,-27.832,-22.949,-73.242,-17.578,0.000,0
159138.943,-31.250,-22.949,-44.922,-22.949,0.000,0
159138.947,-31.738,-24.414,-30.762,-13.672,0.000,0
159138.951,-26.855,-19.043,-24.414,-19.531,0.000,0
159138.955,-24.902,-15.625,-16.113,-34.668,0.000,0
159138.959,-34.180,-16.113,-23.926,-29.297,0.000,0
159138.963,-21.973,-10.742,-31.738,-10.742,0.000,0
159138.967,-12.695,-11.230,-43.457,-10.254,0.000,0
159138.971,-19.531,-18.066,-19.043,-19.531,0.000,0
159138.974,-14.648,-15.625,-17.090,-17.090,0.000,0
159138.978,-13.672,-8.301,-50.293,-17.578,0.000,0
159138.982,-13.672,-9.277,-46.875,-18.555,0.000,0
159138.986,-4.883,-9.766,-37.109,-6.348,0.000,0
159138.990,-8.301,-9.766,-8.301,-9.766,0.000,0
159138.994,-11.230,-11.719,-3.418,-20.508,0.000,0
159138.998,-2.930,-11.230,-21.484,-5.371,0.000,0
159139.002,-4.395,-14.648,-13.672,1.465,0.000,0
159139.006,-18.066,-19.531,-20.020,-15.625,0.000,0
159139.010,-18.555,-18.555,-31.250,-30.273,0.000,0
159139.013,-12.695,-16.602,-43.945,-30.273,0.000,0
159139.017,-16.113,-17.578,-31.250,-22.461,0.000,0
159139.021,-17.090,-18.555,-2.930,-20.508,0.000,0
159139.025,-14.648,-16.113,-34.180,-13.184,0.000,0
159139.029,-15.137,-17.090,-21.484,-34.180,0.000,0
159139.033,-14.648,-19.531,1.465,-40.039,0.000,0
159139.037,-16.113,-22.461,-26.855,-18.555,0.000,0
159139.041,-20.508,-16.113,-35.156,-21.484,0.000,0
159139.045,-18.555,-6.836,-55.176,-11.230,0.000,0
159139.049,-20.020,-11.719,-18.555,-19.531,0.000,0
159139.053,-29.785,-15.625,10.742,-34.668,0.000,0
159139.056,-28.809,-16.602,-21.484,-27.832,0.000,0
159139.060,-24.414,-15.137,-52.734,-25.391,0.000,0
159139.064,-28.809,-14.160,-29.785,-19.531,0.000,0
159139.068,-41.016,-18.066,5.371,-34.180,0.000,0
159139.072,-22.949,-15.137,-14.648,-28.809,0.000,0
159139.076,-12.695,-15.625,-39.062,-13.184,0.000,0
159139.080,-29.297,-16.602,-34.668,-29.785,0.000,0
159139.084,-27.832,-11.230,-29.785,-29.297,0.000,0
159139.088,-23.438,-17.578,-16.602,-32.227,0.000,0
159139.092,-31.738,-17.578,-11.230,-40.039,0.000,0
159139.096,-33.691,-21.973,-33.203,-33.691,0.000,0
159139.099,-29.297,-26.367,-30.273,-18.066,0.000,0
159139.103,-23.926,-17.090,-44.922,-18.555,0.000,0
159139.107,-24.902,-19.043,-31.250,-28.809,0.000,0
159139.111,-31.250,-20.020,-6.348,-28.809,0.000,0
159139.115,-25.391,-19.531,-41.992,-23.438,0.000,0
159139.119,-20.020,-19.531,-42.480,-20.996,0.000,0
159139.123,-22.461,-24.414,-30.273,-20.508,0.000,0
159139.127,-23.438,-26.855,-27.344,-31.250,0.000,0
159139.131,-16.602,-15.625,-20.508,-43.457,0.000,0
159139.135,-14.160,-13.184,-31.738,-24.902,0.000,0
159139.138,-18.066,-23.438,-19.531,-22.949,0.000,0
159139.142,-24.902,-22.461,-25.879,-27.344,0.000,0
159139.146,-26.367,-20.508,-41.992,-8.789,0.000,0
159139.150,-19.043,-22.461,-22.461,-18.555,0.000,0
159139.154,-19.043,-18.066,-11.230,-24.902,0.000,0
159139.158,-18.066,-15.625,-15.625,-15.625,0.000,0
159139.162,-11.719,-11.230,-43.945,-11.719,0.000,0
159139.166,-18.066,-12.695,-41.504,-13.184,0.000,0
159139.170,-21.973,-15.137,-19.531,-26.367,0.000,0
159139.174,-18.555,-17.578,-31.738,-23.926,0.000,0
159139.178,-22.461,-21.973,-46.387,-14.160,0.000,0
159139.181,-24.902,-17.578,-39.551,-15.137,0.000,0
159139.185,-27.832,-15.137,-24.414,-20.020,0.000,0
159139.189,-30.762,-17.090,-18.066,-26.367,0.000,0
159139.193,-27.344,-10.254,-30.273,-21.973,0.000,0
159139.197,-26.855,-13.672,-31.250,-20.508,0.000,0
159139.201,-29.785,-19.043,-21.484,-15.137,0.000,0
159139.205,-22.461,-17.578,-35.645,-12.695,0.000,0
159139.209,-20.996,-20.020,-33.691,-25.879,0.000,0
159139.213,-32.227,-16.602,-31.250,-18.555,0.000,0
159139.217,-22.461,-8.301,-36.133,-5.859,0.000,0
159139.221,-14.648,-11.719,-38.086,-14.648,0.000,0
159139.224,-19.531,-13.672,-35.645,-23.438,0.000,0
159139.228,-23.926,-16.113,-21.484,-29.297,0.000,0
159139.232,-25.879,-19.043,-24.902,-40.527,0.000,0
159139.236,-18.555,-21.484,-26.855,-33.203,0.000,0
159139.240,-20.996,-23.438,-41.504,-18.555,0.000,0
159139.244,-26.367,-18.066,-37.109,-13.672,0.000,0
159139.248,-24.902,-16.602,-20.996,-22.949,0.000,0
159139.252,-17.090,-15.137,-43.457,-29.785,0.000,0
159139.256,-20.020,-14.160,-49.316,-25.879,0.000,0
159139.260,-24.902,-16.602,-40.039,-34.668,0.000,0
159139.263,-22.461,-12.695,-40.527,-34.180,0.000,0
159139.267,-23.438,-14.160,-27.344,-33.691,0.000,0
159139.271,-23.438,-10.254,-15.137,-34.668,0.000,0
159139.275,-29.297,-9.766,-34.668,-29.297,0.000,0
159139.279,-32.227,-24.414,-54.688,-25.391,0.000,0
159139.283,-22.461,-23.438,-41.016,-23.438,0.000,0
159139.287,-24.414,-20.020,-8.301,-33.203,0.000,0
159139.291,-26.855,-20.020,-8.789,-26.367,0.000,0
159139.295,-17.578,-20.996,-38.574,-17.090,0.000,0
159139.299,-11.230,-28.809,-39.551,-23.438,0.000,0
159139.303,-15.625,-23.926,-19.043,-21.484,0.000,0
159139.306,-23.438,-18.555,-10.742,-29.785,0.000,0
159139.310,-20.508,-25.879,-31.250,-40.039,0.000,0
159139.314,-20.020,-22.461,-39.062,-30.762,0.000,0
159139.318,-20.996,-17.578,-26.367,-14.648,0.000,0
159139.322,-21.484,-19.531,-31.738,-8.789,0.000,0
159139.326,-22.461,-20.020,-21.973,-20.508,0.000,0
159139.330,-21.973,-16.602,-20.996,-19.531,0.000,0
159139.334,-22.949,-20.996,-22.461,-20.020,0.000,0
159139.338,-18.066,-19.043,-17.578,-25.391,0.000,0
159139.342,-21.484,-19.043,-53.223,-12.695,0.000,0
159139.346,-29.785,-28.320,-42.969,-31.738,0.000,0
159139.349,-24.414,-26.367,-24.902,-40.039,0.000,0
159139.353,-28.809,-19.531,-55.176,-20.020,0.000,0
159139.357,-33.203,-24.902,-62.500,-20.508,0.000,0
159139.361,-36.621,-21.484,-52.734,-29.785,0.000,0
159139.365,-37.598,-19.043,-24.902,-39.551,0.000,0
159139.369,-20.508,-21.973,-19.531,-38.086,0.000,0
159139.373,-17.090,-19.043,-41.504,-34.180,0.000,0
159139.377,-26.855,-20.020,-42.969,-34.180,0.000,0
159139.381,-31.250,-24.902,-45.410,-19.043,0.000,0
159139.385,-25.879,-22.949,-37.109,-27.832,0.000,0
159139.388,-26.855,-15.137,-25.391,-35.156,0.000,0
159139.392,-38.574,-17.578,-43.945,-23.926,0.000,0
159139.396,-40.527,-24.414,-47.363,-31.250,0.000,0
159139.400,-32.715,-20.020,-43.945,-32.715,0.000,0
159139.404,-29.785,-17.090,-24.902,-38.086,0.000,0
159139.408,-32.715,-20.020,-16.602,-42.480,0.000,0
159139.412,-31.250,-20.996,-38.086,-37.598,0.000,0
159139.416,-20.996,-20.020,-41.016,-28.320,0.000,0
159139.420,-13.672,-18.066,-45.410,-17.090,0.000,0
159139.424,-16.602,-16.113,-20.020,-28.809,0.000,0
159139.428,-23.926,-9.766,-12.207,-33.203,0.000,0
159139.431,-23.926,-9.277,-41.016,-16.602,0.000,0
159139.435,-14.648,-15.137,-54.199,-14.648,0.000,0
159139.439,-19.043,-8.301,-27.344,-4.883,0.000,0
159139.443,-26.367,-6.348,1.953,-12.207,0.000,0
159139.447,-21.484,-11.719,-16.602,-26.855,0.000,0
159139.451,-24.414,-10.254,-20.020,-24.902,0.000,0
159139.455,-23.438,-6.836,-21.973,-9.766,0.000,0
159139.459,-25.391,-17.090,-43.945,4.395,0.000,0
159139.463,-25.391,-19.043,-31.738,-17.578,0.000,0
159139.467,-16.602,-7.812,-9.766,-18.555,0.000,0
159139.471,-22.461,-11.230,-23.926,-10.254,0.000,0
159139.474,-30.762,-14.648,-24.414,-23.926,0.000,0
159139.478,-22.949,-15.137,-45.898,-23.926,0.000,0
159139.482,-21.484,-17.578,-39.551,-20.996,0.000,1
159139.486,-23.926,-22.461,3.906,-27.832,0.000,0
159139.490,-15.137,-19.043,-20.508,-25.879,0.000,0
159139.494,-12.207,-15.137,-41.992,-19.531,0.000,0
159139.498,-17.578,-17.578,-32.715,-12.695,0.000,0
159139.502,-19.043,-19.531,-20.996,-7.324,0.000,0
159139.506,-14.160,-19.043,-7.812,-20.996,0.000,0
159139.510,-14.648,-16.113,-28.809,-28.320,0.000,0
159139.513,-19.531,-15.625,-36.133,-29.297,0.000,0
159139.517,-18.555,-15.137,-19.043,-20.996,0.000,0
159139.521,-15.137,-16.113,-24.902,-7.324,0.000,0
159139.525,-11.719,-16.113,-38.086,-19.531,0.000,0
159139.529,-19.531,-11.719,-31.738,-18.555,0.000,0
159139.533,-21.973,-12.695,-20.996,-7.324,0.000,0
159139.537,-8.301,-11.719,-37.598,-9.277,0.000,0
159139.541,-15.625,-7.812,-26.855,-14.648,0.000,0
159139.545,-22.949,-15.137,-15.625,-33.691,0.000,0
159139.549,-22.461,-14.648,-28.809,-38.574,0.000,0
159139.553,-24.902,-8.789,-16.113,-33.691,0.000,0
159139.556,-23.438,-5.859,-25.879,-16.602,0.000,0
159139.560,-11.719,-2.441,-43.457,-4.883,0.000,0
159139.564,-7.324,-3.906,-15.137,-16.602,0.000,0
159139.568,-16.602,-3.418,-18.066,-9.766,0.000,0
159139.572,-19.531,-10.742,-36.621,-8.789,0.000,0
159139.576,-18.066,-12.695,-32.227,-15.625,0.000,0
159139.580,-13.672,-10.254,-30.273,-14.648,0.000,0
159139.584,-0.488,-13.672,-24.414,-18.555,0.000,0
159139.588,-2.441,-14.160,-19.043,-26.855,0.000,0
159139.592,-7.812,-12.695,-24.902,-18.555,0.000,0
159139.596,3.906,-6.836,-32.715,1.953,0.000,0
159139.599,12.695,-3.418,-29.785,15.137,0.000,0
159139.603,8.789,0.000,-4.395,5.859,0.000,0
159139.607,4.883,1.953,-12.207,-0.488,0.000,0
159139.611,-2.930,-12.695,-39.062,5.859,0.000,0
159139.615,-12.207,-11.230,-30.762,3.906,0.000,0
159139.619,-20.020,-6.348,-11.230,-1.953,0.000,0
159139.623,-16.113,-10.254,0.977,-14.160,0.000,0
159139.627,-11.719,-7.812,-24.414,-18.066,0.000,0
159139.631,-17.090,-7.812,-43.945,-10.742,0.000,0
159139.635,-13.672,-5.859,-24.414,-5.859,0.000,0
159139.638,-12.207,-7.324,-13.184,-6.836,0.000,0
159139.642,-15.137,-12.695,-11.230,-15.625,0.000,0
159139.646,-17.578,-8.301,-19.531,-15.137,0.000,0
159139.650,-17.090,-7.812,-32.715,-11.719,0.000,0
159139.654,-12.207,-11.719,-11.719,-22.461,0.000,0
159139.658,-11.719,-7.812,-27.832,-17.578,0.000,0
159139.662,-14.160,-7.324,-26.367,-20.020,0.000,0
159139.666,-13.672,-8.301,4.395,-31.250,0.000,0
159139.670,-16.113,-17.090,-35.645,-25.391,0.000,0
159139.674,-7.812,-21.484,-44.434,-15.137,0.000,0
159139.678,-9.766,-17.578,-30.273,-12.207,0.000,0
159139.681,-20.996,-15.137,-16.602,-24.414,0.000,0
159139.685,-19.531,-10.742,-13.672,-22.949,0.000,0
159139.689,-21.484,-15.137,-44.922,-25.391,0.000,0
159139.693,-19.531,-17.090,-38.086,-20.996,0.000,0
159139.697,-9.766,-12.695,-23.926,2.441,0.000,0
159139.701,-8.301,-19.531,-20.020,-15.137,0.000,0
159139.705,-19.043,-22.461,-10.254,-25.879,0.000,0
159139.709,-27.344,-15.625,-22.949,-4.883,0.000,0
159139.713,-27.344,-12.695,-30.273,-14.160,0.000,0
159139.717,-16.113,-14.648,-41.992,-12.207,0.000,0
159139.721,-14.648,-16.113,-23.926,-14.160,0.000,0
159139.724,-12.695,-11.230,-15.137,-28.320,0.000,0
159139.728,-9.277,-2.930,-30.273,-18.066,0.000,0
159139.732,-11.230,-8.789,-27.832,-4.395,0.000,0
159139.736,-11.719,-18.066,-33.691,2.441,0.000,0
159139.740,-8.301,-10.742,-17.090,-17.578,0.000,0
159139.744,-17.090,-10.254,-16.602,-27.832,0.000,0
159139.748,-22.461,-15.137,-54.688,-15.625,0.000,0
159139.752,-14.160,-15.137,-50.781,-8.789,0.000,0
159139.756,-17.090,-14.160,-19.043,-11.719,0.000,0
159139.760,-22.461,-17.578,-10.742,-25.391,0.000,0
159139.763,-18.066,-20.508,-36.133,-35.156,0.000,0
159139.767,-11.230,-15.625,-35.156,-27.832,0.000,0
159139.771,-4.883,-8.789,-8.301,2.441,0.000,0
159139.775,-3.906,-6.348,-26.855,13.184,0.000,0
159139.779,-2.930,-6.348,-20.508,-8.301,0.000,0
159139.783,-4.883,-8.789,-2.930,-11.230,0.000,0
159139.787,-11.230,-7.324,-20.508,-7.324,0.000,0
159139.791,-8.301,-13.184,-34.180,-16.113,0.000,0
159139.795,-18.555,-15.625,-37.598,-27.344,0.000,0
159139.799,-21.484,-11.719,-19.531,-32.715,0.000,0
159139.803,-15.625,-13.672,-13.672,-25.879,0.000,0
159139.806,-20.996,-10.742,-35.645,-23.926,0.000,0
159139.810,-19.531,-3.418,-47.852,-13.184,0.000,0
159139.814,-16.113,0.000,-17.578,-6.836,0.000,0
159139.818,-12.207,-4.395,-10.254,-17.578,0.000,0
159139.822,-8.789,3.418,-34.668,-14.648,0.000,0
159139.826,-13.672,12.207,-42.969,-12.207,0.000,0
159139.830,-20.508,5.859,-37.598,-20.996,0.000,0
159139.834,-11.719,2.930,-35.645,-19.531,0.000,0
159139.838,-4.395,2.930,-24.902,-31.738,0.000,0
159139.842,-17.578,0.488,-24.414,-42.969,0.000,0
159139.846,-18.066,-6.836,-34.668,-25.391,0.000,0
159139.849,-18.066,-3.418,-34.668,-18.555,0.000,0
159139.853,-22.461,-1.465,-30.762,-22.949,0.000,0
159139.857,-19.043,-6.836,-8.301,-32.715,0.000,0
159139.861,-19.043,-1.465,-29.785,-28.809,0.000,0
159139.865,-18.555,-1.465,-62.500,-26.367,0.000,0
159139.869,-20.508,-7.324,-39.551,-18.555,0.000,0
159139.873,-19.043,-1.465,-26.855,-3.906,0.000,0
159139.877,-13.672,-4.395,-30.273,-17.578,0.000,0
159139.881,-8.789,-5.859,-25.391,-6.836,0.000,0
159139.885,-14.648,3.906,-17.090,13.672,0.000,0
159139.888,-18.555,6.348,-17.090,4.883,0.000,0
159139.892,-17.578,3.418,-21.973,-8.301,0.000,0
