timestamps,TP9,AF7,AF8,TP10,Right AUX,Marker0
191470.848,36.621,12.207,36.621,39.062,64.941,0
191470.852,41.016,30.762,29.297,42.480,94.238,0
191470.856,32.227,26.855,29.785,25.391,60.059,0
191470.860,23.438,20.508,32.227,23.438,34.668,0
191470.864,31.738,18.555,30.273,39.551,77.148,0
191470.868,40.039,15.625,28.320,44.434,91.797,0
191470.872,29.785,18.066,23.438,29.297,35.645,0
191470.875,20.996,20.020,24.902,17.090,-0.977,0
191470.879,18.555,16.602,32.715,30.273,39.062,0
191470.883,28.809,18.555,38.574,50.781,90.820,0
191470.887,33.691,24.902,35.645,36.133,52.246,0
191470.891,28.320,20.996,35.156,23.926,1.465,0
191470.895,23.438,9.766,32.715,26.855,-18.066,0
191470.899,30.273,14.648,25.879,39.062,72.266,0
191470.903,34.180,30.273,23.438,28.320,69.336,0
191470.907,27.832,31.250,33.691,12.695,-30.273,0
191470.911,25.391,20.508,40.039,23.926,-13.672,0
191470.914,31.738,16.113,34.668,43.457,43.457,0
191470.918,33.203,18.066,38.574,36.133,-2.930,0
191470.922,25.391,19.043,39.551,14.648,-104.004,0
191470.926,15.625,21.484,32.227,13.672,-75.195,0
191470.930,19.043,19.043,37.109,31.738,61.523,0
191470.934,30.273,15.625,33.691,41.992,81.543,0
191470.938,25.391,14.648,23.926,22.461,-9.766,0
191470.942,26.367,2.441,27.832,9.766,-13.184,0
191470.946,35.156,5.859,32.227,29.785,26.367,0
191470.950,31.738,24.414,24.414,46.875,15.137,0
191470.954,28.809,23.438,19.043,32.715,27.344,0
191470.957,23.926,16.602,17.090,20.508,43.457,0
191470.961,21.484,15.137,19.531,20.996,36.133,0
191470.965,28.320,17.090,35.645,26.855,53.711,0
191470.969,23.438,13.672,39.551,18.555,29.785,0
191470.973,18.555,9.277,35.156,14.648,17.090,0
191470.977,20.020,13.672,36.621,29.785,27.344,0
191470.981,20.996,22.949,37.109,40.039,62.500,0
191470.985,24.902,22.949,32.227,27.344,80.566,0
191470.989,26.367,21.973,25.879,11.230,64.941,0
191470.993,24.902,33.691,31.250,12.695,56.641,0
191470.997,26.855,34.668,31.738,26.367,65.430,0
191471.000,30.762,25.879,26.855,32.715,83.008,0
191471.004,31.738,26.855,30.273,31.738,62.500,0
191471.008,25.879,27.832,33.203,23.926,20.996,0
191471.012,24.414,23.926,30.762,14.648,33.203,0
191471.016,26.855,21.973,30.762,24.414,87.402,0
191471.020,20.996,23.438,24.414,20.508,62.988,0
191471.024,14.160,24.414,20.508,10.254,-22.461,0
191471.028,15.137,21.973,25.879,18.066,-31.738,0
191471.032,27.832,15.625,27.832,33.203,51.270,0
191471.036,33.203,9.766,31.250,26.855,50.293,0
191471.039,22.461,14.648,38.574,13.184,-14.648,0
191471.043,16.113,19.531,43.457,18.066,-17.090,0
191471.047,18.066,18.555,37.109,31.250,43.457,1
191471.051,20.508,18.555,29.785,29.297,74.219,0
191471.055,20.020,15.625,26.367,13.184,-11.719,0
191471.059,15.625,11.230,23.438,7.324,-22.461,0
191471.063,18.066,12.207,20.020,35.645,72.266,0
191471.067,26.367,16.602,25.879,52.246,83.008,0
191471.071,23.438,19.531,33.691,28.320,32.227,0
191471.075,20.996,13.184,24.414,21.973,-8.301,0
191471.079,26.855,7.324,16.602,32.227,13.184,0
191471.082,29.785,14.648,31.250,37.109,77.148,0
191471.086,21.484,26.367,50.293,25.879,79.102,0
191471.090,15.625,27.832,51.758,12.207,41.992,0
191471.094,16.113,20.508,46.875,16.113,58.594,0
191471.098,18.555,18.066,36.621,30.762,105.469,0
191471.102,21.973,18.555,27.832,24.414,103.027,0
191471.106,19.531,20.020,31.250,8.789,31.250,0
191471.110,15.625,18.555,29.297,12.695,7.812,0
191471.114,22.461,13.672,20.508,28.320,49.316,0
191471.118,28.809,16.602,24.414,25.391,15.137,0
191471.122,26.367,22.461,28.320,17.090,-35.156,0
191471.125,22.949,21.973,27.344,24.902,-0.488,0
191471.129,20.508,16.113,36.133,27.344,29.785,0
191471.133,20.996,15.625,42.969,24.902,25.391,0
191471.137,19.043,23.438,37.109,15.625,11.230,0
191471.141,14.160,22.949,31.250,12.207,-18.555,0
191471.145,13.184,18.066,33.203,22.461,-30.762,0
191471.149,20.996,20.508,38.086,29.785,5.859,0
191471.153,25.391,21.484,41.016,15.625,21.973,0
191471.157,18.555,19.531,29.785,3.906,8.301,0
191471.161,13.672,20.020,23.438,10.254,-10.254,0
191471.164,15.625,18.555,16.602,24.414,21.484,0
191471.168,10.254,19.043,11.719,19.043,96.191,0
191471.172,6.836,18.555,22.461,9.766,27.832,0
191471.176,11.230,16.113,28.320,12.207,-31.250,0
191471.180,12.695,19.531,31.738,22.949,27.344,0
191471.184,13.184,20.996,32.227,36.133,44.922,0
191471.188,19.531,19.043,36.133,27.344,10.254,0
191471.192,20.020,15.625,41.016,13.672,-35.156,0
191471.196,20.996,7.324,42.480,26.367,15.625,0
191471.200,24.414,11.230,44.434,36.133,123.535,0
191471.204,19.531,21.484,36.621,18.555,84.961,0
191471.207,19.043,27.344,21.973,9.766,-6.836,0
191471.211,22.949,34.668,23.438,25.391,33.203,0
191471.215,29.297,33.691,30.273,38.574,105.957,0
191471.219,29.785,26.367,22.949,28.809,51.270,0
191471.223,29.297,25.879,28.809,15.137,0.000,0
191471.227,18.066,24.902,30.762,10.742,37.109,0
191471.231,10.254,16.602,21.973,24.414,58.105,0
191471.235,17.090,15.137,29.297,25.879,80.078,0
191471.239,17.578,18.066,37.598,6.348,42.480,0
191471.243,17.578,22.949,38.086,9.277,-1.465,0
191471.247,22.949,22.461,31.250,30.762,7.812,0
191471.250,29.785,20.508,20.996,42.969,-20.996,0
191471.254,27.832,24.902,23.438,27.832,-39.062,0
191471.258,24.902,27.344,30.762,14.648,-0.488,0
191471.262,24.902,26.367,29.297,22.461,37.598,0
191471.266,26.855,24.414,29.785,31.738,84.473,0
191471.270,26.855,21.484,34.180,26.855,88.867,0
191471.274,27.832,20.996,39.062,25.391,64.453,0
191471.278,26.855,20.020,38.574,34.668,62.500,0
191471.282,28.320,18.555,33.691,49.316,75.195,0
191471.286,29.785,20.508,27.344,35.645,71.777,0
191471.289,28.320,27.832,30.762,17.090,33.691,0
191471.293,30.762,31.738,31.250,21.973,-36.621,0
191471.297,31.738,20.996,20.508,29.785,-41.504,0
191471.301,29.297,19.531,20.020,29.785,20.996,0
191471.305,30.273,33.203,26.367,17.090,20.508,0
191471.309,30.762,37.598,31.250,15.137,-5.859,0
191471.313,32.227,32.227,23.926,37.109,41.016,0
191471.317,33.203,27.344,16.113,43.457,84.473,0
191471.321,28.320,27.832,30.762,20.020,35.156,0
191471.325,25.879,29.785,41.016,15.625,-17.090,0
191471.329,25.391,24.902,35.645,27.832,-23.926,0
191471.332,29.785,19.531,30.762,31.250,16.113,0
191471.336,27.832,20.020,26.855,17.090,25.391,0
191471.340,24.414,18.555,24.414,8.789,-13.672,0
191471.344,22.949,13.672,27.344,15.137,6.836,0
191471.348,25.879,13.672,29.297,34.668,90.820,0
191471.352,28.320,20.508,27.832,34.180,65.918,0
191471.356,25.879,26.367,32.715,15.137,-20.508,0
191471.360,22.461,28.320,41.016,18.066,0.488,0
191471.364,27.344,28.809,43.945,37.109,91.797,0
191471.368,29.785,28.809,35.156,37.109,87.402,0
191471.372,24.414,29.785,28.809,25.391,33.691,0
191471.375,24.902,28.809,29.297,23.438,29.785,0
191471.379,24.902,19.043,26.367,29.785,59.570,0
191471.383,25.879,20.996,21.973,37.598,89.355,0
191471.387,23.926,29.297,18.066,17.090,39.062,0
191471.391,19.043,30.273,27.344,8.789,21.973,0
191471.395,20.508,27.344,34.668,28.809,66.406,0
191471.399,34.180,26.855,26.855,47.852,95.215,0
191471.403,32.715,30.273,26.855,36.621,68.359,0
191471.407,22.949,29.297,33.691,20.996,58.105,0
191471.411,26.367,24.414,38.086,32.715,40.039,0
191471.414,32.227,21.973,39.551,47.363,63.477,0
191471.418,29.785,20.996,36.621,39.062,99.121,0
191471.422,25.879,21.973,39.551,29.785,64.453,0
191471.426,20.508,20.996,37.598,34.180,38.086,0
191471.430,26.855,17.578,33.203,43.945,62.988,0
191471.434,33.203,18.066,31.738,40.039,59.570,0
191471.438,27.344,20.020,27.832,27.344,25.879,0
191471.442,27.344,25.879,25.391,25.879,0.488,0
191471.446,31.250,35.645,23.438,40.527,13.672,0
191471.450,34.668,34.180,21.973,46.387,61.523,0
191471.454,32.227,30.762,27.344,20.020,61.523,0
191471.457,28.809,33.203,35.156,13.672,10.742,0
191471.461,30.273,29.785,36.133,25.391,-37.109,0
191471.465,29.297,22.461,34.180,41.504,1.465,0
191471.469,27.344,22.949,35.156,44.922,29.785,0
191471.473,31.250,25.391,40.039,28.809,-13.184,0
191471.477,27.832,20.020,41.504,20.508,-37.598,0
191471.481,29.297,14.160,33.691,31.250,10.742,0
191471.485,28.320,17.090,25.391,25.879,33.691,0
191471.489,14.160,23.438,21.484,10.254,-6.348,0
191471.493,8.301,21.973,20.996,3.418,-29.297,0
191471.497,18.555,21.484,22.949,22.461,7.812,0
191471.500,22.949,24.902,20.996,36.621,76.660,0
191471.504,21.973,29.297,23.438,20.508,61.035,0
191471.508,23.438,33.691,31.738,16.602,-15.137,0
191471.512,17.578,29.297,38.086,24.902,-3.418,0
191471.516,22.461,22.461,38.574,41.016,33.203,0
191471.520,30.273,23.438,32.715,36.133,20.508,0
191471.524,26.855,24.902,26.367,12.207,-2.930,0
191471.528,25.391,14.160,25.879,15.137,1.953,0
191471.532,32.227,12.207,25.391,31.250,63.477,0
191471.536,30.762,20.020,25.391,18.066,53.711,0
191471.539,25.391,23.926,28.320,0.977,-11.230,0
191471.543,22.461,29.785,27.832,8.789,3.906,0
191471.547,25.391,29.297,26.367,33.203,53.711,0
191471.551,30.273,24.414,24.902,36.621,77.637,0
191471.555,27.832,23.438,24.902,17.578,44.922,0
191471.559,22.949,23.438,24.414,14.160,-17.090,0
191471.563,21.484,19.531,16.602,34.668,2.441,0
191471.567,26.367,15.625,19.043,44.922,69.336,0
191471.571,27.344,20.996,29.297,27.344,27.344,0
191471.575,20.996,24.414,33.203,23.438,-6.836,0
191471.579,18.555,21.484,38.086,29.297,3.906,0
191471.582,23.926,20.996,40.527,33.203,6.836,0
191471.586,23.926,23.926,35.156,22.461,24.902,0
191471.590,20.996,26.367,33.691,11.230,18.555,0
191471.594,21.973,27.344,37.109,20.508,9.766,0
191471.598,23.438,25.391,35.156,37.598,28.809,0
191471.602,21.484,24.902,30.762,34.668,24.902,0
191471.606,15.625,23.438,32.715,20.508,-20.508,0
191471.610,3.418,20.020,39.062,16.113,-35.156,0
191471.614,8.301,19.531,36.133,29.785,-14.160,0
191471.618,18.555,22.949,31.250,35.645,-20.020,0
191471.622,16.602,27.344,26.367,17.578,-51.270,0
191471.625,19.531,29.785,23.438,7.812,-60.059,0
191471.629,25.879,30.273,16.602,23.438,-1.953,0
191471.633,32.715,32.715,13.672,39.551,62.988,0
191471.637,34.668,32.227,30.762,24.902,11.719,0
191471.641,23.926,28.320,41.504,10.742,8.301,0
191471.645,20.020,24.902,45.410,20.508,51.758,0
191471.649,29.785,23.926,45.410,39.551,87.891,0
191471.653,26.367,25.391,40.039,28.320,77.148,0
191471.657,17.090,25.879,36.133,6.348,19.043,0
191471.661,16.113,22.949,35.156,11.230,53.711,0
191471.664,21.484,19.531,29.785,30.273,102.051,0
191471.668,23.926,20.508,25.391,28.809,72.266,0
191471.672,16.602,21.973,26.367,7.324,-12.695,0
191471.676,15.137,18.555,33.203,12.695,-20.020,0
191471.680,22.949,16.602,28.809,34.180,62.988,0
191471.684,21.973,19.043,21.484,31.738,62.988,0
191471.688,16.602,18.555,20.996,22.949,18.555,0
191471.692,20.508,19.531,24.414,24.414,-13.184,0
191471.696,23.438,22.461,32.227,27.344,54.688,0
191471.700,23.926,26.367,30.762,31.250,156.738,0
191471.704,23.926,32.715,28.809,19.531,98.145,0
191471.707,19.043,35.645,33.691,11.230,22.461,0
191471.711,25.391,26.855,41.016,27.344,41.016,0
191471.715,34.180,20.996,41.992,38.574,102.539,0
191471.719,30.762,26.855,32.715,22.949,80.566,0
191471.723,27.832,32.227,31.250,15.625,59.570,0
191471.727,25.879,31.250,33.691,18.555,72.754,1
191471.731,27.832,27.344,31.250,30.762,105.957,0
191471.735,27.832,26.367,28.320,26.367,110.352,0
191471.739,23.438,26.367,21.484,10.742,61.035,0
191471.743,23.438,23.926,25.391,16.113,55.176,0
191471.747,27.344,19.531,35.645,31.250,42.969,0
191471.750,30.273,23.438,34.180,33.203,53.711,0
191471.754,26.367,27.832,30.273,20.508,57.617,0
191471.758,20.996,26.855,30.273,17.090,23.438,0
191471.762,20.996,29.297,29.297,15.625,29.785,0
191471.766,24.902,28.809,27.344,22.461,48.828,0
191471.770,22.949,26.855,28.320,19.531,42.480,0
191471.774,20.508,27.344,25.879,10.254,6.836,0
191471.778,23.438,21.484,28.809,18.555,0.977,0
191471.782,36.133,20.020,33.203,31.250,72.754,0
191471.786,43.457,19.531,34.180,25.391,70.312,0
191471.789,41.504,20.020,38.086,16.113,-11.230,0
191471.793,32.715,25.879,34.668,20.508,-1.953,0
191471.797,25.391,31.250,20.996,32.227,78.125,0
191471.801,30.762,28.809,21.973,28.809,77.637,0
191471.805,28.320,25.879,29.297,8.301,-13.184,0
191471.809,22.461,29.297,22.461,9.277,-18.066,0
191471.813,22.461,27.832,20.508,34.180,42.480,0
191471.817,27.344,29.297,24.902,44.922,60.547,0
191471.821,26.855,30.273,34.668,18.555,32.715,0
191471.825,20.508,28.809,46.875,4.395,-9.766,0
191471.829,19.531,27.344,46.875,22.461,47.363,0
191471.832,20.996,24.414,41.992,35.645,96.680,0
191471.836,20.508,25.879,37.109,27.344,20.508,0
191471.840,19.043,27.832,36.621,15.625,13.672,0
191471.844,15.137,22.949,36.133,18.555,42.480,0
191471.848,15.137,19.531,26.855,27.832,77.637,0
191471.852,19.531,24.902,27.344,19.531,91.797,0
191471.856,19.531,29.297,36.133,10.254,38.574,0
191471.860,17.578,26.855,41.016,18.555,16.113,0
191471.864,27.832,20.996,43.457,34.180,20.508,0
191471.868,35.645,20.996,38.574,36.621,1.465,0
191471.872,26.367,26.855,29.785,16.602,-3.418,0
191471.875,18.555,27.832,25.879,4.883,32.715,0
191471.879,22.461,26.367,22.949,20.508,66.406,0
191471.883,31.250,26.855,22.461,31.738,88.867,0
191471.887,27.344,26.855,26.855,17.578,57.129,0
191471.891,27.344,27.344,32.715,10.742,20.508,0
191471.895,28.320,26.367,36.133,24.902,22.949,0
191471.899,29.297,23.926,36.133,35.645,34.668,0
191471.903,28.809,24.902,30.762,20.508,53.223,0
191471.907,25.391,29.297,26.855,14.160,28.809,0
191471.911,23.926,24.414,28.320,23.438,-54.688,0
191471.914,28.809,18.555,25.879,36.621,11.230,0
191471.918,25.879,24.414,25.391,31.250,69.824,0
191471.922,19.043,31.738,27.832,14.648,-17.578,0
191471.926,21.973,30.762,28.809,20.020,-32.715,0
191471.930,30.273,27.344,31.738,39.062,47.852,0
191471.934,41.504,30.273,38.574,47.363,68.848,0
191471.938,41.016,34.180,44.434,33.691,4.395,0
191471.942,31.250,32.227,44.434,24.414,-11.719,0
191471.946,28.809,24.902,37.109,39.062,4.395,0
191471.950,34.668,21.973,36.133,46.875,27.832,0
191471.954,35.156,20.020,35.156,24.902,18.066,0
191471.957,37.109,18.066,29.785,15.625,-51.758,0
191471.961,34.180,20.996,25.391,24.902,-38.574,0
191471.965,29.785,22.949,22.949,31.738,28.809,0
191471.969,33.203,30.273,28.320,27.344,25.879,0
191471.973,35.645,33.203,29.297,20.020,-17.090,0
191471.977,31.738,28.809,29.297,26.367,-7.324,0
191471.981,34.668,25.879,33.691,55.664,37.598,0
191471.985,43.457,32.715,35.645,48.828,37.598,0
191471.989,39.551,36.621,33.203,19.043,-17.578,0
191471.993,29.297,30.762,24.902,19.531,9.277,0
191471.997,32.715,25.879,23.926,36.621,62.500,0
191472.000,40.527,28.809,27.832,30.762,51.270,0
191472.004,33.691,29.297,29.297,12.695,32.227,0
191472.008,25.391,26.367,23.926,10.742,26.367,0
191472.012,25.879,26.367,21.484,20.996,51.270,0
191472.016,29.297,27.832,25.391,30.762,85.449,0
191472.020,23.438,29.297,30.762,13.672,51.270,0
191472.024,20.508,27.832,36.621,4.395,31.250,0
191472.028,20.020,24.902,37.109,15.625,57.617,0
191472.032,21.973,18.555,34.668,25.879,80.078,0
191472.036,22.461,18.066,32.227,17.578,31.250,0
191472.039,16.602,22.949,31.738,5.371,-17.578,0
191472.043,13.184,22.949,28.320,8.789,-22.949,0
191472.047,18.066,18.555,25.391,23.438,-23.926,0
191472.051,23.438,22.461,25.391,22.949,15.625,0
191472.055,23.438,28.809,19.531,17.090,20.996,0
191472.059,23.926,32.227,16.602,17.090,-25.879,0
191472.063,27.832,30.273,25.391,28.320,-20.020,0
191472.067,33.203,26.855,32.715,41.992,79.590,0
191472.071,34.180,27.344,37.109,27.344,87.891,0
191472.075,28.320,24.902,40.039,11.719,3.418,0
191472.079,24.902,19.531,37.598,21.973,16.602,0
191472.082,36.133,23.926,39.062,40.527,69.336,0
191472.086,38.086,27.344,37.598,30.273,77.637,0
191472.090,33.691,22.461,34.180,19.531,28.809,0
191472.094,37.109,21.484,33.691,26.367,-42.480,0
191472.098,40.039,19.531,27.344,41.016,29.297,0
191472.102,31.250,20.996,24.902,36.621,78.613,0
191472.106,17.578,20.020,27.832,19.531,28.320,0
191472.110,15.137,19.531,28.320,20.996,20.996,0
191472.114,33.203,25.391,31.250,44.434,68.359,0
191472.118,46.875,27.344,37.598,55.176,106.445,0
191472.122,39.551,31.738,37.598,31.738,60.547,0
191472.125,27.832,35.645,29.785,13.184,23.438,0
191472.129,36.133,33.203,29.785,31.738,74.219,0
191472.133,47.363,29.297,38.086,48.340,94.238,0
191472.137,30.273,26.367,38.086,19.531,33.691,0
191472.141,16.113,28.320,33.691,1.465,0.488,0
191472.145,19.043,29.785,36.133,18.066,64.453,0
191472.149,23.926,25.879,33.203,33.691,106.445,0
191472.153,27.344,21.973,25.879,20.996,47.852,0
191472.157,27.344,20.020,26.855,14.648,19.043,0
191472.161,28.320,20.508,32.227,25.879,13.672,0
191472.164,35.156,21.484,29.785,38.086,53.711,0
191472.168,37.109,24.414,26.855,34.668,40.039,0
191472.172,29.297,29.297,28.320,15.625,-12.207,0
191472.176,24.902,27.344,32.227,12.207,-10.742,0
191472.180,35.156,27.344,36.621,29.297,17.578,0
191472.184,40.039,24.414,37.109,35.645,10.254,0
191472.188,37.109,25.879,30.273,29.297,-24.414,0
191472.192,34.668,30.273,26.855,28.320,-41.992,0
191472.196,31.738,25.879,30.273,39.062,22.461,0
191472.200,37.598,27.344,31.738,55.664,86.914,0
191472.204,39.551,26.855,34.180,43.457,49.316,0
191472.207,31.250,20.996,35.645,24.414,-7.812,0
191472.211,26.367,24.902,38.086,32.227,-28.320,0
191472.215,31.250,28.320,37.598,46.387,30.273,0
191472.219,33.691,29.297,29.785,34.668,55.664,0
191472.223,30.762,25.391,33.691,16.113,5.859,0
191472.227,27.832,20.508,39.551,17.578,-11.230,0
191472.231,34.180,24.902,37.598,35.156,33.203,0
191472.235,45.898,29.297,33.203,42.969,45.898,0
191472.239,29.297,30.273,29.785,19.531,-1.465,0
191472.243,1.953,25.391,28.809,0.977,-34.180,0
191472.247,7.324,22.949,31.738,16.113,35.645,0
191472.250,22.949,21.973,34.180,29.297,84.961,0
191472.254,23.438,24.414,33.691,12.695,46.387,0
191472.258,21.973,29.297,25.879,7.324,22.461,0
191472.262,27.344,30.273,19.043,25.879,64.941,0
191472.266,34.180,25.879,25.879,35.645,107.422,0
191472.270,34.668,23.926,36.133,20.508,70.312,0
191472.274,31.250,28.320,40.527,9.277,0.977,0
191472.278,26.367,26.367,40.039,15.625,-14.160,0
191472.282,32.715,21.973,34.668,36.133,76.660,0
191472.286,39.551,25.879,27.832,34.180,58.594,0
191472.289,38.086,28.809,29.297,17.578,-20.020,0
191472.293,34.180,29.297,35.156,24.414,31.738,0
191472.297,34.668,28.320,32.715,42.969,75.195,0
191472.301,35.156,28.809,30.273,45.898,66.895,0
191472.305,32.715,26.855,33.691,38.086,36.621,0
191472.309,30.273,18.555,34.668,34.180,22.461,0
191472.313,26.855,17.578,37.109,38.086,72.754,0
191472.317,25.391,25.391,32.715,39.062,51.270,0
191472.321,27.832,31.250,35.156,27.344,-48.340,0
191472.325,25.391,28.809,41.016,22.949,-73.730,0
191472.329,20.020,22.949,36.621,31.738,-33.203,0
191472.332,25.391,24.902,34.180,36.133,13.184,0
191472.336,29.297,29.297,32.715,20.508,-1.465,0
191472.340,22.461,29.785,31.738,12.695,-33.203,0
191472.344,15.625,24.414,29.785,20.508,-32.715,0
191472.348,19.043,18.555,27.832,32.715,-5.859,0
191472.352,22.461,17.578,26.855,28.320,-6.836,0
191472.356,20.996,20.508,30.273,19.531,-39.062,0
191472.360,24.902,29.297,30.762,21.484,-57.617,0
191472.364,31.738,35.156,33.203,32.227,1.953,0
191472.368,30.762,32.227,30.762,35.156,45.410,0
191472.372,27.344,34.180,26.367,20.508,10.742,0
191472.375,23.926,34.180,34.180,12.695,-3.906,0
191472.379,26.855,28.809,38.086,24.414,5.859,0
191472.383,33.203,30.273,33.691,42.969,89.355,0
191472.387,32.715,33.203,28.809,34.668,89.355,0
191472.391,28.320,32.227,31.738,8.301,25.391,0
191472.395,26.367,29.785,36.621,8.301,44.434,0
191472.399,33.203,29.785,33.691,28.809,111.328,0
191472.403,35.156,28.320,26.367,20.996,114.258,0
191472.407,30.273,22.949,23.438,13.184,57.617,0
191472.411,25.391,26.367,24.902,21.973,58.594,0
191472.414,27.344,28.809,25.391,38.086,83.008,0
191472.418,33.203,24.902,22.949,31.738,44.434,0
191472.422,34.668,29.297,28.320,10.254,9.766,0
191472.426,28.320,31.250,41.016,16.602,59.082,0
191472.430,24.902,23.926,38.574,40.039,80.078,0
191472.434,31.738,21.973,33.691,37.109,73.730,1
191472.438,25.879,26.367,34.668,13.184,43.457,0
191472.442,15.137,25.391,35.645,15.625,14.160,0
191472.446,20.996,16.113,35.645,34.180,56.152,0
191472.450,32.715,17.090,35.156,44.434,103.516,0
191472.454,29.785,25.879,30.273,33.203,74.219,0
191472.457,23.926,31.738,27.344,16.113,32.227,0
191472.461,26.367,29.785,29.297,15.137,35.156,0
191472.465,33.691,26.367,28.809,29.785,31.250,0
191472.469,30.762,27.832,28.320,28.320,5.371,0
191472.473,22.949,30.273,34.668,18.555,-15.137,0
191472.477,23.926,29.297,39.062,20.020,0.488,0
191472.481,30.273,22.461,40.039,36.621,64.941,0
191472.485,31.250,22.461,36.621,33.203,89.355,0
191472.489,28.320,29.297,32.227,13.184,25.391,0
191472.493,23.438,28.809,31.250,13.184,-3.906,0
191472.497,20.996,22.949,26.367,23.926,50.781,0
191472.500,26.367,17.090,24.414,29.785,79.590,0
191472.504,24.902,20.508,31.250,18.555,38.086,0
191472.508,19.531,24.414,38.086,10.742,-18.555,0
191472.512,23.926,25.391,34.668,20.996,-41.016,0
191472.516,27.832,26.855,27.344,38.086,42.480,0
191472.520,20.996,28.809,30.762,28.809,67.871,0
191472.524,15.137,31.250,39.551,6.348,28.320,0
191472.528,16.602,27.344,41.504,9.766,19.043,0
191472.532,20.508,25.879,34.180,26.855,50.293,0
191472.536,20.508,27.344,23.926,24.414,50.293,0
191472.539,29.297,26.367,23.438,13.672,-16.113,0
191472.543,30.273,25.879,26.367,15.625,-31.250,0
191472.547,30.762,23.926,21.484,36.621,69.824,0
191472.551,37.598,23.438,20.020,38.574,121.094,0
191472.555,33.691,20.508,30.273,9.766,55.176,0
191472.559,26.855,18.066,38.574,5.371,-27.344,0
191472.563,25.879,21.973,40.527,22.949,-5.371,0
191472.567,32.715,25.879,34.180,30.273,78.613,0
191472.571,32.715,28.809,26.367,14.648,24.414,0
191472.575,28.809,33.203,28.320,6.836,-10.254,0
191472.579,30.273,30.762,31.250,23.926,59.082,0
191472.582,30.273,26.855,24.902,36.133,78.125,0
191472.586,26.367,27.832,19.043,25.879,23.926,0
191472.590,25.879,27.832,25.391,18.066,-21.973,0
191472.594,26.367,27.344,31.738,24.414,15.625,0
191472.598,30.762,28.809,35.645,40.039,59.570,0
191472.602,34.668,28.320,41.992,30.762,34.180,0
191472.606,30.762,27.344,39.062,15.137,-11.230,0
191472.610,25.391,28.320,27.344,20.020,-42.969,0
191472.614,33.203,26.367,25.391,32.227,-5.371,0
191472.618,38.574,26.367,30.273,30.762,20.508,0
191472.622,31.250,29.297,30.762,20.508,-19.043,0
191472.625,26.855,30.762,32.715,24.414,8.789,0
191472.629,30.762,27.832,38.086,39.062,35.645,0
191472.633,42.480,21.484,36.133,51.758,19.531,0
191472.637,40.039,26.855,32.715,40.527,5.859,0
191472.641,35.156,32.227,33.691,27.344,-33.691,0
191472.645,31.250,25.391,34.180,34.180,-18.066,0
191472.649,35.156,20.508,35.645,47.363,54.199,0
191472.653,38.574,18.555,39.551,40.039,51.758,0
191472.657,26.367,20.996,34.668,16.602,18.555,0
191472.661,19.531,26.367,30.273,9.277,0.000,0
191472.664,30.273,27.832,30.762,28.320,-1.465,0
191472.668,38.086,31.250,29.785,33.691,41.504,0
191472.672,31.738,33.691,26.855,19.043,51.270,0
191472.676,22.949,31.250,20.508,17.090,34.668,0
191472.680,24.902,26.855,22.461,33.203,34.668,0
191472.684,27.344,24.902,28.809,36.621,53.711,0
191472.688,22.461,22.949,26.855,19.531,47.852,0
191472.692,20.020,21.973,24.902,24.414,46.387,0
191472.696,22.461,18.555,31.738,42.480,28.320,0
191472.700,31.738,20.996,34.180,41.992,110.840,0
191472.704,32.715,25.391,35.156,24.414,133.789,0
191472.707,35.156,23.926,43.457,14.160,-8.301,0
191472.711,33.691,24.414,40.527,20.996,2.441,0
191472.715,29.785,22.949,31.250,41.992,115.723,0
191472.719,29.785,26.855,31.250,40.039,126.953,0
191472.723,26.855,35.645,32.227,25.879,58.105,0
191472.727,21.973,32.227,27.832,26.367,28.809,0
191472.731,20.508,22.461,28.320,31.738,62.500,0
191472.735,22.461,21.484,33.203,31.250,73.242,0
191472.739,20.508,25.391,33.203,17.578,31.738,0
191472.743,18.066,25.391,27.344,14.648,-14.160,0
191472.747,23.926,25.391,22.461,33.203,23.926,0
191472.750,34.180,27.832,25.391,30.273,67.871,0
191472.754,29.297,30.273,26.367,7.324,0.977,0
191472.758,20.020,32.715,28.809,6.348,-25.879,0
191472.762,19.043,26.855,34.180,19.531,-12.207,0
191472.766,20.996,24.902,32.715,29.785,23.926,0
191472.770,19.043,28.809,27.344,18.555,39.551,0
191472.774,13.672,28.809,30.273,8.789,8.789,0
191472.778,11.230,28.809,30.762,17.090,2.930,0
191472.782,19.043,27.832,28.320,28.809,36.133,0
191472.786,21.484,27.832,27.832,20.996,31.738,0
191472.789,18.066,30.273,22.461,6.836,1.953,0
191472.793,21.973,26.855,21.484,9.766,-40.527,0
191472.797,24.902,26.855,29.785,25.879,4.395,0
191472.801,24.414,30.273,31.738,29.297,45.898,0
191472.805,23.926,30.762,35.156,14.648,21.484,0
191472.809,20.508,30.762,40.039,10.254,26.367,0
191472.813,28.320,26.367,41.504,26.367,27.344,0
191472.817,36.133,24.902,40.527,39.062,58.105,0
191472.821,31.250,31.738,33.691,21.973,38.574,0
191472.825,27.344,27.832,28.809,7.812,8.301,0
191472.829,25.391,20.020,28.320,19.043,20.508,0
191472.832,28.809,20.508,32.227,35.156,54.688,0
191472.836,32.227,26.855,31.250,25.879,54.688,0
191472.840,29.785,30.273,21.484,13.184,-5.371,0
191472.844,23.926,30.273,21.484,20.020,-7.812,0
191472.848,24.414,30.273,35.645,32.715,55.176,0
191472.852,29.297,31.738,42.969,30.273,9.277,0
191472.856,34.180,31.738,39.551,21.973,-32.715,0
191472.860,26.855,27.832,36.621,16.602,5.859,0
191472.864,18.555,25.879,35.156,18.555,52.246,0
191472.868,22.461,26.367,33.691,18.066,71.777,0
191472.872,22.949,24.414,34.668,4.395,39.062,0
191472.875,21.973,22.461,32.227,4.883,5.371,0
191472.879,23.926,23.438,25.391,21.973,23.438,0
191472.883,30.273,22.949,27.344,37.109,66.406,0
191472.887,34.668,24.902,29.297,23.926,30.762,0
191472.891,39.551,30.762,18.555,19.043,-8.789,0
191472.895,42.969,32.715,21.973,33.691,23.438,0
191472.899,41.992,27.344,34.180,40.039,74.219,0
191472.903,32.227,25.391,35.645,27.344,45.898,0
191472.907,23.438,25.391,38.086,17.578,1.465,0
191472.911,19.531,25.879,43.457,28.809,12.695,0
191472.914,24.414,26.855,42.480,43.457,39.062,0
191472.918,29.297,29.785,38.086,38.574,23.438,0
191472.922,24.414,34.180,37.109,20.996,-43.945,0
191472.926,19.531,31.738,36.621,11.719,-38.086,0
191472.930,24.902,31.738,33.691,23.438,-6.348,0
191472.934,29.297,35.645,30.762,26.367,-3.906,0
191472.938,20.508,32.715,29.297,10.742,-17.090,0
191472.942,14.648,29.297,25.879,7.324,-29.297,0
191472.946,18.555,31.250,22.461,24.414,-0.488,0
191472.950,24.902,29.785,28.320,36.133,49.316,0
191472.954,25.391,23.926,38.086,22.949,35.645,0
191472.957,22.949,22.949,39.062,9.766,-12.207,0
191472.961,23.438,28.320,35.645,15.625,-5.371,0
191472.965,24.902,24.902,31.738,34.180,58.105,0
191472.969,27.344,23.438,29.297,30.762,48.340,0
191472.973,28.809,27.344,32.715,14.160,-24.902,0
191472.977,21.484,29.297,38.086,15.625,-54.199,0
191472.981,22.461,32.715,36.621,32.227,-40.039,0
191472.985,28.320,36.133,35.156,31.250,-0.977,0
191472.989,28.320,33.691,33.691,20.508,-15.137,1
191472.993,23.926,29.785,27.344,7.812,-75.684,0
191472.997,23.926,27.832,18.066,9.766,-20.508,0
191473.000,31.738,31.738,22.461,26.855,44.434,0
191473.004,28.809,37.109,26.855,20.508,11.230,0
191473.008,17.578,32.715,20.996,9.766,-16.113,0
191473.012,16.602,24.414,27.344,9.277,-9.766,0
191473.016,30.762,25.391,34.180,21.484,-7.324,0
191473.020,37.109,30.762,34.668,20.020,-25.879,0
191473.024,29.297,30.273,35.156,9.766,-56.641,0
191473.028,15.137,28.809,30.762,4.395,-73.730,0
191473.032,14.160,30.273,30.273,16.602,-1.465,0
191473.036,20.020,29.297,30.762,8.789,-13.672,0
191473.039,16.113,25.879,32.227,-8.301,-74.707,0
191473.043,15.137,26.367,34.180,6.348,-47.363,0
191473.047,21.484,24.902,29.297,25.879,-5.371,0
191473.051,26.367,25.879,29.297,33.203,-2.930,0
191473.055,23.926,30.762,24.414,26.367,-54.688,0
191473.059,17.090,27.832,28.320,16.602,-57.129,0
191473.063,15.137,18.555,36.621,21.973,-4.395,0
191473.067,17.090,17.090,35.645,31.738,23.926,0
191473.071,20.020,26.367,35.645,17.578,6.836,0
191473.075,20.508,28.809,32.227,10.254,-10.742,0
191473.079,15.625,22.949,34.668,22.949,9.766,0
191473.082,16.602,18.555,39.551,32.227,66.406,0
191473.086,21.484,25.391,39.551,29.785,84.961,0
191473.090,29.785,36.133,32.715,27.344,48.340,0
191473.094,31.738,35.156,24.902,27.344,54.199,0
191473.098,30.273,31.250,29.297,40.039,99.121,0
191473.102,36.133,25.391,32.227,37.598,115.234,0
191473.106,31.738,27.344,25.879,17.578,79.102,0
191473.110,18.066,30.273,21.484,11.719,14.160,0
191473.114,24.902,30.762,27.344,30.273,46.875,0
191473.118,27.832,29.297,36.133,31.250,101.074,0
191473.122,21.484,27.832,34.668,8.789,41.992,0
191473.125,20.996,26.367,33.691,8.301,-0.977,0
191473.129,24.902,21.973,37.109,19.043,1.953,0
191473.133,34.180,23.438,34.668,32.715,55.176,0
191473.137,28.809,23.438,34.668,26.367,50.781,0
191473.141,23.926,23.438,35.645,18.066,10.742,0
191473.145,24.902,26.855,28.320,27.344,37.598,0
191473.149,26.855,27.832,25.879,41.016,96.191,0
191473.153,25.879,29.297,32.227,35.645,63.477,0
191473.157,21.973,30.762,35.645,23.926,8.301,0
191473.161,20.508,29.785,33.691,23.926,-0.488,0
191473.164,24.902,27.344,31.250,35.645,29.785,0
191473.168,27.832,28.320,28.809,40.039,64.453,0
191473.172,24.902,30.273,31.250,20.508,13.184,0
191473.176,20.996,28.809,29.785,13.184,-19.043,0
191473.180,20.996,25.391,27.344,37.109,60.059,0
191473.184,28.809,23.926,33.691,42.969,91.797,0
191473.188,26.367,27.344,37.598,20.508,36.621,0
191473.192,20.020,29.785,32.715,15.137,49.316,0
191473.196,21.484,25.391,31.250,24.414,83.984,0
191473.200,25.879,23.438,34.668,27.344,89.844,0
191473.204,24.414,26.367,34.180,19.531,46.875,0
191473.207,27.832,28.809,32.715,14.160,16.113,0
191473.211,31.738,25.391,36.133,22.949,7.324,0
191473.215,35.645,24.414,35.645,34.180,29.785,0
191473.219,38.574,25.879,35.645,26.367,58.594,0
191473.223,30.762,26.855,37.109,19.043,19.043,0
191473.227,24.414,28.320,37.109,24.414,33.203,0
191473.231,26.367,28.809,36.133,37.109,74.707,0
191473.235,29.785,30.762,35.156,38.086,95.703,0
191473.239,25.391,32.227,33.691,25.391,70.312,0
191473.243,18.066,29.297,32.715,21.484,40.527,0
191473.247,22.461,24.902,33.203,32.227,93.750,0
191473.250,35.156,24.902,31.738,41.504,105.469,0
191473.254,34.668,28.809,30.273,29.297,24.414,0
191473.258,25.391,30.273,31.738,18.555,0.977,0
191473.262,22.949,28.320,33.691,23.438,9.766,0
191473.266,30.762,27.832,31.250,40.527,63.477,0
191473.270,28.320,28.809,29.785,37.598,84.473,0
191473.274,23.926,28.320,29.297,23.438,23.926,0
191473.278,28.809,25.391,30.273,28.320,11.230,0
191473.282,37.598,23.438,33.203,49.316,58.594,0
191473.286,30.762,21.484,35.645,49.316,50.781,0
191473.289,27.832,24.414,32.227,28.320,-12.207,0
191473.293,32.227,27.832,32.715,21.484,-21.484,0
191473.297,32.715,25.879,39.062,32.715,34.180,0
191473.301,37.109,24.902,39.062,37.109,57.617,0
191473.305,32.715,29.785,36.133,16.602,-11.719,0
191473.309,23.926,31.738,30.762,7.812,-29.785,0
191473.313,28.320,26.367,28.320,30.762,37.109,0
191473.317,36.621,27.832,25.879,43.945,70.801,0
191473.321,36.621,34.180,25.391,24.414,22.949,0
191473.325,28.809,30.273,32.227,13.672,4.395,0
191473.329,23.438,25.391,34.180,21.973,23.926,0
191473.332,28.320,25.391,33.691,34.180,62.988,0
191473.336,26.367,27.832,29.785,22.461,57.617,0
191473.340,22.461,28.809,26.855,8.789,3.418,0
191473.344,21.484,25.879,28.320,14.648,-0.977,0
191473.348,25.391,27.344,25.391,33.691,63.965,0
191473.352,30.273,32.227,26.855,40.527,29.297,0
191473.356,29.785,36.621,29.297,20.508,-50.781,0
191473.360,24.414,30.762,23.438,6.836,-62.988,0
191473.364,22.461,23.438,18.066,21.973,-3.418,0
191473.368,26.855,22.949,27.344,24.902,24.902,0
191473.372,23.926,25.879,37.598,8.301,3.906,0
191473.375,16.602,25.391,37.598,3.418,-2.441,0
191473.379,21.484,25.391,36.621,20.996,28.320,0
191473.383,33.203,27.832,37.109,40.527,39.551,0
191473.387,32.227,28.320,31.738,23.926,-14.160,0
191473.391,26.855,30.762,23.926,14.160,11.230,0
191473.395,33.691,30.273,21.973,35.156,38.086,0
191473.399,39.551,27.344,24.414,47.852,59.570,0
191473.403,28.320,27.832,22.949,24.902,63.965,0
191473.407,24.902,27.832,24.414,16.113,31.250,0
191473.411,26.367,24.902,36.621,29.297,20.508,0
191473.414,27.832,23.926,40.039,42.480,61.523,0
191473.418,31.738,25.879,38.574,40.527,84.961,0
191473.422,28.809,28.809,39.062,21.973,19.531,0
191473.426,26.855,33.203,38.086,19.043,-20.996,0
191473.430,34.180,34.180,31.250,33.691,47.363,0
191473.434,35.156,34.668,27.344,41.992,69.824,0
191473.438,31.250,35.645,39.062,24.414,-2.441,0
191473.442,33.691,33.203,43.457,12.207,-25.391,0
191473.446,33.203,28.809,32.715,25.391,-12.207,0
191473.450,37.598,25.879,24.414,30.762,32.715,0
191473.454,39.551,25.879,28.320,15.625,8.789,0
191473.457,28.320,28.809,33.691,2.441,-93.262,0
191473.461,18.555,28.320,25.879,7.324,-42.480,0
191473.465,25.879,26.855,16.602,28.320,31.250,0
191473.469,33.691,26.855,21.484,26.855,25.391,0
191473.473,28.809,23.926,30.762,16.602,-11.719,0
191473.477,21.484,23.926,33.203,23.438,-53.223,0
191473.481,27.344,27.344,32.715,39.062,12.207,0
191473.485,33.691,32.715,27.832,42.480,17.090,0
191473.489,28.320,32.715,30.762,20.996,-46.875,0
191473.493,26.855,27.344,34.668,10.742,-43.945,0
191473.497,30.273,23.926,30.762,32.715,-14.648,0
191473.500,35.156,31.250,33.691,37.598,1.953,0
191473.504,28.809,37.109,33.691,13.184,-8.301,0
191473.508,25.879,35.156,31.250,6.836,15.625,0
191473.512,37.109,34.668,34.668,24.902,35.156,0
191473.516,42.969,33.203,34.668,41.992,67.871,0
191473.520,39.062,34.180,32.227,33.203,46.387,0
191473.524,40.039,36.621,37.109,26.855,16.113,0
191473.528,30.762,33.203,36.621,30.273,59.570,0
191473.532,22.949,29.297,32.227,33.691,41.016,0
191473.536,25.879,30.762,31.250,29.785,14.160,0
191473.539,21.973,30.273,31.250,16.113,-2.930,0
191473.543,18.066,29.785,28.809,9.766,-12.207,1
191473.547,18.555,27.832,23.926,19.043,12.207,0
191473.551,33.203,33.691,22.949,30.273,18.066,0
191473.555,41.016,40.527,22.461,29.785,-15.137,0
191473.559,30.273,34.668,22.461,18.066,-15.625,0
191473.563,32.227,28.809,29.297,28.320,36.133,0
191473.567,38.086,28.320,35.156,43.457,62.988,0
191473.571,31.250,32.227,34.668,24.414,30.762,0
191473.575,29.785,29.785,35.156,19.043,-15.137,0
191473.579,33.203,22.461,40.039,36.621,31.250,0
191473.582,33.691,22.949,38.086,46.875,109.863,0
191473.586,27.832,29.297,24.414,33.203,68.359,0
191473.590,25.391,36.133,23.438,12.695,-10.254,0
191473.594,22.461,37.598,28.809,10.742,13.672,0
191473.598,23.926,27.832,29.297,35.156,103.027,0
191473.602,30.273,22.461,27.344,37.109,89.844,0
191473.606,23.926,25.391,24.902,12.207,9.766,0
191473.610,19.043,25.879,32.715,15.625,-15.137,0
191473.614,23.926,24.414,40.039,41.992,31.250,0
191473.618,25.879,23.438,39.551,48.340,40.039,0
191473.622,20.020,24.902,37.598,23.926,-41.016,0
191473.625,14.648,27.344,35.645,10.254,-39.062,0
191473.629,17.578,25.879,28.320,24.902,39.551,0
191473.633,23.438,23.438,23.438,34.668,43.945,0
191473.637,21.484,22.461,27.344,18.066,-58.594,0
191473.641,21.484,22.949,32.715,16.113,-62.012,0
191473.645,29.297,31.250,34.180,33.691,21.484,0
191473.649,34.668,30.273,32.227,40.527,46.875,0
191473.653,33.203,25.879,30.273,29.785,75.684,0
191473.657,26.855,26.855,29.297,17.090,62.500,0
191473.661,21.484,29.297,29.297,19.531,32.715,0
191473.664,29.297,30.762,28.320,41.016,49.805,0
191473.668,34.180,33.203,29.785,43.457,40.527,0
191473.672,27.344,34.668,29.297,23.926,-18.066,0
191473.676,23.438,32.227,30.762,23.926,-21.484,0
191473.680,29.297,27.344,37.598,38.086,35.156,0
191473.684,30.762,25.879,37.109,34.180,35.645,0
191473.688,34.180,28.320,38.574,20.996,5.371,0
191473.692,38.086,24.414,38.086,20.996,13.184,0
191473.696,37.598,20.020,31.738,28.320,20.996,0
191473.700,37.109,20.996,31.250,34.668,27.344,0
191473.704,28.809,27.832,31.250,23.438,14.648,0
191473.707,22.949,32.715,28.809,13.184,-29.297,0
191473.711,20.508,27.344,28.809,17.578,13.184,0
191473.715,26.855,21.973,24.902,26.367,100.098,0
191473.719,32.715,24.902,25.879,20.508,108.398,0
191473.723,33.203,34.180,28.320,5.371,56.641,0
191473.727,32.715,22.949,26.367,13.184,20.020,0
191473.731,36.621,14.648,28.320,43.457,47.363,0
191473.735,40.527,30.273,29.297,41.504,72.754,0
191473.739,28.809,38.086,28.320,17.090,49.805,0
191473.743,18.555,37.109,24.414,14.160,-0.488,0
191473.747,18.555,30.762,25.391,34.180,33.203,0
191473.750,24.902,27.344,28.320,40.039,97.656,0
191473.754,26.367,28.320,31.250,14.648,72.266,0
191473.758,20.996,27.344,31.250,8.301,25.879,0
191473.762,23.926,24.902,31.250,25.391,45.410,0
191473.766,31.250,26.855,38.574,41.016,66.406,0
191473.770,29.297,29.297,35.156,26.855,59.082,0
191473.774,25.391,31.250,30.762,10.254,14.648,0
191473.778,24.414,31.250,32.715,20.508,8.789,0
191473.782,30.762,28.320,25.391,40.039,93.262,0
191473.786,34.180,28.320,22.461,31.738,50.781,0
191473.789,32.715,30.273,28.320,8.301,-25.391,0
191473.793,31.738,26.367,31.738,12.695,0.000,0
191473.797,32.715,22.461,31.250,29.297,32.715,0
191473.801,34.668,23.926,29.297,29.297,59.570,0
191473.805,28.809,23.926,26.855,17.578,53.223,0
191473.809,23.926,24.902,31.738,26.855,39.551,0
191473.813,23.926,23.926,38.574,40.039,23.438,0
191473.817,25.391,22.461,30.273,33.203,28.320,0
191473.821,25.879,26.855,16.602,11.719,-2.441,0
191473.825,23.438,29.785,17.578,5.859,-30.273,0
191473.829,18.555,27.344,24.414,18.555,0.977,0
191473.832,22.949,29.785,29.785,29.297,14.160,0
191473.836,24.414,34.668,33.691,17.578,-4.395,0
191473.840,22.949,36.133,30.762,10.742,-49.316,0
191473.844,27.832,29.297,31.738,23.438,-49.805,0
191473.848,33.691,25.391,36.133,41.016,-17.578,0
191473.852,30.273,27.344,38.086,34.180,-0.488,0
191473.856,24.414,27.832,36.133,14.648,-12.207,0
191473.860,19.531,27.344,33.691,19.043,-25.879,0
191473.864,21.484,24.902,27.344,31.738,5.859,0
191473.868,30.273,25.391,23.926,34.180,33.203,0
191473.872,30.762,29.785,28.809,23.926,12.207,0
191473.875,25.879,29.785,33.203,13.184,-44.922,0
191473.879,25.391,27.344,29.297,25.391,-20.508,0
191473.883,30.273,26.855,27.832,44.922,69.824,0
191473.887,32.227,31.738,28.809,35.156,74.219,0
191473.891,29.297,33.203,23.438,29.297,26.367,0
191473.895,27.344,27.832,25.879,37.109,43.945,0
191473.899,34.668,27.344,28.320,46.387,91.309,0
191473.903,31.250,28.320,26.855,33.203,70.801,0
191473.907,24.902,28.320,34.180,18.555,32.227,0
191473.911,23.438,28.320,38.086,22.949,24.414,0
191473.914,24.414,26.367,30.273,36.133,61.035,0
191473.918,32.715,29.297,22.949,37.109,75.684,0
191473.922,36.133,33.691,26.367,20.020,5.859,0
191473.926,25.391,27.832,31.738,17.578,-25.391,0
191473.930,21.973,23.438,38.086,34.668,58.105,0
191473.934,25.879,26.367,34.180,41.016,98.145,0
191473.938,23.438,29.785,30.762,23.926,54.199,0
191473.942,20.508,28.809,37.109,24.414,12.207,0
191473.946,26.855,29.297,34.668,44.922,53.223,0
191473.950,39.062,28.320,30.273,49.805,117.188,0
191473.954,30.273,25.391,34.668,29.297,49.316,0
191473.957,17.578,27.832,34.180,14.160,1.465,0
191473.961,17.090,29.785,33.203,23.438,54.688,0
191473.965,23.438,32.715,33.203,42.969,104.004,0
191473.969,28.809,32.227,28.320,30.762,70.312,0
191473.973,27.344,27.344,31.738,12.207,24.902,0
191473.977,23.438,26.855,37.598,18.555,51.270,0
191473.981,26.855,28.320,39.062,32.227,90.820,0
191473.985,25.879,32.227,33.203,30.762,88.867,0
191473.989,23.926,36.621,24.414,19.531,48.828,0
191473.993,26.855,35.156,24.902,19.043,31.250,0
191473.997,22.949,25.879,27.832,26.855,58.105,0
191474.000,26.367,26.367,22.461,35.645,86.426,0
191474.004,27.832,33.203,24.414,23.438,55.664,0
191474.008,24.902,30.762,38.574,20.996,33.203,0
191474.012,23.926,28.809,36.133,31.738,42.480,0
191474.016,25.879,27.344,25.391,40.039,81.055,0
191474.020,33.203,29.297,27.344,27.832,74.219,0
191474.024,23.926,29.297,36.133,7.812,5.371,0
191474.028,11.719,25.391,38.086,19.531,0.977,0
191474.032,21.484,26.855,32.227,40.039,52.246,0
191474.036,26.367,27.344,28.809,23.926,48.828,0
191474.039,21.973,28.320,30.273,5.371,-16.113,0
191474.043,31.738,33.691,30.762,18.555,-15.625,0
191474.047,38.086,32.715,35.156,40.039,55.664,0
191474.051,27.344,30.273,32.715,35.156,61.523,0
191474.055,12.695,29.297,30.762,1.953,-14.160,0
191474.059,12.207,28.320,36.133,-8.301,-47.852,0
191474.063,18.066,31.738,38.086,17.578,-2.441,0
191474.067,14.160,27.344,38.574,26.855,23.438,0
191474.071,7.324,21.973,35.645,5.371,-4.883,0
191474.075,6.836,26.855,33.691,-3.418,-20.508,0
191474.079,4.395,28.320,33.691,8.301,-4.883,0
191474.082,8.789,25.879,29.297,25.391,51.270,0
191474.086,15.625,20.020,30.762,18.555,22.461,0
191474.090,16.113,18.066,37.598,4.883,-32.227,0
191474.094,14.160,22.461,31.250,11.230,-6.348,0
191474.098,16.113,24.414,23.438,31.738,44.922,0
191474.102,19.043,26.855,31.250,31.250,39.551,0
191474.106,20.020,23.438,32.715,14.160,-18.555,0
191474.110,21.973,27.832,29.297,23.926,-22.461,0
191474.114,24.902,28.320,34.180,36.621,0.000,0
191474.118,26.855,23.926,34.668,23.926,4.395,0
191474.122,24.902,26.367,36.133,6.348,-9.766,0
191474.125,19.043,29.297,41.992,11.719,-4.395,0
191474.129,21.484,21.484,32.715,28.320,38.086,0
191474.133,28.320,21.973,22.461,29.297,77.637,0
191474.137,26.367,37.109,24.414,6.836,62.988,0
191474.141,27.344,40.527,24.414,0.977,33.691,0
191474.145,25.879,38.086,23.438,18.555,14.160,0
191474.149,24.902,36.621,22.461,32.715,52.734,0
191474.153,29.785,39.062,28.320,21.484,67.383,0
191474.157,30.273,39.551,35.156,7.812,24.902,0
191474.161,28.809,30.762,31.250,14.648,2.930,0
191474.164,31.250,17.090,26.367,34.668,24.902,0
191474.168,36.621,14.160,28.320,32.715,57.617,0
191474.172,37.598,26.367,30.762,13.672,14.648,0
191474.176,28.320,33.691,34.668,22.949,-15.625,1
191474.180,25.391,32.227,40.039,46.875,23.438,0
191474.184,29.297,33.203,35.156,44.434,50.781,0
191474.188,28.320,34.668,28.320,16.602,16.113,0
191474.192,23.926,31.250,27.832,7.812,-20.996,0
191474.196,23.438,23.926,32.227,23.438,-0.977,0
191474.200,31.738,26.367,39.062,39.551,35.156,0
191474.204,32.715,28.320,41.992,29.297,-2.930,0
191474.207,31.250,30.762,37.109,15.625,-79.590,0
191474.211,30.762,32.227,29.785,20.996,-63.965,0
191474.215,28.809,21.973,24.902,41.992,30.273,0
191474.219,22.461,19.531,26.367,30.762,27.832,0
191474.223,19.531,24.414,31.250,5.859,-41.504,0
191474.227,22.949,29.297,35.645,12.207,-25.391,0
191474.231,26.367,27.344,39.551,33.203,27.832,0
191474.235,32.227,25.391,34.180,43.457,30.762,0
191474.239,38.086,36.133,30.273,22.949,-20.508,0
191474.243,37.109,40.527,40.039,8.301,-39.551,0
191474.247,34.180,37.109,42.969,29.297,-22.949,0
191474.250,36.621,35.156,35.645,42.969,0.977,0
191474.254,40.039,35.156,31.738,28.320,-3.418,0
191474.258,37.598,38.086,33.203,20.996,2.441,0
191474.262,29.785,31.738,34.180,32.227,21.484,0
191474.266,33.203,27.344,34.180,47.363,45.898,0
191474.270,35.645,34.668,33.691,36.621,47.852,0
191474.274,31.250,38.574,31.738,24.414,31.250,0
191474.278,27.344,35.645,31.250,33.691,55.664,0
191474.282,30.273,32.715,34.180,52.246,101.074,0
191474.286,35.156,36.621,27.344,42.969,95.703,0
191474.289,33.203,34.668,23.438,23.438,33.691,0
191474.293,17.578,26.367,33.203,16.602,2.441,0
191474.297,13.184,28.809,34.668,21.484,3.906,0
191474.301,22.461,27.832,31.250,25.391,26.855,0
191474.305,26.855,26.367,37.598,12.207,14.160,0
191474.309,24.902,32.715,39.551,8.301,-28.320,0
191474.313,22.461,31.738,37.109,27.344,-5.371,0
191474.317,27.832,30.273,36.133,39.551,46.875,0
191474.321,26.367,35.645,33.203,18.555,27.344,0
191474.325,24.902,39.062,30.273,4.395,-8.789,0
191474.329,31.250,38.086,30.762,22.949,36.133,0
191474.332,36.621,34.180,35.645,43.457,96.191,0
191474.336,40.527,32.227,27.344,35.156,60.059,0
191474.340,39.551,31.250,18.555,19.531,10.742,0
191474.344,30.273,28.809,26.367,24.902,21.973,0
191474.348,27.344,27.344,32.715,41.016,71.289,0
191474.352,30.762,23.926,23.926,37.109,102.539,0
191474.356,28.320,28.320,21.973,18.555,64.941,0
191474.360,20.020,37.109,31.250,21.973,34.180,0
191474.364,19.043,34.180,38.086,38.086,73.730,0
191474.368,26.367,31.250,40.527,35.156,117.188,0
191474.372,31.738,36.133,41.504,20.996,41.016,0
191474.375,26.855,37.598,35.645,18.066,17.090,0
191474.379,23.926,29.785,22.949,28.320,58.594,0
191474.383,23.438,19.531,21.973,40.039,58.594,0
191474.387,20.996,21.484,27.344,18.555,-21.484,0
191474.391,23.926,28.320,21.484,4.395,-37.598,0
191474.395,21.973,30.762,22.949,30.273,25.391,0
191474.399,26.367,30.273,38.574,41.992,106.934,0
191474.403,31.250,26.855,46.875,25.391,110.352,0
191474.407,33.691,25.879,48.340,15.137,60.059,0
191474.411,32.227,25.391,41.992,23.926,77.637,0
191474.414,33.691,26.367,27.344,43.457,92.773,0
191474.418,34.180,29.297,24.902,40.527,64.941,0
191474.422,32.715,32.227,30.762,26.855,60.059,0
191474.426,30.273,27.832,33.691,30.273,80.078,0
191474.430,28.809,27.344,38.086,35.645,94.238,0
191474.434,33.691,32.227,30.273,31.250,105.469,0
191474.438,35.645,37.109,23.926,22.461,67.871,0
191474.442,31.738,33.691,33.203,13.672,53.711,0
191474.446,29.785,25.391,34.180,22.461,66.406,0
191474.450,36.621,27.832,30.762,41.504,75.684,0
191474.454,35.156,31.250,25.879,26.855,37.598,0
191474.457,27.832,26.367,24.414,11.230,-30.762,0
191474.461,29.297,27.344,32.227,25.391,-8.789,0
191474.465,36.133,35.645,32.715,49.316,67.383,0
191474.469,36.133,38.574,28.809,42.480,30.273,0
191474.473,30.762,37.598,30.762,20.996,-26.855,0
191474.477,25.879,33.691,30.762,21.484,-17.090,0
191474.481,24.414,27.832,26.367,38.086,-0.488,0
191474.485,28.320,27.832,27.832,44.922,40.527,0
191474.489,30.762,31.738,28.809,19.531,20.020,0
191474.493,23.926,28.809,31.738,0.977,-22.949,0
191474.497,20.508,26.367,34.668,19.531,26.367,0
191474.500,25.391,27.832,31.250,39.551,39.551,0
191474.504,29.297,32.715,29.297,27.344,-17.578,0
191474.508,29.785,34.668,35.156,21.973,-17.578,0
191474.512,29.785,31.250,33.691,35.156,7.812,0
191474.516,37.109,30.273,25.391,46.875,24.902,0
191474.520,41.016,32.227,30.273,35.156,5.859,0
191474.524,41.504,30.762,30.273,26.367,-38.574,0
191474.528,36.621,29.785,29.785,26.367,-26.855,0
191474.532,37.598,33.203,38.086,39.062,59.570,0
191474.536,36.621,29.297,38.574,33.203,46.875,0
191474.539,27.344,24.902,36.621,9.766,-30.762,0
191474.543,23.438,30.273,41.992,18.066,1.465,0
191474.547,26.367,30.762,42.969,42.480,75.195,0
191474.551,30.762,29.297,34.668,45.898,101.562,0
191474.555,33.691,26.855,29.297,26.855,38.574,0
191474.559,29.785,23.926,27.344,18.555,36.621,0
191474.563,24.414,23.926,29.785,31.738,89.355,0
191474.567,31.738,24.414,25.391,43.457,96.680,0
191474.571,42.480,35.645,27.344,31.250,83.984,0
191474.575,34.180,41.504,42.480,17.578,51.758,0
191474.579,22.461,39.551,40.527,21.484,59.570,0
191474.582,28.320,34.180,34.180,34.668,66.895,0
191474.586,29.297,34.668,28.320,22.949,54.199,0
191474.590,25.391,37.109,26.367,7.324,43.457,0
191474.594,25.879,34.668,30.762,21.484,20.508,0
191474.598,29.297,27.344,32.227,40.039,50.781,0
191474.602,29.297,25.391,31.738,27.344,93.262,0
191474.606,27.344,33.203,25.879,9.766,29.785,0
191474.610,25.391,38.086,27.832,4.395,-33.203,0
191474.614,24.902,36.621,24.902,14.648,-15.625,0
191474.618,25.391,37.109,24.902,22.461,12.207,0
191474.622,18.066,39.062,34.668,4.395,-35.156,0
191474.625,10.254,32.227,36.133,-3.418,-86.914,0
191474.629,10.254,26.367,33.203,10.254,-83.008,0
191474.633,14.648,29.297,29.297,23.926,-17.090,0
191474.637,15.137,38.086,36.133,12.695,-6.836,0
191474.641,8.301,38.574,40.039,-4.883,-42.969,0
191474.645,-1.465,31.250,34.180,-3.418,-16.113,0
191474.649,3.418,29.297,33.691,14.648,51.270,0
191474.653,-3.906,30.762,30.273,-2.441,17.090,0
191474.657,-25.879,31.250,26.855,-36.133,-47.852,0
191474.661,-36.621,31.738,28.320,-39.551,-16.113,0
191474.664,-28.809,27.832,29.785,-16.602,31.250,0
191474.668,-19.531,23.926,25.391,-13.672,67.871,0
191474.672,-29.785,23.438,21.484,-37.598,3.906,0
191474.676,-47.852,22.461,27.344,-54.199,-8.301,0
191474.680,-47.363,32.715,34.668,-41.504,56.641,0
191474.684,-41.016,41.504,38.086,-33.691,48.828,0
191474.688,-48.828,40.039,26.367,-55.664,-10.742,0
191474.692,-59.570,38.574,20.020,-70.312,-34.668,0
191474.696,-66.895,34.180,33.203,-66.895,0.977,0
191474.700,-65.430,20.996,40.039,-58.594,37.598,0
191474.704,-61.523,12.207,40.527,-68.359,42.480,0
191474.707,-58.594,13.184,39.062,-76.660,23.926,0
191474.711,-60.547,26.367,32.715,-63.477,30.762,0
191474.715,-57.617,37.598,34.668,-47.363,49.316,0
191474.719,-49.316,39.551,38.086,-58.105,34.180,0
191474.723,-43.457,36.133,32.715,-65.430,-7.324,0
191474.727,-32.715,24.414,31.250,-46.875,-26.367,0
191474.731,-25.391,17.090,31.738,-20.996,48.340,0
191474.735,-26.855,25.879,31.250,-12.695,79.102,0
191474.739,-24.414,36.621,31.250,-29.297,47.852,0
191474.743,-23.438,35.645,25.391,-37.109,23.926,0
191474.747,-19.043,27.832,22.949,-15.625,50.293,0
191474.750,-5.371,24.902,26.855,2.930,79.590,0
191474.754,0.488,31.738,28.320,-6.348,15.625,0
191474.758,1.953,35.156,26.855,-9.766,-52.734,0
191474.762,11.719,30.273,30.273,3.906,-40.039,0
191474.766,22.461,23.438,35.156,21.973,56.152,0
191474.770,28.320,29.297,25.391,19.043,52.246,0
191474.774,28.320,35.645,17.578,9.766,-10.254,0
191474.778,23.926,30.273,22.461,20.508,14.160,0
191474.782,30.273,32.227,24.902,41.992,65.918,0
191474.786,42.969,35.645,26.855,44.922,58.594,0
191474.789,42.480,31.738,30.273,29.297,17.090,0
191474.793,32.715,24.414,34.180,21.973,12.207,0
191474.797,36.133,24.902,32.227,40.527,58.105,0
191474.801,40.527,36.133,31.250,45.898,68.359,0
191474.805,37.598,37.598,30.762,22.461,-24.414,0
191474.809,41.992,34.180,30.273,25.879,-44.434,0
191474.813,46.875,29.297,31.738,56.641,44.434,0
191474.817,50.293,28.809,25.879,70.312,95.215,0
191474.821,58.105,31.250,26.855,58.105,67.383,0
191474.825,62.500,25.391,33.203,53.223,24.414,1
191474.829,63.965,23.926,35.156,75.195,42.480,0
191474.832,71.777,23.926,32.715,94.727,85.938,0
191474.836,71.777,26.367,31.250,67.383,58.105,0
191474.840,71.777,33.203,32.715,46.387,19.531,0
191474.844,62.988,33.691,30.273,56.641,39.062,0
191474.848,52.246,33.203,28.320,71.777,53.223,0
191474.852,55.664,30.762,26.855,64.941,14.160,0
191474.856,53.711,29.297,32.715,47.852,1.465,0
191474.860,48.340,25.879,43.945,46.387,30.762,0
191474.864,50.781,19.531,42.969,59.082,47.852,0
191474.868,52.246,21.484,39.062,56.152,30.273,0
191474.872,53.711,27.832,38.574,38.574,54.688,0
191474.875,53.223,27.344,34.668,42.969,55.176,0
191474.879,49.805,21.484,27.344,60.059,73.242,0
191474.883,60.059,22.949,21.973,65.430,130.371,0
191474.887,66.895,26.367,22.461,55.664,90.332,0
191474.891,62.012,31.738,31.738,51.270,41.504,0
191474.895,64.941,28.320,40.039,50.293,43.457,0
191474.899,69.824,28.320,35.645,58.105,37.109,0
191474.903,61.035,34.668,28.320,52.734,13.184,0
191474.907,55.664,30.762,26.367,45.410,-17.578,0
191474.911,52.734,27.832,29.785,46.875,-30.762,0
191474.914,51.758,20.508,36.133,56.152,-1.953,0
191474.918,54.688,13.672,31.250,65.430,48.340,0
191474.922,53.711,24.902,18.555,50.293,23.926,0
191474.926,50.293,31.250,26.367,46.387,-43.945,0
191474.930,51.758,27.344,42.480,62.500,-16.602,0
191474.934,49.805,32.227,41.016,64.941,47.852,0
191474.938,46.387,40.039,34.180,47.852,15.137,0
191474.942,48.340,34.668,35.156,44.434,-9.277,0
191474.946,57.129,26.367,31.738,61.523,47.363,0
191474.950,60.547,25.879,20.508,72.754,28.809,0
191474.954,54.688,30.762,23.438,50.781,-30.273,0
191474.957,52.246,34.180,31.738,30.273,-42.480,0
191474.961,52.246,34.668,34.668,37.109,-9.766,0
191474.965,60.547,29.785,40.039,58.105,42.969,0
191474.969,61.035,25.391,44.434,56.152,39.062,0
191474.973,55.664,28.809,45.898,31.250,-3.418,0
191474.977,46.387,32.227,41.504,27.344,-14.648,0
191474.981,44.434,31.738,33.691,50.293,26.367,0
191474.985,50.781,30.762,26.367,57.617,40.039,0
191474.989,48.340,27.344,24.414,41.016,15.625,0
191474.993,43.945,30.273,28.809,32.227,-23.926,0
191474.997,50.293,31.738,30.273,49.316,4.395,0
191475.000,54.199,25.391,28.320,58.594,33.203,0
191475.004,43.945,32.227,30.762,35.645,5.859,0
191475.008,40.039,37.598,34.668,26.855,11.230,0
191475.012,43.457,34.668,33.691,42.969,30.273,0
191475.016,42.480,30.762,30.273,59.570,61.035,0
191475.020,32.227,28.320,30.762,38.086,53.711,0
191475.024,23.926,28.809,33.203,18.555,-9.766,0
191475.028,24.902,28.809,35.156,29.297,-50.781,0
191475.032,33.691,25.391,39.062,49.805,29.297,0
191475.036,35.156,24.414,36.621,47.363,64.941,0
191475.039,33.691,27.832,30.273,27.344,12.695,0
191475.043,33.691,34.668,33.203,31.738,8.789,0
191475.047,35.156,32.227,28.320,49.805,4.883,0
191475.051,37.109,26.367,16.113,51.270,4.395,0
191475.055,32.715,28.809,19.043,28.320,-22.949,0
191475.059,30.273,32.715,34.180,18.555,-11.719,0
191475.063,34.668,33.203,38.086,41.016,20.508,0
191475.067,40.039,29.785,28.809,49.316,67.383,0
191475.071,40.039,29.785,22.949,26.855,62.500,0
191475.075,41.016,27.344,27.344,13.184,-16.113,0
191475.079,43.457,18.555,31.250,27.344,-40.527,0
191475.082,39.551,19.531,31.250,48.828,54.688,0
191475.086,32.227,29.785,25.879,33.691,76.660,0
191475.090,29.297,33.691,21.484,8.789,-16.113,0
191475.094,28.320,32.227,27.344,19.043,-21.973,0
191475.098,31.250,31.250,37.109,46.875,48.828,0
191475.102,41.016,27.344,33.203,41.504,72.754,0
191475.106,41.992,26.855,28.809,20.996,24.414,0
191475.110,34.180,36.621,25.879,25.879,-12.695,0
191475.114,36.621,38.086,22.949,42.969,20.996,0
191475.118,41.016,31.738,24.902,40.039,86.426,0
191475.122,37.598,32.715,20.996,17.090,29.297,0
191475.125,32.227,36.133,26.855,12.695,-43.945,0
191475.129,30.273,33.203,34.180,30.273,-0.977,0
191475.133,37.109,29.785,35.645,43.457,52.734,0
191475.137,40.039,27.344,41.016,24.414,33.203,0
191475.141,36.621,25.879,38.086,13.184,-10.254,0
191475.145,35.156,28.320,36.133,29.785,-27.344,0
191475.149,38.086,28.809,37.109,48.828,34.180,0
191475.153,40.527,27.832,32.715,36.133,86.426,0
191475.157,40.527,28.320,34.668,22.461,67.383,0
191475.161,39.062,28.320,37.109,37.598,60.547,0
191475.164,40.527,26.367,35.645,46.387,84.961,0
191475.168,41.016,31.738,28.809,39.062,114.746,0
191475.172,35.156,40.039,20.996,26.367,101.074,0
191475.176,27.832,36.133,29.297,23.926,122.559,0
191475.180,29.785,32.715,34.180,43.457,169.434,0
191475.184,34.180,33.203,36.621,51.270,171.387,0
191475.188,30.273,32.227,41.992,26.367,123.535,0
191475.192,23.926,29.785,42.480,21.484,99.609,0
191475.196,22.461,26.367,37.598,30.273,56.641,0
191475.200,22.461,26.367,35.156,34.180,80.078,0
191475.204,20.508,28.320,34.668,23.926,122.559,0
191475.207,24.902,27.344,32.715,16.602,57.129,0
191475.211,23.926,21.484,35.645,24.902,36.621,0
191475.215,23.438,17.090,36.133,40.039,64.453,0
191475.219,31.738,20.508,37.109,35.156,71.289,0
191475.223,33.203,25.391,39.551,24.902,33.203,0
191475.227,25.391,29.785,30.762,24.414,-7.324,0
191475.231,28.809,29.297,19.043,38.574,12.207,0
191475.235,35.645,30.273,20.508,40.039,25.391,0
191475.239,35.156,32.227,23.926,18.066,-26.855,0
191475.243,28.809,34.668,29.785,10.742,-64.453,0
191475.247,27.832,33.691,35.156,30.762,19.531,0
191475.250,33.691,28.809,33.691,44.922,77.148,0
191475.254,27.832,28.320,34.668,18.066,4.395,0
191475.258,23.438,26.367,32.715,10.742,-8.789,0
191475.262,24.902,19.043,33.691,29.297,44.434,0
191475.266,25.391,16.113,34.180,39.551,83.008,0
191475.270,25.879,19.043,32.715,29.785,43.457,0
191475.274,28.320,23.438,40.039,16.602,-29.785,0
191475.278,31.738,27.832,38.574,25.391,-42.969,0
191475.282,34.668,27.832,29.297,47.363,6.836,0
191475.286,33.203,25.879,27.344,39.062,8.301,0
191475.289,28.320,28.320,32.715,19.043,-26.855,0
191475.293,24.414,28.809,38.086,22.461,13.672,0
191475.297,28.320,27.344,33.691,43.457,79.102,0
191475.301,34.180,27.832,28.809,48.828,89.355,0
191475.305,36.133,32.715,31.250,25.879,41.504,0
191475.309,30.273,34.668,34.668,13.184,12.207,0
191475.313,24.414,30.273,33.203,24.902,20.020,0
191475.317,31.250,30.273,26.855,32.227,28.809,0
191475.321,32.715,26.367,24.414,18.555,-3.418,0
191475.325,26.367,28.320,23.926,9.766,-27.344,0
191475.329,23.926,35.156,22.949,20.508,5.371,0
191475.332,37.598,32.715,25.391,34.668,30.762,0
191475.336,42.969,29.785,30.762,24.902,-13.672,0
191475.340,31.738,33.203,29.297,10.742,-38.574,0
191475.344,18.555,34.180,22.949,7.324,-9.766,0
191475.348,20.508,31.250,28.320,26.367,49.316,0
191475.352,24.414,28.809,33.691,27.344,86.426,0
191475.356,20.020,28.809,35.645,3.418,18.066,0
191475.360,18.066,25.391,36.621,1.953,-37.598,0
191475.364,20.020,21.484,36.133,27.832,46.875,0
191475.368,30.273,25.879,34.180,41.504,72.754,0
191475.372,34.668,30.762,31.250,30.273,-26.367,0
191475.375,31.250,28.809,27.344,16.602,-44.434,0
191475.379,28.320,23.438,28.809,19.531,-9.766,0
191475.383,32.715,23.438,29.297,43.945,64.941,1
191475.387,29.785,25.391,20.508,30.762,55.664,0
191475.391,24.902,26.367,22.949,13.184,2.441,0
191475.395,20.996,26.855,29.297,21.484,26.367,0
191475.399,28.320,25.879,31.250,42.480,80.566,0
191475.403,30.762,26.855,34.668,42.480,46.387,0
191475.407,21.973,33.203,39.062,23.926,-34.180,0
191475.411,21.484,30.762,41.504,16.602,-30.273,0
191475.414,29.297,26.855,41.016,31.250,66.406,0
191475.418,34.668,28.809,42.480,34.180,94.238,0
191475.422,31.250,29.785,39.551,7.324,17.578,0
191475.426,25.391,32.227,34.180,2.441,23.926,0
191475.430,32.227,36.621,35.645,28.809,66.406,0
191475.434,37.598,36.133,32.715,36.133,61.523,0
191475.438,33.203,26.367,27.344,14.160,9.766,0
191475.442,33.691,26.367,20.996,10.254,-11.230,0
191475.446,28.809,38.086,11.719,21.973,27.832,0
191475.450,32.715,36.621,17.578,35.156,46.387,0
191475.454,35.645,30.273,27.832,19.043,37.109,0
191475.457,28.320,28.809,31.250,-3.418,-13.672,0
191475.461,27.344,26.367,39.062,8.301,-30.762,0
191475.465,27.344,30.762,41.992,29.297,25.391,0
191475.469,26.855,36.621,26.855,18.066,-16.602,0
191475.473,23.926,36.133,21.484,4.395,-56.152,0
191475.477,20.508,33.203,29.785,6.836,-38.574,0
191475.481,20.020,26.855,29.297,17.090,14.160,0
191475.485,23.926,22.461,22.461,23.438,38.086,0
191475.489,25.391,27.344,22.461,11.719,2.441,0
191475.493,21.484,32.227,34.668,11.230,0.488,0
191475.497,18.066,29.297,34.668,30.762,22.949,0
191475.500,20.508,27.832,26.367,45.898,67.871,0
191475.504,19.531,29.297,25.879,27.832,36.621,0
191475.508,17.578,28.320,33.691,15.625,-15.137,0
191475.512,18.555,26.855,41.016,20.996,-31.250,0
191475.516,20.996,28.320,36.621,27.832,12.207,0
191475.520,26.367,26.855,28.809,23.926,21.484,0
191475.524,31.250,25.391,26.855,13.184,-34.668,0
191475.528,24.902,24.414,27.832,19.531,-19.531,0
191475.532,23.926,20.996,32.227,41.992,68.848,0
191475.536,29.297,25.391,29.297,42.480,61.523,0
191475.539,26.855,29.785,22.461,27.832,-8.301,0
191475.543,19.043,27.832,32.715,17.578,-10.254,0
191475.547,13.184,25.879,43.945,21.484,52.246,0
191475.551,19.043,24.414,41.016,33.691,71.289,0
191475.555,18.066,23.926,34.180,19.531,18.555,0
191475.559,9.766,28.320,28.320,7.324,-19.043,0
191475.563,15.137,27.344,26.855,31.250,24.414,0
191475.567,28.809,22.461,31.250,50.293,119.629,0
191475.571,28.320,21.973,32.715,18.066,84.473,0
191475.575,29.297,21.973,32.715,0.977,-5.859,0
191475.579,26.855,21.484,31.738,19.043,8.789,0
191475.582,24.414,17.578,26.367,38.574,70.312,0
191475.586,25.391,18.066,27.832,31.250,23.438,0
191475.590,20.996,27.344,23.438,12.695,-40.527,0
191475.594,16.113,30.273,21.973,17.090,2.441,0
191475.598,19.043,26.855,32.715,34.668,56.152,0
191475.602,25.879,26.855,34.668,29.785,56.641,0
191475.606,25.391,29.785,33.691,9.766,-21.973,0
191475.610,20.996,25.879,38.574,12.207,-44.922,0
191475.614,21.973,17.090,31.250,32.227,13.184,0
191475.618,28.320,14.648,20.996,38.086,41.504,0
191475.622,20.020,15.625,21.484,23.926,9.277,0
191475.625,18.555,28.809,27.832,21.484,-6.348,0
191475.629,26.367,32.227,33.203,21.484,11.719,0
191475.633,23.438,22.461,35.645,18.555,62.500,0
191475.637,19.043,27.344,27.832,7.324,41.504,0
191475.641,19.531,33.691,20.996,2.930,-10.742,0
191475.645,21.484,30.762,31.250,13.184,0.000,0
191475.649,26.855,28.320,33.691,27.832,51.270,0
191475.653,29.297,30.762,29.297,17.090,54.199,0
191475.657,29.785,28.809,28.809,4.883,16.113,0
191475.661,31.250,24.902,32.227,12.207,-38.574,0
191475.664,26.367,23.438,33.691,21.484,-22.461,0
191475.668,23.926,25.879,32.715,26.855,16.602,0
191475.672,25.391,31.250,31.738,20.996,-30.273,0
191475.676,20.020,33.203,27.832,14.648,-45.898,0
191475.680,19.531,30.273,25.391,27.344,-17.578,0
191475.684,28.320,28.809,25.879,43.945,64.941,0
191475.688,28.320,27.344,28.320,27.344,32.715,0
191475.692,20.996,24.902,30.762,11.230,-0.488,0
191475.696,20.508,28.809,26.855,30.762,48.828,0
191475.700,27.832,27.832,26.855,51.758,51.270,0
191475.704,28.320,26.367,33.203,33.203,-0.977,0
191475.707,25.391,27.832,33.203,14.160,-51.270,0
191475.711,22.461,23.926,29.785,21.484,-29.785,0
191475.715,23.926,23.926,29.297,33.203,57.129,0
191475.719,29.297,31.250,31.250,29.297,65.430,0
191475.723,31.250,40.039,38.574,20.508,21.973,0
191475.727,25.391,35.156,37.598,18.555,10.254,0
191475.731,26.367,20.996,30.273,31.250,32.227,0
191475.735,29.785,20.020,19.531,35.156,75.684,0
191475.739,27.832,33.203,12.207,20.508,32.715,0
191475.743,28.320,35.156,23.926,15.625,-31.738,0
191475.747,28.809,28.320,34.180,27.344,15.137,0
191475.750,29.785,26.855,34.668,37.109,65.430,0
191475.754,32.227,31.250,33.691,20.508,32.715,0
191475.758,31.250,34.180,32.715,20.508,26.367,0
191475.762,30.273,27.832,36.621,38.574,61.523,0
191475.766,35.156,25.391,40.527,37.598,84.473,0
191475.770,30.762,28.320,35.645,20.996,58.594,0
191475.774,26.367,25.391,29.297,12.207,27.344,0
191475.778,27.344,24.902,27.832,22.461,11.230,0
191475.782,29.297,31.250,29.297,40.527,42.480,0
191475.786,26.855,32.227,25.391,36.133,61.523,0
191475.789,21.484,29.785,20.996,10.254,23.438,0
191475.793,20.020,30.762,23.926,10.742,-15.137,0
191475.797,19.531,29.297,24.902,32.715,-17.578,0
191475.801,26.855,26.367,28.809,42.969,25.879,0
191475.805,34.180,31.250,36.621,32.715,42.480,0
191475.809,20.996,34.180,31.738,8.301,14.160,0
191475.813,13.672,29.785,28.809,11.230,-30.273,0
191475.817,20.996,26.367,31.250,27.344,25.879,0
191475.821,19.531,26.855,30.762,14.160,47.852,0
191475.825,18.066,28.320,32.227,2.930,-49.316,0
191475.829,17.090,26.367,31.250,8.789,-17.090,0
191475.832,22.949,26.367,28.809,23.926,56.641,0
191475.836,28.320,30.273,24.414,20.020,16.113,0
191475.840,22.949,32.715,26.367,3.418,-37.598,0
191475.844,20.508,34.668,32.227,2.441,-45.410,0
191475.848,28.320,36.621,32.227,27.344,32.227,0
191475.852,35.156,36.621,32.715,31.250,38.086,0
191475.856,34.180,32.715,30.273,11.230,-13.184,0
191475.860,31.250,26.367,26.855,20.020,-5.371,0
191475.864,37.598,26.855,24.902,44.434,48.828,0
191475.868,44.922,33.203,27.344,43.945,90.332,0
191475.872,38.574,36.133,30.762,15.625,0.488,0
191475.875,29.297,38.086,28.320,3.418,-42.480,0
191475.879,29.297,38.574,29.785,24.414,20.508,0
191475.883,34.668,33.691,36.133,46.875,28.809,0
191475.887,35.645,28.320,38.574,27.344,-50.781,0
191475.891,34.180,31.738,40.039,5.859,-63.477,0
191475.895,31.738,35.645,37.109,19.043,-45.410,0
191475.899,36.133,31.738,30.273,38.574,-14.160,0
191475.903,38.574,30.762,32.227,36.621,11.230,0
191475.907,35.645,34.668,36.621,26.855,-9.277,0
191475.911,31.250,27.832,35.645,29.297,-2.441,0
191475.914,29.297,15.137,32.227,37.598,61.035,0
191475.918,31.250,20.996,24.902,32.715,51.758,0
191475.922,31.250,29.297,14.648,16.602,2.930,0
191475.926,27.344,31.250,11.719,19.531,10.742,0
191475.930,24.902,32.227,20.508,32.715,9.277,0
191475.934,25.391,31.250,34.180,33.691,27.344,0
191475.938,21.484,31.250,35.156,18.066,33.691,0
191475.942,19.043,30.273,33.691,9.766,-47.363,0
191475.946,17.578,27.344,36.621,19.043,-36.621,0
191475.950,23.438,25.391,34.180,32.715,48.340,0
191475.954,29.785,27.832,30.762,27.344,27.344,0
191475.957,33.691,26.367,29.297,17.090,-21.973,0
191475.961,31.250,22.949,23.438,24.902,-36.133,0
191475.965,32.715,23.926,18.066,47.852,16.113,0
191475.969,40.039,25.879,26.855,39.062,32.227,0
191475.973,34.668,29.785,37.598,12.695,-38.574,0
191475.977,26.367,30.273,31.738,13.672,-49.316,0
191475.981,28.809,23.926,28.320,34.668,27.832,0
191475.985,35.156,22.461,36.133,45.898,90.820,0
191475.989,33.691,25.879,34.668,28.320,84.473,0
191475.993,28.809,28.809,28.809,15.625,-0.977,0
191475.997,31.738,26.855,27.832,28.809,6.348,0
191476.000,40.039,27.344,30.273,43.457,94.238,0
191476.004,40.039,29.297,31.738,29.785,41.504,0
191476.008,29.785,27.832,34.668,17.090,-71.777,0
191476.012,24.414,30.273,33.203,23.926,-40.039,0
191476.016,37.598,33.203,31.250,43.457,60.547,0
191476.020,41.016,32.715,35.156,41.992,50.293,0
191476.024,35.645,33.691,35.645,20.508,-21.973,0
191476.028,29.785,32.715,33.203,15.625,-45.410,0
191476.032,32.227,26.367,30.273,35.156,19.043,0
191476.036,34.668,27.344,31.250,31.738,-8.301,0
191476.039,30.273,28.320,36.621,10.254,-95.215,0
191476.043,23.926,24.902,36.133,9.766,-42.969,0
191476.047,23.926,23.926,35.156,29.785,42.969,0
191476.051,29.297,24.414,33.203,39.551,66.895,0
191476.055,30.273,31.250,32.715,25.391,20.508,0
191476.059,28.320,37.109,27.832,19.531,-1.465,0
191476.063,30.762,31.738,20.020,31.738,-1.465,0
191476.067,41.016,26.855,22.949,39.062,36.621,0
191476.071,41.504,26.367,27.344,23.926,49.805,0
191476.075,36.621,26.855,26.855,17.578,12.207,0
191476.079,25.391,24.902,30.762,33.203,23.438,0
191476.082,20.508,17.090,27.832,47.852,40.039,0
191476.086,27.344,20.996,23.438,32.715,38.574,0
191476.090,31.250,30.273,26.367,17.578,2.441,0
191476.094,25.391,26.367,26.855,23.926,-11.230,2
191476.098,25.879,22.949,27.832,37.109,45.410,0
191476.102,32.227,26.855,28.809,33.203,68.848,0
191476.106,31.250,30.762,29.785,13.184,48.828,0
191476.110,27.832,32.227,36.621,12.207,45.898,0
191476.114,30.273,28.320,39.062,36.621,111.816,0
191476.118,36.621,26.855,33.203,45.898,142.090,0
191476.122,33.203,29.297,32.715,22.461,80.566,0
191476.125,28.809,25.391,32.227,8.789,28.320,0
191476.129,26.367,24.414,29.297,22.949,52.246,0
191476.133,28.320,23.438,30.273,37.109,84.473,0
191476.137,30.273,24.414,32.227,22.949,67.383,0
191476.141,31.738,33.203,32.715,14.160,17.578,0
191476.145,35.156,33.691,34.668,26.367,-4.883,0
191476.149,38.086,25.879,34.668,41.016,72.266,0
191476.153,34.180,23.926,35.156,39.062,91.309,0
191476.157,30.762,27.832,37.109,26.367,6.836,0
191476.161,29.297,29.297,39.062,25.879,-14.160,0
191476.164,23.438,27.832,37.109,40.527,35.156,0
191476.168,19.531,28.320,32.227,41.016,67.871,0
191476.172,19.531,32.715,30.273,21.484,5.371,0
191476.176,21.484,33.203,28.809,16.113,-10.254,0
191476.180,28.320,29.785,30.273,38.574,83.984,0
191476.184,37.109,30.273,36.133,50.293,123.047,0
191476.188,35.645,33.691,39.062,25.879,98.633,0
191476.192,32.227,35.156,42.480,16.113,59.082,0
191476.196,28.809,32.227,38.574,30.762,34.668,0
191476.200,31.250,32.227,31.738,43.945,55.176,0
191476.204,33.203,32.715,34.180,30.273,46.875,0
191476.207,29.785,33.203,36.133,16.113,-12.207,0
191476.211,27.344,30.762,32.227,26.855,-12.207,0
191476.215,32.715,22.461,29.297,39.062,14.160,0
191476.219,34.180,21.973,28.809,21.973,10.742,0
191476.223,37.598,26.855,26.855,5.371,12.207,0
191476.227,35.156,24.414,24.414,13.672,28.320,0
191476.231,25.391,19.531,20.020,30.762,46.387,0
191476.235,29.297,21.973,26.855,43.457,59.082,0
191476.239,29.785,27.832,36.133,28.809,49.805,0
191476.243,21.484,27.344,35.156,9.277,0.000,0
191476.247,18.555,23.438,35.645,17.090,0.488,0
191476.250,25.879,15.137,28.809,25.879,57.129,0
191476.254,30.762,14.648,31.250,12.695,26.855,0
191476.258,26.367,18.555,37.109,5.371,1.465,0
191476.262,24.902,20.508,34.180,20.996,15.137,0
191476.266,29.785,22.949,29.297,40.527,66.406,0
191476.270,26.367,25.391,27.832,32.715,73.730,0
191476.274,25.879,27.344,36.133,15.625,2.930,0
191476.278,28.809,27.832,40.527,19.043,18.555,0
191476.282,28.320,24.414,30.762,32.715,74.707,0
191476.286,32.227,24.902,27.832,31.738,95.215,0
191476.289,32.715,27.344,34.180,18.555,26.367,0
191476.293,27.344,26.367,35.645,13.184,-40.527,0
191476.297,32.227,24.902,35.645,33.691,29.785,0
191476.301,35.156,23.926,34.668,45.410,84.473,0
191476.305,32.715,27.344,31.250,21.973,7.812,0
191476.309,35.645,32.715,31.250,17.578,-21.484,0
191476.313,33.203,30.762,30.762,39.062,41.992,0
191476.317,35.156,29.785,23.926,53.711,83.984,0
191476.321,41.504,34.180,23.438,43.945,68.359,0
191476.325,39.062,35.156,26.367,29.297,41.016,0
191476.329,36.133,30.762,25.879,28.320,29.785,0
191476.332,41.504,31.250,27.832,40.527,92.773,0
191476.336,42.969,34.668,31.250,31.250,94.727,0
191476.340,39.551,33.691,35.645,20.996,35.156,0
191476.344,37.109,32.227,33.203,20.996,32.715,0
191476.348,41.016,31.250,28.320,30.273,62.988,0
191476.352,41.016,33.691,29.297,34.668,41.504,0
191476.356,33.203,38.574,25.391,13.184,0.000,0
191476.360,29.297,38.574,27.344,10.254,-13.184,0
191476.364,28.809,31.738,32.227,30.273,49.805,0
191476.368,38.086,24.902,33.691,37.598,81.055,0
191476.372,42.480,26.855,34.668,21.484,34.668,0
191476.375,34.668,26.367,32.227,17.090,65.430,0
191476.379,36.133,23.926,32.715,29.297,82.520,0
191476.383,38.086,27.344,39.551,48.340,114.746,0
191476.387,31.738,31.250,36.133,41.016,101.562,0
191476.391,29.297,29.785,21.484,18.066,34.668,0
191476.395,24.414,29.785,20.996,17.090,22.461,0
191476.399,24.902,24.902,29.297,30.762,46.387,0
191476.403,26.367,22.949,32.715,22.949,59.082,0
191476.407,25.879,22.949,29.785,7.324,19.531,0
191476.411,19.531,20.020,31.738,3.418,5.859,0
191476.414,15.625,22.461,32.715,9.766,55.176,0
191476.418,19.531,29.297,28.320,15.137,89.355,0
191476.422,16.602,32.227,31.738,-0.488,48.828,0
191476.426,14.160,28.809,30.273,-4.883,-36.621,0
191476.430,20.020,26.855,29.785,25.391,-15.625,0
191476.434,25.391,24.414,31.738,41.016,44.922,0
191476.438,25.879,22.461,28.320,13.672,-2.930,0
191476.442,23.438,22.949,25.879,2.930,-15.137,0
191476.446,20.020,23.438,24.414,24.414,3.906,0
191476.450,26.367,23.438,23.926,38.574,25.879,0
191476.454,27.344,29.297,30.273,31.250,-4.395,0
191476.457,19.043,29.785,34.180,10.742,-74.707,0
191476.461,13.672,21.973,31.738,7.324,-30.762,0
191476.465,18.555,22.461,31.738,30.273,44.434,0
191476.469,26.367,27.832,34.180,26.855,47.363,0
191476.473,23.926,30.273,35.645,6.348,21.973,0
191476.477,19.043,31.250,33.691,10.742,6.836,0
191476.481,23.438,30.273,28.809,32.715,31.738,0
191476.485,35.156,35.156,24.414,38.574,69.336,0
191476.489,35.156,41.016,22.949,19.531,11.230,0
191476.493,24.414,37.109,33.203,12.207,-10.742,0
191476.497,20.996,32.227,39.062,28.320,77.637,0
191476.500,28.320,31.250,35.156,36.133,61.035,0
191476.504,27.344,35.156,37.109,13.184,0.488,0
191476.508,21.484,34.180,37.109,2.930,16.602,0
191476.512,23.926,31.250,33.203,18.066,62.500,0
191476.516,29.785,31.250,31.250,29.785,96.191,0
191476.520,25.879,33.203,30.762,17.090,14.160,0
191476.524,19.043,37.598,34.180,7.812,-37.598,0
191476.528,19.043,35.645,30.762,17.090,-19.043,0
191476.532,29.785,32.715,25.879,34.668,-0.977,0
191476.536,38.086,34.180,26.855,40.039,-1.953,0
191476.539,31.250,32.715,23.438,22.461,-26.367,0
191476.543,23.438,26.855,25.879,20.020,-25.879,0
191476.547,21.484,21.484,32.227,38.574,14.648,0
191476.551,26.367,27.832,29.297,44.434,62.500,0
191476.555,26.855,33.203,26.855,16.113,52.734,0
191476.559,23.438,30.273,33.691,2.441,-14.648,0
191476.563,26.367,30.273,35.156,22.461,-15.625,0
191476.567,33.691,27.832,28.320,37.109,27.344,0
191476.571,37.109,28.809,29.297,26.367,13.672,0
191476.575,32.227,30.273,28.320,10.742,3.418,0
191476.579,28.809,29.297,25.879,18.066,6.836,0
191476.582,35.645,27.344,27.344,41.504,4.395,0
191476.586,36.621,27.832,28.809,31.738,8.301,0
191476.590,30.273,27.832,29.785,11.230,-63.965,0
191476.594,26.855,27.832,29.785,15.137,-90.332,0
191476.598,27.344,25.879,31.738,36.133,57.129,0
191476.602,28.809,25.391,36.133,41.016,124.512,0
191476.606,29.785,29.785,34.668,19.531,62.012,0
191476.610,27.344,30.273,34.180,14.160,60.059,0
191476.614,22.949,26.855,36.621,35.645,112.305,0
191476.618,25.879,23.438,29.785,50.293,114.746,0
191476.622,28.809,27.344,28.320,28.320,103.516,0
191476.625,24.902,30.273,30.762,16.113,81.055,0
191476.629,21.973,27.344,32.227,31.250,81.543,0
191476.633,30.273,25.391,33.203,47.363,162.598,0
191476.637,33.203,23.438,30.273,30.762,107.422,0
191476.641,27.832,25.391,28.809,12.695,39.551,0
191476.645,28.320,31.738,28.809,28.809,71.777,0
191476.649,36.133,33.203,30.273,42.969,104.004,1
191476.653,37.598,30.273,31.738,28.809,92.285,0
191476.657,32.715,30.273,34.180,13.184,40.527,0
191476.661,34.180,31.250,36.621,24.414,-5.859,0
191476.664,41.016,29.297,33.691,48.340,38.086,0
191476.668,38.574,25.879,33.691,49.316,87.891,0
191476.672,28.320,27.832,32.227,19.531,52.734,0
191476.676,22.949,28.809,27.832,12.695,3.418,0
191476.680,23.926,23.926,30.762,31.250,-36.133,0
191476.684,24.902,22.949,30.273,34.180,-5.859,0
191476.688,22.461,25.879,31.250,19.043,-0.488,0
191476.692,23.438,29.785,36.621,12.695,-57.617,0
191476.696,24.414,31.250,36.133,24.902,-30.762,0
191476.700,30.762,27.832,33.691,41.016,37.598,0
191476.704,32.715,27.832,32.715,31.250,16.113,0
191476.707,31.738,29.297,29.785,17.090,-42.480,0
191476.711,29.297,24.414,25.879,23.926,-47.363,0
191476.715,30.273,23.438,22.461,39.551,34.180,0
191476.719,36.133,28.320,18.066,34.180,77.637,0
191476.723,34.180,20.996,25.391,18.555,20.996,0
191476.727,26.855,12.695,34.180,28.320,-15.137,0
191476.731,25.879,16.113,29.785,31.738,19.043,0
191476.735,31.738,23.926,31.738,20.020,51.758,0
191476.739,34.180,26.367,34.180,9.766,19.531,0
191476.743,28.809,25.879,24.902,2.930,-49.316,0
191476.747,27.832,27.344,21.973,17.578,-35.645,0
191476.750,35.156,32.715,26.367,37.598,56.641,0
191476.754,35.156,39.062,23.438,21.484,37.109,0
191476.758,31.250,32.227,24.414,8.301,-26.367,0
191476.762,30.762,27.344,26.367,18.555,-19.531,0
191476.766,34.180,31.250,28.809,28.809,43.457,0
191476.770,31.250,31.250,32.227,18.066,62.500,0
191476.774,28.809,31.738,28.320,6.836,38.574,0
191476.778,27.832,30.273,25.391,14.648,5.859,0
191476.782,31.738,29.297,27.344,31.738,37.598,0
191476.786,36.621,32.227,27.832,29.297,68.359,0
191476.789,31.250,33.203,23.438,7.812,15.137,0
191476.793,27.344,34.668,24.902,11.230,-7.324,0
191476.797,31.738,34.180,26.367,33.203,20.508,0
191476.801,41.504,33.691,23.438,40.039,76.172,0
191476.805,39.551,37.598,24.902,23.926,54.199,0
191476.809,35.645,36.133,29.785,16.602,-4.883,0
191476.813,35.156,29.297,28.809,33.691,-6.348,0
191476.817,37.598,26.855,33.691,45.898,44.922,0
191476.821,35.156,29.297,43.457,35.156,51.270,0
191476.825,24.414,27.344,43.945,24.414,17.578,0
191476.829,18.555,24.414,43.945,25.391,16.602,0
191476.832,24.414,23.926,44.434,37.598,41.504,0
191476.836,29.785,26.855,38.086,39.551,50.781,0
191476.840,28.809,32.715,31.738,26.855,28.809,0
191476.844,23.926,30.273,31.738,16.113,10.254,0
191476.848,20.996,28.320,34.180,28.320,29.297,0
191476.852,26.855,31.738,33.203,34.668,65.430,0
191476.856,30.762,32.715,28.320,19.043,22.461,0
191476.860,26.855,31.738,27.832,17.090,-25.879,0
191476.864,24.902,27.344,40.039,37.109,25.391,0
191476.868,27.344,23.926,41.016,45.898,39.062,0
191476.872,26.367,27.832,36.133,24.902,4.395,0
191476.875,22.949,30.273,35.156,16.602,-37.598,0
191476.879,20.508,24.902,30.273,27.344,-36.133,0
191476.883,25.391,23.438,26.855,41.992,51.758,0
191476.887,32.715,32.715,25.391,35.645,48.340,0
191476.891,30.762,35.645,27.832,15.625,-26.367,0
191476.895,21.973,27.344,30.762,16.113,-14.160,0
191476.899,22.949,25.879,21.484,30.762,84.473,0
191476.903,28.320,25.391,18.066,23.926,93.262,0
191476.907,29.785,24.414,33.203,8.789,14.648,0
191476.911,24.902,26.367,37.598,12.695,13.672,0
191476.914,21.973,26.855,30.762,30.762,100.586,0
191476.918,23.926,29.785,28.320,31.738,90.332,0
191476.922,28.809,35.156,31.738,11.230,14.160,0
191476.926,32.227,33.691,35.645,7.324,12.695,0
191476.930,34.180,28.320,34.668,28.320,45.410,0
191476.934,37.109,29.297,36.621,35.156,62.988,0
191476.938,33.203,33.691,37.598,18.066,38.574,0
191476.942,28.320,30.762,37.109,11.719,4.883,0
191476.946,25.391,21.484,37.598,27.832,33.691,0
191476.950,24.902,19.043,33.691,43.457,79.102,0
191476.954,25.391,23.926,34.180,35.156,56.641,0
191476.957,23.926,27.344,40.039,18.555,15.137,0
191476.961,19.531,26.855,37.109,17.090,-14.648,0
191476.965,23.438,25.879,32.715,27.832,-20.508,0
191476.969,30.762,30.273,31.250,21.973,-35.156,0
191476.973,25.391,31.250,31.738,11.719,-47.363,0
191476.977,17.578,29.297,38.086,20.508,-18.555,0
191476.981,22.949,26.367,45.410,37.109,22.949,0
191476.985,31.738,26.367,45.410,41.504,45.410,0
191476.989,29.785,25.879,43.457,27.832,34.180,0
191476.993,26.855,28.809,44.434,17.578,0.000,0
191476.997,23.438,29.785,41.504,23.926,6.836,0
191477.000,29.785,23.926,35.645,34.180,55.664,0
191477.004,34.668,24.902,33.203,27.832,20.996,0
191477.008,28.320,31.738,31.738,26.855,-31.738,0
191477.012,28.320,34.180,26.855,27.344,-13.184,0
191477.016,34.668,33.203,27.344,31.250,38.086,0
191477.020,32.227,35.156,32.715,26.367,95.703,0
191477.024,27.344,35.156,29.785,11.230,63.965,0
191477.028,22.461,31.250,25.391,14.648,43.457,0
191477.032,24.414,29.297,25.879,26.367,92.773,0
191477.036,30.762,30.273,27.832,25.879,89.844,0
191477.039,30.273,34.180,25.391,11.719,5.371,0
191477.043,21.484,31.738,22.461,5.371,-47.852,0
191477.047,17.090,27.344,25.879,20.996,30.762,0
191477.051,24.414,30.762,26.367,31.738,88.867,0
191477.055,27.832,33.203,25.391,9.277,22.461,0
191477.059,26.855,35.645,25.879,-1.465,-26.367,0
191477.063,28.320,34.668,23.926,23.438,4.883,0
191477.067,33.691,28.809,23.926,41.992,27.832,0
191477.071,25.879,26.367,27.344,18.066,-3.906,0
191477.075,16.113,27.344,29.785,0.000,7.324,0
191477.079,19.531,27.832,30.273,16.602,22.949,0
191477.082,25.879,27.344,34.180,35.645,45.898,0
191477.086,31.250,30.762,30.762,29.785,65.430,0
191477.090,30.762,32.227,25.391,14.160,-1.953,0
191477.094,25.391,33.203,30.762,15.137,-18.555,0
191477.098,24.414,33.203,34.668,32.715,32.227,0
191477.102,24.902,32.227,35.645,34.668,19.531,0
191477.106,27.344,31.250,33.203,22.949,-17.578,0
191477.110,30.273,30.762,28.320,30.273,-38.086,0
191477.114,26.855,27.832,32.715,42.480,-20.020,0
191477.118,23.438,21.973,38.574,38.086,5.371,0
191477.122,20.508,21.973,38.086,20.020,-19.531,0
191477.125,20.020,21.973,41.504,22.949,-33.203,0
191477.129,23.926,25.879,40.527,35.156,1.953,0
191477.133,26.367,27.832,34.668,35.156,13.184,0
191477.137,26.367,31.250,32.227,21.484,-20.996,0
191477.141,26.855,36.621,30.762,10.742,-64.453,0
191477.145,21.484,30.762,37.109,19.043,-65.430,0
191477.149,24.902,23.926,39.062,41.016,0.000,0
191477.153,30.762,24.902,34.668,36.621,-4.395,0
191477.157,30.273,29.297,35.156,16.602,-69.336,0
191477.161,24.902,31.250,33.691,9.277,-86.914,0
191477.164,28.809,30.273,32.227,17.578,4.395,0
191477.168,35.645,33.203,32.227,23.926,88.379,0
191477.172,28.809,37.109,28.320,12.207,15.625,0
191477.176,20.996,36.621,31.250,6.836,-41.992,0
191477.180,21.484,33.203,31.250,21.973,17.578,0
191477.184,24.902,30.273,27.344,34.668,93.750,0
191477.188,24.902,25.879,27.832,19.043,25.391,0
191477.192,19.043,23.926,34.180,10.742,-33.203,0
191477.196,17.578,29.785,35.156,20.996,26.855,0
191477.200,29.785,29.785,27.344,39.551,91.309,0
191477.204,32.227,29.785,32.715,36.133,47.852,0
191477.207,27.832,33.691,32.227,14.160,-9.766,0
191477.211,23.438,33.691,25.879,15.137,-1.953,0
191477.215,21.484,33.203,29.785,35.645,40.039,0
191477.219,24.902,33.691,34.180,30.273,50.293,0
191477.223,26.855,36.621,35.156,9.766,4.883,0
191477.227,21.973,34.180,30.762,8.789,-2.441,0
191477.231,16.602,25.391,29.785,25.391,16.602,0
191477.235,21.973,23.926,29.785,32.227,29.785,0
191477.239,25.879,31.250,31.738,22.949,6.348,2
191477.243,22.949,32.227,33.203,20.996,-13.184,0
191477.247,18.555,29.297,36.133,27.832,46.875,0
191477.250,23.926,31.738,38.574,37.109,113.770,0
191477.254,27.832,29.297,36.621,25.391,75.195,0
191477.258,20.020,26.855,29.785,5.371,52.734,0
191477.262,18.066,31.250,22.461,12.695,79.102,0
191477.266,23.926,32.227,24.414,31.738,133.301,0
191477.270,26.855,32.715,27.832,24.414,112.305,0
191477.274,28.320,33.691,35.156,13.672,48.340,0
191477.278,19.531,32.715,41.992,19.531,32.227,0
191477.282,16.113,30.273,39.551,34.668,76.172,0
191477.286,24.414,30.762,35.645,38.086,119.629,0
191477.289,23.438,31.738,36.133,23.926,73.730,0
191477.293,20.020,29.785,35.156,20.996,-9.277,0
191477.297,19.531,24.902,31.250,25.391,-13.672,0
191477.301,27.832,25.391,31.738,34.180,44.922,0
191477.305,41.016,31.738,34.668,36.621,72.754,0
191477.309,35.156,30.762,32.227,26.367,53.223,0
191477.313,20.020,33.203,29.297,16.113,52.246,0
191477.317,29.297,37.109,23.926,24.902,84.473,0
191477.321,41.016,41.992,23.926,21.484,95.703,0
191477.325,37.109,41.016,26.367,11.719,61.523,0
191477.329,26.855,33.203,23.926,17.578,-4.395,0
191477.332,29.785,28.809,21.484,36.621,37.598,0
191477.336,35.156,29.297,16.113,30.273,84.473,0
191477.340,32.715,30.273,20.996,3.418,12.207,0
191477.344,32.715,29.297,29.785,3.906,-29.785,0
191477.348,33.203,26.855,30.273,25.879,16.113,0
191477.352,33.203,19.043,30.762,34.668,65.918,0
191477.356,29.297,18.555,31.738,20.996,7.812,0
191477.360,22.949,21.484,30.762,20.508,-25.879,0
191477.364,24.414,24.902,27.832,38.086,47.363,0
191477.368,31.738,28.320,28.809,41.504,72.266,0
191477.372,26.367,23.438,27.832,23.438,2.441,0
191477.375,17.578,19.531,24.902,16.602,-45.410,0
191477.379,18.066,18.066,30.762,31.738,-0.977,0
191477.383,23.438,16.602,28.320,43.945,61.523,0
191477.387,27.344,22.949,28.320,26.367,25.879,0
191477.391,27.832,28.320,39.551,20.508,4.395,0
191477.395,18.555,25.879,38.086,30.762,41.016,0
191477.399,18.066,24.414,31.250,35.645,68.848,0
191477.403,25.391,22.949,30.273,29.297,87.891,0
191477.407,25.391,24.414,31.250,14.648,30.273,0
191477.411,23.438,25.391,35.156,18.066,18.066,0
191477.414,28.809,19.531,37.598,41.016,26.367,0
191477.418,33.691,22.461,33.691,45.410,29.785,0
191477.422,28.809,27.344,31.250,20.996,19.043,0
191477.426,27.832,24.902,36.133,15.137,-24.902,0
191477.430,30.273,22.461,37.109,32.227,-19.531,0
191477.434,31.250,25.391,33.203,39.062,16.602,0
191477.438,30.762,30.273,34.668,24.414,4.883,0
191477.442,29.785,32.227,29.785,19.043,-21.973,0
191477.446,30.273,31.250,24.902,26.367,-56.152,0
191477.450,36.621,31.738,32.227,39.551,-49.316,0
191477.454,41.016,32.715,34.180,36.133,35.156,0
191477.457,37.109,34.668,32.227,20.996,6.836,0
191477.461,28.320,31.738,31.738,20.996,-23.926,0
191477.465,31.250,26.855,26.367,37.109,20.508,0
191477.469,39.062,29.785,27.832,48.340,34.180,0
191477.473,33.203,29.785,34.180,33.691,-11.719,0
191477.477,25.391,23.926,38.574,22.461,-12.695,0
191477.481,23.438,24.414,38.086,35.645,37.109,0
191477.485,25.879,27.344,31.250,41.016,35.156,0
191477.489,28.320,31.250,24.414,24.414,23.438,0
191477.493,30.273,35.156,20.508,14.648,2.930,0
191477.497,29.785,36.133,21.484,26.367,21.973,0
191477.500,36.133,32.227,23.438,44.434,89.355,0
191477.504,37.598,31.250,24.902,35.156,76.172,0
191477.508,35.645,33.203,28.809,20.020,50.781,0
191477.512,31.250,29.297,31.738,25.391,71.777,0
191477.516,29.785,28.320,28.809,36.621,65.430,0
191477.520,37.109,31.738,23.926,28.809,25.879,0
191477.524,36.133,31.738,20.020,19.531,-8.301,0
191477.528,27.344,28.320,22.461,17.578,12.207,0
191477.532,28.320,24.902,30.273,29.297,104.004,0
191477.536,33.203,29.785,31.738,28.320,111.816,0
191477.539,30.762,35.156,20.508,8.301,36.133,0
191477.543,24.902,35.156,16.113,9.766,54.688,0
191477.547,25.879,31.738,23.926,26.367,110.352,0
191477.551,35.156,30.273,21.484,32.715,119.629,0
191477.555,34.180,32.227,20.996,15.625,99.121,0
191477.559,23.926,34.180,26.367,7.812,25.879,0
191477.563,20.996,30.762,29.297,16.602,14.648,0
191477.567,25.879,28.320,30.762,28.809,81.055,0
191477.571,26.367,31.250,30.273,20.508,33.691,0
191477.575,25.391,32.227,33.691,12.207,-31.250,0
191477.579,25.879,32.715,35.645,22.949,-15.625,0
191477.582,29.785,33.691,30.762,32.715,-5.859,0
191477.586,31.738,30.273,25.879,30.762,50.781,0
191477.590,29.785,26.855,27.344,15.625,64.453,0
191477.594,27.344,29.297,32.227,9.277,41.016,0
191477.598,28.320,26.855,30.273,26.855,76.172,0
191477.602,29.785,27.832,27.832,31.250,92.285,0
191477.606,33.691,34.668,31.250,16.113,48.340,0
191477.610,33.691,31.250,36.621,15.625,-25.879,0
191477.614,28.809,23.926,38.574,31.250,-1.953,0
191477.618,34.180,23.926,38.574,42.480,51.270,0
191477.622,38.086,30.273,42.969,31.250,25.391,0
191477.625,31.250,29.785,41.016,19.043,-48.340,0
191477.629,23.926,28.809,29.297,34.180,-44.434,0
191477.633,26.855,33.691,29.785,50.293,39.551,0
191477.637,31.250,35.156,30.762,27.344,39.062,0
191477.641,25.879,30.273,24.902,11.230,-2.441,0
191477.645,19.043,24.902,30.762,17.090,8.789,0
191477.649,26.855,25.391,39.551,30.762,66.895,0
191477.653,36.133,29.297,41.992,28.320,44.434,0
191477.657,36.133,32.715,42.480,11.719,-1.953,0
191477.661,25.879,33.203,38.574,11.230,1.953,0
191477.664,24.902,30.762,34.668,26.855,31.250,0
191477.668,30.273,25.391,30.273,32.715,51.270,0
191477.672,25.879,25.391,24.414,7.324,3.418,0
191477.676,23.438,30.273,25.391,-0.488,-48.340,0
191477.680,23.438,27.832,28.320,26.367,-2.930,0
191477.684,26.855,22.461,25.391,32.227,95.215,0
191477.688,28.809,21.973,23.926,20.996,90.820,0
191477.692,29.785,26.367,29.297,23.926,32.715,0
191477.696,24.902,25.879,30.273,25.391,70.312,0
191477.700,28.809,20.996,27.344,34.180,145.020,0
191477.704,35.156,24.902,32.227,28.320,86.914,0
191477.707,31.738,28.809,36.133,12.695,25.879,0
191477.711,28.320,28.320,38.086,16.602,25.391,0
191477.715,33.203,26.367,34.668,29.785,37.109,0
191477.719,37.109,28.320,24.902,26.367,42.480,0
191477.723,35.156,30.273,28.809,19.043,57.129,0
191477.727,32.227,26.855,33.691,22.949,39.062,0
191477.731,33.691,24.414,36.133,39.062,48.340,0
191477.735,38.086,26.855,39.551,50.293,94.238,0
191477.739,30.762,31.250,32.227,30.762,68.848,0
191477.743,22.949,30.273,28.809,21.484,37.109,0
191477.747,24.902,27.344,31.738,33.203,55.176,0
191477.750,29.785,23.926,34.180,34.668,71.777,0
191477.754,26.367,24.414,36.621,20.508,69.336,0
191477.758,23.926,31.738,34.180,9.766,36.621,0
191477.762,24.902,33.203,26.855,12.695,14.648,0
191477.766,26.855,30.762,26.367,28.809,75.195,0
191477.770,27.832,30.762,28.320,30.273,97.168,0
191477.774,24.414,31.738,28.809,7.812,28.809,0
191477.778,23.438,26.855,34.180,4.883,19.043,0
191477.782,31.250,27.344,38.086,28.809,84.961,0
191477.786,32.715,33.691,39.551,37.109,116.211,0
191477.789,29.297,40.527,36.133,21.484,76.172,0
191477.793,28.320,40.527,30.273,18.555,-17.578,0
191477.797,26.855,31.738,35.645,43.457,13.184,0
191477.801,28.809,26.855,41.504,53.711,64.941,0
191477.805,28.809,28.320,35.156,28.320,4.883,0
191477.809,27.344,29.785,26.855,17.090,-37.109,0
191477.813,23.438,28.320,30.273,30.273,-34.180,0
191477.817,20.020,22.461,31.738,42.969,20.020,0
191477.821,20.996,20.508,35.645,29.785,24.414,0
191477.825,17.578,24.902,38.086,9.766,-13.672,0
191477.829,8.301,27.832,36.133,14.160,-8.301,0
191477.832,10.254,23.926,30.762,31.738,65.918,0
191477.836,19.043,24.902,29.785,27.832,85.449,0
191477.840,23.926,29.785,34.180,13.184,59.570,0
191477.844,14.648,29.297,26.367,15.625,48.340,0
191477.848,16.113,29.297,23.438,34.180,35.645,0
191477.852,30.273,29.785,30.762,36.621,23.438,0
191477.856,26.855,27.832,30.762,11.230,8.789,0
191477.860,16.113,26.855,30.273,1.465,23.438,0
191477.864,14.648,25.879,29.297,15.137,22.949,0
191477.868,21.973,27.344,30.273,23.926,-2.930,0
191477.872,26.855,30.762,32.715,17.090,-6.836,0
191477.875,24.414,29.785,29.785,16.602,0.000,0
191477.879,19.043,26.367,31.738,26.855,23.438,0
191477.883,25.879,19.531,33.203,42.969,71.777,0
191477.887,38.574,21.484,32.715,39.551,97.656,0
191477.891,34.180,30.273,31.738,21.973,57.617,0
191477.895,17.578,33.203,25.391,11.230,49.316,0
191477.899,20.020,32.227,25.879,22.461,75.684,2
191477.903,24.414,28.320,24.902,18.066,76.172,0
191477.907,17.090,30.762,23.438,3.906,29.785,0
191477.911,18.555,35.645,32.715,13.672,-21.973,0
191477.914,22.949,31.738,34.180,32.227,26.367,0
191477.918,26.855,25.391,30.762,33.203,99.609,0
191477.922,26.367,26.855,29.785,15.625,29.785,0
191477.926,25.391,31.738,24.902,14.160,-33.691,0
191477.930,29.297,31.738,31.738,28.809,11.230,0
191477.934,32.715,25.879,38.574,42.480,74.219,0
191477.938,31.738,26.855,34.668,28.809,29.785,0
191477.942,29.785,30.273,32.715,18.066,-15.137,0
191477.946,23.926,29.297,34.668,29.785,-7.324,0
191477.950,26.855,31.738,40.527,49.805,81.543,0
191477.954,32.715,33.203,38.574,47.852,92.773,0
191477.957,25.391,28.809,30.762,23.438,19.531,0
191477.961,19.043,23.926,31.250,30.762,14.648,0
191477.965,23.926,27.344,37.109,54.199,62.500,0
191477.969,26.367,31.250,38.086,38.574,71.289,0
191477.973,18.555,29.785,36.133,16.602,10.254,0
191477.977,12.207,30.273,33.203,17.578,8.301,0
191477.981,16.113,27.832,32.227,35.645,38.574,0
191477.985,25.879,25.879,31.250,45.898,68.359,0
191477.989,29.297,24.902,24.414,22.461,34.668,0
191477.993,26.855,24.414,19.531,12.207,9.766,0
191477.997,18.555,23.438,19.531,26.855,62.012,0
191478.000,18.555,23.438,26.855,33.691,79.590,0
191478.004,22.949,26.855,28.809,17.090,35.645,0
191478.008,16.602,23.438,24.414,8.301,33.203,0
191478.012,14.160,21.484,26.855,17.578,22.461,0
191478.016,25.879,24.414,30.273,36.621,31.250,0
191478.020,29.785,27.344,27.344,29.297,26.855,0
191478.024,24.902,32.227,24.414,12.207,21.484,0
191478.028,20.508,28.320,30.762,20.020,39.551,0
191478.032,22.461,24.414,33.203,38.574,33.691,0
191478.036,30.762,26.855,28.809,32.715,-4.395,0
191478.039,34.668,27.344,27.832,14.648,-62.988,0
191478.043,32.227,26.367,28.320,12.695,-69.336,0
191478.047,35.156,28.809,27.344,26.367,-57.617,0
191478.051,43.945,32.715,26.855,41.504,-5.859,0
191478.055,38.574,30.762,26.855,27.344,-17.090,0
191478.059,31.738,29.297,28.809,16.602,-20.020,0
191478.063,32.227,34.180,30.762,28.320,-0.488,0
191478.067,33.691,30.762,27.344,37.598,27.832,0
191478.071,31.738,26.855,25.391,19.531,31.738,0
191478.075,29.785,29.785,26.855,2.930,-36.621,0
191478.079,33.691,27.344,31.738,14.648,-54.199,0
191478.082,35.645,24.902,35.156,35.156,23.438,0
191478.086,33.691,29.297,34.180,34.668,66.895,0
191478.090,30.762,26.855,35.156,13.672,-4.395,0
191478.094,22.461,24.414,33.203,8.789,-59.082,0
191478.098,20.508,25.391,30.273,31.738,15.625,0
191478.102,25.391,25.391,32.227,36.133,72.266,0
191478.106,27.344,25.879,34.180,11.230,-13.184,0
191478.110,21.484,28.809,34.180,7.324,-16.602,0
191478.114,16.602,29.297,33.691,31.250,71.289,0
191478.118,19.531,22.461,35.156,38.086,82.520,0
191478.122,21.484,22.949,38.574,21.484,65.918,0
191478.125,20.996,29.297,33.691,16.113,73.242,0
191478.129,18.066,25.391,30.273,18.555,97.168,0
191478.133,23.926,17.578,31.738,32.715,91.309,0
191478.137,25.879,20.996,34.668,23.926,19.531,0
191478.141,15.625,21.484,32.715,8.301,-6.836,0
191478.145,8.301,16.602,27.344,14.160,31.250,0
191478.149,14.648,19.043,35.156,28.809,64.453,0
191478.153,20.020,22.949,40.039,29.785,45.898,0
191478.157,18.555,28.320,35.156,10.742,-6.348,0
191478.161,16.113,28.809,36.621,4.395,-40.039,0
191478.164,17.578,23.438,39.551,21.484,27.832,0
191478.168,22.461,20.996,39.062,29.297,119.629,0
191478.172,22.949,24.902,32.227,14.160,64.941,0
191478.176,18.555,29.297,23.926,13.184,-12.695,0
191478.180,18.066,23.926,28.320,25.391,-45.410,0
191478.184,24.902,22.949,33.203,30.273,12.207,0
191478.188,24.902,32.715,30.273,16.113,-5.371,0
191478.192,22.949,34.180,27.832,5.371,-102.539,0
191478.196,22.949,30.273,20.996,15.137,-82.031,0
191478.200,28.320,30.273,20.996,33.691,1.465,0
191478.204,31.250,32.227,24.902,25.391,3.906,0
191478.207,27.832,32.715,24.902,11.719,-45.898,0
191478.211,32.715,32.227,29.297,22.461,-76.660,0
191478.215,36.621,32.715,25.391,36.621,-21.484,0
191478.219,27.832,31.738,20.996,34.180,41.016,0
191478.223,20.996,31.250,28.320,19.043,20.996,0
191478.227,20.996,35.645,33.691,11.230,0.488,0
191478.231,22.461,38.086,31.738,25.879,23.926,0
191478.235,24.414,36.621,30.762,40.527,94.238,0
191478.239,22.461,35.645,33.691,22.949,61.035,0
191478.243,16.113,32.227,31.738,-0.488,-42.480,0
191478.247,15.137,27.344,27.832,14.648,-7.324,0
191478.250,22.461,23.926,26.855,34.668,78.125,0
191478.254,19.043,24.414,24.414,22.949,49.316,0
191478.258,14.160,24.902,25.879,9.766,14.648,0
191478.262,14.648,22.461,32.227,17.578,4.395,0
191478.266,23.926,23.926,35.156,39.062,20.996,0
191478.270,29.785,25.391,39.062,34.668,41.504,0
191478.274,22.461,27.832,40.039,8.789,-11.230,0
191478.278,3.906,27.832,40.039,-2.930,-26.367,0
191478.282,1.465,23.438,39.062,14.160,56.641,0
191478.286,12.207,21.484,38.574,16.602,76.172,0
191478.289,17.090,20.508,36.133,-0.977,-14.648,0
191478.293,21.484,28.320,24.902,11.230,-0.977,0
191478.297,23.438,31.250,26.855,32.715,63.965,0
191478.301,23.926,24.414,32.715,36.133,59.570,0
191478.305,23.926,23.926,35.156,31.738,29.297,0
191478.309,23.438,25.879,41.016,31.738,28.320,0
191478.313,20.508,24.414,43.457,35.645,87.891,0
191478.317,23.926,24.902,42.969,47.363,122.559,0
191478.321,31.738,23.438,35.645,37.109,88.379,0
191478.325,30.273,23.438,31.250,20.020,22.461,0
191478.329,25.879,26.855,33.203,27.344,26.855,0
191478.332,27.344,25.879,34.668,41.504,40.039,0
191478.336,24.902,31.738,33.203,34.180,52.734,0
191478.340,21.484,35.156,27.344,16.602,75.684,0
191478.344,16.113,28.809,21.973,18.555,56.641,0
191478.348,19.531,28.809,23.438,38.086,81.055,0
191478.352,30.762,34.668,22.461,41.016,107.422,0
191478.356,26.855,32.715,21.484,14.648,40.527,0
191478.360,22.461,31.250,24.902,11.230,6.348,0
191478.364,31.738,31.250,31.250,33.203,59.570,0
191478.368,35.645,28.809,29.785,37.598,102.051,0
191478.372,30.273,32.227,28.320,18.066,87.891,0
191478.375,31.738,35.156,29.785,2.930,41.504,0
191478.379,25.391,35.645,28.320,7.324,27.344,0
191478.383,22.949,34.180,25.391,26.367,94.727,0
191478.387,21.973,32.715,23.438,17.090,103.516,0
191478.391,16.602,32.715,22.461,-2.930,48.828,0
191478.395,17.578,34.180,20.508,5.859,28.320,0
191478.399,16.113,31.738,21.484,28.320,120.117,0
191478.403,16.113,30.762,27.832,29.297,155.273,0
191478.407,22.461,32.227,30.762,16.602,47.363,0
191478.411,22.461,31.250,31.738,19.531,13.184,0
191478.414,24.414,26.855,37.109,37.109,70.312,0
191478.418,28.809,21.484,37.598,44.434,84.961,0
191478.422,26.855,23.926,35.645,21.484,4.395,0
191478.426,23.926,27.832,33.203,6.836,-53.711,0
191478.430,21.973,28.320,31.738,22.461,11.719,0
191478.434,23.438,30.762,34.180,40.039,82.520,0
191478.438,20.020,29.785,37.598,21.484,67.871,0
191478.442,19.531,28.809,37.109,11.230,14.160,0
191478.446,20.508,31.250,34.180,26.855,46.875,0
191478.450,30.273,30.273,34.668,46.875,71.289,0
191478.454,29.297,28.320,39.062,39.551,34.180,0
191478.457,10.254,27.344,36.133,10.742,17.578,0
191478.461,10.254,21.973,34.180,19.043,-14.648,0
191478.465,26.855,16.602,40.039,48.828,16.113,0
191478.469,31.250,21.973,40.039,43.457,48.340,0
191478.473,22.461,26.367,38.086,21.973,8.789,0
191478.477,19.043,20.996,41.504,23.438,0.000,0
191478.481,22.949,18.555,41.992,41.992,44.434,1
191478.485,27.832,21.484,40.527,48.828,61.035,0
191478.489,27.832,26.367,39.062,29.785,25.879,0
191478.493,22.461,29.297,36.133,19.043,-17.090,0
191478.497,20.508,25.879,30.762,30.273,-9.277,0
191478.500,27.832,22.949,25.391,46.875,37.598,0
191478.504,29.785,26.367,23.438,31.250,67.383,0
191478.508,30.762,20.996,24.902,14.160,7.324,0
191478.512,31.250,18.066,23.926,19.043,-43.945,0
191478.516,30.273,21.973,20.020,29.297,5.371,0
191478.520,36.133,26.367,25.879,28.809,28.320,0
191478.524,36.133,29.297,32.715,18.555,-36.621,0
191478.528,28.320,26.367,34.180,24.902,-53.223,0
191478.532,32.227,29.785,32.227,46.875,42.480,0
191478.536,38.574,35.645,30.273,50.781,28.809,0
191478.539,37.109,36.621,30.273,29.785,-48.828,0
191478.543,32.227,31.250,25.391,24.414,-39.062,0
191478.547,31.738,25.391,22.949,37.598,0.488,0
191478.551,38.574,22.461,23.926,38.574,35.156,0
191478.555,38.086,20.996,21.484,20.508,-29.785,0
191478.559,32.227,22.461,23.438,11.719,-86.426,0
191478.563,32.715,24.902,25.879,27.344,-7.812,0
191478.567,39.551,28.809,25.879,48.340,59.570,0
191478.571,43.457,31.250,23.438,37.598,7.324,0
191478.575,35.645,32.227,28.320,19.043,-84.473,0
191478.579,26.367,29.297,33.691,32.715,-75.684,0
191478.582,29.785,26.367,26.855,49.805,-1.953,0
191478.586,36.133,25.879,24.414,41.992,28.809,0
191478.590,30.762,24.902,28.320,23.438,21.484,0
191478.594,23.438,22.461,28.320,19.531,-16.602,0
191478.598,21.973,20.996,29.297,37.109,15.625,0
191478.602,26.855,18.066,31.250,50.781,78.613,0
191478.606,32.715,14.160,29.297,35.645,42.480,0
191478.610,22.949,17.578,29.785,28.320,-8.789,0
191478.614,23.438,18.066,36.621,49.316,2.441,0
191478.618,33.691,11.230,39.062,51.758,41.504,0
191478.622,30.273,14.160,37.598,27.344,33.691,0
191478.625,28.809,18.555,34.668,20.020,7.812,0
191478.629,32.715,13.672,32.227,26.367,-8.789,0
191478.633,37.109,10.742,38.574,42.969,21.484,0
191478.637,31.738,13.672,41.016,44.434,10.254,0
191478.641,29.297,14.648,41.992,32.715,-74.219,0
191478.645,28.320,13.184,46.387,36.133,-83.496,0
191478.649,27.832,15.625,47.852,49.805,-1.465,0
191478.653,29.297,18.066,40.527,49.805,54.688,0
191478.657,24.414,20.508,30.273,28.809,3.418,0
191478.661,16.113,22.461,25.879,20.020,-24.414,0
191478.664,18.555,23.926,27.344,29.297,28.809,0
191478.668,30.273,26.855,29.297,37.109,78.125,0
191478.672,26.367,27.344,27.832,21.973,48.340,0
191478.676,21.973,27.832,26.367,16.113,7.324,0
191478.680,30.273,27.344,31.738,37.109,46.387,0
191478.684,36.133,25.879,37.598,45.410,96.680,0
191478.688,35.645,25.879,33.691,23.438,66.895,0
191478.692,35.156,30.762,25.879,12.207,26.855,0
191478.696,27.344,32.715,24.902,18.066,10.254,0
191478.700,23.438,30.273,23.438,28.809,45.410,0
191478.704,28.809,32.715,17.578,21.973,43.945,0
191478.707,31.250,35.156,24.414,-2.441,-37.109,0
191478.711,26.367,34.180,32.227,0.977,-48.340,0
191478.715,28.320,34.668,32.227,28.320,43.457,0
191478.719,38.086,43.457,27.832,32.715,84.473,0
191478.723,37.598,46.875,25.879,16.113,38.086,0
191478.727,26.367,40.527,31.738,9.277,11.230,0
191478.731,22.949,35.156,35.156,22.949,12.207,0
191478.735,27.344,30.762,31.738,30.762,35.645,0
191478.739,24.902,31.738,27.344,13.184,43.945,0
191478.743,18.555,32.715,30.273,6.836,-13.184,0
191478.747,14.160,29.785,33.203,21.973,-7.324,0
191478.750,16.113,27.344,33.691,34.180,79.102,0
191478.754,12.695,27.832,34.180,16.602,33.691,0
191478.758,5.859,27.832,30.273,5.859,-13.672,0
191478.762,8.789,28.320,27.344,10.254,8.301,0
191478.766,17.090,31.250,30.762,19.531,41.016,0
191478.770,21.973,31.250,30.273,16.113,29.785,0
191478.774,18.066,29.785,30.273,2.930,14.160,0
191478.778,11.230,28.809,37.109,9.277,19.531,0
191478.782,13.184,29.785,39.062,29.785,35.156,0
191478.786,21.973,30.273,33.203,34.668,79.102,0
191478.789,17.578,30.273,27.832,15.137,10.742,0
191478.793,9.277,31.738,31.250,7.324,-27.832,0
191478.797,13.184,30.273,38.086,23.926,20.996,0
191478.801,19.531,33.691,35.156,32.715,56.641,0
191478.805,20.996,40.039,30.273,14.160,20.996,0
191478.809,25.879,44.434,33.691,7.324,-38.574,0
191478.813,26.367,41.016,33.691,27.832,-28.809,0
191478.817,26.367,33.203,26.367,44.922,41.016,0
191478.821,30.762,37.109,24.414,31.250,71.777,0
191478.825,29.297,38.086,21.484,11.719,-1.953,0
191478.829,26.855,33.203,21.973,21.973,-23.438,0
191478.832,29.297,34.668,27.344,42.480,51.270,0
191478.836,29.297,37.109,24.414,36.621,51.758,0
191478.840,23.926,36.621,24.902,12.207,-17.578,0
191478.844,17.090,35.156,28.809,1.953,-51.758,0
191478.848,17.578,36.621,24.414,20.996,52.246,0
191478.852,23.438,37.598,24.414,34.668,122.070,0
191478.856,20.020,32.227,31.250,16.113,35.645,0
191478.860,15.137,29.297,34.180,9.766,-1.953,0
191478.864,18.555,31.738,35.156,28.320,25.391,0
191478.868,25.391,33.691,28.809,35.645,64.453,0
191478.872,21.973,34.668,22.461,17.090,50.293,0
191478.875,16.602,37.598,26.855,5.371,0.488,0
191478.879,14.648,33.691,35.645,15.625,12.207,0
191478.883,16.602,26.855,40.527,35.156,32.715,0
191478.887,16.602,27.344,40.527,24.902,-22.949,0
191478.891,16.602,35.156,38.574,9.277,-48.340,0
191478.895,14.160,37.598,32.715,13.672,5.859,0
191478.899,11.719,27.832,32.227,26.855,12.695,0
191478.903,16.602,25.391,36.621,27.832,0.488,0
191478.907,23.438,34.180,41.992,17.090,48.340,0
191478.911,19.531,34.668,42.480,18.066,75.684,0
191478.914,16.113,32.227,32.227,25.391,87.891,0
191478.918,24.414,32.715,24.414,26.367,83.008,0
191478.922,27.832,34.668,24.414,17.090,46.387,0
191478.926,26.855,33.203,24.414,16.602,20.020,0
191478.930,24.902,23.438,26.855,20.020,20.996,0
191478.934,32.227,23.438,30.273,24.902,6.348,0
191478.938,34.668,30.273,30.273,21.484,-33.691,0
191478.942,26.367,28.320,29.297,10.742,-14.648,0
191478.946,25.391,29.785,28.809,17.578,18.555,0
191478.950,34.668,37.598,25.391,35.645,62.988,0
191478.954,38.086,41.992,26.855,32.227,69.336,0
191478.957,34.180,41.992,26.367,19.043,29.297,0
191478.961,28.809,39.062,19.043,21.484,4.883,0
191478.965,29.785,40.039,20.996,36.621,44.434,0
191478.969,34.180,39.551,25.391,40.527,54.688,0
191478.973,30.273,36.621,28.809,19.531,-2.441,0
191478.977,28.320,36.621,30.273,5.859,-26.367,0
191478.981,31.250,32.227,28.809,23.926,29.297,0
191478.985,35.156,31.250,26.855,32.715,110.840,0
191478.989,31.250,37.598,24.902,10.742,86.914,0
191478.993,24.902,38.086,29.785,-4.395,18.555,0
191478.997,23.926,36.621,29.785,8.301,-8.301,0
191479.000,29.785,37.109,28.320,31.250,61.035,0
191479.004,30.762,34.668,29.785,17.578,75.684,0
191479.008,22.949,33.203,29.785,2.930,25.391,0
191479.012,20.508,35.156,27.832,14.648,51.270,0
191479.016,24.414,33.203,25.879,35.156,82.520,0
191479.020,23.926,34.180,29.297,29.297,90.332,0
191479.024,20.996,33.203,30.273,2.930,58.594,0
191479.028,18.555,27.832,35.156,3.906,50.781,0
191479.032,22.461,27.832,40.527,31.250,105.957,0
191479.036,31.738,26.855,41.992,43.457,125.977,0
191479.039,23.926,24.414,41.992,15.625,66.895,0
191479.043,14.160,27.344,39.062,8.301,53.223,0
191479.047,10.742,27.344,34.180,21.484,92.285,0
191479.051,15.625,24.902,33.691,24.902,100.098,0
191479.055,21.484,27.832,34.668,19.043,57.129,0
191479.059,12.207,28.809,33.203,9.277,11.719,0
191479.063,7.324,25.879,32.715,18.066,10.254,0
191479.067,19.043,23.926,33.691,40.039,28.809,0
191479.071,20.508,21.973,32.715,26.367,7.324,0
191479.075,13.672,21.973,30.762,3.418,6.836,0
191479.079,18.066,23.438,27.344,12.207,1.465,0
191479.082,24.902,20.020,20.996,32.715,-30.273,0
191479.086,26.367,20.020,20.508,32.715,22.461,0
191479.090,26.855,26.367,27.832,15.625,19.043,0
191479.094,22.461,25.879,28.320,10.254,-49.805,0
191479.098,24.414,24.902,28.809,23.926,-13.184,0
191479.102,31.738,26.855,28.809,30.762,70.312,0
191479.106,31.738,30.762,23.926,14.648,23.926,0
191479.110,27.832,33.691,25.391,9.766,-61.035,0
191479.114,25.879,32.715,27.344,17.578,-20.996,0
191479.118,35.645,33.203,26.367,21.973,48.828,2
191479.122,38.574,37.598,28.320,17.578,29.785,0
191479.125,33.691,35.645,28.320,12.207,-62.988,0
191479.129,30.762,27.344,23.438,15.625,-50.781,0
191479.133,32.227,24.902,19.531,35.156,75.684,0
191479.137,34.668,30.273,21.484,34.668,89.355,0
191479.141,29.297,34.668,25.391,17.578,54.688,0
191479.145,25.879,30.762,29.785,17.578,48.828,0
191479.149,29.785,25.391,27.832,35.156,73.730,0
191479.153,32.715,27.344,21.973,41.992,113.281,0
191479.157,28.809,30.273,25.391,26.855,72.754,0
191479.161,24.414,29.297,34.668,18.555,36.621,0
191479.164,26.367,24.414,39.062,30.762,58.594,0
191479.168,30.273,25.391,35.156,46.387,80.078,0
191479.172,26.367,25.391,31.250,29.297,40.527,0
191479.176,22.949,22.461,33.203,13.184,21.973,0
191479.180,26.367,26.855,35.645,23.438,56.641,0
191479.184,32.227,29.785,36.621,34.180,69.336,0
191479.188,30.762,28.320,30.762,24.414,36.133,0
191479.192,22.461,25.879,22.461,9.277,-27.344,0
191479.196,21.973,23.438,21.484,14.160,-62.988,0
191479.200,23.438,23.438,24.902,34.180,-15.625,0
191479.204,21.484,24.414,31.250,28.320,21.973,0
191479.207,22.949,27.832,36.133,10.254,-28.320,0
191479.211,18.066,24.902,35.156,13.672,-46.875,0
191479.215,18.555,20.508,36.621,33.203,17.090,0
191479.219,24.414,25.391,35.645,38.574,-6.836,0
191479.223,20.508,32.715,32.715,16.113,-77.148,0
191479.227,17.090,34.668,26.855,8.301,-28.809,0
191479.231,23.438,28.320,21.973,31.250,32.227,0
191479.235,34.180,25.391,24.414,44.434,62.500,0
191479.239,32.227,31.738,31.250,27.832,64.453,0
191479.243,27.832,32.715,28.320,20.020,47.363,0
191479.247,26.367,28.809,25.879,28.809,29.785,0
191479.250,27.832,31.250,23.926,41.504,53.711,0
191479.254,28.809,36.133,20.020,33.203,64.941,0
191479.258,25.879,34.668,23.926,16.113,7.812,0
191479.262,20.020,29.785,30.762,11.719,11.719,0
191479.266,20.020,27.832,29.785,24.902,51.270,0
191479.270,24.902,28.809,30.273,33.691,65.918,0
191479.274,25.879,24.414,28.320,19.043,-0.977,0
191479.278,24.902,20.020,23.926,11.719,-30.273,0
191479.282,24.414,20.996,27.344,25.879,25.391,0
191479.286,26.367,26.367,26.855,32.715,51.758,0
191479.289,25.391,33.691,26.855,16.113,48.340,0
191479.293,22.949,36.621,30.762,12.695,32.715,0
191479.297,21.973,32.227,29.785,28.320,39.062,0
191479.301,26.855,29.785,29.297,40.527,78.125,0
191479.305,28.320,34.180,30.273,26.855,39.062,0
191479.309,27.832,37.598,27.832,15.625,-3.906,0
191479.313,31.250,33.203,29.297,30.273,64.453,0
191479.317,33.203,30.762,34.180,52.246,115.723,0
191479.321,33.691,31.250,34.180,44.922,59.570,0
191479.325,30.762,30.762,25.879,23.926,2.441,0
191479.329,26.367,34.180,28.320,30.273,5.859,0
191479.332,29.297,32.227,39.062,48.340,47.363,0
191479.336,29.785,30.273,37.109,41.016,64.941,0
191479.340,25.879,31.738,33.691,17.090,12.695,0
191479.344,27.832,29.785,33.203,18.555,-12.695,0
191479.348,34.668,25.879,30.762,33.691,49.316,0
191479.352,34.180,24.902,31.738,37.109,62.988,0
191479.356,30.762,30.762,37.109,24.902,4.395,0
191479.360,25.879,32.715,38.086,17.090,-1.465,0
191479.364,18.066,28.320,33.691,26.855,50.293,0
191479.368,22.949,29.297,28.320,36.133,61.523,0
191479.372,23.926,33.691,24.902,20.508,32.715,0
191479.375,19.531,34.668,27.832,10.742,34.668,0
191479.379,17.578,30.273,29.297,12.695,-2.930,0
191479.383,22.949,25.879,25.391,27.344,19.043,0
191479.387,26.367,26.855,21.973,24.902,53.223,0
191479.391,22.949,27.832,23.438,8.301,9.277,0
191479.395,21.484,24.902,30.273,13.672,-20.508,0
191479.399,26.367,21.973,29.785,31.738,14.160,0
191479.403,28.320,23.926,25.391,38.574,67.871,0
191479.407,22.461,25.879,32.227,20.020,52.734,0
191479.411,19.043,20.508,33.691,15.625,0.488,0
191479.414,20.508,15.137,31.738,32.227,3.418,0
191479.418,24.902,20.996,34.668,43.457,60.059,0
191479.422,24.414,32.715,33.203,30.762,17.090,0
191479.426,21.973,30.273,32.715,24.414,-7.812,0
191479.430,21.973,25.391,36.621,36.133,57.617,0
191479.434,25.391,29.785,38.086,49.805,113.281,0
191479.438,26.855,30.762,35.156,36.621,56.641,0
191479.442,22.461,29.297,32.227,20.508,-4.395,0
191479.446,17.090,29.785,37.109,26.367,18.555,0
191479.450,18.555,29.297,37.109,36.621,70.312,0
191479.454,26.855,30.273,29.785,34.180,70.312,0
191479.457,27.344,29.785,29.785,20.020,-14.648,0
191479.461,20.508,29.785,32.227,17.090,-11.719,0
191479.465,23.926,29.297,28.320,31.250,83.984,0
191479.469,29.297,26.855,29.297,33.203,107.422,0
191479.473,28.320,29.785,32.227,16.602,17.090,0
191479.477,25.391,33.691,32.227,14.648,-23.926,0
191479.481,22.949,30.762,33.203,26.855,60.547,0
191479.485,31.250,29.785,36.133,37.109,94.238,0
191479.489,40.527,36.133,37.598,29.297,36.133,0
191479.493,39.062,40.039,37.598,24.414,17.090,0
191479.497,27.832,37.109,37.109,27.344,58.594,0
191479.500,23.438,29.785,31.738,30.762,84.473,0
191479.504,24.414,27.832,30.762,16.602,45.410,0
191479.508,21.484,28.320,33.691,5.371,46.387,0
191479.512,19.531,29.785,27.344,13.184,39.551,0
191479.516,22.949,31.250,20.996,28.809,59.570,0
191479.520,26.367,32.227,19.043,25.879,55.176,0
191479.524,23.926,34.668,17.090,11.230,3.418,0
191479.528,22.949,30.273,21.973,16.113,6.348,0
191479.532,28.809,23.926,26.855,32.227,52.734,0
191479.536,39.062,23.926,31.738,33.691,59.570,0
191479.539,35.156,28.320,38.574,21.973,36.621,0
191479.543,21.484,28.809,39.551,18.555,24.414,0
191479.547,21.484,27.344,35.156,18.555,20.996,0
191479.551,23.926,27.344,28.809,20.508,73.730,0
191479.555,20.508,28.809,25.391,12.695,50.781,0
191479.559,17.578,32.715,24.414,4.883,0.977,0
191479.563,17.578,34.180,22.461,15.137,11.230,0
191479.567,25.879,32.715,20.020,33.691,74.219,0
191479.571,28.320,33.691,25.391,21.484,20.020,0
191479.575,21.973,29.785,29.785,7.324,-38.086,0
191479.579,20.020,26.855,33.203,12.695,-24.902,0
191479.582,25.879,29.785,37.598,26.855,3.906,0
191479.586,27.832,33.691,35.645,31.250,57.129,0
191479.590,29.297,36.133,31.738,20.020,-9.766,0
191479.594,25.391,33.691,33.203,18.555,-53.223,0
191479.598,24.902,32.715,31.738,36.133,16.113,0
191479.602,31.250,31.738,25.879,45.898,13.672,0
191479.606,35.645,35.156,30.762,29.297,-34.668,0
191479.610,34.180,36.621,32.715,22.461,-36.133,0
191479.614,27.832,33.203,30.762,36.621,10.254,0
191479.618,32.227,32.227,32.227,47.852,41.504,0
191479.622,37.598,36.621,30.762,36.621,45.410,0
191479.625,35.645,40.039,29.785,24.414,37.598,0
191479.629,34.668,39.062,31.250,28.320,2.441,0
191479.633,38.574,35.645,30.762,46.387,17.090,0
191479.637,34.668,34.668,31.738,35.645,10.742,0
191479.641,24.902,32.227,37.598,11.719,-39.062,0
191479.645,19.531,30.762,36.621,21.484,-20.020,0
191479.649,25.879,29.785,29.297,42.969,26.855,0
191479.653,35.645,29.785,31.250,41.016,47.363,0
191479.657,36.621,30.273,35.645,26.367,4.395,0
191479.661,30.762,24.902,37.109,21.484,-18.555,0
191479.664,25.879,22.461,34.668,29.297,0.977,0
191479.668,27.344,25.391,32.715,30.762,-9.277,0
191479.672,20.996,29.297,31.738,11.719,31.250,0
191479.676,12.207,25.879,25.879,2.930,20.020,0
191479.680,13.184,19.531,19.043,13.672,3.906,0
191479.684,18.066,21.484,20.020,22.949,76.660,0
191479.688,15.625,26.855,27.344,20.020,50.293,0
191479.692,12.207,25.391,29.297,17.578,-45.898,0
191479.696,10.254,23.438,30.762,18.555,-68.848,0
191479.700,15.625,26.367,33.691,33.203,-11.230,0
191479.704,19.531,29.785,33.691,35.645,46.387,0
191479.707,15.625,28.320,34.668,16.113,25.391,0
191479.711,15.137,27.344,36.133,18.066,-23.926,0
191479.715,17.090,24.414,35.156,36.621,19.043,0
191479.719,25.391,24.902,30.273,44.434,61.035,0
191479.723,36.621,35.645,29.297,31.738,-10.254,0
191479.727,24.902,37.598,33.203,20.508,-25.391,0
191479.731,6.836,32.715,27.832,21.484,32.227,0
191479.735,21.484,33.691,18.066,31.250,53.711,0
191479.739,33.203,38.086,21.484,28.320,26.855,0
191479.743,24.414,36.133,32.227,14.648,-21.973,0
191479.747,21.973,31.738,34.668,25.391,9.766,0
191479.750,30.273,24.414,34.180,45.410,75.684,0
191479.754,32.227,23.438,31.738,32.715,78.613,0
191479.758,30.762,36.133,27.344,16.113,12.695,0
191479.762,30.762,40.039,28.809,25.879,-20.020,0
191479.766,36.133,35.156,32.715,45.410,60.059,1
191479.770,39.062,36.133,27.832,41.992,87.402,0
191479.774,31.738,37.598,26.367,23.926,10.254,0
191479.778,21.973,35.645,34.180,25.879,-12.695,0
191479.782,23.438,32.715,31.738,41.992,12.695,0
191479.786,30.273,29.297,30.273,43.457,12.695,0
191479.789,28.809,29.785,34.180,22.461,-15.625,0
191479.793,19.531,30.273,28.809,11.230,17.578,0
191479.797,15.625,26.367,33.203,26.855,55.664,0
191479.801,27.344,24.902,41.504,42.969,71.289,0
191479.805,30.762,24.414,38.086,28.809,34.180,0
191479.809,23.438,26.367,33.691,16.602,12.695,0
191479.813,18.066,24.902,31.250,28.320,1.465,0
191479.817,19.531,21.973,26.367,40.039,25.879,0
191479.821,27.832,27.344,23.926,28.809,26.367,0
191479.825,25.391,32.227,27.344,17.578,6.836,0
191479.829,22.461,30.762,34.180,29.785,19.043,0
191479.832,30.273,26.855,39.551,33.691,29.297,0
191479.836,32.715,27.832,40.527,25.391,71.777,0
191479.840,24.414,27.344,39.551,15.137,76.172,0
191479.844,20.020,21.973,31.738,16.113,47.363,0
191479.848,28.320,24.414,27.832,36.621,61.523,0
191479.852,36.133,32.227,33.203,43.945,96.191,0
191479.856,36.621,33.203,38.574,28.320,57.129,0
191479.860,32.227,32.715,35.156,21.973,-5.859,0
191479.864,30.273,32.715,26.367,29.785,19.043,0
191479.868,37.109,30.273,29.297,42.480,44.434,0
191479.872,35.645,31.250,36.133,28.809,6.348,0
191479.875,26.367,34.180,38.086,6.348,-25.879,0
191479.879,23.438,33.203,39.551,14.648,-33.203,0
191479.883,29.297,32.715,38.574,40.527,43.945,0
191479.887,33.203,36.621,35.645,36.621,83.496,0
191479.891,28.320,38.574,34.180,19.531,36.133,0
191479.895,29.785,34.668,31.738,23.926,56.641,0
191479.899,39.062,34.668,32.715,44.922,79.102,0
191479.903,35.645,34.668,32.715,40.527,81.055,0
191479.907,28.809,33.203,32.715,18.066,54.688,0
191479.911,28.809,34.668,30.762,20.020,21.484,0
191479.914,32.227,34.180,24.902,39.551,14.648,0
191479.918,37.109,33.203,29.297,49.316,7.324,0
191479.922,29.785,36.133,33.691,25.391,-27.344,0
191479.926,25.879,40.527,34.180,10.254,-46.875,0
191479.930,22.949,38.086,35.156,24.902,-1.953,0
191479.934,22.461,28.320,34.180,36.133,44.922,0
191479.938,21.484,27.832,35.645,28.809,51.758,0
191479.942,13.672,31.738,36.133,16.602,13.184,0
191479.946,12.207,30.762,31.250,23.438,11.719,0
191479.950,18.066,27.832,28.809,37.598,61.035,0
191479.954,20.996,29.297,25.391,21.484,88.867,0
191479.957,17.578,32.227,20.508,-2.441,16.602,0
191479.961,12.695,32.715,24.902,4.883,-16.113,0
191479.965,15.625,30.762,37.598,19.043,37.598,0
191479.969,21.484,28.320,37.109,20.996,62.012,0
191479.973,26.367,30.762,28.809,15.625,55.176,0
191479.977,28.809,32.227,33.203,18.555,16.113,0
191479.981,23.926,29.297,38.574,26.855,11.719,0
191479.985,25.879,25.391,36.133,33.691,72.754,0
191479.989,26.367,26.855,34.668,19.531,67.871,0
191479.993,20.020,27.344,36.133,8.301,4.883,0
191479.997,16.602,23.926,35.645,24.414,41.504,0
191480.000,20.996,21.973,33.691,40.527,84.961,0
191480.004,27.832,24.414,32.715,28.809,48.828,0
191480.008,32.715,29.785,28.320,18.555,-7.324,0
191480.012,29.785,32.715,25.391,23.926,-9.277,0
191480.016,24.414,29.297,27.344,34.180,65.918,0
191480.020,25.879,32.227,25.879,30.273,92.285,0
191480.024,26.367,37.109,24.902,15.137,10.254,0
191480.028,20.508,31.738,31.738,13.184,-55.664,0
191480.032,17.578,25.391,35.645,27.344,-11.230,0
191480.036,23.926,29.785,35.645,43.945,68.848,0
191480.039,25.879,35.156,31.738,26.367,36.133,0
191480.043,24.902,34.668,31.738,8.301,0.000,0
191480.047,29.297,33.691,34.180,24.414,62.012,0
191480.051,30.762,35.645,30.273,42.480,113.770,0
191480.055,26.855,41.504,25.391,29.785,67.871,0
191480.059,23.926,41.016,25.879,7.324,-1.953,0
191480.063,20.020,35.156,28.320,11.230,33.203,0
191480.067,26.855,35.645,26.367,36.133,105.469,0
191480.071,33.203,39.062,27.832,31.250,84.961,0
191480.075,30.273,41.992,24.414,10.254,73.242,0
191480.079,25.879,41.992,21.484,15.137,98.145,0
191480.082,30.762,34.180,24.414,36.133,108.398,0
191480.086,39.551,33.203,24.902,43.457,128.418,0
191480.090,35.156,37.109,24.414,25.879,91.797,0
191480.094,25.879,35.156,27.832,20.020,50.781,0
191480.098,28.320,32.227,29.297,36.621,56.152,0
191480.102,29.297,33.691,27.832,42.969,112.305,0
191480.106,24.902,33.691,32.227,25.391,57.617,0
191480.110,21.973,33.203,35.156,14.160,-33.203,0
191480.114,19.531,35.156,31.250,21.973,18.066,0
191480.118,24.902,37.598,28.320,26.855,62.988,0
191480.122,26.367,40.527,26.367,16.113,74.707,0
191480.125,24.902,40.527,23.438,10.254,72.266,0
191480.129,22.949,32.715,19.531,19.043,54.688,0
191480.133,25.391,27.832,17.578,38.574,55.664,0
191480.137,32.715,33.691,22.461,36.621,49.805,0
191480.141,30.762,31.250,27.832,19.043,12.695,0
191480.145,22.461,22.949,26.367,19.043,-20.996,0
191480.149,22.949,23.926,26.367,36.133,-3.906,0
191480.153,31.738,27.832,31.738,38.086,28.809,0
191480.157,32.227,25.391,36.621,23.926,-8.789,0
191480.161,23.438,23.926,39.062,19.043,-13.184,0
191480.164,24.902,23.438,36.133,31.250,-13.184,0
191480.168,30.762,22.461,33.691,42.969,9.277,0
191480.172,30.273,25.879,37.598,27.344,10.254,0
191480.176,29.297,29.785,36.621,17.090,0.488,0
191480.180,27.832,28.320,35.156,26.367,41.504,0
191480.184,29.297,22.461,39.551,40.527,94.238,0
191480.188,27.832,18.555,40.527,32.227,112.305,0
191480.192,23.926,19.043,32.227,14.160,34.668,0
191480.196,23.438,23.438,28.809,19.531,-10.254,0
191480.200,30.273,25.391,39.062,41.504,31.250,0
191480.204,32.715,26.855,43.945,40.527,12.207,0
191480.207,28.809,27.832,39.062,21.973,-37.109,0
191480.211,28.809,26.855,43.457,28.320,-50.293,0
191480.215,35.645,22.949,45.898,58.594,-1.953,0
191480.219,42.480,24.414,39.551,61.035,23.438,0
191480.223,44.434,32.227,38.574,40.527,-14.648,0
191480.227,37.109,31.738,35.156,36.133,-28.320,0
191480.231,32.227,27.344,32.227,45.898,8.301,0
191480.235,39.551,27.344,33.691,58.105,55.176,0
191480.239,35.645,28.320,36.621,41.504,26.367,0
191480.243,26.367,29.785,34.180,20.996,-25.879,0
191480.247,26.367,29.297,32.227,26.855,-34.180,0
191480.250,29.785,23.438,32.715,38.086,-18.066,0
191480.254,27.832,21.484,28.809,21.484,-66.406,0
191480.258,20.508,30.273,32.715,9.277,-70.312,0
191480.262,13.672,34.180,38.574,16.602,-48.340,0
191480.266,15.625,27.832,33.691,27.344,-13.672,0
191480.270,22.461,25.391,32.715,24.414,17.090,0
191480.274,20.996,27.832,35.645,9.277,-24.414,0
191480.278,8.789,23.438,31.738,6.836,-43.457,0
191480.282,8.301,18.066,28.320,18.555,-22.461,0
191480.286,19.043,23.926,29.297,23.926,58.105,0
191480.289,15.625,29.297,25.879,3.906,-7.324,0
191480.293,11.719,29.785,24.902,-2.441,-100.098,0
191480.297,13.672,24.902,29.297,9.766,-24.902,0
191480.301,17.090,21.484,31.250,24.414,66.406,0
191480.305,17.090,26.855,25.391,17.578,44.434,0
191480.309,13.672,29.297,24.902,2.930,-13.184,0
191480.313,10.254,21.973,28.809,13.672,-11.230,0
191480.317,18.066,20.020,25.391,40.039,69.336,0
191480.321,21.973,24.902,30.273,34.668,97.168,0
191480.325,11.230,25.879,36.621,1.953,75.684,0
191480.329,5.371,26.367,38.086,0.977,104.980,0
191480.332,14.160,28.809,38.574,23.438,118.164,0
191480.336,20.996,31.738,35.156,28.320,89.355,0
191480.340,17.578,31.250,31.738,10.742,16.602,0
191480.344,12.695,28.809,33.691,6.348,-13.672,0
191480.348,14.160,28.320,35.645,19.531,56.152,0
191480.352,23.438,29.297,38.086,29.297,96.191,0
191480.356,27.344,29.785,38.574,17.578,34.668,0
191480.360,27.832,31.250,39.551,14.648,3.418,0
191480.364,26.367,29.785,37.109,30.273,35.645,0
191480.368,24.414,28.320,26.855,39.551,82.520,0
191480.372,26.855,32.715,26.367,29.297,48.828,0
191480.375,31.250,33.203,31.738,19.043,-17.090,0
191480.379,25.391,29.297,34.668,24.414,-3.906,0
191480.383,28.809,32.227,32.227,44.922,29.785,0
191480.387,38.086,36.621,31.250,41.016,-20.020,0
191480.391,31.738,35.645,35.156,22.461,-47.852,0
191480.395,21.973,32.715,34.668,25.391,-20.020,0
191480.399,29.785,30.762,33.691,41.016,14.648,0
191480.403,40.039,34.180,30.762,44.922,75.684,0
191480.407,39.062,36.621,29.785,27.832,16.113,0
191480.411,33.203,32.715,30.762,15.625,-3.418,0
191480.414,31.250,32.227,25.879,27.344,90.332,0
191480.418,35.645,36.133,23.926,36.133,99.121,0
191480.422,28.809,37.109,26.367,14.160,34.180,0
191480.426,19.531,34.180,29.297,8.301,-7.324,0
191480.430,17.090,29.297,31.250,20.996,6.348,0
191480.434,21.484,23.438,21.973,23.438,51.758,0
191480.438,24.902,24.414,18.555,18.066,52.246,0
191480.442,26.367,29.785,27.344,19.043,-8.789,0
191480.446,26.367,31.738,30.273,30.762,-17.578,0
191480.450,27.344,29.297,29.785,40.527,61.035,0
191480.454,24.902,27.832,27.344,31.738,91.309,0
191480.457,21.484,30.273,26.367,15.137,29.785,0
191480.461,18.555,25.879,29.785,11.719,35.645,0
191480.465,16.113,19.531,27.832,24.902,70.801,0
191480.469,20.508,18.555,25.391,30.273,84.473,0
191480.473,18.555,22.949,24.902,12.207,66.406,0
191480.477,15.625,26.367,23.926,4.883,18.066,0
191480.481,18.066,23.438,28.320,19.531,34.668,0
191480.485,20.996,22.461,37.598,34.668,101.074,1
191480.489,18.555,23.438,42.480,23.438,74.219,0
191480.493,11.719,20.020,43.457,5.859,-11.719,0
191480.497,8.301,15.625,38.086,11.719,12.695,0
191480.500,20.508,16.113,38.574,34.180,86.426,0
191480.504,27.832,20.508,39.551,31.250,68.359,0
191480.508,25.879,26.855,35.645,19.531,13.672,0
191480.512,26.367,27.344,32.715,24.414,10.254,0
191480.516,29.785,22.949,27.832,39.062,44.434,0
191480.520,35.156,26.855,29.297,43.945,38.574,0
191480.524,37.598,31.738,33.203,25.879,-26.855,0
191480.528,38.086,31.738,33.691,24.902,-18.066,0
191480.532,38.086,28.809,39.551,41.992,40.039,0
191480.536,40.527,26.367,40.527,42.969,33.691,0
191480.539,39.551,30.762,35.156,20.508,-24.414,0
191480.543,36.133,38.086,34.180,22.461,-27.832,0
191480.547,39.062,40.527,37.598,40.039,12.695,0
191480.551,44.922,35.645,38.574,45.410,64.453,0
191480.555,39.062,29.297,35.156,31.250,57.617,0
191480.559,32.715,31.738,27.344,18.555,6.836,0
191480.563,31.738,37.109,25.879,26.367,-4.395,0
191480.567,29.785,37.109,32.715,38.574,62.012,0
191480.571,31.738,39.551,30.762,23.438,46.875,0
191480.575,30.762,42.969,29.785,1.953,-7.812,0
191480.579,20.508,40.039,30.762,6.836,7.812,0
191480.582,22.461,34.668,29.297,23.438,26.367,0
191480.586,28.320,36.621,29.297,27.832,58.594,0
191480.590,22.461,40.527,29.785,12.695,59.570,0
