timestamps,TP9,AF7,AF8,TP10,Right AUX,Marker0
190954.004,18.555,23.438,51.270,43.457,35.645,0
190954.008,28.320,27.344,25.879,46.387,53.711,0
190954.012,23.926,24.414,9.766,24.902,41.992,0
190954.016,12.695,15.625,12.695,7.812,-8.301,0
190954.020,6.348,12.695,28.809,17.090,13.672,0
190954.024,16.602,20.996,50.781,36.621,50.781,0
190954.028,24.414,33.691,51.270,20.996,30.762,0
190954.032,17.090,31.250,32.715,3.906,-9.766,0
190954.036,15.137,33.203,38.086,9.766,9.277,0
190954.039,21.484,37.598,30.762,25.391,58.105,0
190954.043,24.414,33.203,9.766,21.484,103.027,0
190954.047,15.137,28.320,20.020,-3.906,91.309,0
190954.051,5.371,24.902,25.391,-2.930,63.477,0
190954.055,10.254,25.879,13.672,27.344,91.797,0
190954.059,18.066,30.273,27.832,29.297,96.680,0
190954.063,8.789,20.020,30.273,0.488,42.969,0
190954.067,-0.977,8.301,22.949,-9.277,0.488,0
190954.071,7.812,16.113,36.133,17.090,27.832,0
190954.075,7.324,23.438,34.180,26.855,62.500,0
190954.079,-9.766,22.461,26.367,-9.766,57.129,0
190954.082,-13.672,9.766,27.832,-25.879,-25.879,0
190954.086,-13.184,7.812,31.738,-4.395,-48.340,0
190954.090,-10.254,22.461,38.086,15.625,31.250,0
190954.094,-10.742,27.344,36.133,-3.418,48.340,0
190954.098,-10.742,27.344,22.461,-12.207,8.789,0
190954.102,-9.277,23.438,24.414,5.371,11.719,0
190954.106,-5.859,13.184,30.762,24.414,108.887,0
190954.110,2.441,11.230,34.180,17.090,109.375,0
190954.114,2.441,16.602,35.645,-6.836,77.637,0
190954.118,3.418,22.949,34.668,1.953,61.035,0
190954.122,9.277,28.809,36.621,36.621,24.414,0
190954.125,14.160,27.832,31.738,37.109,24.414,0
190954.129,12.695,26.367,32.227,-0.488,-25.391,0
190954.133,3.906,16.602,31.250,-8.789,-26.855,0
190954.137,5.371,9.766,36.133,20.996,36.133,0
190954.141,25.879,21.484,43.945,41.016,66.895,0
190954.145,25.391,26.855,34.180,17.578,13.184,0
190954.149,16.113,28.320,26.367,3.418,-40.527,0
190954.153,18.555,31.250,20.508,22.949,2.441,0
190954.157,23.438,27.832,20.508,35.645,52.246,0
190954.161,27.832,30.762,28.320,21.484,36.133,0
190954.164,27.344,34.180,32.227,9.766,5.859,0
190954.168,18.555,33.203,29.297,17.578,-27.344,0
190954.172,16.113,28.809,27.832,34.180,-34.668,0
190954.176,21.973,29.297,36.133,26.367,-17.578,0
190954.180,21.973,25.391,38.574,6.348,13.184,0
190954.184,14.160,20.996,38.574,4.883,10.254,0
190954.188,10.742,23.926,35.645,22.949,-4.395,0
190954.192,18.555,26.367,27.344,33.203,25.391,0
190954.196,21.973,31.738,36.133,22.949,32.715,0
190954.200,24.414,34.668,49.316,14.160,-25.391,0
190954.204,24.414,30.762,26.367,16.602,-3.418,0
190954.207,28.809,24.414,4.883,30.273,64.453,0
190954.211,25.879,25.391,11.719,14.648,47.852,0
190954.215,16.113,24.902,24.902,0.000,-16.113,0
190954.219,4.395,17.578,33.203,9.766,15.137,0
190954.223,12.695,22.949,35.156,32.227,114.746,0
190954.227,21.484,36.133,34.180,25.879,115.723,0
190954.231,8.301,37.109,30.273,0.488,88.379,0
190954.235,-1.953,31.738,38.574,2.930,95.703,0
190954.239,4.395,21.973,48.340,21.484,128.906,0
190954.243,12.695,14.648,41.504,21.484,147.461,0
190954.247,8.789,22.461,38.574,0.977,103.516,0
190954.250,0.977,30.762,36.133,-1.465,74.707,0
190954.254,2.441,27.344,33.691,17.578,81.543,0
190954.258,12.207,22.461,21.484,31.250,140.625,0
190954.262,23.926,24.902,17.578,20.508,76.172,0
190954.266,19.043,23.926,22.461,9.766,-11.230,0
190954.270,7.324,13.672,24.902,23.926,70.312,0
190954.274,20.020,16.113,37.598,41.992,100.098,0
190954.278,25.879,19.043,48.828,25.391,51.758,0
190954.282,9.277,12.695,51.758,-2.930,30.762,0
190954.286,-3.906,5.371,34.668,-0.488,28.809,0
190954.289,9.766,9.766,20.508,25.391,69.824,0
190954.293,20.996,24.414,22.949,19.043,71.777,0
190954.297,17.090,30.762,26.855,3.418,30.762,0
190954.301,12.207,33.203,32.227,11.230,32.715,0
190954.305,11.719,34.180,20.508,31.738,47.852,0
190954.309,16.113,26.367,4.883,24.902,40.527,0
190954.313,10.742,25.879,13.184,-2.930,38.086,0
190954.317,7.324,26.855,36.621,-2.930,28.809,0
190954.321,14.648,23.926,51.758,24.902,50.781,0
190954.325,23.438,25.391,52.734,41.992,99.121,0
190954.329,19.043,22.949,37.109,19.531,45.410,0
190954.332,2.930,16.113,8.301,8.789,14.160,0
190954.336,-3.418,17.578,8.301,22.949,0.000,0
190954.340,11.719,20.020,25.879,32.227,24.902,0
190954.344,13.672,21.484,28.809,13.672,29.785,0
190954.348,3.418,26.855,26.855,0.977,-4.395,2
190954.352,3.418,26.367,24.414,9.766,1.953,0
190954.356,16.113,20.508,31.250,30.273,27.344,0
190954.360,26.855,16.602,41.016,28.320,45.898,0
190954.364,24.902,19.043,36.621,9.277,-2.930,0
190954.368,15.625,28.809,34.180,5.859,-35.156,0
190954.372,13.184,25.879,34.180,22.461,18.066,0
190954.375,22.461,9.277,31.738,34.668,81.055,0
190954.379,23.926,4.883,23.926,13.184,8.301,0
190954.383,7.812,14.160,20.020,2.930,-51.270,0
190954.387,5.371,20.020,33.691,23.438,-12.695,0
190954.391,22.949,26.855,38.086,41.504,49.316,0
190954.395,21.973,33.203,27.832,16.602,4.883,0
190954.399,14.648,34.180,28.320,-1.465,-46.387,0
190954.403,9.766,29.297,32.715,17.090,20.508,0
190954.407,14.160,16.602,29.785,33.691,109.863,0
190954.411,17.578,12.207,35.645,16.113,118.652,0
190954.414,6.836,22.949,24.414,-12.695,3.418,0
190954.418,-1.953,27.832,5.371,-2.441,4.395,0
190954.422,9.766,20.508,29.785,29.785,83.008,0
190954.426,21.484,15.137,44.922,19.531,66.406,0
190954.430,15.137,23.926,36.621,0.488,0.488,0
190954.434,7.324,30.762,27.832,11.230,-6.836,0
190954.438,11.230,25.391,34.180,38.086,41.992,0
190954.442,26.367,28.320,44.922,47.852,46.875,0
190954.446,32.715,41.992,33.203,23.926,22.461,0
190954.450,24.414,38.086,41.992,13.184,-30.273,0
190954.454,22.461,24.902,59.082,40.527,-40.039,0
190954.457,35.645,27.344,39.062,52.734,-25.391,0
190954.461,32.227,28.809,16.602,18.555,-57.129,0
190954.465,21.484,27.832,27.344,3.906,-36.621,0
190954.469,13.672,31.738,28.809,16.602,-6.348,0
190954.473,25.391,35.156,31.738,36.133,24.902,0
190954.477,35.156,38.574,39.062,22.949,35.156,0
190954.481,25.879,30.273,32.715,3.418,-2.930,0
190954.485,20.020,19.043,30.273,17.090,-4.883,0
190954.489,26.855,27.832,41.016,39.062,23.438,0
190954.493,23.438,38.086,32.715,26.855,19.043,0
190954.497,10.254,37.109,10.742,-7.812,-2.930,0
190954.500,-0.488,30.273,18.555,-11.719,-14.648,0
190954.504,9.277,21.484,31.738,16.602,-4.883,0
190954.508,20.996,22.949,28.320,30.762,53.711,0
190954.512,23.926,22.949,33.691,11.719,59.082,0
190954.516,24.902,20.020,33.203,7.324,10.742,0
190954.520,16.113,22.949,29.297,16.602,23.438,0
190954.524,14.648,21.973,25.879,26.855,65.430,0
190954.528,19.531,25.391,25.391,19.531,65.430,0
190954.532,16.602,28.809,23.438,-1.953,10.254,0
190954.536,4.883,20.508,17.090,1.953,-11.230,0
190954.539,9.766,15.137,23.926,32.715,1.465,0
190954.543,19.531,20.020,36.133,26.367,0.488,0
190954.547,9.277,25.391,25.879,-3.418,-50.293,0
190954.551,-3.906,30.273,27.832,-4.883,-60.547,0
190954.555,6.836,22.949,45.898,30.273,38.574,0
190954.559,16.602,11.230,41.992,35.156,44.922,0
190954.563,14.160,18.555,35.645,4.395,-24.414,0
190954.567,15.625,28.320,41.016,11.230,-21.484,0
190954.571,9.766,24.902,38.086,33.691,18.555,0
190954.575,18.555,24.414,36.621,48.340,20.508,0
190954.579,28.809,22.949,37.109,36.133,-30.273,0
190954.582,16.602,17.578,29.297,9.766,-46.875,0
190954.586,4.883,16.602,29.785,16.113,-8.789,0
190954.590,19.043,23.438,42.480,34.668,36.133,0
190954.594,20.996,28.320,44.434,5.371,-39.551,0
190954.598,6.836,32.715,35.645,-13.672,-69.336,0
190954.602,3.418,35.645,35.156,11.719,24.414,0
190954.606,14.160,30.273,32.715,26.855,45.410,0
190954.610,21.484,27.832,32.715,21.484,27.344,0
190954.614,17.578,25.879,18.555,15.625,26.855,0
190954.618,0.488,18.555,4.883,8.789,11.719,0
190954.622,-3.906,16.602,33.691,14.648,30.762,0
190954.625,6.836,25.879,59.570,21.484,28.320,0
190954.629,5.371,32.227,46.875,0.488,-10.254,0
190954.633,1.953,31.250,32.715,1.465,-19.531,0
190954.637,6.836,25.879,40.527,27.344,-15.137,0
190954.641,21.484,20.020,40.039,39.551,11.230,0
190954.645,22.949,27.344,21.973,21.484,11.230,0
190954.649,8.301,28.320,16.113,4.883,3.906,0
190954.653,-2.441,23.926,10.254,18.066,25.879,0
190954.657,0.000,23.926,2.930,32.715,47.852,0
190954.661,6.348,21.973,23.438,19.043,46.387,0
190954.664,6.348,25.391,41.992,9.766,18.555,0
190954.668,-0.488,24.902,48.828,19.043,0.488,0
190954.672,5.371,20.996,48.828,39.062,46.387,0
190954.676,16.113,22.949,37.598,33.203,76.172,0
190954.680,17.090,25.879,36.133,8.301,16.113,0
190954.684,9.766,23.926,37.109,3.906,-20.996,0
190954.688,12.695,20.996,27.832,29.297,23.438,0
190954.692,23.438,25.391,27.344,42.480,47.363,0
190954.696,22.461,28.320,27.344,21.484,-2.441,0
190954.700,17.090,27.832,25.879,15.625,3.906,0
190954.704,16.113,27.344,36.133,34.180,47.852,0
190954.707,28.320,27.344,38.086,45.410,114.258,0
190954.711,30.273,33.691,32.227,24.902,110.840,0
190954.715,16.113,37.598,27.344,8.789,48.828,0
190954.719,14.160,32.227,41.016,24.902,39.062,0
190954.723,29.297,30.762,51.270,55.664,79.102,0
190954.727,38.574,35.156,33.691,46.387,49.805,0
190954.731,35.645,33.691,29.297,14.648,-27.344,0
190954.735,22.461,28.320,37.109,13.672,-16.602,0
190954.739,23.926,24.414,33.691,32.715,33.691,0
190954.743,37.598,16.602,22.461,26.855,0.000,0
190954.747,36.133,20.508,29.297,10.742,-0.977,0
190954.750,12.207,24.414,39.062,3.906,9.277,0
190954.754,-0.977,21.973,40.039,15.625,43.945,0
190954.758,10.742,28.320,33.203,30.762,99.609,0
190954.762,14.648,36.621,30.762,14.648,17.090,0
190954.766,7.324,36.621,38.086,8.301,-6.836,0
190954.770,8.301,29.785,35.645,26.367,67.871,0
190954.774,22.461,27.344,32.227,41.504,112.793,0
190954.778,26.855,31.738,29.785,17.090,62.988,0
190954.782,25.879,30.273,38.574,2.930,28.809,0
190954.786,26.367,28.809,42.969,29.297,24.902,0
190954.789,27.344,29.785,32.715,52.246,-0.977,0
190954.793,19.043,28.320,27.832,25.391,11.719,0
190954.797,8.789,35.156,25.879,-3.418,32.715,0
190954.801,-2.441,28.809,27.832,4.395,32.227,0
190954.805,1.953,16.602,31.250,31.738,68.848,0
190954.809,17.090,20.508,32.227,35.156,107.422,0
190954.813,24.902,32.715,31.738,16.113,42.969,0
190954.817,25.391,35.156,21.484,15.625,-23.926,0
190954.821,26.367,23.438,15.625,37.109,-2.441,0
190954.825,36.133,19.531,26.367,43.945,36.133,0
190954.829,32.227,22.949,47.852,19.531,41.992,0
190954.832,10.742,12.207,52.734,-4.395,-23.438,0
190954.836,6.836,12.207,54.199,5.371,-32.715,0
190954.840,20.996,26.367,47.852,37.109,43.945,0
190954.844,21.484,33.203,33.691,31.250,26.367,0
190954.848,13.184,34.668,35.645,11.719,-33.691,0
190954.852,7.812,33.691,40.527,15.137,-56.152,0
190954.856,20.020,32.715,34.668,34.180,-6.836,0
190954.860,33.691,38.086,27.344,30.273,-17.578,0
190954.864,28.320,41.016,32.227,6.348,-50.781,0
190954.868,17.090,36.133,33.691,5.371,-36.133,0
190954.872,13.672,26.367,39.062,25.879,12.207,0
190954.875,18.066,20.508,39.062,19.531,20.996,0
190954.879,18.555,26.367,21.484,-5.371,-25.879,0
190954.883,6.836,25.879,19.531,-6.348,-8.789,0
190954.887,3.418,18.555,31.738,17.090,17.090,0
190954.891,15.137,16.602,36.621,31.250,30.762,0
190954.895,22.949,24.414,36.621,13.672,37.598,0
190954.899,19.531,33.203,40.039,11.230,19.043,0
190954.903,4.883,25.391,39.062,25.879,17.578,0
190954.907,4.395,20.996,37.598,30.762,71.289,0
190954.911,4.395,26.855,34.668,12.207,73.242,0
190954.914,3.906,31.738,26.855,-3.418,26.367,0
190954.918,-4.883,29.785,34.668,0.488,5.371,2
190954.922,-5.859,20.020,43.945,15.625,13.184,0
190954.926,1.953,20.020,41.016,9.277,-5.371,0
190954.930,-0.977,24.902,30.762,0.977,-1.953,0
190954.934,0.488,23.438,30.273,10.742,25.391,0
190954.938,7.812,18.066,34.180,31.250,52.246,0
190954.942,15.625,12.207,32.227,36.133,59.082,0
190954.946,10.742,19.043,36.133,13.184,68.848,0
190954.950,-3.906,21.484,31.738,6.348,57.617,0
190954.954,9.277,20.996,31.738,37.598,75.195,0
190954.957,25.391,25.879,33.691,54.688,101.074,0
190954.961,10.742,27.832,41.504,17.578,24.902,0
190954.965,6.836,34.668,52.734,3.906,-20.508,0
190954.969,4.395,32.715,43.457,14.160,-25.391,0
190954.973,2.930,24.414,36.621,23.438,32.715,0
190954.977,12.695,26.367,38.086,17.578,41.992,0
190954.981,15.625,16.602,32.715,-3.906,-6.348,0
190954.985,14.160,14.648,34.668,-0.488,21.484,0
190954.989,15.137,29.297,34.180,20.020,91.797,0
190954.993,17.090,28.809,15.625,16.602,99.121,0
190954.997,17.090,25.391,21.484,-5.859,33.203,0
190955.000,10.254,27.832,36.621,-8.301,-6.348,0
190955.004,14.160,26.367,33.203,19.043,26.855,0
190955.008,29.785,16.602,31.738,34.668,57.617,0
190955.012,32.715,16.113,30.762,6.836,21.973,0
190955.016,18.066,20.996,34.180,-2.441,23.926,0
190955.020,12.695,27.832,41.504,35.645,79.590,0
190955.024,26.855,30.762,40.527,43.457,105.469,0
190955.028,26.855,33.203,37.109,8.789,59.082,0
190955.032,19.531,39.062,33.203,0.000,42.969,0
190955.036,4.883,32.227,22.949,13.184,87.891,0
190955.039,6.348,17.578,25.391,24.902,97.168,0
190955.043,8.301,13.672,31.250,9.766,87.402,0
190955.047,-2.441,21.973,33.691,-13.672,45.898,0
190955.051,-3.418,26.367,39.551,-0.488,19.531,0
190955.055,5.859,21.484,25.391,26.855,59.082,0
190955.059,16.113,16.113,15.625,19.531,70.801,0
190955.063,16.602,21.973,19.043,-2.441,18.555,0
190955.067,11.719,26.855,22.949,0.000,10.742,0
190955.071,6.348,20.020,32.227,14.160,67.383,0
190955.075,17.578,20.020,44.922,26.367,93.750,0
190955.079,33.203,35.645,53.711,17.090,20.020,0
190955.082,17.090,36.621,34.180,-0.488,7.812,0
190955.086,-3.418,22.949,17.090,9.277,37.598,0
190955.090,5.371,16.113,14.648,35.645,36.133,0
190955.094,16.602,19.043,13.672,16.602,1.953,0
190955.098,14.160,24.414,26.367,-0.977,-37.109,0
190955.102,9.766,23.926,39.551,10.742,-23.926,0
190955.106,17.578,20.020,41.016,32.227,18.555,0
190955.110,27.832,25.879,48.340,40.527,50.781,0
190955.114,25.879,24.414,40.039,23.438,27.832,0
190955.118,9.766,23.438,25.391,18.555,27.832,0
190955.122,10.254,26.367,32.715,36.133,56.641,0
190955.125,17.578,20.020,27.344,29.785,60.547,0
190955.129,13.672,21.973,28.320,4.883,30.273,0
190955.133,8.789,32.715,42.480,0.000,6.348,0
190955.137,9.277,37.598,41.504,21.484,41.016,0
190955.141,18.555,35.645,25.879,38.574,62.988,0
190955.145,19.531,34.180,20.996,15.137,33.691,0
190955.149,15.625,32.715,32.227,4.395,2.930,0
190955.153,9.277,25.879,24.414,18.555,0.000,0
190955.157,20.508,21.973,21.484,39.551,64.941,0
190955.161,35.156,22.461,29.297,46.875,35.645,0
190955.164,39.062,28.320,33.203,30.273,-51.758,0
190955.168,21.484,23.926,22.461,12.695,-24.902,0
190955.172,9.766,12.695,21.484,26.855,51.758,0
190955.176,15.625,11.719,33.691,22.461,62.988,0
190955.180,12.695,16.602,39.062,-1.465,-14.160,0
190955.184,6.836,26.367,41.016,13.672,-26.367,0
190955.188,9.766,25.879,50.781,39.062,53.711,0
190955.192,17.578,21.973,54.199,30.273,67.383,0
190955.196,14.648,29.297,35.645,5.371,16.602,0
190955.200,13.184,32.227,31.250,4.395,-17.090,0
190955.204,13.184,21.973,38.086,27.344,-2.441,0
190955.207,13.184,15.137,34.180,35.645,18.066,0
190955.211,14.160,20.020,30.762,8.789,-7.812,0
190955.215,11.230,24.902,41.992,3.418,-11.719,0
190955.219,13.672,29.785,38.574,28.809,-37.109,0
190955.223,31.738,25.391,17.090,52.734,-28.320,0
190955.227,35.156,11.230,24.902,32.227,-8.301,0
190955.231,21.973,13.672,41.992,6.348,-16.602,0
190955.235,12.207,20.020,41.016,19.043,-3.906,0
190955.239,16.602,23.438,38.086,40.039,23.438,0
190955.243,30.273,32.715,42.969,37.109,11.230,0
190955.247,27.344,40.527,38.086,18.555,-38.574,0
190955.250,11.230,33.691,27.832,14.160,-72.754,0
190955.254,12.207,21.973,22.949,30.273,-20.996,0
190955.258,22.461,23.926,26.855,28.809,11.719,0
190955.262,16.113,31.738,25.879,2.930,-43.945,0
190955.266,7.812,27.832,12.695,-5.859,-45.410,0
190955.270,10.254,20.020,30.273,20.020,0.977,0
190955.274,20.508,14.648,36.133,47.852,20.508,0
190955.278,20.508,17.090,31.738,29.297,-19.043,0
190955.282,7.812,20.020,43.457,7.812,-23.926,0
190955.286,1.465,20.996,44.434,16.602,33.203,0
190955.289,11.230,28.320,36.133,36.621,66.406,0
190955.293,18.066,32.715,33.203,26.367,34.180,0
190955.297,11.719,29.785,38.574,4.395,-13.672,0
190955.301,7.324,31.250,40.039,9.766,-2.930,0
190955.305,16.113,30.273,37.109,39.551,80.566,0
190955.309,23.438,26.855,30.273,42.480,95.703,0
190955.313,19.531,23.926,24.902,12.207,-8.301,0
190955.317,8.301,24.414,29.785,8.789,-32.227,0
190955.321,5.371,21.973,31.250,33.691,73.730,0
190955.325,15.137,16.113,37.109,41.016,107.422,0
190955.329,17.578,18.555,44.434,16.602,35.645,0
190955.332,11.230,17.090,45.898,9.766,7.324,0
190955.336,12.695,23.438,43.457,37.109,36.621,0
190955.340,24.414,29.297,36.621,50.781,26.855,0
190955.344,24.902,32.227,18.066,22.949,0.977,0
190955.348,20.996,35.156,13.672,3.906,-13.184,0
190955.352,11.230,22.461,31.738,11.230,32.227,0
190955.356,11.230,20.996,39.551,33.203,67.871,0
190955.360,19.531,31.738,41.992,29.785,83.008,0
190955.364,18.066,23.926,45.410,9.277,50.781,0
190955.368,12.207,17.578,62.500,16.113,17.578,0
190955.372,15.137,23.438,58.105,35.645,49.805,0
190955.375,22.949,28.809,35.156,29.785,82.031,0
190955.379,20.020,38.086,38.574,6.348,31.250,0
190955.383,10.254,41.504,42.969,3.906,-37.598,0
190955.387,5.371,29.297,35.156,14.160,-28.320,0
190955.391,16.113,22.461,24.414,19.531,9.766,0
190955.395,22.949,29.297,18.555,12.695,34.180,0
190955.399,16.602,34.180,31.250,15.625,10.254,0
190955.403,7.324,24.902,22.461,32.227,29.297,0
190955.407,19.043,23.438,15.625,41.992,98.633,0
190955.411,24.902,30.762,32.227,18.555,60.547,0
190955.414,17.090,28.809,43.457,-3.906,-36.133,0
190955.418,17.578,25.391,62.988,13.672,-45.410,0
190955.422,20.020,21.973,62.012,41.504,40.039,0
190955.426,16.602,23.926,39.062,26.855,77.637,0
190955.430,10.254,32.227,40.039,-2.441,11.719,0
190955.434,10.742,32.227,46.387,0.000,-29.297,0
190955.438,15.137,23.926,32.715,26.367,32.715,0
190955.442,19.043,18.555,25.391,33.691,41.504,0
190955.446,21.973,22.949,37.109,12.207,20.020,0
190955.450,17.578,29.785,43.457,6.836,17.090,0
190955.454,13.184,31.738,37.598,29.297,33.203,0
190955.457,24.902,30.273,29.297,42.969,82.520,0
190955.461,28.809,28.320,25.879,22.461,49.805,0
190955.465,16.602,20.508,31.738,7.812,-37.109,0
190955.469,9.766,12.207,34.668,20.996,-34.180,0
190955.473,20.508,13.672,32.715,42.969,61.035,0
190955.477,22.461,16.602,22.461,27.832,36.133,0
190955.481,8.301,24.414,18.555,11.719,-47.363,0
190955.485,3.418,27.832,36.621,18.555,-8.301,0
190955.489,18.555,24.902,47.852,32.715,28.809,0
190955.493,20.020,27.832,44.434,20.508,-22.461,0
190955.497,7.324,35.156,40.527,-3.906,-55.176,0
190955.500,-1.953,33.691,25.391,5.859,-24.902,0
190955.504,3.418,25.391,14.160,33.691,46.387,0
190955.508,18.555,24.902,27.832,33.203,35.156,0
190955.512,12.695,29.785,34.668,1.465,3.418,0
190955.516,4.883,34.668,35.645,-3.418,24.902,0
190955.520,5.371,26.367,41.992,16.113,37.109,0
190955.524,15.137,17.090,48.828,30.762,37.598,0
190955.528,20.020,21.484,43.945,12.695,-11.719,0
190955.532,10.742,25.391,35.645,-0.488,-4.883,0
190955.536,10.742,20.508,40.039,24.414,23.438,0
190955.539,23.438,22.949,36.133,40.039,20.020,0
190955.543,25.391,34.180,24.414,20.508,23.438,0
190955.547,18.555,35.156,23.926,8.301,20.508,0
190955.551,8.301,27.832,29.785,11.230,13.184,0
190955.555,16.113,24.414,27.344,29.297,59.570,0
190955.559,41.504,32.715,43.457,41.504,108.887,1
190955.563,39.551,34.668,49.805,25.391,59.082,0
190955.567,19.043,25.391,37.109,18.066,22.949,0
190955.571,17.090,17.090,39.062,35.645,47.852,0
190955.575,19.531,15.625,39.062,35.156,81.055,0
190955.579,13.672,26.855,38.574,15.625,50.293,0
190955.582,5.371,27.344,34.180,5.371,-19.531,0
190955.586,5.859,21.484,29.785,21.484,-19.531,0
190955.590,17.578,24.414,29.785,43.945,51.758,0
190955.594,26.367,27.832,14.648,25.879,19.043,0
190955.598,27.832,33.203,20.996,10.254,-26.855,0
190955.602,15.137,33.203,33.203,14.160,3.906,0
190955.606,19.043,27.832,29.297,30.762,36.133,0
190955.610,27.832,24.414,34.668,24.414,44.434,0
190955.614,21.484,27.832,46.387,3.418,28.809,0
190955.618,11.719,28.809,52.246,11.230,28.809,0
190955.622,14.160,26.367,36.133,34.180,39.551,0
190955.625,20.020,24.414,20.996,25.391,-5.371,0
190955.629,13.672,23.438,28.320,-3.906,-51.270,0
190955.633,3.906,24.414,39.551,2.930,-20.996,0
190955.637,3.906,22.949,35.645,27.832,27.344,0
190955.641,15.137,20.020,29.785,31.250,43.945,0
190955.645,18.555,22.949,41.504,12.207,17.578,0
190955.649,12.695,35.645,37.598,5.859,37.598,0
190955.653,12.207,37.598,25.391,26.367,50.293,0
190955.657,21.484,28.809,32.715,41.992,62.500,0
190955.661,23.926,32.715,41.016,23.438,43.945,0
190955.664,15.625,35.645,40.527,3.906,-1.465,0
190955.668,1.953,20.996,34.180,6.348,16.113,0
190955.672,7.812,11.719,38.574,25.879,45.898,0
190955.676,20.508,17.578,35.156,20.020,53.223,0
190955.680,17.090,27.832,21.484,1.953,11.230,0
190955.684,3.906,26.367,28.809,4.883,-53.223,0
190955.688,7.812,20.996,29.297,27.344,-13.672,0
190955.692,22.461,19.043,25.879,33.203,24.414,0
190955.696,19.531,16.113,39.551,10.254,-17.578,0
190955.700,17.578,23.926,46.875,15.137,-20.996,0
190955.704,22.461,30.273,47.852,38.574,13.672,0
190955.707,25.391,23.926,42.480,39.062,65.918,0
190955.711,20.996,20.508,34.180,22.461,41.992,0
190955.715,11.230,25.391,33.691,15.625,-0.977,0
190955.719,1.953,19.043,31.250,7.812,-12.695,0
190955.723,5.371,13.184,25.879,23.926,30.762,0
190955.727,17.578,25.391,34.180,27.832,50.781,0
190955.731,17.578,34.668,34.668,-0.488,0.977,0
190955.735,5.859,28.320,18.555,0.000,-14.648,0
190955.739,20.020,24.414,16.113,33.691,-0.488,0
190955.743,31.738,30.273,25.391,31.738,18.555,0
190955.747,20.020,35.645,38.574,0.000,-6.348,0
190955.750,15.137,41.504,46.875,1.465,-17.578,0
190955.754,17.578,38.086,46.875,27.344,28.809,0
190955.758,26.367,27.344,41.016,34.180,57.129,0
190955.762,28.320,24.414,27.832,5.859,-5.859,0
190955.766,18.555,25.391,22.949,-4.395,-40.039,0
190955.770,16.602,24.902,31.250,25.879,2.930,0
190955.774,29.785,26.855,34.180,46.387,41.504,0
190955.778,28.320,28.320,32.227,22.461,13.672,0
190955.782,14.648,24.902,30.762,0.000,3.906,0
190955.786,10.254,20.996,32.715,11.230,16.602,0
190955.789,23.438,19.531,49.805,35.645,30.273,0
190955.793,42.480,27.344,60.547,37.109,31.250,0
190955.797,37.109,32.227,41.504,20.996,6.836,0
190955.801,16.113,24.414,23.926,15.625,0.000,0
190955.805,15.625,15.625,31.250,25.879,38.574,0
190955.809,20.996,13.184,36.133,12.207,33.203,0
190955.813,19.043,22.949,30.762,-7.324,-30.273,0
190955.817,12.695,30.273,38.574,5.859,-31.738,0
190955.821,20.508,20.996,48.340,33.203,33.203,0
190955.825,29.785,17.090,45.898,37.598,55.176,0
190955.829,17.578,28.320,42.480,9.766,12.695,0
190955.832,15.625,36.133,34.180,3.906,24.414,0
190955.836,20.996,34.668,26.367,23.926,48.828,0
190955.840,22.949,30.273,18.066,39.551,60.059,0
190955.844,28.809,40.039,20.996,35.156,40.527,0
190955.848,24.414,41.016,32.715,18.066,-10.254,0
190955.852,9.766,23.926,45.410,8.789,-29.297,0
190955.856,15.625,18.555,49.805,23.926,-18.066,0
190955.860,20.020,21.973,39.551,21.973,2.930,0
190955.864,20.508,20.996,31.738,9.277,-17.090,0
190955.868,18.066,19.531,25.879,14.160,-33.203,0
190955.872,13.184,14.160,25.879,28.320,40.527,0
190955.875,19.043,19.531,36.621,26.855,54.199,0
190955.879,24.414,33.203,39.062,16.602,17.578,0
190955.883,18.555,39.551,27.344,16.602,9.766,0
190955.887,8.789,32.715,21.973,18.066,-1.465,0
190955.891,21.973,31.250,37.598,28.320,25.391,0
190955.895,34.180,34.180,50.781,19.531,20.508,0
190955.899,17.090,29.785,33.691,4.395,-9.277,0
190955.903,1.465,23.438,18.066,14.160,19.531,0
190955.907,13.184,16.602,30.273,36.621,101.074,0
190955.911,11.230,21.484,40.039,11.230,43.945,0
190955.914,5.859,29.297,35.645,-11.719,-63.965,0
190955.918,4.883,27.832,33.691,12.695,-27.344,0
190955.922,7.812,23.926,38.086,41.992,47.363,0
190955.926,14.648,24.414,34.668,25.879,38.086,0
190955.930,16.113,26.855,33.203,1.953,-17.578,0
190955.934,11.719,27.344,38.086,11.719,-20.020,0
190955.938,19.531,24.902,35.156,38.574,23.926,0
190955.942,35.645,23.438,38.086,44.434,43.945,0
190955.946,38.574,23.438,34.180,23.438,2.930,0
190955.950,23.438,26.367,21.484,10.742,-40.039,0
190955.954,10.254,26.855,27.832,26.855,-13.672,0
190955.957,20.020,25.879,30.762,37.598,11.230,0
190955.961,17.578,26.367,27.832,12.695,-20.508,0
190955.965,5.371,35.156,33.691,5.859,-22.461,0
190955.969,5.371,35.156,43.457,14.648,8.301,0
190955.973,18.555,21.484,46.387,24.902,23.926,0
190955.977,23.926,25.391,41.992,17.578,36.621,0
190955.981,15.137,35.156,32.227,3.418,6.348,0
190955.985,1.953,30.273,28.320,6.836,-24.902,0
190955.989,10.254,26.855,35.156,30.762,45.898,0
190955.993,20.996,28.320,44.922,30.273,79.102,0
190955.997,11.230,23.438,29.785,1.953,19.531,0
190956.000,4.395,17.578,14.160,-2.441,25.879,0
190956.004,7.812,8.789,17.090,20.508,41.016,0
190956.008,21.973,13.184,27.344,32.227,41.992,0
190956.012,18.555,22.461,34.180,8.301,12.207,0
190956.016,7.324,30.273,35.156,-0.488,-38.574,0
190956.020,7.812,35.156,32.715,25.391,9.277,0
190956.024,16.113,24.902,25.879,44.434,61.035,0
190956.028,18.555,18.555,32.715,20.996,8.789,0
190956.032,7.812,26.855,36.133,-3.418,20.020,0
190956.036,4.883,32.715,35.645,11.719,35.645,0
190956.039,16.602,26.855,31.250,36.133,47.363,0
190956.043,28.809,27.344,35.645,32.715,41.016,0
190956.047,23.926,27.344,41.016,7.324,-47.852,0
190956.051,17.578,20.020,39.062,9.766,-65.430,0
190956.055,37.109,22.461,29.297,55.176,0.488,0
190956.059,40.527,32.227,16.602,51.758,18.555,0
190956.063,14.160,30.762,24.414,7.812,-55.664,0
190956.067,0.977,27.344,35.645,1.465,-77.637,0
190956.071,11.719,26.367,37.109,25.391,-5.859,0
190956.075,26.367,26.367,38.574,35.156,21.484,0
190956.079,25.879,24.902,30.762,6.348,4.883,0
190956.082,10.742,20.020,38.086,-7.324,-23.926,0
190956.086,-1.953,18.555,42.480,17.578,5.859,0
190956.090,9.766,20.508,29.785,34.668,48.828,0
190956.094,20.508,24.902,30.762,9.766,-12.207,0
190956.098,15.137,29.785,40.527,-2.441,-26.855,0
190956.102,11.230,22.461,39.551,17.578,15.625,0
190956.106,21.973,11.719,24.902,40.039,39.551,0
190956.110,33.203,25.391,32.715,26.855,35.645,0
190956.114,26.855,38.574,33.691,1.465,4.883,0
190956.118,10.742,31.250,22.461,4.883,-27.344,0
190956.122,14.160,30.273,22.461,33.203,19.043,0
190956.125,23.438,29.785,28.809,38.086,27.832,0
190956.129,24.902,22.949,41.504,12.207,-41.016,0
190956.133,19.043,24.414,49.316,9.277,-55.664,0
190956.137,9.277,21.973,44.434,20.508,7.324,0
190956.141,10.742,17.578,33.203,22.461,42.969,0
190956.145,12.695,24.902,31.738,6.836,34.180,0
190956.149,10.254,25.391,34.180,-2.441,23.926,0
190956.153,7.812,18.066,44.922,20.996,18.066,0
190956.157,9.277,14.648,43.457,38.574,64.453,1
190956.161,18.555,26.367,33.691,23.438,49.316,0
190956.164,20.508,27.832,29.785,7.324,18.555,0
190956.168,10.254,14.160,26.855,17.090,37.109,0
190956.172,12.207,8.789,22.461,39.062,55.664,0
190956.176,19.043,20.020,31.250,25.879,79.590,0
190956.180,13.672,31.738,43.945,1.953,32.715,0
190956.184,1.953,27.832,40.039,-1.465,-55.176,0
190956.188,9.766,25.879,33.691,21.973,-3.906,0
190956.192,21.484,27.832,21.973,29.785,90.820,0
190956.196,23.926,27.344,18.066,8.301,53.711,0
190956.200,15.137,26.367,15.625,6.836,-5.859,0
190956.204,11.230,21.484,24.414,28.320,38.574,0
190956.207,25.391,20.508,33.203,39.062,69.336,0
190956.211,29.785,29.297,30.762,19.531,13.184,0
190956.215,23.438,36.621,28.809,2.441,-1.953,0
190956.219,13.672,30.273,27.344,14.648,15.137,0
190956.223,18.066,22.461,34.668,41.992,62.988,0
190956.227,27.344,29.785,58.594,30.762,31.738,0
190956.231,21.484,26.855,59.570,0.488,-23.438,0
190956.235,6.348,11.230,39.062,8.301,7.324,0
190956.239,13.184,14.648,38.574,41.504,39.062,0
190956.243,17.578,21.973,27.832,27.832,35.156,0
190956.247,13.184,27.832,21.484,2.441,17.090,0
190956.250,13.184,34.668,39.551,13.672,9.766,0
190956.254,17.578,30.273,49.805,35.645,33.691,0
190956.258,19.043,21.484,33.203,29.785,60.547,0
190956.262,16.113,24.414,29.785,6.348,52.734,0
190956.266,15.137,36.621,39.551,9.766,3.906,0
190956.270,16.113,32.715,26.855,27.832,-0.488,0
190956.274,25.879,21.973,26.367,35.645,57.129,0
190956.278,23.438,21.973,34.180,16.602,30.762,0
190956.282,13.672,18.555,26.855,11.230,-46.875,0
190956.286,15.137,20.020,34.180,30.762,-40.527,0
190956.289,20.508,22.949,46.875,31.250,-2.930,0
190956.293,22.949,32.715,47.363,13.672,-10.742,0
190956.297,17.090,33.691,42.480,8.301,-18.555,0
190956.301,10.254,18.066,32.715,17.090,9.277,0
190956.305,15.137,12.207,37.598,34.668,71.289,0
190956.309,16.113,15.137,42.969,34.668,110.352,0
190956.313,9.766,20.996,30.273,13.672,79.102,0
190956.317,2.930,31.250,31.250,9.277,50.293,0
190956.321,5.371,31.738,28.320,32.715,75.195,0
190956.325,14.648,26.855,19.531,35.156,81.543,0
190956.329,19.531,33.691,32.227,10.254,46.387,0
190956.332,17.578,35.156,44.922,5.371,-19.043,0
190956.336,7.812,21.484,41.504,15.625,-10.254,0
190956.340,11.230,15.625,25.879,30.762,83.496,0
190956.344,16.602,23.926,22.461,21.973,65.918,0
190956.348,9.766,27.344,34.668,12.695,2.441,0
190956.352,2.441,20.508,36.133,19.531,-2.441,0
190956.356,12.695,17.090,48.340,37.598,60.547,0
190956.360,19.043,20.020,51.270,28.320,46.387,0
190956.364,15.137,25.879,39.551,15.625,-22.949,0
190956.368,7.812,25.879,35.645,22.461,-38.574,0
190956.372,13.184,28.809,35.156,41.504,15.625,0
190956.375,26.855,38.086,36.621,44.922,32.227,0
190956.379,14.648,30.273,27.344,15.625,-31.738,0
190956.383,0.977,16.602,26.367,7.812,-38.574,0
190956.387,8.789,16.602,32.227,35.645,-9.277,0
190956.391,19.531,24.902,32.227,41.992,28.809,0
190956.395,17.578,28.320,40.039,15.137,28.809,0
190956.399,11.230,22.949,40.039,12.695,9.277,0
190956.403,5.859,13.184,45.410,34.180,60.059,0
190956.407,10.254,15.137,50.781,41.504,119.629,0
190956.411,15.625,24.414,36.133,22.461,89.844,0
190956.414,8.789,29.297,32.227,20.020,36.133,0
190956.418,0.488,31.250,48.340,26.855,23.926,0
190956.422,8.789,27.344,44.434,32.227,27.344,0
190956.426,21.973,28.809,33.203,20.508,38.086,0
190956.430,15.625,33.691,38.574,4.883,27.832,0
190956.434,6.348,26.855,31.250,11.230,57.617,0
190956.438,12.207,22.949,32.715,32.715,92.285,0
190956.442,16.113,23.926,39.551,31.250,62.012,0
190956.446,12.207,18.066,36.133,2.930,9.766,0
190956.450,8.789,15.625,34.180,2.441,-25.879,0
190956.454,10.742,14.648,28.320,26.367,-4.883,0
190956.457,26.855,21.973,28.320,42.480,30.273,0
190956.461,25.391,38.574,29.785,26.367,-1.465,0
190956.465,9.766,46.387,23.438,5.371,-47.363,0
190956.469,11.230,41.992,27.832,20.020,-41.504,0
190956.473,19.043,30.273,35.156,35.645,41.016,0
190956.477,18.555,23.438,45.898,18.555,48.828,0
190956.481,5.859,16.113,55.664,8.789,-0.977,0
190956.485,-3.906,10.254,47.852,14.160,-4.395,0
190956.489,2.930,11.230,35.156,31.250,38.574,0
190956.493,11.230,20.020,28.320,26.855,41.992,0
190956.497,4.395,26.367,26.855,0.488,-30.273,0
190956.500,-1.953,27.832,26.367,3.418,-15.137,0
190956.504,4.883,21.484,34.668,30.762,54.199,0
190956.508,10.254,14.648,40.039,32.715,46.387,0
190956.512,11.719,25.879,41.992,10.742,-4.883,0
190956.516,1.465,30.273,30.273,1.465,-9.766,0
190956.520,-3.418,31.250,16.602,23.438,62.500,0
190956.524,12.207,38.574,31.738,45.410,91.309,0
190956.528,12.695,35.645,34.668,18.066,44.434,0
190956.532,-0.977,26.855,31.738,-1.465,35.645,0
190956.536,-0.977,26.367,41.016,18.066,31.250,0
190956.539,17.090,32.227,33.691,48.340,59.570,0
190956.543,26.855,37.598,19.531,46.875,41.016,0
190956.547,16.113,31.738,23.926,10.254,14.648,0
190956.551,3.906,25.391,33.203,1.953,14.160,0
190956.555,18.555,22.461,41.016,36.621,54.199,0
190956.559,25.879,21.973,44.922,24.414,60.059,0
190956.563,14.648,27.832,40.039,1.953,-15.625,0
190956.567,6.836,31.738,37.109,13.184,-13.184,0
190956.571,6.836,28.809,39.551,28.320,2.441,0
190956.575,16.602,26.855,49.805,30.273,19.531,0
190956.579,20.020,31.738,43.457,14.160,8.789,0
190956.582,2.441,23.438,22.461,0.977,-31.738,0
190956.586,-6.348,16.602,21.484,11.230,-4.395,0
190956.590,7.812,24.902,28.320,30.273,67.383,0
190956.594,10.254,31.250,36.133,13.184,56.641,0
190956.598,6.836,39.551,46.875,5.859,-20.020,0
190956.602,1.953,38.574,44.434,21.973,-18.066,0
190956.606,5.371,23.926,30.762,34.668,48.828,0
190956.610,12.207,19.531,25.879,24.902,86.914,0
190956.614,7.812,23.926,18.555,10.254,57.129,0
190956.618,-0.488,26.855,18.066,6.836,-14.648,0
190956.622,6.348,29.785,33.203,27.344,5.859,0
190956.625,16.602,27.832,42.480,33.691,30.273,0
190956.629,18.066,28.809,36.621,10.254,-29.297,0
190956.633,11.719,33.203,33.203,10.742,-6.348,0
190956.637,7.324,34.668,25.879,29.785,51.270,0
190956.641,17.090,35.156,21.484,36.621,64.941,0
190956.645,16.602,30.762,26.367,17.578,45.410,0
190956.649,3.906,28.320,20.020,4.883,28.809,0
190956.653,-1.465,17.090,29.785,14.648,20.996,0
190956.657,10.742,13.672,40.039,36.621,7.324,0
190956.661,15.625,27.344,26.367,23.926,-4.883,0
190956.664,8.301,32.715,26.855,-0.977,-6.348,0
190956.668,-1.953,34.180,37.598,8.301,12.207,0
190956.672,1.953,34.180,43.457,31.250,96.191,0
190956.676,13.672,34.180,50.781,21.484,78.125,0
190956.680,14.160,36.621,52.734,2.441,-34.180,0
190956.684,-0.977,34.668,46.875,5.371,-12.695,0
190956.688,-0.488,32.227,40.039,27.832,79.102,0
190956.692,16.602,32.227,30.762,30.762,100.098,0
190956.696,13.184,29.785,26.855,4.395,39.551,0
190956.700,-0.977,20.020,30.273,-2.930,-6.836,0
190956.704,9.277,12.207,24.414,20.020,27.832,0
190956.707,28.320,20.508,18.066,35.156,40.527,0
190956.711,25.391,28.320,33.691,13.672,15.625,0
190956.715,7.324,29.785,45.898,0.000,36.621,0
190956.719,-0.488,32.715,54.688,20.508,80.078,2
190956.723,13.184,29.785,54.199,38.574,60.059,0
190956.727,9.766,25.391,33.691,15.137,60.059,0
190956.731,-4.883,26.367,26.855,-6.836,63.965,0
190956.735,-14.648,29.785,27.344,6.348,24.902,0
190956.739,-9.766,17.090,21.973,29.785,78.125,0
190956.743,5.371,8.301,19.531,23.438,97.656,0
190956.747,9.277,23.926,29.297,12.207,48.828,0
190956.750,0.488,26.367,32.227,8.789,22.461,0
190956.754,5.371,12.207,38.086,24.902,38.086,0
190956.758,22.949,11.230,50.293,37.109,85.938,0
190956.762,20.508,23.438,46.875,14.648,53.223,0
190956.766,13.672,41.016,38.574,16.602,1.465,0
190956.770,10.742,39.062,34.180,30.273,35.645,0
190956.774,8.789,19.043,38.574,30.762,46.875,0
190956.778,2.441,20.508,29.785,6.348,30.273,0
190956.782,-0.977,29.297,27.344,-3.418,32.227,0
190956.786,1.953,24.902,32.227,18.066,20.508,0
190956.789,15.137,19.043,25.391,37.598,40.039,0
190956.793,24.902,27.344,25.391,31.250,36.621,0
190956.797,21.484,25.391,20.996,14.648,-11.230,0
190956.801,13.672,22.949,29.785,11.719,7.812,0
190956.805,16.113,26.855,54.688,34.180,93.262,0
190956.809,15.137,22.461,45.898,32.715,100.098,0
190956.813,0.977,15.625,27.344,-0.488,3.418,0
190956.817,-6.836,17.578,33.691,0.000,-20.020,0
190956.821,1.953,26.367,41.992,32.715,39.062,0
190956.825,12.207,22.461,41.504,36.621,41.016,0
190956.829,3.418,13.184,33.691,14.648,-0.488,0
190956.832,-5.371,14.160,28.809,11.230,-21.973,0
190956.836,0.977,20.020,34.668,32.227,20.508,0
190956.840,7.812,17.578,34.668,42.969,25.391,0
190956.844,6.836,17.090,28.320,15.137,-54.688,0
190956.848,-0.488,22.949,28.809,-4.883,-70.801,0
190956.852,-8.301,23.926,42.480,9.277,-23.926,0
190956.856,-0.977,22.461,50.293,31.250,14.648,0
190956.860,2.930,21.973,42.969,17.578,-5.371,0
190956.864,2.441,22.461,30.273,-2.441,-40.527,0
190956.868,6.836,26.367,33.203,11.230,-10.742,0
190956.872,18.066,27.832,39.551,50.293,78.125,0
190956.875,25.391,25.879,43.945,52.734,72.266,0
190956.879,12.695,28.320,40.039,15.625,7.812,0
190956.883,9.766,28.320,32.227,16.602,-3.906,0
190956.887,20.996,24.902,24.414,38.574,-1.465,0
190956.891,25.879,22.461,13.184,28.320,14.648,0
190956.895,23.926,23.926,16.602,13.672,27.832,0
190956.899,16.113,29.297,31.738,8.301,1.465,0
190956.903,4.395,30.762,46.875,16.113,25.879,0
190956.907,10.254,28.320,54.688,33.691,38.574,0
190956.911,19.043,27.832,42.969,22.949,-9.277,0
190956.914,15.625,25.879,35.645,11.230,-18.066,0
190956.918,14.160,22.949,34.668,25.391,14.160,0
190956.922,25.391,25.391,25.879,45.410,47.363,0
190956.926,24.902,24.902,30.762,26.367,42.480,0
190956.930,18.555,26.855,39.551,9.766,-8.789,0
190956.934,9.766,27.832,24.902,6.348,-38.574,0
190956.938,10.742,17.578,27.344,21.973,48.828,0
190956.942,23.926,19.043,39.551,35.156,101.074,0
190956.946,21.973,18.555,26.855,9.766,45.410,0
190956.950,14.160,20.508,34.668,5.859,5.859,0
190956.954,20.020,31.738,42.480,33.203,27.832,0
190956.957,25.391,29.785,24.414,38.574,113.770,0
190956.961,20.020,16.602,24.902,10.742,61.035,0
190956.965,20.020,16.113,52.246,5.859,-28.320,0
190956.969,15.137,24.902,48.828,18.555,21.973,0
190956.973,16.113,26.855,22.461,25.391,90.332,0
190956.977,21.973,21.973,17.578,9.277,39.551,0
190956.981,24.902,26.855,25.879,3.906,-26.855,0
190956.985,29.785,41.992,44.434,33.203,-9.277,0
190956.989,35.645,34.180,40.039,51.758,56.641,0
190956.993,28.809,21.973,23.926,22.461,75.684,0
190956.997,20.996,22.949,23.438,-15.137,-4.395,0
190957.000,13.672,23.438,26.367,-12.695,-13.672,0
190957.004,11.230,22.461,31.738,12.207,41.504,0
190957.008,24.414,24.902,36.621,26.367,41.504,0
190957.012,21.484,18.066,27.832,13.672,20.996,0
190957.016,8.789,20.020,26.855,9.277,30.273,0
190957.020,9.277,21.973,35.156,23.438,31.250,0
190957.024,17.090,19.531,45.410,28.320,31.738,0
190957.028,20.508,33.691,46.387,11.230,39.551,0
190957.032,19.531,33.203,36.621,3.418,0.977,0
190957.036,26.855,18.555,41.504,25.391,-42.480,0
190957.039,35.156,13.672,41.504,38.086,-18.066,0
190957.043,19.043,13.184,21.973,14.648,7.324,0
190957.047,4.883,14.648,28.320,-4.395,-8.789,0
190957.051,4.395,21.484,37.109,3.418,-0.977,0
190957.055,13.184,24.414,34.668,26.855,58.594,0
190957.059,21.484,26.367,38.574,23.926,87.891,0
190957.063,19.043,32.715,41.504,5.371,56.152,0
190957.067,7.812,25.879,34.668,9.766,-0.977,0
190957.071,18.066,21.973,26.367,35.156,-18.066,0
190957.075,32.227,27.344,28.809,36.133,4.395,0
190957.079,29.785,27.832,36.621,17.578,-3.418,0
190957.082,21.973,21.484,44.434,13.672,-20.508,0
190957.086,13.672,12.207,45.410,18.555,-0.977,0
190957.090,21.973,9.766,40.527,30.273,50.781,0
190957.094,25.879,21.973,35.156,16.602,10.254,0
190957.098,19.531,32.227,32.715,0.977,-33.691,0
190957.102,17.578,32.227,21.973,12.207,37.109,0
190957.106,27.344,28.809,20.020,33.203,67.871,0
190957.110,34.180,29.785,29.785,25.879,26.367,0
190957.114,36.133,33.203,43.457,17.090,-2.930,0
190957.118,27.344,29.785,37.109,20.020,-22.461,0
190957.122,27.344,25.391,18.066,37.598,15.137,0
190957.125,36.133,26.855,22.461,32.715,1.953,0
190957.129,36.621,27.832,24.414,9.277,-74.219,0
190957.133,30.273,30.273,27.344,8.789,-43.457,0
190957.137,39.551,28.320,44.434,38.086,40.039,0
190957.141,48.828,23.926,49.316,48.828,62.012,0
190957.145,33.203,26.855,16.113,13.672,13.672,0
190957.149,26.367,30.273,15.137,12.695,-29.297,0
190957.153,23.926,26.855,38.086,33.691,-21.484,0
190957.157,23.438,25.391,35.645,35.645,11.719,0
190957.161,27.832,29.297,31.250,8.789,-29.785,0
190957.164,23.438,26.367,33.691,-7.812,-39.551,0
190957.168,13.672,31.250,45.898,11.719,-25.879,0
190957.172,20.508,26.367,36.621,28.320,-62.500,0
190957.176,30.273,19.531,30.273,14.648,-67.383,0
190957.180,32.715,34.180,46.387,10.254,-29.297,0
190957.184,27.832,36.133,52.734,22.461,-13.672,0
190957.188,26.855,22.461,42.969,39.062,4.395,0
190957.192,29.785,20.020,36.621,35.156,20.996,0
190957.196,19.531,21.484,35.156,2.441,12.207,0
190957.200,13.184,24.414,39.062,-0.977,5.371,0
190957.204,16.602,28.809,37.598,37.109,44.922,0
190957.207,26.855,31.738,20.996,43.457,90.332,0
190957.211,28.320,24.902,29.297,7.324,50.781,0
190957.215,23.438,18.066,47.363,2.930,-18.555,0
190957.219,23.926,20.508,42.480,20.020,-15.625,0
190957.223,30.762,22.461,33.203,32.227,17.578,0
190957.227,38.086,26.855,32.227,25.391,34.180,0
190957.231,35.156,24.902,32.715,20.020,20.020,0
190957.235,22.461,20.996,44.922,30.273,24.414,0
190957.239,27.832,20.508,49.316,41.992,82.031,0
190957.243,26.855,22.949,35.645,23.438,48.340,0
190957.247,16.602,34.668,29.785,4.395,24.902,0
190957.250,18.066,39.551,27.832,15.625,20.020,0
190957.254,24.414,33.203,26.367,37.109,30.762,0
190957.258,32.715,28.320,33.203,39.551,63.477,0
190957.262,28.809,24.902,34.180,5.371,18.555,0
190957.266,17.090,30.273,36.621,-6.348,17.578,0
190957.270,18.066,30.273,39.062,35.156,82.031,0
190957.274,24.414,20.996,37.598,41.992,72.266,0
190957.278,17.578,20.508,30.273,4.395,52.734,0
190957.282,14.160,25.879,32.715,8.789,63.965,0
190957.286,13.672,28.809,31.738,24.414,79.102,0
190957.289,28.320,32.715,24.902,35.156,96.191,0
190957.293,35.156,34.180,28.320,28.320,34.180,0
190957.297,21.484,29.297,27.344,4.883,-34.668,0
190957.301,14.648,24.902,29.785,15.137,-1.465,0
190957.305,22.949,22.461,39.062,45.410,49.805,0
190957.309,26.367,18.555,35.156,30.273,-1.953,0
190957.313,16.602,12.207,28.320,-4.395,-53.223,0
190957.317,11.230,13.184,34.668,-0.977,-0.488,0
190957.321,32.227,21.973,32.227,38.086,21.484,0
190957.325,41.992,20.996,32.227,45.410,29.785,0
190957.329,28.320,23.438,52.246,11.230,41.992,0
190957.332,15.137,28.809,46.875,0.000,38.086,0
190957.336,14.648,29.785,42.969,23.438,70.312,0
190957.340,23.926,36.621,42.480,24.902,103.516,0
190957.344,12.695,36.621,20.020,-14.648,72.266,0
190957.348,2.441,29.785,24.902,-25.879,29.297,1
190957.352,4.883,22.949,35.156,0.977,33.203,0
190957.356,18.066,23.438,18.066,26.855,68.359,0
190957.360,25.879,31.738,-9.277,16.113,36.621,0
190957.364,20.996,29.785,12.695,3.418,-12.695,0
190957.368,8.789,13.184,48.340,5.859,-23.926,0
190957.372,21.484,15.625,65.918,31.738,7.812,0
190957.375,37.598,22.949,62.988,44.922,31.250,0
190957.379,17.090,14.648,38.574,9.766,-40.039,0
190957.383,-0.488,16.602,35.156,-3.418,-45.410,0
190957.387,7.812,24.902,34.668,25.879,10.742,0
190957.391,19.043,32.227,19.043,34.180,19.043,0
190957.395,18.555,42.480,23.926,6.836,-2.930,0
190957.399,15.625,43.945,32.715,5.859,-12.695,0
190957.403,15.137,31.250,30.273,24.414,45.410,0
190957.407,19.531,20.996,29.785,26.367,112.793,0
190957.411,20.020,19.043,29.297,8.301,72.266,0
190957.414,17.090,18.555,41.016,0.977,14.160,0
190957.418,19.531,21.973,50.781,25.879,37.109,0
190957.422,25.391,9.766,39.062,48.828,90.820,0
190957.426,23.438,9.766,21.973,29.785,53.711,0
190957.430,17.578,26.367,29.785,13.672,23.926,0
190957.434,5.859,26.855,36.621,17.090,33.691,0
190957.438,12.695,22.461,35.645,29.785,8.789,0
190957.442,23.438,25.391,34.180,26.855,-2.441,0
190957.446,21.484,29.297,40.039,9.277,-9.277,0
190957.450,4.395,17.090,43.945,3.906,-14.160,0
190957.454,2.930,16.602,40.527,22.949,13.672,0
190957.457,31.738,28.320,51.758,35.156,22.949,0
190957.461,32.227,27.832,44.922,9.766,-16.602,0
190957.465,14.648,30.762,33.691,3.906,-0.488,0
190957.469,7.812,26.855,38.574,20.996,56.641,0
190957.473,20.020,20.508,40.527,32.715,114.746,0
190957.477,23.926,23.926,29.785,20.996,92.773,0
190957.481,16.113,25.391,19.531,8.301,45.410,0
190957.485,16.602,25.391,35.156,25.391,7.324,0
190957.489,23.438,24.414,27.832,40.527,4.395,0
190957.493,26.367,28.809,6.348,17.090,10.742,0
190957.497,31.250,34.668,28.809,6.348,40.527,0
190957.500,19.531,31.738,54.688,16.113,61.523,0
190957.504,15.137,25.879,45.410,21.973,52.734,0
190957.508,24.414,26.367,41.016,16.113,76.172,0
190957.512,19.043,28.809,41.016,3.418,63.477,0
190957.516,9.766,25.391,29.785,4.395,10.254,0
190957.520,17.090,26.855,42.969,32.227,35.156,0
190957.524,20.508,28.320,49.316,39.062,97.168,0
190957.528,14.648,26.367,37.598,11.719,65.918,0
190957.532,7.812,31.250,25.391,4.883,7.324,0
190957.536,4.395,34.180,23.438,29.785,3.418,0
190957.539,20.508,33.691,32.227,45.410,-0.488,0
190957.543,27.832,23.438,33.203,20.996,-33.691,0
190957.547,20.508,12.695,34.668,1.953,-47.852,0
190957.551,7.812,14.160,30.762,14.160,-3.906,0
190957.555,10.254,20.020,26.855,33.203,90.332,0
190957.559,23.438,32.227,35.156,22.461,36.621,0
190957.563,27.344,35.645,41.504,12.207,-59.082,0
190957.567,16.113,25.391,32.227,18.555,-48.340,0
190957.571,13.672,16.602,19.531,33.203,28.320,0
190957.575,27.344,24.414,18.066,34.180,42.480,0
190957.579,31.250,29.785,26.367,10.254,11.719,0
190957.582,17.090,22.461,41.016,0.977,-4.883,0
190957.586,4.395,17.578,42.480,20.508,1.953,0
190957.590,17.578,25.391,38.574,36.133,41.016,0
190957.594,25.391,37.109,38.086,16.602,-44.922,0
190957.598,14.648,33.203,33.203,3.906,-41.016,0
190957.602,10.742,20.996,34.180,20.996,45.898,0
190957.606,31.250,17.578,35.156,46.387,24.414,0
190957.610,39.062,26.367,28.809,33.691,-24.902,0
190957.614,23.926,32.227,21.973,8.301,-29.785,0
190957.618,18.066,27.344,24.902,20.020,-0.977,0
190957.622,28.809,24.414,37.109,43.457,5.371,0
190957.625,28.809,21.484,35.156,20.996,-9.277,0
190957.629,20.508,20.508,29.297,3.418,-33.203,0
190957.633,19.043,27.344,25.391,18.066,-45.898,0
190957.637,18.555,27.344,22.461,26.855,-24.414,0
190957.641,29.297,31.250,38.086,29.297,31.250,0
190957.645,33.203,38.086,42.969,20.508,32.227,0
190957.649,21.484,34.180,28.320,7.324,23.926,0
190957.653,22.461,29.785,20.020,22.461,56.641,0
190957.657,28.320,16.113,12.695,37.598,57.617,0
190957.661,20.508,9.277,25.391,19.531,44.434,0
190957.664,8.789,20.996,49.316,3.418,-1.953,0
190957.668,7.812,28.320,60.059,15.625,27.344,0
190957.672,19.531,29.785,46.875,38.574,119.141,0
190957.676,18.066,29.297,27.832,26.367,73.730,0
190957.680,13.672,29.785,32.715,12.207,2.441,0
190957.684,14.160,25.879,35.156,20.996,-0.488,0
190957.688,21.484,23.438,26.367,48.828,69.824,0
190957.692,28.320,23.438,13.184,51.758,116.699,0
190957.696,27.832,23.438,27.832,25.391,47.363,0
190957.700,15.137,20.996,46.875,13.672,-29.785,0
190957.704,8.789,18.555,49.805,30.273,22.461,0
190957.707,19.531,18.555,36.621,36.133,97.656,0
190957.711,21.484,19.043,29.785,11.230,73.242,0
190957.715,17.578,30.762,42.969,9.766,10.254,0
190957.719,15.625,32.715,37.598,25.879,25.879,0
190957.723,20.020,24.414,33.691,32.227,77.148,0
190957.727,26.855,30.762,42.480,14.648,33.691,0
190957.731,20.996,37.109,37.109,-4.883,-8.301,0
190957.735,11.719,31.250,29.785,9.766,10.254,0
190957.739,21.484,24.902,29.785,38.086,61.035,0
190957.743,25.879,22.461,17.090,25.879,48.828,0
190957.747,19.531,18.066,13.672,2.441,0.977,0
190957.750,10.742,18.066,37.109,10.742,17.578,0
190957.754,9.277,14.160,42.480,27.344,60.059,0
190957.758,20.020,13.184,30.273,21.484,58.105,0
190957.762,27.832,31.738,38.574,9.277,5.371,0
190957.766,20.996,39.551,45.898,10.742,-10.254,0
190957.770,12.207,26.855,35.156,21.484,31.738,0
190957.774,13.184,17.578,29.297,19.043,49.805,0
190957.778,14.160,21.973,25.391,-5.859,20.020,0
190957.782,10.742,29.785,8.789,0.488,1.465,0
190957.786,9.277,27.344,15.625,22.949,20.508,0
190957.789,14.648,19.043,29.785,13.184,25.879,0
190957.793,16.602,23.438,23.926,-7.324,28.809,0
190957.797,17.578,25.879,32.227,-0.977,57.129,0
190957.801,17.578,19.531,60.059,21.484,51.270,0
190957.805,17.578,17.090,46.387,38.574,66.895,0
190957.809,19.043,21.484,19.043,21.484,18.066,0
190957.813,21.484,25.879,22.461,1.953,-33.203,0
190957.817,11.719,26.855,22.461,6.348,5.859,0
190957.821,13.184,22.461,37.109,29.297,41.504,0
190957.825,16.602,22.949,43.457,24.902,26.855,0
190957.829,14.648,31.250,37.598,-1.465,-12.207,0
190957.832,17.578,36.621,51.270,5.859,-15.137,0
190957.836,10.254,22.949,48.828,22.461,26.855,0
190957.840,7.324,12.695,30.273,25.391,118.652,0
190957.844,12.695,22.949,23.926,3.906,107.422,0
190957.848,11.230,34.668,10.742,1.953,77.637,0
190957.852,9.766,31.738,11.719,25.391,103.516,0
190957.856,23.438,23.926,32.715,41.504,127.441,0
190957.860,32.715,25.879,46.387,25.391,118.164,0
190957.864,25.879,26.367,47.852,7.812,44.922,0
190957.868,16.113,18.555,30.762,20.508,25.879,0
190957.872,22.949,15.137,26.367,43.457,82.520,0
190957.875,27.832,24.414,41.504,38.574,59.570,0
190957.879,20.020,29.785,36.621,3.418,5.859,0
190957.883,2.930,22.949,14.160,-2.930,27.344,0
190957.887,6.348,19.531,24.902,37.598,74.219,0
190957.891,17.090,30.273,35.156,39.062,34.180,0
190957.895,10.254,37.109,26.367,2.441,-47.852,0
190957.899,0.000,34.668,27.344,3.906,-37.598,0
190957.903,3.418,27.832,43.945,31.738,37.598,0
190957.907,20.020,28.320,53.711,38.086,57.617,0
190957.911,26.855,35.645,42.480,18.555,5.371,0
190957.914,18.066,24.902,29.785,5.859,-20.020,0
190957.918,2.441,8.789,28.320,20.996,-19.531,0
190957.922,11.230,8.301,33.691,36.621,-34.668,0
190957.926,21.484,15.625,38.574,17.090,-61.523,0
190957.930,13.184,19.531,38.086,4.883,-26.367,0
190957.934,10.742,25.391,43.457,22.461,13.184,1
190957.938,20.020,28.320,51.270,48.340,38.086,0
190957.942,27.832,32.715,51.270,44.434,49.316,0
190957.946,26.367,32.715,39.062,24.414,5.371,0
190957.950,12.207,18.555,36.133,16.113,-30.762,0
190957.954,2.441,14.648,41.016,23.438,10.742,0
190957.957,8.789,19.043,27.832,30.273,43.457,0
190957.961,17.578,21.973,25.879,17.090,-3.418,0
190957.965,16.602,17.090,41.016,5.371,-51.270,0
190957.969,11.230,13.184,50.293,17.090,-34.180,0
190957.973,17.578,21.484,48.828,33.691,42.969,0
190957.977,19.043,20.508,41.992,22.949,58.594,0
190957.981,17.578,20.020,35.156,11.719,-7.324,0
190957.985,19.043,25.391,39.062,21.484,-17.578,0
190957.989,26.367,25.879,43.457,42.969,61.035,0
190957.993,26.367,19.043,27.832,27.832,76.660,0
190957.997,26.367,13.672,19.531,13.184,17.578,0
190958.000,21.973,11.719,32.227,29.785,-36.621,0
190958.004,20.508,15.625,29.785,44.434,-19.043,0
190958.008,26.367,27.344,21.973,33.691,9.766,0
190958.012,22.949,30.273,35.156,9.766,-20.996,0
190958.016,13.672,23.926,47.852,1.465,-41.016,0
190958.020,15.625,23.926,41.016,27.344,-6.836,0
190958.024,31.738,29.297,32.227,43.945,6.836,0
190958.028,20.508,25.879,29.297,14.648,-7.324,0
190958.032,3.418,13.672,28.809,-0.977,-0.977,0
190958.036,7.324,19.531,28.320,20.996,52.734,0
190958.039,19.531,33.203,25.879,35.645,71.777,0
190958.043,22.461,37.598,27.344,20.508,49.316,0
190958.047,13.184,37.598,18.066,5.371,56.641,0
190958.051,7.812,29.297,8.301,13.184,64.453,0
190958.055,22.461,20.020,29.297,36.621,78.613,0
190958.059,26.855,19.043,42.480,27.832,23.926,0
190958.063,12.695,25.879,42.480,4.395,-21.973,0
190958.067,10.742,22.949,42.480,6.348,2.441,0
190958.071,24.902,17.090,37.598,38.574,65.430,0
190958.075,39.062,27.832,37.109,46.875,87.891,0
190958.079,33.691,29.785,35.156,18.066,61.035,0
190958.082,8.301,19.531,36.621,5.859,44.922,0
190958.086,0.488,22.949,38.086,22.461,77.148,0
190958.090,15.137,31.250,39.551,31.738,97.656,0
190958.094,13.184,34.180,26.367,5.859,5.859,0
190958.098,14.648,35.156,16.113,3.418,-52.246,0
190958.102,22.949,29.297,32.227,29.297,-22.949,0
190958.106,21.973,19.043,36.621,36.133,-10.742,0
190958.110,16.113,17.090,35.645,19.043,45.898,0
190958.114,11.230,22.949,49.805,11.719,6.348,0
190958.118,0.977,24.414,49.316,13.672,-55.664,0
190958.122,4.883,20.996,36.133,28.809,-11.719,0
190958.125,22.461,22.949,27.344,26.855,0.000,0
190958.129,23.926,23.926,25.391,7.324,-12.695,0
190958.133,15.137,24.414,28.809,12.207,-34.180,0
190958.137,14.160,22.949,36.133,27.832,8.789,0
190958.141,22.461,19.531,38.574,29.785,52.734,0
190958.145,19.531,27.344,43.945,13.672,0.977,0
190958.149,17.578,28.320,50.781,17.090,-27.344,0
190958.153,16.113,18.555,42.969,39.062,-6.348,0
190958.157,6.348,16.602,30.762,39.062,32.715,0
190958.161,7.812,23.438,31.250,13.672,-6.348,0
190958.164,6.836,28.320,18.555,-4.395,-61.523,0
190958.168,3.418,28.320,17.090,11.719,-23.926,0
190958.172,15.137,31.250,31.250,43.945,46.875,0
190958.176,13.672,32.715,32.715,26.855,29.785,0
190958.180,4.883,33.203,25.879,-0.977,-30.273,0
190958.184,3.906,32.715,24.902,13.184,-14.160,0
190958.188,17.090,25.391,37.109,38.574,66.895,0
190958.192,33.203,28.809,39.062,34.668,69.824,0
190958.196,32.227,38.086,26.855,14.648,-0.977,0
190958.200,16.113,41.016,24.414,20.996,-15.137,0
190958.204,3.906,34.180,20.020,36.621,25.879,0
190958.207,4.395,25.391,17.578,26.855,72.266,0
190958.211,3.906,26.855,24.902,5.371,36.133,0
190958.215,1.953,24.414,33.691,9.277,24.414,0
190958.219,-4.395,15.625,31.250,25.391,67.871,0
190958.223,-0.977,19.043,20.020,29.297,75.684,0
190958.227,-3.418,28.320,25.879,4.883,64.941,0
190958.231,-13.184,25.879,47.363,-4.883,30.273,0
190958.235,-8.301,26.367,61.035,16.113,17.090,0
190958.239,4.883,31.738,63.965,41.992,53.711,0
190958.243,7.324,33.203,52.246,25.391,32.715,0
190958.247,-0.488,30.273,26.367,-4.395,-28.809,0
190958.250,-12.695,22.949,31.250,-2.930,-42.969,0
190958.254,-15.625,17.090,39.551,12.207,-0.488,0
190958.258,-8.789,15.137,22.461,9.277,42.480,0
190958.262,-13.184,15.137,17.578,-6.836,14.160,0
190958.266,-23.926,19.531,27.344,-6.836,-48.828,0
190958.270,-25.391,23.926,37.598,16.602,20.996,0
190958.274,-12.207,34.668,50.781,24.414,103.516,0
190958.278,-17.090,38.574,40.527,-5.859,15.137,0
190958.282,-38.574,32.227,25.879,-28.809,-74.707,0
190958.286,-39.062,32.227,48.828,-6.836,-45.410,0
190958.289,-30.762,32.227,58.105,8.301,6.348,0
190958.293,-38.086,29.785,34.668,-21.484,-41.504,0
190958.297,-47.852,28.809,15.625,-44.434,-77.148,0
190958.301,-54.199,28.809,18.066,-35.645,-53.223,0
190958.305,-53.223,25.879,29.297,-11.719,19.043,0
190958.309,-61.523,24.902,27.344,-27.832,32.227,0
190958.313,-69.824,32.715,19.043,-58.105,27.344,0
190958.317,-72.754,32.715,21.973,-58.105,32.227,0
190958.321,-69.336,21.973,29.785,-26.367,46.875,0
190958.325,-65.430,15.625,35.645,-29.297,67.871,0
190958.329,-82.520,17.578,36.621,-77.148,33.691,0
190958.332,-99.609,25.391,44.922,-94.238,-6.836,0
190958.336,-90.820,29.297,43.945,-68.359,41.992,0
190958.340,-78.125,29.297,26.367,-55.176,74.707,0
190958.344,-78.125,35.645,5.371,-80.566,-21.484,0
190958.348,-82.031,42.480,11.719,-76.172,-48.340,0
190958.352,-80.078,39.062,37.598,-40.527,22.949,0
190958.356,-49.805,40.527,49.316,-6.836,43.945,0
190958.360,-41.504,40.039,41.992,-20.020,51.758,0
190958.364,-53.711,27.832,31.250,-43.945,6.348,0
190958.368,-44.922,16.113,38.574,-23.926,-11.230,0
190958.372,-31.250,7.812,38.086,4.395,65.430,0
190958.375,-26.855,16.602,10.254,-11.230,63.965,0
190958.379,-24.414,23.926,1.953,-34.668,34.180,0
190958.383,-30.273,15.137,28.809,-23.926,34.180,0
190958.387,-18.555,25.391,56.152,18.066,50.293,0
190958.391,-0.488,41.992,55.176,20.996,69.336,0
190958.395,-2.930,39.062,49.316,-3.418,76.172,0
190958.399,-7.324,25.879,40.527,-0.977,57.129,0
190958.403,-6.836,13.184,13.184,17.090,63.965,0
190958.407,2.441,10.742,0.977,39.551,104.492,0
190958.411,11.230,16.602,17.090,27.344,78.613,0
190958.414,26.855,26.367,42.480,15.137,15.137,0
190958.418,51.270,31.250,68.359,63.477,47.363,0
190958.422,49.805,22.461,60.059,82.520,81.543,0
190958.426,24.902,25.879,41.992,36.133,17.090,0
190958.430,17.578,39.551,44.922,14.648,-26.367,0
190958.434,9.766,38.574,31.250,20.996,0.488,0
190958.438,34.180,44.922,19.043,65.430,58.594,0
190958.442,62.500,41.992,29.297,81.543,68.359,0
190958.446,38.574,10.742,30.273,34.180,39.062,0
190958.450,22.949,18.066,21.484,25.391,13.184,0
190958.454,20.020,41.504,15.137,49.805,45.898,0
190958.457,1.953,24.414,2.930,22.949,44.434,0
190958.461,4.883,23.926,11.719,-14.648,-27.344,0
190958.465,20.020,35.645,22.949,1.465,-24.902,0
190958.469,33.691,36.133,33.691,43.457,30.273,0
190958.473,41.992,30.273,34.668,55.176,54.199,0
190958.477,34.668,16.602,18.555,22.949,-1.953,0
190958.481,29.297,15.625,23.438,10.742,-42.480,0
190958.485,23.438,18.555,35.156,31.250,5.859,0
190958.489,32.227,17.578,32.227,49.316,52.734,0
190958.493,48.340,26.855,33.691,45.410,37.109,0
190958.497,51.270,39.062,41.016,39.551,0.488,0
190958.500,42.480,33.691,48.828,47.852,22.461,0
190958.504,42.969,26.367,43.457,60.059,78.125,0
190958.508,48.828,35.645,29.297,53.223,28.320,0
190958.512,53.711,46.875,23.438,45.898,-45.410,0
190958.516,45.410,37.109,26.367,41.992,2.930,0
190958.520,42.969,29.785,42.480,52.734,54.199,0
190958.524,52.246,25.391,46.387,53.711,41.016,0
190958.528,55.664,28.320,44.434,29.297,-1.465,0
190958.532,54.199,41.504,50.293,30.762,-15.137,0
190958.536,60.547,36.621,43.945,63.965,22.949,0
190958.539,71.289,22.949,36.621,75.195,45.898,0
190958.543,61.035,22.949,35.645,38.574,24.902,0
190958.547,46.875,22.461,46.387,25.879,21.973,0
190958.551,51.270,18.066,68.848,55.664,31.250,0
190958.555,53.223,5.371,62.500,69.336,58.105,0
190958.559,46.387,7.812,37.598,48.340,54.688,1
190958.563,47.363,21.973,26.367,37.598,18.066,0
190958.567,46.387,22.461,31.250,51.270,0.977,0
190958.571,48.340,8.301,48.340,72.754,-11.719,0
190958.575,44.922,-2.441,47.363,67.871,-2.441,0
190958.579,42.480,9.766,46.875,42.969,-20.508,0
190958.582,39.551,14.160,47.363,29.297,-41.016,0
190958.586,40.527,11.719,40.527,46.387,-7.324,0
190958.590,53.711,12.207,45.410,66.895,64.453,0
190958.594,55.176,11.719,52.246,48.828,62.012,0
190958.598,44.922,14.160,51.758,36.133,34.180,0
190958.602,47.363,8.789,45.898,55.664,39.551,0
190958.606,55.176,2.930,36.133,72.266,54.688,0
190958.610,46.387,5.371,32.715,44.922,45.898,0
190958.614,35.645,2.930,35.645,24.414,8.789,0
190958.618,27.832,13.672,40.039,39.551,5.371,0
190958.622,31.250,25.879,36.621,57.617,52.734,0
190958.625,36.133,22.949,39.551,45.898,41.992,0
190958.629,29.297,21.484,34.180,15.137,-24.414,0
190958.633,26.367,26.855,40.039,22.461,-9.277,0
190958.637,34.180,21.484,39.062,52.734,38.574,0
190958.641,42.480,20.996,20.996,51.758,14.648,0
190958.645,46.387,40.039,33.691,38.574,-42.480,0
190958.649,35.156,36.133,47.363,29.785,-32.715,0
190958.653,20.020,18.555,41.016,35.156,40.527,0
190958.657,20.996,18.066,38.086,32.227,76.660,0
190958.661,25.391,24.902,38.574,4.883,35.645,0
190958.664,25.391,20.996,27.344,6.348,27.832,0
190958.668,23.438,9.766,25.879,28.320,46.387,0
190958.672,31.250,10.254,36.621,35.645,28.809,0
190958.676,34.668,22.949,26.855,20.020,5.859,0
190958.680,23.926,31.250,18.555,5.859,-5.859,0
190958.684,29.297,36.133,28.809,26.855,25.879,0
190958.688,50.781,34.180,29.785,58.105,48.828,0
190958.692,39.062,29.785,12.207,32.227,29.785,0
190958.696,21.973,35.645,23.438,3.906,32.715,0
190958.700,12.695,35.156,45.410,9.766,21.973,0
190958.704,14.160,31.250,29.785,27.832,9.766,0
190958.707,23.438,23.926,13.672,24.414,44.434,0
190958.711,16.602,13.184,20.020,2.930,21.973,0
190958.715,6.836,13.672,23.926,7.324,-46.875,0
190958.719,10.254,24.414,30.273,18.555,-40.527,0
190958.723,21.484,29.297,47.363,22.949,-9.766,0
190958.727,22.461,29.785,41.016,3.906,2.441,0
190958.731,25.391,42.480,22.949,7.324,-30.762,0
190958.735,21.484,47.363,16.113,30.273,-7.324,0
190958.739,16.602,26.367,17.578,31.250,39.551,0
190958.743,19.043,18.066,27.832,17.090,-6.348,0
190958.747,20.508,20.996,36.133,3.418,-23.926,0
190958.750,16.113,23.926,47.363,6.836,15.137,0
190958.754,9.277,32.227,30.273,18.555,20.020,0
190958.758,10.742,34.668,12.695,10.742,28.809,0
190958.762,9.766,35.156,30.273,-7.812,8.789,0
190958.766,3.906,31.738,29.785,-8.789,-46.875,0
190958.770,10.742,31.250,19.043,22.461,13.184,0
190958.774,25.879,36.621,33.203,40.527,43.945,0
190958.778,21.484,31.250,33.691,7.812,-4.395,0
190958.782,13.184,29.297,37.109,0.977,-15.137,0
190958.786,14.160,36.133,47.363,32.227,44.434,0
190958.789,19.531,33.691,38.574,42.480,83.008,0
190958.793,19.531,25.391,34.180,12.695,2.930,0
190958.797,10.742,22.461,33.691,-5.371,-34.180,0
190958.801,2.930,30.273,31.738,13.184,2.930,0
190958.805,17.578,39.062,37.598,30.273,86.426,0
190958.809,28.320,41.016,37.109,9.277,50.293,0
190958.813,19.043,47.852,30.273,-5.371,-31.738,0
190958.817,12.207,50.293,36.133,13.672,1.953,0
190958.821,18.555,45.410,28.809,34.180,39.062,0
190958.825,18.555,40.527,23.926,23.438,50.781,0
190958.829,9.277,35.156,30.273,1.465,16.113,0
190958.832,7.324,35.645,38.086,1.953,-4.883,0
190958.836,9.277,37.598,30.762,16.602,6.836,0
190958.840,17.090,30.273,20.508,24.414,32.715,0
190958.844,14.648,24.902,26.367,5.371,28.809,0
190958.848,8.301,28.320,25.879,6.348,-1.953,0
190958.852,6.348,29.297,24.902,28.809,12.207,0
190958.856,18.555,34.668,31.738,43.457,68.359,0
190958.860,21.973,41.992,38.086,26.855,78.613,0
190958.864,13.672,44.922,38.086,5.859,29.297,0
190958.868,5.371,39.062,32.715,10.742,4.883,0
190958.872,6.836,30.762,31.738,27.832,60.547,0
190958.875,14.648,34.180,34.668,26.855,76.172,0
190958.879,17.090,39.062,35.645,5.859,40.527,0
190958.883,11.230,33.203,33.203,6.348,4.395,0
190958.887,15.625,19.043,19.531,29.785,51.270,0
190958.891,28.809,14.160,16.113,29.785,111.328,0
190958.895,24.902,26.367,37.109,13.672,48.340,0
190958.899,14.648,29.785,55.664,12.695,13.672,0
190958.903,23.438,25.879,54.199,34.668,42.480,0
190958.907,29.297,27.344,27.832,45.410,64.941,0
190958.911,22.461,32.227,11.230,20.020,34.668,0
190958.914,16.602,34.180,22.461,-1.465,-41.992,0
190958.918,12.207,30.762,38.574,11.230,-35.156,0
190958.922,30.762,29.297,48.340,38.574,25.879,0
190958.926,38.574,22.461,41.016,19.043,5.371,0
190958.930,22.461,18.066,27.832,1.953,-32.715,0
190958.934,12.207,22.949,21.484,24.902,-7.324,0
190958.938,20.996,25.879,27.344,43.457,40.527,0
190958.942,33.691,30.273,51.758,41.992,39.551,0
190958.946,22.461,33.203,49.316,14.648,-41.016,0
190958.950,10.742,29.297,28.809,13.184,-70.312,0
190958.954,19.043,20.508,25.879,47.363,22.461,0
190958.957,31.250,21.973,29.297,41.504,34.180,0
190958.961,27.832,26.367,19.043,3.418,-42.969,0
190958.965,11.719,15.137,14.160,1.465,-28.809,0
190958.969,11.719,6.348,32.715,28.320,60.059,0
190958.973,20.508,10.742,49.316,35.156,103.516,0
190958.977,20.508,22.461,39.551,9.277,41.504,0
190958.981,20.508,35.156,39.551,4.883,42.480,0
190958.985,24.902,26.855,47.852,36.133,93.750,0
190958.989,29.297,18.555,40.039,50.781,126.465,0
190958.993,29.297,31.250,40.527,23.438,116.211,0
190958.997,20.508,31.738,35.156,5.371,68.359,0
190959.000,10.254,28.320,36.133,15.625,26.367,0
190959.004,20.996,25.391,33.691,33.691,39.551,0
190959.008,22.949,18.555,10.254,22.461,65.430,0
190959.012,12.695,24.902,17.578,3.906,58.105,0
190959.016,9.277,23.926,39.062,6.836,35.645,0
190959.020,14.160,16.113,31.738,27.832,54.688,0
190959.024,29.297,15.137,32.715,39.062,93.262,0
190959.028,34.668,26.367,50.293,22.461,62.988,0
190959.032,20.508,37.598,53.223,13.672,49.316,0
190959.036,14.648,34.668,45.898,26.367,82.520,0
190959.039,30.273,27.832,41.992,48.828,91.797,0
190959.043,40.039,31.250,33.691,41.016,63.965,0
190959.047,29.297,31.250,30.762,12.207,14.160,0
190959.051,10.254,21.484,38.574,5.371,70.312,0
190959.055,14.648,18.066,43.457,26.855,163.574,0
190959.059,20.996,19.043,36.133,20.508,126.465,0
190959.063,18.555,25.391,40.527,7.324,60.547,0
190959.067,14.648,31.250,38.574,18.555,48.828,0
190959.071,23.926,36.133,22.949,41.504,105.469,0
190959.075,38.574,32.227,27.832,41.016,96.680,0
190959.079,30.273,29.785,27.832,17.090,72.266,0
190959.082,11.230,27.832,11.230,8.301,97.168,0
190959.086,17.090,26.367,31.738,29.785,81.543,1
190959.090,27.832,32.715,54.688,37.598,93.750,0
190959.094,18.066,34.668,45.898,6.348,46.387,0
190959.098,9.277,32.227,41.992,-6.348,31.738,0
190959.102,14.160,30.273,46.387,24.414,86.914,0
190959.106,33.691,35.645,41.992,45.410,112.793,0
190959.110,39.062,32.227,36.621,23.438,70.801,0
190959.114,21.973,25.879,31.738,9.277,23.926,0
190959.118,11.719,27.344,29.297,22.461,54.199,0
190959.122,24.902,27.344,27.344,46.875,86.914,0
190959.125,30.762,24.414,17.090,35.645,64.453,0
190959.129,21.973,35.645,17.578,15.137,-0.977,0
190959.133,14.160,37.598,31.738,26.855,-31.250,0
190959.137,15.625,12.695,34.668,38.574,-8.301,0
190959.141,14.648,7.324,25.879,18.066,28.320,0
190959.145,8.789,21.484,32.715,3.906,25.391,0
190959.149,6.348,30.273,37.109,10.742,0.488,0
190959.153,11.719,24.902,35.645,28.320,-7.324,0
190959.157,19.043,22.949,47.852,35.156,-0.488,0
190959.161,18.066,33.203,43.945,15.137,1.953,0
190959.164,11.719,33.203,38.574,6.348,-16.113,0
190959.168,10.254,30.762,42.480,22.949,-38.574,0
190959.172,26.855,31.250,37.598,40.527,-6.348,0
190959.176,28.809,28.809,24.414,20.508,-6.836,0
190959.180,13.184,24.902,15.137,-5.859,-69.824,0
190959.184,0.977,21.484,22.949,-2.930,-62.988,0
190959.188,10.254,23.926,31.250,20.996,0.488,0
190959.192,24.902,25.391,26.855,18.555,8.301,0
190959.196,23.438,23.438,16.113,-1.465,-75.684,0
190959.200,22.949,25.391,21.484,10.742,-69.336,0
190959.204,36.133,29.297,25.391,40.527,28.809,0
190959.207,48.340,40.527,39.551,43.457,24.902,0
190959.211,33.691,35.156,47.363,11.719,-59.570,0
190959.215,14.160,25.879,38.086,2.930,-44.434,0
190959.219,13.672,25.391,41.992,26.855,12.695,0
190959.223,19.531,22.461,31.738,32.715,55.664,0
190959.227,20.508,25.391,15.625,6.836,-4.395,0
190959.231,19.043,26.855,37.109,-3.906,-63.477,0
190959.235,17.578,24.902,44.434,17.578,12.207,0
190959.239,29.785,20.020,28.809,43.945,58.594,0
190959.243,36.621,21.484,28.320,21.973,1.465,0
190959.247,29.297,28.809,28.320,-4.395,-41.016,0
190959.250,26.855,34.180,36.133,15.625,2.441,0
190959.254,24.902,26.855,42.969,35.645,47.363,0
190959.258,21.484,21.484,29.785,17.578,24.902,0
190959.262,17.578,25.879,26.855,0.977,-30.762,0
190959.266,6.836,26.855,28.809,0.488,-64.453,0
190959.270,9.766,20.996,32.227,18.555,-23.926,0
190959.274,22.949,7.812,40.039,24.414,18.555,0
190959.278,26.855,11.719,38.574,8.301,-20.508,0
190959.282,23.926,32.715,34.668,15.137,-16.113,0
190959.286,20.508,35.156,38.574,32.227,19.531,0
190959.289,20.020,24.902,46.387,26.367,15.625,0
190959.293,24.902,23.926,58.594,8.789,22.461,0
190959.297,26.367,27.832,57.617,13.184,28.809,0
190959.301,16.113,25.879,43.457,27.832,51.270,0
190959.305,17.090,13.672,22.949,37.109,98.633,0
190959.309,22.461,20.020,15.625,23.438,57.129,0
190959.313,20.508,33.203,31.250,6.836,-35.156,0
190959.317,11.719,28.809,36.133,13.672,-32.715,0
190959.321,13.672,15.625,25.879,42.480,18.555,0
190959.325,22.949,13.672,16.113,39.062,30.762,0
190959.329,16.602,23.926,25.879,12.207,-14.648,0
190959.332,7.812,26.367,48.828,7.324,-102.539,0
190959.336,15.625,26.855,61.523,37.598,-53.711,0
190959.340,23.438,25.391,52.246,46.387,36.621,0
190959.344,12.695,20.508,39.062,4.883,-7.812,0
190959.348,5.859,19.043,34.180,-3.418,-28.809,0
190959.352,11.719,20.020,30.273,23.438,15.625,0
190959.356,19.531,19.531,24.414,39.551,68.359,0
190959.360,17.578,19.043,30.273,18.555,54.688,0
190959.364,16.602,24.414,42.969,10.254,0.488,0
190959.368,13.672,26.367,39.062,24.902,-8.789,0
190959.372,19.043,28.320,27.832,42.480,38.086,0
190959.375,20.996,30.273,30.762,27.832,34.668,0
190959.379,14.160,27.832,41.016,4.883,-66.406,0
190959.383,11.230,28.809,42.969,17.090,-81.543,0
190959.387,9.766,23.438,29.785,35.645,25.879,0
190959.391,14.648,21.484,14.648,23.438,49.316,0
190959.395,25.879,28.809,20.996,11.230,-3.906,0
190959.399,22.949,28.320,23.926,23.926,22.949,0
190959.403,14.160,21.484,20.508,34.668,63.965,0
190959.407,26.855,15.625,24.902,28.320,76.660,0
190959.411,31.250,30.762,17.578,9.277,50.781,0
190959.414,20.996,48.340,9.277,-2.441,-18.555,0
190959.418,21.484,40.527,26.367,12.207,-17.090,0
190959.422,33.691,31.738,37.598,29.785,-0.488,0
190959.426,37.109,30.273,20.020,5.371,-29.297,0
190959.430,24.902,32.227,10.254,-7.812,-14.160,0
190959.434,14.648,34.668,20.508,9.766,15.137,0
190959.438,15.137,31.738,12.695,21.973,-2.441,0
190959.442,17.578,31.738,0.977,6.348,-7.812,0
190959.446,19.043,37.598,11.719,-3.418,-10.254,0
190959.450,10.254,31.738,25.879,5.859,-27.832,0
190959.454,18.555,21.973,35.645,32.227,26.855,0
190959.457,33.203,19.043,34.180,33.691,57.617,0
190959.461,29.785,23.438,25.879,13.184,-0.977,0
190959.465,19.531,28.320,7.324,11.230,-32.715,0
190959.469,13.672,18.066,3.906,16.113,13.184,0
190959.473,28.809,15.625,26.367,25.879,32.715,0
190959.477,33.203,31.250,47.363,17.578,32.715,0
190959.481,15.625,36.621,49.805,4.395,-7.324,0
190959.485,0.488,21.973,30.762,7.324,3.906,0
190959.489,7.812,18.066,20.020,22.461,58.105,0
190959.493,23.438,33.691,22.949,16.602,20.996,0
190959.497,20.508,36.133,25.391,8.789,20.996,0
190959.500,0.000,20.996,20.508,12.207,0.000,0
190959.504,4.395,14.160,19.531,26.855,-12.695,0
190959.508,14.160,19.043,34.668,20.508,0.488,0
190959.512,9.766,19.043,40.039,-3.906,-62.500,0
190959.516,4.395,21.484,34.180,-4.395,-84.961,0
190959.520,11.719,28.809,41.504,27.344,31.738,0
190959.524,23.926,26.367,26.367,34.668,45.898,0
190959.528,21.484,27.344,20.508,5.859,-7.324,0
190959.532,7.812,30.762,43.945,0.488,-13.672,0
190959.536,-2.930,18.066,48.340,15.137,12.207,0
190959.539,21.973,16.602,54.199,39.062,30.273,0
190959.543,37.598,35.156,41.504,30.273,-27.832,0
190959.547,17.578,35.156,10.254,13.184,-36.133,0
190959.551,14.160,30.273,20.020,29.297,0.000,0
190959.555,22.949,31.250,39.551,39.551,68.848,0
190959.559,21.973,33.203,42.969,20.508,51.758,0
190959.563,11.230,35.156,34.668,3.418,10.742,0
190959.567,4.883,33.691,39.062,19.531,62.500,0
190959.571,24.902,33.691,43.457,50.293,68.359,0
190959.575,39.551,32.715,30.762,51.758,70.312,0
190959.579,31.250,24.414,25.879,32.715,68.848,0
190959.582,22.949,15.137,38.574,29.785,58.594,0
190959.586,29.785,17.578,36.621,51.270,87.891,0
190959.590,41.992,24.902,36.621,57.617,143.066,0
190959.594,37.109,31.738,41.504,31.738,86.426,0
190959.598,20.508,27.832,39.062,20.996,23.926,0
190959.602,16.113,18.555,47.363,28.809,40.039,0
190959.606,28.809,23.926,47.363,33.691,56.641,0
190959.610,27.344,28.320,25.391,24.414,56.152,0
190959.614,18.555,24.902,19.043,6.836,27.832,0
190959.618,14.160,19.043,39.551,12.207,19.043,0
190959.622,26.367,20.020,49.805,43.457,44.434,0
190959.625,33.203,26.367,42.969,40.039,32.227,0
190959.629,24.414,32.227,43.945,18.555,-25.391,0
190959.633,22.949,38.574,36.621,29.297,-33.203,0
190959.637,28.320,33.203,31.250,45.898,37.598,0
190959.641,23.926,25.879,40.527,25.879,55.176,0
190959.645,7.324,24.902,41.992,-6.348,24.902,0
190959.649,-3.418,21.484,45.410,-4.883,13.672,0
190959.653,10.254,22.949,49.805,22.461,35.645,0
190959.657,23.926,30.273,37.598,30.762,57.129,0
190959.661,18.555,31.250,29.297,11.230,-11.719,0
190959.664,4.883,21.484,35.156,-2.930,-60.059,0
190959.668,-0.977,13.672,44.434,21.484,-21.973,0
190959.672,12.207,11.230,34.668,41.992,71.777,0
190959.676,16.113,15.625,30.762,15.137,83.984,0
190959.680,9.766,21.973,46.387,4.883,11.230,0
190959.684,8.301,15.625,47.363,29.785,32.227,0
190959.688,21.484,13.672,32.715,54.199,101.074,0
190959.692,25.879,22.461,29.297,29.297,83.984,0
190959.696,18.066,20.996,45.410,1.953,41.992,0
190959.700,7.812,16.113,49.316,10.254,17.090,0
190959.704,11.230,19.043,42.480,30.273,39.551,0
190959.707,20.996,24.414,35.156,21.484,-14.648,0
190959.711,17.090,27.344,27.344,-3.418,-57.129,0
190959.715,16.113,29.297,33.691,12.695,0.488,0
190959.719,23.926,25.879,38.574,43.945,48.828,0
190959.723,32.715,20.020,24.414,43.457,57.617,0
190959.727,27.832,19.531,12.695,18.066,2.930,0
190959.731,11.230,16.113,4.883,12.207,-14.160,0
190959.735,7.812,12.207,18.066,23.926,-10.254,0
190959.739,15.625,14.648,32.227,24.414,12.695,0
190959.743,18.555,21.484,40.039,11.230,47.363,0
190959.747,13.184,22.461,42.480,4.395,40.527,0
190959.750,11.719,15.137,34.668,13.672,20.508,0
190959.754,30.762,15.137,48.828,40.527,9.277,0
190959.758,39.062,19.531,38.574,39.551,53.223,0
190959.762,28.809,20.020,18.555,17.578,18.555,0
190959.766,17.090,27.832,28.809,18.066,-35.156,0
190959.770,17.090,26.855,28.809,31.738,3.418,0
190959.774,25.879,20.996,33.203,29.785,35.156,0
190959.778,30.762,31.250,34.668,11.719,7.324,0
190959.782,19.043,33.691,17.090,2.930,-9.766,0
190959.786,9.277,21.973,29.785,19.043,28.809,0
190959.789,22.461,25.879,49.805,33.203,59.570,2
190959.793,33.203,31.738,36.133,22.949,6.348,0
190959.797,17.578,19.043,13.184,3.418,-42.969,0
190959.801,3.418,8.789,29.785,7.812,-20.508,0
190959.805,24.902,13.672,51.758,41.992,57.617,0
190959.809,28.809,10.254,39.551,20.020,68.848,0
190959.813,12.695,18.555,28.809,-3.418,28.320,0
190959.817,19.043,31.738,30.273,19.043,28.320,0
190959.821,28.320,25.391,34.180,41.504,46.387,0
190959.825,27.832,29.297,35.156,33.691,11.230,0
190959.829,12.695,25.879,31.738,-3.906,-20.508,0
190959.832,-1.465,7.812,45.410,-8.301,-14.160,0
190959.836,2.930,9.766,44.922,24.902,-6.836,0
190959.840,16.113,24.414,23.438,30.762,18.555,0
190959.844,12.207,22.949,16.113,-3.906,-12.207,0
190959.848,-1.953,18.555,21.973,-14.160,-35.156,0
190959.852,6.348,18.066,31.250,25.391,0.488,0
190959.856,33.691,25.391,34.668,52.246,36.621,0
190959.860,37.109,36.621,41.992,27.344,-13.672,0
190959.864,26.367,36.621,44.922,12.695,-47.363,0
190959.868,13.672,29.785,44.434,27.832,0.977,0
190959.872,14.160,23.926,38.086,38.086,70.801,0
190959.875,18.555,18.555,30.273,19.043,61.523,0
190959.879,19.043,18.066,23.926,4.395,-9.277,0
190959.883,16.113,21.973,18.555,20.020,-4.883,0
190959.887,24.902,18.555,21.973,39.062,10.742,0
190959.891,37.598,20.508,12.695,32.715,26.855,0
190959.895,27.344,32.715,9.766,16.602,37.598,0
190959.899,15.625,37.598,29.785,19.043,5.371,0
190959.903,20.020,36.133,43.457,35.156,34.668,0
190959.907,28.320,26.855,38.086,39.062,73.242,0
190959.911,26.855,20.020,38.574,26.367,47.363,0
190959.914,15.625,31.250,39.551,12.207,13.184,0
190959.918,16.113,41.504,34.180,22.461,42.969,0
190959.922,24.414,36.133,24.902,34.180,93.750,0
190959.926,14.648,28.809,11.719,10.254,56.152,0
190959.930,8.789,28.320,16.602,2.930,14.648,0
190959.934,10.742,28.809,26.855,17.090,3.906,0
190959.938,21.484,27.832,27.832,32.227,38.574,0
190959.942,30.273,37.109,27.344,27.344,45.898,0
190959.946,28.320,47.852,28.809,15.137,-9.277,0
190959.950,12.207,38.086,27.832,16.113,6.836,0
190959.954,12.207,24.902,36.621,32.227,56.152,0
190959.957,25.391,24.902,32.227,36.133,48.828,0
190959.961,22.461,27.832,25.879,12.695,24.902,0
190959.965,13.672,21.484,33.691,-2.441,-7.324,0
190959.969,16.113,15.625,44.922,26.367,30.762,0
190959.973,25.879,23.926,45.898,40.527,98.633,0
190959.977,24.902,34.668,32.715,12.207,35.156,0
190959.981,24.902,34.668,38.086,16.602,-22.461,0
190959.985,25.879,26.855,42.480,40.039,24.902,0
190959.989,21.484,20.508,37.598,39.551,83.008,0
190959.993,16.113,20.508,36.133,9.277,25.879,0
190959.997,9.766,21.973,26.855,-4.883,-35.645,0
190960.000,7.324,27.344,39.551,21.973,7.812,0
190960.004,12.207,22.949,41.016,39.062,65.918,0
190960.008,13.184,16.602,32.715,19.043,42.969,0
190960.012,6.348,19.531,40.527,3.418,40.039,0
190960.016,-3.906,18.555,44.434,10.254,34.668,0
190960.020,6.836,20.020,44.922,33.203,46.875,0
190960.024,17.578,21.484,34.180,25.879,78.125,0
190960.028,15.625,29.297,37.598,-2.930,12.207,0
190960.032,13.184,29.785,34.668,-1.953,-2.441,0
190960.036,10.254,19.531,11.719,20.508,36.133,0
190960.039,14.160,21.973,12.695,12.207,-1.465,0
190960.043,10.742,26.367,15.625,-12.695,-37.109,0
190960.047,2.930,27.832,15.137,-4.395,3.418,0
190960.051,-0.977,26.855,38.086,14.160,49.805,0
190960.055,19.043,28.320,50.293,36.621,72.754,0
190960.059,34.668,35.156,37.109,30.762,37.109,0
190960.063,29.785,33.691,31.738,14.648,-7.324,0
190960.067,24.414,33.203,31.250,17.578,6.836,0
190960.071,28.809,33.203,25.391,31.738,48.828,0
190960.075,31.738,29.785,17.578,23.438,43.457,0
190960.079,24.414,29.297,6.348,3.906,32.227,0
190960.082,17.578,30.762,15.137,2.930,-18.555,0
190960.086,17.578,26.367,19.043,19.531,-19.043,0
190960.090,20.996,24.414,27.832,31.250,73.730,0
190960.094,21.484,30.273,43.457,13.184,37.598,0
190960.098,12.695,28.809,38.086,1.465,2.930,0
190960.102,10.254,26.855,33.203,27.344,62.500,0
190960.106,15.625,26.367,32.227,39.551,93.750,0
190960.110,18.555,27.344,43.457,15.137,42.480,0
190960.114,10.254,23.438,49.316,0.977,15.137,0
190960.118,0.488,18.066,36.621,14.160,25.391,0
190960.122,11.230,18.066,20.996,36.133,54.199,0
190960.125,21.484,23.926,19.531,22.461,43.945,0
190960.129,24.414,24.902,30.273,10.742,13.672,0
190960.133,23.438,20.020,40.039,22.461,11.719,0
190960.137,29.297,22.461,40.039,39.062,37.109,0
190960.141,26.855,23.926,27.344,22.949,63.965,0
190960.145,17.090,30.273,23.438,-4.395,12.695,0
190960.149,8.301,28.809,20.020,0.000,7.324,0
190960.153,8.301,19.531,30.762,24.414,52.246,0
190960.157,17.090,23.926,40.527,33.203,80.566,0
190960.161,13.672,30.273,40.039,11.230,34.668,0
190960.164,8.301,32.227,41.992,4.395,-35.156,0
190960.168,7.812,20.508,38.574,22.461,-6.348,0
190960.172,21.484,11.230,33.203,41.992,7.812,0
190960.176,30.273,26.367,29.785,26.367,-44.922,0
190960.180,20.508,35.645,23.926,0.977,-37.109,0
190960.184,11.230,33.203,38.574,12.207,-1.465,0
190960.188,12.207,28.320,39.551,30.762,4.395,0
190960.192,17.090,24.902,27.832,21.973,8.789,0
190960.196,19.043,25.879,24.414,8.789,3.906,0
190960.200,11.230,23.438,27.344,11.230,-19.531,0
190960.204,15.137,27.344,41.016,35.156,23.926,0
190960.207,26.855,24.414,36.133,35.645,52.734,0
190960.211,27.344,25.391,44.922,18.066,10.254,0
190960.215,13.184,30.762,47.852,18.066,-3.906,0
190960.219,4.883,22.949,20.996,24.414,12.207,0
190960.223,14.160,21.973,18.555,29.785,54.199,0
190960.227,14.648,28.320,24.902,14.648,47.363,0
190960.231,10.254,32.715,35.645,11.230,-0.488,0
190960.235,19.043,34.668,51.270,36.133,21.484,0
190960.239,31.250,29.297,49.805,43.457,85.449,0
190960.243,34.668,26.367,28.809,19.531,72.754,0
190960.247,34.668,30.762,30.273,16.602,13.184,0
190960.250,23.438,30.273,50.781,24.414,13.184,0
190960.254,20.020,33.691,41.504,34.180,61.523,0
190960.258,18.555,29.297,23.438,22.949,63.965,0
190960.262,12.207,20.020,27.344,-1.465,-11.719,0
190960.266,4.883,22.949,42.480,0.488,-12.207,0
190960.270,6.348,21.973,46.875,24.902,71.777,0
190960.274,20.996,27.344,48.828,30.762,46.387,0
190960.278,20.996,37.109,42.969,13.184,-12.695,0
190960.282,11.230,36.133,41.504,5.371,-42.480,0
190960.286,19.531,23.926,41.992,29.297,-27.832,0
190960.289,30.762,13.184,28.809,39.062,66.895,0
190960.293,22.461,27.344,27.344,9.277,54.688,0
190960.297,11.230,34.180,28.320,-4.883,-23.926,0
190960.301,12.207,22.461,25.391,17.090,-19.531,0
190960.305,22.461,18.066,30.273,43.457,46.875,0
190960.309,23.438,27.344,37.598,21.484,55.664,0
190960.313,20.996,41.992,49.316,3.418,24.902,0
190960.317,18.555,45.410,53.223,20.508,26.367,0
190960.321,25.879,35.645,40.527,43.457,81.543,0
190960.325,35.645,29.297,28.809,36.133,77.637,0
190960.329,24.414,24.902,25.879,6.836,-3.418,0
190960.332,14.160,21.973,36.621,12.207,-20.020,0
190960.336,15.137,9.277,42.480,35.645,51.270,0
190960.340,26.855,8.789,45.898,35.156,58.105,0
190960.344,32.715,27.344,44.922,14.648,18.066,0
190960.348,24.414,37.598,25.879,17.090,31.250,0
190960.352,28.320,32.227,15.625,34.668,29.785,0
190960.356,44.434,27.832,26.367,34.180,38.086,0
190960.360,44.922,33.691,32.227,23.438,18.066,0
190960.364,30.273,37.109,21.484,22.949,-17.090,0
190960.368,8.789,25.391,22.949,24.902,10.254,0
190960.372,3.418,16.602,37.109,30.273,88.379,0
190960.375,6.836,25.879,48.340,23.926,79.102,0
190960.379,8.789,32.227,50.293,8.301,6.348,0
190960.383,-2.441,24.414,46.875,7.324,-22.949,0
190960.387,5.371,23.438,48.828,39.551,22.949,0
190960.391,25.879,23.926,45.898,42.480,53.223,0
190960.395,17.578,22.461,42.480,8.301,36.621,0
190960.399,8.789,28.809,36.621,1.953,2.441,1
190960.403,13.184,23.926,21.484,21.484,24.414,0
190960.407,23.926,25.391,26.367,29.297,60.059,0
190960.411,24.902,28.809,34.668,12.207,34.668,0
190960.414,11.230,21.484,27.344,-6.836,-5.859,0
190960.418,8.301,21.484,23.438,3.418,21.973,0
190960.422,14.648,27.832,21.484,27.344,86.426,0
190960.426,16.602,32.227,17.578,15.137,35.645,0
190960.430,9.766,27.832,24.902,-1.465,-33.203,0
190960.434,8.301,24.414,49.316,20.996,15.625,0
190960.438,21.973,28.320,60.547,45.898,101.074,0
190960.442,21.973,31.250,44.922,22.949,136.230,0
190960.446,7.812,28.809,22.949,-5.371,104.980,0
190960.450,6.348,30.273,15.625,6.836,68.848,0
190960.454,17.090,35.156,20.020,37.109,83.496,0
190960.457,15.137,25.879,20.508,21.484,42.480,0
190960.461,7.324,18.555,26.367,-11.719,-5.859,0
190960.465,4.395,23.926,41.016,-1.465,26.855,0
190960.469,11.230,20.996,49.805,24.414,68.359,0
190960.473,26.367,17.578,53.711,33.203,44.434,0
190960.477,32.227,19.531,37.598,16.113,23.926,0
190960.481,25.879,22.461,20.996,21.973,62.988,0
190960.485,20.996,24.414,21.973,39.551,56.641,0
190960.489,25.879,21.484,28.809,41.504,77.148,0
190960.493,29.297,23.926,42.969,24.414,66.406,0
190960.497,16.602,24.902,45.898,5.371,30.273,0
190960.500,1.465,16.602,49.805,4.883,25.391,0
190960.504,5.859,12.207,35.156,7.812,28.320,0
190960.508,15.137,12.695,24.414,-0.488,33.691,0
190960.512,18.066,17.090,32.227,2.930,-0.488,0
190960.516,11.719,23.926,40.527,14.160,-10.254,0
190960.520,14.160,30.762,47.852,34.180,35.156,0
190960.524,16.113,30.762,38.574,33.691,59.082,0
190960.528,9.766,29.785,23.926,1.953,28.320,0
190960.532,15.137,38.086,23.438,6.836,-14.160,0
190960.536,15.137,31.250,40.527,31.738,11.230,0
190960.539,6.348,13.672,38.574,19.531,65.430,0
190960.543,1.465,10.254,30.762,-7.812,51.758,0
190960.547,-0.977,13.672,34.668,-16.602,31.738,0
190960.551,7.812,18.555,37.109,-1.953,31.738,0
190960.555,22.949,17.090,33.203,28.809,89.844,0
190960.559,30.273,14.160,37.598,20.996,85.938,0
190960.563,31.738,22.949,42.969,11.230,31.738,0
190960.567,28.809,28.320,33.203,25.879,69.824,0
190960.571,24.902,33.203,23.926,38.086,113.770,0
190960.575,27.832,38.574,27.832,32.227,73.242,0
190960.579,25.879,32.227,28.809,8.301,41.504,0
190960.582,11.230,30.273,25.879,6.348,40.527,0
190960.586,12.695,28.320,39.062,32.715,62.012,0
190960.590,24.414,20.508,41.016,26.367,85.938,0
190960.594,23.438,20.996,36.133,-4.883,-4.395,0
190960.598,15.137,31.738,28.809,1.465,-42.969,0
190960.602,17.090,34.180,22.949,28.809,7.812,0
190960.606,29.297,22.949,36.621,35.156,57.129,0
190960.610,29.297,21.484,44.434,19.531,66.895,0
190960.614,27.832,31.738,40.527,17.090,53.711,0
190960.618,24.414,31.738,37.109,35.645,35.156,0
190960.622,17.578,20.996,27.344,41.016,12.207,0
190960.625,14.648,24.902,24.902,18.555,-2.930,0
190960.629,7.324,22.461,34.180,-1.465,-43.457,0
190960.633,1.465,8.301,43.945,8.301,-37.598,0
190960.637,4.883,16.602,40.527,25.391,5.859,0
190960.641,10.742,28.320,30.762,10.742,5.859,0
190960.645,16.113,31.250,27.832,4.883,1.953,0
190960.649,11.230,32.227,26.855,15.625,-57.129,0
190960.653,7.812,30.762,27.832,26.855,-45.898,0
190960.657,14.160,31.250,27.344,25.879,-9.766,0
190960.661,19.531,32.227,37.109,10.742,-44.922,0
190960.664,21.484,33.691,41.992,10.254,-56.641,0
190960.668,20.508,23.926,41.992,32.227,-12.695,0
190960.672,19.531,10.254,49.805,43.457,50.781,0
190960.676,11.230,12.207,34.668,4.395,43.945,0
190960.680,0.977,22.949,23.438,-17.090,-0.488,0
190960.684,-0.977,21.973,33.691,4.883,-16.113,0
190960.688,7.812,18.066,33.691,31.738,24.414,0
190960.692,13.184,19.043,25.391,22.461,15.137,0
190960.696,12.695,20.020,15.137,10.254,-19.043,0
190960.700,13.672,17.090,29.297,10.742,-35.156,0
190960.704,24.414,18.066,51.758,25.879,17.090,0
190960.707,29.297,25.391,54.688,29.297,66.895,0
190960.711,18.066,30.762,44.922,-1.953,38.574,0
190960.715,7.324,33.691,32.227,-7.324,-19.531,0
190960.719,8.789,33.691,29.785,20.508,-19.043,0
190960.723,14.648,29.785,21.973,24.414,-9.766,0
190960.727,9.766,25.391,8.301,-5.859,-76.172,0
190960.731,4.883,22.949,22.461,-12.695,-65.430,0
190960.735,8.789,24.902,37.109,18.066,8.301,0
190960.739,25.879,28.320,39.551,42.969,40.039,0
190960.743,29.785,38.086,38.574,21.484,-17.578,0
190960.747,18.555,33.691,38.574,1.953,-33.203,0
190960.750,14.648,14.648,39.551,13.184,31.250,0
190960.754,28.809,11.719,40.039,43.457,50.781,0
190960.758,37.598,20.996,38.086,39.551,45.898,0
190960.762,24.902,25.879,29.785,9.766,-10.254,0
190960.766,8.301,32.715,24.902,1.953,-38.086,0
190960.770,16.113,32.227,33.691,27.344,-20.508,0
190960.774,29.297,23.926,36.621,28.809,-17.090,0
190960.778,25.391,21.484,38.086,6.348,-64.453,0
190960.782,14.160,19.043,31.738,11.719,-53.223,0
190960.786,14.160,20.508,19.043,33.203,9.766,0
190960.789,21.973,20.508,29.785,33.203,-21.973,0
190960.793,28.320,28.809,36.621,19.043,-49.805,0
190960.797,29.297,32.715,39.551,20.996,-15.137,0
190960.801,26.855,18.066,41.992,31.250,9.766,0
190960.805,26.855,17.090,27.832,39.062,43.457,0
190960.809,29.785,32.715,19.043,21.973,61.035,0
190960.813,24.902,33.691,26.367,6.836,35.645,0
190960.817,10.742,24.902,38.086,10.742,25.391,0
190960.821,21.973,20.020,42.969,31.738,27.832,0
190960.825,36.133,19.043,41.504,32.227,31.250,0
190960.829,22.949,22.461,41.504,16.602,17.090,0
190960.832,11.230,27.344,34.180,20.996,8.301,0
190960.836,25.879,33.203,32.227,44.434,-1.953,0
190960.840,25.391,28.320,31.250,28.320,15.625,0
190960.844,12.695,17.578,25.391,-5.859,10.742,0
190960.848,10.254,21.973,34.180,1.465,0.488,0
190960.852,16.113,28.320,43.945,28.320,56.641,0
190960.856,28.809,27.344,43.945,43.945,98.633,0
190960.860,28.809,25.879,33.203,24.414,56.641,0
190960.864,21.484,20.508,20.020,10.254,0.488,0
190960.868,13.672,21.484,36.133,27.344,43.945,0
190960.872,17.578,30.273,44.434,40.527,110.352,0
190960.875,24.902,35.645,31.738,22.949,60.547,0
190960.879,21.484,38.086,41.016,8.789,-30.273,0
190960.883,12.207,33.203,50.293,17.578,-19.531,0
190960.887,17.090,26.855,39.551,37.598,78.125,0
190960.891,29.785,28.809,38.086,33.203,101.074,0
190960.895,25.879,28.809,38.086,20.996,37.598,0
190960.899,10.254,24.414,28.809,18.555,23.926,0
190960.903,18.066,15.137,24.902,33.203,76.172,0
190960.907,33.203,22.949,31.738,31.738,98.145,0
190960.911,33.691,41.992,40.039,7.812,71.777,0
190960.914,20.996,38.574,23.926,8.301,61.035,0
190960.918,17.578,29.297,20.508,39.062,68.359,0
190960.922,37.598,32.227,41.016,45.898,34.180,0
190960.926,38.574,40.527,58.105,8.301,-1.465,0
190960.930,15.137,35.156,45.410,-5.859,9.277,0
190960.934,8.789,23.438,24.414,10.742,40.039,0
190960.938,21.973,20.508,27.832,28.320,104.980,0
190960.942,23.438,19.531,24.414,10.742,42.969,0
190960.946,14.160,18.066,25.391,-3.418,-31.738,0
190960.950,8.301,18.066,29.297,15.137,9.766,0
190960.954,24.414,23.438,39.551,48.340,39.062,0
190960.957,35.645,31.738,41.504,44.434,26.367,0
190960.961,27.832,34.180,31.250,17.090,-13.672,0
190960.965,26.367,34.180,42.480,15.625,-0.488,0
190960.969,29.297,20.508,45.898,35.156,21.484,0
190960.973,28.320,7.324,34.180,35.156,-11.719,0
190960.977,23.438,11.719,35.645,16.113,-25.879,0
190960.981,14.160,18.066,33.691,9.766,-33.203,0
190960.985,17.578,19.043,30.762,35.645,-17.090,0
190960.989,30.762,20.020,38.574,57.617,41.016,0
190960.993,29.785,29.785,53.711,29.785,10.254,0
190960.997,15.137,36.133,48.828,4.395,-3.418,0
190961.000,9.766,35.645,30.273,15.625,19.043,0
190961.004,20.020,28.320,28.320,41.504,35.645,0
190961.008,24.902,22.461,40.527,30.762,48.340,0
190961.012,18.066,21.973,47.852,0.977,-41.504,0
190961.016,11.719,27.344,43.457,3.906,-61.523,0
190961.020,15.625,20.020,31.250,39.551,41.016,0
190961.024,27.344,13.184,21.484,40.527,44.922,0
190961.028,30.273,18.555,20.508,10.742,-7.812,0
190961.032,20.996,20.020,17.090,10.254,-30.762,0
190961.036,21.484,18.555,19.043,32.227,27.832,0
190961.039,26.855,19.531,29.785,30.273,93.750,1
190961.043,28.320,34.668,40.527,9.766,44.434,0
190961.047,17.578,34.668,39.551,3.906,20.996,0
190961.051,0.977,21.484,37.109,14.160,50.293,0
190961.055,10.742,23.926,38.574,28.320,83.008,0
190961.059,21.973,27.832,32.227,9.277,13.672,0
190961.063,20.020,31.738,39.551,2.441,-34.668,0
190961.067,15.625,32.715,19.043,24.414,15.625,0
190961.071,24.902,24.902,7.812,33.691,48.828,0
190961.075,35.645,17.090,35.645,22.949,25.879,0
190961.079,29.297,20.508,34.668,10.742,12.695,0
190961.082,15.137,26.367,29.785,14.160,40.039,0
190961.086,13.184,27.832,14.160,32.715,29.297,0
190961.090,20.508,33.691,11.230,38.086,27.344,0
190961.094,16.602,36.133,35.645,14.648,25.391,0
190961.098,14.648,29.785,56.152,16.113,25.391,0
190961.102,25.879,30.273,64.941,43.945,50.781,0
190961.106,28.320,25.391,7.812,38.574,63.477,0
190961.110,21.973,21.484,-5.371,9.766,26.367,0
190961.114,10.742,20.508,55.176,-1.953,4.883,0
190961.118,3.418,10.742,84.473,9.766,25.391,0
190961.122,16.602,9.766,69.336,28.809,40.039,0
190961.125,19.043,15.137,46.387,15.625,41.504,0
190961.129,10.742,25.391,51.270,-4.395,16.113,0
190961.133,13.672,33.203,46.875,12.695,11.230,0
190961.137,23.926,31.738,35.645,33.203,46.387,0
190961.141,19.531,30.273,24.902,11.719,25.879,0
190961.145,12.207,31.738,16.113,-9.277,-13.672,0
190961.149,9.766,28.809,27.832,-1.465,-8.789,0
190961.153,14.160,22.949,31.738,23.926,1.953,0
190961.157,23.926,24.902,30.762,29.297,47.852,0
190961.161,23.926,25.391,33.203,7.812,23.926,0
190961.164,12.207,22.461,42.480,4.883,-41.992,0
190961.168,6.836,21.484,40.039,22.949,-20.996,0
190961.172,16.602,24.414,11.719,23.926,49.805,0
190961.176,21.484,27.832,8.789,-0.977,19.531,0
190961.180,25.391,24.902,27.344,-1.953,-17.578,0
190961.184,33.203,23.926,31.250,28.809,7.812,0
190961.188,37.109,27.344,31.738,41.016,23.438,0
190961.192,32.227,34.180,36.621,12.695,0.488,0
190961.196,23.926,37.598,36.621,1.465,-13.184,0
190961.200,18.555,26.367,30.762,23.438,8.789,0
190961.204,27.344,20.996,10.742,39.551,78.613,0
190961.207,35.645,26.855,15.137,20.020,83.496,0
190961.211,25.879,23.438,38.574,-10.254,-8.789,0
190961.215,12.695,22.461,46.875,0.488,-37.109,0
190961.219,20.020,20.996,36.133,32.715,43.457,0
190961.223,33.203,20.020,20.020,38.086,63.965,0
190961.227,30.762,23.438,31.738,26.367,4.883,0
190961.231,19.043,25.391,39.062,14.648,-12.695,0
190961.235,18.066,30.273,42.480,22.949,30.762,0
190961.239,24.414,31.738,30.762,38.086,66.895,0
190961.243,12.207,25.879,7.324,6.836,9.277,0
190961.247,-7.324,21.484,27.344,-11.230,-35.645,0
190961.250,-5.859,20.996,37.598,10.742,-19.043,0
190961.254,13.672,21.973,17.578,24.902,-7.324,0
190961.258,14.648,27.344,25.391,8.789,-44.434,0
190961.262,8.301,28.809,42.480,1.953,-19.043,0
190961.266,12.207,20.508,42.969,16.602,30.762,0
190961.270,27.832,19.531,44.922,41.504,73.730,0
190961.274,32.715,29.297,35.156,38.086,74.707,0
190961.278,33.203,35.156,18.555,17.090,38.574,0
190961.282,22.949,26.367,21.484,6.348,15.625,0
190961.286,12.695,20.996,38.574,17.578,2.930,0
190961.289,17.578,24.902,38.574,31.738,46.387,0
190961.293,14.648,23.926,14.160,16.113,-0.488,0
190961.297,6.836,26.367,6.348,1.465,-41.504,0
190961.301,7.812,25.879,36.621,21.973,32.715,0
190961.305,14.648,27.344,51.758,43.457,100.586,0
190961.309,14.160,29.785,38.086,21.973,72.266,0
190961.313,14.160,28.320,38.086,12.695,44.434,0
190961.317,9.277,23.438,40.039,20.996,48.340,0
190961.321,14.648,22.949,37.598,36.133,111.328,0
190961.325,24.414,22.949,37.598,29.297,116.699,0
190961.329,26.367,29.297,39.062,12.207,21.484,0
190961.332,17.090,30.762,39.062,18.555,-6.348,0
190961.336,13.672,20.996,31.738,38.574,57.617,0
190961.340,21.973,18.555,16.113,36.133,78.125,0
190961.344,21.484,20.508,15.625,7.812,-5.859,0
190961.348,8.301,24.414,23.438,3.906,-42.969,0
190961.352,14.160,30.762,17.578,30.273,16.113,0
190961.356,30.762,36.133,15.137,42.480,26.367,0
190961.360,25.879,32.227,34.180,21.484,3.906,0
190961.364,12.207,21.484,44.922,5.371,-14.160,0
190961.368,13.672,28.809,58.105,27.832,16.602,0
190961.372,28.320,31.738,51.270,47.363,62.500,0
190961.375,29.785,23.438,32.227,21.973,35.156,0
190961.379,15.137,29.297,41.992,5.371,-10.742,0
190961.383,6.836,36.133,33.691,17.578,-50.293,0
190961.387,18.066,28.809,22.461,34.668,-28.809,0
190961.391,25.879,27.344,26.367,17.578,29.297,0
190961.395,27.832,36.621,21.973,7.812,-3.906,0
190961.399,16.113,24.414,22.461,18.066,-30.762,0
190961.403,15.625,3.906,38.086,28.320,33.691,0
190961.407,25.391,8.301,42.480,28.320,47.363,0
190961.411,17.578,22.461,30.273,6.348,19.043,0
190961.414,9.277,31.738,30.273,7.812,17.090,0
190961.418,7.324,27.344,39.062,33.203,55.664,0
190961.422,27.832,20.996,44.922,50.781,55.176,0
190961.426,39.062,27.344,42.969,35.156,2.930,0
190961.430,16.602,25.879,30.273,16.602,-27.832,0
190961.434,5.859,20.508,25.879,18.555,-18.066,0
190961.438,14.648,19.043,30.273,26.367,52.734,0
190961.442,20.996,22.461,37.109,18.066,79.590,0
190961.446,17.578,28.320,33.691,2.930,-6.348,0
190961.450,10.742,31.738,33.203,13.672,-6.836,0
190961.454,24.414,35.645,49.316,44.434,67.871,0
190961.457,33.203,38.574,49.316,34.180,58.105,0
190961.461,19.531,36.133,40.039,9.766,23.438,0
190961.465,5.859,33.691,34.180,20.020,17.090,0
190961.469,6.348,22.461,16.602,28.809,65.918,0
190961.473,18.066,18.066,7.324,21.484,63.965,0
190961.477,13.672,22.461,12.695,-2.441,-4.883,0
190961.481,1.465,14.648,32.227,-6.836,-15.625,0
190961.485,9.766,13.672,45.410,25.879,8.301,0
190961.489,16.113,22.461,39.062,30.273,41.504,0
190961.493,13.184,35.645,40.527,2.930,59.570,0
190961.497,14.648,42.480,41.992,4.395,23.438,0
190961.500,18.066,42.969,42.480,31.250,16.113,0
190961.504,20.996,39.062,30.273,46.387,5.859,0
190961.508,20.996,29.297,17.578,23.438,-46.875,0
190961.512,17.578,25.879,27.344,0.000,-50.293,0
190961.516,1.465,19.043,30.762,2.441,-26.367,0
190961.520,3.906,15.625,17.090,23.926,-17.578,0
190961.524,18.066,23.926,18.555,19.043,-18.555,0
190961.528,18.555,24.414,36.621,-1.465,-57.617,0
190961.532,12.207,22.949,50.293,14.160,-82.520,0
190961.536,25.879,35.156,52.734,46.387,-14.648,0
190961.539,43.945,37.598,29.297,30.762,20.508,0
190961.543,35.156,35.156,20.996,-2.441,-17.090,0
190961.547,17.578,33.203,39.551,0.977,-24.414,0
190961.551,12.695,28.809,37.109,16.113,-20.996,0
190961.555,28.320,27.832,29.297,27.832,18.555,0
190961.559,36.621,24.414,33.203,12.695,13.184,0
190961.563,24.414,22.461,30.762,2.930,21.973,0
190961.567,5.371,24.414,18.066,16.113,33.691,0
190961.571,11.719,25.879,18.555,32.715,7.324,0
190961.575,27.344,30.762,35.645,21.973,11.230,0
190961.579,20.020,35.645,46.875,2.930,22.461,0
190961.582,8.301,29.785,47.852,7.812,-0.977,0
190961.586,21.484,23.926,35.156,30.273,9.766,0
190961.590,31.738,28.809,18.066,38.574,37.598,0
190961.594,20.508,33.203,23.438,18.555,8.301,0
190961.598,3.906,28.320,31.250,-1.953,-7.812,0
190961.602,4.395,27.832,27.344,16.113,20.508,0
190961.606,15.137,30.762,21.484,33.691,8.789,0
190961.610,13.184,25.879,28.320,10.742,-1.465,0
190961.614,6.836,22.949,37.109,5.371,15.625,0
190961.618,10.254,25.879,26.367,32.227,58.105,0
190961.622,29.297,26.367,24.902,44.434,86.426,0
190961.625,31.250,28.809,42.480,18.555,26.855,0
190961.629,15.625,31.738,43.457,-1.953,-33.203,0
190961.633,12.695,28.809,34.668,15.137,23.926,0
190961.637,24.902,20.508,30.273,45.410,85.938,0
190961.641,27.832,17.090,39.062,28.809,33.203,0
190961.645,17.578,24.414,37.109,0.000,-11.719,0
190961.649,9.277,28.320,24.414,2.441,6.836,0
190961.653,17.578,28.809,25.391,28.320,11.230,0
190961.657,30.273,32.227,37.598,34.668,-11.230,0
190961.661,33.691,35.645,38.574,18.555,-6.836,0
190961.664,17.090,24.902,26.855,15.625,-16.113,0
190961.668,5.859,8.789,24.902,27.344,29.785,0
190961.672,19.531,8.789,36.621,40.527,60.059,0
190961.676,30.762,22.949,43.945,28.809,-27.832,0
190961.680,23.438,31.250,32.227,16.602,-22.461,0
190961.684,16.113,29.297,25.879,26.367,20.996,0
190961.688,19.531,20.996,24.414,25.879,62.012,0
190961.692,19.043,17.578,22.461,-0.977,55.176,0
190961.696,20.508,28.809,31.738,-5.859,7.812,0
190961.700,19.043,30.762,44.434,22.461,17.578,0
190961.704,20.996,22.461,44.922,47.852,41.504,0
190961.707,26.367,23.438,31.250,27.832,76.660,0
190961.711,22.949,24.902,19.043,3.906,98.145,0
190961.715,13.672,23.926,30.273,9.277,11.230,0
190961.719,11.230,23.438,35.156,23.926,-5.371,0
190961.723,20.020,23.926,28.809,24.414,33.203,0
190961.727,21.973,24.902,32.715,4.883,34.668,1
190961.731,10.742,23.438,38.574,-3.906,-5.371,0
190961.735,15.137,28.320,39.062,21.973,17.090,0
190961.739,31.250,30.762,32.227,37.598,71.777,0
190961.743,30.762,27.832,28.320,17.090,37.109,0
190961.747,13.184,23.926,35.156,4.883,16.113,0
190961.750,2.441,21.973,37.598,30.273,41.504,0
190961.754,15.625,24.902,31.738,44.434,93.750,0
190961.758,15.625,20.996,15.625,7.812,70.312,0
190961.762,8.301,23.926,18.066,-6.836,2.441,0
190961.766,10.742,23.926,35.156,12.207,17.090,0
190961.770,22.949,20.508,35.156,42.480,65.918,0
190961.774,26.855,22.949,24.902,30.273,65.430,0
190961.778,23.926,29.297,40.527,9.277,16.602,0
190961.782,22.461,37.598,49.805,26.367,1.953,0
190961.786,27.832,34.180,27.344,45.410,60.059,0
190961.789,30.762,26.855,15.625,35.156,91.797,0
190961.793,18.066,24.902,21.973,7.324,16.113,0
190961.797,18.066,24.902,34.180,3.418,-14.160,0
190961.801,21.484,26.855,33.691,23.926,40.039,0
190961.805,30.273,32.715,42.969,41.504,86.914,0
190961.809,21.973,24.414,34.180,16.113,100.586,0
190961.813,8.301,18.555,27.344,0.977,78.613,0
190961.817,10.742,23.926,41.016,20.508,63.965,0
190961.821,21.484,23.438,28.320,36.621,76.660,0
190961.825,20.020,14.160,16.113,10.742,-6.348,0
190961.829,8.301,17.090,29.297,-7.812,-54.199,0
190961.832,2.930,27.832,36.133,7.324,4.395,0
190961.836,9.277,21.973,35.156,32.715,54.199,0
190961.840,15.625,17.090,41.504,24.902,71.289,0
190961.844,10.254,21.973,54.199,1.465,32.715,0
190961.848,10.254,25.879,62.500,16.602,0.488,0
190961.852,22.461,22.949,57.617,45.410,52.734,0
190961.856,32.715,22.461,42.969,42.969,52.734,0
190961.860,31.738,14.160,21.484,15.625,-10.742,0
190961.864,21.484,16.602,10.254,15.625,-15.625,0
190961.868,19.043,28.320,24.902,31.738,-5.859,0
190961.872,23.926,25.391,37.109,28.809,45.898,0
190961.875,28.809,31.250,40.527,12.207,24.414,0
190961.879,31.250,32.227,46.875,8.301,-29.297,0
190961.883,24.414,22.949,50.293,25.391,0.488,0
190961.887,28.320,18.555,41.504,44.434,12.207,0
190961.891,35.156,23.438,29.297,34.668,-33.203,0
190961.895,31.250,32.715,37.109,21.973,-73.242,0
190961.899,16.113,22.949,44.434,22.949,-58.105,0
190961.903,17.578,4.883,33.203,38.086,-5.859,0
190961.907,27.832,5.371,27.832,37.109,13.184,0
190961.911,17.578,19.043,38.086,6.348,-5.859,0
190961.914,10.254,29.785,49.316,-5.371,-4.395,0
190961.918,22.461,37.598,37.598,26.367,43.945,0
190961.922,28.809,37.598,27.832,44.922,67.383,0
190961.926,21.484,35.156,38.086,18.066,49.316,0
190961.930,9.277,33.691,40.039,0.977,-9.277,0
190961.934,0.000,24.414,38.574,15.625,-17.578,0
190961.938,19.531,22.949,34.668,44.922,42.969,0
190961.942,29.297,32.227,21.484,30.273,26.855,0
190961.946,12.207,28.809,28.809,-0.977,9.277,0
190961.950,-0.488,16.602,44.922,7.324,31.738,0
190961.954,10.254,13.184,45.410,41.504,75.195,0
190961.957,16.602,19.043,34.180,21.973,79.590,0
190961.961,13.672,24.902,11.230,-16.113,-10.742,0
190961.965,12.207,23.438,22.949,-0.977,-8.789,0
190961.969,8.789,17.578,44.922,19.531,65.918,0
190961.973,18.066,24.414,62.988,21.973,58.594,0
190961.977,20.508,33.203,57.617,10.254,14.160,0
190961.981,7.812,25.879,34.668,4.883,-3.418,0
190961.985,4.883,12.695,31.250,16.602,12.207,0
190961.989,20.996,15.137,37.598,32.227,18.066,0
190961.993,27.344,24.902,36.133,18.066,-21.484,0
190961.997,11.230,16.602,19.043,-1.953,-54.199,0
190962.000,6.836,10.254,23.438,16.113,-44.434,0
190962.004,21.973,18.555,35.645,34.668,-53.711,0
190962.008,17.090,28.809,42.480,10.254,-48.340,0
190962.012,5.859,27.832,42.969,3.418,-17.578,0
190962.016,6.836,25.879,37.598,26.855,-18.555,0
190962.020,4.395,27.344,39.062,36.133,21.973,0
190962.024,-2.441,22.949,38.574,14.160,45.410,0
190962.028,-2.930,22.949,41.992,-8.789,-38.574,0
190962.032,0.000,34.668,48.340,-2.441,-62.988,0
190962.036,5.859,33.691,37.109,21.973,5.859,0
190962.039,3.906,16.602,12.695,22.461,38.086,0
190962.043,0.977,17.578,13.184,0.000,-2.441,0
190962.047,0.488,29.297,22.949,-9.766,-34.180,0
190962.051,0.977,21.973,20.996,7.812,-10.254,0
190962.055,13.672,22.949,35.645,32.227,35.156,0
190962.059,15.137,36.133,45.898,11.230,29.785,0
190962.063,11.230,41.016,45.410,-0.488,3.418,0
190962.067,12.207,34.180,35.645,22.461,-0.488,0
190962.071,23.926,31.250,25.879,43.945,21.484,0
190962.075,21.973,30.273,34.668,28.320,40.527,0
190962.079,5.371,22.949,30.762,3.906,4.395,0
190962.082,1.953,25.391,23.438,14.160,-0.488,0
190962.086,14.648,30.273,11.230,37.109,58.105,0
190962.090,30.762,29.785,10.254,33.203,65.918,0
190962.094,24.414,22.461,13.184,9.766,34.180,0
190962.098,10.254,23.438,19.043,5.371,43.945,0
190962.102,12.695,28.320,44.434,30.762,95.703,0
190962.106,13.184,26.367,50.293,31.738,110.352,0
190962.110,9.766,34.180,61.035,5.859,75.684,0
190962.114,5.371,31.738,65.430,1.465,42.480,0
190962.118,6.836,24.902,43.945,28.320,37.598,0
190962.122,25.391,32.227,29.297,48.828,106.934,0
190962.125,29.297,32.227,27.344,26.367,104.004,0
190962.129,13.672,24.414,34.180,2.930,26.367,0
190962.133,3.418,19.531,44.922,15.137,31.250,0
190962.137,17.090,17.090,43.945,39.551,54.199,0
190962.141,21.973,20.020,48.828,22.949,8.301,0
190962.145,5.859,28.320,52.246,-0.977,-42.480,0
190962.149,0.488,20.508,49.805,4.395,-17.578,0
190962.153,16.602,16.113,29.297,35.645,51.270,0
190962.157,26.367,25.879,-0.488,34.180,87.402,0
190962.161,20.508,35.156,20.996,11.230,83.984,0
190962.164,15.137,36.621,54.688,17.090,40.039,0
190962.168,18.555,28.809,51.270,37.109,38.086,0
190962.172,27.344,26.367,42.480,41.016,45.410,0
190962.176,19.043,27.832,35.156,17.578,14.648,0
190962.180,14.648,28.809,33.203,6.836,-22.461,0
190962.184,27.344,30.273,45.410,22.949,-6.348,0
190962.188,35.156,32.227,38.574,41.992,47.363,0
190962.192,36.133,35.645,26.855,24.414,51.758,0
190962.196,28.809,31.738,26.855,1.953,41.992,0
190962.200,18.555,25.879,31.738,20.996,10.742,0
190962.204,24.902,15.625,33.691,44.922,26.855,0
190962.207,32.715,14.648,40.039,32.227,25.879,0
190962.211,30.273,39.551,56.641,26.367,-1.465,0
190962.215,16.602,38.086,48.340,24.414,18.555,0
190962.219,10.742,13.672,32.227,29.785,95.215,0
190962.223,17.090,21.973,31.738,27.832,108.887,0
190962.227,21.973,39.062,25.391,-0.488,-22.949,0
190962.231,11.230,38.574,32.227,-7.324,-64.941,0
190962.235,7.812,35.156,41.504,20.996,-14.648,0
190962.239,22.461,29.297,29.297,35.645,0.977,0
190962.243,22.949,32.227,26.855,18.555,-38.086,0
190962.247,13.672,39.551,37.109,19.043,-68.848,0
190962.250,12.695,33.203,41.992,42.480,-16.113,0
190962.254,25.879,30.273,36.133,51.758,44.922,0
190962.258,27.344,29.297,27.344,24.902,4.395,0
190962.262,12.695,23.926,30.762,5.371,-43.945,0
190962.266,8.301,25.879,34.180,21.973,-34.668,0
190962.270,23.926,26.855,41.992,50.781,5.371,0
190962.274,31.250,23.926,47.363,41.992,-18.066,0
190962.278,25.391,23.926,37.109,17.578,-39.551,0
190962.282,15.625,25.879,41.504,25.879,-8.301,0
190962.286,19.043,25.391,41.992,41.504,-21.973,0
190962.289,41.504,39.551,36.133,46.387,-34.180,0
190962.293,38.086,49.805,35.156,24.902,-34.668,0
190962.297,22.461,35.645,30.273,13.184,-20.996,0
190962.301,23.926,19.043,25.879,37.109,4.395,0
190962.305,24.414,17.090,30.762,41.992,2.441,0
190962.309,22.461,24.414,30.273,23.438,-21.973,0
190962.313,20.020,29.785,24.902,17.578,-29.785,0
190962.317,15.137,29.785,40.039,24.902,-2.441,0
190962.321,26.367,33.203,48.340,47.852,42.480,0
190962.325,30.762,31.250,35.156,32.227,62.988,0
190962.329,25.879,27.344,26.855,10.254,16.113,0
190962.332,31.250,34.668,28.320,28.320,-30.273,0
190962.336,36.621,38.086,38.086,47.852,-5.859,0
190962.340,29.785,27.344,36.621,30.273,38.574,0
190962.344,19.531,20.508,37.109,10.742,-18.555,0
190962.348,17.090,19.043,50.293,26.367,-29.785,0
190962.352,23.438,20.996,46.387,44.922,51.270,0
190962.356,28.809,23.438,36.133,38.574,53.711,0
190962.360,23.926,25.391,25.879,17.578,-5.371,0
190962.364,13.184,29.785,18.066,11.230,-41.992,0
190962.368,20.996,35.156,33.691,39.551,15.137,0
190962.372,38.086,37.109,47.852,59.570,33.203,0
190962.375,30.273,35.156,60.059,29.297,-10.254,0
190962.379,14.160,28.320,52.246,-2.930,-47.363,0
190962.383,3.418,18.066,26.367,6.348,-38.574,0
190962.387,9.277,23.926,23.438,38.086,34.180,0
190962.391,12.207,25.879,24.902,18.555,17.578,0
190962.395,5.859,20.508,27.832,-7.324,-10.742,0
190962.399,3.906,24.902,36.133,10.254,21.484,0
190962.403,14.648,28.809,34.180,38.574,56.152,0
190962.407,21.973,31.250,34.180,26.855,75.195,0
190962.411,17.578,36.621,42.480,2.930,29.785,0
190962.414,8.789,31.738,45.898,9.766,-9.766,0
190962.418,9.766,24.414,44.922,32.715,41.992,0
190962.422,20.508,19.531,39.551,32.715,48.340,0
190962.426,18.555,17.578,30.762,13.184,-36.133,0
190962.430,2.930,21.484,17.578,12.207,-14.160,2
190962.434,-0.977,22.949,22.949,28.809,63.965,0
190962.438,14.160,24.414,35.645,40.527,91.797,0
190962.442,10.742,23.438,20.996,15.625,58.105,0
190962.446,0.977,22.949,21.484,3.906,53.223,0
190962.450,2.441,26.855,47.363,22.461,81.543,0
190962.454,10.254,30.762,57.129,40.527,97.656,0
190962.457,11.230,28.320,44.434,20.508,74.219,0
190962.461,6.836,26.855,38.574,1.465,32.227,0
190962.465,6.348,29.785,46.875,17.090,13.184,0
190962.469,12.207,18.555,39.551,32.715,29.785,0
190962.473,12.207,14.648,16.113,19.531,41.992,0
190962.477,7.812,22.461,13.184,8.789,15.137,0
190962.481,2.441,25.391,27.344,9.766,2.441,0
190962.485,2.930,27.344,21.973,22.461,59.570,0
190962.489,9.766,23.438,19.043,37.598,89.355,0
190962.493,15.625,24.414,41.992,12.695,38.574,0
190962.497,10.742,26.367,58.105,-3.418,31.250,0
190962.500,2.930,25.879,49.316,19.531,85.449,0
190962.504,12.695,23.438,36.621,39.062,130.859,0
190962.508,22.949,20.996,33.203,19.043,90.332,0
190962.512,17.090,20.996,22.461,-8.301,-38.574,0
190962.516,7.812,18.555,20.020,0.977,-99.121,0
190962.520,12.695,12.695,21.973,29.785,-0.488,0
190962.524,19.043,12.207,23.438,24.902,28.809,0
190962.528,20.020,18.066,41.504,4.883,-48.828,0
190962.532,20.020,26.855,62.500,12.695,-51.270,0
190962.536,20.020,29.785,55.664,32.227,34.668,0
190962.539,26.855,28.320,42.480,29.297,62.988,0
190962.543,29.785,34.180,40.527,8.301,-31.738,0
190962.547,20.020,34.180,28.809,3.418,-64.453,0
190962.551,28.320,29.785,23.926,33.203,-3.906,0
190962.555,34.180,28.809,23.438,43.457,-0.977,0
190962.559,13.672,27.832,15.137,4.883,-62.012,0
190962.563,2.930,29.297,20.996,-16.602,-101.074,0
190962.567,7.812,26.367,31.250,3.906,-42.969,0
190962.571,23.438,21.973,42.969,30.273,12.695,0
190962.575,24.902,23.926,40.527,17.578,4.883,0
190962.579,14.160,24.902,26.855,-5.859,-28.320,0
190962.582,9.766,22.949,26.367,0.977,-42.480,0
190962.586,21.484,22.949,24.414,23.926,14.160,0
190962.590,32.227,31.250,33.691,19.043,6.348,0
190962.594,25.879,41.016,41.992,-0.488,-38.574,0
190962.598,13.672,40.039,37.598,3.906,6.348,0
190962.602,14.648,28.809,31.738,20.508,41.504,0
190962.606,15.625,21.973,32.227,12.207,25.879,0
190962.610,6.348,22.461,33.691,-14.160,36.133,0
190962.614,2.930,25.391,41.504,-14.160,46.387,0
190962.618,9.766,20.996,44.922,12.695,52.734,0
190962.622,23.926,20.508,37.598,32.227,54.688,0
190962.625,24.902,28.809,37.598,18.066,5.859,0
190962.629,12.207,27.344,38.086,4.883,8.301,0
190962.633,13.672,25.879,32.227,20.508,33.203,0
190962.637,28.809,24.414,15.625,44.922,52.734,0
190962.641,30.273,22.461,22.461,27.344,60.059,0
190962.645,14.648,17.090,39.551,-3.906,24.902,0
190962.649,10.254,21.973,53.711,5.859,13.672,0
190962.653,17.090,27.344,53.711,26.367,36.133,0
190962.657,18.555,20.020,32.227,20.020,54.688,0
190962.661,16.602,17.578,28.320,0.488,13.184,0
190962.664,9.766,21.484,26.367,-2.441,-53.223,0
190962.668,9.766,20.996,16.602,20.020,13.184,0
190962.672,17.090,17.578,23.438,28.809,95.215,0
190962.676,27.832,29.785,42.480,13.672,41.016,0
190962.680,30.273,34.668,40.527,10.254,-6.348,0
190962.684,17.090,21.973,33.203,20.996,28.320,0
190962.688,19.043,16.602,41.504,27.832,78.125,0
190962.692,20.996,21.973,34.180,0.977,49.316,0
190962.696,19.043,33.203,25.391,-6.348,37.598,0
190962.700,17.578,25.391,26.855,18.066,27.344,0
190962.704,21.973,17.090,28.320,46.387,42.969,0
190962.707,30.273,22.949,33.203,24.902,57.617,0
190962.711,26.855,28.809,38.086,-12.695,-3.906,0
190962.715,15.625,35.645,34.668,-2.441,17.090,0
190962.719,24.902,30.762,32.715,24.902,45.898,0
190962.723,36.621,26.855,35.156,24.414,47.363,0
190962.727,29.785,28.809,27.832,5.859,50.781,0
190962.731,15.137,24.414,36.621,5.371,23.438,0
190962.735,14.648,24.414,36.621,23.438,36.133,0
190962.739,32.715,32.715,11.719,33.691,67.871,0
190962.743,31.250,29.785,19.531,10.254,22.461,0
190962.747,21.973,16.113,44.434,2.441,-15.625,0
190962.750,28.809,13.184,42.480,32.715,32.227,0
190962.754,40.039,25.879,34.668,45.410,55.176,0
190962.758,31.738,39.062,34.180,20.020,37.598,0
190962.762,18.066,34.180,28.809,12.695,20.020,0
190962.766,10.254,27.832,24.902,25.879,21.973,0
190962.770,21.973,25.879,37.109,42.969,84.473,0
190962.774,27.344,19.043,34.668,28.320,73.242,0
190962.778,23.438,25.879,21.484,15.137,57.617,0
190962.782,18.066,32.227,26.855,25.879,75.684,0
190962.786,19.043,32.715,45.898,36.621,74.219,0
190962.789,27.832,32.227,52.246,28.320,51.758,0
190962.793,24.414,28.320,29.297,1.953,30.273,0
190962.797,7.812,26.855,18.066,-13.184,-7.812,0
190962.801,6.348,23.438,31.250,4.395,-16.113,0
190962.805,18.555,19.043,31.250,21.973,39.551,0
190962.809,16.113,15.625,34.180,3.418,70.801,0
190962.813,18.066,26.367,43.457,0.977,46.387,0
190962.817,17.578,32.227,41.016,20.508,48.340,0
190962.821,17.578,30.762,26.367,32.227,74.707,0
190962.825,17.090,30.762,8.789,9.277,62.012,0
190962.829,9.277,26.855,20.996,-6.348,59.570,0
190962.832,5.371,30.762,47.363,15.137,65.430,0
190962.836,25.879,37.598,56.152,51.270,90.332,0
190962.840,29.297,32.227,39.551,35.645,69.824,0
190962.844,20.508,32.715,35.156,4.395,9.277,0
190962.848,14.648,38.086,35.156,14.160,16.602,0
190962.852,13.672,32.715,26.855,38.086,48.340,0
190962.856,26.855,30.762,28.320,34.668,54.688,0
190962.860,32.715,28.809,29.785,5.371,33.691,0
190962.864,17.578,28.809,20.996,2.930,15.137,0
190962.868,8.789,21.484,18.555,21.973,34.668,0
190962.872,28.809,11.230,43.945,33.691,31.738,0
190962.875,35.156,20.996,55.664,19.043,5.859,0
190962.879,27.832,35.645,46.387,9.766,-3.418,0
190962.883,25.391,35.156,44.922,26.855,29.785,0
190962.887,36.621,31.250,39.551,45.898,32.227,0
190962.891,45.898,34.180,31.738,26.367,-43.457,0
190962.895,37.109,37.109,24.414,7.324,-52.246,0
190962.899,18.555,28.809,32.227,21.973,-8.789,0
190962.903,17.090,15.625,41.504,41.016,16.113,0
190962.907,21.973,15.137,35.156,29.785,21.484,0
190962.911,21.484,23.926,23.438,11.719,9.277,0
190962.914,24.414,16.602,30.273,19.043,21.973,0
190962.918,30.273,11.719,41.016,37.598,46.875,0
190962.922,29.785,29.785,29.785,31.250,56.152,0
190962.926,23.438,46.387,23.438,5.859,41.504,0
190962.930,18.066,43.457,35.156,10.742,21.973,0
190962.934,10.254,24.902,35.645,21.973,33.691,0
190962.938,12.695,18.066,17.090,20.020,75.195,0
190962.942,9.766,22.949,6.348,9.277,54.688,0
190962.946,3.418,25.391,15.625,-1.953,-3.906,0
190962.950,4.883,22.461,37.598,4.883,2.930,0
190962.954,8.789,19.531,37.109,22.461,25.391,0
190962.957,16.602,29.297,25.391,10.742,1.953,0
190962.961,17.090,26.855,18.066,-8.789,-23.926,0
190962.965,6.348,21.973,22.461,7.324,-20.508,0
190962.969,6.836,25.391,38.574,35.645,34.180,0
190962.973,11.719,25.879,46.387,24.414,56.641,0
190962.977,5.371,28.320,32.227,-5.371,-37.109,0
190962.981,-8.301,26.855,17.578,-8.301,-81.543,0
190962.985,-4.883,27.344,32.227,20.996,8.789,0
190962.989,11.719,26.855,48.828,31.738,73.242,0
190962.993,17.090,22.949,41.992,8.301,49.316,0
190962.997,4.883,12.207,32.227,4.395,24.902,0
190963.000,-6.348,13.184,27.344,21.484,44.922,0
190963.004,5.371,30.273,26.855,36.133,81.055,0
190963.008,15.625,38.574,30.762,18.555,60.059,0
190963.012,9.766,32.715,26.855,-1.465,1.465,0
190963.016,4.395,30.762,21.484,11.719,22.461,0
190963.020,17.578,28.320,27.832,30.762,90.820,0
190963.024,21.484,25.879,26.367,13.672,82.520,0
190963.028,15.625,33.691,33.203,-5.371,9.277,0
190963.032,10.254,33.691,44.434,7.812,6.836,1
190963.036,14.648,23.438,20.996,34.180,52.246,0
190963.039,27.344,21.973,8.301,37.598,55.664,0
190963.043,28.320,28.320,36.621,19.531,30.273,0
190963.047,15.137,23.438,48.828,11.230,0.977,0
190963.051,14.160,16.602,43.457,31.250,10.742,0
190963.055,20.020,22.461,37.109,32.715,23.926,0
190963.059,18.555,33.203,25.879,5.859,8.789,0
190963.063,13.184,34.180,25.879,3.906,-4.395,0
190963.067,7.324,21.484,28.809,19.043,1.953,0
190963.071,18.555,9.766,34.180,36.133,41.992,0
190963.075,21.973,12.695,40.527,28.809,38.574,0
190963.079,14.160,20.996,36.133,11.719,15.137,0
190963.082,12.695,23.438,30.273,16.113,19.043,0
190963.086,21.973,29.785,17.090,35.156,43.945,0
190963.090,24.902,32.227,5.371,30.273,60.059,0
190963.094,15.625,34.668,28.320,7.812,45.410,0
190963.098,-0.488,30.273,47.363,-1.465,37.109,0
190963.102,0.000,23.438,47.363,19.531,63.477,0
190963.106,5.859,25.879,35.156,24.414,66.895,0
190963.110,-5.371,24.902,27.832,-0.977,20.020,0
190963.114,-14.648,15.625,33.203,-0.488,6.348,0
190963.118,-6.836,7.324,26.367,19.531,12.207,0
190963.122,9.766,8.789,26.855,37.109,33.203,0
190963.125,15.625,20.020,27.832,30.273,2.441,0
190963.129,11.719,36.133,40.527,15.625,-47.852,0
190963.133,10.254,39.062,55.176,25.879,-8.301,0
190963.137,10.254,22.949,39.062,34.668,53.711,0
190963.141,8.301,16.113,31.738,11.230,36.621,0
190963.145,5.371,18.555,36.133,-3.906,-15.137,0
190963.149,-0.488,23.926,34.668,14.648,24.902,0
190963.153,7.812,23.926,28.809,37.109,88.379,0
190963.157,20.020,27.344,22.949,27.344,58.105,0
190963.161,16.602,31.738,25.879,9.277,37.109,0
190963.164,0.000,23.926,36.621,3.906,22.461,0
190963.168,2.930,20.020,38.574,25.391,25.879,0
190963.172,21.484,24.414,32.227,35.645,50.293,0
190963.176,19.531,23.926,32.715,10.742,0.488,0
190963.180,3.418,20.508,26.367,6.348,-5.859,0
190963.184,5.859,21.973,34.180,32.227,27.832,0
190963.188,24.414,21.484,51.758,45.410,51.758,0
190963.192,26.855,27.344,53.223,22.949,33.691,0
190963.196,10.254,29.785,36.621,9.766,9.277,0
190963.200,0.000,20.996,23.438,26.855,43.457,0
190963.204,11.719,20.020,25.879,41.504,89.844,0
190963.207,19.043,27.344,22.949,21.484,71.289,0
190963.211,14.160,31.738,26.855,-0.977,2.441,0
190963.215,17.090,31.738,37.598,13.184,-11.230,0
190963.219,20.508,25.879,33.691,37.109,-12.695,0
190963.223,15.137,22.461,31.250,27.832,-0.977,0
190963.227,19.531,25.391,41.016,15.625,19.043,0
190963.231,9.277,28.320,46.387,12.695,-14.160,0
190963.235,-3.418,25.391,39.551,20.020,10.742,0
190963.239,5.371,28.809,32.227,27.344,44.434,0
190963.243,10.254,36.133,37.109,13.184,59.570,0
190963.247,1.953,26.367,38.574,3.906,13.184,0
190963.250,1.953,24.414,25.879,18.066,0.977,0
190963.254,13.672,37.109,20.020,35.645,58.105,0
190963.258,11.230,38.086,33.203,22.461,16.602,0
190963.262,4.883,30.273,26.367,5.371,-43.945,0
190963.266,0.000,23.926,18.555,11.719,-58.105,0
190963.270,7.324,19.531,38.574,31.250,40.527,0
190963.274,18.066,23.438,44.434,22.461,85.938,0
190963.278,19.531,28.320,37.598,13.184,15.137,0
190963.282,7.812,28.809,29.785,24.902,8.789,0
190963.286,8.789,25.391,23.438,47.852,55.664,0
190963.289,16.602,22.461,19.531,38.086,40.527,0
190963.293,6.836,24.902,27.344,-1.465,-26.367,0
190963.297,-1.953,24.902,37.109,-3.418,-7.324,0
190963.301,1.465,21.484,34.180,24.902,74.707,0
190963.305,9.277,18.066,46.387,35.645,96.191,0
190963.309,10.742,20.996,55.664,9.766,-7.812,0
190963.313,8.301,26.855,51.270,6.836,-37.598,0
190963.317,8.301,23.438,42.969,36.621,51.758,0
190963.321,22.949,22.461,29.785,50.293,41.992,0
190963.325,26.855,27.832,10.254,27.344,-11.230,0
190963.329,30.762,36.621,22.461,22.949,7.324,0
190963.332,28.320,31.738,48.340,27.832,21.973,0
190963.336,28.809,23.926,46.387,35.645,25.391,0
190963.340,33.203,31.738,36.133,24.414,38.086,0
190963.344,25.879,34.668,32.715,4.395,12.695,0
190963.348,12.207,27.832,36.133,9.766,0.000,0
190963.352,12.695,20.508,34.668,26.367,25.391,0
190963.356,30.762,20.020,31.250,28.809,15.625,0
190963.360,24.902,13.672,16.602,7.812,-4.395,0
190963.364,9.766,18.555,22.949,4.883,-11.230,0
190963.368,13.672,25.391,35.156,24.414,9.766,0
190963.372,21.973,20.020,32.715,28.320,42.480,0
190963.375,19.531,27.344,29.785,2.441,14.648,0
190963.379,15.625,30.762,38.086,-3.418,-35.156,0
190963.383,9.277,18.066,45.410,20.020,-25.879,0
190963.387,19.531,16.602,34.180,39.062,53.223,0
190963.391,33.691,28.320,32.227,24.414,64.453,0
190963.395,28.320,36.621,32.227,2.930,-11.719,0
190963.399,20.996,36.621,28.809,11.230,-15.137,0
190963.403,27.832,32.715,20.996,33.203,51.758,0
190963.407,33.691,32.227,26.367,26.855,41.992,0
190963.411,31.738,26.367,32.715,5.859,-23.438,0
190963.414,25.391,9.766,25.879,0.488,-32.715,0
190963.418,26.855,4.883,23.438,29.785,-0.488,0
190963.422,40.527,25.391,31.738,48.340,68.359,0
190963.426,36.621,31.738,43.457,16.602,40.039,0
190963.430,15.625,16.113,40.527,-4.395,-3.906,0
190963.434,14.648,20.020,40.039,23.438,41.504,0
190963.438,30.762,38.086,37.109,41.504,38.086,0
190963.442,33.691,50.781,21.973,13.672,-11.719,0
190963.446,25.391,43.457,23.438,3.906,-38.086,0
190963.450,15.137,28.809,31.250,19.043,-20.508,0
190963.454,23.926,32.715,41.504,36.621,57.617,0
190963.457,24.414,35.156,52.734,20.020,40.527,0
190963.461,18.066,34.180,57.129,4.883,-13.184,0
190963.465,3.906,28.809,46.387,9.277,35.156,0
190963.469,7.812,20.996,37.598,28.320,81.055,0
190963.473,23.926,21.973,38.086,23.926,54.688,0
190963.477,20.020,25.879,34.180,0.977,4.395,0
190963.481,9.766,29.297,26.855,8.301,26.367,0
190963.485,16.113,23.438,21.484,27.344,60.059,0
190963.489,29.297,18.555,17.090,33.691,63.965,0
190963.493,29.785,29.785,12.695,17.578,0.488,0
190963.497,19.043,46.387,12.207,15.137,-25.879,0
190963.500,12.695,45.410,36.621,31.738,34.668,0
190963.504,24.414,33.691,63.477,31.250,21.973,0
190963.508,30.762,31.738,61.035,11.719,8.789,0
190963.512,13.184,23.926,44.922,0.977,18.555,0
190963.516,10.254,23.926,38.574,17.090,-24.414,0
190963.520,22.949,20.020,23.438,38.574,8.301,0
190963.524,23.438,18.066,15.625,26.855,76.660,0
190963.528,28.320,32.227,33.691,13.672,25.391,0
190963.532,19.531,27.344,45.410,13.672,-11.719,0
190963.536,13.184,18.066,31.250,27.344,82.520,0
190963.539,20.020,28.320,16.602,30.762,84.961,0
190963.543,18.555,39.551,35.645,16.602,13.672,0
190963.547,2.441,29.785,49.805,5.371,2.441,0
190963.551,-3.906,16.113,33.691,14.160,18.066,0
190963.555,12.695,20.508,23.926,32.227,66.406,0
190963.559,20.996,27.832,26.367,15.625,51.758,0
190963.563,13.184,25.879,27.832,2.930,2.441,0
190963.567,14.648,23.926,20.996,25.391,36.621,0
190963.571,26.855,27.832,15.137,50.293,63.965,0
190963.575,31.250,33.691,37.109,35.645,-17.090,0
190963.579,22.949,35.156,53.711,9.277,-34.180,0
190963.582,12.207,28.809,43.945,4.395,11.719,0
190963.586,19.531,16.113,37.598,20.996,34.180,0
190963.590,22.949,15.625,38.086,18.066,-9.766,0
190963.594,18.555,25.879,30.273,-3.418,-32.715,0
190963.598,16.602,29.297,41.016,5.859,-0.488,0
190963.602,18.066,31.738,45.898,41.016,46.387,0
190963.606,18.555,33.691,26.855,36.133,40.527,0
190963.610,28.809,39.062,26.855,18.066,-23.926,0
190963.614,21.973,42.969,35.645,20.020,-30.762,0
190963.618,1.465,23.926,38.086,23.926,29.297,0
190963.622,9.277,7.812,33.691,26.367,49.805,0
190963.625,12.695,16.602,27.832,-3.906,26.367,0
190963.629,8.301,20.508,30.762,-16.602,24.902,0
190963.633,3.418,10.742,21.973,5.371,51.270,0
190963.637,10.254,18.066,29.785,21.973,80.078,0
190963.641,20.996,33.203,46.875,8.301,20.996,0
190963.645,19.043,37.109,47.363,3.418,-8.789,0
190963.649,13.184,31.738,51.758,17.578,11.719,0
190963.653,23.438,24.414,42.969,33.203,13.184,0
190963.657,35.645,27.832,22.949,22.461,-2.441,0
190963.661,27.344,25.391,24.414,0.000,-4.395,0
190963.664,12.207,18.066,24.902,6.836,-28.320,0
190963.668,13.184,14.648,-0.977,30.273,-22.461,0
190963.672,24.902,12.695,-4.395,25.391,-1.953,0
190963.676,21.484,20.508,27.344,-4.883,-21.484,0
190963.680,17.578,30.762,62.012,-2.441,-40.527,0
190963.684,28.320,27.344,53.223,16.602,-30.273,0
190963.688,29.785,15.137,22.949,19.531,1.465,0
190963.692,29.297,20.020,39.551,8.301,15.625,0
190963.696,31.250,32.227,50.781,3.906,4.395,0
190963.700,21.973,29.785,33.203,14.160,42.969,0
190963.704,30.273,33.691,28.320,39.551,76.660,0
190963.707,36.621,37.598,31.738,36.621,37.598,2
190963.711,27.832,24.902,30.273,11.719,-20.020,0
190963.715,22.461,10.254,21.973,16.602,-38.086,0
190963.719,25.391,9.766,15.137,34.668,29.785,0
190963.723,32.227,18.555,26.367,23.438,75.195,0
190963.727,28.320,25.879,27.344,-0.488,13.672,0
190963.731,16.113,28.809,27.832,0.977,-24.902,0
190963.735,21.973,27.832,41.992,42.480,42.480,0
190963.739,34.668,22.461,42.969,54.688,82.520,0
190963.743,22.461,19.531,32.227,8.789,8.789,0
190963.747,7.812,28.809,35.156,-6.836,-8.301,0
190963.750,10.254,32.227,36.133,14.160,45.898,0
190963.754,17.578,24.414,32.227,22.949,31.738,0
190963.758,20.020,30.273,27.344,2.930,-6.836,0
190963.762,18.066,33.203,20.996,-3.418,10.254,0
190963.766,14.160,18.066,31.738,19.531,44.434,0
190963.770,15.625,11.719,42.969,29.785,83.496,0
190963.774,18.066,18.555,41.992,8.789,19.043,0
190963.778,11.719,28.320,41.016,-3.906,-44.922,0
190963.782,6.836,35.156,33.691,9.766,-2.441,0
190963.786,18.066,36.621,24.902,36.133,49.805,0
190963.789,18.555,28.320,15.137,20.020,32.227,0
190963.793,10.742,24.902,16.602,-10.742,-43.457,0
190963.797,14.160,29.785,30.273,7.324,-12.695,0
190963.801,19.043,24.902,37.598,34.180,66.895,0
190963.805,23.438,22.461,37.598,30.273,88.379,0
190963.809,22.949,27.344,32.715,6.348,65.430,0
