timestamps,TP9,AF7,AF8,TP10,Right AUX,Marker0
27949.104,-196.777,-36.621,-241.211,-6.836,0.000,0
27949.108,-189.453,-47.852,-214.355,-8.789,0.000,0
27949.111,-208.008,-62.012,30.273,-67.383,0.000,0
27949.115,-186.035,-46.387,62.012,-116.699,0.000,0
27949.119,-170.898,-24.902,-174.316,-31.738,0.000,0
27949.123,-208.984,-38.574,-165.527,9.277,0.000,0
27949.127,-192.871,-45.898,-120.117,12.207,0.000,0
27949.131,-188.965,-40.527,66.406,-46.875,0.000,0
27949.135,-122.559,-30.762,-102.539,-55.664,0.000,0
27949.139,-82.031,-31.250,-312.012,5.859,0.000,0
27949.143,-119.629,-35.645,-98.633,-23.438,0.000,0
27949.147,-105.469,-31.250,-111.328,-9.766,0.000,0
27949.150,-76.172,-41.016,-88.867,-53.711,0.000,0
27949.154,-133.301,-48.340,22.461,-140.137,0.000,0
27949.158,-136.719,-40.039,-152.344,-47.363,0.000,0
27949.162,-93.262,-46.387,-87.402,-51.270,0.000,0
27949.166,-119.629,-48.340,-80.566,-84.961,0.000,0
27949.170,-147.949,-33.203,-224.609,-8.789,0.000,0
27949.174,-169.922,-42.969,-20.996,-71.289,0.000,0
27949.178,-118.652,-46.875,-79.590,-92.773,0.000,0
27949.182,-69.336,-35.645,-223.145,-72.266,0.000,0
27949.186,-103.516,-24.902,-256.348,-23.438,0.000,0
27949.190,-130.371,-34.180,-166.016,-23.438,0.000,0
27949.193,-113.770,-45.410,-30.762,-115.723,0.000,0
27949.197,-73.730,-33.691,-217.285,-37.109,0.000,0
27949.201,-102.539,-30.762,-221.191,12.207,0.000,0
27949.205,-123.047,-30.762,-195.801,-17.090,0.000,0
27949.209,-80.078,-27.832,-118.164,-28.320,0.000,0
27949.213,-77.148,-28.320,9.766,-77.637,0.000,0
27949.217,-95.215,-19.043,-90.820,-53.711,0.000,0
27949.221,-110.840,-17.578,-143.066,-18.066,0.000,0
27949.225,-78.125,-27.344,-243.652,28.809,0.000,0
27949.229,-55.664,-41.504,-185.547,13.672,0.000,0
27949.233,-136.230,-47.363,79.590,-83.496,0.000,0
27949.236,-153.809,-28.320,-82.520,-27.832,0.000,0
27949.240,-54.199,-19.531,-275.391,22.461,0.000,0
27949.244,-48.828,-23.926,-168.945,-4.883,0.000,0
27949.248,-109.863,-23.926,-62.988,-13.184,0.000,0
27949.252,-104.004,-15.625,-34.180,-65.430,0.000,0
27949.256,-68.848,-10.254,-156.738,-72.754,0.000,0
27949.260,-81.055,-19.531,-133.789,-8.301,0.000,0
27949.264,-133.301,-20.996,-17.090,24.414,0.000,0
27949.268,-119.629,-16.602,-23.926,-11.230,0.000,0
27949.272,-94.238,-12.695,-118.164,-16.602,0.000,0
27949.275,-109.863,-17.578,-111.328,31.250,0.000,0
27949.279,-71.777,-23.438,-139.160,39.062,0.000,0
27949.283,-46.875,-25.879,-167.480,13.184,0.000,0
27949.287,-54.688,-29.297,-164.062,15.625,0.000,0
27949.291,-63.477,-41.504,-26.855,-40.527,0.000,0
27949.295,-70.801,-47.852,36.621,-75.195,0.000,0
27949.299,-42.480,-48.828,-83.496,-11.719,0.000,0
27949.303,-31.250,-49.316,-155.273,21.484,0.000,0
27949.307,-57.129,-42.480,-33.691,7.812,0.000,0
27949.311,-74.707,-44.922,148.438,-47.363,0.000,0
27949.315,-45.898,-40.527,92.285,-69.824,0.000,0
27949.318,3.418,-26.367,-79.102,-41.016,0.000,0
27949.322,-47.363,-28.809,109.375,-50.293,0.000,0
27949.326,-55.664,-32.715,192.871,-11.719,0.000,0
27949.330,27.344,-32.227,-17.578,-7.324,0.000,0
27949.334,13.184,-26.367,34.180,-38.086,0.000,0
27949.338,4.883,-21.973,-11.719,14.160,0.000,0
27949.342,48.828,-34.668,-25.879,12.207,0.000,0
27949.346,79.102,-40.527,16.602,-4.883,0.000,0
27949.350,63.965,-36.133,116.211,-55.176,0.000,0
27949.354,39.551,-23.438,107.422,-71.777,0.000,0
27949.358,18.066,-25.879,107.910,-49.316,0.000,0
27949.361,55.176,-28.809,55.176,-28.320,0.000,0
27949.365,92.285,-10.254,-57.617,41.992,0.000,0
27949.369,3.906,-17.090,222.168,-62.012,0.000,0
27949.373,4.395,-15.137,135.742,-76.660,0.000,0
27949.377,90.820,-2.930,-140.625,56.641,0.000,0
27949.381,64.453,-23.438,-82.520,22.949,0.000,0
27949.385,24.414,-33.691,-78.613,10.742,0.000,0
27949.389,-10.254,-41.016,63.965,-53.223,0.000,0
27949.393,-9.277,-42.969,67.383,-85.938,0.000,0
27949.397,-14.648,-35.645,-14.648,-44.434,0.000,0
27949.400,-26.855,-33.691,-38.574,-13.184,0.000,0
27949.404,-53.223,-31.250,-127.930,38.574,0.000,0
27949.408,-35.645,-44.434,-33.691,-46.875,0.000,0
27949.412,-30.762,-33.691,26.855,-45.898,0.000,0
27949.416,-58.594,-11.719,-52.734,58.105,0.000,0
27949.420,-3.906,-18.555,-208.008,32.227,0.000,0
27949.424,-1.953,-24.414,-163.574,17.578,0.000,0
27949.428,-47.363,-37.598,109.375,-51.758,0.000,0
27949.432,-14.648,-25.879,73.242,-83.496,0.000,0
27949.436,13.672,-10.742,-102.539,-22.461,0.000,0
27949.440,-21.973,-31.738,-88.379,5.371,0.000,0
27949.443,-35.645,-41.992,-91.309,31.738,0.000,0
27949.447,-51.270,-53.711,81.543,-51.270,0.000,0
27949.451,-74.707,-55.176,59.570,-80.078,0.000,0
27949.455,-71.289,-36.621,-174.805,8.301,0.000,0
27949.459,-103.516,-43.457,-4.883,-5.371,0.000,0
27949.463,-85.449,-42.480,-51.758,6.836,0.000,0
27949.467,-23.438,-40.527,-105.469,-34.180,0.000,0
27949.471,-69.824,-42.480,65.918,-141.113,0.000,0
27949.475,-65.918,-21.484,-173.828,-34.668,0.000,0
27949.479,-6.348,-18.555,-333.496,64.941,0.000,0
27949.483,4.395,-20.020,-296.387,45.410,0.000,0
27949.486,-75.195,-22.949,-8.301,-24.902,0.000,0
27949.490,-103.027,-27.832,207.520,-78.613,0.000,0
27949.494,-44.434,-16.113,-5.859,-20.508,0.000,0
27949.498,-67.871,-14.160,-11.230,-25.879,0.000,0
27949.502,-104.004,-10.742,-80.566,28.809,0.000,0
27949.506,-113.281,-14.648,-23.926,20.508,0.000,0
27949.510,-69.336,-25.391,12.207,-76.172,0.000,0
27949.514,-41.016,-20.996,-180.176,-11.230,0.000,0
27949.518,-53.223,-29.297,-203.125,28.320,0.000,0
27949.522,-66.406,-40.039,-231.934,10.742,0.000,0
27949.525,-63.965,-53.711,-108.398,-38.086,0.000,0
27949.529,-66.406,-62.500,33.203,-110.352,0.000,0
27949.533,-81.543,-57.617,-92.773,-85.449,0.000,0
27949.537,-96.680,-58.105,-144.043,-64.941,0.000,0
27949.541,-82.031,-54.199,-165.527,-23.926,0.000,0
27949.545,-93.750,-61.523,-110.352,-18.066,0.000,0
27949.549,-121.094,-49.805,105.957,-91.797,0.000,0
27949.553,-97.168,-24.902,-65.918,-50.293,0.000,0
27949.557,-33.691,-37.109,-275.391,-16.113,0.000,0
27949.561,-43.945,-50.781,-162.598,-37.598,0.000,0
27949.565,-75.684,-51.270,-57.617,-53.223,0.000,0
27949.568,-99.121,-45.898,-56.152,-98.633,0.000,0
27949.572,-104.004,-49.316,-62.012,-151.367,0.000,0
27949.576,-100.586,-42.969,-45.410,-111.328,0.000,0
27949.580,-83.984,-16.602,-300.293,34.180,0.000,0
27949.584,-91.797,-27.832,-354.004,7.812,0.000,0
27949.588,-163.086,-41.016,-261.230,-79.102,0.000,0
27949.592,-223.145,-42.480,-312.500,-40.039,0.000,0
27949.596,-254.883,-50.781,-368.164,-4.395,0.000,0
27949.600,-226.074,-43.457,-489.746,-22.949,0.000,0
27949.604,-240.234,-37.598,-544.434,-26.367,0.000,0
27949.608,-309.082,-46.387,-363.770,-84.961,0.000,0
27949.611,-287.598,-41.016,-344.727,-105.957,0.000,0
27949.615,-246.582,-40.527,-444.336,-39.062,0.000,0
27949.619,-241.211,-40.527,-453.613,0.000,0.000,0
27949.623,-235.352,-32.227,-318.848,-20.996,0.000,0
27949.627,-236.816,-30.762,-133.789,-48.828,0.000,0
27949.631,-198.730,-25.391,-218.750,-14.648,0.000,0
27949.635,-149.414,-26.855,-297.852,0.488,0.000,0
27949.639,-219.238,-34.668,-155.273,-16.113,0.000,0
27949.643,-215.820,-54.199,-145.020,-19.531,0.000,0
27949.647,-139.160,-74.219,-199.219,-94.727,0.000,0
27949.650,-148.438,-66.895,-200.684,-117.188,0.000,0
27949.654,-181.152,-54.688,-259.277,-40.039,0.000,0
27949.658,-147.461,-50.293,-287.598,-5.371,0.000,0
27949.662,-118.164,-49.316,-255.371,-7.324,0.000,0
27949.666,-160.156,-46.875,-132.812,-60.059,0.000,0
27949.670,-177.734,-36.133,-229.004,-59.570,0.000,0
27949.674,-164.551,-48.828,-171.875,-85.449,0.000,0
27949.678,-173.340,-55.664,-154.785,-84.961,0.000,0
27949.682,-173.340,-29.785,-381.836,33.691,0.000,0
27949.686,-195.801,-21.484,-120.605,-58.594,0.000,0
27949.690,-196.777,-18.555,-112.305,-32.715,0.000,0
27949.693,-187.012,-33.691,-193.359,28.809,0.000,0
27949.697,-218.750,-41.504,-111.328,7.324,0.000,0
27949.701,-201.660,-39.062,-156.738,-32.227,0.000,0
27949.705,-142.578,-47.363,-183.105,-118.164,0.000,0
27949.709,-128.418,-46.387,-134.766,-99.609,0.000,0
27949.713,-141.602,-57.129,-92.285,-77.148,0.000,0
27949.717,-128.906,-62.012,-252.930,-24.902,0.000,0
27949.721,-145.508,-66.406,-218.262,-27.832,0.000,0
27949.725,-157.227,-74.219,-48.828,-118.164,0.000,0
27949.729,-155.762,-52.734,-171.875,-46.875,0.000,0
27949.733,-184.082,-51.758,-213.867,-6.836,0.000,0
27949.736,-168.945,-65.918,-261.230,-31.250,0.000,0
27949.740,-149.902,-67.383,-80.566,-38.086,0.000,0
27949.744,-183.105,-65.430,182.129,-110.352,0.000,0
27949.748,-88.379,-43.945,-62.988,-103.516,0.000,0
27949.752,-41.992,-33.691,-149.902,-61.035,0.000,0
27949.756,-74.707,-37.598,-101.074,-12.207,0.000,0
27949.760,-61.035,-43.945,-34.668,-32.715,0.000,0
27949.764,-44.434,-48.828,44.922,-115.723,0.000,0
27949.768,-34.180,-25.391,-102.539,-21.973,0.000,0
27949.772,-15.625,-11.719,-30.273,32.715,0.000,0
27949.775,-19.531,-38.086,138.184,-59.570,0.000,0
27949.779,-50.293,-49.316,102.051,-45.898,0.000,0
27949.783,-28.320,-55.176,55.176,-72.266,0.000,0
27949.787,-57.617,-57.617,114.746,-104.004,0.000,0
27949.791,-42.969,-50.293,26.367,-39.062,0.000,0
27949.795,45.898,-55.176,-141.602,0.488,0.000,0
27949.799,24.902,-63.477,-51.270,-19.043,0.000,0
27949.803,-62.012,-63.965,185.059,-104.492,0.000,0
27949.807,-34.668,-41.504,46.875,-33.691,0.000,0
27949.811,52.734,-33.691,-56.152,18.555,0.000,0
27949.815,60.547,-26.855,18.066,8.301,0.000,0
27949.818,37.109,-17.090,45.898,25.879,0.000,0
27949.822,38.086,-35.645,213.379,-67.871,0.000,0
27949.826,55.176,-32.227,162.109,-56.641,0.000,0
27949.830,44.922,-20.508,83.984,41.016,0.000,0
27949.834,8.301,-24.414,115.723,49.316,0.000,0
27949.838,59.570,-31.250,14.160,18.555,0.000,0
27949.842,73.730,-41.016,232.910,-73.242,0.000,0
27949.846,57.129,-36.133,212.891,-75.684,0.000,0
27949.850,51.758,-31.738,58.594,-41.504,0.000,0
27949.854,58.105,-32.227,45.410,-27.344,0.000,0
27949.858,91.797,-33.203,20.508,34.180,0.000,0
27949.861,48.340,-42.480,279.297,-44.434,0.000,0
27949.865,33.203,-32.227,210.938,-63.965,0.000,0
27949.869,71.777,-24.902,-57.129,14.648,0.000,0
27949.873,64.941,-31.738,28.320,16.602,0.000,0
27949.877,44.922,-30.273,203.613,4.883,0.000,0
27949.881,69.824,-19.043,227.051,-51.270,0.000,0
27949.885,145.020,-3.906,-42.480,-43.945,0.000,0
27949.889,106.445,-17.090,0.488,-30.762,0.000,0
27949.893,29.785,-30.273,133.301,-18.066,0.000,0
27949.897,58.105,-29.297,-20.996,32.715,0.000,0
27949.900,57.129,-33.691,54.688,-40.039,0.000,0
27949.904,3.906,-34.668,75.195,-77.148,0.000,0
27949.908,10.254,-32.715,-28.320,15.137,0.000,0
27949.912,56.641,-24.414,-40.039,26.855,0.000,0
27949.916,48.828,-14.160,-59.570,16.602,0.000,0
27949.920,-27.344,-16.602,42.969,-19.043,0.000,0
27949.924,-33.691,-22.949,134.766,-73.242,0.000,0
27949.928,15.137,-21.484,12.695,-45.898,0.000,0
27949.932,24.902,-28.809,-137.695,-8.301,0.000,0
27949.936,-4.395,-34.668,-158.203,14.648,0.000,0
27949.940,-14.160,-40.527,-22.461,-27.832,0.000,0
27949.943,-0.488,-36.621,-38.086,-64.453,0.000,0
27949.947,-17.090,-28.809,-146.973,-8.789,0.000,0
27949.951,-68.848,-46.387,-98.145,-29.785,0.000,0
27949.955,-83.496,-57.129,-92.285,-51.270,0.000,0
27949.959,-40.527,-54.688,-51.270,-62.500,0.000,0
27949.963,-20.508,-41.504,7.324,-105.957,0.000,0
27949.967,-84.961,-33.691,-36.621,-73.730,0.000,0
27949.971,-77.637,-44.434,-227.539,-28.320,0.000,0
27949.975,2.930,-51.758,-308.594,-9.766,0.000,0
27949.979,-21.484,-58.594,-48.828,-59.082,0.000,0
27949.983,-109.375,-53.223,165.527,-103.027,0.000,0
27949.986,-103.516,-31.250,-93.262,6.348,0.000,0
27949.990,-37.109,-34.180,-163.574,11.719,0.000,0
27949.994,-50.781,-48.828,-65.918,-21.484,0.000,0
27949.998,-85.938,-57.617,-36.621,-41.992,0.000,0
27950.002,-65.430,-45.898,-109.375,-103.516,0.000,0
27950.006,-54.688,-36.133,-143.066,-76.660,0.000,0
27950.010,-62.012,-43.457,-138.184,-9.766,0.000,0
27950.014,-88.379,-45.898,-120.117,-0.488,0.000,0
27950.018,-108.887,-37.598,-88.379,-23.926,0.000,0
27950.022,-41.504,-22.461,-105.469,-63.965,0.000,0
27950.025,-21.973,-16.602,-65.918,-46.387,0.000,0
27950.029,-112.793,-29.297,45.410,-59.570,0.000,0
27950.033,-69.336,-25.391,-213.379,-13.184,0.000,0
27950.037,-36.133,-20.996,-237.793,1.953,0.000,0
27950.041,-85.938,-40.039,7.324,-99.121,0.000,0
27950.045,-78.125,-35.156,-88.867,-50.293,0.000,0
27950.049,-37.109,-25.391,-226.562,18.066,0.000,0
27950.053,-69.336,-40.039,-226.562,-2.441,0.000,0
27950.057,-104.492,-62.500,12.207,-105.469,0.000,0
27950.061,-93.262,-62.988,33.203,-152.832,0.000,0
27950.065,-26.855,-53.223,-199.219,-104.980,0.000,0
27950.068,-56.641,-49.316,-100.098,-62.012,0.000,0
27950.072,-100.586,-44.922,-47.363,-1.953,0.000,0
27950.076,-7.324,-53.223,-68.359,-77.148,0.000,0
27950.080,7.324,-52.734,47.852,-154.297,0.000,0
27950.084,-28.320,-35.156,-70.312,-43.945,0.000,0
27950.088,4.395,-37.598,-158.203,6.348,0.000,0
27950.092,36.621,-41.504,-87.891,-9.766,0.000,0
27950.096,39.062,-39.062,104.980,-68.359,0.000,0
27950.100,19.531,-31.250,124.512,-109.375,0.000,0
27950.104,9.277,-28.320,42.480,-60.059,0.000,0
27950.108,21.973,-38.086,72.266,-25.879,0.000,0
27950.111,76.172,-32.227,-47.852,25.879,0.000,0
27950.115,29.785,-43.945,181.152,-62.500,0.000,0
27950.119,3.906,-54.688,169.922,-102.051,0.000,0
27950.123,96.680,-53.711,-117.676,-16.113,0.000,0
27950.127,86.426,-57.617,19.531,-33.691,0.000,0
27950.131,48.340,-55.664,25.879,-31.250,0.000,0
27950.135,50.293,-58.105,98.145,-92.773,0.000,0
27950.139,107.422,-59.570,150.391,-146.484,0.000,0
27950.143,98.145,-59.082,113.770,-81.055,0.000,0
27950.147,81.543,-51.758,96.680,-26.367,0.000,0
27950.150,115.723,-41.504,-19.531,6.836,0.000,0
27950.154,99.609,-53.711,159.180,-60.059,0.000,0
27950.158,93.750,-59.082,247.070,-87.402,0.000,0
27950.162,114.746,-35.645,143.066,-1.953,0.000,0
27950.166,168.457,-27.832,40.039,-6.348,0.000,0
27950.170,168.945,-34.180,16.113,-4.883,0.000,0
27950.174,114.258,-47.363,256.836,-60.547,0.000,0
27950.178,110.352,-48.828,243.164,-113.770,0.000,0
27950.182,118.164,-45.410,101.074,-98.145,0.000,0
27950.186,94.727,-57.617,15.625,-82.031,0.000,0
27950.190,104.004,-50.781,-136.230,4.395,0.000,0
27950.193,75.684,-45.898,129.883,-36.133,0.000,0
27950.197,47.852,-40.039,166.992,-109.375,0.000,0
27950.201,39.551,-38.574,-34.180,-84.473,0.000,0
27950.205,7.324,-49.805,108.398,-79.102,0.000,0
27950.209,44.434,-41.504,12.207,-12.207,0.000,0
27950.213,101.562,-40.039,-123.535,0.488,0.000,0
27950.217,55.664,-46.387,49.316,-91.797,0.000,0
27950.221,57.129,-37.598,-38.086,-36.621,0.000,0
27950.225,78.125,-34.668,-90.820,11.719,0.000,0
27950.229,90.332,-34.668,-134.766,-7.324,0.000,0
27950.233,49.805,-27.832,-19.531,-28.320,0.000,0
27950.236,27.344,-24.414,109.375,-87.402,0.000,0
27950.240,86.426,-24.902,-49.316,-89.355,0.000,0
27950.244,62.500,-29.297,-29.785,-64.941,0.000,0
27950.248,6.348,-28.320,-54.199,-0.977,0.000,0
27950.252,12.695,-35.156,-58.594,9.766,0.000,0
27950.256,35.156,-52.246,-1.953,-82.520,0.000,0
27950.260,22.461,-49.316,-150.391,-52.734,0.000,0
27950.264,-15.625,-49.316,-128.906,-9.277,0.000,0
27950.268,-44.922,-43.945,-104.004,-40.039,0.000,0
27950.272,-29.785,-35.156,-110.352,-31.250,0.000,0
27950.275,-65.918,-41.992,29.297,-94.727,0.000,0
27950.279,-94.238,-31.250,-52.734,-98.633,0.000,0
27950.283,-61.523,-38.574,21.973,-159.180,0.000,0
27950.287,-17.090,-40.039,-140.137,-106.934,0.000,0
27950.291,-33.691,-34.668,-286.621,-13.184,0.000,0
27950.295,-114.746,-40.039,-170.410,-33.203,0.000,0
27950.299,-128.418,-37.109,-254.883,-47.852,0.000,0
27950.303,-89.844,-49.316,-208.496,-98.145,0.000,0
27950.307,-126.953,-44.434,-5.371,-67.871,0.000,0
27950.311,-125.977,-28.320,-32.227,-103.516,0.000,0
27950.315,-83.008,-30.273,-238.770,-142.090,0.000,0
27950.318,-118.652,-44.434,-181.152,-100.098,0.000,0
27950.322,-152.832,-46.387,-106.934,-82.031,0.000,0
27950.326,-121.582,-44.434,-236.328,-71.777,0.000,0
27950.330,-149.902,-50.781,-234.863,-72.266,0.000,0
27950.334,-170.898,-52.246,-178.223,-52.246,0.000,0
27950.338,-162.109,-55.664,-169.922,-63.965,0.000,0
27950.342,-206.543,-58.105,-141.113,-92.773,0.000,0
27950.346,-184.570,-58.105,-242.188,-67.383,0.000,0
27950.350,-165.527,-65.430,-98.145,-118.652,0.000,0
27950.354,-198.242,-62.500,1.465,-145.508,0.000,0
27950.358,-158.691,-58.594,-274.902,-54.688,0.000,0
27950.361,-84.473,-63.477,-338.379,-44.922,0.000,0
27950.365,-121.582,-59.082,-207.520,-55.176,0.000,0
27950.369,-201.172,-62.500,-71.289,-113.770,0.000,0
27950.373,-122.070,-51.270,-132.324,-135.254,0.000,0
27950.377,-63.477,-53.223,-186.035,-116.699,0.000,0
27950.381,-112.793,-56.641,-216.309,-92.773,0.000,0
27950.385,-139.648,-57.617,-185.059,-61.523,0.000,0
27950.389,-72.754,-61.523,-75.684,-158.203,0.000,0
27950.393,-91.309,-42.969,-110.840,-115.723,0.000,0
27950.397,-178.223,-41.016,-149.902,-73.242,0.000,0
27950.400,-120.605,-41.504,-352.539,-36.133,0.000,0
27950.404,-88.867,-49.316,-270.508,-47.363,0.000,0
27950.408,-145.508,-51.270,-102.051,-129.395,0.000,0
27950.412,-153.809,-34.668,-235.352,-119.629,0.000,0
27950.416,-104.980,-44.434,-227.539,-101.562,0.000,0
27950.420,-85.449,-47.852,-239.258,-32.715,0.000,0
27950.424,-152.832,-47.852,-138.184,-27.832,0.000,0
27950.428,-165.039,-54.199,-90.820,-124.023,0.000,0
27950.432,-123.535,-53.223,-264.648,-62.012,0.000,0
27950.436,-134.766,-66.406,-200.195,-41.504,0.000,0
27950.440,-170.410,-62.500,-118.164,-34.180,0.000,0
27950.443,-140.137,-49.316,-197.754,-28.320,0.000,0
27950.447,-104.004,-71.289,-113.281,-141.113,0.000,0
27950.451,-127.441,-68.359,-84.473,-134.766,0.000,0
27950.455,-153.320,-59.570,-171.875,-67.871,0.000,0
27950.459,-130.371,-65.430,-332.031,-17.578,0.000,0
27950.463,-94.727,-61.523,-291.504,-18.066,0.000,0
27950.467,-110.840,-72.754,-34.668,-107.422,0.000,0
27950.471,-150.391,-60.059,-187.500,-31.738,0.000,0
27950.475,-159.180,-42.969,-311.035,24.902,0.000,0
27950.479,-171.387,-41.992,-301.270,-5.859,0.000,0
27950.483,-158.691,-48.340,-158.691,-0.977,0.000,0
27950.486,-166.992,-49.316,125.488,-61.035,0.000,0
27950.490,-133.789,-23.438,-164.062,-15.625,0.000,0
27950.494,-100.098,-20.020,-280.273,32.715,0.000,0
27950.498,-111.328,-42.480,-77.637,-18.066,0.000,0
27950.502,-110.840,-39.062,-302.734,26.855,0.000,0
27950.506,-116.699,-45.898,-137.695,-41.504,0.000,0
27950.510,-163.086,-43.945,-29.785,-61.035,0.000,0
27950.514,-155.273,-35.645,-123.535,-29.785,0.000,0
27950.518,-136.230,-40.527,-138.184,-33.691,0.000,0
27950.522,-123.535,-40.527,-252.930,37.598,0.000,0
27950.525,-121.094,-36.133,-82.520,-12.695,0.000,0
27950.529,-115.723,-25.879,-76.660,-31.738,0.000,0
27950.533,-84.961,-27.344,-367.676,23.438,0.000,0
27950.537,-75.684,-35.156,-413.086,18.066,0.000,0
27950.541,-87.891,-43.945,-262.207,7.812,0.000,0
27950.545,-132.324,-54.688,85.449,-67.871,0.000,0
27950.549,-54.199,-41.016,-12.207,-86.426,0.000,0
27950.553,-4.883,-33.203,-183.105,-47.363,0.000,0
27950.557,-58.594,-42.969,-117.676,-41.992,0.000,0
27950.561,-104.492,-36.621,-220.215,10.742,0.000,0
27950.565,-100.586,-45.898,-79.102,-51.758,0.000,0
27950.568,-92.285,-53.223,2.930,-80.566,0.000,0
27950.572,-44.922,-43.945,-226.074,24.414,0.000,0
27950.576,-27.832,-53.223,-203.125,13.672,0.000,0
27950.580,13.672,-36.621,-159.180,-3.418,0.000,0
27950.584,188.477,89.844,26.855,66.895,0.000,0
27950.588,334.473,283.203,308.594,229.980,0.000,0
27950.592,509.277,578.125,543.945,551.270,0.000,0
27950.596,832.031,852.051,604.980,865.234,0.000,0
27950.600,974.609,948.242,799.805,956.055,0.000,0
27950.604,951.172,966.309,900.391,953.613,0.000,0
27950.608,969.238,972.168,779.785,974.609,0.000,0
27950.611,974.121,972.168,770.996,971.680,0.000,0
27950.615,971.680,972.168,899.902,972.168,0.000,0
27950.619,972.168,972.168,979.980,972.168,0.000,0
27950.623,969.727,972.168,964.844,972.168,0.000,0
27950.627,975.098,972.168,889.160,972.168,0.000,0
27950.631,956.055,972.168,927.246,972.656,0.000,0
27950.635,890.137,972.168,975.586,970.703,0.000,0
27950.639,892.578,972.168,816.406,973.145,0.000,0
27950.643,886.230,972.168,791.016,972.168,0.000,0
27950.647,830.566,971.680,887.695,927.734,0.000,0
27950.650,823.730,973.145,885.742,919.922,0.000,0
27950.654,827.148,958.984,866.699,901.855,0.000,0
27950.658,765.137,939.453,831.055,915.527,0.000,0
27950.662,727.539,926.758,767.090,960.938,0.000,0
27950.666,713.867,908.691,741.211,890.137,0.000,0
27950.670,692.383,894.531,805.176,872.559,0.000,0
27950.674,707.520,876.465,744.141,921.387,0.000,0
27950.678,665.527,849.609,678.711,903.809,0.000,0
27950.682,569.824,818.848,855.469,837.402,0.000,0
27950.686,642.578,793.945,788.086,757.324,0.000,0
27950.690,666.504,763.672,643.555,722.168,0.000,0
27950.693,564.453,734.863,669.434,697.754,0.000,0
27950.697,566.895,714.355,614.258,756.836,0.000,0
27950.701,533.691,632.812,613.770,648.438,0.000,0
27950.705,442.871,574.707,598.145,511.719,0.000,0
27950.709,440.430,567.383,449.707,590.332,0.000,0
27950.713,474.121,530.762,455.078,583.008,0.000,0
27950.717,458.008,500.977,490.234,557.617,0.000,0
27950.721,426.270,470.215,615.234,500.000,0.000,0
27950.725,437.988,458.008,543.457,437.012,0.000,0
27950.729,426.758,448.730,324.219,425.781,0.000,1
27950.733,407.227,422.852,354.004,449.219,0.000,0
27950.736,397.949,405.762,355.469,503.418,0.000,0
27950.740,365.723,375.488,416.992,401.367,0.000,0
27950.744,358.398,359.863,383.789,347.168,0.000,0
27950.748,374.512,342.773,248.535,412.598,0.000,0
27950.752,357.422,320.312,246.094,391.602,0.000,0
27950.756,324.219,314.941,242.676,370.117,0.000,0
27950.760,290.527,292.480,332.520,267.578,0.000,0
27950.764,350.586,282.227,357.422,220.215,0.000,0
27950.768,343.750,288.086,378.418,268.555,0.000,0
27950.772,275.879,280.273,300.781,284.668,0.000,0
27950.775,307.617,262.695,26.855,328.125,0.000,0
27950.779,262.695,227.539,263.672,205.078,0.000,0
27950.783,241.211,213.379,342.285,144.043,0.000,0
27950.787,302.246,215.820,99.609,240.723,0.000,0
27950.791,351.562,211.426,85.449,244.629,0.000,0
27950.795,287.109,210.938,159.180,251.465,0.000,0
27950.799,275.879,190.918,351.074,173.828,0.000,0
27950.803,269.531,184.082,311.523,112.793,0.000,0
27950.807,210.938,198.730,191.406,165.039,0.000,0
27950.811,204.590,195.801,147.461,219.238,0.000,0
27950.815,218.750,171.875,70.801,236.328,0.000,0
27950.818,312.500,145.996,161.133,139.648,0.000,0
27950.822,372.559,134.277,138.184,96.191,0.000,0
27950.826,201.172,144.043,-16.113,193.848,0.000,0
27950.830,140.625,141.113,51.758,204.102,0.000,0
27950.834,232.422,129.883,3.906,171.387,0.000,0
27950.838,292.480,118.652,146.973,83.496,0.000,0
27950.842,175.781,109.375,191.895,-12.695,0.000,0
27950.846,27.832,97.168,-29.785,7.812,0.000,0
27950.850,167.480,85.938,-81.543,43.457,0.000,0
27950.854,204.102,85.449,-68.848,49.316,0.000,0
27950.858,67.383,77.148,79.102,-6.836,0.000,0
27950.861,21.484,74.707,104.004,-51.758,0.000,0
27950.865,72.754,78.125,-66.406,-13.672,0.000,0
27950.869,106.445,79.102,-78.613,-2.441,0.000,0
27950.873,92.773,81.543,-143.555,31.250,0.000,0
27950.877,77.148,76.660,-158.203,22.949,0.000,0
27950.881,64.453,63.477,-36.621,-63.477,0.000,0
27950.885,-8.301,69.336,-79.590,0.977,0.000,0
27950.889,-60.547,68.848,-93.750,50.293,0.000,0
27950.893,-92.285,63.965,-177.246,18.555,0.000,0
27950.897,-162.109,46.387,-70.312,3.418,0.000,0
27950.900,-230.957,26.367,99.121,-63.965,0.000,0
27950.904,-233.398,38.574,-16.602,-72.266,0.000,0
27950.908,-291.016,39.062,-47.852,-103.027,0.000,0
27950.912,-289.551,28.320,-229.980,-53.711,0.000,0
27950.916,-252.930,23.438,-149.414,16.602,0.000,0
27950.920,-390.137,22.461,180.176,-63.477,0.000,0
27950.924,-339.355,32.715,-143.066,-60.059,0.000,0
27950.928,-238.281,18.555,-257.812,-27.832,0.000,0
27950.932,-248.047,-1.465,-90.332,-24.902,0.000,0
27950.936,-276.855,-10.254,-59.570,-25.391,0.000,0
27950.940,-280.273,-16.113,-42.480,-105.469,0.000,0
27950.943,-244.141,-3.906,-101.562,-106.445,0.000,0
27950.947,-245.605,-4.395,-38.574,-44.922,0.000,0
27950.951,-254.883,-14.648,-26.855,-6.348,0.000,0
27950.955,-195.312,-21.973,-101.562,-21.484,0.000,0
27950.959,-150.879,-38.574,-89.844,-109.863,0.000,0
27950.963,-187.988,-41.016,12.695,-97.168,0.000,0
27950.967,-227.051,-35.645,-57.129,-38.086,0.000,0
27950.971,-226.562,-29.785,-173.340,-40.527,0.000,0
27950.975,-279.785,-27.832,-78.125,-44.434,0.000,0
27950.979,-259.766,-30.762,83.496,-80.078,0.000,0
27950.983,-193.359,-33.203,66.406,-111.328,0.000,0
27950.986,-120.117,-36.133,-70.801,-66.895,0.000,0
27950.990,-147.461,-44.434,-89.844,-20.996,0.000,0
27950.994,-286.133,-57.129,-28.320,-36.621,0.000,0
27950.998,-291.016,-63.477,54.199,-86.914,0.000,0
27951.002,-259.766,-63.965,-16.113,-95.703,0.000,0
27951.006,-282.715,-65.918,-64.941,-68.359,0.000,0
27951.010,-322.754,-68.848,120.117,-111.816,0.000,0
27951.014,-296.387,-70.801,-1.953,-104.492,0.000,0
27951.018,-297.852,-62.500,-126.953,-72.266,0.000,0
27951.022,-376.953,-41.504,-6.348,-112.305,0.000,0
27951.025,-474.121,-26.855,-89.355,-35.156,0.000,0
27951.029,-382.812,-23.926,-134.766,-1.953,0.000,0
27951.033,-317.871,-32.715,-61.523,-47.852,0.000,0
27951.037,-406.250,-43.945,97.656,-100.098,0.000,0
27951.041,-432.617,-34.180,87.891,-175.293,0.000,0
27951.045,-353.027,-28.809,39.062,-160.645,0.000,0
27951.049,-318.848,-28.809,44.922,-97.168,0.000,0
27951.053,-358.398,-41.016,84.961,-33.203,0.000,0
27951.057,-350.586,-84.473,102.051,-116.699,0.000,0
27951.061,-292.969,-111.816,-55.664,-221.191,0.000,0
27951.065,-259.277,-143.066,-42.480,-188.477,0.000,0
27951.068,-257.812,-161.133,-13.184,-159.668,0.000,0
27951.072,-262.695,-144.043,-58.105,-146.484,0.000,0
27951.076,-279.297,-153.320,66.895,-246.094,0.000,0
27951.080,-230.469,-150.391,172.852,-278.809,0.000,0
27951.084,-179.199,-122.070,167.969,-229.980,0.000,0
27951.088,-85.938,-115.723,140.137,-208.496,0.000,0
27951.092,-89.844,-104.492,62.988,-111.328,0.000,0
27951.096,-113.281,-97.656,285.645,-137.695,0.000,0
27951.100,-8.301,-97.168,309.570,-195.312,0.000,0
27951.104,97.656,-89.844,13.672,-136.719,0.000,0
27951.108,91.309,-90.820,-33.691,-119.629,0.000,0
27951.111,36.133,-104.492,177.246,-196.289,0.000,0
27951.115,52.734,-112.793,417.480,-275.879,0.000,0
27951.119,150.391,-88.867,210.449,-204.102,0.000,0
27951.123,226.074,-70.312,87.891,-145.996,0.000,0
27951.127,135.742,-73.242,117.188,-122.070,0.000,0
27951.131,151.855,-69.336,45.410,-54.688,0.000,0
27951.135,241.211,-74.219,235.352,-114.746,0.000,0
27951.139,207.031,-64.941,267.090,-87.891,0.000,0
27951.143,212.891,-40.527,117.676,36.621,0.000,0
27951.147,273.438,-42.480,176.270,12.207,0.000,0
27951.150,404.297,-47.363,69.824,31.738,0.000,0
27951.154,442.383,-62.988,213.379,-11.230,0.000,0
27951.158,375.977,-66.406,253.418,-79.590,0.000,0
27951.162,386.230,-53.711,82.031,-6.348,0.000,0
27951.166,435.547,-47.852,57.617,31.738,0.000,0
27951.170,470.703,-36.621,65.918,52.734,0.000,0
27951.174,449.707,-43.945,227.539,24.414,0.000,0
27951.178,355.469,-42.969,159.180,-20.508,0.000,0
27951.182,364.258,-36.133,8.301,74.219,0.000,0
27951.186,384.766,-42.969,167.969,140.137,0.000,0
27951.190,322.266,-40.039,118.164,139.648,0.000,0
27951.193,305.664,-45.410,59.082,92.285,0.000,0
27951.197,316.895,-38.086,150.879,59.570,0.000,0
27951.201,282.715,-27.344,104.004,74.707,0.000,0
27951.205,283.203,-33.203,20.020,127.930,0.000,0
27951.209,345.703,-21.973,-113.281,188.965,0.000,0
27951.213,335.449,-23.438,90.820,118.652,0.000,0
27951.217,277.344,-34.668,292.969,22.461,0.000,0
27951.221,293.457,-24.414,80.566,73.242,0.000,0
27951.225,302.246,-15.137,-25.391,90.332,0.000,0
27951.229,273.438,-12.207,-73.242,129.883,0.000,0
27951.233,258.301,-14.648,148.926,140.137,0.000,0
27951.236,252.441,-11.230,250.488,58.105,0.000,0
27951.240,235.840,-3.418,-92.773,114.746,0.000,0
27951.244,194.824,-5.371,-101.074,131.348,0.000,0
27951.248,224.121,-3.418,9.766,106.934,0.000,0
27951.252,229.980,-6.348,59.570,91.797,0.000,0
27951.256,209.473,-11.230,103.027,-7.324,0.000,0
27951.260,211.914,8.789,18.555,-6.348,0.000,0
27951.264,187.500,0.977,92.285,19.043,0.000,0
27951.268,200.684,-6.836,15.137,63.477,0.000,0
27951.272,204.102,-11.719,2.441,86.426,0.000,0
27951.275,105.957,-23.438,144.531,5.371,0.000,0
27951.279,11.719,-19.043,80.078,35.645,0.000,0
27951.283,37.598,-21.973,24.414,87.891,0.000,0
27951.287,76.172,-27.344,-5.371,76.172,0.000,0
27951.291,46.387,-25.879,71.289,93.750,0.000,0
27951.295,-6.348,-23.926,180.664,41.992,0.000,0
27951.299,81.543,-20.508,21.484,3.906,0.000,0
27951.303,101.074,-20.996,10.742,20.020,0.000,0
27951.307,43.457,-23.438,3.906,72.266,0.000,0
27951.311,45.410,-17.578,-37.598,100.098,0.000,0
27951.315,81.543,-8.301,64.941,67.383,0.000,0
27951.318,41.016,-3.906,102.051,91.797,0.000,0
27951.322,-18.066,-13.184,101.562,71.289,0.000,0
27951.326,-13.672,-6.836,15.625,93.750,0.000,0
27951.330,8.789,4.883,-20.020,150.391,0.000,0
27951.334,14.160,-4.883,66.406,62.012,0.000,0
27951.338,-75.684,-9.277,154.297,21.484,0.000,0
27951.342,-117.676,-6.836,20.020,89.844,0.000,0
27951.346,-25.391,-4.395,-132.812,123.535,0.000,0
27951.350,-41.504,-14.648,32.227,82.520,0.000,0
27951.354,-158.203,-23.438,154.785,46.875,0.000,0
27951.358,-124.512,-20.508,-24.902,52.246,0.000,0
27951.361,-85.449,-21.484,-102.539,52.734,0.000,0
27951.365,-141.602,-26.855,79.590,39.551,0.000,0
27951.369,-159.668,-25.879,115.723,52.246,0.000,0
27951.373,-91.797,-28.809,111.328,3.418,0.000,1
27951.377,-6.836,-38.574,105.957,-60.547,0.000,0
27951.381,-30.273,-33.691,63.965,21.973,0.000,0
27951.385,-24.902,-33.203,60.547,74.219,0.000,0
27951.389,86.914,-28.320,-120.117,64.453,0.000,0
27951.393,40.527,-29.785,-5.859,4.395,0.000,0
27951.397,-27.832,-26.855,88.379,-21.484,0.000,0
27951.400,42.480,-18.066,13.672,-8.301,0.000,0
27951.404,49.316,-24.902,-20.996,-4.395,0.000,0
27951.408,71.289,-17.090,-92.773,72.754,0.000,0
27951.412,84.961,-17.578,61.035,27.344,0.000,0
27951.416,33.203,-19.043,99.121,-7.324,0.000,0
27951.420,63.965,-4.395,-9.277,98.633,0.000,0
27951.424,114.746,3.418,-5.859,90.820,0.000,0
27951.428,68.359,1.465,60.059,98.633,0.000,0
27951.432,143.066,-14.648,166.992,31.738,0.000,0
27951.436,257.812,-4.883,31.738,12.207,0.000,0
27951.440,211.914,-0.488,-8.301,60.547,0.000,0
27951.443,170.410,-7.324,6.348,27.344,0.000,0
27951.447,227.051,7.812,-92.285,125.000,0.000,0
27951.451,230.469,6.348,122.070,75.684,0.000,0
27951.455,157.715,13.672,214.844,26.367,0.000,0
27951.459,180.664,32.227,-67.383,127.441,0.000,0
27951.463,269.043,19.043,-42.969,100.098,0.000,0
27951.467,186.523,9.766,20.996,94.238,0.000,0
27951.471,90.820,-0.488,171.875,26.855,0.000,0
27951.475,141.113,5.371,141.602,-35.156,0.000,0
27951.479,210.449,14.160,-145.508,19.531,0.000,0
27951.483,199.707,2.930,-129.883,60.059,0.000,0
27951.486,150.879,-1.953,-133.789,127.930,0.000,0
27951.490,122.559,-12.207,-22.949,48.828,0.000,0
27951.494,114.258,-5.371,-70.801,7.812,0.000,0
27951.498,129.395,5.859,-219.727,90.820,0.000,0
27951.502,85.938,-0.977,-106.934,62.988,0.000,0
27951.506,95.703,3.418,-165.527,67.383,0.000,0
27951.510,118.652,1.953,-125.000,30.273,0.000,0
27951.514,58.105,-7.324,3.418,-40.039,0.000,0
27951.518,51.270,-11.230,-13.184,3.906,0.000,0
27951.522,51.270,-13.672,-129.883,54.199,0.000,0
27951.525,21.973,-19.531,-292.480,33.203,0.000,0
27951.529,21.973,-28.809,-191.895,-1.465,0.000,0
27951.533,68.848,-17.578,-104.980,6.836,0.000,0
27951.537,79.590,-7.324,-197.266,22.461,0.000,0
27951.541,73.242,-8.789,-225.586,-8.789,0.000,0
27951.545,24.902,-16.113,-189.453,9.277,0.000,0
27951.549,-35.645,-36.133,-16.113,-8.301,0.000,0
27951.553,7.324,-46.387,23.438,-90.332,0.000,0
27951.557,26.367,-28.809,-178.223,-33.691,0.000,0
27951.561,-80.566,-23.926,-184.082,25.879,0.000,0
27951.565,-108.887,-34.180,-115.234,-5.371,0.000,0
27951.568,-39.551,-29.297,-83.008,-28.809,0.000,0
27951.572,-21.973,-26.855,21.484,-65.430,0.000,0
27951.576,-59.570,-24.902,-69.336,-57.129,0.000,0
27951.580,-7.812,-21.484,-86.426,-41.016,0.000,0
27951.584,57.129,-8.789,-129.395,18.555,0.000,0
27951.588,41.992,-9.277,-120.117,25.879,0.000,0
27951.592,-19.531,-20.020,-6.348,-51.758,0.000,0
27951.596,-22.949,-20.508,-133.301,25.391,0.000,0
27951.600,36.133,-17.090,-164.551,69.336,0.000,0
27951.604,24.414,-14.648,-99.609,31.738,0.000,0
27951.608,-73.242,-15.137,44.434,33.203,0.000,0
27951.611,-55.176,-16.602,51.270,-42.480,0.000,0
27951.615,48.340,-16.602,-143.555,-49.805,0.000,0
27951.619,48.340,-20.508,-109.375,-0.977,0.000,0
27951.623,20.508,-13.672,-148.438,30.762,0.000,0
27951.627,5.371,-10.742,-69.336,-24.414,0.000,0
27951.631,-6.836,-17.090,41.992,-56.641,0.000,0
27951.635,-36.621,-14.648,-90.820,49.805,0.000,0
27951.639,-35.645,-23.438,-174.316,48.828,0.000,0
27951.643,-26.855,-33.203,-187.012,-4.395,0.000,0
27951.647,-4.395,-40.039,-75.195,-33.203,0.000,0
27951.650,0.488,-36.133,54.199,-87.891,0.000,0
27951.654,4.883,-19.531,-12.695,-55.664,0.000,0
27951.658,6.836,-11.719,-185.059,16.602,0.000,0
27951.662,29.297,-11.719,-166.504,35.645,0.000,0
27951.666,-32.227,-24.414,102.051,-17.090,0.000,0
27951.670,-53.223,-24.902,-9.277,-31.738,0.000,0
27951.674,25.391,-14.648,-262.695,26.855,0.000,0
27951.678,11.230,-27.832,-147.949,20.508,0.000,0
27951.682,-37.109,-36.621,-64.453,-6.836,0.000,0
27951.686,5.859,-30.273,-93.262,-33.203,0.000,0
27951.690,3.418,-30.762,-71.289,-83.496,0.000,0
27951.693,-40.039,-24.414,-102.539,-64.453,0.000,0
27951.697,-11.230,-23.438,-127.441,-8.301,0.000,0
27951.701,-34.180,-37.598,-130.859,-12.695,0.000,0
27951.705,-73.242,-44.434,-113.770,-55.176,0.000,0
27951.709,-60.547,-41.992,-76.660,-116.211,0.000,0
27951.713,-30.273,-42.969,-53.223,-106.934,0.000,0
27951.717,29.297,-46.387,-172.852,-86.914,0.000,0
27951.721,-43.945,-39.551,-298.340,-31.250,0.000,0
27951.725,-119.141,-36.621,-225.098,-20.996,0.000,0
27951.729,-103.027,-49.805,53.711,-178.711,0.000,0
27951.733,-53.711,-36.133,-272.461,-118.652,0.000,0
27951.736,-20.996,-29.297,-462.402,0.977,0.000,0
27951.740,-68.848,-37.109,-214.844,-19.531,0.000,0
27951.744,-100.098,-33.203,-134.766,-51.270,0.000,0
27951.748,-41.504,-41.504,-60.547,-126.953,0.000,0
27951.752,-57.617,-42.480,-102.539,-97.656,0.000,0
27951.756,-132.324,-40.527,-135.254,-63.477,0.000,0
27951.760,-85.449,-34.668,-294.434,-36.621,0.000,0
27951.764,22.461,-30.273,-339.844,14.160,0.000,0
27951.768,-40.527,-58.105,-121.582,-95.703,0.000,0
27951.772,-95.215,-59.082,-236.328,-112.305,0.000,0
27951.775,7.812,-36.133,-370.117,1.953,0.000,0
27951.779,37.109,-33.203,-306.641,0.000,0.000,0
27951.783,-72.266,-42.480,-163.086,-65.918,0.000,0
27951.787,-55.176,-50.293,-62.012,-143.066,0.000,0
27951.791,-102.051,-42.480,-249.023,-126.465,0.000,0
27951.795,-140.137,-43.945,-225.098,-90.820,0.000,0
27951.799,-23.926,-38.086,-165.039,-27.832,0.000,0
27951.803,-56.641,-28.809,-75.684,-2.930,0.000,0
27951.807,-90.820,-33.203,-36.621,-90.332,0.000,0
27951.811,-39.551,-32.227,-144.043,-44.922,0.000,0
27951.815,13.672,-39.062,-134.277,-14.648,0.000,0
27951.818,-29.297,-33.691,-125.000,-37.598,0.000,0
27951.822,-62.500,-26.855,-98.633,-39.062,0.000,0
27951.826,-43.945,-36.133,63.965,-101.074,0.000,0
27951.830,-38.086,-24.902,207.520,-154.297,0.000,0
27951.834,-32.715,-13.184,35.645,-72.754,0.000,0
27951.838,0.000,-19.043,-197.754,30.762,0.000,0
27951.842,-79.590,-25.391,-106.934,10.742,0.000,0
27951.846,-69.824,-34.668,193.848,-52.734,0.000,0
27951.850,73.242,-19.043,42.969,-38.574,0.000,0
27951.854,112.305,-2.441,-164.062,13.184,0.000,0
27951.858,29.297,-5.371,-45.410,19.043,0.000,0
27951.861,-22.461,-10.742,43.457,31.738,0.000,0
27951.865,0.488,-14.648,178.223,-51.758,0.000,0
27951.869,9.277,-4.883,95.215,-85.449,0.000,0
27951.873,-0.977,-1.465,-68.848,4.395,0.000,0
27951.877,-2.441,-5.859,-74.707,19.531,0.000,0
27951.881,0.977,-17.090,-58.594,-5.371,0.000,0
27951.885,18.066,-31.738,127.441,-54.688,0.000,0
27951.889,-40.527,-24.414,93.750,-62.988,0.000,0
27951.893,-107.910,-20.996,62.988,-53.223,0.000,0
27951.897,-36.621,-21.973,-1.953,-69.336,0.000,0
27951.900,-23.926,-11.719,-100.586,-13.672,0.000,0
27951.904,-22.461,-15.625,93.750,-14.648,0.000,0
27951.908,-6.348,-14.160,68.848,-55.664,0.000,0
27951.912,9.766,-9.766,-139.648,-1.953,0.000,0
27951.916,13.672,-16.113,-137.695,13.672,0.000,0
27951.920,-61.523,-14.648,58.594,-1.953,0.000,0
27951.924,-86.426,-7.324,210.449,-8.301,0.000,0
27951.928,-35.156,-16.113,111.328,-49.805,0.000,0
27951.932,0.977,-25.391,43.945,-68.359,0.000,0
27951.936,-40.039,-12.207,100.098,-32.227,0.000,0
27951.940,-76.660,-9.277,-62.012,23.438,0.000,0
27951.943,-54.688,-28.320,-47.852,-71.777,0.000,0
27951.947,-38.574,-20.508,47.852,-107.910,0.000,0
27951.951,-54.688,-5.371,79.102,9.766,0.000,0
27951.955,38.574,-7.812,-17.090,0.488,0.000,0
27951.959,53.711,-11.230,-108.398,-51.270,0.000,0
27951.963,-19.043,-23.926,95.215,-105.469,0.000,0
27951.967,-17.090,-24.902,152.344,-168.945,0.000,0
27951.971,-6.348,-12.695,31.250,-136.719,0.000,0
27951.975,-23.438,-15.625,-4.883,-62.500,0.000,0
27951.979,6.836,-14.648,12.695,-9.766,0.000,0
27951.983,-28.320,-16.602,149.902,-85.449,0.000,0
27951.986,-75.195,-19.043,168.945,-117.676,0.000,0
27951.990,-36.621,-5.371,7.812,0.488,0.000,0
27951.994,-4.395,-2.930,67.871,20.996,0.000,0
27951.998,-32.227,-2.930,163.086,16.113,0.000,0
27952.002,-2.441,-4.883,41.504,16.602,0.000,0
27952.006,9.277,-6.836,0.000,-63.965,0.000,0
27952.010,-30.762,5.371,41.016,-36.133,0.000,0
27952.014,-28.320,2.930,11.719,47.852,0.000,0
27952.018,-1.465,0.488,-58.594,72.266,0.000,0
27952.022,-21.484,5.859,3.906,47.852,0.000,0
27952.025,-97.656,4.883,63.965,11.719,0.000,0
27952.029,-115.234,5.859,-31.738,65.918,0.000,0
27952.033,-68.848,4.883,-53.711,55.664,0.000,0
27952.037,-89.844,8.301,-36.621,41.016,0.000,0
27952.041,-162.109,9.766,0.000,70.801,0.000,0
27952.045,-156.250,6.348,55.176,-7.324,0.000,0
27952.049,-61.035,24.902,-94.238,20.508,0.000,0
27952.053,-62.500,37.109,-128.906,95.215,0.000,0
27952.057,-119.141,35.156,-109.863,101.562,0.000,0
27952.061,-116.699,22.949,-60.547,73.242,0.000,0
27952.065,-138.184,10.742,48.340,22.949,0.000,0
27952.068,-144.043,14.648,-6.836,41.016,0.000,0
27952.072,-157.715,23.926,-15.625,56.641,0.000,0
27952.076,-207.031,28.320,-51.758,79.590,0.000,0
27952.080,-185.547,16.602,-42.969,74.219,0.000,0
27952.084,-154.297,5.859,72.754,-0.977,0.000,0
27952.088,-230.957,13.672,70.312,60.059,0.000,0
27952.092,-183.105,15.137,-171.387,131.348,0.000,0
27952.096,-117.676,12.695,-163.086,128.418,0.000,0
27952.100,-156.250,16.113,96.680,63.965,0.000,1
27952.104,-204.590,38.574,95.703,33.203,0.000,0
27952.108,-167.969,47.852,-77.637,64.941,0.000,0
27952.111,-162.109,32.227,-36.621,80.566,0.000,0
27952.115,-200.684,30.762,-47.852,161.133,0.000,0
27952.119,-195.801,29.785,44.922,92.285,0.000,0
27952.123,-217.285,31.738,53.711,26.855,0.000,0
27952.127,-219.727,44.434,-43.945,126.465,0.000,0
27952.131,-192.871,37.109,0.977,140.625,0.000,0
27952.135,-166.504,18.555,-5.859,74.707,0.000,0
27952.139,-180.664,8.789,-59.570,11.230,0.000,0
27952.143,-160.645,6.348,-60.547,13.672,0.000,0
27952.147,-153.320,11.230,10.742,60.547,0.000,0
27952.150,-144.043,22.461,-83.008,85.449,0.000,0
27952.154,-124.512,36.133,-189.941,130.371,0.000,0
27952.158,-172.363,21.973,24.902,48.340,0.000,0
27952.162,-185.059,18.066,107.910,5.859,0.000,0
27952.166,-149.414,27.344,-93.262,96.680,0.000,0
27952.170,-146.973,29.785,-84.961,77.148,0.000,0
27952.174,-191.406,36.621,2.930,73.730,0.000,0
27952.178,-164.551,27.344,124.023,33.691,0.000,0
27952.182,-41.992,33.691,34.668,-14.160,0.000,0
27952.186,-64.941,48.340,-63.965,26.855,0.000,0
27952.190,-83.984,39.551,-80.566,84.961,0.000,0
27952.193,-44.434,42.969,-143.555,132.324,0.000,0
27952.197,-74.707,33.691,40.527,62.500,0.000,0
27952.201,-96.191,23.438,128.906,32.715,0.000,0
27952.205,-91.309,41.016,-72.754,90.820,0.000,0
27952.209,-52.734,33.203,-104.004,82.520,0.000,0
27952.213,-34.180,29.297,-36.133,84.961,0.000,0
27952.217,-76.660,25.391,97.656,72.266,0.000,0
27952.221,-93.750,20.508,140.137,-20.508,0.000,0
27952.225,-72.754,23.926,-71.777,-4.395,0.000,0
27952.229,-15.625,16.602,-169.434,73.242,0.000,0
27952.233,-26.855,12.207,-65.430,69.824,0.000,0
27952.236,-93.262,3.906,110.840,-9.277,0.000,0
27952.240,-57.617,8.789,-172.852,-21.484,0.000,0
27952.244,-10.254,16.113,-266.602,6.836,0.000,0
27952.248,-51.270,18.555,-11.230,17.578,0.000,0
27952.252,-48.828,30.273,-153.320,94.727,0.000,0
27952.256,-47.363,36.133,-75.684,44.922,0.000,0
27952.260,-43.457,41.016,16.602,12.207,0.000,0
27952.264,-62.988,40.527,-91.309,85.938,0.000,0
27952.268,-38.574,31.738,-244.629,79.102,0.000,0
27952.272,-16.602,28.320,-358.398,68.359,0.000,0
27952.275,-71.289,25.391,-21.973,52.246,0.000,0
27952.279,-117.676,35.156,181.641,13.672,0.000,0
27952.283,-46.875,31.250,-85.449,9.766,0.000,0
27952.287,-43.945,19.043,-171.875,14.648,0.000,0
27952.291,-61.523,29.785,-123.535,67.871,0.000,0
27952.295,-12.695,34.668,-43.457,56.152,0.000,0
27952.299,-5.859,30.762,-72.754,8.789,0.000,0
27952.303,-43.457,29.297,-203.125,67.871,0.000,0
27952.307,-112.793,14.648,-104.004,74.707,0.000,0
27952.311,-120.605,9.766,-21.973,59.082,0.000,0
27952.315,-77.148,10.254,-92.773,31.738,0.000,0
27952.318,-77.637,6.836,-81.543,-34.180,0.000,0
27952.322,-133.301,3.418,161.621,-86.426,0.000,0
27952.326,-80.078,8.789,-78.613,24.902,0.000,0
27952.330,-19.043,11.230,-267.090,99.121,0.000,0
27952.334,-59.082,2.930,-171.387,43.945,0.000,0
27952.338,-109.375,4.883,-63.477,2.441,0.000,0
27952.342,-106.934,6.348,70.801,-14.648,0.000,0
27952.346,-29.785,9.277,-161.621,50.293,0.000,0
27952.350,-50.293,7.324,-198.730,78.613,0.000,0
27952.354,-101.074,3.418,-41.016,28.809,0.000,0
27952.358,-73.242,2.441,62.988,-58.105,0.000,0
27952.361,-65.918,13.184,18.066,-41.992,0.000,0
27952.365,-82.031,18.066,-83.984,44.434,0.000,0
27952.369,-135.254,7.812,-58.594,59.570,0.000,0
27952.373,-80.078,-3.418,-130.859,30.273,0.000,0
27952.377,-29.785,-5.859,-101.562,8.789,0.000,0
27952.381,-42.480,2.930,-96.680,38.574,0.000,0
27952.385,-45.410,1.465,-128.906,19.043,0.000,0
27952.389,-58.105,-6.348,-156.738,7.324,0.000,0
27952.393,-46.387,-19.531,-81.543,-11.230,0.000,0
27952.397,-61.035,-28.320,41.992,-90.332,0.000,0
27952.400,-86.914,-17.578,-17.578,-42.969,0.000,0
27952.404,-59.570,-6.348,-158.691,42.480,0.000,0
27952.408,-14.648,-5.859,-185.547,53.711,0.000,0
27952.412,-58.105,-10.742,28.320,8.789,0.000,0
27952.416,-62.012,-13.672,5.859,-64.941,0.000,0
27952.420,5.371,-7.324,-253.418,-27.832,0.000,0
27952.424,-9.277,-12.695,-151.367,-19.043,0.000,0
27952.428,-58.105,-23.438,-103.516,17.090,0.000,0
27952.432,-25.391,-25.879,-133.789,25.879,0.000,0
27952.436,-4.395,-29.785,-92.285,-73.730,0.000,0
27952.440,-33.691,-28.809,-169.434,-33.203,0.000,0
27952.443,-15.625,-37.109,-16.113,-26.855,0.000,0
27952.447,32.715,-23.926,-148.438,15.625,0.000,0
27952.451,-10.742,-28.320,-212.402,56.152,0.000,0
27952.455,-51.270,-53.711,20.996,-77.148,0.000,0
27952.459,-39.551,-48.340,-1.465,-92.285,0.000,0
27952.463,20.020,-41.016,-157.715,-48.340,0.000,0
27952.467,46.875,-31.738,-260.254,20.020,0.000,0
27952.471,11.719,-29.297,-192.383,25.879,0.000,0
27952.475,9.277,-40.527,19.531,-91.309,0.000,0
27952.479,44.434,-20.996,-121.094,-23.926,0.000,0
27952.483,54.199,-17.090,-208.008,24.902,0.000,0
27952.486,-37.109,-19.531,-135.254,0.488,0.000,0
27952.490,-53.711,-22.461,-93.750,-9.277,0.000,0
27952.494,0.488,-38.086,50.293,-104.492,0.000,0
27952.498,-16.602,-21.973,1.465,-85.449,0.000,0
27952.502,-60.059,-11.230,-16.113,-27.344,0.000,0
27952.506,-40.039,-7.324,-169.434,21.484,0.000,0
27952.510,57.617,0.977,-214.355,40.039,0.000,0
27952.514,22.461,-5.859,68.848,-48.828,0.000,0
27952.518,-31.250,3.906,-79.102,-2.441,0.000,0
27952.522,4.883,12.207,-258.301,48.828,0.000,0
27952.525,18.066,-1.465,-189.453,8.789,0.000,0
27952.529,-1.465,-6.348,-99.121,2.930,0.000,0
27952.533,-11.719,-8.789,55.664,-51.758,0.000,0
27952.537,19.043,0.488,-109.375,-80.078,0.000,0
27952.541,14.648,3.418,-185.547,-24.902,0.000,0
27952.545,-42.480,0.000,-117.676,26.855,0.000,0
27952.549,-75.684,-3.906,78.613,-23.438,0.000,0
27952.553,-22.949,6.348,13.672,-40.527,0.000,0
27952.557,61.523,25.879,-254.395,32.227,0.000,0
27952.561,71.289,18.066,-170.410,40.039,0.000,0
27952.565,65.918,7.324,-116.699,8.301,0.000,0
27952.568,62.988,3.418,-186.523,5.371,0.000,0
27952.572,32.227,-8.789,-37.109,-64.453,0.000,0
27952.576,27.832,-8.789,21.973,-90.820,0.000,0
27952.580,81.543,5.371,-125.000,12.207,0.000,0
27952.584,108.398,5.371,-192.871,38.574,0.000,0
27952.588,63.477,-2.930,-185.547,14.648,0.000,0
27952.592,-14.160,-14.648,73.242,-42.480,0.000,0
27952.596,11.719,-14.160,40.527,-66.895,0.000,0
27952.600,106.934,-1.953,-167.480,-31.738,0.000,0
27952.604,56.641,-2.441,-129.395,-31.738,0.000,0
27952.608,-19.043,-14.160,-64.941,21.484,0.000,0
27952.611,49.316,-25.879,-25.391,-19.043,0.000,0
27952.615,67.871,-17.090,-86.426,-64.941,0.000,0
27952.619,5.859,-4.883,-165.039,23.926,0.000,0
27952.623,6.348,-5.859,-111.816,38.574,0.000,0
27952.627,58.594,-3.418,-104.492,23.438,0.000,0
27952.631,30.762,-0.977,-20.508,-5.371,0.000,0
27952.635,-18.555,-3.906,-5.371,-65.430,0.000,0
27952.639,-24.414,-0.488,-67.383,-55.664,0.000,0
27952.643,97.656,91.797,-1.953,74.707,0.000,0
27952.647,280.762,208.008,-12.207,239.258,0.000,0
27952.650,276.855,245.117,262.695,212.402,0.000,0
27952.654,191.406,269.043,356.934,187.500,0.000,0
27952.658,295.410,282.227,47.852,290.527,0.000,0
27952.662,340.332,269.531,91.797,291.504,0.000,1
27952.666,285.156,264.160,208.496,285.645,0.000,0
27952.670,269.531,259.766,203.125,270.508,0.000,0
27952.674,270.996,251.953,194.824,210.938,0.000,0
27952.678,275.879,248.047,205.078,217.285,0.000,0
27952.682,228.027,229.980,230.469,253.418,0.000,0
27952.686,194.824,221.680,140.137,261.719,0.000,0
27952.690,213.867,210.449,143.555,205.078,0.000,0
27952.693,192.871,196.777,216.309,177.734,0.000,0
27952.697,169.434,198.242,194.824,249.023,0.000,0
27952.701,207.031,196.777,67.383,249.512,0.000,0
27952.705,249.023,193.848,-20.508,229.004,0.000,0
27952.709,224.121,180.664,134.277,192.871,0.000,0
27952.713,189.453,173.828,231.445,125.977,0.000,0
27952.717,227.539,180.176,89.355,161.621,0.000,0
27952.721,208.984,176.758,-4.883,218.262,0.000,0
27952.725,182.129,165.039,62.500,209.473,0.000,0
27952.729,190.430,154.785,160.645,187.500,0.000,0
27952.733,185.547,151.367,248.535,115.234,0.000,0
27952.736,187.988,161.133,138.184,123.047,0.000,0
27952.740,173.828,151.855,120.605,138.184,0.000,0
27952.744,121.582,149.414,211.914,171.875,0.000,0
27952.748,209.473,153.809,45.410,208.496,0.000,0
27952.752,218.750,147.461,84.473,123.535,0.000,0
27952.756,138.184,141.113,100.586,111.816,0.000,0
27952.760,154.297,128.418,19.043,165.039,0.000,0
27952.764,203.125,123.047,-99.121,205.566,0.000,0
27952.768,178.223,117.676,-6.348,147.461,0.000,0
27952.772,107.422,103.516,153.320,49.316,0.000,0
27952.775,152.344,96.680,42.969,68.359,0.000,0
27952.779,171.387,97.656,45.898,98.633,0.000,0
27952.783,156.738,95.215,-0.488,148.438,0.000,0
27952.787,141.113,98.633,48.828,148.438,0.000,0
27952.791,163.574,96.680,148.926,37.598,0.000,0
27952.795,224.121,100.098,-57.129,79.102,0.000,0
27952.799,195.312,96.680,-54.199,131.836,0.000,0
27952.803,130.859,92.285,-19.531,115.723,0.000,0
27952.807,119.141,84.473,-17.090,82.520,0.000,0
27952.811,112.305,69.824,187.500,-2.930,0.000,0
27952.815,107.910,84.473,153.809,39.551,0.000,0
27952.818,125.977,86.914,3.418,80.566,0.000,0
27952.822,116.211,75.684,-95.703,107.422,0.000,0
27952.826,97.168,63.965,-15.625,112.793,0.000,0
27952.830,96.191,50.293,212.402,23.926,0.000,0
27952.834,59.570,57.129,125.488,64.941,0.000,0
27952.838,115.723,59.570,-142.090,98.145,0.000,0
27952.842,144.043,54.199,-97.168,69.824,0.000,0
27952.846,100.586,47.852,51.758,67.383,0.000,0
27952.850,83.984,34.668,169.434,-21.973,0.000,0
27952.854,99.609,36.133,-45.898,-5.371,0.000,0
27952.858,87.891,31.250,-36.133,16.602,0.000,0
27952.861,48.828,26.367,18.066,35.645,0.000,0
27952.865,83.984,21.484,-210.938,83.496,0.000,0
27952.869,57.617,9.766,-34.180,-0.977,0.000,0
27952.873,8.789,25.879,48.340,32.715,0.000,0
27952.877,21.973,30.273,22.949,67.871,0.000,0
27952.881,65.918,18.066,-32.227,43.945,0.000,0
27952.885,90.332,19.043,-128.906,46.387,0.000,0
27952.889,38.574,16.113,65.430,-36.133,0.000,0
27952.893,24.902,20.508,138.672,-37.109,0.000,0
27952.897,77.637,30.273,-34.668,53.223,0.000,0
27952.900,87.402,25.391,-136.719,65.430,0.000,0
27952.904,62.988,25.879,-110.840,55.664,0.000,0
27952.908,32.227,13.672,117.188,-10.254,0.000,0
27952.912,75.195,11.719,34.180,-34.180,0.000,0
27952.916,109.863,22.461,-94.727,13.672,0.000,0
27952.920,41.504,21.973,-25.879,30.273,0.000,0
27952.924,1.953,26.855,-21.484,85.938,0.000,0
27952.928,81.055,29.785,14.160,27.344,0.000,0
27952.932,86.914,30.762,4.883,-25.391,0.000,0
27952.936,67.871,29.297,-208.496,61.035,0.000,0
27952.940,75.195,23.926,-191.406,61.523,0.000,0
27952.943,74.219,14.160,-98.145,24.902,0.000,0
27952.947,46.387,6.348,43.457,-6.348,0.000,0
27952.951,22.949,17.090,80.078,-44.434,0.000,0
27952.955,37.598,22.949,-93.262,-21.484,0.000,0
27952.959,56.641,6.836,-10.254,-22.461,0.000,0
27952.963,45.410,7.324,66.406,-2.441,0.000,0
27952.967,-13.672,9.277,13.184,38.574,0.000,0
27952.971,-21.484,-4.395,-37.598,-12.695,0.000,0
27952.975,53.711,-8.301,-179.688,21.973,0.000,0
27952.979,61.035,3.906,-100.098,57.617,0.000,0
27952.983,11.719,18.555,32.715,54.199,0.000,0
27952.986,-7.812,18.066,1.953,13.672,0.000,0
27952.990,-9.766,16.113,0.488,-44.434,0.000,0
27952.994,18.555,17.090,-3.906,-21.973,0.000,0
27952.998,11.719,8.301,-33.203,7.324,0.000,0
27953.002,21.973,7.324,-162.109,43.457,0.000,0
27953.006,23.926,5.371,-110.352,14.160,0.000,0
27953.010,1.953,0.000,15.137,-20.996,0.000,0
27953.014,-6.348,-0.488,-75.195,43.457,0.000,0
27953.018,25.391,-9.277,-230.469,36.133,0.000,0
27953.022,27.832,-7.812,-254.883,14.648,0.000,0
27953.025,-19.531,-10.254,1.953,-7.324,0.000,0
27953.029,-76.172,-10.254,259.277,-60.547,0.000,0
27953.033,6.836,3.418,12.207,-24.902,0.000,0
27953.037,26.367,6.836,-146.484,29.785,0.000,0
27953.041,-3.906,-11.230,-70.312,38.574,0.000,0
27953.045,6.348,-24.902,-0.977,1.465,0.000,0
27953.049,-14.648,-22.949,20.508,-24.414,0.000,0
27953.053,-25.879,-15.137,-83.984,16.113,0.000,0
27953.057,-29.785,-8.789,-80.566,23.926,0.000,0
27953.061,-29.785,0.488,6.836,21.973,0.000,0
27953.065,5.371,-10.254,113.770,-51.758,0.000,0
27953.068,18.066,-16.113,-62.012,-89.355,0.000,0
27953.072,-62.500,-6.836,-37.598,-22.461,0.000,0
27953.076,-53.223,-15.625,-33.691,24.902,0.000,0
27953.080,40.039,-11.230,-187.012,32.715,0.000,0
27953.084,-8.301,0.000,-21.484,-8.789,0.000,0
27953.088,-87.402,-11.230,68.848,-84.473,0.000,0
27953.092,-41.992,-22.949,-82.031,-67.871,0.000,0
27953.096,-10.742,-29.297,-82.520,-49.316,0.000,0
27953.100,-58.594,-30.273,-72.754,-16.113,0.000,0
27953.104,-90.332,-20.508,-114.746,28.320,0.000,0
27953.108,-57.129,-23.926,26.367,-58.105,0.000,0
27953.111,-41.504,-17.090,29.297,-41.992,0.000,0
27953.115,-59.082,-9.277,-55.664,41.992,0.000,0
27953.119,-96.680,-6.348,-37.598,26.855,0.000,0
27953.123,-58.105,-14.160,-95.703,-11.719,0.000,0
27953.127,-16.113,-32.227,-4.883,-83.984,0.000,0
27953.131,-20.996,-19.043,-16.113,-71.777,0.000,0
27953.135,-42.480,-9.766,-59.570,-43.945,0.000,0
27953.139,-49.316,-8.301,-169.922,20.020,0.000,0
27953.143,-39.062,-14.648,-89.844,29.297,0.000,0
27953.147,-70.801,-16.113,179.688,-69.824,0.000,0
27953.150,-88.867,6.348,-0.977,-8.301,0.000,0
27953.154,-88.379,13.184,-145.020,55.176,0.000,0
27953.158,-49.805,11.230,-95.703,45.410,0.000,0
27953.162,-82.520,5.859,89.844,27.832,0.000,0
27953.166,-97.168,-16.113,250.000,-106.445,0.000,0
27953.170,-58.594,-0.977,-43.945,-70.312,0.000,0
27953.174,-98.633,3.418,-96.680,4.883,0.000,0
27953.178,-75.684,-1.465,-78.613,37.598,0.000,0
27953.182,-8.789,4.883,-116.211,54.199,0.000,0
27953.186,-27.344,0.000,56.641,-51.270,0.000,0
27953.190,-50.781,2.441,-52.734,-12.695,0.000,0
27953.193,-31.250,-5.859,-82.520,40.527,0.000,0
27953.197,-25.391,-12.207,-43.457,21.973,0.000,0
27953.201,-70.312,-8.789,-40.039,31.250,0.000,0
27953.205,-90.332,-20.508,80.566,-53.223,0.000,0
27953.209,-95.703,-23.438,87.402,-66.406,0.000,0
27953.213,-36.621,-21.484,-87.402,-8.301,0.000,0
27953.217,-10.254,-23.926,-203.125,25.879,0.000,0
27953.221,-79.102,-36.621,-157.227,4.395,0.000,0
27953.225,-99.609,-45.898,89.844,-74.707,0.000,0
27953.229,-38.574,-23.438,-22.461,-15.137,0.000,0
27953.233,8.301,-9.277,-158.691,30.273,0.000,0
27953.236,-24.414,-4.395,-69.336,-7.324,0.000,0
27953.240,-40.527,-4.395,-79.102,6.836,0.000,0
27953.244,-12.695,-12.695,62.988,-48.340,0.000,0
27953.248,-20.508,-10.742,85.938,-86.914,0.000,0
27953.252,-60.547,-10.254,-11.719,-9.766,0.000,0
27953.256,-37.598,-12.695,-103.027,40.039,0.000,0
27953.260,54.688,-7.324,-163.086,48.340,0.000,0
27953.264,41.016,-0.488,52.246,-7.324,0.000,0
27953.268,12.695,4.395,108.887,-70.312,0.000,0
27953.272,34.668,9.277,-91.797,-34.668,0.000,0
27953.275,94.238,5.371,-163.086,16.113,0.000,0
27953.279,99.609,5.371,-125.488,74.219,0.000,0
27953.283,30.273,1.953,51.270,28.320,0.000,0
27953.287,-1.465,3.418,31.738,-33.203,0.000,0
27953.291,43.945,11.230,-139.160,30.762,0.000,0
27953.295,76.172,3.418,-50.781,43.457,0.000,0
27953.299,22.461,4.883,79.590,41.504,0.000,0
27953.303,32.227,7.324,-33.203,17.578,0.000,0
27953.307,77.637,6.836,-104.980,-38.574,0.000,0
27953.311,71.289,0.488,-52.734,-22.461,0.000,0
27953.315,43.945,-2.930,-35.156,-1.465,0.000,0
27953.318,58.594,9.277,-140.137,46.875,0.000,0
27953.322,58.105,6.836,-100.586,20.996,0.000,0
27953.326,40.039,3.906,123.047,-79.102,0.000,0
27953.330,77.637,17.578,-40.039,20.020,0.000,0
27953.334,104.980,11.719,-217.773,64.453,0.000,0
27953.338,60.547,-3.906,-150.879,11.719,0.000,0
27953.342,3.906,-9.766,29.785,-1.465,0.000,0
27953.346,22.949,-10.742,101.562,-64.453,0.000,0
27953.350,111.328,0.000,-83.496,-47.852,0.000,0
27953.354,89.844,3.906,-128.906,7.812,0.000,0
27953.358,43.457,3.906,-66.406,51.270,0.000,0
27953.361,77.148,6.348,-7.324,24.414,0.000,0
27953.365,87.891,12.695,-7.812,-12.207,0.000,0
27953.369,63.965,22.949,-69.336,39.062,0.000,0
27953.373,23.926,20.020,-20.020,34.180,0.000,1
27953.377,66.895,23.438,-68.848,60.547,0.000,0
27953.381,85.449,15.625,-46.875,28.320,0.000,0
27953.385,38.086,0.977,12.695,-61.035,0.000,0
27953.389,-39.551,0.488,-8.301,-35.645,0.000,0
27953.393,-4.395,0.977,-62.500,39.062,0.000,0
27953.397,90.332,-0.977,-117.676,85.449,0.000,0
27953.400,23.438,-5.859,20.020,29.297,0.000,0
27953.404,-94.238,-7.812,77.148,-28.320,0.000,0
27953.408,5.859,-6.836,-148.926,24.414,0.000,0
27953.412,64.941,-7.812,-131.348,29.297,0.000,0
27953.416,4.395,-1.953,-36.621,37.598,0.000,0
27953.420,-10.742,1.465,-47.852,21.973,0.000,0
27953.424,9.277,0.488,-7.324,-54.199,0.000,0
27953.428,17.578,11.719,-28.320,-17.090,0.000,0
27953.432,-16.113,15.625,-20.996,41.016,0.000,0
27953.436,-38.574,12.695,-72.266,51.270,0.000,0
27953.440,-12.695,11.719,-84.961,21.484,0.000,0
27953.443,8.789,7.324,45.410,-56.641,0.000,0
27953.447,-33.691,8.301,90.820,-40.039,0.000,0
27953.451,-39.062,0.977,-20.508,-26.367,0.000,0
27953.455,4.395,-0.977,-206.543,23.438,0.000,0
27953.459,-2.930,-10.742,-90.332,50.293,0.000,0
27953.463,-65.918,-19.531,163.086,-55.176,0.000,0
27953.467,-61.035,-5.859,-25.391,6.836,0.000,0
27953.471,-11.230,-6.348,-169.434,50.293,0.000,0
27953.475,-43.945,-20.020,-7.324,-29.297,0.000,0
27953.479,-32.227,-8.789,-53.223,26.855,0.000,0
27953.483,-0.977,-13.672,6.836,-36.133,0.000,0
27953.486,-20.996,-7.812,-22.949,-64.941,0.000,0
27953.490,-4.883,5.859,-64.453,-12.207,0.000,0
27953.494,-24.902,11.230,25.879,51.758,0.000,0
27953.498,55.176,15.137,-91.309,58.594,0.000,0
27953.502,66.406,10.254,18.066,-52.734,0.000,0
27953.506,33.203,26.855,-23.926,17.578,0.000,0
27953.510,71.289,28.809,-88.867,84.961,0.000,0
27953.514,84.473,21.484,-56.152,70.312,0.000,0
27953.518,56.152,16.602,-17.090,67.383,0.000,0
27953.522,8.301,3.906,155.762,-21.973,0.000,0
27953.525,12.207,9.766,103.516,-15.625,0.000,0
27953.529,34.668,8.301,10.254,19.043,0.000,0
27953.533,68.359,2.441,-117.676,51.758,0.000,0
27953.537,31.738,0.977,-46.875,41.992,0.000,0
27953.541,16.113,-2.441,121.094,-51.758,0.000,0
27953.545,83.496,6.348,-124.023,2.441,0.000,0
27953.549,51.758,4.395,-130.859,38.086,0.000,0
27953.553,-26.855,-8.301,-41.504,-4.395,0.000,0
27953.557,-8.301,-17.090,-100.586,-1.465,0.000,0
27953.561,37.598,-26.855,50.781,-68.848,0.000,0
27953.565,39.551,-7.324,56.152,-77.637,0.000,0
27953.568,19.043,11.230,-42.480,-4.883,0.000,0
27953.572,18.066,8.301,-129.883,36.621,0.000,0
27953.576,-7.324,-11.719,-59.570,31.738,0.000,0
27953.580,-16.113,-25.879,176.270,-72.266,0.000,0
27953.584,-60.059,-16.113,113.770,-82.031,0.000,0
27953.588,-22.461,-10.742,-148.926,-26.367,0.000,0
27953.592,34.180,-20.996,-119.629,-38.086,0.000,0
27953.596,-2.441,-21.973,-116.699,13.672,0.000,0
27953.600,16.602,-12.695,-130.371,-9.277,0.000,0
27953.604,41.992,-0.977,-166.992,-54.688,0.000,0
27953.608,19.531,3.906,-207.031,12.695,0.000,0
27953.611,10.742,-0.488,-30.762,41.992,0.000,0
27953.615,7.324,4.883,28.809,44.434,0.000,0
27953.619,-11.719,5.371,59.570,-7.324,0.000,0
27953.623,-26.367,1.465,70.801,-59.570,0.000,0
27953.627,-21.973,-4.395,64.453,-37.598,0.000,0
27953.631,-9.277,-7.324,21.484,-31.738,0.000,0
27953.635,29.297,1.465,-198.242,27.832,0.000,0
27953.639,-1.465,-6.836,-73.730,5.859,0.000,0
27953.643,-32.715,-18.066,66.406,-51.758,0.000,0
27953.647,-0.488,-13.184,-92.773,22.461,0.000,0
27953.650,23.926,-10.254,-128.906,47.363,0.000,0
27953.654,-32.227,-16.113,-77.148,3.906,0.000,0
27953.658,-95.703,-26.367,41.504,-32.715,0.000,0
27953.662,-39.062,-27.832,-2.441,-76.172,0.000,0
27953.666,-3.418,-24.414,-80.566,-68.359,0.000,0
27953.670,-95.215,-32.715,-29.297,-31.738,0.000,0
27953.674,-140.625,-32.227,-2.930,31.738,0.000,0
27953.678,-11.719,-20.996,-54.688,-0.977,0.000,0
27953.682,32.715,-17.090,62.012,-101.562,0.000,0
27953.686,-34.180,-5.371,-69.336,-9.766,0.000,0
27953.690,-31.738,-12.207,-218.750,41.504,0.000,0
27953.693,11.719,-21.973,-127.930,11.719,0.000,0
27953.697,-4.395,-23.438,-28.809,-19.531,0.000,0
27953.701,-56.152,-29.785,20.508,-100.586,0.000,0
27953.705,-39.062,-11.719,-81.543,-69.824,0.000,0
27953.709,20.508,12.695,-85.449,17.578,0.000,0
27953.713,43.945,25.391,-80.566,69.336,0.000,0
27953.717,-22.461,17.578,50.293,32.227,0.000,0
27953.721,-50.781,8.789,45.410,-26.367,0.000,0
27953.725,36.133,4.395,-165.527,21.973,0.000,0
27953.729,43.457,-1.465,-87.402,27.832,0.000,0
27953.733,-30.762,1.953,26.367,29.297,0.000,0
27953.736,-36.133,-2.930,-41.016,13.184,0.000,0
27953.740,-7.812,-11.719,-43.457,-59.082,0.000,0
27953.744,-3.418,-1.953,-10.742,-29.297,0.000,0
27953.748,-21.973,9.766,-10.742,39.551,0.000,0
27953.752,-2.441,10.742,-120.117,47.852,0.000,0
27953.756,-3.906,4.395,-71.777,10.254,0.000,0
27953.760,-37.109,-3.418,58.594,-20.996,0.000,0
27953.764,-31.738,-1.953,-32.227,24.902,0.000,0
27953.768,-17.578,-6.836,-72.754,17.578,0.000,0
27953.772,35.156,-7.324,-155.273,8.301,0.000,0
27953.775,30.273,-18.066,-32.715,-17.578,0.000,0
27953.779,-57.129,-26.367,168.457,-95.215,0.000,0
27953.783,13.184,-7.812,-22.461,-63.965,0.000,0
27953.787,34.180,-8.301,-227.051,-7.812,0.000,0
27953.791,36.133,-14.160,-276.855,15.625,0.000,0
27953.795,12.207,-26.367,-28.320,-14.160,0.000,0
27953.799,-9.766,-39.551,72.754,-99.609,0.000,0
27953.803,4.883,-29.785,-96.680,-79.102,0.000,0
27953.807,-40.039,-33.203,-8.301,-58.594,0.000,0
27953.811,-66.895,-30.762,16.602,-18.066,0.000,0
27953.815,-14.160,-18.066,-64.941,25.879,0.000,0
27953.818,3.906,-20.996,71.289,-57.617,0.000,0
27953.822,-56.641,-20.996,34.668,-26.855,0.000,0
27953.826,-17.090,-18.066,-86.426,39.062,0.000,0
27953.830,72.266,-21.973,-168.945,26.855,0.000,0
27953.834,25.879,-28.320,-55.176,5.859,0.000,0
27953.838,-58.105,-40.527,121.582,-93.262,0.000,0
27953.842,-4.883,-38.574,-38.574,-83.496,0.000,0
27953.846,19.531,-32.715,-81.055,-24.902,0.000,0
27953.850,-13.672,-32.227,-88.379,17.578,0.000,0
27953.854,-46.875,-33.691,-125.488,25.391,0.000,0
27953.858,-66.406,-44.922,54.199,-64.453,0.000,0
27953.861,-30.273,-40.039,-44.434,-31.250,0.000,0
27953.865,-13.184,-29.785,-141.602,30.762,0.000,0
27953.869,-99.121,-23.926,2.441,-1.953,0.000,0
27953.873,-43.457,-23.438,-104.004,-17.578,0.000,0
27953.877,4.395,-40.039,50.293,-93.262,0.000,0
27953.881,-22.949,-33.203,21.973,-84.961,0.000,0
27953.885,-22.461,-25.391,-81.543,-53.223,0.000,0
27953.889,-43.457,-26.367,-150.391,-27.832,0.000,0
27953.893,24.902,-32.227,-306.641,12.207,0.000,0
27953.897,-4.883,-41.504,53.223,-70.312,0.000,0
27953.900,-49.805,-31.738,43.457,-30.273,0.000,0
27953.904,-34.668,-21.973,-145.508,27.344,0.000,0
27953.908,-8.301,-24.902,-76.660,-7.324,0.000,0
27953.912,-45.898,-28.320,58.594,-4.395,0.000,0
27953.916,-48.340,-27.832,118.652,-57.617,0.000,0
27953.920,12.695,-16.602,-109.863,-86.914,0.000,0
27953.924,-27.344,-7.812,-106.934,-23.438,0.000,0
27953.928,-41.504,-12.695,-4.883,13.184,0.000,0
27953.932,-3.418,-18.066,-97.656,12.207,0.000,0
27953.936,-37.598,-20.020,3.906,-48.340,0.000,0
27953.940,-72.754,-17.578,46.387,-77.637,0.000,0
27953.943,-8.789,-9.277,-35.645,-43.945,0.000,0
27953.947,5.859,-3.418,-28.809,-35.156,0.000,0
27953.951,-50.293,-10.742,-109.863,25.391,0.000,0
27953.955,-60.059,-22.949,-34.668,0.000,0.000,0
27953.959,-68.848,-21.973,127.930,-51.758,0.000,0
27953.963,-19.043,-27.344,-119.141,6.348,0.000,0
27953.967,9.766,-41.504,-221.191,19.043,0.000,0
27953.971,-48.340,-41.992,-154.297,0.488,0.000,0
27953.975,-72.266,-48.828,-36.133,-30.762,0.000,0
27953.979,-29.785,-54.199,-21.484,-71.289,0.000,0
27953.983,-11.719,-44.434,-124.512,-35.645,0.000,0
27953.986,-56.641,-35.156,-15.137,-33.691,0.000,0
27953.990,-68.848,-31.250,-37.598,-16.113,0.000,0
27953.994,-21.973,-36.621,-164.551,4.395,0.000,0
27953.998,-44.434,-38.574,-0.977,-41.016,0.000,0
27954.002,-89.355,-27.344,-35.156,14.648,0.000,0
27954.006,-65.918,-30.762,-126.953,21.484,0.000,0
27954.010,-0.977,-37.598,-147.949,2.930,0.000,0
27954.014,-19.531,-29.785,-20.020,-12.207,0.000,0
27954.018,-66.406,-24.414,55.176,-70.312,0.000,0
27954.022,-67.383,-32.227,-89.355,-67.383,0.000,0
27954.025,-41.992,-40.039,-117.676,-46.875,0.000,0
27954.029,-42.969,-38.086,-98.145,-0.977,0.000,0
27954.033,-72.754,-41.016,-17.090,-22.461,0.000,0
27954.037,-63.477,-39.551,-76.660,-76.660,0.000,0
27954.041,-52.246,-40.039,-183.105,-15.137,0.000,0
27954.045,-91.797,-51.270,-44.434,-20.020,0.000,0
27954.049,-139.648,-49.316,70.312,-22.461,0.000,0
27954.053,-82.031,-47.363,-88.867,-25.879,0.000,0
27954.057,-49.316,-46.875,-60.547,-102.051,0.000,0
27954.061,-77.148,-44.922,-5.859,-89.844,0.000,0
27954.065,-63.477,-42.480,-109.375,-20.996,0.000,1
27954.068,-44.434,-30.762,-185.059,20.508,0.000,0
27954.072,-54.688,-30.762,-97.656,-25.391,0.000,0
27954.076,-62.500,-30.273,42.969,-62.988,0.000,0
27954.080,-32.715,-24.902,-84.473,6.348,0.000,0
27954.084,-16.113,-29.785,-124.512,9.277,0.000,0
27954.088,-40.039,-24.902,-121.582,15.625,0.000,0
27954.092,-97.656,-36.133,20.996,-12.695,0.000,0
27954.096,-92.285,-45.410,196.289,-125.000,0.000,0
27954.100,0.000,-20.020,-122.070,-63.477,0.000,0
27954.104,-26.367,-15.625,-239.746,20.020,0.000,0
27954.108,-70.312,-21.973,-99.121,26.855,0.000,0
27954.111,-27.832,-31.738,-46.875,0.488,0.000,0
27954.115,-44.434,-33.691,60.547,-79.102,0.000,0
27954.119,-79.102,-18.066,-19.043,-56.641,0.000,0
27954.123,-67.383,-19.043,-57.129,-42.480,0.000,0
27954.127,-32.227,-28.809,-105.469,-18.555,0.000,0
27954.131,-14.160,-25.879,-114.746,5.371,0.000,0
27954.135,-41.992,-26.367,33.691,-86.914,0.000,0
27954.139,-92.773,-13.184,-20.996,-53.711,0.000,0
27954.143,-48.340,-7.812,-102.539,18.066,0.000,0
27954.147,12.207,-15.625,-133.301,12.695,0.000,0
27954.150,-30.762,-24.414,-24.902,-18.555,0.000,0
27954.154,-115.723,-34.668,174.316,-107.422,0.000,0
27954.158,-21.484,-20.020,-40.039,-67.383,0.000,0
27954.162,19.043,-22.949,-78.125,-31.738,0.000,0
27954.166,-28.320,-36.133,-59.570,1.953,0.000,0
27954.170,-39.062,-43.457,-132.812,14.160,0.000,0
27954.174,-79.590,-53.711,57.129,-112.305,0.000,0
27954.178,-99.121,-45.898,17.090,-72.754,0.000,0
27954.182,-71.777,-37.109,-92.773,1.953,0.000,0
27954.186,-90.820,-33.691,-84.961,-11.719,0.000,0
27954.190,-87.402,-32.227,-92.285,0.488,0.000,0
27954.193,-32.715,-41.992,88.379,-110.840,0.000,0
27954.197,-59.570,-31.250,107.422,-130.371,0.000,0
27954.201,-70.312,-20.996,-93.750,-37.598,0.000,0
27954.205,-2.441,-19.043,-265.625,5.859,0.000,0
27954.209,-4.883,-22.461,-135.742,17.578,0.000,0
27954.213,-62.988,-30.762,175.293,-77.148,0.000,0
27954.217,-40.527,-17.578,-29.785,-27.832,0.000,0
27954.221,-27.344,-17.578,-203.613,33.691,0.000,0
27954.225,-62.500,-32.715,-59.570,-14.160,0.000,0
27954.229,-96.680,-32.715,27.344,-11.230,0.000,0
27954.233,-92.285,-28.809,37.598,-38.574,0.000,0
27954.236,-73.730,-26.367,6.348,-91.797,0.000,0
27954.240,-103.027,-32.715,-9.766,-56.152,0.000,0
27954.244,-115.723,-36.133,37.109,5.371,0.000,0
27954.248,-18.066,-32.715,-103.027,-6.836,0.000,0
27954.252,-15.137,-46.875,-37.598,-87.402,0.000,0
27954.256,-55.664,-46.387,-76.172,-55.664,0.000,0
27954.260,-30.273,-39.062,-136.230,-7.812,0.000,0
27954.264,-11.230,-41.016,-75.684,-41.016,0.000,0
27954.268,-37.109,-41.016,-90.332,-32.227,0.000,0
27954.272,-85.938,-44.434,27.832,-87.402,0.000,0
27954.275,-69.824,-41.504,44.922,-110.840,0.000,0
27954.279,-86.914,-39.551,-21.484,-45.898,0.000,0
27954.283,-46.875,-44.922,-164.062,-17.578,0.000,0
27954.287,-73.730,-36.133,-84.473,-8.789,0.000,0
27954.291,-123.047,-37.598,85.938,-40.039,0.000,0
27954.295,-51.758,-38.574,15.625,-95.215,0.000,0
27954.299,-36.133,-35.645,92.285,-135.254,0.000,0
27954.303,-67.383,-27.344,-59.570,-63.965,0.000,0
27954.307,-52.246,-22.461,-248.047,46.387,0.000,0
27954.311,-5.859,-33.203,-87.402,2.930,0.000,0
27954.315,-18.066,-27.832,17.578,-51.270,0.000,0
27954.318,-55.664,-21.973,-89.355,13.672,0.000,0
27954.322,-34.180,-27.344,-143.066,23.438,0.000,0
27954.326,-26.855,-27.344,-84.961,28.809,0.000,0
27954.330,-62.012,-21.973,111.328,1.465,0.000,0
27954.334,-83.984,-13.672,175.293,-73.730,0.000,0
27954.338,-2.441,0.488,-157.227,-17.090,0.000,0
27954.342,29.297,-5.859,-138.184,7.812,0.000,0
27954.346,8.789,-17.090,-88.379,49.805,0.000,0
27954.350,-1.953,-24.902,-42.969,22.461,0.000,0
27954.354,-39.062,-12.695,0.000,-32.715,0.000,0
27954.358,-2.930,4.395,-108.887,38.086,0.000,0
27954.361,44.434,4.883,-53.711,57.129,0.000,0
27954.365,41.992,2.930,-29.785,39.551,0.000,0
27954.369,-2.441,-5.371,-16.113,3.418,0.000,0
27954.373,-41.992,-9.766,32.227,-60.547,0.000,0
27954.377,-46.387,-9.277,62.988,-45.898,0.000,0
27954.381,-45.898,-12.207,14.160,-7.324,0.000,0
27954.385,31.738,-1.953,-195.312,41.992,0.000,0
27954.389,5.859,-11.719,-93.262,3.906,0.000,0
27954.393,-60.547,-30.273,56.152,-57.129,0.000,0
27954.397,-19.531,-26.367,-60.547,-0.977,0.000,0
27954.400,-4.883,-29.297,30.273,-52.246,0.000,0
27954.404,-35.156,-18.066,-150.879,-4.883,0.000,0
27954.408,-50.781,-15.625,-49.805,19.531,0.000,0
27954.412,-32.715,-26.367,128.906,-75.684,0.000,0
27954.416,-38.086,-21.484,-1.465,-48.340,0.000,0
27954.420,-59.570,-9.766,-67.383,22.461,0.000,0
27954.424,-74.219,-15.625,-36.133,49.316,0.000,0
27954.428,-8.301,-37.598,-40.527,-9.766,0.000,0
27954.432,22.949,-29.785,-46.875,-47.363,0.000,0
27954.436,5.371,1.465,-135.742,18.555,0.000,0
27954.440,-15.625,-2.441,-99.609,23.438,0.000,0
27954.443,11.719,-12.207,-95.215,24.902,0.000,0
27954.447,32.715,-20.996,-94.238,-7.324,0.000,0
27954.451,-2.930,-28.809,55.176,-90.332,0.000,0
27954.455,-29.785,-17.578,-19.043,-67.383,0.000,0
27954.459,-14.648,-13.672,-91.309,0.488,0.000,0
27954.463,-1.465,-23.926,-92.285,18.066,0.000,0
27954.467,-62.012,-33.691,30.762,-14.160,0.000,0
27954.471,-101.074,-27.344,141.602,-74.707,0.000,0
27954.475,-12.207,-22.949,-57.617,-57.129,0.000,0
27954.479,30.273,-39.062,-83.008,-60.547,0.000,0
27954.483,-32.715,-44.922,-24.902,-23.926,0.000,0
27954.486,-16.602,-39.062,-118.164,33.691,0.000,0
27954.490,4.395,-52.734,-0.977,-78.613,0.000,0
27954.494,5.371,-47.363,0.977,-64.941,0.000,0
27954.498,6.836,-33.203,-46.387,33.203,0.000,0
27954.502,14.160,-39.062,4.395,-4.883,0.000,0
27954.506,31.250,-33.691,-135.254,-3.906,0.000,0
27954.510,51.270,-38.086,-66.895,-47.852,0.000,0
27954.514,8.301,-40.527,63.477,-54.688,0.000,0
27954.518,8.789,-36.621,-41.016,-27.832,0.000,0
27954.522,20.996,-30.273,-188.477,6.836,0.000,0
27954.525,12.207,-28.320,-85.938,34.668,0.000,0
27954.529,-57.617,-38.574,253.418,-64.453,0.000,0
27954.533,-19.043,-27.832,6.348,-28.809,0.000,0
27954.537,40.039,-26.367,-231.934,37.109,0.000,0
27954.541,16.113,-26.855,-122.559,15.625,0.000,0
27954.545,10.742,-31.250,-39.062,8.789,0.000,0
27954.549,1.953,-50.293,86.914,-84.473,0.000,0
27954.553,-5.859,-32.715,-38.574,-83.496,0.000,0
27954.557,-38.574,-17.090,-38.086,-24.902,0.000,0
27954.561,-47.852,-18.066,2.441,38.086,0.000,0
27954.565,6.348,-14.160,-61.035,58.105,0.000,0
27954.568,30.762,-16.602,67.383,-46.875,0.000,0
27954.572,-40.039,-7.324,51.758,-4.883,0.000,0
27954.576,-19.531,-17.090,-65.430,49.316,0.000,0
27954.580,68.359,-23.438,-113.770,13.184,0.000,0
27954.584,41.504,-7.812,-48.828,27.344,0.000,0
27954.588,-34.668,-10.742,142.090,-43.457,0.000,0
27954.592,-9.277,-13.672,81.055,-67.383,0.000,0
27954.596,68.848,-12.695,-58.105,-12.207,0.000,0
27954.600,50.781,-15.625,-79.590,30.762,0.000,0
27954.604,-1.953,-21.484,-25.391,2.930,0.000,0
27954.608,14.160,-18.555,9.766,-33.691,0.000,0
27954.611,32.715,-7.812,-55.176,23.926,0.000,0
27954.615,-36.133,-20.508,36.621,3.418,0.000,0
27954.619,-36.133,-25.879,-28.809,-15.625,0.000,0
27954.623,54.199,-32.227,-92.285,-23.438,0.000,0
27954.627,51.758,-41.992,62.012,-96.191,0.000,0
27954.631,7.812,-28.809,0.488,-76.172,0.000,0
27954.635,2.930,-20.996,-125.000,-1.465,0.000,0
27954.639,32.715,-20.508,-149.414,12.695,0.000,0
27954.643,12.207,-21.484,-6.836,5.859,0.000,2
27954.647,-41.992,-25.879,144.531,-49.805,0.000,0
27954.650,-51.270,-20.508,-7.324,-61.523,0.000,0
27954.654,-33.203,-20.996,-90.820,-48.828,0.000,0
27954.658,-15.137,-20.020,-42.480,-3.906,0.000,0
27954.662,-38.086,-16.602,-36.621,45.410,0.000,0
27954.666,6.348,-22.949,-83.496,-35.156,0.000,0
27954.670,56.152,-19.043,-188.477,-34.180,0.000,0
27954.674,22.949,-24.902,-106.445,34.180,0.000,0
27954.678,22.461,-28.320,-23.438,9.277,0.000,0
27954.682,36.621,-17.090,-45.410,-6.348,0.000,0
27954.686,18.555,-23.926,-6.348,-47.852,0.000,0
27954.690,8.789,-33.691,7.324,-71.777,0.000,0
27954.693,14.648,-30.273,11.230,-50.781,0.000,0
27954.697,30.273,-22.949,-68.848,-4.395,0.000,0
27954.701,-3.906,-18.555,-118.652,33.203,0.000,0
27954.705,-67.383,-27.832,65.918,-50.781,0.000,0
27954.709,-37.598,-24.414,100.098,-78.613,0.000,0
27954.713,53.223,-14.160,-175.781,10.254,0.000,0
27954.717,38.086,-20.996,-220.703,16.113,0.000,0
27954.721,-25.391,-28.809,-121.582,-5.859,0.000,0
27954.725,-5.371,-36.621,-43.945,-50.781,0.000,0
27954.729,48.828,-28.320,-58.105,-63.477,0.000,0
27954.733,15.137,-20.020,-63.965,-17.578,0.000,0
27954.736,-22.461,-22.949,-109.375,11.719,0.000,0
27954.740,21.484,-20.996,-148.926,33.691,0.000,0
27954.744,15.137,-26.855,-1.465,-39.551,0.000,0
27954.748,-10.254,-20.020,-16.602,-35.645,0.000,0
27954.752,-32.715,-3.418,-103.027,42.969,0.000,0
27954.756,18.066,-6.836,-132.812,19.043,0.000,0
27954.760,64.453,-11.230,-129.395,8.301,0.000,0
27954.764,9.766,-19.531,41.992,-60.547,0.000,0
27954.768,-25.391,-14.648,14.160,-94.727,0.000,0
27954.772,-13.184,-18.066,-145.508,-40.527,0.000,0
27954.775,6.836,-32.227,-141.113,-6.836,0.000,0
27954.779,-18.066,-32.715,-46.875,-2.930,0.000,0
27954.783,-46.387,-41.016,34.180,-62.012,0.000,0
27954.787,-21.484,-36.133,-118.164,-46.387,0.000,0
27954.791,-5.859,-36.621,-125.488,-4.395,0.000,0
27954.795,-62.988,-43.457,74.707,-23.438,0.000,0
27954.799,-67.871,-43.945,8.789,-16.113,0.000,0
27954.803,-17.578,-54.199,-66.895,-83.008,0.000,0
27954.807,-17.090,-46.875,-20.508,-123.047,0.000,0
27954.811,-34.180,-40.039,30.762,-103.516,0.000,0
27954.815,-32.715,-40.039,-70.801,-50.293,0.000,0
27954.818,5.371,-24.902,-259.766,16.602,0.000,0
27954.822,-6.836,-30.762,0.000,-49.805,0.000,0
27954.826,-15.625,-32.715,107.910,-100.586,0.000,0
27954.830,-2.930,-20.020,-69.824,-64.941,0.000,0
27954.834,-12.207,-17.578,-101.074,-53.711,0.000,0
27954.838,-35.156,-21.973,-134.277,8.301,0.000,0
27954.842,-38.086,-35.156,62.500,-29.785,0.000,0
27954.846,-1.953,-22.949,103.027,-89.355,0.000,0
27954.850,20.996,-1.953,-158.203,7.812,0.000,0
27954.854,-22.949,-4.883,-104.980,28.320,0.000,0
27954.858,-43.945,-14.648,14.648,-6.348,0.000,0
27954.861,-23.438,-21.973,-13.672,5.859,0.000,0
27954.865,-3.906,-31.250,-102.539,-50.293,0.000,0
27954.869,-20.508,-27.344,-86.914,-93.750,0.000,0
27954.873,-59.082,-23.438,73.242,-33.691,0.000,0
27954.877,-5.859,-23.926,-74.707,41.504,0.000,0
27954.881,-18.066,-36.133,36.133,-25.879,0.000,0
27954.885,-83.984,-37.109,139.160,-90.820,0.000,0
27954.889,-89.844,-22.461,-28.809,16.602,0.000,0
27954.893,-34.668,-24.414,-19.531,32.715,0.000,0
27954.897,0.977,-28.320,-88.379,8.301,0.000,0
27954.900,-101.562,-33.691,125.488,-38.574,0.000,0
27954.904,-106.934,-31.738,183.594,-108.398,0.000,0
27954.908,22.949,-27.344,-143.066,-60.547,0.000,0
27954.912,-6.836,-34.668,53.223,-72.754,0.000,0
27954.916,-26.367,-26.367,-73.730,-33.203,0.000,0
27954.920,-12.695,-29.785,-259.277,-8.789,0.000,0
27954.924,-6.836,-45.898,-66.895,-68.359,0.000,0
27954.928,0.000,-41.016,-130.371,6.348,0.000,0
27954.932,-55.664,-34.668,49.316,14.160,0.000,0
27954.936,-113.770,-30.273,42.480,0.977,0.000,0
27954.940,-31.250,-31.250,-6.836,-18.555,0.000,0
27954.943,35.156,-26.855,104.004,-83.984,0.000,0
27954.947,-35.156,-20.996,55.664,-72.266,0.000,0
27954.951,-12.695,-30.273,-137.695,-13.184,0.000,0
27954.955,21.973,-40.039,-224.609,2.441,0.000,0
27954.959,-36.621,-37.109,12.207,-29.785,0.000,0
27954.963,-65.430,-36.621,87.891,-53.711,0.000,0
27954.967,-35.645,-34.668,-159.180,-20.020,0.000,0
27954.971,-43.457,-33.203,-146.484,-15.625,0.000,0
27954.975,-62.500,-34.668,-17.578,-26.855,0.000,0
27954.979,-58.594,-32.715,20.020,-13.672,0.000,0
27954.983,-56.641,-37.109,40.527,-64.941,0.000,0
27954.986,-77.637,-40.039,-49.316,-81.543,0.000,0
27954.990,-106.445,-45.410,-15.137,-14.648,0.000,0
27954.994,-70.312,-49.316,-19.043,-6.836,0.000,0
27954.998,3.906,-39.551,-125.977,-5.859,0.000,0
27955.002,-54.688,-35.645,-6.348,-55.664,0.000,0
27955.006,-38.086,-32.227,-28.809,-72.266,0.000,0
27955.010,8.789,-23.438,-76.660,-36.621,0.000,0
27955.014,-3.906,-25.879,-27.832,-26.855,0.000,0
27955.018,-44.922,-23.926,22.949,6.348,0.000,0
27955.022,-58.594,-17.090,-38.086,-18.555,0.000,0
27955.025,-19.531,-22.949,-82.520,-21.484,0.000,0
27955.029,-34.180,-24.902,-73.730,32.715,0.000,0
27955.033,-48.828,-27.832,-67.871,-0.488,0.000,0
27955.037,-100.586,-29.297,-15.137,-13.184,0.000,0
27955.041,-47.852,-28.320,-19.531,-48.340,0.000,0
27955.045,38.574,-17.578,-95.215,-60.547,0.000,0
27955.049,-32.227,-13.184,0.000,-34.180,0.000,0
27955.053,-63.477,-21.973,-55.664,4.883,0.000,0
27955.057,-3.418,-24.902,-163.086,36.621,0.000,0
27955.061,-22.461,-20.996,21.973,-25.879,0.000,0
27955.065,-71.777,-12.207,24.414,-19.043,0.000,0
27955.068,-39.551,-11.719,-156.250,22.461,0.000,0
27955.072,-8.789,-20.508,-112.305,5.371,0.000,0
27955.076,-39.551,-18.555,8.301,13.184,0.000,0
27955.080,-92.773,-17.578,166.992,-56.152,0.000,0
27955.084,-72.754,-14.160,71.289,-83.984,0.000,0
27955.088,0.977,-9.277,-131.836,-22.949,0.000,0
27955.092,0.977,-17.090,-99.121,20.020,0.000,0
27955.096,-16.602,-22.461,-76.172,30.273,0.000,0
27955.100,-27.832,-35.156,2.441,-60.547,0.000,0
27955.104,-11.719,-33.203,-97.168,-43.457,0.000,0
27955.108,-1.465,-36.133,-118.164,5.371,0.000,0
27955.111,-11.719,-41.016,-45.410,-13.672,0.000,0
27955.115,-19.531,-39.062,-50.781,-21.484,0.000,0
27955.119,-46.875,-32.715,32.227,-80.078,0.000,0
27955.123,-35.645,-22.949,-9.277,-33.203,0.000,0
27955.127,-13.672,-27.832,-54.199,21.973,0.000,0
27955.131,-6.348,-24.414,-132.812,29.297,0.000,0
27955.135,24.414,-19.043,-120.117,3.418,0.000,0
27955.139,-32.227,-18.555,165.039,-74.707,0.000,0
27955.143,-14.160,-0.977,47.363,-53.711,0.000,0
27955.147,74.219,8.789,-105.469,-27.832,0.000,0
27955.150,19.043,5.371,-62.500,7.812,0.000,0
27955.154,-23.438,-1.465,8.789,54.688,0.000,0
27955.158,44.434,-3.418,104.980,-29.785,0.000,0
27955.162,73.242,5.371,-26.367,-13.184,0.000,0
27955.166,7.812,3.906,-83.496,52.246,0.000,0
27955.170,-41.504,-6.348,-34.180,54.199,0.000,0
27955.174,19.531,-14.648,-6.348,25.391,0.000,0
27955.178,46.387,-16.602,134.766,-59.570,0.000,0
27955.182,-3.906,-3.418,65.430,-41.992,0.000,0
27955.186,-50.293,-4.883,47.363,-19.043,0.000,0
27955.190,18.066,-15.625,-66.895,7.812,0.000,0
27955.193,55.664,-12.207,-95.703,42.480,0.000,0
27955.197,3.906,-19.043,122.559,-52.734,0.000,0
27955.201,-15.625,-16.602,-17.578,-33.691,0.000,0
27955.205,18.066,-5.859,-116.211,54.688,0.000,0
27955.209,37.109,-4.395,-49.316,35.156,0.000,0
27955.213,-9.277,-6.836,2.930,20.996,0.000,0
27955.217,-41.016,-10.742,16.113,5.371,0.000,0
27955.221,-9.766,-23.926,56.641,-97.656,0.000,0
27955.225,21.973,-28.809,-36.133,-76.172,0.000,0
27955.229,-37.598,-25.391,-66.895,30.762,0.000,0
27955.233,-34.180,-25.391,-97.656,36.133,0.000,0
27955.236,28.809,-22.949,-1.953,-45.898,0.000,0
27955.240,-0.977,-15.137,38.574,-16.602,0.000,0
27955.244,6.348,-19.531,-58.594,37.109,0.000,0
27955.248,37.109,-26.367,-114.746,15.137,0.000,0
27955.252,6.348,-24.902,-118.652,20.020,0.000,0
27955.256,-5.859,-37.109,108.887,-47.363,0.000,0
27955.260,15.625,-25.879,105.957,-62.988,0.000,0
27955.264,-10.254,-9.277,7.324,-5.859,0.000,0
27955.268,-16.602,-14.160,-102.539,35.156,0.000,0
27955.272,7.812,-20.508,-105.957,36.621,0.000,0
27955.275,-65.918,-30.273,215.332,-41.992,0.000,0
27955.279,5.859,-16.113,-42.480,-13.672,0.000,0
27955.283,50.293,-6.836,-207.520,41.016,0.000,0
27955.287,-27.832,-20.996,210.938,-95.215,0.000,0
27955.291,14.648,-3.418,-23.438,-21.973,0.000,0
27955.295,34.668,-0.977,-139.160,35.156,0.000,0
27955.299,-42.969,-13.672,21.484,-57.129,0.000,0
27955.303,-49.805,-10.254,-61.035,-7.324,0.000,0
27955.307,0.000,-15.137,-102.051,35.156,0.000,0
27955.311,-25.879,-18.555,-77.637,34.668,0.000,1
27955.315,-36.133,-24.414,-13.672,-18.555,0.000,0
27955.318,-48.828,-19.043,19.531,-60.059,0.000,0
27955.322,-50.293,-16.113,98.633,-77.148,0.000,0
27955.326,27.832,-10.254,-130.859,-37.598,0.000,0
27955.330,34.668,-11.719,-256.348,21.973,0.000,0
27955.334,-56.152,-17.578,74.219,-42.480,0.000,0
27955.338,-26.855,-5.859,-5.371,-40.527,0.000,0
27955.342,17.578,-6.836,-132.324,28.320,0.000,0
27955.346,11.230,-1.465,-71.289,62.500,0.000,0
27955.350,-38.574,-2.441,-57.129,46.387,0.000,0
27955.354,-64.941,-27.832,-27.832,-8.301,0.000,0
27955.358,-33.203,-31.250,27.344,-52.246,0.000,0
27955.361,-26.367,-16.113,22.461,-27.832,0.000,0
27955.365,-62.988,-9.766,53.711,-9.277,0.000,0
27955.369,9.277,-8.789,-145.020,50.781,0.000,0
27955.373,58.105,-20.020,-111.816,31.250,0.000,0
27955.377,27.344,-23.438,9.766,-39.551,0.000,0
27955.381,17.578,-13.672,-115.723,21.484,0.000,0
27955.385,14.648,-19.043,-163.574,35.156,0.000,0
27955.389,19.043,-26.855,-86.426,18.066,0.000,0
27955.393,-19.043,-26.855,48.340,-1.953,0.000,0
27955.397,-22.461,-21.484,24.902,-59.082,0.000,0
27955.400,-18.555,-14.160,-83.496,-39.062,0.000,0
27955.404,-65.430,-10.254,-12.207,-2.441,0.000,0
27955.408,-82.520,-8.301,5.859,44.434,0.000,0
27955.412,-65.918,-18.555,-9.277,-1.953,0.000,0
27955.416,-51.758,-15.625,-53.711,-78.125,0.000,0
27955.420,-58.594,-4.395,-113.281,6.348,0.000,0
27955.424,-47.852,-11.230,-3.418,11.230,0.000,0
27955.428,-36.133,-8.789,-29.785,2.441,0.000,0
27955.432,-23.438,-16.113,-127.930,13.184,0.000,0
27955.436,-42.969,-26.855,-27.344,-64.941,0.000,0
27955.440,-55.176,-24.902,24.902,-48.340,0.000,0
27955.443,-26.367,-23.926,-52.734,6.836,0.000,0
27955.447,-16.602,-15.625,-145.508,48.340,0.000,0
27955.451,-76.660,-19.043,-11.230,16.113,0.000,0
27955.455,-110.840,-29.785,190.918,-50.293,0.000,0
27955.459,7.812,-19.531,-85.938,11.719,0.000,0
27955.463,53.223,-10.742,-186.035,27.344,0.000,0
27955.467,-15.137,-13.672,-118.652,11.719,0.000,0
27955.471,-24.414,-18.066,33.691,-41.504,0.000,0
27955.475,-25.879,-11.230,101.562,-83.008,0.000,0
27955.479,-3.418,-4.883,-136.719,-15.137,0.000,0
27955.483,-8.789,-13.672,-156.250,12.695,0.000,0
27955.486,-15.625,-18.066,-77.148,12.207,0.000,0
27955.490,-9.766,-18.066,71.777,-47.852,0.000,0
27955.494,-37.598,-7.324,117.188,-87.402,0.000,0
27955.498,-63.477,-1.953,-21.973,-41.504,0.000,0
27955.502,-51.758,-7.812,-16.602,-36.133,0.000,0
27955.506,2.930,-5.371,-114.746,15.625,0.000,0
27955.510,-33.203,-18.555,53.711,-26.367,0.000,0
27955.514,-84.473,-10.254,135.742,-85.449,0.000,0
27955.518,-15.625,6.836,-163.086,2.930,0.000,0
27955.522,12.695,-5.371,-125.977,30.273,0.000,0
27955.525,-29.297,-11.719,0.977,-11.719,0.000,0
27955.529,-53.711,-10.742,59.082,-54.199,0.000,0
27955.533,-74.707,-5.859,5.859,-73.730,0.000,0
27955.537,-41.992,-8.789,-86.426,-50.781,0.000,0
27955.541,-29.297,-11.230,-28.809,-26.855,0.000,0
27955.545,-63.965,-6.836,-88.379,40.039,0.000,0
27955.549,-37.109,-15.625,-52.246,-13.672,0.000,0
27955.553,-6.836,-22.461,16.113,-96.191,0.000,0
27955.557,-70.801,-19.043,5.371,-13.672,0.000,0
27955.561,-70.801,-20.508,-11.719,10.254,0.000,0
27955.565,6.836,-17.090,-219.727,0.000,0.000,0
27955.568,-35.156,-25.879,-17.578,-54.199,0.000,0
27955.572,-28.320,-31.250,107.422,-113.770,0.000,0
27955.576,3.418,-16.602,-65.430,-69.824,0.000,0
27955.580,-12.207,-15.625,-121.094,-29.785,0.000,0
27955.584,-31.250,-18.555,-146.484,10.742,0.000,0
27955.588,-53.711,-18.066,-9.766,1.953,0.000,0
27955.592,-58.594,-18.555,58.105,-38.574,0.000,0
27955.596,-34.668,-12.695,-54.199,-11.719,0.000,0
27955.600,-40.527,-0.488,-63.477,6.836,0.000,0
27955.604,-69.336,0.977,27.832,-5.371,0.000,0
27955.608,-17.578,-16.113,13.672,-37.598,0.000,0
27955.611,26.855,-21.484,18.066,-100.586,0.000,0
27955.615,-28.809,-1.953,-2.930,-79.590,0.000,0
27955.619,-48.340,-11.230,-21.973,-29.297,0.000,0
27955.623,-11.719,-31.738,-98.633,-9.766,0.000,0
27955.627,-45.898,-35.645,81.055,-74.219,0.000,0
27955.631,-90.332,-23.926,152.344,-101.562,0.000,0
27955.635,-53.711,-10.254,-11.719,-45.898,0.000,0
27955.639,-44.922,-9.766,-1.465,-45.410,0.000,0
27955.643,-39.062,-5.371,-47.852,-47.852,0.000,0
27955.647,-86.426,-3.906,-6.348,4.395,0.000,0
27955.650,-135.254,-11.719,104.980,-52.246,0.000,0
27955.654,-49.316,-11.719,-46.875,-69.336,0.000,0
27955.658,-30.273,-18.555,-120.605,-18.555,0.000,0
27955.662,-49.316,-31.250,-149.902,-22.949,0.000,0
27955.666,-66.406,-32.715,-143.066,-33.203,0.000,0
27955.670,-67.383,-37.109,-29.297,-68.848,0.000,0
27955.674,-54.199,-40.039,-15.625,-71.777,0.000,0
27955.678,-62.500,-33.691,-37.598,-55.664,0.000,0
27955.682,-83.496,-26.855,-99.121,-22.461,0.000,0
27955.686,-91.309,-32.715,-111.816,41.016,0.000,0
27955.690,-60.059,-41.016,10.254,-32.715,0.000,0
27955.693,-74.707,-35.156,38.086,-53.711,0.000,0
27955.697,-34.668,-28.809,-195.801,24.414,0.000,0
27955.701,11.230,-34.180,-250.000,7.812,0.000,0
27955.705,-28.809,-35.156,-61.523,-7.812,0.000,0
27955.709,-72.754,-37.109,75.195,-56.152,0.000,0
27955.713,-64.941,-33.691,-22.949,-78.613,0.000,0
27955.717,-36.133,-30.273,-125.977,-51.758,0.000,0
27955.721,-41.992,-33.691,-44.922,-24.414,0.000,0
27955.725,-23.926,-25.391,-103.027,45.410,0.000,0
27955.729,-17.578,-32.227,29.297,-67.871,0.000,0
27955.733,-58.105,-27.832,25.879,-91.309,0.000,0
27955.736,-99.121,-19.043,-57.617,59.082,0.000,0
27955.740,-76.660,-30.762,8.789,33.691,0.000,0
27955.744,-13.184,-30.273,-116.211,11.719,0.000,0
27955.748,-43.457,-35.645,-49.805,-40.527,0.000,0
27955.752,-40.527,-28.809,-22.461,-61.523,0.000,0
27955.756,-10.254,-27.344,-22.461,-24.902,0.000,0
27955.760,-7.324,-32.715,-58.594,12.695,0.000,0
27955.764,-9.277,-23.926,-117.188,44.434,0.000,0
27955.768,-41.504,-20.508,50.781,-22.461,0.000,0
27955.772,-31.738,-21.484,29.785,-19.531,0.000,0
27955.775,23.438,-22.461,-115.723,36.133,0.000,0
27955.779,-9.766,-36.621,-71.289,2.441,0.000,0
27955.783,-62.500,-35.156,-34.180,5.859,0.000,0
27955.787,0.488,-27.832,27.832,-52.246,0.000,0
27955.791,54.688,-34.180,-26.855,-92.285,0.000,0
27955.795,-7.812,-35.645,-25.879,-38.574,0.000,0
27955.799,-32.715,-28.809,-74.707,10.254,0.000,0
27955.803,21.973,-25.391,-135.742,28.809,0.000,0
27955.807,16.602,-36.621,61.035,-47.363,0.000,0
27955.811,-6.836,-28.809,78.613,-37.109,0.000,0
27955.815,0.488,-11.719,-64.941,22.461,0.000,0
27955.818,31.738,-19.531,-125.977,-0.977,0.000,0
27955.822,20.996,-29.785,20.996,-21.484,0.000,0
27955.826,-41.992,-27.832,210.938,-88.867,0.000,0
27955.830,-11.230,-20.996,56.152,-102.539,0.000,0
27955.834,51.270,-20.996,-204.102,-2.441,0.000,0
27955.838,66.895,-25.879,-245.605,58.105,0.000,0
27955.842,17.578,-34.180,-17.090,18.555,0.000,0
27955.846,-12.695,-39.062,76.172,-92.285,0.000,0
27955.850,24.414,-22.461,-64.941,-84.961,0.000,0
27955.854,20.020,-9.277,-21.973,-41.504,0.000,0
27955.858,-23.926,-5.859,-25.879,-17.578,0.000,0
27955.861,-18.066,-5.371,-130.371,26.855,0.000,0
27955.865,-19.043,-19.043,17.578,-78.613,0.000,0
27955.869,-26.855,-19.531,13.672,-72.754,0.000,0
27955.873,-40.039,-19.043,-55.664,15.137,0.000,0
27955.877,-5.371,-17.090,-147.461,16.602,0.000,0
27955.881,7.812,-2.930,-133.301,0.488,0.000,0
27955.885,-51.758,-10.254,197.754,-82.031,0.000,0
27955.889,-22.461,-6.836,66.406,-80.566,0.000,0
27955.893,41.992,2.441,-143.555,-38.086,0.000,0
27955.897,-12.207,-0.977,-133.789,-0.977,0.000,0
27955.900,-42.480,-8.789,-70.801,36.133,0.000,0
27955.904,-0.977,-20.020,94.238,-57.617,0.000,0
27955.908,14.160,-11.719,-28.320,-48.340,0.000,0
27955.912,-5.859,-3.418,-149.414,34.668,0.000,0
27955.916,-38.574,-8.789,-81.055,17.090,0.000,0
27955.920,-34.180,-9.766,6.348,4.883,0.000,0
27955.924,-0.977,-11.230,23.438,-47.363,0.000,0
27955.928,-30.762,-6.836,17.578,-61.523,0.000,0
27955.932,-63.477,0.000,47.852,-17.090,0.000,0
27955.936,17.578,-2.441,-190.430,55.176,0.000,0
27955.940,34.668,-17.578,-103.516,27.344,0.000,0
27955.943,-47.852,-13.672,60.059,-47.363,0.000,0
27955.947,-46.387,1.953,-109.863,6.836,0.000,0
27955.951,20.020,-9.277,-126.465,16.602,0.000,0
27955.955,2.930,-8.789,-52.246,7.324,0.000,0
27955.959,-37.598,-12.207,-0.977,-14.160,0.000,0
27955.963,-42.969,-22.461,27.344,-87.402,0.000,0
27955.967,-30.762,-16.602,-27.832,-69.336,0.000,0
27955.971,-29.297,-24.902,-41.504,-3.418,0.000,0
27955.975,-53.711,-27.832,-53.223,26.367,0.000,0
27955.979,-21.484,-24.414,-131.836,-11.719,0.000,0
27955.983,12.695,-29.785,-96.191,-41.992,0.000,0
27955.986,-14.160,-23.438,-64.941,-3.906,0.000,0
27955.990,-22.461,-18.066,-45.898,-9.277,0.000,0
27955.994,-27.344,-23.438,-113.770,-26.855,0.000,0
27955.998,-45.898,-27.832,-80.566,-20.996,0.000,0
27956.002,-58.105,-24.902,66.895,-67.383,0.000,0
27956.006,-64.941,-13.184,43.945,-69.824,0.000,0
27956.010,-41.992,-10.254,-94.727,-1.465,0.000,0
27956.014,-39.062,-14.160,-139.160,10.254,0.000,0
27956.018,-70.312,-13.184,42.480,3.418,0.000,0
27956.022,-48.828,-9.766,116.211,-51.758,0.000,1
27956.025,46.387,0.000,-130.859,-67.871,0.000,0
27956.029,17.090,-7.324,-119.141,-54.199,0.000,0
27956.033,-39.551,-18.066,7.324,-68.848,0.000,0
27956.037,-15.625,-1.953,-86.914,22.949,0.000,0
27956.041,18.066,-0.488,-99.609,-2.441,0.000,0
27956.045,-30.273,-6.348,-93.262,-41.016,0.000,0
27956.049,-48.340,-17.090,-118.652,28.320,0.000,0
27956.053,-9.766,-38.574,-106.934,-6.836,0.000,0
27956.057,-40.039,-36.133,-94.238,-5.371,0.000,0
27956.061,-103.027,-30.762,66.895,-41.504,0.000,0
27956.065,-114.746,-30.762,130.859,-116.211,0.000,0
27956.068,-52.246,-34.668,-88.379,-83.984,0.000,0
27956.072,0.977,-44.922,-234.375,-35.156,0.000,0
27956.076,-36.621,-38.086,-120.117,19.043,0.000,0
27956.080,-68.359,-34.180,77.148,-44.922,0.000,0
27956.084,-31.738,-29.785,-25.879,-49.316,0.000,0
27956.088,-8.301,-29.785,-108.398,27.344,0.000,0
27956.092,-54.688,-35.156,-14.648,8.301,0.000,0
27956.096,-84.473,-33.691,-33.691,0.000,0.000,0
27956.100,-38.574,-39.062,-7.324,-63.477,0.000,0
27956.104,-5.859,-35.645,-5.859,-101.562,0.000,0
27956.108,-89.844,-32.227,62.012,-51.270,0.000,0
27956.111,-124.023,-33.203,-27.344,-2.441,0.000,0
27956.115,-18.066,-37.109,-212.891,11.719,0.000,0
27956.119,-43.457,-46.875,49.316,-70.312,0.000,0
27956.123,-62.988,-42.480,-16.602,-56.152,0.000,0
27956.127,-29.297,-34.668,-222.168,11.719,0.000,0
27956.131,-29.297,-35.645,-146.484,-8.789,0.000,0
27956.135,-2.930,-33.203,-14.160,-41.016,0.000,0
27956.139,-14.160,-34.668,96.191,-66.406,0.000,0
27956.143,-24.902,-36.133,-109.863,-76.660,0.000,0
27956.147,-56.641,-33.203,-191.406,-47.363,0.000,0
27956.150,-62.500,-35.645,-53.711,17.090,0.000,0
27956.154,-89.844,-29.297,97.656,24.414,0.000,0
27956.158,-91.309,-29.785,131.836,-61.523,0.000,0
27956.162,-57.129,-27.344,-40.527,-53.223,0.000,0
27956.166,-69.336,-22.949,-51.758,5.859,0.000,0
27956.170,-90.820,-32.715,68.848,-22.949,0.000,0
27956.174,-26.855,-30.273,-114.258,-7.324,0.000,0
27956.178,-41.992,-39.062,-16.602,-60.547,0.000,0
27956.182,-96.680,-46.875,109.375,-124.512,0.000,0
27956.186,-54.199,-38.574,-60.547,-44.922,0.000,0
27956.190,-12.207,-34.180,-124.512,-6.348,0.000,0
27956.193,-22.949,-27.344,-150.879,-0.977,0.000,0
27956.197,-74.707,-35.645,62.500,-60.059,0.000,0
27956.201,-84.473,-37.598,156.738,-110.352,0.000,0
27956.205,-27.832,-23.926,-55.176,-46.875,0.000,0
27956.209,-0.488,-21.973,-113.770,-35.156,0.000,0
27956.213,-69.336,-15.137,-58.105,27.832,0.000,0
27956.217,-66.895,-19.043,81.055,-7.812,0.000,0
27956.221,18.066,-29.785,3.906,-91.797,0.000,0
27956.225,15.625,-16.602,-131.348,-4.395,0.000,0
27956.229,-14.160,-16.602,-142.578,39.062,0.000,0
27956.233,-29.785,-32.227,-124.512,22.461,0.000,0
27956.236,-36.133,-38.574,69.824,-62.012,0.000,0
27956.240,-61.035,-25.879,20.020,-75.684,0.000,0
27956.244,-52.734,-19.043,-122.070,-25.879,0.000,0
27956.248,-59.082,-26.367,-60.547,0.977,0.000,0
27956.252,-33.203,-28.809,-85.938,38.086,0.000,0
27956.256,-52.246,-34.668,139.160,-45.898,0.000,0
27956.260,-76.172,-30.273,3.418,-47.852,0.000,0
27956.264,21.484,-27.344,-233.398,19.531,0.000,0
27956.268,20.020,-37.109,-95.215,-10.742,0.000,0
27956.272,-61.035,-43.457,-4.883,-20.020,0.000,0
27956.275,-59.570,-46.387,37.109,-82.520,0.000,0
27956.279,-11.719,-43.457,-44.434,-112.305,0.000,0
27956.283,-9.766,-44.434,-38.086,-65.430,0.000,0
27956.287,-46.387,-43.945,-35.156,-5.859,0.000,0
27956.291,-46.875,-47.363,-93.262,-3.418,0.000,0
27956.295,-56.641,-44.434,4.395,-43.457,0.000,0
27956.299,-82.520,-29.297,46.875,5.371,0.000,0
27956.303,-45.410,-21.484,0.000,24.902,0.000,0
27956.307,12.695,-14.648,-129.395,14.648,0.000,0
27956.311,-14.160,-19.043,-28.320,3.418,0.000,0
27956.315,-10.254,-20.508,96.191,-47.363,0.000,0
27956.318,-0.977,-17.578,14.160,-58.105,0.000,0
27956.322,-14.160,-16.113,-120.605,12.207,0.000,0
27956.326,-31.250,-24.414,-12.207,-9.277,0.000,0
27956.330,-46.387,-33.203,87.402,-40.039,0.000,0
27956.334,-10.254,-29.785,32.715,-54.199,0.000,0
27956.338,-6.836,-22.949,46.875,-94.238,0.000,0
27956.342,-47.852,-13.672,-84.961,-25.879,0.000,0
27956.346,-65.430,-17.578,-16.113,4.395,0.000,0
27956.350,-1.953,-31.250,-89.355,40.039,0.000,0
27956.354,5.371,-42.480,-57.129,-24.902,0.000,0
27956.358,-62.012,-32.227,-8.301,-45.410,0.000,0
27956.361,-23.926,-30.273,-78.613,21.484,0.000,0
27956.365,22.949,-41.504,-111.328,10.742,0.000,0
27956.369,-1.465,-47.852,-63.965,-12.207,0.000,0
27956.373,-54.199,-37.109,41.016,-47.852,0.000,0
27956.377,-42.480,-30.273,-30.273,-60.547,0.000,0
27956.381,8.301,-39.062,-83.984,-46.875,0.000,0
27956.385,-4.395,-39.551,-81.543,-14.648,0.000,0
27956.389,-66.895,-34.668,-45.410,36.133,0.000,0
27956.393,-75.195,-36.621,2.441,-38.086,0.000,0
27956.397,13.184,-25.879,-121.582,-45.898,0.000,0
27956.400,22.461,-18.555,-125.977,27.832,0.000,0
27956.404,-5.859,-20.996,-70.312,16.602,0.000,0
27956.408,-19.531,-11.230,-85.938,7.324,0.000,0
27956.412,-22.461,-22.461,24.414,-50.781,0.000,0
27956.416,-32.227,-35.156,59.082,-82.031,0.000,0
27956.420,-34.180,-39.551,-33.691,-57.129,0.000,0
27956.424,-25.879,-37.598,-140.137,-23.438,0.000,0
27956.428,-6.348,-30.762,-155.273,24.414,0.000,0
27956.432,-17.578,-36.133,28.320,-56.641,0.000,0
27956.436,-50.293,-31.250,21.484,-53.223,0.000,0
27956.440,-57.129,-23.438,-96.191,15.625,0.000,0
27956.443,-24.902,-23.438,-184.570,3.906,0.000,0
27956.447,-37.598,-23.438,-66.895,17.578,0.000,0
27956.451,-99.121,-33.203,137.695,-43.945,0.000,0
27956.455,-23.438,-36.621,-76.172,-90.820,0.000,0
27956.459,-20.508,-36.621,-166.016,-54.688,0.000,0
27956.463,-69.336,-33.691,-39.551,-1.465,0.000,0
27956.467,-34.180,-24.902,-58.594,34.180,0.000,0
27956.471,-28.320,-32.715,11.719,-51.270,0.000,0
27956.475,-80.566,-29.785,-5.859,-47.852,0.000,0
27956.479,-70.312,-23.438,-81.543,17.090,0.000,0
27956.483,-55.664,-29.785,-31.250,-6.348,0.000,0
27956.486,-37.109,-34.668,-99.121,2.441,0.000,0
27956.490,-37.598,-48.828,-41.504,-77.148,0.000,0
27956.494,-101.562,-45.410,115.723,-126.465,0.000,0
27956.498,-79.590,-26.367,25.879,-37.109,0.000,0
27956.502,20.020,-16.113,-153.320,15.625,0.000,0
27956.506,3.906,-18.066,-173.340,20.508,0.000,0
27956.510,-55.176,-26.855,14.160,-43.457,0.000,0
27956.514,-31.250,-26.367,61.523,-95.215,0.000,0
27956.518,-5.371,-25.879,-117.188,-59.570,0.000,0
27956.522,-33.691,-26.367,-60.059,-59.570,0.000,0
27956.525,-63.477,-19.531,-97.168,3.418,0.000,0
27956.529,-61.035,-24.902,-23.926,6.348,0.000,0
27956.533,-48.828,-29.785,65.918,-82.031,0.000,0
27956.537,-52.246,-18.555,-69.824,-8.301,0.000,0
27956.541,-92.773,-22.461,-87.402,14.648,0.000,0
27956.545,-24.414,-21.484,-252.930,22.949,0.000,0
27956.549,30.762,-22.949,-71.777,-3.906,0.000,0
27956.553,-14.648,-18.066,153.809,-67.383,0.000,0
27956.557,2.930,5.859,-58.105,-14.160,0.000,0
27956.561,11.719,4.395,-80.566,-13.672,0.000,0
27956.565,12.695,-8.301,-96.191,24.902,0.000,0
27956.568,2.441,-18.066,46.875,-2.930,0.000,0
27956.572,-26.367,-16.113,132.812,-84.473,0.000,0
27956.576,-39.062,-4.395,-71.289,-1.465,0.000,0
27956.580,10.254,-8.789,-90.332,36.621,0.000,0
27956.584,-13.184,-8.789,4.883,23.438,0.000,0
27956.588,-51.758,-12.207,102.051,-14.648,0.000,0
27956.592,-9.766,-18.555,19.531,-84.473,0.000,0
27956.596,-15.625,-17.578,-45.898,-51.270,0.000,0
27956.600,-5.371,-23.926,-43.945,-16.602,0.000,0
27956.604,2.930,-32.227,-156.738,26.855,0.000,0
27956.608,-15.137,-38.574,-103.027,-3.418,0.000,0
27956.611,-41.504,-37.598,56.152,-62.012,0.000,0
27956.615,-30.762,-27.832,-58.105,9.277,0.000,0
27956.619,-4.883,-27.344,-103.027,35.645,0.000,0
27956.623,-19.531,-24.414,-89.844,36.621,0.000,0
27956.627,-62.988,-24.902,-3.418,4.883,0.000,0
27956.631,-64.941,-24.902,142.578,-79.590,0.000,0
27956.635,32.715,-8.301,-60.059,-57.617,0.000,0
27956.639,45.898,0.488,-175.293,-1.953,0.000,0
27956.643,-39.062,-20.020,-62.500,-28.809,0.000,0
27956.647,-39.551,-33.203,-19.531,-24.414,0.000,0
27956.650,-9.277,-24.902,-23.926,-2.441,0.000,0
27956.654,-15.625,-15.625,-102.539,23.438,0.000,0
27956.658,-30.273,-23.438,-139.648,33.203,0.000,0
27956.662,-13.672,-29.297,-80.566,18.555,0.000,0
27956.666,4.395,-20.020,-22.949,33.691,0.000,0
27956.670,-10.742,-18.066,26.855,-32.227,0.000,0
27956.674,-70.801,-13.672,68.359,-55.176,0.000,0
27956.678,-71.777,-5.371,9.766,22.949,0.000,0
27956.682,39.062,-4.883,-155.273,41.504,0.000,0
27956.686,27.344,-15.625,-85.449,15.625,0.000,0
27956.690,-36.133,-22.949,-8.789,-45.898,0.000,1
27956.693,-27.832,-15.137,-77.637,-60.547,0.000,0
27956.697,1.465,-18.555,-58.105,-45.898,0.000,0
27956.701,-7.812,-21.484,-38.086,-19.043,0.000,0
27956.705,-35.645,-25.879,-77.148,24.902,0.000,0
27956.709,-62.500,-41.992,-38.086,-48.828,0.000,0
27956.713,-67.383,-38.574,-11.230,-60.059,0.000,0
27956.717,-53.711,-24.902,-49.805,24.902,0.000,0
27956.721,-54.688,-24.414,-59.570,31.738,0.000,0
27956.725,-35.645,-20.996,-127.441,15.137,0.000,0
27956.729,-13.184,-24.902,-69.824,-37.109,0.000,0
27956.733,-27.832,-35.645,26.855,-68.359,0.000,0
27956.736,-35.645,-35.645,13.672,-54.199,0.000,0
27956.740,-20.996,-27.832,-163.574,-8.301,0.000,0
27956.744,-25.391,-29.785,-68.359,-16.113,0.000,0
27956.748,-45.410,-35.156,182.129,-99.609,0.000,0
27956.752,-19.531,-11.719,-25.391,-25.879,0.000,0
27956.756,11.230,-5.859,-203.125,50.781,0.000,0
27956.760,-27.832,-22.949,-130.859,22.949,0.000,0
27956.764,-86.914,-22.461,55.664,13.184,0.000,0
27956.768,-81.055,-29.297,122.559,-45.410,0.000,0
27956.772,-16.602,-26.855,-65.430,-70.801,0.000,0
27956.775,-12.695,-17.090,-123.535,-46.387,0.000,0
27956.779,-22.461,-20.508,-84.473,-12.695,0.000,0
27956.783,2.930,-21.973,-117.676,33.691,0.000,0
27956.787,-6.836,-34.180,-17.090,-57.617,0.000,0
27956.791,-36.133,-40.039,-70.801,-71.289,0.000,0
27956.795,-29.297,-35.645,-125.000,-1.953,0.000,0
27956.799,-12.695,-37.109,-81.055,-15.137,0.000,0
27956.803,-19.043,-31.250,-89.844,-1.953,0.000,0
27956.807,-50.293,-30.273,16.113,-56.152,0.000,0
27956.811,-79.590,-28.320,51.270,-96.191,0.000,0
27956.815,-65.918,-25.879,-22.461,-44.434,0.000,0
27956.818,-11.230,-24.902,-141.113,-1.953,0.000,0
27956.822,-17.578,-13.184,-118.652,24.902,0.000,0
27956.826,-103.027,-25.391,135.254,-51.758,0.000,0
27956.830,-72.754,-31.738,29.785,-62.500,0.000,0
27956.834,5.371,-18.555,-152.344,10.742,0.000,0
27956.838,-1.953,-16.602,-41.016,-7.812,0.000,0
27956.842,-21.973,-11.719,-100.098,12.695,0.000,0
27956.846,-18.555,-31.738,52.246,-66.895,0.000,0
27956.850,-32.227,-44.434,166.504,-151.367,0.000,0
27956.854,-34.668,-26.855,-112.305,-14.160,0.000,0
27956.858,-52.246,-23.438,-98.145,35.156,0.000,0
27956.861,-17.578,-25.879,-123.047,21.973,0.000,0
27956.865,8.301,-31.250,42.480,-41.992,0.000,0
27956.869,-47.363,-19.531,215.332,-83.496,0.000,0
27956.873,-47.852,-2.930,9.766,-18.555,0.000,0
27956.877,20.508,-7.812,-109.863,-17.578,0.000,0
27956.881,3.418,-17.090,-89.355,30.762,0.000,0
27956.885,-11.230,-30.762,32.227,6.836,0.000,0
27956.889,-50.293,-31.738,102.539,-84.473,0.000,0
27956.893,-49.805,-19.531,-131.836,-11.719,0.000,0
27956.897,-16.602,-33.691,-130.859,19.043,0.000,0
27956.900,-52.246,-38.574,-50.293,-1.953,0.000,0
27956.904,-76.660,-34.180,49.316,-41.504,0.000,0
27956.908,-40.527,-36.133,0.977,-104.492,0.000,0
27956.912,-21.973,-37.109,-78.125,-76.660,0.000,0
27956.916,-87.891,-35.645,121.582,-48.828,0.000,0
27956.920,-29.297,-24.902,-101.562,19.043,0.000,0
27956.924,23.438,-22.949,-104.492,-2.441,0.000,0
27956.928,-45.898,-29.785,138.184,-78.613,0.000,0
27956.932,-52.246,-29.297,-6.836,-2.930,0.000,0
27956.936,2.930,-28.320,-104.492,29.297,0.000,0
27956.940,-18.555,-29.297,-98.145,4.395,0.000,0
27956.943,-81.543,-33.203,37.598,-25.879,0.000,0
27956.947,-82.031,-31.250,162.598,-83.496,0.000,0
27956.951,-48.340,-15.137,20.020,-50.293,0.000,0
27956.955,-39.062,-13.672,-49.805,-8.789,0.000,0
27956.959,-66.406,-15.137,-31.738,18.555,0.000,0
27956.963,-46.875,-17.578,-6.836,23.438,0.000,0
27956.967,35.156,-24.902,-42.969,-22.461,0.000,0
27956.971,7.324,-18.066,-106.934,14.160,0.000,0
27956.975,-40.527,-21.484,-116.699,25.879,0.000,0
27956.979,-3.418,-23.926,-103.027,14.648,0.000,0
27956.983,10.742,-23.438,-20.508,14.160,0.000,0
27956.986,-8.789,-27.832,60.547,-50.293,0.000,0
27956.990,-22.949,-15.137,-28.809,-55.176,0.000,0
27956.994,-33.203,-13.184,-76.172,-0.977,0.000,0
27956.998,-49.316,-24.902,-79.590,21.484,0.000,0
27957.002,-43.457,-26.367,-14.160,2.930,0.000,0
27957.006,-91.309,-19.043,68.848,-19.531,0.000,0
27957.010,-44.434,-12.695,-145.996,25.391,0.000,0
27957.014,44.922,-14.160,-169.434,34.668,0.000,0
27957.018,-13.672,-16.113,-2.441,9.277,0.000,0
27957.022,-37.598,-15.137,-1.465,20.020,0.000,0
27957.025,1.465,-21.973,-67.383,-37.598,0.000,0
27957.029,12.695,-20.020,-40.527,-57.617,0.000,0
27957.033,-11.719,-25.391,5.371,4.883,0.000,0
27957.037,-12.695,-24.414,-58.594,39.062,0.000,0
27957.041,-5.371,-15.625,-82.031,4.395,0.000,0
27957.045,-27.344,-22.949,93.262,-75.684,0.000,0
27957.049,-55.176,-8.789,139.648,-43.457,0.000,0
27957.053,-3.906,-1.465,-73.730,-4.395,0.000,0
27957.057,6.836,-9.766,-186.035,23.926,0.000,0
27957.061,-44.434,-18.555,-42.480,14.648,0.000,0
27957.065,-45.410,-23.438,-21.973,-41.016,0.000,0
27957.068,-23.438,-18.066,-140.625,11.719,0.000,0
27957.072,-2.441,-10.742,-201.172,50.293,0.000,0
27957.076,-15.137,-8.789,-96.191,33.203,0.000,0
27957.080,-16.113,-2.930,27.344,26.855,0.000,0
27957.084,16.602,-2.441,6.836,-30.273,0.000,0
27957.088,9.277,4.883,-77.148,-29.785,0.000,0
27957.092,-62.988,2.441,10.742,-5.859,0.000,0
27957.096,-60.059,-8.301,-9.766,42.480,0.000,0
27957.100,13.184,-19.043,-75.684,27.832,0.000,0
27957.104,-7.812,-24.902,-7.324,-52.246,0.000,0
27957.108,-55.176,-12.207,-37.598,9.766,0.000,0
27957.111,-17.578,-15.625,-58.594,29.297,0.000,0
27957.115,13.184,-17.578,-62.500,6.836,0.000,0
27957.119,-19.043,-25.391,1.465,-25.879,0.000,0
27957.123,-68.359,-29.785,66.895,-100.586,0.000,0
27957.127,-39.551,-13.672,-15.625,-78.125,0.000,0
27957.131,-6.348,-6.836,-27.344,-33.203,0.000,0
27957.135,-9.277,-8.301,-62.012,27.344,0.000,0
27957.139,-47.363,-20.020,-49.805,24.414,0.000,0
27957.143,-63.965,-33.203,104.492,-76.172,0.000,0
27957.147,4.395,-22.461,-116.211,-20.508,0.000,0
27957.150,-8.301,-17.578,-126.465,18.555,0.000,0
27957.154,-116.211,-19.531,89.355,-0.488,0.000,0
27957.158,-68.848,-27.832,-11.230,-25.879,0.000,0
27957.162,-3.418,-31.738,-39.551,-91.309,0.000,0
27957.166,-12.695,-18.555,-110.352,-32.227,0.000,0
27957.170,-30.762,-22.949,-145.020,14.648,0.000,0
27957.174,-24.902,-32.715,-167.480,17.578,0.000,0
27957.178,-30.762,-36.133,70.801,-56.152,0.000,0
27957.182,-60.547,-27.832,99.609,-68.359,0.000,0
27957.186,-56.152,-25.391,-121.094,3.906,0.000,0
27957.190,-53.223,-33.203,-97.656,-26.367,0.000,0
27957.193,-47.852,-32.227,-41.016,-11.719,0.000,0
27957.197,-60.059,-38.574,130.371,-54.199,0.000,0
27957.201,-4.883,-34.180,16.602,-112.305,0.000,0
27957.205,23.926,-19.043,-206.055,-22.949,0.000,0
27957.209,-32.227,-23.438,-76.172,30.273,0.000,0
27957.213,-20.508,-20.508,-48.340,23.438,0.000,0
27957.217,3.418,-13.184,33.691,-30.762,0.000,0
27957.221,-9.277,-4.883,66.895,-76.660,0.000,0
27957.225,-9.766,-3.906,-37.109,-36.621,0.000,0
27957.229,-22.461,-17.090,44.922,-41.504,0.000,0
27957.233,-41.992,-21.973,-49.316,8.301,0.000,1
27957.236,-38.574,-31.250,-58.105,-14.648,0.000,0
27957.240,-72.266,-34.668,115.723,-100.586,0.000,0
27957.244,-61.035,-32.227,-26.855,-17.090,0.000,0
27957.248,14.160,-40.039,-175.781,19.043,0.000,0
27957.252,-16.113,-44.922,-147.461,-3.906,0.000,0
27957.256,-53.711,-40.039,-35.156,-31.738,0.000,0
27957.260,-41.504,-43.945,221.191,-143.555,0.000,0
27957.264,-8.789,-44.922,-16.602,-119.629,0.000,0
27957.268,-17.090,-45.898,-264.648,-32.715,0.000,0
27957.272,-68.359,-51.270,-115.723,-2.441,0.000,0
27957.275,-48.828,-49.316,-38.086,5.371,0.000,0
27957.279,-27.344,-45.898,69.824,-54.199,0.000,0
27957.283,-34.180,-33.691,28.320,-30.762,0.000,0
27957.287,-51.758,-31.250,-45.410,7.812,0.000,0
27957.291,8.789,-28.809,-117.188,1.465,0.000,0
27957.295,34.668,-25.391,-36.133,-16.602,0.000,0
27957.299,-10.742,-29.297,114.746,-87.402,0.000,0
27957.303,-9.277,-25.391,-22.461,-76.172,0.000,0
27957.307,3.906,-30.273,-119.629,-27.832,0.000,0
27957.311,22.461,-24.414,-118.652,21.484,0.000,0
27957.315,-8.301,-24.414,5.859,-7.812,0.000,0
27957.318,-35.156,-25.391,46.875,-64.941,0.000,0
27957.322,-13.184,-10.254,-121.582,1.953,0.000,0
27957.326,-19.531,-19.043,-68.848,7.812,0.000,0
27957.330,-59.570,-24.902,63.477,-38.086,0.000,0
27957.334,-57.129,-10.254,-9.766,-0.488,0.000,0
27957.338,9.277,-18.066,-141.113,-42.969,0.000,0
27957.342,-2.930,-34.668,-99.121,-84.473,0.000,0
27957.346,-6.836,-31.738,-81.055,-20.996,0.000,0
27957.350,7.812,-21.973,-147.949,22.461,0.000,0
27957.354,-11.230,-20.508,-126.953,-1.465,0.000,0
27957.358,-45.410,-31.250,-67.871,-20.020,0.000,0
27957.361,-37.109,-40.039,-10.742,-40.039,0.000,0
27957.365,0.000,-38.086,-61.035,-60.547,0.000,0
27957.369,-9.277,-22.949,-232.422,-7.324,0.000,0
27957.373,-59.570,-20.996,-61.523,-8.789,0.000,0
27957.377,-67.871,-30.762,82.520,-78.125,0.000,0
27957.381,-12.207,-30.762,-44.922,-85.449,0.000,0
27957.385,12.207,-25.879,-185.059,-13.184,0.000,0
27957.389,-23.926,-25.879,-123.535,0.977,0.000,0
27957.393,-42.969,-29.785,2.441,-4.395,0.000,0
27957.397,-31.738,-38.574,20.020,-60.059,0.000,0
27957.400,-3.906,-41.016,-94.238,-98.633,0.000,0
27957.404,-47.852,-30.762,-55.176,-67.871,0.000,0
27957.408,-54.199,-33.691,-37.598,-30.273,0.000,0
27957.412,7.812,-38.574,-137.695,27.832,0.000,0
27957.416,-10.742,-40.527,-10.742,-28.320,0.000,0
27957.420,-59.082,-31.738,-16.113,-54.688,0.000,0
27957.424,-58.105,-27.344,-96.191,3.418,0.000,0
27957.428,1.465,-28.809,-80.566,-3.906,0.000,0
27957.432,30.273,-29.297,-99.609,-5.371,0.000,0
27957.436,-66.895,-35.156,92.773,-67.871,0.000,0
27957.440,-66.895,-33.203,33.203,-101.074,0.000,0
27957.443,24.902,-29.297,-116.211,-75.195,0.000,0
27957.447,3.906,-34.180,-58.105,-42.969,0.000,0
27957.451,-22.949,-36.133,-102.051,8.301,0.000,0
27957.455,-22.461,-39.551,-29.297,-72.754,0.000,0
27957.459,7.324,-37.109,-41.992,-70.801,0.000,0
27957.463,8.789,-32.715,-74.219,7.812,0.000,0
27957.467,-28.320,-31.250,-19.531,3.418,0.000,0
27957.471,-34.180,-32.715,50.781,-53.711,0.000,0
27957.475,2.441,-34.668,99.609,-98.145,0.000,0
27957.479,-3.418,-21.484,46.387,-46.875,0.000,0
27957.483,0.000,-17.090,-35.156,-12.695,0.000,0
27957.486,43.945,-20.020,-250.000,41.016,0.000,0
27957.490,35.156,-31.738,-78.613,10.254,0.000,0
27957.494,-1.465,-35.645,148.926,-74.219,0.000,0
27957.498,44.922,-22.949,-78.613,0.488,0.000,0
27957.502,54.199,-16.602,-148.438,34.180,0.000,0
27957.506,37.598,-12.695,-24.414,15.137,0.000,0
27957.510,31.250,-12.695,44.434,17.090,0.000,0
27957.514,8.789,-20.508,132.324,-59.082,0.000,0
27957.518,18.066,-7.324,21.973,-71.289,0.000,0
27957.522,14.648,-1.465,-62.988,1.953,0.000,0
27957.525,-34.668,-12.695,54.688,30.273,0.000,0
27957.529,31.250,-26.367,-33.203,-11.230,0.000,0
27957.533,18.066,-39.062,43.457,-79.590,0.000,0
27957.537,-27.832,-27.832,-50.781,-15.137,0.000,0
27957.541,33.203,-26.367,-111.328,11.719,0.000,0
27957.545,44.922,-33.203,-68.848,-9.277,0.000,0
27957.549,16.113,-33.691,-51.270,-5.371,0.000,0
27957.553,-23.438,-36.621,119.629,-87.402,0.000,0
27957.557,-13.184,-27.344,37.109,-71.289,0.000,0
27957.561,-4.395,-15.137,-43.945,20.996,0.000,0
27957.565,23.926,-25.879,-147.461,17.578,0.000,0
27957.568,-21.484,-33.203,-61.523,9.766,0.000,0
27957.572,-75.195,-41.504,234.863,-94.238,0.000,0
27957.576,32.227,-37.109,-53.223,-98.633,0.000,0
27957.580,61.035,-34.668,-193.848,-30.762,0.000,0
27957.584,-26.367,-37.109,2.930,-26.367,0.000,0
27957.588,-23.926,-36.621,-96.191,24.902,0.000,0
27957.592,11.719,-44.434,55.664,-51.758,0.000,0
27957.596,-27.344,-34.180,96.680,-66.406,0.000,0
27957.600,-13.672,-24.414,-104.492,7.324,0.000,0
27957.604,24.902,-28.809,-137.207,-7.812,0.000,0
27957.608,-0.977,-31.738,-61.523,-15.625,0.000,0
27957.611,-35.156,-33.691,77.148,-40.039,0.000,0
27957.615,-59.082,-35.645,113.281,-82.031,0.000,0
27957.619,-6.836,-31.738,-118.652,-65.430,0.000,0
27957.623,15.625,-32.715,-170.898,-20.020,0.000,0
27957.627,3.906,-26.855,-108.398,25.879,0.000,0
27957.631,7.324,-22.949,34.180,-31.250,0.000,0
27957.635,6.348,-15.625,-41.992,-53.223,0.000,0
27957.639,20.508,-16.602,-161.133,19.043,0.000,0
27957.643,15.625,-29.297,-41.992,10.742,0.000,0
27957.647,6.348,-29.785,-40.527,6.836,0.000,0
27957.650,-3.418,-27.344,-13.672,-27.832,0.000,0
27957.654,-23.438,-28.320,16.113,-71.777,0.000,0
27957.658,-28.809,-30.762,-2.441,-30.273,0.000,0
27957.662,3.906,-33.203,-82.520,18.066,0.000,0
27957.666,40.039,-36.621,-171.875,29.297,0.000,0
27957.670,0.488,-39.551,-41.016,-17.090,0.000,0
27957.674,-34.668,-29.785,115.723,-34.668,0.000,0
27957.678,11.719,-16.113,-33.691,16.113,0.000,0
27957.682,62.012,-14.648,-173.340,37.109,0.000,0
27957.686,11.719,-18.066,-102.051,19.043,0.000,0
27957.690,-12.695,-30.762,30.762,-21.973,0.000,0
27957.693,41.992,-36.133,9.277,-76.172,0.000,0
27957.697,38.086,-33.203,-78.613,-54.688,0.000,0
27957.701,-37.598,-43.945,-82.031,-3.418,0.000,0
27957.705,-80.078,-41.504,7.812,5.371,0.000,0
27957.709,-8.301,-38.086,-5.371,-37.598,0.000,0
27957.713,9.766,-36.621,-3.418,-77.148,0.000,0
27957.717,-19.043,-23.926,-34.668,-46.875,0.000,0
27957.721,-9.277,-25.879,-88.379,-48.340,0.000,0
27957.725,18.555,-25.879,-105.469,0.000,0.000,0
27957.729,22.461,-23.438,-70.801,23.438,0.000,0
27957.733,-19.531,-36.621,-9.766,-57.129,0.000,0
27957.736,-49.805,-27.832,-93.750,-19.043,0.000,0
27957.740,-14.160,-25.879,-109.863,27.344,0.000,0
27957.744,11.230,-25.391,-57.129,25.391,0.000,0
27957.748,-53.711,-19.043,77.637,13.184,0.000,0
27957.752,-73.242,-21.973,97.656,-65.430,0.000,0
27957.756,20.508,-18.555,-75.195,-55.176,0.000,0
27957.760,29.785,-8.789,-13.672,-17.090,0.000,0
27957.764,-26.855,-6.348,8.789,28.809,0.000,0
27957.768,-27.832,-27.344,-50.293,6.836,0.000,0
27957.772,-28.809,-30.762,18.555,-56.152,0.000,0
27957.775,-46.875,-28.809,63.477,-15.625,0.000,0
27957.779,-39.551,-40.039,26.855,-12.695,0.000,0
27957.783,-3.418,-34.668,-147.949,25.391,0.000,0
27957.787,-27.344,-41.992,-79.102,14.160,0.000,0
27957.791,-41.016,-51.758,68.848,-72.266,0.000,0
27957.795,-48.828,-43.457,35.156,-55.176,0.000,0
27957.799,-45.898,-39.062,-35.156,-22.949,0.000,0
27957.803,-25.879,-34.668,-173.828,16.602,0.000,0
27957.807,-50.781,-39.062,-25.391,-0.977,0.000,0
27957.811,-104.492,-46.387,180.664,-71.777,0.000,0
27957.815,-50.781,-30.762,-88.867,-3.906,0.000,0
27957.818,-11.230,-28.320,-276.367,10.254,0.000,0
27957.822,-29.297,-29.785,-167.969,-7.812,0.000,0
27957.826,-67.871,-30.273,84.961,-6.836,0.000,0
27957.830,-65.430,-37.109,154.297,-74.707,0.000,0
27957.834,-69.824,-23.438,17.090,-47.363,0.000,0
27957.838,-71.777,-14.648,-13.672,10.254,0.000,0
27957.842,-56.641,-12.207,-34.668,52.734,0.000,1
27957.846,-18.555,-25.391,-45.410,21.973,0.000,0
27957.850,-37.109,-45.410,70.312,-69.824,0.000,0
27957.854,-113.281,-28.809,11.719,-11.230,0.000,0
27957.858,-90.332,-33.203,-40.039,10.254,0.000,0
27957.861,-16.113,-43.945,-129.395,-3.906,0.000,0
27957.865,-53.711,-41.504,-55.664,-12.695,0.000,0
27957.869,-114.746,-48.340,142.578,-116.699,0.000,0
27957.873,-63.965,-38.086,-23.438,-87.402,0.000,0
27957.877,-8.301,-31.738,-70.801,-17.090,0.000,0
27957.881,-34.668,-37.598,80.566,-51.758,0.000,0
27957.885,-64.453,-27.832,-60.059,16.113,0.000,0
27957.889,-67.871,-34.180,21.484,-36.621,0.000,0
27957.893,-53.711,-37.109,17.578,-79.102,0.000,0
27957.897,-61.523,-40.039,-36.133,-41.504,0.000,0
27957.900,-105.469,-36.133,20.508,-28.320,0.000,0
27957.904,-47.852,-30.762,-170.410,22.461,0.000,0
27957.908,-14.160,-54.199,-8.301,-66.895,0.000,0
27957.912,-41.504,-53.223,-5.859,-69.336,0.000,0
27957.916,-57.129,-48.828,-177.246,16.602,0.000,0
27957.920,-53.711,-52.734,-189.941,5.371,0.000,0
27957.924,-47.363,-50.293,-88.867,-9.277,0.000,0
27957.928,-63.965,-51.758,167.480,-76.660,0.000,0
27957.932,-32.715,-37.109,39.062,-82.031,0.000,0
27957.936,-50.293,-21.973,-79.102,-48.340,0.000,0
27957.940,-43.457,-29.297,-61.035,-28.320,0.000,0
27957.943,-29.785,-30.273,-19.531,31.738,0.000,0
27957.947,-53.223,-35.645,140.137,-42.969,0.000,0
27957.951,-26.367,-26.855,-30.762,-50.781,0.000,0
27957.955,-3.906,-20.508,-157.715,32.227,0.000,0
27957.959,-21.973,-32.715,-14.160,11.719,0.000,0
27957.963,-15.137,-37.109,-44.434,1.953,0.000,0
27957.967,-11.719,-38.086,-7.324,-49.805,0.000,0
27957.971,-45.898,-34.668,-1.953,-83.008,0.000,0
27957.975,-41.992,-33.691,-13.184,-38.086,0.000,0
27957.979,-9.766,-33.203,-56.641,0.977,0.000,0
27957.983,-45.410,-36.621,-150.391,38.574,0.000,0
27957.986,-94.238,-48.340,8.789,-35.156,0.000,0
27957.990,-113.281,-43.457,156.250,-108.887,0.000,0
27957.994,-23.926,-28.320,-183.105,-0.977,0.000,0
27957.998,29.785,-32.715,-226.562,9.766,0.000,0
27958.002,-20.020,-33.203,-139.160,-5.859,0.000,0
27958.006,-31.250,-31.738,-23.926,-25.391,0.000,0
27958.010,-24.414,-38.574,49.316,-77.637,0.000,0
27958.014,-10.254,-44.434,-75.684,-57.617,0.000,0
27958.018,-10.254,-46.875,-151.367,-13.184,0.000,0
27958.022,-13.672,-49.805,-158.691,-1.465,0.000,0
27958.025,-9.766,-56.152,-37.109,-41.016,0.000,0
27958.029,-40.527,-55.664,1.465,-53.711,0.000,0
27958.033,-49.805,-44.922,-77.148,-13.184,0.000,0
27958.037,-56.152,-45.410,-81.055,-26.367,0.000,0
27958.041,1.465,-42.969,-103.516,-26.367,0.000,0
27958.045,17.090,-35.645,-16.602,-32.227,0.000,0
27958.049,-14.160,-28.320,64.453,-77.637,0.000,0
27958.053,-13.672,-24.902,-62.500,-46.387,0.000,0
27958.057,19.043,-26.855,-127.930,19.043,0.000,0
27958.061,29.297,-28.809,-50.781,36.133,0.000,0
27958.065,-18.066,-29.785,78.613,6.836,0.000,0
27958.068,-41.504,-22.461,51.758,-50.781,0.000,0
27958.072,-0.488,-21.484,-42.969,-43.945,0.000,0
27958.076,0.488,-23.438,22.949,-28.320,0.000,0
27958.080,-51.270,-10.742,87.402,23.926,0.000,0
27958.084,12.695,-7.812,-113.770,50.781,0.000,0
27958.088,37.109,-18.555,-69.824,-60.059,0.000,0
27958.092,-1.953,-19.531,85.449,-76.172,0.000,0
27958.096,19.043,-11.230,-101.074,40.527,0.000,0
27958.100,39.551,-18.555,-180.664,41.504,0.000,0
27958.104,2.441,-27.832,-87.891,-2.930,0.000,0
27958.108,-12.695,-33.691,0.977,-56.641,0.000,0
27958.111,13.184,-27.344,-51.758,-45.410,0.000,0
27958.115,12.695,-25.391,-86.914,-31.738,0.000,0
27958.119,-26.367,-28.809,-166.992,17.578,0.000,0
27958.123,-79.590,-37.598,-21.973,-2.930,0.000,0
27958.127,-101.562,-37.598,131.348,-87.402,0.000,0
27958.131,-28.320,-23.926,-115.723,-14.160,0.000,0
27958.135,4.395,-26.367,-199.707,20.508,0.000,0
27958.139,-41.504,-31.738,-57.617,8.789,0.000,0
27958.143,-28.809,-31.250,12.695,-11.230,0.000,0
27958.147,-1.465,-28.320,6.348,-87.402,0.000,0
27958.150,-25.879,-18.066,-61.523,-67.871,0.000,0
27958.154,-74.219,-17.090,-2.441,-37.109,0.000,0
27958.158,-16.602,-22.461,-93.750,11.719,0.000,0
27958.162,6.348,-32.227,-60.059,-12.695,0.000,0
27958.166,-50.781,-31.738,70.801,-96.191,0.000,0
27958.170,-78.125,-13.184,-62.012,-7.324,0.000,0
27958.174,-33.691,-26.855,-103.027,16.113,0.000,0
27958.178,-8.301,-36.133,-89.844,-12.695,0.000,0
27958.182,-44.434,-34.180,33.691,-39.551,0.000,0
27958.186,-81.055,-35.156,111.816,-106.934,0.000,0
27958.190,-47.363,-23.926,23.926,-79.102,0.000,0
27958.193,-3.418,-34.668,67.383,-83.984,0.000,0
27958.197,-6.348,-30.273,-164.062,15.137,0.000,0
27958.201,-69.336,-27.832,-81.055,28.809,0.000,0
27958.205,-48.828,-40.039,61.523,-83.984,0.000,0
27958.209,7.812,-20.020,-100.586,-6.348,0.000,0
27958.213,-10.742,-14.648,-41.992,20.996,0.000,0
27958.217,-47.852,-19.531,-8.789,-3.418,0.000,0
27958.221,-32.715,-16.602,-78.613,1.465,0.000,0
27958.225,-10.254,-31.250,96.680,-90.332,0.000,0
27958.229,-61.035,-38.574,123.047,-93.262,0.000,0
27958.233,-76.172,-27.832,-44.922,-18.066,0.000,0
27958.236,-22.461,-23.438,-183.105,11.230,0.000,0
27958.240,-16.113,-36.621,-153.320,-1.953,0.000,0
27958.244,-68.359,-54.199,163.086,-93.262,0.000,0
27958.248,-74.219,-43.945,106.934,-86.426,0.000,0
27958.252,-18.555,-27.832,-125.977,-48.828,0.000,0
27958.256,-36.621,-28.320,-49.805,-39.551,0.000,0
27958.260,-64.941,-34.668,12.207,10.742,0.000,0
27958.264,-66.406,-32.715,41.016,-58.594,0.000,0
27958.268,-39.062,-16.602,-122.559,-34.180,0.000,0
27958.272,-66.406,-13.672,-31.738,39.062,0.000,0
27958.275,-68.848,-22.949,15.137,20.508,0.000,0
27958.279,0.977,-24.414,-57.129,-11.719,0.000,0
27958.283,-19.531,-24.902,30.762,-82.031,0.000,0
27958.287,-24.902,-29.297,-110.840,-50.781,0.000,0
27958.291,-28.809,-40.039,14.648,-53.223,0.000,0
27958.295,-27.832,-28.320,-24.414,-20.996,0.000,0
27958.299,-6.836,-14.648,-229.980,44.922,0.000,0
27958.303,-53.711,-33.691,37.598,-47.852,0.000,0
27958.307,-65.430,-40.039,12.695,-15.625,0.000,0
27958.311,-59.570,-44.434,-83.496,27.832,0.000,0
27958.315,-78.613,-48.340,-69.336,11.719,0.000,0
27958.318,-107.422,-43.457,8.301,6.836,0.000,0
27958.322,-50.293,-46.387,19.531,-60.059,0.000,0
27958.326,16.113,-44.922,-98.633,-69.824,0.000,0
27958.330,-58.105,-49.805,24.902,-64.941,0.000,0
27958.334,-71.289,-45.898,-195.801,6.836,0.000,0
27958.338,-22.949,-55.176,-284.180,18.555,0.000,0
27958.342,-25.879,-54.199,-41.504,-51.758,0.000,0
27958.346,-57.129,-27.344,17.090,9.766,0.000,0
27958.350,-77.637,-26.367,-9.766,30.762,0.000,0
27958.354,-78.125,-33.691,-30.762,-0.977,0.000,0
27958.358,-92.773,-36.133,20.020,-0.488,0.000,0
27958.361,-104.492,-40.039,79.590,-54.199,0.000,0
27958.365,-94.727,-38.086,-0.977,-85.938,0.000,0
27958.369,-48.828,-42.969,-206.543,-28.809,0.000,0
27958.373,-46.875,-53.223,-173.340,13.672,0.000,0
27958.377,-59.570,-55.664,-81.055,-6.348,0.000,0
27958.381,-78.125,-48.340,-62.988,-42.480,0.000,0
27958.385,-75.684,-31.738,-184.082,-13.672,0.000,0
27958.389,-54.199,-27.344,-148.438,3.906,0.000,0
27958.393,-62.012,-35.156,-19.531,-15.625,0.000,0
27958.397,-88.867,-41.992,-42.480,-37.109,0.000,0
27958.400,-85.938,-45.410,-149.414,-69.336,0.000,0
27958.404,-92.773,-44.922,-27.344,-85.449,0.000,0
27958.408,-123.535,-46.875,29.297,-34.180,0.000,0
27958.412,-59.082,-46.387,-145.996,-0.977,0.000,0
27958.416,-26.367,-48.828,-180.176,-22.461,0.000,0
27958.420,-97.168,-51.270,23.926,-81.543,0.000,0
27958.424,-85.449,-42.480,27.832,-92.773,0.000,0
27958.428,-18.066,-34.180,-86.426,-66.895,0.000,0
27958.432,-23.926,-34.668,-134.766,-49.805,0.000,0
27958.436,-81.055,-37.109,-103.516,-1.465,0.000,0
27958.440,-68.359,-43.945,20.508,-62.012,0.000,0
27958.443,-15.137,-36.133,-34.180,-88.379,0.000,0
27958.447,-20.996,-23.926,-104.004,-8.301,0.000,0
27958.451,-84.961,-24.902,-30.273,-0.488,0.000,0
27958.455,-50.293,-17.090,-0.977,3.906,0.000,0
27958.459,27.344,-12.695,3.906,-45.410,0.000,0
27958.463,16.113,-9.277,-10.742,-81.543,0.000,0
27958.467,-13.672,-5.371,-52.734,-52.246,0.000,0
27958.471,-6.348,-3.906,-61.523,-16.602,0.000,0
27958.475,21.484,-7.324,-100.098,32.715,0.000,0
27958.479,-8.301,-24.902,57.617,-51.270,0.000,0
27958.483,-64.941,-25.391,23.438,-76.172,0.000,0
27958.486,-40.039,-20.508,-149.902,-2.441,0.000,0
27958.490,8.301,-30.762,-75.684,3.418,0.000,0
27958.494,-20.020,-40.527,-28.809,-24.414,0.000,0
27958.498,-62.012,-45.898,34.668,-103.516,0.000,0
27958.502,-49.805,-38.574,115.723,-145.020,0.000,0
27958.506,-5.859,-23.926,-42.480,-53.223,0.000,0
27958.510,-34.668,-16.113,-92.773,42.969,0.000,0
27958.514,-50.293,-18.555,-73.242,0.000,0.000,0
27958.518,-9.277,-23.926,-37.109,-81.055,0.000,0
27958.522,-1.953,-20.996,-70.312,-17.090,0.000,0
27958.525,-22.949,-25.391,-16.602,6.836,0.000,0
27958.529,-10.742,-24.414,-70.312,-15.137,0.000,0
27958.533,-12.207,-21.484,-66.406,-20.508,0.000,0
27958.537,-0.977,-19.531,156.250,-92.285,0.000,0
27958.541,12.695,-3.418,92.773,-61.035,0.000,0
27958.545,-13.184,-0.977,1.465,10.254,0.000,0
27958.549,4.883,-12.207,-156.250,21.484,0.000,0
27958.553,20.020,-23.438,-75.684,-12.207,0.000,0
27958.557,-69.824,-33.691,266.602,-81.055,0.000,0
27958.561,-11.230,-25.879,-47.363,-24.414,0.000,2
27958.565,37.109,-18.066,-198.242,4.395,0.000,0
27958.568,-6.836,-20.020,-59.082,-20.508,0.000,0
27958.572,-18.555,-27.832,-20.020,-27.344,0.000,0
27958.576,-3.418,-32.715,98.633,-108.887,0.000,0
27958.580,-0.977,-16.113,-13.184,-92.773,0.000,0
27958.584,-24.902,-11.230,-67.871,-0.488,0.000,0
27958.588,-16.602,-22.461,-26.367,17.578,0.000,0
27958.592,-32.227,-25.879,10.742,5.859,0.000,0
27958.596,-47.363,-36.133,110.352,-70.312,0.000,0
27958.600,-64.941,-38.574,52.734,-83.008,0.000,0
27958.604,-48.828,-40.527,147.949,-106.934,0.000,0
27958.608,17.090,-39.551,-62.500,-48.340,0.000,0
27958.611,17.090,-38.086,-203.613,47.363,0.000,0
27958.615,-42.480,-38.574,72.754,-41.992,0.000,0
27958.619,-7.812,-24.902,-12.207,-55.664,0.000,0
27958.623,40.527,-24.414,-157.227,29.297,0.000,0
27958.627,16.602,-34.180,-74.707,24.902,0.000,0
27958.631,-43.457,-27.832,-52.246,2.930,0.000,0
27958.635,-50.781,-31.250,46.875,-64.941,0.000,0
27958.639,-27.832,-28.320,32.227,-83.008,0.000,0
27958.643,-40.039,-26.367,0.000,-49.805,0.000,0
27958.647,-91.797,-28.320,40.527,-30.762,0.000,0
27958.650,-29.297,-22.461,-191.406,20.020,0.000,0
27958.654,4.883,-39.062,-56.152,-41.016,0.000,0
27958.658,-48.340,-41.016,44.434,-71.777,0.000,0
27958.662,-28.320,-36.133,-153.320,3.906,0.000,0
