timestamps,TP9,AF7,AF8,TP10,Right AUX,Marker0
111247.480,-460.449,-680.664,973.145,-371.094,0.000,0
111247.484,-419.434,-609.863,971.191,-280.762,0.000,0
111247.488,-438.477,-642.578,973.145,-301.758,0.000,0
111247.491,-433.105,-657.715,972.168,-324.219,0.000,0
111247.495,-398.438,-617.188,972.168,-272.461,0.000,0
111247.499,-365.723,-552.246,972.168,-190.430,0.000,0
111247.503,-395.508,-582.031,972.168,-238.281,0.000,0
111247.507,-424.805,-648.438,972.168,-342.285,0.000,0
111247.511,-302.734,-531.738,972.168,-218.750,0.000,0
111247.515,-276.855,-495.605,972.168,-171.387,0.000,0
111247.519,-303.223,-537.598,972.168,-231.445,0.000,0
111247.523,-279.297,-528.320,972.656,-244.141,0.000,0
111247.527,-285.156,-534.668,970.215,-281.738,0.000,0
111247.530,-264.648,-510.742,979.492,-260.742,0.000,0
111247.534,-257.812,-496.582,946.289,-260.254,0.000,0
111247.538,-272.461,-532.715,937.012,-313.965,0.000,0
111247.542,-242.676,-516.602,974.121,-284.668,0.000,0
111247.546,-204.590,-455.566,973.633,-238.770,0.000,0
111247.550,-149.902,-374.023,851.562,-164.062,0.000,0
111247.554,-159.180,-385.742,807.129,-172.852,0.000,0
111247.558,-170.898,-419.434,960.449,-186.523,0.000,0
111247.562,-186.035,-437.500,987.793,-209.473,0.000,0
111247.566,-172.363,-389.160,891.602,-175.781,0.000,0
111247.570,-168.945,-348.145,862.793,-144.043,0.000,0
111247.573,-233.398,-405.762,979.004,-223.145,0.000,0
111247.577,-249.023,-423.340,978.516,-202.148,0.000,0
111247.581,-146.973,-335.449,756.348,-61.035,0.000,0
111247.585,-136.719,-315.918,805.176,-31.738,0.000,0
111247.589,-230.469,-408.203,990.234,-107.422,0.000,0
111247.593,-242.188,-441.895,986.328,-119.141,0.000,0
111247.597,-152.344,-331.543,667.480,-16.113,0.000,0
111247.601,-43.945,-188.965,570.801,127.441,0.000,0
111247.605,-181.152,-342.773,893.066,-42.969,0.000,0
111247.609,-291.016,-485.352,993.652,-206.055,0.000,0
111247.613,-189.453,-361.328,827.637,-69.824,0.000,0
111247.616,-28.320,-162.598,403.809,131.348,0.000,0
111247.620,-52.734,-182.129,380.371,89.355,0.000,0
111247.624,-244.141,-385.254,836.914,-151.367,0.000,0
111247.628,-212.891,-346.191,707.031,-106.445,0.000,0
111247.632,-29.785,-144.043,224.121,104.492,0.000,0
111247.636,-43.945,-134.766,189.453,83.008,0.000,0
111247.640,-173.828,-271.484,430.664,-76.660,0.000,0
111247.644,-226.562,-329.590,644.043,-149.902,0.000,0
111247.648,-116.211,-162.109,306.641,-5.371,0.000,0
111247.652,12.207,-30.273,-237.793,133.789,0.000,0
111247.655,-110.840,-184.082,-79.590,-18.066,0.000,0
111247.659,-228.027,-307.129,185.547,-147.949,0.000,0
111247.663,-118.164,-186.035,-53.223,-38.086,0.000,0
111247.667,5.371,-40.527,-477.051,72.754,0.000,0
111247.671,-70.312,-121.582,-363.770,-6.836,0.000,0
111247.675,-232.910,-311.523,117.188,-174.805,0.000,0
111247.679,-175.781,-230.957,-146.973,-89.355,0.000,0
111247.683,-64.941,-76.172,-576.660,38.574,0.000,0
111247.687,-167.969,-167.480,-439.941,-78.125,0.000,0
111247.691,-311.035,-315.430,-77.148,-208.008,0.000,0
111247.695,-266.602,-279.297,-188.477,-161.621,0.000,0
111247.698,-47.363,-49.316,-828.125,56.641,0.000,0
111247.702,-37.598,-15.625,-900.391,89.355,0.000,0
111247.706,-259.766,-254.395,-467.285,-189.453,0.000,0
111247.710,-271.973,-290.039,-466.797,-234.375,0.000,0
111247.714,-118.652,-114.746,-877.930,-20.996,0.000,0
111247.718,-83.984,-58.105,-1000.000,59.570,0.000,0
111247.722,-229.492,-219.238,-728.516,-105.957,0.000,0
111247.726,-351.562,-370.117,-443.848,-289.062,0.000,0
111247.730,-202.637,-203.613,-817.871,-120.117,0.000,0
111247.734,-99.609,-73.242,-1000.000,32.227,0.000,0
111247.738,-235.840,-208.984,-614.258,-125.977,0.000,0
111247.741,-326.660,-318.359,-498.047,-252.930,0.000,0
111247.745,-253.418,-244.141,-672.363,-178.711,0.000,0
111247.749,-102.539,-62.012,-963.379,7.324,0.000,0
111247.753,-111.328,-56.152,-1000.000,21.973,0.000,0
111247.757,-274.414,-253.906,-736.328,-173.340,0.000,0
111247.761,-340.820,-330.566,-584.961,-261.719,0.000,0
111247.765,-235.352,-189.453,-812.988,-107.910,0.000,0
111247.769,-200.684,-129.395,-1000.000,-37.598,0.000,0
111247.773,-326.172,-298.340,-791.016,-183.594,0.000,0
111247.777,-363.281,-356.934,-595.703,-230.469,0.000,0
111247.780,-249.023,-180.664,-821.289,-83.008,0.000,0
111247.784,-221.680,-121.094,-1000.000,-51.270,0.000,0
111247.788,-308.105,-236.328,-938.477,-163.086,0.000,0
111247.792,-403.809,-344.238,-725.586,-263.672,0.000,0
111247.796,-340.332,-263.672,-807.617,-158.203,0.000,0
111247.800,-272.949,-179.199,-983.398,-84.961,0.000,0
111247.804,-352.051,-269.531,-879.883,-196.777,0.000,0
111247.808,-447.754,-384.277,-587.402,-300.781,0.000,0
111247.812,-404.297,-332.031,-544.434,-256.348,0.000,0
111247.816,-226.562,-113.770,-950.684,-37.598,0.000,0
111247.820,-212.891,-106.445,-1000.000,-23.438,0.000,0
111247.823,-410.156,-324.219,-493.652,-257.812,0.000,0
111247.827,-403.320,-304.688,-419.434,-233.887,0.000,0
111247.831,-157.715,-64.453,-877.930,36.133,0.000,0
111247.835,-146.973,-56.152,-1000.000,41.992,0.000,0
111247.839,-305.664,-246.094,-620.605,-135.254,0.000,0
111247.843,-391.602,-340.332,-131.836,-226.562,0.000,0
111247.847,-197.754,-141.113,-686.035,-56.641,0.000,0
111247.851,-34.668,22.461,-1000.000,119.629,0.000,0
111247.855,-158.691,-100.586,-771.484,5.859,0.000,0
111247.859,-302.734,-264.648,-462.402,-156.738,0.000,0
111247.863,-236.816,-208.984,-529.785,-106.934,0.000,0
111247.866,-31.250,22.461,-962.891,136.719,0.000,0
111247.870,-67.871,4.883,-895.020,125.977,0.000,0
111247.874,-266.113,-209.961,-494.629,-105.957,0.000,0
111247.878,-251.465,-203.125,-593.750,-99.121,0.000,0
111247.882,-104.492,-41.992,-980.469,60.059,0.000,0
111247.886,-99.121,-29.297,-924.316,69.824,0.000,0
111247.890,-291.992,-255.371,-661.621,-153.809,0.000,0
111247.894,-323.242,-311.523,-735.840,-201.172,0.000,0
111247.898,-199.219,-160.645,-958.008,-47.852,0.000,0
111247.902,-208.496,-142.578,-978.516,-51.270,0.000,0
111247.905,-312.012,-256.348,-914.551,-167.480,0.000,0
111247.909,-389.648,-366.699,-791.992,-262.207,0.000,0
111247.913,-303.223,-264.160,-922.852,-160.645,0.000,0
111247.917,-236.816,-160.645,-1000.000,-88.867,0.000,0
111247.921,-369.141,-303.223,-787.109,-263.672,0.000,0
111247.925,-493.652,-446.777,-506.836,-414.551,0.000,0
111247.929,-383.789,-330.566,-762.695,-304.199,0.000,0
111247.933,-189.453,-100.586,-1000.000,-57.129,0.000,0
111247.937,-259.766,-190.430,-944.336,-145.508,0.000,0
111247.941,-472.656,-432.129,-475.586,-399.902,0.000,0
111247.945,-330.566,-252.930,-688.965,-241.699,0.000,0
111247.948,-166.016,-68.359,-1000.000,-74.219,0.000,0
111247.952,-248.047,-159.668,-973.633,-166.504,0.000,0
111247.956,-346.191,-287.109,-662.598,-287.109,0.000,0
111247.960,-319.824,-270.020,-621.094,-271.484,0.000,0
111247.964,-170.410,-81.543,-1000.000,-105.957,0.000,0
111247.968,-205.078,-102.539,-1000.000,-142.578,0.000,0
111247.972,-372.070,-300.781,-632.812,-315.918,0.000,0
111247.976,-383.789,-332.031,-396.484,-327.148,0.000,0
111247.980,-202.637,-142.090,-777.832,-157.715,0.000,0
111247.984,-101.562,-30.273,-1000.000,-67.383,0.000,0
111247.988,-254.883,-200.684,-570.312,-253.418,0.000,0
111247.991,-325.195,-278.320,-289.551,-331.543,0.000,0
111247.995,-64.453,11.719,-779.297,-33.691,0.000,0
111247.999,44.922,137.207,-742.188,65.430,0.000,0
111248.003,-189.453,-143.066,76.172,-235.352,0.000,0
111248.007,-87.891,-51.270,-100.098,-121.094,0.000,0
111248.011,243.652,318.359,-705.566,258.301,0.000,0
111248.015,171.387,247.559,-336.426,180.664,0.000,0
111248.019,-5.371,41.016,64.941,-49.805,0.000,0
111248.023,132.324,167.480,-140.625,74.707,0.000,0
111248.027,380.371,451.172,-551.270,366.211,0.000,0
111248.030,388.184,489.258,-598.633,396.973,0.000,0
111248.034,145.508,195.312,80.078,88.379,0.000,0
111248.038,107.422,125.488,213.379,14.160,0.000,0
111248.042,400.391,455.078,-460.938,367.676,0.000,0
111248.046,496.582,561.523,-496.094,500.977,0.000,0
111248.050,260.742,294.434,-47.363,228.027,0.000,0
111248.054,83.496,104.980,321.777,10.742,0.000,0
111248.058,260.742,311.523,85.938,214.355,0.000,0
111248.062,456.543,531.738,-315.918,443.848,0.000,0
111248.066,325.195,373.047,-288.086,291.992,0.000,0
111248.070,129.883,151.367,-32.227,80.078,0.000,0
111248.073,190.430,221.191,143.066,139.160,0.000,0
111248.077,387.695,458.008,-123.047,368.652,0.000,0
111248.081,337.891,411.133,-316.895,337.891,0.000,0
111248.085,81.543,124.512,137.695,42.480,0.000,0
111248.089,32.715,96.680,203.613,6.348,0.000,0
111248.093,194.336,279.297,-209.961,190.430,0.000,0
111248.097,209.961,290.527,-287.109,190.918,0.000,0
111248.101,-13.672,41.992,99.121,-41.016,0.000,0
111248.105,-119.141,-77.637,219.727,-134.766,0.000,0
111248.109,73.730,129.395,-169.922,90.332,0.000,0
111248.113,156.250,206.543,-378.906,187.012,0.000,0
111248.116,-59.082,-14.160,-67.383,-20.996,0.000,0
111248.120,-250.000,-180.664,270.996,-218.262,0.000,0
111248.124,-144.043,-47.363,-159.668,-125.977,0.000,0
111248.128,49.316,141.602,-854.492,59.082,0.000,0
111248.132,-117.676,-51.270,-544.922,-106.445,0.000,0
111248.136,-396.973,-336.426,39.062,-419.922,0.000,0
111248.140,-335.938,-235.840,-295.410,-363.770,0.000,0
111248.144,-142.578,-32.715,-982.910,-129.883,0.000,0
111248.148,-173.340,-75.684,-980.469,-125.977,0.000,0
111248.152,-416.016,-318.359,-525.879,-375.977,0.000,0
111248.155,-434.082,-332.520,-611.816,-428.223,0.000,0
111248.159,-250.977,-133.301,-1000.000,-230.957,0.000,0
111248.163,-303.223,-149.414,-904.785,-262.207,0.000,0
111248.167,-431.152,-289.062,-651.855,-393.555,0.000,0
111248.171,-541.992,-425.293,-631.348,-539.551,0.000,0
111248.175,-403.320,-252.441,-833.984,-400.391,0.000,0
111248.179,-269.531,-88.379,-1000.000,-225.098,0.000,0
111248.183,-423.340,-267.578,-892.090,-386.230,0.000,0
111248.187,-604.004,-457.031,-659.180,-587.402,0.000,0
111248.191,-528.320,-376.465,-712.891,-521.973,0.000,0
111248.195,-370.117,-208.496,-943.359,-359.863,0.000,0
111248.198,-461.914,-304.199,-786.621,-443.359,0.000,0
111248.202,-700.195,-572.754,-235.840,-693.848,0.000,0
111248.206,-629.395,-513.184,-411.133,-608.887,0.000,0
111248.210,-428.223,-295.898,-699.219,-402.832,0.000,0
111248.214,-500.000,-361.328,-459.961,-478.027,0.000,0
111248.218,-703.125,-608.887,-141.602,-695.312,0.000,0
111248.222,-723.145,-656.250,-10.254,-736.816,0.000,0
111248.226,-530.273,-409.180,-238.770,-499.023,0.000,0
111248.230,-489.746,-364.258,-309.082,-458.496,0.000,0
111248.234,-735.352,-637.695,69.336,-740.723,0.000,0
111248.238,-812.500,-733.398,276.367,-828.613,0.000,0
111248.241,-604.980,-520.020,-72.754,-600.098,0.000,0
111248.245,-404.785,-284.180,-590.332,-346.680,0.000,0
111248.249,-565.430,-455.078,-274.414,-527.832,0.000,0
111248.253,-823.730,-734.375,243.164,-837.402,0.000,0
111248.257,-640.137,-535.156,-61.035,-629.883,0.000,0
111248.261,-400.879,-260.742,-657.715,-360.352,0.000,0
111248.265,-518.555,-362.793,-547.363,-480.469,0.000,0
111248.269,-761.230,-626.465,-125.977,-759.277,0.000,0
111248.273,-741.699,-615.723,-222.168,-756.348,0.000,0
111248.277,-477.051,-332.520,-840.332,-461.914,0.000,0
111248.280,-405.273,-279.785,-1000.000,-391.113,0.000,0
111248.284,-684.082,-581.055,-631.836,-682.129,0.000,0
111248.288,-787.109,-698.730,-500.000,-799.316,0.000,0
111248.292,-600.098,-498.047,-797.363,-625.000,0.000,0
111248.296,-518.066,-399.414,-1000.000,-548.340,0.000,0
111248.300,-699.707,-595.215,-646.973,-730.957,0.000,0
111248.304,-792.969,-718.750,-488.770,-842.285,0.000,0
111248.308,-618.652,-547.363,-947.754,-672.363,0.000,0
111248.312,-572.754,-470.215,-1000.000,-611.328,0.000,0
111248.316,-705.566,-612.793,-896.484,-755.859,0.000,0
111248.320,-843.262,-772.949,-819.336,-895.996,0.000,0
111248.323,-774.414,-708.496,-951.660,-809.570,0.000,0
111248.327,-658.691,-579.102,-1000.000,-650.391,0.000,0
111248.331,-711.426,-637.695,-907.715,-709.473,0.000,0
111248.335,-884.766,-842.285,-854.004,-941.895,0.000,0
111248.339,-869.629,-820.312,-954.102,-916.992,0.000,0
111248.343,-673.340,-598.145,-1000.000,-667.969,0.000,0
111248.347,-662.109,-585.938,-988.281,-648.926,0.000,0
111248.351,-822.266,-770.996,-820.312,-842.773,0.000,0
111248.355,-881.348,-842.773,-787.109,-920.898,0.000,0
111248.359,-718.750,-662.109,-993.652,-731.934,0.000,0
111248.363,-632.812,-579.590,-1000.000,-627.930,0.000,0
111248.366,-758.301,-726.074,-900.879,-768.066,0.000,0
111248.370,-896.973,-884.766,-688.477,-938.965,0.000,0
111248.374,-761.230,-740.723,-861.816,-805.664,0.000,0
111248.378,-589.355,-547.363,-1000.000,-615.723,0.000,0
111248.382,-662.598,-627.930,-969.727,-672.852,0.000,0
111248.386,-815.918,-808.594,-703.613,-824.707,0.000,0
111248.390,-761.719,-751.465,-680.664,-791.016,0.000,0
111248.394,-593.262,-543.457,-968.262,-602.051,0.000,0
111248.398,-632.324,-584.961,-1000.000,-648.926,0.000,0
111248.402,-762.207,-752.930,-828.613,-810.059,0.000,0
111248.405,-728.516,-722.168,-610.840,-761.230,0.000,0
111248.409,-509.277,-473.145,-868.652,-537.598,0.000,0
111248.413,-479.004,-414.062,-1000.000,-506.348,0.000,0
111248.417,-662.109,-627.930,-783.203,-701.172,0.000,0
111248.421,-724.121,-733.887,-524.414,-782.715,0.000,0
111248.425,-526.855,-541.016,-843.262,-573.730,0.000,0
111248.429,-424.316,-426.758,-1000.000,-464.355,0.000,0
111248.433,-582.520,-598.145,-700.195,-628.418,0.000,0
111248.437,-743.652,-779.297,-338.867,-789.551,0.000,0
111248.441,-624.512,-632.324,-658.203,-670.898,0.000,0
111248.445,-440.918,-434.082,-1000.000,-495.605,0.000,0
111248.448,-581.055,-594.238,-521.484,-652.832,0.000,0
111248.452,-746.094,-782.715,-57.617,-844.238,0.000,0
111248.456,-585.938,-629.395,-410.645,-675.293,0.000,0
111248.460,-294.434,-314.453,-903.320,-346.191,0.000,0
111248.464,-300.293,-270.996,-839.844,-355.957,0.000,0
111248.468,-611.816,-531.738,-257.812,-700.684,0.000,0
111248.472,-673.340,-554.199,-74.219,-782.227,0.000,0
111248.476,-372.070,-225.098,-688.477,-479.980,0.000,0
111248.480,-240.723,-89.844,-840.332,-340.820,0.000,0
111248.484,-447.266,-302.734,-268.066,-539.551,0.000,0
111248.488,-636.230,-498.047,-97.656,-755.371,0.000,0
111248.491,-446.289,-288.086,-588.379,-580.078,0.000,0
111248.495,-229.004,-21.973,-686.523,-294.922,0.000,0
111248.499,-414.551,-208.984,-315.918,-478.516,0.000,0
111248.503,-611.328,-453.613,-159.180,-735.352,0.000,0
111248.507,-531.250,-384.277,-167.969,-658.691,0.000,0
111248.511,-335.449,-152.832,-466.309,-442.383,0.000,0
111248.515,-370.605,-193.848,-442.871,-476.074,0.000,0
111248.519,-609.863,-477.539,22.949,-735.840,0.000,0
111248.523,-579.102,-417.969,-8.789,-681.641,0.000,0
111248.527,-359.375,-177.734,-277.832,-460.449,0.000,0
111248.530,-359.375,-195.312,-225.586,-480.469,0.000,0
111248.534,-566.406,-406.250,45.898,-672.363,0.000,0
111248.538,-617.676,-464.844,210.938,-711.426,0.000,0
111248.542,-362.305,-190.430,-88.867,-423.828,0.000,0
111248.546,-284.668,-131.348,-331.055,-364.258,0.000,0
111248.550,-540.527,-428.711,80.078,-668.457,0.000,0
111248.554,-630.371,-512.695,387.695,-756.836,0.000,0
111248.558,-403.809,-270.996,18.555,-500.488,0.000,0
111248.562,-180.176,-25.391,-510.254,-231.934,0.000,0
111248.566,-364.258,-229.980,-101.562,-431.152,0.000,0
111248.570,-625.488,-534.180,434.570,-724.609,0.000,0
111248.573,-453.125,-349.609,111.328,-532.715,0.000,0
111248.577,-215.820,-73.242,-285.645,-256.836,0.000,0
111248.581,-266.602,-133.301,-341.309,-312.012,0.000,0
111248.585,-516.113,-426.270,333.496,-598.633,0.000,0
111248.589,-583.984,-480.469,562.012,-662.598,0.000,0
111248.593,-284.180,-149.414,-297.363,-342.285,0.000,0
111248.597,-171.387,-51.758,-526.367,-219.238,0.000,0
111248.601,-415.039,-316.895,34.668,-458.496,0.000,0
111248.605,-532.715,-442.871,309.570,-595.703,0.000,0
111248.609,-317.383,-201.660,-107.422,-364.746,0.000,0
111248.613,-165.527,2.930,-427.246,-165.527,0.000,0
111248.616,-360.840,-219.727,-55.176,-387.695,0.000,0
111248.620,-545.410,-431.152,233.398,-604.980,0.000,0
111248.624,-378.418,-248.047,-75.195,-421.875,0.000,0
111248.628,-193.848,-49.316,-360.352,-225.586,0.000,0
111248.632,-323.730,-172.852,-82.520,-352.539,0.000,0
111248.636,-493.164,-382.812,86.426,-542.969,0.000,0
111248.640,-374.512,-272.949,-185.547,-429.688,0.000,0
111248.644,-142.578,-3.418,-502.441,-167.480,0.000,0
111248.648,-236.328,-90.820,-330.566,-251.953,0.000,0
111248.652,-536.133,-433.594,78.125,-590.820,0.000,0
111248.655,-542.480,-454.590,-18.555,-613.281,0.000,0
111248.659,-228.516,-99.121,-578.125,-236.328,0.000,0
111248.663,-147.949,-6.348,-646.973,-129.883,0.000,0
111248.667,-419.434,-315.918,-126.465,-455.078,0.000,0
111248.671,-551.270,-449.219,40.527,-591.797,0.000,0
111248.675,-331.055,-173.828,-305.176,-312.012,0.000,0
111248.679,-161.621,18.066,-613.281,-119.141,0.000,0
111248.683,-315.918,-184.082,-440.430,-307.129,0.000,0
111248.687,-574.707,-445.801,24.414,-585.938,0.000,0
111248.691,-457.520,-290.527,-228.516,-448.242,0.000,0
111248.695,-195.801,-21.484,-673.340,-162.598,0.000,0
111248.698,-292.969,-123.535,-579.102,-250.977,0.000,0
111248.702,-522.461,-386.230,-180.176,-495.117,0.000,0
111248.706,-517.578,-377.930,-62.988,-495.605,0.000,0
111248.710,-283.203,-99.121,-652.344,-235.840,0.000,0
111248.714,-210.938,-21.484,-907.227,-159.180,0.000,0
111248.718,-466.797,-295.410,-265.137,-413.574,0.000,0
111248.722,-552.734,-383.301,-67.871,-495.605,0.000,0
111248.726,-315.918,-132.324,-613.281,-272.949,0.000,0
111248.730,-198.242,-11.230,-866.699,-168.945,0.000,0
111248.734,-405.273,-240.723,-389.648,-366.211,0.000,0
111248.738,-528.320,-375.000,-219.727,-488.281,0.000,0
111248.741,-288.086,-119.629,-746.094,-266.602,0.000,0
111248.745,-150.879,38.574,-953.125,-108.398,0.000,0
111248.749,-323.242,-132.324,-664.062,-282.715,0.000,0
111248.753,-525.879,-385.254,-293.457,-503.418,0.000,0
111248.757,-413.574,-285.645,-537.109,-393.555,0.000,0
111248.761,-209.473,-34.668,-943.848,-177.734,0.000,0
111248.765,-346.680,-184.082,-555.664,-325.684,0.000,0
111248.769,-516.113,-404.297,-219.727,-537.109,0.000,0
111248.773,-435.547,-336.426,-463.867,-448.242,0.000,0
111248.777,-209.473,-152.832,-988.281,-211.426,0.000,0
111248.780,-162.109,-166.992,-814.941,-145.020,0.000,0
111248.784,-416.504,-460.449,-344.727,-415.039,0.000,0
111248.788,-441.895,-528.320,-511.230,-499.023,0.000,0
111248.792,-154.785,-255.859,-920.898,-189.941,0.000,0
111248.796,-88.867,-175.781,-1000.000,-89.355,0.000,0
111248.800,-289.062,-396.973,-789.551,-305.176,0.000,0
111248.804,-486.816,-633.301,-471.680,-547.363,0.000,0
111248.808,-333.008,-454.102,-700.195,-387.207,0.000,0
111248.812,-104.004,-184.082,-998.535,-107.422,0.000,0
111248.816,-270.020,-351.074,-878.418,-273.438,0.000,0
111248.820,-490.723,-585.449,-731.445,-528.320,0.000,0
111248.823,-407.715,-508.789,-580.078,-449.219,0.000,0
111248.827,-207.520,-272.461,-768.066,-186.035,0.000,0
111248.831,-228.027,-274.902,-904.297,-189.941,0.000,0
111248.835,-456.055,-541.016,-447.754,-486.328,0.000,0
111248.839,-437.012,-528.320,-426.758,-447.266,0.000,0
111248.843,-215.332,-287.109,-817.871,-192.871,0.000,0
111248.847,-194.824,-252.930,-875.000,-176.270,0.000,0
111248.851,-373.535,-443.848,-557.617,-357.910,0.000,0
111248.855,-501.953,-581.543,-280.273,-508.789,0.000,0
111248.859,-294.922,-351.562,-595.215,-296.875,0.000,0
111248.863,-122.559,-149.902,-918.457,-90.820,0.000,0
111248.866,-351.562,-392.090,-646.484,-352.051,0.000,0
111248.870,-489.746,-540.039,-206.055,-504.395,0.000,0
111248.874,-324.219,-338.379,-426.270,-292.969,0.000,0
111248.878,-87.891,-67.383,-1000.000,-9.766,0.000,0
111248.882,-236.816,-233.887,-716.797,-168.457,0.000,0
111248.886,-540.039,-564.453,-82.031,-499.023,0.000,0
111248.890,-415.039,-424.316,-464.844,-341.797,0.000,0
111248.894,-181.641,-152.344,-1000.000,-87.891,0.000,0
111248.898,-219.727,-182.617,-856.934,-120.117,0.000,0
111248.902,-476.562,-477.539,-160.156,-390.137,0.000,0
111248.905,-563.965,-553.223,-31.738,-487.305,0.000,0
111248.909,-306.152,-249.512,-645.508,-202.148,0.000,0
111248.913,-182.617,-122.070,-808.105,-33.691,0.000,0
111248.917,-384.277,-355.469,-306.152,-240.234,0.000,0
111248.921,-556.152,-554.199,-104.980,-466.797,0.000,0
111248.925,-353.516,-335.938,-491.211,-253.418,0.000,0
111248.929,-153.809,-97.168,-859.375,-6.836,0.000,0
111248.933,-338.379,-304.199,-504.395,-218.262,0.000,0
111248.937,-532.715,-538.086,-181.641,-463.379,0.000,0
111248.941,-431.152,-403.320,-338.867,-332.520,0.000,0
111248.945,-256.348,-183.105,-605.957,-134.766,0.000,0
111248.948,-332.031,-254.395,-439.453,-223.145,0.000,0
111248.952,-541.504,-491.699,-17.578,-445.312,0.000,0
111248.956,-480.957,-436.523,-291.992,-413.086,0.000,0
111248.960,-258.789,-183.594,-463.379,-186.035,0.000,0
111248.964,-247.559,-179.688,-268.555,-173.828,0.000,0
111248.968,-471.191,-434.082,-114.746,-447.266,0.000,0
111248.972,-529.785,-497.070,-82.031,-525.391,0.000,0
111248.976,-234.375,-187.012,-429.688,-188.477,0.000,0
111248.980,-113.770,-48.828,-562.500,-42.480,0.000,0
111248.984,-382.324,-328.613,-127.930,-362.793,0.000,0
111248.988,-511.230,-450.684,132.812,-505.371,0.000,0
111248.991,-279.297,-182.129,-291.992,-238.281,0.000,0
111248.995,-114.746,13.184,-684.570,-53.223,0.000,0
111248.999,-309.570,-176.758,-343.750,-246.094,0.000,0
111249.003,-540.527,-453.125,161.621,-508.301,0.000,0
111249.007,-395.020,-324.219,-12.695,-382.812,0.000,0
111249.011,-129.883,-17.578,-598.633,-117.188,0.000,0
111249.015,-196.777,-67.871,-558.105,-176.758,0.000,0
111249.019,-433.594,-330.078,-69.824,-414.062,0.000,0
111249.023,-466.797,-357.422,-28.320,-462.402,0.000,0
111249.027,-223.145,-66.895,-581.543,-215.820,0.000,0
111249.030,-147.949,5.859,-720.215,-119.141,0.000,0
111249.034,-387.207,-292.969,-200.684,-374.512,0.000,0
111249.038,-467.285,-389.648,-30.273,-465.332,0.000,0
111249.042,-274.414,-168.945,-378.418,-268.066,0.000,0
111249.046,-170.898,-41.992,-572.754,-158.691,0.000,0
111249.050,-393.555,-258.789,-37.109,-378.418,0.000,0
111249.054,-558.594,-451.172,227.539,-557.129,0.000,0
111249.058,-337.891,-251.953,-288.574,-335.449,0.000,0
111249.062,-262.695,-170.410,-251.465,-224.121,0.000,0
111249.066,-482.910,-401.367,112.305,-444.824,0.000,0
111249.070,-543.945,-492.676,39.551,-529.297,0.000,0
111249.073,-291.504,-243.164,-397.949,-273.926,0.000,0
111249.077,-177.734,-93.750,-384.277,-143.066,0.000,0
111249.081,-447.754,-363.281,160.156,-435.547,0.000,0
111249.085,-575.195,-523.926,372.070,-599.121,0.000,0
111249.089,-351.562,-276.367,28.809,-359.863,0.000,0
111249.093,-164.551,14.160,-317.383,-114.746,0.000,0
111249.097,-293.457,-77.637,-111.816,-269.043,0.000,0
111249.101,-519.531,-317.383,257.812,-563.477,0.000,0
111249.105,-423.828,-173.828,0.977,-464.844,0.000,0
111249.109,-163.574,85.938,-376.465,-170.410,0.000,0
111249.113,-163.574,3.906,-427.246,-166.016,0.000,0
111249.116,-407.715,-321.289,-62.500,-443.359,0.000,0
111249.120,-439.453,-402.344,96.680,-526.855,0.000,0
111249.124,-138.672,-81.543,-460.449,-208.008,0.000,0
111249.128,-23.926,51.758,-818.848,-64.453,0.000,0
111249.132,-244.141,-214.355,-437.500,-326.660,0.000,0
111249.136,-337.402,-342.285,-178.223,-439.941,0.000,0
111249.140,-143.066,-120.605,-438.965,-216.309,0.000,0
111249.144,22.949,69.824,-719.727,-32.715,0.000,0
111249.148,-135.254,-118.164,-611.328,-247.070,0.000,0
111249.152,-305.176,-302.734,-211.426,-432.129,0.000,0
111249.155,-134.277,-103.516,-249.023,-212.402,0.000,0
111249.159,32.227,81.543,-665.527,-68.848,0.000,0
111249.163,-74.219,-32.227,-639.160,-163.086,0.000,0
111249.167,-249.023,-237.793,-329.590,-335.449,0.000,0
111249.171,-194.336,-177.246,-412.598,-284.668,0.000,0
111249.175,22.949,87.891,-875.000,-42.969,0.000,0
111249.179,-71.289,4.395,-706.055,-142.090,0.000,0
111249.183,-358.887,-302.246,-245.605,-441.895,0.000,0
111249.187,-359.375,-298.340,-251.465,-433.594,0.000,0
111249.191,-100.098,-21.973,-800.781,-148.926,0.000,0
111249.195,-53.711,20.508,-1000.000,-114.746,0.000,0
111249.198,-308.594,-261.230,-299.316,-389.648,0.000,0
111249.202,-431.152,-401.367,-189.453,-513.672,0.000,0
111249.206,-187.012,-119.141,-832.520,-269.043,0.000,0
111249.210,-32.227,59.082,-1000.000,-67.383,0.000,0
111249.214,-224.121,-161.621,-699.707,-251.465,0.000,0
111249.218,-491.211,-467.773,-281.738,-597.656,0.000,0
111249.222,-355.469,-303.223,-578.613,-462.891,0.000,0
111249.226,-132.324,-6.348,-1000.000,-160.645,0.000,0
111249.230,-233.887,-116.699,-875.977,-243.652,0.000,0
111249.234,-492.676,-418.457,-442.871,-513.184,0.000,0
111249.238,-494.141,-416.016,-493.652,-517.090,0.000,0
111249.241,-215.820,-121.582,-901.367,-244.141,0.000,0
111249.245,-184.570,-90.332,-837.891,-192.383,0.000,0
111249.249,-467.773,-406.250,-579.102,-499.023,0.000,0
111249.253,-529.785,-505.859,-502.441,-585.938,0.000,0
111249.257,-340.332,-288.086,-704.102,-376.953,0.000,0
111249.261,-273.438,-172.363,-940.918,-271.484,0.000,0
111249.265,-539.551,-441.406,-547.852,-555.176,0.000,0
111249.269,-725.098,-623.535,-424.805,-754.883,0.000,0
111249.273,-464.844,-330.566,-824.219,-440.918,0.000,0
111249.277,-277.344,-148.438,-901.855,-253.418,0.000,0
111249.280,-480.469,-359.375,-680.176,-490.723,0.000,0
111249.284,-715.332,-605.469,-396.484,-729.004,0.000,0
111249.288,-579.590,-463.379,-442.383,-562.988,0.000,0
111249.292,-270.020,-125.488,-871.582,-216.309,0.000,0
111249.296,-331.543,-202.148,-786.621,-298.340,0.000,0
111249.300,-670.898,-578.613,-187.988,-675.293,0.000,0
111249.304,-646.973,-553.223,-247.559,-645.508,0.000,0
111249.308,-321.777,-196.289,-853.027,-277.832,0.000,0
111249.312,-277.344,-147.949,-979.980,-215.820,0.000,0
111249.316,-617.188,-530.273,-333.496,-590.820,0.000,0
111249.320,-772.949,-702.148,-96.191,-760.742,0.000,0
111249.323,-466.309,-366.699,-630.859,-456.055,0.000,0
111249.327,-306.641,-169.434,-885.742,-264.160,0.000,0
111249.331,-536.621,-417.969,-503.906,-484.863,0.000,0
111249.335,-784.668,-710.938,19.043,-771.973,0.000,0
111249.339,-647.949,-539.551,-413.086,-632.324,0.000,0
111249.343,-338.379,-194.824,-980.957,-273.438,0.000,0
111249.347,-493.652,-390.137,-680.664,-441.406,0.000,0
111249.351,-853.516,-782.715,-248.535,-827.637,0.000,0
111249.355,-819.824,-743.164,-308.594,-780.273,0.000,0
111249.359,-616.699,-494.629,-644.531,-555.664,0.000,0
111249.363,-690.918,-566.406,-512.695,-644.043,0.000,0
111249.366,-975.098,-955.566,-31.738,-975.098,0.000,0
111249.370,-997.559,-973.633,-262.207,-982.422,0.000,0
111249.374,-770.508,-673.340,-508.301,-708.008,0.000,0
111249.378,-805.176,-719.727,-301.758,-762.207,0.000,0
111249.382,-984.375,-963.379,-26.855,-977.539,0.000,0
111249.386,-1000.000,-1000.000,54.199,-1000.000,0.000,0
111249.390,-930.664,-873.047,-166.992,-869.629,0.000,0
111249.394,-858.887,-767.578,-286.133,-783.691,0.000,0
111249.398,-973.145,-952.637,82.520,-961.426,0.000,0
111249.402,-1000.000,-1000.000,439.453,-1000.000,0.000,0
111249.405,-985.352,-972.656,242.676,-969.238,0.000,0
111249.409,-922.852,-873.047,-112.793,-863.770,0.000,0
111249.413,-969.238,-950.195,256.348,-950.684,0.000,0
111249.417,-1000.000,-1000.000,831.055,-1000.000,0.000,0
111249.421,-997.559,-993.164,692.871,-990.723,0.000,0
111249.425,-964.355,-935.547,336.426,-934.570,0.000,0
111249.429,-975.098,-958.984,260.254,-963.379,0.000,0
111249.433,-1000.000,-1000.000,681.641,-1000.000,0.000,0
111249.437,-1000.000,-1000.000,879.395,-1000.000,0.000,0
111249.441,-995.117,-988.281,437.988,-993.164,0.000,0
111249.445,-988.281,-960.449,181.152,-973.145,0.000,0
111249.448,-997.559,-992.188,532.715,-994.629,0.000,0
111249.452,-1000.000,-1000.000,927.734,-1000.000,0.000,0
111249.456,-992.188,-989.746,687.500,-991.699,0.000,0
111249.460,-962.402,-955.566,277.832,-965.820,0.000,0
111249.464,-992.676,-990.234,590.332,-993.652,0.000,0
111249.468,-1000.000,-1000.000,990.723,-1000.000,0.000,0
111249.472,-998.047,-997.559,793.457,-998.535,0.000,0
111249.476,-1000.000,-1000.000,465.332,-1000.000,0.000,0
111249.480,-1000.000,-1000.000,664.062,-1000.000,0.000,0
111249.484,-1000.000,-1000.000,972.168,-1000.000,0.000,0
111249.488,-1000.000,-1000.000,838.867,-1000.000,0.000,0
111249.491,-1000.000,-1000.000,519.531,-1000.000,0.000,0
111249.495,-1000.000,-1000.000,688.477,-1000.000,0.000,0
111249.499,-1000.000,-1000.000,954.102,-1000.000,0.000,0
111249.503,-1000.000,-1000.000,990.234,-1000.000,0.000,0
111249.507,-1000.000,-1000.000,843.750,-1000.000,0.000,0
111249.511,-1000.000,-1000.000,785.645,-1000.000,0.000,0
111249.515,-1000.000,-1000.000,960.938,-1000.000,0.000,0
111249.519,-1000.000,-1000.000,987.305,-1000.000,0.000,0
111249.523,-1000.000,-1000.000,813.965,-1000.000,0.000,0
111249.527,-1000.000,-1000.000,789.062,-1000.000,0.000,0
111249.530,-1000.000,-1000.000,945.312,-1000.000,0.000,0
111249.534,-1000.000,-1000.000,-988.770,-1000.000,0.000,0
111249.538,-1000.000,-1000.000,899.902,-1000.000,0.000,0
111249.542,-1000.000,-1000.000,640.625,-1000.000,0.000,0
111249.546,-1000.000,-1000.000,819.336,-1000.000,0.000,0
111249.550,-1000.000,-1000.000,980.469,-1000.000,0.000,0
111249.554,-1000.000,-1000.000,942.871,-1000.000,0.000,0
111249.558,-1000.000,-1000.000,663.574,-1000.000,0.000,0
111249.562,-1000.000,-1000.000,586.914,-1000.000,0.000,0
111249.566,-1000.000,-1000.000,875.000,-1000.000,0.000,0
111249.570,-1000.000,-1000.000,929.688,-1000.000,0.000,0
111249.573,-1000.000,-1000.000,884.277,-1000.000,0.000,0
111249.577,-1000.000,-1000.000,680.176,-1000.000,0.000,0
111249.581,-998.047,-996.582,836.914,-998.047,0.000,0
111249.585,-1000.000,-1000.000,-961.914,-1000.000,0.000,0
111249.589,-990.723,-985.352,818.359,-988.770,0.000,0
111249.593,-971.680,-947.754,692.871,-967.285,0.000,0
111249.597,-990.723,-983.887,861.816,-990.723,0.000,0
111249.601,-1000.000,-1000.000,979.980,-1000.000,0.000,0
111249.605,-999.023,-992.188,851.074,-998.047,0.000,0
111249.609,-771.484,-709.961,491.211,-773.438,0.000,0
111249.613,-801.270,-753.418,465.332,-816.406,0.000,0
111249.616,-1000.000,-1000.000,846.191,-1000.000,0.000,0
111249.620,-944.824,-925.293,927.734,-953.613,0.000,0
111249.624,-577.148,-543.457,293.457,-603.027,0.000,0
111249.628,-465.820,-415.039,46.875,-471.191,0.000,0
111249.632,-883.789,-855.469,664.062,-883.789,0.000,0
111249.636,-1000.000,-1000.000,875.488,-1000.000,0.000,0
111249.640,-690.430,-665.039,336.914,-714.355,0.000,0
111249.644,-356.934,-313.477,-14.648,-381.836,0.000,0
111249.648,-625.977,-607.422,385.254,-650.391,0.000,0
111249.652,-1000.000,-1000.000,861.328,-1000.000,0.000,0
111249.655,-808.594,-800.293,594.238,-825.195,0.000,0
111249.659,-287.598,-271.484,26.367,-300.781,0.000,0
111249.663,-413.574,-404.297,265.137,-414.551,0.000,0
111249.667,-905.762,-921.875,732.422,-929.688,0.000,0
111249.671,-792.480,-833.008,666.016,-835.938,0.000,0
111249.675,-388.184,-419.434,383.789,-458.984,0.000,0
111249.679,-297.363,-299.316,260.742,-334.961,0.000,0
111249.683,-717.285,-732.422,703.613,-754.395,0.000,0
111249.687,-778.809,-823.730,728.027,-830.566,0.000,0
111249.691,-299.316,-308.105,237.793,-319.336,0.000,0
111249.695,-158.691,-150.879,138.672,-186.035,0.000,0
111249.698,-495.605,-505.859,529.297,-541.504,0.000,0
111249.702,-757.812,-774.414,823.242,-795.410,0.000,0
111249.706,-340.332,-366.699,291.992,-381.836,0.000,0
111249.710,6.836,12.695,162.598,8.301,0.000,0
111249.714,-354.004,-349.121,563.965,-339.355,0.000,0
111249.718,-674.316,-719.727,680.176,-727.539,0.000,0
111249.722,-365.234,-403.320,350.098,-418.457,0.000,0
111249.726,147.461,146.484,-130.859,152.344,0.000,0
111249.730,18.066,-1.953,22.461,4.883,0.000,0
111249.734,-533.203,-592.285,670.410,-584.961,0.000,0
111249.738,-452.148,-482.422,609.375,-470.215,0.000,0
111249.741,77.637,91.309,-46.875,84.473,0.000,0
111249.745,154.785,158.691,-184.570,160.645,0.000,0
111249.749,-391.113,-421.387,556.152,-404.297,0.000,0
111249.753,-612.305,-651.855,897.461,-666.992,0.000,0
111249.757,-70.312,-68.359,145.508,-105.469,0.000,0
111249.761,309.082,326.172,-438.965,333.008,0.000,0
111249.765,-51.758,-68.848,-33.203,-31.250,0.000,0
111249.769,-408.203,-445.801,399.414,-422.363,0.000,0
111249.773,-136.719,-141.113,25.879,-136.230,0.000,0
111249.777,266.113,294.434,-532.227,289.551,0.000,0
111249.780,50.293,44.922,-390.137,62.500,0.000,0
111249.784,-357.910,-388.184,128.418,-372.559,0.000,0
111249.788,-230.469,-221.191,-73.242,-239.258,0.000,0
111249.792,157.715,206.543,-649.414,182.617,0.000,0
111249.796,115.723,152.832,-490.234,140.137,0.000,0
111249.800,-343.750,-357.910,179.199,-347.656,0.000,0
111249.804,-295.898,-323.730,-146.973,-301.270,0.000,0
111249.808,206.543,208.984,-836.426,236.816,0.000,0
111249.812,166.504,180.664,-727.539,176.270,0.000,0
111249.816,-271.484,-288.574,-321.777,-311.523,0.000,0
111249.820,-432.129,-467.773,-202.637,-472.168,0.000,0
111249.823,-19.043,-26.855,-727.051,-26.855,0.000,0
111249.827,232.422,230.469,-979.004,254.395,0.000,0
111249.831,-242.676,-279.785,-364.258,-239.258,0.000,0
111249.835,-558.105,-617.188,-128.906,-564.941,0.000,0
111249.839,-192.871,-224.121,-777.832,-190.918,0.000,0
111249.843,155.273,173.828,-1000.000,176.270,0.000,0
111249.847,-62.500,-54.688,-843.262,-55.664,0.000,0
111249.851,-564.453,-590.820,-354.492,-608.398,0.000,0
111249.855,-399.902,-407.715,-566.895,-437.988,0.000,0
111249.859,77.637,119.141,-945.801,83.008,0.000,0
111249.863,23.438,75.684,-980.957,51.758,0.000,0
111249.866,-369.629,-368.652,-590.820,-390.137,0.000,0
111249.870,-539.551,-539.551,-281.250,-588.867,0.000,0
111249.874,-116.699,-53.711,-799.805,-97.656,0.000,0
111249.878,-3.906,70.312,-936.523,41.992,0.000,0
111249.882,-386.719,-335.449,-670.410,-385.742,0.000,0
111249.886,-495.117,-447.754,-653.320,-507.812,0.000,0
111249.890,-227.539,-169.434,-802.246,-243.164,0.000,0
111249.894,-21.484,70.801,-1000.000,-15.625,0.000,0
111249.898,-291.504,-191.895,-698.730,-284.180,0.000,0
111249.902,-625.488,-546.387,-287.598,-636.230,0.000,0
111249.905,-380.859,-293.457,-523.926,-360.840,0.000,0
111249.909,-32.715,59.570,-962.891,-20.020,0.000,0
111249.913,-101.562,-14.160,-954.102,-104.004,0.000,0
111249.917,-480.469,-393.066,-461.426,-482.422,0.000,0
111249.921,-449.707,-356.934,-544.434,-460.449,0.000,0
111249.925,-39.062,68.848,-1000.000,-31.738,0.000,0
111249.929,-127.930,-14.160,-831.543,-103.516,0.000,0
111249.933,-543.457,-449.707,-298.340,-551.758,0.000,0
111249.937,-569.336,-477.051,-266.602,-573.730,0.000,0
111249.941,-140.625,-28.809,-889.160,-120.117,0.000,0
111249.945,-57.129,40.039,-1000.000,-56.152,0.000,0
111249.948,-444.824,-387.207,-203.125,-467.773,0.000,0
111249.952,-653.809,-614.746,-38.086,-684.082,0.000,0
111249.956,-258.301,-197.266,-921.387,-277.832,0.000,0
111249.960,-63.477,24.414,-1000.000,-50.781,0.000,0
111249.964,-316.895,-227.539,-551.270,-288.574,0.000,0
111249.968,-651.855,-606.445,-58.105,-694.336,0.000,0
111249.972,-458.496,-410.645,-366.211,-522.461,0.000,0
111249.976,43.945,136.230,-990.723,65.430,0.000,0
111249.980,-133.789,-38.086,-774.414,-96.680,0.000,0
111249.984,-566.895,-507.812,-226.074,-577.637,0.000,0
111249.988,-417.969,-364.258,-409.668,-426.270,0.000,0
111249.991,-72.266,31.738,-859.375,-63.477,0.000,0
111249.995,-42.969,95.703,-809.570,-30.273,0.000,0
111249.999,-394.531,-294.922,-530.762,-413.574,0.000,0
111250.003,-475.586,-403.320,-590.332,-480.469,0.000,0
111250.007,-131.348,-43.457,-901.855,-126.953,0.000,0
111250.011,-42.969,56.152,-964.355,-24.902,0.000,0
111250.015,-305.664,-230.469,-926.758,-284.668,0.000,0
111250.019,-500.977,-444.336,-818.359,-520.508,0.000,0
111250.023,-249.023,-177.246,-903.809,-237.305,0.000,0
111250.027,-85.449,7.812,-996.094,-39.062,0.000,0
111250.030,-324.219,-235.352,-771.484,-298.828,0.000,0
111250.034,-555.176,-517.578,-404.785,-580.078,0.000,0
111250.038,-338.867,-307.617,-529.297,-352.539,0.000,0
111250.042,-18.066,57.617,-969.238,30.273,0.000,0
111250.046,-134.277,-66.895,-979.004,-111.328,0.000,0
111250.050,-507.324,-476.074,-491.699,-520.020,0.000,0
111250.054,-483.398,-454.590,-511.719,-466.797,0.000,0
111250.058,-152.832,-107.910,-963.379,-109.863,0.000,0
111250.062,-136.719,-77.148,-1000.000,-96.680,0.000,0
111250.066,-459.473,-421.875,-604.492,-455.078,0.000,0
111250.070,-694.336,-668.457,-283.691,-696.289,0.000,0
111250.073,-347.168,-302.734,-816.406,-321.777,0.000,0
111250.077,-69.336,-36.621,-1000.000,-15.137,0.000,0
111250.081,-338.867,-345.215,-852.539,-305.176,0.000,0
111250.085,-664.062,-690.918,-434.082,-657.227,0.000,0
111250.089,-428.223,-444.824,-663.086,-411.621,0.000,0
111250.093,-127.441,-108.398,-1000.000,-81.543,0.000,0
111250.097,-264.160,-253.906,-855.469,-226.074,0.000,0
111250.101,-606.934,-627.930,-297.852,-579.102,0.000,0
111250.105,-510.742,-520.996,-630.371,-485.352,0.000,0
111250.109,-239.258,-220.703,-1000.000,-223.145,0.000,0
111250.113,-328.125,-288.086,-905.762,-294.922,0.000,0
111250.116,-606.445,-608.398,-641.113,-588.379,0.000,0
111250.120,-618.164,-642.090,-742.676,-608.398,0.000,0
111250.124,-401.367,-364.746,-994.141,-372.559,0.000,0
111250.128,-391.602,-341.309,-931.641,-368.652,0.000,0
111250.132,-634.766,-591.797,-718.262,-614.746,0.000,0
111250.136,-706.543,-689.941,-745.605,-721.680,0.000,0
111250.140,-437.012,-406.738,-974.121,-433.594,0.000,0
111250.144,-317.871,-249.512,-1000.000,-255.859,0.000,0
111250.148,-521.973,-479.492,-815.918,-496.582,0.000,0
111250.152,-618.652,-630.371,-653.809,-638.184,0.000,0
111250.155,-352.539,-362.305,-873.047,-340.820,0.000,0
111250.159,-144.043,-106.934,-1000.000,-93.750,0.000,1
111250.163,-244.141,-225.586,-916.504,-213.379,0.000,0
111250.167,-555.664,-590.820,-366.699,-576.172,0.000,0
111250.171,-449.219,-451.660,-413.574,-448.730,0.000,0
111250.175,-0.977,32.227,-837.891,33.691,0.000,0
111250.179,74.219,86.914,-1000.000,102.539,0.000,0
111250.183,-274.414,-291.504,-546.875,-270.508,0.000,0
111250.187,-489.746,-514.648,-95.215,-520.020,0.000,0
111250.191,-47.852,-29.297,-687.012,-50.781,0.000,0
111250.195,158.203,196.777,-1000.000,191.895,0.000,0
111250.198,-133.301,-140.625,-834.961,-118.164,0.000,0
111250.202,-301.270,-345.215,-356.934,-289.062,0.000,0
111250.206,-125.977,-161.621,-425.781,-123.535,0.000,0
111250.210,193.848,192.383,-1000.000,195.801,0.000,0
111250.214,35.645,25.391,-735.352,38.574,0.000,0
111250.218,-306.152,-336.426,-188.477,-309.082,0.000,0
111250.222,-102.051,-116.699,-520.996,-90.332,0.000,0
111250.226,221.680,218.750,-987.305,230.957,0.000,0
111250.230,151.855,157.715,-895.508,152.344,0.000,0
111250.234,-181.641,-187.988,-394.531,-196.289,0.000,0
111250.238,-164.551,-172.363,-658.691,-184.082,0.000,0
111250.241,134.766,153.809,-1000.000,145.508,0.000,0
111250.245,62.012,82.031,-792.969,75.684,0.000,0
111250.249,-248.047,-251.465,-232.422,-242.188,0.000,0
111250.253,-266.602,-294.434,-199.707,-271.973,0.000,0
111250.257,132.812,142.578,-854.004,140.137,0.000,0
111250.261,267.090,298.828,-1000.000,303.711,0.000,0
111250.265,-128.418,-145.996,-434.570,-117.188,0.000,0
111250.269,-327.148,-389.160,-131.836,-349.121,0.000,0
111250.273,-21.973,-76.660,-649.902,-19.531,0.000,0
111250.277,225.098,210.938,-966.797,262.695,0.000,0
111250.280,79.102,56.641,-645.020,110.840,0.000,0
111250.284,-295.410,-335.938,-135.742,-311.523,0.000,0
111250.288,-300.293,-323.242,-317.383,-341.797,0.000,0
111250.292,66.406,85.938,-972.656,70.312,0.000,0
111250.296,39.062,70.801,-1000.000,61.523,0.000,0
111250.300,-217.773,-241.699,-853.027,-239.746,0.000,0
111250.304,-220.703,-267.578,-883.789,-243.164,0.000,0
111250.308,-117.188,-118.164,-983.887,-99.121,0.000,0
111250.312,-125.977,-113.281,-1000.000,-103.027,0.000,0
111250.316,-238.770,-262.207,-988.281,-241.211,0.000,0
111250.320,-334.961,-357.422,-999.512,-349.121,0.000,0
111250.323,-130.371,-124.023,-981.445,-120.117,0.000,0
111250.327,-31.250,-9.766,-990.234,-1.465,0.000,0
111250.331,-155.762,-145.020,-1000.000,-136.719,0.000,0
111250.335,-163.086,-176.270,-983.398,-158.691,0.000,0
111250.339,-48.340,-42.969,-984.863,-42.969,0.000,0
111250.343,30.762,64.941,-1000.000,43.945,0.000,0
111250.347,-9.766,2.441,-979.004,-4.883,0.000,0
111250.351,-205.566,-225.586,-576.660,-236.816,0.000,0
111250.355,-152.344,-153.809,-539.062,-186.035,0.000,0
111250.359,177.734,214.355,-990.723,196.289,0.000,0
111250.363,107.422,142.578,-933.105,113.770,0.000,0
111250.366,-283.203,-269.531,-139.160,-307.129,0.000,0
111250.370,-309.570,-281.738,144.043,-308.594,0.000,0
111250.374,122.559,178.711,-674.805,143.555,0.000,0
111250.378,272.461,338.867,-926.758,304.199,0.000,0
111250.382,-123.535,-77.148,-156.738,-116.211,0.000,0
111250.386,-384.277,-364.746,346.680,-428.223,0.000,0
111250.390,-106.445,-72.754,-62.012,-138.184,0.000,0
111250.394,270.020,333.984,-849.609,280.762,0.000,0
111250.398,107.422,154.297,-452.637,124.512,0.000,0
111250.402,-296.387,-265.137,305.664,-298.340,0.000,0
111250.405,-192.383,-154.785,55.664,-213.379,0.000,0
111250.409,229.980,299.805,-567.383,253.906,0.000,0
111250.413,139.648,210.938,-254.395,172.852,0.000,0
111250.417,-270.508,-227.539,335.449,-268.066,0.000,0
111250.421,-197.754,-176.758,112.793,-214.844,0.000,0
111250.425,125.488,160.156,-295.410,122.070,0.000,0
111250.429,156.250,204.590,-302.246,172.363,0.000,0
111250.433,-162.598,-153.809,169.434,-167.969,0.000,0
111250.437,-232.910,-236.328,191.406,-255.371,0.000,0
111250.441,89.844,120.605,-324.219,86.426,0.000,0
111250.445,175.293,233.887,-455.566,210.449,0.000,0
111250.448,-67.383,-47.363,-86.914,-46.875,0.000,0
111250.452,-278.320,-297.852,255.859,-284.668,0.000,0
111250.456,0.000,7.812,-308.105,18.555,0.000,0
111250.460,243.164,274.414,-537.109,291.504,0.000,0
111250.464,-67.383,-73.242,-127.930,-55.664,0.000,0
111250.468,-324.707,-369.141,176.270,-360.840,0.000,0
111250.472,-112.793,-142.578,-153.809,-124.023,0.000,0
111250.476,251.465,263.184,-870.117,291.992,0.000,0
111250.480,145.996,137.695,-683.594,167.480,0.000,0
111250.484,-333.008,-386.719,171.875,-360.840,0.000,0
111250.488,-310.547,-371.582,127.441,-341.797,0.000,0
111250.491,51.758,12.207,-490.234,27.344,0.000,0
111250.495,164.551,145.508,-928.711,164.062,0.000,0
111250.499,-209.473,-260.742,-233.398,-213.379,0.000,0
111250.503,-483.398,-541.016,322.754,-499.023,0.000,0
111250.507,-89.355,-118.164,-483.398,-77.148,0.000,0
111250.511,199.707,170.898,-1000.000,227.539,0.000,0
111250.515,-80.566,-133.789,-606.445,-79.102,0.000,0
111250.519,-397.461,-467.773,-31.738,-416.504,0.000,0
111250.523,-254.395,-313.965,-327.637,-271.484,0.000,0
111250.527,89.844,62.012,-1000.000,98.633,0.000,0
111250.530,-73.730,-95.215,-725.098,-60.059,0.000,0
111250.534,-453.125,-481.934,-159.668,-442.383,0.000,0
111250.538,-294.922,-311.523,-507.324,-295.410,0.000,0
111250.542,-2.441,6.836,-906.738,8.301,0.000,0
111250.546,-66.406,-43.457,-803.711,-27.832,0.000,0
111250.550,-390.625,-386.719,-312.988,-373.535,0.000,0
111250.554,-390.137,-397.461,-420.898,-400.879,0.000,0
111250.558,-47.852,-30.273,-976.562,-51.758,0.000,0
111250.562,-95.703,-54.199,-806.152,-94.727,0.000,0
111250.566,-449.707,-410.645,-217.285,-446.289,0.000,0
111250.570,-514.648,-503.906,-213.379,-520.020,0.000,0
111250.573,-163.086,-156.250,-840.820,-145.996,0.000,0
111250.577,20.508,42.969,-1000.000,58.594,0.000,0
111250.581,-310.059,-294.922,-439.941,-308.594,0.000,0
111250.585,-545.410,-544.922,-229.004,-560.059,0.000,0
111250.589,-246.094,-229.980,-785.156,-237.793,0.000,0
111250.593,-38.574,10.254,-970.215,11.230,0.000,0
111250.597,-250.977,-224.121,-642.090,-213.379,0.000,0
111250.601,-531.250,-531.250,-304.688,-552.734,0.000,0
111250.605,-447.754,-423.828,-362.305,-452.637,0.000,0
111250.609,-65.918,-20.996,-889.160,-34.180,0.000,0
111250.613,-65.430,-25.879,-1000.000,-24.902,0.000,0
111250.616,-386.230,-376.465,-564.941,-366.699,0.000,0
111250.620,-478.027,-483.887,-283.203,-483.398,0.000,0
111250.624,-179.688,-148.438,-783.203,-153.320,0.000,0
111250.628,-62.500,-17.090,-1000.000,-22.461,0.000,0
111250.632,-323.242,-317.871,-638.184,-327.637,0.000,0
111250.636,-491.699,-508.301,-367.676,-506.836,0.000,0
111250.640,-223.145,-209.473,-787.109,-206.543,0.000,0
111250.644,-52.734,-14.160,-1000.000,-19.531,0.000,0
111250.648,-231.445,-230.469,-977.539,-214.355,0.000,0
111250.652,-437.012,-466.797,-619.629,-444.824,0.000,0
111250.655,-330.078,-323.730,-490.723,-311.523,0.000,0
111250.659,-62.500,-44.434,-922.852,-29.297,0.000,0
111250.663,-167.480,-152.832,-784.668,-145.996,0.000,0
111250.667,-477.051,-486.816,-234.375,-487.793,0.000,0
111250.671,-386.719,-419.922,-417.969,-416.992,0.000,0
111250.675,-32.715,-44.434,-996.094,-26.367,0.000,0
111250.679,-57.617,-60.547,-955.078,-38.086,0.000,0
111250.683,-400.391,-424.805,-312.500,-407.227,0.000,0
111250.687,-436.035,-465.820,-291.504,-437.988,0.000,0
111250.691,-142.090,-164.062,-942.383,-129.395,0.000,0
111250.695,-36.621,-63.965,-1000.000,-41.016,0.000,0
111250.698,-347.168,-382.812,-134.277,-360.840,0.000,0
111250.702,-555.664,-588.867,124.023,-577.148,0.000,0
111250.706,-141.113,-156.738,-727.051,-168.457,0.000,0
111250.710,125.977,124.023,-1000.000,126.465,0.000,0
111250.714,-87.891,-90.820,-719.238,-71.777,0.000,0
111250.718,-376.465,-419.922,-318.848,-400.391,0.000,0
111250.722,-276.855,-321.777,-460.938,-311.523,0.000,0
111250.726,15.625,20.508,-964.844,19.043,0.000,0
111250.730,-55.664,-50.293,-867.188,-54.199,0.000,0
111250.734,-349.121,-361.328,-340.820,-368.652,0.000,1
111250.738,-345.703,-367.188,-550.781,-371.094,0.000,0
111250.741,-69.824,-74.219,-986.328,-88.867,0.000,0
111250.745,-29.297,-3.418,-707.520,-16.602,0.000,0
111250.749,-266.602,-277.832,-389.648,-274.414,0.000,0
111250.753,-315.918,-352.051,-430.176,-350.098,0.000,0
111250.757,-44.434,-43.457,-866.211,-60.547,0.000,0
111250.761,43.945,87.891,-1000.000,62.012,0.000,0
111250.765,-169.922,-140.625,-744.141,-151.855,0.000,0
111250.769,-378.906,-393.066,-403.809,-396.973,0.000,0
111250.773,-174.805,-178.711,-680.664,-180.176,0.000,0
111250.777,35.156,59.082,-1000.000,45.410,0.000,0
111250.780,-201.660,-205.566,-658.691,-224.121,0.000,0
111250.784,-481.934,-503.906,-110.840,-532.715,0.000,0
111250.788,-323.242,-318.359,-313.477,-348.145,0.000,0
111250.792,28.809,55.664,-944.824,49.316,0.000,0
111250.796,-2.441,-6.836,-939.453,-3.906,0.000,0
111250.800,-467.773,-513.184,44.434,-520.996,0.000,0
111250.804,-451.172,-486.816,-32.227,-502.930,0.000,0
111250.808,9.277,6.348,-895.020,-22.461,0.000,0
111250.812,89.844,102.539,-1000.000,80.566,0.000,0
111250.816,-235.352,-246.582,-479.492,-256.348,0.000,0
111250.820,-499.023,-519.043,-20.508,-552.246,0.000,0
111250.823,-147.949,-130.859,-675.293,-170.410,0.000,0
111250.827,99.121,143.066,-1000.000,119.629,0.000,0
111250.831,-168.945,-146.484,-743.652,-153.320,0.000,0
111250.835,-445.801,-462.891,-14.160,-444.824,0.000,0
111250.839,-303.223,-329.590,-222.656,-331.543,0.000,0
111250.843,46.875,61.523,-1000.000,30.762,0.000,0
111250.847,-72.266,-64.453,-844.727,-96.680,0.000,0
111250.851,-389.160,-421.875,-208.984,-427.246,0.000,0
111250.855,-278.320,-311.035,-408.691,-304.199,0.000,0
111250.859,-7.324,-19.531,-882.812,-28.809,0.000,0
111250.863,-4.395,-10.742,-801.758,-6.348,0.000,0
111250.866,-308.105,-345.215,-290.039,-325.195,0.000,0
111250.870,-371.582,-411.133,-438.477,-402.344,0.000,0
111250.874,-52.734,-38.574,-879.395,-32.715,0.000,0
111250.878,-37.109,-3.418,-681.152,-16.113,0.000,0
111250.882,-333.496,-335.938,-224.121,-354.980,0.000,0
111250.886,-425.293,-458.984,-130.859,-470.215,0.000,0
111250.890,-110.352,-125.488,-693.359,-130.371,0.000,0
111250.894,117.676,124.512,-1000.000,128.906,0.000,0
111250.898,-212.402,-221.191,-350.098,-230.469,0.000,0
111250.902,-505.371,-524.414,86.914,-545.410,0.000,0
111250.905,-273.438,-278.320,-382.324,-312.012,0.000,0
111250.909,87.402,115.723,-969.238,93.750,0.000,0
111250.913,-8.301,15.625,-827.148,15.137,0.000,0
111250.917,-428.223,-439.453,-23.438,-463.867,0.000,0
111250.921,-408.203,-407.715,-36.621,-453.613,0.000,0
111250.925,-6.836,26.855,-613.770,3.906,0.000,0
111250.929,71.777,104.004,-920.410,102.051,0.000,0
111250.933,-244.629,-246.094,-453.125,-250.488,0.000,0
111250.937,-440.918,-451.172,48.828,-473.145,0.000,0
111250.941,-115.723,-78.613,-634.766,-118.652,0.000,0
111250.945,108.398,169.434,-1000.000,127.441,0.000,0
111250.948,-199.219,-170.410,-483.887,-204.102,0.000,0
111250.952,-445.801,-437.500,-20.996,-458.496,0.000,0
111250.956,-247.559,-229.004,-295.410,-250.000,0.000,0
111250.960,4.395,44.922,-776.855,21.973,0.000,0
111250.964,-138.184,-115.234,-667.480,-141.602,0.000,0
111250.968,-440.918,-455.078,41.504,-471.680,0.000,0
111250.972,-311.035,-318.359,-118.652,-337.402,0.000,0
111250.976,36.133,51.758,-776.367,25.879,0.000,0
111250.980,-60.059,-46.387,-560.547,-85.938,0.000,0
111250.984,-402.832,-417.480,152.832,-445.801,0.000,0
111250.988,-385.254,-412.109,69.824,-420.410,0.000,0
111250.991,31.738,26.855,-809.570,33.203,0.000,0
111250.995,70.312,63.477,-733.398,87.402,0.000,0
111250.999,-369.141,-382.812,80.566,-377.441,0.000,0
111251.003,-480.957,-482.422,178.711,-474.121,0.000,0
111251.007,-157.227,-152.832,-387.695,-141.602,0.000,0
111251.011,60.059,75.684,-888.184,80.566,0.000,0
111251.015,-347.168,-367.188,7.812,-354.980,0.000,0
111251.019,-468.262,-508.301,361.328,-491.699,0.000,0
111251.023,-18.066,-28.320,-637.695,-13.672,0.000,0
111251.027,69.824,75.684,-687.012,101.074,0.000,0
111251.030,-265.625,-289.551,71.777,-245.605,0.000,0
111251.034,-436.035,-482.910,260.254,-468.262,0.000,0
111251.038,-117.676,-127.441,-347.656,-129.883,0.000,0
111251.042,154.297,162.598,-829.590,180.664,0.000,0
111251.046,-116.699,-143.066,-327.637,-117.676,0.000,0
111251.050,-385.742,-441.895,152.344,-407.227,0.000,0
111251.054,-233.887,-271.484,-128.906,-251.465,0.000,0
111251.058,49.316,49.805,-614.746,46.387,0.000,0
111251.062,-88.379,-77.637,-297.852,-75.195,0.000,0
111251.066,-384.277,-404.297,8.789,-386.230,0.000,0
111251.070,-214.844,-256.348,-293.457,-221.191,0.000,0
111251.073,27.832,11.719,-442.383,43.457,0.000,0
111251.077,-27.344,-30.273,-465.332,2.930,0.000,0
111251.081,-263.184,-310.059,-225.586,-279.297,0.000,0
111251.085,-321.289,-375.000,-104.492,-349.609,0.000,0
111251.089,-27.832,-25.391,-578.613,-2.441,0.000,0
111251.093,25.879,30.273,-784.668,39.551,0.000,0
111251.097,-318.359,-343.262,-112.305,-345.703,0.000,0
111251.101,-471.680,-502.441,241.699,-496.094,0.000,0
111251.105,-159.180,-187.988,-264.160,-156.250,0.000,0
111251.109,13.184,-9.277,-585.449,25.879,0.000,0
111251.113,-361.328,-400.391,186.523,-357.422,0.000,0
111251.116,-423.828,-470.703,459.473,-420.898,0.000,0
111251.120,-27.344,-38.574,-461.426,-29.785,0.000,0
111251.124,127.930,139.160,-829.102,124.512,0.000,0
111251.128,-230.957,-249.023,-109.375,-242.188,0.000,0
111251.132,-528.320,-564.453,475.586,-567.871,0.000,0
111251.136,-203.613,-202.148,-186.523,-207.520,0.000,0
111251.140,138.184,142.578,-997.070,149.902,0.000,0
111251.144,-75.195,-91.309,-461.914,-63.965,0.000,0
111251.148,-438.477,-463.867,350.098,-436.523,0.000,0
111251.152,-357.422,-367.188,138.672,-384.277,0.000,0
111251.155,15.625,42.969,-541.016,15.137,0.000,0
111251.159,-56.641,-37.109,-233.398,-54.688,0.000,0
111251.163,-387.695,-402.832,384.766,-399.414,0.000,0
111251.167,-276.855,-294.434,42.480,-274.902,0.000,0
111251.171,-7.324,16.602,-441.895,4.883,0.000,0
111251.175,18.555,61.523,-441.406,39.062,0.000,0
111251.179,-264.160,-257.324,25.879,-265.137,0.000,0
111251.183,-354.980,-375.000,106.445,-383.301,0.000,0
111251.187,-48.828,-43.945,-442.871,-56.641,0.000,0
111251.191,-4.395,18.555,-375.488,17.578,0.000,0
111251.195,-281.738,-294.434,115.723,-292.969,0.000,0
111251.198,-436.035,-459.473,195.312,-476.074,0.000,0
111251.202,-180.176,-162.109,-145.508,-168.945,0.000,0
111251.206,32.715,58.594,-211.426,73.242,0.000,0
111251.210,-205.078,-214.844,103.027,-207.031,0.000,0
111251.214,-414.062,-448.730,360.840,-432.129,0.000,0
111251.218,-233.887,-261.719,43.457,-230.957,0.000,0
111251.222,84.961,88.867,-612.793,100.586,0.000,0
111251.226,21.484,21.973,-437.012,31.738,0.000,0
111251.230,-413.086,-446.289,476.074,-445.801,0.000,0
111251.234,-422.363,-451.660,460.449,-468.750,0.000,0
111251.238,-38.574,-18.555,-301.270,-33.203,0.000,0
111251.241,53.223,85.938,-548.340,95.703,0.000,0
111251.245,-264.160,-270.508,115.723,-261.719,0.000,0
111251.249,-501.953,-519.043,741.211,-523.926,0.000,0
111251.253,-191.895,-174.805,75.195,-156.250,0.000,0
111251.257,77.637,108.887,-518.066,136.230,0.000,0
111251.261,-179.199,-180.664,-126.465,-161.621,0.000,0
111251.265,-414.551,-438.477,579.102,-400.879,0.000,0
111251.269,-268.555,-281.250,443.848,-267.090,0.000,0
111251.273,6.348,20.508,-314.941,8.789,0.000,0
111251.277,-43.457,-34.180,-269.043,-39.062,0.000,0
111251.280,-365.234,-395.508,499.023,-366.211,0.000,0
111251.284,-287.109,-312.012,285.645,-267.090,0.000,0
111251.288,32.715,48.340,-351.562,68.359,0.000,0
111251.292,-57.129,-39.551,-318.848,-45.410,0.000,0
111251.296,-388.184,-401.367,524.902,-405.762,0.000,0
111251.300,-415.039,-426.758,669.922,-430.664,0.000,0
111251.304,2.441,31.250,-470.703,20.996,0.000,0
111251.308,72.754,111.816,-453.613,102.051,0.000,0
111251.312,-379.395,-359.863,717.285,-369.141,0.000,0
111251.316,-436.523,-426.758,617.188,-430.176,0.000,0
111251.320,-52.734,-29.785,-340.820,-51.758,0.000,0
111251.323,148.438,182.129,-620.117,157.715,0.000,0
111251.327,-182.129,-180.176,231.445,-167.969,0.000,0
111251.331,-490.234,-518.066,765.137,-517.578,0.000,0
111251.335,-248.047,-245.605,208.984,-268.555,0.000,0
111251.339,56.152,98.633,-260.254,83.008,0.000,0
111251.343,-55.176,-24.414,-59.570,-12.695,0.000,0
111251.347,-376.953,-383.789,337.891,-376.953,0.000,0
111251.351,-333.008,-353.516,207.031,-359.375,0.000,0
111251.355,27.344,44.434,-208.496,56.152,0.000,0
111251.359,2.930,37.598,-202.148,44.434,0.000,0
111251.363,-295.898,-299.316,278.320,-299.316,0.000,0
111251.366,-359.375,-368.164,513.184,-374.512,0.000,0
111251.370,-103.516,-87.402,23.438,-107.422,0.000,0
111251.374,51.270,82.031,-468.750,64.941,0.000,0
111251.378,-197.266,-195.801,-122.559,-216.309,0.000,0
111251.382,-360.352,-386.719,244.629,-397.461,0.000,0
111251.386,-114.258,-109.863,-122.559,-112.793,0.000,0
111251.390,-28.320,3.418,-223.633,7.324,0.000,0
111251.394,-273.926,-270.020,70.801,-250.977,0.000,1
111251.398,-360.840,-360.840,350.098,-344.727,0.000,0
111251.402,-70.801,-36.621,-106.934,-26.855,0.000,0
111251.405,74.219,106.934,-560.547,96.680,0.000,0
111251.409,-254.395,-258.301,257.812,-284.668,0.000,0
111251.413,-416.504,-430.664,541.992,-425.293,0.000,0
111251.417,-102.051,-95.215,-226.562,-72.266,0.000,0
111251.421,161.621,198.242,-824.707,204.590,0.000,0
111251.425,-131.348,-114.258,-140.625,-103.027,0.000,0
111251.429,-445.801,-456.543,364.258,-454.590,0.000,0
111251.433,-216.797,-205.078,-246.094,-224.121,0.000,0
111251.437,72.266,112.793,-657.227,105.469,0.000,0
111251.441,-25.879,12.207,-429.199,5.371,0.000,0
111251.445,-397.461,-412.109,443.848,-414.062,0.000,0
111251.448,-395.996,-427.246,317.871,-420.898,0.000,0
111251.452,15.625,31.250,-578.125,40.527,0.000,0
111251.456,71.289,97.656,-587.891,108.887,0.000,0
111251.460,-267.578,-267.090,70.312,-263.184,0.000,0
111251.464,-439.453,-456.055,358.887,-451.172,0.000,0
111251.468,-147.949,-135.742,-245.117,-149.902,0.000,0
111251.472,73.730,118.652,-630.371,84.961,0.000,0
111251.476,-214.844,-194.824,-41.504,-212.891,0.000,0
111251.480,-391.602,-400.879,298.828,-400.391,0.000,0
111251.484,-202.148,-190.430,-142.090,-208.496,0.000,0
111251.488,1.465,36.621,-470.215,11.230,0.000,0
111251.491,-104.492,-90.820,-200.684,-77.148,0.000,0
111251.495,-354.004,-380.859,130.371,-356.934,0.000,0
111251.499,-238.770,-255.859,-66.895,-223.145,0.000,0
111251.503,10.742,12.695,-531.250,42.480,0.000,0
111251.507,-60.059,-64.941,-432.129,-55.664,0.000,0
111251.511,-385.254,-401.367,224.121,-389.648,0.000,0
111251.515,-366.699,-383.301,68.359,-374.023,0.000,0
111251.519,55.176,62.500,-746.582,80.078,0.000,0
111251.523,71.777,74.219,-702.148,87.891,0.000,0
111251.527,-308.594,-334.473,67.383,-333.496,0.000,0
111251.530,-416.992,-428.711,276.855,-418.945,0.000,0
111251.534,-130.859,-116.699,-307.617,-106.445,0.000,0
111251.538,105.469,121.094,-906.250,130.859,0.000,0
111251.542,-168.457,-192.871,-291.504,-175.293,0.000,0
111251.546,-501.465,-544.434,447.754,-537.598,0.000,0
111251.550,-246.094,-255.371,-147.949,-252.441,0.000,0
111251.554,88.867,113.281,-848.633,116.211,0.000,0
111251.558,-22.461,-1.953,-669.922,-2.441,0.000,0
111251.562,-405.762,-425.293,254.883,-429.199,0.000,0
111251.566,-386.719,-414.062,218.750,-421.875,0.000,0
111251.570,44.434,54.199,-803.223,53.223,0.000,0
111251.573,48.340,64.453,-766.602,67.383,0.000,0
111251.577,-336.426,-333.496,137.695,-326.172,0.000,0
111251.581,-435.059,-441.895,391.602,-436.035,0.000,0
111251.585,-117.188,-110.840,-378.418,-133.301,0.000,0
111251.589,47.852,74.219,-721.191,46.875,0.000,0
111251.593,-259.766,-245.605,-41.504,-260.254,0.000,0
111251.597,-414.062,-414.062,169.434,-431.641,0.000,0
111251.601,-141.602,-128.418,-336.426,-151.855,0.000,0
111251.605,24.902,62.012,-583.984,30.762,0.000,0
111251.609,-165.039,-128.418,-280.762,-155.762,0.000,0
111251.613,-455.078,-458.984,351.562,-481.934,0.000,0
111251.616,-264.160,-257.812,-150.879,-291.992,0.000,0
111251.620,58.105,105.957,-875.488,73.730,0.000,0
111251.624,-164.551,-144.043,-185.059,-170.898,0.000,0
111251.628,-490.723,-493.652,522.949,-517.090,0.000,0
111251.632,-356.445,-361.816,-11.230,-380.371,0.000,0
111251.636,36.621,58.105,-737.793,35.156,0.000,0
111251.640,-15.625,13.672,-296.875,5.371,0.000,0
111251.644,-404.297,-430.176,405.273,-434.570,0.000,0
111251.648,-425.781,-469.727,368.164,-471.680,0.000,0
111251.652,-93.262,-95.703,-186.035,-96.680,0.000,0
111251.655,47.363,85.938,-524.414,81.543,0.000,0
111251.659,-208.008,-199.219,-93.750,-190.430,0.000,0
111251.663,-479.492,-497.070,526.855,-508.301,0.000,0
111251.667,-249.023,-223.145,58.594,-260.742,0.000,0
111251.671,59.082,115.723,-667.480,99.609,0.000,0
111251.675,-115.234,-90.332,-510.254,-86.914,0.000,0
111251.679,-392.090,-401.855,52.734,-414.062,0.000,0
111251.683,-350.098,-340.820,295.898,-380.371,0.000,0
111251.687,-52.246,-8.301,-205.566,-44.434,0.000,0
111251.691,-47.363,-16.602,-346.191,-54.199,0.000,0
111251.695,-373.535,-368.164,335.449,-392.090,0.000,0
111251.698,-351.074,-338.867,257.812,-344.238,0.000,0
111251.702,-57.617,-33.203,-374.023,-48.340,0.000,0
111251.706,25.391,42.480,-556.152,23.926,0.000,0
111251.710,-254.883,-259.766,99.609,-254.395,0.000,0
111251.714,-435.547,-459.473,496.094,-434.570,0.000,0
111251.718,-119.141,-124.023,-201.172,-110.352,0.000,0
111251.722,-66.406,-52.734,-361.328,-50.781,0.000,0
111251.726,-407.227,-416.016,437.012,-401.855,0.000,0
111251.730,-374.512,-400.391,362.305,-372.559,0.000,0
111251.734,40.527,41.504,-662.109,51.758,0.000,0
111251.738,87.891,120.117,-710.449,117.188,0.000,0
111251.741,-331.055,-333.008,227.051,-337.402,0.000,0
111251.745,-406.738,-425.781,270.508,-433.105,0.000,0
111251.749,-84.961,-78.125,-492.188,-82.520,0.000,0
111251.753,74.219,100.586,-816.406,96.680,0.000,0
111251.757,-225.586,-221.191,-160.156,-218.750,0.000,0
111251.761,-512.207,-543.457,415.527,-550.293,0.000,0
111251.765,-278.809,-283.203,-49.316,-295.410,0.000,0
111251.769,28.809,56.641,-750.000,63.965,0.000,0
111251.773,-120.117,-106.445,-263.184,-78.125,0.000,0
111251.777,-437.012,-470.703,382.324,-442.383,0.000,0
111251.780,-392.090,-426.270,231.445,-411.133,0.000,0
111251.784,-35.156,-23.926,-482.422,-9.277,0.000,0
111251.788,-24.414,-22.949,-516.113,-12.695,0.000,0
111251.792,-353.027,-381.836,174.316,-373.535,0.000,0
111251.796,-400.879,-430.176,242.188,-418.945,0.000,0
111251.800,-151.367,-145.508,-250.488,-156.250,0.000,0
111251.804,-15.137,5.859,-526.367,-17.578,0.000,0
111251.808,-260.742,-260.254,-28.809,-272.461,0.000,0
111251.812,-425.293,-442.383,335.449,-444.824,0.000,0
111251.816,-238.281,-242.188,129.883,-256.348,0.000,0
111251.820,-107.910,-71.777,-254.395,-94.238,0.000,0
111251.823,-203.125,-188.477,-217.773,-204.590,0.000,0
111251.827,-413.574,-447.266,373.047,-458.496,0.000,0
111251.831,-249.512,-254.395,50.293,-262.695,0.000,0
111251.835,80.078,102.539,-739.746,96.191,0.000,0
111251.839,-127.930,-122.559,-291.504,-139.160,0.000,0
111251.843,-455.566,-459.473,431.152,-461.914,0.000,0
111251.847,-333.496,-341.797,132.324,-341.797,0.000,0
111251.851,1.465,5.859,-663.086,-1.465,0.000,0
111251.855,-5.371,-11.719,-640.137,6.836,0.000,0
111251.859,-436.035,-479.004,321.289,-470.215,0.000,0
111251.863,-521.973,-559.570,590.332,-564.453,0.000,0
111251.866,-135.254,-145.508,-268.066,-142.090,0.000,0
111251.870,38.574,43.457,-705.078,57.129,0.000,0
111251.874,-233.887,-263.184,-37.598,-243.164,0.000,0
111251.878,-520.508,-579.102,638.672,-580.078,0.000,0
111251.882,-230.957,-262.695,-67.383,-258.789,0.000,0
111251.886,85.449,78.613,-736.328,104.492,0.000,0
111251.890,-161.621,-176.758,-159.180,-156.250,0.000,0
111251.894,-458.008,-497.559,474.609,-477.539,0.000,0
111251.898,-339.844,-385.742,256.836,-346.680,0.000,0
111251.902,-55.176,-55.176,-343.262,-40.527,0.000,0
111251.905,-116.211,-109.863,-70.312,-110.352,0.000,0
111251.909,-428.711,-466.309,604.492,-430.664,0.000,0
111251.913,-342.773,-397.461,235.840,-357.422,0.000,0
111251.917,-85.938,-118.164,-160.645,-86.426,0.000,0
111251.921,-71.289,-87.402,-198.242,-59.570,0.000,0
111251.925,-269.531,-308.105,6.348,-282.227,0.000,0
111251.929,-383.301,-433.105,146.973,-410.645,0.000,0
111251.933,-120.117,-129.395,-336.426,-113.770,0.000,0
111251.937,-42.480,-23.926,-200.684,-11.230,0.000,0
111251.941,-325.684,-331.543,365.723,-330.078,0.000,0
111251.945,-466.797,-497.559,631.348,-490.234,0.000,0
111251.948,-210.938,-224.609,119.141,-202.637,0.000,0
111251.952,35.645,53.711,-390.137,73.730,0.000,0
111251.956,-182.617,-170.898,126.953,-169.434,0.000,0
111251.960,-474.609,-493.652,751.465,-505.859,0.000,0
111251.964,-326.660,-323.242,505.859,-348.633,0.000,0
111251.968,-26.367,28.809,-54.199,2.441,0.000,0
111251.972,-21.973,20.996,-251.465,9.766,0.000,0
111251.976,-326.660,-340.332,412.109,-346.191,0.000,0
111251.980,-389.648,-411.621,598.145,-428.711,0.000,0
111251.984,-32.227,-19.531,-232.422,-33.203,0.000,0
111251.988,66.895,93.750,-514.160,70.801,0.000,0
111251.991,-262.207,-256.348,124.023,-279.297,0.000,0
111251.995,-437.500,-448.242,644.531,-467.285,0.000,0
111251.999,-198.242,-171.875,116.211,-200.684,0.000,0
111252.003,18.555,81.055,-489.746,39.062,0.000,0
111252.007,-189.453,-156.250,-190.918,-185.547,0.000,0
111252.011,-405.762,-402.832,475.098,-402.832,0.000,0
111252.015,-250.000,-225.586,165.039,-231.934,0.000,0
111252.019,-22.461,34.180,-463.379,11.230,0.000,0
111252.023,-165.527,-123.535,-131.836,-137.695,0.000,0
111252.027,-411.621,-410.156,408.691,-413.086,0.000,0
111252.030,-256.836,-263.184,46.875,-268.555,0.000,0
111252.034,37.109,46.875,-609.863,47.363,0.000,0
111252.038,-86.914,-47.363,-462.891,-84.473,0.000,0
111252.042,-456.543,-421.387,208.008,-495.605,0.000,0
111252.046,-476.074,-475.586,229.004,-498.535,0.000,0
111252.050,-148.926,-117.188,-780.273,-128.418,0.000,0
111252.054,-101.562,-54.688,-978.027,-104.004,0.000,0
111252.058,-497.070,-458.496,62.012,-509.277,0.000,1
111252.062,-560.547,-541.016,-75.684,-580.566,0.000,0
111252.066,-237.305,-224.121,-878.418,-233.887,0.000,0
111252.070,-148.438,-116.699,-1000.000,-100.098,0.000,0
111252.073,-316.895,-301.758,-861.816,-289.551,0.000,0
111252.077,-516.113,-503.906,-561.035,-517.090,0.000,0
111252.081,-408.691,-379.395,-870.117,-409.668,0.000,0
111252.085,-246.094,-223.145,-1000.000,-223.633,0.000,0
111252.089,-268.555,-241.699,-970.215,-239.258,0.000,0
111252.093,-365.234,-343.750,-875.977,-371.094,0.000,0
111252.097,-333.984,-324.219,-920.410,-345.215,0.000,0
111252.101,-198.730,-152.344,-1000.000,-165.039,0.000,0
111252.105,-166.504,-109.863,-1000.000,-133.789,0.000,0
111252.109,-307.617,-281.250,-856.445,-308.105,0.000,0
111252.113,-352.539,-324.707,-742.676,-355.957,0.000,0
111252.116,-193.848,-142.090,-926.270,-176.758,0.000,0
111252.120,-115.723,-56.641,-1000.000,-86.914,0.000,0
111252.124,-307.617,-304.688,-446.289,-312.012,0.000,0
111252.128,-452.637,-453.613,-202.148,-472.656,0.000,0
111252.132,-216.797,-181.641,-573.242,-208.496,0.000,0
111252.136,-71.777,-40.527,-610.840,-46.875,0.000,0
111252.140,-267.090,-254.395,-164.062,-263.672,0.000,0
111252.144,-522.949,-539.551,588.867,-547.852,0.000,0
111252.148,-391.602,-383.789,543.945,-389.160,0.000,0
111252.152,-39.551,-12.695,-262.207,-24.902,0.000,0
111252.155,-157.227,-162.598,57.129,-182.129,0.000,0
111252.159,-464.355,-487.305,810.059,-500.000,0.000,0
111252.163,-378.418,-395.996,651.367,-396.484,0.000,0
111252.167,-30.762,-23.926,-90.820,-27.832,0.000,0
111252.171,-20.996,1.465,-39.062,-20.996,0.000,0
111252.175,-386.719,-398.438,844.727,-421.875,0.000,0
111252.179,-446.289,-471.191,975.098,-499.512,0.000,0
111252.183,-146.973,-131.836,365.234,-171.875,0.000,0
111252.187,-2.441,41.504,119.629,1.953,0.000,0
111252.191,-208.008,-182.129,613.281,-198.242,0.000,0
111252.195,-386.719,-376.465,-964.355,-395.020,0.000,0
111252.198,-194.824,-168.945,524.414,-210.449,0.000,0
111252.202,103.027,146.484,-299.316,108.398,0.000,0
111252.206,-73.730,-47.363,248.047,-66.895,0.000,0
111252.210,-395.996,-402.832,998.047,-431.152,0.000,0
111252.214,-322.754,-326.660,821.289,-382.812,0.000,0
111252.218,0.488,24.902,150.879,-25.879,0.000,0
111252.222,-22.461,2.930,270.020,-19.043,0.000,0
111252.226,-314.941,-324.707,896.484,-333.008,0.000,0
111252.230,-279.297,-276.367,638.184,-293.457,0.000,0
111252.234,13.184,57.617,77.637,34.180,0.000,0
111252.238,20.996,74.219,203.613,61.523,0.000,0
111252.241,-218.262,-203.125,548.828,-203.125,0.000,0
111252.245,-298.828,-321.289,674.316,-310.059,0.000,0
111252.249,-52.734,-46.387,154.785,-44.434,0.000,0
111252.253,48.340,69.336,-9.766,46.387,0.000,0
111252.257,-215.332,-217.285,507.812,-233.887,0.000,0
111252.261,-366.699,-387.695,556.152,-395.508,0.000,0
111252.265,-142.578,-161.621,141.113,-151.367,0.000,0
111252.269,60.059,57.129,-160.156,90.332,0.000,0
111252.273,-75.684,-87.402,-45.898,-60.547,0.000,0
111252.277,-313.477,-362.793,393.066,-325.195,0.000,0
111252.280,-244.629,-281.250,408.691,-246.582,0.000,0
111252.284,30.762,25.391,-177.246,56.641,0.000,0
111252.288,70.312,54.688,-381.836,85.938,0.000,0
111252.292,-282.715,-335.449,479.004,-310.059,0.000,0
111252.296,-391.113,-432.617,716.797,-414.062,0.000,0
111252.300,-31.250,-30.762,-192.383,-6.836,0.000,0
111252.304,114.258,108.887,-593.262,141.113,0.000,0
111252.308,-174.316,-209.961,49.316,-187.012,0.000,0
111252.312,-390.625,-436.523,676.758,-424.316,0.000,0
111252.316,-173.828,-198.242,156.250,-190.918,0.000,0
111252.320,89.844,89.355,-688.477,86.914,0.000,0
111252.323,-110.352,-130.371,-311.035,-129.883,0.000,0
111252.327,-367.188,-411.621,439.453,-369.141,0.000,0
111252.331,-226.074,-262.207,178.223,-220.703,0.000,0
111252.335,-15.625,-38.574,-424.316,-26.367,0.000,0
111252.339,-42.969,-53.711,-400.391,-28.809,0.000,0
111252.343,-315.918,-356.445,508.301,-308.594,0.000,0
111252.347,-247.070,-302.246,264.160,-260.254,0.000,0
111252.351,60.059,57.617,-545.898,77.637,0.000,0
111252.355,-13.672,-6.836,-379.395,3.906,0.000,0
111252.359,-309.082,-337.402,266.113,-321.777,0.000,0
111252.363,-355.957,-382.812,355.957,-380.859,0.000,0
111252.366,-21.973,-7.812,-461.914,-4.395,0.000,0
111252.370,86.914,117.188,-603.516,119.141,0.000,0
111252.374,-272.461,-261.719,194.824,-271.484,0.000,0
111252.378,-406.250,-412.598,403.809,-408.691,0.000,0
111252.382,-120.117,-108.398,-195.801,-110.840,0.000,0
111252.386,83.984,137.695,-588.379,126.953,0.000,0
111252.390,-143.066,-109.863,-141.602,-109.375,0.000,0
111252.394,-409.668,-421.387,321.289,-440.430,0.000,0
111252.398,-237.305,-225.586,-3.418,-264.160,0.000,0
111252.402,48.828,107.422,-595.215,80.566,0.000,0
111252.405,16.113,50.781,-631.348,45.898,0.000,0
111252.409,-299.316,-323.242,43.457,-321.777,0.000,0
111252.413,-344.727,-366.211,147.949,-377.441,0.000,0
111252.417,20.508,38.574,-652.344,36.621,0.000,0
111252.421,63.477,90.332,-772.949,101.562,0.000,0
111252.425,-268.555,-275.879,-285.156,-265.625,0.000,0
111252.429,-376.465,-399.902,-119.141,-384.766,0.000,0
111252.433,-185.059,-181.152,-229.004,-175.781,0.000,0
111252.437,-35.156,-39.551,-505.859,-41.992,0.000,0
111252.441,-166.992,-203.125,-498.047,-185.547,0.000,0
111252.445,-303.223,-356.445,-201.660,-324.219,0.000,0
111252.448,-171.387,-200.684,-354.492,-167.480,0.000,0
111252.452,5.859,11.230,-815.918,27.832,0.000,0
111252.456,-97.656,-113.770,-581.055,-85.938,0.000,0
111252.460,-386.719,-430.176,149.414,-390.137,0.000,0
111252.464,-306.641,-338.379,-36.133,-307.617,0.000,0
111252.468,-12.207,-2.441,-696.777,14.160,0.000,0
111252.472,-114.746,-115.723,-541.016,-126.953,0.000,0
111252.476,-395.020,-431.152,257.324,-436.035,0.000,0
111252.480,-378.906,-412.109,269.043,-403.809,0.000,0
111252.484,-13.672,-28.809,-736.816,-14.160,0.000,0
111252.488,62.500,54.688,-786.133,69.824,0.000,0
111252.491,-368.164,-392.090,293.457,-401.855,0.000,0
111252.495,-487.305,-502.930,293.945,-529.785,0.000,0
111252.499,-127.930,-132.324,-604.492,-153.320,0.000,0
111252.503,57.129,71.777,-937.988,74.707,0.000,0
111252.507,-187.500,-187.012,-224.121,-161.621,0.000,0
111252.511,-469.238,-503.418,528.809,-490.234,0.000,0
111252.515,-246.582,-248.047,-22.949,-266.602,0.000,0
111252.519,75.195,122.559,-830.566,93.750,0.000,0
111252.523,-86.426,-30.273,-341.309,-55.176,0.000,0
111252.527,-382.812,-366.699,287.109,-392.578,0.000,0
111252.530,-346.680,-345.215,157.715,-393.555,0.000,0
111252.534,-28.320,16.113,-557.129,-37.598,0.000,0
111252.538,-85.449,-46.875,-330.566,-77.148,0.000,0
111252.542,-375.977,-371.582,107.422,-376.465,0.000,0
111252.546,-302.246,-324.219,-186.035,-316.406,0.000,0
111252.550,-79.102,-94.238,-393.555,-90.820,0.000,0
111252.554,-14.648,-0.977,-474.609,11.719,0.000,0
111252.558,-240.234,-269.043,-126.953,-236.816,0.000,0
111252.562,-391.602,-451.660,274.902,-415.527,0.000,0
111252.566,-152.832,-187.012,-63.477,-143.555,0.000,0
111252.570,-29.785,-55.664,-309.082,-13.672,0.000,0
111252.573,-211.914,-257.812,-63.477,-215.820,0.000,0
111252.577,-386.719,-458.984,417.480,-416.504,0.000,0
111252.581,-207.520,-269.043,127.441,-233.398,0.000,0
111252.585,92.285,65.430,-640.137,91.309,0.000,0
111252.589,-76.660,-114.746,-213.867,-99.609,0.000,0
111252.593,-391.602,-440.918,458.496,-425.293,0.000,0
111252.597,-300.293,-340.332,244.141,-317.383,0.000,0
111252.601,10.254,-5.371,-490.723,15.625,0.000,0
111252.605,17.578,12.207,-510.742,40.039,0.000,0
111252.609,-336.914,-366.699,363.770,-331.055,0.000,0
111252.613,-468.262,-500.000,775.391,-489.746,0.000,0
111252.616,-115.234,-119.629,-78.613,-113.281,0.000,0
111252.620,102.539,95.703,-645.020,121.582,0.000,0
111252.624,-182.129,-214.844,28.320,-177.246,0.000,0
111252.628,-424.805,-475.586,652.832,-439.941,0.000,0
111252.632,-178.711,-202.148,7.812,-169.434,0.000,0
111252.636,103.027,108.887,-688.477,138.184,0.000,0
111252.640,-152.344,-152.344,14.648,-153.809,0.000,0
111252.644,-426.758,-446.777,599.121,-443.359,0.000,0
111252.648,-235.840,-266.602,215.820,-264.648,0.000,0
111252.652,24.414,28.320,-353.516,15.137,0.000,0
111252.655,-59.570,-28.809,-164.062,-18.555,0.000,0
111252.659,-362.793,-366.699,509.766,-355.957,0.000,0
111252.663,-298.828,-320.312,227.539,-309.570,0.000,0
111252.667,-3.418,-12.695,-317.871,6.836,0.000,0
111252.671,-19.531,-34.180,-199.219,-17.578,0.000,0
111252.675,-285.645,-319.336,207.520,-306.152,0.000,0
111252.679,-334.961,-386.230,231.934,-370.605,0.000,0
111252.683,-24.902,-41.504,-443.848,-20.020,0.000,0
111252.687,88.867,97.656,-504.395,115.234,0.000,0
111252.691,-220.215,-248.047,173.828,-234.863,0.000,1
111252.695,-358.887,-417.969,412.598,-372.559,0.000,0
111252.698,-122.559,-166.504,-98.633,-114.746,0.000,0
111252.702,67.871,81.055,-556.152,117.188,0.000,0
111252.706,-129.395,-109.375,-123.535,-88.379,0.000,0
111252.710,-405.762,-430.664,270.996,-443.848,0.000,0
111252.714,-255.371,-289.551,6.836,-291.992,0.000,0
111252.718,14.160,20.508,-244.141,42.480,0.000,0
111252.722,7.812,14.648,-424.805,37.109,0.000,0
111252.726,-288.574,-321.777,194.824,-297.852,0.000,0
111252.730,-386.719,-412.598,463.867,-395.020,0.000,0
111252.734,-21.973,-15.137,-609.375,6.836,0.000,0
111252.738,109.375,119.629,-1000.000,144.531,0.000,0
111252.741,-268.555,-290.039,-85.449,-268.555,0.000,0
111252.745,-376.465,-409.180,371.582,-383.301,0.000,0
111252.749,-29.297,-35.156,-453.125,-23.438,0.000,0
111252.753,19.531,12.207,-814.453,25.879,0.000,0
111252.757,-253.906,-291.504,-33.691,-252.930,0.000,0
111252.761,-318.848,-350.586,331.543,-314.453,0.000,0
111252.765,-84.473,-83.984,-375.488,-77.637,0.000,0
111252.769,5.859,17.578,-781.250,11.719,0.000,0
111252.773,-245.117,-249.512,-67.871,-254.395,0.000,0
111252.777,-416.504,-444.336,473.145,-439.941,0.000,0
111252.780,-106.934,-125.488,-360.352,-93.750,0.000,0
111252.784,57.129,66.406,-706.543,93.262,0.000,0
111252.788,-217.773,-217.773,-38.086,-197.266,0.000,0
111252.792,-378.906,-417.480,335.449,-369.629,0.000,0
111252.796,-190.918,-203.613,-122.559,-166.504,0.000,0
111252.800,82.520,101.562,-971.680,111.816,0.000,0
111252.804,-108.887,-112.305,-347.168,-81.055,0.000,0
111252.808,-453.125,-489.746,600.098,-451.172,0.000,0
111252.812,-283.203,-342.773,29.785,-310.059,0.000,0
111252.816,28.809,-2.441,-646.484,30.762,0.000,0
111252.820,21.484,5.371,-676.270,45.898,0.000,0
111252.823,-322.266,-380.859,100.098,-334.961,0.000,0
111252.827,-405.273,-475.586,260.742,-453.613,0.000,0
111252.831,-35.645,-70.312,-570.312,-39.551,0.000,0
111252.835,83.008,61.523,-822.754,112.305,0.000,0
111252.839,-200.684,-248.047,-196.289,-187.988,0.000,0
111252.843,-429.688,-485.840,263.184,-431.152,0.000,0
111252.847,-229.980,-264.648,-221.680,-229.492,0.000,0
111252.851,-37.109,-35.645,-537.598,-5.859,0.000,0
111252.855,-193.359,-206.543,-215.820,-169.434,0.000,0
111252.859,-311.035,-367.188,18.555,-320.801,0.000,0
111252.863,-229.980,-283.691,-37.598,-230.957,0.000,0
111252.866,-21.484,-46.387,-528.320,-8.789,0.000,0
111252.870,-26.367,-59.570,-664.551,-10.742,0.000,0
111252.874,-317.871,-381.836,-20.508,-319.824,0.000,0
111252.878,-313.965,-370.117,-6.348,-319.336,0.000,0
111252.882,-48.340,-91.309,-542.480,-43.457,0.000,0
111252.886,-51.270,-93.750,-529.297,-62.500,0.000,0
111252.890,-331.543,-375.488,79.102,-346.191,0.000,0
111252.894,-419.922,-465.332,425.293,-427.734,0.000,0
111252.898,-100.586,-120.605,-376.953,-72.266,0.000,0
111252.902,52.246,19.043,-802.246,74.707,0.000,0
111252.905,-264.648,-326.172,47.852,-261.230,0.000,0
111252.909,-414.551,-484.863,269.531,-417.480,0.000,0
111252.913,-149.414,-220.215,-369.629,-159.180,0.000,0
111252.917,83.984,37.109,-933.105,93.750,0.000,0
111252.921,-131.836,-191.406,-335.449,-132.812,0.000,0
111252.925,-470.215,-550.781,495.117,-507.812,0.000,0
111252.929,-310.059,-380.371,8.789,-342.285,0.000,0
111252.933,33.203,-12.207,-735.840,44.922,0.000,0
111252.937,-22.461,-55.176,-605.957,12.207,0.000,0
111252.941,-387.695,-440.918,335.449,-375.000,0.000,0
111252.945,-418.945,-475.098,348.633,-426.758,0.000,0
111252.948,-14.160,-33.691,-722.656,-2.930,0.000,0
111252.952,2.441,0.000,-639.160,19.531,0.000,0
111252.956,-308.594,-322.266,-16.113,-312.012,0.000,0
111252.960,-350.586,-387.207,-17.578,-376.953,0.000,0
111252.964,-158.691,-168.945,-301.270,-177.734,0.000,0
111252.968,-17.090,12.695,-493.164,1.953,0.000,0
111252.972,-173.340,-178.223,-54.688,-164.062,0.000,0
111252.976,-381.348,-406.738,241.211,-403.320,0.000,0
111252.980,-187.012,-191.406,-288.086,-192.871,0.000,0
111252.984,22.949,48.340,-553.711,43.945,0.000,0
111252.988,-200.195,-185.547,-43.457,-213.867,0.000,0
111252.991,-475.586,-515.625,541.504,-559.082,0.000,0
111252.995,-142.578,-154.785,-278.809,-148.926,0.000,0
111252.999,103.516,141.113,-677.246,158.203,0.000,0
111253.003,-203.125,-190.918,15.137,-207.031,0.000,0
111253.007,-368.164,-383.789,338.379,-375.977,0.000,0
111253.011,-177.246,-167.969,-38.574,-168.457,0.000,0
111253.015,66.406,102.539,-627.930,90.332,0.000,0
111253.019,-87.891,-57.617,-260.742,-76.172,0.000,0
111253.023,-429.199,-414.062,572.266,-453.125,0.000,0
111253.027,-317.383,-309.082,334.961,-331.543,0.000,0
111253.030,0.977,39.551,-399.902,21.484,0.000,0
111253.034,8.789,55.176,-527.832,33.203,0.000,0
111253.038,-276.367,-272.949,-40.039,-280.762,0.000,0
111253.042,-384.766,-397.461,486.816,-390.625,0.000,0
111253.046,-66.895,-48.340,-236.816,-38.086,0.000,0
111253.050,81.055,111.816,-728.027,106.445,0.000,0
111253.054,-254.883,-245.117,180.176,-251.953,0.000,0
111253.058,-399.902,-399.414,551.758,-410.645,0.000,0
111253.062,-153.320,-137.695,-116.699,-179.688,0.000,0
111253.066,61.035,101.562,-635.742,60.547,0.000,0
111253.070,-129.395,-105.469,-131.348,-119.629,0.000,0
111253.073,-374.023,-380.371,433.105,-388.184,0.000,0
111253.077,-226.562,-219.238,66.406,-231.934,0.000,0
111253.081,7.812,29.785,-503.906,17.578,0.000,0
111253.085,-61.523,-40.527,-256.348,-51.270,0.000,0
111253.089,-351.074,-341.797,545.898,-350.098,0.000,0
111253.093,-279.785,-277.832,214.844,-291.016,0.000,0
111253.097,40.039,67.871,-578.125,50.781,0.000,0
111253.101,-29.297,-0.488,-362.305,-30.762,0.000,0
111253.105,-321.777,-312.988,319.824,-341.797,0.000,0
111253.109,-350.586,-345.703,359.863,-365.723,0.000,0
111253.113,-42.969,-19.531,-416.504,-34.668,0.000,0
111253.116,52.246,87.891,-572.754,68.848,0.000,0
111253.120,-270.508,-265.625,200.195,-273.926,0.000,0
111253.124,-414.551,-414.062,495.117,-412.109,0.000,0
111253.128,-148.438,-137.207,-265.625,-146.973,0.000,0
111253.132,82.520,115.234,-616.699,95.215,0.000,0
111253.136,-163.574,-129.883,27.344,-147.461,0.000,0
111253.140,-460.449,-475.586,653.320,-502.441,0.000,0
111253.144,-275.879,-286.621,326.172,-313.965,0.000,0
111253.148,72.754,100.098,-514.160,83.496,0.000,0
111253.152,-21.484,17.578,-337.402,-12.207,0.000,0
111253.155,-395.508,-413.574,519.531,-419.922,0.000,0
111253.159,-391.602,-416.016,350.098,-420.898,0.000,0
111253.163,-34.180,-12.207,-406.738,-24.902,0.000,0
111253.167,28.320,44.434,-426.758,38.086,0.000,0
111253.171,-273.438,-280.762,226.074,-282.715,0.000,0
111253.175,-359.375,-378.418,312.500,-373.047,0.000,0
111253.179,-146.973,-153.320,75.684,-160.156,0.000,0
111253.183,48.340,71.289,-464.355,49.316,0.000,0
111253.187,-123.047,-101.562,-227.051,-121.582,0.000,0
111253.191,-345.215,-334.961,172.852,-368.164,0.000,0
111253.195,-169.434,-144.531,-192.383,-174.805,0.000,0
111253.198,-4.883,24.902,-376.953,0.000,0.000,0
111253.202,-159.180,-137.695,-92.285,-172.852,0.000,0
111253.206,-394.531,-390.137,427.734,-424.316,0.000,0
111253.210,-270.020,-264.160,175.781,-286.133,0.000,0
111253.214,47.363,78.125,-638.184,55.664,0.000,0
111253.218,-181.641,-166.992,-8.301,-173.828,0.000,0
111253.222,-445.312,-452.148,668.457,-450.195,0.000,0
111253.226,-188.477,-186.523,-48.828,-201.660,0.000,0
111253.230,98.145,106.934,-765.137,112.793,0.000,0
111253.234,-88.379,-102.051,-93.750,-73.730,0.000,0
111253.238,-442.383,-473.633,732.910,-479.980,0.000,0
111253.241,-302.734,-315.918,234.375,-340.820,0.000,0
111253.245,42.969,47.852,-581.543,49.805,0.000,0
111253.249,9.766,25.391,-513.184,35.645,0.000,0
111253.253,-366.699,-376.465,427.734,-376.953,0.000,0
111253.257,-249.023,-257.324,83.496,-248.535,0.000,0
111253.261,83.008,103.516,-634.766,119.629,0.000,0
111253.265,-80.566,-67.871,-253.418,-52.246,0.000,0
111253.269,-340.820,-343.750,142.578,-335.449,0.000,0
111253.273,-285.156,-292.969,-88.379,-312.500,0.000,0
111253.277,-14.160,-6.348,-642.578,-27.832,0.000,0
111253.280,-35.156,-23.926,-250.000,-20.996,0.000,0
111253.284,-302.734,-319.824,259.277,-305.664,0.000,0
111253.288,-304.688,-335.938,139.648,-323.242,0.000,0
111253.292,-77.637,-70.312,-264.160,-65.430,0.000,0
111253.296,-6.348,19.531,-478.027,15.625,0.000,0
111253.300,-234.863,-239.258,28.320,-250.488,0.000,0
111253.304,-388.184,-428.711,403.320,-419.922,0.000,0
111253.308,-131.836,-162.109,-156.738,-123.535,0.000,0
111253.312,46.875,44.922,-587.891,96.191,0.000,0
111253.316,-189.453,-211.914,-43.945,-174.805,0.000,0
111253.320,-394.531,-443.848,515.625,-410.645,0.000,0
111253.323,-223.145,-250.977,155.273,-208.496,0.000,0
111253.327,43.945,51.270,-581.543,90.820,0.000,0
111253.331,-60.547,-64.941,-350.586,-27.344,0.000,0
111253.335,-392.090,-432.617,483.887,-404.785,0.000,0
111253.339,-352.051,-374.023,373.047,-354.004,0.000,0
111253.343,-35.156,-31.738,-405.273,-9.277,0.000,0
111253.347,23.926,21.484,-607.422,58.594,0.000,0
111253.351,-299.316,-329.102,242.188,-290.039,0.000,0
111253.355,-492.188,-537.109,805.176,-513.184,0.000,0
111253.359,-132.812,-140.137,-90.332,-107.910,0.000,0
111253.363,82.520,94.727,-660.645,126.465,0.000,0
111253.366,-177.246,-190.918,-131.836,-157.227,0.000,0
111253.370,-417.969,-448.242,693.848,-397.949,0.000,0
111253.374,-252.441,-277.832,276.367,-259.766,0.000,0
111253.378,30.762,22.461,-646.484,29.785,0.000,0
111253.382,-106.445,-133.789,-265.625,-98.145,0.000,0
111253.386,-353.516,-410.156,456.055,-356.445,0.000,0
111253.390,-246.582,-291.992,126.953,-262.207,0.000,0
111253.394,-10.254,-21.484,-434.570,-10.742,0.000,0
111253.398,-32.227,-44.922,-315.430,-17.090,0.000,0
111253.402,-299.805,-348.633,214.355,-311.523,0.000,1
111253.405,-332.520,-366.211,316.895,-326.172,0.000,0
111253.409,-59.082,-64.453,-326.660,-28.809,0.000,0
111253.413,-29.297,-39.551,-291.504,-28.320,0.000,0
111253.417,-308.105,-345.703,446.289,-335.938,0.000,0
111253.421,-343.262,-415.039,412.598,-375.977,0.000,0
111253.425,-33.203,-85.449,-336.914,-34.180,0.000,0
111253.429,74.707,51.270,-553.711,110.352,0.000,0
111253.433,-236.328,-281.738,206.055,-222.168,0.000,0
111253.437,-382.812,-448.730,432.129,-402.832,0.000,0
111253.441,-139.648,-180.664,-327.637,-146.484,0.000,0
111253.445,69.336,56.641,-698.730,101.562,0.000,0
111253.448,-99.609,-135.742,-259.277,-66.406,0.000,0
111253.452,-428.711,-495.117,462.402,-446.777,0.000,0
111253.456,-343.750,-384.766,317.383,-366.699,0.000,0
111253.460,-33.203,-25.879,-312.988,-7.324,0.000,0
111253.464,13.672,10.254,-540.527,42.480,0.000,0
111253.468,-272.949,-311.035,86.426,-266.113,0.000,0
111253.472,-401.367,-437.988,398.926,-409.668,0.000,0
111253.476,-68.359,-80.078,-437.500,-73.242,0.000,0
111253.480,43.945,47.852,-684.570,51.270,0.000,0
111253.484,-248.535,-253.418,-18.066,-236.816,0.000,0
111253.488,-369.141,-390.137,300.293,-362.305,0.000,0
111253.491,-187.988,-192.383,-108.398,-179.688,0.000,0
111253.495,12.695,48.340,-652.344,56.641,0.000,0
111253.499,-138.184,-125.000,-315.918,-98.633,0.000,0
111253.503,-371.582,-387.207,274.902,-355.957,0.000,0
111253.507,-229.004,-232.910,-99.609,-215.332,0.000,0
111253.511,2.441,-3.906,-689.941,-0.977,0.000,0
111253.515,-95.703,-106.445,-438.477,-100.586,0.000,0
111253.519,-389.160,-414.062,333.984,-387.207,0.000,0
111253.523,-303.223,-331.543,4.395,-295.898,0.000,0
111253.527,36.133,33.203,-870.605,56.152,0.000,0
111253.530,-62.500,-62.500,-490.723,-53.711,0.000,0
111253.534,-368.652,-380.371,221.680,-362.305,0.000,0
111253.538,-329.102,-364.258,41.992,-329.590,0.000,0
111253.542,-40.039,-54.199,-723.633,-28.320,0.000,0
111253.546,18.555,51.758,-807.129,65.430,0.000,0
111253.550,-328.613,-321.289,317.383,-319.336,0.000,0
111253.554,-459.473,-471.680,399.902,-483.887,0.000,0
111253.558,-150.391,-150.391,-597.656,-172.852,0.000,0
111253.562,33.691,40.527,-870.605,50.293,0.000,0
111253.566,-126.953,-139.160,-410.156,-104.980,0.000,0
111253.570,-410.156,-448.242,318.848,-439.453,0.000,0
111253.573,-268.555,-278.809,-147.949,-282.227,0.000,0
111253.577,44.434,72.754,-925.293,79.102,0.000,0
111253.581,-70.801,-57.129,-618.164,-46.387,0.000,0
111253.585,-353.027,-367.188,56.152,-354.004,0.000,0
111253.589,-358.887,-378.418,150.879,-378.906,0.000,0
111253.593,-104.004,-89.844,-458.008,-107.422,0.000,0
111253.597,-57.129,-20.020,-585.938,-23.926,0.000,0
111253.601,-275.391,-284.180,-97.168,-264.160,0.000,0
111253.605,-333.008,-342.773,20.020,-343.750,0.000,0
111253.609,-106.445,-75.684,-490.723,-95.703,0.000,0
111253.613,-18.555,-1.465,-623.047,1.953,0.000,0
111253.616,-236.816,-247.070,-221.680,-243.652,0.000,0
111253.620,-395.020,-385.742,59.082,-427.246,0.000,0
111253.624,-175.781,-149.414,-268.066,-168.457,0.000,0
111253.628,38.086,55.664,-722.168,80.566,0.000,0
111253.632,-152.832,-152.832,-315.918,-155.273,0.000,0
111253.636,-370.117,-395.508,263.184,-389.648,0.000,0
111253.640,-249.512,-262.695,-42.969,-228.027,0.000,0
111253.644,24.902,46.875,-907.715,51.270,0.000,0
111253.648,-46.875,-24.414,-758.301,-49.805,0.000,0
111253.652,-364.258,-377.441,167.480,-400.391,0.000,0
111253.655,-358.887,-366.699,360.840,-385.254,0.000,0
111253.659,-66.406,-41.016,-403.809,-71.289,0.000,0
111253.663,10.254,33.203,-660.156,19.531,0.000,0
111253.667,-225.098,-233.398,-62.012,-231.445,0.000,0
111253.671,-391.113,-419.922,465.332,-425.781,0.000,0
111253.675,-117.188,-120.605,-419.922,-110.352,0.000,0
111253.679,104.492,105.957,-1000.000,135.742,0.000,0
111253.683,-135.742,-158.691,-266.602,-126.465,0.000,0
111253.687,-402.344,-446.777,580.566,-412.598,0.000,0
111253.691,-246.582,-281.738,-18.555,-270.996,0.000,0
111253.695,53.711,58.105,-898.926,29.785,0.000,0
111253.698,-95.215,-93.750,-147.461,-99.121,0.000,0
111253.702,-376.953,-401.855,539.551,-392.578,0.000,0
111253.706,-255.371,-265.137,64.941,-287.109,0.000,0
111253.710,-0.977,17.578,-479.980,-10.254,0.000,0
111253.714,-6.836,8.301,-384.277,5.371,0.000,0
111253.718,-278.320,-299.805,221.191,-285.156,0.000,0
111253.722,-293.457,-326.660,202.148,-317.871,0.000,0
111253.726,-35.645,-33.691,-411.133,-22.949,0.000,0
111253.730,-30.762,-17.578,-408.203,-4.883,0.000,0
111253.734,-274.902,-296.387,300.293,-279.785,0.000,0
111253.738,-363.770,-394.531,465.332,-382.812,0.000,0
111253.741,-69.824,-76.660,-447.754,-70.801,0.000,0
111253.745,53.223,69.336,-500.000,89.355,0.000,0
111253.749,-199.219,-216.797,97.168,-205.078,0.000,0
111253.753,-332.520,-381.348,324.707,-369.141,0.000,0
111253.757,-147.461,-178.223,-89.355,-159.668,0.000,0
111253.761,70.312,67.383,-620.117,76.172,0.000,0
111253.765,-129.395,-139.160,-142.578,-128.418,0.000,0
111253.769,-398.438,-434.570,318.848,-436.035,0.000,0
111253.773,-257.324,-287.109,114.258,-295.898,0.000,0
111253.777,34.180,28.320,-483.887,45.410,0.000,0
111253.780,18.555,20.996,-535.645,52.734,0.000,0
111253.784,-291.992,-317.871,241.699,-294.922,0.000,0
111253.788,-379.395,-420.410,495.117,-394.531,0.000,0
111253.792,-61.523,-82.031,-352.539,-33.203,0.000,0
111253.796,90.332,75.684,-845.215,100.586,0.000,0
111253.800,-180.664,-211.426,-109.375,-194.336,0.000,0
111253.804,-388.184,-435.547,523.926,-391.113,0.000,0
111253.808,-215.820,-261.230,20.996,-234.375,0.000,0
111253.812,48.340,20.508,-658.691,34.668,0.000,0
111253.816,-95.703,-137.207,-236.816,-101.562,0.000,0
111253.820,-357.422,-422.852,404.297,-378.906,0.000,0
111253.823,-214.844,-276.367,7.812,-228.027,0.000,0
111253.827,-9.277,-49.316,-520.020,-11.719,0.000,0
111253.831,-88.867,-127.441,-221.680,-104.980,0.000,0
111253.835,-356.445,-412.598,633.301,-379.395,0.000,0
111253.839,-284.668,-347.656,298.828,-288.574,0.000,0
111253.843,58.105,20.996,-685.059,74.707,0.000,0
111253.847,-19.531,-44.434,-363.281,-10.254,0.000,0
111253.851,-307.617,-353.027,323.242,-312.988,0.000,0
111253.855,-303.711,-360.840,85.938,-320.312,0.000,0
111253.859,-19.043,-42.969,-777.344,-8.301,0.000,0
111253.863,50.293,44.922,-730.469,75.195,0.000,0
111253.866,-363.281,-407.715,431.641,-380.371,0.000,0
111253.870,-343.750,-396.484,270.020,-363.770,0.000,0
111253.874,13.672,-2.930,-444.336,31.250,0.000,0
111253.878,13.184,15.137,-452.148,54.688,0.000,0
111253.882,-277.832,-323.730,284.668,-287.598,0.000,0
111253.886,-380.371,-449.219,519.043,-420.410,0.000,0
111253.890,-58.105,-90.820,-277.832,-42.969,0.000,0
111253.894,83.008,80.566,-632.324,116.211,0.000,0
111253.898,-169.434,-179.199,-139.648,-153.320,0.000,0
111253.902,-384.766,-417.969,486.816,-399.414,0.000,0
111253.905,-241.211,-256.348,179.199,-259.277,0.000,0
111253.909,20.020,44.434,-663.574,31.250,0.000,0
111253.913,-81.543,-61.035,-529.785,-75.195,0.000,0
111253.917,-317.871,-321.289,128.906,-318.359,0.000,0
111253.921,-271.484,-269.531,352.539,-270.996,0.000,0
111253.925,-52.734,-20.020,-174.805,-45.898,0.000,0
111253.929,-8.789,11.230,-505.859,-10.742,0.000,0
111253.933,-270.020,-284.668,206.055,-288.574,0.000,0
111253.937,-328.125,-324.219,295.898,-324.707,0.000,0
111253.941,-63.965,-20.996,-368.164,-47.852,0.000,0
111253.945,-27.344,20.996,-446.777,-16.113,0.000,0
111253.948,-274.414,-252.930,174.316,-285.156,0.000,0
111253.952,-354.980,-347.656,429.688,-373.047,0.000,0
111253.956,-83.984,-51.270,-375.000,-69.336,0.000,0
111253.960,77.148,122.070,-738.281,105.957,0.000,0
111253.964,-218.262,-203.125,132.812,-223.633,0.000,0
111253.968,-444.336,-439.941,653.809,-468.262,0.000,0
111253.972,-222.168,-208.008,181.152,-244.629,0.000,1
111253.976,16.113,50.293,-500.488,24.414,0.000,0
111253.980,-54.688,-27.344,-301.270,-46.387,0.000,0
111253.984,-349.609,-353.516,656.250,-389.648,0.000,0
111253.988,-294.922,-301.270,284.180,-323.730,0.000,0
111253.991,70.801,79.102,-687.988,80.078,0.000,0
111253.995,34.180,41.504,-501.953,47.363,0.000,0
111253.999,-284.668,-301.758,310.547,-288.574,0.000,0
111254.003,-361.816,-395.996,432.129,-392.578,0.000,0
111254.007,-83.984,-90.332,-336.426,-105.469,0.000,0
111254.011,16.113,43.945,-530.273,27.344,0.000,0
111254.015,-264.160,-249.512,191.406,-245.117,0.000,0
111254.019,-325.684,-351.074,167.969,-333.496,0.000,0
111254.023,-103.516,-119.141,-381.836,-125.977,0.000,0
111254.027,15.625,41.016,-442.383,36.133,0.000,0
111254.030,-148.438,-137.207,-62.012,-124.023,0.000,0
111254.034,-341.309,-372.559,274.902,-361.816,0.000,0
111254.038,-193.359,-206.543,-52.246,-203.613,0.000,0
111254.042,-6.348,17.578,-520.996,12.207,0.000,0
111254.046,-102.539,-94.238,-278.809,-101.562,0.000,0
111254.050,-324.707,-344.238,351.074,-354.492,0.000,0
111254.054,-277.344,-276.855,208.984,-294.434,0.000,0
111254.058,11.719,44.922,-522.461,39.062,0.000,0
111254.062,-25.391,2.930,-405.762,-5.859,0.000,0
111254.066,-350.586,-337.402,288.574,-366.211,0.000,0
111254.070,-333.496,-327.148,242.676,-342.773,0.000,0
111254.073,-71.777,-41.016,-189.453,-62.012,0.000,0
111254.077,-12.207,34.668,-477.539,6.348,0.000,0
111254.081,-242.676,-225.098,43.457,-249.023,0.000,0
111254.085,-393.555,-396.973,662.109,-425.781,0.000,0
111254.089,-147.949,-129.395,30.273,-155.762,0.000,0
111254.093,84.473,134.277,-719.238,124.023,0.000,0
111254.097,-87.402,-55.664,-260.742,-57.129,0.000,0
111254.101,-410.645,-396.973,590.820,-415.527,0.000,0
111254.105,-288.574,-263.672,224.609,-285.645,0.000,0
111254.109,23.438,80.566,-538.086,68.848,0.000,0
111254.113,-65.918,-19.531,-451.172,-39.062,0.000,0
111254.116,-329.590,-321.289,362.305,-323.730,0.000,0
111254.120,-375.488,-371.582,664.062,-369.629,0.000,0
111254.124,-80.566,-67.383,-280.762,-97.656,0.000,0
111254.128,25.391,53.223,-511.230,44.434,0.000,0
111254.132,-260.742,-253.906,226.074,-236.816,0.000,0
111254.136,-344.238,-349.121,387.207,-348.633,0.000,0
111254.140,-125.977,-104.980,-121.582,-129.883,0.000,0
111254.144,-53.711,-5.371,-247.559,-27.344,0.000,0
111254.148,-257.324,-220.215,252.441,-238.770,0.000,0
111254.152,-389.160,-373.047,573.730,-407.715,0.000,0
111254.155,-163.574,-125.000,0.977,-142.090,0.000,0
111254.159,40.039,90.332,-481.934,78.125,0.000,0
111254.163,-163.086,-129.395,150.391,-160.156,0.000,0
111254.167,-370.117,-358.887,569.824,-379.883,0.000,0
111254.171,-195.312,-184.570,59.082,-206.543,0.000,0
111254.175,35.645,79.102,-489.746,57.129,0.000,0
111254.179,-100.098,-57.617,-137.207,-69.824,0.000,0
111254.183,-367.676,-350.098,382.812,-376.953,0.000,0
111254.187,-315.918,-286.621,118.164,-327.637,0.000,0
111254.191,-33.203,25.391,-407.227,-12.695,0.000,0
111254.195,27.344,95.703,-530.762,72.266,0.000,0
111254.198,-218.262,-187.012,86.426,-202.148,0.000,0
111254.202,-382.324,-365.234,537.598,-389.160,0.000,0
111254.206,-140.137,-79.102,-42.480,-107.422,0.000,0
111254.210,57.129,137.695,-537.598,106.934,0.000,0
111254.214,-120.605,-77.148,-226.562,-115.723,0.000,0
111254.218,-362.305,-351.562,482.910,-382.812,0.000,0
111254.222,-254.883,-225.098,173.828,-254.883,0.000,0
111254.226,40.039,99.121,-663.574,64.453,0.000,0
111254.230,-55.664,-16.602,-398.438,-55.176,0.000,0
111254.234,-296.875,-291.504,169.922,-310.059,0.000,0
111254.238,-249.512,-250.000,224.609,-269.043,0.000,0
111254.241,-26.855,-5.371,-488.281,-26.367,0.000,0
111254.245,22.461,56.641,-798.340,45.410,0.000,0
111254.249,-256.836,-254.395,168.457,-243.652,0.000,0
111254.253,-337.891,-345.215,410.645,-324.219,0.000,0
111254.257,-60.547,-43.457,-375.488,-35.645,0.000,0
111254.261,18.066,44.434,-574.219,31.250,0.000,0
111254.265,-291.016,-281.738,283.203,-310.059,0.000,0
111254.269,-388.184,-391.113,465.820,-406.250,0.000,0
111254.273,-43.945,-30.273,-534.668,-38.086,0.000,0
111254.277,117.188,135.742,-908.203,129.883,0.000,0
111254.280,-200.684,-204.590,-37.109,-188.477,0.000,0
111254.284,-383.789,-416.016,361.816,-386.719,0.000,0
111254.288,-131.836,-160.156,-277.832,-142.090,0.000,0
111254.292,82.520,97.656,-884.766,104.004,0.000,0
111254.296,-61.523,-40.527,-358.398,-29.785,0.000,0
111254.300,-382.812,-387.695,530.273,-406.738,0.000,0
111254.304,-291.016,-296.387,97.656,-331.055,0.000,0
111254.308,49.316,65.918,-770.020,56.152,0.000,0
111254.312,41.504,59.570,-795.410,55.176,0.000,0
111254.316,-247.559,-265.137,-34.668,-257.812,0.000,0
111254.320,-362.305,-390.625,311.035,-394.531,0.000,0
111254.323,-115.234,-124.023,-359.863,-134.277,0.000,0
111254.327,29.785,28.809,-748.047,39.551,0.000,0
111254.331,-185.059,-220.215,-231.934,-183.594,0.000,0
111254.335,-309.082,-378.906,80.078,-320.801,0.000,0
111254.339,-166.992,-203.125,-303.711,-182.617,0.000,0
111254.343,-21.484,0.000,-735.840,0.488,0.000,0
111254.347,-138.184,-132.812,-604.980,-119.141,0.000,0
111254.351,-343.262,-380.371,-296.875,-377.441,0.000,0
111254.355,-247.070,-250.488,-375.977,-247.559,0.000,0
111254.359,-65.430,-44.922,-622.070,-22.461,0.000,0
111254.363,-130.371,-126.953,-623.047,-121.094,0.000,0
111254.366,-363.770,-375.977,24.902,-399.902,0.000,0
111254.370,-353.027,-342.285,39.062,-372.559,0.000,0
111254.374,-68.359,-42.480,-739.258,-63.477,0.000,0
111254.378,-53.223,-54.688,-742.188,-57.617,0.000,0
111254.382,-320.312,-358.887,-34.180,-334.961,0.000,0
111254.386,-386.719,-442.383,80.078,-403.320,0.000,0
111254.390,-99.121,-116.211,-633.789,-79.102,0.000,0
111254.394,45.898,44.434,-1000.000,69.336,0.000,0
111254.398,-208.008,-239.746,-571.777,-231.445,0.000,0
111254.402,-435.059,-468.262,306.641,-456.055,0.000,0
111254.405,-233.887,-252.930,5.859,-229.004,0.000,0
111254.409,63.965,49.805,-933.105,74.219,0.000,0
111254.413,-51.270,-78.613,-583.984,-38.086,0.000,0
111254.417,-373.047,-429.199,348.633,-390.625,0.000,0
111254.421,-263.184,-314.453,51.758,-284.180,0.000,0
111254.425,66.895,46.387,-856.934,82.520,0.000,0
111254.429,1.953,-28.809,-647.461,21.973,0.000,0
111254.433,-285.156,-350.586,213.379,-295.410,0.000,0
111254.437,-338.867,-411.621,312.988,-367.676,0.000,0
111254.441,-85.938,-132.324,-391.113,-107.910,0.000,0
111254.445,25.879,3.906,-605.957,27.832,0.000,0
111254.448,-229.004,-276.367,157.227,-230.957,0.000,0
111254.452,-328.125,-397.461,217.285,-347.168,0.000,0
111254.456,-90.820,-136.719,-567.871,-111.816,0.000,0
111254.460,34.180,12.207,-688.965,30.273,0.000,0
111254.464,-177.246,-220.703,-25.391,-183.105,0.000,0
111254.468,-379.883,-451.172,425.293,-408.203,0.000,0
111254.472,-168.457,-222.168,-150.391,-168.457,0.000,0
111254.476,21.484,-15.137,-607.422,46.875,0.000,0
111254.480,-147.461,-199.707,-145.996,-150.879,0.000,0
111254.484,-336.914,-398.926,373.047,-355.957,0.000,0
111254.488,-280.273,-346.191,157.715,-305.176,0.000,0
111254.491,-11.230,-58.105,-448.730,-20.508,0.000,0
111254.495,-47.852,-77.148,-217.285,-44.434,0.000,0
111254.499,-349.609,-404.297,464.844,-380.859,0.000,0
111254.503,-312.012,-363.770,224.609,-355.469,0.000,0
111254.507,-29.297,-53.223,-512.207,-37.109,0.000,0
111254.511,70.801,66.406,-738.770,106.445,0.000,0
111254.515,-216.309,-248.047,13.184,-217.285,0.000,0
111254.519,-415.527,-457.520,570.312,-451.172,0.000,0
111254.523,-135.742,-143.555,-223.633,-123.535,0.000,0
111254.527,67.871,79.102,-766.602,108.398,0.000,0
111254.530,-140.137,-137.207,-248.535,-103.027,0.000,0
111254.534,-382.812,-410.156,472.656,-382.324,0.000,0
111254.538,-287.598,-313.477,338.867,-310.059,0.000,0
111254.542,-4.395,-4.883,-574.219,-4.395,0.000,0
111254.546,-54.688,-59.082,-500.488,-48.828,0.000,0
111254.550,-303.711,-337.891,247.070,-301.758,0.000,0
111254.554,-275.391,-321.289,270.020,-299.805,0.000,0
111254.558,-60.547,-66.895,-346.191,-61.035,0.000,0
111254.562,-0.977,10.742,-710.449,24.414,0.000,0
111254.566,-238.281,-265.625,-39.062,-248.047,0.000,0
111254.570,-325.684,-375.488,321.289,-346.191,0.000,0
111254.573,-58.594,-90.820,-414.551,-59.570,0.000,0
111254.577,12.207,-8.301,-633.301,11.230,0.000,0
111254.581,-252.930,-287.598,232.910,-267.578,0.000,0
111254.585,-366.211,-410.645,571.289,-376.465,0.000,0
111254.589,-125.488,-173.828,-177.734,-146.973,0.000,0
111254.593,36.133,-8.301,-602.539,21.484,0.000,0
111254.597,-132.324,-180.176,-219.238,-135.254,0.000,1
111254.601,-317.383,-385.254,315.430,-332.031,0.000,0
111254.605,-195.801,-250.000,-81.543,-204.102,0.000,0
111254.609,38.574,25.391,-757.812,69.824,0.000,0
111254.613,-46.387,-71.777,-403.809,-19.531,0.000,0
111254.616,-370.605,-424.805,493.652,-394.531,0.000,0
111254.620,-343.262,-382.812,384.277,-366.211,0.000,0
111254.624,-0.977,-22.949,-448.730,10.254,0.000,0
111254.628,32.227,12.207,-523.438,60.059,0.000,0
111254.632,-257.812,-304.199,153.809,-261.230,0.000,0
111254.636,-363.281,-433.105,389.160,-400.391,0.000,0
111254.640,-116.211,-167.969,-229.980,-120.117,0.000,0
111254.644,32.227,4.395,-576.660,48.340,0.000,0
111254.648,-166.992,-218.750,-121.582,-175.781,0.000,0
111254.652,-326.172,-399.902,277.832,-350.586,0.000,0
111254.655,-198.730,-251.465,-0.977,-225.098,0.000,0
111254.659,9.766,5.859,-587.891,17.090,0.000,0
111254.663,-87.402,-96.680,-516.113,-75.684,0.000,0
111254.667,-319.824,-354.492,39.062,-334.961,0.000,0
111254.671,-252.441,-260.742,133.789,-251.465,0.000,0
111254.675,-58.105,-43.457,-318.359,-45.410,0.000,0
111254.679,-74.707,-75.195,-494.141,-88.379,0.000,0
111254.683,-289.551,-318.848,-29.785,-332.031,0.000,0
111254.687,-286.133,-318.359,25.879,-309.082,0.000,0
111254.691,-30.273,-48.340,-500.488,-25.391,0.000,0
111254.695,-50.781,-61.523,-394.043,-60.547,0.000,0
111254.698,-268.555,-275.391,-103.516,-290.527,0.000,0
111254.702,-315.430,-335.938,45.410,-329.590,0.000,0
111254.706,-101.562,-105.957,-458.496,-90.820,0.000,0
111254.710,68.848,82.520,-949.219,98.145,0.000,0
111254.714,-195.801,-195.801,-189.941,-189.941,0.000,0
111254.718,-438.477,-453.125,503.906,-478.027,0.000,0
111254.722,-202.637,-217.285,-147.949,-236.328,0.000,0
111254.726,49.316,70.312,-1000.000,60.059,0.000,0
111254.730,-98.633,-60.059,-645.508,-83.008,0.000,0
111254.734,-459.961,-452.637,552.246,-480.469,0.000,0
111254.738,-408.691,-397.461,151.367,-433.105,0.000,0
111254.741,-98.145,-48.340,-1000.000,-108.887,0.000,0
111254.745,-126.465,-79.590,-779.785,-117.188,0.000,0
111254.749,-376.953,-359.375,-30.273,-360.352,0.000,0
111254.753,-423.340,-420.410,-251.953,-464.844,0.000,0
111254.757,-204.590,-171.387,-891.113,-251.953,0.000,0
111254.761,-138.184,-95.703,-1000.000,-133.301,0.000,0
111254.765,-279.297,-251.953,-760.742,-265.625,0.000,0
111254.769,-327.637,-312.012,-789.062,-322.266,0.000,0
111254.773,-265.137,-230.957,-1000.000,-264.160,0.000,0
111254.777,-212.891,-119.141,-1000.000,-178.223,0.000,0
111254.780,-199.707,-121.582,-990.234,-163.086,0.000,0
111254.784,-246.582,-214.355,-981.934,-252.441,0.000,0
111254.788,-220.703,-152.344,-979.492,-215.332,0.000,0
111254.792,-182.129,-70.312,-1000.000,-166.992,0.000,0
111254.796,-195.801,-87.891,-925.781,-192.871,0.000,0
111254.800,-344.727,-255.859,-520.996,-352.051,0.000,0
111254.804,-297.852,-203.125,-727.539,-306.152,0.000,0
111254.808,-78.613,46.875,-1000.000,-58.105,0.000,0
111254.812,-129.395,-24.414,-770.020,-113.770,0.000,0
111254.816,-410.645,-332.031,-31.250,-439.941,0.000,0
111254.820,-416.504,-322.754,96.680,-448.242,0.000,0
111254.823,-179.688,-58.105,-218.262,-177.246,0.000,0
111254.827,-58.105,64.453,-562.500,-40.527,0.000,0
111254.831,-268.066,-200.684,142.090,-300.781,0.000,0
111254.835,-490.723,-455.078,981.445,-554.199,0.000,0
111254.839,-265.625,-193.848,346.191,-287.598,0.000,0
111254.843,-34.668,49.805,-302.246,-19.531,0.000,0
111254.847,-212.402,-159.180,286.621,-225.098,0.000,0
111254.851,-418.945,-405.273,994.141,-465.820,0.000,0
111254.855,-302.246,-278.320,762.207,-340.820,0.000,0
111254.859,-92.773,-29.297,213.867,-97.168,0.000,0
111254.863,-189.453,-122.559,382.812,-180.664,0.000,0
111254.866,-349.609,-306.641,819.336,-354.004,0.000,0
111254.870,-284.668,-277.344,999.512,-316.895,0.000,0
111254.874,-153.809,-130.859,444.336,-192.871,0.000,0
111254.878,-80.566,-38.574,-9.766,-91.309,0.000,0
111254.882,-270.020,-257.324,714.355,-290.039,0.000,0
111254.886,-356.934,-341.309,-992.188,-376.465,0.000,0
111254.890,-190.430,-159.180,614.258,-196.289,0.000,0
111254.894,-102.539,-71.289,462.891,-114.258,0.000,0
111254.898,-240.234,-214.355,796.387,-260.254,0.000,0
111254.902,-332.520,-317.383,-960.449,-369.629,0.000,0
111254.905,-151.367,-125.977,551.270,-164.062,0.000,0
111254.909,-6.836,44.922,217.773,15.625,0.000,0
111254.913,-184.570,-137.695,779.297,-172.852,0.000,0
111254.917,-345.703,-322.266,-930.176,-359.375,0.000,0
111254.921,-220.703,-210.938,676.758,-239.258,0.000,0
111254.925,7.324,41.992,110.352,20.020,0.000,0
111254.929,-77.148,-36.621,371.582,-58.594,0.000,0
111254.933,-337.402,-341.797,956.543,-369.629,0.000,0
111254.937,-307.129,-316.406,859.375,-356.445,0.000,0
111254.941,-53.223,-23.926,217.773,-55.664,0.000,0
111254.945,7.812,47.363,-58.594,29.297,0.000,0
111254.948,-225.586,-235.352,578.613,-239.258,0.000,0
111254.952,-376.465,-404.297,941.895,-404.785,0.000,0
111254.956,-168.457,-159.180,421.387,-165.527,0.000,0
111254.960,10.742,33.691,-9.766,27.344,0.000,0
111254.964,-141.113,-155.273,217.285,-150.391,0.000,0
111254.968,-320.801,-351.074,659.668,-320.312,0.000,0
111254.972,-229.980,-257.812,446.289,-227.539,0.000,0
111254.976,-6.836,-23.926,-312.500,5.371,0.000,0
111254.980,-62.500,-89.844,-361.816,-56.641,0.000,0
111254.984,-310.547,-368.652,267.090,-330.078,0.000,0
111254.988,-261.719,-317.383,303.711,-269.531,0.000,0
111254.991,-30.273,-66.406,-253.906,-37.598,0.000,0
111254.995,-38.574,-69.824,-292.480,-50.293,0.000,0
111254.999,-297.852,-338.379,474.121,-307.617,0.000,0
111255.003,-411.621,-443.359,746.582,-408.691,0.000,0
111255.007,-112.305,-117.676,-232.910,-76.660,0.000,0
111255.011,31.250,30.273,-661.133,57.617,0.000,0
111255.015,-234.863,-258.789,136.230,-216.797,0.000,0
111255.019,-342.285,-382.812,393.066,-322.754,0.000,0
111255.023,-112.305,-134.277,-433.105,-98.145,0.000,0
111255.027,46.875,36.133,-875.000,74.219,0.000,0
111255.030,-210.449,-242.188,-79.102,-202.148,0.000,0
111255.034,-423.828,-475.098,453.125,-445.801,0.000,0
111255.038,-236.328,-278.320,-290.527,-257.324,0.000,0
111255.042,20.020,10.254,-979.980,38.574,0.000,0
111255.046,-103.027,-104.492,-401.367,-59.570,0.000,0
111255.050,-419.434,-447.754,467.285,-405.762,0.000,0
111255.054,-336.914,-358.398,54.688,-322.754,0.000,0
111255.058,-7.812,2.441,-864.746,42.480,0.000,0
111255.062,-29.785,-23.438,-828.125,1.953,0.000,0
111255.066,-301.270,-319.824,-126.953,-298.828,0.000,0
111255.070,-388.184,-425.293,96.680,-407.227,0.000,0
111255.073,-157.715,-162.598,-580.078,-163.086,0.000,0
111255.077,-16.113,-17.090,-894.531,4.395,0.000,0
111255.081,-215.332,-257.324,-291.016,-201.172,0.000,0
111255.085,-371.094,-416.504,-26.367,-366.211,0.000,0
111255.089,-220.215,-236.816,-525.391,-201.172,0.000,0
111255.093,-21.484,-7.812,-886.230,18.066,0.000,0
111255.097,-167.480,-158.691,-491.211,-138.672,0.000,0
111255.101,-375.488,-394.531,-116.699,-382.324,0.000,0
111255.105,-270.996,-288.086,-341.309,-295.898,0.000,0
111255.109,-99.121,-88.379,-613.281,-101.562,0.000,0
111255.113,-124.512,-113.281,-612.793,-124.023,0.000,0
111255.116,-330.566,-347.656,-77.148,-347.168,0.000,0
111255.120,-312.988,-338.379,-35.156,-326.660,0.000,0
111255.124,-59.082,-58.594,-681.152,-53.711,0.000,0
111255.128,-62.988,-58.594,-767.578,-67.871,0.000,0
111255.132,-319.824,-339.844,-64.941,-361.328,0.000,0
111255.136,-380.371,-394.531,104.980,-423.340,0.000,0
111255.140,-158.203,-142.578,-449.219,-165.039,0.000,0
111255.144,-8.301,14.648,-1000.000,13.672,0.000,0
111255.148,-220.703,-229.492,-530.762,-235.352,0.000,0
111255.152,-448.242,-461.914,421.387,-476.562,0.000,0
111255.155,-243.652,-222.656,-139.160,-220.703,0.000,0
111255.159,34.668,57.129,-1000.000,74.707,0.000,0
111255.163,-91.797,-86.426,-694.336,-63.965,0.000,0
111255.167,-409.180,-425.781,257.324,-425.781,0.000,0
111255.171,-348.633,-368.164,66.895,-384.277,0.000,0
111255.175,-19.531,-15.625,-883.789,-19.531,0.000,0
111255.179,-69.336,-64.453,-712.402,-58.105,0.000,0
111255.183,-332.031,-350.098,30.762,-317.871,0.000,0
111255.187,-362.305,-405.273,129.883,-364.746,0.000,0
111255.191,-143.555,-168.457,-551.270,-142.090,0.000,0
111255.195,-21.973,-25.391,-916.992,14.648,0.000,0
111255.198,-278.809,-294.434,-42.480,-243.652,0.000,0
111255.202,-398.926,-425.293,171.387,-384.766,0.000,0
111255.206,-155.273,-170.898,-451.660,-145.508,0.000,1
111255.210,-117.188,-98.633,-469.727,-93.262,0.000,0
111255.214,-330.078,-347.168,-31.250,-324.219,0.000,0
111255.218,-295.410,-345.703,-248.047,-302.246,0.000,0
111255.222,-31.250,-53.711,-883.789,-11.230,0.000,0
111255.226,-63.477,-84.473,-530.273,-44.922,0.000,0
111255.230,-303.223,-344.238,44.922,-287.109,0.000,0
111255.234,-375.977,-427.246,184.570,-359.375,0.000,0
111255.238,-161.133,-190.918,-354.492,-134.277,0.000,0
111255.241,-5.859,-10.742,-621.094,46.387,0.000,0
111255.245,-213.867,-264.648,-29.785,-205.078,0.000,0
111255.249,-378.418,-463.867,336.426,-412.598,0.000,0
111255.253,-205.566,-256.836,-157.227,-207.031,0.000,0
111255.257,17.578,4.883,-856.934,61.035,0.000,0
111255.261,-61.035,-79.590,-682.129,-27.344,0.000,0
111255.265,-352.539,-421.875,297.363,-379.395,0.000,0
111255.269,-321.289,-382.812,224.121,-345.215,0.000,0
111255.273,-11.719,-11.719,-871.094,18.555,0.000,0
111255.277,-11.230,-3.906,-921.387,18.555,0.000,0
111255.280,-285.156,-311.523,62.988,-275.391,0.000,0
111255.284,-391.113,-423.828,534.668,-392.578,0.000,0
111255.288,-151.855,-159.668,-192.383,-152.832,0.000,0
111255.292,40.039,31.250,-788.574,49.805,0.000,0
111255.296,-182.617,-203.613,-146.484,-176.758,0.000,0
111255.300,-332.520,-372.070,266.602,-358.398,0.000,0
111255.304,-149.902,-178.711,-191.895,-171.387,0.000,0
111255.308,-58.594,-43.945,-500.000,-63.965,0.000,0
111255.312,-169.922,-152.832,-316.406,-183.105,0.000,0
111255.316,-333.008,-339.355,321.777,-348.145,0.000,0
111255.320,-208.008,-210.938,-96.191,-201.660,0.000,0
111255.323,7.324,48.340,-776.855,38.086,0.000,0
111255.327,-130.371,-74.707,-312.012,-113.281,0.000,0
111255.331,-357.910,-330.566,331.055,-358.398,0.000,0
111255.335,-295.898,-279.297,-21.973,-294.434,0.000,0
111255.339,-7.812,27.344,-984.375,7.324,0.000,0
111255.343,-24.414,14.648,-752.930,10.742,0.000,0
111255.347,-368.164,-361.816,506.348,-349.609,0.000,0
111255.351,-381.836,-409.180,482.910,-414.551,0.000,0
111255.355,-84.473,-95.215,-407.227,-105.469,0.000,0
111255.359,33.691,48.828,-760.742,66.895,0.000,0
111255.363,-212.891,-218.750,-100.586,-199.219,0.000,0
111255.366,-405.762,-439.941,447.754,-445.312,0.000,0
111255.370,-163.086,-179.688,-251.953,-176.270,0.000,0
111255.374,31.738,55.664,-737.793,74.707,0.000,0
111255.378,-147.461,-123.047,-223.633,-103.516,0.000,0
111255.382,-351.074,-374.023,312.988,-359.375,0.000,0
111255.386,-283.203,-308.594,170.898,-310.059,0.000,0
111255.390,-33.691,-17.578,-500.488,-25.391,0.000,0
111255.394,-46.387,-46.875,-482.422,-26.367,0.000,0
111255.398,-271.973,-315.430,95.703,-284.668,0.000,0
111255.402,-298.828,-333.496,176.758,-322.266,0.000,0
111255.405,-91.797,-86.914,-347.656,-82.520,0.000,0
111255.409,-17.090,-7.324,-503.418,-0.488,0.000,0
111255.413,-247.559,-260.254,-90.332,-254.395,0.000,0
111255.417,-308.105,-330.566,-12.207,-323.730,0.000,0
111255.421,-135.742,-138.184,-276.855,-111.816,0.000,0
111255.425,-65.918,-57.617,-642.090,-57.129,0.000,0
111255.429,-208.984,-227.051,-330.078,-240.723,0.000,0
111255.433,-370.117,-406.738,287.598,-382.324,0.000,0
111255.437,-236.816,-250.000,136.230,-219.727,0.000,0
111255.441,-19.531,-17.090,-522.461,-2.441,0.000,0
111255.445,-173.340,-184.082,-61.523,-171.875,0.000,0
111255.448,-375.977,-408.691,553.711,-399.414,0.000,0
111255.452,-266.113,-297.363,169.434,-281.250,0.000,0
111255.456,-7.812,-4.395,-609.863,11.719,0.000,0
111255.460,-44.434,-42.969,-495.605,-32.715,0.000,0
111255.464,-383.301,-403.320,538.574,-408.691,0.000,0
111255.468,-401.855,-411.621,599.609,-419.434,0.000,0
111255.472,-72.266,-64.453,-557.617,-57.129,0.000,0
111255.476,51.758,59.082,-994.141,69.336,0.000,0
111255.480,-223.145,-236.328,136.719,-230.957,0.000,0
111255.484,-433.594,-461.426,776.855,-466.309,0.000,0
111255.488,-179.688,-169.922,-174.805,-190.918,0.000,0
111255.491,23.926,55.176,-659.668,32.227,0.000,0
111255.495,-187.012,-166.992,119.141,-182.129,0.000,0
111255.499,-379.883,-381.348,571.777,-392.578,0.000,0
111255.503,-257.324,-269.043,234.863,-299.805,0.000,0
111255.507,-18.555,-3.906,-389.160,-24.902,0.000,0
111255.511,-105.957,-100.586,-136.719,-88.867,0.000,0
111255.515,-342.773,-380.371,576.172,-376.465,0.000,0
111255.519,-252.930,-289.062,284.180,-289.551,0.000,0
111255.523,-68.848,-69.824,-363.281,-70.312,0.000,0
111255.527,-79.102,-63.965,-122.070,-65.430,0.000,0
111255.530,-293.945,-311.035,512.207,-315.430,0.000,0
111255.534,-312.500,-343.750,384.277,-330.566,0.000,0
111255.538,-56.641,-59.082,-326.660,-45.410,0.000,0
111255.542,-38.086,-31.738,-298.828,-42.480,0.000,0
111255.546,-242.676,-270.996,245.605,-269.043,0.000,0
111255.550,-317.871,-376.465,425.293,-349.609,0.000,0
111255.554,-136.719,-171.875,-60.059,-137.695,0.000,0
111255.558,18.555,12.207,-513.672,35.645,0.000,0
111255.562,-188.965,-219.238,110.352,-221.191,0.000,0
111255.566,-417.480,-482.910,805.176,-487.793,0.000,0
111255.570,-276.855,-316.895,476.562,-315.430,0.000,0
111255.573,-9.766,-23.438,-289.062,3.418,0.000,0
111255.577,-49.805,-69.336,-275.879,-47.363,0.000,0
111255.581,-342.285,-391.113,695.801,-398.438,0.000,0
111255.585,-320.312,-362.305,657.715,-361.816,0.000,0
111255.589,-28.320,-36.621,-352.051,-23.926,0.000,0
111255.593,-10.742,-20.996,-457.520,-13.184,0.000,0
111255.597,-278.809,-307.129,406.250,-292.480,0.000,0
111255.601,-398.438,-448.730,868.164,-427.734,0.000,0
111255.605,-161.621,-186.523,104.004,-190.430,0.000,0
111255.609,-4.395,10.254,-350.586,2.930,0.000,0
111255.613,-212.402,-219.727,317.383,-200.195,0.000,0
111255.616,-373.047,-395.996,848.633,-378.418,0.000,0
111255.620,-171.387,-188.965,260.742,-180.664,0.000,0
111255.624,26.855,28.809,-433.105,44.434,0.000,0
111255.628,-103.027,-104.492,-230.469,-91.309,0.000,0
111255.632,-333.008,-369.141,506.836,-362.305,0.000,0
111255.636,-226.562,-257.324,242.188,-254.883,0.000,0
111255.640,11.719,-0.488,-405.762,-5.859,0.000,0
111255.644,-74.707,-98.145,-100.586,-100.098,0.000,0
111255.648,-302.734,-350.586,525.391,-325.195,0.000,0
111255.652,-270.020,-319.336,386.719,-287.598,0.000,0
111255.655,-18.066,-39.551,-374.023,-0.977,0.000,0
111255.659,-4.395,-15.137,-274.414,20.996,0.000,0
111255.663,-292.969,-331.055,544.922,-316.895,0.000,0
111255.667,-336.426,-390.137,513.184,-382.812,0.000,0
111255.671,-98.633,-120.117,-185.059,-110.352,0.000,0
111255.675,42.480,50.293,-556.152,73.242,0.000,0
111255.679,-171.875,-188.965,76.660,-169.434,0.000,0
111255.683,-399.902,-438.965,715.820,-435.059,0.000,0
111255.687,-197.266,-212.891,4.395,-203.125,0.000,0
111255.691,57.617,58.594,-682.129,85.938,0.000,0
111255.695,-57.617,-83.984,-306.152,-46.387,0.000,0
111255.698,-314.941,-362.793,392.090,-340.820,0.000,0
111255.702,-307.129,-340.820,344.727,-343.750,0.000,0
111255.706,-54.688,-45.410,-237.793,-47.852,0.000,0
111255.710,-28.809,-25.879,-371.582,-2.441,0.000,0
111255.714,-251.465,-294.434,205.566,-252.930,0.000,0
111255.718,-326.660,-356.445,451.172,-335.938,0.000,0
111255.722,-86.914,-78.613,-335.938,-90.332,0.000,0
111255.726,70.312,86.914,-799.805,80.078,0.000,0
111255.730,-167.480,-171.387,-144.531,-151.855,0.000,0
111255.734,-317.871,-338.379,238.281,-318.848,0.000,0
111255.738,-135.254,-131.836,-328.125,-132.812,0.000,0
111255.741,-13.184,3.418,-640.625,-10.742,0.000,0
111255.745,-182.617,-179.688,-144.531,-176.758,0.000,0
111255.749,-375.488,-386.230,437.012,-365.234,0.000,0
111255.753,-216.309,-208.496,-15.137,-184.082,0.000,0
111255.757,36.133,54.199,-831.055,70.801,0.000,0
111255.761,-100.586,-102.539,-411.621,-95.215,0.000,0
111255.765,-322.266,-341.309,285.156,-323.730,0.000,0
111255.769,-249.512,-263.672,-5.859,-243.164,0.000,0
111255.773,12.695,31.250,-855.469,37.109,0.000,0
111255.777,-4.395,7.324,-736.816,28.320,0.000,0
111255.780,-331.055,-357.422,312.988,-338.379,0.000,0
111255.784,-351.074,-377.930,300.781,-383.301,0.000,0
111255.788,-45.410,-59.082,-653.809,-38.574,0.000,0
111255.792,56.152,50.293,-959.961,95.215,0.000,0
111255.796,-290.527,-322.754,91.309,-302.246,0.000,0
111255.800,-355.469,-408.691,333.496,-397.461,0.000,0
111255.804,-21.973,-43.945,-794.434,-36.621,0.000,0
111255.808,-30.273,-41.016,-634.277,-35.156,0.000,0
111255.812,-261.230,-304.199,158.691,-256.348,0.000,0
111255.816,-342.285,-416.016,277.832,-369.141,0.000,0
111255.820,-150.391,-187.500,-358.398,-174.316,0.000,0
111255.823,21.484,23.438,-949.219,58.105,0.000,0
111255.827,-182.617,-211.426,-282.227,-158.691,0.000,0
111255.831,-323.730,-377.441,80.078,-339.355,0.000,0
111255.835,-174.316,-217.773,-266.113,-186.523,0.000,0
111255.839,-23.438,-52.246,-606.445,-25.391,0.000,0
111255.843,-141.602,-180.664,-279.785,-151.855,0.000,0
111255.847,-346.191,-414.062,161.133,-377.441,0.000,0
111255.851,-172.852,-230.469,-409.668,-183.594,0.000,1
111255.855,-7.812,-24.902,-609.375,4.395,0.000,0
111255.859,-157.715,-160.156,-218.750,-151.855,0.000,0
111255.863,-307.129,-332.031,-31.738,-323.730,0.000,0
111255.866,-255.371,-282.715,-138.672,-270.996,0.000,0
111255.870,-23.438,-14.648,-694.336,4.883,0.000,0
111255.874,-34.180,-23.926,-699.707,-13.184,0.000,0
111255.878,-311.035,-333.496,149.902,-347.656,0.000,0
111255.882,-371.094,-377.441,319.336,-410.156,0.000,0
111255.886,-136.719,-100.098,-396.973,-133.789,0.000,0
111255.890,12.207,74.707,-893.555,70.801,0.000,0
111255.894,-213.379,-179.688,-285.645,-194.336,0.000,0
111255.898,-421.387,-416.504,466.797,-438.965,0.000,0
111255.902,-212.402,-187.988,-65.430,-181.641,0.000,0
111255.905,38.574,72.754,-978.516,71.289,0.000,0
111255.909,-93.262,-76.172,-563.477,-73.730,0.000,0
111255.913,-379.395,-383.789,362.305,-384.277,0.000,0
111255.917,-336.914,-332.520,258.789,-342.773,0.000,0
111255.921,-96.680,-75.195,-527.832,-83.984,0.000,0
111255.925,-88.379,-67.383,-638.672,-67.383,0.000,0
111255.929,-277.832,-290.039,9.277,-265.625,0.000,0
111255.933,-296.875,-323.242,169.922,-297.363,0.000,0
111255.937,-97.656,-96.191,-447.754,-100.586,0.000,0
111255.941,-66.406,-51.270,-530.762,-74.219,0.000,0
111255.945,-288.086,-299.805,291.992,-300.781,0.000,0
111255.948,-368.652,-413.086,472.168,-393.066,0.000,0
111255.952,-93.262,-123.047,-380.859,-95.703,0.000,0
111255.956,14.648,12.695,-561.523,28.320,0.000,0
111255.960,-191.895,-199.219,36.133,-190.918,0.000,0
111255.964,-329.590,-379.395,389.160,-357.422,0.000,0
111255.968,-172.852,-201.660,-182.129,-180.176,0.000,0
111255.972,12.695,25.879,-671.875,57.617,0.000,0
111255.976,-149.902,-153.809,-67.383,-125.977,0.000,0
111255.980,-388.184,-411.133,572.266,-409.668,0.000,0
111255.984,-301.758,-313.477,275.879,-316.406,0.000,0
111255.988,-45.898,-22.949,-371.582,-16.602,0.000,0
111255.991,-25.879,-2.441,-362.305,13.672,0.000,0
111255.995,-287.109,-307.129,300.293,-289.062,0.000,0
111255.999,-317.871,-342.285,400.879,-331.543,0.000,0
111256.003,-56.641,-35.645,-425.293,-28.320,0.000,0
111256.007,28.320,57.129,-743.164,61.035,0.000,0
111256.011,-187.988,-198.730,-16.602,-197.266,0.000,0
111256.015,-357.910,-401.855,548.340,-397.949,0.000,0
111256.019,-161.133,-177.246,-97.656,-173.340,0.000,0
111256.023,-2.441,-11.719,-473.145,-15.625,0.000,0
111256.027,-161.621,-192.383,-3.906,-176.758,0.000,0
111256.030,-296.387,-329.102,381.836,-293.457,0.000,0
111256.034,-233.398,-256.836,249.512,-237.305,0.000,0
111256.038,-7.812,-5.371,-559.082,11.719,0.000,0
111256.042,-17.090,-27.832,-612.793,1.953,0.000,0
111256.046,-287.598,-331.543,254.883,-297.363,0.000,0
111256.050,-272.949,-315.430,220.703,-280.762,0.000,0
111256.054,-55.176,-63.965,-556.641,-54.688,0.000,0
111256.058,-38.574,-33.691,-611.816,-50.781,0.000,0
111256.062,-259.277,-282.227,251.953,-279.297,0.000,0
111256.066,-333.008,-352.051,407.227,-341.797,0.000,0
111256.070,-66.895,-61.035,-553.223,-52.246,0.000,0
111256.073,-10.742,4.395,-663.086,14.648,0.000,0
111256.077,-264.160,-249.512,243.164,-250.000,0.000,0
111256.081,-370.605,-369.141,597.168,-365.234,0.000,0
111256.085,-145.020,-154.297,-180.664,-154.785,0.000,0
111256.089,59.082,74.707,-810.547,67.871,0.000,0
111256.093,-165.527,-152.832,-88.867,-164.551,0.000,0
111256.097,-429.688,-434.082,636.230,-457.031,0.000,0
111256.101,-249.023,-236.328,-108.398,-268.555,0.000,0
111256.105,34.668,65.918,-979.980,47.363,0.000,0
111256.109,-40.527,-19.043,-599.121,-22.461,0.000,0
111256.113,-357.910,-377.930,482.422,-368.164,0.000,0
111256.116,-330.078,-350.586,343.262,-346.680,0.000,0
111256.120,-3.418,6.836,-572.266,4.395,0.000,0
111256.124,-10.254,25.879,-543.457,17.578,0.000,0
111256.128,-280.273,-257.324,218.262,-284.180,0.000,0
111256.132,-339.844,-353.516,282.227,-385.254,0.000,0
111256.136,-102.539,-84.473,-388.672,-129.883,0.000,0
111256.140,29.297,81.055,-578.613,52.734,0.000,0
111256.144,-169.434,-151.855,-102.539,-155.273,0.000,0
111256.148,-316.406,-317.383,291.504,-317.383,0.000,0
111256.152,-210.938,-197.754,151.367,-217.773,0.000,0
111256.155,-61.035,-16.113,-386.230,-65.430,0.000,0
111256.159,-117.188,-70.801,-429.199,-126.953,0.000,0
111256.163,-318.848,-306.152,238.770,-347.656,0.000,0
111256.167,-235.840,-203.613,97.656,-223.633,0.000,0
111256.171,-41.016,7.812,-401.367,-7.812,0.000,0
111256.175,-95.215,-72.754,-305.664,-92.773,0.000,0
111256.179,-259.766,-261.719,58.105,-278.320,0.000,0
111256.183,-281.738,-291.504,375.000,-289.062,0.000,0
111256.187,-67.871,-53.223,-141.602,-37.109,0.000,0
111256.191,-5.859,6.348,-413.574,8.301,0.000,0
111256.195,-266.113,-276.855,431.152,-291.016,0.000,0
111256.198,-345.703,-367.188,646.484,-375.977,0.000,0
111256.202,-108.887,-111.328,-41.504,-114.258,0.000,0
111256.206,70.801,98.633,-680.176,98.633,0.000,0
111256.210,-151.855,-145.996,70.312,-152.832,0.000,0
111256.214,-405.273,-421.387,898.438,-427.734,0.000,0
111256.218,-211.914,-200.684,205.566,-203.125,0.000,0
111256.222,41.016,64.453,-568.359,71.289,0.000,0
111256.226,-41.504,-38.574,-292.480,-36.133,0.000,0
111256.230,-331.055,-346.680,771.484,-352.051,0.000,0
111256.234,-304.688,-316.895,585.938,-317.871,0.000,0
111256.238,10.742,28.320,-518.555,15.625,0.000,0
111256.241,-6.836,26.855,-363.770,14.160,0.000,0
111256.245,-253.418,-246.094,332.031,-246.094,0.000,0
111256.249,-290.527,-315.430,444.824,-308.105,0.000,0
111256.253,-80.566,-80.566,-169.434,-83.984,0.000,0
111256.257,20.508,62.500,-536.621,46.875,0.000,0
111256.261,-197.754,-187.500,159.180,-194.336,0.000,0
111256.265,-337.402,-346.680,549.316,-344.238,0.000,0
111256.269,-166.016,-163.574,-45.898,-161.621,0.000,0
111256.273,-31.250,-14.648,-370.605,-8.301,0.000,0
111256.277,-176.270,-156.738,170.410,-152.832,0.000,0
111256.280,-304.688,-314.941,470.703,-314.453,0.000,0
