timestamps,TP9,AF7,AF8,TP10,Right AUX,Marker0
110859.589,428.711,-32.715,58.105,-94.238,0.000,0
110859.593,418.945,-32.715,73.242,-82.520,0.000,0
110859.597,329.590,-27.344,54.688,-65.430,0.000,0
110859.601,246.094,-24.902,47.852,-61.035,0.000,0
110859.605,276.855,-22.949,98.145,-51.270,0.000,0
110859.609,285.645,-16.602,137.207,-54.199,0.000,0
110859.613,251.465,-9.766,116.699,-45.898,0.000,0
110859.616,248.535,-2.441,81.055,-37.598,0.000,0
110859.620,273.438,-5.859,103.027,-46.875,0.000,0
110859.624,302.246,-6.348,145.020,-60.547,0.000,0
110859.628,339.355,-1.465,112.305,-69.336,0.000,0
110859.632,394.043,-4.395,61.035,-72.754,0.000,0
110859.636,467.773,-2.441,88.867,-63.477,0.000,0
110859.640,545.410,-7.812,125.000,-57.129,0.000,0
110859.644,578.613,-10.254,87.402,-85.938,0.000,0
110859.648,605.957,-4.395,47.363,-73.730,0.000,0
110859.652,600.586,-1.953,71.289,-41.016,0.000,0
110859.655,514.160,-4.395,95.215,-45.898,0.000,0
110859.659,494.141,-7.812,70.801,-63.965,0.000,0
110859.663,512.207,-2.930,29.297,-42.480,0.000,0
110859.667,438.477,1.953,76.660,-17.578,0.000,0
110859.671,406.250,3.418,175.293,-29.297,0.000,0
110859.675,447.266,7.812,149.902,-22.461,0.000,0
110859.679,422.363,7.324,62.012,-19.531,0.000,0
110859.683,360.352,-1.953,38.086,-40.527,0.000,0
110859.687,330.078,-12.695,64.941,-37.109,0.000,0
110859.691,370.117,-16.602,97.656,-46.875,0.000,0
110859.695,416.992,-7.812,89.355,-66.895,0.000,0
110859.698,408.691,-8.301,76.172,-52.734,0.000,0
110859.702,434.570,-25.879,113.281,-66.406,0.000,0
110859.706,535.156,-39.062,108.887,-111.816,0.000,0
110859.710,570.312,-33.691,112.305,-115.723,0.000,0
110859.714,504.883,-30.273,111.816,-103.027,0.000,0
110859.718,531.250,-42.969,59.570,-114.746,0.000,0
110859.722,602.051,-49.805,53.223,-124.512,0.000,0
110859.726,664.551,-45.410,24.902,-117.188,0.000,0
110859.730,679.199,-47.852,8.789,-110.352,0.000,0
110859.734,670.898,-54.688,-1.465,-94.238,0.000,0
110859.738,689.453,-61.035,29.297,-104.980,0.000,0
110859.741,682.129,-67.383,82.031,-98.145,0.000,0
110859.745,673.340,-59.570,23.926,-67.383,0.000,0
110859.749,732.422,-59.082,-17.578,-70.312,0.000,0
110859.753,769.531,-77.148,-18.555,-81.055,0.000,0
110859.757,822.754,-83.984,14.160,-77.148,0.000,0
110859.761,894.531,-83.496,39.551,-86.914,0.000,0
110859.765,901.855,-86.914,-46.387,-104.492,0.000,0
110859.769,932.617,-100.586,-58.105,-105.957,0.000,0
110859.773,951.172,-100.586,-20.020,-92.285,0.000,0
110859.777,944.336,-96.191,-96.191,-91.309,0.000,0
110859.780,956.055,-96.191,-166.992,-83.008,0.000,0
110859.784,940.918,-91.797,-118.164,-111.816,0.000,0
110859.788,910.156,-93.262,-33.691,-135.254,0.000,0
110859.792,917.480,-92.285,-50.781,-93.750,0.000,0
110859.796,914.062,-85.449,-72.754,-96.191,0.000,0
110859.800,956.055,-85.938,-4.395,-117.188,0.000,0
110859.804,978.027,-94.238,67.383,-125.977,0.000,0
110859.808,967.773,-99.609,47.852,-110.352,0.000,0
110859.812,974.609,-93.262,-46.387,-101.562,0.000,0
110859.816,967.773,-110.352,-100.586,-139.648,0.000,0
110859.820,928.711,-126.953,-92.773,-144.043,0.000,0
110859.823,915.039,-123.535,-99.609,-153.320,0.000,0
110859.827,911.133,-122.070,-112.793,-158.691,0.000,0
110859.831,874.512,-115.234,-129.883,-139.648,0.000,0
110859.835,880.859,-109.863,-98.145,-144.531,0.000,0
110859.839,934.570,-106.445,-45.410,-152.832,0.000,0
110859.843,916.016,-97.656,-75.195,-142.090,0.000,0
110859.847,870.117,-95.703,-89.844,-146.973,0.000,0
110859.851,872.559,-88.379,-72.266,-140.137,0.000,0
110859.855,895.508,-78.125,-55.176,-132.812,0.000,0
110859.859,845.703,-71.289,-50.781,-118.652,0.000,0
110859.863,737.305,-62.500,-54.199,-123.047,0.000,0
110859.866,654.297,-55.664,-14.648,-123.535,0.000,0
110859.870,609.863,-48.340,26.855,-99.121,0.000,0
110859.874,550.781,-37.598,-27.344,-85.938,0.000,0
110859.878,472.656,-37.598,-67.871,-88.867,0.000,0
110859.882,405.273,-34.180,-60.059,-62.500,0.000,0
110859.886,367.676,-37.109,-20.508,-41.504,0.000,0
110859.890,338.379,-39.062,-17.090,-73.242,0.000,0
110859.894,292.969,-31.738,-109.375,-89.355,0.000,0
110859.898,224.121,-24.902,-167.969,-66.895,0.000,0
110859.902,174.316,-25.879,-160.156,-72.266,0.000,0
110859.905,150.391,-39.062,-108.398,-92.773,0.000,0
110859.909,123.535,-39.062,-76.172,-82.031,0.000,0
110859.913,99.121,-33.203,-122.070,-68.359,0.000,0
110859.917,93.262,-33.691,-102.051,-74.707,0.000,0
110859.921,92.773,-37.598,-44.434,-78.613,0.000,0
110859.925,92.285,-37.598,-47.363,-70.801,0.000,0
110859.929,67.383,-33.691,-89.355,-66.895,0.000,0
110859.933,32.227,-22.949,-104.492,-85.449,0.000,0
110859.937,3.418,-21.484,-75.195,-94.727,0.000,0
110859.941,-3.418,-19.531,-101.074,-77.637,0.000,0
110859.945,36.133,-20.020,-141.602,-83.984,0.000,0
110859.948,59.570,-24.414,-93.262,-88.379,0.000,0
110859.952,62.988,-25.879,-57.617,-100.098,0.000,0
110859.956,128.906,-28.320,-65.918,-95.215,0.000,0
110859.960,206.055,-31.250,-79.102,-80.078,0.000,0
110859.964,225.586,-34.180,-89.355,-104.492,0.000,0
110859.968,242.188,-30.762,-54.199,-93.750,0.000,0
110859.972,277.344,-37.598,-34.668,-83.008,0.000,0
110859.976,296.387,-34.668,-91.309,-113.770,0.000,0
110859.980,282.715,-26.367,-125.000,-113.281,0.000,0
110859.984,272.461,-28.809,-86.426,-100.098,0.000,0
110859.988,299.805,-22.949,-79.102,-95.215,0.000,0
110859.991,327.148,-12.695,-132.812,-92.773,0.000,0
110859.995,325.684,-14.160,-166.992,-74.707,0.000,0
110859.999,327.637,-10.742,-141.602,-50.781,0.000,0
110860.003,366.699,-5.371,-123.535,-50.781,0.000,0
110860.007,379.883,-1.465,-108.398,-51.758,0.000,0
110860.011,345.215,6.836,-124.023,-62.012,0.000,0
110860.015,336.426,10.742,-104.492,-65.918,0.000,0
110860.019,365.234,9.766,-34.180,-45.898,0.000,0
110860.023,382.324,-3.906,30.762,-52.246,0.000,0
110860.027,395.508,-9.277,39.551,-64.941,0.000,0
110860.030,385.742,-1.953,-0.488,-58.594,0.000,0
110860.034,389.648,-10.254,1.953,-49.805,0.000,0
110860.038,416.504,-13.672,41.992,-41.016,0.000,0
110860.042,425.781,-8.789,80.078,-50.781,0.000,0
110860.046,452.637,-8.789,70.801,-73.730,0.000,0
110860.050,476.074,-8.789,50.781,-47.363,0.000,0
110860.054,498.047,-9.766,102.051,-30.762,0.000,0
110860.058,505.859,-11.230,106.934,-53.711,0.000,0
110860.062,498.535,-5.371,44.922,-33.691,0.000,0
110860.066,480.469,0.977,58.105,-40.039,0.000,0
110860.070,439.453,8.301,89.355,-67.383,0.000,0
110860.073,409.180,7.324,85.449,-62.500,0.000,0
110860.077,389.648,17.090,73.242,-41.504,0.000,0
110860.081,354.004,28.320,69.336,-60.547,0.000,0
110860.085,321.777,23.438,91.797,-78.125,0.000,0
110860.089,299.316,30.762,133.789,-67.383,0.000,0
110860.093,292.969,38.086,105.957,-82.520,0.000,0
110860.097,265.625,42.480,62.988,-80.078,0.000,0
110860.101,207.520,42.969,33.691,-58.105,0.000,0
110860.105,156.250,50.781,-213.379,-15.137,0.000,0
110860.109,129.395,59.570,-302.246,-22.461,0.000,0
110860.113,87.891,61.035,-187.988,-45.898,0.000,0
110860.116,60.059,64.941,-82.031,-37.598,0.000,0
110860.120,47.852,65.918,75.195,-24.414,0.000,0
110860.124,20.020,62.988,108.398,-29.297,0.000,0
110860.128,0.977,65.430,58.105,-39.062,0.000,0
110860.132,-41.016,71.777,47.363,-39.551,0.000,0
110860.136,-50.293,71.777,64.941,-39.551,0.000,0
110860.140,-72.266,62.988,144.531,-46.387,0.000,0
110860.144,-116.211,57.129,191.895,-34.180,0.000,0
110860.148,-141.602,65.430,104.492,8.301,0.000,0
110860.152,-158.691,57.617,86.914,-10.742,0.000,0
110860.155,-146.484,40.039,118.652,-12.695,0.000,0
110860.159,-166.992,46.387,114.746,34.180,0.000,0
110860.163,-184.570,52.734,115.723,11.230,0.000,0
110860.167,-158.203,51.270,117.676,13.672,0.000,0
110860.171,-138.184,47.363,113.770,21.973,0.000,0
110860.175,-125.000,52.246,107.910,14.648,0.000,0
110860.179,-142.090,59.082,97.168,32.715,0.000,0
110860.183,-147.949,49.805,104.004,30.762,0.000,0
110860.187,-113.770,41.992,129.883,12.207,0.000,0
110860.191,-100.098,32.227,91.797,0.977,0.000,0
110860.195,-135.742,25.391,53.223,9.277,0.000,0
110860.198,-122.070,22.461,51.758,8.301,0.000,0
110860.202,-68.359,20.508,109.375,-5.371,0.000,0
110860.206,-71.777,25.879,121.094,0.977,0.000,0
110860.210,-102.539,30.273,51.758,5.859,0.000,0
110860.214,-73.242,31.250,13.672,-6.348,0.000,0
110860.218,-37.598,34.180,55.664,-19.531,0.000,0
110860.222,-20.508,27.832,118.164,-18.555,0.000,0
110860.226,16.113,24.414,101.562,9.766,0.000,0
110860.230,86.914,25.879,32.715,-6.836,0.000,0
110860.234,114.258,14.160,59.570,-14.648,0.000,0
110860.238,104.980,2.441,97.656,-12.695,0.000,0
110860.241,140.625,-4.883,80.566,-45.898,0.000,0
110860.245,147.461,-3.906,59.082,-40.527,0.000,0
110860.249,114.258,-6.348,39.551,-17.090,0.000,0
110860.253,124.512,-14.160,104.492,-16.602,0.000,0
110860.257,103.027,-19.531,121.582,-29.785,0.000,0
110860.261,32.715,-42.480,51.758,-40.527,0.000,0
110860.265,-17.578,-68.359,19.043,-46.875,0.000,0
110860.269,-76.172,-80.078,16.113,-64.941,0.000,0
110860.273,-117.676,-82.031,-6.836,-101.562,0.000,0
110860.277,-173.828,-80.566,-59.570,-99.609,0.000,0
110860.280,-300.293,-89.355,-77.148,-85.449,0.000,0
110860.284,-401.367,-91.797,-46.875,-87.402,0.000,0
110860.288,-450.684,-94.727,-46.875,-101.562,0.000,0
110860.292,-495.605,-92.773,-71.289,-87.402,0.000,0
110860.296,-500.000,-81.055,-84.961,-58.594,0.000,0
110860.300,-479.004,-80.566,-36.621,-82.031,0.000,0
110860.304,-477.539,-85.449,18.555,-100.586,0.000,0
110860.308,-518.555,-80.566,-14.648,-86.426,0.000,0
110860.312,-552.734,-78.613,-56.152,-59.570,0.000,0
110860.316,-553.223,-83.496,-43.945,-83.008,0.000,0
110860.320,-509.766,-92.285,-30.273,-99.121,0.000,0
110860.323,-489.746,-96.680,-38.574,-75.195,0.000,0
110860.327,-493.164,-92.773,-92.285,-58.105,0.000,0
110860.331,-498.047,-88.379,-139.648,-54.199,0.000,0
110860.335,-479.980,-87.402,-119.629,-44.434,0.000,0
110860.339,-430.664,-87.891,-76.172,-22.461,0.000,0
110860.343,-409.668,-83.008,-81.055,-20.508,0.000,0
110860.347,-375.977,-70.312,-112.793,-31.250,0.000,0
110860.351,-302.246,-63.477,-96.191,-29.785,0.000,0
110860.355,-250.000,-71.777,-53.223,-31.250,0.000,0
110860.359,-214.844,-68.848,-85.938,-60.059,0.000,0
110860.363,-173.828,-67.871,-119.629,-67.871,0.000,0
110860.366,-128.418,-81.055,-101.074,-57.129,0.000,0
110860.370,-119.629,-83.496,-73.242,-57.129,0.000,0
110860.374,-135.254,-78.613,-89.844,-64.453,0.000,0
110860.378,-143.555,-82.031,-87.891,-68.848,0.000,0
110860.382,-153.320,-79.590,-37.598,-89.844,0.000,0
110860.386,-170.410,-79.102,14.160,-104.980,0.000,0
110860.390,-187.988,-89.355,9.766,-95.703,0.000,0
110860.394,-195.801,-88.867,-29.297,-109.375,0.000,0
110860.398,-199.219,-91.797,21.484,-114.746,0.000,0
110860.402,-176.270,-95.703,56.152,-111.816,0.000,0
110860.405,-183.594,-94.238,32.715,-115.723,0.000,0
110860.409,-191.406,-88.379,-21.973,-126.953,0.000,0
110860.413,-184.570,-83.984,-42.480,-122.559,0.000,0
110860.417,-143.555,-89.355,45.410,-105.469,0.000,0
110860.421,-82.031,-86.426,55.664,-103.516,0.000,0
110860.425,30.273,-74.707,-35.156,-120.117,0.000,0
110860.429,158.691,-69.336,-47.363,-127.441,0.000,0
110860.433,208.496,-72.266,7.324,-101.074,0.000,0
110860.437,243.652,-79.102,31.250,-106.445,0.000,0
110860.441,284.668,-72.266,-4.395,-122.070,0.000,0
110860.445,298.828,-63.965,-37.109,-108.887,0.000,0
110860.448,306.152,-71.777,-4.395,-98.633,0.000,0
110860.452,330.566,-75.684,24.414,-104.980,0.000,0
110860.456,351.074,-75.195,16.113,-115.723,0.000,0
110860.460,339.355,-65.918,10.742,-115.723,0.000,0
110860.464,314.453,-54.199,16.113,-98.633,0.000,0
110860.468,335.938,-58.105,56.152,-104.980,0.000,0
110860.472,383.301,-62.988,83.008,-104.492,0.000,0
110860.476,385.742,-60.547,91.309,-104.980,0.000,0
110860.480,369.629,-54.199,86.914,-123.535,0.000,0
110860.484,412.109,-53.711,79.102,-136.230,0.000,0
110860.488,453.613,-62.988,92.285,-155.762,0.000,0
110860.491,442.383,-71.289,64.453,-168.457,0.000,0
110860.495,425.293,-67.383,63.477,-182.129,0.000,0
110860.499,447.754,-57.129,123.535,-199.219,0.000,0
110860.503,427.734,-48.828,168.945,-225.098,0.000,0
110860.507,387.695,-54.688,144.531,-240.723,0.000,0
110860.511,384.277,-48.828,77.148,-208.008,0.000,0
110860.515,398.926,-37.109,86.426,-202.148,0.000,0
110860.519,425.781,-36.621,166.504,-205.078,0.000,0
110860.523,437.012,-24.902,161.621,-172.852,0.000,0
110860.527,431.641,-15.137,82.031,-144.043,0.000,0
110860.530,431.152,-15.625,57.617,-171.387,0.000,0
110860.534,425.781,-18.555,127.930,-192.871,0.000,0
110860.538,430.664,-7.324,104.004,-155.273,0.000,0
110860.542,425.781,0.977,23.438,-145.508,0.000,0
110860.546,381.348,-3.418,50.293,-140.625,0.000,0
110860.550,346.191,-0.977,114.258,-113.281,0.000,0
110860.554,348.633,2.441,97.656,-111.328,0.000,0
110860.558,367.188,2.930,28.320,-87.402,0.000,0
110860.562,382.812,7.324,22.461,-58.594,0.000,0
110860.566,361.816,8.301,71.289,-56.641,0.000,0
110860.570,341.797,5.371,60.547,-56.152,0.000,0
110860.573,316.406,3.906,3.418,-25.391,0.000,0
110860.577,279.785,0.488,-38.574,-10.742,0.000,0
110860.581,234.863,-7.324,-17.578,-32.715,0.000,0
110860.585,202.148,-18.066,7.324,-39.551,0.000,0
110860.589,203.613,-20.020,-39.551,-34.180,0.000,0
110860.593,153.320,-22.949,-24.414,-29.785,0.000,0
110860.597,128.906,-26.855,34.180,-30.762,0.000,0
110860.601,169.922,-26.367,41.992,-24.414,0.000,0
110860.605,178.711,-29.297,-4.883,-43.945,0.000,0
110860.609,151.367,-32.227,-41.016,-51.758,0.000,0
110860.613,117.188,-37.109,-29.785,-59.082,0.000,0
110860.616,130.859,-44.434,-1.953,-53.223,0.000,0
110860.620,138.672,-42.969,-13.184,-57.129,0.000,0
110860.624,150.391,-41.016,-57.617,-68.359,0.000,0
110860.628,183.594,-45.410,-63.477,-63.965,0.000,0
110860.632,188.477,-54.199,-5.371,-78.125,0.000,0
110860.636,197.266,-63.477,20.020,-86.426,0.000,0
110860.640,218.750,-62.500,-10.254,-102.539,0.000,0
110860.644,241.211,-65.430,-57.617,-111.328,0.000,0
110860.648,269.531,-71.289,-23.438,-113.770,0.000,0
110860.652,304.199,-72.754,57.617,-124.512,0.000,0
110860.655,351.074,-69.824,75.684,-131.348,0.000,0
110860.659,400.879,-57.129,-0.977,-140.137,0.000,0
110860.663,443.848,-57.129,-10.742,-137.207,0.000,0
110860.667,508.789,-64.941,46.875,-159.180,0.000,0
110860.671,528.809,-63.477,55.664,-161.133,0.000,0
110860.675,565.918,-61.523,14.648,-146.484,0.000,0
110860.679,564.453,-63.477,-17.578,-156.738,0.000,0
110860.683,501.465,-64.941,40.527,-153.320,0.000,0
110860.687,500.000,-62.012,80.566,-155.762,0.000,0
110860.691,504.395,-57.129,33.691,-154.297,0.000,0
110860.695,458.496,-60.547,-4.883,-148.926,0.000,0
110860.698,398.926,-66.895,66.895,-137.207,0.000,0
110860.702,376.465,-68.848,141.113,-154.297,0.000,0
110860.706,373.047,-65.918,72.266,-148.438,0.000,0
110860.710,348.145,-62.012,-2.930,-116.211,0.000,0
110860.714,350.098,-61.523,14.160,-113.281,0.000,0
110860.718,368.652,-63.477,-10.742,-118.652,0.000,0
110860.722,438.477,-65.430,-96.191,-141.602,0.000,0
110860.726,515.137,-63.965,-128.418,-145.020,0.000,0
110860.730,554.688,-71.777,-91.309,-134.277,0.000,0
110860.734,579.102,-83.984,-81.055,-150.879,0.000,0
110860.738,622.559,-80.566,-134.277,-164.062,0.000,0
110860.741,630.859,-70.312,-182.617,-151.855,0.000,0
110860.745,652.344,-61.523,-138.672,-124.512,0.000,0
110860.749,699.707,-57.617,-88.867,-123.535,0.000,0
110860.753,640.625,-64.453,-89.355,-140.625,0.000,0
110860.757,530.762,-53.711,-125.000,-135.254,0.000,0
110860.761,486.816,-45.410,-106.934,-120.605,0.000,0
110860.765,465.820,-48.340,-76.172,-118.164,0.000,0
110860.769,412.598,-41.016,-52.246,-90.332,0.000,0
110860.773,308.105,-33.203,-42.480,-44.434,0.000,0
110860.777,173.340,-21.973,-68.359,-9.766,0.000,0
110860.780,51.758,-11.230,-35.645,-4.883,0.000,0
110860.784,-0.977,1.465,6.836,-21.484,0.000,0
110860.788,-36.621,-2.441,12.207,12.207,0.000,0
110860.792,-173.828,-6.348,-8.301,38.086,0.000,0
110860.796,-250.488,3.418,-37.598,16.113,0.000,0
110860.800,-266.113,4.395,21.484,30.762,0.000,0
110860.804,-270.996,8.301,38.574,34.180,0.000,0
110860.808,-250.977,2.930,21.484,21.484,0.000,0
110860.812,-244.629,-7.812,48.828,27.344,0.000,0
110860.816,-204.590,-8.789,74.707,15.625,0.000,0
110860.820,-184.082,-9.766,58.105,-4.395,0.000,0
110860.823,-184.570,-12.695,26.855,-13.184,0.000,0
110860.827,-164.551,-13.184,52.246,-19.043,0.000,0
110860.831,-181.641,-13.184,111.816,-19.043,0.000,0
110860.835,-220.215,-7.324,84.961,-9.766,0.000,0
110860.839,-223.633,-7.324,-2.930,-6.836,0.000,0
110860.843,-217.773,-12.695,-5.859,-20.020,0.000,0
110860.847,-195.312,-14.648,51.270,-47.852,0.000,0
110860.851,-183.594,-23.438,81.543,-64.941,0.000,0
110860.855,-187.988,-21.973,41.016,-53.223,0.000,0
110860.859,-159.668,-18.066,30.273,-30.762,0.000,0
110860.863,-143.066,-19.043,40.039,-36.133,0.000,0
110860.866,-102.539,-20.020,41.016,-34.668,0.000,0
110860.870,-88.867,-23.926,33.203,-43.945,0.000,0
110860.874,-127.930,-25.391,13.672,-41.016,0.000,1
110860.878,-125.488,-19.043,5.371,-33.691,0.000,0
110860.882,-102.051,-9.766,27.832,-42.480,0.000,0
110860.886,-122.559,-12.695,44.922,-28.809,0.000,0
110860.890,-165.039,-21.973,9.766,-38.086,0.000,0
110860.894,-169.434,-24.414,1.465,-42.480,0.000,0
110860.898,-135.742,-24.414,18.066,-31.738,0.000,0
110860.902,-67.871,-25.879,-16.113,-42.480,0.000,0
110860.905,-43.457,-19.531,-60.547,-35.156,0.000,0
110860.909,-58.105,-13.184,-62.012,-23.926,0.000,0
110860.913,-42.480,-17.578,-43.457,-41.016,0.000,0
110860.917,-23.926,-23.438,-31.250,-68.359,0.000,0
110860.921,-30.762,-17.578,-56.641,-67.383,0.000,0
110860.925,-25.879,-7.812,-78.613,-48.340,0.000,0
110860.929,3.906,-12.695,-45.898,-49.316,0.000,0
110860.933,32.715,-16.113,-20.020,-63.477,0.000,0
110860.937,41.504,-8.789,-60.547,-45.410,0.000,0
110860.941,30.762,-16.602,-127.930,-45.898,0.000,0
110860.945,45.898,-27.344,-104.980,-77.148,0.000,0
110860.948,42.480,-22.461,-29.297,-80.078,0.000,0
110860.952,10.742,-21.973,-48.340,-75.195,0.000,0
110860.956,-22.461,-25.879,-92.773,-86.914,0.000,0
110860.960,-62.988,-26.367,-62.012,-94.238,0.000,0
110860.964,-118.164,-27.832,-11.230,-106.445,0.000,0
110860.968,-184.570,-27.344,17.090,-125.977,0.000,0
110860.972,-266.113,-23.438,4.395,-116.211,0.000,0
110860.976,-336.426,-22.949,-26.855,-121.094,0.000,0
110860.980,-397.461,-30.762,16.113,-124.512,0.000,0
110860.984,-505.371,-37.109,90.332,-125.000,0.000,0
110860.988,-625.000,-33.203,66.406,-131.348,0.000,0
110860.991,-709.473,-23.926,-0.488,-110.352,0.000,0
110860.995,-793.457,-25.391,6.348,-133.301,0.000,0
110860.999,-846.191,-21.973,21.484,-149.414,0.000,0
110861.003,-890.137,-17.578,-25.391,-123.535,0.000,0
110861.007,-977.051,-24.902,-22.949,-112.305,0.000,0
110861.011,-1000.000,-23.926,30.762,-107.910,0.000,0
110861.015,-998.047,-20.996,69.336,-99.609,0.000,0
110861.019,-1000.000,-28.809,46.875,-109.863,0.000,0
110861.023,-1000.000,-24.902,-4.883,-114.258,0.000,0
110861.027,-1000.000,-20.020,49.316,-124.023,0.000,0
110861.030,-1000.000,-21.484,85.449,-124.023,0.000,0
110861.034,-1000.000,-15.625,37.598,-121.094,0.000,0
110861.038,-1000.000,-4.883,2.930,-129.395,0.000,0
110861.042,-1000.000,6.348,-32.227,-120.117,0.000,0
110861.046,-999.023,6.348,-8.301,-126.953,0.000,0
110861.050,-1000.000,4.883,12.695,-120.605,0.000,0
110861.054,-984.375,11.719,-7.324,-104.004,0.000,0
110861.058,-923.828,19.531,-9.766,-111.816,0.000,0
110861.062,-871.582,16.602,10.254,-111.816,0.000,0
110861.066,-806.152,7.324,32.227,-121.094,0.000,0
110861.070,-762.695,11.230,11.230,-129.883,0.000,0
110861.073,-732.422,21.973,-30.762,-132.324,0.000,0
110861.077,-651.367,17.578,-42.480,-134.277,0.000,0
110861.081,-609.863,0.977,-29.297,-144.043,0.000,0
110861.085,-623.047,-16.602,5.371,-151.367,0.000,0
110861.089,-604.004,-28.320,-1.465,-144.531,0.000,0
110861.093,-540.039,-32.715,-32.227,-142.090,0.000,0
110861.097,-484.863,-44.434,46.875,-139.648,0.000,0
110861.101,-479.004,-43.945,78.613,-133.789,0.000,0
110861.105,-491.699,-39.551,-1.953,-136.719,0.000,0
110861.109,-461.914,-44.434,-22.949,-156.738,0.000,0
110861.113,-489.746,-42.969,22.949,-178.711,0.000,0
110861.116,-547.363,-45.410,66.895,-171.387,0.000,0
110861.120,-571.289,-37.598,42.480,-157.227,0.000,0
110861.124,-562.500,-27.832,16.602,-161.621,0.000,0
110861.128,-587.891,-26.855,55.176,-145.996,0.000,0
110861.132,-605.469,-26.855,82.031,-132.324,0.000,0
110861.136,-563.965,-32.715,58.105,-120.605,0.000,0
110861.140,-525.879,-28.320,-0.488,-114.746,0.000,0
110861.144,-499.512,-32.227,1.953,-127.441,0.000,0
110861.148,-476.074,-42.969,24.902,-129.883,0.000,0
110861.152,-477.051,-47.363,-4.395,-125.977,0.000,0
110861.155,-505.859,-54.688,-66.895,-135.742,0.000,0
110861.159,-545.410,-55.176,-108.398,-136.719,0.000,0
110861.163,-606.934,-55.176,-45.410,-129.395,0.000,0
110861.167,-665.039,-58.594,-25.879,-134.766,0.000,0
110861.171,-702.148,-52.246,-116.211,-123.535,0.000,0
110861.175,-764.160,-49.805,-139.648,-119.629,0.000,0
110861.179,-814.941,-52.734,-101.562,-127.930,0.000,0
110861.183,-810.547,-58.105,-85.449,-134.766,0.000,0
110861.187,-812.500,-63.965,-103.516,-136.230,0.000,0
110861.191,-867.188,-53.223,-143.555,-109.863,0.000,0
110861.195,-887.695,-45.898,-157.227,-110.840,0.000,0
110861.198,-865.723,-56.641,-141.113,-131.836,0.000,0
110861.202,-835.938,-58.594,-139.648,-125.488,0.000,0
110861.206,-820.312,-56.152,-141.113,-119.629,0.000,0
110861.210,-835.449,-60.547,-115.234,-119.629,0.000,0
110861.214,-759.766,-62.988,-94.727,-140.137,0.000,0
110861.218,-645.996,-53.711,-96.191,-135.254,0.000,0
110861.222,-564.941,-40.039,-133.789,-121.094,0.000,0
110861.226,-481.445,-38.086,-142.578,-116.211,0.000,0
110861.230,-404.785,-34.668,-116.211,-100.586,0.000,0
110861.234,-319.336,-40.039,-78.125,-120.117,0.000,0
110861.238,-262.695,-42.480,-67.871,-132.324,0.000,0
110861.241,-212.402,-38.086,-82.031,-130.859,0.000,0
110861.245,-128.418,-40.039,-40.039,-149.902,0.000,0
110861.249,-47.852,-28.809,-12.695,-139.160,0.000,0
110861.253,-6.348,-2.441,-7.324,-117.188,0.000,0
110861.257,39.062,1.953,-26.367,-111.328,0.000,0
110861.261,99.121,-7.812,-42.969,-106.445,0.000,0
110861.265,133.789,2.930,43.457,-99.121,0.000,0
110861.269,147.461,32.715,63.477,-85.449,0.000,0
110861.273,105.469,55.664,-22.949,-89.355,0.000,0
110861.277,32.715,64.941,-41.992,-86.914,0.000,0
110861.280,7.812,62.500,11.230,-70.312,0.000,0
110861.284,7.812,55.664,46.387,-69.824,0.000,0
110861.288,-17.090,50.781,-9.766,-79.590,0.000,0
110861.292,-5.859,51.758,-28.320,-78.125,0.000,0
110861.296,13.672,49.805,12.695,-82.520,0.000,0
110861.300,9.277,40.527,3.418,-101.562,0.000,0
110861.304,-4.395,42.480,-2.930,-97.168,0.000,0
110861.308,-16.113,56.641,-19.043,-79.590,0.000,0
110861.312,-64.453,64.453,-4.883,-69.336,0.000,0
110861.316,-126.465,59.570,37.109,-74.707,0.000,0
110861.320,-159.668,57.617,-12.695,-77.148,0.000,0
110861.323,-194.824,53.711,-65.430,-85.938,0.000,0
110861.327,-192.383,51.270,-53.711,-91.797,0.000,0
110861.331,-156.250,46.875,-35.645,-82.031,0.000,0
110861.335,-138.184,37.598,-42.480,-95.703,0.000,0
110861.339,-157.715,36.621,-45.410,-97.168,0.000,0
110861.343,-157.715,38.574,-23.438,-84.961,0.000,0
110861.347,-121.582,40.039,-9.277,-87.891,0.000,0
110861.351,-64.453,26.367,-13.672,-93.750,0.000,0
110861.355,-49.316,18.555,-14.648,-85.938,0.000,0
110861.359,-79.590,20.508,2.441,-95.703,0.000,0
110861.363,-93.750,13.184,40.039,-96.191,0.000,0
110861.366,-112.793,8.789,18.555,-98.633,0.000,0
110861.370,-166.504,8.789,-46.875,-107.910,0.000,0
110861.374,-182.129,1.465,-67.871,-100.098,0.000,0
110861.378,-174.805,-7.812,-19.043,-116.699,0.000,0
110861.382,-187.988,-10.254,23.926,-111.816,0.000,0
110861.386,-178.223,-1.465,-2.930,-98.633,0.000,0
110861.390,-136.230,1.953,15.137,-121.582,0.000,0
110861.394,-112.305,1.465,41.992,-134.766,0.000,0
110861.398,-116.699,2.930,70.801,-127.930,0.000,0
110861.402,-122.559,6.836,136.719,-114.258,0.000,0
110861.405,-131.836,17.090,62.012,-116.211,0.000,0
110861.409,-116.699,10.254,29.297,-131.348,0.000,0
110861.413,-18.066,6.836,88.379,-132.324,0.000,0
110861.417,62.012,14.160,90.332,-126.953,0.000,0
110861.421,93.262,16.113,72.754,-121.094,0.000,0
110861.425,106.445,13.672,40.527,-125.000,0.000,0
110861.429,145.020,4.395,69.824,-134.277,0.000,0
110861.433,229.980,1.953,125.000,-132.812,0.000,0
110861.437,279.297,4.883,104.980,-136.719,0.000,0
110861.441,323.242,2.441,72.754,-146.973,0.000,0
110861.445,383.301,-1.953,66.895,-142.578,0.000,0
110861.448,423.828,-2.930,73.730,-112.305,0.000,0
110861.452,406.738,-5.371,13.672,-109.375,0.000,0
110861.456,357.910,-10.254,0.977,-114.258,0.000,0
110861.460,375.000,-16.602,83.008,-102.539,0.000,0
110861.464,459.961,-9.766,108.887,-103.516,0.000,0
110861.468,512.207,3.418,86.426,-95.215,0.000,0
110861.472,504.883,6.348,41.016,-80.566,0.000,0
110861.476,526.367,0.000,38.086,-90.332,0.000,0
110861.480,547.852,-19.043,91.797,-114.258,0.000,1
110861.484,567.383,-20.508,92.773,-122.070,0.000,0
110861.488,583.008,-13.184,60.547,-98.633,0.000,0
110861.491,575.195,-17.578,83.008,-86.426,0.000,0
110861.495,602.051,-23.438,92.285,-120.605,0.000,0
110861.499,595.215,-26.855,85.938,-111.816,0.000,0
110861.503,590.332,-31.250,55.176,-79.102,0.000,0
110861.507,663.086,-25.879,10.742,-74.707,0.000,0
110861.511,728.516,-20.020,55.664,-99.121,0.000,0
110861.515,791.016,-17.090,129.883,-130.859,0.000,0
110861.519,777.832,-11.230,132.812,-121.582,0.000,0
110861.523,708.984,-11.230,77.148,-105.957,0.000,0
110861.527,719.238,-14.160,55.664,-103.027,0.000,0
110861.530,760.742,-19.043,66.406,-105.957,0.000,0
110861.534,796.875,-23.438,56.152,-121.582,0.000,0
110861.538,817.383,-23.926,55.664,-144.043,0.000,0
110861.542,866.211,-26.855,82.031,-157.715,0.000,0
110861.546,933.594,-30.762,96.191,-150.391,0.000,0
110861.550,923.828,-33.691,122.559,-165.039,0.000,0
110861.554,819.336,-30.762,112.305,-166.504,0.000,0
110861.558,835.449,-31.738,156.738,-171.387,0.000,0
110861.562,960.938,-31.738,282.227,-197.266,0.000,0
110861.566,976.562,-32.715,315.430,-186.035,0.000,0
110861.570,967.285,-42.969,233.398,-172.363,0.000,0
110861.573,973.145,-44.434,109.375,-172.363,0.000,0
110861.577,972.168,-49.805,68.848,-184.570,0.000,0
110861.581,972.168,-55.176,67.871,-187.500,0.000,0
110861.585,972.168,-53.711,5.859,-161.621,0.000,0
110861.589,972.168,-53.223,-11.719,-133.789,0.000,0
110861.593,972.168,-70.801,33.203,-140.625,0.000,0
110861.597,972.168,-122.070,119.629,-136.230,0.000,0
110861.601,972.168,-135.742,151.367,-98.633,0.000,0
110861.605,972.168,-127.930,105.957,-110.352,0.000,0
110861.609,972.168,-130.371,117.676,-119.629,0.000,0
110861.613,972.168,-138.672,134.277,-145.996,0.000,0
110861.616,972.168,-158.203,122.070,-184.570,0.000,0
110861.620,972.168,-163.574,35.645,-133.789,0.000,0
110861.624,972.168,-143.066,-89.355,-76.660,0.000,0
110861.628,972.168,-130.859,-65.430,-69.824,0.000,0
110861.632,972.168,-129.395,9.766,-103.516,0.000,0
110861.636,972.168,-127.441,-6.836,-96.191,0.000,0
110861.640,972.168,-117.676,-21.484,-58.105,0.000,0
110861.644,972.168,-114.258,29.785,-93.750,0.000,0
110861.648,972.168,-118.652,64.941,-112.793,0.000,0
110861.652,972.168,-105.469,17.090,-76.660,0.000,0
110861.655,972.168,-92.773,-27.344,-68.848,0.000,0
110861.659,972.168,-82.520,-8.301,-36.621,0.000,0
110861.663,972.656,-70.801,4.883,-9.277,0.000,0
110861.667,972.168,-58.594,-7.812,-27.344,0.000,0
110861.671,972.168,-48.828,8.789,-15.625,0.000,0
110861.675,972.168,-46.875,16.113,-3.418,0.000,0
110861.679,972.168,-44.922,30.273,-8.301,0.000,0
110861.683,972.168,-43.457,68.359,-27.344,0.000,0
110861.687,972.168,-44.922,109.863,-15.625,0.000,0
110861.691,972.168,-48.340,99.121,22.461,0.000,0
110861.695,972.168,-61.035,106.934,13.672,0.000,0
110861.698,972.168,-66.895,135.742,-3.418,0.000,0
110861.702,972.168,-63.477,98.145,28.320,0.000,0
110861.706,972.168,-78.613,62.500,20.996,0.000,0
110861.710,972.168,-89.844,85.938,25.879,0.000,0
110861.714,972.168,-88.867,117.676,30.762,0.000,0
110861.718,972.168,-88.379,124.512,15.137,0.000,0
110861.722,972.168,-85.449,80.566,11.230,0.000,0
110861.726,972.656,-90.332,65.918,4.395,0.000,0
110861.730,972.656,-91.797,101.074,29.785,0.000,0
110861.734,969.727,-91.797,130.371,49.805,0.000,0
110861.738,973.633,-97.168,81.543,31.738,0.000,0
110861.741,945.312,-88.379,34.180,35.156,0.000,0
110861.745,849.121,-87.402,58.105,17.578,0.000,0
110861.749,737.305,-95.703,26.367,-3.418,0.000,0
110861.753,633.301,-97.656,-20.996,-8.301,0.000,0
110861.757,558.594,-105.957,14.648,-2.930,0.000,0
110861.761,506.836,-104.980,63.477,-3.906,0.000,0
110861.765,450.684,-109.863,78.125,-21.484,0.000,0
110861.769,395.996,-112.305,41.016,-4.883,0.000,0
110861.773,344.238,-105.469,37.598,10.742,0.000,0
110861.777,233.887,-107.422,122.559,21.973,0.000,0
110861.780,136.719,-106.445,131.836,17.090,0.000,0
110861.784,49.805,-106.934,86.914,-4.883,0.000,0
110861.788,-15.137,-101.562,73.730,1.953,0.000,0
110861.792,-47.363,-95.703,135.254,-4.395,0.000,0
110861.796,-105.469,-102.051,231.934,-20.508,0.000,0
110861.800,-151.855,-103.516,234.375,-24.902,0.000,0
110861.804,-206.055,-103.027,171.875,-34.180,0.000,0
110861.808,-279.297,-107.422,145.020,-72.754,0.000,0
110861.812,-319.824,-107.910,180.664,-96.680,0.000,0
110861.816,-342.773,-100.586,207.031,-82.031,0.000,0
110861.820,-413.086,-93.262,176.270,-65.918,0.000,0
110861.823,-461.426,-96.680,153.320,-53.711,0.000,0
110861.827,-472.168,-97.656,162.109,-32.227,0.000,0
110861.831,-524.414,-88.867,164.551,-19.043,0.000,0
110861.835,-583.008,-81.543,125.488,1.465,0.000,0
110861.839,-640.137,-63.965,41.504,-4.395,0.000,0
110861.843,-676.758,-59.082,-32.227,-34.668,0.000,0
110861.847,-687.988,-65.430,-42.480,-33.691,0.000,0
110861.851,-721.680,-64.941,-37.109,-31.738,0.000,0
110861.855,-744.141,-74.707,-48.340,-44.434,0.000,0
110861.859,-771.484,-82.031,-20.996,-42.969,0.000,0
110861.863,-787.109,-78.613,35.156,-34.668,0.000,0
110861.866,-784.180,-77.148,96.680,-36.133,0.000,0
110861.870,-812.012,-77.637,70.312,-34.668,0.000,0
110861.874,-849.121,-77.637,63.477,-31.738,0.000,0
110861.878,-869.629,-80.078,125.000,-49.316,0.000,0
110861.882,-872.070,-85.938,133.301,-59.570,0.000,0
110861.886,-881.348,-80.566,90.820,-50.781,0.000,0
110861.890,-907.715,-54.199,59.570,-44.434,0.000,0
110861.894,-909.180,-29.785,91.309,-43.945,0.000,0
110861.898,-915.039,-11.230,108.398,-56.641,0.000,0
110861.902,-935.059,1.953,57.617,-55.664,0.000,0
110861.905,-926.758,7.812,63.477,-52.246,0.000,0
110861.909,-903.320,10.254,82.031,-60.059,0.000,0
110861.913,-878.906,10.254,41.504,-58.594,0.000,0
110861.917,-860.840,1.953,69.824,-72.266,0.000,0
110861.921,-875.000,5.859,97.168,-78.125,0.000,0
110861.925,-876.465,5.859,75.195,-80.078,0.000,0
110861.929,-878.418,-5.371,71.289,-97.168,0.000,0
110861.933,-878.418,-4.883,68.848,-100.098,0.000,0
110861.937,-886.230,-6.836,55.176,-81.055,0.000,0
110861.941,-899.902,-13.184,28.320,-59.570,0.000,0
110861.945,-861.816,-14.648,-7.324,-56.641,0.000,0
110861.948,-840.332,-15.625,-58.105,-83.008,0.000,0
110861.952,-856.934,-17.090,-123.047,-96.191,0.000,0
110861.956,-905.273,-21.973,-128.906,-111.816,0.000,0
110861.960,-934.570,-27.344,-75.684,-120.605,0.000,0
110861.964,-905.762,-36.133,4.395,-111.816,0.000,0
110861.968,-916.016,-32.715,55.176,-126.953,0.000,0
110861.972,-926.758,-30.762,58.594,-136.719,0.000,0
110861.976,-918.457,-37.109,51.270,-130.859,0.000,0
110861.980,-915.527,-41.016,9.766,-143.555,0.000,0
110861.984,-904.297,-42.480,-42.480,-150.879,0.000,0
110861.988,-929.199,-36.621,-111.328,-140.625,0.000,0
110861.991,-950.195,-35.156,-166.992,-147.461,0.000,0
110861.995,-931.152,-39.551,-122.070,-147.949,0.000,0
110861.999,-931.641,-36.621,-76.660,-137.695,0.000,0
110862.003,-951.660,-39.062,-134.766,-142.090,0.000,0
110862.007,-923.828,-38.574,-191.406,-148.926,0.000,0
110862.011,-899.902,-41.016,-138.672,-135.254,0.000,0
110862.015,-928.223,-46.387,-76.660,-109.863,0.000,0
110862.019,-945.801,-42.969,-154.785,-121.582,0.000,0
110862.023,-938.965,-39.062,-300.781,-116.211,0.000,0
110862.027,-911.133,-31.738,-410.645,-96.191,0.000,1
110862.030,-889.160,-32.715,-413.574,-104.980,0.000,0
110862.034,-885.742,-36.621,-415.039,-114.258,0.000,0
110862.038,-879.395,-38.086,-489.746,-121.582,0.000,0
110862.042,-896.484,-40.039,-506.348,-132.324,0.000,0
110862.046,-895.508,-38.574,-444.824,-143.066,0.000,0
110862.050,-875.000,-43.457,-459.473,-140.137,0.000,0
110862.054,-865.234,-44.922,-541.504,-143.555,0.000,0
110862.058,-861.816,-38.574,-578.613,-134.277,0.000,0
110862.062,-875.000,-49.316,-519.531,-118.164,0.000,0
110862.066,-848.633,-51.270,-502.930,-140.137,0.000,0
110862.070,-817.871,-49.316,-524.902,-158.203,0.000,0
110862.073,-824.707,-53.223,-500.488,-161.621,0.000,0
110862.077,-817.383,-47.852,-462.891,-158.691,0.000,0
110862.081,-777.344,-48.340,-437.988,-154.785,0.000,0
110862.085,-765.137,-49.805,-455.566,-138.184,0.000,0
110862.089,-768.555,-50.293,-464.844,-129.883,0.000,0
110862.093,-735.352,-44.922,-418.945,-165.039,0.000,0
110862.097,-705.566,-40.039,-428.223,-185.059,0.000,0
110862.101,-682.617,-42.480,-496.094,-175.781,0.000,0
110862.105,-673.828,-40.527,-503.906,-148.438,0.000,0
110862.109,-688.965,-38.086,-477.539,-150.879,0.000,0
110862.113,-657.715,-51.270,-466.309,-166.504,0.000,0
110862.116,-633.301,-55.664,-501.953,-145.996,0.000,0
110862.120,-639.160,-56.641,-533.691,-165.039,0.000,0
110862.124,-651.855,-63.965,-524.414,-149.902,0.000,0
110862.128,-639.160,-61.035,-500.000,-143.555,0.000,0
110862.132,-614.258,-67.871,-417.969,-163.574,0.000,0
110862.136,-614.746,-61.035,-399.414,-149.414,0.000,0
110862.140,-605.469,-45.898,-413.574,-152.832,0.000,0
110862.144,-580.566,-50.293,-371.582,-152.832,0.000,0
110862.148,-546.387,-51.758,-271.973,-146.484,0.000,0
110862.152,-553.711,-49.805,-157.227,-150.879,0.000,0
110862.155,-551.758,-41.016,-182.617,-133.301,0.000,0
110862.159,-534.668,-36.133,-192.871,-130.859,0.000,0
110862.163,-536.621,-42.969,-141.113,-139.648,0.000,0
110862.167,-529.297,-46.875,-142.090,-166.504,0.000,0
110862.171,-524.902,-48.828,-161.133,-176.270,0.000,0
110862.175,-514.648,-44.434,-153.320,-148.438,0.000,0
110862.179,-497.070,-46.875,-122.559,-145.996,0.000,0
110862.183,-470.215,-50.781,-118.652,-126.953,0.000,0
110862.187,-503.418,-48.828,-138.184,-120.605,0.000,0
110862.191,-520.020,-57.617,-153.320,-157.715,0.000,0
110862.195,-494.141,-60.059,-122.070,-129.395,0.000,0
110862.198,-467.773,-57.129,-95.703,-116.211,0.000,0
110862.202,-452.148,-56.641,-155.273,-127.441,0.000,0
110862.206,-463.867,-50.293,-208.008,-107.422,0.000,0
110862.210,-441.895,-51.758,-168.457,-109.375,0.000,0
110862.214,-411.133,-48.340,-105.469,-81.055,0.000,0
110862.218,-422.363,-46.875,-145.020,-62.988,0.000,0
110862.222,-440.430,-52.734,-195.312,-68.848,0.000,0
110862.226,-441.895,-47.852,-151.855,-55.664,0.000,0
110862.230,-423.340,-48.340,-94.727,-58.594,0.000,0
110862.234,-408.203,-49.316,-56.152,-58.594,0.000,0
110862.238,-423.340,-43.945,-76.172,-35.156,0.000,0
110862.241,-415.039,-49.805,-108.398,-35.156,0.000,0
110862.245,-364.746,-51.270,-106.445,-52.734,0.000,0
110862.249,-352.051,-53.711,-95.215,-46.875,0.000,0
110862.253,-378.906,-62.988,-138.672,-37.109,0.000,0
110862.257,-399.414,-76.660,-181.641,-41.016,0.000,0
110862.261,-368.164,-90.820,-178.711,-48.340,0.000,0
110862.265,-345.215,-89.844,-164.551,-64.941,0.000,0
110862.269,-350.098,-86.914,-161.133,-64.453,0.000,0
110862.273,-329.102,-79.590,-185.059,-44.434,0.000,0
110862.277,-305.664,-69.824,-196.777,-41.016,0.000,0
110862.280,-315.430,-71.777,-181.641,-60.059,0.000,0
110862.284,-322.266,-74.707,-208.008,-64.941,0.000,0
110862.288,-320.312,-84.961,-275.391,-63.477,0.000,0
110862.292,-314.941,-87.402,-327.637,-59.570,0.000,0
110862.296,-297.852,-83.008,-295.898,-68.359,0.000,0
110862.300,-277.832,-80.566,-233.887,-82.031,0.000,0
110862.304,-287.109,-82.520,-246.582,-88.867,0.000,0
110862.308,-295.898,-85.938,-237.793,-77.148,0.000,0
110862.312,-285.645,-81.543,-185.547,-71.777,0.000,0
110862.316,-284.668,-78.125,-196.289,-111.328,0.000,0
110862.320,-278.320,-75.195,-268.066,-121.094,0.000,0
110862.323,-283.203,-68.848,-326.172,-113.281,0.000,0
110862.327,-301.270,-74.219,-267.090,-126.465,0.000,0
110862.331,-303.711,-76.660,-199.219,-135.254,0.000,0
110862.335,-280.762,-62.012,-262.695,-118.164,0.000,0
110862.339,-276.367,-60.059,-314.941,-105.469,0.000,0
110862.343,-291.992,-64.453,-305.176,-109.863,0.000,0
110862.347,-285.645,-69.336,-287.598,-140.625,0.000,0
110862.351,-279.785,-76.660,-291.992,-142.090,0.000,0
110862.355,-274.902,-69.824,-321.777,-106.934,0.000,0
110862.359,-262.695,-68.848,-305.664,-124.023,0.000,0
110862.363,-252.930,-76.660,-282.715,-132.324,0.000,0
110862.366,-239.746,-80.566,-270.020,-139.648,0.000,0
110862.370,-244.141,-74.707,-241.699,-148.438,0.000,0
110862.374,-236.816,-58.594,-229.980,-141.113,0.000,0
110862.378,-204.102,-53.223,-172.363,-154.785,0.000,0
110862.382,-181.641,-55.664,-145.508,-141.113,0.000,0
110862.386,-176.758,-59.082,-170.898,-157.227,0.000,0
110862.390,-223.145,-62.988,-138.184,-179.199,0.000,0
110862.394,-254.883,-60.059,-135.254,-158.203,0.000,0
110862.398,-222.656,-60.547,-161.133,-168.457,0.000,0
110862.402,-209.961,-57.129,-162.598,-170.410,0.000,0
110862.405,-236.816,-59.570,-210.938,-147.949,0.000,0
110862.409,-248.047,-71.289,-225.098,-164.062,0.000,0
110862.413,-223.145,-60.059,-197.266,-182.129,0.000,0
110862.417,-222.168,-44.922,-185.059,-176.270,0.000,0
110862.421,-229.980,-39.551,-211.426,-155.273,0.000,0
110862.425,-217.285,-35.645,-219.727,-147.461,0.000,0
110862.429,-196.777,-45.410,-137.207,-146.973,0.000,0
110862.433,-186.035,-41.992,-100.098,-137.207,0.000,0
110862.437,-192.383,-41.016,-135.742,-132.812,0.000,0
110862.441,-188.477,-46.387,-184.570,-134.766,0.000,0
110862.445,-179.688,-48.340,-128.906,-159.668,0.000,0
110862.448,-195.312,-60.547,-40.039,-157.227,0.000,0
110862.452,-201.172,-51.758,-69.336,-133.789,0.000,0
110862.456,-187.988,-43.457,-85.449,-130.859,0.000,0
110862.460,-190.430,-48.828,-50.781,-135.742,0.000,0
110862.464,-187.500,-44.922,-30.273,-150.879,0.000,0
110862.468,-192.383,-44.434,-27.344,-157.227,0.000,0
110862.472,-202.637,-44.434,-63.965,-164.062,0.000,0
110862.476,-174.805,-38.086,-84.473,-176.758,0.000,0
110862.480,-151.367,-39.551,-11.719,-162.109,0.000,0
110862.484,-160.645,-37.109,-9.277,-140.137,0.000,0
110862.488,-155.273,-35.156,-62.012,-142.578,0.000,0
110862.491,-157.715,-30.273,-55.664,-124.023,0.000,0
110862.495,-163.086,-26.855,-58.105,-116.699,0.000,0
110862.499,-155.273,-31.738,-85.449,-135.254,0.000,0
110862.503,-145.508,-30.762,-127.441,-145.020,0.000,0
110862.507,-151.855,-37.598,-134.277,-150.391,0.000,0
110862.511,-158.691,-35.156,-90.820,-153.320,0.000,0
110862.515,-155.273,-24.414,-41.504,-158.203,0.000,0
110862.519,-152.344,-31.250,-95.215,-187.988,0.000,0
110862.523,-158.691,-34.180,-159.180,-194.824,0.000,0
110862.527,-190.918,-35.156,-68.359,-194.824,0.000,0
110862.530,-187.012,-14.160,-37.598,-227.539,0.000,0
110862.534,-141.602,4.395,-76.660,-240.234,0.000,0
110862.538,-150.879,-4.395,-64.941,-187.012,0.000,0
110862.542,-207.031,5.371,-38.086,-131.348,0.000,0
110862.546,-231.934,10.254,68.848,-126.953,0.000,0
110862.550,-244.629,21.484,130.371,-89.844,0.000,0
110862.554,-270.508,39.551,62.988,-63.965,0.000,0
110862.558,-323.730,46.875,37.109,-55.176,0.000,0
110862.562,-354.980,38.086,101.074,-16.113,0.000,0
110862.566,-324.219,2.441,137.207,5.371,0.000,0
110862.570,-294.434,-12.695,131.348,33.691,0.000,0
110862.573,-287.598,-14.648,130.859,63.965,0.000,0
110862.577,-252.441,-25.391,144.531,61.035,0.000,0
110862.581,-227.539,-22.949,205.566,66.895,0.000,0
110862.585,-217.773,-15.137,228.516,80.566,0.000,0
110862.589,-146.484,-8.301,171.875,108.398,0.000,0
110862.593,-80.566,0.000,146.484,158.203,0.000,0
110862.597,-58.594,-7.812,143.066,165.039,0.000,0
110862.601,-44.434,-14.648,89.355,125.977,0.000,0
110862.605,-26.855,-11.719,19.043,125.000,0.000,0
110862.609,4.395,-14.160,-3.418,154.297,0.000,0
110862.613,10.742,-12.695,8.789,159.668,0.000,0
110862.616,5.371,-11.719,36.621,133.301,0.000,0
110862.620,9.277,-26.855,-15.137,86.426,0.000,0
110862.624,23.926,-36.133,-56.641,91.797,0.000,0
110862.628,29.785,-42.969,-6.348,145.508,0.000,0
110862.632,13.184,-50.293,41.016,156.250,0.000,0
110862.636,16.602,-45.410,35.645,93.262,0.000,0
110862.640,7.812,-39.551,20.996,151.855,0.000,0
110862.644,8.789,-32.227,14.160,273.438,0.000,0
110862.648,24.414,-32.227,29.297,298.828,0.000,0
110862.652,4.883,-42.969,-36.621,288.086,0.000,0
110862.655,-14.648,-41.504,-96.191,398.438,0.000,0
110862.659,-22.949,-33.203,-101.074,413.086,0.000,0
110862.663,-42.480,-56.152,-112.793,275.391,0.000,0
110862.667,-21.484,-107.910,-204.102,503.906,0.000,0
110862.671,10.742,-137.207,-290.527,620.605,0.000,0
110862.675,-95.215,-136.719,-230.469,436.035,0.000,0
110862.679,-230.469,-120.605,-71.777,225.586,0.000,0
110862.683,-142.578,-95.703,65.430,22.949,0.000,0
110862.687,-0.488,-73.242,125.000,-295.898,0.000,1
110862.691,-17.090,-50.781,133.789,-452.148,0.000,0
110862.695,-20.996,-38.574,185.059,-484.863,0.000,0
110862.698,-47.852,-36.133,187.012,-326.660,0.000,0
110862.702,-53.711,-38.574,61.523,-229.980,0.000,0
110862.706,34.180,-42.480,-14.160,-144.043,0.000,0
110862.710,-8.789,-48.828,-52.734,-79.590,0.000,0
110862.714,-12.207,-34.180,-82.031,-115.234,0.000,0
110862.718,14.160,-8.789,-90.820,-34.180,0.000,0
110862.722,30.273,-9.277,-118.164,-50.781,0.000,0
110862.726,22.949,-17.090,-76.660,-643.066,0.000,0
110862.730,-36.621,-7.812,-20.996,-948.730,0.000,0
110862.734,-58.594,1.465,-28.809,-440.918,0.000,0
110862.738,-78.613,1.465,-37.109,-203.613,0.000,0
110862.741,-68.359,1.953,-0.977,-197.266,0.000,0
110862.745,-70.801,12.207,65.918,-153.320,0.000,0
110862.749,-86.426,24.902,75.684,-115.723,0.000,0
110862.753,-89.355,34.668,36.621,-103.027,0.000,0
110862.757,-92.285,44.434,31.250,-129.883,0.000,0
110862.761,-70.312,43.457,67.871,-167.969,0.000,0
110862.765,-41.016,35.645,120.117,-127.441,0.000,0
110862.769,-52.734,44.434,79.590,-47.363,0.000,0
110862.773,-66.895,45.898,6.836,-11.230,0.000,0
110862.777,-62.012,34.180,-14.648,-21.973,0.000,0
110862.780,-83.984,29.785,9.277,-48.828,0.000,0
110862.784,-109.375,19.531,44.434,-139.648,0.000,0
110862.788,-121.582,18.066,20.020,-329.102,0.000,0
110862.792,-112.793,25.879,24.902,-428.711,0.000,0
110862.796,-100.586,26.855,105.957,-395.996,0.000,0
110862.800,-93.750,27.344,90.820,-346.191,0.000,0
110862.804,-80.566,24.902,17.090,-244.141,0.000,0
110862.808,-66.895,26.855,4.395,-138.184,0.000,0
110862.812,-60.547,25.879,55.664,-142.578,0.000,0
110862.816,-49.316,22.949,43.457,-163.574,0.000,0
110862.820,-42.480,22.949,3.418,-148.926,0.000,0
110862.823,-54.688,24.414,17.578,-235.840,0.000,0
110862.827,-59.082,29.297,33.203,-245.117,0.000,0
110862.831,-42.480,29.785,52.246,-241.699,0.000,0
110862.835,-35.156,27.832,36.621,-301.270,0.000,0
110862.839,-40.527,25.879,11.230,-310.059,0.000,0
110862.843,-51.758,21.484,71.777,-201.172,0.000,0
110862.847,-55.176,19.531,149.902,-132.324,0.000,0
110862.851,-46.387,15.625,147.949,-202.637,0.000,0
110862.855,-38.086,15.137,104.492,-275.391,0.000,0
110862.859,-51.758,19.531,80.566,-168.945,0.000,0
110862.863,-31.250,6.348,118.652,-131.348,0.000,0
110862.866,-11.230,3.418,133.301,-182.617,0.000,0
110862.870,-28.809,11.719,104.980,-187.500,0.000,0
110862.874,-37.598,14.160,88.867,-161.621,0.000,0
110862.878,-38.086,11.719,79.102,-103.516,0.000,0
110862.882,-30.273,-1.953,92.773,18.555,0.000,0
110862.886,-35.156,-1.953,69.824,132.812,0.000,0
110862.890,-65.430,5.859,32.227,170.410,0.000,0
110862.894,-71.289,6.348,45.410,211.426,0.000,0
110862.898,-39.551,2.441,78.613,163.574,0.000,0
110862.902,-57.129,-0.977,124.023,111.328,0.000,0
110862.905,-80.078,2.930,89.844,131.348,0.000,0
110862.909,-67.383,-8.301,37.109,150.879,0.000,0
110862.913,-57.617,-28.320,41.504,150.391,0.000,0
110862.917,-64.453,-39.551,37.109,137.207,0.000,0
110862.921,-62.012,-44.434,-3.418,115.723,0.000,0
110862.925,-66.406,-48.828,-15.137,135.742,0.000,0
110862.929,-64.453,-50.781,52.246,115.723,0.000,0
110862.933,-39.062,-53.223,75.684,73.242,0.000,0
110862.937,-58.594,-65.918,36.133,75.684,0.000,0
110862.941,-100.586,-83.984,4.395,71.777,0.000,0
110862.945,-100.586,-105.469,25.879,42.969,0.000,0
110862.948,-127.930,-127.930,34.668,0.977,0.000,0
110862.952,-144.531,-137.207,-43.457,-15.625,0.000,0
110862.956,-150.391,-143.555,-123.535,-17.090,0.000,0
110862.960,-138.184,-167.480,-90.332,-71.777,0.000,0
110862.964,-172.363,-232.910,-45.898,-114.746,0.000,0
110862.968,-215.820,-291.504,-136.230,-161.133,0.000,0
110862.972,-213.379,-317.871,-217.285,-173.828,0.000,0
110862.976,-220.215,-355.957,-213.867,-143.066,0.000,0
110862.980,-255.371,-403.809,-214.844,-78.125,0.000,0
110862.984,-260.254,-445.312,-276.855,45.410,0.000,0
110862.988,-292.969,-467.285,-362.305,93.262,0.000,0
110862.991,-345.703,-479.980,-350.098,86.426,0.000,0
110862.995,-324.219,-498.535,-309.570,121.094,0.000,0
110862.999,-317.383,-514.160,-299.316,175.781,0.000,0
110863.003,-363.770,-528.809,-333.496,206.543,0.000,0
110863.007,-397.461,-539.551,-377.441,282.715,0.000,0
110863.011,-389.648,-535.645,-330.566,358.887,0.000,0
110863.015,-403.809,-533.691,-288.574,472.168,0.000,0
110863.019,-403.320,-541.992,-299.316,637.695,0.000,0
110863.023,-383.789,-538.574,-296.387,736.816,0.000,0
110863.027,-407.227,-517.578,-267.090,844.238,0.000,0
110863.030,-421.387,-499.023,-204.102,946.777,0.000,0
110863.034,-371.094,-480.469,-151.367,961.426,0.000,0
110863.038,-350.586,-462.891,-125.977,968.262,0.000,0
110863.042,-336.914,-446.777,-102.539,973.633,0.000,0
110863.046,-293.457,-422.852,-84.961,973.145,0.000,0
110863.050,-280.762,-408.203,-94.727,966.797,0.000,0
110863.054,-293.457,-405.762,-141.113,978.516,0.000,0
110863.058,-320.312,-401.367,-133.789,952.637,0.000,0
110863.062,-296.875,-384.277,-72.266,810.059,0.000,0
110863.066,-273.438,-371.094,-35.645,751.953,0.000,0
110863.070,-267.090,-367.188,-76.172,712.402,0.000,0
110863.073,-249.023,-353.027,-118.164,646.484,0.000,0
110863.077,-240.723,-346.191,-105.469,597.656,0.000,0
110863.081,-226.074,-355.957,-70.312,546.387,0.000,0
110863.085,-186.523,-345.215,-124.512,513.672,0.000,0
110863.089,-181.152,-334.473,-191.895,478.516,0.000,0
110863.093,-194.824,-326.660,-167.480,464.355,0.000,0
110863.097,-175.781,-322.266,-116.211,471.680,0.000,0
110863.101,-144.043,-323.242,-106.445,451.660,0.000,0
110863.105,-135.742,-319.336,-158.203,436.523,0.000,0
110863.109,-155.273,-315.430,-153.809,428.223,0.000,0
110863.113,-161.621,-309.570,-109.863,416.016,0.000,0
110863.116,-160.645,-311.035,-89.355,386.719,0.000,0
110863.120,-160.156,-317.383,-79.590,275.879,0.000,0
110863.124,-168.457,-298.828,-70.312,100.586,0.000,0
110863.128,-156.738,-279.785,-38.574,-58.594,0.000,0
110863.132,-113.281,-273.926,-69.824,-321.777,0.000,0
110863.136,-100.586,-264.160,-106.934,-739.258,0.000,0
110863.140,-124.023,-266.113,-68.359,-984.375,0.000,0
110863.144,-152.344,-263.672,-43.945,-1000.000,0.000,0
110863.148,-114.258,-261.230,-50.293,-916.016,0.000,0
110863.152,-110.352,-252.930,-66.895,-710.938,0.000,0
110863.155,-130.371,-237.305,-78.613,-597.168,0.000,0
110863.159,-102.539,-242.676,-44.434,-552.734,0.000,0
110863.163,-106.934,-245.117,-66.895,-501.465,0.000,0
110863.167,-152.344,-239.258,-159.180,-463.379,0.000,0
110863.171,-166.016,-233.887,-242.676,-404.297,0.000,0
110863.175,-128.418,-225.586,-256.348,-378.906,0.000,0
110863.179,-106.445,-217.285,-233.887,-373.047,0.000,0
110863.183,-108.887,-207.520,-242.676,-355.469,0.000,0
110863.187,-103.516,-192.383,-263.184,-347.656,0.000,0
110863.191,-74.219,-181.641,-288.086,-350.586,0.000,0
110863.195,-47.363,-177.734,-239.258,-352.051,0.000,0
110863.198,-35.156,-165.527,-194.824,-319.824,0.000,0
110863.202,-27.344,-147.949,-231.445,-271.973,0.000,0
110863.206,-0.488,-142.090,-234.863,-255.859,0.000,0
110863.210,28.320,-135.254,-148.438,-248.047,0.000,0
110863.214,17.578,-128.418,-101.562,-258.789,0.000,0
110863.218,15.137,-119.629,-152.832,-250.000,0.000,0
110863.222,29.297,-111.816,-174.316,-224.121,0.000,0
110863.226,48.340,-124.023,-123.535,-258.789,0.000,0
110863.230,22.949,-132.324,-116.699,-262.695,0.000,0
110863.234,19.043,-124.512,-160.645,-258.789,0.000,0
110863.238,27.344,-121.094,-127.930,-266.602,0.000,0
110863.241,22.949,-121.094,-58.105,-244.629,0.000,0
110863.245,39.062,-123.535,-64.941,-225.586,0.000,0
110863.249,17.090,-125.977,-117.188,-228.516,0.000,0
110863.253,-12.695,-133.301,-125.488,-254.395,0.000,0
110863.257,-12.207,-134.766,-75.195,-255.371,0.000,0
110863.261,-25.391,-135.254,-36.621,-245.117,0.000,0
110863.265,-52.734,-133.789,-72.266,-231.934,0.000,0
110863.269,-62.988,-132.812,-105.469,-221.191,0.000,0
110863.273,-96.191,-132.324,-45.898,-221.191,0.000,0
110863.277,-104.492,-134.277,-28.320,-209.961,0.000,0
110863.280,-97.168,-137.695,-103.027,-236.328,0.000,0
110863.284,-124.023,-140.137,-153.809,-255.371,0.000,0
110863.288,-160.645,-143.066,-153.320,-253.418,0.000,0
110863.292,-160.645,-138.184,-124.512,-230.957,0.000,0
110863.296,-176.758,-145.020,-107.910,-226.074,0.000,1
110863.300,-216.797,-150.391,-125.977,-242.188,0.000,0
110863.304,-220.215,-142.578,-123.047,-236.328,0.000,0
110863.308,-202.637,-141.602,-75.684,-229.004,0.000,0
110863.312,-191.406,-145.020,-28.320,-258.789,0.000,0
110863.316,-211.426,-148.926,-37.109,-268.066,0.000,0
110863.320,-240.234,-137.207,-79.590,-250.977,0.000,0
110863.323,-232.422,-126.953,-68.848,-263.184,0.000,0
110863.327,-219.727,-131.348,-44.922,-283.691,0.000,0
110863.331,-234.375,-136.230,-62.012,-261.230,0.000,0
110863.335,-250.000,-131.836,-98.633,-238.770,0.000,0
110863.339,-250.000,-126.953,-99.609,-270.508,0.000,0
110863.343,-244.629,-127.441,-33.691,-264.160,0.000,0
110863.347,-237.305,-121.582,-2.441,-251.953,0.000,0
110863.351,-243.164,-120.605,-47.363,-258.789,0.000,0
110863.355,-274.414,-124.023,-46.387,-254.883,0.000,0
110863.359,-271.973,-125.000,3.906,-238.281,0.000,0
110863.363,-267.578,-130.371,38.574,-235.352,0.000,0
110863.366,-291.992,-124.023,-46.875,-237.793,0.000,0
110863.370,-256.836,-111.816,-91.797,-229.980,0.000,0
110863.374,-236.816,-108.887,-22.461,-224.609,0.000,0
110863.378,-236.816,-105.957,-27.832,-241.699,0.000,0
110863.382,-219.727,-108.887,-93.750,-260.742,0.000,0
110863.386,-235.840,-118.164,-121.094,-271.973,0.000,0
110863.390,-242.676,-125.000,-71.289,-296.875,0.000,0
110863.394,-220.215,-124.023,-25.391,-294.434,0.000,0
110863.398,-187.988,-106.445,-81.055,-264.648,0.000,0
110863.402,-194.824,-98.145,-122.559,-257.812,0.000,0
110863.405,-197.754,-102.539,-73.242,-261.230,0.000,0
110863.409,-178.711,-107.910,-14.160,-282.227,0.000,0
110863.413,-166.016,-109.375,-33.691,-289.551,0.000,0
110863.417,-189.453,-99.121,-115.234,-267.090,0.000,0
110863.421,-218.262,-94.727,-136.719,-261.230,0.000,0
110863.425,-223.633,-100.098,-65.918,-277.344,0.000,0
110863.429,-229.980,-106.445,-28.320,-308.105,0.000,0
110863.433,-228.516,-107.422,-53.223,-289.551,0.000,0
110863.437,-216.797,-95.215,-90.820,-266.113,0.000,0
110863.441,-193.848,-102.539,-87.891,-292.480,0.000,0
110863.445,-173.828,-113.281,-65.918,-280.762,0.000,0
110863.448,-167.969,-112.305,-59.570,-266.113,0.000,0
110863.452,-178.223,-112.793,-20.996,-262.695,0.000,0
110863.456,-179.199,-104.004,2.930,-240.723,0.000,0
110863.460,-155.762,-102.539,-7.812,-261.719,0.000,0
110863.464,-141.602,-107.910,-22.949,-267.090,0.000,0
110863.468,-162.598,-106.934,-21.973,-254.395,0.000,0
110863.472,-165.527,-112.305,7.324,-239.258,0.000,0
110863.476,-163.574,-113.770,25.391,-226.562,0.000,0
110863.480,-179.688,-106.934,3.418,-243.652,0.000,0
110863.484,-163.086,-101.074,-47.852,-263.672,0.000,0
110863.488,-157.227,-94.727,-71.777,-259.277,0.000,0
110863.491,-161.133,-89.844,-16.602,-273.926,0.000,0
110863.495,-167.969,-90.332,-17.090,-262.207,0.000,0
110863.499,-168.945,-91.309,-73.242,-242.188,0.000,0
110863.503,-151.367,-93.262,-93.262,-251.465,0.000,0
110863.507,-147.461,-98.145,-59.082,-271.484,0.000,0
110863.511,-158.691,-106.934,8.301,-270.020,0.000,0
110863.515,-170.898,-111.816,-17.090,-253.418,0.000,0
110863.519,-177.246,-108.887,-117.676,-247.070,0.000,0
110863.523,-176.270,-116.211,-97.656,-258.301,0.000,0
110863.527,-155.273,-128.906,-24.902,-281.738,0.000,0
110863.530,-160.156,-129.395,-29.785,-293.945,0.000,0
110863.534,-175.781,-127.441,-52.246,-274.414,0.000,0
110863.538,-188.477,-123.047,-70.801,-272.461,0.000,0
110863.542,-190.918,-129.883,-17.578,-271.484,0.000,0
110863.546,-187.012,-132.324,-7.812,-250.000,0.000,0
110863.550,-167.969,-117.188,-70.312,-238.281,0.000,0
110863.554,-194.824,-122.559,-55.664,-244.141,0.000,0
110863.558,-212.402,-127.930,10.254,-265.625,0.000,0
110863.562,-181.641,-125.488,-2.441,-268.066,0.000,0
110863.566,-168.945,-124.512,-33.203,-262.207,0.000,0
110863.570,-187.988,-125.488,-14.160,-261.230,0.000,0
110863.573,-188.965,-118.164,-5.371,-276.367,0.000,0
110863.577,-162.109,-105.957,4.395,-270.020,0.000,0
110863.581,-158.203,-104.980,-12.207,-242.676,0.000,0
110863.585,-169.922,-109.863,-41.016,-233.887,0.000,0
110863.589,-148.438,-104.980,-9.277,-239.258,0.000,0
110863.593,-134.277,-103.516,30.273,-244.629,0.000,0
110863.597,-147.949,-104.492,-20.020,-259.766,0.000,0
110863.601,-145.508,-93.750,-42.969,-257.324,0.000,0
110863.605,-151.367,-83.008,8.789,-248.535,0.000,0
110863.609,-148.438,-89.355,42.969,-262.207,0.000,0
110863.613,-154.297,-98.633,65.430,-244.629,0.000,0
110863.616,-169.434,-102.051,28.809,-216.309,0.000,0
110863.620,-175.781,-101.562,-4.883,-241.699,0.000,0
110863.624,-161.621,-106.934,28.809,-271.484,0.000,0
110863.628,-159.668,-109.375,64.453,-275.879,0.000,0
110863.632,-172.363,-100.586,46.875,-260.742,0.000,0
110863.636,-177.246,-91.309,-4.395,-251.465,0.000,0
110863.640,-192.871,-88.867,5.371,-235.840,0.000,0
110863.644,-173.828,-86.426,13.672,-233.887,0.000,0
110863.648,-151.367,-85.938,-4.883,-239.746,0.000,0
110863.652,-158.203,-80.078,-44.922,-215.820,0.000,0
110863.655,-173.340,-69.824,-67.871,-206.055,0.000,0
110863.659,-160.645,-72.754,-23.926,-216.797,0.000,0
110863.663,-144.043,-80.078,-21.973,-186.035,0.000,0
110863.667,-162.598,-80.078,-38.574,-172.363,0.000,0
110863.671,-153.809,-61.523,-1.465,-190.430,0.000,0
110863.675,-129.395,-60.059,9.277,-223.633,0.000,0
110863.679,-108.398,-71.289,-40.039,-231.445,0.000,0
110863.683,-92.773,-64.941,-101.562,-210.449,0.000,0
110863.687,-86.426,-61.035,-56.152,-210.449,0.000,0
110863.691,-63.477,-62.500,27.832,-189.941,0.000,0
110863.695,-23.438,-61.523,-0.488,-181.641,0.000,0
110863.698,-23.926,-58.594,-51.270,-200.684,0.000,0
110863.702,-66.895,-59.082,-26.367,-206.543,0.000,0
110863.706,-92.285,-67.383,45.898,-211.426,0.000,0
110863.710,-78.613,-61.523,60.059,-216.309,0.000,0
110863.714,-42.969,-56.152,37.109,-234.863,0.000,0
110863.718,-34.180,-52.734,41.016,-224.609,0.000,0
110863.722,-42.480,-50.781,56.152,-224.609,0.000,0
110863.726,-37.598,-58.105,90.820,-244.629,0.000,0
110863.730,-52.734,-57.617,59.082,-244.141,0.000,0
110863.734,-62.988,-57.617,-36.133,-242.676,0.000,0
110863.738,-46.387,-57.617,-25.391,-235.840,0.000,0
110863.741,-41.016,-57.617,8.301,-245.605,0.000,0
110863.745,-47.363,-62.500,10.742,-252.930,0.000,0
110863.749,-86.426,-56.641,-9.766,-246.582,0.000,0
110863.753,-119.629,-49.316,-23.438,-255.371,0.000,0
110863.757,-99.609,-50.781,20.996,-252.930,0.000,0
110863.761,-85.449,-48.828,4.395,-240.234,0.000,0
110863.765,-114.746,-48.828,-12.207,-248.535,0.000,0
110863.769,-149.414,-48.828,9.277,-237.793,0.000,0
110863.773,-141.113,-40.039,-11.230,-236.816,0.000,0
110863.777,-104.980,-38.086,17.578,-268.066,0.000,0
110863.780,-103.027,-40.039,29.297,-263.184,0.000,0
110863.784,-141.113,-50.781,-13.672,-269.531,0.000,0
110863.788,-160.645,-52.734,18.555,-291.992,0.000,0
110863.792,-158.203,-42.480,29.297,-278.320,0.000,0
110863.796,-168.945,-40.039,-10.254,-239.746,0.000,0
110863.800,-170.898,-42.969,-83.008,-226.562,0.000,0
110863.804,-168.457,-53.223,-74.707,-261.230,0.000,0
110863.808,-176.270,-57.129,-2.441,-290.527,0.000,0
110863.812,-171.875,-54.688,-32.227,-309.570,0.000,0
110863.816,-194.824,-64.941,-76.660,-321.777,0.000,0
110863.820,-188.477,-72.754,-46.387,-312.012,0.000,0
110863.823,-187.012,-70.312,42.480,-326.660,0.000,0
110863.827,-229.492,-63.965,80.078,-343.750,0.000,0
110863.831,-226.074,-54.199,24.414,-307.617,0.000,0
110863.835,-238.770,-57.617,37.598,-314.941,0.000,0
110863.839,-270.996,-62.500,124.023,-345.703,0.000,0
110863.843,-247.559,-56.641,110.352,-341.309,0.000,0
110863.847,-211.914,-49.316,69.336,-331.055,0.000,0
110863.851,-199.707,-42.480,73.730,-325.195,0.000,0
110863.855,-186.523,-46.875,126.953,-312.012,0.000,0
110863.859,-173.828,-53.711,128.418,-280.762,0.000,0
110863.863,-145.996,-56.152,78.125,-265.625,0.000,0
110863.866,-138.672,-61.523,76.660,-276.855,0.000,0
110863.870,-174.316,-68.359,105.957,-271.973,0.000,0
110863.874,-185.547,-65.918,92.773,-264.160,0.000,0
110863.878,-171.387,-52.734,20.020,-246.582,0.000,0
110863.882,-179.199,-39.551,11.230,-211.426,0.000,0
110863.886,-211.426,-42.480,38.574,-198.730,0.000,0
110863.890,-222.656,-42.969,-1.465,-213.867,0.000,0
110863.894,-223.145,-42.969,-37.598,-213.379,0.000,0
110863.898,-247.559,-43.457,-65.918,-198.730,0.000,0
110863.902,-302.246,-39.551,-56.152,-192.383,0.000,0
110863.905,-348.145,-34.180,-42.480,-180.664,0.000,0
110863.909,-369.141,-26.855,-82.520,-183.105,0.000,0
110863.913,-396.973,-21.973,-103.516,-173.340,0.000,0
110863.917,-427.246,-18.555,-100.586,-167.969,0.000,0
110863.921,-429.199,-16.602,-68.359,-173.828,0.000,0
110863.925,-422.363,-10.742,-64.453,-162.109,0.000,0
110863.929,-437.500,-3.906,-113.281,-151.367,0.000,0
110863.933,-428.711,-1.465,-137.207,-140.137,0.000,0
110863.937,-416.016,-4.883,-130.859,-145.508,0.000,0
110863.941,-438.965,-12.695,-127.930,-151.367,0.000,0
110863.945,-454.590,-11.719,-153.809,-160.645,0.000,0
110863.948,-443.359,-7.812,-201.172,-160.156,0.000,0
110863.952,-428.711,-1.465,-181.152,-145.508,0.000,0
110863.956,-429.688,-9.766,-132.812,-159.668,0.000,0
110863.960,-418.457,-12.695,-125.488,-129.883,0.000,1
110863.964,-433.594,10.254,-135.742,-111.816,0.000,0
110863.968,-474.609,3.418,-147.461,-129.883,0.000,0
110863.972,-527.344,-15.137,-111.328,-130.859,0.000,0
110863.976,-621.094,-13.672,-98.633,-157.715,0.000,0
110863.980,-671.387,-3.418,-132.812,-148.438,0.000,0
110863.984,-723.633,-6.348,-142.578,-118.164,0.000,0
110863.988,-795.410,-18.555,-151.367,-158.203,0.000,0
110863.991,-834.961,-6.836,-100.586,-163.574,0.000,0
110863.995,-940.430,-2.441,-84.473,-153.809,0.000,0
110863.999,-1000.000,7.324,-106.445,-151.367,0.000,0
110864.003,-997.070,10.742,-39.551,-116.211,0.000,0
110864.007,-1000.000,16.602,-15.137,-125.488,0.000,0
110864.011,-1000.000,32.715,-33.691,-144.531,0.000,0
110864.015,-1000.000,40.527,15.625,-89.355,0.000,0
110864.019,-1000.000,51.758,94.238,-77.637,0.000,0
110864.023,-1000.000,61.523,102.051,-89.355,0.000,0
110864.027,-1000.000,82.520,29.785,-85.449,0.000,0
110864.030,-1000.000,93.262,19.531,-76.172,0.000,0
110864.034,-1000.000,94.727,45.898,-74.219,0.000,0
110864.038,-1000.000,90.332,59.082,-82.520,0.000,0
110864.042,-1000.000,93.750,32.227,-68.848,0.000,0
110864.046,-1000.000,105.469,-31.250,-69.824,0.000,0
110864.050,-1000.000,104.004,-18.555,-91.309,0.000,0
110864.054,-1000.000,103.027,23.926,-87.402,0.000,0
110864.058,-1000.000,104.980,9.766,-90.332,0.000,0
110864.062,-1000.000,111.328,-46.875,-94.727,0.000,0
110864.066,-997.559,107.910,-80.566,-94.727,0.000,0
110864.070,-1000.000,99.121,-78.613,-124.023,0.000,0
110864.073,-941.895,93.750,-88.379,-128.418,0.000,0
110864.077,-833.008,81.543,-106.445,-120.117,0.000,0
110864.081,-751.953,77.148,-139.648,-131.836,0.000,0
110864.085,-601.074,77.148,-169.922,-148.438,0.000,0
110864.089,-456.543,74.219,-163.086,-153.809,0.000,0
110864.093,-403.809,74.219,-174.316,-169.922,0.000,0
110864.097,-314.453,67.871,-188.477,-192.871,0.000,0
110864.101,-182.129,60.547,-162.598,-204.590,0.000,0
110864.105,-104.980,59.082,-148.926,-219.727,0.000,0
110864.109,-65.430,53.711,-179.688,-230.957,0.000,0
110864.113,-21.973,55.176,-246.582,-242.676,0.000,0
110864.116,32.227,50.293,-224.609,-252.930,0.000,0
110864.120,73.730,43.457,-124.023,-246.582,0.000,0
110864.124,36.133,47.852,-142.578,-237.305,0.000,0
110864.128,-3.418,49.316,-214.844,-261.719,0.000,0
110864.132,-26.855,45.410,-181.152,-291.016,0.000,0
110864.136,-50.293,34.668,-101.562,-285.156,0.000,0
110864.140,-82.520,32.227,-81.543,-280.273,0.000,0
110864.144,-83.984,35.645,-144.531,-250.488,0.000,0
110864.148,-50.781,34.180,-154.297,-236.816,0.000,0
110864.152,-106.445,28.320,-74.707,-255.371,0.000,0
110864.155,-212.891,9.766,-5.859,-244.141,0.000,0
110864.159,-215.332,4.395,-41.016,-235.840,0.000,0
110864.163,-148.438,12.695,-87.891,-230.957,0.000,0
110864.167,-122.559,11.719,-41.992,-224.121,0.000,0
110864.171,-67.383,10.254,-39.551,-194.824,0.000,0
110864.175,48.828,15.625,-68.848,-168.457,0.000,0
110864.179,157.715,20.996,-81.543,-168.457,0.000,0
110864.183,231.445,25.879,-108.398,-160.645,0.000,0
110864.187,246.094,24.414,-79.590,-156.738,0.000,0
110864.191,261.719,20.508,-36.133,-140.625,0.000,0
110864.195,279.785,12.207,-45.410,-132.812,0.000,0
110864.198,294.434,-0.977,-40.039,-161.133,0.000,0
110864.202,354.492,-7.812,-37.598,-158.691,0.000,0
110864.206,361.816,-8.301,-60.059,-139.648,0.000,0
110864.210,359.375,-3.906,-99.121,-150.391,0.000,0
110864.214,425.293,1.465,-133.789,-154.297,0.000,0
110864.218,496.094,4.395,-110.352,-133.301,0.000,0
110864.222,510.742,9.766,-105.957,-133.301,0.000,0
110864.226,514.160,13.184,-161.621,-141.602,0.000,0
110864.230,540.527,15.625,-193.359,-135.742,0.000,0
110864.234,574.219,15.625,-171.875,-126.953,0.000,0
110864.238,571.777,15.625,-118.652,-130.371,0.000,0
110864.241,563.477,24.414,-159.180,-130.371,0.000,0
110864.245,513.184,25.391,-212.402,-113.770,0.000,0
110864.249,455.078,13.672,-170.410,-99.121,0.000,0
110864.253,447.754,7.812,-142.578,-103.516,0.000,0
110864.257,417.480,12.695,-114.746,-104.980,0.000,0
110864.261,397.949,21.484,-167.969,-93.262,0.000,0
110864.265,363.770,19.531,-223.145,-80.566,0.000,0
110864.269,322.266,12.207,-162.109,-74.219,0.000,0
110864.273,293.945,14.160,-131.836,-101.074,0.000,0
110864.277,252.441,9.766,-111.816,-87.402,0.000,0
110864.280,224.609,11.719,-117.188,-62.012,0.000,0
110864.284,225.586,18.555,-103.516,-101.074,0.000,0
110864.288,288.086,16.602,-50.293,-97.168,0.000,0
110864.292,343.750,20.020,-78.125,-77.148,0.000,0
110864.296,379.883,25.391,-70.801,-69.336,0.000,0
110864.300,382.812,25.391,-11.719,-72.266,0.000,0
110864.304,406.738,20.996,-20.996,-93.750,0.000,0
110864.308,470.703,20.508,-90.332,-97.656,0.000,0
110864.312,523.438,20.996,-97.168,-68.848,0.000,0
110864.316,558.594,20.020,-34.668,-80.566,0.000,0
110864.320,566.895,19.043,-36.621,-97.656,0.000,0
110864.323,592.285,17.578,-89.355,-96.191,0.000,0
110864.327,628.418,28.320,-101.074,-116.699,0.000,0
110864.331,618.164,39.551,-55.176,-91.309,0.000,0
110864.335,630.371,36.621,-17.578,-70.801,0.000,0
110864.339,621.094,44.434,-37.109,-77.148,0.000,0
110864.343,581.543,54.688,-56.152,-86.426,0.000,0
110864.347,583.496,55.176,-48.340,-74.219,0.000,0
110864.351,556.641,53.223,-6.836,-41.992,0.000,0
110864.355,517.578,55.176,36.621,-22.461,0.000,0
110864.359,493.164,67.871,17.090,-30.273,0.000,0
110864.363,420.410,62.988,12.695,-31.738,0.000,0
110864.366,332.520,51.270,59.570,-34.180,0.000,0
110864.370,311.523,48.828,116.211,-30.273,0.000,0
110864.374,304.688,46.387,123.535,-32.715,0.000,0
110864.378,307.129,50.781,90.332,-32.715,0.000,0
110864.382,302.246,56.152,90.332,-45.898,0.000,0
110864.386,336.426,56.152,92.285,-45.410,0.000,0
110864.390,395.996,53.711,106.445,-21.973,0.000,0
110864.394,429.688,55.664,63.477,-16.602,0.000,0
110864.398,451.660,67.871,21.484,-35.156,0.000,0
110864.402,438.965,65.918,88.379,-41.016,0.000,0
110864.405,413.086,56.641,119.141,-10.742,0.000,0
110864.409,420.898,56.152,62.988,-5.371,0.000,0
110864.413,443.359,51.270,54.199,-22.949,0.000,0
110864.417,445.801,56.152,90.820,3.906,0.000,0
110864.421,449.707,52.246,111.816,0.488,0.000,0
110864.425,475.098,44.434,32.715,-17.090,0.000,0
110864.429,459.473,42.969,-10.254,-3.906,0.000,0
110864.433,432.129,39.551,57.617,-2.441,0.000,0
110864.437,420.898,42.480,100.098,12.207,0.000,0
110864.441,430.176,42.969,88.867,28.320,0.000,0
110864.445,429.688,34.180,72.266,5.859,0.000,0
110864.448,394.531,24.902,93.750,6.348,0.000,0
110864.452,344.238,21.973,143.066,11.719,0.000,0
110864.456,331.543,33.203,44.434,9.766,0.000,0
110864.460,326.660,45.410,-15.625,20.996,0.000,0
110864.464,336.426,36.621,39.551,10.742,0.000,0
110864.468,397.461,24.414,89.844,-7.324,0.000,0
110864.472,461.426,15.137,104.492,-3.418,0.000,0
110864.476,396.973,19.531,61.523,15.137,0.000,0
110864.480,366.211,19.043,62.012,21.484,0.000,0
110864.484,437.988,11.230,87.891,18.066,0.000,0
110864.488,450.195,12.695,63.477,0.000,0.000,0
110864.491,423.340,17.090,6.836,-10.742,0.000,0
110864.495,383.301,22.949,3.418,10.742,0.000,0
110864.499,351.562,25.879,7.324,27.344,0.000,0
110864.503,324.219,23.926,-0.488,0.488,0.000,0
110864.507,308.594,29.297,-8.789,-19.531,0.000,0
110864.511,281.250,31.738,-30.762,-15.137,0.000,0
110864.515,281.250,27.832,-36.133,-21.973,0.000,0
110864.519,274.414,26.855,-4.395,-26.855,0.000,0
110864.523,235.840,33.691,9.277,-12.207,0.000,0
110864.527,186.523,40.527,-32.715,-18.555,0.000,0
110864.530,172.363,38.086,-0.488,-9.277,0.000,0
110864.534,185.059,39.551,55.176,-4.395,0.000,0
110864.538,167.969,46.875,21.484,-13.184,0.000,0
110864.542,117.188,46.875,-13.672,-17.578,0.000,0
110864.546,51.758,44.922,23.926,-22.949,0.000,0
110864.550,-20.508,37.598,93.262,-29.785,0.000,0
110864.554,-79.102,36.621,103.516,-42.480,0.000,0
110864.558,-148.926,33.203,40.039,-50.293,0.000,0
110864.562,-231.934,27.832,2.930,-62.500,0.000,0
110864.566,-303.223,26.855,44.434,-62.988,0.000,0
110864.570,-400.879,24.902,63.965,-54.199,0.000,0
110864.573,-552.246,36.621,-6.348,-29.297,0.000,0
110864.577,-707.520,44.922,-39.062,-37.109,0.000,0
110864.581,-858.887,35.645,6.836,-34.180,0.000,0
110864.585,-988.770,28.809,8.789,-28.320,0.000,0
110864.589,-1000.000,23.438,-62.988,-67.871,0.000,2
110864.593,-997.070,14.648,-103.516,-96.680,0.000,0
110864.597,-1000.000,11.719,-79.590,-89.355,0.000,0
110864.601,-1000.000,6.348,-71.289,-60.059,0.000,0
110864.605,-1000.000,-1.953,-101.562,-41.016,0.000,0
110864.609,-1000.000,-3.906,-112.305,-11.719,0.000,0
110864.613,-1000.000,-0.977,-102.539,0.488,0.000,0
110864.616,-1000.000,-1.953,-64.453,-5.371,0.000,0
110864.620,-1000.000,-1.953,-58.105,1.465,0.000,0
110864.624,-1000.000,2.441,-83.496,40.039,0.000,0
110864.628,-1000.000,5.859,-26.855,55.664,0.000,0
110864.632,-999.512,5.859,11.719,47.363,0.000,0
110864.636,-994.141,7.324,-7.324,59.082,0.000,0
110864.640,-964.844,11.719,-0.488,50.293,0.000,0
110864.644,-831.055,8.789,1.465,52.246,0.000,0
110864.648,-673.828,3.906,54.199,83.496,0.000,0
110864.652,-560.547,8.789,72.266,94.727,0.000,0
110864.655,-425.293,19.043,-5.371,90.820,0.000,0
110864.659,-297.852,19.043,-59.570,71.289,0.000,0
110864.663,-188.965,9.277,-51.758,53.223,0.000,0
110864.667,-70.801,0.000,20.996,33.203,0.000,0
110864.671,51.758,5.371,41.992,19.043,0.000,0
110864.675,162.109,13.184,2.441,41.504,0.000,0
110864.679,348.633,10.742,19.531,41.992,0.000,0
110864.683,483.887,10.742,114.746,5.859,0.000,0
110864.687,520.996,17.090,190.430,14.160,0.000,0
110864.691,626.465,27.832,122.559,34.180,0.000,0
110864.695,790.527,35.156,20.996,24.902,0.000,0
110864.698,899.414,30.762,40.039,13.184,0.000,0
110864.702,920.410,30.762,44.922,28.809,0.000,0
110864.706,920.410,29.297,26.855,30.273,0.000,0
110864.710,934.570,31.250,31.738,13.184,0.000,0
110864.714,937.500,35.156,45.898,12.207,0.000,0
110864.718,911.133,29.785,68.848,7.812,0.000,0
110864.722,869.141,29.785,13.184,9.277,0.000,0
110864.726,821.289,23.438,-1.953,-5.859,0.000,0
110864.730,741.699,17.578,66.406,-6.348,0.000,0
110864.734,717.285,21.484,92.773,0.000,0.000,0
110864.738,708.984,20.996,57.617,4.395,0.000,0
110864.741,647.949,28.809,-1.953,15.137,0.000,0
110864.745,534.668,28.809,19.531,7.324,0.000,0
110864.749,403.809,27.344,44.434,7.324,0.000,0
110864.753,295.898,31.738,2.441,16.602,0.000,0
110864.757,227.051,27.344,-38.574,10.742,0.000,0
110864.761,172.363,23.438,-41.016,3.906,0.000,0
110864.765,142.578,20.020,21.484,8.301,0.000,0
110864.769,137.207,20.508,39.551,-0.488,0.000,0
110864.773,92.773,16.113,-16.602,3.418,0.000,0
110864.777,59.570,8.301,-8.301,5.859,0.000,0
110864.780,35.156,9.766,36.133,-15.137,0.000,0
110864.784,-98.145,6.348,46.387,-16.113,0.000,0
110864.788,-212.891,14.648,10.742,-8.301,0.000,0
110864.792,-288.574,24.902,-67.383,-7.812,0.000,0
110864.796,-275.391,17.090,-56.641,1.953,0.000,0
110864.800,-147.949,5.371,15.625,-15.625,0.000,0
110864.804,-82.031,-0.488,46.387,-27.832,0.000,0
110864.808,-107.910,0.977,34.668,-7.812,0.000,0
110864.812,-89.355,1.953,35.156,-17.090,0.000,0
110864.816,92.773,2.441,42.969,-29.785,0.000,0
110864.820,234.863,3.906,25.391,-9.766,0.000,0
110864.823,299.805,-0.977,18.555,-11.719,0.000,0
110864.827,285.645,0.977,6.836,-20.508,0.000,0
110864.831,285.645,2.441,34.180,-5.371,0.000,0
110864.835,353.516,0.977,103.027,-1.465,0.000,0
110864.839,371.582,5.371,102.051,-15.625,0.000,0
110864.843,453.613,4.395,59.570,-6.836,0.000,0
110864.847,564.453,2.441,106.445,0.977,0.000,0
110864.851,604.004,9.766,150.391,-20.508,0.000,0
110864.855,706.543,11.719,100.098,-22.461,0.000,0
110864.859,784.668,12.207,41.504,-2.930,0.000,0
110864.863,774.902,19.043,37.598,-10.742,0.000,0
110864.866,758.301,21.484,108.887,-21.973,0.000,0
110864.870,793.945,23.926,106.934,-23.438,0.000,0
110864.874,855.469,23.926,24.414,-35.645,0.000,0
110864.878,868.164,29.785,31.250,-9.277,0.000,0
110864.882,843.750,29.297,86.426,-13.672,0.000,0
110864.886,848.633,21.484,129.395,-27.832,0.000,0
110864.890,846.680,26.855,62.500,39.551,0.000,0
110864.894,801.270,31.738,-5.859,39.551,0.000,0
110864.898,750.000,28.809,63.477,-16.113,0.000,0
110864.902,693.359,30.273,114.258,-17.090,0.000,0
110864.905,591.309,31.738,84.473,-8.301,0.000,0
110864.909,469.238,37.598,38.086,9.277,0.000,0
110864.913,388.672,36.133,41.016,18.555,0.000,0
110864.917,350.098,23.438,49.805,-3.906,0.000,0
110864.921,332.520,18.555,22.949,-10.254,0.000,0
110864.925,308.105,23.926,21.973,11.230,0.000,0
110864.929,288.086,26.367,37.109,12.207,0.000,0
110864.933,291.992,22.461,50.293,13.184,0.000,0
110864.937,250.000,27.344,49.805,28.320,0.000,0
110864.941,195.801,28.809,7.812,21.973,0.000,0
110864.945,206.055,20.508,-7.324,20.508,0.000,0
110864.948,238.770,17.578,29.785,15.625,0.000,0
110864.952,254.883,15.137,31.250,20.508,0.000,0
110864.956,214.355,19.531,-14.648,32.715,0.000,0
110864.960,186.035,28.809,-34.668,20.020,0.000,0
110864.964,254.395,31.250,5.859,20.996,0.000,0
110864.968,303.223,33.203,42.480,32.227,0.000,0
110864.972,332.520,34.668,2.441,25.879,0.000,0
110864.976,354.492,37.109,-20.508,51.758,0.000,0
110864.980,385.254,30.273,1.465,56.152,0.000,0
110864.984,484.863,30.273,55.664,43.945,0.000,0
110864.988,521.973,37.598,79.102,60.547,0.000,0
110864.991,566.895,43.457,12.695,72.266,0.000,0
110864.995,595.215,52.246,-21.484,68.359,0.000,0
110864.999,557.129,51.758,57.617,66.895,0.000,0
110865.003,571.289,54.199,109.863,72.266,0.000,0
110865.007,601.562,66.406,81.055,86.914,0.000,0
110865.011,639.648,77.637,58.594,91.797,0.000,0
110865.015,663.574,81.055,125.977,87.402,0.000,0
110865.019,666.992,80.566,160.156,107.910,0.000,0
110865.023,711.426,82.520,130.859,115.234,0.000,0
110865.027,723.633,90.820,107.910,104.492,0.000,0
110865.030,683.594,96.191,120.117,120.117,0.000,0
110865.034,675.781,98.145,144.531,120.605,0.000,0
110865.038,715.332,96.680,102.539,99.121,0.000,0
110865.042,734.375,93.750,83.496,100.586,0.000,0
110865.046,687.500,95.215,115.234,98.633,0.000,0
110865.050,650.879,104.492,128.906,106.445,0.000,0
110865.054,654.297,95.215,90.820,105.957,0.000,0
110865.058,646.973,48.340,29.297,86.426,0.000,0
110865.062,624.512,-4.395,66.895,81.055,0.000,0
110865.066,642.090,-24.414,125.000,83.496,0.000,0
110865.070,683.594,-23.926,94.727,81.543,0.000,0
110865.073,701.172,-29.297,42.480,87.891,0.000,0
110865.077,689.453,-32.227,26.367,91.309,0.000,0
110865.081,687.988,-21.973,98.145,103.027,0.000,0
110865.085,730.957,27.832,173.340,154.297,0.000,0
110865.089,743.164,78.125,172.363,194.336,0.000,0
110865.093,703.613,101.562,163.086,212.402,0.000,0
110865.097,660.156,123.535,205.078,208.496,0.000,0
110865.101,671.387,127.930,259.277,180.664,0.000,0
110865.105,660.645,130.859,232.910,192.871,0.000,0
110865.109,547.363,148.438,199.219,200.195,0.000,0
110865.113,487.793,158.691,199.707,200.195,0.000,0
110865.116,551.270,152.832,201.172,202.148,0.000,0
110865.120,609.863,140.625,208.008,161.621,0.000,0
110865.124,575.684,137.207,162.109,149.414,0.000,0
110865.128,501.465,144.531,123.047,145.020,0.000,1
110865.132,413.086,140.137,167.480,130.859,0.000,0
110865.136,306.641,132.324,181.641,124.512,0.000,0
110865.140,133.301,131.836,134.766,110.352,0.000,0
110865.144,30.273,130.859,109.375,95.703,0.000,0
110865.148,53.711,129.883,143.555,71.777,0.000,0
110865.152,42.480,124.512,176.758,45.410,0.000,0
110865.155,7.812,122.070,147.461,40.527,0.000,0
110865.159,-78.613,114.746,95.215,14.160,0.000,0
110865.163,-206.543,101.562,136.719,-12.207,0.000,0
110865.167,-194.336,98.145,188.965,4.395,0.000,0
110865.171,-44.922,91.797,147.949,-0.977,0.000,0
110865.175,-17.578,84.473,68.359,-9.277,0.000,0
110865.179,-198.242,74.707,83.008,-13.184,0.000,0
110865.183,-320.801,64.941,135.742,-24.902,0.000,0
110865.187,-220.703,63.477,112.305,-22.461,0.000,0
110865.191,-95.215,57.617,60.547,-32.715,0.000,0
110865.195,-58.594,51.270,49.805,-11.719,0.000,0
110865.198,-80.078,53.711,80.566,-12.207,0.000,0
110865.202,-102.051,48.828,73.242,-41.992,0.000,0
110865.206,-129.395,37.598,-11.719,-28.320,0.000,0
110865.210,-145.508,36.621,-40.527,-15.625,0.000,0
110865.214,-162.109,39.551,23.926,-29.297,0.000,0
110865.218,-186.035,36.133,66.406,-20.508,0.000,0
110865.222,-225.586,31.738,37.598,-11.230,0.000,0
110865.226,-308.594,31.250,-15.137,-15.137,0.000,0
110865.230,-358.398,31.738,-3.906,-12.207,0.000,0
110865.234,-357.422,33.203,24.902,-24.414,0.000,0
110865.238,-356.934,30.273,-16.113,-24.902,0.000,0
110865.241,-391.602,23.926,-41.504,-26.855,0.000,0
110865.245,-399.902,19.531,-36.133,-31.738,0.000,0
110865.249,-324.707,22.461,-40.527,-17.578,0.000,0
110865.253,-269.043,24.414,-34.668,-17.090,0.000,0
110865.257,-288.086,20.020,-65.430,-18.555,0.000,0
110865.261,-319.336,17.578,-74.219,-20.020,0.000,0
110865.265,-333.008,17.090,-43.457,-23.926,0.000,0
110865.269,-315.430,20.996,-34.180,-15.137,0.000,0
110865.273,-321.289,23.438,-90.820,-12.695,0.000,0
110865.277,-348.633,25.879,-102.539,-36.133,0.000,0
110865.280,-305.176,25.879,-19.531,-43.945,0.000,0
110865.284,-214.355,32.227,-22.461,-31.738,0.000,0
110865.288,-119.629,41.016,-86.426,-37.109,0.000,0
110865.292,-52.734,40.039,-94.238,-53.711,0.000,0
110865.296,-3.906,45.410,-51.758,-47.852,0.000,0
110865.300,52.734,50.293,-22.461,-45.898,0.000,0
110865.304,34.180,53.223,-42.969,-43.945,0.000,0
110865.308,11.719,56.152,-92.773,-47.852,0.000,0
110865.312,-7.812,49.805,-65.918,-50.293,0.000,0
110865.316,-14.160,33.691,-6.836,-47.852,0.000,0
110865.320,41.992,29.297,-67.383,-42.969,0.000,0
110865.323,110.352,31.250,-134.277,-55.176,0.000,0
110865.327,153.809,27.832,-64.453,-61.523,0.000,0
110865.331,239.258,24.902,-36.621,-36.621,0.000,0
110865.335,335.938,23.926,-72.266,-30.762,0.000,0
110865.339,387.207,32.227,-98.633,-22.949,0.000,0
110865.343,411.133,27.832,-87.402,-10.742,0.000,0
110865.347,401.367,18.066,-55.664,-35.645,0.000,0
110865.351,369.141,20.508,-83.496,-46.387,0.000,0
110865.355,289.551,14.648,-91.309,-30.762,0.000,0
110865.359,210.938,10.254,-62.012,-25.391,0.000,0
110865.363,162.109,19.531,-24.902,-14.648,0.000,0
110865.366,140.137,26.855,-23.438,15.137,0.000,0
110865.370,143.066,26.367,-78.613,-1.953,0.000,0
110865.374,116.211,16.602,-75.195,-43.945,0.000,0
110865.378,104.980,10.742,-26.855,-36.133,0.000,0
110865.382,138.184,8.301,-37.109,-21.484,0.000,0
110865.386,145.996,6.836,-78.613,-25.879,0.000,0
110865.390,125.000,19.043,-46.387,-4.395,0.000,0
110865.394,134.766,16.602,4.883,-4.395,0.000,0
110865.398,155.273,4.883,-14.648,-34.180,0.000,0
110865.402,170.410,6.836,-41.992,-13.672,0.000,0
110865.405,162.109,9.277,-36.133,8.789,0.000,0
110865.409,160.645,11.719,-29.785,-4.883,0.000,0
110865.413,161.621,7.324,33.691,-6.836,0.000,0
110865.417,145.508,11.719,44.922,7.324,0.000,0
110865.421,103.516,22.949,-31.250,9.277,0.000,0
110865.425,95.703,22.949,-41.016,2.441,0.000,0
110865.429,117.188,14.160,-8.789,3.418,0.000,0
110865.433,106.934,4.395,60.059,2.930,0.000,0
110865.437,32.227,5.859,44.434,-0.488,0.000,0
110865.441,-51.270,4.883,-39.062,-2.930,0.000,0
110865.445,-89.844,0.488,3.906,-4.395,0.000,0
110865.448,-86.426,-0.488,38.574,12.207,0.000,0
110865.452,-64.453,-12.695,2.930,18.066,0.000,0
110865.456,-55.664,-18.066,-31.738,4.883,0.000,0
110865.460,-34.668,-12.695,-3.418,1.465,0.000,0
110865.464,-26.855,-15.137,66.406,-5.371,0.000,0
110865.468,-30.762,-18.555,53.223,-8.301,0.000,0
110865.472,-40.527,-22.461,-6.836,6.348,0.000,0
110865.476,-58.594,-23.438,6.836,11.719,0.000,0
110865.480,-60.059,-18.066,87.891,14.160,0.000,0
110865.484,-50.293,-15.625,47.852,17.090,0.000,0
110865.488,-25.391,-14.160,-73.730,14.648,0.000,0
110865.491,-44.434,-15.137,-30.762,9.277,0.000,0
110865.495,-80.078,-16.602,68.359,13.672,0.000,0
110865.499,-87.402,-13.184,41.992,31.250,0.000,0
110865.503,-81.543,-17.578,-38.574,8.301,0.000,0
110865.507,-101.074,-23.926,-43.457,-5.859,0.000,0
110865.511,-132.324,-32.227,33.691,-1.465,0.000,0
110865.515,-120.117,-39.062,57.617,-2.930,0.000,0
110865.519,-127.441,-33.203,15.625,-3.418,0.000,0
110865.523,-172.363,-28.320,-9.766,-3.418,0.000,0
110865.527,-173.828,-33.203,7.812,-13.184,0.000,0
110865.530,-167.480,-41.504,28.809,-16.602,0.000,0
110865.534,-204.590,-44.922,12.695,1.465,0.000,0
110865.538,-224.609,-44.434,-42.480,14.160,0.000,0
110865.542,-250.000,-48.828,-21.973,-2.930,0.000,0
110865.546,-258.301,-48.828,6.836,-8.301,0.000,0
110865.550,-264.160,-45.410,1.953,5.859,0.000,0
110865.554,-309.082,-44.922,-22.949,5.371,0.000,0
110865.558,-336.914,-43.945,-50.781,-1.953,0.000,0
110865.562,-333.984,-49.805,-28.809,-4.395,0.000,0
110865.566,-348.633,-55.664,-28.320,3.418,0.000,0
110865.570,-376.465,-55.664,-42.480,19.043,0.000,0
110865.573,-366.699,-58.594,-47.852,8.789,0.000,0
110865.577,-322.266,-56.641,-41.016,-1.953,0.000,0
110865.581,-304.688,-59.570,-18.555,-1.465,0.000,0
110865.585,-321.777,-66.895,-58.105,0.488,0.000,0
110865.589,-309.570,-68.359,-97.168,10.742,0.000,0
110865.593,-261.719,-74.219,-51.270,12.695,0.000,0
110865.597,-227.051,-74.219,9.277,4.395,0.000,0
110865.601,-194.336,-70.312,-31.738,-4.395,0.000,0
110865.605,-173.340,-69.336,-57.617,-8.301,0.000,0
110865.609,-180.176,-68.359,13.672,6.836,0.000,0
110865.613,-165.527,-69.336,88.867,0.488,0.000,0
110865.616,-146.973,-63.477,98.145,-12.207,0.000,0
110865.620,-145.020,-59.570,33.203,10.254,0.000,0
110865.624,-161.621,-53.711,12.207,33.691,0.000,0
110865.628,-190.430,-49.805,41.504,14.648,0.000,0
110865.632,-174.316,-43.457,46.875,-14.160,0.000,0
110865.636,-179.199,-35.156,-28.320,-14.160,0.000,0
110865.640,-217.773,-36.133,-72.754,-7.812,0.000,0
110865.644,-211.426,-28.320,-22.461,-15.137,0.000,0
110865.648,-194.824,-27.832,4.883,-13.184,0.000,0
110865.652,-218.750,-38.574,0.977,1.953,0.000,0
110865.655,-270.996,-36.621,-19.043,-0.977,0.000,0
110865.659,-323.730,-24.414,1.465,0.488,0.000,0
110865.663,-346.680,-27.344,25.879,1.465,0.000,0
110865.667,-366.699,-31.250,-24.414,-23.926,0.000,0
110865.671,-416.992,-24.902,-47.363,-12.207,0.000,0
110865.675,-474.609,-16.113,-33.203,7.324,0.000,0
110865.679,-487.305,-2.930,-19.531,-9.277,0.000,0
110865.683,-491.211,6.348,-35.645,-11.230,0.000,0
110865.687,-560.059,15.137,-77.148,-4.395,0.000,0
110865.691,-600.586,17.578,-73.242,-12.695,0.000,0
110865.695,-627.441,23.438,-54.688,-20.996,0.000,0
110865.698,-660.645,27.832,-30.762,-18.555,0.000,0
110865.702,-674.805,31.738,-19.531,-6.348,0.000,0
110865.706,-698.730,36.621,-51.758,-16.602,0.000,0
110865.710,-735.840,23.438,-13.672,-36.621,0.000,0
110865.714,-781.738,20.508,40.527,-29.785,0.000,0
110865.718,-843.750,26.855,27.832,-32.715,0.000,0
110865.722,-913.574,28.809,10.742,-36.621,0.000,0
110865.726,-952.148,30.762,4.883,-33.203,0.000,0
110865.730,-976.074,20.996,57.617,-42.969,0.000,0
110865.734,-987.793,25.391,65.918,-31.250,0.000,0
110865.738,-1000.000,40.039,-3.906,-21.973,0.000,0
110865.741,-1000.000,35.645,-11.719,-34.668,0.000,0
110865.745,-1000.000,29.297,49.805,-31.250,0.000,0
110865.749,-1000.000,23.926,69.824,-30.762,0.000,0
110865.753,-1000.000,23.926,1.465,-31.738,0.000,0
110865.757,-1000.000,31.250,-36.133,-33.691,0.000,0
110865.761,-1000.000,28.809,32.227,-34.180,0.000,0
110865.765,-998.047,26.855,74.707,-39.551,0.000,0
110865.769,-1000.000,21.484,42.969,-45.410,0.000,0
110865.773,-977.051,21.973,16.113,-33.691,0.000,0
110865.777,-958.008,34.180,55.176,-24.414,0.000,0
110865.780,-1000.000,38.574,100.586,-23.438,0.000,0
110865.784,-1000.000,40.039,45.410,-28.809,0.000,0
110865.788,-999.023,31.250,-1.953,-16.602,0.000,0
110865.792,-1000.000,27.832,32.715,1.465,0.000,1
110865.796,-1000.000,37.109,57.617,-6.348,0.000,0
110865.800,-1000.000,33.691,43.457,-30.273,0.000,0
110865.804,-1000.000,35.156,-15.137,-35.645,0.000,0
110865.808,-1000.000,35.645,27.344,-41.016,0.000,0
110865.812,-1000.000,35.156,129.395,-45.410,0.000,0
110865.816,-1000.000,34.668,58.105,-48.828,0.000,0
110865.820,-1000.000,36.133,-13.672,-23.438,0.000,0
110865.823,-1000.000,52.246,-11.230,-17.578,0.000,0
110865.827,-1000.000,34.668,0.000,-33.691,0.000,0
110865.831,-1000.000,19.531,-27.832,-37.109,0.000,0
110865.835,-1000.000,36.621,-72.266,-60.547,0.000,0
110865.839,-996.094,39.551,-96.680,-56.641,0.000,0
110865.843,-1000.000,34.180,-79.590,-42.969,0.000,0
110865.847,-967.773,28.809,-64.453,-28.809,0.000,0
110865.851,-838.379,36.133,-80.078,-60.059,0.000,0
110865.855,-740.723,48.340,-110.840,-113.281,0.000,0
110865.859,-657.227,47.363,-105.469,-104.980,0.000,0
110865.863,-594.727,51.270,-59.082,-89.355,0.000,0
110865.866,-556.641,53.223,-36.621,-76.172,0.000,0
110865.870,-506.348,54.199,-25.879,-70.801,0.000,0
110865.874,-444.824,51.758,-50.781,-56.641,0.000,0
110865.878,-394.043,44.922,-30.762,-45.410,0.000,0
110865.882,-366.211,30.273,8.301,-81.543,0.000,0
110865.886,-342.285,21.484,15.625,-69.824,0.000,0
110865.890,-288.574,14.648,18.066,-32.227,0.000,0
110865.894,-226.074,1.953,47.363,-41.504,0.000,0
110865.898,-213.379,-7.812,94.727,-59.082,0.000,0
110865.902,-192.871,-16.113,98.633,-46.875,0.000,0
110865.905,-184.082,-20.508,59.082,-35.156,0.000,0
110865.909,-190.918,-22.949,72.266,-26.367,0.000,0
110865.913,-181.641,-22.949,131.836,-12.207,0.000,0
110865.917,-169.434,-20.508,112.793,-25.391,0.000,0
110865.921,-145.508,-21.973,55.176,-27.832,0.000,0
110865.925,-129.883,-24.902,77.637,-34.668,0.000,0
110865.929,-103.516,-27.832,145.020,-55.664,0.000,0
110865.933,-94.238,-25.879,125.488,-58.594,0.000,0
110865.937,-121.094,-24.414,61.035,-55.176,0.000,0
110865.941,-162.598,-23.926,26.367,-41.016,0.000,0
110865.945,-232.910,-27.344,87.891,-46.875,0.000,0
110865.948,-229.492,-28.809,139.648,-71.289,0.000,0
110865.952,-217.285,-25.391,60.547,-66.406,0.000,0
110865.956,-304.688,-17.578,56.641,-62.500,0.000,0
110865.960,-336.914,-16.113,176.270,-62.500,0.000,0
110865.964,-261.230,-21.973,245.605,-62.012,0.000,0
110865.968,-201.660,-26.855,229.980,-51.758,0.000,0
110865.972,-114.258,-26.855,189.453,-47.852,0.000,0
110865.976,18.066,-25.879,194.336,-50.781,0.000,0
110865.980,128.906,-23.926,232.910,-29.785,0.000,0
110865.984,183.594,-20.996,217.285,-18.066,0.000,0
110865.988,192.383,-17.090,165.039,-19.531,0.000,0
110865.991,265.137,-12.207,116.699,-10.254,0.000,0
110865.995,384.766,-16.113,111.816,-7.812,0.000,0
110865.999,487.793,-15.137,125.977,-11.230,0.000,0
110866.003,534.180,-13.672,134.766,-14.160,0.000,0
110866.007,624.023,-18.066,141.113,11.230,0.000,0
110866.011,728.027,-12.695,115.234,10.254,0.000,0
110866.015,761.719,-14.160,96.191,-21.484,0.000,0
110866.019,763.184,-17.090,58.105,-18.066,0.000,0
110866.023,692.871,-13.184,28.809,-12.695,0.000,0
110866.027,687.012,-18.555,58.594,-25.391,0.000,0
110866.030,778.809,-13.184,82.520,-22.949,0.000,0
110866.034,814.941,3.418,13.672,-3.906,0.000,0
110866.038,823.242,4.883,-67.383,11.719,0.000,0
110866.042,787.598,-0.488,-71.777,-1.465,0.000,0
110866.046,691.895,-7.324,26.855,3.418,0.000,0
110866.050,649.414,-2.441,62.988,29.297,0.000,0
110866.054,626.953,3.906,-20.020,31.250,0.000,0
110866.058,644.531,6.348,-32.227,20.996,0.000,0
110866.062,705.566,12.207,5.371,14.648,0.000,0
110866.066,720.703,10.742,1.465,11.230,0.000,0
110866.070,671.387,15.625,-70.312,20.020,0.000,0
110866.073,667.480,21.484,-104.492,39.062,0.000,0
110866.077,761.230,20.020,-37.109,44.922,0.000,0
110866.081,818.848,22.949,-32.715,33.691,0.000,0
110866.085,718.750,21.973,-70.801,19.043,0.000,0
110866.089,672.852,20.508,-93.262,20.020,0.000,0
110866.093,736.816,31.738,-129.883,33.203,0.000,0
110866.097,714.355,33.203,-116.699,27.344,0.000,0
110866.101,638.184,21.973,-130.859,23.438,0.000,0
110866.105,667.969,18.555,-146.973,10.742,0.000,0
110866.109,713.379,17.578,-125.488,-2.930,0.000,0
110866.113,747.070,21.484,-110.352,-4.395,0.000,0
110866.116,742.188,19.531,-114.258,-5.859,0.000,0
110866.120,677.246,18.555,-159.180,-14.648,0.000,0
110866.124,504.395,22.949,-119.141,-6.348,0.000,0
110866.128,349.121,16.113,-62.012,3.418,0.000,0
110866.132,300.293,10.254,-109.375,-16.602,0.000,0
110866.136,265.137,14.648,-166.504,-3.906,0.000,0
110866.140,243.164,14.160,-155.762,28.320,0.000,0
110866.144,237.305,1.465,-106.934,12.207,0.000,0
110866.148,196.777,0.977,-87.402,1.465,0.000,0
110866.152,122.559,19.531,-129.883,33.691,0.000,0
110866.155,189.941,21.973,-160.645,53.711,0.000,0
110866.159,338.867,17.090,-154.297,52.734,0.000,0
110866.163,438.477,15.137,-91.797,65.430,0.000,0
110866.167,486.816,8.301,-79.590,77.148,0.000,0
110866.171,506.348,2.441,-125.488,72.754,0.000,0
110866.175,542.969,-7.324,-124.512,60.547,0.000,0
110866.179,537.109,-7.812,-92.285,43.457,0.000,0
110866.183,582.031,-2.441,-45.898,36.621,0.000,0
110866.187,730.469,-2.930,-69.824,57.129,0.000,0
110866.191,909.668,0.488,-137.695,58.105,0.000,0
110866.195,977.051,-0.488,-108.398,41.016,0.000,0
110866.198,967.285,0.488,-55.176,29.785,0.000,0
110866.202,972.168,0.000,-85.449,13.672,0.000,0
110866.206,972.656,-7.324,-121.094,-3.418,0.000,0
110866.210,972.168,-12.207,-53.223,-13.184,0.000,0
110866.214,972.168,-14.160,-3.906,-8.789,0.000,0
110866.218,972.168,-10.254,-64.453,0.000,0.000,0
110866.222,972.168,-12.207,-113.770,-12.695,0.000,0
110866.226,972.168,-15.137,-60.547,-40.039,0.000,0
110866.230,972.168,-13.672,37.109,-60.059,0.000,0
110866.234,972.168,-17.090,-22.461,-61.523,0.000,0
110866.238,972.168,-21.484,-139.648,-58.105,0.000,0
110866.241,972.168,-24.414,-136.230,-46.875,0.000,0
110866.245,973.633,-29.297,-83.008,-57.617,0.000,0
110866.249,963.379,-28.809,-97.168,-74.219,0.000,0
110866.253,977.051,-26.855,-132.812,-60.059,0.000,0
110866.257,892.578,-33.203,-121.582,-53.223,0.000,0
110866.261,520.996,-40.039,-73.242,-66.895,0.000,0
110866.265,20.020,-46.387,-55.664,-74.219,0.000,0
110866.269,-339.355,-33.691,-100.098,-54.688,0.000,0
110866.273,-567.871,-28.320,-89.844,-56.641,0.000,0
110866.277,-785.156,-40.039,-75.684,-101.074,0.000,0
110866.280,-972.656,-45.410,-92.773,-125.488,0.000,0
110866.284,-1000.000,-40.039,-146.973,-137.207,0.000,0
110866.288,-994.141,-29.297,-214.844,-160.645,0.000,0
110866.292,-1000.000,-28.320,-232.422,-160.645,0.000,0
110866.296,-1000.000,-33.203,-250.000,-164.551,0.000,0
110866.300,-1000.000,-36.621,-292.480,-193.359,0.000,0
110866.304,-1000.000,-36.621,-337.891,-202.637,0.000,0
110866.308,-1000.000,-41.504,-365.234,-212.891,0.000,0
110866.312,-1000.000,-51.270,-345.703,-240.723,0.000,0
110866.316,-1000.000,-53.711,-388.184,-249.023,0.000,0
110866.320,-1000.000,-45.410,-520.996,-248.047,0.000,0
110866.323,-1000.000,-53.711,-559.082,-269.531,0.000,0
110866.327,-996.094,-65.430,-518.066,-279.785,0.000,0
110866.331,-1000.000,-71.289,-491.211,-296.387,0.000,0
110866.335,-989.258,-87.891,-474.121,-329.590,0.000,0
110866.339,-931.152,-103.516,-463.867,-336.914,0.000,0
110866.343,-983.887,-110.352,-398.926,-310.059,0.000,0
110866.347,-1000.000,-106.934,-362.793,-260.742,0.000,0
110866.351,-996.094,-101.074,-381.348,-228.516,0.000,0
110866.355,-1000.000,-83.496,-380.859,-188.477,0.000,0
110866.359,-1000.000,-63.477,-337.402,-168.945,0.000,0
110866.363,-1000.000,-49.805,-260.254,-156.250,0.000,0
110866.366,-1000.000,-32.715,-265.137,-150.879,0.000,0
110866.370,-1000.000,-21.484,-270.996,-161.621,0.000,1
110866.374,-1000.000,-16.113,-193.848,-139.648,0.000,0
110866.378,-1000.000,-21.484,-113.770,-139.160,0.000,0
110866.382,-1000.000,-16.113,-97.168,-148.438,0.000,0
110866.386,-1000.000,0.000,-141.602,-132.324,0.000,0
110866.390,-1000.000,11.719,-117.188,-160.156,0.000,0
110866.394,-1000.000,21.973,-73.730,-170.898,0.000,0
110866.398,-994.141,22.949,-117.188,-148.926,0.000,0
110866.402,-996.094,11.719,-136.719,-120.605,0.000,0
110866.405,-987.305,9.766,-123.047,-97.656,0.000,0
110866.409,-720.215,18.555,-88.867,-67.383,0.000,0
110866.413,-213.867,37.109,-108.887,-26.855,0.000,0
110866.417,-176.758,60.547,-167.480,6.836,0.000,0
110866.421,-871.094,85.938,-219.727,50.293,0.000,0
110866.425,-995.117,102.051,-210.938,95.703,0.000,0
110866.429,-1000.000,95.215,-177.246,152.832,0.000,0
110866.433,-921.875,96.191,-218.750,153.320,0.000,0
110866.437,528.320,118.652,-231.934,156.250,0.000,0
110866.441,-904.297,143.066,-184.082,204.590,0.000,0
110866.445,897.461,159.180,-196.777,223.145,0.000,0
110866.448,986.816,171.875,-291.992,177.246,0.000,0
110866.452,972.168,198.730,-218.262,169.434,0.000,0
110866.456,972.168,218.262,-45.410,197.266,0.000,0
110866.460,972.168,222.656,122.559,141.113,0.000,0
110866.464,972.168,234.863,248.047,49.316,0.000,0
110866.468,972.168,247.070,261.719,0.488,0.000,0
110866.472,972.168,245.117,219.238,-29.785,0.000,0
110866.476,972.168,229.004,231.934,55.664,0.000,0
110866.480,972.168,201.172,265.625,136.230,0.000,0
110866.484,972.168,182.129,142.090,176.270,0.000,0
110866.488,972.168,163.086,-7.324,251.953,0.000,0
110866.491,972.168,136.719,-25.879,318.359,0.000,0
110866.495,972.168,105.469,-6.836,308.105,0.000,0
110866.499,972.168,78.125,-15.137,277.832,0.000,0
110866.503,972.168,51.270,-36.621,277.832,0.000,0
110866.507,972.168,26.855,-45.410,295.898,0.000,0
110866.511,972.168,18.066,-26.855,246.094,0.000,0
110866.515,972.168,8.789,-12.695,170.410,0.000,0
110866.519,972.168,-1.953,-7.812,133.301,0.000,0
110866.523,972.168,-1.953,28.320,129.883,0.000,0
110866.527,972.168,-8.301,96.680,72.266,0.000,0
110866.530,972.168,-12.695,130.859,50.293,0.000,0
110866.534,972.168,1.953,52.246,98.145,0.000,0
110866.538,972.168,12.207,14.648,122.070,0.000,0
110866.542,972.168,20.508,84.961,148.438,0.000,0
110866.546,972.168,32.715,121.094,119.629,0.000,0
110866.550,972.168,41.992,93.262,85.449,0.000,0
110866.554,972.656,55.176,45.410,142.090,0.000,0
110866.558,972.656,58.594,111.328,171.387,0.000,0
110866.562,972.168,59.082,150.879,168.945,0.000,0
110866.566,972.168,57.617,71.777,194.336,0.000,0
110866.570,972.168,54.688,18.555,246.094,0.000,0
110866.573,972.168,53.223,70.801,209.473,0.000,0
110866.577,972.168,47.363,209.473,94.727,0.000,0
110866.581,972.168,58.594,300.781,118.164,0.000,0
110866.585,972.168,92.773,295.410,354.980,0.000,0
110866.589,972.168,123.535,304.688,661.133,0.000,0
110866.593,972.168,145.508,366.211,923.828,0.000,0
110866.597,972.168,163.574,397.461,979.980,0.000,0
110866.601,972.168,189.941,358.887,963.379,0.000,0
110866.605,972.168,239.746,341.797,974.121,0.000,0
110866.609,972.168,289.551,346.680,972.168,0.000,0
110866.613,972.168,309.082,345.703,972.168,0.000,0
110866.616,972.168,319.336,300.293,972.168,0.000,0
110866.620,972.168,328.613,268.066,972.168,0.000,0
110866.624,972.168,321.777,298.828,972.168,0.000,0
110866.628,972.168,326.172,338.867,972.168,0.000,0
110866.632,972.168,359.375,423.828,972.168,0.000,0
110866.636,971.680,378.906,505.371,972.168,0.000,0
110866.640,974.121,350.586,618.652,972.168,0.000,0
110866.644,965.820,343.750,677.246,972.168,0.000,0
110866.648,963.379,396.973,406.738,972.168,0.000,0
110866.652,973.145,468.262,120.605,972.168,0.000,0
110866.655,970.703,533.203,66.406,972.168,0.000,0
110866.659,975.098,567.383,119.141,972.168,0.000,0
110866.663,909.180,542.480,129.883,972.168,0.000,0
110866.667,850.098,537.109,110.352,972.168,0.000,0
110866.671,524.414,554.688,126.953,972.168,0.000,0
110866.675,108.398,563.965,158.203,972.168,0.000,0
110866.679,94.727,584.961,213.379,972.168,0.000,0
110866.683,424.316,595.215,210.938,971.191,0.000,0
110866.687,552.734,589.844,162.109,972.656,0.000,0
110866.691,465.332,578.125,142.578,972.656,0.000,0
110866.695,529.297,538.086,116.699,956.543,0.000,0
110866.698,537.109,479.980,3.418,965.332,0.000,0
110866.702,413.574,432.617,-136.719,974.609,0.000,0
110866.706,338.379,385.742,-134.766,970.703,0.000,0
110866.710,156.738,341.797,-64.941,972.656,0.000,0
110866.714,-2.930,314.453,-16.602,972.168,0.000,0
110866.718,131.348,304.688,38.086,972.168,0.000,0
110866.722,581.543,300.293,45.898,972.168,0.000,0
110866.726,957.031,281.738,5.859,972.168,0.000,0
110866.730,969.238,288.574,-46.387,973.145,0.000,0
110866.734,963.867,305.176,-36.133,977.051,0.000,0
110866.738,975.098,298.340,-3.418,921.875,0.000,0
110866.741,972.168,289.551,-25.391,-953.613,0.000,0
110866.745,972.168,268.066,-18.066,589.844,0.000,0
110866.749,972.168,252.930,-40.527,-622.559,0.000,0
110866.753,972.168,246.582,-100.586,-848.145,0.000,0
110866.757,972.168,227.051,-65.918,-920.898,0.000,0
110866.761,972.656,210.449,-22.949,-1000.000,0.000,0
110866.765,972.168,187.012,-24.902,-987.793,0.000,0
110866.769,972.168,160.156,-42.969,-1000.000,0.000,0
110866.773,972.168,138.184,-32.227,-1000.000,0.000,0
110866.777,972.656,106.445,12.695,-1000.000,0.000,0
110866.780,972.168,87.891,-20.020,-974.609,0.000,0
110866.784,972.168,62.500,-115.723,-988.281,0.000,0
110866.788,972.168,-6.836,-245.117,-1000.000,0.000,0
110866.792,972.168,-97.168,-307.617,131.836,0.000,0
110866.796,972.168,-183.105,-310.059,-934.082,0.000,0
110866.800,972.168,-253.418,-442.871,927.246,0.000,0
110866.804,972.656,-336.914,-613.281,973.145,0.000,0
110866.808,972.656,-415.039,-622.070,955.078,0.000,0
110866.812,972.168,-487.305,-607.910,961.426,0.000,0
110866.816,972.168,-580.078,-656.738,979.492,0.000,0
110866.820,972.168,-675.293,-635.742,32.227,0.000,0
110866.823,972.656,-781.738,-571.289,-968.262,0.000,0
110866.827,972.656,-871.094,-541.504,-997.070,0.000,0
110866.831,975.586,-922.363,-554.688,-983.887,0.000,0
110866.835,971.680,-923.340,-585.938,-991.211,0.000,0
110866.839,931.152,-896.973,-588.867,-981.445,0.000,0
110866.843,-970.215,-887.695,-517.578,-1000.000,0.000,0
110866.847,415.039,-890.137,-522.949,-130.371,0.000,0
110866.851,-830.078,-895.020,-604.492,891.602,0.000,0
110866.855,-1000.000,-887.207,-614.258,961.914,0.000,0
110866.859,-962.402,-871.094,-541.992,953.613,0.000,0
110866.863,-957.520,-914.062,-417.480,975.586,0.000,0
110866.866,-1000.000,-1000.000,-371.094,972.656,0.000,0
110866.870,-562.500,-968.750,-187.012,972.168,0.000,0
110866.874,779.785,-517.090,406.250,972.168,0.000,0
110866.878,-967.773,-61.035,812.500,972.168,0.000,0
110866.882,918.457,166.992,868.652,972.168,0.000,0
110866.886,985.352,265.137,810.547,972.168,0.000,0
110866.890,972.168,142.090,580.078,972.168,0.000,0
110866.894,972.168,-98.633,290.527,972.168,0.000,0
110866.898,972.168,-301.270,88.379,972.168,0.000,0
110866.902,972.168,-409.668,-17.090,972.168,0.000,0
110866.905,972.168,-407.715,3.906,972.168,0.000,0
110866.909,972.168,-329.590,152.344,972.168,0.000,0
110866.913,972.168,-268.066,449.219,972.168,0.000,0
110866.917,972.168,-258.301,423.340,972.168,0.000,0
110866.921,972.168,-289.062,187.988,972.168,0.000,0
110866.925,972.168,-330.566,125.000,972.168,0.000,0
110866.929,972.168,-363.770,31.738,972.168,0.000,0
110866.933,972.168,-395.508,-126.953,972.168,0.000,0
110866.937,972.168,-406.738,-329.102,972.168,0.000,0
110866.941,972.168,-411.621,-485.352,972.168,0.000,0
110866.945,972.168,-422.363,-493.164,972.168,0.000,0
110866.948,972.168,-417.480,-495.117,972.168,0.000,0
110866.952,972.168,-398.926,-558.105,972.168,0.000,0
110866.956,972.168,-374.023,-572.754,972.168,0.000,0
110866.960,972.168,-355.469,-520.508,972.168,0.000,0
110866.964,972.168,-347.168,-492.188,972.168,0.000,0
110866.968,972.168,-332.031,-535.156,980.957,0.000,1
110866.972,972.168,-314.941,-506.348,935.547,0.000,0
110866.976,972.168,-294.922,-406.250,982.422,0.000,0
110866.980,972.168,-269.531,-405.762,952.148,0.000,0
110866.984,972.168,-250.000,-460.449,-340.820,0.000,0
110866.988,972.656,-234.375,-419.922,-1000.000,0.000,0
110866.991,972.656,-218.750,-318.848,-939.941,0.000,0
110866.995,972.656,-191.895,-279.297,-1000.000,0.000,0
110866.999,972.656,-165.527,-317.871,-1000.000,0.000,0
110867.003,972.656,-145.996,-327.637,-1000.000,0.000,0
110867.007,972.168,-133.301,-289.062,-1000.000,0.000,0
110867.011,972.656,-133.301,-245.605,-1000.000,0.000,0
110867.015,975.586,-125.488,-252.441,-1000.000,0.000,0
110867.019,909.180,-76.172,-229.492,-1000.000,0.000,0
110867.023,-898.438,-13.672,-124.512,-1000.000,0.000,0
110867.027,273.438,21.484,-59.570,-1000.000,0.000,0
110867.030,-1000.000,37.598,-28.809,-1000.000,0.000,0
110867.034,-1000.000,51.270,-10.254,-1000.000,0.000,0
110867.038,-966.797,77.148,19.531,-1000.000,0.000,0
110867.042,-1000.000,54.199,-4.883,-1000.000,0.000,0
110867.046,-1000.000,-48.828,-105.957,-1000.000,0.000,0
110867.050,-1000.000,-129.883,-131.348,-1000.000,0.000,0
110867.054,-1000.000,-163.086,-167.969,-1000.000,0.000,0
110867.058,-1000.000,-180.176,-228.516,-1000.000,0.000,0
110867.062,-1000.000,-203.125,-240.234,-1000.000,0.000,0
110867.066,-1000.000,-232.422,-329.102,-1000.000,0.000,0
110867.070,-1000.000,-264.160,-399.414,-1000.000,0.000,0
110867.073,-1000.000,-281.738,-405.762,-1000.000,0.000,0
110867.077,-1000.000,-291.504,-416.504,-1000.000,0.000,0
110867.081,-1000.000,-304.688,-475.098,-1000.000,0.000,0
110867.085,-1000.000,-308.105,-536.621,-1000.000,0.000,0
110867.089,-1000.000,-311.523,-490.723,-1000.000,0.000,0
110867.093,-1000.000,-307.617,-413.086,-1000.000,0.000,0
110867.097,-1000.000,-288.086,-426.758,-1000.000,0.000,0
110867.101,-1000.000,-267.578,-459.961,-1000.000,0.000,0
110867.105,-1000.000,-254.883,-431.152,-1000.000,0.000,0
110867.109,-1000.000,-248.047,-325.195,-1000.000,0.000,0
110867.113,-1000.000,-230.469,-294.922,-1000.000,0.000,0
110867.116,-1000.000,-208.984,-385.742,-962.891,0.000,0
110867.120,-1000.000,-194.336,-393.555,-1000.000,0.000,0
110867.124,-1000.000,-185.547,-321.289,-962.891,0.000,0
110867.128,-986.328,-181.152,-289.551,330.078,0.000,0
110867.132,-1000.000,-168.945,-334.473,-913.086,0.000,0
110867.136,-873.047,-148.438,-345.215,913.086,0.000,0
110867.140,-409.668,-139.648,-292.969,975.586,0.000,0
110867.144,236.816,-136.230,-299.805,972.656,0.000,0
110867.148,856.934,-132.324,-311.035,972.168,0.000,0
110867.152,984.863,-123.535,-289.062,972.168,0.000,0
110867.155,954.590,-107.422,-246.094,977.051,0.000,0
110867.159,965.820,-94.727,-189.941,952.148,0.000,0
110867.163,964.844,-81.055,-164.551,951.660,0.000,0
110867.167,893.555,-70.801,-163.574,-989.258,0.000,0
110867.171,378.906,-69.824,-110.352,-107.910,0.000,0
110867.175,-576.172,-60.547,-73.242,-1000.000,0.000,0
110867.179,-1000.000,-50.781,-102.539,-961.914,0.000,0
110867.183,-976.562,-39.062,-156.250,-989.258,0.000,0
110867.187,-996.094,-27.344,-194.336,-1000.000,0.000,0
110867.191,-1000.000,-25.391,-129.883,-1000.000,0.000,0
110867.195,-1000.000,-18.066,-84.473,-1000.000,0.000,0
110867.198,-1000.000,-19.531,-123.047,-1000.000,0.000,0
110867.202,-1000.000,-22.461,-137.695,-1000.000,0.000,0
110867.206,-1000.000,-14.648,-123.047,-1000.000,0.000,0
110867.210,-1000.000,-6.836,-69.824,-1000.000,0.000,0
110867.214,-1000.000,3.906,-53.711,-1000.000,0.000,0
110867.218,-1000.000,19.043,-82.520,-1000.000,0.000,0
110867.222,-1000.000,35.645,-60.547,-1000.000,0.000,0
110867.226,-1000.000,45.410,26.367,-1000.000,0.000,0
110867.230,-1000.000,47.363,57.129,-1000.000,0.000,0
110867.234,-1000.000,60.547,6.348,-1000.000,0.000,0
110867.238,-1000.000,76.172,42.969,-1000.000,0.000,0
110867.241,-1000.000,87.891,142.578,-1000.000,0.000,0
110867.245,-1000.000,103.516,156.250,-1000.000,0.000,0
110867.249,-1000.000,104.492,128.418,-1000.000,0.000,0
110867.253,-1000.000,117.676,113.770,-1000.000,0.000,0
110867.257,-1000.000,138.672,136.719,-1000.000,0.000,0
110867.261,-1000.000,140.625,210.449,-1000.000,0.000,0
110867.265,-1000.000,138.672,190.430,-1000.000,0.000,0
110867.269,-1000.000,141.602,143.066,-1000.000,0.000,0
110867.273,-1000.000,139.648,179.199,-1000.000,0.000,0
110867.277,-1000.000,139.648,203.125,-1000.000,0.000,0
110867.280,-1000.000,143.555,153.320,-1000.000,0.000,0
110867.284,-1000.000,141.602,94.238,-1000.000,0.000,0
110867.288,-1000.000,144.043,146.973,-1000.000,0.000,0
110867.292,-1000.000,149.414,203.125,-1000.000,0.000,0
110867.296,-1000.000,158.203,198.242,-1000.000,0.000,0
110867.300,-1000.000,174.316,146.973,-1000.000,0.000,0
110867.304,-1000.000,177.734,155.762,-1000.000,0.000,0
110867.308,-1000.000,169.434,248.535,-1000.000,0.000,0
110867.312,-1000.000,167.969,227.539,-1000.000,0.000,0
110867.316,-1000.000,169.922,156.250,-1000.000,0.000,0
110867.320,-1000.000,171.875,142.090,-1000.000,0.000,0
110867.323,-1000.000,173.340,184.570,-1000.000,0.000,0
110867.327,-1000.000,174.805,240.723,-1000.000,0.000,0
110867.331,-1000.000,187.012,227.051,-1000.000,0.000,0
110867.335,-1000.000,197.754,187.500,-1000.000,0.000,0
110867.339,-1000.000,201.172,232.422,-1000.000,0.000,0
110867.343,-1000.000,213.379,278.320,-1000.000,0.000,0
110867.347,-1000.000,210.938,269.043,-1000.000,0.000,0
110867.351,-1000.000,202.637,245.605,-1000.000,0.000,0
110867.355,-1000.000,207.520,212.891,-1000.000,0.000,0
110867.359,-1000.000,208.008,235.352,-1000.000,0.000,0
110867.363,-1000.000,202.148,234.863,-1000.000,0.000,0
110867.366,-1000.000,200.684,197.266,-1000.000,0.000,0
110867.370,-1000.000,211.426,173.340,-1000.000,0.000,0
110867.374,-1000.000,220.703,173.340,-1000.000,0.000,0
110867.378,-1000.000,222.168,193.848,-1000.000,0.000,0
110867.382,-1000.000,263.672,159.180,-1000.000,0.000,0
110867.386,-1000.000,382.812,208.496,-1000.000,0.000,0
110867.390,-1000.000,470.215,358.398,-1000.000,0.000,0
110867.394,-1000.000,514.648,440.918,-1000.000,0.000,0
110867.398,-1000.000,543.457,423.340,-1000.000,0.000,0
110867.402,-1000.000,564.941,374.023,-1000.000,0.000,0
110867.405,-1000.000,569.824,453.613,-1000.000,0.000,0
110867.409,-1000.000,564.453,546.387,-1000.000,0.000,0
110867.413,-1000.000,555.664,492.188,-1000.000,0.000,0
110867.417,-1000.000,542.480,427.246,-1000.000,0.000,0
110867.421,-1000.000,540.039,427.246,-1000.000,0.000,0
110867.425,-1000.000,528.320,510.742,-1000.000,0.000,0
110867.429,-1000.000,513.672,521.484,-1000.000,0.000,0
110867.433,-1000.000,497.559,420.898,-1000.000,0.000,0
110867.437,-1000.000,479.980,389.160,-1000.000,0.000,0
110867.441,-1000.000,462.891,433.105,-1000.000,0.000,0
110867.445,-1000.000,438.477,456.055,-1000.000,0.000,0
110867.448,-1000.000,422.852,375.000,-1000.000,0.000,0
110867.452,-1000.000,403.809,294.434,-1000.000,0.000,0
110867.456,-1000.000,384.766,309.570,-1000.000,0.000,0
110867.460,-1000.000,363.281,342.773,-1000.000,0.000,0
110867.464,-995.605,334.961,347.656,-1000.000,0.000,0
110867.468,-994.629,318.359,316.406,-1000.000,0.000,0
110867.472,-977.539,309.082,300.781,-1000.000,0.000,0
110867.476,-684.570,297.363,329.102,-1000.000,0.000,0
110867.480,-205.566,289.062,316.895,-1000.000,0.000,0
110867.484,73.730,280.762,280.273,-1000.000,0.000,0
110867.488,318.359,265.137,278.320,-1000.000,0.000,0
110867.491,680.664,250.977,295.410,-1000.000,0.000,0
110867.495,897.949,237.305,291.992,-1000.000,0.000,0
110867.499,940.918,223.145,246.094,-1000.000,0.000,0
110867.503,969.238,211.914,220.215,-1000.000,0.000,0
110867.507,973.145,199.219,254.883,-1000.000,0.000,0
110867.511,971.680,194.824,239.258,-1000.000,0.000,0
110867.515,972.656,191.895,179.688,-1000.000,0.000,0
110867.519,972.656,187.012,166.992,-1000.000,0.000,0
110867.523,972.656,179.199,189.941,-1000.000,0.000,0
110867.527,972.168,171.387,218.750,-1000.000,0.000,0
110867.530,972.168,165.527,195.801,-1000.000,0.000,0
110867.534,972.656,160.156,113.770,-1000.000,0.000,0
110867.538,972.656,161.133,66.406,-1000.000,0.000,0
110867.542,972.656,149.902,138.184,-1000.000,0.000,0
110867.546,972.656,142.090,182.129,-1000.000,0.000,0
110867.550,972.656,144.043,115.723,-1000.000,0.000,0
110867.554,972.656,135.254,104.980,-1000.000,0.000,0
110867.558,972.656,126.465,149.414,-1000.000,0.000,0
110867.562,972.656,124.023,145.996,-1000.000,0.000,0
110867.566,972.168,121.094,116.699,-1000.000,0.000,0
110867.570,972.656,117.676,76.660,-1000.000,0.000,0
110867.573,972.168,116.699,109.375,-1000.000,0.000,0
110867.577,972.168,113.770,183.594,-1000.000,0.000,0
110867.581,972.656,110.352,142.578,-1000.000,0.000,0
110867.585,972.656,104.492,86.426,-1000.000,0.000,0
110867.589,972.656,100.586,146.484,-1000.000,0.000,0
110867.593,972.168,100.098,206.055,-1000.000,0.000,0
110867.597,972.168,94.727,154.785,-1000.000,0.000,0
110867.601,972.656,90.820,92.285,-1000.000,0.000,0
110867.605,972.656,83.496,144.531,-1000.000,0.000,0
110867.609,972.168,77.148,201.172,-1000.000,0.000,0
110867.613,972.656,73.242,159.180,-1000.000,0.000,0
110867.616,972.656,68.359,114.746,-1000.000,0.000,0
110867.620,972.656,74.707,108.887,-1000.000,0.000,0
110867.624,972.656,68.359,175.781,-1000.000,0.000,0
110867.628,972.656,55.664,190.918,-1000.000,0.000,0
110867.632,972.656,55.176,119.629,-1000.000,0.000,0
110867.636,972.656,47.363,77.148,-1000.000,0.000,0
110867.640,972.656,37.598,81.543,-1000.000,0.000,0
110867.644,972.168,22.949,100.098,-1000.000,0.000,0
110867.648,972.168,12.695,55.664,-1000.000,0.000,0
110867.652,972.168,17.578,-19.043,-1000.000,0.000,0
110867.655,972.168,18.066,31.738,-1000.000,0.000,0
110867.659,972.168,16.113,77.148,-1000.000,0.000,0
110867.663,972.168,14.160,50.293,-1000.000,0.000,0
110867.667,972.168,16.113,31.738,-1000.000,0.000,0
110867.671,972.656,13.184,31.738,-1000.000,0.000,0
110867.675,972.656,1.465,61.035,-997.559,0.000,0
110867.679,972.656,3.418,70.801,-997.070,0.000,0
110867.683,972.656,12.695,65.430,-965.820,0.000,0
110867.687,972.168,19.531,10.742,-871.582,0.000,0
110867.691,972.168,20.996,15.625,-31.250,0.000,1
110867.695,972.168,25.391,79.102,957.520,0.000,0
110867.698,972.168,21.484,52.246,976.074,0.000,0
110867.702,972.656,9.277,19.043,944.824,0.000,0
110867.706,972.168,10.742,64.941,979.492,0.000,0
110867.710,972.168,15.625,80.078,972.168,0.000,0
110867.714,972.656,11.230,48.340,972.168,0.000,0
110867.718,972.656,9.277,0.488,972.168,0.000,0
110867.722,972.168,2.441,33.691,972.168,0.000,0
110867.726,972.168,-3.418,80.566,972.168,0.000,0
110867.730,972.168,-0.977,28.320,972.168,0.000,0
110867.734,972.168,-8.301,-40.527,972.168,0.000,0
110867.738,972.168,-8.789,-60.547,972.168,0.000,0
110867.741,972.168,-14.648,26.855,972.168,0.000,0
110867.745,972.168,-16.602,54.199,972.168,0.000,0
110867.749,972.168,-6.836,-49.316,972.168,0.000,0
110867.753,972.168,-17.090,-81.055,972.168,0.000,0
110867.757,972.168,-39.551,27.344,972.168,0.000,0
110867.761,972.168,-43.457,51.758,972.168,0.000,0
110867.765,972.168,-29.297,-38.574,972.168,0.000,0
110867.769,972.168,-33.691,-37.109,972.168,0.000,0
110867.773,972.168,-42.480,1.953,972.168,0.000,0
110867.777,972.168,-40.039,-5.859,972.168,0.000,0
110867.780,972.168,-41.016,-17.090,972.168,0.000,0
110867.784,972.168,-37.598,-44.922,972.168,0.000,0
110867.788,972.168,-39.062,-35.645,972.168,0.000,0
110867.792,972.168,-45.898,-2.930,972.168,0.000,0
110867.796,972.168,-47.363,-35.156,972.168,0.000,0
110867.800,972.168,-46.875,-45.898,972.168,0.000,0
110867.804,972.168,-38.574,-20.020,972.168,0.000,0
110867.808,972.168,-38.574,-11.230,972.168,0.000,0
110867.812,972.168,-42.969,-33.203,972.168,0.000,0
110867.816,972.168,-38.574,-62.012,972.168,0.000,0
110867.820,972.168,-44.922,-57.129,972.168,0.000,0
110867.823,972.168,-47.852,0.000,972.168,0.000,0
110867.827,972.168,-36.133,33.203,972.168,0.000,0
110867.831,972.168,-35.645,-13.672,972.168,0.000,0
110867.835,972.168,-43.945,-35.156,972.168,0.000,0
110867.839,972.168,-50.781,31.738,972.168,0.000,0
110867.843,972.168,-49.805,65.918,972.168,0.000,0
110867.847,972.168,-45.898,18.555,972.168,0.000,0
110867.851,972.168,-44.434,-15.137,972.168,0.000,0
110867.855,972.168,-41.016,24.902,972.168,0.000,0
110867.859,972.168,-45.410,85.938,972.168,0.000,0
110867.863,972.168,-50.293,41.992,972.168,0.000,0
110867.866,972.168,-53.711,-30.762,972.168,0.000,0
110867.870,972.168,-56.641,3.906,972.168,0.000,0
110867.874,972.168,-53.223,49.805,972.168,0.000,0
110867.878,972.168,-54.688,3.418,972.168,0.000,0
110867.882,972.168,-50.781,-81.055,972.168,0.000,0
110867.886,974.609,-48.828,-96.680,972.168,0.000,0
110867.890,964.844,-53.223,-39.062,972.168,0.000,0
110867.894,975.586,-55.664,-8.301,972.168,0.000,0
110867.898,931.641,-53.223,-32.715,972.168,0.000,0
110867.902,647.461,-49.316,-41.992,972.168,0.000,0
110867.905,276.855,-50.781,14.648,972.168,0.000,0
110867.909,-7.812,-53.711,33.203,972.168,0.000,0
110867.913,-140.137,-54.199,-19.043,972.656,0.000,0
110867.917,-206.543,-62.988,-0.977,971.191,0.000,0
110867.921,-212.891,-66.406,76.172,968.262,0.000,0
110867.925,-70.801,-60.547,74.707,984.375,0.000,0
110867.929,33.203,-58.594,24.414,893.555,0.000,0
110867.933,-40.527,-58.594,20.996,848.633,0.000,0
110867.937,-153.320,-60.059,40.039,962.402,0.000,0
110867.941,-175.781,-63.477,47.852,977.539,0.000,0
110867.945,-181.152,-63.477,20.020,964.844,0.000,0
110867.948,-253.418,-63.965,-29.785,940.430,0.000,0
110867.952,-315.918,-64.453,-28.320,859.863,0.000,0
110867.956,-395.996,-64.453,15.137,710.449,0.000,0
110867.960,-696.777,-54.688,21.484,657.715,0.000,0
110867.964,-984.375,-41.992,-27.832,632.324,0.000,0
110867.968,-1000.000,-44.922,-88.867,593.262,0.000,0
110867.972,-993.164,-54.688,-66.895,636.230,0.000,0
110867.976,-1000.000,-55.664,-13.184,667.969,0.000,0
110867.980,-994.629,-54.688,-0.488,565.918,0.000,0
110867.984,-1000.000,-52.246,-59.082,550.781,0.000,0
110867.988,-951.172,-54.199,-83.984,607.910,0.000,0
110867.991,-744.141,-58.105,-51.758,651.367,0.000,0
110867.995,-507.324,-61.035,-58.105,703.613,0.000,0
110867.999,-375.977,-57.129,-95.215,626.953,0.000,0
110868.003,-389.648,-52.246,-111.816,563.477,0.000,0
110868.007,-381.348,-60.547,-93.750,549.316,0.000,0
110868.011,-359.375,-65.918,-87.891,526.367,0.000,0
110868.015,-116.211,-55.664,-143.555,530.762,0.000,0
110868.019,256.348,-48.340,-141.113,434.082,0.000,0
110868.023,600.586,-42.480,-64.941,185.059,0.000,0
110868.027,917.480,-37.598,-40.527,-116.211,0.000,0
110868.030,980.957,-36.133,-118.652,-385.742,0.000,0
110868.034,962.891,-41.992,-155.273,-716.797,0.000,0
110868.038,974.609,-55.664,-105.469,-978.516,0.000,0
110868.042,972.168,-60.059,-120.605,-1000.000,0.000,0
110868.046,972.168,-55.176,-186.523,-999.023,0.000,0
110868.050,972.656,-45.898,-220.215,-973.633,0.000,0
110868.054,972.168,-42.480,-147.461,-1000.000,0.000,0
110868.058,972.168,-50.293,-41.992,-801.758,0.000,0
110868.062,972.656,-50.293,-64.941,127.930,0.000,0
110868.066,972.168,-45.410,-104.492,656.738,0.000,0
110868.070,972.168,-41.016,-36.621,475.586,0.000,0
110868.073,972.168,-41.504,51.270,284.180,0.000,0
110868.077,972.168,-43.457,32.227,41.016,0.000,0
110868.081,972.168,-33.203,-31.250,-46.875,0.000,0
110868.085,972.168,-33.691,-51.758,-523.438,0.000,0
110868.089,972.656,-38.574,-47.363,-1000.000,0.000,0
110868.093,972.656,-36.621,-32.715,-1000.000,0.000,0
110868.097,972.168,-41.992,-47.852,-600.098,0.000,0
110868.101,972.168,-34.668,-102.051,-72.754,0.000,0
110868.105,972.168,-30.273,-112.305,-89.844,0.000,0
110868.109,969.727,-32.227,-78.125,-261.719,0.000,0
110868.113,976.074,-25.391,-96.191,-607.910,0.000,0
110868.116,936.035,-29.785,-143.066,-886.230,0.000,0
110868.120,857.910,-32.715,-156.738,-762.207,0.000,0
110868.124,777.344,-29.785,-126.953,-541.504,0.000,0
110868.128,664.062,-31.250,-142.578,-307.129,0.000,0
110868.132,566.895,-31.250,-200.195,-93.750,0.000,0
110868.136,483.887,-27.832,-185.547,110.840,0.000,0
110868.140,387.695,-21.484,-187.012,300.293,0.000,0
110868.144,297.852,-20.996,-250.977,508.789,0.000,0
110868.148,218.262,-17.578,-317.383,751.953,0.000,0
110868.152,146.973,-16.113,-320.312,779.785,0.000,0
110868.155,111.328,-27.832,-214.355,578.613,0.000,0
110868.159,57.129,-30.273,-143.066,398.438,0.000,0
110868.163,-29.785,-27.832,-192.871,339.355,0.000,0
110868.167,-93.750,-28.809,-257.812,350.586,0.000,0
110868.171,-165.527,-29.785,-221.191,391.113,0.000,0
110868.175,-273.438,-38.086,-111.816,376.953,0.000,0
110868.179,-362.305,-33.203,-119.629,204.590,0.000,0
110868.183,-488.770,-28.320,-146.973,-113.770,0.000,0
110868.187,-629.883,-31.738,-80.566,-443.848,0.000,0
110868.191,-730.957,-35.156,-57.129,-674.316,0.000,0
110868.195,-841.797,-35.156,-104.980,-875.977,0.000,0
110868.198,-975.586,-30.762,-120.117,-997.559,0.000,0
110868.202,-1000.000,-30.273,-79.102,-998.535,0.000,0
110868.206,-995.605,-31.250,-37.109,-998.535,0.000,0
110868.210,-1000.000,-32.227,-25.391,-1000.000,0.000,0
110868.214,-1000.000,-29.297,-20.996,-1000.000,0.000,0
110868.218,-1000.000,-31.738,-11.719,-1000.000,0.000,0
110868.222,-1000.000,-31.250,1.465,-1000.000,0.000,0
110868.226,-1000.000,-28.809,26.367,-1000.000,0.000,0
110868.230,-1000.000,-28.320,-14.648,-1000.000,0.000,0
110868.234,-1000.000,-25.391,-31.738,-1000.000,0.000,0
110868.238,-1000.000,-27.344,-46.387,-1000.000,0.000,0
110868.241,-1000.000,-27.344,-107.422,-1000.000,0.000,0
110868.245,-1000.000,-21.973,-146.484,-1000.000,0.000,0
110868.249,-1000.000,-21.484,-153.320,-1000.000,0.000,0
110868.253,-1000.000,-24.902,-141.113,-1000.000,0.000,0
110868.257,-1000.000,-27.832,-118.652,-1000.000,0.000,0
110868.261,-1000.000,-30.762,-109.863,-1000.000,0.000,0
110868.265,-1000.000,-28.320,-91.797,-1000.000,0.000,0
110868.269,-1000.000,-18.555,-67.871,-1000.000,0.000,0
110868.273,-1000.000,-18.555,-18.066,-1000.000,0.000,1
110868.277,-1000.000,-21.484,20.996,-1000.000,0.000,0
110868.280,-1000.000,-19.043,-5.371,-1000.000,0.000,0
110868.284,-1000.000,-21.973,9.277,-1000.000,0.000,0
110868.288,-1000.000,-25.879,31.738,-1000.000,0.000,0
110868.292,-1000.000,-26.855,42.480,-1000.000,0.000,0
110868.296,-1000.000,-28.809,38.086,-1000.000,0.000,0
110868.300,-999.023,-25.391,-52.734,-1000.000,0.000,0
110868.304,-1000.000,-32.715,-83.984,-1000.000,0.000,0
110868.308,-976.562,-38.574,-72.266,-1000.000,0.000,0
110868.312,-921.875,-34.180,-75.195,-1000.000,0.000,0
110868.316,-875.488,-34.668,-86.426,-1000.000,0.000,0
110868.320,-815.918,-32.715,-92.285,-1000.000,0.000,0
110868.323,-737.793,-30.762,-41.504,-1000.000,0.000,0
110868.327,-647.461,-25.391,-40.527,-1000.000,0.000,0
110868.331,-578.125,-26.367,-101.074,-1000.000,0.000,0
110868.335,-540.527,-33.203,-102.051,-1000.000,0.000,0
110868.339,-507.324,-28.809,-61.035,-1000.000,0.000,0
110868.343,-469.238,-33.691,-79.590,-1000.000,0.000,0
110868.347,-434.082,-37.598,-122.070,-999.023,0.000,0
110868.351,-419.434,-37.598,-91.797,-1000.000,0.000,0
110868.355,-423.828,-41.504,-22.949,-985.352,0.000,0
110868.359,-406.738,-41.016,-15.137,-941.406,0.000,0
110868.363,-377.930,-43.457,-14.648,-923.340,0.000,0
110868.366,-399.902,-37.598,0.000,-917.969,0.000,0
110868.370,-426.758,-35.156,25.391,-916.016,0.000,0
110868.374,-436.523,-44.922,71.289,-955.078,0.000,0
110868.378,-448.242,-39.551,69.824,-931.152,0.000,0
110868.382,-462.402,-35.156,25.391,-837.402,0.000,0
110868.386,-484.375,-42.480,57.617,-778.320,0.000,0
110868.390,-470.703,-48.828,110.840,-785.645,0.000,0
110868.394,-478.027,-48.340,109.863,-774.414,0.000,0
110868.398,-514.648,-35.156,108.887,-718.750,0.000,0
110868.402,-530.762,-35.156,129.883,-685.547,0.000,0
110868.405,-533.203,-44.434,127.930,-634.766,0.000,0
110868.409,-514.648,-43.945,148.438,-596.680,0.000,0
110868.413,-500.977,-39.551,204.102,-617.188,0.000,0
110868.417,-519.531,-33.691,195.801,-558.594,0.000,0
110868.421,-496.094,-37.109,207.031,-485.840,0.000,0
110868.425,-462.402,-38.574,248.047,-494.141,0.000,0
110868.429,-454.102,-41.504,280.273,-506.836,0.000,0
110868.433,-465.332,-54.688,312.988,-570.312,0.000,0
110868.437,-456.055,-54.688,335.938,-601.074,0.000,0
110868.441,-416.016,-55.176,403.809,-559.082,0.000,0
110868.445,-408.203,-61.035,478.516,-492.676,0.000,0
110868.448,-371.582,-64.453,496.094,-429.199,0.000,0
110868.452,-318.848,-67.871,574.707,-441.406,0.000,0
110868.456,-304.199,-61.035,658.203,-403.320,0.000,0
110868.460,-241.699,-55.664,686.035,-346.191,0.000,0
110868.464,-188.477,-51.758,722.656,-370.605,0.000,0
110868.468,-151.855,-44.434,784.668,-379.395,0.000,0
110868.472,-84.473,-50.293,884.277,-387.695,0.000,0
110868.476,-18.066,-55.664,958.496,-393.555,0.000,0
110868.480,52.734,-59.082,970.215,-358.887,0.000,0
110868.484,138.184,-64.941,971.680,-310.547,0.000,0
110868.488,218.262,-68.848,972.168,-283.203,0.000,0
110868.491,267.578,-72.754,972.168,-316.406,0.000,0
110868.495,348.145,-74.707,972.168,-318.848,0.000,0
110868.499,436.523,-74.707,972.168,-272.949,0.000,0
110868.503,508.789,-70.801,972.168,-325.195,0.000,0
110868.507,434.570,-62.500,972.168,-136.719,0.000,0
110868.511,175.293,-33.203,972.168,628.418,0.000,0
110868.515,57.129,19.043,972.168,-994.629,0.000,0
110868.519,235.840,66.895,972.168,947.754,0.000,0
110868.523,638.672,92.773,972.168,979.980,0.000,0
110868.527,948.242,101.562,972.168,922.363,0.000,0
110868.530,972.168,107.422,972.168,-961.914,0.000,0
110868.534,964.844,111.328,974.121,680.176,0.000,0
110868.538,974.609,108.398,954.590,-640.137,0.000,0
110868.542,972.656,84.961,990.723,-1000.000,0.000,0
110868.546,972.656,28.809,819.824,-949.219,0.000,0
110868.550,970.703,-17.578,226.562,-1000.000,0.000,0
110868.554,968.750,-22.461,-289.551,-1000.000,0.000,0
110868.558,979.492,1.465,-548.828,-1000.000,0.000,0
110868.562,860.352,38.574,-679.199,-1000.000,0.000,0
110868.566,729.980,66.895,-665.039,-1000.000,0.000,0
110868.570,695.801,76.660,-570.801,-1000.000,0.000,0
110868.573,604.980,81.055,-590.332,-1000.000,0.000,0
110868.577,516.113,68.359,-707.520,-1000.000,0.000,0
110868.581,409.180,40.527,-854.004,-1000.000,0.000,0
110868.585,278.320,8.301,-957.031,-1000.000,0.000,0
110868.589,125.488,-45.410,-991.211,-1000.000,0.000,0
110868.593,-55.664,-104.492,-997.559,-1000.000,0.000,0
110868.597,-260.254,-177.734,-1000.000,-1000.000,0.000,0
110868.601,-466.309,-268.555,-1000.000,-1000.000,0.000,0
110868.605,-729.492,-446.777,-1000.000,-991.211,0.000,0
110868.609,-981.445,-667.480,-1000.000,-995.605,0.000,0
110868.613,-1000.000,-756.836,-1000.000,-985.352,0.000,0
110868.616,-993.164,-789.062,-1000.000,-533.203,0.000,0
110868.620,-1000.000,-798.340,-1000.000,180.176,0.000,0
110868.624,-1000.000,-784.180,-1000.000,775.879,0.000,0
110868.628,-1000.000,-766.113,-1000.000,985.840,0.000,0
110868.632,-1000.000,-731.445,-1000.000,956.055,0.000,0
110868.636,-1000.000,-675.781,-1000.000,973.633,0.000,0
110868.640,-1000.000,-600.586,-1000.000,973.633,0.000,0
110868.644,-996.094,-465.820,-1000.000,973.145,0.000,0
110868.648,-1000.000,-239.258,-1000.000,962.402,0.000,0
110868.652,-964.355,-31.250,-1000.000,977.051,0.000,0
110868.655,-818.359,108.887,-1000.000,873.047,0.000,0
110868.659,-696.289,210.449,-1000.000,496.094,0.000,0
110868.663,-687.012,264.160,-1000.000,226.074,0.000,0
110868.667,-798.828,284.668,-1000.000,400.879,0.000,0
110868.671,-930.664,297.852,-1000.000,831.055,0.000,0
110868.675,-991.211,304.688,-1000.000,986.816,0.000,0
110868.679,-1000.000,311.523,-1000.000,958.496,0.000,0
110868.683,-998.047,308.105,-1000.000,973.145,0.000,0
