timestamps,TP9,AF7,AF8,TP10,Right AUX,Marker0
39958.714,-45.898,-20.508,-26.855,-35.645,0.000,0
39958.718,-39.551,-15.625,-21.973,-49.805,0.000,0
39958.722,-40.039,-18.555,-22.949,-43.945,0.000,0
39958.725,-30.762,-19.531,-23.438,-30.762,0.000,0
39958.729,-23.926,-15.625,-21.484,-41.016,0.000,0
39958.733,-38.086,-17.090,-24.414,-35.645,0.000,0
39958.737,-35.645,-19.531,-27.344,-39.551,0.000,0
39958.741,-20.508,-20.508,-31.250,-44.922,0.000,0
39958.745,-19.043,-19.531,-30.273,-31.250,0.000,0
39958.749,-12.695,-17.090,-23.438,-26.367,0.000,0
39958.753,-15.137,-13.672,-20.020,-19.043,0.000,0
39958.757,-22.949,-19.043,-22.949,-33.203,0.000,0
39958.761,-33.203,-23.926,-24.902,-47.363,0.000,0
39958.764,-32.227,-21.973,-25.879,-42.969,0.000,0
39958.768,-27.832,-20.020,-25.879,-40.039,0.000,0
39958.772,-25.391,-16.602,-25.391,-36.133,0.000,0
39958.776,-20.508,-15.625,-26.855,-36.621,0.000,0
39958.780,-12.207,-11.719,-24.414,-27.832,0.000,0
39958.784,-13.672,-16.113,-27.832,-20.020,0.000,0
39958.788,-13.184,-19.043,-28.320,-23.438,0.000,0
39958.792,-14.160,-12.207,-28.809,-26.855,0.000,0
39958.796,-30.273,-10.254,-26.855,-25.391,0.000,0
39958.800,-19.531,-13.184,-22.461,-30.273,0.000,0
39958.804,-2.441,-14.648,-22.949,-28.320,0.000,0
39958.807,-15.625,-12.695,-22.949,-17.578,0.000,0
39958.811,-27.832,-16.602,-27.832,-16.602,0.000,0
39958.815,-26.367,-19.531,-27.832,-24.902,0.000,0
39958.819,-28.809,-20.508,-25.879,-27.832,0.000,0
39958.823,-30.273,-21.973,-25.879,-12.207,0.000,0
39958.827,-31.250,-23.438,-23.926,-12.695,0.000,0
39958.831,-25.391,-21.484,-25.879,-28.809,0.000,0
39958.835,-20.020,-19.531,-26.367,-33.203,0.000,0
39958.839,-20.508,-19.531,-26.367,-33.691,0.000,0
39958.843,-25.391,-17.090,-30.273,-36.133,0.000,0
39958.847,-25.391,-20.020,-29.297,-34.180,0.000,0
39958.850,-17.578,-19.043,-25.391,-28.809,0.000,0
39958.854,-14.160,-15.625,-24.902,-26.855,0.000,0
39958.858,-17.578,-19.043,-23.926,-23.926,0.000,0
39958.862,-8.789,-18.066,-22.461,-19.531,0.000,0
39958.866,-8.301,-13.672,-21.973,-24.902,0.000,0
39958.870,-23.438,-18.555,-25.879,-26.367,0.000,0
39958.874,-27.832,-16.602,-24.414,-20.508,0.000,0
39958.878,-13.184,-12.207,-18.555,-26.855,0.000,0
39958.882,-15.137,-19.043,-21.484,-31.250,0.000,0
39958.886,-29.785,-12.207,-21.484,-22.949,0.000,0
39958.889,-8.789,-7.812,-22.949,-19.043,0.000,0
39958.893,-1.465,-13.184,-24.414,-23.438,0.000,0
39958.897,-20.508,-11.230,-20.020,-19.043,0.000,0
39958.901,-16.602,-8.301,-18.555,-7.812,0.000,0
39958.905,0.000,-8.301,-17.090,-11.719,0.000,0
39958.909,3.906,-10.254,-19.531,-8.789,0.000,0
39958.913,-8.301,-13.672,-20.508,0.000,0.000,0
39958.917,-34.180,-17.090,-17.090,-8.789,0.000,0
39958.921,-20.996,-11.719,-14.160,-16.113,0.000,0
39958.925,-6.836,-8.789,-20.996,-11.719,0.000,0
39958.929,-13.184,-10.254,-23.926,-10.742,0.000,0
39958.932,-7.324,-12.207,-21.484,-18.066,0.000,0
39958.936,-2.930,-16.602,-20.020,-23.438,0.000,0
39958.940,1.953,-13.672,-20.996,-20.508,0.000,0
39958.944,2.930,-12.695,-21.973,-15.137,0.000,0
39958.948,-4.883,-15.625,-21.484,-11.719,0.000,0
39958.952,2.930,-12.695,-18.555,-9.766,0.000,0
39958.956,-4.883,-7.324,-15.137,-20.996,0.000,0
39958.960,-17.578,-7.812,-19.531,-24.414,0.000,0
39958.964,-2.441,-9.766,-21.973,-14.648,0.000,0
39958.968,1.465,-5.371,-18.555,-7.812,0.000,0
39958.972,-5.859,-9.766,-20.508,-10.254,0.000,0
39958.975,-13.672,-17.090,-24.902,-17.578,0.000,0
39958.979,-1.953,-15.625,-22.461,-20.020,0.000,0
39958.983,14.648,-17.578,-21.484,-20.020,0.000,0
39958.987,0.977,-23.438,-28.320,-22.949,0.000,0
39958.991,-5.859,-19.043,-27.344,-19.043,0.000,0
39958.995,6.348,-15.137,-16.602,-23.926,0.000,0
39958.999,8.301,-17.090,-14.648,-28.320,0.000,0
39959.003,0.977,-11.719,-17.090,-26.855,0.000,0
39959.007,-2.930,-15.137,-16.602,-34.180,0.000,0
39959.011,-1.953,-23.438,-17.090,-28.320,0.000,0
39959.014,-9.277,-21.973,-17.090,-32.715,0.000,0
39959.018,-21.484,-20.508,-16.113,-33.203,0.000,0
39959.022,-0.488,-18.066,-16.113,-19.531,0.000,0
39959.026,27.832,-17.090,-16.113,-19.531,0.000,0
39959.030,14.160,-19.531,-16.602,-14.648,0.000,0
39959.034,6.348,-15.137,-14.160,-22.461,0.000,0
39959.038,-7.812,-14.160,-15.625,-25.391,0.000,0
39959.042,-3.906,-21.484,-21.973,-21.973,0.000,0
39959.046,5.859,-19.043,-21.484,-24.414,0.000,0
39959.050,0.977,-12.695,-20.508,-21.973,0.000,0
39959.054,3.906,-9.277,-18.066,-25.391,0.000,0
39959.057,-7.812,-11.719,-19.043,-22.949,0.000,0
39959.061,-17.578,-14.648,-22.949,-14.648,0.000,0
39959.065,-8.301,-16.113,-26.367,-12.695,0.000,0
39959.069,3.906,-17.090,-25.879,-13.672,0.000,0
39959.073,1.953,-21.484,-25.391,-22.461,0.000,0
39959.077,-3.906,-22.461,-30.273,-19.043,0.000,0
39959.081,-8.789,-22.949,-38.086,-16.602,0.000,0
39959.085,-6.836,-25.391,-39.062,-26.855,0.000,0
39959.089,-6.836,-21.484,-40.527,-23.926,0.000,0
39959.093,-3.906,-15.625,-37.598,-28.320,0.000,0
39959.097,-8.789,-12.695,-33.691,-31.738,0.000,0
39959.100,-11.719,-14.160,-36.621,-23.926,0.000,0
39959.104,-0.977,-13.184,-37.109,-18.555,0.000,0
39959.108,-16.602,-12.207,-31.250,-16.113,0.000,0
39959.112,-24.902,-15.625,-28.809,-23.926,0.000,0
39959.116,-0.977,-16.113,-32.715,-9.277,0.000,0
39959.120,-10.254,-18.555,-28.809,-4.395,0.000,0
39959.124,-22.949,-16.602,-21.484,-22.461,0.000,0
39959.128,-19.531,-14.160,-23.926,-13.672,0.000,0
39959.132,-30.273,-18.555,-29.785,-25.391,0.000,0
39959.136,-40.039,-20.508,-29.785,-41.016,0.000,0
39959.139,-28.809,-18.555,-26.367,-24.902,0.000,0
39959.143,-25.879,-18.066,-28.809,-24.414,0.000,0
39959.147,-38.086,-18.555,-34.180,-26.367,0.000,0
39959.151,-46.387,-17.578,-31.738,-21.484,0.000,0
39959.155,-43.457,-13.184,-27.344,-26.855,0.000,0
39959.159,-38.086,-13.184,-30.273,-28.320,0.000,0
39959.163,-49.805,-14.648,-33.691,-22.949,0.000,0
39959.167,-52.734,-17.090,-34.668,-20.508,0.000,0
39959.171,-42.480,-22.949,-37.598,-31.738,0.000,0
39959.175,-34.668,-22.461,-36.621,-38.574,0.000,0
39959.179,-44.434,-19.043,-35.156,-24.414,0.000,0
39959.182,-53.223,-20.996,-32.715,-21.973,0.000,0
39959.186,-48.828,-18.066,-37.598,-25.879,0.000,0
39959.190,-35.645,-14.160,-35.645,-19.043,0.000,0
39959.194,-33.691,-18.555,-29.785,-15.137,0.000,0
39959.198,-53.223,-21.973,-35.156,-19.531,0.000,0
39959.202,-62.988,-20.020,-38.086,-17.578,0.000,0
39959.206,-44.434,-14.648,-34.180,-10.742,0.000,0
39959.210,-32.227,-16.113,-35.645,-20.996,0.000,0
39959.214,-51.758,-17.578,-30.273,-20.508,0.000,0
39959.218,-73.242,-13.672,-23.438,-8.789,0.000,0
39959.222,-50.293,-14.648,-32.227,-23.438,0.000,0
39959.225,-46.875,-19.043,-30.273,-25.879,0.000,0
39959.229,-65.430,-18.555,-24.902,-20.508,0.000,0
39959.233,-66.406,-23.926,-30.762,-23.438,0.000,0
39959.237,-63.477,-24.902,-33.691,-20.508,0.000,0
39959.241,-65.430,-20.508,-30.762,-20.996,0.000,0
39959.245,-69.336,-16.602,-26.855,-26.367,0.000,0
39959.249,-70.312,-12.207,-26.367,-28.320,0.000,0
39959.253,-61.523,-16.113,-23.926,-27.832,0.000,0
39959.257,-61.035,-16.113,-22.461,-22.949,0.000,0
39959.261,-89.844,-16.602,-24.414,-30.762,0.000,0
39959.264,-94.727,-23.926,-35.156,-35.645,0.000,0
39959.268,-72.754,-23.926,-35.645,-26.367,0.000,0
39959.272,-74.219,-18.066,-26.367,-36.133,0.000,0
39959.276,-77.637,-12.207,-21.973,-34.180,0.000,0
39959.280,-61.035,-13.184,-26.855,-24.414,0.000,0
39959.284,-60.059,-19.043,-29.297,-27.344,0.000,0
39959.288,-67.871,-15.625,-24.902,-22.461,0.000,0
39959.292,-67.383,-13.184,-23.926,-24.902,0.000,0
39959.296,-61.523,-14.648,-23.438,-25.391,0.000,0
39959.300,-51.758,-17.578,-24.414,-29.297,0.000,0
39959.304,-53.223,-13.672,-27.344,-33.691,0.000,0
39959.307,-48.340,-13.184,-27.344,-24.414,0.000,0
39959.311,-35.156,-17.578,-25.879,-35.156,0.000,0
39959.315,-45.410,-14.160,-26.367,-45.410,0.000,0
39959.319,-38.086,-12.695,-26.367,-33.203,0.000,0
39959.323,-29.297,-17.578,-28.320,-27.832,0.000,0
39959.327,-41.016,-20.020,-26.855,-29.785,0.000,0
39959.331,-56.641,-20.996,-26.855,-38.574,0.000,0
39959.335,-53.223,-20.996,-28.320,-32.227,0.000,0
39959.339,-41.992,-19.531,-28.809,-25.879,0.000,0
39959.343,-44.434,-17.578,-26.367,-19.043,0.000,0
39959.347,-37.598,-21.484,-28.809,-20.020,0.000,0
39959.350,-41.504,-21.484,-25.391,-39.551,0.000,0
39959.354,-35.645,-17.578,-20.508,-32.715,0.000,0
39959.358,-23.438,-17.578,-25.391,-23.926,0.000,0
39959.362,-29.297,-19.531,-29.297,-32.715,0.000,0
39959.366,-17.578,-22.949,-32.227,-24.414,0.000,0
39959.370,-6.836,-21.973,-27.344,-29.785,0.000,0
39959.374,-8.301,-21.973,-23.926,-32.227,0.000,0
39959.378,-1.953,-24.902,-27.832,-23.926,0.000,0
39959.382,8.789,-22.949,-29.785,-23.926,0.000,0
39959.386,24.902,-19.043,-30.273,-23.926,0.000,0
39959.389,22.949,-19.043,-31.250,-40.039,0.000,0
39959.393,10.254,-17.090,-31.738,-36.621,0.000,0
39959.397,7.324,-16.113,-27.832,-22.949,0.000,0
39959.401,21.973,-19.043,-28.320,-25.879,0.000,0
39959.405,23.438,-20.508,-30.762,-22.949,0.000,0
39959.409,14.160,-22.949,-30.273,-34.180,0.000,0
39959.413,18.066,-19.531,-27.344,-36.621,0.000,0
39959.417,22.949,-12.695,-17.578,-25.879,0.000,0
39959.421,11.719,-14.648,-21.973,-25.879,0.000,0
39959.425,13.672,-14.160,-29.785,-27.344,0.000,0
39959.429,11.719,-16.602,-26.367,-35.645,0.000,0
39959.432,9.277,-26.855,-32.227,-40.527,0.000,0
39959.436,7.324,-20.996,-37.598,-33.203,0.000,0
39959.440,-2.441,-9.766,-27.832,-29.297,0.000,0
39959.444,7.812,-14.648,-23.438,-30.273,0.000,0
39959.448,16.113,-15.625,-25.879,-35.645,0.000,0
39959.452,1.465,-20.020,-32.715,-44.922,0.000,0
39959.456,-6.348,-27.344,-35.156,-41.992,0.000,0
39959.460,-2.441,-25.391,-34.180,-36.133,0.000,0
39959.464,3.418,-24.414,-33.203,-33.691,0.000,0
39959.468,-8.789,-20.996,-28.320,-41.504,0.000,0
39959.472,-13.184,-20.996,-32.715,-43.457,0.000,0
39959.475,-2.441,-25.391,-36.621,-36.133,0.000,0
39959.479,-14.648,-26.367,-38.574,-38.574,0.000,0
39959.483,-32.715,-23.926,-37.598,-32.715,0.000,0
39959.487,-30.762,-23.926,-31.738,-34.180,0.000,0
39959.491,-13.184,-29.297,-27.832,-36.621,0.000,0
39959.495,-20.508,-20.508,-27.344,-25.879,0.000,0
39959.499,-28.320,-16.113,-30.762,-32.227,0.000,0
39959.503,-8.301,-20.020,-29.297,-28.809,0.000,0
39959.507,-2.441,-17.090,-26.855,-26.855,0.000,0
39959.511,-33.203,-19.043,-28.320,-40.039,0.000,0
39959.514,-34.180,-25.391,-30.273,-25.391,0.000,0
39959.518,-18.555,-24.902,-30.762,-22.461,0.000,0
39959.522,-19.043,-21.484,-30.762,-30.273,0.000,0
39959.526,-21.973,-16.602,-29.297,-24.414,0.000,0
39959.530,-30.273,-10.254,-28.320,-24.414,0.000,0
39959.534,-23.926,-10.742,-22.949,-19.531,0.000,0
39959.538,-13.184,-15.625,-20.996,-22.949,0.000,0
39959.542,-23.926,-22.461,-26.855,-33.203,0.000,0
39959.546,-31.250,-17.578,-25.879,-34.180,0.000,0
39959.550,-7.812,-11.230,-22.461,-27.344,0.000,0
39959.554,-6.348,-14.648,-21.973,-23.926,0.000,0
39959.557,-24.414,-15.625,-21.973,-24.414,0.000,0
39959.561,-23.926,-23.926,-23.438,-25.879,0.000,0
39959.565,-23.438,-27.344,-23.438,-28.320,0.000,0
39959.569,-26.855,-21.484,-20.996,-25.391,0.000,0
39959.573,-32.715,-19.043,-23.438,-21.973,0.000,0
39959.577,-37.598,-20.020,-26.367,-37.109,0.000,0
39959.581,-29.785,-18.555,-21.973,-45.898,0.000,0
39959.585,-22.461,-19.043,-23.926,-41.016,0.000,0
39959.589,-41.992,-21.484,-25.879,-39.551,0.000,0
39959.593,-46.387,-20.996,-21.973,-38.086,0.000,0
39959.597,-21.484,-17.090,-20.020,-29.785,0.000,0
39959.600,-29.785,-17.090,-21.484,-29.785,0.000,0
39959.604,-35.156,-18.066,-21.973,-35.645,0.000,0
39959.608,-28.809,-14.648,-21.973,-33.203,0.000,0
39959.612,-36.133,-17.578,-24.414,-33.691,0.000,0
39959.616,-40.527,-13.184,-22.949,-29.297,0.000,0
39959.620,-43.945,-10.742,-20.996,-20.020,0.000,0
39959.624,-51.270,-16.113,-24.902,-25.879,0.000,0
39959.628,-34.180,-15.137,-22.461,-37.109,0.000,0
39959.632,-33.203,-12.695,-21.484,-24.902,0.000,0
39959.636,-41.016,-14.648,-24.902,-10.254,0.000,0
39959.639,-26.367,-15.625,-23.926,-23.926,0.000,0
39959.643,-35.156,-16.602,-26.367,-37.109,0.000,0
39959.647,-47.363,-11.719,-26.367,-23.926,0.000,0
39959.651,-31.738,-3.906,-20.508,1.953,0.000,0
39959.655,-14.160,-9.766,-23.926,8.301,0.000,0
39959.659,-37.598,-16.602,-29.785,-16.113,0.000,0
39959.663,-59.570,-17.578,-28.320,-30.273,0.000,0
39959.667,-43.457,-17.090,-20.508,-24.902,0.000,0
39959.671,-43.945,-11.230,-19.531,-14.648,0.000,0
39959.675,-51.270,-6.348,-26.367,-22.461,0.000,0
39959.679,-50.293,-6.348,-22.949,-28.809,0.000,0
39959.682,-45.410,-11.719,-21.484,-24.902,0.000,0
39959.686,-22.949,-15.137,-24.902,-26.855,0.000,0
39959.690,-23.438,-14.160,-27.832,-27.344,0.000,0
39959.694,-23.438,-17.090,-23.926,-27.832,0.000,0
39959.698,-23.438,-17.578,-20.020,-25.391,0.000,0
39959.702,-27.832,-20.996,-24.414,-25.391,0.000,0
39959.706,-23.438,-24.902,-22.461,-32.715,0.000,0
39959.710,-12.695,-27.832,-23.926,-36.621,0.000,0
39959.714,-21.973,-23.926,-24.414,-21.484,0.000,0
39959.718,-26.855,-16.602,-19.043,-6.348,0.000,0
39959.722,-26.367,-19.043,-23.926,-13.184,0.000,0
39959.725,-16.113,-20.996,-23.438,-29.785,0.000,0
39959.729,0.977,-21.484,-22.461,-24.414,0.000,0
39959.733,-5.859,-21.973,-25.391,-12.207,0.000,0
39959.737,-18.555,-25.391,-27.344,-17.578,0.000,0
39959.741,-17.090,-25.879,-29.785,-24.414,0.000,0
39959.745,-18.066,-26.367,-24.902,-24.902,0.000,0
39959.749,-22.949,-25.879,-21.484,-19.531,0.000,0
39959.753,-17.090,-26.855,-30.762,-28.320,0.000,0
39959.757,-10.742,-29.785,-33.203,-31.738,0.000,0
39959.761,-11.719,-26.367,-30.762,-25.391,0.000,0
39959.764,-24.414,-30.273,-33.691,-31.250,0.000,0
39959.768,-27.344,-26.855,-29.785,-29.297,0.000,0
39959.772,-15.625,-25.391,-26.855,-23.926,0.000,0
39959.776,-5.859,-29.297,-24.414,-19.531,0.000,0
39959.780,-10.254,-31.250,-24.902,-11.719,0.000,0
39959.784,-22.949,-38.086,-33.691,-31.738,0.000,0
39959.788,-21.484,-38.574,-39.062,-40.527,0.000,0
39959.792,-24.414,-33.203,-33.691,-33.203,0.000,0
39959.796,-29.785,-31.738,-30.762,-30.762,0.000,0
39959.800,-24.902,-28.809,-33.691,-25.391,0.000,0
39959.804,-30.273,-30.762,-32.715,-30.273,0.000,0
39959.807,-42.480,-36.621,-33.691,-31.250,0.000,0
39959.811,-37.109,-39.062,-36.621,-24.414,0.000,0
39959.815,-13.184,-35.645,-31.738,-24.414,0.000,0
39959.819,-5.371,-31.250,-35.156,-29.785,0.000,0
39959.823,-15.625,-34.668,-37.109,-39.062,0.000,0
39959.827,-27.832,-33.691,-32.227,-45.410,0.000,0
39959.831,-28.809,-31.250,-30.762,-47.363,0.000,0
39959.835,-16.113,-27.832,-31.738,-34.668,0.000,0
39959.839,-19.043,-22.461,-25.391,-24.902,0.000,0
39959.843,-34.180,-25.879,-25.391,-37.598,0.000,0
39959.847,-24.902,-27.344,-30.762,-36.133,0.000,0
39959.850,-23.926,-24.414,-30.273,-20.996,0.000,0
39959.854,-24.414,-22.461,-30.762,-20.020,0.000,0
39959.858,-22.949,-23.926,-31.738,-21.484,0.000,0
39959.862,-30.273,-25.391,-30.762,-24.902,0.000,0
39959.866,-29.297,-27.832,-27.832,-29.297,0.000,0
39959.870,-19.531,-28.320,-29.297,-27.832,0.000,0
39959.874,-23.438,-28.320,-31.738,-17.090,0.000,0
39959.878,-19.531,-26.855,-31.738,-17.578,0.000,0
39959.882,-21.973,-27.344,-34.180,-25.879,0.000,0
39959.886,-25.391,-24.414,-32.227,-15.625,0.000,0
39959.889,-20.508,-25.391,-34.180,-12.695,0.000,0
39959.893,-13.672,-29.297,-37.598,-24.902,0.000,0
39959.897,-2.441,-28.320,-36.621,-22.949,0.000,0
39959.901,-20.020,-27.832,-35.645,-22.461,0.000,0
39959.905,-32.227,-29.785,-29.297,-22.949,0.000,0
39959.909,-13.184,-27.344,-20.508,-12.695,0.000,0
39959.913,-5.859,-24.902,-20.996,-6.348,0.000,0
39959.917,-19.531,-25.391,-22.461,-13.672,0.000,0
39959.921,-19.531,-28.320,-19.043,-27.832,0.000,0
39959.925,-22.949,-29.785,-25.879,-31.738,0.000,0
39959.929,-25.391,-26.855,-31.738,-30.762,0.000,0
39959.932,-17.090,-25.391,-30.273,-34.180,0.000,0
39959.936,-20.508,-27.832,-35.645,-22.461,0.000,0
39959.940,-22.949,-34.180,-41.504,-28.809,0.000,0
39959.944,-24.902,-36.133,-36.133,-36.621,0.000,0
39959.948,-30.762,-29.785,-27.832,-22.461,0.000,0
39959.952,-37.598,-30.273,-27.832,-18.555,0.000,0
39959.956,-29.297,-28.809,-33.203,-28.320,0.000,0
39959.960,-20.020,-24.414,-32.227,-24.414,0.000,0
39959.964,-33.691,-29.785,-33.203,-24.414,0.000,0
39959.968,-28.320,-33.691,-37.109,-34.180,0.000,0
39959.972,-29.297,-30.273,-35.156,-33.691,0.000,0
39959.975,-38.574,-29.297,-35.645,-21.484,0.000,0
39959.979,-26.855,-30.273,-36.621,-23.438,0.000,0
39959.983,-28.320,-29.785,-35.156,-22.461,0.000,0
39959.987,-42.480,-29.785,-40.039,-12.695,0.000,0
39959.991,-40.527,-35.645,-37.109,-18.066,0.000,0
39959.995,-44.922,-39.062,-33.691,-27.344,0.000,0
39959.999,-48.340,-38.574,-30.762,-33.691,0.000,0
39960.003,-36.133,-36.133,-30.762,-40.039,0.000,0
39960.007,-41.504,-35.156,-37.109,-31.250,0.000,0
39960.011,-53.711,-37.598,-37.109,-21.973,0.000,0
39960.014,-37.598,-34.668,-37.598,-15.625,0.000,0
39960.018,-29.785,-32.715,-35.645,-29.785,0.000,0
39960.022,-43.945,-33.691,-34.668,-43.945,0.000,0
39960.026,-41.016,-32.227,-33.691,-30.273,0.000,0
39960.030,-35.645,-31.250,-34.180,-39.551,0.000,0
39960.034,-37.598,-34.180,-35.645,-51.758,0.000,0
39960.038,-44.434,-30.273,-36.133,-38.574,0.000,0
39960.042,-42.480,-23.926,-31.738,-37.598,0.000,0
39960.046,-49.316,-23.438,-31.250,-44.922,0.000,0
39960.050,-53.711,-27.344,-33.203,-41.992,0.000,0
39960.054,-55.664,-29.785,-32.715,-30.273,0.000,0
39960.057,-41.016,-31.738,-36.621,-39.062,0.000,0
39960.061,-34.180,-35.156,-39.551,-51.270,0.000,0
39960.065,-46.387,-32.715,-38.574,-40.039,0.000,0
39960.069,-52.246,-30.273,-37.109,-37.109,0.000,0
39960.073,-50.293,-26.855,-31.738,-40.527,0.000,0
39960.077,-41.016,-22.949,-23.926,-41.992,0.000,0
39960.081,-53.711,-23.438,-24.414,-48.828,0.000,0
39960.085,-52.246,-25.879,-29.785,-37.598,0.000,0
39960.089,-40.039,-25.879,-30.762,-28.320,0.000,0
39960.093,-50.293,-25.391,-29.785,-29.297,0.000,0
39960.097,-58.105,-26.855,-33.203,-28.809,0.000,0
39960.100,-60.547,-26.367,-27.344,-43.457,0.000,0
39960.104,-49.805,-21.484,-23.926,-41.016,0.000,0
39960.108,-37.109,-20.996,-28.809,-32.227,0.000,0
39960.112,-47.852,-19.531,-26.367,-30.762,0.000,0
39960.116,-41.016,-20.020,-27.832,-19.531,0.000,0
39960.120,-34.668,-25.879,-33.691,-32.227,0.000,0
39960.124,-35.645,-27.344,-31.250,-38.086,0.000,0
39960.128,-41.016,-30.273,-27.832,-22.461,0.000,0
39960.132,-54.199,-31.250,-26.367,-26.367,0.000,0
39960.136,-47.852,-28.809,-24.414,-28.809,0.000,0
39960.139,-43.945,-26.855,-22.949,-20.996,0.000,0
39960.143,-42.969,-27.344,-29.297,-25.879,0.000,0
39960.147,-32.715,-20.508,-33.203,-28.809,0.000,0
39960.151,-34.668,-20.508,-30.762,-24.414,0.000,0
39960.155,-45.410,-32.227,-35.156,-25.391,0.000,0
39960.159,-53.711,-28.809,-35.645,-38.086,0.000,0
39960.163,-37.598,-21.484,-31.250,-38.574,0.000,0
39960.167,-17.578,-27.344,-33.203,-35.645,0.000,0
39960.171,-25.391,-32.227,-33.203,-42.480,0.000,0
39960.175,-41.504,-29.297,-32.227,-44.434,0.000,0
39960.179,-40.527,-28.320,-29.785,-44.434,0.000,0
39960.182,-36.621,-25.879,-29.297,-38.086,0.000,0
39960.186,-51.758,-21.973,-30.762,-33.203,0.000,0
39960.190,-59.082,-19.043,-30.273,-30.762,0.000,0
39960.194,-42.480,-20.020,-33.203,-37.598,0.000,0
39960.198,-43.945,-27.344,-35.156,-46.387,0.000,0
39960.202,-41.992,-25.391,-28.320,-34.668,0.000,0
39960.206,-27.344,-18.555,-23.438,-26.367,0.000,0
39960.210,-30.762,-19.043,-23.438,-29.785,0.000,0
39960.214,-42.969,-19.531,-25.391,-24.414,0.000,0
39960.218,-47.852,-17.090,-22.461,-27.832,0.000,0
39960.222,-41.992,-18.555,-25.391,-33.203,0.000,0
39960.225,-36.621,-21.973,-26.855,-32.715,0.000,0
39960.229,-38.574,-22.461,-25.879,-29.785,0.000,0
39960.233,-49.316,-23.438,-28.809,-37.109,0.000,0
39960.237,-36.133,-27.832,-30.762,-48.828,0.000,0
39960.241,-22.949,-23.926,-30.273,-41.504,0.000,0
39960.245,-40.527,-19.531,-26.855,-41.504,0.000,0
39960.249,-43.945,-20.996,-27.832,-46.387,0.000,0
39960.253,-29.785,-20.020,-25.879,-28.320,0.000,0
39960.257,-37.109,-22.461,-23.438,-26.367,0.000,0
39960.261,-41.992,-24.414,-26.367,-36.133,0.000,0
39960.264,-36.621,-20.996,-25.391,-32.715,0.000,0
39960.268,-24.414,-25.391,-26.367,-32.715,0.000,0
39960.272,-20.020,-27.344,-27.832,-28.320,0.000,0
39960.276,-42.480,-29.297,-28.320,-38.086,0.000,0
39960.280,-57.129,-29.297,-29.785,-54.199,0.000,0
39960.284,-54.688,-29.785,-34.180,-58.594,0.000,0
39960.288,-46.387,-29.785,-35.645,-48.340,0.000,0
39960.292,-45.410,-25.879,-28.809,-36.133,0.000,0
39960.296,-34.180,-18.066,-27.832,-42.480,0.000,0
39960.300,-20.508,-17.578,-30.273,-37.598,0.000,0
39960.304,-20.996,-17.578,-24.414,-24.414,0.000,0
39960.307,-25.879,-19.043,-20.996,-33.691,0.000,0
39960.311,-18.066,-20.996,-21.484,-32.227,0.000,0
39960.315,-19.043,-19.531,-20.996,-31.738,0.000,0
39960.319,-24.902,-23.438,-22.949,-38.086,0.000,0
39960.323,-27.344,-26.367,-30.762,-37.598,0.000,0
39960.327,-37.598,-26.855,-32.715,-32.715,0.000,0
39960.331,-29.297,-29.297,-30.762,-27.832,0.000,0
39960.335,-33.691,-29.785,-29.785,-38.086,0.000,0
39960.339,-35.645,-24.902,-27.344,-38.574,0.000,0
39960.343,-25.391,-25.879,-34.180,-30.762,0.000,0
39960.347,-16.113,-23.926,-34.668,-28.809,0.000,0
39960.350,-21.484,-20.020,-31.738,-29.297,0.000,0
39960.354,-28.809,-23.438,-30.762,-43.945,0.000,0
39960.358,-25.391,-23.438,-33.203,-44.922,0.000,0
39960.362,-40.527,-23.926,-31.250,-37.598,0.000,0
39960.366,-45.410,-28.809,-25.879,-32.715,0.000,0
39960.370,-26.855,-26.855,-23.438,-32.227,0.000,0
39960.374,-25.391,-25.879,-30.762,-30.273,0.000,0
39960.378,-38.574,-28.809,-39.551,-23.926,0.000,0
39960.382,-25.879,-27.344,-34.180,-18.066,0.000,0
39960.386,-6.348,-23.926,-27.832,-7.812,0.000,0
39960.389,-19.043,-23.438,-25.879,-15.137,0.000,0
39960.393,-28.320,-23.926,-28.809,-26.855,0.000,0
39960.397,-22.949,-27.832,-35.645,-21.484,0.000,0
39960.401,-22.461,-27.344,-39.551,-24.902,0.000,0
39960.405,-24.414,-26.367,-37.109,-26.855,0.000,0
39960.409,-39.551,-28.320,-34.668,-38.574,0.000,0
39960.413,-39.551,-28.809,-34.180,-50.293,0.000,0
39960.417,-19.531,-29.785,-32.715,-32.715,0.000,0
39960.421,-19.531,-26.367,-28.320,-28.809,0.000,0
39960.425,-32.715,-25.879,-26.855,-24.902,0.000,0
39960.429,-24.414,-31.738,-30.273,-16.113,0.000,0
39960.432,-15.137,-25.879,-25.879,-24.902,0.000,0
39960.436,-11.230,-23.438,-23.438,-22.461,0.000,0
39960.440,-16.602,-26.367,-21.484,-23.926,0.000,0
39960.444,-21.973,-28.320,-29.297,-16.602,0.000,0
39960.448,-18.066,-29.297,-29.785,-17.090,0.000,0
39960.452,-31.250,-29.785,-29.297,-35.645,0.000,0
39960.456,-30.762,-28.320,-30.273,-28.320,0.000,0
39960.460,-9.277,-25.391,-28.320,-25.879,0.000,0
39960.464,-9.277,-27.344,-31.250,-28.320,0.000,0
39960.468,-21.973,-27.344,-34.180,-22.949,0.000,0
39960.472,-29.297,-29.785,-26.855,-39.551,0.000,0
39960.475,-19.043,-29.785,-22.949,-35.156,0.000,0
39960.479,-19.531,-25.391,-26.367,-23.926,0.000,0
39960.483,-27.832,-24.414,-25.879,-33.691,0.000,0
39960.487,-16.113,-30.273,-28.809,-31.738,0.000,0
39960.491,-11.230,-37.598,-31.250,-29.297,0.000,0
39960.495,-30.762,-32.227,-32.715,-29.297,0.000,0
39960.499,-43.457,-32.715,-31.738,-27.832,0.000,0
39960.503,-29.297,-33.203,-29.785,-23.438,0.000,0
39960.507,-22.949,-32.227,-32.227,-30.273,0.000,0
39960.511,-31.738,-33.691,-30.273,-46.387,0.000,0
39960.514,-29.785,-29.785,-24.902,-30.273,0.000,0
39960.518,-26.855,-26.367,-27.344,-13.184,0.000,0
39960.522,-19.531,-28.809,-37.109,-28.809,0.000,0
39960.526,-30.762,-29.785,-40.039,-33.691,0.000,0
39960.530,-52.734,-28.320,-33.203,-26.855,0.000,0
39960.534,-41.016,-26.367,-32.227,-31.738,0.000,0
39960.538,-31.738,-27.344,-34.668,-36.621,0.000,0
39960.542,-40.039,-29.785,-36.621,-29.785,0.000,0
39960.546,-40.039,-28.809,-33.691,-20.996,0.000,0
39960.550,-31.250,-28.809,-29.297,-26.855,0.000,0
39960.554,-31.250,-26.855,-27.344,-27.832,0.000,0
39960.557,-38.574,-23.438,-28.809,-24.414,0.000,0
39960.561,-47.363,-25.879,-32.227,-34.668,0.000,0
39960.565,-33.691,-24.414,-33.691,-38.574,0.000,0
39960.569,-30.762,-22.461,-34.180,-39.551,0.000,0
39960.573,-47.363,-23.438,-30.762,-35.645,0.000,0
39960.577,-31.250,-22.461,-31.250,-31.250,0.000,0
39960.581,-19.531,-26.855,-31.738,-26.855,0.000,0
39960.585,-37.109,-30.762,-31.738,-22.461,0.000,0
39960.589,-51.758,-31.250,-32.227,-26.367,0.000,0
39960.593,-37.598,-32.715,-32.227,-24.414,0.000,0
39960.597,-24.414,-26.855,-30.762,-31.738,0.000,0
39960.600,-25.879,-25.879,-27.344,-35.645,0.000,0
39960.604,-18.066,-25.879,-26.367,-21.973,0.000,0
39960.608,-21.973,-21.973,-30.273,-18.555,0.000,0
39960.612,-21.973,-17.578,-24.902,-38.086,0.000,0
39960.616,-26.367,-21.484,-23.926,-39.062,0.000,0
39960.620,-42.969,-24.414,-25.879,-24.902,0.000,0
39960.624,-21.973,-19.043,-22.461,-19.043,0.000,0
39960.628,-19.043,-23.438,-26.367,-24.414,0.000,0
39960.632,-35.156,-26.855,-27.832,-23.438,0.000,0
39960.636,-35.645,-23.438,-27.344,-17.578,0.000,0
39960.639,-24.414,-20.508,-31.250,-22.949,0.000,0
39960.643,-17.090,-16.602,-29.785,-18.555,0.000,0
39960.647,-36.133,-21.484,-28.320,-14.160,0.000,0
39960.651,-32.715,-23.926,-30.273,-24.902,0.000,0
39960.655,-29.785,-23.926,-35.156,-28.320,0.000,0
39960.659,-16.602,-26.855,-37.109,-28.809,0.000,0
39960.663,-23.438,-25.391,-35.156,-22.949,0.000,0
39960.667,-39.551,-22.949,-31.250,-18.066,0.000,0
39960.671,-17.578,-24.902,-27.344,-24.902,0.000,0
39960.675,-5.859,-21.484,-22.949,-22.461,0.000,0
39960.679,-18.066,-19.043,-23.926,-23.438,0.000,0
39960.682,-12.207,-20.996,-29.297,-14.648,0.000,0
39960.686,3.906,-19.043,-21.973,-10.742,0.000,0
39960.690,-12.207,-21.973,-20.020,-24.414,0.000,0
39960.694,-25.391,-20.508,-25.879,-15.137,0.000,0
39960.698,-16.113,-14.648,-20.508,-14.160,0.000,0
39960.702,-22.949,-21.484,-23.438,-23.438,0.000,0
39960.706,-20.508,-25.391,-26.367,-22.949,0.000,0
39960.710,-20.020,-22.949,-23.438,-28.809,0.000,0
39960.714,-22.461,-22.461,-23.438,-33.203,0.000,0
39960.718,-17.090,-25.879,-26.855,-28.809,0.000,0
39960.722,-12.695,-28.320,-28.320,-14.160,0.000,0
39960.725,-22.461,-27.832,-27.832,-29.297,0.000,0
39960.729,-31.738,-27.832,-31.250,-46.387,0.000,0
39960.733,-27.344,-24.414,-29.297,-32.715,0.000,0
39960.737,-29.297,-21.973,-19.531,-38.574,0.000,0
39960.741,-24.414,-24.414,-21.484,-43.945,0.000,0
39960.745,-26.855,-28.809,-23.926,-27.832,0.000,0
39960.749,-42.480,-27.832,-25.879,-31.738,0.000,0
39960.753,-46.875,-28.320,-34.180,-43.945,0.000,0
39960.757,-46.875,-34.180,-33.691,-36.621,0.000,0
39960.761,-35.645,-30.273,-30.762,-25.391,0.000,0
39960.764,-24.902,-27.344,-30.762,-29.297,0.000,0
39960.768,-55.664,-28.809,-28.320,-40.039,0.000,0
39960.772,-64.453,-28.809,-29.785,-34.668,0.000,0
39960.776,-41.504,-27.832,-31.250,-34.668,0.000,0
39960.780,-41.992,-28.320,-30.273,-36.621,0.000,0
39960.784,-50.781,-25.879,-30.273,-35.156,0.000,0
39960.788,-38.086,-23.438,-27.344,-44.922,0.000,0
39960.792,-31.250,-24.902,-30.273,-34.668,0.000,0
39960.796,-43.457,-28.809,-32.227,-31.738,0.000,0
39960.800,-60.059,-30.762,-34.668,-43.457,0.000,0
39960.804,-44.922,-27.832,-37.598,-42.480,0.000,0
39960.807,-37.598,-28.809,-35.645,-49.805,0.000,0
39960.811,-44.922,-28.809,-34.180,-47.852,0.000,0
39960.815,-35.156,-30.273,-34.668,-40.527,0.000,0
39960.819,-32.715,-33.691,-35.645,-34.668,0.000,0
39960.823,-41.992,-34.668,-33.691,-30.273,0.000,0
39960.827,-43.457,-32.227,-29.785,-36.133,0.000,0
39960.831,-31.250,-26.855,-34.668,-25.391,0.000,0
39960.835,-23.926,-27.344,-35.156,-25.391,0.000,0
39960.839,-26.855,-34.180,-33.203,-39.062,0.000,0
39960.843,-39.062,-36.133,-41.016,-45.410,0.000,0
39960.847,-44.434,-27.832,-39.062,-55.664,0.000,0
39960.850,-20.508,-25.391,-34.180,-52.246,0.000,0
39960.854,-36.133,-27.832,-41.016,-39.062,0.000,0
39960.858,-53.223,-28.320,-39.551,-40.039,0.000,0
39960.862,-34.668,-25.879,-33.691,-27.832,0.000,0
39960.866,-28.809,-20.996,-37.109,-20.508,0.000,0
39960.870,-37.109,-18.066,-37.598,-29.785,0.000,0
39960.874,-36.133,-19.043,-29.785,-27.344,0.000,0
39960.878,-35.645,-20.020,-30.762,-28.809,0.000,0
39960.882,-39.551,-23.438,-33.691,-31.738,0.000,0
39960.886,-43.945,-32.715,-37.598,-35.156,0.000,0
39960.889,-41.504,-34.180,-40.527,-39.551,0.000,0
39960.893,-39.062,-25.391,-32.227,-31.738,0.000,0
39960.897,-23.438,-24.414,-30.762,-13.184,0.000,0
39960.901,-21.973,-28.320,-32.715,-10.742,0.000,0
39960.905,-40.039,-28.320,-31.738,-17.578,0.000,0
39960.909,-19.043,-20.508,-30.273,-5.371,0.000,0
39960.913,-3.906,-16.602,-22.461,-2.930,0.000,0
39960.917,-14.648,-23.438,-20.020,-21.484,0.000,0
39960.921,-20.996,-28.809,-27.344,-29.785,0.000,0
39960.925,-20.508,-25.391,-24.414,-31.250,0.000,0
39960.929,-24.902,-18.555,-21.484,-24.414,0.000,0
39960.932,-27.832,-22.949,-26.367,-11.719,0.000,0
39960.936,-21.484,-24.902,-25.879,-14.160,0.000,0
39960.940,-18.066,-24.902,-28.320,-17.578,0.000,0
39960.944,-33.691,-29.297,-29.297,-20.996,0.000,0
39960.948,-46.875,-30.762,-28.320,-25.391,0.000,0
39960.952,-39.551,-29.785,-31.738,-21.973,0.000,0
39960.956,-34.180,-21.973,-31.250,-23.926,0.000,0
39960.960,-22.461,-11.230,-23.926,-20.508,0.000,0
39960.964,-20.996,-12.695,-21.973,-9.277,0.000,0
39960.968,-28.809,-18.066,-25.391,-12.207,0.000,0
39960.972,-22.949,-16.113,-27.344,-12.207,0.000,0
39960.975,-14.160,-13.672,-24.414,-13.672,0.000,0
39960.979,-12.207,-16.113,-30.273,-17.090,0.000,0
39960.983,-22.949,-16.113,-32.227,-16.113,0.000,0
39960.987,-25.391,-14.160,-20.996,-25.879,0.000,0
39960.991,-37.598,-12.695,-24.902,-34.180,0.000,0
39960.995,-45.410,-18.066,-30.273,-34.668,0.000,0
39960.999,-28.320,-19.531,-29.297,-23.926,0.000,0
39961.003,-19.043,-19.531,-26.855,-30.273,0.000,0
39961.007,-26.855,-17.090,-25.391,-37.109,0.000,0
39961.011,-21.973,-20.020,-28.809,-29.297,0.000,0
39961.014,-17.578,-19.531,-24.902,-35.156,0.000,0
39961.018,-41.992,-18.066,-21.973,-38.086,0.000,0
39961.022,-45.410,-19.531,-25.879,-38.086,0.000,0
39961.026,-30.762,-18.066,-26.855,-44.434,0.000,0
39961.030,-29.297,-16.602,-30.273,-42.480,0.000,0
39961.034,-34.180,-18.066,-33.203,-41.016,0.000,0
39961.038,-41.504,-15.137,-29.785,-27.344,0.000,0
39961.042,-36.133,-13.672,-26.367,-28.809,0.000,0
39961.046,-23.926,-17.578,-30.273,-43.945,0.000,0
39961.050,-36.133,-19.531,-30.762,-39.062,0.000,0
39961.054,-38.086,-20.996,-27.344,-31.738,0.000,0
39961.057,-23.438,-19.043,-28.809,-24.902,0.000,0
39961.061,-31.250,-18.555,-27.344,-16.602,0.000,0
39961.065,-48.340,-20.996,-27.832,-19.531,0.000,0
39961.069,-53.711,-20.508,-32.715,-32.227,0.000,0
39961.073,-44.434,-21.973,-34.668,-30.273,0.000,0
39961.077,-26.367,-24.414,-35.156,-29.297,0.000,0
39961.081,-30.762,-23.438,-31.738,-34.668,0.000,0
39961.085,-41.016,-21.484,-26.855,-34.668,0.000,0
39961.089,-37.598,-24.414,-27.832,-43.945,0.000,0
39961.093,-27.832,-28.320,-28.809,-34.668,0.000,0
39961.097,-10.742,-27.344,-31.738,-28.320,0.000,0
39961.100,-6.348,-22.949,-30.273,-33.203,0.000,0
39961.104,-17.090,-24.902,-30.273,-41.992,0.000,0
39961.108,-18.555,-23.438,-33.203,-34.180,0.000,0
39961.112,-13.184,-17.578,-30.273,-23.926,0.000,0
39961.116,-9.766,-16.602,-23.438,-34.180,0.000,0
39961.120,-10.254,-17.578,-19.043,-40.527,0.000,0
39961.124,-29.785,-20.020,-25.391,-41.016,0.000,0
39961.128,-31.250,-20.996,-28.809,-37.598,0.000,0
39961.132,5.859,-20.020,-26.367,-34.668,0.000,0
39961.136,8.789,-22.461,-28.320,-18.066,0.000,0
39961.139,-17.090,-25.879,-27.344,-21.973,0.000,0
39961.143,-13.184,-25.879,-26.855,-41.504,0.000,0
39961.147,-1.953,-26.367,-32.227,-33.203,0.000,0
39961.151,-14.648,-26.855,-27.832,-18.066,0.000,0
39961.155,-19.043,-27.832,-21.484,-13.184,0.000,0
39961.159,-26.367,-32.715,-27.832,-29.297,0.000,0
39961.163,-41.016,-37.109,-33.203,-49.316,0.000,0
39961.167,-26.855,-34.180,-25.391,-47.852,0.000,0
39961.171,-20.020,-32.227,-20.996,-44.922,0.000,0
39961.175,-25.391,-27.832,-21.973,-27.832,0.000,0
39961.179,-2.441,-24.414,-22.949,-22.461,0.000,0
39961.182,7.324,-25.879,-26.367,-41.504,0.000,0
39961.186,-2.441,-28.320,-31.250,-41.504,0.000,0
39961.190,-19.531,-35.645,-37.109,-44.922,0.000,0
39961.194,-6.836,-33.203,-38.574,-45.898,0.000,0
39961.198,0.977,-27.832,-34.668,-48.340,0.000,0
39961.202,-23.926,-25.391,-33.691,-49.805,0.000,0
39961.206,-15.137,-24.902,-31.250,-44.434,0.000,0
39961.210,-11.719,-30.273,-30.762,-33.203,0.000,0
39961.214,-18.066,-33.203,-31.250,-41.504,0.000,0
39961.218,-12.207,-28.320,-29.297,-54.199,0.000,0
39961.222,-15.137,-25.391,-29.785,-38.086,0.000,0
39961.225,-11.230,-31.250,-32.227,-30.273,0.000,0
39961.229,-9.277,-33.691,-34.668,-38.086,0.000,0
39961.233,-26.367,-31.738,-34.668,-38.086,0.000,0
39961.237,-16.113,-32.227,-32.715,-37.598,0.000,0
39961.241,-11.719,-29.297,-29.785,-37.109,0.000,1
39961.245,-3.418,-26.367,-32.715,-29.785,0.000,0
39961.249,7.324,-27.344,-41.016,-34.180,0.000,0
39961.253,-19.043,-22.949,-35.156,-51.758,0.000,0
39961.257,-26.367,-24.414,-33.691,-51.270,0.000,0
39961.261,-20.996,-28.809,-31.250,-41.504,0.000,0
39961.264,-33.691,-24.902,-29.785,-57.129,0.000,0
39961.268,-32.227,-21.484,-31.738,-74.219,0.000,0
39961.272,-19.531,-21.973,-31.250,-67.871,0.000,0
39961.276,-11.719,-29.297,-32.715,-47.363,0.000,0
39961.280,-21.973,-25.879,-29.297,-38.086,0.000,0
39961.284,-11.230,-17.578,-28.320,-35.156,0.000,0
39961.288,-3.418,-17.090,-30.273,-20.508,0.000,0
39961.292,-5.859,-18.066,-24.414,-23.926,0.000,0
39961.296,-10.254,-16.602,-24.902,-26.855,0.000,0
39961.300,-1.465,-17.578,-20.996,-25.879,0.000,0
39961.304,7.324,-19.043,-16.602,-20.996,0.000,0
39961.307,-36.621,-26.367,-25.879,-31.738,0.000,0
39961.311,-67.383,-29.785,-33.691,-34.180,0.000,0
39961.315,-16.113,-23.926,-30.762,-27.832,0.000,0
39961.319,-2.441,-27.344,-26.367,-56.152,0.000,0
39961.323,-50.781,-35.645,-30.762,-51.270,0.000,0
39961.327,-39.551,-37.109,-33.691,-48.340,0.000,0
39961.331,-13.184,-25.391,-33.203,-61.523,0.000,0
39961.335,-22.949,-18.066,-25.391,-41.992,0.000,0
39961.339,-25.391,-19.043,-24.414,-28.320,0.000,0
39961.343,-6.348,-20.020,-30.273,-33.691,0.000,0
39961.347,-115.723,-31.738,-37.109,-35.645,0.000,0
39961.350,-159.668,-29.785,-44.434,-13.672,0.000,0
39961.354,16.113,-13.184,-24.414,-21.973,0.000,0
39961.358,45.410,-12.207,-16.602,-16.113,0.000,0
39961.362,3.906,-20.508,-23.438,-1.465,0.000,0
39961.366,-4.395,-23.438,-20.020,-12.207,0.000,0
39961.370,3.906,-18.555,-15.137,-10.742,0.000,0
39961.374,-11.230,-22.949,-23.926,-18.555,0.000,0
39961.378,-56.152,-23.438,-30.762,-26.367,0.000,0
39961.382,-51.270,-18.066,-28.320,-21.484,0.000,0
39961.386,-27.832,-23.438,-29.785,-33.691,0.000,0
39961.389,-65.918,-23.926,-30.273,-48.340,0.000,0
39961.393,-119.141,-20.020,-27.832,-30.762,0.000,0
39961.397,-20.508,-19.043,-21.973,-27.832,0.000,0
39961.401,3.418,-22.461,-22.461,-33.691,0.000,0
39961.405,-44.434,-25.879,-19.043,-40.039,0.000,0
39961.409,0.488,-22.949,-18.066,-36.133,0.000,0
39961.413,0.000,-21.484,-30.762,-32.227,0.000,0
39961.417,-32.715,-29.785,-30.762,-39.062,0.000,0
39961.421,-79.102,-37.109,-31.738,-46.875,0.000,0
39961.425,-45.898,-28.809,-30.273,-54.688,0.000,0
39961.429,12.207,-20.020,-10.742,-68.848,0.000,0
39961.432,-73.242,-25.879,-18.066,-46.875,0.000,0
39961.436,-82.520,-20.508,-33.203,-13.672,0.000,0
39961.440,-16.602,-11.230,-25.391,-29.785,0.000,0
39961.444,5.859,-14.648,-20.508,-27.344,0.000,0
39961.448,21.484,-17.578,-20.508,-15.625,0.000,0
39961.452,-29.785,-22.461,-29.297,-21.484,0.000,0
39961.456,-44.434,-22.949,-35.645,-33.203,0.000,0
39961.460,-62.988,-20.020,-25.391,-30.762,0.000,0
39961.464,-66.406,-27.344,-27.832,-49.805,0.000,0
39961.468,-85.449,-21.973,-28.809,-61.035,0.000,0
39961.472,-77.148,-14.160,-23.438,-44.434,0.000,0
39961.475,26.367,-21.484,-10.742,-74.219,0.000,0
39961.479,-40.527,-20.996,-9.277,-67.383,0.000,0
39961.483,-100.586,-23.438,-22.949,-48.828,0.000,0
39961.487,-38.086,-18.066,-17.090,-54.199,0.000,0
39961.491,-8.789,-16.602,-12.695,-50.293,0.000,0
39961.495,-55.664,-26.855,-13.672,-58.105,0.000,0
39961.499,-52.734,-23.926,-10.742,-59.570,0.000,0
39961.503,-61.035,-24.414,-20.508,-55.176,0.000,0
39961.507,-43.457,-26.855,-24.414,-56.641,0.000,0
39961.511,-42.480,-20.020,-15.625,-54.688,0.000,0
39961.514,-99.121,-21.484,-16.602,-49.805,0.000,0
39961.518,-92.285,-29.785,-18.066,-70.312,0.000,0
39961.522,-132.324,-32.715,-19.531,-83.008,0.000,0
39961.526,-125.488,-32.227,-27.832,-74.707,0.000,0
39961.530,-30.273,-23.926,-20.996,-67.383,0.000,0
39961.534,-57.617,-28.809,-25.879,-51.758,0.000,0
39961.538,-66.895,-34.180,-31.738,-46.875,0.000,0
39961.542,-55.664,-23.438,-15.137,-48.828,0.000,0
39961.546,-79.102,-27.832,-14.160,-70.801,0.000,0
39961.550,-76.172,-34.180,-28.320,-72.266,0.000,0
39961.554,-82.520,-34.668,-29.297,-47.852,0.000,0
39961.557,-67.871,-34.180,-19.531,-50.781,0.000,0
39961.561,-55.664,-32.715,-13.184,-49.316,0.000,0
39961.565,-62.500,-33.203,-23.926,-36.133,0.000,0
39961.569,-53.223,-33.203,-30.273,-53.223,0.000,0
39961.573,-39.551,-32.715,-26.855,-43.945,0.000,0
39961.577,-31.250,-27.344,-21.973,-20.996,0.000,0
39961.581,-31.738,-28.809,-27.832,-21.973,0.000,0
39961.585,-31.250,-28.320,-31.250,-26.855,0.000,0
39961.589,-29.297,-18.066,-21.484,-22.461,0.000,0
39961.593,-17.578,-18.555,-21.973,-21.973,0.000,0
39961.597,7.324,-15.625,-22.949,-16.602,0.000,0
39961.600,18.066,-13.672,-21.484,-8.301,0.000,0
39961.604,-7.324,-24.414,-15.625,-21.484,0.000,0
39961.608,-45.410,-28.809,-22.461,-33.691,0.000,0
39961.612,-23.926,-27.344,-26.367,-48.340,0.000,0
39961.616,5.859,-26.855,-21.973,-35.156,0.000,0
39961.620,13.672,-18.555,-18.066,-8.301,0.000,0
39961.624,-6.348,-18.555,-15.625,-14.648,0.000,0
39961.628,7.324,-16.602,-22.949,0.488,0.000,0
39961.632,6.836,-22.461,-20.996,-18.555,0.000,0
39961.636,-15.625,-32.715,-17.578,-34.180,0.000,0
39961.639,-17.578,-38.086,-33.691,-19.043,0.000,0
39961.643,-2.930,-35.645,-43.457,-6.836,0.000,0
39961.647,6.348,-20.020,-33.203,14.160,0.000,0
39961.651,-10.742,-25.391,-27.344,-24.902,0.000,0
39961.655,18.555,-30.273,-29.297,-50.293,0.000,0
39961.659,61.523,-21.973,-30.273,-10.254,0.000,0
39961.663,73.730,-20.996,-25.879,8.301,0.000,0
39961.667,67.871,-21.484,-21.484,-4.395,0.000,0
39961.671,58.594,-21.484,-20.020,-6.836,0.000,0
39961.675,67.383,-14.160,-20.508,15.625,0.000,0
39961.679,73.730,-15.137,-23.438,9.277,0.000,0
39961.682,41.016,-26.367,-27.344,-15.137,0.000,0
39961.686,47.363,-21.973,-28.320,-10.742,0.000,0
39961.690,61.523,-19.531,-24.902,-18.066,0.000,0
39961.694,54.688,-19.043,-20.508,-16.602,0.000,0
39961.698,67.871,-14.160,-21.484,13.672,0.000,0
39961.702,84.473,-12.207,-17.090,31.250,0.000,0
39961.706,73.242,-13.184,-17.090,36.133,0.000,0
39961.710,35.156,-21.484,-21.484,0.488,0.000,0
39961.714,36.621,-19.531,-17.090,0.000,0.000,0
39961.718,63.477,-12.207,-13.672,33.691,0.000,0
39961.722,54.199,-14.648,-14.160,19.531,0.000,0
39961.725,56.152,-12.695,-15.625,20.996,0.000,0
39961.729,35.156,-11.719,-15.137,25.391,0.000,0
39961.733,20.996,-6.348,-11.719,19.043,0.000,0
39961.737,49.316,6.836,-6.348,46.875,0.000,0
39961.741,24.414,-5.371,-12.207,21.484,0.000,0
39961.745,28.320,-12.207,-14.160,-15.625,0.000,0
39961.749,24.902,-13.184,-12.695,-8.789,0.000,0
39961.753,44.922,-11.719,-18.555,20.996,0.000,0
39961.757,76.172,-8.789,-18.066,40.039,0.000,0
39961.761,55.664,-17.090,-17.090,20.020,0.000,0
39961.764,57.617,-12.207,-12.695,19.043,0.000,0
39961.768,25.391,-15.625,-11.230,-0.977,0.000,0
39961.772,-9.277,-27.832,-14.648,-33.691,0.000,0
39961.776,19.531,-18.066,-18.555,3.906,0.000,0
39961.780,38.086,-10.742,-13.672,39.062,0.000,0
39961.784,3.906,-22.949,-8.301,-1.465,0.000,0
39961.788,10.254,-21.973,-15.137,-9.277,0.000,0
39961.792,25.391,-10.254,-13.672,20.020,0.000,0
39961.796,-39.062,-26.367,-10.742,-4.883,0.000,1
39961.800,-42.480,-32.227,-13.184,-25.879,0.000,0
39961.804,3.906,-11.230,-12.695,11.230,0.000,0
39961.807,-31.250,-18.555,-18.066,12.207,0.000,0
39961.811,-63.965,-31.250,-24.902,-2.930,0.000,0
39961.815,-42.969,-24.902,-21.484,5.371,0.000,0
39961.819,-10.742,-13.184,-9.277,17.578,0.000,0
39961.823,-5.859,-11.230,-11.230,17.090,0.000,0
39961.827,-21.973,-16.602,-23.438,20.508,0.000,0
39961.831,-48.340,-24.414,-23.926,-2.441,0.000,0
39961.835,-62.988,-32.715,-24.414,-25.391,0.000,0
39961.839,-45.410,-23.438,-23.438,-15.137,0.000,0
39961.843,-60.547,-22.949,-21.973,-3.418,0.000,0
39961.847,-72.266,-26.367,-19.531,-4.883,0.000,0
39961.850,-69.824,-29.297,-19.043,-30.762,0.000,0
39961.854,-71.777,-28.809,-15.625,-18.066,0.000,0
39961.858,-65.430,-24.414,-19.531,22.949,0.000,0
39961.862,-69.824,-23.926,-22.949,19.531,0.000,0
39961.866,-92.285,-30.273,-22.949,-5.371,0.000,0
39961.870,-116.211,-39.062,-29.297,-28.320,0.000,0
39961.874,-116.211,-40.039,-31.250,-20.020,0.000,0
39961.878,-112.305,-38.086,-30.762,-0.488,0.000,0
39961.882,-77.637,-29.785,-21.973,15.625,0.000,0
39961.886,-47.363,-20.508,-20.996,42.969,0.000,0
39961.889,-96.191,-34.180,-23.926,20.508,0.000,0
39961.893,-104.492,-44.434,-21.484,-3.418,0.000,0
39961.897,-57.129,-35.645,-25.391,7.324,0.000,0
39961.901,-42.969,-34.668,-24.902,10.254,0.000,0
39961.905,-43.457,-31.738,-17.578,17.090,0.000,0
39961.909,-32.227,-29.297,-19.531,15.625,0.000,0
39961.913,-25.391,-41.016,-29.785,5.859,0.000,0
39961.917,-42.969,-46.875,-29.785,-3.418,0.000,0
39961.921,-38.086,-36.133,-25.391,16.113,0.000,0
39961.925,-22.461,-33.691,-24.902,15.137,0.000,0
39961.929,-41.504,-41.504,-24.414,2.930,0.000,0
39961.932,-65.918,-43.457,-26.367,23.926,0.000,0
39961.936,-59.570,-37.598,-23.926,33.691,0.000,0
39961.940,-39.551,-27.344,-17.090,43.457,0.000,0
39961.944,-46.387,-26.367,-18.555,33.691,0.000,0
39961.948,-82.520,-29.297,-19.531,19.043,0.000,0
39961.952,-78.125,-27.344,-21.973,32.715,0.000,0
39961.956,-50.293,-27.344,-21.484,38.574,0.000,0
39961.960,-45.898,-28.809,-20.508,41.016,0.000,0
39961.964,-59.082,-28.809,-20.508,45.410,0.000,0
39961.968,-62.988,-24.902,-18.066,35.645,0.000,0
39961.972,-43.945,-24.902,-17.090,31.250,0.000,0
39961.975,-49.805,-34.180,-20.508,34.180,0.000,0
39961.979,-79.102,-36.133,-21.484,30.762,0.000,0
39961.983,-74.219,-33.203,-18.066,30.273,0.000,0
39961.987,-70.801,-31.250,-12.207,30.762,0.000,0
39961.991,-65.430,-29.785,-11.230,42.480,0.000,0
39961.995,-50.781,-36.133,-17.090,40.039,0.000,0
39961.999,-54.199,-40.039,-16.602,27.832,0.000,0
39962.003,-58.105,-40.527,-15.137,28.320,0.000,0
39962.007,-58.594,-40.039,-15.625,35.156,0.000,0
39962.011,-55.664,-40.527,-8.789,33.691,0.000,0
39962.014,-55.664,-43.457,-12.695,28.809,0.000,0
39962.018,-49.805,-40.039,-12.695,41.016,0.000,0
39962.022,-48.828,-35.156,0.000,45.410,0.000,0
39962.026,-46.387,-35.156,-0.488,29.297,0.000,0
39962.030,-35.645,-29.785,-4.395,37.109,0.000,0
39962.034,-28.320,-29.297,-5.859,48.340,0.000,0
39962.038,-24.414,-33.203,-11.719,42.480,0.000,0
39962.042,-39.062,-38.086,-16.602,38.086,0.000,0
39962.046,-40.039,-41.992,-14.160,33.203,0.000,0
39962.050,-36.133,-43.457,-7.324,34.668,0.000,0
39962.054,-24.902,-41.992,-5.859,41.992,0.000,0
39962.057,-12.695,-42.969,-6.348,44.434,0.000,0
39962.061,-26.367,-47.852,-9.277,41.504,0.000,0
39962.065,-39.551,-53.711,-13.184,31.250,0.000,0
39962.069,-29.785,-53.711,-16.602,48.340,0.000,0
39962.073,-17.090,-48.340,-14.648,55.176,0.000,0
39962.077,-31.250,-48.340,-7.812,49.316,0.000,0
39962.081,-43.945,-55.176,-11.230,44.922,0.000,0
39962.085,-33.691,-51.270,-13.184,41.016,0.000,0
39962.089,-33.203,-48.340,-9.277,56.641,0.000,0
39962.093,-33.203,-57.129,-10.742,63.965,0.000,0
39962.097,-32.227,-57.617,-14.160,62.500,0.000,0
39962.100,-20.996,-56.641,-11.719,52.246,0.000,0
39962.104,-20.996,-59.570,-8.789,41.992,0.000,0
39962.108,-25.879,-58.594,-11.230,52.734,0.000,0
39962.112,-16.113,-52.734,-8.789,58.105,0.000,0
39962.116,-7.324,-48.828,0.000,56.152,0.000,0
39962.120,-12.695,-54.199,-0.488,41.016,0.000,0
39962.124,-13.184,-59.082,-3.418,35.156,0.000,0
39962.128,-11.230,-51.758,2.441,53.223,0.000,0
39962.132,-2.930,-45.410,4.883,59.570,0.000,0
39962.136,-8.789,-47.852,4.883,62.500,0.000,0
39962.139,-19.531,-50.293,3.418,56.641,0.000,0
39962.143,-16.113,-53.711,3.418,44.922,0.000,0
39962.147,4.883,-49.805,6.836,46.387,0.000,0
39962.151,18.066,-46.875,2.930,48.828,0.000,0
39962.155,4.883,-53.711,-5.859,50.781,0.000,0
39962.159,3.418,-56.152,-4.883,59.570,0.000,0
39962.163,7.812,-52.246,2.441,51.270,0.000,0
39962.167,7.324,-48.828,0.977,49.316,0.000,0
39962.171,10.254,-44.922,-0.488,60.547,0.000,0
39962.175,15.137,-39.551,6.836,58.594,0.000,0
39962.179,8.301,-41.016,4.883,50.293,0.000,0
39962.182,-7.812,-41.504,2.930,53.711,0.000,0
39962.186,-9.766,-40.527,5.371,56.152,0.000,0
39962.190,4.883,-41.016,5.371,49.805,0.000,0
39962.194,19.531,-39.551,8.301,69.824,0.000,0
39962.198,8.301,-42.969,3.418,72.266,0.000,0
39962.202,-27.344,-52.734,-7.812,46.387,0.000,0
39962.206,-20.020,-54.688,-8.301,52.246,0.000,0
39962.210,10.254,-47.363,-5.859,64.453,0.000,0
39962.214,10.254,-43.945,-2.441,60.547,0.000,0
39962.218,-2.930,-42.969,2.930,63.477,0.000,0
39962.222,-0.977,-44.434,5.371,59.082,0.000,0
39962.225,2.441,-50.293,5.859,52.734,0.000,0
39962.229,3.418,-46.875,4.883,57.129,0.000,0
39962.233,3.418,-45.410,5.371,68.848,0.000,0
39962.237,-6.836,-50.781,3.906,62.988,0.000,0
39962.241,-10.254,-50.781,0.488,47.363,0.000,0
39962.245,-9.277,-49.316,3.418,53.711,0.000,0
39962.249,-21.484,-45.898,3.906,71.777,0.000,0
39962.253,-1.953,-42.969,2.930,67.383,0.000,0
39962.257,17.578,-44.922,0.488,57.129,0.000,0
39962.261,-17.578,-52.246,1.953,53.711,0.000,0
39962.264,-31.250,-56.152,6.836,40.039,0.000,0
39962.268,-3.906,-51.758,7.324,51.758,0.000,0
39962.272,3.418,-49.316,0.977,58.594,0.000,0
39962.276,-7.812,-52.246,-2.930,52.246,0.000,0
39962.280,-2.930,-52.246,1.465,55.664,0.000,0
39962.284,1.465,-51.758,-1.953,57.129,0.000,0
39962.288,-0.488,-43.945,1.465,63.965,0.000,0
39962.292,-8.789,-46.387,7.812,70.801,0.000,0
39962.296,-18.555,-48.340,3.906,78.613,0.000,0
39962.300,-18.066,-51.758,-0.488,58.594,0.000,0
39962.304,-13.672,-61.035,-7.324,45.410,0.000,0
39962.307,-23.438,-52.246,-4.883,59.570,0.000,0
39962.311,-15.625,-52.246,-6.836,62.012,0.000,0
39962.315,-11.230,-55.664,-9.277,53.711,0.000,0
39962.319,-28.809,-51.758,-6.348,41.504,0.000,0
39962.323,-32.227,-49.805,-0.488,30.762,0.000,0
39962.327,-9.766,-46.387,3.906,44.922,0.000,0
39962.331,-12.695,-41.016,-0.977,52.734,0.000,0
39962.335,-30.273,-40.039,-5.371,42.480,0.000,0
39962.339,-25.879,-41.992,0.488,48.340,0.000,0
39962.343,-16.602,-47.363,-0.488,49.316,0.000,0
39962.347,-17.090,-48.828,-8.301,59.570,0.000,0
39962.350,-26.855,-48.828,-8.789,57.617,0.000,0
39962.354,-28.320,-50.781,-8.789,43.945,0.000,0
39962.358,-13.184,-41.992,-6.348,51.270,0.000,0
39962.362,-19.043,-43.457,2.930,36.133,0.000,0
39962.366,-35.645,-50.781,6.836,23.438,0.000,0
39962.370,-26.367,-47.852,6.836,32.227,0.000,0
39962.374,-23.438,-45.410,6.348,30.762,0.000,0
39962.378,-38.086,-46.875,3.418,20.996,0.000,0
39962.382,-35.645,-47.363,3.906,15.625,0.000,0
39962.386,-26.855,-45.410,4.395,22.461,0.000,0
39962.389,-43.457,-40.527,7.324,33.691,0.000,0
39962.393,-48.340,-40.527,8.301,35.156,0.000,0
39962.397,-42.969,-41.016,7.812,35.645,0.000,0
39962.401,-30.762,-44.434,11.230,34.668,0.000,0
39962.405,-31.738,-44.922,13.184,40.039,0.000,0
39962.409,-28.320,-43.945,15.137,43.457,0.000,0
39962.413,-32.227,-49.316,10.742,31.250,0.000,0
39962.417,-33.203,-48.340,7.324,18.066,0.000,0
39962.421,-23.926,-48.340,11.719,20.020,0.000,0
39962.425,-37.109,-45.410,10.742,30.762,0.000,0
39962.429,-36.133,-49.316,6.348,22.461,0.000,0
39962.432,-26.855,-57.129,-0.488,19.043,0.000,0
39962.436,-38.574,-54.199,-3.906,20.020,0.000,0
39962.440,-46.875,-52.246,-0.977,18.066,0.000,0
39962.444,-52.734,-52.734,-0.977,20.508,0.000,0
39962.448,-39.551,-53.223,-0.977,20.020,0.000,0
39962.452,-18.555,-53.711,0.488,24.414,0.000,0
39962.456,-29.785,-48.828,2.930,31.250,0.000,0
39962.460,-38.574,-43.457,8.301,20.508,0.000,0
39962.464,-31.738,-46.875,3.906,23.438,0.000,0
39962.468,-19.043,-40.527,1.953,33.203,0.000,0
39962.472,-26.367,-42.969,6.836,33.691,0.000,1
39962.475,-28.320,-47.852,5.859,33.691,0.000,0
39962.479,-14.648,-41.504,4.395,23.438,0.000,0
39962.483,-23.438,-38.574,2.930,28.320,0.000,0
39962.487,-46.387,-35.156,2.930,33.691,0.000,0
39962.491,-15.137,-39.551,3.906,24.414,0.000,0
39962.495,-6.348,-46.387,2.441,22.461,0.000,0
39962.499,-46.875,-46.387,2.930,15.137,0.000,0
39962.503,-33.203,-41.992,9.277,28.320,0.000,0
39962.507,-13.184,-36.133,16.602,45.898,0.000,0
39962.511,-20.020,-41.016,10.742,35.156,0.000,0
39962.514,-21.484,-46.875,2.441,27.832,0.000,0
39962.518,-22.949,-48.828,-4.395,18.555,0.000,0
39962.522,-28.809,-48.340,-4.395,12.695,0.000,0
39962.526,-16.113,-45.410,0.488,21.973,0.000,0
39962.530,-22.949,-45.898,-3.906,13.184,0.000,0
39962.534,-28.809,-48.828,-3.906,7.812,0.000,0
39962.538,-1.465,-44.434,4.395,15.625,0.000,0
39962.542,0.488,-39.062,8.301,17.090,0.000,0
39962.546,-14.160,-43.457,5.371,8.301,0.000,0
39962.550,-8.789,-46.875,-0.488,15.137,0.000,0
39962.554,5.371,-44.434,-2.930,23.926,0.000,0
39962.557,-5.859,-43.457,-0.488,12.207,0.000,0
39962.561,-16.113,-42.480,6.836,17.090,0.000,0
39962.565,-4.883,-44.922,8.789,28.320,0.000,0
39962.569,0.977,-49.316,4.395,31.738,0.000,0
39962.573,-10.254,-48.340,-0.977,29.297,0.000,0
39962.577,-27.344,-52.734,-6.836,7.324,0.000,0
39962.581,-4.883,-48.340,-3.418,15.625,0.000,0
39962.585,10.254,-39.062,-1.465,48.340,0.000,0
39962.589,5.859,-46.875,-6.836,47.363,0.000,0
39962.593,4.395,-51.758,-1.953,42.969,0.000,0
39962.597,32.227,-51.270,8.301,49.316,0.000,0
39962.600,35.645,-50.293,2.930,46.387,0.000,0
39962.604,36.133,-49.316,-9.277,43.945,0.000,0
39962.608,33.203,-55.176,-10.742,41.992,0.000,0
39962.612,20.996,-58.594,-26.855,51.758,0.000,0
39962.616,46.387,-58.105,-21.484,60.547,0.000,0
39962.620,57.129,-59.570,-6.348,44.922,0.000,0
39962.624,36.621,-50.781,-0.488,47.852,0.000,0
39962.628,43.457,-43.945,8.789,44.434,0.000,0
39962.632,35.156,-47.852,-7.812,36.133,0.000,0
39962.636,9.277,-50.293,-21.484,41.992,0.000,0
39962.639,12.695,-41.016,-16.113,47.852,0.000,0
39962.643,21.484,-37.109,-18.066,43.457,0.000,0
39962.647,20.020,-38.574,-2.441,39.062,0.000,0
39962.651,24.414,-36.621,9.277,54.688,0.000,0
39962.655,42.480,-32.227,-6.348,59.570,0.000,0
39962.659,24.414,-33.691,-14.648,59.570,0.000,0
39962.663,-15.625,-44.922,-9.277,50.293,0.000,0
39962.667,-6.836,-32.227,15.625,48.340,0.000,0
39962.671,0.000,-32.715,12.695,52.246,0.000,0
39962.675,6.348,-35.645,1.465,61.523,0.000,0
39962.679,5.371,-26.367,-3.418,59.082,0.000,0
39962.682,-24.902,-37.598,-20.020,44.922,0.000,0
39962.686,-13.184,-45.898,-15.137,27.344,0.000,0
39962.690,-3.906,-43.457,-5.371,37.109,0.000,0
39962.694,-5.371,-36.133,0.977,51.270,0.000,0
39962.698,-24.902,-43.457,-14.160,36.621,0.000,0
39962.702,-36.133,-44.922,-20.020,46.875,0.000,0
39962.706,-18.555,-37.109,-4.883,45.898,0.000,0
39962.710,-25.391,-41.504,-9.766,37.109,0.000,0
39962.714,-38.086,-44.922,-1.953,36.133,0.000,0
39962.718,-35.156,-43.457,-0.488,25.391,0.000,0
39962.722,-41.504,-52.734,-19.043,29.297,0.000,0
39962.725,-50.293,-53.223,-19.043,37.598,0.000,0
39962.729,-50.781,-46.387,-13.672,44.922,0.000,0
39962.733,-39.062,-41.504,-7.324,47.852,0.000,0
39962.737,-57.617,-39.551,-6.836,28.809,0.000,0
39962.741,-62.012,-47.363,-12.695,34.180,0.000,0
39962.745,-44.434,-43.945,-10.742,37.598,0.000,0
39962.749,-45.410,-34.180,-8.789,42.969,0.000,0
39962.753,-60.547,-48.828,-19.531,32.227,0.000,0
39962.757,-72.754,-53.711,-16.602,0.488,0.000,0
39962.761,-71.289,-45.410,-14.160,4.883,0.000,0
39962.764,-62.988,-42.969,-20.020,24.902,0.000,0
39962.768,-62.500,-42.969,-20.996,14.648,0.000,0
39962.772,-63.477,-43.457,-14.160,-4.883,0.000,0
39962.776,-47.852,-44.922,-18.066,-17.090,0.000,0
39962.780,-38.086,-44.922,-23.926,-17.578,0.000,0
39962.784,-40.039,-42.969,-18.555,-17.090,0.000,0
39962.788,-24.902,-35.156,-12.695,-9.766,0.000,0
39962.792,-21.973,-40.039,-13.184,-13.184,0.000,0
39962.796,-44.434,-50.781,-19.531,-34.668,0.000,0
39962.800,-49.316,-48.340,-17.090,-22.461,0.000,0
39962.804,-41.504,-42.969,-13.672,-5.371,0.000,0
39962.807,-49.316,-41.992,-18.555,-16.113,0.000,0
39962.811,-63.477,-40.527,-22.949,-26.855,0.000,0
39962.815,-71.777,-41.992,-21.973,-31.250,0.000,0
39962.819,-70.801,-43.457,-19.531,-33.691,0.000,0
39962.823,-52.246,-45.410,-22.949,-44.434,0.000,0
39962.827,-52.246,-51.270,-22.949,-57.129,0.000,0
39962.831,-66.895,-52.246,-19.531,-55.176,0.000,0
39962.835,-64.453,-47.852,-18.555,-61.035,0.000,0
39962.839,-67.871,-43.457,-20.020,-60.059,0.000,0
39962.843,-72.754,-48.828,-24.902,-60.547,0.000,0
39962.847,-83.984,-48.828,-27.344,-62.012,0.000,0
39962.850,-82.520,-40.039,-14.648,-52.734,0.000,0
39962.854,-79.102,-45.410,-10.742,-59.570,0.000,0
39962.858,-81.543,-59.570,-22.949,-58.594,0.000,0
39962.862,-76.660,-55.176,-24.414,-56.641,0.000,0
39962.866,-57.129,-47.363,-20.020,-47.363,0.000,0
39962.870,-50.293,-45.898,-22.461,-42.969,0.000,0
39962.874,-60.547,-46.387,-22.461,-57.617,0.000,0
39962.878,-64.941,-49.316,-20.508,-58.105,0.000,0
39962.882,-46.875,-43.945,-24.902,-33.203,0.000,0
39962.886,-26.367,-41.016,-24.902,-20.508,0.000,0
39962.889,-56.152,-50.293,-26.855,-42.969,0.000,0
39962.893,-70.312,-42.969,-20.020,-46.875,0.000,0
39962.897,-45.410,-33.691,-17.090,-33.691,0.000,0
39962.901,-49.805,-37.109,-21.973,-32.715,0.000,0
39962.905,-65.430,-43.457,-30.273,-47.363,0.000,0
39962.909,-59.082,-46.875,-28.320,-50.781,0.000,0
39962.913,-57.129,-46.387,-22.949,-44.922,0.000,0
39962.917,-58.594,-49.316,-22.949,-38.574,0.000,0
39962.921,-48.340,-37.598,-13.672,-21.973,0.000,0
39962.925,-23.438,-20.020,-12.207,-8.789,0.000,0
39962.929,-21.973,-36.133,-18.555,-24.414,0.000,0
39962.932,-34.668,-48.828,-25.391,-36.133,0.000,0
39962.936,-57.617,-38.574,-26.367,-38.574,0.000,0
39962.940,-60.059,-20.508,-23.438,-53.711,0.000,0
39962.944,-46.875,-27.832,-25.879,-48.340,0.000,0
39962.948,-41.504,-38.086,-15.625,-33.203,0.000,0
39962.952,-31.250,-19.531,-2.441,-24.414,0.000,0
39962.956,-31.250,-22.949,-14.648,-42.969,0.000,0
39962.960,-29.785,-44.922,-36.621,-56.641,0.000,0
39962.964,-51.270,-43.457,-29.785,-53.711,0.000,0
39962.968,-78.613,-40.039,-30.273,-60.547,0.000,0
39962.972,-47.363,-39.551,-29.785,-54.199,0.000,0
39962.975,-28.809,-18.066,-14.648,-60.547,0.000,0
39962.979,-20.020,-10.254,-10.742,-59.082,0.000,0
39962.983,-19.043,-33.203,-20.508,-60.547,0.000,0
39962.987,-28.809,-30.762,-21.973,-71.289,0.000,0
39962.991,-28.320,-29.297,-20.996,-75.195,0.000,0
39962.995,-32.227,-35.645,-28.320,-81.543,0.000,0
39962.999,-21.973,-20.020,-27.832,-69.824,0.000,0
39963.003,-10.254,-13.672,-29.297,-62.988,0.000,0
39963.007,-12.695,-32.715,-40.039,-70.801,0.000,0
39963.011,-14.648,-33.203,-53.711,-76.660,0.000,0
39963.014,-14.160,-16.113,-63.477,-72.754,0.000,0
39963.018,-7.324,-14.160,-14.648,-65.430,0.000,0
39963.022,0.488,-8.789,12.695,-61.035,0.000,0
39963.026,4.883,-1.465,-1.953,-62.500,0.000,0
39963.030,-14.160,-13.184,-16.113,-77.148,0.000,0
39963.034,-21.484,-35.156,-19.531,-78.613,0.000,0
39963.038,-17.090,-33.691,-22.461,-66.406,0.000,0
39963.042,-31.250,-36.133,-37.109,-79.590,0.000,0
39963.046,-23.926,-20.508,-24.414,-69.336,0.000,0
39963.050,-3.906,-6.348,-10.742,-68.848,0.000,0
39963.054,-15.625,-27.344,-29.785,-84.961,0.000,0
39963.057,-41.992,-29.297,-49.805,-72.266,0.000,0
39963.061,-38.574,-26.367,-36.621,-74.219,0.000,0
39963.065,-29.297,-24.902,-59.570,-69.336,0.000,0
39963.069,-34.668,-26.855,-66.406,-82.031,0.000,0
39963.073,-48.340,-22.949,-18.555,-102.539,0.000,0
39963.077,-42.480,-11.719,-8.789,-76.660,0.000,0
39963.081,-54.199,-19.043,-12.695,-79.590,0.000,0
39963.085,-75.684,-27.832,-28.809,-91.309,0.000,0
39963.089,-84.961,-27.832,-41.504,-89.355,0.000,0
39963.093,-69.824,-17.090,-25.391,-71.289,0.000,0
39963.097,-55.176,-12.207,-20.020,-69.824,0.000,0
39963.100,-74.707,-16.602,-29.297,-84.961,0.000,0
39963.104,-76.172,-20.508,-29.297,-76.660,0.000,0
39963.108,-65.430,-24.902,-26.855,-77.637,0.000,0
39963.112,-80.566,-15.625,-27.344,-83.984,0.000,1
39963.116,-88.379,-9.277,-26.367,-72.266,0.000,0
39963.120,-80.566,-18.066,-33.203,-69.336,0.000,0
39963.124,-67.383,-14.160,-39.551,-81.055,0.000,0
39963.128,-72.266,-10.742,-39.551,-96.191,0.000,0
39963.132,-73.730,-17.578,-40.039,-101.562,0.000,0
39963.136,-62.012,-16.113,-35.645,-93.262,0.000,0
39963.139,-68.848,-8.301,-21.973,-83.984,0.000,0
39963.143,-84.961,-7.812,-23.438,-78.125,0.000,0
39963.147,-89.355,-16.602,-34.180,-93.750,0.000,0
39963.151,-74.219,-28.320,-32.715,-114.746,0.000,0
39963.155,-67.383,-29.785,-32.715,-109.863,0.000,0
39963.159,-57.617,-19.531,-32.227,-93.750,0.000,0
39963.163,-47.363,-14.160,-33.203,-82.520,0.000,0
39963.167,-47.852,-20.508,-37.598,-85.938,0.000,0
39963.171,-53.711,-22.949,-39.551,-95.215,0.000,0
39963.175,-51.758,-22.949,-38.574,-95.703,0.000,0
39963.179,-39.551,-19.043,-28.809,-92.285,0.000,0
39963.182,-33.691,-18.555,-20.508,-86.914,0.000,0
39963.186,-43.945,-25.879,-27.832,-99.121,0.000,0
39963.190,-49.316,-30.273,-35.156,-112.305,0.000,0
39963.194,-34.668,-27.344,-36.133,-106.934,0.000,0
39963.198,-21.484,-24.902,-30.762,-107.910,0.000,0
39963.202,-17.090,-19.531,-17.578,-104.980,0.000,0
39963.206,-24.902,-14.160,-17.090,-104.004,0.000,0
39963.210,-20.996,-20.508,-22.461,-117.188,0.000,0
39963.214,-23.926,-22.949,-28.320,-117.188,0.000,0
39963.218,-35.156,-16.113,-28.320,-104.980,0.000,0
39963.222,-26.367,-12.207,-22.461,-106.445,0.000,0
39963.225,-28.809,-14.648,-24.414,-114.746,0.000,0
39963.229,-43.457,-15.625,-25.879,-113.281,0.000,0
39963.233,-46.387,-12.695,-34.180,-104.492,0.000,0
39963.237,-33.203,-19.043,-41.992,-110.352,0.000,0
39963.241,-12.207,-24.902,-39.551,-114.746,0.000,0
39963.245,-3.418,-20.996,-31.738,-106.445,0.000,0
39963.249,-28.809,-27.832,-33.203,-112.793,0.000,0
39963.253,-34.180,-27.832,-35.156,-117.676,0.000,0
39963.257,-12.695,-23.438,-31.738,-115.234,0.000,0
39963.261,-15.137,-24.902,-30.762,-108.398,0.000,0
39963.264,-24.414,-23.438,-27.832,-106.934,0.000,0
39963.268,-8.301,-21.484,-30.762,-108.398,0.000,0
39963.272,8.301,-19.043,-31.738,-102.539,0.000,0
39963.276,0.000,-11.719,-27.832,-102.539,0.000,0
39963.280,-12.695,-18.555,-36.133,-114.258,0.000,0
39963.284,0.000,-29.785,-42.480,-112.793,0.000,0
39963.288,15.625,-23.926,-33.691,-110.840,0.000,0
39963.292,2.441,-21.973,-33.203,-114.746,0.000,0
39963.296,-5.859,-22.949,-34.180,-108.887,0.000,0
39963.300,5.859,-19.043,-29.785,-98.633,0.000,0
39963.304,14.648,-18.066,-28.320,-102.051,0.000,0
39963.307,14.160,-19.531,-29.785,-109.863,0.000,0
39963.311,16.113,-20.020,-35.156,-106.934,0.000,0
39963.315,4.883,-23.438,-38.086,-106.445,0.000,0
39963.319,-3.418,-25.879,-36.621,-100.586,0.000,0
39963.323,0.488,-20.020,-33.203,-88.379,0.000,0
39963.327,5.371,-11.719,-30.762,-92.773,0.000,0
39963.331,10.742,-13.184,-33.691,-102.051,0.000,0
39963.335,9.766,-18.066,-31.250,-96.191,0.000,0
39963.339,-5.859,-20.996,-33.203,-93.262,0.000,0
39963.343,-6.836,-18.555,-37.109,-89.844,0.000,0
39963.347,3.906,-25.391,-41.016,-105.957,0.000,0
39963.350,-8.789,-27.832,-43.457,-107.910,0.000,0
39963.354,-17.090,-21.484,-44.922,-99.609,0.000,0
39963.358,-15.625,-18.066,-39.551,-84.473,0.000,0
39963.362,-17.578,-17.578,-35.645,-73.730,0.000,0
39963.366,-29.297,-21.973,-42.969,-91.309,0.000,0
39963.370,-45.410,-29.785,-50.293,-92.773,0.000,0
39963.374,-51.270,-29.785,-54.199,-83.496,0.000,0
39963.378,-24.414,-19.043,-46.387,-86.426,0.000,0
39963.382,-10.254,-12.207,-37.598,-80.078,0.000,0
39963.386,-29.297,-15.137,-32.715,-85.449,0.000,0
39963.389,-25.879,-17.578,-35.156,-96.680,0.000,0
39963.393,-12.207,-11.230,-37.598,-87.891,0.000,0
39963.397,-32.227,-19.043,-39.062,-84.961,0.000,0
39963.401,-33.203,-26.367,-44.434,-84.473,0.000,0
39963.405,-18.555,-21.484,-41.016,-90.820,0.000,0
39963.409,-28.809,-21.484,-40.527,-85.938,0.000,0
39963.413,-21.484,-18.066,-41.016,-83.984,0.000,0
39963.417,-15.625,-10.742,-34.668,-95.215,0.000,0
39963.421,-36.621,-13.672,-33.691,-95.703,0.000,0
39963.425,-29.785,-11.230,-34.668,-98.633,0.000,0
39963.429,-31.250,-11.719,-35.645,-99.609,0.000,0
39963.432,-37.598,-17.578,-42.969,-101.074,0.000,0
39963.436,-17.578,-19.531,-46.875,-104.980,0.000,0
39963.440,-22.949,-23.926,-45.898,-104.980,0.000,0
39963.444,-33.691,-20.508,-36.621,-106.934,0.000,0
39963.448,-30.762,-14.648,-27.832,-109.375,0.000,0
39963.452,-33.203,-20.508,-34.668,-113.281,0.000,0
39963.456,-34.668,-28.320,-41.504,-124.512,0.000,0
39963.460,-29.785,-26.855,-43.457,-119.629,0.000,0
39963.464,-26.855,-22.461,-41.992,-110.352,0.000,0
39963.468,-31.738,-22.949,-41.992,-113.770,0.000,0
39963.472,-40.039,-27.344,-43.945,-111.816,0.000,0
39963.475,-45.410,-29.785,-41.992,-111.816,0.000,0
39963.479,-31.738,-29.785,-43.945,-120.117,0.000,0
39963.483,-16.113,-24.414,-39.551,-120.605,0.000,0
39963.487,-41.504,-25.879,-39.551,-121.094,0.000,0
39963.491,-45.898,-28.809,-43.457,-117.676,0.000,0
39963.495,-25.879,-22.949,-36.621,-112.793,0.000,0
39963.499,-22.949,-22.949,-36.133,-107.910,0.000,0
39963.503,-38.574,-32.227,-45.410,-115.723,0.000,0
39963.507,-37.598,-30.273,-46.875,-131.836,0.000,0
39963.511,-36.133,-26.855,-42.969,-121.094,0.000,0
39963.514,-48.340,-30.273,-44.922,-109.375,0.000,0
39963.518,-51.758,-27.344,-42.480,-106.445,0.000,0
39963.522,-51.758,-24.902,-37.109,-102.051,0.000,0
39963.526,-44.434,-26.367,-38.086,-109.375,0.000,0
39963.530,-43.945,-24.902,-41.504,-103.027,0.000,0
39963.534,-48.340,-25.879,-39.062,-98.633,0.000,0
39963.538,-47.852,-21.973,-34.180,-102.051,0.000,0
39963.542,-39.062,-24.902,-37.109,-107.422,0.000,0
39963.546,-34.180,-27.832,-34.668,-104.004,0.000,0
39963.550,-32.227,-21.484,-33.203,-90.332,0.000,0
39963.554,-35.645,-19.043,-34.180,-88.867,0.000,0
39963.557,-36.621,-16.602,-30.273,-97.168,0.000,0
39963.561,-46.875,-16.602,-29.297,-102.051,0.000,0
39963.565,-59.082,-21.484,-31.250,-101.074,0.000,0
39963.569,-39.062,-23.438,-32.715,-94.238,0.000,0
39963.573,-25.391,-24.414,-31.738,-88.379,0.000,0
39963.577,-33.691,-25.391,-31.738,-83.496,0.000,0
39963.581,-33.691,-29.297,-40.039,-93.750,0.000,0
39963.585,-28.809,-29.297,-41.504,-97.656,0.000,0
39963.589,-29.297,-25.391,-41.016,-93.262,0.000,0
39963.593,-27.344,-21.484,-41.504,-96.680,0.000,0
39963.597,-28.809,-22.949,-38.086,-94.238,0.000,0
39963.600,-36.621,-29.297,-35.156,-93.750,0.000,0
39963.604,-38.086,-22.949,-30.273,-94.727,0.000,0
39963.608,-35.156,-16.113,-28.320,-88.379,0.000,0
39963.612,-47.852,-24.902,-41.992,-89.355,0.000,0
39963.616,-34.668,-23.926,-39.551,-75.195,0.000,0
39963.620,-33.203,-26.855,-32.227,-78.613,0.000,0
39963.624,-39.551,-24.902,-31.250,-90.332,0.000,0
39963.628,-20.020,-12.695,-27.344,-95.215,0.000,0
39963.632,-43.945,-34.668,-41.504,-129.395,0.000,0
39963.636,-43.457,-30.762,-33.203,-120.117,0.000,0
39963.639,-12.695,-3.906,-14.648,-85.938,0.000,0
39963.643,-20.508,-12.207,-26.855,-94.238,0.000,0
39963.647,-39.062,-23.926,-41.016,-98.633,0.000,0
39963.651,-30.762,-16.602,-35.645,-84.473,0.000,0
39963.655,-26.367,-7.324,-29.297,-78.613,0.000,0
39963.659,-22.949,-11.230,-38.574,-89.355,0.000,0
39963.663,-25.391,-20.996,-45.410,-89.844,0.000,0
39963.667,-38.086,-19.531,-41.504,-82.520,0.000,0
39963.671,-46.387,-11.230,-33.691,-78.125,0.000,0
39963.675,-41.504,-16.602,-38.574,-80.078,0.000,0
39963.679,-34.180,-20.996,-37.598,-83.008,0.000,0
39963.682,-34.180,-13.184,-27.832,-81.055,0.000,0
39963.686,-41.016,-16.602,-29.785,-76.172,0.000,0
39963.690,-41.504,-24.902,-37.598,-77.637,0.000,0
39963.694,-47.363,-26.855,-46.875,-95.703,0.000,0
39963.698,-60.547,-23.926,-49.316,-103.027,0.000,0
39963.702,-55.664,-14.160,-42.480,-102.051,0.000,0
39963.706,-53.223,-15.625,-45.898,-101.562,0.000,0
39963.710,-43.457,-19.531,-44.922,-92.773,0.000,0
39963.714,-52.734,-15.137,-39.551,-89.355,0.000,0
39963.718,-72.266,-12.207,-35.645,-94.727,0.000,0
39963.722,-51.270,-8.301,-24.902,-103.516,0.000,0
39963.725,-43.945,-5.859,-25.879,-90.332,0.000,0
39963.729,-42.480,-8.301,-30.762,-82.031,0.000,0
39963.733,-38.086,-7.324,-29.297,-82.520,0.000,0
39963.737,-45.410,-12.207,-33.691,-94.727,0.000,0
39963.741,-43.945,-16.602,-38.574,-106.934,0.000,0
39963.745,-39.551,-15.625,-42.969,-98.633,0.000,0
39963.749,-48.340,-18.555,-45.898,-91.309,0.000,0
39963.753,-35.645,-21.484,-45.898,-79.102,0.000,0
39963.757,-27.344,-20.996,-46.875,-83.008,0.000,0
39963.761,-35.645,-21.484,-44.434,-109.863,0.000,0
39963.764,-21.973,-17.578,-41.504,-109.375,0.000,0
39963.768,-22.949,-13.672,-37.109,-109.375,0.000,0
39963.772,-51.270,-21.973,-40.039,-122.070,0.000,0
39963.776,-48.828,-22.949,-41.992,-123.535,0.000,0
39963.780,-41.504,-18.555,-40.039,-133.789,0.000,0
39963.784,-44.922,-12.695,-37.598,-126.953,0.000,0
39963.788,-47.852,-15.137,-39.551,-113.281,0.000,0
39963.792,-37.598,-18.066,-43.945,-112.305,0.000,0
39963.796,-29.297,-11.230,-36.133,-97.656,0.000,0
39963.800,-42.969,-10.742,-29.785,-92.285,0.000,0
39963.804,-47.363,-13.184,-34.180,-97.656,0.000,1
39963.807,-18.066,-10.254,-39.062,-93.750,0.000,0
39963.811,-9.766,-10.254,-39.062,-89.844,0.000,0
39963.815,-14.648,-7.324,-32.227,-74.707,0.000,0
39963.819,-4.395,-6.836,-28.320,-68.848,0.000,0
39963.823,-14.648,-5.371,-30.273,-77.148,0.000,0
39963.827,-27.344,-6.836,-38.086,-81.055,0.000,0
39963.831,-16.113,-9.766,-40.527,-75.684,0.000,0
39963.835,-20.996,-7.812,-36.621,-74.219,0.000,0
39963.839,-24.414,-5.859,-35.645,-77.637,0.000,0
39963.843,-15.625,-3.418,-34.668,-65.430,0.000,0
39963.847,-23.438,-6.348,-28.320,-56.152,0.000,0
39963.850,-30.762,-11.230,-26.855,-65.918,0.000,0
39963.854,-25.879,-12.695,-37.109,-67.383,0.000,0
39963.858,-30.273,-16.602,-43.457,-69.336,0.000,0
39963.862,-43.457,-17.578,-41.504,-75.684,0.000,0
39963.866,-35.645,-16.113,-37.598,-74.219,0.000,0
39963.870,-33.203,-21.484,-39.551,-78.613,0.000,0
39963.874,-44.434,-28.320,-45.898,-85.449,0.000,0
39963.878,-37.598,-18.066,-41.016,-81.543,0.000,0
39963.882,-27.344,-9.766,-35.645,-66.895,0.000,0
39963.886,-24.902,-11.230,-43.457,-58.594,0.000,0
39963.889,-29.297,-14.160,-48.340,-53.711,0.000,0
39963.893,-40.527,-19.531,-42.969,-49.805,0.000,0
39963.897,-28.320,-19.043,-39.551,-53.711,0.000,0
39963.901,-15.625,-19.531,-42.480,-54.688,0.000,0
39963.905,-25.391,-17.090,-40.527,-46.875,0.000,0
39963.909,-27.344,-14.648,-40.527,-49.316,0.000,0
39963.913,-17.578,-17.578,-43.945,-53.711,0.000,0
39963.917,-22.949,-17.090,-40.527,-53.711,0.000,0
39963.921,-29.297,-15.625,-39.062,-55.664,0.000,0
39963.925,-32.227,-15.625,-38.086,-56.641,0.000,0
39963.929,-36.133,-17.090,-34.668,-59.570,0.000,0
39963.932,-36.621,-16.602,-37.109,-48.340,0.000,0
39963.936,-44.434,-13.672,-38.574,-47.363,0.000,0
39963.940,-49.805,-10.742,-36.133,-43.457,0.000,0
39963.944,-30.273,-11.719,-40.039,-33.203,0.000,0
39963.948,-20.020,-18.066,-43.945,-41.016,0.000,0
39963.952,-37.109,-18.066,-42.480,-54.199,0.000,0
39963.956,-37.109,-19.531,-42.480,-59.570,0.000,0
39963.960,-23.438,-22.461,-41.504,-52.734,0.000,0
39963.964,-37.109,-21.973,-44.434,-51.758,0.000,0
39963.968,-46.387,-22.949,-47.852,-52.734,0.000,0
39963.972,-29.297,-22.461,-50.293,-51.270,0.000,0
39963.975,-27.344,-24.902,-55.176,-55.664,0.000,0
39963.979,-35.156,-21.484,-52.246,-50.781,0.000,0
39963.983,-34.668,-20.996,-54.199,-49.316,0.000,0
39963.987,-20.996,-26.367,-59.570,-51.758,0.000,0
39963.991,-14.160,-19.043,-51.270,-41.992,0.000,0
39963.995,-20.508,-11.719,-42.969,-36.621,0.000,0
39963.999,-49.316,-15.137,-46.875,-38.574,0.000,0
39964.003,-34.180,-9.766,-48.340,-29.785,0.000,0
39964.007,-0.488,-9.277,-40.039,-22.461,0.000,0
39964.011,-14.160,-17.090,-42.480,-26.855,0.000,0
39964.014,-33.691,-17.090,-43.945,-38.574,0.000,0
39964.018,-27.832,-23.926,-41.016,-46.387,0.000,0
39964.022,-15.137,-23.438,-38.086,-36.621,0.000,0
39964.026,-23.438,-19.531,-40.039,-31.738,0.000,0
39964.030,-22.461,-16.113,-41.992,-24.414,0.000,0
39964.034,-11.230,-19.043,-40.527,-29.297,0.000,0
39964.038,-8.301,-17.578,-37.109,-32.715,0.000,0
39964.042,-20.508,-13.672,-34.180,-22.949,0.000,0
39964.046,-31.250,-11.230,-35.156,-26.855,0.000,0
39964.050,-15.625,-5.859,-33.203,-27.344,0.000,0
39964.054,-19.043,-5.859,-33.203,-21.484,0.000,0
39964.057,-34.180,-9.766,-32.227,-29.785,0.000,0
39964.061,-26.855,-9.277,-28.809,-33.203,0.000,0
39964.065,-11.230,-9.766,-29.297,-30.273,0.000,0
39964.069,-16.602,-7.324,-28.320,-22.461,0.000,0
39964.073,-27.832,-6.836,-23.926,-21.973,0.000,0
39964.077,-30.273,-8.301,-21.973,-24.414,0.000,0
39964.081,-29.785,-6.348,-28.809,-23.926,0.000,0
39964.085,-30.762,-6.836,-31.738,-32.227,0.000,0
39964.089,-47.363,0.000,-21.973,-22.949,0.000,0
39964.093,-37.598,0.488,-17.578,-12.207,0.000,0
39964.097,-28.320,-6.348,-23.438,-27.344,0.000,0
39964.100,-30.762,-1.953,-27.832,-26.367,0.000,0
39964.104,-19.531,0.977,-20.508,-23.438,0.000,0
39964.108,-2.441,-0.977,-19.043,-14.160,0.000,0
39964.112,-9.766,-3.906,-31.250,-11.719,0.000,0
39964.116,-43.457,-4.883,-32.227,-41.504,0.000,0
39964.120,-49.805,-6.836,-28.320,-42.480,0.000,0
39964.124,-40.039,-6.348,-29.785,-37.109,0.000,0
39964.128,-36.621,-1.465,-27.344,-37.598,0.000,0
39964.132,-36.133,-3.418,-24.902,-31.250,0.000,0
39964.136,-41.992,-7.812,-27.832,-34.668,0.000,0
39964.139,-23.926,-7.812,-28.320,-27.832,0.000,0
39964.143,-30.273,-3.418,-22.949,-18.555,0.000,0
39964.147,-44.434,-5.859,-19.043,-21.973,0.000,0
39964.151,-33.691,-13.672,-19.531,-18.555,0.000,0
39964.155,-27.832,-10.742,-20.508,-20.996,0.000,0
39964.159,-30.273,-9.277,-20.508,-20.508,0.000,0
39964.163,-23.438,-7.812,-21.973,-12.207,0.000,0
39964.167,-21.973,-8.789,-21.484,-11.719,0.000,0
39964.171,-29.785,-14.160,-26.855,-19.531,0.000,0
39964.175,-36.133,-11.719,-27.832,-24.902,0.000,0
39964.179,-35.645,-11.230,-30.762,-23.438,0.000,0
39964.182,-23.438,-11.719,-35.156,-22.949,0.000,0
39964.186,-32.227,-13.672,-36.133,-21.484,0.000,0
39964.190,-40.527,-16.602,-39.551,-27.832,0.000,0
39964.194,-34.180,-11.230,-35.156,-37.598,0.000,0
39964.198,-20.996,-2.930,-29.297,-31.250,0.000,0
39964.202,-23.926,-3.906,-29.297,-28.809,0.000,0
39964.206,-36.621,-11.719,-33.691,-28.320,0.000,0
39964.210,-26.367,-16.113,-35.156,-27.344,0.000,0
39964.214,-21.973,-16.113,-33.691,-33.691,0.000,0
39964.218,-32.227,-10.742,-34.180,-30.273,0.000,0
39964.222,-37.109,-9.766,-36.621,-28.809,0.000,0
39964.225,-35.645,-14.160,-40.039,-37.109,0.000,0
39964.229,-37.109,-18.066,-36.133,-40.527,0.000,0
39964.233,-47.852,-19.043,-32.227,-37.109,0.000,0
39964.237,-47.363,-18.066,-36.133,-36.133,0.000,0
39964.241,-44.922,-15.137,-37.109,-26.367,0.000,0
39964.245,-41.992,-10.254,-35.645,-7.812,0.000,0
39964.249,-44.434,-9.766,-30.762,-14.648,0.000,0
39964.253,-58.594,-10.742,-30.762,-23.926,0.000,0
39964.257,-45.898,-10.742,-34.668,-18.066,0.000,0
39964.261,-34.180,-13.672,-34.180,-20.996,0.000,0
39964.264,-58.594,-16.113,-36.621,-26.855,0.000,0
39964.268,-57.617,-16.602,-40.039,-18.555,0.000,0
39964.272,-41.016,-14.648,-35.645,-16.602,0.000,0
39964.276,-45.898,-12.207,-31.250,-16.602,0.000,0
39964.280,-54.199,-13.672,-31.738,-13.672,0.000,0
39964.284,-52.734,-11.230,-34.180,-21.973,0.000,0
39964.288,-38.086,-8.301,-34.180,-20.508,0.000,0
39964.292,-46.387,-10.254,-31.738,-7.812,0.000,0
39964.296,-52.246,-8.301,-32.227,-6.836,0.000,0
39964.300,-31.738,-3.906,-30.273,-13.672,0.000,0
39964.304,-27.344,-4.883,-30.762,-18.555,0.000,0
39964.307,-42.480,-6.836,-34.668,-23.926,0.000,0
39964.311,-58.105,-9.766,-40.527,-23.926,0.000,0
39964.315,-45.410,-2.441,-30.273,-13.184,0.000,0
39964.319,-30.273,8.301,-20.508,-5.371,0.000,0
39964.323,-39.062,6.348,-20.020,-9.277,0.000,0
39964.327,-38.086,3.906,-15.625,-12.695,0.000,0
39964.331,-35.645,1.465,-23.926,-14.648,0.000,0
39964.335,-36.621,-0.488,-31.738,-5.859,0.000,0
39964.339,-39.551,-4.883,-28.320,-6.836,0.000,0
39964.343,-32.715,1.465,-18.066,8.301,0.000,0
39964.347,-15.625,3.906,-16.602,0.977,0.000,0
39964.350,-28.320,-6.348,-29.297,-21.484,0.000,0
39964.354,-39.551,-1.465,-35.156,-3.418,0.000,0
39964.358,-37.109,-2.441,-35.156,-11.230,0.000,0
39964.362,-28.320,-11.230,-35.645,-22.949,0.000,0
39964.366,-14.648,-8.789,-29.297,-11.230,0.000,0
39964.370,-42.969,-5.859,-24.414,-7.324,0.000,0
39964.374,-36.621,-10.254,-32.227,-3.418,0.000,0
39964.378,-21.484,-10.742,-36.621,-3.418,0.000,0
39964.382,-38.574,-4.395,-30.273,-4.883,0.000,0
39964.386,-30.273,-5.371,-27.832,-15.137,0.000,0
39964.389,-19.531,-7.812,-29.297,-27.832,0.000,0
39964.393,-21.973,-5.859,-27.832,-20.508,0.000,0
39964.397,-27.344,-0.488,-29.785,-24.902,0.000,0
39964.401,-23.926,-0.977,-35.645,-26.855,0.000,0
39964.405,-23.438,-5.371,-38.086,-22.461,0.000,0
39964.409,-20.996,-1.465,-37.598,-29.785,0.000,0
39964.413,-15.625,0.000,-36.621,-28.809,0.000,0
39964.417,-13.672,0.000,-34.180,-28.320,0.000,0
39964.421,-0.488,-1.465,-33.691,-25.391,0.000,0
39964.425,6.348,-3.906,-33.691,-20.508,0.000,0
39964.429,0.488,-6.836,-28.809,-22.949,0.000,0
39964.432,0.488,-8.789,-30.273,-5.371,0.000,0
39964.436,0.000,-7.812,-29.785,0.977,0.000,0
39964.440,-13.184,-2.930,-25.879,-14.648,0.000,0
39964.444,-13.184,-2.930,-29.785,-14.160,0.000,0
39964.448,-9.277,-1.953,-30.273,-16.602,0.000,0
39964.452,-20.508,-10.254,-39.551,-23.926,0.000,0
39964.456,-28.320,-17.090,-40.527,-21.973,0.000,1
39964.460,-32.715,-9.766,-31.250,-20.508,0.000,0
39964.464,-14.160,-5.859,-29.297,-18.555,0.000,0
39964.468,-16.113,-11.230,-30.273,-27.344,0.000,0
39964.472,-30.273,-12.695,-35.156,-25.391,0.000,0
39964.475,-24.414,-12.207,-34.668,-20.996,0.000,0
39964.479,-21.973,-14.160,-30.762,-31.738,0.000,0
39964.483,-20.020,-15.137,-36.133,-28.320,0.000,0
39964.487,-33.203,-17.090,-36.133,-41.504,0.000,0
39964.491,-35.156,-12.207,-27.832,-36.621,0.000,0
39964.495,-19.531,-8.301,-20.508,-18.555,0.000,0
39964.499,-20.020,-7.812,-25.391,-26.855,0.000,0
39964.503,-36.621,-6.348,-23.926,-25.391,0.000,0
39964.507,-42.480,-9.277,-17.578,-24.414,0.000,0
39964.511,-20.020,-9.277,-21.973,-28.809,0.000,0
39964.514,-12.207,-7.324,-22.949,-30.762,0.000,0
39964.518,-24.902,-11.230,-18.066,-29.297,0.000,0
39964.522,-17.578,-16.113,-22.461,-27.832,0.000,0
39964.526,-19.043,-18.066,-31.738,-39.062,0.000,0
39964.530,-45.410,-24.414,-34.180,-33.203,0.000,0
39964.534,-50.293,-26.367,-26.367,-20.508,0.000,0
39964.538,-28.320,-21.484,-21.484,-27.832,0.000,0
39964.542,-37.109,-22.949,-29.785,-35.156,0.000,0
39964.546,-62.988,-21.973,-31.738,-38.574,0.000,0
39964.550,-62.500,-22.949,-25.879,-45.898,0.000,0
39964.554,-47.363,-20.020,-28.809,-38.086,0.000,0
39964.557,-51.270,-18.066,-30.762,-35.645,0.000,0
39964.561,-57.617,-21.484,-27.832,-37.598,0.000,0
39964.565,-61.035,-20.996,-29.297,-40.039,0.000,0
39964.569,-65.918,-20.020,-29.297,-39.551,0.000,0
39964.573,-62.012,-20.508,-32.715,-33.203,0.000,0
39964.577,-52.734,-21.484,-39.551,-30.762,0.000,0
39964.581,-51.270,-25.879,-34.668,-28.320,0.000,0
39964.585,-55.176,-26.855,-29.297,-30.762,0.000,0
39964.589,-48.828,-21.484,-25.879,-28.809,0.000,0
39964.593,-38.574,-16.113,-28.809,-24.414,0.000,0
39964.597,-35.156,-17.090,-36.133,-18.555,0.000,0
39964.600,-24.902,-17.578,-27.832,-18.555,0.000,0
39964.604,-29.297,-24.414,-34.180,-25.391,0.000,0
39964.608,-40.039,-25.879,-42.969,-19.043,0.000,0
39964.612,-35.156,-18.066,-39.062,-20.020,0.000,0
39964.616,-34.180,-17.090,-36.621,-27.832,0.000,0
39964.620,-30.273,-13.672,-31.738,-10.742,0.000,0
39964.624,-41.016,-13.672,-32.227,-18.066,0.000,0
39964.628,-41.992,-14.160,-28.320,-34.668,0.000,0
39964.632,-25.391,-19.043,-27.832,-23.438,0.000,0
39964.636,-25.879,-24.414,-26.855,-23.926,0.000,0
39964.639,-45.898,-24.902,-27.344,-35.645,0.000,0
39964.643,-40.527,-24.902,-28.320,-41.992,0.000,0
39964.647,-35.156,-19.531,-25.391,-40.039,0.000,0
39964.651,-57.617,-18.555,-27.832,-41.016,0.000,0
39964.655,-46.387,-18.555,-28.809,-34.180,0.000,0
39964.659,-27.344,-25.391,-36.621,-15.137,0.000,0
39964.663,-17.578,-23.926,-33.691,-20.020,0.000,0
39964.667,-32.715,-13.184,-17.578,-44.922,0.000,0
39964.671,-54.199,-12.695,-16.113,-42.480,0.000,0
39964.675,-33.203,-15.625,-28.320,-31.250,0.000,0
39964.679,-35.645,-13.184,-32.227,-42.480,0.000,0
39964.682,-40.527,-15.137,-28.320,-49.316,0.000,0
39964.686,-41.992,-16.602,-28.809,-43.945,0.000,0
39964.690,-43.945,-17.090,-35.156,-38.574,0.000,0
39964.694,-27.344,-19.043,-34.180,-34.180,0.000,0
39964.698,-33.203,-21.484,-29.785,-33.203,0.000,0
39964.702,-38.574,-22.949,-29.297,-37.109,0.000,0
39964.706,-26.855,-19.043,-26.367,-27.832,0.000,0
39964.710,-30.762,-19.043,-25.879,-22.461,0.000,0
39964.714,-28.809,-20.508,-32.715,-19.043,0.000,0
39964.718,-25.879,-26.367,-35.156,-29.785,0.000,0
39964.722,-29.297,-25.391,-29.785,-37.109,0.000,0
39964.725,-26.367,-24.902,-28.809,-37.598,0.000,0
39964.729,-43.457,-23.438,-32.715,-32.227,0.000,0
39964.733,-54.688,-20.996,-33.691,-28.809,0.000,0
39964.737,-33.203,-20.020,-33.203,-24.414,0.000,0
39964.741,-21.973,-17.090,-28.809,-25.879,0.000,0
39964.745,-41.504,-13.672,-20.508,-31.738,0.000,0
39964.749,-42.480,-17.090,-24.902,-26.367,0.000,0
39964.753,-41.992,-18.555,-28.320,-27.832,0.000,0
39964.757,-39.062,-18.555,-26.367,-23.438,0.000,0
39964.761,-19.531,-14.160,-21.484,-20.020,0.000,0
39964.764,-20.996,-8.301,-16.113,-33.203,0.000,0
39964.768,-34.180,-13.672,-15.137,-33.203,0.000,0
39964.772,-24.414,-19.043,-15.137,-24.902,0.000,0
39964.776,-23.926,-16.602,-17.090,-27.832,0.000,0
39964.780,-43.457,-14.160,-20.020,-35.156,0.000,0
39964.784,-32.715,-11.719,-22.461,-31.738,0.000,0
39964.788,-32.715,-8.789,-22.949,-14.648,0.000,0
39964.792,-42.969,-12.695,-25.879,-20.996,0.000,0
39964.796,-29.297,-18.066,-28.809,-37.109,0.000,0
39964.800,-34.668,-18.555,-31.250,-37.109,0.000,0
39964.804,-46.875,-22.461,-35.645,-41.016,0.000,0
39964.807,-46.875,-24.902,-36.133,-39.062,0.000,0
39964.811,-51.270,-23.438,-36.133,-34.668,0.000,0
39964.815,-44.922,-19.043,-34.668,-26.367,0.000,0
39964.819,-39.551,-14.648,-34.668,-20.508,0.000,0
39964.823,-36.621,-15.137,-31.738,-28.809,0.000,0
39964.827,-42.480,-15.137,-36.133,-30.762,0.000,0
39964.831,-40.039,-9.766,-39.062,-20.508,0.000,0
39964.835,-46.875,-7.324,-34.668,-23.926,0.000,0
39964.839,-42.480,-15.137,-34.668,-20.020,0.000,0
39964.843,-35.156,-15.625,-33.691,-21.484,0.000,0
39964.847,-43.945,-10.742,-31.250,-26.367,0.000,0
39964.850,-40.527,-11.230,-33.203,-14.648,0.000,0
39964.854,-32.715,-13.184,-30.762,-23.438,0.000,0
39964.858,-39.551,-14.648,-31.250,-27.832,0.000,0
39964.862,-48.828,-15.137,-40.039,-17.090,0.000,0
39964.866,-46.387,-11.719,-37.109,-21.973,0.000,0
39964.870,-42.969,-9.277,-28.809,-25.391,0.000,0
39964.874,-53.711,-8.789,-33.691,-21.484,0.000,0
39964.878,-62.012,-12.695,-41.992,-20.020,0.000,0
39964.882,-46.875,-12.695,-31.250,-23.926,0.000,0
39964.886,-36.133,-9.766,-29.785,-20.996,0.000,0
39964.889,-39.551,-14.648,-37.109,-15.137,0.000,0
39964.893,-34.668,-15.625,-36.621,-15.625,0.000,0
39964.897,-33.203,-16.602,-39.062,-25.391,0.000,0
39964.901,-33.691,-13.672,-36.133,-33.691,0.000,0
39964.905,-26.367,-10.254,-30.273,-27.344,0.000,0
39964.909,-25.391,-13.672,-33.691,-22.461,0.000,0
39964.913,-31.250,-13.184,-36.621,-15.137,0.000,0
39964.917,-27.832,-15.137,-36.133,-12.695,0.000,0
39964.921,-25.391,-18.066,-35.156,-30.762,0.000,0
39964.925,-27.344,-18.066,-33.691,-32.227,0.000,0
39964.929,-12.695,-19.531,-36.133,-26.855,0.000,0
39964.932,-8.789,-21.484,-39.551,-28.809,0.000,0
39964.936,-20.996,-18.066,-36.133,-18.555,0.000,0
39964.940,-22.461,-17.578,-32.715,-19.043,0.000,0
39964.944,-32.227,-20.020,-37.109,-32.715,0.000,0
39964.948,-33.203,-14.648,-35.645,-34.668,0.000,0
39964.952,-30.762,-13.184,-37.109,-25.879,0.000,0
39964.956,-29.785,-16.113,-38.574,-26.367,0.000,0
39964.960,-19.043,-17.090,-29.785,-26.855,0.000,0
39964.964,-20.996,-19.531,-35.645,-16.113,0.000,0
39964.968,-26.855,-20.020,-40.527,-12.695,0.000,0
39964.972,-23.438,-20.996,-37.109,-14.160,0.000,0
39964.975,-16.602,-17.578,-35.645,-22.461,0.000,1
39964.979,-22.949,-17.090,-34.180,-29.297,0.000,0
39964.983,-24.902,-16.113,-29.785,-26.855,0.000,0
39964.987,-21.484,-16.602,-27.832,-24.414,0.000,0
39964.991,-15.137,-17.090,-29.297,-23.926,0.000,0
39964.995,-17.090,-15.137,-30.273,-28.320,0.000,0
39964.999,-24.414,-15.137,-26.367,-34.180,0.000,0
39965.003,-24.902,-18.066,-26.367,-35.645,0.000,0
39965.007,-20.508,-14.648,-27.832,-34.180,0.000,0
39965.011,-11.719,-14.648,-33.203,-30.762,0.000,0
39965.014,-18.555,-13.672,-35.645,-24.414,0.000,0
39965.018,-15.625,-9.277,-30.762,-30.273,0.000,0
39965.022,-6.836,-10.254,-29.297,-38.574,0.000,0
39965.026,-16.602,-10.742,-29.785,-25.391,0.000,0
39965.030,-27.832,-17.090,-28.320,-12.207,0.000,0
39965.034,-11.719,-19.531,-29.297,-14.648,0.000,0
39965.038,-7.812,-20.996,-29.785,-22.949,0.000,0
39965.042,-28.809,-26.367,-33.691,-35.156,0.000,0
39965.046,-38.574,-25.879,-35.645,-37.598,0.000,0
39965.050,-35.156,-22.461,-29.785,-32.227,0.000,0
39965.054,-30.273,-19.043,-28.809,-28.320,0.000,0
39965.057,-28.320,-16.113,-30.273,-32.715,0.000,0
39965.061,-25.391,-16.113,-31.738,-38.086,0.000,0
39965.065,-25.879,-14.160,-28.809,-27.832,0.000,0
39965.069,-20.508,-10.254,-21.484,-27.344,0.000,0
39965.073,-23.438,-14.648,-24.902,-27.832,0.000,0
39965.077,-34.668,-14.160,-29.785,-26.855,0.000,0
39965.081,-20.020,-18.066,-30.273,-37.109,0.000,0
39965.085,-14.648,-16.113,-26.855,-34.180,0.000,0
39965.089,-30.273,-9.277,-26.367,-24.414,0.000,0
39965.093,-23.438,-8.301,-25.879,-17.578,0.000,0
39965.097,-16.602,-9.277,-26.367,-24.902,0.000,0
39965.100,-20.508,-6.348,-26.855,-29.297,0.000,0
39965.104,-24.414,-6.348,-21.973,-19.043,0.000,0
39965.108,-33.691,-10.254,-26.367,-25.391,0.000,0
39965.112,-23.438,-12.207,-31.250,-33.203,0.000,0
39965.116,-14.648,-12.207,-30.273,-29.785,0.000,0
39965.120,-35.645,-12.695,-34.180,-39.551,0.000,0
39965.124,-27.832,-11.230,-37.598,-34.668,0.000,0
39965.128,-6.836,-17.090,-33.691,-23.438,0.000,0
39965.132,-18.555,-20.996,-33.691,-32.227,0.000,0
39965.136,-34.668,-18.555,-36.621,-39.062,0.000,0
39965.139,-33.691,-15.625,-32.715,-47.363,0.000,0
39965.143,-16.602,-13.184,-23.438,-44.922,0.000,0
39965.147,-19.043,-16.113,-21.484,-37.109,0.000,0
39965.151,-40.527,-20.996,-25.391,-41.016,0.000,0
39965.155,-44.922,-22.949,-25.391,-34.180,0.000,0
39965.159,-28.320,-22.461,-24.902,-34.668,0.000,0
39965.163,-37.598,-21.973,-26.855,-41.992,0.000,0
39965.167,-49.316,-22.461,-28.809,-38.086,0.000,0
39965.171,-24.902,-25.391,-28.809,-47.363,0.000,0
39965.175,-28.320,-23.438,-29.785,-43.457,0.000,0
39965.179,-39.551,-20.508,-29.785,-44.434,0.000,0
39965.182,-31.250,-21.484,-30.273,-52.734,0.000,0
39965.186,-10.254,-18.555,-30.762,-45.898,0.000,0
39965.190,-4.883,-20.996,-35.156,-41.504,0.000,0
39965.194,-22.461,-19.531,-32.227,-35.645,0.000,0
39965.198,-32.715,-20.020,-29.297,-43.457,0.000,0
39965.202,-36.621,-20.508,-25.391,-41.992,0.000,0
39965.206,-33.203,-17.090,-23.926,-32.227,0.000,0
39965.210,-39.062,-17.090,-24.902,-39.062,0.000,0
39965.214,-33.203,-16.113,-26.855,-42.480,0.000,0
39965.218,-22.461,-17.578,-28.809,-41.016,0.000,0
39965.222,-21.973,-22.949,-30.762,-45.898,0.000,0
39965.225,-19.531,-21.484,-35.156,-43.457,0.000,0
39965.229,-18.066,-15.137,-35.156,-32.227,0.000,0
39965.233,-12.695,-16.113,-31.250,-20.996,0.000,0
39965.237,-8.301,-14.648,-27.832,-24.414,0.000,0
39965.241,-20.020,-15.137,-29.297,-30.762,0.000,0
39965.245,-16.602,-15.625,-29.785,-23.926,0.000,0
39965.249,-9.277,-14.648,-32.227,-30.762,0.000,0
39965.253,-25.391,-15.137,-28.809,-38.086,0.000,0
39965.257,-46.875,-16.113,-24.414,-35.156,0.000,0
39965.261,-40.039,-24.414,-32.227,-41.504,0.000,0
39965.264,-25.879,-21.484,-28.809,-36.133,0.000,0
39965.268,-24.902,-14.648,-24.414,-20.020,0.000,0
39965.272,-21.484,-17.578,-29.297,-22.461,0.000,0
39965.276,-41.016,-20.996,-26.855,-39.551,0.000,0
39965.280,-51.758,-23.926,-28.809,-38.574,0.000,0
39965.284,-42.480,-21.484,-30.762,-39.062,0.000,0
39965.288,-33.691,-17.578,-21.484,-43.945,0.000,0
39965.292,-33.691,-19.531,-20.508,-35.156,0.000,0
39965.296,-47.363,-19.531,-25.879,-36.133,0.000,0
39965.300,-47.363,-19.043,-25.391,-45.410,0.000,0
39965.304,-37.598,-21.973,-29.297,-39.551,0.000,0
39965.307,-28.320,-26.367,-31.738,-27.832,0.000,0
39965.311,-24.414,-23.438,-29.297,-32.715,0.000,0
39965.315,-31.250,-17.578,-25.391,-39.062,0.000,0
39965.319,-24.902,-12.695,-22.461,-38.086,0.000,0
39965.323,-14.648,-10.742,-24.414,-36.133,0.000,0
39965.327,-24.414,-15.137,-22.461,-31.250,0.000,0
39965.331,-24.902,-18.066,-20.508,-22.461,0.000,0
39965.335,-27.832,-18.066,-22.461,-18.555,0.000,0
39965.339,-31.738,-19.531,-23.438,-21.973,0.000,0
39965.343,-24.414,-14.160,-20.508,-14.160,0.000,0
39965.347,-15.625,-8.301,-19.043,-12.695,0.000,0
39965.350,6.348,-11.719,-20.020,-25.391,0.000,0
39965.354,11.719,-16.113,-23.438,-29.297,0.000,0
39965.358,-12.207,-16.113,-21.973,-30.273,0.000,0
39965.362,-26.367,-19.043,-26.367,-28.320,0.000,0
39965.366,-12.695,-22.461,-29.297,-25.391,0.000,0
39965.370,-3.418,-16.602,-24.414,-18.555,0.000,0
39965.374,-7.324,-15.137,-24.902,-20.508,0.000,0
39965.378,1.953,-12.695,-27.832,-12.207,0.000,0
39965.382,17.090,-11.230,-28.320,-14.160,0.000,0
39965.386,-3.906,-14.648,-27.832,-20.508,0.000,0
39965.389,-17.578,-17.090,-29.785,-14.648,0.000,0
39965.393,-1.953,-19.531,-31.738,-28.809,0.000,0
39965.397,12.207,-14.648,-29.785,-31.250,0.000,0
39965.401,-3.418,-15.625,-28.809,-14.648,0.000,0
39965.405,-19.531,-24.414,-35.156,-11.719,0.000,0
39965.409,-2.930,-24.902,-36.621,-18.066,0.000,0
39965.413,5.371,-19.531,-31.738,-26.855,0.000,0
39965.417,-7.324,-18.066,-31.250,-29.785,0.000,0
39965.421,-16.602,-22.949,-31.738,-28.809,0.000,0
39965.425,-10.254,-27.832,-32.227,-31.738,0.000,0
39965.429,-14.648,-23.438,-34.180,-28.809,0.000,0
39965.432,-24.414,-20.508,-33.203,-27.344,0.000,0
39965.436,-23.926,-21.484,-30.273,-33.203,0.000,0
39965.440,-16.602,-19.043,-29.785,-32.227,0.000,0
39965.444,-15.137,-23.926,-34.180,-25.391,0.000,0
39965.448,-24.902,-27.832,-29.785,-21.484,0.000,0
39965.452,-6.836,-22.949,-22.949,-29.785,0.000,0
39965.456,5.371,-19.531,-27.344,-33.203,0.000,0
39965.460,-12.207,-21.484,-26.855,-27.832,0.000,0
39965.464,-8.789,-20.020,-25.391,-35.645,0.000,0
39965.468,5.371,-15.625,-25.879,-28.320,0.000,0
39965.472,3.906,-17.578,-29.297,-27.344,0.000,0
39965.475,-1.953,-22.949,-31.250,-33.203,0.000,0
39965.479,-0.488,-22.949,-27.344,-19.531,0.000,0
39965.483,-9.277,-18.066,-30.762,-6.348,0.000,0
39965.487,-10.742,-18.555,-37.109,-14.160,0.000,0
39965.491,-21.973,-25.391,-37.109,-26.855,0.000,0
39965.495,-14.160,-28.320,-33.203,-29.297,0.000,0
39965.499,8.789,-29.785,-33.691,-21.484,0.000,0
39965.503,-12.207,-32.227,-34.668,-28.320,0.000,0
39965.507,-11.719,-29.297,-32.227,-28.809,0.000,0
39965.511,-3.906,-25.391,-30.762,-20.020,0.000,0
39965.514,-6.836,-25.879,-33.691,-30.762,0.000,0
39965.518,5.371,-26.367,-29.785,-23.438,0.000,0
39965.522,24.902,-22.461,-26.367,-1.953,0.000,0
39965.526,25.879,-16.113,-24.902,-7.812,0.000,0
39965.530,4.883,-16.602,-31.738,-20.508,0.000,0
39965.534,-4.395,-14.160,-40.527,-25.391,0.000,0
39965.538,20.020,-9.277,-31.250,-0.488,0.000,0
39965.542,21.484,-5.371,-20.508,-3.418,0.000,0
39965.546,-10.742,-7.812,-31.738,-37.109,0.000,0
39965.550,-9.277,-14.648,-36.133,-18.555,0.000,0
39965.554,-7.324,-6.348,-31.738,-26.367,0.000,0
39965.557,-3.418,-0.488,-33.691,-39.551,0.000,0
39965.561,3.906,-2.441,-36.133,-18.066,0.000,0
39965.565,-9.766,4.883,-37.598,-15.137,0.000,0
39965.569,-17.578,9.277,-36.621,-20.508,0.000,0
39965.573,-23.438,11.719,-36.133,-31.250,0.000,0
39965.577,-35.645,18.066,-38.574,-42.480,0.000,0
39965.581,-39.062,29.785,-28.809,-38.574,0.000,0
39965.585,-28.320,36.621,-25.391,-20.508,0.000,0
39965.589,-5.859,38.574,-30.273,-9.766,0.000,0
39965.593,-8.301,40.527,-28.320,-15.625,0.000,0
39965.597,-19.531,42.969,-35.645,-12.695,0.000,0
39965.600,-13.672,34.180,-37.598,-18.066,0.000,0
39965.604,-10.254,26.855,-39.062,-18.066,0.000,0
39965.608,-1.465,37.109,-33.203,-8.789,0.000,0
39965.612,7.324,35.645,-29.785,-24.414,0.000,0
39965.616,-6.348,16.602,-38.574,-25.879,0.000,0
39965.620,-24.902,7.324,-42.480,-23.438,0.000,0
39965.624,-30.273,7.812,-39.551,-26.855,0.000,0
39965.628,-29.785,0.000,-37.109,-33.691,0.000,0
39965.632,-22.949,-5.859,-41.992,-39.551,0.000,0
39965.636,-4.395,-6.836,-46.387,-27.344,0.000,0
39965.639,-7.324,-6.836,-36.621,-25.879,0.000,0
39965.643,-24.902,-9.277,-30.762,-33.691,0.000,0
39965.647,-28.809,-18.555,-39.551,-36.133,0.000,0
39965.651,-20.996,-20.996,-36.133,-35.156,0.000,0
39965.655,-17.578,-19.043,-27.832,-25.391,0.000,0
39965.659,-17.090,-24.902,-30.273,-22.949,0.000,0
39965.663,-15.625,-33.691,-36.621,-27.344,0.000,0
39965.667,-6.348,-28.320,-32.715,-13.672,0.000,0
39965.671,-16.113,-25.391,-20.996,-14.160,0.000,0
39965.675,-20.508,-26.367,-24.902,-21.484,0.000,0
39965.679,-4.883,-22.461,-38.574,-9.766,0.000,0
39965.682,-12.207,-23.926,-40.039,-10.254,0.000,0
39965.686,-27.832,-24.902,-36.133,-18.555,0.000,1
39965.690,-10.742,-23.438,-28.809,-17.090,0.000,0
39965.694,12.207,-11.230,-12.207,2.930,0.000,0
39965.698,-19.043,-20.508,-19.531,-17.578,0.000,0
39965.702,-29.785,-38.574,-36.133,-35.645,0.000,0
39965.706,-9.277,-34.668,-36.133,-13.184,0.000,0
39965.710,-5.859,-31.738,-33.203,-14.648,0.000,0
39965.714,-11.719,-28.809,-30.273,-16.113,0.000,0
39965.718,-15.137,-30.273,-38.574,-12.695,0.000,0
39965.722,-11.719,-31.738,-45.898,-15.625,0.000,0
39965.725,-8.301,-35.645,-36.621,-17.578,0.000,0
39965.729,-2.441,-36.133,-23.926,-25.879,0.000,0
39965.733,-17.578,-34.668,-21.973,-13.672,0.000,0
39965.737,0.977,-31.738,-20.508,16.113,0.000,0
39965.741,28.320,-29.297,-19.531,9.277,0.000,0
39965.745,3.906,-35.645,-25.879,-0.977,0.000,0
39965.749,0.488,-35.156,-26.855,-6.348,0.000,0
39965.753,10.254,-35.645,-30.273,-13.184,0.000,0
39965.757,-1.953,-36.621,-34.180,-6.348,0.000,0
39965.761,-15.625,-31.250,-30.762,-7.324,0.000,0
39965.764,-23.926,-29.785,-28.320,-8.789,0.000,0
39965.768,-8.301,-33.691,-29.297,-20.020,0.000,0
39965.772,1.953,-28.809,-28.809,-11.719,0.000,0
39965.776,-12.207,-22.949,-22.949,7.812,0.000,0
39965.780,-14.160,-31.738,-23.926,-10.742,0.000,0
39965.784,-0.977,-37.598,-34.668,-20.508,0.000,0
39965.788,-5.859,-33.203,-35.645,-5.859,0.000,0
39965.792,-11.719,-31.738,-33.691,-0.488,0.000,0
39965.796,-11.719,-30.273,-31.738,-5.371,0.000,0
39965.800,-9.277,-28.809,-26.855,-0.977,0.000,0
39965.804,-1.465,-25.879,-26.367,4.883,0.000,0
39965.807,-7.812,-24.902,-26.367,-7.324,0.000,0
39965.811,-15.625,-28.320,-28.809,-22.461,0.000,0
39965.815,-7.324,-32.715,-28.320,-23.926,0.000,0
39965.819,-16.113,-35.156,-30.273,-25.391,0.000,0
39965.823,-27.344,-30.273,-32.715,-21.484,0.000,0
39965.827,-8.301,-32.227,-37.598,-27.344,0.000,0
39965.831,-14.160,-29.785,-31.738,-27.344,0.000,0
39965.835,-25.879,-22.949,-26.367,-16.113,0.000,0
39965.839,-17.090,-25.391,-30.273,-19.043,0.000,0
39965.843,-13.672,-31.738,-31.738,-27.832,0.000,0
39965.847,-25.391,-31.250,-28.320,-36.621,0.000,0
39965.850,-30.273,-26.855,-24.902,-43.457,0.000,0
39965.854,-20.508,-30.273,-24.414,-44.922,0.000,0
39965.858,-20.508,-29.785,-23.926,-36.621,0.000,0
39965.862,-16.113,-26.855,-25.879,-29.297,0.000,0
39965.866,-24.414,-35.645,-36.133,-46.875,0.000,0
39965.870,-29.785,-40.527,-38.574,-52.246,0.000,0
39965.874,-24.414,-37.109,-38.086,-41.504,0.000,0
39965.878,-20.508,-34.180,-36.621,-42.480,0.000,0
39965.882,-29.297,-34.180,-38.086,-45.410,0.000,0
39965.886,-35.156,-30.273,-37.598,-44.922,0.000,0
39965.889,-39.551,-33.203,-36.621,-48.828,0.000,0
39965.893,-43.945,-33.691,-37.598,-53.711,0.000,0
39965.897,-36.133,-31.250,-33.203,-48.828,0.000,0
39965.901,-26.855,-33.203,-29.297,-41.992,0.000,0
39965.905,-35.645,-32.227,-25.391,-48.340,0.000,0
39965.909,-46.875,-30.273,-31.250,-47.363,0.000,0
39965.913,-43.945,-34.180,-38.086,-42.480,0.000,0
39965.917,-35.156,-35.156,-39.551,-49.805,0.000,0
39965.921,-36.133,-30.762,-37.598,-50.293,0.000,0
39965.925,-35.645,-34.668,-34.180,-47.852,0.000,0
39965.929,-32.715,-34.668,-36.621,-49.805,0.000,0
39965.932,-33.691,-35.156,-38.574,-46.387,0.000,0
39965.936,-44.922,-39.551,-43.457,-49.805,0.000,0
39965.940,-42.969,-38.086,-43.457,-51.758,0.000,0
39965.944,-40.527,-31.250,-35.645,-45.898,0.000,0
39965.948,-48.828,-28.809,-30.762,-47.363,0.000,0
39965.952,-49.805,-29.785,-29.785,-41.504,0.000,0
39965.956,-44.434,-31.250,-31.738,-40.039,0.000,0
39965.960,-34.180,-33.203,-40.039,-47.852,0.000,0
39965.964,-30.762,-30.762,-41.016,-46.875,0.000,0
39965.968,-36.621,-22.461,-33.203,-41.504,0.000,0
39965.972,-34.668,-19.531,-26.855,-38.574,0.000,0
39965.975,-18.066,-20.996,-22.949,-30.273,0.000,0
39965.979,-21.973,-18.555,-26.367,-23.438,0.000,0
39965.983,-30.762,-18.066,-20.508,-28.320,0.000,0
39965.987,-29.785,-20.996,-16.602,-24.902,0.000,0
39965.991,-24.414,-24.414,-19.043,-20.020,0.000,0
39965.995,-34.180,-29.297,-28.809,-36.133,0.000,0
39965.999,-53.223,-33.203,-37.598,-42.480,0.000,0
39966.003,-39.551,-33.691,-33.203,-43.945,0.000,0
39966.007,-35.645,-27.832,-35.645,-38.574,0.000,0
39966.011,-48.340,-30.273,-45.410,-30.273,0.000,0
39966.014,-29.297,-31.250,-37.598,-28.809,0.000,0
39966.018,-9.766,-23.926,-26.367,-31.250,0.000,0
39966.022,-23.438,-30.273,-32.715,-50.293,0.000,0
39966.026,-32.227,-31.250,-31.738,-43.457,0.000,0
39966.030,-32.715,-27.832,-27.832,-29.785,0.000,0
39966.034,-23.438,-27.832,-30.762,-36.133,0.000,0
39966.038,-24.902,-28.320,-37.109,-35.156,0.000,0
39966.042,-35.156,-29.785,-38.574,-36.621,0.000,0
39966.046,-36.133,-23.438,-34.668,-22.949,0.000,0
39966.050,-9.277,-20.996,-31.250,-10.254,0.000,0
39966.054,-2.441,-28.320,-33.203,-16.113,0.000,0
39966.057,-28.320,-24.902,-38.086,-29.297,0.000,0
39966.061,-8.301,-15.625,-29.297,-24.414,0.000,0
39966.065,-15.625,-14.648,-35.645,-27.344,0.000,0
39966.069,6.836,-5.371,-29.297,-2.441,0.000,0
39966.073,-10.742,-17.578,-48.828,-16.113,0.000,0
39966.077,-36.621,-18.066,-54.688,-33.691,0.000,0
39966.081,-30.762,2.930,-31.250,-25.391,0.000,0
39966.085,-43.457,4.395,-29.785,-29.785,0.000,0
39966.089,-39.062,2.930,-28.320,-25.879,0.000,0
39966.093,-40.039,20.508,-31.250,-30.762,0.000,0
39966.097,-29.297,29.785,-30.762,-27.344,0.000,0
39966.100,-38.086,31.250,-30.762,-36.621,0.000,0
39966.104,-53.711,45.410,-35.645,-50.781,0.000,0
39966.108,-26.367,53.223,-32.715,-44.922,0.000,0
39966.112,-38.574,48.828,-36.133,-41.992,0.000,0
39966.116,-50.781,55.664,-36.621,-36.133,0.000,0
39966.120,-50.781,67.871,-32.227,-35.645,0.000,0
39966.124,-53.223,73.730,-31.250,-29.297,0.000,0
39966.128,-34.668,73.730,-29.297,-23.926,0.000,0
39966.132,-32.227,76.660,-26.855,-26.855,0.000,0
39966.136,-33.691,77.637,-27.344,-36.621,0.000,0
39966.139,-24.902,81.543,-31.738,-36.133,0.000,0
39966.143,-22.461,80.078,-35.645,-29.785,0.000,0
39966.147,-31.738,72.754,-30.762,-27.832,0.000,0
39966.151,-24.414,68.848,-35.156,-35.156,0.000,0
39966.155,-10.254,60.547,-40.527,-21.973,0.000,0
39966.159,-14.648,53.223,-35.645,-16.602,0.000,0
39966.163,-16.602,50.781,-32.227,-24.414,0.000,0
39966.167,-8.789,42.969,-35.645,-14.160,0.000,0
39966.171,-14.648,29.297,-37.598,-14.648,0.000,0
39966.175,-14.160,20.508,-36.621,-16.602,0.000,0
39966.179,-17.090,5.371,-38.574,-24.902,0.000,0
39966.182,-23.926,-3.418,-40.527,-24.414,0.000,0
39966.186,-15.625,-0.488,-33.203,-10.254,0.000,0
39966.190,-20.996,-8.301,-30.273,-15.625,0.000,0
39966.194,-28.809,-19.531,-36.133,-19.043,0.000,0
39966.198,-14.648,-18.066,-32.227,-23.926,0.000,0
39966.202,-2.930,-14.648,-27.344,-25.879,0.000,0
39966.206,-4.395,-16.602,-24.902,-17.090,0.000,0
39966.210,-17.578,-26.855,-29.297,-21.973,0.000,0
39966.214,-18.555,-32.227,-34.180,-20.020,0.000,0
39966.218,-23.438,-37.598,-34.180,-25.391,0.000,0
39966.222,-31.738,-40.527,-32.715,-27.344,0.000,0
39966.225,-22.461,-38.086,-28.320,-16.113,0.000,0
39966.229,-22.949,-40.039,-29.785,-28.320,0.000,0
39966.233,-34.668,-41.992,-33.203,-29.297,0.000,0
39966.237,-32.715,-44.434,-32.715,-22.461,0.000,0
39966.241,-36.621,-51.270,-39.551,-33.691,0.000,0
39966.245,-29.785,-49.316,-39.551,-33.203,0.000,0
39966.249,-22.461,-43.945,-35.645,-24.414,0.000,0
39966.253,-34.668,-44.434,-35.645,-21.973,0.000,0
39966.257,-17.090,-45.898,-30.273,-28.809,0.000,0
39966.261,-2.441,-41.504,-27.832,-25.879,0.000,0
39966.264,-14.160,-40.039,-28.320,-21.484,0.000,0
39966.268,-21.973,-52.246,-32.715,-28.809,0.000,0
39966.272,-22.949,-55.176,-35.156,-33.203,0.000,0
39966.276,-25.391,-53.711,-36.621,-34.668,0.000,0
39966.280,-32.227,-48.828,-35.645,-32.227,0.000,0
39966.284,-30.762,-42.969,-32.227,-22.461,0.000,0
39966.288,-17.090,-47.852,-38.574,-18.555,0.000,0
39966.292,-10.742,-48.340,-33.203,-19.531,0.000,0
39966.296,-17.090,-47.852,-29.785,-21.973,0.000,0
39966.300,-16.113,-46.387,-36.133,-14.648,0.000,0
39966.304,-9.277,-39.551,-35.645,-5.371,0.000,1
39966.307,-2.441,-38.574,-33.203,-10.254,0.000,0
39966.311,-6.348,-37.598,-29.785,-4.395,0.000,0
39966.315,-4.395,-36.621,-27.344,-5.859,0.000,0
39966.319,-7.324,-48.828,-34.668,-14.648,0.000,0
39966.323,-18.555,-53.711,-35.645,-6.348,0.000,0
39966.327,-18.555,-46.875,-24.414,5.371,0.000,0
39966.331,-2.441,-43.457,-23.438,-2.441,0.000,0
39966.335,-3.906,-42.480,-31.250,-10.742,0.000,0
39966.339,-8.789,-39.062,-26.367,-13.672,0.000,0
39966.343,-21.973,-33.691,-22.461,-7.324,0.000,0
39966.347,-12.207,-36.133,-27.344,-11.230,0.000,0
39966.350,-3.418,-38.574,-25.391,-12.207,0.000,0
39966.354,-8.789,-34.668,-19.043,-11.230,0.000,0
39966.358,-15.625,-39.551,-17.578,-18.066,0.000,0
39966.362,-23.438,-46.387,-28.809,-12.695,0.000,0
39966.366,-15.625,-43.945,-30.762,-17.090,0.000,0
39966.370,-8.789,-37.109,-27.832,-12.207,0.000,0
39966.374,-26.855,-37.598,-33.203,-16.602,0.000,0
39966.378,-26.855,-40.527,-27.832,-38.574,0.000,0
39966.382,-13.672,-40.527,-32.715,-35.156,0.000,0
39966.386,-30.273,-41.992,-39.551,-34.668,0.000,0
39966.389,-44.434,-39.062,-33.203,-36.621,0.000,0
39966.393,-24.902,-31.250,-26.367,-30.273,0.000,0
39966.397,-31.738,-26.855,-25.391,-20.020,0.000,0
39966.401,-46.387,-30.762,-32.227,-24.902,0.000,0
39966.405,-33.203,-35.156,-34.668,-30.273,0.000,0
39966.409,-14.160,-33.691,-28.809,-29.297,0.000,0
39966.413,-18.555,-33.203,-28.809,-28.809,0.000,0
39966.417,-33.203,-37.109,-28.809,-34.668,0.000,0
39966.421,-28.320,-37.598,-30.273,-27.344,0.000,0
39966.425,-26.367,-35.645,-34.180,-22.461,0.000,0
39966.429,-24.902,-31.250,-31.738,-19.043,0.000,0
39966.432,-37.109,-27.832,-28.320,-16.113,0.000,0
39966.436,-29.785,-31.250,-27.832,-33.203,0.000,0
39966.440,-12.695,-31.738,-22.461,-32.227,0.000,0
39966.444,-15.625,-29.297,-22.949,-28.320,0.000,0
39966.448,-22.461,-31.738,-29.297,-36.133,0.000,0
39966.452,-24.902,-33.691,-30.762,-31.738,0.000,0
39966.456,-32.715,-34.180,-31.738,-40.039,0.000,0
39966.460,-30.273,-30.762,-28.320,-38.574,0.000,0
39966.464,-17.578,-27.832,-25.391,-26.855,0.000,0
39966.468,-14.160,-31.250,-29.785,-28.320,0.000,0
39966.472,-19.043,-28.809,-32.227,-28.809,0.000,0
39966.475,-28.809,-27.832,-31.738,-31.250,0.000,0
39966.479,-27.832,-26.367,-26.855,-22.461,0.000,0
39966.483,-13.672,-25.879,-29.785,-28.809,0.000,0
39966.487,-14.160,-23.926,-27.344,-31.250,0.000,0
39966.491,-20.508,-20.508,-22.461,-16.113,0.000,0
39966.495,-21.973,-18.555,-21.484,-16.113,0.000,0
39966.499,-17.090,-15.625,-22.461,-15.625,0.000,0
39966.503,-13.672,-16.113,-24.902,-9.766,0.000,0
39966.507,-18.066,-16.602,-23.438,-18.066,0.000,0
39966.511,-12.207,-17.578,-22.461,-20.508,0.000,0
39966.514,-15.625,-21.484,-24.902,-24.902,0.000,0
39966.518,-21.973,-23.926,-22.949,-31.738,0.000,0
39966.522,-29.785,-27.344,-23.438,-35.156,0.000,0
39966.526,-24.902,-31.738,-27.832,-34.668,0.000,0
39966.530,-20.508,-30.273,-25.391,-28.320,0.000,0
39966.534,-24.902,-27.344,-22.461,-32.715,0.000,0
39966.538,-33.691,-29.785,-21.973,-32.715,0.000,0
39966.542,-30.762,-36.133,-24.414,-28.809,0.000,0
39966.546,-10.742,-32.227,-23.438,-35.156,0.000,0
39966.550,-19.531,-26.855,-24.414,-33.203,0.000,0
39966.554,-34.668,-31.738,-31.250,-34.668,0.000,0
39966.557,-32.715,-32.227,-36.621,-38.574,0.000,0
39966.561,-44.922,-27.344,-41.504,-41.992,0.000,0
39966.565,-47.852,-32.227,-38.574,-41.992,0.000,0
39966.569,-32.227,-35.156,-29.785,-37.598,0.000,0
39966.573,-14.648,-26.367,-22.461,-36.133,0.000,0
39966.577,-18.555,-22.949,-22.949,-38.574,0.000,0
39966.581,-25.879,-25.879,-26.855,-35.156,0.000,0
39966.585,-20.020,-28.320,-27.344,-34.668,0.000,0
39966.589,-11.230,-22.949,-22.949,-31.738,0.000,0
39966.593,-20.508,-24.902,-23.438,-39.551,0.000,0
39966.597,-27.832,-32.227,-24.902,-51.758,0.000,0
39966.600,-11.719,-24.902,-18.066,-45.898,0.000,0
39966.604,-11.719,-22.461,-21.973,-31.738,0.000,0
39966.608,-25.879,-23.438,-24.414,-27.344,0.000,0
39966.612,-29.297,-25.391,-20.020,-35.156,0.000,0
39966.616,-24.902,-30.762,-28.320,-39.062,0.000,0
39966.620,-21.484,-31.250,-36.133,-31.738,0.000,0
39966.624,-26.367,-29.297,-32.715,-38.086,0.000,0
39966.628,-21.973,-30.762,-27.344,-37.109,0.000,0
39966.632,-12.207,-31.250,-24.414,-32.227,0.000,0
39966.636,-20.020,-28.809,-26.855,-37.109,0.000,0
39966.639,-36.133,-30.762,-30.762,-37.109,0.000,0
39966.643,-35.156,-28.809,-32.227,-31.250,0.000,0
39966.647,-21.973,-25.879,-32.715,-31.738,0.000,0
39966.651,-31.250,-26.367,-32.715,-36.133,0.000,0
39966.655,-45.410,-25.879,-32.227,-35.645,0.000,0
39966.659,-44.922,-19.531,-30.762,-26.855,0.000,0
39966.663,-18.066,-19.531,-32.715,-25.391,0.000,0
39966.667,-16.113,-20.996,-32.715,-21.973,0.000,0
39966.671,-32.227,-20.020,-28.320,-20.508,0.000,0
39966.675,-31.738,-20.996,-24.902,-29.297,0.000,0
39966.679,-25.391,-21.973,-31.738,-20.020,0.000,0
39966.682,-35.156,-21.973,-40.527,-14.648,0.000,0
39966.686,-39.062,-24.414,-36.621,-18.066,0.000,0
39966.690,-28.809,-22.949,-31.738,-21.973,0.000,0
39966.694,-24.414,-20.996,-30.273,-28.320,0.000,0
39966.698,-30.762,-21.973,-29.297,-20.508,0.000,0
39966.702,-42.480,-24.414,-31.738,-30.273,0.000,0
39966.706,-39.062,-24.902,-35.645,-25.879,0.000,0
39966.710,-29.785,-20.020,-31.738,-12.695,0.000,0
39966.714,-28.320,-20.020,-23.926,-31.250,0.000,0
39966.718,-43.457,-17.578,-25.391,-22.949,0.000,0
39966.722,-32.715,-20.020,-26.855,-15.137,0.000,0
39966.725,-22.949,-22.461,-26.855,-25.879,0.000,0
39966.729,-32.227,-20.020,-23.926,-26.855,0.000,0
39966.733,-33.203,-21.484,-23.438,-36.133,0.000,0
39966.737,-31.250,-25.391,-27.344,-37.598,0.000,0
39966.741,-35.645,-25.879,-27.344,-24.414,0.000,0
39966.745,-42.480,-20.508,-29.785,-19.531,0.000,0
39966.749,-45.410,-23.438,-35.156,-41.016,0.000,0
39966.753,-31.738,-25.391,-30.762,-51.270,0.000,0
39966.757,-21.484,-21.973,-31.738,-34.668,0.000,0
39966.761,-37.109,-22.461,-36.133,-32.715,0.000,0
39966.764,-43.457,-23.438,-32.715,-39.062,0.000,0
39966.768,-34.668,-25.879,-33.691,-41.992,0.000,0
39966.772,-42.480,-22.949,-32.715,-45.898,0.000,0
39966.776,-36.621,-16.113,-28.320,-33.203,0.000,0
39966.780,-20.508,-15.137,-24.902,-24.902,0.000,0
39966.784,-17.090,-15.625,-24.414,-26.367,0.000,0
39966.788,-23.926,-19.043,-27.344,-30.273,0.000,0
39966.792,-46.387,-19.531,-30.273,-38.574,0.000,0
39966.796,-52.734,-21.484,-31.250,-32.227,0.000,0
39966.800,-43.945,-28.809,-31.250,-28.320,0.000,0
39966.804,-32.715,-27.832,-29.785,-37.598,0.000,0
39966.807,-35.645,-20.508,-21.484,-32.227,0.000,0
39966.811,-29.297,-18.066,-22.949,-24.902,0.000,0
39966.815,-16.602,-21.973,-25.879,-24.414,0.000,0
39966.819,-26.367,-17.090,-20.020,-14.160,0.000,0
39966.823,-38.574,-17.090,-22.949,-21.484,0.000,0
39966.827,-31.250,-21.973,-27.344,-32.715,0.000,0
39966.831,-30.762,-17.578,-27.344,-33.203,0.000,0
39966.835,-41.992,-17.090,-29.297,-33.203,0.000,0
39966.839,-39.551,-20.508,-33.691,-33.203,0.000,0
39966.843,-46.387,-19.531,-33.203,-29.785,0.000,0
39966.847,-35.156,-20.020,-30.762,-24.414,0.000,0
39966.850,-35.645,-23.926,-29.785,-26.367,0.000,0
39966.854,-51.758,-21.484,-24.414,-29.297,0.000,0
39966.858,-34.668,-20.020,-23.926,-27.832,0.000,0
39966.862,-35.645,-23.438,-29.297,-32.227,0.000,0
39966.866,-46.875,-25.391,-29.785,-37.109,0.000,0
39966.870,-42.969,-24.414,-25.879,-37.109,0.000,0
39966.874,-38.086,-19.043,-18.555,-35.645,0.000,0
39966.878,-40.527,-16.113,-19.043,-33.203,0.000,0
39966.882,-41.016,-16.602,-24.902,-33.203,0.000,1
39966.886,-39.551,-15.625,-24.414,-34.668,0.000,0
39966.889,-50.781,-23.926,-24.902,-36.621,0.000,0
39966.893,-56.641,-27.832,-24.902,-32.715,0.000,0
39966.897,-60.059,-21.973,-29.297,-35.645,0.000,0
39966.901,-47.363,-28.809,-35.156,-46.387,0.000,0
39966.905,-38.086,-32.715,-28.809,-46.875,0.000,0
39966.909,-49.316,-28.809,-27.344,-46.875,0.000,0
39966.913,-45.898,-24.414,-30.273,-46.387,0.000,0
39966.917,-31.738,-20.508,-24.414,-39.062,0.000,0
39966.921,-33.203,-21.484,-25.879,-37.598,0.000,0
39966.925,-44.434,-23.438,-32.227,-45.898,0.000,0
39966.929,-45.410,-22.949,-30.762,-47.852,0.000,0
39966.932,-39.062,-23.438,-26.367,-37.598,0.000,0
39966.936,-43.945,-23.926,-25.391,-32.715,0.000,0
39966.940,-52.734,-24.902,-26.855,-30.762,0.000,0
39966.944,-40.527,-22.949,-23.438,-28.320,0.000,0
39966.948,-27.832,-21.484,-21.973,-29.297,0.000,0
39966.952,-36.621,-21.484,-23.438,-27.344,0.000,0
39966.956,-35.645,-19.531,-23.438,-19.531,0.000,0
39966.960,-25.879,-19.043,-29.297,-19.043,0.000,0
39966.964,-20.508,-22.949,-26.855,-26.855,0.000,0
39966.968,-29.785,-20.020,-15.625,-28.809,0.000,0
39966.972,-35.156,-18.555,-19.043,-25.391,0.000,0
39966.975,-29.297,-24.414,-28.320,-32.715,0.000,0
39966.979,-37.598,-25.391,-31.250,-43.457,0.000,0
39966.983,-53.223,-22.949,-33.691,-40.039,0.000,0
39966.987,-40.527,-20.508,-34.180,-40.527,0.000,0
39966.991,-13.184,-18.066,-29.785,-41.504,0.000,0
39966.995,-19.043,-17.090,-22.949,-35.156,0.000,0
39966.999,-39.551,-22.949,-26.367,-41.016,0.000,0
39967.003,-33.203,-26.367,-32.227,-42.480,0.000,0
39967.007,-27.832,-26.855,-27.832,-41.992,0.000,0
39967.011,-41.016,-28.809,-30.762,-48.340,0.000,0
39967.014,-45.898,-25.879,-34.668,-46.387,0.000,0
39967.018,-41.016,-20.996,-30.762,-34.180,0.000,0
39967.022,-32.227,-19.531,-29.785,-29.297,0.000,0
39967.026,-22.949,-19.043,-23.926,-41.992,0.000,0
39967.030,-24.902,-14.648,-17.090,-40.039,0.000,0
39967.034,-29.785,-13.672,-16.602,-26.855,0.000,0
39967.038,-20.020,-15.625,-18.555,-32.227,0.000,0
39967.042,-20.508,-17.578,-20.508,-29.785,0.000,0
39967.046,-29.297,-17.578,-16.602,-33.691,0.000,0
39967.050,-20.996,-15.137,-13.672,-37.109,0.000,0
39967.054,-22.461,-20.508,-20.020,-30.762,0.000,0
39967.057,-40.527,-29.785,-21.484,-32.227,0.000,0
39967.061,-33.203,-24.902,-23.438,-23.926,0.000,0
39967.065,-23.926,-20.508,-31.250,-36.621,0.000,0
39967.069,-42.480,-21.973,-30.762,-42.969,0.000,0
39967.073,-53.223,-21.973,-27.344,-30.273,0.000,0
39967.077,-42.480,-25.391,-30.762,-41.504,0.000,0
39967.081,-24.414,-20.508,-32.715,-44.434,0.000,0
39967.085,-29.297,-22.461,-30.762,-42.969,0.000,0
39967.089,-48.828,-22.949,-28.809,-40.527,0.000,0
39967.093,-40.039,-20.996,-25.391,-26.855,0.000,0
39967.097,-11.230,-24.414,-23.926,-20.020,0.000,0
39967.100,-21.973,-21.484,-26.367,-19.043,0.000,0
39967.104,-38.574,-22.461,-26.855,-34.668,0.000,0
39967.108,-32.715,-24.902,-28.320,-39.062,0.000,0
39967.112,-22.461,-22.461,-32.715,-27.832,0.000,0
39967.116,-20.020,-17.578,-26.855,-28.320,0.000,0
39967.120,-16.113,-12.695,-21.484,-25.879,0.000,0
39967.124,-8.789,-12.695,-23.438,-23.438,0.000,0
39967.128,-5.859,-14.648,-26.855,-18.066,0.000,0
39967.132,-9.766,-15.625,-27.832,-16.113,0.000,0
39967.136,-20.020,-16.113,-27.344,-10.742,0.000,0
39967.139,-12.695,-17.578,-25.879,-12.207,0.000,0
39967.143,-1.465,-15.625,-20.508,-25.879,0.000,0
39967.147,-10.254,-14.648,-23.438,-26.367,0.000,0
39967.151,-20.020,-20.020,-31.250,-19.531,0.000,0
39967.155,-17.090,-21.484,-28.809,-24.902,0.000,0
39967.159,-15.625,-24.414,-31.738,-24.902,0.000,0
39967.163,-33.203,-26.855,-34.668,-21.484,0.000,0
39967.167,-37.598,-23.438,-28.809,-25.391,0.000,0
39967.171,-27.344,-18.555,-24.902,-21.973,0.000,0
39967.175,-15.137,-11.719,-24.902,-14.160,0.000,0
39967.179,-21.973,-9.277,-24.414,-15.137,0.000,0
39967.182,-29.785,-13.184,-20.508,-17.578,0.000,0
39967.186,-15.137,-13.184,-20.020,-16.602,0.000,0
39967.190,-13.672,-9.277,-23.438,-10.742,0.000,0
39967.194,-13.672,-6.836,-22.461,-15.625,0.000,0
39967.198,-19.043,-8.789,-17.090,-11.719,0.000,0
39967.202,-23.926,-9.277,-20.508,-13.184,0.000,0
39967.206,-31.250,-15.137,-27.832,-23.438,0.000,0
39967.210,-39.551,-22.949,-32.227,-10.742,0.000,0
39967.214,-41.504,-18.066,-29.785,-4.883,0.000,0
39967.218,-50.781,-19.043,-30.762,-12.207,0.000,0
39967.222,-57.617,-24.414,-34.668,-16.602,0.000,0
39967.225,-63.477,-21.973,-29.785,-21.973,0.000,0
39967.229,-48.828,-20.996,-27.832,-20.508,0.000,0
39967.233,-37.598,-20.996,-27.344,-18.555,0.000,0
39967.237,-50.781,-18.555,-24.902,-16.602,0.000,0
39967.241,-34.668,-12.207,-20.508,-9.277,0.000,0
39967.245,-30.762,-7.812,-18.555,-12.695,0.000,0
39967.249,-45.898,-11.230,-24.414,-20.996,0.000,0
39967.253,-47.363,-16.113,-25.879,-25.879,0.000,0
39967.257,-43.457,-16.113,-20.020,-20.508,0.000,0
39967.261,-44.922,-11.719,-23.926,-19.043,0.000,0
39967.264,-51.270,-19.043,-31.250,-35.645,0.000,0
39967.268,-46.875,-22.949,-28.320,-35.645,0.000,0
39967.272,-43.457,-18.555,-25.879,-19.043,0.000,0
39967.276,-23.438,-16.113,-27.832,-15.625,0.000,0
39967.280,-33.691,-16.113,-29.785,-26.855,0.000,0
39967.284,-36.133,-11.719,-18.066,-24.902,0.000,0
39967.288,-20.996,-9.277,-16.602,-13.672,0.000,0
39967.292,-31.738,-18.555,-30.762,-23.438,0.000,0
39967.296,-35.645,-23.438,-33.691,-26.855,0.000,0
39967.300,-29.297,-23.438,-35.645,-22.461,0.000,0
39967.304,-21.973,-21.973,-31.738,-27.344,0.000,0
39967.307,-26.855,-24.414,-33.203,-26.367,0.000,0
39967.311,-35.645,-23.438,-40.527,-23.926,0.000,0
39967.315,-41.016,-18.066,-35.645,-19.043,0.000,0
39967.319,-31.738,-17.090,-32.715,-19.043,0.000,0
39967.323,-16.602,-18.555,-28.320,-20.020,0.000,0
39967.327,-17.578,-18.555,-23.438,-18.066,0.000,0
39967.331,-26.855,-25.391,-28.320,-29.297,0.000,0
39967.335,-26.855,-26.855,-31.250,-21.973,0.000,0
39967.339,-13.672,-21.484,-31.738,-3.906,0.000,0
39967.343,-26.855,-20.020,-31.738,-11.230,0.000,0
39967.347,-33.203,-19.531,-29.785,-6.836,0.000,0
39967.350,-16.113,-18.555,-25.879,0.488,0.000,0
39967.354,-16.602,-21.973,-25.391,-8.789,0.000,0
39967.358,-20.020,-16.113,-23.926,-8.301,0.000,0
39967.362,-19.531,-11.230,-18.066,-20.996,0.000,0
39967.366,-16.602,-15.625,-20.996,-28.809,0.000,0
39967.370,-12.695,-16.602,-24.414,-20.508,0.000,0
39967.374,-26.367,-19.531,-21.484,-20.996,0.000,0
39967.378,-34.180,-27.832,-25.391,-25.879,0.000,0
39967.382,-20.996,-28.809,-25.879,-44.434,0.000,0
39967.386,-21.973,-29.785,-28.809,-41.992,0.000,0
39967.389,-28.320,-32.715,-34.180,-29.785,0.000,0
39967.393,-23.926,-29.297,-29.297,-39.062,0.000,0
39967.397,-13.184,-31.250,-24.902,-40.527,0.000,0
39967.401,-20.020,-32.227,-25.391,-41.992,0.000,0
39967.405,-34.180,-29.785,-22.949,-46.875,0.000,0
39967.409,-23.926,-27.344,-24.414,-40.039,0.000,0
39967.413,-11.719,-24.414,-24.414,-34.668,0.000,0
39967.417,-24.414,-24.902,-26.367,-30.273,0.000,0
39967.421,-39.062,-22.461,-24.902,-43.945,0.000,0
39967.425,-39.062,-18.555,-25.879,-47.363,0.000,0
39967.429,-28.320,-14.160,-29.297,-34.180,0.000,0
39967.432,-33.203,-15.625,-30.762,-39.062,0.000,0
39967.436,-40.039,-17.578,-28.320,-43.457,0.000,0
39967.440,-32.715,-18.555,-21.973,-45.410,0.000,0
39967.444,-27.832,-21.973,-23.438,-54.199,0.000,0
39967.448,-29.297,-23.926,-31.250,-57.617,0.000,0
39967.452,-35.645,-20.996,-33.691,-51.758,0.000,0
39967.456,-22.461,-11.719,-31.250,-44.922,0.000,0
39967.460,-15.137,-12.207,-35.156,-52.734,0.000,0
39967.464,-37.598,-16.113,-35.645,-51.270,0.000,0
39967.468,-51.270,-18.066,-33.691,-44.922,0.000,0
39967.472,-34.180,-22.949,-38.086,-48.828,0.000,0
39967.475,-29.297,-26.855,-40.039,-45.410,0.000,0
39967.479,-37.598,-26.855,-37.598,-46.387,0.000,0
39967.483,-39.551,-27.832,-38.574,-49.316,0.000,0
39967.487,-31.738,-21.484,-38.086,-33.203,0.000,0
39967.491,-15.625,-18.066,-32.227,-20.508,0.000,0
39967.495,-15.137,-22.949,-32.715,-22.461,0.000,0
39967.499,-31.250,-29.297,-33.203,-34.668,0.000,0
39967.503,-17.090,-31.250,-30.273,-37.598,0.000,0
39967.507,0.000,-27.344,-31.738,-30.762,0.000,0
39967.511,-20.508,-21.973,-29.785,-27.832,0.000,0
39967.514,-19.043,-23.438,-29.297,-22.461,0.000,0
39967.518,-5.371,-25.391,-33.691,-17.578,0.000,0
39967.522,-14.160,-25.879,-35.156,-20.996,0.000,0
39967.526,-20.996,-23.926,-32.227,-29.297,0.000,0
39967.530,-26.367,-22.949,-34.668,-34.180,0.000,0
39967.534,-20.508,-20.996,-40.039,-28.320,0.000,0
39967.538,-15.625,-15.137,-34.668,-25.879,0.000,0
39967.542,-24.902,-13.672,-32.227,-29.297,0.000,0
39967.546,-23.438,-8.301,-33.203,-26.367,0.000,0
39967.550,-26.367,-13.184,-35.645,-27.344,0.000,0
39967.554,-42.480,-19.043,-41.016,-29.785,0.000,0
39967.557,-44.922,-19.531,-39.551,-29.297,0.000,0
39967.561,-23.926,-21.973,-37.109,-33.203,0.000,0
39967.565,-16.113,-19.531,-37.109,-25.391,0.000,0
39967.569,-22.949,-15.137,-31.738,-20.996,0.000,0
39967.573,-19.531,-14.648,-27.832,-24.414,0.000,0
39967.577,-11.230,-18.555,-29.297,-26.367,0.000,1
39967.581,-13.672,-18.555,-23.438,-28.809,0.000,0
39967.585,-16.113,-18.066,-20.020,-25.391,0.000,0
39967.589,-26.855,-21.973,-26.367,-22.949,0.000,0
39967.593,-38.574,-31.250,-32.227,-26.367,0.000,0
39967.597,-27.344,-31.738,-36.621,-27.344,0.000,0
39967.600,-26.855,-24.414,-38.086,-25.391,0.000,0
39967.604,-26.367,-20.020,-32.227,-19.043,0.000,0
39967.608,-9.277,-18.066,-28.320,-14.648,0.000,0
39967.612,-17.578,-22.949,-31.250,-23.926,0.000,0
39967.616,-25.391,-22.461,-29.297,-22.949,0.000,0
39967.620,-19.531,-24.902,-24.902,-24.902,0.000,0
39967.624,-17.578,-27.344,-27.832,-29.297,0.000,0
39967.628,-20.996,-23.438,-29.297,-20.996,0.000,0
39967.632,-32.227,-26.855,-31.250,-18.555,0.000,0
39967.636,-37.109,-29.785,-34.668,-14.160,0.000,0
39967.639,-36.621,-30.273,-32.715,-25.879,0.000,0
39967.643,-41.016,-29.297,-30.762,-29.785,0.000,0
39967.647,-33.691,-28.809,-34.180,-17.578,0.000,0
39967.651,-14.160,-21.484,-33.691,-21.484,0.000,0
39967.655,-14.160,-16.113,-29.785,-13.672,0.000,0
39967.659,-29.297,-18.066,-30.273,-13.672,0.000,0
39967.663,-28.809,-16.113,-26.855,-18.066,0.000,0
39967.667,-10.742,-16.602,-27.832,-13.184,0.000,0
39967.671,-13.184,-16.113,-25.391,-17.090,0.000,0
39967.675,-30.273,-19.531,-27.344,-30.762,0.000,0
39967.679,-34.668,-23.438,-28.809,-40.039,0.000,0
39967.682,-33.691,-22.461,-27.344,-39.062,0.000,0
39967.686,-15.625,-18.066,-28.320,-24.902,0.000,0
39967.690,-21.484,-18.555,-22.461,-31.738,0.000,0
39967.694,-28.809,-19.043,-20.508,-38.086,0.000,0
39967.698,-9.277,-22.949,-25.391,-40.527,0.000,0
39967.702,-14.160,-23.438,-24.902,-34.668,0.000,0
39967.706,-19.531,-17.090,-20.508,-17.090,0.000,0
39967.710,-19.531,-20.020,-25.879,-23.438,0.000,0
39967.714,-19.531,-15.137,-26.855,-26.855,0.000,0
39967.718,-20.508,-11.230,-24.414,-25.391,0.000,0
39967.722,-22.461,-16.602,-24.414,-20.996,0.000,0
39967.725,-6.348,-14.160,-28.320,-12.207,0.000,0
39967.729,-8.301,-15.625,-35.156,-7.812,0.000,0
39967.733,-32.715,-19.531,-35.156,-9.766,0.000,0
39967.737,-39.551,-22.949,-33.203,-22.949,0.000,0
39967.741,-30.762,-22.949,-28.809,-13.672,0.000,0
39967.745,-29.297,-19.043,-20.996,1.465,0.000,0
39967.749,-37.109,-21.973,-21.484,-5.371,0.000,0
39967.753,-37.109,-24.902,-25.879,-11.719,0.000,0
39967.757,-36.621,-28.809,-27.344,-25.879,0.000,0
39967.761,-29.297,-24.414,-23.926,-27.832,0.000,0
39967.764,-27.344,-20.996,-26.367,-15.625,0.000,0
39967.768,-33.203,-25.879,-37.109,-15.625,0.000,0
39967.772,-29.297,-25.879,-33.203,-12.207,0.000,0
39967.776,-36.621,-26.367,-28.809,-21.973,0.000,0
39967.780,-47.852,-26.367,-31.250,-22.461,0.000,0
39967.784,-46.875,-24.414,-29.785,-13.184,0.000,0
39967.788,-32.715,-22.461,-23.926,-20.508,0.000,0
39967.792,-25.391,-22.949,-27.344,-26.855,0.000,0
39967.796,-38.574,-24.902,-32.715,-33.203,0.000,0
39967.800,-32.227,-23.926,-28.320,-33.203,0.000,0
39967.804,-30.273,-24.414,-33.691,-29.785,0.000,0
39967.807,-41.504,-28.809,-36.621,-23.438,0.000,0
39967.811,-39.551,-28.320,-34.180,-22.461,0.000,0
39967.815,-37.109,-30.762,-30.762,-31.738,0.000,0
39967.819,-31.250,-33.203,-29.785,-29.297,0.000,0
39967.823,-36.133,-37.598,-32.715,-30.273,0.000,0
39967.827,-51.270,-37.598,-34.668,-38.574,0.000,0
39967.831,-35.156,-28.320,-34.180,-33.203,0.000,0
39967.835,-26.367,-28.320,-34.668,-32.227,0.000,0
39967.839,-41.016,-30.273,-36.133,-33.203,0.000,0
39967.843,-47.363,-23.926,-31.738,-18.066,0.000,0
39967.847,-31.738,-18.066,-28.809,-19.531,0.000,0
39967.850,-25.879,-19.531,-28.320,-28.809,0.000,0
39967.854,-27.832,-19.043,-23.926,-27.832,0.000,0
39967.858,-25.391,-17.578,-26.367,-33.691,0.000,0
39967.862,-23.926,-20.020,-30.762,-37.109,0.000,0
39967.866,-29.297,-26.855,-31.250,-37.598,0.000,0
39967.870,-34.668,-28.320,-27.344,-29.785,0.000,0
39967.874,-46.875,-26.367,-31.738,-24.902,0.000,0
39967.878,-44.922,-26.367,-36.133,-42.480,0.000,0
39967.882,-29.785,-25.879,-30.762,-41.504,0.000,0
39967.886,-42.969,-24.902,-30.273,-28.320,0.000,0
39967.889,-38.086,-20.996,-25.391,-24.902,0.000,0
39967.893,-30.762,-18.066,-18.555,-35.645,0.000,0
39967.897,-48.340,-22.949,-27.344,-56.152,0.000,0
39967.901,-40.527,-19.531,-34.180,-52.246,0.000,0
39967.905,-29.297,-13.184,-29.297,-44.922,0.000,0
39967.909,-27.344,-15.625,-29.297,-41.504,0.000,0
39967.913,-26.367,-16.602,-29.785,-38.574,0.000,0
39967.917,-36.133,-19.043,-28.320,-42.969,0.000,0
39967.921,-43.457,-21.484,-26.855,-38.086,0.000,0
39967.925,-37.598,-16.602,-31.738,-19.531,0.000,0
39967.929,-33.203,-9.277,-28.320,-10.742,0.000,0
39967.932,-35.645,-4.883,-22.461,-14.160,0.000,0
39967.936,-22.949,-6.348,-22.461,-27.832,0.000,0
39967.940,-28.320,-7.812,-23.438,-28.320,0.000,0
39967.944,-36.621,-8.789,-26.855,-17.578,0.000,0
39967.948,-31.250,-17.090,-35.156,-21.973,0.000,0
39967.952,-25.391,-17.578,-32.715,-26.367,0.000,0
39967.956,-28.320,-16.602,-25.879,-27.344,0.000,0
39967.960,-27.832,-19.043,-25.879,-27.832,0.000,0
39967.964,-25.391,-18.555,-31.738,-30.762,0.000,0
39967.968,-25.879,-17.090,-31.738,-24.902,0.000,0
39967.972,-19.531,-16.113,-26.367,-23.926,0.000,0
39967.975,-32.715,-20.020,-24.902,-32.715,0.000,0
39967.979,-22.461,-22.461,-28.320,-32.227,0.000,0
39967.983,-6.348,-24.414,-33.203,-31.738,0.000,0
39967.987,-22.949,-22.461,-28.320,-32.227,0.000,0
39967.991,-23.438,-24.414,-31.738,-40.039,0.000,0
39967.995,-16.113,-25.391,-34.180,-43.457,0.000,0
39967.999,-14.160,-18.555,-28.809,-38.086,0.000,0
39968.003,-12.207,-14.160,-29.297,-35.156,0.000,0
39968.007,-6.836,-15.625,-29.297,-32.715,0.000,0
39968.011,-0.977,-15.137,-27.344,-25.879,0.000,0
39968.014,-10.254,-15.137,-26.367,-26.367,0.000,0
39968.018,-23.438,-22.461,-27.344,-29.785,0.000,0
39968.022,-38.086,-23.438,-30.762,-17.578,0.000,0
39968.026,-21.484,-18.555,-29.297,-18.066,0.000,0
39968.030,-15.625,-18.555,-28.320,-29.785,0.000,0
39968.034,-35.156,-18.555,-23.926,-36.133,0.000,0
39968.038,-32.227,-16.113,-20.996,-37.109,0.000,0
39968.042,-18.066,-13.184,-21.484,-33.691,0.000,0
39968.046,-18.066,-12.695,-17.578,-21.973,0.000,0
39968.050,-26.367,-17.578,-23.926,-20.508,0.000,0
39968.054,-35.156,-21.973,-29.785,-38.574,0.000,0
39968.057,-36.621,-22.949,-28.809,-35.156,0.000,0
39968.061,-40.527,-19.531,-27.832,-17.090,0.000,0
39968.065,-47.852,-23.438,-24.902,-21.484,0.000,0
39968.069,-38.086,-26.855,-25.879,-27.832,0.000,0
39968.073,-21.973,-23.438,-23.926,-30.762,0.000,0
39968.077,-28.320,-19.531,-24.414,-32.227,0.000,0
39968.081,-21.973,-10.742,-19.043,-19.043,0.000,0
39968.085,-13.184,-7.812,-9.766,-12.695,0.000,0
39968.089,-16.602,-11.719,-14.648,-15.137,0.000,0
39968.093,-16.602,-10.254,-15.137,-22.949,0.000,0
39968.097,-16.602,-10.742,-12.695,-20.996,0.000,0
39968.100,-21.484,-15.625,-20.996,-24.414,0.000,0
39968.104,-34.180,-18.555,-24.902,-38.574,0.000,0
39968.108,-46.387,-19.043,-26.855,-33.691,0.000,0
39968.112,-49.316,-26.367,-30.273,-41.992,0.000,0
39968.116,-36.133,-28.809,-26.367,-52.246,0.000,0
39968.120,-26.367,-20.996,-26.367,-41.016,0.000,0
39968.124,-33.203,-22.461,-30.762,-31.738,0.000,0
39968.128,-34.668,-26.367,-28.320,-21.973,0.000,0
39968.132,-23.926,-25.879,-23.926,-21.973,0.000,0
39968.136,-41.016,-24.414,-28.320,-24.414,0.000,0
39968.139,-49.316,-27.832,-35.156,-21.484,0.000,0
39968.143,-35.645,-33.691,-29.297,-40.039,0.000,0
39968.147,-35.156,-27.832,-26.855,-36.133,0.000,0
39968.151,-37.598,-20.020,-29.785,-20.996,0.000,0
39968.155,-46.875,-24.414,-34.180,-30.273,0.000,0
39968.159,-42.969,-24.902,-36.133,-26.367,0.000,0
39968.163,-24.414,-20.020,-33.203,-23.438,0.000,0
39968.167,-23.926,-28.320,-35.645,-30.273,0.000,0
39968.171,-37.598,-34.180,-33.691,-29.297,0.000,0
39968.175,-42.480,-28.809,-30.273,-27.344,0.000,0
39968.179,-33.203,-27.832,-33.203,-24.902,0.000,0
