timestamps,TP9,AF7,AF8,TP10,Right AUX,Marker0
40212.073,2.930,13.184,-7.324,-41.992,0.000,0
40212.077,-5.859,4.883,-12.695,-35.156,0.000,0
40212.081,0.488,3.906,-16.602,-38.574,0.000,0
40212.085,4.883,9.766,-11.230,-40.039,0.000,0
40212.089,-6.836,7.324,-17.090,-42.969,0.000,0
40212.093,-6.348,8.301,-22.949,-38.086,0.000,0
40212.097,2.441,5.859,-16.602,-30.273,0.000,0
40212.100,1.953,4.395,-15.625,-21.484,0.000,0
40212.104,-7.324,6.836,-15.137,-21.973,0.000,0
40212.108,6.348,8.301,-10.742,-38.574,0.000,0
40212.112,14.160,8.301,-20.508,-36.133,0.000,0
40212.116,19.043,8.789,-22.461,-26.367,0.000,0
40212.120,23.438,9.766,-13.672,-34.668,0.000,0
40212.124,26.855,10.254,-15.137,-39.551,0.000,0
40212.128,28.320,6.836,-18.066,-48.340,0.000,0
40212.132,25.391,1.953,-20.996,-51.270,0.000,0
40212.136,20.996,1.465,-28.320,-39.551,0.000,0
40212.139,9.766,3.418,-30.762,-26.367,0.000,0
40212.143,15.625,5.859,-28.320,-27.832,0.000,0
40212.147,11.230,9.766,-20.508,-40.527,0.000,0
40212.151,-11.230,8.301,-17.090,-41.992,0.000,0
40212.155,4.883,7.812,-17.090,-34.668,0.000,0
40212.159,3.906,6.836,-18.066,-36.133,0.000,0
40212.163,-16.602,0.488,-21.973,-49.316,0.000,0
40212.167,-8.789,1.953,-24.414,-57.129,0.000,0
40212.171,-14.648,3.418,-24.414,-44.922,0.000,0
40212.175,-16.113,4.395,-22.461,-38.574,0.000,0
40212.179,-19.043,9.766,-23.438,-40.039,0.000,0
40212.182,-28.809,8.789,-24.902,-43.457,0.000,0
40212.186,-26.855,9.277,-24.414,-48.828,0.000,0
40212.190,-32.227,13.672,-17.578,-46.875,0.000,0
40212.194,-45.410,8.301,-20.508,-44.434,0.000,0
40212.198,-47.852,1.465,-24.902,-46.875,0.000,0
40212.202,-47.363,0.977,-23.926,-44.434,0.000,0
40212.206,-46.387,-8.789,-31.250,-57.617,0.000,0
40212.210,-48.340,-9.277,-23.926,-64.941,0.000,0
40212.214,-39.062,0.977,-14.648,-53.223,0.000,0
40212.218,-32.715,-4.395,-28.320,-51.758,0.000,0
40212.222,-48.828,-11.230,-31.738,-58.105,0.000,0
40212.225,-50.293,-7.324,-25.391,-56.152,0.000,0
40212.229,-32.227,1.465,-22.949,-36.621,0.000,0
40212.233,-38.086,0.488,-26.367,-41.016,0.000,0
40212.237,-52.246,-0.488,-28.320,-54.688,0.000,0
40212.241,-47.852,1.465,-24.414,-63.965,0.000,0
40212.245,-29.785,0.000,-18.555,-71.289,0.000,0
40212.249,-32.227,-1.953,-16.602,-56.152,0.000,0
40212.253,-44.434,-0.977,-16.113,-42.969,0.000,0
40212.257,-38.086,0.977,-15.137,-40.527,0.000,0
40212.261,-30.273,3.906,-13.184,-46.387,0.000,0
40212.264,-37.598,5.371,-13.184,-51.758,0.000,0
40212.268,-62.988,-4.395,-19.531,-59.082,0.000,0
40212.272,-73.242,-7.324,-29.785,-65.430,0.000,0
40212.276,-57.617,0.977,-28.320,-61.523,0.000,0
40212.280,-69.336,1.953,-20.996,-57.129,0.000,0
40212.284,-82.520,-2.930,-22.461,-62.988,0.000,0
40212.288,-70.801,-5.859,-27.832,-63.965,0.000,0
40212.292,-43.457,-3.418,-25.879,-49.316,0.000,0
40212.296,-41.992,-0.488,-24.902,-46.875,0.000,0
40212.300,-60.059,-4.395,-23.926,-54.688,0.000,0
40212.304,-54.688,-4.883,-19.531,-61.035,0.000,0
40212.307,-53.711,-2.441,-22.949,-62.500,0.000,0
40212.311,-53.711,2.930,-23.926,-53.711,0.000,0
40212.315,-60.547,-0.977,-31.250,-62.012,0.000,0
40212.319,-65.918,-6.836,-36.133,-67.383,0.000,0
40212.323,-60.059,-4.395,-33.203,-74.707,0.000,0
40212.327,-68.359,-7.812,-28.809,-86.914,0.000,0
40212.331,-64.453,-10.742,-26.367,-71.777,0.000,0
40212.335,-53.711,-9.766,-25.391,-70.801,0.000,0
40212.339,-52.734,-8.301,-24.414,-68.359,0.000,0
40212.343,-61.523,-8.301,-24.414,-66.895,0.000,0
40212.347,-69.824,-3.418,-20.020,-69.824,0.000,0
40212.350,-51.270,-0.977,-16.113,-60.547,0.000,0
40212.354,-43.945,-2.930,-17.090,-50.781,0.000,0
40212.358,-55.176,0.488,-13.672,-55.176,0.000,0
40212.362,-58.105,2.441,-15.625,-73.730,0.000,0
40212.366,-54.199,3.418,-21.484,-78.125,0.000,0
40212.370,-57.129,5.859,-18.555,-72.754,0.000,0
40212.374,-70.801,4.395,-15.625,-79.102,0.000,0
40212.378,-66.406,1.953,-16.602,-73.730,0.000,0
40212.382,-68.848,0.488,-17.090,-78.613,0.000,0
40212.386,-77.637,0.000,-18.066,-88.867,0.000,0
40212.389,-77.637,-0.977,-22.949,-73.730,0.000,0
40212.393,-72.266,0.977,-15.137,-63.477,0.000,0
40212.397,-57.129,1.953,-18.066,-60.547,0.000,0
40212.401,-55.176,-1.953,-21.484,-67.871,0.000,0
40212.405,-68.848,-0.488,-14.648,-76.660,0.000,0
40212.409,-60.547,2.930,-12.695,-80.078,0.000,0
40212.413,-37.598,4.395,-11.719,-77.637,0.000,0
40212.417,-30.273,1.465,-12.695,-76.172,0.000,0
40212.421,-28.320,-3.906,-14.648,-88.867,0.000,0
40212.425,-24.902,-0.977,-20.020,-93.262,0.000,0
40212.429,-29.297,-2.441,-20.020,-80.078,0.000,0
40212.432,-35.645,0.977,-17.578,-69.336,0.000,0
40212.436,-38.574,0.977,-17.578,-74.219,0.000,0
40212.440,-37.598,-4.395,-17.578,-87.891,0.000,0
40212.444,-34.180,2.930,-10.254,-78.125,0.000,0
40212.448,-40.527,-2.930,-14.160,-77.637,0.000,0
40212.452,-49.316,-14.160,-25.391,-74.707,0.000,0
40212.456,-38.086,-8.301,-25.391,-43.945,0.000,0
40212.460,-41.016,-3.906,-20.996,-53.223,0.000,0
40212.464,-61.035,-9.277,-23.438,-70.801,0.000,0
40212.468,-63.965,-8.789,-22.949,-55.664,0.000,0
40212.472,-42.969,-2.441,-20.508,-49.805,0.000,0
40212.475,-39.551,-5.371,-28.809,-50.781,0.000,0
40212.479,-62.500,-6.836,-25.879,-62.988,0.000,0
40212.483,-60.059,-2.930,-22.461,-74.707,0.000,0
40212.487,-59.570,0.977,-21.973,-69.824,0.000,0
40212.491,-59.082,1.953,-19.531,-73.242,0.000,0
40212.495,-55.176,1.465,-19.531,-65.430,0.000,0
40212.499,-62.500,-0.488,-20.508,-62.012,0.000,0
40212.503,-59.082,-5.859,-25.391,-74.707,0.000,0
40212.507,-59.082,-8.789,-22.461,-64.941,0.000,0
40212.511,-66.406,-10.742,-24.902,-68.359,0.000,0
40212.514,-77.637,-19.043,-32.227,-79.590,0.000,0
40212.518,-78.613,-15.137,-21.973,-87.891,0.000,0
40212.522,-71.289,-10.254,-34.668,-82.031,0.000,0
40212.526,-55.664,-4.883,-32.715,-63.477,0.000,0
40212.530,-41.504,9.277,-0.977,-56.152,0.000,0
40212.534,-38.574,7.324,-21.484,-36.621,0.000,0
40212.538,-36.133,-2.441,-42.969,-38.086,0.000,0
40212.542,-32.227,-2.441,-21.484,-44.922,0.000,0
40212.546,-31.250,-1.953,-14.160,-38.086,0.000,0
40212.550,-28.809,5.859,-19.531,-39.551,0.000,0
40212.554,-29.785,14.160,-19.043,-30.762,0.000,0
40212.557,-37.598,3.418,-29.785,-38.086,0.000,0
40212.561,-44.434,-0.977,-41.504,-49.316,0.000,0
40212.565,-51.758,-0.488,-32.227,-55.176,0.000,0
40212.569,-45.898,4.883,-21.484,-42.969,0.000,0
40212.573,-20.508,8.301,-25.879,-29.297,0.000,0
40212.577,-15.625,7.812,-31.738,-35.645,0.000,0
40212.581,-25.391,8.301,-30.273,-40.039,0.000,0
40212.585,-33.691,0.977,-26.367,-46.875,0.000,0
40212.589,-30.762,5.371,-18.066,-45.410,0.000,0
40212.593,-29.297,6.836,-10.742,-29.297,0.000,0
40212.597,-39.062,-0.488,-20.508,-38.086,0.000,0
40212.600,-29.785,5.371,-20.508,-46.387,0.000,0
40212.604,-26.855,5.371,-21.973,-36.133,0.000,0
40212.608,-28.320,7.324,-22.461,-22.949,0.000,0
40212.612,-31.250,3.906,-24.414,-36.621,0.000,0
40212.616,-40.039,-5.859,-34.668,-55.176,0.000,0
40212.620,-29.785,3.418,-28.809,-54.688,0.000,0
40212.624,-40.527,1.953,-29.785,-63.477,0.000,0
40212.628,-48.828,3.418,-32.715,-67.871,0.000,0
40212.632,-29.785,11.230,-25.879,-60.547,0.000,0
40212.636,-16.602,11.230,-21.973,-51.758,0.000,0
40212.639,-21.973,9.277,-31.250,-47.363,0.000,0
40212.643,-41.016,7.812,-32.227,-51.270,0.000,0
40212.647,-27.832,8.301,-31.250,-53.223,0.000,0
40212.651,-27.832,16.113,-26.367,-55.176,0.000,0
40212.655,-40.039,21.484,-19.531,-53.223,0.000,0
40212.659,-33.691,13.184,-27.832,-48.340,0.000,0
40212.663,-22.461,12.207,-29.297,-53.223,0.000,0
40212.667,-25.879,17.578,-22.949,-58.594,0.000,0
40212.671,-22.949,16.113,-28.320,-47.852,0.000,0
40212.675,0.488,18.066,-25.879,-35.645,0.000,0
40212.679,-0.977,20.996,-16.602,-33.691,0.000,0
40212.682,-20.020,19.043,-20.508,-28.809,0.000,0
40212.686,-18.555,20.996,-24.902,-34.180,0.000,0
40212.690,-17.578,20.996,-23.926,-42.480,0.000,0
40212.694,-13.672,20.020,-28.320,-45.898,0.000,0
40212.698,-10.742,20.996,-26.855,-50.293,0.000,0
40212.702,-15.137,22.461,-20.020,-43.457,0.000,0
40212.706,-21.973,24.414,-17.090,-39.551,0.000,0
40212.710,-35.156,19.043,-24.414,-42.480,0.000,0
40212.714,-36.133,21.973,-22.461,-44.434,0.000,0
40212.718,-42.969,21.973,-18.066,-54.688,0.000,0
40212.722,-32.715,16.602,-21.973,-44.922,0.000,0
40212.725,-15.137,22.461,-21.484,-34.180,0.000,0
40212.729,-15.137,24.414,-18.555,-46.387,0.000,0
40212.733,-13.184,19.043,-22.949,-53.223,0.000,0
40212.737,-9.277,17.578,-26.367,-52.734,0.000,0
40212.741,-2.930,26.367,-16.602,-51.270,0.000,0
40212.745,0.488,28.809,-14.648,-42.969,0.000,0
40212.749,-7.812,25.879,-11.230,-33.691,0.000,0
40212.753,-8.789,23.438,-14.648,-43.945,0.000,0
40212.757,-10.254,17.578,-27.344,-64.941,0.000,0
40212.761,-19.043,20.508,-20.020,-58.105,0.000,0
40212.764,-18.066,20.508,-15.625,-48.828,0.000,0
40212.768,-11.719,14.648,-23.926,-50.293,0.000,0
40212.772,-21.973,14.648,-23.438,-35.156,0.000,0
40212.776,-23.926,14.648,-22.461,-50.293,0.000,0
40212.780,-15.625,12.695,-25.391,-62.500,0.000,0
40212.784,-9.766,20.508,-19.531,-41.992,0.000,0
40212.788,-3.906,28.320,-20.996,-40.039,0.000,0
40212.792,-4.883,27.344,-22.949,-46.875,0.000,0
40212.796,-12.695,29.785,-16.113,-50.293,0.000,0
40212.800,-12.207,31.250,-15.625,-57.617,0.000,0
40212.804,-25.391,24.902,-20.020,-50.781,0.000,0
40212.807,-39.062,18.066,-16.113,-45.410,0.000,0
40212.811,-25.879,21.484,-10.742,-39.551,0.000,0
40212.815,-19.531,16.113,-21.484,-51.270,0.000,0
40212.819,-27.832,15.137,-23.926,-56.641,0.000,0
40212.823,-19.043,17.578,-17.578,-28.320,0.000,0
40212.827,-13.672,16.113,-16.113,-27.344,0.000,0
40212.831,-27.344,15.625,-22.949,-53.711,0.000,0
40212.835,-34.180,13.672,-24.902,-63.965,0.000,0
40212.839,-26.855,14.648,-17.578,-55.664,0.000,0
40212.843,-19.531,13.672,-19.043,-52.246,0.000,0
40212.847,-15.137,11.719,-21.973,-43.457,0.000,0
40212.850,-19.531,16.113,-13.184,-33.203,0.000,0
40212.854,-24.414,15.625,-12.207,-48.828,0.000,0
40212.858,-19.043,2.930,-30.762,-66.406,0.000,0
40212.862,-10.254,7.324,-22.461,-53.711,0.000,0
40212.866,1.465,16.113,-13.184,-42.969,0.000,0
40212.870,-6.348,13.672,-18.066,-44.434,0.000,0
40212.874,-7.812,12.695,-14.648,-38.086,0.000,0
40212.878,-2.930,12.695,-22.461,-33.691,0.000,0
40212.882,-12.207,9.766,-20.508,-37.598,0.000,0
40212.886,-6.348,7.812,-20.508,-34.668,0.000,0
40212.889,1.953,10.742,-33.203,-26.367,0.000,0
40212.893,-18.066,2.930,-32.227,-43.457,0.000,0
40212.897,-33.203,2.930,-25.879,-43.945,0.000,0
40212.901,-9.277,9.277,-20.508,-28.320,0.000,0
40212.905,-0.488,7.812,-22.461,-36.621,0.000,0
40212.909,-20.996,7.812,-31.738,-41.504,0.000,0
40212.913,-23.926,5.371,-38.086,-35.156,0.000,0
40212.917,-19.531,4.395,-38.086,-37.598,0.000,0
40212.921,-21.973,10.254,-30.273,-44.434,0.000,0
40212.925,-25.879,13.672,-22.461,-40.039,0.000,0
40212.929,-16.602,6.348,-28.809,-47.852,0.000,0
40212.932,-19.043,2.441,-40.039,-51.270,0.000,0
40212.936,-30.273,11.230,-35.156,-43.457,0.000,0
40212.940,-23.926,14.160,-34.668,-45.898,0.000,0
40212.944,-19.531,15.137,-37.109,-44.434,0.000,0
40212.948,-12.207,14.160,-33.203,-49.805,0.000,0
40212.952,-15.137,9.277,-37.109,-60.059,0.000,0
40212.956,-25.879,8.789,-41.504,-62.988,0.000,0
40212.960,-42.969,6.836,-41.504,-64.941,0.000,0
40212.964,-34.668,9.766,-34.180,-50.781,0.000,0
40212.968,-23.438,12.695,-34.668,-44.434,0.000,0
40212.972,-33.203,9.277,-34.180,-53.223,0.000,0
40212.975,-34.180,12.207,-27.832,-61.035,0.000,0
40212.979,-30.273,16.113,-26.855,-60.059,0.000,0
40212.983,-39.062,13.184,-33.203,-62.012,0.000,0
40212.987,-46.387,19.043,-30.762,-57.129,0.000,0
40212.991,-37.598,20.996,-27.344,-45.410,0.000,0
40212.995,-22.949,20.020,-27.344,-48.340,0.000,0
40212.999,-34.180,25.391,-26.367,-40.039,0.000,0
40213.003,-30.273,21.973,-28.320,-37.598,0.000,0
40213.007,-17.090,20.508,-20.508,-46.875,0.000,0
40213.011,-20.020,18.555,-16.602,-44.434,0.000,0
40213.014,-22.949,19.531,-26.367,-49.805,0.000,0
40213.018,-23.438,23.926,-26.855,-51.270,0.000,0
40213.022,-25.391,22.949,-20.020,-53.711,0.000,0
40213.026,-29.297,18.066,-26.367,-51.270,0.000,0
40213.030,-25.391,19.531,-34.668,-39.062,0.000,0
40213.034,-27.344,26.855,-26.855,-42.480,0.000,0
40213.038,-34.668,22.461,-24.902,-56.641,0.000,0
40213.042,-31.250,19.531,-33.203,-66.895,0.000,0
40213.046,-18.555,23.438,-33.691,-66.895,0.000,0
40213.050,-19.043,28.320,-26.367,-47.363,0.000,0
40213.054,-20.508,28.320,-23.438,-45.898,0.000,0
40213.057,-27.832,21.973,-29.297,-55.664,0.000,0
40213.061,-27.344,25.879,-26.855,-47.363,0.000,0
40213.065,-20.996,28.320,-26.855,-50.781,0.000,0
40213.069,-17.578,29.785,-22.949,-49.805,0.000,0
40213.073,-20.020,35.645,-16.602,-43.945,0.000,0
40213.077,-25.879,31.738,-21.973,-39.551,0.000,0
40213.081,-25.879,24.414,-23.438,-24.902,0.000,0
40213.085,-8.789,26.855,-20.508,-21.484,0.000,0
40213.089,-9.277,25.391,-29.297,-35.645,0.000,0
40213.093,-28.320,24.414,-27.344,-44.434,0.000,0
40213.097,-33.691,25.879,-22.949,-47.852,0.000,0
40213.100,-35.645,22.461,-27.832,-35.156,0.000,0
40213.104,-34.668,26.855,-23.926,-20.508,0.000,0
40213.108,-42.969,30.273,-26.367,-14.160,0.000,0
40213.112,-24.414,34.668,-21.973,-6.836,0.000,0
40213.116,-15.137,36.133,-19.043,-20.020,0.000,0
40213.120,-39.551,26.367,-24.902,-39.551,0.000,0
40213.124,-46.875,24.414,-24.902,-41.504,0.000,0
40213.128,-26.367,30.273,-24.414,-20.508,0.000,0
40213.132,-19.043,23.438,-39.551,-22.461,0.000,0
40213.136,-37.598,21.973,-41.016,-29.297,0.000,0
40213.139,-39.062,29.297,-30.762,-22.461,0.000,0
40213.143,-21.484,24.902,-36.621,-24.902,0.000,0
40213.147,-18.555,25.879,-28.809,-21.973,0.000,0
40213.151,-20.020,27.344,-25.879,-33.203,0.000,0
40213.155,-23.926,20.508,-34.180,-45.410,0.000,0
40213.159,-25.391,25.391,-30.762,-37.598,0.000,0
40213.163,-29.785,31.738,-31.250,-29.785,0.000,0
40213.167,-30.762,37.598,-23.926,-18.066,0.000,0
40213.171,-30.762,39.062,-22.461,-16.113,0.000,0
40213.175,-38.086,33.203,-32.715,-15.625,0.000,0
40213.179,-28.809,31.738,-33.691,-10.742,0.000,0
40213.182,-30.273,31.738,-24.902,-4.395,0.000,0
40213.186,-32.227,29.297,-30.273,-2.441,0.000,0
40213.190,-25.391,26.855,-31.738,-16.602,0.000,0
40213.194,-22.949,26.855,-23.926,-32.715,0.000,0
40213.198,-21.973,36.621,-17.578,-27.832,0.000,0
40213.202,-9.277,38.086,-14.648,-9.766,0.000,0
40213.206,-8.789,28.809,-24.902,-10.742,0.000,0
40213.210,-31.250,24.902,-36.133,-33.691,0.000,0
40213.214,-42.969,19.043,-39.062,-24.414,0.000,0
40213.218,-28.320,21.484,-36.621,-5.859,0.000,0
40213.222,-10.742,31.738,-27.832,-19.043,0.000,0
40213.225,-22.949,30.273,-24.414,-27.832,0.000,0
40213.229,-35.156,25.879,-26.367,-33.203,0.000,0
40213.233,-23.438,29.297,-25.391,-38.574,0.000,0
40213.237,-17.578,31.738,-24.902,-27.344,0.000,0
40213.241,-17.090,28.320,-33.203,-23.926,0.000,0
40213.245,-24.414,28.809,-33.203,-37.109,0.000,0
40213.249,-21.973,26.367,-30.273,-51.758,0.000,0
40213.253,-9.766,27.832,-26.855,-36.621,0.000,0
40213.257,-7.812,31.250,-23.438,-18.555,0.000,0
40213.261,-6.836,28.320,-27.832,-21.973,0.000,0
40213.264,-15.625,21.973,-29.785,-37.109,0.000,0
40213.268,-20.020,27.344,-21.973,-41.992,0.000,0
40213.272,-22.461,28.320,-21.973,-43.945,0.000,0
40213.276,-16.602,27.344,-25.391,-38.086,0.000,0
40213.280,-6.348,31.738,-19.043,-30.273,0.000,0
40213.284,-12.207,24.902,-26.855,-29.785,0.000,0
40213.288,-17.090,19.043,-33.691,-32.715,0.000,0
40213.292,-34.668,15.137,-17.578,-50.293,0.000,0
40213.296,-36.133,8.301,-20.508,-58.105,0.000,0
40213.300,-26.367,20.508,-20.996,-53.711,0.000,0
40213.304,-24.414,25.391,-17.090,-43.457,0.000,0
40213.307,-20.020,21.973,-26.855,-42.969,0.000,0
40213.311,-22.461,20.996,-21.484,-54.688,0.000,0
40213.315,-34.668,24.414,-14.648,-60.059,0.000,0
40213.319,-47.363,27.832,-14.648,-53.711,0.000,0
40213.323,-25.879,26.855,-15.625,-56.152,0.000,0
40213.327,-23.438,20.020,-22.461,-57.617,0.000,0
40213.331,-40.527,13.672,-30.273,-62.500,0.000,0
40213.335,-24.902,13.672,-28.320,-61.523,0.000,0
40213.339,-9.277,12.695,-25.879,-44.434,0.000,0
40213.343,-10.254,12.695,-28.809,-39.062,0.000,0
40213.347,-15.625,16.602,-25.879,-52.246,0.000,0
40213.350,-22.949,14.160,-24.414,-62.012,0.000,0
40213.354,-30.762,13.184,-28.809,-48.828,0.000,0
40213.358,-28.320,17.578,-35.156,-30.273,0.000,0
40213.362,-32.715,13.672,-46.875,-35.156,0.000,0
40213.366,-26.367,13.184,-38.574,-40.039,0.000,0
40213.370,-14.160,15.137,-23.926,-43.457,0.000,0
40213.374,-12.207,20.020,-16.113,-43.945,0.000,0
40213.378,-23.926,16.602,-17.090,-51.270,0.000,0
40213.382,-28.809,7.324,-35.156,-69.824,0.000,0
40213.386,-20.508,11.230,-30.273,-62.012,0.000,0
40213.389,-17.090,15.625,-21.973,-57.617,0.000,0
40213.393,-1.953,20.020,-17.090,-48.828,0.000,0
40213.397,10.742,28.320,-5.859,-45.410,0.000,0
40213.401,5.371,26.367,-10.254,-54.199,0.000,0
40213.405,-20.020,15.625,-20.996,-63.477,0.000,0
40213.409,-20.020,13.184,-24.414,-71.777,0.000,0
40213.413,-7.812,16.602,-24.414,-56.152,0.000,0
40213.417,1.953,19.043,-23.438,-48.828,0.000,0
40213.421,11.230,21.973,-27.344,-32.715,0.000,0
40213.425,-5.859,17.090,-30.273,-38.086,0.000,0
40213.429,-12.695,8.301,-32.227,-53.711,0.000,0
40213.432,-10.254,7.812,-33.203,-50.781,0.000,0
40213.436,-12.207,8.789,-33.203,-58.594,0.000,0
40213.440,1.953,10.254,-30.762,-46.387,0.000,0
40213.444,-7.324,6.836,-27.832,-47.852,0.000,0
40213.448,-15.137,8.301,-22.949,-64.453,0.000,0
40213.452,-4.395,17.090,-17.090,-37.598,0.000,0
40213.456,-2.930,10.742,-23.438,-22.949,0.000,0
40213.460,8.789,11.719,-30.762,-29.785,0.000,0
40213.464,-3.418,14.160,-31.250,-34.668,0.000,0
40213.468,-25.391,15.625,-23.926,-40.527,0.000,0
40213.472,-10.742,16.602,-16.113,-37.109,0.000,0
40213.475,-4.883,7.812,-22.949,-44.922,0.000,0
40213.479,-16.602,2.441,-31.738,-41.504,0.000,0
40213.483,-14.160,6.836,-23.926,-37.598,0.000,0
40213.487,-13.184,2.441,-20.996,-56.152,0.000,0
40213.491,-17.578,-1.953,-25.879,-50.781,0.000,0
40213.495,-24.414,3.418,-28.320,-22.949,0.000,0
40213.499,-28.809,0.977,-34.668,-21.973,0.000,0
40213.503,-2.930,6.348,-23.438,-35.156,0.000,0
40213.507,7.812,11.719,-13.672,-40.039,0.000,0
40213.511,-18.555,10.254,-22.461,-41.016,0.000,0
40213.514,-4.883,13.184,-28.320,-37.598,0.000,0
40213.518,15.137,20.020,-18.066,-25.391,0.000,0
40213.522,-3.418,14.648,-17.090,-27.832,0.000,0
40213.526,-13.672,10.254,-22.461,-47.852,0.000,0
40213.530,-20.996,6.348,-31.738,-34.668,0.000,0
40213.534,-17.090,0.488,-30.762,-14.648,0.000,0
40213.538,-5.859,6.348,-27.344,-3.418,0.000,0
40213.542,-8.789,8.789,-26.855,-9.766,0.000,0
40213.546,-0.977,10.742,-15.625,-26.367,0.000,0
40213.550,-2.930,11.719,-13.672,-27.832,0.000,0
40213.554,-9.277,4.883,-25.391,-22.461,0.000,0
40213.557,3.906,14.160,-20.020,-3.418,0.000,0
40213.561,-6.348,13.184,-22.949,-9.277,0.000,0
40213.565,-22.461,1.465,-30.762,-22.461,0.000,0
40213.569,-13.184,8.789,-24.414,-5.371,0.000,0
40213.573,-1.465,9.277,-26.855,-9.277,0.000,0
40213.577,-1.465,6.348,-29.785,-13.184,0.000,0
40213.581,-2.930,0.977,-29.297,-2.930,0.000,0
40213.585,-9.277,0.977,-20.996,-11.719,0.000,0
40213.589,-25.391,6.836,-13.184,-26.367,0.000,0
40213.593,-24.902,3.418,-21.973,-15.137,0.000,0
40213.597,-25.391,-4.883,-29.297,-1.465,0.000,0
40213.600,-38.086,-6.348,-26.855,-7.324,0.000,0
40213.604,-31.738,-5.371,-27.832,-29.297,0.000,0
40213.608,-15.137,-1.953,-21.973,-33.203,0.000,0
40213.612,-14.160,-0.977,-23.926,-18.066,0.000,0
40213.616,-5.371,0.977,-30.273,-6.836,0.000,0
40213.620,-17.090,-3.418,-30.762,-13.672,0.000,0
40213.624,-10.742,-5.371,-36.133,-16.113,0.000,0
40213.628,-8.301,-0.488,-34.180,-20.996,0.000,0
40213.632,-23.438,0.488,-24.414,-33.691,0.000,0
40213.636,-12.207,2.930,-19.043,-28.809,0.000,0
40213.639,-20.020,1.953,-28.320,-28.809,0.000,0
40213.643,-20.508,0.977,-36.133,-23.438,0.000,0
40213.647,-3.418,4.883,-32.715,-11.719,0.000,0
40213.651,0.977,4.883,-27.832,-22.949,0.000,0
40213.655,-9.277,9.277,-22.461,-16.602,0.000,0
40213.659,-11.230,12.695,-20.996,-9.766,0.000,0
40213.663,-18.066,3.906,-29.785,-36.133,0.000,0
40213.667,-34.180,-2.441,-36.621,-48.828,0.000,0
40213.671,-25.391,8.789,-30.273,-38.574,0.000,0
40213.675,-10.254,15.625,-27.344,-39.551,0.000,0
40213.679,-18.555,16.113,-22.949,-49.316,0.000,0
40213.682,-11.230,23.926,-11.230,-41.992,0.000,0
40213.686,-17.090,24.902,-11.719,-28.809,0.000,0
40213.690,-23.926,21.484,-22.949,-33.203,0.000,0
40213.694,-10.742,21.484,-27.344,-28.809,0.000,0
40213.698,-11.230,20.996,-26.855,-22.949,0.000,0
40213.702,-10.742,24.414,-21.484,-28.809,0.000,0
40213.706,-6.836,23.926,-26.367,-20.996,0.000,0
40213.710,10.254,21.484,-24.902,-16.602,0.000,0
40213.714,10.742,26.855,-16.113,-27.344,0.000,0
40213.718,-0.488,26.855,-19.531,-31.250,0.000,0
40213.722,-11.230,21.973,-19.531,-45.410,0.000,0
40213.725,-2.930,18.066,-20.508,-44.434,0.000,0
40213.729,-8.789,15.137,-34.668,-35.156,0.000,0
40213.733,-37.109,14.160,-35.156,-37.109,0.000,0
40213.737,-18.066,19.043,-24.902,-37.109,0.000,0
40213.741,-1.465,25.391,-25.879,-43.945,0.000,0
40213.745,-13.184,20.020,-26.367,-43.457,0.000,0
40213.749,-12.207,14.160,-28.320,-41.992,0.000,0
40213.753,-12.207,19.043,-27.344,-42.969,0.000,0
40213.757,-16.602,15.137,-26.367,-46.387,0.000,0
40213.761,-15.137,15.137,-25.879,-50.293,0.000,0
40213.764,-20.508,21.484,-19.531,-43.945,0.000,0
40213.768,-21.973,17.090,-21.973,-27.344,0.000,0
40213.772,-8.789,14.160,-27.344,-26.855,0.000,0
40213.776,-17.090,14.160,-27.832,-39.551,0.000,0
40213.780,-28.809,17.090,-21.973,-39.551,0.000,0
40213.784,-9.766,21.484,-18.066,-32.227,0.000,0
40213.788,-2.930,18.555,-23.926,-27.832,0.000,0
40213.792,-11.230,12.207,-28.809,-22.949,0.000,0
40213.796,-26.367,10.254,-29.785,-18.555,0.000,0
40213.800,-25.391,8.301,-26.367,-27.344,0.000,0
40213.804,-6.836,10.742,-21.973,-21.484,0.000,0
40213.807,-10.742,12.695,-20.996,-10.254,0.000,0
40213.811,-17.090,12.695,-22.461,-9.766,0.000,0
40213.815,-18.066,9.277,-29.297,-17.090,0.000,0
40213.819,-24.902,4.883,-32.715,-39.062,0.000,0
40213.823,-32.715,5.371,-29.297,-39.062,0.000,0
40213.827,-29.297,8.789,-34.668,-19.531,0.000,0
40213.831,-12.695,11.719,-32.227,-12.207,0.000,0
40213.835,1.953,17.578,-23.926,-0.488,0.000,0
40213.839,-14.648,15.625,-20.020,-0.977,0.000,0
40213.843,-26.855,2.441,-28.320,-16.602,0.000,0
40213.847,-18.555,1.465,-34.668,-9.277,0.000,0
40213.850,-26.367,5.859,-24.902,-10.742,0.000,0
40213.854,-22.949,6.348,-20.508,0.977,0.000,0
40213.858,-18.555,9.766,-24.902,9.766,0.000,0
40213.862,-23.926,0.977,-30.273,-11.719,0.000,0
40213.866,-9.766,-3.418,-30.273,-15.625,0.000,0
40213.870,-9.766,3.906,-23.438,-1.953,0.000,0
40213.874,-19.531,-0.977,-23.926,-6.348,0.000,0
40213.878,-10.254,0.488,-20.508,-23.926,0.000,0
40213.882,-6.348,7.812,-15.137,-13.672,0.000,0
40213.886,-14.648,2.930,-25.879,2.441,0.000,0
40213.889,-12.695,-1.465,-29.297,-2.441,0.000,0
40213.893,-14.160,-1.465,-23.926,-5.371,0.000,0
40213.897,-21.484,0.977,-20.996,-8.789,0.000,0
40213.901,-2.441,4.395,-20.020,-9.277,0.000,0
40213.905,-5.371,-1.465,-27.344,-17.090,0.000,0
40213.909,-16.113,-5.859,-27.344,-14.160,0.000,0
40213.913,-10.742,0.000,-20.020,0.488,0.000,0
40213.917,-11.719,-0.977,-24.902,1.465,0.000,0
40213.921,-21.484,-4.395,-36.133,-9.277,0.000,0
40213.925,-14.160,2.441,-29.297,-11.719,0.000,0
40213.929,-12.207,2.441,-22.461,-16.602,0.000,0
40213.932,-7.812,-1.465,-24.902,-15.625,0.000,0
40213.936,4.883,3.906,-22.461,8.301,0.000,0
40213.940,-9.277,1.465,-30.273,-2.930,0.000,0
40213.944,-16.113,-2.441,-29.785,-20.020,0.000,0
40213.948,-7.324,-0.977,-23.926,-8.301,0.000,0
40213.952,-2.930,6.836,-23.438,-7.812,0.000,0
40213.956,-11.719,9.277,-22.461,-19.043,0.000,0
40213.960,-8.301,7.812,-22.949,-20.508,0.000,0
40213.964,-20.996,8.789,-29.297,-35.645,0.000,0
40213.968,-20.020,14.648,-29.785,-35.645,0.000,0
40213.972,-15.137,23.438,-27.832,-16.602,0.000,0
40213.975,-9.766,28.809,-23.926,-0.977,0.000,0
40213.979,5.371,29.297,-15.625,-8.301,0.000,0
40213.983,-1.465,29.297,-17.578,-0.977,0.000,0
40213.987,8.789,36.621,-11.230,24.414,0.000,0
40213.991,8.301,41.992,-4.883,8.301,0.000,0
40213.995,-9.277,32.715,-14.160,-19.531,0.000,0
40213.999,1.465,39.551,-7.812,-10.254,0.000,0
40214.003,-11.230,39.551,-5.859,-21.973,0.000,0
40214.007,-20.996,30.273,-17.090,-37.598,0.000,0
40214.011,2.441,36.621,-19.043,-11.230,0.000,0
40214.014,-8.301,36.133,-20.020,-4.883,0.000,0
40214.018,-24.414,30.273,-16.602,-19.043,0.000,0
40214.022,-13.184,29.785,-14.648,-8.789,0.000,0
40214.026,-5.859,25.879,-17.578,-18.555,0.000,0
40214.030,-20.020,21.484,-16.602,-31.250,0.000,0
40214.034,-20.020,19.043,-16.602,-19.043,0.000,0
40214.038,-1.465,16.113,-17.090,-28.320,0.000,0
40214.042,0.977,18.066,-20.020,-26.855,0.000,0
40214.046,-7.812,20.020,-23.438,-18.066,0.000,0
40214.050,-9.277,18.066,-26.855,-14.648,0.000,0
40214.054,-16.602,15.137,-25.879,-18.555,0.000,0
40214.057,-28.320,15.137,-24.902,-36.133,0.000,0
40214.061,-29.785,14.648,-23.438,-35.645,0.000,0
40214.065,-28.809,18.066,-20.508,-26.855,0.000,0
40214.069,-17.578,20.020,-18.555,-25.391,0.000,0
40214.073,-10.742,14.648,-20.508,-21.484,0.000,0
40214.077,-35.156,8.301,-21.973,-31.250,0.000,0
40214.081,-41.992,6.836,-21.484,-34.668,0.000,0
40214.085,-30.762,-0.977,-26.855,-35.645,0.000,0
40214.089,-37.109,-1.953,-26.367,-28.809,0.000,0
40214.093,-47.852,-2.441,-31.738,-21.484,0.000,0
40214.097,-37.109,-3.418,-26.855,-28.320,0.000,0
40214.100,-23.438,4.883,-18.555,-24.902,0.000,0
40214.104,-31.738,6.348,-17.578,-17.090,0.000,0
40214.108,-34.668,7.812,-13.184,-10.254,0.000,0
40214.112,-28.320,8.789,-18.555,-10.742,0.000,0
40214.116,-23.438,9.277,-20.508,-26.855,0.000,0
40214.120,-34.180,12.695,-15.625,-19.531,0.000,0
40214.124,-40.527,10.254,-18.555,-7.812,0.000,0
40214.128,-37.109,9.277,-18.066,-22.949,0.000,0
40214.132,-21.484,15.137,-11.719,-24.902,0.000,0
40214.136,-14.160,20.996,-13.672,-24.414,0.000,0
40214.139,-23.438,21.484,-18.555,-23.438,0.000,0
40214.143,-21.484,24.902,-16.113,-25.879,0.000,0
40214.147,-1.953,28.809,-9.277,-25.879,0.000,0
40214.151,-15.625,26.855,-15.137,-24.902,0.000,0
40214.155,-27.832,25.391,-19.043,-36.621,0.000,0
40214.159,-0.977,25.391,-15.625,-24.414,0.000,0
40214.163,5.859,26.855,-19.531,-29.297,0.000,0
40214.167,-9.277,26.367,-21.973,-17.090,0.000,0
40214.171,-8.789,38.086,-13.184,-0.977,0.000,0
40214.175,1.953,38.086,-8.789,-26.367,0.000,0
40214.179,-22.949,29.297,-25.879,-39.551,0.000,0
40214.182,-41.016,25.879,-43.457,-37.109,0.000,0
40214.186,-26.855,32.715,-37.109,-17.578,0.000,0
40214.190,-25.391,43.457,-19.043,-15.137,0.000,0
40214.194,-31.250,44.922,-9.277,-40.527,0.000,0
40214.198,-39.062,45.410,-21.973,-42.480,0.000,0
40214.202,-28.320,53.223,-27.344,-20.020,0.000,0
40214.206,-37.109,49.316,-31.738,-42.969,0.000,0
40214.210,-46.387,52.246,-26.855,-46.875,0.000,0
40214.214,-49.316,54.688,-21.484,-51.270,0.000,0
40214.218,-41.992,53.223,-32.715,-62.500,0.000,0
40214.222,-30.762,59.082,-34.668,-34.668,0.000,0
40214.225,-19.531,68.848,-27.344,-24.414,0.000,0
40214.229,-12.695,74.707,-20.508,-27.344,0.000,0
40214.233,-14.160,68.848,-20.020,-17.578,0.000,0
40214.237,-5.859,69.336,-24.902,-19.043,0.000,0
40214.241,-6.836,72.754,-28.320,-23.926,0.000,0
40214.245,4.395,76.660,-21.484,-12.695,0.000,0
40214.249,1.465,83.496,-14.160,-1.465,0.000,0
40214.253,-8.301,71.289,-22.949,-21.973,0.000,0
40214.257,-14.648,56.152,-27.832,-28.809,0.000,0
40214.261,-8.301,57.617,-18.066,-16.602,0.000,0
40214.264,8.789,48.828,-23.926,-19.043,0.000,0
40214.268,5.371,40.039,-27.832,-31.250,0.000,0
40214.272,-13.184,34.180,-28.809,-34.180,0.000,0
40214.276,-15.137,22.949,-33.691,-41.016,0.000,0
40214.280,11.230,26.855,-27.832,-31.738,0.000,0
40214.284,19.531,30.762,-20.508,-21.484,0.000,0
40214.288,-2.441,26.855,-20.508,-18.555,0.000,0
40214.292,-16.602,20.996,-20.996,-33.203,0.000,0
40214.296,-14.648,13.184,-29.297,-47.852,0.000,0
40214.300,-18.555,14.648,-29.297,-32.227,0.000,0
40214.304,-5.859,14.648,-26.855,-24.414,0.000,0
40214.307,12.207,17.090,-24.414,-24.414,0.000,0
40214.311,-2.930,15.137,-20.996,-28.320,0.000,0
40214.315,-0.488,10.254,-21.484,-25.391,0.000,0
40214.319,10.742,8.789,-24.902,-23.926,0.000,0
40214.323,0.000,1.953,-26.855,-26.367,0.000,0
40214.327,-5.859,-0.977,-22.461,-17.090,0.000,0
40214.331,-0.977,-0.977,-24.414,-20.020,0.000,0
40214.335,1.465,-0.977,-23.926,-3.418,0.000,0
40214.339,-5.859,-4.883,-22.949,1.465,0.000,0
40214.343,-10.742,-6.348,-27.344,-20.508,0.000,0
40214.347,-11.230,-3.418,-22.461,-21.973,0.000,0
40214.350,-9.277,-5.859,-24.902,-27.832,0.000,0
40214.354,-17.090,-9.766,-36.621,-32.715,0.000,0
40214.358,-25.879,-10.742,-30.762,-30.273,0.000,0
40214.362,-4.883,-9.766,-18.066,-16.602,0.000,0
40214.366,2.930,-8.789,-17.578,-8.789,0.000,0
40214.370,-25.879,-6.348,-21.484,-21.484,0.000,0
40214.374,-25.391,-1.465,-20.508,-11.719,0.000,0
40214.378,9.277,1.953,-17.090,-1.953,0.000,0
40214.382,17.090,2.930,-17.090,-2.930,0.000,0
40214.386,-1.953,2.930,-19.043,5.859,0.000,0
40214.389,-15.625,-5.859,-20.996,-9.766,0.000,0
40214.393,-3.906,-10.742,-25.391,-18.555,0.000,0
40214.397,2.441,-9.277,-28.809,-6.836,0.000,0
40214.401,-2.441,-8.789,-30.273,4.883,0.000,0
40214.405,-10.254,-2.930,-30.762,3.906,0.000,0
40214.409,-1.465,-3.418,-29.785,-9.766,0.000,0
40214.413,10.254,-6.836,-24.902,9.277,0.000,0
40214.417,13.184,-6.348,-21.973,15.137,0.000,0
40214.421,8.789,-10.254,-29.785,5.859,0.000,0
40214.425,-2.441,-14.160,-28.809,4.883,0.000,0
40214.429,-5.859,-15.137,-26.367,-3.906,0.000,0
40214.432,-9.277,-17.578,-28.809,-8.301,0.000,0
40214.436,-14.160,-15.137,-30.762,-3.418,0.000,0
40214.440,0.488,-11.230,-29.297,0.488,0.000,0
40214.444,0.488,-20.996,-34.180,-3.418,0.000,0
40214.448,-26.367,-23.438,-39.062,-13.672,0.000,0
40214.452,-23.926,-19.043,-35.645,-18.555,0.000,0
40214.456,-6.836,-22.461,-34.180,-12.695,0.000,0
40214.460,-8.301,-19.531,-33.203,-10.742,0.000,0
40214.464,-11.230,-17.090,-32.715,2.441,0.000,0
40214.468,-19.531,-13.672,-23.926,5.859,0.000,0
40214.472,-25.391,-10.254,-22.461,-7.812,0.000,0
40214.475,-23.926,-10.742,-19.531,1.465,0.000,0
40214.479,-24.414,-18.555,-21.484,-9.277,0.000,0
40214.483,-20.020,-22.461,-38.574,-17.578,0.000,0
40214.487,-0.488,-13.672,-36.133,-13.184,0.000,0
40214.491,-9.766,-24.414,-47.363,-31.738,0.000,0
40214.495,-50.293,-37.598,-53.711,-38.574,0.000,0
40214.499,-47.852,-31.738,-41.992,-33.691,0.000,0
40214.503,-16.602,-31.738,-43.457,-19.043,0.000,0
40214.507,-20.020,-28.809,-41.992,-18.555,0.000,0
40214.511,-21.484,-12.207,-31.250,-22.949,0.000,0
40214.514,-6.836,-9.766,-27.344,-13.184,0.000,0
40214.518,-31.738,-23.926,-36.621,-18.066,0.000,0
40214.522,-53.711,-35.156,-50.781,-28.320,0.000,0
40214.526,-52.734,-34.668,-51.758,-26.367,0.000,0
40214.530,-37.598,-25.391,-39.551,-16.602,0.000,0
40214.534,-37.598,-22.949,-34.668,-23.438,0.000,0
40214.538,-36.621,-19.531,-29.297,-24.414,0.000,0
40214.542,-41.504,-20.996,-31.738,-22.949,0.000,0
40214.546,-49.316,-23.926,-38.086,-38.574,0.000,0
40214.550,-23.926,-26.855,-33.691,-34.180,0.000,0
40214.554,-10.742,-34.668,-37.109,-15.137,0.000,0
40214.557,-36.621,-32.227,-42.480,-24.902,0.000,0
40214.561,-39.062,-30.273,-47.363,-40.039,0.000,0
40214.565,-27.344,-25.879,-37.598,-29.785,0.000,0
40214.569,-33.203,-21.973,-26.367,-41.992,0.000,0
40214.573,-41.016,-21.484,-35.645,-45.898,0.000,0
40214.577,-38.086,-22.949,-43.945,-29.785,0.000,0
40214.581,-21.973,-28.809,-44.434,-36.133,0.000,0
40214.585,-29.785,-30.273,-42.480,-37.109,0.000,0
40214.589,-42.480,-21.973,-39.062,-22.949,0.000,0
40214.593,-24.414,-18.066,-33.203,-29.785,0.000,0
40214.597,-18.066,-22.949,-35.156,-37.598,0.000,0
40214.600,-22.461,-26.367,-32.715,-36.133,0.000,0
40214.604,-18.555,-30.762,-35.156,-39.062,0.000,0
40214.608,-20.996,-31.738,-41.504,-50.293,0.000,0
40214.612,-38.574,-28.809,-39.062,-45.410,0.000,0
40214.616,-32.715,-28.809,-31.250,-35.156,0.000,0
40214.620,-19.043,-28.809,-30.762,-38.574,0.000,0
40214.624,-36.621,-26.367,-33.691,-43.457,0.000,0
40214.628,-36.621,-27.344,-33.203,-43.945,0.000,0
40214.632,-31.250,-30.762,-35.645,-39.062,0.000,0
40214.636,-21.973,-26.855,-30.762,-22.461,0.000,0
40214.639,-12.695,-20.020,-22.461,-10.742,0.000,0
40214.643,-21.973,-22.461,-24.414,-20.996,0.000,0
40214.647,-38.086,-30.273,-28.320,-32.227,0.000,0
40214.651,-42.480,-32.227,-38.574,-26.855,0.000,0
40214.655,-35.156,-30.762,-45.410,-27.344,0.000,0
40214.659,-33.691,-27.832,-41.016,-24.902,0.000,0
40214.663,-18.555,-28.320,-31.250,-28.809,0.000,0
40214.667,-12.695,-27.344,-30.762,-40.527,0.000,0
40214.671,-28.320,-22.949,-29.785,-41.992,0.000,0
40214.675,-40.527,-26.367,-24.902,-45.410,0.000,0
40214.679,-34.668,-27.344,-24.414,-39.551,0.000,0
40214.682,-22.949,-16.602,-25.879,-30.273,0.000,0
40214.686,-23.926,-20.508,-25.879,-39.062,0.000,0
40214.690,-29.297,-27.832,-29.785,-41.504,0.000,0
40214.694,-28.809,-25.879,-33.203,-49.316,0.000,0
40214.698,-29.785,-19.043,-26.855,-53.223,0.000,0
40214.702,-31.250,-18.555,-23.438,-59.082,0.000,0
40214.706,-24.902,-22.461,-25.879,-74.707,0.000,0
40214.710,-21.973,-18.555,-29.297,-75.195,0.000,0
40214.714,-27.344,-17.578,-31.250,-70.312,0.000,0
40214.718,-41.016,-17.090,-22.461,-64.453,0.000,0
40214.722,-35.156,-16.602,-22.461,-60.059,0.000,0
40214.725,-13.672,-20.996,-23.926,-52.246,0.000,0
40214.729,-11.719,-14.648,-13.672,-47.363,0.000,0
40214.733,-35.156,-12.695,-10.742,-62.500,0.000,0
40214.737,-32.715,-18.066,-18.555,-57.129,0.000,0
40214.741,-22.461,-12.695,-17.090,-49.316,0.000,0
40214.745,-36.133,-8.789,-10.742,-66.406,0.000,0
40214.749,-54.199,-19.043,-15.625,-59.570,0.000,0
40214.753,-39.062,-20.020,-13.672,-39.551,0.000,0
40214.757,-17.090,-12.695,-12.207,-36.133,0.000,0
40214.761,-24.414,-11.719,-16.602,-39.551,0.000,0
40214.764,-41.016,-11.719,-21.973,-47.363,0.000,0
40214.768,-40.039,-11.719,-24.414,-41.016,0.000,0
40214.772,-41.992,-9.766,-19.043,-40.039,0.000,0
40214.776,-48.828,-9.277,-18.555,-39.062,0.000,0
40214.780,-41.992,-16.113,-21.973,-44.922,0.000,0
40214.784,-33.691,-21.484,-23.438,-64.941,0.000,0
40214.788,-31.738,-16.113,-23.438,-55.176,0.000,0
40214.792,-36.621,-13.184,-24.414,-42.480,0.000,0
40214.796,-36.133,-11.230,-24.902,-42.969,0.000,0
40214.800,-30.273,-15.137,-27.344,-47.363,0.000,0
40214.804,-36.133,-19.043,-25.879,-55.176,0.000,0
40214.807,-39.062,-14.160,-21.973,-49.805,0.000,0
40214.811,-47.363,-7.324,-21.484,-45.410,0.000,0
40214.815,-46.387,-10.742,-20.508,-32.715,0.000,0
40214.819,-38.574,-10.742,-25.391,-30.762,0.000,0
40214.823,-55.176,-4.395,-29.297,-51.270,0.000,0
40214.827,-47.852,-12.207,-34.668,-47.852,0.000,0
40214.831,-20.508,-13.184,-35.645,-30.273,0.000,0
40214.835,-32.227,-6.348,-27.344,-36.133,0.000,0
40214.839,-45.410,-5.371,-22.949,-45.898,0.000,0
40214.843,-34.668,-4.883,-25.391,-48.828,0.000,0
40214.847,-26.367,-6.348,-27.344,-45.410,0.000,0
40214.850,-42.480,-9.277,-22.949,-40.039,0.000,0
40214.854,-36.133,-8.301,-18.555,-26.367,0.000,0
40214.858,-32.227,-1.953,-14.160,-27.344,0.000,0
40214.862,-25.879,-3.418,-17.090,-40.527,0.000,0
40214.866,-16.602,-8.301,-26.367,-33.691,0.000,0
40214.870,-32.715,-5.859,-26.855,-18.066,0.000,0
40214.874,-14.648,-3.906,-18.066,-16.602,0.000,0
40214.878,-8.301,-2.930,-12.207,-14.160,0.000,0
40214.882,-30.273,-7.812,-22.949,-25.391,0.000,0
40214.886,-28.809,-14.160,-29.785,-39.062,0.000,0
40214.889,-12.695,-13.672,-28.809,-34.668,0.000,0
40214.893,-9.766,-12.695,-31.738,-23.926,0.000,0
40214.897,-17.578,-10.254,-24.902,-9.277,0.000,0
40214.901,-29.785,-7.812,-20.508,-17.578,0.000,0
40214.905,-38.574,-7.324,-25.879,-13.672,0.000,0
40214.909,-37.109,-7.812,-29.297,-2.930,0.000,0
40214.913,-40.527,-6.836,-24.414,-17.090,0.000,0
40214.917,-40.527,-4.395,-23.926,-24.902,0.000,0
40214.921,-31.738,-5.371,-26.367,-26.367,0.000,0
40214.925,-31.250,-5.371,-25.879,-20.508,0.000,0
40214.929,-17.578,-2.930,-24.902,-24.414,0.000,0
40214.932,-12.695,-4.395,-27.344,-32.715,0.000,0
40214.936,-27.344,-5.371,-21.484,-28.809,0.000,0
40214.940,-33.203,-3.906,-19.043,-36.133,0.000,0
40214.944,-37.598,-3.418,-26.367,-40.039,0.000,0
40214.948,-30.762,-1.953,-23.438,-40.527,0.000,0
40214.952,-32.227,-2.930,-28.320,-46.875,0.000,0
40214.956,-39.551,-4.883,-33.691,-45.410,0.000,0
40214.960,-51.758,-6.836,-30.762,-42.969,0.000,0
40214.964,-32.715,-2.441,-21.484,-52.734,0.000,0
40214.968,-21.973,-1.465,-22.461,-48.828,0.000,0
40214.972,-28.809,-4.395,-28.320,-42.480,0.000,0
40214.975,-25.391,-5.859,-28.809,-49.316,0.000,0
40214.979,-20.996,3.418,-18.066,-52.734,0.000,0
40214.983,-21.484,14.648,-13.184,-51.758,0.000,0
40214.987,-31.738,9.277,-26.367,-55.176,0.000,0
40214.991,-38.574,4.883,-28.320,-48.828,0.000,0
40214.995,-33.691,9.766,-22.461,-37.598,0.000,0
40214.999,-36.133,16.113,-24.414,-47.363,0.000,0
40215.003,-42.480,16.602,-27.832,-50.293,0.000,0
40215.007,-29.785,14.648,-26.855,-36.621,0.000,0
40215.011,-21.484,7.812,-24.414,-35.645,0.000,0
40215.014,-28.809,5.859,-27.832,-30.273,0.000,0
40215.018,-25.391,8.301,-27.344,-19.043,0.000,0
40215.022,-15.137,4.395,-22.949,-32.227,0.000,0
40215.026,-21.484,4.883,-24.902,-43.457,0.000,0
40215.030,-37.109,6.836,-27.344,-40.039,0.000,0
40215.034,-44.434,9.277,-27.832,-35.645,0.000,0
40215.038,-36.133,9.277,-27.832,-41.016,0.000,0
40215.042,-31.250,9.277,-25.391,-47.363,0.000,0
40215.046,-42.480,10.254,-28.809,-41.016,0.000,0
40215.050,-50.293,6.348,-29.297,-47.363,0.000,0
40215.054,-35.645,10.254,-24.414,-47.363,0.000,0
40215.057,-18.066,16.113,-24.902,-45.410,0.000,0
40215.061,-24.902,19.531,-32.227,-44.434,0.000,0
40215.065,-29.297,21.973,-36.133,-37.598,0.000,0
40215.069,-15.625,25.391,-35.156,-22.949,0.000,0
40215.073,-21.484,42.969,-28.320,-25.391,0.000,0
40215.077,-35.156,63.477,-23.438,-49.316,0.000,0
40215.081,-29.785,80.078,-24.414,-48.828,0.000,0
40215.085,-31.738,90.820,-26.855,-44.434,0.000,0
40215.089,-41.504,90.820,-28.320,-52.734,0.000,0
40215.093,-49.805,95.215,-26.367,-47.852,0.000,0
40215.097,-43.945,100.098,-27.832,-51.758,0.000,0
40215.100,-23.438,96.191,-27.344,-48.340,0.000,0
40215.104,-42.969,91.309,-30.762,-46.387,0.000,0
40215.108,-47.363,90.820,-32.227,-46.875,0.000,0
40215.112,-33.691,88.867,-26.367,-41.992,0.000,0
40215.116,-36.133,82.031,-22.461,-52.734,0.000,0
40215.120,-38.086,79.590,-19.043,-58.594,0.000,0
40215.124,-34.180,79.102,-19.043,-53.223,0.000,0
40215.128,-34.668,73.730,-22.461,-60.547,0.000,0
40215.132,-28.320,71.289,-23.926,-49.316,0.000,0
40215.136,-37.109,67.871,-25.391,-43.945,0.000,0
40215.139,-48.828,64.453,-27.344,-53.223,0.000,0
40215.143,-36.621,62.988,-26.855,-35.156,0.000,0
40215.147,-23.926,56.641,-23.438,-26.367,0.000,0
40215.151,-38.086,52.246,-30.273,-34.668,0.000,0
40215.155,-49.805,50.293,-40.039,-49.805,0.000,0
40215.159,-32.715,48.828,-29.785,-50.293,0.000,0
40215.163,-24.902,46.387,-18.555,-24.414,0.000,0
40215.167,-36.133,41.016,-19.531,-19.043,0.000,0
40215.171,-39.062,38.086,-20.508,-20.020,0.000,0
40215.175,-32.715,38.574,-27.832,-32.227,0.000,0
40215.179,-34.180,39.551,-33.203,-41.016,0.000,0
40215.182,-28.809,37.598,-30.762,-33.203,0.000,0
40215.186,-23.926,30.762,-27.344,-34.180,0.000,0
40215.190,-31.738,26.855,-26.367,-39.551,0.000,0
40215.194,-37.109,27.344,-19.531,-45.410,0.000,0
40215.198,-42.969,20.020,-28.809,-44.434,0.000,0
40215.202,-34.180,15.625,-40.039,-31.738,0.000,0
40215.206,-23.926,20.996,-28.320,-23.926,0.000,0
40215.210,-19.531,21.973,-22.461,-26.367,0.000,0
40215.214,-17.090,15.625,-26.367,-43.457,0.000,0
40215.218,-13.184,15.625,-27.832,-46.387,0.000,0
40215.222,-19.043,16.113,-29.297,-34.180,0.000,0
40215.225,-25.391,19.043,-24.902,-32.715,0.000,0
40215.229,-21.484,21.973,-26.367,-32.227,0.000,0
40215.233,-26.367,12.695,-32.227,-36.133,0.000,0
40215.237,-37.598,7.812,-31.250,-50.293,0.000,0
40215.241,-50.293,13.672,-31.738,-51.270,0.000,0
40215.245,-48.340,16.602,-31.738,-39.062,0.000,0
40215.249,-24.414,16.602,-29.297,-31.250,0.000,0
40215.253,-29.297,14.160,-27.832,-48.340,0.000,0
40215.257,-52.246,13.184,-26.855,-59.570,0.000,0
40215.261,-43.945,16.602,-22.949,-49.316,0.000,0
40215.264,-31.250,22.461,-18.555,-38.574,0.000,0
40215.268,-34.668,22.461,-22.461,-32.715,0.000,0
40215.272,-39.062,21.484,-26.367,-37.598,0.000,0
40215.276,-33.691,23.926,-25.391,-45.898,0.000,0
40215.280,-26.367,27.344,-28.809,-33.203,0.000,0
40215.284,-31.738,28.809,-35.645,-20.508,0.000,0
40215.288,-34.180,41.992,-31.738,-24.902,0.000,0
40215.292,-16.602,65.430,-23.438,-23.438,0.000,0
40215.296,-25.879,82.031,-24.902,-25.879,0.000,0
40215.300,-42.969,95.703,-29.785,-30.273,0.000,0
40215.304,-39.551,104.980,-29.297,-35.645,0.000,0
40215.307,-38.086,109.863,-28.320,-37.109,0.000,0
40215.311,-39.551,113.770,-24.902,-30.762,0.000,0
40215.315,-42.480,112.793,-22.461,-34.180,0.000,0
40215.319,-41.504,117.676,-28.809,-28.320,0.000,0
40215.323,-21.973,120.117,-27.344,-27.344,0.000,0
40215.327,-19.043,116.699,-29.297,-38.086,0.000,0
40215.331,-39.062,118.164,-23.926,-41.504,0.000,0
40215.335,-33.691,113.281,-16.113,-39.551,0.000,0
40215.339,-33.691,104.980,-24.414,-33.203,0.000,0
40215.343,-35.645,100.586,-21.484,-33.691,0.000,0
40215.347,-34.668,91.797,-23.438,-27.344,0.000,0
40215.350,-28.809,86.426,-24.902,-25.879,0.000,0
40215.354,-34.180,81.543,-24.414,-42.969,0.000,0
40215.358,-52.246,78.125,-23.926,-38.086,0.000,0
40215.362,-50.293,74.707,-19.531,-40.039,0.000,0
40215.366,-34.668,64.941,-28.320,-48.828,0.000,0
40215.370,-36.621,61.035,-35.645,-49.805,0.000,0
40215.374,-46.387,65.918,-33.691,-60.059,0.000,0
40215.378,-45.898,72.754,-30.762,-60.547,0.000,0
40215.382,-26.855,82.520,-27.344,-43.945,0.000,0
40215.386,-30.273,87.891,-24.902,-19.531,0.000,0
40215.389,-52.734,96.191,-29.785,-19.531,0.000,0
40215.393,-50.293,119.629,-30.273,-43.945,0.000,0
40215.397,-40.527,142.090,-25.391,-37.109,0.000,0
40215.401,-33.691,150.391,-27.832,-29.785,0.000,0
40215.405,-25.391,151.855,-26.367,-40.039,0.000,0
40215.409,-18.066,159.180,-23.926,-32.227,0.000,0
40215.413,-19.043,163.574,-31.250,-42.969,0.000,0
40215.417,-38.574,167.969,-35.156,-48.340,0.000,0
40215.421,-43.457,176.270,-30.762,-30.273,0.000,0
40215.425,-24.902,182.617,-29.297,-25.391,0.000,0
40215.429,-18.066,189.453,-30.762,-36.621,0.000,0
40215.432,-28.320,206.055,-26.367,-51.758,0.000,0
40215.436,-31.738,216.797,-22.949,-40.527,0.000,0
40215.440,-14.648,244.629,-26.855,-33.691,0.000,0
40215.444,-21.973,308.105,-28.320,-50.781,0.000,0
40215.448,-46.875,357.422,-26.367,-52.246,0.000,0
40215.452,-46.387,379.883,-23.438,-53.711,0.000,0
40215.456,-33.691,392.090,-20.508,-46.387,0.000,0
40215.460,-25.391,399.902,-20.996,-25.879,0.000,0
40215.464,-23.926,405.273,-21.973,-27.344,0.000,0
40215.468,-32.715,412.598,-21.484,-33.691,0.000,0
40215.472,-42.969,429.199,-22.461,-39.551,0.000,0
40215.475,-23.438,459.473,-25.879,-46.387,0.000,0
40215.479,-20.996,503.418,-21.973,-32.227,0.000,0
40215.483,-44.922,541.016,-15.625,-32.227,0.000,0
40215.487,-41.504,560.547,-30.762,-38.574,0.000,0
40215.491,-31.738,583.008,-37.109,-41.992,0.000,0
40215.495,-26.367,628.906,-21.973,-39.551,0.000,0
40215.499,-20.020,688.477,-21.973,-18.555,0.000,0
40215.503,-28.809,736.328,-33.203,-27.832,0.000,0
40215.507,-32.227,795.410,-38.086,-32.227,0.000,0
40215.511,-41.504,871.094,-35.645,-28.320,0.000,0
40215.514,-56.641,934.082,-33.203,-38.574,0.000,0
40215.518,-35.645,967.773,-27.832,-31.250,0.000,0
40215.522,-22.949,972.168,-28.809,-34.180,0.000,0
40215.526,-42.480,971.191,-32.227,-32.715,0.000,0
40215.530,-44.434,972.168,-26.367,-22.461,0.000,0
40215.534,-35.156,972.168,-33.691,-20.508,0.000,0
40215.538,-50.781,972.168,-43.945,-11.230,0.000,0
40215.542,-47.852,972.168,-41.504,-16.602,0.000,0
40215.546,-40.039,972.656,-32.227,-26.367,0.000,0
40215.550,-36.621,970.215,-28.320,-26.367,0.000,0
40215.554,-27.344,975.098,-23.926,-29.297,0.000,0
40215.557,-45.410,951.172,-27.832,-22.461,0.000,1
40215.561,-51.758,890.625,-29.297,1.465,0.000,0
40215.565,-38.086,842.773,-31.738,-4.395,0.000,0
40215.569,-57.617,803.223,-40.039,-23.926,0.000,0
40215.573,-75.195,760.742,-36.621,-28.809,0.000,0
40215.577,-60.547,721.680,-32.715,-34.668,0.000,0
40215.581,-46.387,683.105,-28.809,-30.273,0.000,0
40215.585,-42.969,640.137,-26.367,-17.090,0.000,0
40215.589,-40.039,601.074,-29.297,-14.648,0.000,0
40215.593,-40.039,566.406,-23.438,-30.273,0.000,0
40215.597,-48.828,535.645,-12.207,-37.109,0.000,0
40215.600,-62.012,500.000,-19.531,-35.645,0.000,0
40215.604,-65.430,470.215,-41.504,-26.855,0.000,0
40215.608,-58.594,445.312,-39.062,-23.926,0.000,0
40215.612,-45.410,421.875,-23.438,-28.320,0.000,0
40215.616,-50.781,400.879,-26.367,-19.531,0.000,0
40215.620,-58.594,377.441,-34.668,-21.484,0.000,0
40215.624,-43.945,355.957,-48.340,-30.273,0.000,0
40215.628,-30.273,347.656,-46.387,-17.578,0.000,0
40215.632,-37.598,338.867,-29.297,-17.578,0.000,0
40215.636,-49.805,325.195,-28.809,-23.438,0.000,0
40215.639,-44.434,314.453,-26.367,-7.324,0.000,0
40215.643,-52.734,295.898,-24.902,-10.254,0.000,0
40215.647,-62.500,275.391,-33.203,-27.832,0.000,0
40215.651,-63.965,262.695,-33.203,-30.273,0.000,0
40215.655,-61.035,251.953,-29.297,-28.320,0.000,0
40215.659,-48.340,242.188,-23.438,-37.598,0.000,0
40215.663,-42.969,236.816,-20.508,-23.926,0.000,0
40215.667,-40.039,221.191,-31.250,-28.320,0.000,0
40215.671,-53.223,206.543,-38.574,-46.387,0.000,0
40215.675,-54.199,198.242,-31.250,-33.691,0.000,0
40215.679,-44.922,187.500,-27.832,-34.668,0.000,0
40215.682,-34.668,179.199,-22.949,-38.086,0.000,0
40215.686,-33.691,165.039,-23.926,-38.086,0.000,0
40215.690,-41.504,149.414,-24.902,-42.969,0.000,0
40215.694,-39.551,138.184,-19.531,-40.039,0.000,0
40215.698,-41.992,123.047,-23.926,-34.180,0.000,0
40215.702,-42.480,112.305,-30.273,-20.508,0.000,0
40215.706,-33.691,106.445,-21.484,-7.812,0.000,0
40215.710,-25.879,94.727,-12.695,-8.789,0.000,0
40215.714,-33.203,80.078,-22.949,-13.672,0.000,0
40215.718,-27.344,68.359,-35.645,-20.020,0.000,0
40215.722,-21.973,53.711,-38.086,-23.926,0.000,0
40215.725,-17.578,42.969,-34.180,-18.555,0.000,0
40215.729,-20.508,41.992,-27.344,-23.438,0.000,0
40215.733,-21.973,36.621,-26.367,-26.855,0.000,0
40215.737,-18.066,27.832,-20.996,-17.090,0.000,0
40215.741,-15.137,20.508,-24.414,-9.766,0.000,0
40215.745,-18.555,9.766,-28.320,-9.277,0.000,0
40215.749,-26.855,1.465,-25.391,-18.066,0.000,0
40215.753,-17.090,-5.859,-25.879,-8.301,0.000,0
40215.757,-5.859,-9.277,-23.926,-1.953,0.000,0
40215.761,-13.184,-15.625,-25.391,-17.578,0.000,0
40215.764,-36.621,-22.949,-19.531,-23.926,0.000,0
40215.768,-33.691,-31.250,-22.461,-27.832,0.000,0
40215.772,-21.973,-40.527,-29.785,-26.367,0.000,0
40215.776,-24.414,-43.945,-30.762,-26.367,0.000,0
40215.780,-15.137,-50.293,-26.367,-14.160,0.000,0
40215.784,-12.207,-51.270,-18.066,-33.203,0.000,0
40215.788,-30.762,-50.781,-20.508,-55.664,0.000,0
40215.792,-38.086,-52.246,-18.555,-38.574,0.000,0
40215.796,-39.062,-62.500,-24.414,-41.504,0.000,0
40215.800,-32.227,-70.312,-34.180,-48.340,0.000,0
40215.804,-21.973,-73.242,-29.785,-48.828,0.000,0
40215.807,-30.273,-75.684,-29.297,-56.152,0.000,0
40215.811,-31.738,-78.125,-30.762,-42.969,0.000,0
40215.815,-10.742,-83.008,-31.738,-40.039,0.000,0
40215.819,-15.625,-82.031,-29.785,-47.363,0.000,0
40215.823,-29.297,-81.543,-27.344,-44.922,0.000,0
40215.827,-29.785,-80.566,-22.949,-47.363,0.000,0
40215.831,-9.766,-79.102,-24.902,-36.621,0.000,0
40215.835,17.090,-81.543,-27.832,-26.367,0.000,0
40215.839,2.930,-87.402,-27.344,-23.438,0.000,0
40215.843,-12.207,-90.332,-30.762,-13.184,0.000,0
40215.847,-2.441,-90.820,-30.762,-29.297,0.000,0
40215.850,13.672,-93.262,-26.367,-27.344,0.000,0
40215.854,3.418,-98.145,-23.926,-19.531,0.000,0
40215.858,-9.766,-101.074,-30.762,-23.926,0.000,0
40215.862,-2.930,-100.586,-29.297,-22.949,0.000,0
40215.866,-0.488,-97.168,-24.414,-32.715,0.000,0
40215.870,8.301,-95.215,-25.391,-27.344,0.000,0
40215.874,13.184,-97.656,-22.949,-17.090,0.000,0
40215.878,20.020,-102.051,-30.273,-13.184,0.000,0
40215.882,25.391,-106.445,-40.039,-5.371,0.000,0
40215.886,14.160,-109.375,-33.691,-15.137,0.000,0
40215.889,6.836,-106.934,-29.785,-9.277,0.000,0
40215.893,3.418,-105.957,-32.715,-7.324,0.000,0
40215.897,-4.883,-109.375,-28.320,-20.020,0.000,0
40215.901,-13.672,-110.352,-25.879,-19.531,0.000,0
40215.905,-14.160,-110.352,-25.391,-20.020,0.000,0
40215.909,-12.695,-112.305,-22.461,-30.762,0.000,0
40215.913,-11.719,-111.328,-22.949,-28.320,0.000,0
40215.917,-0.977,-111.328,-24.414,-11.230,0.000,0
40215.921,16.602,-113.770,-23.926,-4.395,0.000,0
40215.925,16.602,-118.652,-22.949,-14.648,0.000,0
40215.929,-6.348,-124.512,-21.484,-12.207,0.000,0
40215.932,-15.625,-125.977,-20.020,-15.625,0.000,0
40215.936,-18.555,-127.930,-26.367,-32.227,0.000,0
40215.940,-19.531,-124.512,-25.391,-32.715,0.000,0
40215.944,-13.184,-120.117,-24.414,-27.832,0.000,0
40215.948,-16.602,-123.047,-22.461,-30.762,0.000,0
40215.952,-0.488,-126.465,-26.855,-24.902,0.000,0
40215.956,-0.488,-126.953,-31.250,-28.809,0.000,0
40215.960,-20.996,-128.418,-30.273,-34.180,0.000,0
40215.964,-12.207,-131.836,-27.832,-29.297,0.000,0
40215.968,-0.488,-126.465,-23.438,-27.344,0.000,0
40215.972,-7.812,-131.836,-26.855,-25.879,0.000,0
40215.975,-14.648,-137.695,-26.855,-27.832,0.000,0
40215.979,-17.090,-134.766,-26.367,-21.973,0.000,0
40215.983,-16.113,-142.578,-30.273,-38.086,0.000,0
40215.987,-12.695,-145.508,-35.645,-31.250,0.000,0
40215.991,-8.789,-139.160,-28.809,-6.836,0.000,0
40215.995,-7.324,-141.113,-25.391,-20.996,0.000,0
40215.999,-14.160,-145.508,-30.273,-27.832,0.000,0
40216.003,-4.883,-136.230,-23.926,-16.602,0.000,0
40216.007,-6.348,-134.277,-26.855,-13.672,0.000,0
40216.011,-9.277,-136.230,-29.297,-17.090,0.000,0
40216.014,-4.883,-131.348,-22.949,-13.184,0.000,0
40216.018,-9.766,-135.254,-29.297,-12.695,0.000,0
40216.022,-5.371,-138.184,-26.855,-7.812,0.000,0
40216.026,-9.277,-142.090,-24.414,-5.859,0.000,0
40216.030,-11.719,-137.695,-24.902,-7.812,0.000,0
40216.034,-2.930,-133.301,-22.461,-9.766,0.000,0
40216.038,3.906,-141.113,-29.785,-19.043,0.000,0
40216.042,2.930,-144.531,-25.391,-28.320,0.000,0
40216.046,-2.441,-138.184,-18.066,-20.508,0.000,0
40216.050,6.348,-134.766,-20.020,-5.371,0.000,0
40216.054,14.648,-135.742,-23.438,-7.812,0.000,0
40216.057,5.859,-133.301,-25.879,-10.742,0.000,0
40216.061,-12.207,-134.766,-29.785,-20.020,0.000,0
40216.065,-20.996,-137.207,-26.367,-22.461,0.000,0
40216.069,-11.719,-134.766,-22.949,-21.973,0.000,0
40216.073,-5.859,-130.859,-18.555,-23.926,0.000,0
40216.077,-20.508,-132.812,-19.043,-10.742,0.000,0
40216.081,-24.414,-141.113,-28.320,-21.484,0.000,0
40216.085,-27.832,-145.020,-34.180,-34.668,0.000,0
40216.089,-30.762,-139.648,-25.879,-23.438,0.000,0
40216.093,-43.457,-142.090,-25.391,-16.113,0.000,0
40216.097,-41.504,-144.531,-34.668,-9.766,0.000,0
40216.100,-28.320,-133.789,-25.391,-4.395,0.000,0
40216.104,-36.621,-132.324,-20.996,0.977,0.000,0
40216.108,-42.969,-141.602,-24.902,7.812,0.000,0
40216.112,-36.133,-137.207,-19.531,-5.371,0.000,0
40216.116,-41.016,-135.742,-22.949,-17.578,0.000,0
40216.120,-45.410,-146.973,-30.273,-20.996,0.000,0
40216.124,-45.898,-147.949,-39.062,-36.621,0.000,0
40216.128,-48.340,-147.461,-44.922,-31.738,0.000,0
40216.132,-40.039,-147.461,-39.551,-15.137,0.000,0
40216.136,-40.039,-143.555,-35.645,-12.695,0.000,0
40216.139,-40.039,-140.137,-36.621,-8.301,0.000,0
40216.143,-32.715,-139.160,-34.180,-11.719,0.000,0
40216.147,-44.922,-140.625,-30.273,-23.926,0.000,0
40216.151,-62.012,-139.160,-31.738,-33.691,0.000,0
40216.155,-51.758,-135.254,-36.621,-19.043,0.000,0
40216.159,-37.109,-134.766,-29.785,-20.996,0.000,0
40216.163,-32.715,-133.789,-25.391,-37.109,0.000,0
40216.167,-41.992,-131.836,-29.785,-17.578,0.000,0
40216.171,-46.387,-127.930,-27.344,-4.395,0.000,0
40216.175,-42.969,-129.883,-25.391,-27.832,0.000,0
40216.179,-45.410,-135.254,-30.762,-41.992,0.000,0
40216.182,-56.152,-134.277,-32.227,-34.668,0.000,0
40216.186,-46.387,-128.418,-27.832,-26.367,0.000,0
40216.190,-34.180,-126.465,-30.273,-34.668,0.000,1
40216.194,-47.363,-130.371,-38.086,-21.484,0.000,0
40216.198,-48.340,-133.301,-38.086,-20.508,0.000,0
40216.202,-38.086,-131.348,-33.691,-37.598,0.000,0
40216.206,-36.621,-132.324,-32.715,-25.391,0.000,0
40216.210,-52.246,-137.207,-35.645,-21.484,0.000,0
40216.214,-53.711,-133.301,-35.156,-11.230,0.000,0
40216.218,-43.945,-126.465,-31.738,-13.184,0.000,0
40216.222,-37.598,-126.465,-35.156,-20.020,0.000,0
40216.225,-43.945,-129.883,-33.203,-12.695,0.000,0
40216.229,-41.992,-133.789,-33.691,-15.137,0.000,0
40216.233,-30.273,-134.766,-40.039,-14.160,0.000,0
40216.237,-50.293,-135.254,-35.645,-23.926,0.000,0
40216.241,-66.406,-137.207,-37.598,-20.020,0.000,0
40216.245,-48.828,-131.348,-43.457,-13.672,0.000,0
40216.249,-34.180,-126.465,-36.133,-14.160,0.000,0
40216.253,-38.574,-124.512,-25.879,1.953,0.000,0
40216.257,-47.363,-125.977,-29.785,0.000,0.000,0
40216.261,-54.688,-128.418,-33.203,-30.762,0.000,0
40216.264,-45.410,-125.488,-41.016,-35.156,0.000,0
40216.268,-34.180,-119.141,-38.574,-12.695,0.000,0
40216.272,-42.480,-120.117,-32.715,-21.973,0.000,0
40216.276,-41.992,-123.047,-32.715,-42.969,0.000,0
40216.280,-36.621,-119.141,-31.738,-36.621,0.000,0
40216.284,-39.551,-118.164,-33.203,-28.809,0.000,0
40216.288,-40.527,-120.117,-34.180,-30.762,0.000,0
40216.292,-31.738,-114.258,-29.297,-21.973,0.000,0
40216.296,-37.109,-118.652,-29.297,-32.227,0.000,0
40216.300,-41.504,-121.582,-34.668,-47.852,0.000,0
40216.304,-31.738,-118.652,-37.598,-36.133,0.000,0
40216.307,-21.484,-119.141,-39.062,-23.926,0.000,0
40216.311,-31.250,-115.723,-40.039,-21.484,0.000,0
40216.315,-46.875,-117.676,-40.527,-29.785,0.000,0
40216.319,-38.086,-118.652,-42.969,-34.180,0.000,0
40216.323,-27.344,-113.281,-33.203,-30.273,0.000,0
40216.327,-45.898,-113.770,-29.297,-26.367,0.000,0
40216.331,-52.246,-115.234,-32.715,-20.020,0.000,0
40216.335,-22.461,-105.469,-22.949,-15.137,0.000,0
40216.339,-15.137,-101.562,-20.508,-20.508,0.000,0
40216.343,-32.715,-100.586,-16.113,-25.391,0.000,0
40216.347,-31.250,-100.586,-10.254,-25.879,0.000,0
40216.350,-24.902,-104.492,-16.113,-30.762,0.000,0
40216.354,-34.668,-104.004,-20.020,-30.273,0.000,0
40216.358,-38.574,-104.980,-24.414,-38.574,0.000,0
40216.362,-45.410,-104.004,-29.297,-40.527,0.000,0
40216.366,-19.531,-95.703,-19.531,-23.926,0.000,0
40216.370,-0.977,-93.750,-18.555,-3.418,0.000,0
40216.374,-28.809,-98.633,-22.949,-9.766,0.000,0
40216.378,-25.879,-92.773,-12.695,-29.297,0.000,0
40216.382,-10.742,-86.914,-8.789,-20.020,0.000,0
40216.386,-14.160,-93.262,-12.695,-22.461,0.000,0
40216.389,-20.020,-93.262,-14.160,-31.250,0.000,0
40216.393,-30.273,-93.750,-15.137,-35.156,0.000,0
40216.397,-19.043,-99.121,-17.578,-29.297,0.000,0
40216.401,-21.973,-97.168,-23.438,-17.090,0.000,0
40216.405,-36.133,-96.680,-20.996,-27.344,0.000,0
40216.409,-23.926,-95.703,-18.555,-27.344,0.000,0
40216.413,-16.602,-94.238,-24.414,-25.879,0.000,0
40216.417,-22.461,-96.191,-22.461,-34.180,0.000,0
40216.421,-30.762,-94.238,-19.043,-24.414,0.000,0
40216.425,-35.156,-89.355,-20.996,-23.926,0.000,0
40216.429,-20.996,-83.984,-17.578,-21.484,0.000,0
40216.432,-2.930,-80.078,-10.742,-17.090,0.000,0
40216.436,-1.465,-76.172,-9.766,-21.973,0.000,0
40216.440,-4.883,-75.195,-18.066,-21.973,0.000,0
40216.444,-29.297,-82.031,-25.879,-32.227,0.000,0
40216.448,-48.340,-81.543,-16.113,-41.016,0.000,0
40216.452,-48.340,-81.543,-14.648,-42.969,0.000,0
40216.456,-29.297,-81.543,-18.555,-39.551,0.000,0
40216.460,-11.719,-77.148,-14.648,-25.879,0.000,0
40216.464,-30.762,-77.637,-20.996,-11.719,0.000,0
40216.468,-45.410,-77.148,-27.832,-9.766,0.000,0
40216.472,-23.438,-79.590,-25.879,-16.113,0.000,0
40216.475,-21.973,-79.590,-20.996,-31.250,0.000,0
40216.479,-42.480,-83.984,-23.926,-39.062,0.000,0
40216.483,-45.898,-83.984,-21.973,-37.598,0.000,0
40216.487,-40.039,-81.543,-24.902,-40.039,0.000,0
40216.491,-35.645,-83.496,-24.902,-42.480,0.000,0
40216.495,-36.621,-80.078,-20.020,-47.363,0.000,0
40216.499,-29.297,-75.684,-23.926,-38.086,0.000,0
40216.503,-20.020,-73.730,-24.414,-29.297,0.000,0
40216.507,-6.348,-74.219,-25.879,-16.113,0.000,0
40216.511,-11.230,-70.312,-27.832,-8.301,0.000,0
40216.514,-25.879,-69.824,-24.414,-26.855,0.000,0
40216.518,-17.578,-75.195,-20.508,-20.996,0.000,0
40216.522,-24.414,-72.266,-17.578,-19.531,0.000,0
40216.526,-22.949,-67.871,-18.555,-28.320,0.000,0
40216.530,2.441,-64.941,-20.508,-13.672,0.000,0
40216.534,3.906,-64.941,-12.207,-19.043,0.000,0
40216.538,-7.324,-70.801,-8.789,-30.273,0.000,0
40216.542,-16.602,-81.055,-22.949,-36.133,0.000,0
40216.546,-38.086,-82.520,-30.762,-40.527,0.000,0
40216.550,-30.273,-79.590,-35.156,-19.531,0.000,0
40216.554,-15.625,-70.312,-30.762,-20.996,0.000,0
40216.557,-38.086,-67.383,-24.414,-38.574,0.000,0
40216.561,-23.926,-71.289,-28.809,-39.551,0.000,0
40216.565,1.465,-62.988,-16.602,-32.715,0.000,0
40216.569,-19.531,-68.359,-17.090,-33.691,0.000,0
40216.573,-31.738,-76.660,-29.785,-38.574,0.000,0
40216.577,-22.949,-71.289,-26.367,-40.039,0.000,0
40216.581,-21.484,-68.359,-25.391,-28.320,0.000,0
40216.585,-16.113,-68.848,-20.996,-22.461,0.000,0
40216.589,-22.461,-71.289,-23.438,-33.203,0.000,0
40216.593,-26.855,-67.383,-20.996,-35.645,0.000,0
40216.597,-20.508,-65.918,-20.996,-33.203,0.000,0
40216.600,-25.879,-69.824,-23.438,-44.922,0.000,0
40216.604,-31.250,-71.289,-27.344,-34.668,0.000,0
40216.608,-26.367,-63.965,-29.297,-21.973,0.000,0
40216.612,-33.691,-61.523,-20.020,-31.738,0.000,0
40216.616,-26.855,-63.965,-17.578,-23.926,0.000,0
40216.620,-20.508,-62.988,-16.602,-34.668,0.000,0
40216.624,-38.086,-64.453,-20.020,-40.039,0.000,0
40216.628,-25.879,-64.941,-18.555,-20.020,0.000,0
40216.632,-27.832,-65.430,-18.555,-25.391,0.000,0
40216.636,-39.551,-66.406,-20.020,-35.645,0.000,0
40216.639,-28.809,-66.895,-19.531,-29.297,0.000,0
40216.643,-16.602,-60.059,-20.508,-15.137,0.000,0
40216.647,-30.273,-54.688,-19.531,-11.230,0.000,0
40216.651,-27.344,-58.105,-20.508,-12.207,0.000,0
40216.655,-21.484,-63.965,-23.438,-15.137,0.000,0
40216.659,-28.809,-66.895,-25.391,-32.715,0.000,0
40216.663,-21.973,-60.059,-19.531,-29.785,0.000,0
40216.667,-14.160,-57.129,-16.602,-25.879,0.000,0
40216.671,-29.297,-58.594,-23.926,-30.762,0.000,0
40216.675,-41.504,-62.012,-28.320,-26.367,0.000,0
40216.679,-30.762,-70.312,-29.297,-24.414,0.000,0
40216.682,-1.953,-63.965,-22.461,-21.484,0.000,0
40216.686,6.836,-56.152,-21.973,-7.812,0.000,0
40216.690,-16.602,-65.918,-31.738,-15.625,0.000,0
40216.694,-21.973,-74.219,-27.344,-37.598,0.000,0
40216.698,-22.461,-70.312,-28.320,-32.715,0.000,0
40216.702,-20.020,-63.965,-30.273,-27.344,0.000,0
40216.706,-4.883,-57.129,-20.996,-4.883,0.000,0
40216.710,9.277,-56.641,-16.602,1.465,0.000,0
40216.714,-13.672,-68.848,-32.715,-45.410,0.000,0
40216.718,-25.391,-77.148,-41.504,-54.688,0.000,0
40216.722,-17.090,-78.125,-37.598,-33.203,0.000,0
40216.725,-25.391,-80.078,-37.598,-31.250,0.000,0
40216.729,-9.277,-76.172,-30.273,-36.133,0.000,0
40216.733,6.348,-62.988,-14.160,-30.762,0.000,0
40216.737,2.930,-59.082,-20.020,-17.090,0.000,0
40216.741,3.418,-63.477,-20.020,-15.137,0.000,0
40216.745,-3.906,-63.965,-16.113,-16.113,0.000,0
40216.749,-30.273,-71.777,-31.250,-31.250,0.000,0
40216.753,-37.598,-79.590,-37.109,-39.062,0.000,0
40216.757,-12.695,-76.172,-28.320,-30.273,0.000,0
40216.761,-19.531,-73.242,-21.484,-24.902,0.000,0
40216.764,-13.672,-68.848,-25.391,-17.578,0.000,0
40216.768,-3.906,-67.383,-29.297,-34.668,0.000,0
40216.772,-32.715,-75.195,-29.785,-51.270,0.000,0
40216.776,-43.457,-75.195,-35.156,-47.852,0.000,0
40216.780,-36.133,-77.148,-44.922,-39.062,0.000,0
40216.784,-28.809,-79.590,-43.457,-33.203,0.000,0
40216.788,-11.230,-73.730,-34.180,-30.273,0.000,0
40216.792,-12.207,-65.918,-19.043,-27.832,0.000,0
40216.796,-22.461,-67.871,-21.973,-23.438,0.000,0
40216.800,-25.391,-77.148,-31.738,-32.227,0.000,0
40216.804,-17.090,-77.148,-34.180,-41.016,0.000,0
40216.807,-19.531,-75.684,-41.992,-45.898,0.000,0
40216.811,-35.156,-78.613,-39.551,-63.477,0.000,0
40216.815,-28.809,-73.730,-28.809,-54.688,0.000,0
40216.819,-5.371,-66.406,-27.832,-38.086,0.000,0
40216.823,-3.906,-61.523,-27.344,-21.973,0.000,0
40216.827,-34.668,-73.242,-37.598,-32.227,0.000,0
40216.831,-35.156,-73.730,-37.598,-54.199,0.000,0
40216.835,-20.508,-64.453,-29.785,-46.875,0.000,0
40216.839,-19.531,-68.359,-26.367,-31.250,0.000,0
40216.843,-11.230,-66.895,-21.484,-27.832,0.000,0
40216.847,-5.859,-71.777,-28.320,-36.133,0.000,0
40216.850,-9.766,-76.660,-26.855,-36.621,0.000,0
40216.854,0.977,-62.500,-18.066,-19.531,0.000,0
40216.858,6.348,-62.012,-21.973,-18.555,0.000,0
40216.862,11.230,-69.336,-25.391,-23.438,0.000,1
40216.866,19.531,-63.477,-21.973,-14.648,0.000,0
40216.870,-5.859,-65.430,-23.926,-33.203,0.000,0
40216.874,-24.414,-74.219,-34.180,-43.457,0.000,0
40216.878,-19.043,-74.219,-34.668,-43.945,0.000,0
40216.882,-12.207,-71.289,-29.785,-37.598,0.000,0
40216.886,-20.996,-68.359,-34.180,-28.320,0.000,0
40216.889,-21.484,-70.312,-39.551,-46.875,0.000,0
40216.893,-13.672,-65.430,-32.715,-55.176,0.000,0
40216.897,1.953,-58.105,-26.367,-43.457,0.000,0
40216.901,15.137,-50.781,-21.484,-29.297,0.000,0
40216.905,16.602,-51.758,-29.297,-6.348,0.000,0
40216.909,30.273,-57.617,-33.691,2.930,0.000,0
40216.913,28.809,-52.246,-20.996,6.348,0.000,0
40216.917,18.066,-51.270,-21.484,2.441,0.000,0
40216.921,19.043,-54.199,-25.391,-20.020,0.000,0
40216.925,21.484,-52.246,-22.949,-29.297,0.000,0
40216.929,17.090,-43.945,-24.902,-24.414,0.000,0
40216.932,-10.742,-44.434,-24.902,-25.391,0.000,0
40216.936,2.441,-48.828,-24.902,-23.438,0.000,0
40216.940,20.508,-49.316,-29.297,-25.391,0.000,0
40216.944,16.602,-53.223,-30.273,-25.391,0.000,0
40216.948,16.113,-51.270,-24.902,-20.508,0.000,0
40216.952,15.625,-40.527,-16.602,-15.137,0.000,0
40216.956,-1.465,-44.434,-18.066,-13.672,0.000,0
40216.960,1.465,-52.734,-25.879,-17.090,0.000,0
40216.964,20.508,-49.316,-27.832,-9.766,0.000,0
40216.968,11.719,-46.875,-31.250,-13.184,0.000,0
40216.972,-3.418,-50.781,-41.016,-14.160,0.000,0
40216.975,11.230,-52.734,-36.621,-2.441,0.000,0
40216.979,38.086,-37.109,-9.766,-0.488,0.000,0
40216.983,22.949,-41.504,-19.043,-17.090,0.000,0
40216.987,-25.391,-60.547,-47.852,-34.180,0.000,0
40216.991,-8.789,-44.434,-31.738,-12.207,0.000,0
40216.995,22.949,-44.922,-33.691,-19.043,0.000,0
40216.999,5.859,-48.828,-42.480,-22.949,0.000,0
40217.003,1.465,-43.457,-34.180,5.859,0.000,0
40217.007,-1.465,-53.711,-47.852,-12.695,0.000,0
40217.011,-15.625,-48.340,-44.922,-34.180,0.000,0
40217.014,-24.414,-44.434,-39.062,-30.273,0.000,0
40217.018,-20.020,-45.410,-36.621,-39.062,0.000,0
40217.022,-20.508,-41.992,-38.086,-42.969,0.000,0
40217.026,-18.555,-36.133,-43.945,-27.344,0.000,0
40217.030,-8.789,-20.996,-32.227,-42.969,0.000,0
40217.034,-39.062,-13.184,-30.762,-30.762,0.000,0
40217.038,-75.684,-9.277,-33.691,-2.441,0.000,0
40217.042,0.977,-4.883,-27.344,-14.648,0.000,0
40217.046,37.598,-9.766,-33.691,-34.668,0.000,0
40217.050,-5.371,-13.184,-35.645,-25.879,0.000,0
40217.054,-2.441,-18.066,-38.574,-17.578,0.000,0
40217.057,12.207,-24.902,-42.969,-37.598,0.000,0
40217.061,-3.418,-24.414,-35.645,-46.387,0.000,0
40217.065,-10.254,-28.809,-35.645,-47.363,0.000,0
40217.069,-24.902,-44.434,-49.316,-51.270,0.000,0
40217.073,-15.625,-41.992,-44.922,-63.477,0.000,0
40217.077,-17.578,-41.992,-33.691,-54.199,0.000,0
40217.081,-83.496,-47.363,-33.691,-17.090,0.000,0
40217.085,-30.273,-52.734,-31.250,-50.781,0.000,0
40217.089,-138.672,-69.824,-45.410,-55.664,0.000,0
40217.093,-182.129,-78.613,-54.688,-20.996,0.000,0
40217.097,-11.230,-73.242,-34.668,-49.805,0.000,0
40217.100,33.203,-64.941,-33.203,-62.012,0.000,0
40217.104,43.457,-57.129,-40.527,-56.152,0.000,0
40217.108,30.762,-58.594,-31.250,-41.992,0.000,0
40217.112,29.785,-75.195,-24.414,-48.828,0.000,0
40217.116,12.695,-87.402,-34.668,-37.109,0.000,0
40217.120,6.836,-87.891,-37.598,-17.090,0.000,0
40217.124,-39.551,-91.309,-42.969,-39.551,0.000,0
40217.128,-26.367,-88.867,-43.457,-47.852,0.000,0
40217.132,-48.340,-79.102,-35.156,-28.809,0.000,0
40217.136,-124.023,-82.520,-37.598,-36.133,0.000,0
40217.139,-4.883,-77.637,-27.832,-50.293,0.000,0
40217.143,31.250,-73.242,-21.973,-46.387,0.000,0
40217.147,-19.531,-79.590,-29.297,-48.828,0.000,0
40217.151,-36.133,-69.824,-28.320,-25.391,0.000,0
40217.155,-59.570,-66.895,-22.949,-15.137,0.000,0
40217.159,-63.477,-63.965,-20.996,-34.180,0.000,0
40217.163,-44.922,-62.500,-24.414,-42.480,0.000,0
40217.167,-41.992,-69.336,-29.297,-33.203,0.000,0
40217.171,-36.133,-65.918,-27.832,-15.137,0.000,0
40217.175,-41.016,-69.336,-28.320,-20.996,0.000,0
40217.179,-58.594,-73.730,-36.133,-9.277,0.000,0
40217.182,-13.184,-64.941,-26.855,-16.113,0.000,0
40217.186,-12.695,-65.430,-25.391,-17.578,0.000,0
40217.190,-5.859,-70.312,-28.809,-14.160,0.000,0
40217.194,-2.930,-71.777,-28.809,-12.207,0.000,0
40217.198,-51.270,-65.918,-24.902,-20.996,0.000,0
40217.202,-135.742,-67.383,-31.738,-16.113,0.000,0
40217.206,-39.551,-68.359,-33.691,-17.090,0.000,0
40217.210,59.082,-64.453,-25.391,-30.273,0.000,0
40217.214,2.930,-60.059,-23.438,-34.180,0.000,0
40217.218,-25.391,-52.734,-18.066,-31.250,0.000,0
40217.222,-25.879,-53.223,-22.461,-12.695,0.000,0
40217.225,-4.883,-52.734,-29.297,-15.137,0.000,0
40217.229,22.949,-57.617,-34.668,-21.484,0.000,0
40217.233,-39.551,-57.617,-41.992,-16.113,0.000,0
40217.237,-32.715,-47.852,-37.109,-7.324,0.000,0
40217.241,3.906,-46.387,-29.297,-13.184,0.000,0
40217.245,-42.969,-49.316,-24.902,-37.109,0.000,0
40217.249,-94.238,-54.688,-27.832,-18.066,0.000,0
40217.253,-18.555,-57.129,-21.973,-24.414,0.000,0
40217.257,27.832,-52.734,-19.043,-35.645,0.000,0
40217.261,-11.230,-51.270,-25.879,-27.344,0.000,0
40217.264,-8.789,-50.293,-19.043,-33.203,0.000,0
40217.268,19.531,-46.387,-16.602,-26.367,0.000,0
40217.272,17.578,-44.434,-16.602,-29.297,0.000,0
40217.276,-37.109,-45.898,-15.137,-17.578,0.000,0
40217.280,-43.457,-48.828,-12.207,-16.602,0.000,0
40217.284,0.000,-50.293,-12.207,-39.062,0.000,0
40217.288,-22.461,-53.223,-23.926,-16.602,0.000,0
40217.292,5.859,-47.363,-19.531,16.602,0.000,0
40217.296,27.832,-41.504,-11.719,-1.953,0.000,0
40217.300,-1.953,-46.387,-22.949,-28.809,0.000,0
40217.304,-44.922,-48.828,-32.227,-20.020,0.000,0
40217.307,-65.430,-47.363,-27.832,2.441,0.000,0
40217.311,-3.906,-42.480,-16.113,-5.859,0.000,0
40217.315,6.348,-42.480,-10.742,-20.996,0.000,0
40217.319,-18.066,-49.316,-16.113,-27.344,0.000,0
40217.323,-14.160,-43.945,-22.461,-12.695,0.000,0
40217.327,-26.855,-38.086,-22.949,-19.531,0.000,0
40217.331,-23.926,-42.969,-20.020,-37.598,0.000,0
40217.335,-17.578,-46.875,-23.438,-37.109,0.000,0
40217.339,-18.555,-46.875,-30.762,-48.828,0.000,0
40217.343,-29.297,-48.340,-32.715,-60.059,0.000,0
40217.347,-32.715,-42.480,-22.461,-64.941,0.000,0
40217.350,-49.316,-30.762,-14.160,-47.852,0.000,0
40217.354,-24.902,-33.203,-18.555,-34.180,0.000,0
40217.358,-6.836,-42.480,-24.902,-42.969,0.000,0
40217.362,-15.137,-46.875,-29.785,-15.625,0.000,0
40217.366,-10.254,-39.062,-22.461,-1.953,0.000,0
40217.370,-37.109,-32.227,-14.648,-38.086,0.000,0
40217.374,-35.156,-32.715,-21.484,-31.250,0.000,0
40217.378,-17.090,-30.762,-24.414,-23.926,0.000,0
40217.382,-41.992,-36.621,-35.156,-51.270,0.000,0
40217.386,-31.250,-41.504,-41.992,-35.645,0.000,0
40217.389,-58.594,-46.875,-38.086,-5.371,0.000,0
40217.393,-49.316,-45.410,-33.203,-20.996,0.000,0
40217.397,-9.766,-44.922,-29.297,-27.344,0.000,0
40217.401,-76.172,-50.781,-35.156,-41.992,0.000,0
40217.405,-41.992,-46.875,-33.203,-52.734,0.000,0
40217.409,10.742,-45.898,-42.480,-56.152,0.000,0
40217.413,8.789,-56.152,-43.945,-51.270,0.000,0
40217.417,-37.109,-58.594,-26.855,-29.785,0.000,0
40217.421,-67.383,-46.387,-16.113,-20.996,0.000,0
40217.425,-86.914,-51.270,-33.691,-22.949,0.000,0
40217.429,-21.973,-52.246,-34.180,-37.109,0.000,0
40217.432,-0.977,-44.922,-34.668,-14.160,0.000,0
40217.436,-20.996,-44.922,-37.598,-35.645,0.000,0
40217.440,-28.809,-49.805,-23.926,-54.688,0.000,0
40217.444,-27.832,-48.828,-25.391,-6.836,0.000,0
40217.448,12.207,-45.410,-27.344,-4.395,0.000,0
40217.452,3.906,-43.457,-31.250,-16.602,0.000,0
40217.456,-30.762,-40.527,-32.227,-3.418,0.000,0
40217.460,-13.184,-42.480,-33.691,-38.574,0.000,0
40217.464,7.812,-41.992,-35.645,-55.176,0.000,0
40217.468,-10.742,-40.527,-33.691,-20.508,0.000,0
40217.472,-25.391,-39.551,-33.203,-4.883,0.000,0
40217.475,-18.066,-40.527,-41.504,-20.020,0.000,0
40217.479,-49.805,-41.504,-39.062,-30.762,0.000,0
40217.483,-71.289,-38.574,-30.273,-28.320,0.000,0
40217.487,-31.738,-30.273,-22.461,-13.184,0.000,0
40217.491,15.625,-26.367,-18.066,-11.719,0.000,0
40217.495,40.039,-42.480,-22.461,-15.137,0.000,0
40217.499,13.184,-46.875,-19.043,6.348,0.000,0
40217.503,-1.465,-42.969,-17.090,21.484,0.000,0
40217.507,-6.836,-47.852,-26.367,31.738,0.000,0
40217.511,-14.648,-49.316,-28.809,27.344,0.000,0
40217.514,-10.742,-44.922,-26.855,19.531,0.000,0
40217.518,22.949,-41.016,-25.391,-6.836,0.000,0
40217.522,35.156,-27.344,-22.461,-4.883,0.000,0
40217.526,-7.812,-22.949,-26.367,-13.184,0.000,0
40217.530,-2.930,-39.062,-31.250,-3.418,0.000,0
40217.534,40.527,-33.203,-23.438,9.766,0.000,0
40217.538,27.832,-27.832,-23.438,-8.789,0.000,0
40217.542,-89.844,-36.621,-41.016,16.602,0.000,0
40217.546,-5.859,-27.832,-34.668,4.883,0.000,0
40217.550,105.469,-22.461,-25.391,-7.324,0.000,0
40217.554,31.250,-27.832,-29.297,12.695,0.000,1
40217.557,41.992,-27.832,-30.762,17.090,0.000,0
40217.561,41.992,-29.297,-34.668,17.578,0.000,0
40217.565,14.648,-28.809,-36.621,1.465,0.000,0
40217.569,28.809,-19.043,-24.902,-8.789,0.000,0
40217.573,-11.230,-19.043,-28.320,-3.418,0.000,0
40217.577,-7.324,-2.441,-26.367,24.414,0.000,0
40217.581,46.387,16.602,-20.996,31.250,0.000,0
40217.585,-3.906,13.672,-30.762,-28.809,0.000,0
40217.589,-40.039,6.836,-33.691,-51.758,0.000,0
40217.593,-25.391,17.090,-33.203,-31.738,0.000,0
40217.597,-52.246,26.367,-33.691,-43.457,0.000,0
40217.600,-32.227,35.156,-26.855,-38.574,0.000,0
40217.604,-5.371,35.156,-27.344,-69.824,0.000,0
40217.608,-67.383,32.715,-30.762,-81.055,0.000,0
40217.612,-82.031,34.180,-30.762,-49.316,0.000,0
40217.616,-27.344,38.574,-21.484,-50.781,0.000,0
40217.620,-34.668,44.434,-16.113,-40.527,0.000,0
40217.624,-70.312,41.504,-24.902,-19.043,0.000,0
40217.628,2.930,33.203,-32.227,-35.156,0.000,0
40217.632,41.016,31.250,-39.062,-40.039,0.000,0
40217.636,-10.742,30.762,-31.250,-22.461,0.000,0
40217.639,-8.789,25.391,-20.996,-0.977,0.000,0
40217.643,28.809,27.344,-14.648,-1.465,0.000,0
40217.647,12.207,23.438,-19.531,-4.883,0.000,0
40217.651,27.832,15.625,-30.273,-7.324,0.000,0
40217.655,41.504,11.230,-27.832,0.000,0.000,0
40217.659,59.570,5.859,-17.090,10.742,0.000,0
40217.663,42.969,-0.488,-24.902,21.973,0.000,0
40217.667,43.945,-9.277,-28.809,21.484,0.000,0
40217.671,49.805,-20.996,-11.719,24.414,0.000,0
40217.675,31.738,-27.832,-9.766,28.809,0.000,0
40217.679,39.062,-33.691,-12.695,21.484,0.000,0
40217.682,50.293,-42.480,-12.207,31.250,0.000,0
40217.686,41.016,-51.758,-14.648,36.621,0.000,0
40217.690,30.273,-61.035,-19.531,36.133,0.000,0
40217.694,41.992,-65.430,-15.137,39.062,0.000,0
40217.698,28.809,-72.754,-15.625,42.969,0.000,0
40217.702,7.324,-78.613,-16.602,42.480,0.000,0
40217.706,15.137,-87.891,-24.902,43.457,0.000,0
40217.710,25.879,-96.680,-23.926,36.133,0.000,0
40217.714,34.180,-98.633,-13.184,15.625,0.000,0
40217.718,12.207,-102.539,-15.137,20.508,0.000,0
40217.722,6.348,-102.051,-15.137,29.785,0.000,0
40217.725,14.648,-107.910,-15.137,28.320,0.000,0
40217.729,23.438,-114.258,-20.996,25.391,0.000,0
40217.733,17.090,-112.793,-17.578,12.207,0.000,0
40217.737,0.488,-116.699,-11.230,6.836,0.000,0
40217.741,23.926,-119.141,-10.254,18.066,0.000,0
40217.745,-21.484,-123.047,-13.672,43.945,0.000,0
40217.749,11.230,-120.117,-10.254,57.617,0.000,0
40217.753,43.945,-117.676,-10.742,32.227,0.000,0
40217.757,-31.250,-125.488,-26.367,28.809,0.000,0
40217.761,-18.066,-128.418,-29.297,32.715,0.000,0
40217.764,10.742,-126.465,-24.414,35.645,0.000,0
40217.768,19.043,-125.488,-23.926,29.297,0.000,0
40217.772,25.391,-128.418,-21.973,21.973,0.000,0
40217.776,-19.531,-133.301,-23.926,33.691,0.000,0
40217.780,-32.227,-134.766,-27.832,35.156,0.000,0
40217.784,-20.996,-136.719,-24.414,52.246,0.000,0
40217.788,-28.320,-136.719,-23.438,67.871,0.000,0
40217.792,-22.461,-134.766,-22.461,63.477,0.000,0
40217.796,-33.691,-138.672,-23.438,63.477,0.000,0
40217.800,-15.137,-140.625,-23.926,27.832,0.000,0
40217.804,-2.930,-139.648,-23.438,14.648,0.000,0
40217.807,-16.113,-140.137,-24.902,28.320,0.000,0
40217.811,-22.461,-132.324,-18.066,23.926,0.000,0
40217.815,-24.902,-128.906,-18.555,29.785,0.000,0
40217.819,-3.906,-133.789,-21.484,43.945,0.000,0
40217.823,2.930,-135.254,-20.996,58.105,0.000,0
40217.827,-1.953,-132.324,-13.672,62.988,0.000,0
40217.831,5.371,-137.207,-16.113,60.547,0.000,0
40217.835,2.441,-139.160,-21.484,52.246,0.000,0
40217.839,3.906,-137.695,-20.020,52.246,0.000,0
40217.843,17.090,-135.742,-15.137,49.805,0.000,0
40217.847,7.812,-133.789,-17.090,51.758,0.000,0
40217.850,0.977,-135.254,-12.695,52.734,0.000,0
40217.854,7.812,-135.742,-10.254,51.758,0.000,0
40217.858,10.254,-137.207,-19.043,64.453,0.000,0
40217.862,12.207,-139.648,-16.602,67.383,0.000,0
40217.866,13.672,-142.090,-12.695,67.871,0.000,0
40217.870,0.000,-144.531,-9.766,70.312,0.000,0
40217.874,8.301,-146.973,-10.254,73.730,0.000,0
40217.878,21.973,-150.391,-17.578,83.984,0.000,0
40217.882,18.555,-148.438,-20.020,85.449,0.000,0
40217.886,17.578,-149.414,-22.949,86.914,0.000,0
40217.889,20.020,-149.414,-17.090,97.656,0.000,0
40217.893,16.113,-151.367,-14.648,101.562,0.000,0
40217.897,19.043,-154.297,-19.043,116.211,0.000,0
40217.901,24.414,-157.227,-23.926,123.535,0.000,0
40217.905,16.113,-159.180,-21.973,117.676,0.000,0
40217.909,26.367,-151.367,-11.719,119.141,0.000,0
40217.913,20.020,-151.367,-17.578,119.141,0.000,0
40217.917,-5.371,-161.133,-22.461,115.234,0.000,0
40217.921,8.789,-160.645,-14.648,124.023,0.000,0
40217.925,21.973,-156.250,-14.648,132.324,0.000,0
40217.929,15.625,-156.250,-17.090,124.023,0.000,0
40217.932,18.066,-158.691,-13.672,124.023,0.000,0
40217.936,26.367,-160.645,-17.578,121.094,0.000,0
40217.940,16.113,-160.645,-20.020,125.000,0.000,0
40217.944,2.441,-157.227,-21.484,136.230,0.000,0
40217.948,0.977,-152.344,-21.973,134.277,0.000,0
40217.952,5.371,-145.996,-15.137,131.836,0.000,0
40217.956,-0.977,-148.926,-14.648,140.137,0.000,0
40217.960,-0.488,-148.438,-16.113,154.785,0.000,0
40217.964,5.371,-146.484,-15.625,154.297,0.000,0
40217.968,2.930,-149.414,-14.160,134.277,0.000,0
40217.972,-3.906,-153.809,-13.184,147.949,0.000,0
40217.975,-0.488,-155.273,-10.742,158.691,0.000,0
40217.979,-5.371,-153.320,-9.277,156.250,0.000,0
40217.983,-11.719,-155.762,-7.324,168.457,0.000,0
40217.987,-5.859,-162.598,-8.789,173.828,0.000,0
40217.991,6.348,-159.180,-12.207,165.527,0.000,0
40217.995,0.977,-157.715,-11.230,157.227,0.000,0
40217.999,-28.809,-168.945,-15.137,162.598,0.000,0
40218.003,-41.504,-171.875,-15.137,169.434,0.000,0
40218.007,-43.945,-172.852,-18.066,168.457,0.000,0
40218.011,-45.898,-171.387,-19.043,173.828,0.000,0
40218.014,-43.457,-167.969,-15.625,192.871,0.000,0
40218.018,-49.316,-170.410,-12.695,196.289,0.000,0
40218.022,-44.434,-172.363,-10.254,199.219,0.000,0
40218.026,-56.641,-176.758,-7.324,175.781,0.000,0
40218.030,-82.520,-180.664,-3.418,178.711,0.000,0
40218.034,-94.238,-179.688,-3.906,206.543,0.000,0
40218.038,-93.262,-179.688,-1.953,200.684,0.000,0
40218.042,-89.844,-177.246,3.906,201.660,0.000,0
40218.046,-110.352,-174.805,0.000,191.895,0.000,0
40218.050,-122.559,-178.711,-8.789,180.664,0.000,0
40218.054,-127.441,-181.641,-10.254,184.082,0.000,0
40218.057,-136.719,-181.641,-10.254,194.824,0.000,0
40218.061,-145.020,-180.664,-12.207,204.102,0.000,0
40218.065,-150.391,-180.664,-13.184,189.941,0.000,0
40218.069,-154.297,-181.641,-14.160,188.965,0.000,0
40218.073,-159.668,-180.176,-16.602,197.266,0.000,0
40218.077,-159.668,-176.270,-17.578,200.684,0.000,0
40218.081,-156.738,-179.688,-18.066,196.777,0.000,0
40218.085,-172.363,-188.965,-22.949,177.734,0.000,0
40218.089,-194.336,-187.500,-16.602,177.734,0.000,0
40218.093,-202.637,-181.641,-12.695,178.223,0.000,0
40218.097,-192.383,-180.664,-16.602,177.246,0.000,0
40218.100,-168.945,-172.852,-12.695,190.918,0.000,0
40218.104,-178.223,-167.480,-7.812,186.523,0.000,0
40218.108,-186.035,-169.922,-7.812,190.918,0.000,0
40218.112,-170.898,-174.316,-9.277,199.707,0.000,0
40218.116,-170.898,-177.246,-8.789,189.453,0.000,0
40218.120,-178.711,-176.270,-9.766,194.336,0.000,0
40218.124,-176.270,-181.152,-11.230,193.848,0.000,0
40218.128,-172.363,-184.570,-10.742,189.453,0.000,0
40218.132,-173.828,-182.129,-14.160,200.684,0.000,0
40218.136,-158.203,-184.570,-13.672,211.914,0.000,0
40218.139,-136.230,-184.570,-7.812,213.379,0.000,0
40218.143,-134.277,-185.059,-12.207,202.637,0.000,0
40218.147,-136.719,-187.012,-13.184,200.684,0.000,0
40218.151,-145.996,-186.523,-7.812,207.031,0.000,0
40218.155,-131.836,-184.082,-6.836,199.219,0.000,0
40218.159,-109.375,-183.594,-7.324,202.637,0.000,0
40218.163,-116.699,-189.453,-7.324,204.102,0.000,0
40218.167,-114.746,-185.547,-3.418,192.383,0.000,0
40218.171,-101.562,-178.223,0.488,203.125,0.000,0
40218.175,-86.914,-179.688,2.930,208.008,0.000,0
40218.179,-81.055,-177.734,6.836,202.637,0.000,0
40218.182,-91.309,-175.781,7.324,202.637,0.000,0
40218.186,-88.379,-184.082,3.906,198.730,0.000,0
40218.190,-74.707,-182.617,5.859,202.148,0.000,0
40218.194,-75.684,-178.711,6.348,209.961,0.000,0
40218.198,-82.031,-181.152,5.371,208.984,0.000,0
40218.202,-64.453,-182.617,5.371,199.219,0.000,0
40218.206,-55.664,-185.059,-0.488,180.664,0.000,1
40218.210,-57.129,-181.152,-0.977,185.059,0.000,0
40218.214,-43.945,-182.129,-0.977,191.895,0.000,0
40218.218,-30.273,-186.035,1.953,181.641,0.000,0
40218.222,-35.156,-182.129,7.812,184.570,0.000,0
40218.225,-53.223,-192.871,5.859,177.734,0.000,0
40218.229,-63.477,-201.660,-2.930,168.945,0.000,0
40218.233,-56.641,-196.777,0.488,175.293,0.000,0
40218.237,-40.527,-194.336,3.418,193.359,0.000,0
40218.241,-26.855,-191.406,0.488,203.613,0.000,0
40218.245,-25.879,-191.406,5.859,204.590,0.000,0
40218.249,-19.531,-191.406,7.812,200.195,0.000,0
40218.253,-6.836,-187.988,4.395,193.848,0.000,0
40218.257,-20.996,-187.988,4.883,196.289,0.000,0
40218.261,-20.508,-190.430,7.324,195.312,0.000,0
40218.264,-0.488,-188.477,5.859,200.684,0.000,0
40218.268,-0.977,-185.059,4.883,209.473,0.000,0
40218.272,-4.395,-184.082,5.371,208.984,0.000,0
40218.276,-3.418,-186.035,3.418,202.637,0.000,0
40218.280,-5.859,-190.430,3.418,196.777,0.000,0
40218.284,-6.836,-187.500,6.836,197.754,0.000,0
40218.288,4.883,-180.664,14.160,214.844,0.000,0
40218.292,23.438,-180.176,14.160,218.750,0.000,0
40218.296,18.066,-179.199,12.207,208.496,0.000,0
40218.300,18.066,-177.734,20.020,211.426,0.000,0
40218.304,9.277,-184.082,20.508,201.172,0.000,0
40218.307,-2.441,-195.801,13.184,189.453,0.000,0
40218.311,19.043,-196.289,15.625,195.801,0.000,0
40218.315,20.020,-192.383,15.137,195.312,0.000,0
40218.319,12.207,-196.289,11.230,190.430,0.000,0
40218.323,26.855,-193.848,17.090,180.176,0.000,0
40218.327,32.715,-194.336,20.996,166.016,0.000,0
40218.331,9.766,-199.219,19.531,161.133,0.000,0
40218.335,2.930,-201.660,16.602,160.645,0.000,0
40218.339,21.973,-198.730,19.531,168.457,0.000,0
40218.343,27.344,-194.336,21.484,167.480,0.000,0
40218.347,41.992,-187.988,23.438,176.270,0.000,0
40218.350,37.598,-185.547,24.902,174.316,0.000,0
40218.354,22.461,-186.523,21.973,155.273,0.000,0
40218.358,28.809,-184.082,22.949,154.297,0.000,0
40218.362,21.973,-188.965,21.973,143.555,0.000,0
40218.366,13.184,-186.523,21.973,144.043,0.000,0
40218.370,19.531,-187.012,26.855,147.461,0.000,0
40218.374,41.992,-198.730,22.949,132.324,0.000,0
40218.378,44.434,-166.504,22.949,131.348,0.000,0
40218.382,-54.199,-136.719,31.250,131.348,0.000,0
40218.386,-106.445,-72.754,27.344,142.090,0.000,0
40218.389,-66.406,125.488,19.043,151.855,0.000,0
40218.393,-39.062,276.367,21.973,146.973,0.000,0
40218.397,-4.395,295.898,16.113,157.715,0.000,0
40218.401,-13.184,242.188,-3.906,117.188,0.000,0
40218.405,-34.180,152.832,4.395,93.750,0.000,0
40218.409,-35.645,23.438,1.953,93.750,0.000,0
40218.413,-34.180,-104.004,0.000,91.309,0.000,0
40218.417,-26.367,-204.102,13.672,103.027,0.000,0
40218.421,-51.758,-306.152,10.254,68.359,0.000,0
40218.425,-61.035,-380.371,12.695,73.730,0.000,0
40218.429,-69.336,-442.871,8.789,76.660,0.000,0
40218.432,-73.730,-484.863,15.625,62.012,0.000,0
40218.436,-60.547,-503.906,21.484,73.242,0.000,0
40218.440,-42.480,-479.004,21.484,52.246,0.000,0
40218.444,18.555,-403.320,27.832,41.016,0.000,0
40218.448,94.727,-327.148,29.297,50.293,0.000,0
40218.452,138.184,-228.027,35.156,36.621,0.000,0
40218.456,167.969,-128.906,41.016,14.648,0.000,0
40218.460,202.148,-61.035,40.527,-2.441,0.000,0
40218.464,231.445,-9.766,34.668,8.789,0.000,0
40218.468,259.766,46.387,41.992,7.812,0.000,0
40218.472,262.695,120.117,43.945,-14.160,0.000,0
40218.475,257.812,226.074,45.410,-22.949,0.000,0
40218.479,243.164,319.336,53.223,-27.832,0.000,0
40218.483,215.820,378.418,45.410,-21.973,0.000,0
40218.487,210.938,431.641,43.945,-24.902,0.000,0
40218.491,173.828,457.031,47.363,-36.133,0.000,0
40218.495,115.723,444.824,44.922,-33.203,0.000,0
40218.499,100.586,418.945,51.758,-45.898,0.000,0
40218.503,102.539,384.766,58.594,-38.086,0.000,0
40218.507,111.328,346.680,53.711,-21.484,0.000,0
40218.511,117.676,319.824,47.363,-24.902,0.000,0
40218.514,118.652,303.223,47.363,-23.438,0.000,0
40218.518,122.070,282.227,48.340,-24.902,0.000,0
40218.522,121.582,262.207,49.316,-20.020,0.000,0
40218.526,107.422,238.281,47.852,-10.254,0.000,0
40218.530,112.793,207.031,44.434,-14.160,0.000,0
40218.534,95.703,178.711,46.387,-19.043,0.000,0
40218.538,74.219,155.273,49.316,-25.879,0.000,0
40218.542,71.289,132.812,46.875,-32.227,0.000,0
40218.546,86.914,114.258,49.805,-28.320,0.000,0
40218.550,95.215,97.168,44.434,-14.160,0.000,0
40218.554,81.543,82.031,36.133,-5.371,0.000,0
40218.557,64.941,66.895,38.086,-18.555,0.000,0
40218.561,45.410,55.664,41.016,-26.367,0.000,0
40218.565,55.664,49.805,40.527,-15.625,0.000,0
40218.569,59.082,39.551,45.410,-18.066,0.000,0
40218.573,60.547,35.156,44.922,-25.391,0.000,0
40218.577,66.895,35.645,44.922,-32.227,0.000,0
40218.581,54.688,34.180,48.828,-31.250,0.000,0
40218.585,49.805,35.156,46.875,-26.855,0.000,0
40218.589,54.199,31.250,44.434,-29.297,0.000,0
40218.593,62.988,22.461,45.410,-27.832,0.000,0
40218.597,61.523,9.277,40.527,-31.738,0.000,0
40218.600,50.293,-1.953,32.715,-33.691,0.000,0
40218.604,46.387,-5.371,36.621,-25.391,0.000,0
40218.608,51.270,-12.695,34.668,-23.926,0.000,0
40218.612,37.109,-24.414,31.738,-30.762,0.000,0
40218.616,27.344,-31.738,35.645,-37.598,0.000,0
40218.620,59.082,-32.227,42.480,-33.691,0.000,0
40218.624,69.824,-38.086,42.969,-28.320,0.000,0
40218.628,56.152,-45.410,41.992,-19.531,0.000,0
40218.632,54.688,-47.852,42.969,-19.531,0.000,0
40218.636,62.988,-51.758,42.480,-31.738,0.000,0
40218.639,66.895,-51.758,47.363,-30.762,0.000,0
40218.643,53.711,-53.223,50.293,-38.574,0.000,0
40218.647,47.363,-57.129,49.316,-62.988,0.000,0
40218.651,51.270,-55.664,50.293,-54.199,0.000,0
40218.655,45.410,-55.176,48.340,-54.199,0.000,0
40218.659,35.156,-59.082,41.504,-62.988,0.000,0
40218.663,50.293,-62.500,39.062,-50.293,0.000,0
40218.667,55.664,-67.383,39.551,-51.270,0.000,0
40218.671,38.574,-70.312,37.109,-58.594,0.000,0
40218.675,46.875,-70.801,36.133,-67.871,0.000,0
40218.679,61.523,-64.453,43.457,-68.359,0.000,0
40218.682,49.316,-66.895,41.504,-68.848,0.000,0
40218.686,45.898,-71.289,38.574,-75.195,0.000,0
40218.690,38.086,-73.242,37.109,-84.961,0.000,0
40218.694,35.645,-78.613,30.762,-97.168,0.000,0
40218.698,45.410,-76.660,34.180,-92.773,0.000,0
40218.702,30.762,-80.566,30.273,-94.727,0.000,0
40218.706,31.738,-85.938,21.973,-106.934,0.000,0
40218.710,51.270,-84.473,29.297,-109.375,0.000,0
40218.714,48.828,-87.402,27.344,-138.184,0.000,0
40218.718,44.434,-86.426,29.297,-155.273,0.000,0
40218.722,33.203,-82.031,25.391,-146.973,0.000,0
40218.725,31.250,-78.125,26.367,-153.809,0.000,0
40218.729,36.621,-81.055,37.598,-151.855,0.000,0
40218.733,30.762,-81.543,37.109,-165.527,0.000,0
40218.737,23.438,-82.031,33.203,-192.871,0.000,0
40218.741,31.738,-77.637,35.645,-186.035,0.000,0
40218.745,50.293,-62.500,46.875,-167.969,0.000,0
40218.749,28.320,-67.383,39.062,-185.547,0.000,0
40218.753,14.160,-76.172,27.344,-207.520,0.000,0
40218.757,51.758,-69.336,33.691,-203.125,0.000,0
40218.761,60.059,-58.105,41.992,-189.453,0.000,0
40218.764,30.273,-62.012,34.668,-205.078,0.000,0
40218.768,17.090,-69.824,19.531,-224.609,0.000,0
40218.772,20.996,-64.941,21.484,-225.098,0.000,0
40218.776,20.020,-59.570,29.297,-224.121,0.000,0
40218.780,7.812,-62.988,21.973,-227.539,0.000,0
40218.784,16.602,-62.988,22.461,-229.492,0.000,0
40218.788,0.488,-67.871,20.020,-250.488,0.000,0
40218.792,8.789,-69.824,22.461,-235.840,0.000,0
40218.796,19.531,-62.500,23.926,-224.121,0.000,0
40218.800,-0.977,-65.918,11.230,-250.000,0.000,0
40218.804,-5.371,-64.941,13.672,-264.648,0.000,0
40218.807,1.465,-55.664,24.902,-263.672,0.000,0
40218.811,0.000,-54.199,18.555,-263.672,0.000,0
40218.815,-0.488,-52.734,20.020,-279.785,0.000,0
40218.819,0.000,-49.805,29.297,-275.391,0.000,0
40218.823,-16.602,-50.293,17.090,-285.645,0.000,0
40218.827,-11.230,-49.805,14.648,-289.062,0.000,0
40218.831,6.348,-44.922,23.438,-281.250,0.000,0
40218.835,-7.812,-49.805,14.160,-297.852,0.000,0
40218.839,-22.949,-52.246,5.859,-297.363,0.000,0
40218.843,-5.371,-45.898,8.789,-264.648,0.000,0
40218.847,8.301,-39.551,9.766,-254.395,0.000,0
40218.850,-8.301,-37.598,6.836,-282.715,0.000,0
40218.854,-19.043,-42.969,9.766,-297.852,0.000,0
40218.858,-19.531,-53.223,-5.371,-303.711,0.000,0
40218.862,-8.789,-52.246,-2.441,-316.406,0.000,2
40218.866,-14.160,-52.734,1.953,-325.195,0.000,0
40218.870,-29.297,-55.664,-6.836,-325.195,0.000,0
40218.874,-13.672,-56.152,-7.812,-325.195,0.000,0
40218.878,5.859,-48.340,-0.488,-317.871,0.000,0
40218.882,5.859,-49.316,0.977,-312.500,0.000,0
40218.886,-13.184,-54.199,2.930,-321.289,0.000,0
40218.889,-19.043,-44.922,2.930,-316.406,0.000,0
40218.893,-10.254,-44.922,1.465,-318.359,0.000,0
40218.897,-5.859,-47.363,4.883,-306.152,0.000,0
40218.901,6.836,-46.875,8.789,-287.109,0.000,0
40218.905,41.016,-39.062,18.555,-266.113,0.000,0
40218.909,0.977,-50.781,6.348,-291.504,0.000,0
40218.913,-21.973,-56.152,4.395,-307.617,0.000,0
40218.917,6.348,-53.711,0.488,-285.156,0.000,0
40218.921,6.348,-56.641,-8.789,-276.855,0.000,0
40218.925,-11.230,-63.965,-3.906,-284.668,0.000,0
40218.929,-7.812,-63.477,3.418,-271.484,0.000,0
40218.932,-8.301,-65.918,0.977,-277.344,0.000,0
40218.936,-17.090,-67.871,-1.953,-292.480,0.000,0
40218.940,-6.836,-62.500,5.859,-264.648,0.000,0
40218.944,8.301,-62.500,7.324,-236.816,0.000,0
40218.948,13.184,-58.105,6.836,-240.234,0.000,0
40218.952,-17.090,-65.918,-1.465,-257.812,0.000,0
40218.956,-14.160,-67.871,1.465,-244.629,0.000,0
40218.960,2.930,-68.359,3.906,-240.234,0.000,0
40218.964,1.953,-70.312,1.465,-252.441,0.000,0
40218.968,7.812,-68.848,6.836,-241.211,0.000,0
40218.972,-8.301,-68.359,4.883,-244.629,0.000,0
40218.975,-7.812,-62.500,3.906,-253.418,0.000,0
40218.979,-10.254,-66.895,-4.395,-254.883,0.000,0
40218.983,-36.621,-73.730,-10.742,-258.789,0.000,0
40218.987,-35.645,-72.754,-8.301,-246.094,0.000,0
40218.991,-16.113,-67.383,0.977,-232.910,0.000,0
40218.995,-3.906,-66.895,5.371,-229.492,0.000,0
40218.999,-7.324,-68.848,3.418,-223.633,0.000,0
40219.003,-9.766,-73.242,-2.930,-218.262,0.000,0
40219.007,-9.766,-73.242,-4.883,-214.355,0.000,0
40219.011,9.766,-62.988,7.324,-193.359,0.000,0
40219.014,2.930,-64.453,1.953,-196.777,0.000,0
40219.018,6.348,-69.824,-0.977,-198.730,0.000,0
40219.022,16.113,-65.918,7.812,-186.523,0.000,0
40219.026,19.531,-63.965,6.348,-170.898,0.000,0
40219.030,20.020,-61.035,12.207,-159.668,0.000,0
40219.034,18.066,-62.012,12.695,-169.434,0.000,0
40219.038,38.086,-64.453,11.230,-166.504,0.000,0
40219.042,50.781,-67.383,18.066,-163.574,0.000,0
40219.046,32.227,-75.684,18.555,-176.270,0.000,0
40219.050,33.203,-81.543,17.090,-185.547,0.000,0
40219.054,46.875,-85.449,15.625,-174.316,0.000,0
40219.057,48.340,-88.379,19.043,-162.598,0.000,0
40219.061,43.945,-92.773,19.531,-160.645,0.000,0
40219.065,46.387,-93.262,21.484,-147.949,0.000,0
40219.069,49.805,-92.773,24.902,-147.949,0.000,0
40219.073,40.527,-97.656,17.578,-137.207,0.000,0
40219.077,30.762,-103.027,15.625,-130.859,0.000,0
40219.081,36.621,-101.074,19.531,-132.324,0.000,0
40219.085,44.434,-102.051,19.531,-123.535,0.000,0
40219.089,40.039,-103.516,20.996,-136.230,0.000,0
40219.093,29.297,-102.051,23.438,-135.254,0.000,0
40219.097,29.785,-106.934,17.090,-125.977,0.000,0
40219.100,40.039,-104.492,16.602,-130.859,0.000,0
40219.104,32.227,-99.121,20.996,-130.371,0.000,0
40219.108,28.809,-102.051,18.066,-139.160,0.000,0
40219.112,31.250,-103.027,12.695,-135.742,0.000,0
40219.116,22.461,-98.145,10.254,-129.395,0.000,0
40219.120,15.137,-96.680,13.184,-134.277,0.000,0
40219.124,-7.324,-100.098,11.230,-136.719,0.000,0
40219.128,-16.113,-98.633,5.859,-152.344,0.000,0
40219.132,-13.184,-100.098,-4.395,-146.484,0.000,0
40219.136,-15.625,-97.656,-3.906,-117.676,0.000,0
40219.139,-13.672,-93.750,2.930,-111.328,0.000,0
40219.143,1.465,-93.262,0.977,-110.352,0.000,0
40219.147,24.902,-90.332,-2.441,-113.770,0.000,0
40219.151,14.648,-83.008,0.000,-111.816,0.000,0
40219.155,-0.977,-80.078,2.930,-104.980,0.000,0
40219.159,-2.441,-88.379,-1.953,-113.281,0.000,0
40219.163,-12.695,-91.797,-2.930,-116.699,0.000,0
40219.167,-22.949,-91.797,-7.324,-122.070,0.000,0
40219.171,-26.855,-95.703,-19.531,-128.906,0.000,0
40219.175,-19.531,-95.703,-16.602,-124.023,0.000,0
40219.179,-26.855,-90.820,-11.719,-122.070,0.000,0
40219.182,-39.551,-92.773,-16.113,-111.816,0.000,0
40219.186,-19.043,-91.309,-17.578,-110.840,0.000,0
40219.190,-16.113,-85.938,-17.090,-111.328,0.000,0
40219.194,-29.785,-85.938,-18.555,-103.516,0.000,0
40219.198,-24.902,-85.938,-21.973,-109.375,0.000,0
40219.202,-17.090,-86.914,-20.508,-107.910,0.000,0
40219.206,-28.809,-87.891,-23.438,-118.652,0.000,0
40219.210,-39.062,-94.238,-33.203,-145.020,0.000,0
40219.214,-40.527,-105.469,-49.805,-138.184,0.000,0
40219.218,-55.176,-116.211,-69.336,-149.902,0.000,0
40219.222,-79.102,-138.672,-90.820,-177.734,0.000,0
40219.225,-129.883,-177.734,-123.047,-212.402,0.000,0
40219.229,-164.551,-217.285,-161.621,-249.023,0.000,0
40219.233,-187.500,-254.883,-203.125,-276.367,0.000,0
40219.237,-228.516,-288.574,-240.723,-318.359,0.000,0
40219.241,-279.785,-321.777,-276.855,-360.352,0.000,0
40219.245,-332.520,-363.281,-320.312,-393.066,0.000,0
40219.249,-378.418,-404.297,-362.793,-426.758,0.000,0
40219.253,-423.828,-444.824,-406.738,-466.797,0.000,0
40219.257,-470.215,-485.840,-452.148,-513.672,0.000,0
40219.261,-510.742,-528.809,-489.258,-560.059,0.000,0
40219.264,-544.434,-567.383,-524.902,-603.027,0.000,0
40219.268,-581.055,-588.379,-553.223,-628.906,0.000,0
40219.272,-586.914,-596.191,-566.895,-637.695,0.000,0
40219.276,-568.359,-604.980,-571.777,-639.648,0.000,0
40219.280,-583.008,-609.375,-570.801,-628.418,0.000,0
40219.284,-590.332,-607.422,-567.383,-613.770,0.000,0
40219.288,-578.125,-604.004,-561.523,-619.629,0.000,0
40219.292,-571.289,-597.656,-557.129,-613.770,0.000,0
40219.296,-560.059,-583.496,-543.945,-583.984,0.000,0
40219.300,-550.293,-570.312,-526.855,-574.219,0.000,0
40219.304,-534.180,-558.105,-514.160,-560.059,0.000,0
40219.307,-513.672,-530.273,-498.047,-535.156,0.000,0
40219.311,-496.582,-489.746,-481.445,-521.484,0.000,0
40219.315,-475.098,-459.961,-463.379,-512.207,0.000,0
40219.319,-454.102,-441.895,-448.730,-505.371,0.000,0
40219.323,-436.523,-419.434,-432.617,-497.559,0.000,0
40219.327,-412.598,-391.113,-403.809,-472.656,0.000,0
40219.331,-387.695,-364.746,-378.418,-428.711,0.000,0
40219.335,-365.234,-342.773,-356.934,-394.531,0.000,0
40219.339,-336.426,-315.430,-322.266,-364.258,0.000,0
40219.343,-319.824,-291.992,-295.898,-332.520,0.000,0
40219.347,-299.805,-272.461,-278.320,-300.781,0.000,0
40219.350,-249.512,-244.629,-246.094,-246.094,0.000,0
40219.354,-215.332,-215.820,-212.891,-193.848,0.000,0
40219.358,-206.055,-191.406,-194.824,-156.738,0.000,0
40219.362,-166.016,-159.180,-155.273,-127.930,0.000,0
40219.366,-118.164,-120.605,-108.398,-85.938,0.000,0
40219.370,-90.332,-87.891,-76.660,-36.621,0.000,0
40219.374,-57.617,-50.781,-35.156,-1.953,0.000,0
40219.378,-6.348,-8.789,5.859,29.785,0.000,0
40219.382,36.621,30.762,43.457,63.965,0.000,0
40219.386,70.312,61.035,79.590,104.004,0.000,0
40219.389,106.445,87.891,112.793,130.371,0.000,0
40219.393,133.789,113.770,144.043,163.086,0.000,0
40219.397,165.527,137.695,168.457,196.777,0.000,0
40219.401,186.523,158.691,184.570,209.961,0.000,0
40219.405,183.105,172.852,199.707,240.234,0.000,0
40219.409,188.965,179.688,211.914,265.137,0.000,0
40219.413,219.727,187.012,221.191,269.531,0.000,0
40219.417,227.539,195.312,230.469,276.367,0.000,0
40219.421,217.285,197.266,230.957,268.555,0.000,0
40219.425,227.051,199.707,226.074,259.766,0.000,0
40219.429,234.863,198.242,223.145,259.766,0.000,0
40219.432,225.098,191.895,218.750,261.719,0.000,0
40219.436,224.121,190.918,219.727,264.648,0.000,0
40219.440,234.375,194.336,223.633,253.906,0.000,0
40219.444,236.328,188.477,219.727,259.766,0.000,0
40219.448,223.633,181.152,212.891,279.785,0.000,0
40219.452,213.379,176.758,201.660,274.414,0.000,0
40219.456,210.449,170.410,196.289,251.953,0.000,0
40219.460,205.566,168.457,194.824,225.586,0.000,0
40219.464,189.453,166.016,193.359,217.773,0.000,0
40219.468,187.012,161.621,190.918,235.840,0.000,0
40219.472,189.941,155.273,183.105,234.863,0.000,0
40219.475,174.805,150.391,174.805,229.004,0.000,0
40219.479,163.574,147.461,170.410,216.797,0.000,0
40219.483,152.832,139.648,161.133,191.406,0.000,1
40219.487,155.273,136.719,154.297,187.988,0.000,0
40219.491,154.785,128.906,149.414,188.965,0.000,0
40219.495,130.371,114.746,142.090,193.359,0.000,0
40219.499,115.234,101.562,137.695,192.871,0.000,0
40219.503,122.070,91.309,128.906,178.223,0.000,0
40219.507,118.164,85.938,122.559,173.828,0.000,0
40219.511,103.516,78.125,117.188,168.457,0.000,0
40219.514,118.164,73.730,111.816,151.367,0.000,0
40219.518,125.000,71.777,113.281,146.484,0.000,0
40219.522,106.934,61.035,109.375,141.602,0.000,0
40219.526,103.516,60.547,104.980,150.879,0.000,0
40219.530,102.539,63.965,99.609,151.367,0.000,0
40219.534,90.820,62.988,93.750,133.301,0.000,0
40219.538,78.613,61.523,95.215,122.070,0.000,0
40219.542,68.359,57.617,90.820,112.793,0.000,0
40219.546,65.430,51.270,83.984,117.676,0.000,0
40219.550,66.895,44.922,82.520,105.957,0.000,0
40219.554,60.547,47.363,80.078,88.867,0.000,0
40219.557,55.664,59.082,75.195,91.797,0.000,0
40219.561,64.453,64.941,72.754,84.473,0.000,0
40219.565,58.105,64.453,69.336,67.383,0.000,0
40219.569,44.434,64.941,62.012,57.617,0.000,0
40219.573,53.223,70.312,57.617,59.082,0.000,0
40219.577,76.172,78.125,52.734,60.059,0.000,0
40219.581,68.359,85.449,47.852,44.922,0.000,0
40219.585,57.129,90.820,46.875,48.340,0.000,0
40219.589,58.105,83.008,41.992,54.688,0.000,0
40219.593,33.203,72.266,35.645,48.828,0.000,0
40219.597,9.277,69.336,36.621,57.617,0.000,0
40219.600,3.418,61.523,32.227,54.688,0.000,0
40219.604,17.578,52.246,24.414,47.852,0.000,0
40219.608,30.273,50.781,24.414,46.387,0.000,0
40219.612,17.090,47.852,20.020,39.062,0.000,0
40219.616,17.578,46.875,20.020,29.785,0.000,0
40219.620,14.648,44.922,20.020,26.855,0.000,0
40219.624,4.883,42.969,18.555,34.180,0.000,0
40219.628,4.395,43.457,18.555,36.133,0.000,0
40219.632,3.906,41.504,18.555,35.645,0.000,0
40219.636,6.348,40.039,19.043,33.203,0.000,0
40219.639,-8.789,36.621,10.742,24.902,0.000,0
40219.643,-11.230,39.551,7.324,39.062,0.000,0
40219.647,5.859,41.992,8.789,44.434,0.000,0
40219.651,8.789,44.922,8.789,32.715,0.000,0
40219.655,-7.812,42.969,8.301,31.738,0.000,0
40219.659,-25.879,38.574,0.488,37.109,0.000,0
40219.663,-17.578,34.668,-4.883,37.598,0.000,0
40219.667,-7.812,31.250,3.906,24.414,0.000,0
40219.671,-26.367,34.668,0.000,34.668,0.000,0
40219.675,-18.555,34.180,-6.348,34.180,0.000,0
40219.679,-8.301,31.738,-4.883,14.648,0.000,0
40219.682,-16.113,30.273,-5.371,18.555,0.000,0
40219.686,-13.672,25.391,-6.836,25.879,0.000,0
40219.690,-4.883,29.785,-5.859,28.809,0.000,0
40219.694,-8.789,32.715,-6.836,30.762,0.000,0
40219.698,-12.207,28.809,-6.348,21.484,0.000,0
40219.702,-15.625,30.762,-5.859,17.090,0.000,0
40219.706,-12.695,31.738,-5.859,19.043,0.000,0
40219.710,-7.324,30.762,-9.277,17.578,0.000,0
40219.714,-11.230,29.785,-12.695,0.977,0.000,0
40219.718,-25.879,20.996,-12.695,1.953,0.000,0
40219.722,-30.762,19.531,-14.160,18.555,0.000,0
40219.725,-16.113,21.973,-9.766,17.578,0.000,0
40219.729,-14.648,20.996,-12.695,10.254,0.000,0
40219.733,-28.809,22.461,-17.578,5.371,0.000,0
40219.737,-15.625,22.461,-11.719,0.977,0.000,0
40219.741,-2.441,17.090,-16.602,2.441,0.000,0
40219.745,-18.066,14.160,-20.996,12.695,0.000,0
40219.749,-25.879,17.578,-17.090,25.879,0.000,0
40219.753,-13.184,16.602,-16.113,9.766,0.000,0
40219.757,-10.254,17.090,-15.137,-2.930,0.000,0
40219.761,-24.902,18.066,-13.184,15.137,0.000,0
40219.764,-23.926,16.113,-13.184,13.672,0.000,0
40219.768,-6.836,15.625,-16.113,14.160,0.000,0
40219.772,-13.184,14.160,-15.625,30.273,0.000,0
40219.776,-25.879,15.137,-15.625,36.133,0.000,0
40219.780,-22.461,16.113,-17.578,34.180,0.000,0
40219.784,-29.297,12.695,-20.508,25.879,0.000,0
40219.788,-29.785,10.742,-22.461,20.020,0.000,0
40219.792,-27.832,13.184,-20.996,10.742,0.000,0
40219.796,-22.949,15.625,-17.578,-0.488,0.000,0
40219.800,-13.672,14.648,-21.484,13.184,0.000,0
40219.804,-17.090,12.207,-25.879,17.578,0.000,0
40219.807,-25.391,13.672,-22.949,7.812,0.000,0
40219.811,-27.832,12.695,-23.926,3.906,0.000,0
40219.815,-20.020,13.184,-27.832,0.000,0.000,0
40219.819,-15.625,15.137,-25.879,10.254,0.000,0
40219.823,-20.508,17.578,-22.461,15.625,0.000,0
40219.827,-24.902,18.555,-25.879,10.254,0.000,0
40219.831,-17.090,15.625,-27.344,8.301,0.000,0
40219.835,-10.742,13.672,-27.344,-5.371,0.000,0
40219.839,-26.367,12.207,-28.320,-8.789,0.000,0
40219.843,-25.391,14.160,-24.414,-6.348,0.000,0
40219.847,-27.344,9.766,-27.832,-14.160,0.000,0
40219.850,-38.086,9.277,-28.320,-9.766,0.000,0
40219.854,-34.668,12.695,-27.344,-11.230,0.000,0
40219.858,-20.508,16.113,-31.738,-17.578,0.000,0
40219.862,-28.809,19.043,-28.320,-6.836,0.000,0
40219.866,-41.992,12.207,-30.762,-5.859,0.000,0
40219.870,-44.434,7.324,-36.621,-15.137,0.000,0
40219.874,-42.480,12.207,-34.668,-18.555,0.000,0
40219.878,-47.852,13.184,-32.715,-22.461,0.000,0
40219.882,-50.781,8.301,-32.227,-27.344,0.000,0
40219.886,-34.180,3.418,-30.762,-29.785,0.000,0
40219.889,-31.738,-0.488,-27.832,-29.297,0.000,0
40219.893,-42.480,-0.977,-31.738,-32.227,0.000,0
40219.897,-42.969,1.953,-35.645,-31.738,0.000,0
40219.901,-23.926,4.883,-29.297,-28.809,0.000,0
40219.905,-22.461,3.418,-27.344,-33.203,0.000,0
40219.909,-40.527,1.953,-30.762,-41.992,0.000,0
40219.913,-37.598,5.859,-30.762,-47.852,0.000,0
40219.917,-36.621,3.418,-36.621,-39.062,0.000,0
40219.921,-46.875,4.395,-36.621,-25.879,0.000,0
40219.925,-56.152,5.371,-33.203,-21.484,0.000,0
40219.929,-52.734,0.488,-32.715,-23.926,0.000,0
40219.932,-31.738,1.465,-33.203,-35.156,0.000,0
40219.936,-31.738,2.441,-38.574,-31.738,0.000,0
40219.940,-47.363,2.441,-40.527,-32.715,0.000,0
40219.944,-47.363,-1.953,-37.109,-34.668,0.000,0
40219.948,-42.969,0.000,-36.133,-26.367,0.000,0
40219.952,-50.781,0.977,-39.551,-37.109,0.000,0
40219.956,-55.176,-1.953,-39.551,-45.410,0.000,0
40219.960,-47.852,6.348,-38.086,-37.109,0.000,0
40219.964,-51.758,10.254,-42.969,-26.367,0.000,0
40219.968,-54.688,9.277,-35.645,-22.949,0.000,0
40219.972,-46.387,8.789,-29.785,-16.602,0.000,0
40219.975,-39.551,1.465,-41.016,-15.625,0.000,0
40219.979,-34.668,2.930,-39.062,-14.160,0.000,0
40219.983,-52.246,7.812,-34.668,-8.789,0.000,0
40219.987,-58.594,9.277,-41.504,-17.090,0.000,0
40219.991,-41.504,-0.488,-44.922,-18.066,0.000,0
40219.995,-45.410,-6.836,-49.316,-14.648,0.000,0
40219.999,-49.316,-4.883,-49.805,-13.184,0.000,0
40220.003,-40.527,0.000,-47.852,-7.812,0.000,0
40220.007,-37.598,5.371,-43.457,-12.207,0.000,0
40220.011,-37.109,0.977,-41.016,-22.461,0.000,0
40220.014,-47.363,2.441,-42.969,-18.555,0.000,0
40220.018,-48.828,3.906,-43.945,-20.020,0.000,0
40220.022,-50.781,-1.953,-46.387,-18.555,0.000,0
40220.026,-56.641,-5.859,-49.805,-12.207,0.000,0
40220.030,-60.059,-0.977,-45.410,-10.254,0.000,0
40220.034,-46.387,1.465,-43.457,5.859,0.000,0
40220.038,-43.457,4.883,-42.969,10.254,0.000,1
40220.042,-43.457,7.324,-41.016,4.883,0.000,0
40220.046,-34.180,7.812,-40.039,0.488,0.000,0
40220.050,-35.645,8.789,-39.062,-13.672,0.000,0
40220.054,-41.504,4.883,-45.898,-20.508,0.000,0
40220.057,-43.945,2.930,-47.363,-18.555,0.000,0
40220.061,-41.992,2.441,-46.387,-0.977,0.000,0
40220.065,-34.180,-1.465,-47.363,2.441,0.000,0
40220.069,-36.133,-2.930,-46.875,-14.648,0.000,0
40220.073,-45.410,-1.465,-41.504,-14.160,0.000,0
40220.077,-45.410,-4.395,-42.480,-2.441,0.000,0
40220.081,-50.781,-4.395,-50.293,-5.371,0.000,0
40220.085,-59.570,-1.953,-47.363,-10.742,0.000,0
40220.089,-65.430,-0.488,-45.898,-20.996,0.000,0
40220.093,-46.387,2.930,-44.922,-9.766,0.000,0
40220.097,-29.297,8.789,-37.598,-4.395,0.000,0
40220.100,-39.551,5.371,-39.551,-10.742,0.000,0
40220.104,-61.035,-12.207,-58.105,-32.227,0.000,0
40220.108,-72.266,-12.207,-59.082,-52.246,0.000,0
40220.112,-49.316,1.953,-42.480,-20.020,0.000,0
40220.116,-62.500,-5.371,-56.152,-30.273,0.000,0
40220.120,-97.656,-9.277,-69.824,-62.012,0.000,0
40220.124,-74.707,6.348,-49.316,-48.828,0.000,0
40220.128,-57.129,8.301,-47.852,-46.875,0.000,0
40220.132,-46.387,1.465,-55.176,-29.297,0.000,0
40220.136,-45.410,5.859,-58.105,-24.414,0.000,0
40220.139,-76.660,-1.953,-69.824,-62.012,0.000,0
40220.143,-74.219,5.859,-54.688,-57.129,0.000,0
40220.147,-60.059,18.555,-37.598,-33.691,0.000,0
40220.151,-67.871,20.020,-43.945,-23.926,0.000,0
40220.155,-67.383,13.672,-52.246,-15.137,0.000,0
40220.159,-34.668,14.648,-44.434,4.883,0.000,0
40220.163,-46.875,23.438,-36.133,2.930,0.000,0
40220.167,-85.449,15.137,-51.270,-42.969,0.000,0
40220.171,-61.523,15.137,-51.758,-37.109,0.000,0
40220.175,-61.035,17.578,-48.828,-40.527,0.000,0
40220.179,-72.754,23.438,-44.922,-40.527,0.000,0
40220.182,-60.059,23.438,-46.387,-20.996,0.000,0
40220.186,-61.035,17.578,-54.199,-29.785,0.000,0
40220.190,-76.172,13.672,-57.617,-36.621,0.000,0
40220.194,-63.965,10.742,-54.688,-24.414,0.000,0
40220.198,-61.523,10.254,-51.758,-16.602,0.000,0
40220.202,-67.383,9.277,-53.223,-17.578,0.000,0
40220.206,-64.941,7.812,-52.734,-36.133,0.000,0
40220.210,-62.988,4.883,-52.734,-39.062,0.000,0
40220.214,-47.363,2.441,-50.781,-25.879,0.000,0
40220.218,-34.180,-1.465,-44.922,-21.484,0.000,0
40220.222,-40.039,-3.906,-40.527,-23.438,0.000,0
40220.225,-64.453,-7.324,-44.434,-38.574,0.000,0
40220.229,-62.988,-9.766,-46.875,-46.387,0.000,0
40220.233,-49.316,-11.230,-43.457,-39.062,0.000,0
40220.237,-51.758,-16.113,-45.410,-22.949,0.000,0
40220.241,-43.457,-14.160,-43.457,-7.324,0.000,0
40220.245,-41.016,-14.160,-41.992,-10.254,0.000,0
40220.249,-54.199,-14.648,-41.992,-12.695,0.000,0
40220.253,-63.477,-16.113,-41.992,-13.184,0.000,0
40220.257,-48.828,-17.090,-42.969,-18.066,0.000,0
40220.261,-34.668,-22.461,-44.922,-22.949,0.000,0
40220.264,-37.598,-26.367,-47.363,-26.367,0.000,0
40220.268,-42.480,-19.531,-41.992,-21.973,0.000,0
40220.272,-36.621,-20.996,-36.133,-18.066,0.000,0
40220.276,-22.461,-23.438,-38.574,-23.438,0.000,0
40220.280,-37.109,-25.391,-44.434,-18.066,0.000,0
40220.284,-35.156,-21.973,-38.574,-9.766,0.000,0
40220.288,-22.461,-14.648,-33.691,-3.418,0.000,0
40220.292,-24.414,-16.113,-37.109,-2.930,0.000,0
40220.296,-33.203,-20.020,-36.133,-14.160,0.000,0
40220.300,-33.691,-20.996,-33.691,-18.066,0.000,0
40220.304,-13.672,-20.508,-30.273,-18.555,0.000,0
40220.307,-14.160,-16.602,-26.367,-25.391,0.000,0
40220.311,-21.484,-14.648,-28.320,-26.855,0.000,0
40220.315,-20.020,-14.648,-31.738,-24.414,0.000,0
40220.319,-16.113,-13.672,-29.297,-24.902,0.000,0
40220.323,-18.555,-9.277,-28.809,-29.297,0.000,0
40220.327,-25.391,-7.324,-29.785,-10.254,0.000,0
40220.331,-20.020,-13.184,-33.203,-3.906,0.000,0
40220.335,-12.207,-13.672,-33.691,-19.531,0.000,0
40220.339,-23.926,-13.672,-32.227,-12.695,0.000,0
40220.343,-39.062,-16.602,-38.086,-19.531,0.000,0
40220.347,-27.832,-11.719,-36.621,-29.297,0.000,0
40220.350,-9.766,-7.324,-29.785,-12.207,0.000,0
40220.354,-19.043,-8.789,-32.715,-4.883,0.000,0
40220.358,-32.715,-9.277,-37.598,-11.230,0.000,0
40220.362,-30.273,-3.906,-31.738,-12.207,0.000,0
40220.366,-27.832,-1.465,-31.250,-13.672,0.000,0
40220.370,-37.109,-1.953,-41.504,-22.949,0.000,0
40220.374,-31.738,2.441,-38.574,-29.297,0.000,0
40220.378,-23.926,8.301,-28.809,-19.043,0.000,0
40220.382,-34.668,6.836,-26.855,-11.230,0.000,0
40220.386,-27.832,5.859,-28.809,-16.113,0.000,0
40220.389,-41.016,7.812,-39.551,-27.832,0.000,0
40220.393,-45.898,2.930,-41.016,-27.832,0.000,0
40220.397,-38.574,-1.465,-43.457,-20.508,0.000,0
40220.401,-42.969,-2.441,-50.781,-25.391,0.000,0
40220.405,-49.316,-1.465,-47.852,-41.992,0.000,0
40220.409,-41.504,-4.395,-47.852,-42.480,0.000,0
40220.413,-35.156,-8.789,-51.270,-40.039,0.000,0
40220.417,-42.480,-13.184,-54.199,-29.785,0.000,0
40220.421,-45.410,-18.555,-55.176,-38.086,0.000,0
40220.425,-41.504,-20.020,-54.688,-50.781,0.000,0
40220.429,-47.363,-20.020,-53.711,-33.203,0.000,0
40220.432,-52.246,-19.531,-50.781,-32.715,0.000,0
40220.436,-47.363,-20.996,-55.664,-35.156,0.000,0
40220.440,-37.598,-23.926,-57.129,-28.809,0.000,0
40220.444,-42.480,-28.809,-59.082,-32.715,0.000,0
40220.448,-63.965,-30.273,-58.105,-30.273,0.000,0
40220.452,-61.035,-29.785,-56.152,-29.785,0.000,0
40220.456,-48.340,-30.762,-60.547,-29.297,0.000,0
40220.460,-50.293,-29.297,-60.547,-34.668,0.000,0
40220.464,-47.363,-28.809,-56.152,-39.062,0.000,0
40220.468,-39.062,-28.320,-53.711,-24.902,0.000,0
40220.472,-27.832,-26.855,-50.781,-21.973,0.000,0
40220.475,-37.598,-30.762,-54.688,-28.809,0.000,0
40220.479,-49.805,-29.785,-51.270,-33.691,0.000,0
40220.483,-38.086,-23.438,-43.945,-30.273,0.000,0
40220.487,-34.668,-20.020,-43.457,-22.461,0.000,0
40220.491,-43.457,-20.020,-42.480,-23.438,0.000,0
40220.495,-32.227,-20.020,-42.480,-16.113,0.000,0
40220.499,-20.996,-19.043,-39.062,-20.020,0.000,0
40220.503,-29.297,-20.996,-39.551,-29.785,0.000,0
40220.507,-27.344,-20.996,-41.504,-20.508,0.000,0
40220.511,-19.043,-15.137,-40.527,-10.742,0.000,0
40220.514,-19.531,-17.090,-37.598,-5.859,0.000,0
40220.518,-35.156,-24.414,-40.527,-20.508,0.000,0
40220.522,-40.527,-25.391,-41.992,-37.598,0.000,0
40220.526,-31.738,-20.020,-36.133,-19.043,0.000,0
40220.530,-41.016,-26.855,-40.527,-10.742,0.000,0
40220.534,-48.828,-29.297,-43.457,-12.207,0.000,0
40220.538,-42.480,-22.949,-39.062,-5.859,0.000,0
40220.542,-42.480,-23.438,-39.551,-5.371,0.000,0
40220.546,-35.156,-21.973,-40.527,-8.789,0.000,0
40220.550,-39.551,-22.461,-46.875,-17.090,0.000,0
40220.554,-54.688,-18.066,-46.387,-15.137,0.000,0
40220.557,-40.527,-11.230,-38.086,-2.441,0.000,0
40220.561,-37.598,-11.230,-35.645,-9.277,0.000,0
40220.565,-42.969,-10.742,-30.273,-13.184,0.000,0
40220.569,-37.598,-13.184,-27.344,-2.441,0.000,0
40220.573,-29.297,-16.602,-30.762,1.953,0.000,0
40220.577,-43.945,-17.090,-35.156,-0.488,0.000,0
40220.581,-58.105,-17.578,-38.574,-18.555,0.000,0
40220.585,-45.898,-20.996,-38.574,-22.949,0.000,0
40220.589,-29.785,-18.066,-34.180,-10.254,0.000,0
40220.593,-31.250,-12.207,-30.273,-6.836,0.000,0
40220.597,-29.297,-14.160,-33.203,-6.836,0.000,0
40220.600,-28.809,-20.020,-33.203,-13.184,0.000,0
40220.604,-31.250,-20.020,-37.109,-12.695,0.000,0
40220.608,-23.926,-20.020,-44.922,-15.625,0.000,0
40220.612,-22.461,-20.508,-44.922,-18.066,0.000,0
40220.616,-19.531,-20.996,-37.598,-14.648,0.000,0
40220.620,-21.484,-22.949,-38.574,-20.020,0.000,0
40220.624,-35.156,-20.020,-40.527,-12.207,0.000,0
40220.628,-44.434,-14.648,-37.109,-0.977,0.000,0
40220.632,-50.781,-16.602,-41.016,0.000,0.000,0
40220.636,-44.922,-18.555,-42.480,-11.230,0.000,0
40220.639,-43.945,-18.066,-42.480,-20.996,0.000,0
40220.643,-41.504,-18.555,-44.922,-14.648,0.000,0
40220.647,-27.344,-15.625,-41.504,-9.277,0.000,0
40220.651,-26.855,-10.254,-37.598,-8.301,0.000,0
40220.655,-40.039,-12.207,-35.645,-8.789,0.000,0
40220.659,-37.109,-15.625,-37.598,-20.996,0.000,0
40220.663,-40.527,-15.137,-38.086,-22.949,0.000,0
40220.667,-44.434,-13.184,-36.133,-7.324,0.000,0
40220.671,-46.875,-12.695,-39.062,3.906,0.000,0
40220.675,-45.898,-13.672,-42.969,-2.441,0.000,0
40220.679,-49.805,-16.602,-47.363,-17.090,0.000,0
40220.682,-51.758,-18.555,-44.434,-11.230,0.000,0
40220.686,-44.922,-15.137,-41.992,-2.930,0.000,0
40220.690,-47.852,-12.207,-43.457,-1.953,0.000,0
40220.694,-39.551,-11.719,-35.645,1.465,0.000,0
40220.698,-41.992,-9.277,-31.250,-0.977,0.000,0
40220.702,-49.316,-8.789,-39.062,-6.348,0.000,0
40220.706,-45.898,-18.066,-43.945,-9.277,0.000,0
40220.710,-37.598,-23.438,-41.992,-9.766,0.000,0
40220.714,-32.715,-18.555,-39.062,-10.254,0.000,0
40220.718,-40.527,-20.020,-40.039,-16.113,0.000,0
40220.722,-48.340,-20.020,-39.551,-11.719,0.000,0
40220.725,-46.875,-15.137,-38.086,-2.930,0.000,1
40220.729,-53.223,-13.672,-37.598,0.977,0.000,0
40220.733,-54.199,-14.648,-39.062,-3.418,0.000,0
40220.737,-42.480,-11.719,-38.086,-22.461,0.000,0
40220.741,-39.551,-13.184,-38.086,-27.832,0.000,0
40220.745,-43.945,-17.090,-36.621,-16.602,0.000,0
40220.749,-48.828,-15.625,-35.156,-20.020,0.000,0
40220.753,-45.410,-19.531,-40.527,-28.809,0.000,0
40220.757,-43.945,-18.555,-38.574,-27.344,0.000,0
40220.761,-42.969,-12.695,-31.738,-18.066,0.000,0
40220.764,-41.504,-13.672,-38.574,-15.625,0.000,0
40220.768,-46.387,-16.113,-45.410,-29.297,0.000,0
40220.772,-35.156,-15.137,-41.992,-28.320,0.000,0
40220.776,-41.504,-15.137,-33.691,-31.250,0.000,0
40220.780,-64.453,-17.090,-31.250,-29.785,0.000,0
40220.784,-51.270,-22.949,-35.156,-15.137,0.000,0
40220.788,-46.387,-23.438,-37.109,-14.648,0.000,0
40220.792,-51.270,-18.555,-41.504,-14.648,0.000,0
40220.796,-44.922,-18.066,-39.062,-14.648,0.000,0
40220.800,-45.410,-18.066,-38.574,-13.672,0.000,0
40220.804,-49.316,-20.996,-42.969,-15.625,0.000,0
40220.807,-49.805,-21.973,-41.504,-13.672,0.000,0
40220.811,-54.688,-17.578,-42.480,-10.254,0.000,0
40220.815,-42.969,-16.602,-41.992,-15.625,0.000,0
40220.819,-42.480,-14.160,-38.086,-14.160,0.000,0
40220.823,-34.668,-15.625,-44.922,2.441,0.000,0
40220.827,-17.090,-17.578,-38.574,16.113,0.000,0
40220.831,-44.434,-12.207,-30.762,-6.348,0.000,0
40220.835,-54.199,-3.906,-31.738,-24.902,0.000,0
40220.839,-39.062,-5.859,-41.016,-15.625,0.000,0
40220.843,-39.062,-5.371,-42.969,-18.066,0.000,0
40220.847,-40.039,-4.395,-40.039,-21.973,0.000,0
40220.850,-53.223,-18.066,-50.781,-33.203,0.000,0
40220.854,-44.922,-16.113,-46.875,-25.879,0.000,0
40220.858,-34.668,-6.836,-45.410,-15.137,0.000,0
40220.862,-38.086,-1.465,-44.434,-11.719,0.000,0
40220.866,-51.270,1.465,-43.457,-14.648,0.000,0
40220.870,-43.945,13.184,-38.574,-14.160,0.000,0
40220.874,-35.156,19.043,-33.203,-15.137,0.000,0
40220.878,-42.480,16.602,-40.527,-26.367,0.000,0
40220.882,-43.945,21.484,-41.992,-16.113,0.000,0
40220.886,-46.875,23.438,-44.922,-22.461,0.000,0
40220.889,-46.875,26.855,-49.316,-30.762,0.000,0
40220.893,-54.688,36.133,-42.969,-22.949,0.000,0
40220.897,-47.852,38.574,-39.062,-21.973,0.000,0
40220.901,-27.344,38.086,-38.086,-16.113,0.000,0
40220.905,-36.621,39.062,-33.203,-1.953,0.000,0
40220.909,-56.152,38.574,-39.551,-11.230,0.000,0
40220.913,-53.223,38.574,-41.016,-32.227,0.000,0
40220.917,-32.227,41.016,-36.133,-26.367,0.000,0
40220.921,-31.250,37.109,-36.621,-21.484,0.000,0
40220.925,-42.969,26.855,-39.551,-33.203,0.000,0
40220.929,-37.109,20.020,-39.551,-38.574,0.000,0
40220.932,-24.902,16.602,-32.227,-34.668,0.000,0
40220.936,-29.297,10.254,-37.109,-31.738,0.000,0
40220.940,-35.156,5.859,-39.062,-31.738,0.000,0
40220.944,-29.297,3.418,-34.668,-28.809,0.000,0
40220.948,-27.832,0.488,-41.016,-25.879,0.000,0
40220.952,-23.926,-6.836,-43.945,-30.762,0.000,0
40220.956,-24.414,-5.371,-36.133,-27.832,0.000,0
40220.960,-19.043,-3.418,-38.574,-14.160,0.000,0
40220.964,-4.883,-2.441,-43.945,-5.371,0.000,0
40220.968,-12.695,-0.488,-45.410,-6.836,0.000,0
40220.972,-26.855,-7.812,-41.504,-17.090,0.000,0
40220.975,-26.855,-12.207,-39.551,-25.879,0.000,0
40220.979,-20.508,-11.230,-40.039,-25.879,0.000,0
40220.983,-29.297,-10.742,-41.504,-24.902,0.000,0
40220.987,-37.109,-13.184,-41.504,-24.902,0.000,0
40220.991,-27.344,-14.160,-33.691,-28.809,0.000,0
40220.995,-20.508,-13.184,-33.203,-23.926,0.000,0
40220.999,-28.809,-13.672,-38.574,-22.461,0.000,0
40221.003,-25.391,-16.113,-36.621,-41.992,0.000,0
40221.007,-17.090,-18.555,-36.133,-45.410,0.000,0
40221.011,-19.531,-19.043,-34.668,-42.969,0.000,0
40221.014,-26.367,-24.414,-34.180,-44.922,0.000,0
40221.018,-22.461,-24.414,-37.109,-29.297,0.000,0
40221.022,-10.742,-24.414,-38.574,-27.344,0.000,0
40221.026,-14.648,-26.367,-38.574,-30.762,0.000,0
40221.030,-27.832,-24.902,-38.574,-33.203,0.000,0
40221.034,-29.785,-25.879,-36.621,-36.133,0.000,0
40221.038,-22.949,-28.809,-36.133,-32.227,0.000,0
40221.042,-37.598,-30.762,-42.969,-42.480,0.000,0
40221.046,-54.688,-31.738,-43.457,-41.016,0.000,0
40221.050,-28.809,-29.297,-34.180,-36.621,0.000,0
40221.054,-17.090,-27.832,-37.109,-55.664,0.000,0
40221.057,-33.691,-25.879,-41.504,-44.434,0.000,0
40221.061,-26.855,-20.508,-29.297,-22.949,0.000,0
40221.065,-28.320,-21.484,-30.273,-38.574,0.000,0
40221.069,-38.086,-20.020,-39.551,-54.688,0.000,0
40221.073,-19.531,-5.859,-27.344,-36.621,0.000,0
40221.077,-13.184,-13.672,-43.457,-27.832,0.000,0
40221.081,-15.625,-11.230,-50.293,-38.574,0.000,0
40221.085,-21.484,1.953,-32.715,-27.832,0.000,0
40221.089,-33.691,-13.184,-42.969,-24.414,0.000,0
40221.093,-43.457,-5.859,-43.945,-51.758,0.000,0
40221.097,-32.227,13.672,-31.738,-47.852,0.000,0
40221.100,-34.668,16.602,-31.738,-43.457,0.000,0
40221.104,-54.199,27.344,-28.320,-52.246,0.000,0
40221.108,-41.504,36.621,-33.203,-47.363,0.000,0
40221.112,-40.527,44.922,-49.316,-74.707,0.000,0
40221.116,-40.527,62.012,-38.086,-79.590,0.000,0
40221.120,-43.457,75.684,-22.461,-67.383,0.000,0
40221.124,-56.641,77.148,-26.855,-70.312,0.000,0
40221.128,-49.805,77.637,-31.250,-75.684,0.000,0
40221.132,-35.156,82.031,-29.785,-79.102,0.000,0
40221.136,-43.457,80.078,-36.621,-66.406,0.000,0
40221.139,-44.922,79.102,-38.574,-41.992,0.000,0
40221.143,-22.949,80.078,-38.086,-38.086,0.000,0
40221.147,-22.461,75.684,-36.621,-48.340,0.000,0
40221.151,-32.715,62.988,-27.832,-47.363,0.000,0
40221.155,-16.113,51.270,-27.832,-36.133,0.000,0
40221.159,-2.930,44.922,-30.762,-22.461,0.000,0
40221.163,-16.113,39.062,-33.691,-27.832,0.000,0
40221.167,-18.555,36.133,-29.785,-35.156,0.000,0
40221.171,-2.930,34.180,-22.949,-35.156,0.000,0
40221.175,-2.441,24.414,-25.879,-25.879,0.000,0
40221.179,-18.066,13.672,-26.855,-23.438,0.000,0
40221.182,-17.578,8.301,-27.344,-29.297,0.000,0
40221.186,-17.578,-0.977,-33.203,-32.227,0.000,0
40221.190,-13.672,-7.812,-38.574,-40.039,0.000,0
40221.194,-15.137,-12.207,-36.621,-36.133,0.000,0
40221.198,-12.207,-19.531,-32.227,-26.367,0.000,0
40221.202,-1.953,-24.414,-31.250,-27.832,0.000,0
40221.206,-11.719,-27.344,-32.227,-30.273,0.000,0
40221.210,-26.367,-28.320,-29.297,-20.020,0.000,0
40221.214,-19.531,-31.738,-28.320,-19.043,0.000,0
40221.218,-12.207,-30.273,-27.832,-27.832,0.000,0
40221.222,-15.137,-30.762,-25.391,-27.344,0.000,0
40221.225,-18.066,-40.527,-29.785,-22.949,0.000,0
40221.229,-13.184,-41.016,-30.762,-27.344,0.000,0
40221.233,-19.043,-41.992,-30.273,-31.250,0.000,0
40221.237,-20.996,-40.527,-32.227,-28.809,0.000,0
40221.241,-14.160,-43.945,-27.344,-23.926,0.000,0
40221.245,8.789,-45.898,-23.438,-22.461,0.000,0
40221.249,-5.859,-48.828,-30.273,-41.992,0.000,0
40221.253,-20.996,-52.246,-34.668,-42.480,0.000,0
40221.257,-6.836,-53.711,-36.621,-38.574,0.000,0
40221.261,-8.789,-54.199,-35.156,-37.598,0.000,0
40221.264,-14.648,-54.688,-33.691,-37.598,0.000,0
40221.268,-26.855,-53.711,-38.574,-47.852,0.000,0
40221.272,-29.297,-54.199,-41.016,-46.387,0.000,0
40221.276,-20.508,-55.664,-39.062,-35.156,0.000,0
40221.280,-20.996,-51.758,-37.598,-42.480,0.000,0
40221.284,-27.344,-50.781,-38.086,-48.828,0.000,0
40221.288,-23.926,-50.781,-38.574,-47.852,0.000,0
40221.292,-17.090,-46.875,-37.109,-56.152,0.000,0
40221.296,-22.461,-41.992,-38.086,-54.199,0.000,0
40221.300,-24.902,-41.016,-36.133,-35.645,0.000,1
40221.304,-14.648,-43.457,-36.133,-31.738,0.000,0
40221.307,-11.230,-44.922,-34.668,-48.828,0.000,0
40221.311,-15.137,-42.480,-30.762,-48.828,0.000,0
40221.315,-20.508,-41.504,-40.527,-31.738,0.000,0
40221.319,-10.742,-39.062,-38.574,-38.574,0.000,0
40221.323,0.977,-33.691,-28.320,-36.133,0.000,0
40221.327,-19.043,-36.133,-29.785,-27.832,0.000,0
40221.331,-30.273,-40.527,-33.691,-30.273,0.000,0
40221.335,-13.672,-40.039,-37.598,-32.227,0.000,0
40221.339,-3.906,-40.527,-35.156,-31.250,0.000,0
40221.343,-15.137,-39.551,-35.156,-33.691,0.000,0
40221.347,-22.949,-35.645,-36.621,-35.645,0.000,0
40221.350,-24.902,-34.668,-37.109,-39.062,0.000,0
40221.354,-25.879,-38.086,-37.598,-36.133,0.000,0
40221.358,-25.879,-38.086,-32.715,-33.203,0.000,0
40221.362,-29.297,-34.180,-29.785,-25.879,0.000,0
40221.366,-22.949,-30.762,-32.227,-35.156,0.000,0
40221.370,-21.484,-32.227,-31.250,-46.875,0.000,0
40221.374,-23.926,-31.250,-31.738,-38.574,0.000,0
40221.378,-16.602,-25.879,-30.762,-33.691,0.000,0
40221.382,-7.812,-25.879,-28.809,-36.133,0.000,0
40221.386,-20.996,-31.738,-34.180,-41.504,0.000,0
40221.389,-39.062,-31.738,-30.762,-52.734,0.000,0
40221.393,-29.297,-25.879,-28.809,-50.781,0.000,0
40221.397,-24.902,-29.297,-33.691,-45.898,0.000,0
40221.401,-19.531,-27.832,-31.250,-33.691,0.000,0
40221.405,-20.020,-26.367,-29.297,-33.203,0.000,0
40221.409,-31.250,-27.832,-30.273,-56.641,0.000,0
40221.413,-25.391,-27.344,-30.762,-48.340,0.000,0
40221.417,-20.996,-33.691,-37.598,-32.227,0.000,0
40221.421,-35.156,-35.156,-43.457,-42.480,0.000,0
40221.425,-25.391,-31.250,-36.133,-48.340,0.000,0
40221.429,-18.555,-29.297,-32.227,-53.711,0.000,0
40221.432,-41.504,-27.344,-36.621,-46.387,0.000,0
40221.436,-47.363,-23.926,-37.109,-35.156,0.000,0
40221.440,-31.738,-19.531,-37.109,-37.109,0.000,0
40221.444,-25.391,-19.043,-35.156,-53.711,0.000,0
40221.448,-33.203,-24.902,-35.156,-74.219,0.000,0
40221.452,-38.574,-23.926,-41.504,-57.129,0.000,0
40221.456,-37.109,-18.066,-39.062,-53.223,0.000,0
40221.460,-36.133,-20.508,-35.645,-61.035,0.000,0
40221.464,-43.457,-23.438,-32.227,-58.105,0.000,0
40221.468,-45.410,-22.949,-31.738,-64.453,0.000,0
40221.472,-36.621,-21.484,-32.715,-66.406,0.000,0
40221.475,-25.391,-17.578,-32.715,-59.570,0.000,0
40221.479,-39.551,-16.113,-32.715,-45.410,0.000,0
40221.483,-37.598,-17.090,-29.785,-45.410,0.000,0
40221.487,-27.344,-20.020,-29.785,-56.641,0.000,0
40221.491,-46.387,-23.438,-33.691,-51.270,0.000,0
40221.495,-45.898,-21.484,-33.203,-54.688,0.000,0
40221.499,-24.902,-18.555,-34.668,-47.363,0.000,0
40221.503,-31.250,-19.531,-36.133,-45.410,0.000,0
40221.507,-34.668,-21.973,-34.668,-60.547,0.000,0
40221.511,-27.832,-22.461,-32.715,-55.664,0.000,0
40221.514,-38.574,-22.949,-36.621,-58.105,0.000,0
40221.518,-28.809,-19.531,-33.203,-63.477,0.000,0
40221.522,-18.066,-14.648,-29.785,-45.410,0.000,0
40221.526,-28.809,-21.484,-33.203,-47.363,0.000,0
40221.530,-28.809,-26.367,-37.598,-67.383,0.000,0
40221.534,-34.668,-20.996,-37.109,-79.590,0.000,0
40221.538,-32.715,-20.020,-34.180,-70.312,0.000,0
40221.542,-23.926,-23.438,-32.715,-46.875,0.000,0
40221.546,-36.133,-25.879,-37.109,-60.547,0.000,0
40221.550,-43.457,-21.973,-42.480,-69.336,0.000,0
40221.554,-28.320,-19.531,-39.062,-46.875,0.000,0
40221.557,-26.367,-21.484,-36.621,-48.340,0.000,0
40221.561,-31.250,-18.066,-39.062,-57.129,0.000,0
40221.565,-30.762,-16.113,-37.598,-56.641,0.000,0
40221.569,-31.250,-19.043,-39.062,-48.340,0.000,0
40221.573,-21.484,-19.043,-41.504,-43.945,0.000,0
40221.577,-16.602,-17.090,-41.504,-56.641,0.000,0
40221.581,-20.996,-10.742,-37.598,-50.781,0.000,0
40221.585,-25.879,-11.230,-34.180,-54.688,0.000,0
40221.589,-28.809,-16.602,-34.180,-66.895,0.000,0
40221.593,-21.973,-9.766,-32.227,-50.781,0.000,0
40221.597,-20.996,-4.883,-31.250,-47.852,0.000,0
40221.600,-25.879,-7.812,-34.180,-51.758,0.000,0
40221.604,-21.484,-7.324,-33.203,-47.363,0.000,0
40221.608,-22.949,-7.812,-35.645,-41.992,0.000,0
40221.612,-37.598,-6.836,-40.527,-36.133,0.000,0
40221.616,-42.969,1.465,-41.992,-33.691,0.000,0
40221.620,-21.484,1.953,-35.645,-28.320,0.000,0
