timestamps,TP9,AF7,AF8,TP10,Right AUX,Marker0
40085.745,-46.387,19.043,-91.309,-123.047,0.000,0
40085.749,-20.020,28.320,-63.477,-123.047,0.000,0
40085.753,-17.090,37.598,-50.293,-126.953,0.000,0
40085.757,-5.371,25.879,-66.406,-117.188,0.000,0
40085.761,25.391,20.020,-68.359,-134.766,0.000,0
40085.764,-8.301,22.949,-45.898,-155.762,0.000,0
40085.768,-3.418,42.969,-15.137,-138.672,0.000,0
40085.772,7.812,30.762,-20.996,-169.434,0.000,0
40085.776,1.465,2.930,-47.363,-185.059,0.000,0
40085.780,22.949,11.230,-42.969,-128.906,0.000,0
40085.784,38.574,22.461,-32.715,-109.375,0.000,0
40085.788,33.691,13.184,-38.574,-132.324,0.000,0
40085.792,-4.883,-5.371,-68.359,-142.090,0.000,0
40085.796,-19.531,4.395,-64.453,-117.676,0.000,0
40085.800,7.324,12.695,-39.551,-92.285,0.000,0
40085.804,14.648,11.230,-35.156,-100.586,0.000,0
40085.807,25.879,10.742,-46.387,-102.539,0.000,0
40085.811,12.207,0.000,-51.758,-103.027,0.000,0
40085.815,-1.953,-17.578,-59.082,-108.887,0.000,0
40085.819,17.578,-14.160,-55.664,-114.746,0.000,0
40085.823,50.781,-7.324,-43.945,-117.676,0.000,0
40085.827,56.641,-1.465,-39.551,-94.727,0.000,0
40085.831,29.297,12.207,-16.113,-103.516,0.000,0
40085.835,52.246,22.461,-6.348,-103.027,0.000,0
40085.839,55.176,13.184,-13.184,-86.914,0.000,0
40085.843,30.273,-5.371,-25.391,-95.215,0.000,0
40085.847,40.039,-2.441,-28.809,-78.613,0.000,0
40085.850,68.359,-1.953,-20.996,-77.148,0.000,0
40085.854,44.922,-10.742,-27.344,-92.285,0.000,0
40085.858,17.578,-9.766,-34.180,-92.773,0.000,0
40085.862,53.223,10.254,-18.555,-62.988,0.000,0
40085.866,57.617,7.812,-37.109,-29.785,0.000,0
40085.870,7.324,-10.254,-36.621,-80.078,0.000,0
40085.874,40.527,-12.695,-34.668,-87.891,0.000,0
40085.878,96.191,7.324,-31.250,-31.738,0.000,0
40085.882,40.039,2.441,-26.855,-78.125,0.000,0
40085.886,-14.648,-33.203,-60.059,-125.977,0.000,0
40085.889,-19.043,-48.828,-60.547,-133.789,0.000,0
40085.893,42.969,-18.555,-27.344,-72.754,0.000,0
40085.897,95.703,23.438,10.742,-9.277,0.000,0
40085.901,33.691,-5.859,-28.320,-67.383,0.000,0
40085.905,21.484,-21.973,-53.223,-66.406,0.000,0
40085.909,51.270,-14.160,-35.645,-53.223,0.000,0
40085.913,46.387,-19.531,-40.527,-72.754,0.000,0
40085.917,-39.551,-42.969,-68.848,-103.027,0.000,0
40085.921,-26.367,-33.691,-56.641,-89.844,0.000,0
40085.925,19.531,-17.090,-32.715,-61.523,0.000,0
40085.929,6.836,-21.973,-31.738,-82.520,0.000,0
40085.932,56.152,-8.789,-41.504,-53.223,0.000,0
40085.936,70.312,-8.789,-65.430,-24.902,0.000,0
40085.940,62.012,-12.695,-51.270,-37.598,0.000,0
40085.944,10.742,-6.836,-33.691,-43.945,0.000,0
40085.948,1.953,-1.465,-32.227,-47.363,0.000,0
40085.952,32.715,-3.906,-28.809,-51.758,0.000,0
40085.956,-0.977,-0.977,-23.438,-43.945,0.000,0
40085.960,41.504,9.766,-28.320,-28.809,0.000,0
40085.964,94.238,3.418,-47.363,-22.949,0.000,0
40085.968,103.516,1.953,-42.969,-44.434,0.000,0
40085.972,42.480,17.090,-7.812,-55.176,0.000,0
40085.975,58.105,26.367,1.953,-21.973,0.000,0
40085.979,136.719,30.762,-0.977,11.230,0.000,0
40085.983,112.793,13.184,-18.555,-1.465,0.000,0
40085.987,55.176,10.742,-20.996,-16.113,0.000,0
40085.991,79.590,20.508,-16.602,-29.297,0.000,0
40085.995,72.266,7.324,-26.367,-46.387,0.000,0
40085.999,-29.785,-4.395,-53.711,-34.180,0.000,0
40086.003,-40.039,3.418,-46.875,-18.555,0.000,0
40086.007,-24.902,19.531,-5.371,-21.973,0.000,0
40086.011,-32.227,17.578,-12.695,-28.320,0.000,0
40086.014,-48.828,15.625,-22.949,-9.277,0.000,0
40086.018,-62.988,20.996,-20.020,-20.020,0.000,0
40086.022,-64.453,14.648,-18.066,-32.715,0.000,0
40086.026,-51.270,20.020,-15.137,-18.066,0.000,0
40086.030,-34.668,13.672,-41.016,-26.855,0.000,0
40086.034,-77.637,0.000,-42.480,-34.180,0.000,0
40086.038,-82.520,5.371,-28.809,-26.367,0.000,0
40086.042,-48.828,20.996,-21.973,4.395,0.000,0
40086.046,-60.547,13.672,-26.367,0.488,0.000,0
40086.050,-105.957,-4.395,-39.551,-43.457,0.000,0
40086.054,-112.793,0.488,-42.480,-28.809,0.000,0
40086.057,-107.422,11.230,-30.762,2.930,0.000,0
40086.061,-99.609,12.695,-23.438,3.906,0.000,0
40086.065,-90.332,-1.465,-44.922,-18.555,0.000,0
40086.069,-72.266,-8.789,-53.223,-45.898,0.000,0
40086.073,-131.348,9.277,-35.156,-16.113,0.000,0
40086.077,-134.277,27.832,-26.367,15.625,0.000,0
40086.081,-20.020,39.062,-20.996,12.695,0.000,0
40086.085,57.129,38.574,-10.254,42.969,0.000,0
40086.089,0.977,29.297,-34.668,5.859,0.000,0
40086.093,-107.422,30.273,-46.387,-62.012,0.000,0
40086.097,-124.512,49.316,-11.719,-56.152,0.000,0
40086.100,-48.828,61.035,-7.812,-12.695,0.000,0
40086.104,-77.637,43.457,-44.434,-21.484,0.000,0
40086.108,-257.812,49.805,-24.902,-48.340,0.000,0
40086.112,-177.246,60.547,-10.742,-31.250,0.000,0
40086.116,-89.844,57.129,-20.996,-39.062,0.000,0
40086.120,-208.496,60.547,-7.812,-65.430,0.000,0
40086.124,-163.574,61.523,2.441,-56.152,0.000,0
40086.128,-84.473,64.453,5.859,-59.570,0.000,0
40086.132,-121.582,63.965,13.184,-27.344,0.000,0
40086.136,-117.188,57.617,7.812,4.395,0.000,0
40086.139,-162.598,50.293,0.977,-11.230,0.000,0
40086.143,-150.879,25.391,-1.953,-37.598,0.000,0
40086.147,-142.578,12.207,3.418,-71.777,0.000,0
40086.151,-197.754,13.184,17.578,-66.895,0.000,0
40086.155,-169.922,-3.906,19.043,-54.199,0.000,0
40086.159,-137.207,-15.137,16.602,-53.223,0.000,0
40086.163,-159.180,-22.949,22.461,-46.875,0.000,0
40086.167,-149.414,-51.270,5.371,-56.152,0.000,0
40086.171,-112.305,-65.430,5.371,-54.199,0.000,0
40086.175,-166.504,-76.660,13.672,-53.223,0.000,0
40086.179,-209.473,-87.891,0.977,-55.664,0.000,0
40086.182,-159.668,-97.168,1.465,-52.734,0.000,0
40086.186,-112.305,-102.539,15.625,-44.434,0.000,0
40086.190,-91.309,-101.074,19.531,-31.738,0.000,0
40086.194,-80.566,-103.027,10.254,-25.879,0.000,0
40086.198,-80.566,-100.098,12.207,-22.949,0.000,0
40086.202,-84.961,-104.492,13.672,4.395,0.000,0
40086.206,-93.750,-117.188,9.277,-16.602,0.000,0
40086.210,-77.148,-115.234,6.348,-46.387,0.000,0
40086.214,-58.594,-109.375,3.418,-9.277,0.000,0
40086.218,-41.992,-110.352,3.906,7.812,0.000,0
40086.222,-21.973,-97.168,22.949,-6.836,0.000,0
40086.225,7.812,-83.496,38.574,-3.418,0.000,0
40086.229,-20.508,-94.727,3.906,5.859,0.000,0
40086.233,-13.672,-91.309,-11.230,8.301,0.000,0
40086.237,5.371,-79.590,-5.859,3.906,0.000,0
40086.241,-43.945,-78.613,-19.043,1.953,0.000,0
40086.245,10.742,-62.500,-1.465,12.695,0.000,0
40086.249,70.801,-54.688,10.742,19.043,0.000,0
40086.253,59.082,-56.152,3.418,28.320,0.000,0
40086.257,48.828,-56.152,-3.418,26.367,0.000,0
40086.261,49.316,-61.035,-16.602,19.043,0.000,0
40086.264,72.266,-59.570,-15.625,30.273,0.000,0
40086.268,73.242,-58.594,-20.508,32.715,0.000,0
40086.272,67.383,-54.688,-31.738,33.203,0.000,0
40086.276,96.680,-28.320,0.488,60.547,0.000,0
40086.280,127.930,-6.348,26.855,75.684,0.000,0
40086.284,113.281,-17.090,3.906,60.059,0.000,0
40086.288,81.543,-31.738,-16.113,51.270,0.000,0
40086.292,92.773,-42.480,-36.621,41.992,0.000,0
40086.296,117.676,-18.066,-5.859,69.824,0.000,0
40086.300,118.652,1.953,9.277,97.168,0.000,0
40086.304,77.148,-20.996,-24.414,55.664,0.000,0
40086.307,81.543,-20.020,-10.742,49.316,0.000,0
40086.311,58.594,-20.996,-7.324,39.062,0.000,0
40086.315,37.598,-26.855,-22.461,37.598,0.000,0
40086.319,64.453,-12.207,-24.414,82.520,0.000,0
40086.323,47.852,-18.555,-30.762,53.711,0.000,0
40086.327,12.207,-26.855,-21.973,-4.395,0.000,0
40086.331,-44.434,-29.297,-37.109,-20.508,0.000,0
40086.335,-38.086,-31.250,-36.621,-31.250,0.000,0
40086.339,-5.859,-41.504,-40.527,-38.574,0.000,0
40086.343,-102.539,-48.828,-51.758,-41.016,0.000,0
40086.347,-136.719,-41.992,-38.574,-43.945,0.000,0
40086.350,-75.684,-52.734,-44.434,-51.758,0.000,0
40086.354,-118.652,-57.129,-23.438,-65.918,0.000,0
40086.358,-154.785,-58.105,-23.438,-67.871,0.000,0
40086.362,-95.215,-59.570,-51.270,-49.316,0.000,0
40086.366,-61.035,-41.504,-24.902,-26.367,0.000,0
40086.370,-48.340,-26.367,-3.418,-22.461,0.000,0
40086.374,-77.637,-40.039,-25.879,-37.109,0.000,0
40086.378,-107.422,-48.828,-31.738,-34.668,0.000,0
40086.382,-37.598,-44.922,-47.363,-29.785,0.000,0
40086.386,-42.969,-36.133,-35.156,-39.062,0.000,0
40086.389,-65.430,-24.414,4.395,-2.441,0.000,0
40086.393,-39.062,-27.344,-6.348,0.000,0.000,0
40086.397,-53.223,-46.875,-47.363,-46.875,0.000,0
40086.401,20.020,-44.434,-55.664,-28.320,0.000,0
40086.405,-1.465,-34.668,-40.527,-1.465,0.000,0
40086.409,-64.941,-26.855,-5.859,1.465,0.000,0
40086.413,-14.160,-23.926,-6.348,-10.742,0.000,0
40086.417,8.789,-20.508,-22.461,-8.301,0.000,0
40086.421,7.812,-28.320,-35.645,7.812,0.000,0
40086.425,31.738,-33.691,-33.203,-6.836,0.000,0
40086.429,27.832,-33.691,-33.203,-24.414,0.000,0
40086.432,29.297,-25.391,-22.461,-5.371,0.000,0
40086.436,50.781,-11.719,-14.160,17.578,0.000,0
40086.440,44.922,-30.273,-43.457,-11.230,0.000,0
40086.444,6.836,-30.273,-25.391,-23.926,0.000,0
40086.448,-15.625,-19.531,-18.555,-8.301,0.000,0
40086.452,5.859,-21.973,-41.016,-5.859,0.000,0
40086.456,18.555,-12.207,-16.602,7.324,0.000,0
40086.460,7.324,-20.020,-11.719,0.000,0.000,0
40086.464,-14.160,-26.855,-40.039,-26.367,0.000,0
40086.468,10.254,-14.648,-38.574,4.883,0.000,0
40086.472,39.062,-20.996,-37.109,3.906,0.000,0
40086.475,0.488,-15.137,-25.879,-16.113,0.000,0
40086.479,-17.578,1.953,6.836,8.301,0.000,0
40086.483,-32.715,-23.438,-33.691,-15.625,0.000,0
40086.487,-33.203,-23.926,-47.363,-20.508,0.000,0
40086.491,7.812,-1.953,-25.879,11.719,0.000,0
40086.495,-7.812,-17.578,-38.086,0.977,0.000,0
40086.499,-28.320,-19.531,-26.367,-13.184,0.000,0
40086.503,-18.555,-4.395,-1.953,-7.324,0.000,0
40086.507,-29.785,0.488,-0.977,-4.883,0.000,0
40086.511,-30.273,-17.090,-34.180,-24.414,0.000,0
40086.514,-35.645,-23.926,-47.852,-15.137,0.000,0
40086.518,-41.992,-19.043,-36.133,-8.789,0.000,0
40086.522,-49.805,-18.555,-33.691,-12.695,0.000,0
40086.526,-62.988,-25.879,-34.668,-7.324,0.000,0
40086.530,-72.754,-36.621,-33.691,-15.137,0.000,0
40086.534,-66.406,-27.344,-20.020,-17.578,0.000,0
40086.538,-81.055,-26.367,-9.766,-27.344,0.000,0
40086.542,-90.820,-40.039,-35.156,-35.645,0.000,0
40086.546,-56.152,-38.574,-41.992,-17.578,0.000,0
40086.550,-48.340,-42.969,-39.551,-28.809,0.000,0
40086.554,-57.617,-36.621,-19.043,-37.109,0.000,0
40086.557,-62.500,-27.344,-3.418,-26.367,0.000,0
40086.561,-49.316,-25.879,-17.578,-9.277,0.000,0
40086.565,-54.688,-30.762,-40.039,-4.395,0.000,0
40086.569,-79.590,-35.645,-41.016,-9.766,0.000,0
40086.573,-73.242,-39.062,-38.574,-7.324,0.000,0
40086.577,-45.410,-42.480,-40.039,-12.695,0.000,0
40086.581,-55.664,-36.621,-23.438,-26.367,0.000,0
40086.585,-18.555,-10.742,4.883,2.930,0.000,0
40086.589,-13.184,-13.184,-4.395,6.836,0.000,0
40086.593,-38.574,-41.016,-43.945,-21.973,0.000,0
40086.597,-57.617,-39.062,-39.062,-27.832,0.000,0
40086.600,-69.824,-33.203,-13.184,-29.297,0.000,0
40086.604,-41.504,-44.922,-42.480,-28.320,0.000,0
40086.608,-17.090,-49.805,-60.059,-14.648,0.000,0
40086.612,-28.320,-42.480,-43.457,-0.488,0.000,0
40086.616,-76.660,-32.715,-20.020,-4.395,0.000,0
40086.620,-46.387,-37.598,-15.137,-19.531,0.000,0
40086.624,-2.441,-41.992,-39.062,-26.855,0.000,0
40086.628,-9.277,-46.875,-46.875,-44.922,0.000,0
40086.632,-48.828,-45.410,-31.738,-45.410,0.000,0
40086.636,-31.738,-34.180,-31.738,-31.250,0.000,0
40086.639,-22.949,-50.781,-42.969,-57.617,0.000,0
40086.643,-54.688,-63.965,-49.805,-50.293,0.000,0
40086.647,-1.953,-37.598,-37.109,-18.066,0.000,0
40086.651,-3.906,-24.414,-19.531,-18.555,0.000,0
40086.655,-40.527,-44.434,-34.668,-27.344,0.000,0
40086.659,-6.348,-40.039,-21.973,-26.855,0.000,0
40086.663,-24.414,-46.387,-29.297,-32.227,0.000,0
40086.667,-24.902,-48.340,-44.434,-18.555,0.000,0
40086.671,-11.230,-43.945,-28.320,-33.691,0.000,0
40086.675,-30.273,-42.969,-22.461,-43.945,0.000,0
40086.679,-22.461,-26.855,-13.184,-15.137,0.000,0
40086.682,-18.555,-32.227,-33.203,-21.973,0.000,0
40086.686,-32.227,-35.645,-28.809,-22.949,0.000,0
40086.690,-45.898,-36.621,-17.578,-27.832,0.000,0
40086.694,-25.391,-29.785,-14.160,-23.438,0.000,0
40086.698,24.902,-32.715,-27.832,-38.574,0.000,0
40086.702,-50.781,-47.363,-52.246,-60.547,0.000,0
40086.706,-90.332,-28.809,-24.902,-21.484,0.000,0
40086.710,-37.109,-26.367,-27.344,-17.090,0.000,0
40086.714,-36.621,-39.062,-38.574,-34.668,0.000,0
40086.718,-11.719,-32.715,-29.297,-27.344,0.000,0
40086.722,-5.371,-20.020,-32.715,6.836,0.000,0
40086.725,-56.641,-36.621,-42.969,-3.418,0.000,0
40086.729,-23.438,-33.691,-32.715,-16.602,0.000,0
40086.733,19.531,-11.719,-9.277,8.301,0.000,0
40086.737,-40.039,-21.973,-14.648,-14.648,0.000,0
40086.741,-57.617,-38.086,-29.785,-30.762,0.000,0
40086.745,-43.945,-42.969,-50.293,-14.648,0.000,0
40086.749,-32.227,-31.738,-37.598,-12.695,0.000,0
40086.753,-13.672,-21.484,-15.625,-18.555,0.000,0
40086.757,-16.113,-37.598,-36.621,-27.344,0.000,0
40086.761,-5.859,-40.527,-49.316,-30.762,0.000,0
40086.764,-16.113,-26.855,-49.805,-29.785,0.000,0
40086.768,-27.832,-18.555,-30.273,-27.344,0.000,0
40086.772,-15.137,-20.020,-10.742,-13.672,0.000,0
40086.776,-20.020,-21.973,-20.020,-21.484,0.000,0
40086.780,14.160,-12.207,-18.555,-9.766,0.000,0
40086.784,6.836,-8.301,-20.508,11.719,0.000,0
40086.788,-18.555,-19.531,-35.645,-4.395,0.000,0
40086.792,-15.137,-29.785,-41.016,-11.230,0.000,0
40086.796,12.207,-14.648,-29.297,12.695,0.000,0
40086.800,-16.113,-9.766,-28.809,5.859,0.000,0
40086.804,-37.598,-22.461,-39.062,-0.977,0.000,0
40086.807,0.488,-15.625,-30.273,13.184,0.000,0
40086.811,27.832,0.488,-10.742,35.156,0.000,0
40086.815,39.551,-13.672,-23.926,8.789,0.000,0
40086.819,17.090,-24.902,-39.062,-12.695,0.000,0
40086.823,-10.254,-19.531,-31.738,-0.977,0.000,0
40086.827,-2.930,-10.742,-22.949,10.254,0.000,0
40086.831,14.160,-11.719,-21.484,15.137,0.000,0
40086.835,27.344,-15.137,-23.926,7.812,0.000,0
40086.839,20.508,-14.648,-28.320,14.160,0.000,0
40086.843,-20.508,-22.461,-43.945,4.395,0.000,0
40086.847,-17.090,-20.508,-33.691,-2.441,0.000,0
40086.850,1.465,-26.367,-27.344,-13.184,0.000,0
40086.854,-19.043,-27.832,-27.344,-25.879,0.000,0
40086.858,-30.273,-8.789,-17.090,-18.066,0.000,0
40086.862,-5.371,-12.207,-31.738,-14.160,0.000,0
40086.866,9.277,-14.648,-30.762,-23.438,0.000,0
40086.870,-14.648,-17.090,-26.367,-34.180,0.000,0
40086.874,-38.574,-28.809,-27.832,-28.320,0.000,0
40086.878,-27.344,-26.855,-28.320,-23.926,0.000,0
40086.882,-8.789,-7.324,-16.602,-8.301,0.000,0
40086.886,-29.785,-25.879,-39.062,-15.137,0.000,0
40086.889,-19.043,-38.574,-62.500,-29.297,0.000,0
40086.893,-1.465,-12.207,-20.996,-15.137,0.000,0
40086.897,-43.457,-20.996,-18.066,-36.621,0.000,0
40086.901,-34.180,-26.855,-26.855,-42.969,0.000,0
40086.905,23.926,-15.137,-20.996,-9.766,0.000,0
40086.909,44.434,-15.137,-39.062,-2.930,0.000,0
40086.913,-46.875,-31.738,-40.527,-45.898,0.000,0
40086.917,-136.230,-49.805,-21.973,-97.656,0.000,0
40086.921,-95.215,-32.715,-4.395,-84.473,0.000,0
40086.925,33.691,-18.066,-21.973,-58.105,0.000,0
40086.929,55.176,-1.953,-35.645,-11.230,0.000,0
40086.932,-51.758,-3.418,-29.297,-16.602,0.000,0
40086.936,-54.688,-12.695,-24.902,-39.551,0.000,0
40086.940,-41.504,-24.414,-22.949,-41.504,0.000,0
40086.944,-40.039,-31.250,-28.809,-51.270,0.000,0
40086.948,6.836,-5.859,-20.996,-25.391,0.000,0
40086.952,13.672,10.254,-13.672,-8.789,0.000,0
40086.956,1.953,8.789,-8.789,-11.230,0.000,0
40086.960,-52.246,-14.160,-34.668,-32.227,0.000,0
40086.964,-35.645,-21.484,-60.059,-32.227,0.000,0
40086.968,60.059,-3.418,-20.020,-7.324,0.000,0
40086.972,17.578,-6.348,-21.973,-17.090,0.000,0
40086.975,-57.617,-11.719,-34.180,-30.273,0.000,0
40086.979,-12.695,2.930,-7.812,-16.113,0.000,0
40086.983,0.000,5.371,-2.930,-20.020,0.000,0
40086.987,22.461,15.137,14.160,-9.766,0.000,0
40086.991,25.879,12.695,-11.230,-0.977,0.000,0
40086.995,12.695,8.789,-17.578,5.859,0.000,0
40086.999,-10.742,0.000,-8.789,0.488,0.000,0
40087.003,-57.129,-9.766,-35.156,-34.668,0.000,0
40087.007,-37.598,-4.883,-22.949,-45.410,0.000,0
40087.011,-11.230,-8.789,-10.254,-42.480,0.000,0
40087.014,18.555,7.324,7.324,-22.949,0.000,0
40087.018,-45.410,-9.277,-23.926,-28.320,0.000,0
40087.022,-87.891,-35.645,-45.898,-47.852,0.000,0
40087.026,-22.949,-14.160,-23.438,-27.832,0.000,0
40087.030,-21.484,-15.625,-33.691,-16.602,0.000,0
40087.034,-41.016,-17.578,-17.090,-29.785,0.000,0
40087.038,-54.199,-16.113,-28.320,-41.992,0.000,0
40087.042,-82.031,-29.297,-35.156,-66.895,0.000,0
40087.046,-58.594,-29.785,-15.137,-65.430,0.000,0
40087.050,-9.277,-24.414,-17.578,-43.457,0.000,0
40087.054,-25.391,-7.324,-10.254,-15.137,0.000,0
40087.057,-84.961,-29.785,-52.246,-48.340,0.000,0
40087.061,-99.609,-45.410,-53.223,-77.637,0.000,0
40087.065,-20.996,-12.695,8.301,-41.992,0.000,0
40087.069,-32.227,-19.043,-14.160,-30.762,0.000,0
40087.073,-52.246,-22.949,-30.762,-33.203,0.000,0
40087.077,-56.641,-14.160,-24.414,-33.203,0.000,0
40087.081,-87.402,-33.691,-32.227,-45.898,0.000,0
40087.085,-53.223,-42.480,-41.016,-56.641,0.000,0
40087.089,-30.273,-23.926,-29.785,-38.086,0.000,0
40087.093,-72.266,-13.672,-22.461,-21.973,0.000,0
40087.097,-59.082,-23.438,-38.574,-28.809,0.000,0
40087.100,-7.324,-20.996,-28.809,-28.320,0.000,0
40087.104,-51.270,-18.066,-20.996,-30.273,0.000,0
40087.108,-56.641,-20.996,-31.250,-40.527,0.000,0
40087.112,-23.438,-24.902,-42.969,-42.480,0.000,0
40087.116,-62.012,-20.996,-47.363,-24.414,0.000,0
40087.120,-66.406,-5.371,-19.043,-20.996,0.000,0
40087.124,-2.930,3.906,-8.301,-2.441,0.000,0
40087.128,-34.180,-4.883,-27.344,-1.465,0.000,0
40087.132,-56.641,-12.695,-26.367,-4.883,0.000,0
40087.136,-2.441,4.395,-5.371,22.461,0.000,0
40087.139,-18.555,0.488,-5.371,0.000,0.000,0
40087.143,-39.062,-25.879,-32.715,-28.320,0.000,0
40087.147,-45.898,-27.832,-41.992,-16.113,0.000,0
40087.151,-30.762,-25.391,-42.480,-24.414,0.000,0
40087.155,-17.578,-25.879,-51.270,-25.879,0.000,0
40087.159,-82.520,-36.621,-62.988,-34.668,0.000,0
40087.163,-69.824,-26.855,-29.785,-18.555,0.000,0
40087.167,-36.133,-19.531,-9.766,-29.785,0.000,0
40087.171,-22.461,-30.273,-33.203,-15.137,0.000,0
40087.175,-15.137,-19.531,-23.438,20.508,0.000,0
40087.179,-8.301,-18.555,-17.578,-7.324,0.000,0
40087.182,-5.371,-24.414,-22.949,-6.836,0.000,0
40087.186,-26.367,-25.391,-21.484,-6.348,0.000,0
40087.190,1.953,-23.438,-22.461,-24.414,0.000,0
40087.194,-4.395,-19.531,-16.113,-14.160,0.000,0
40087.198,-12.695,-24.414,-27.344,-11.719,0.000,0
40087.202,25.879,-23.926,-31.738,-17.578,0.000,0
40087.206,33.691,-18.555,-24.902,-12.695,0.000,0
40087.210,22.461,-7.324,-17.578,15.137,0.000,0
40087.214,38.574,-6.836,-18.066,30.762,0.000,0
40087.218,68.359,-8.301,-23.438,16.602,0.000,0
40087.222,59.082,-18.555,-36.621,-4.883,0.000,0
40087.225,19.531,-22.949,-37.598,-11.230,0.000,0
40087.229,21.973,-15.625,-26.855,1.953,0.000,0
40087.233,41.016,-13.672,-28.809,31.250,0.000,0
40087.237,57.617,-12.207,-30.273,41.504,0.000,0
40087.241,98.145,-4.883,-9.277,22.461,0.000,0
40087.245,47.852,-8.789,-5.859,8.789,0.000,0
40087.249,34.668,-16.602,-19.531,0.000,0.000,0
40087.253,50.293,-18.066,-25.391,-0.977,0.000,0
40087.257,29.297,-18.066,-26.367,2.930,0.000,0
40087.261,65.918,-3.906,-15.625,31.250,0.000,0
40087.264,63.477,-5.371,-12.207,33.691,0.000,0
40087.268,32.227,-13.184,-17.578,14.648,0.000,0
40087.272,32.227,-9.766,-18.066,24.902,0.000,0
40087.276,50.293,-14.648,-24.902,9.277,0.000,0
40087.280,94.238,-16.602,-32.715,1.465,0.000,0
40087.284,59.082,-5.859,-13.672,25.879,0.000,0
40087.288,16.602,-5.371,0.488,20.020,0.000,0
40087.292,69.824,-6.836,-13.184,20.996,0.000,0
40087.296,80.078,-7.324,-23.926,18.555,0.000,0
40087.300,59.570,-6.836,-12.695,-4.883,0.000,0
40087.304,83.008,-2.930,-1.953,3.418,0.000,0
40087.307,86.426,-2.930,-5.371,12.695,0.000,0
40087.311,56.152,-8.301,-18.066,8.301,0.000,0
40087.315,36.621,-8.301,-22.949,19.531,0.000,0
40087.319,37.109,-8.301,-19.531,10.254,0.000,0
40087.323,76.660,-4.883,-14.648,-12.207,0.000,0
40087.327,76.172,-3.906,-8.789,-16.113,0.000,0
40087.331,49.316,-7.324,-21.484,-0.977,0.000,0
40087.335,37.598,-9.766,-24.414,10.742,0.000,0
40087.339,37.109,1.953,5.859,17.090,0.000,0
40087.343,57.129,6.836,8.789,6.348,0.000,0
40087.347,54.688,-3.906,-7.812,-5.859,0.000,0
40087.350,51.270,-7.324,-18.066,12.695,0.000,0
40087.354,74.219,-8.789,-20.508,0.000,0.000,0
40087.358,59.082,-10.742,-17.578,-20.508,0.000,0
40087.362,34.668,-9.277,-12.695,-7.324,0.000,0
40087.366,103.516,-0.977,-1.953,8.301,0.000,0
40087.370,87.402,-4.395,-5.859,13.672,0.000,0
40087.374,27.344,-8.789,-4.883,27.344,0.000,0
40087.378,49.316,-11.719,-2.441,15.137,0.000,0
40087.382,52.734,-12.207,2.930,4.395,0.000,0
40087.386,71.777,-14.160,2.930,0.488,0.000,0
40087.389,52.734,-20.508,-16.602,-16.602,0.000,0
40087.393,47.852,-16.113,-15.625,0.977,0.000,0
40087.397,56.152,-18.555,-10.254,7.812,0.000,0
40087.401,36.621,-18.555,-6.836,-2.930,0.000,0
40087.405,24.902,-11.719,-12.207,-16.602,0.000,0
40087.409,6.348,-19.043,-27.344,-21.484,0.000,0
40087.413,43.945,-20.020,-23.438,-1.465,0.000,0
40087.417,50.781,-16.602,-9.766,-3.906,0.000,0
40087.421,39.062,-18.066,-8.301,-10.254,0.000,0
40087.425,45.898,-10.742,-14.648,-6.348,0.000,0
40087.429,50.781,-10.742,-24.414,3.418,0.000,0
40087.432,34.180,-12.695,-21.973,-7.324,0.000,0
40087.436,45.410,-8.301,-7.324,-8.301,0.000,0
40087.440,66.895,-8.301,-4.883,11.719,0.000,0
40087.444,69.336,-10.742,-8.301,-10.742,0.000,0
40087.448,84.961,-20.020,-18.555,-21.484,0.000,0
40087.452,79.590,-20.996,-23.438,-4.395,0.000,0
40087.456,86.426,-19.531,-15.625,-6.836,0.000,0
40087.460,116.699,-27.832,-13.672,-13.672,0.000,0
40087.464,117.676,-29.785,-13.672,-27.832,0.000,0
40087.468,100.586,-25.879,-14.648,-33.691,0.000,0
40087.472,120.605,-22.949,-7.324,-28.809,0.000,0
40087.475,145.996,-16.113,2.930,-15.137,0.000,0
40087.479,142.578,-19.531,-4.883,-4.883,0.000,0
40087.483,139.648,-26.855,-13.672,-18.555,0.000,0
40087.487,164.062,-19.043,-13.184,-1.465,0.000,0
40087.491,163.574,-16.602,-20.996,13.184,0.000,0
40087.495,169.434,-20.996,-19.043,-4.395,0.000,0
40087.499,208.984,-17.578,-7.812,-6.836,0.000,0
40087.503,205.566,-28.320,-7.324,-29.785,0.000,0
40087.507,208.008,-27.832,-2.441,-23.926,0.000,0
40087.511,253.906,-7.812,4.395,12.207,0.000,0
40087.514,264.160,-10.254,9.766,13.184,0.000,0
40087.518,267.090,-16.113,6.836,8.301,0.000,0
40087.522,292.480,-22.461,-5.371,6.836,0.000,0
40087.526,337.402,-27.832,-14.648,1.953,0.000,0
40087.530,294.434,-20.996,-10.254,-13.184,0.000,0
40087.534,277.832,-18.066,0.488,-17.090,0.000,0
40087.538,339.355,-15.137,-1.465,12.207,0.000,0
40087.542,362.305,-11.230,-4.395,34.180,0.000,0
40087.546,331.543,-12.695,-8.789,18.066,0.000,0
40087.550,318.359,-11.719,-11.230,18.066,0.000,0
40087.554,327.148,-13.672,-12.207,23.926,0.000,0
40087.557,331.055,-24.902,-22.949,21.973,0.000,0
40087.561,339.355,-22.949,-16.113,24.902,0.000,0
40087.565,310.547,-13.184,-4.395,37.598,0.000,0
40087.569,286.133,-20.020,-14.160,26.367,0.000,0
40087.573,284.180,-23.438,-19.043,0.000,0.000,0
40087.577,271.484,-18.066,-6.348,12.207,0.000,0
40087.581,263.672,-18.555,3.906,15.137,0.000,0
40087.585,236.328,-24.414,-8.789,-4.883,0.000,0
40087.589,252.441,-26.855,-22.949,0.000,0.000,0
40087.593,192.871,-26.367,-20.508,1.465,0.000,0
40087.597,122.070,-22.949,-15.625,6.348,0.000,0
40087.600,128.906,-15.625,-4.395,14.648,0.000,0
40087.604,86.914,-18.555,-6.836,-5.859,0.000,0
40087.608,60.547,-22.949,-19.043,-15.137,0.000,0
40087.612,52.734,-21.973,-20.996,-13.672,0.000,0
40087.616,3.418,-21.484,-19.531,-17.578,0.000,0
40087.620,-61.523,-17.578,-23.926,-20.508,0.000,0
40087.624,-72.266,-21.973,-26.367,-25.879,0.000,0
40087.628,-83.008,-17.090,-20.996,-15.625,0.000,0
40087.632,-118.652,-14.160,-21.973,-7.324,0.000,0
40087.636,-127.441,-19.531,-25.391,-12.207,0.000,0
40087.639,-127.930,-15.137,-25.391,-15.625,0.000,0
40087.643,-145.020,-20.508,-32.227,-29.297,0.000,0
40087.647,-194.824,-20.996,-35.156,-24.414,0.000,0
40087.651,-215.820,-17.578,-22.461,-15.625,0.000,0
40087.655,-202.148,-21.484,-18.066,-16.113,0.000,0
40087.659,-207.031,-19.531,-20.020,-5.859,0.000,0
40087.663,-182.617,-15.137,-10.742,1.465,0.000,0
40087.667,-176.270,-17.578,-25.879,-0.977,0.000,0
40087.671,-220.703,-26.367,-45.410,-5.371,0.000,0
40087.675,-212.891,-26.855,-25.391,-2.930,0.000,0
40087.679,-223.633,-18.066,-9.277,-5.371,0.000,0
40087.682,-232.422,-11.719,-15.137,-3.906,0.000,0
40087.686,-202.148,-6.348,-8.301,5.371,0.000,0
40087.690,-216.309,-4.395,0.000,5.859,0.000,0
40087.694,-236.328,-7.324,-8.301,-2.930,0.000,0
40087.698,-208.496,-5.371,-9.766,0.977,0.000,0
40087.702,-200.195,-7.812,-16.602,0.488,0.000,0
40087.706,-241.699,-15.137,-21.973,-4.395,0.000,0
40087.710,-255.371,-17.578,-24.414,-5.859,0.000,0
40087.714,-232.910,-9.766,-24.902,-4.395,0.000,0
40087.718,-220.215,-7.324,-11.230,-2.441,0.000,0
40087.722,-216.797,-12.207,-9.277,-17.578,0.000,0
40087.725,-188.965,-3.906,-12.207,-6.348,0.000,0
40087.729,-218.750,-0.488,-18.066,9.766,0.000,0
40087.733,-255.859,-6.348,-20.020,2.930,0.000,0
40087.737,-250.000,-4.395,-8.789,-2.930,0.000,0
40087.741,-236.816,0.977,-4.883,-6.348,0.000,0
40087.745,-221.680,2.441,-4.883,-5.859,0.000,0
40087.749,-214.355,-1.953,-11.719,-9.766,0.000,0
40087.753,-214.355,-6.836,-21.484,10.254,0.000,0
40087.757,-214.355,-4.883,-10.254,28.320,0.000,0
40087.761,-222.656,-9.766,-4.883,-11.719,0.000,0
40087.764,-249.512,-14.648,-12.695,-26.367,0.000,0
40087.768,-216.797,-11.230,-13.184,0.000,0.000,0
40087.772,-214.844,-15.625,-12.695,-2.441,0.000,0
40087.776,-229.980,-16.113,-13.672,-5.859,0.000,0
40087.780,-204.590,-8.789,-8.789,0.488,0.000,0
40087.784,-200.195,-10.742,-12.207,-7.324,0.000,0
40087.788,-199.219,-12.695,-17.090,-15.625,0.000,0
40087.792,-174.316,-3.906,-4.883,-10.254,0.000,0
40087.796,-161.133,-2.441,-3.906,0.000,0.000,0
40087.800,-145.996,-6.836,-8.789,-2.930,0.000,0
40087.804,-138.184,-2.930,-5.371,3.906,0.000,0
40087.807,-127.441,-1.465,-9.277,10.742,0.000,0
40087.811,-121.094,0.488,-15.625,4.395,0.000,0
40087.815,-147.949,2.930,-16.113,5.371,0.000,0
40087.819,-143.555,0.000,-13.184,-5.859,0.000,0
40087.823,-138.672,0.488,-13.672,-4.395,0.000,0
40087.827,-166.504,-1.465,-21.484,6.348,0.000,0
40087.831,-177.246,-6.836,-26.855,-3.906,0.000,0
40087.835,-175.781,-7.324,-26.367,-17.090,0.000,0
40087.839,-230.469,-4.395,-24.414,-22.949,0.000,0
40087.843,-284.668,2.441,-11.230,-4.883,0.000,0
40087.847,-284.180,5.859,-9.277,-0.488,0.000,0
40087.850,-270.508,1.465,-20.020,-18.555,0.000,0
40087.854,-331.543,1.465,-29.297,-11.230,0.000,0
40087.858,-418.457,0.000,-26.855,-18.555,0.000,0
40087.862,-432.617,-1.953,-20.996,-38.574,0.000,0
40087.866,-458.008,-3.418,-28.320,-33.691,0.000,0
40087.870,-465.332,4.883,-37.109,-32.715,0.000,0
40087.874,-526.367,4.883,-45.898,-44.434,0.000,0
40087.878,-600.098,0.488,-34.180,-48.828,0.000,0
40087.882,-574.219,1.953,-16.602,-35.645,0.000,0
40087.886,-567.383,-4.883,-20.508,-28.809,0.000,0
40087.889,-554.688,-5.859,-24.902,-33.203,0.000,0
40087.893,-489.746,-8.789,-28.809,-14.160,0.000,0
40087.897,-431.152,-11.719,-26.855,-4.883,0.000,0
40087.901,-357.422,-8.789,-19.531,-5.859,0.000,0
40087.905,-279.297,-5.859,-20.020,10.742,0.000,0
40087.909,-234.863,1.465,-14.648,20.508,0.000,0
40087.913,-176.270,6.836,-2.441,18.066,0.000,0
40087.917,-127.930,0.000,-8.789,14.648,0.000,0
40087.921,-75.684,-8.789,-27.344,6.348,0.000,0
40087.925,-34.668,-9.277,-32.227,4.883,0.000,0
40087.929,-56.641,-8.789,-23.926,2.930,0.000,0
40087.932,-39.551,-7.324,-12.207,13.672,0.000,0
40087.936,8.789,-5.371,-14.160,25.879,0.000,0
40087.940,-9.277,-10.254,-16.602,10.742,0.000,0
40087.944,-43.945,-9.766,-11.230,4.395,0.000,0
40087.948,-64.941,-1.465,-14.648,6.836,0.000,0
40087.952,-112.793,-4.883,-23.438,-7.324,0.000,0
40087.956,-173.828,-8.789,-32.715,-21.484,0.000,0
40087.960,-273.926,-7.324,-40.039,-43.945,0.000,0
40087.964,-443.848,-7.812,-43.457,-72.754,0.000,0
40087.968,-655.762,-14.648,-52.246,-99.609,0.000,0
40087.972,-797.852,-12.207,-57.617,-103.516,0.000,0
40087.975,-874.023,-6.348,-49.316,-95.215,0.000,0
40087.979,-884.766,-7.324,-41.016,-73.730,0.000,0
40087.983,-787.598,-3.418,-35.645,-44.434,0.000,0
40087.987,-651.367,-4.883,-30.273,-24.414,0.000,0
40087.991,-524.902,-9.277,-21.484,-8.301,0.000,0
40087.995,-380.371,-15.137,-8.789,1.953,0.000,0
40087.999,-240.234,-21.484,-9.277,9.277,0.000,0
40088.003,-150.391,-22.461,-17.090,17.090,0.000,0
40088.007,-50.293,-20.020,-8.301,36.133,0.000,0
40088.011,73.242,-9.277,7.812,50.781,0.000,0
40088.014,140.137,-6.836,-0.977,45.410,0.000,0
40088.018,168.457,-14.160,-10.742,33.691,0.000,0
40088.022,221.680,-11.230,-6.836,39.062,0.000,0
40088.026,264.648,-12.207,-8.301,40.527,0.000,0
40088.030,282.227,-17.578,-20.020,41.504,0.000,0
40088.034,308.594,-13.672,-17.090,60.059,0.000,0
40088.038,291.992,-15.625,-7.324,48.340,0.000,0
40088.042,279.785,-14.160,-6.836,35.645,0.000,0
40088.046,310.059,-14.160,-13.184,35.156,0.000,0
40088.050,315.918,-15.625,-14.160,25.391,0.000,0
40088.054,312.012,-13.184,-9.277,22.949,0.000,0
40088.057,300.293,-16.113,-3.906,20.020,0.000,0
40088.061,291.992,-18.555,-4.395,22.461,0.000,0
40088.065,286.133,-18.555,-11.719,27.344,0.000,0
40088.069,284.180,-21.973,-11.230,18.555,0.000,0
40088.073,296.875,-19.531,-4.883,20.508,0.000,0
40088.077,298.340,-16.602,-5.859,13.184,0.000,0
40088.081,289.062,-12.695,-14.160,2.441,0.000,0
40088.085,241.699,-11.230,-20.508,7.812,0.000,0
40088.089,223.145,-15.137,-14.648,14.160,0.000,0
40088.093,264.160,-8.301,-2.930,35.645,0.000,0
40088.097,267.090,-9.277,-1.953,27.832,0.000,0
40088.100,220.215,-17.578,-20.508,-8.301,0.000,0
40088.104,216.309,-21.484,-30.762,-19.043,0.000,0
40088.108,228.027,-24.414,-21.484,10.742,0.000,0
40088.112,200.684,-15.625,-6.348,31.738,0.000,0
40088.116,219.727,-6.348,-0.488,8.789,0.000,0
40088.120,240.234,-8.789,-2.930,1.953,0.000,0
40088.124,195.801,-16.113,-11.719,3.906,0.000,0
40088.128,204.590,-15.137,-15.625,-0.977,0.000,0
40088.132,249.512,-7.324,-20.996,7.812,0.000,0
40088.136,197.266,-18.555,-32.715,-10.742,0.000,0
40088.139,176.758,-23.438,-14.160,-15.625,0.000,0
40088.143,218.262,-10.742,5.859,13.672,0.000,0
40088.147,229.004,-9.766,2.441,18.066,0.000,0
40088.151,197.266,-11.230,-4.883,11.230,0.000,0
40088.155,211.426,-10.742,-6.348,11.230,0.000,0
40088.159,199.219,-16.113,-15.137,8.301,0.000,0
40088.163,162.598,-17.090,-18.555,2.930,0.000,0
40088.167,191.406,-11.719,-8.789,20.020,0.000,0
40088.171,197.266,-6.348,-3.418,32.227,0.000,0
40088.175,179.199,-10.742,-7.324,13.184,0.000,0
40088.179,172.363,-12.207,-12.695,7.812,0.000,0
40088.182,162.598,-9.277,-13.184,12.207,0.000,0
40088.186,156.250,-14.648,-10.742,11.230,0.000,0
40088.190,158.691,-13.184,-6.836,19.531,0.000,0
40088.194,169.434,-16.113,-13.672,8.301,0.000,0
40088.198,148.438,-21.973,-19.531,12.695,0.000,0
40088.202,102.051,-18.066,-11.719,33.691,0.000,0
40088.206,102.051,-18.066,-18.066,23.438,0.000,0
40088.210,121.582,-17.090,-15.137,25.879,0.000,0
40088.214,111.816,-13.672,-4.395,26.367,0.000,0
40088.218,81.543,-16.602,-12.207,4.883,0.000,0
40088.222,86.426,-20.508,-20.508,5.371,0.000,0
40088.225,109.375,-18.555,-25.879,16.113,0.000,0
40088.229,79.102,-16.113,-23.438,6.836,0.000,0
40088.233,52.246,-18.555,-12.207,-3.418,0.000,0
40088.237,65.918,-17.090,-7.324,-6.348,0.000,0
40088.241,75.684,-16.602,-10.254,-8.301,0.000,0
40088.245,62.988,-25.391,-13.184,-8.789,0.000,0
40088.249,50.781,-26.367,-19.531,-7.324,0.000,0
40088.253,64.941,-24.902,-26.855,-12.207,0.000,0
40088.257,93.262,-27.344,-30.273,-26.367,0.000,0
40088.261,56.152,-20.020,-24.902,-12.695,0.000,0
40088.264,12.695,-9.766,-15.137,1.953,0.000,0
40088.268,41.992,-14.160,-18.066,-5.859,0.000,0
40088.272,68.848,-13.672,-20.996,-0.488,0.000,0
40088.276,60.547,-15.137,-27.344,-15.625,0.000,0
40088.280,32.227,-15.625,-29.785,-28.809,0.000,0
40088.284,44.434,-9.277,-13.184,-13.672,0.000,0
40088.288,45.410,-7.324,-9.766,-1.465,0.000,0
40088.292,44.922,-6.836,-14.160,5.859,0.000,0
40088.296,59.082,-8.301,-20.020,2.441,0.000,0
40088.300,48.828,-9.277,-23.926,-6.836,0.000,0
40088.304,34.180,-9.766,-20.020,-3.418,0.000,0
40088.307,23.926,-18.066,-22.949,-6.836,0.000,0
40088.311,35.645,-19.043,-21.973,-9.766,0.000,0
40088.315,47.363,-13.184,-17.090,-5.371,0.000,0
40088.319,21.484,-7.812,-17.090,9.766,0.000,0
40088.323,17.578,-7.324,-17.090,10.254,0.000,0
40088.327,57.129,-6.348,-16.602,3.906,0.000,0
40088.331,42.969,-2.441,-16.113,2.441,0.000,0
40088.335,19.531,-8.789,-14.160,-0.977,0.000,0
40088.339,19.043,-7.812,-15.137,1.953,0.000,0
40088.343,11.230,-9.766,-19.043,-0.488,0.000,0
40088.347,15.625,-15.625,-21.484,3.418,0.000,0
40088.350,38.086,-14.160,-17.090,-3.418,0.000,0
40088.354,11.230,-16.113,-24.414,-19.531,0.000,0
40088.358,-2.441,-18.555,-26.855,-6.836,0.000,0
40088.362,7.324,-12.695,-15.625,10.742,0.000,0
40088.366,9.277,-12.207,-13.672,-3.418,0.000,0
40088.370,18.066,-16.113,-21.484,-9.766,0.000,0
40088.374,12.695,-16.113,-21.973,-11.230,0.000,0
40088.378,0.977,-15.137,-21.484,-16.113,0.000,0
40088.382,0.000,-12.695,-22.461,-22.461,0.000,0
40088.386,1.465,-13.672,-20.996,-20.996,0.000,0
40088.389,0.488,-15.625,-24.414,-20.020,0.000,0
40088.393,-1.465,-12.695,-26.855,-23.926,0.000,0
40088.397,-4.395,-15.625,-24.902,-11.719,0.000,0
40088.401,10.254,-14.648,-20.508,2.441,0.000,0
40088.405,14.160,-15.137,-25.391,-13.672,0.000,0
40088.409,-3.418,-19.531,-23.926,-35.645,0.000,0
40088.413,0.977,-18.066,-19.043,-36.133,0.000,0
40088.417,12.207,-11.719,-22.461,-26.855,0.000,0
40088.421,13.184,-17.578,-27.832,-16.602,0.000,0
40088.425,-1.465,-20.508,-23.438,-13.672,0.000,0
40088.429,-9.277,-11.719,-18.555,-11.230,0.000,0
40088.432,-5.859,-16.113,-19.043,-20.508,0.000,0
40088.436,-4.883,-22.461,-25.879,-18.555,0.000,0
40088.440,-2.441,-18.555,-26.367,-11.230,0.000,0
40088.444,11.230,-16.113,-18.066,-4.883,0.000,0
40088.448,18.555,-19.043,-20.508,-4.883,0.000,0
40088.452,15.625,-16.113,-18.066,-6.348,0.000,0
40088.456,15.625,-10.254,-15.625,7.812,0.000,0
40088.460,23.438,-11.719,-13.184,14.160,0.000,0
40088.464,21.484,-14.160,-11.719,10.254,0.000,0
40088.468,0.488,-13.672,-17.090,-7.812,0.000,0
40088.472,0.488,-17.578,-22.949,-5.371,0.000,0
40088.475,17.090,-17.578,-23.926,13.672,0.000,0
40088.479,-18.555,-18.555,-29.297,14.160,0.000,0
40088.483,-42.480,-23.926,-31.250,14.160,0.000,0
40088.487,-35.645,-23.926,-19.531,9.277,0.000,0
40088.491,-9.766,-19.531,-17.090,-5.371,0.000,0
40088.495,4.883,-15.137,-19.043,-2.441,0.000,0
40088.499,-14.160,-11.719,-13.672,16.113,0.000,0
40088.503,-17.090,-14.648,-13.672,17.090,0.000,0
40088.507,-15.625,-16.113,-19.531,1.465,0.000,0
40088.511,-19.531,-15.625,-22.461,-4.395,0.000,0
40088.514,-20.020,-14.648,-21.484,4.883,0.000,0
40088.518,-0.488,-12.207,-19.043,7.812,0.000,0
40088.522,2.441,-12.207,-19.043,-0.488,0.000,0
40088.526,-16.113,-13.184,-20.508,-17.578,0.000,0
40088.530,-17.090,-15.625,-19.531,-20.020,0.000,0
40088.534,-9.766,-32.715,-18.066,-12.695,0.000,0
40088.538,-19.531,-44.922,-22.949,-17.090,0.000,0
40088.542,-26.855,-38.086,-22.949,-10.254,0.000,0
40088.546,-19.043,-26.855,-13.672,8.301,0.000,0
40088.550,-14.160,-23.926,-12.207,11.230,0.000,0
40088.554,-19.531,-22.949,-13.184,1.953,0.000,0
40088.557,-32.227,-21.973,-17.090,-7.812,0.000,0
40088.561,-41.016,-22.949,-15.625,-15.625,0.000,0
40088.565,-10.254,-21.484,-16.602,1.953,0.000,0
40088.569,-0.488,-25.391,-20.996,4.395,0.000,0
40088.573,-51.270,-31.250,-22.461,-8.301,0.000,0
40088.577,-59.570,-29.297,-18.555,-5.371,0.000,0
40088.581,-27.832,-29.297,-14.160,-17.090,0.000,0
40088.585,-30.273,-29.785,-11.719,-22.461,0.000,0
40088.589,-42.480,-23.926,-11.719,-13.184,0.000,0
40088.593,-49.316,-27.832,-20.508,-16.602,0.000,0
40088.597,-46.387,-31.738,-19.043,-22.949,0.000,0
40088.600,-42.969,-31.250,-17.090,-13.184,0.000,0
40088.604,-35.645,-27.832,-14.160,-4.883,0.000,0
40088.608,-19.531,-30.273,-14.648,-3.418,0.000,0
40088.612,-19.531,-31.250,-20.020,-6.348,0.000,0
40088.616,-30.273,-18.555,-9.766,-11.719,0.000,0
40088.620,-44.434,-18.555,-8.789,-1.465,0.000,0
40088.624,-51.758,-23.926,-23.926,-0.488,0.000,0
40088.628,-12.695,-25.391,-25.879,-18.066,0.000,0
40088.632,-15.137,-24.902,-20.996,-18.066,0.000,0
40088.636,-55.664,-23.438,-20.996,-7.812,0.000,0
40088.639,-34.668,-26.855,-20.020,-3.906,0.000,0
40088.643,-16.602,-31.250,-21.973,-4.395,0.000,0
40088.647,-20.020,-33.203,-24.414,-9.277,0.000,0
40088.651,-25.879,-30.762,-21.973,0.000,0.000,0
40088.655,-12.207,-28.320,-16.602,9.277,0.000,0
40088.659,-27.832,-30.762,-17.090,-4.395,0.000,0
40088.663,-24.414,-29.297,-17.578,-7.324,0.000,0
40088.667,-0.488,-22.949,-14.648,1.953,0.000,0
40088.671,-15.137,-23.438,-19.043,2.441,0.000,0
40088.675,-11.719,-25.879,-17.578,-8.789,0.000,0
40088.679,-27.832,-26.855,-14.160,-4.395,0.000,0
40088.682,-25.879,-22.949,-15.137,-0.488,0.000,0
40088.686,-10.742,-24.414,-22.949,-3.418,0.000,0
40088.690,-20.020,-28.320,-30.273,9.277,0.000,0
40088.694,-15.137,-32.715,-32.227,0.977,0.000,0
40088.698,-5.859,-32.227,-25.879,-10.742,0.000,0
40088.702,3.906,-18.555,-17.578,-5.859,0.000,0
40088.706,-19.531,-21.484,-22.949,-20.020,0.000,0
40088.710,-19.531,-21.484,-20.996,-12.207,0.000,0
40088.714,-2.441,-14.160,-17.578,4.395,0.000,0
40088.718,-9.277,-10.742,-20.996,0.000,0.000,0
40088.722,1.465,-5.859,-17.578,4.395,0.000,0
40088.725,0.977,-14.648,-18.555,-11.230,0.000,0
40088.729,-20.020,-17.578,-26.855,-11.719,0.000,0
40088.733,-25.391,-15.625,-23.438,3.906,0.000,0
40088.737,-17.578,-13.672,-22.461,-2.441,0.000,0
40088.741,-12.207,-7.812,-25.391,1.465,0.000,0
40088.745,-0.977,-9.277,-22.461,1.953,0.000,0
40088.749,8.789,-9.277,-25.879,11.230,0.000,0
40088.753,-25.391,-11.230,-28.320,10.742,0.000,0
40088.757,-40.039,-13.672,-25.391,-3.906,0.000,0
40088.761,-33.691,-10.254,-19.531,4.395,0.000,0
40088.764,-30.762,-17.578,-21.484,-0.488,0.000,0
40088.768,-20.996,-20.020,-29.785,-11.719,0.000,0
40088.772,-32.715,-18.066,-35.156,-6.348,0.000,0
40088.776,-43.945,-20.020,-29.785,-10.254,0.000,0
40088.780,-14.160,-13.672,-19.531,9.277,0.000,0
40088.784,-10.742,-6.348,-19.531,8.301,0.000,0
40088.788,-49.805,-10.742,-21.484,-7.812,0.000,0
40088.792,-41.016,-11.230,-20.996,-1.465,0.000,0
40088.796,-22.949,-10.254,-20.508,-2.441,0.000,0
40088.800,-20.508,-8.789,-18.066,4.395,0.000,0
40088.804,-13.672,-12.695,-19.043,-2.930,0.000,0
40088.807,-17.090,-18.066,-21.973,-5.371,0.000,0
40088.811,-42.969,-17.578,-24.414,-5.371,0.000,0
40088.815,-40.039,-16.113,-20.020,1.953,0.000,0
40088.819,-2.441,-12.695,-19.043,12.207,0.000,0
40088.823,13.184,-11.230,-22.461,0.000,0.000,0
40088.827,-26.367,-16.602,-23.438,0.977,0.000,0
40088.831,-46.387,-17.090,-20.020,14.648,0.000,0
40088.835,-29.785,-14.160,-16.602,1.465,0.000,0
40088.839,-24.414,-10.742,-17.090,0.977,0.000,0
40088.843,-19.531,-11.230,-16.602,-1.465,0.000,0
40088.847,-18.066,-20.020,-17.578,-16.602,0.000,0
40088.850,-18.066,-19.531,-17.578,-4.883,0.000,0
40088.854,-6.836,-12.695,-12.695,9.277,0.000,0
40088.858,-27.344,-18.066,-17.578,2.930,0.000,0
40088.862,-44.922,-27.344,-29.785,-16.602,0.000,0
40088.866,-25.391,-30.273,-33.203,-23.926,0.000,1
40088.870,-40.039,-27.832,-29.785,-12.695,0.000,0
40088.874,-53.223,-29.297,-29.297,-9.277,0.000,0
40088.878,-39.062,-31.738,-33.691,-16.602,0.000,0
40088.882,-34.668,-24.902,-29.785,-19.531,0.000,0
40088.886,-25.879,-19.531,-28.809,-6.348,0.000,0
40088.889,-14.648,-20.020,-30.762,-6.836,0.000,0
40088.893,-5.371,-14.648,-23.438,-12.207,0.000,0
40088.897,-23.438,-21.484,-24.902,-22.949,0.000,0
40088.901,-54.199,-28.809,-29.785,-20.020,0.000,0
40088.905,-57.617,-22.949,-30.762,-15.137,0.000,0
40088.909,-39.062,-20.020,-26.367,-20.020,0.000,0
40088.913,-23.926,-22.949,-20.020,-21.484,0.000,0
40088.917,-34.180,-18.066,-15.625,-10.254,0.000,0
40088.921,-43.945,-19.531,-16.113,-18.555,0.000,0
40088.925,-25.879,-31.738,-22.461,-32.715,0.000,0
40088.929,-13.672,-26.855,-16.602,-9.766,0.000,0
40088.932,-41.016,-25.391,-19.043,2.441,0.000,0
40088.936,-49.316,-28.320,-22.461,0.488,0.000,0
40088.940,-28.320,-25.391,-17.578,-12.207,0.000,0
40088.944,-14.648,-22.949,-20.020,-20.996,0.000,0
40088.948,-40.039,-21.484,-24.902,-16.113,0.000,0
40088.952,-68.848,-26.855,-27.832,-19.531,0.000,0
40088.956,-37.598,-24.902,-23.926,-14.160,0.000,0
40088.960,-9.766,-16.113,-16.602,0.977,0.000,0
40088.964,-34.668,-17.090,-13.672,1.465,0.000,0
40088.968,-42.480,-21.973,-16.602,3.906,0.000,0
40088.972,-26.367,-31.250,-22.461,-9.277,0.000,0
40088.975,-46.875,-32.227,-24.902,-23.926,0.000,0
40088.979,-52.734,-20.508,-19.531,-9.766,0.000,0
40088.983,-39.551,-19.043,-18.555,-1.465,0.000,0
40088.987,-35.645,-17.090,-25.391,-1.465,0.000,0
40088.991,-39.062,-14.160,-20.020,-7.812,0.000,0
40088.995,-26.855,-21.973,-22.949,-8.301,0.000,0
40088.999,-37.109,-23.926,-30.273,-12.695,0.000,0
40089.003,-63.477,-20.996,-20.996,-20.020,0.000,0
40089.007,-41.016,-16.113,-14.648,-6.836,0.000,0
40089.011,-27.344,-15.625,-17.578,-1.953,0.000,0
40089.014,-42.969,-16.113,-27.344,-8.301,0.000,0
40089.018,-47.852,-17.578,-24.902,-14.648,0.000,0
40089.022,-50.781,-24.414,-20.996,-26.855,0.000,0
40089.026,-39.551,-30.273,-26.367,-34.668,0.000,0
40089.030,-28.809,-31.250,-22.949,-30.762,0.000,0
40089.034,-31.250,-30.762,-15.137,-27.344,0.000,0
40089.038,-31.738,-31.250,-18.555,-35.645,0.000,0
40089.042,-54.688,-34.668,-31.250,-37.598,0.000,0
40089.046,-60.059,-32.227,-26.855,-19.043,0.000,0
40089.050,-47.363,-30.273,-18.555,-8.789,0.000,0
40089.054,-60.059,-29.785,-21.484,-4.883,0.000,0
40089.057,-45.898,-32.715,-27.344,-5.859,0.000,0
40089.061,-46.387,-32.715,-22.461,-26.367,0.000,0
40089.065,-62.012,-28.809,-18.555,-10.742,0.000,0
40089.069,-51.270,-29.785,-23.926,9.277,0.000,0
40089.073,-44.922,-29.297,-26.855,0.488,0.000,0
40089.077,-49.316,-27.832,-20.996,-2.441,0.000,0
40089.081,-52.734,-30.762,-21.973,-1.465,0.000,0
40089.085,-43.945,-29.297,-21.484,0.977,0.000,0
40089.089,-45.410,-27.832,-18.555,-12.695,0.000,0
40089.093,-55.664,-29.785,-30.273,-8.301,0.000,0
40089.097,-51.270,-25.879,-29.297,-1.953,0.000,0
40089.100,-42.480,-25.879,-20.508,-12.207,0.000,0
40089.104,-49.805,-26.855,-23.438,-2.930,0.000,0
40089.108,-39.062,-25.391,-28.809,3.418,0.000,0
40089.112,-10.254,-20.508,-28.809,14.160,0.000,0
40089.116,-25.879,-18.555,-19.043,14.160,0.000,0
40089.120,-51.270,-22.461,-16.113,2.930,0.000,0
40089.124,-52.734,-24.414,-20.508,3.906,0.000,0
40089.128,-50.293,-23.926,-20.996,-3.906,0.000,0
40089.132,-42.969,-24.902,-22.461,-0.977,0.000,0
40089.136,-41.504,-23.926,-18.555,-3.906,0.000,0
40089.139,-30.273,-21.973,-18.555,-2.930,0.000,0
40089.143,-7.324,-19.531,-19.531,12.207,0.000,0
40089.147,-34.180,-20.996,-16.602,8.789,0.000,0
40089.151,-50.781,-23.926,-15.137,-5.859,0.000,0
40089.155,-61.523,-21.973,-13.184,10.254,0.000,0
40089.159,-56.152,-24.414,-16.602,13.672,0.000,0
40089.163,-10.742,-22.461,-15.137,22.461,0.000,0
40089.167,-15.625,-17.578,-12.207,21.484,0.000,0
40089.171,-44.922,-20.996,-16.602,-1.465,0.000,0
40089.175,-45.410,-24.414,-20.020,-2.930,0.000,0
40089.179,-45.410,-21.973,-17.090,-9.277,0.000,0
40089.182,-64.941,-18.555,-17.090,3.906,0.000,0
40089.186,-70.801,-20.508,-16.113,-0.977,0.000,0
40089.190,-50.293,-20.020,-10.742,-9.277,0.000,0
40089.194,-39.062,-20.996,-16.113,3.418,0.000,0
40089.198,-27.344,-26.367,-17.578,1.465,0.000,0
40089.202,-55.176,-23.926,-16.602,11.719,0.000,0
40089.206,-66.406,-21.973,-19.531,22.949,0.000,0
40089.210,-31.738,-21.484,-18.555,19.043,0.000,0
40089.214,-41.992,-24.414,-23.926,0.488,0.000,0
40089.218,-57.129,-24.414,-22.949,6.836,0.000,0
40089.222,-58.105,-25.391,-23.438,20.508,0.000,0
40089.225,-41.992,-27.344,-24.902,20.508,0.000,0
40089.229,-45.898,-28.809,-28.809,17.578,0.000,0
40089.233,-63.965,-33.203,-36.621,21.484,0.000,0
40089.237,-41.016,-33.203,-33.691,15.625,0.000,0
40089.241,-41.504,-29.297,-33.203,15.137,0.000,0
40089.245,-69.824,-27.832,-36.133,23.926,0.000,0
40089.249,-51.270,-22.461,-22.949,25.879,0.000,0
40089.253,-24.902,-21.973,-18.555,20.508,0.000,0
40089.257,-46.387,-30.273,-24.902,12.207,0.000,0
40089.261,-66.406,-28.809,-23.438,17.578,0.000,0
40089.264,-45.898,-23.926,-15.625,20.020,0.000,0
40089.268,-27.344,-26.367,-12.207,19.043,0.000,0
40089.272,-32.715,-28.809,-19.043,23.926,0.000,0
40089.276,-64.453,-29.785,-26.855,16.602,0.000,0
40089.280,-55.176,-26.855,-20.508,15.137,0.000,0
40089.284,-37.598,-23.926,-14.648,43.457,0.000,0
40089.288,-34.180,-30.762,-20.996,39.551,0.000,0
40089.292,-36.133,-33.203,-24.414,36.621,0.000,0
40089.296,-32.715,-29.297,-26.367,42.969,0.000,0
40089.300,-19.531,-31.250,-20.508,28.320,0.000,0
40089.304,-22.461,-28.320,-14.160,16.113,0.000,0
40089.307,-50.781,-31.250,-16.602,4.883,0.000,0
40089.311,-39.551,-28.809,-20.508,15.137,0.000,0
40089.315,-19.531,-23.438,-16.602,14.648,0.000,0
40089.319,-32.715,-19.531,-8.789,33.203,0.000,0
40089.323,-27.344,-15.625,-16.113,43.457,0.000,0
40089.327,-28.320,-21.484,-25.879,34.180,0.000,0
40089.331,-36.621,-30.273,-26.855,28.320,0.000,0
40089.335,-31.250,-33.203,-23.926,7.324,0.000,0
40089.339,-54.199,-32.227,-20.020,-2.930,0.000,0
40089.343,-32.227,-31.738,-26.855,15.625,0.000,0
40089.347,7.324,-35.645,-25.391,21.484,0.000,0
40089.350,-62.500,-42.480,-32.227,9.766,0.000,0
40089.354,-81.055,-31.250,-24.902,14.160,0.000,0
40089.358,-36.133,-21.484,-6.836,32.227,0.000,0
40089.362,-3.418,-22.461,-13.672,64.453,0.000,0
40089.366,-15.625,-33.203,-25.879,57.129,0.000,0
40089.370,-10.254,-32.715,-25.391,53.223,0.000,0
40089.374,5.859,-29.297,-29.297,56.641,0.000,0
40089.378,-2.441,-36.621,-34.668,35.156,0.000,0
40089.382,14.648,-24.414,-32.715,69.336,0.000,0
40089.386,24.414,-13.672,-35.645,99.609,0.000,0
40089.389,10.742,-21.973,-31.250,65.918,0.000,0
40089.393,20.508,-31.738,-23.926,48.828,0.000,0
40089.397,-18.555,-37.109,-30.273,40.527,0.000,0
40089.401,-23.926,-30.762,-34.180,39.551,0.000,0
40089.405,18.066,-20.020,-32.715,66.895,0.000,0
40089.409,-16.602,-28.809,-42.480,71.777,0.000,0
40089.413,-14.160,-32.715,-47.363,70.801,0.000,0
40089.417,20.996,-14.648,-41.992,67.871,0.000,0
40089.421,18.066,-23.438,-50.293,44.434,0.000,0
40089.425,24.902,-28.809,-35.156,58.594,0.000,0
40089.429,-45.410,-24.414,-17.090,76.660,0.000,0
40089.432,-39.551,-32.715,-34.180,58.594,0.000,0
40089.436,11.230,-29.785,-56.152,58.594,0.000,0
40089.440,-34.180,-23.438,-36.621,75.684,0.000,0
40089.444,4.883,-13.672,-12.695,89.844,0.000,0
40089.448,56.641,-7.324,-18.555,107.910,0.000,0
40089.452,48.340,-7.324,-18.555,90.820,0.000,0
40089.456,40.039,-10.254,-23.438,69.824,0.000,0
40089.460,20.508,0.488,-26.367,98.633,0.000,0
40089.464,30.762,4.395,-18.066,97.168,0.000,0
40089.468,60.059,1.465,-16.113,103.027,0.000,0
40089.472,15.137,-19.043,-29.785,66.406,0.000,0
40089.475,-6.348,-28.809,-39.551,53.223,0.000,0
40089.479,33.691,-16.113,-38.086,100.586,0.000,0
40089.483,38.574,-17.090,-41.992,102.051,0.000,0
40089.487,16.602,-14.160,-40.527,105.957,0.000,0
40089.491,6.348,-5.371,-27.344,101.074,0.000,0
40089.495,25.879,5.371,-10.254,104.492,0.000,0
40089.499,1.953,-2.441,-17.578,95.703,0.000,0
40089.503,15.625,-9.277,-36.133,94.727,0.000,0
40089.507,28.320,-6.348,-34.180,94.727,0.000,0
40089.511,14.160,-2.930,-20.020,70.312,0.000,0
40089.514,-5.859,-2.441,-19.531,70.801,0.000,1
40089.518,-25.391,-10.742,-17.578,73.730,0.000,0
40089.522,-10.742,-14.160,-20.508,57.617,0.000,0
40089.526,21.973,-7.812,-22.949,52.734,0.000,0
40089.530,-10.254,-17.578,-32.227,51.758,0.000,0
40089.534,-23.926,-24.902,-36.133,38.086,0.000,0
40089.538,-32.227,-19.043,-30.762,44.434,0.000,0
40089.542,-38.574,-14.160,-31.250,70.312,0.000,0
40089.546,-10.254,-11.230,-27.832,73.242,0.000,0
40089.550,13.672,-15.137,-32.227,73.242,0.000,0
40089.554,-27.344,-32.227,-37.598,34.668,0.000,0
40089.557,-54.688,-30.273,-31.738,17.578,0.000,0
40089.561,-37.598,-14.648,-31.250,55.664,0.000,0
40089.565,-14.160,-10.742,-33.203,55.664,0.000,0
40089.569,-28.809,-22.949,-37.598,21.973,0.000,0
40089.573,-24.902,-25.879,-32.227,35.645,0.000,0
40089.577,-34.668,-24.902,-23.438,20.508,0.000,0
40089.581,-55.664,-27.832,-36.621,0.488,0.000,0
40089.585,-31.738,-24.414,-45.898,31.250,0.000,0
40089.589,-9.766,-20.996,-41.504,51.270,0.000,0
40089.593,-5.371,-22.461,-37.109,35.645,0.000,0
40089.597,-53.223,-30.762,-33.203,-5.859,0.000,0
40089.600,-60.059,-31.738,-34.180,-0.977,0.000,0
40089.604,-30.273,-34.180,-37.598,-11.719,0.000,0
40089.608,-75.195,-42.480,-45.410,-19.531,0.000,0
40089.612,-70.801,-36.621,-44.434,29.785,0.000,0
40089.616,-29.297,-32.715,-40.527,42.969,0.000,0
40089.620,-38.574,-33.691,-35.645,39.062,0.000,0
40089.624,-59.082,-35.645,-34.180,15.625,0.000,0
40089.628,-44.922,-37.109,-40.527,17.578,0.000,0
40089.632,0.000,-29.785,-42.480,46.875,0.000,0
40089.636,-54.688,-37.598,-43.945,10.254,0.000,0
40089.639,-81.543,-41.016,-42.480,15.625,0.000,0
40089.643,-20.020,-34.668,-32.715,54.199,0.000,0
40089.647,-15.137,-32.227,-27.832,43.457,0.000,0
40089.651,-28.809,-36.621,-38.086,12.207,0.000,0
40089.655,-35.645,-35.156,-38.086,11.719,0.000,0
40089.659,-36.621,-28.809,-33.691,29.297,0.000,0
40089.663,-20.508,-29.785,-34.180,33.203,0.000,0
40089.667,-62.012,-32.227,-29.785,20.020,0.000,0
40089.671,-43.457,-30.273,-27.344,19.531,0.000,0
40089.675,0.977,-29.785,-32.227,21.973,0.000,0
40089.679,-20.508,-27.344,-36.621,5.371,0.000,0
40089.682,-15.625,-17.090,-24.902,-12.695,0.000,0
40089.686,-12.207,-21.484,-20.508,-47.363,0.000,0
40089.690,-39.062,-29.785,-34.180,-63.965,0.000,0
40089.694,-28.320,-23.926,-33.691,-55.664,0.000,0
40089.698,-31.738,-17.578,-23.438,-42.969,0.000,0
40089.702,-41.992,-21.973,-26.367,-22.949,0.000,0
40089.706,9.277,-23.926,-29.297,-16.113,0.000,0
40089.710,15.625,-16.113,-20.020,-41.504,0.000,0
40089.714,-55.176,-19.043,-23.926,-64.941,0.000,0
40089.718,-34.180,-23.438,-25.391,-68.359,0.000,0
40089.722,-11.230,-22.949,-20.996,-78.125,0.000,0
40089.725,-27.344,-27.344,-29.785,-89.355,0.000,0
40089.729,-3.906,-29.297,-41.016,-81.543,0.000,0
40089.733,-1.953,-25.391,-40.527,-76.172,0.000,0
40089.737,-42.480,-22.949,-35.645,-80.078,0.000,0
40089.741,-40.039,-24.902,-28.809,-81.055,0.000,0
40089.745,-24.414,-21.484,-21.973,-61.523,0.000,0
40089.749,-21.973,-17.090,-24.902,-40.039,0.000,0
40089.753,-32.227,-26.855,-26.855,-58.105,0.000,0
40089.757,-27.344,-28.809,-30.762,-48.340,0.000,0
40089.761,-31.250,-21.484,-35.156,-26.855,0.000,0
40089.764,-21.484,-21.973,-30.762,-12.695,0.000,0
40089.768,-18.066,-28.320,-31.738,-9.277,0.000,0
40089.772,-64.941,-32.227,-34.668,-25.879,0.000,0
40089.776,-61.523,-26.855,-29.297,-13.184,0.000,0
40089.780,-36.133,-30.762,-27.344,0.000,0.000,0
40089.784,-41.504,-32.715,-35.156,-10.742,0.000,0
40089.788,-45.410,-31.250,-40.527,-20.508,0.000,0
40089.792,-34.668,-30.762,-31.738,-14.160,0.000,0
40089.796,-26.367,-24.414,-26.367,3.906,0.000,0
40089.800,-31.738,-26.855,-27.832,11.719,0.000,0
40089.804,-51.270,-24.902,-24.414,31.738,0.000,0
40089.807,-37.109,-24.414,-23.926,30.762,0.000,0
40089.811,-15.137,-26.367,-23.926,9.766,0.000,0
40089.815,-54.688,-24.902,-26.367,11.719,0.000,0
40089.819,-59.082,-20.996,-25.391,-0.488,0.000,0
40089.823,-37.109,-20.020,-23.438,-20.020,0.000,0
40089.827,-51.270,-27.832,-26.855,-30.762,0.000,0
40089.831,-44.922,-28.809,-29.785,-39.062,0.000,0
40089.835,-23.438,-26.367,-24.414,-23.438,0.000,0
40089.839,-53.711,-26.855,-20.996,-14.648,0.000,0
40089.843,-69.336,-20.508,-17.578,-12.695,0.000,0
40089.847,-49.316,-14.648,-12.207,-17.578,0.000,0
40089.850,-29.297,-16.113,-10.254,-33.691,0.000,0
40089.854,-10.254,-11.719,-12.695,-20.020,0.000,0
40089.858,-30.273,-11.719,-16.113,-19.043,0.000,0
40089.862,-44.434,-20.508,-20.020,-29.785,0.000,0
40089.866,-41.992,-24.902,-20.996,-17.090,0.000,0
40089.870,-40.527,-18.555,-9.766,-6.836,0.000,0
40089.874,-41.504,-21.484,-15.137,-6.836,0.000,0
40089.878,-35.156,-22.949,-22.949,-19.531,0.000,0
40089.882,-27.344,-20.020,-25.391,-28.320,0.000,0
40089.886,-30.273,-20.020,-25.391,-20.508,0.000,0
40089.889,-41.016,-16.602,-18.066,-14.160,0.000,0
40089.893,-44.434,-15.625,-17.090,-20.020,0.000,0
40089.897,-23.926,-18.066,-20.996,-36.621,0.000,0
40089.901,-32.227,-18.555,-24.414,-41.992,0.000,0
40089.905,-22.949,-20.020,-24.902,-17.578,0.000,0
40089.909,4.395,-8.301,-23.438,-10.254,0.000,0
40089.913,-19.043,-0.488,-14.160,-13.184,0.000,0
40089.917,-39.062,-10.742,-10.254,0.977,0.000,0
40089.921,-17.090,-10.742,-10.254,7.812,0.000,0
40089.925,-6.836,-8.301,-8.301,-1.953,0.000,0
40089.929,-29.785,-14.648,-4.883,-7.812,0.000,0
40089.932,-8.789,-7.324,-3.418,15.137,0.000,0
40089.936,12.695,6.836,8.301,34.180,0.000,0
40089.940,-30.273,-10.742,1.465,11.230,0.000,0
40089.944,-34.668,-23.438,-12.207,-4.883,0.000,0
40089.948,-16.602,-19.531,-18.555,3.906,0.000,0
40089.952,-17.090,-13.184,-24.414,12.695,0.000,0
40089.956,-13.184,-16.113,-26.367,19.531,0.000,0
40089.960,-36.621,-18.066,-19.043,21.973,0.000,0
40089.964,-42.969,-12.207,-10.742,24.414,0.000,0
40089.968,-32.715,-12.207,-6.348,18.066,0.000,0
40089.972,-14.648,-14.160,-4.395,15.625,0.000,0
40089.975,4.883,-6.348,-0.488,40.527,0.000,0
40089.979,31.250,2.441,-0.488,59.570,0.000,0
40089.983,3.906,-12.695,-12.207,44.922,0.000,0
40089.987,-25.391,-22.949,-9.277,17.090,0.000,0
40089.991,-28.809,-23.926,-3.906,3.906,0.000,0
40089.995,-27.344,-24.902,-15.137,17.578,0.000,0
40089.999,19.531,-11.719,-11.719,36.621,0.000,0
40090.003,48.828,4.395,1.465,51.270,0.000,0
40090.007,13.184,0.488,4.883,45.898,0.000,0
40090.011,-1.953,-6.836,1.953,33.691,0.000,0
40090.014,-16.113,-15.137,-4.395,26.855,0.000,0
40090.018,1.953,-18.066,-10.254,35.156,0.000,0
40090.022,62.988,-4.883,-3.418,53.711,0.000,0
40090.026,30.273,-1.465,1.465,44.922,0.000,0
40090.030,11.230,-7.812,-8.301,40.039,0.000,0
40090.034,60.059,-9.277,-17.090,50.293,0.000,0
40090.038,-7.812,-11.719,-11.719,34.668,0.000,0
40090.042,-31.250,-10.742,2.930,25.391,0.000,0
40090.046,-6.836,-13.672,0.488,26.367,0.000,0
40090.050,-23.926,-20.020,-18.066,21.973,0.000,0
40090.054,-16.602,-15.137,-17.090,41.016,0.000,0
40090.057,19.531,-4.883,-4.395,63.477,0.000,0
40090.061,10.742,-16.113,-11.230,41.016,0.000,0
40090.065,-23.926,-30.273,-19.531,7.324,0.000,0
40090.069,-25.391,-30.273,-26.855,21.973,0.000,0
40090.073,-14.160,-27.344,-27.344,41.016,0.000,0
40090.077,-0.977,-20.508,-22.461,43.457,0.000,0
40090.081,-10.742,-23.438,-20.508,47.363,0.000,0
40090.085,-13.184,-25.391,-11.719,37.109,0.000,0
40090.089,-6.836,-18.555,-12.207,33.691,0.000,0
40090.093,-31.738,-21.973,-21.484,40.039,0.000,0
40090.097,-23.926,-23.926,-11.230,40.527,0.000,0
40090.100,1.465,-15.625,-12.207,33.203,0.000,0
40090.104,-8.301,-13.672,-11.719,22.461,0.000,0
40090.108,-43.457,-25.391,-6.836,19.531,0.000,1
40090.112,-30.273,-25.391,-14.648,22.949,0.000,0
40090.116,18.066,-18.066,-19.043,36.133,0.000,0
40090.120,19.043,-15.625,-19.043,39.062,0.000,0
40090.124,-37.598,-20.996,-12.695,31.250,0.000,0
40090.128,-50.293,-21.973,-11.230,39.551,0.000,0
40090.132,-12.207,-16.602,-5.859,49.316,0.000,0
40090.136,-2.441,-20.996,-2.441,31.738,0.000,0
40090.139,-5.371,-28.809,-16.113,27.344,0.000,0
40090.143,-2.930,-28.809,-31.250,27.344,0.000,0
40090.147,-12.207,-22.949,-21.484,24.414,0.000,0
40090.151,-0.488,-17.578,-7.812,29.297,0.000,0
40090.155,-7.812,-10.742,-10.254,35.645,0.000,0
40090.159,-16.602,-10.742,-4.883,43.457,0.000,0
40090.163,-11.230,-21.973,-10.742,10.742,0.000,0
40090.167,-17.090,-30.762,-34.180,-11.719,0.000,0
40090.171,-32.227,-27.344,-26.367,2.930,0.000,0
40090.175,-48.828,-27.344,-21.973,20.020,0.000,0
40090.179,-46.387,-30.273,-30.273,23.926,0.000,0
40090.182,-36.133,-24.902,-22.461,16.602,0.000,0
40090.186,-19.043,-23.926,-22.949,31.250,0.000,0
40090.190,-8.789,-22.949,-23.438,34.180,0.000,0
40090.194,-12.695,-27.832,-25.879,9.277,0.000,0
40090.198,-6.348,-20.508,-15.625,3.906,0.000,0
40090.202,-27.832,-16.602,-7.812,0.488,0.000,0
40090.206,-35.645,-22.949,-12.207,0.488,0.000,0
40090.210,16.113,-20.996,-33.691,16.113,0.000,0
40090.214,-17.578,-37.598,-48.340,5.371,0.000,0
40090.218,-87.891,-38.086,-20.996,0.000,0.000,0
40090.222,-58.594,-31.738,-26.855,-5.371,0.000,0
40090.225,-35.645,-32.227,-33.691,-9.277,0.000,0
40090.229,-15.137,-22.461,-23.438,22.949,0.000,0
40090.233,-22.949,-23.438,-33.691,28.320,0.000,0
40090.237,-33.691,-20.996,-13.184,17.090,0.000,0
40090.241,-28.809,-20.508,3.418,17.090,0.000,0
40090.245,-46.387,-30.273,-13.672,4.883,0.000,0
40090.249,-47.363,-29.297,-14.160,-0.488,0.000,0
40090.253,-33.203,-28.320,-16.602,0.488,0.000,0
40090.257,-16.113,-27.832,-31.738,13.184,0.000,0
40090.261,-28.320,-31.250,-35.156,0.000,0.000,0
40090.264,-47.852,-36.621,-39.062,-11.230,0.000,0
40090.268,-21.973,-28.320,-34.180,2.441,0.000,0
40090.272,-40.039,-26.855,-22.461,-3.418,0.000,0
40090.276,-70.801,-29.297,-5.371,-15.137,0.000,0
40090.280,-51.758,-30.273,-9.766,-13.184,0.000,0
40090.284,-42.969,-32.227,-31.250,-14.160,0.000,0
40090.288,-32.715,-35.645,-31.738,-10.742,0.000,0
40090.292,-39.062,-40.039,-23.926,11.719,0.000,0
40090.296,-44.434,-38.574,-20.996,11.230,0.000,0
40090.300,-17.578,-43.457,-25.879,-9.277,0.000,0
40090.304,-30.273,-43.457,-33.203,-18.066,0.000,0
40090.307,-76.660,-38.086,-29.785,-10.254,0.000,0
40090.311,-66.406,-44.922,-33.691,-12.207,0.000,0
40090.315,-39.062,-41.992,-31.250,-16.113,0.000,0
40090.319,-39.551,-36.621,-19.531,-9.277,0.000,0
40090.323,-39.062,-41.992,-20.996,-6.348,0.000,0
40090.327,-36.133,-42.969,-23.438,-13.184,0.000,0
40090.331,-38.086,-47.363,-29.297,-15.137,0.000,0
40090.335,-37.598,-48.828,-31.250,-19.043,0.000,0
40090.339,-53.223,-48.340,-30.762,-28.809,0.000,0
40090.343,-68.359,-47.852,-37.109,-33.203,0.000,0
40090.347,-54.688,-49.805,-28.809,-44.434,0.000,0
40090.350,-58.594,-53.223,-34.668,-57.617,0.000,0
40090.354,-88.379,-53.223,-44.434,-49.805,0.000,0
40090.358,-68.848,-48.828,-25.879,-41.504,0.000,0
40090.362,-66.406,-44.922,-19.043,-57.129,0.000,0
40090.366,-85.938,-42.969,-20.508,-53.711,0.000,0
40090.370,-50.293,-41.992,-19.043,-41.504,0.000,0
40090.374,-45.898,-45.410,-29.785,-58.594,0.000,0
40090.378,-57.129,-45.410,-31.250,-59.570,0.000,0
40090.382,-60.059,-36.621,-20.996,-47.363,0.000,0
40090.386,-57.129,-41.016,-27.344,-67.383,0.000,0
40090.389,-53.223,-51.270,-34.668,-60.547,0.000,0
40090.393,-59.570,-52.246,-32.715,-39.062,0.000,0
40090.397,-59.082,-50.293,-28.320,-66.895,0.000,0
40090.401,-52.246,-44.434,-21.484,-69.824,0.000,0
40090.405,-48.340,-46.387,-27.344,-49.316,0.000,0
40090.409,-44.434,-50.781,-29.785,-64.941,0.000,0
40090.413,-54.688,-51.758,-30.273,-76.172,0.000,0
40090.417,-71.777,-55.176,-38.574,-63.477,0.000,0
40090.421,-50.293,-45.898,-30.273,-66.406,0.000,0
40090.425,-47.852,-40.039,-18.555,-73.730,0.000,0
40090.429,-45.410,-42.480,-17.090,-63.965,0.000,0
40090.432,-30.273,-37.598,-20.020,-49.316,0.000,0
40090.436,-23.438,-36.621,-22.949,-54.199,0.000,0
40090.440,-33.203,-40.527,-29.297,-58.105,0.000,0
40090.444,-45.898,-41.992,-27.832,-58.105,0.000,0
40090.448,-73.242,-47.852,-22.949,-55.664,0.000,0
40090.452,-57.617,-44.434,-22.949,-48.340,0.000,0
40090.456,-31.738,-41.504,-27.344,-67.871,0.000,0
40090.460,-64.453,-41.504,-31.738,-60.547,0.000,0
40090.464,-60.059,-35.645,-23.926,-43.457,0.000,0
40090.468,-49.316,-42.969,-27.832,-57.617,0.000,0
40090.472,-71.777,-44.922,-33.691,-62.500,0.000,0
40090.475,-51.270,-32.227,-24.902,-67.871,0.000,0
40090.479,-41.504,-33.203,-25.391,-72.754,0.000,0
40090.483,-61.035,-41.016,-27.832,-65.430,0.000,0
40090.487,-49.805,-42.969,-22.461,-45.898,0.000,0
40090.491,-13.184,-33.691,-19.043,-26.367,0.000,0
40090.495,-33.203,-36.621,-31.738,-28.809,0.000,0
40090.499,-69.336,-46.875,-34.668,-32.227,0.000,0
40090.503,-71.777,-45.898,-34.180,-25.391,0.000,0
40090.507,-39.062,-41.992,-35.645,-19.043,0.000,0
40090.511,-20.508,-37.109,-21.484,-25.879,0.000,0
40090.514,-41.992,-40.039,-16.113,-40.527,0.000,0
40090.518,-36.133,-29.785,-15.625,-19.043,0.000,0
40090.522,-24.414,-21.973,-18.555,0.977,0.000,0
40090.526,-11.719,-29.785,-27.832,-11.230,0.000,0
40090.530,-13.184,-32.227,-40.527,-20.508,0.000,0
40090.534,-61.523,-34.668,-40.527,-24.414,0.000,0
40090.538,-71.777,-29.785,-23.438,-30.762,0.000,0
40090.542,-42.480,-32.715,-27.344,-34.668,0.000,0
40090.546,-58.105,-36.133,-28.809,-28.320,0.000,0
40090.550,-52.246,-24.414,-20.996,-9.766,0.000,0
40090.554,-19.043,-17.578,-18.555,-5.859,0.000,0
40090.557,-12.207,-19.043,-17.578,-15.137,0.000,0
40090.561,-31.250,-28.320,-22.949,-18.066,0.000,0
40090.565,-20.996,-25.879,-22.461,-13.184,0.000,0
40090.569,3.906,-17.090,-17.090,6.836,0.000,0
40090.573,-24.902,-19.043,-15.625,11.230,0.000,0
40090.577,-53.223,-21.484,-23.926,-19.531,0.000,0
40090.581,-27.344,-26.367,-33.203,-20.996,0.000,0
40090.585,-27.344,-28.809,-28.320,-15.625,0.000,0
40090.589,-40.527,-20.020,-6.348,-5.859,0.000,0
40090.593,-35.645,-18.555,1.465,1.465,0.000,0
40090.597,-24.414,-29.297,-19.043,-17.578,0.000,0
40090.600,-20.996,-30.762,-24.414,-10.742,0.000,0
40090.604,-29.785,-29.297,-23.926,-7.324,0.000,0
40090.608,-31.250,-37.598,-32.227,-2.930,0.000,0
40090.612,-31.738,-35.156,-25.879,-3.906,0.000,0
40090.616,-21.484,-28.809,-20.508,-7.324,0.000,0
40090.620,-13.184,-28.809,-20.508,6.836,0.000,0
40090.624,-21.973,-32.227,-26.367,-0.488,0.000,0
40090.628,-26.367,-31.738,-30.762,-9.766,0.000,0
40090.632,-39.062,-26.855,-25.391,-17.578,0.000,0
40090.636,-37.109,-21.973,-23.438,-15.625,0.000,0
40090.639,-8.301,-20.508,-22.461,-5.859,0.000,0
40090.643,-29.785,-30.762,-24.414,-19.043,0.000,0
40090.647,-47.852,-36.133,-34.668,-17.090,0.000,1
40090.651,-27.832,-39.062,-41.016,-15.625,0.000,0
40090.655,-27.832,-37.598,-32.715,-15.137,0.000,0
40090.659,-16.113,-30.273,-18.555,5.859,0.000,0
40090.663,-14.160,-27.344,-13.672,0.488,0.000,0
40090.667,-36.133,-25.879,-15.625,-21.973,0.000,0
40090.671,-37.109,-29.297,-18.066,-26.855,0.000,0
40090.675,-36.133,-27.832,-18.555,-29.785,0.000,0
40090.679,-38.574,-26.855,-27.344,-30.762,0.000,0
40090.682,-33.203,-30.273,-38.086,-23.438,0.000,0
40090.686,-28.809,-32.227,-41.016,-21.484,0.000,0
40090.690,-38.574,-29.785,-31.738,-22.461,0.000,0
40090.694,-81.543,-25.879,-22.949,-18.555,0.000,0
40090.698,-49.805,-27.344,-28.320,-16.602,0.000,0
40090.702,-9.766,-25.391,-23.438,-16.113,0.000,0
40090.706,-30.273,-23.926,-26.367,-21.484,0.000,0
40090.710,-26.367,-23.438,-33.203,-16.113,0.000,0
40090.714,-36.133,-23.438,-27.832,-17.578,0.000,0
40090.718,-53.223,-25.879,-23.438,-17.090,0.000,0
40090.722,-51.758,-28.320,-28.809,-7.324,0.000,0
40090.725,-21.484,-30.273,-30.762,0.488,0.000,0
40090.729,-0.977,-27.344,-27.832,-12.695,0.000,0
40090.733,-42.480,-23.926,-23.926,-21.973,0.000,0
40090.737,-31.738,-25.879,-19.531,-9.766,0.000,0
40090.741,-20.508,-27.344,-25.391,-15.137,0.000,0
40090.745,-24.902,-29.297,-28.809,-17.578,0.000,0
40090.749,-26.855,-26.367,-20.996,-12.207,0.000,0
40090.753,-21.973,-20.996,-20.020,-13.672,0.000,0
40090.757,-16.602,-17.090,-21.484,-14.160,0.000,0
40090.761,5.371,-12.207,-18.555,-8.789,0.000,0
40090.764,9.766,-18.555,-27.832,-22.949,0.000,0
40090.768,-20.996,-16.602,-19.531,-27.832,0.000,0
40090.772,-35.156,-17.090,-10.742,-25.391,0.000,0
40090.776,-38.574,-29.297,-28.320,-30.273,0.000,0
40090.780,-29.297,-29.785,-37.109,-28.320,0.000,0
40090.784,-29.297,-22.461,-31.250,-14.648,0.000,0
40090.788,-17.090,-18.555,-29.785,-15.625,0.000,0
40090.792,-0.488,-20.508,-26.367,-27.832,0.000,0
40090.796,-32.715,-26.855,-27.832,-28.320,0.000,0
40090.800,-33.203,-23.926,-26.855,-19.531,0.000,0
40090.804,-12.695,-17.578,-24.902,-9.277,0.000,0
40090.807,-19.043,-19.531,-19.531,-16.113,0.000,0
40090.811,-39.062,-29.297,-21.484,-33.691,0.000,0
40090.815,-45.410,-32.715,-28.809,-32.715,0.000,0
40090.819,-24.414,-25.391,-25.391,-12.207,0.000,0
40090.823,-5.859,-22.949,-23.438,-1.953,0.000,0
40090.827,-18.555,-23.926,-18.555,-15.137,0.000,0
40090.831,-41.504,-21.973,-14.160,-15.137,0.000,0
40090.835,-26.855,-17.578,-16.113,-13.184,0.000,0
40090.839,-20.508,-24.902,-24.414,-21.973,0.000,0
40090.843,-14.648,-28.809,-34.668,-26.855,0.000,0
40090.847,-34.668,-21.973,-34.180,-29.297,0.000,0
40090.850,-54.199,-19.531,-20.996,-29.785,0.000,0
40090.854,-27.832,-24.414,-20.020,-25.879,0.000,0
40090.858,-10.742,-25.391,-27.344,-22.949,0.000,0
40090.862,-14.160,-21.484,-30.762,-20.996,0.000,0
40090.866,-33.691,-24.902,-30.762,-22.949,0.000,0
40090.870,-27.344,-25.391,-20.020,-19.043,0.000,0
40090.874,-25.879,-28.809,-20.020,-13.184,0.000,0
40090.878,-19.043,-26.367,-25.391,-12.207,0.000,0
40090.882,-20.020,-24.414,-23.926,-19.043,0.000,0
40090.886,0.000,-25.879,-24.414,-31.738,0.000,0
40090.889,13.184,-20.508,-28.320,-30.762,0.000,0
40090.893,-13.672,-19.531,-32.227,-33.691,0.000,0
40090.897,-25.391,-24.414,-33.203,-41.016,0.000,0
40090.901,-43.457,-23.438,-27.344,-35.156,0.000,0
40090.905,-35.645,-22.461,-17.090,-34.668,0.000,0
40090.909,-19.531,-22.461,-23.926,-40.039,0.000,0
40090.913,-9.277,-16.602,-27.344,-41.992,0.000,0
40090.917,-8.789,-12.207,-18.555,-48.828,0.000,0
40090.921,-13.672,-14.160,-23.438,-32.227,0.000,0
40090.925,-10.254,-16.602,-32.715,-23.438,0.000,0
40090.929,-18.555,-17.090,-24.414,-40.039,0.000,0
40090.932,-35.645,-19.043,-22.949,-41.992,0.000,0
40090.936,-34.180,-17.578,-30.273,-43.457,0.000,0
40090.940,-13.184,-14.648,-32.715,-43.945,0.000,0
40090.944,-16.602,-17.090,-34.668,-46.875,0.000,0
40090.948,-32.227,-12.207,-25.391,-50.293,0.000,0
40090.952,-28.809,-5.859,-17.578,-44.434,0.000,0
40090.956,-14.648,-5.859,-21.484,-38.574,0.000,0
40090.960,-2.441,-9.766,-25.879,-34.180,0.000,0
40090.964,-11.719,-14.160,-20.508,-38.086,0.000,0
40090.968,-26.367,-13.184,-22.949,-32.715,0.000,0
40090.972,-20.508,-10.742,-25.391,-27.832,0.000,0
40090.975,-14.160,-14.648,-24.902,-32.715,0.000,0
40090.979,-10.254,-13.672,-27.832,-26.367,0.000,0
40090.983,-21.484,-14.160,-26.367,-42.480,0.000,0
40090.987,-27.344,-22.949,-26.855,-55.176,0.000,0
40090.991,-10.254,-19.531,-27.344,-40.039,0.000,0
40090.995,-5.859,-14.648,-25.879,-38.574,0.000,0
40090.999,-0.977,-16.602,-26.367,-38.086,0.000,0
40091.003,11.719,-8.789,-18.555,-35.645,0.000,0
40091.007,-5.859,-9.766,-20.020,-40.527,0.000,0
40091.011,-28.320,-17.090,-26.367,-34.668,0.000,0
40091.014,-27.344,-20.508,-32.227,-40.039,0.000,0
40091.018,-17.578,-24.414,-30.273,-40.039,0.000,0
40091.022,-10.742,-23.926,-21.484,-24.902,0.000,0
40091.026,-8.789,-26.367,-25.391,-40.527,0.000,0
40091.030,-15.625,-25.391,-24.902,-40.039,0.000,0
40091.034,-2.930,-15.625,-12.695,-25.391,0.000,0
40091.038,-3.418,-14.648,-11.719,-34.180,0.000,0
40091.042,-15.625,-20.996,-18.066,-45.898,0.000,0
40091.046,-21.973,-24.902,-25.879,-48.828,0.000,0
40091.050,-36.133,-27.344,-30.762,-40.527,0.000,0
40091.054,-33.203,-24.414,-27.832,-44.434,0.000,0
40091.057,-27.832,-21.484,-30.273,-52.246,0.000,0
40091.061,-19.531,-20.020,-26.367,-41.016,0.000,0
40091.065,-27.344,-17.578,-18.066,-46.387,0.000,0
40091.069,-13.672,-19.531,-21.484,-58.105,0.000,0
40091.073,-9.277,-17.578,-26.855,-60.547,0.000,0
40091.077,-39.062,-19.043,-25.391,-56.152,0.000,0
40091.081,-46.387,-29.785,-27.344,-64.453,0.000,0
40091.085,-33.203,-25.879,-27.832,-75.684,0.000,0
40091.089,-19.043,-18.555,-24.902,-49.805,0.000,0
40091.093,-27.344,-21.484,-26.367,-46.875,0.000,0
40091.097,-32.715,-25.391,-31.250,-65.430,0.000,0
40091.100,-28.320,-26.367,-33.691,-61.035,0.000,0
40091.104,-26.367,-23.438,-32.715,-48.828,0.000,0
40091.108,-25.879,-24.414,-31.738,-45.410,0.000,0
40091.112,-19.531,-17.578,-28.809,-40.527,0.000,0
40091.116,-22.949,-13.184,-24.902,-43.945,0.000,0
40091.120,-29.297,-18.555,-18.066,-51.270,0.000,0
40091.124,-47.852,-23.438,-19.043,-52.734,0.000,0
40091.128,-34.180,-21.484,-24.414,-57.129,0.000,0
40091.132,-12.207,-19.531,-22.461,-48.828,0.000,0
40091.136,-18.555,-20.020,-24.902,-35.645,0.000,0
40091.139,-31.250,-21.484,-25.391,-36.133,0.000,0
40091.143,-27.344,-21.484,-23.438,-43.945,0.000,0
40091.147,-20.508,-18.066,-20.508,-35.645,0.000,0
40091.151,-13.672,-19.043,-19.043,-35.645,0.000,0
40091.155,-42.969,-26.367,-25.391,-43.945,0.000,0
40091.159,-37.109,-26.855,-31.250,-46.387,0.000,0
40091.163,-23.926,-24.414,-24.414,-57.129,0.000,0
40091.167,-38.574,-21.973,-19.531,-56.641,0.000,0
40091.171,-47.363,-25.391,-22.461,-48.340,0.000,0
40091.175,-42.969,-22.461,-21.973,-46.387,0.000,0
40091.179,-29.297,-15.137,-23.438,-45.898,0.000,0
40091.182,-27.832,-19.043,-24.414,-51.270,0.000,0
40091.186,-30.762,-20.996,-25.879,-47.363,0.000,0
40091.190,-16.602,-16.602,-27.832,-55.664,0.000,0
40091.194,-15.137,-15.137,-27.344,-64.941,0.000,2
40091.198,-23.438,-19.043,-26.367,-62.012,0.000,0
40091.202,-25.391,-20.996,-31.250,-67.871,0.000,0
40091.206,-31.250,-20.996,-27.344,-69.336,0.000,0
40091.210,-28.809,-17.578,-21.973,-53.711,0.000,0
40091.214,-32.227,-23.926,-25.879,-50.293,0.000,0
40091.218,-45.898,-25.879,-22.461,-56.152,0.000,0
40091.222,-37.598,-23.438,-21.973,-53.711,0.000,0
40091.225,-35.645,-22.949,-26.855,-44.922,0.000,0
40091.229,-12.207,-23.438,-25.879,-47.363,0.000,0
40091.233,-14.160,-20.508,-19.531,-47.363,0.000,0
40091.237,-38.574,-17.578,-14.160,-35.645,0.000,0
40091.241,-21.973,-12.695,-10.254,-25.879,0.000,0
40091.245,-27.344,-11.719,-19.043,-32.227,0.000,0
40091.249,-41.504,-17.578,-28.809,-43.945,0.000,0
40091.253,-24.902,-21.484,-32.227,-43.945,0.000,0
40091.257,-18.066,-21.973,-23.926,-40.039,0.000,0
40091.261,-21.973,-17.090,-19.531,-41.016,0.000,0
40091.264,-23.438,-12.695,-22.461,-38.574,0.000,0
40091.268,-32.715,-13.184,-17.090,-40.039,0.000,0
40091.272,-17.578,-16.113,-20.020,-39.062,0.000,0
40091.276,-11.719,-10.254,-24.414,-30.273,0.000,0
40091.280,-18.555,-13.672,-22.949,-41.016,0.000,0
40091.284,-28.809,-17.090,-22.949,-43.457,0.000,0
40091.288,-18.555,-16.602,-30.273,-31.738,0.000,0
40091.292,-1.465,-16.113,-25.391,-30.762,0.000,0
40091.296,-28.320,-15.625,-23.926,-31.738,0.000,0
40091.300,-53.223,-16.602,-32.227,-30.762,0.000,0
40091.304,-46.875,-19.043,-30.762,-30.273,0.000,0
40091.307,-34.180,-11.719,-23.926,-37.598,0.000,0
40091.311,-18.555,-8.301,-28.809,-36.621,0.000,0
40091.315,-20.996,-17.578,-38.574,-40.039,0.000,0
40091.319,-23.438,-18.066,-31.738,-55.176,0.000,0
40091.323,-25.879,-17.578,-26.367,-52.246,0.000,0
40091.327,-1.465,-14.648,-26.855,-41.016,0.000,0
40091.331,-13.672,-16.113,-31.250,-48.828,0.000,0
40091.335,-41.992,-17.578,-31.738,-47.363,0.000,0
40091.339,-22.949,-11.230,-25.879,-39.551,0.000,0
40091.343,-30.762,-7.324,-31.738,-30.762,0.000,0
40091.347,-32.715,-10.254,-22.949,-20.020,0.000,0
40091.350,-16.113,-12.207,-16.602,-16.602,0.000,0
40091.354,-5.859,-13.672,-26.855,-28.809,0.000,0
40091.358,-1.465,-13.184,-25.879,-44.922,0.000,0
40091.362,-31.738,-10.254,-27.344,-41.016,0.000,0
40091.366,-48.828,-17.578,-34.180,-42.969,0.000,0
40091.370,-33.691,-22.461,-33.203,-55.664,0.000,0
40091.374,-19.531,-15.137,-30.762,-49.316,0.000,0
40091.378,-26.855,-14.160,-29.297,-54.688,0.000,0
40091.382,-20.508,-16.113,-31.738,-56.152,0.000,0
40091.386,-15.625,-15.137,-35.156,-44.922,0.000,0
40091.389,-32.715,-15.625,-37.598,-45.410,0.000,0
40091.393,-50.781,-12.207,-31.250,-36.621,0.000,0
40091.397,-55.176,-13.184,-27.344,-47.363,0.000,0
40091.401,-46.875,-14.160,-35.156,-55.664,0.000,0
40091.405,-50.781,-13.184,-38.574,-49.805,0.000,0
40091.409,-43.457,-14.648,-39.062,-42.969,0.000,0
40091.413,-22.461,-7.324,-27.344,-26.367,0.000,0
40091.417,-31.738,-11.230,-21.484,-41.504,0.000,0
40091.421,-51.270,-19.531,-29.297,-55.664,0.000,0
40091.425,-41.992,-14.160,-27.832,-40.527,0.000,0
40091.429,-42.969,-15.137,-30.273,-42.969,0.000,0
40091.432,-41.016,-18.555,-37.109,-46.387,0.000,0
40091.436,-48.340,-18.555,-36.621,-53.711,0.000,0
40091.440,-56.152,-18.555,-29.297,-59.082,0.000,0
40091.444,-35.156,-12.207,-23.438,-44.922,0.000,0
40091.448,-38.574,-9.766,-27.832,-36.621,0.000,0
40091.452,-33.691,-7.812,-26.367,-23.926,0.000,0
40091.456,-30.273,-9.277,-20.996,-46.875,0.000,0
40091.460,-20.020,-21.484,-33.691,-70.312,0.000,0
40091.464,-26.367,-21.484,-34.668,-55.664,0.000,0
40091.468,-60.547,-17.578,-28.809,-55.664,0.000,0
40091.472,-52.734,-18.066,-32.227,-54.688,0.000,0
40091.475,-41.504,-20.020,-30.762,-55.664,0.000,0
40091.479,-51.758,-26.367,-32.227,-61.523,0.000,0
40091.483,-42.969,-19.531,-28.320,-43.457,0.000,0
40091.487,-25.879,-15.137,-21.484,-31.738,0.000,0
40091.491,-7.812,-13.184,-21.973,-32.715,0.000,0
40091.495,-26.367,-13.672,-26.367,-48.340,0.000,0
40091.499,-39.062,-18.555,-24.414,-55.664,0.000,0
40091.503,-7.812,-11.230,-20.508,-38.086,0.000,0
40091.507,-20.020,-7.324,-22.461,-39.062,0.000,0
40091.511,-42.969,-6.348,-21.973,-41.016,0.000,0
40091.514,-32.715,-7.812,-20.020,-43.945,0.000,0
40091.518,-27.832,-18.066,-29.297,-57.617,0.000,0
40091.522,-35.645,-24.902,-31.738,-60.547,0.000,0
40091.526,-30.273,-19.043,-24.902,-59.082,0.000,0
40091.530,-25.879,-14.648,-27.832,-47.852,0.000,0
40091.534,-20.996,-17.578,-27.832,-43.457,0.000,0
40091.538,-25.879,-16.113,-19.531,-56.152,0.000,0
40091.542,-40.527,-17.090,-21.484,-55.176,0.000,0
40091.546,-48.828,-17.578,-27.832,-47.363,0.000,0
40091.550,-30.273,-18.066,-28.809,-41.992,0.000,0
40091.554,-23.926,-20.508,-26.367,-41.016,0.000,0
40091.557,-25.879,-18.066,-24.902,-41.016,0.000,0
40091.561,-19.531,-10.254,-20.508,-32.227,0.000,0
40091.565,-9.766,-12.695,-21.484,-26.367,0.000,0
40091.569,-20.996,-18.555,-20.020,-32.227,0.000,0
40091.573,-36.621,-20.020,-19.531,-45.410,0.000,0
40091.577,-36.133,-16.113,-30.273,-51.758,0.000,0
40091.581,-23.926,-13.672,-34.668,-37.598,0.000,0
40091.585,-13.672,-13.672,-27.832,-38.086,0.000,0
40091.589,-30.273,-15.625,-24.414,-38.574,0.000,0
40091.593,-26.367,-15.625,-21.973,-32.715,0.000,0
40091.597,-27.344,-9.766,-17.578,-31.738,0.000,0
40091.600,-39.062,-14.160,-18.066,-34.180,0.000,0
40091.604,-31.738,-20.020,-20.508,-41.504,0.000,0
40091.608,-25.879,-17.090,-20.508,-51.758,0.000,0
40091.612,-25.391,-18.066,-24.902,-63.477,0.000,0
40091.616,-36.133,-19.531,-22.949,-57.129,0.000,0
40091.620,-48.340,-15.625,-22.461,-42.969,0.000,0
40091.624,-45.898,-15.625,-23.926,-51.270,0.000,0
40091.628,-31.250,-21.484,-27.344,-55.664,0.000,0
40091.632,-25.391,-14.648,-28.320,-44.434,0.000,0
40091.636,-19.531,-8.301,-26.855,-32.715,0.000,0
40091.639,-5.371,-12.207,-30.762,-24.414,0.000,0
40091.643,-4.395,-18.066,-35.156,-32.227,0.000,0
40091.647,-19.531,-14.648,-26.855,-40.527,0.000,0
40091.651,-26.367,-15.625,-23.438,-41.504,0.000,0
40091.655,-32.227,-25.879,-27.344,-48.340,0.000,0
40091.659,-39.551,-32.227,-35.645,-60.547,0.000,0
40091.663,-39.551,-35.156,-43.945,-61.035,0.000,0
40091.667,-36.133,-29.297,-41.016,-44.922,0.000,0
40091.671,-51.270,-25.879,-41.016,-50.781,0.000,0
40091.675,-56.641,-35.156,-43.457,-61.523,0.000,0
40091.679,-37.598,-32.227,-36.621,-31.250,0.000,0
40091.682,-17.090,-20.996,-28.809,-29.785,0.000,0
40091.686,-24.902,-19.531,-29.785,-56.152,0.000,0
40091.690,-33.691,-19.043,-29.785,-58.105,0.000,0
40091.694,-16.113,-18.555,-26.855,-57.129,0.000,0
40091.698,-30.762,-21.973,-39.551,-62.988,0.000,0
40091.702,-49.316,-21.484,-39.062,-63.965,0.000,0
40091.706,-49.805,-19.531,-29.785,-58.594,0.000,0
40091.710,-38.574,-16.602,-26.855,-54.199,0.000,0
40091.714,-38.574,-20.508,-23.926,-48.828,0.000,0
40091.718,-40.039,-22.461,-32.227,-40.527,0.000,0
40091.722,-48.340,-19.043,-28.320,-48.340,0.000,0
40091.725,-33.691,-15.625,-20.508,-55.176,0.000,0
40091.729,-15.137,-13.184,-25.391,-56.152,0.000,0
40091.733,-40.527,-17.090,-27.344,-61.035,0.000,0
40091.737,-47.852,-18.066,-27.344,-57.129,0.000,0
40091.741,-19.531,-16.113,-29.785,-50.293,0.000,0
40091.745,-24.902,-19.043,-29.785,-53.223,0.000,0
40091.749,-44.922,-22.461,-27.832,-58.105,0.000,0
40091.753,-49.316,-24.414,-30.762,-69.336,0.000,1
40091.757,-44.434,-24.414,-34.180,-68.359,0.000,0
40091.761,-35.645,-24.902,-34.668,-57.617,0.000,0
40091.764,-51.270,-21.484,-31.738,-49.805,0.000,0
40091.768,-58.105,-17.090,-20.508,-48.340,0.000,0
40091.772,-29.785,-12.207,-19.043,-59.082,0.000,0
40091.776,-24.902,-8.301,-21.484,-43.457,0.000,0
40091.780,-50.293,-7.812,-14.160,-34.180,0.000,0
40091.784,-42.969,-2.441,-11.230,-41.504,0.000,0
40091.788,-25.879,-1.465,-14.160,-34.668,0.000,0
40091.792,-35.156,-11.230,-19.043,-47.363,0.000,0
40091.796,-50.293,-18.066,-20.508,-46.875,0.000,0
40091.800,-36.621,-21.973,-20.508,-32.227,0.000,0
40091.804,-28.320,-20.508,-22.949,-23.926,0.000,0
40091.807,-36.621,-13.672,-22.949,-33.691,0.000,0
40091.811,-34.180,-8.789,-19.531,-36.621,0.000,0
40091.815,-39.062,-6.348,-21.973,-24.414,0.000,0
40091.819,-25.879,-12.207,-28.320,-33.203,0.000,0
40091.823,-25.391,-13.184,-31.250,-30.762,0.000,0
40091.827,-38.086,-14.160,-28.320,-35.645,0.000,0
40091.831,-37.109,-19.531,-20.996,-42.480,0.000,0
40091.835,-35.156,-16.602,-20.020,-38.574,0.000,0
40091.839,-37.109,-12.207,-18.555,-41.016,0.000,0
40091.843,-39.062,-10.742,-15.625,-34.180,0.000,0
40091.847,-40.527,-13.184,-13.672,-39.062,0.000,0
40091.850,-53.711,-14.160,-15.625,-36.621,0.000,0
40091.854,-47.363,-11.719,-19.043,-24.902,0.000,0
40091.858,-54.199,-16.113,-23.926,-41.504,0.000,0
40091.862,-62.012,-18.066,-25.391,-44.434,0.000,0
40091.866,-49.316,-12.695,-19.043,-32.715,0.000,0
40091.870,-58.105,-12.207,-13.672,-31.738,0.000,0
40091.874,-59.082,-7.324,-19.043,-31.738,0.000,0
40091.878,-50.293,-14.160,-27.344,-33.691,0.000,0
40091.882,-71.777,-19.531,-24.902,-31.738,0.000,0
40091.886,-76.660,-11.719,-19.531,-32.715,0.000,0
40091.889,-59.082,-9.766,-13.672,-37.109,0.000,0
40091.893,-55.664,-10.254,-17.090,-38.574,0.000,0
40091.897,-65.430,-14.648,-21.484,-42.480,0.000,0
40091.901,-63.477,-12.207,-18.066,-40.039,0.000,0
40091.905,-66.406,-10.742,-15.137,-37.109,0.000,0
40091.909,-67.383,-16.602,-20.020,-48.340,0.000,0
40091.913,-72.754,-20.020,-26.855,-52.246,0.000,0
40091.917,-83.496,-22.949,-28.320,-44.922,0.000,0
40091.921,-58.105,-23.438,-21.973,-42.969,0.000,0
40091.925,-45.898,-16.113,-18.066,-43.457,0.000,0
40091.929,-69.824,-18.066,-24.902,-47.852,0.000,0
40091.932,-66.406,-23.438,-28.809,-57.129,0.000,0
40091.936,-45.410,-18.066,-27.344,-45.898,0.000,0
40091.940,-35.156,-15.625,-29.297,-28.809,0.000,0
40091.944,-24.414,-17.090,-24.414,-31.250,0.000,0
40091.948,-42.969,-17.090,-18.066,-45.410,0.000,0
40091.952,-69.336,-19.043,-23.438,-54.199,0.000,0
40091.956,-71.289,-21.973,-24.414,-50.781,0.000,0
40091.960,-61.523,-21.484,-18.066,-56.152,0.000,0
40091.964,-46.387,-20.508,-20.020,-55.664,0.000,0
40091.968,-49.805,-18.555,-22.461,-55.664,0.000,0
40091.972,-47.363,-15.625,-18.555,-49.805,0.000,0
40091.975,-39.551,-11.230,-19.043,-39.551,0.000,0
40091.979,-52.734,-14.160,-22.949,-37.598,0.000,0
40091.983,-44.922,-16.602,-22.949,-35.156,0.000,0
40091.987,-41.992,-15.625,-25.391,-36.133,0.000,0
40091.991,-50.781,-17.578,-31.250,-43.945,0.000,0
40091.995,-33.203,-13.672,-28.809,-48.340,0.000,0
40091.999,-30.273,-11.719,-27.344,-47.363,0.000,0
40092.003,-56.152,-9.277,-23.438,-48.340,0.000,0
40092.007,-65.430,-10.742,-14.160,-46.387,0.000,0
40092.011,-33.203,-14.648,-20.508,-33.691,0.000,0
40092.014,-18.555,-15.137,-24.414,-28.320,0.000,0
40092.018,-31.250,-20.508,-26.367,-38.086,0.000,0
40092.022,-35.156,-30.762,-34.668,-43.945,0.000,0
40092.026,-27.832,-31.250,-27.344,-48.828,0.000,0
40092.030,-18.066,-23.438,-31.250,-40.527,0.000,0
40092.034,-20.996,-20.996,-33.691,-41.504,0.000,0
40092.038,-32.227,-21.484,-26.367,-41.992,0.000,0
40092.042,-49.316,-20.508,-27.832,-39.551,0.000,0
40092.046,-55.664,-20.996,-32.227,-54.199,0.000,0
40092.050,-48.828,-26.367,-27.832,-59.082,0.000,0
40092.054,-38.086,-20.996,-18.555,-39.062,0.000,0
40092.057,-26.855,-14.160,-21.973,-27.832,0.000,0
40092.061,-35.156,-13.672,-29.297,-33.691,0.000,0
40092.065,-46.875,-18.066,-32.227,-48.340,0.000,0
40092.069,-51.270,-22.461,-33.203,-56.641,0.000,0
40092.073,-43.945,-18.066,-31.250,-48.340,0.000,0
40092.077,-39.551,-17.090,-24.902,-39.551,0.000,0
40092.081,-46.387,-21.973,-29.297,-30.273,0.000,0
40092.085,-48.828,-23.926,-31.250,-44.434,0.000,0
40092.089,-40.527,-16.602,-24.414,-53.711,0.000,0
40092.093,-49.805,-13.184,-26.855,-37.109,0.000,0
40092.097,-52.734,-17.090,-27.832,-26.855,0.000,0
40092.100,-29.785,-15.625,-24.902,-19.531,0.000,0
40092.104,-34.180,-18.066,-24.902,-32.227,0.000,0
40092.108,-69.824,-20.020,-29.785,-53.223,0.000,0
40092.112,-66.895,-23.926,-36.621,-63.477,0.000,0
40092.116,-48.340,-25.391,-33.691,-59.082,0.000,0
40092.120,-61.035,-16.602,-25.391,-34.180,0.000,0
40092.124,-56.641,-12.207,-20.020,-37.598,0.000,0
40092.128,-42.969,-9.766,-19.043,-42.969,0.000,0
40092.132,-32.227,-12.207,-20.508,-21.973,0.000,0
40092.136,-28.809,-15.137,-20.020,-24.414,0.000,0
40092.139,-36.133,-18.555,-26.855,-35.645,0.000,0
40092.143,-44.922,-20.996,-34.180,-35.156,0.000,0
40092.147,-35.156,-20.508,-29.785,-27.832,0.000,0
40092.151,-27.344,-21.484,-31.738,-17.578,0.000,0
40092.155,-48.828,-24.414,-25.879,-19.531,0.000,0
40092.159,-51.270,-29.297,-20.508,-28.809,0.000,0
40092.163,-30.762,-24.414,-21.484,-30.273,0.000,0
40092.167,-39.551,-22.949,-22.461,-24.414,0.000,0
40092.171,-55.664,-28.809,-31.738,-26.855,0.000,0
40092.175,-42.969,-23.438,-25.879,-30.762,0.000,0
40092.179,-31.738,-22.461,-21.484,-22.949,0.000,0
40092.182,-42.969,-26.855,-23.438,-23.926,0.000,0
40092.186,-61.523,-28.809,-26.367,-26.855,0.000,0
40092.190,-53.223,-30.273,-24.902,-20.508,0.000,0
40092.194,-37.598,-28.320,-19.043,-19.043,0.000,0
40092.198,-57.617,-26.367,-20.996,-21.973,0.000,0
40092.202,-65.918,-34.668,-29.297,-16.113,0.000,0
40092.206,-32.227,-38.574,-28.809,-6.348,0.000,0
40092.210,-53.711,-34.180,-27.832,-14.160,0.000,0
40092.214,-65.430,-32.227,-30.762,-26.855,0.000,0
40092.218,-41.504,-25.879,-25.391,-19.043,0.000,0
40092.222,-43.945,-25.879,-24.902,-24.902,0.000,0
40092.225,-47.363,-25.391,-27.344,-39.062,0.000,0
40092.229,-45.898,-24.902,-23.438,-34.668,0.000,0
40092.233,-60.059,-30.762,-26.855,-35.156,0.000,0
40092.237,-47.852,-28.809,-29.297,-29.297,0.000,0
40092.241,-38.574,-25.391,-29.297,-17.578,0.000,0
40092.245,-43.945,-21.973,-28.809,-14.160,0.000,0
40092.249,-30.273,-24.414,-24.414,-6.836,0.000,0
40092.253,-26.367,-33.691,-25.879,-15.625,0.000,0
40092.257,-22.949,-32.227,-22.461,-14.160,0.000,0
40092.261,-41.504,-28.809,-21.973,-3.418,0.000,0
40092.264,-56.641,-35.645,-32.227,-9.766,0.000,0
40092.268,-48.340,-40.527,-25.879,1.953,0.000,0
40092.272,-41.992,-38.574,-18.555,16.602,0.000,0
40092.276,-34.180,-38.086,-18.066,17.578,0.000,0
40092.280,-38.574,-40.527,-18.066,19.531,0.000,0
40092.284,-39.062,-41.016,-23.438,9.277,0.000,0
40092.288,-38.086,-44.434,-31.738,4.395,0.000,0
40092.292,-55.664,-44.434,-30.762,8.301,0.000,0
40092.296,-42.969,-42.969,-23.926,6.348,0.000,0
40092.300,-18.555,-34.668,-21.973,10.742,0.000,0
40092.304,-29.297,-32.715,-19.043,4.395,0.000,0
40092.307,-33.203,-40.039,-18.066,-0.488,0.000,0
40092.311,-28.809,-43.945,-24.414,-0.488,0.000,0
40092.315,-16.113,-40.039,-25.879,-7.812,0.000,0
40092.319,-14.648,-37.598,-22.949,-9.277,0.000,0
40092.323,-33.203,-36.133,-19.043,-12.207,0.000,0
40092.327,-36.133,-34.668,-19.531,-12.695,0.000,0
40092.331,-27.344,-30.762,-19.531,-5.859,0.000,0
40092.335,-32.715,-33.691,-19.043,-4.395,0.000,0
40092.339,-18.555,-37.598,-23.926,-4.883,0.000,0
40092.343,-7.812,-36.621,-21.973,-16.602,0.000,0
40092.347,-31.250,-37.598,-18.555,-24.414,0.000,0
40092.350,-39.062,-37.109,-22.461,-11.719,0.000,0
40092.354,-16.113,-32.227,-19.531,3.418,0.000,0
40092.358,-12.695,-47.852,-29.297,-12.695,0.000,0
40092.362,-30.762,-57.129,-33.203,-20.996,0.000,0
40092.366,-21.973,-43.945,-17.578,1.465,0.000,0
40092.370,-29.297,-43.945,-22.461,-3.418,0.000,1
40092.374,-7.812,-40.039,-19.531,18.066,0.000,0
40092.378,-2.441,-35.645,-18.066,16.113,0.000,0
40092.382,-51.270,-47.852,-28.809,-27.832,0.000,0
40092.386,-46.387,-44.434,-33.203,-27.832,0.000,0
40092.389,-6.348,-29.297,-24.414,-5.859,0.000,0
40092.393,-18.555,-27.832,-26.855,-14.160,0.000,0
40092.397,-42.480,-26.855,-34.180,-28.809,0.000,0
40092.401,-32.227,-30.273,-40.527,-32.715,0.000,0
40092.405,-53.223,-45.410,-49.316,-32.715,0.000,0
40092.409,-51.270,-41.992,-44.922,-15.625,0.000,0
40092.413,-29.297,-23.926,-37.109,-13.672,0.000,0
40092.417,-50.293,-17.090,-31.738,-28.320,0.000,0
40092.421,-46.387,-7.324,-24.414,-14.160,0.000,0
40092.425,-41.504,-3.906,-20.020,-8.301,0.000,0
40092.429,-45.410,-5.371,-20.020,-23.926,0.000,0
40092.432,-27.344,-10.254,-26.367,-34.180,0.000,0
40092.436,-39.551,-18.066,-33.203,-25.391,0.000,0
40092.440,-41.504,-22.949,-37.109,-23.926,0.000,0
40092.444,-22.461,-25.391,-27.344,-19.043,0.000,0
40092.448,-20.020,-34.180,-21.484,-13.672,0.000,0
40092.452,-36.621,-40.527,-28.320,-19.531,0.000,0
40092.456,-35.156,-33.691,-24.414,-4.883,0.000,0
40092.460,-26.367,-40.039,-13.672,-3.906,0.000,0
40092.464,-24.414,-57.129,-20.996,-12.695,0.000,0
40092.468,-28.809,-58.105,-30.273,-5.371,0.000,0
40092.472,-18.066,-50.781,-28.809,-2.441,0.000,0
40092.475,-11.230,-52.734,-27.832,-1.953,0.000,0
40092.479,-29.785,-60.059,-23.926,-14.648,0.000,0
40092.483,-35.156,-64.941,-26.367,-23.926,0.000,0
40092.487,-30.273,-66.895,-26.367,-12.695,0.000,0
40092.491,-17.578,-63.477,-13.672,-1.953,0.000,0
40092.495,-20.508,-57.617,-12.695,1.953,0.000,0
40092.499,-29.297,-64.453,-20.996,-12.695,0.000,0
40092.503,-19.043,-68.848,-23.438,-22.949,0.000,0
40092.507,-16.602,-62.988,-22.949,-11.230,0.000,0
40092.511,-32.715,-65.430,-22.949,-9.766,0.000,0
40092.514,-46.387,-72.266,-31.250,-10.742,0.000,0
40092.518,-35.156,-69.336,-31.738,-10.742,0.000,0
40092.522,-33.691,-67.871,-23.438,-6.348,0.000,0
40092.526,-27.832,-65.430,-25.879,3.418,0.000,0
40092.530,-14.160,-61.523,-22.949,2.441,0.000,0
40092.534,-10.742,-63.965,-17.578,-4.395,0.000,0
40092.538,5.859,-57.129,-17.578,-2.441,0.000,0
40092.542,-7.324,-57.617,-21.484,0.488,0.000,0
40092.546,-22.461,-61.523,-23.926,-2.930,0.000,0
40092.550,-21.973,-57.129,-22.949,3.906,0.000,0
40092.554,-32.715,-57.129,-20.996,16.602,0.000,0
40092.557,-26.367,-57.129,-20.996,19.531,0.000,0
40092.561,-11.719,-61.523,-24.414,2.441,0.000,0
40092.565,0.488,-62.012,-27.344,-8.301,0.000,0
40092.569,-6.348,-66.895,-33.203,-10.742,0.000,0
40092.573,-22.949,-69.336,-31.738,0.488,0.000,0
40092.577,-15.137,-64.941,-27.832,5.859,0.000,0
40092.581,-0.977,-63.965,-29.785,-3.418,0.000,0
40092.585,-20.508,-59.082,-21.973,1.953,0.000,0
40092.589,-33.691,-58.105,-14.648,3.418,0.000,0
40092.593,-20.996,-61.523,-15.137,-11.230,0.000,0
40092.597,-15.137,-67.871,-12.207,-12.207,0.000,0
40092.600,-25.879,-74.219,-17.578,-9.766,0.000,0
40092.604,-35.645,-72.266,-24.902,-10.742,0.000,0
40092.608,-41.992,-71.777,-26.367,-12.207,0.000,0
40092.612,-24.414,-70.801,-21.973,0.000,0.000,0
40092.616,-20.020,-66.406,-19.531,14.648,0.000,0
40092.620,-38.086,-62.500,-21.973,6.348,0.000,0
40092.624,-32.227,-58.594,-23.438,17.090,0.000,0
40092.628,-19.531,-56.641,-16.113,28.809,0.000,0
40092.632,-8.301,-60.059,-11.719,23.438,0.000,0
40092.636,-19.531,-62.012,-14.160,27.832,0.000,0
40092.639,-39.062,-65.918,-19.043,10.254,0.000,0
40092.643,-28.320,-63.477,-24.902,2.930,0.000,0
40092.647,-20.020,-60.059,-22.461,5.859,0.000,0
40092.651,-22.949,-65.918,-24.414,4.883,0.000,0
40092.655,-22.461,-68.848,-28.320,11.719,0.000,0
40092.659,-23.926,-71.777,-26.855,-2.441,0.000,0
40092.663,-31.250,-73.242,-31.250,0.488,0.000,0
40092.667,-35.645,-66.895,-27.832,18.555,0.000,0
40092.671,-17.578,-64.453,-17.578,17.578,0.000,0
40092.675,-11.230,-66.895,-15.625,16.602,0.000,0
40092.679,-14.648,-72.266,-17.578,0.000,0.000,0
40092.682,-19.043,-72.266,-20.996,-2.930,0.000,0
40092.686,-26.367,-74.219,-23.438,-1.465,0.000,0
40092.690,-27.344,-80.078,-23.926,0.488,0.000,0
40092.694,-17.090,-79.590,-21.973,-5.859,0.000,0
40092.698,1.953,-75.195,-19.531,-7.324,0.000,0
40092.702,2.441,-75.684,-25.391,2.441,0.000,0
40092.706,-24.414,-80.566,-24.414,-6.836,0.000,0
40092.710,-35.645,-76.660,-12.695,-7.812,0.000,0
40092.714,-25.391,-77.148,-20.996,-16.113,0.000,0
40092.718,-16.602,-85.449,-29.297,-22.461,0.000,0
40092.722,-18.066,-87.402,-29.785,-8.301,0.000,0
40092.725,-6.348,-85.449,-34.668,2.441,0.000,0
40092.729,-1.465,-77.637,-33.203,0.977,0.000,0
40092.733,-13.672,-75.195,-25.391,2.441,0.000,0
40092.737,-30.762,-82.031,-22.461,-0.488,0.000,0
40092.741,-31.738,-83.008,-28.809,-3.418,0.000,0
40092.745,-22.949,-83.984,-34.668,-0.488,0.000,0
40092.749,-35.156,-82.520,-35.645,0.977,0.000,0
40092.753,-33.691,-81.055,-29.785,4.883,0.000,0
40092.757,-14.160,-78.613,-24.414,10.254,0.000,0
40092.761,-10.254,-77.637,-29.297,13.672,0.000,0
40092.764,-22.949,-79.590,-38.574,6.836,0.000,0
40092.768,-4.883,-74.707,-35.645,9.277,0.000,0
40092.772,-6.836,-66.406,-28.809,8.301,0.000,0
40092.776,-32.715,-73.242,-32.715,-14.648,0.000,0
40092.780,-36.621,-75.195,-37.109,-18.555,0.000,0
40092.784,-35.156,-72.754,-33.691,-17.090,0.000,0
40092.788,-30.762,-73.730,-28.809,-11.230,0.000,0
40092.792,-35.156,-71.777,-30.762,-3.418,0.000,0
40092.796,-45.898,-73.730,-37.598,-23.926,0.000,0
40092.800,-39.551,-66.406,-28.809,-25.879,0.000,0
40092.804,-15.137,-61.523,-21.484,-10.742,0.000,0
40092.807,-12.207,-64.941,-26.855,-4.883,0.000,0
40092.811,-18.066,-62.500,-19.531,-3.418,0.000,0
40092.815,-19.043,-60.547,-17.090,-20.996,0.000,0
40092.819,-27.832,-61.523,-26.367,-20.020,0.000,0
40092.823,-34.668,-62.500,-20.996,-14.648,0.000,0
40092.827,-26.367,-64.453,-17.578,-22.949,0.000,0
40092.831,-20.508,-58.594,-14.160,-20.020,0.000,0
40092.835,-22.949,-55.176,-10.742,-26.367,0.000,0
40092.839,-20.508,-56.641,-14.160,-20.020,0.000,0
40092.843,-27.344,-53.711,-16.602,-13.184,0.000,0
40092.847,-19.531,-53.223,-19.531,-12.695,0.000,0
40092.850,-4.883,-56.152,-19.043,-12.695,0.000,0
40092.854,-17.090,-56.152,-20.996,-23.438,0.000,0
40092.858,-37.109,-52.734,-21.973,-13.672,0.000,0
40092.862,-25.879,-55.664,-20.020,3.418,0.000,0
40092.866,-26.367,-57.617,-20.508,0.488,0.000,0
40092.870,-24.414,-54.199,-19.043,-11.230,0.000,0
40092.874,-22.949,-52.246,-20.996,-18.066,0.000,0
40092.878,-31.250,-53.223,-26.367,-9.766,0.000,0
40092.882,-22.461,-48.828,-20.996,-3.906,0.000,0
40092.886,-8.301,-42.480,-13.672,-0.977,0.000,0
40092.889,-11.230,-39.551,-19.043,8.301,0.000,0
40092.893,-18.066,-43.945,-26.367,-10.742,0.000,0
40092.897,-11.230,-45.898,-28.809,-19.531,0.000,0
40092.901,-28.809,-43.945,-26.367,-10.742,0.000,0
40092.905,-43.945,-43.457,-20.508,-7.324,0.000,0
40092.909,-31.738,-44.922,-25.391,-8.301,0.000,0
40092.913,-43.457,-43.945,-26.367,-6.836,0.000,0
40092.917,-47.363,-37.598,-21.973,-4.395,0.000,0
40092.921,-24.414,-33.691,-23.926,-9.277,0.000,0
40092.925,-19.531,-37.109,-23.926,-13.672,0.000,0
40092.929,-40.039,-37.109,-25.879,-8.789,0.000,0
40092.932,-44.922,-32.227,-27.344,-5.859,0.000,0
40092.936,-38.086,-31.250,-24.902,-7.812,0.000,0
40092.940,-37.109,-34.668,-30.762,-4.395,0.000,0
40092.944,-25.879,-40.039,-32.227,5.371,0.000,0
40092.948,-25.879,-41.504,-25.879,9.277,0.000,0
40092.952,-36.621,-42.969,-25.879,-0.977,0.000,0
40092.956,-34.668,-48.340,-29.297,-12.695,0.000,0
40092.960,-22.949,-43.945,-29.297,-11.719,0.000,0
40092.964,-32.227,-38.086,-23.926,-12.695,0.000,0
40092.968,-37.109,-39.551,-18.555,-2.441,0.000,0
40092.972,-26.855,-37.109,-18.066,2.441,0.000,0
40092.975,-25.879,-34.180,-21.973,-7.324,0.000,0
40092.979,-25.879,-33.203,-22.949,3.418,0.000,0
40092.983,-34.668,-39.062,-30.762,-2.441,0.000,0
40092.987,-26.855,-44.922,-35.156,-19.043,0.000,0
40092.991,-40.527,-43.945,-28.809,-20.020,0.000,0
40092.995,-67.871,-45.410,-26.367,-29.297,0.000,0
40092.999,-49.316,-52.246,-27.344,-38.086,0.000,0
40093.003,-42.480,-53.711,-27.832,-22.949,0.000,0
40093.007,-39.062,-53.223,-30.273,0.488,0.000,0
40093.011,-24.414,-52.734,-29.785,-11.719,0.000,0
40093.014,-35.645,-46.387,-27.832,-38.086,0.000,0
40093.018,-37.109,-37.109,-30.762,-32.715,0.000,0
40093.022,-22.461,-34.668,-26.367,-26.367,0.000,0
40093.026,-20.508,-38.086,-21.484,-31.738,0.000,0
40093.030,-35.156,-35.156,-24.414,-32.715,0.000,0
40093.034,-31.250,-30.273,-19.043,-33.691,0.000,0
40093.038,-21.973,-28.809,-17.090,-20.996,0.000,0
40093.042,-19.043,-37.109,-26.367,-7.324,0.000,0
40093.046,-1.465,-35.645,-23.438,-12.207,0.000,0
40093.050,-6.836,-34.180,-20.508,-21.484,0.000,0
40093.054,-26.367,-44.434,-25.879,-23.926,0.000,0
40093.057,-18.066,-42.969,-25.879,-19.043,0.000,0
40093.061,-1.465,-40.039,-21.973,-21.973,0.000,0
40093.065,-17.578,-45.410,-23.438,-27.344,0.000,0
40093.069,-23.438,-41.992,-22.949,-30.762,0.000,0
40093.073,-5.859,-39.062,-20.996,-31.250,0.000,0
40093.077,-12.207,-41.504,-22.461,-31.250,0.000,0
40093.081,-24.414,-39.062,-26.855,-25.391,0.000,0
40093.085,-14.648,-38.086,-26.855,-23.438,0.000,0
40093.089,16.113,-39.062,-28.809,-32.227,0.000,0
40093.093,-15.137,-42.480,-29.297,-42.480,0.000,0
40093.097,-30.762,-42.480,-25.879,-24.902,0.000,0
40093.100,-1.953,-37.598,-22.461,-18.555,0.000,1
40093.104,-0.488,-35.156,-23.926,-19.531,0.000,0
40093.108,-2.930,-34.180,-25.879,-14.648,0.000,0
40093.112,-6.348,-38.086,-24.414,-25.391,0.000,0
40093.116,-4.395,-40.527,-31.738,-21.973,0.000,0
40093.120,-7.324,-41.504,-37.598,-15.625,0.000,0
40093.124,-24.902,-45.898,-38.574,-32.227,0.000,0
40093.128,-28.320,-47.852,-35.645,-39.551,0.000,0
40093.132,-16.602,-48.340,-27.344,-41.016,0.000,0
40093.136,-4.883,-42.969,-26.855,-38.086,0.000,0
40093.139,-4.883,-36.133,-26.855,-28.809,0.000,0
40093.143,-18.066,-32.715,-25.879,-19.531,0.000,0
40093.147,-22.461,-36.133,-27.832,-30.273,0.000,0
40093.151,-24.902,-40.527,-27.832,-56.641,0.000,0
40093.155,-31.250,-40.527,-28.809,-55.176,0.000,0
40093.159,-25.879,-39.551,-23.926,-41.992,0.000,0
40093.163,-8.789,-45.410,-27.344,-43.457,0.000,0
40093.167,-5.371,-46.387,-32.715,-42.480,0.000,0
40093.171,-27.832,-43.945,-35.645,-50.781,0.000,0
40093.175,-36.621,-39.551,-33.203,-48.340,0.000,0
40093.179,-28.809,-35.156,-25.879,-35.645,0.000,0
40093.182,-21.484,-35.156,-26.855,-19.043,0.000,0
40093.186,-21.973,-39.551,-33.691,-17.578,0.000,0
40093.190,-30.762,-41.992,-29.297,-36.133,0.000,0
40093.194,-22.949,-34.180,-22.461,-30.273,0.000,0
40093.198,-22.461,-33.203,-28.320,-29.297,0.000,0
40093.202,-25.391,-36.133,-26.367,-37.109,0.000,0
40093.206,-4.395,-29.297,-19.531,-30.762,0.000,0
40093.210,-11.719,-29.297,-26.855,-29.785,0.000,0
40093.214,-44.434,-37.109,-29.297,-24.414,0.000,0
40093.218,-40.527,-39.062,-27.344,-27.832,0.000,0
40093.222,-13.672,-37.598,-27.832,-29.297,0.000,0
40093.225,-23.926,-37.598,-23.438,-27.832,0.000,0
40093.229,-32.715,-37.109,-18.555,-32.715,0.000,0
40093.233,-26.367,-35.156,-24.902,-24.902,0.000,0
40093.237,-25.391,-33.691,-31.250,-26.367,0.000,0
40093.241,-20.508,-34.668,-29.785,-38.574,0.000,0
40093.245,-37.598,-30.762,-27.344,-41.992,0.000,0
40093.249,-43.457,-29.297,-22.949,-36.621,0.000,0
40093.253,-32.227,-30.762,-23.926,-41.016,0.000,0
40093.257,-39.062,-30.762,-30.762,-41.016,0.000,0
40093.261,-32.715,-29.785,-27.832,-24.414,0.000,0
40093.264,-31.738,-25.391,-20.020,-25.391,0.000,0
40093.268,-29.297,-20.020,-15.137,-31.250,0.000,0
40093.272,-15.625,-22.949,-23.926,-29.297,0.000,0
40093.276,-35.156,-28.320,-24.902,-36.133,0.000,0
40093.280,-55.664,-30.762,-20.020,-31.738,0.000,0
40093.284,-26.367,-27.832,-21.973,-21.484,0.000,0
40093.288,-6.348,-24.902,-25.391,-26.855,0.000,0
40093.292,-40.039,-27.344,-21.973,-30.762,0.000,0
40093.296,-54.688,-27.832,-18.555,-19.531,0.000,0
40093.300,-25.391,-26.367,-22.949,-16.602,0.000,0
40093.304,-18.066,-27.832,-28.320,-14.648,0.000,0
40093.307,-34.668,-28.320,-28.320,-25.391,0.000,0
40093.311,-32.715,-27.832,-22.461,-31.738,0.000,0
40093.315,-28.809,-30.273,-25.391,-20.020,0.000,0
40093.319,-33.203,-33.203,-28.809,-30.273,0.000,0
40093.323,-43.945,-32.227,-25.879,-31.250,0.000,0
40093.327,-38.574,-35.645,-25.879,-34.668,0.000,0
40093.331,-28.320,-39.551,-31.250,-48.340,0.000,0
40093.335,-26.367,-38.086,-36.133,-41.504,0.000,0
40093.339,-33.203,-36.133,-31.250,-35.645,0.000,0
40093.343,-24.414,-32.227,-21.973,-25.879,0.000,0
40093.347,-16.602,-31.738,-17.578,-26.367,0.000,0
40093.350,-45.898,-30.273,-19.043,-48.340,0.000,0
40093.354,-45.410,-27.832,-23.438,-37.109,0.000,0
40093.358,-25.391,-27.832,-27.344,-19.531,0.000,0
40093.362,-10.742,-25.391,-22.949,-12.695,0.000,0
40093.366,-15.625,-23.438,-17.090,-20.020,0.000,0
40093.370,-31.738,-27.344,-19.043,-29.785,0.000,0
40093.374,-16.602,-30.273,-24.902,-29.785,0.000,0
40093.378,-14.648,-31.250,-27.832,-29.297,0.000,0
40093.382,-19.531,-31.250,-25.879,-28.320,0.000,0
40093.386,-20.020,-30.762,-30.273,-31.738,0.000,0
40093.389,-1.953,-30.762,-28.809,-38.086,0.000,0
40093.393,-1.953,-24.902,-24.902,-30.762,0.000,0
40093.397,-25.879,-16.602,-24.902,-17.090,0.000,0
40093.401,-12.695,-17.578,-23.926,-10.254,0.000,0
40093.405,-9.766,-23.438,-28.809,-8.301,0.000,0
40093.409,-20.996,-21.973,-30.762,-22.949,0.000,0
40093.413,-35.645,-20.508,-27.832,-27.344,0.000,0
40093.417,-15.625,-18.555,-22.461,-10.742,0.000,0
40093.421,-0.488,-19.531,-25.879,-7.812,0.000,0
40093.425,-22.461,-22.461,-30.762,-12.695,0.000,0
40093.429,-32.227,-19.043,-23.438,-21.484,0.000,0
40093.432,-20.020,-16.113,-15.137,-17.090,0.000,0
40093.436,-20.020,-14.160,-16.113,-6.836,0.000,0
40093.440,-34.180,-18.555,-24.902,-10.254,0.000,0
40093.444,-26.855,-24.414,-29.297,-23.926,0.000,0
40093.448,-10.742,-28.320,-25.879,-40.039,0.000,0
40093.452,-16.113,-28.809,-23.926,-30.273,0.000,0
40093.456,-41.504,-25.391,-26.855,-20.508,0.000,0
40093.460,-45.898,-20.508,-22.461,-16.602,0.000,0
40093.464,-16.113,-16.602,-14.160,-13.672,0.000,0
40093.468,-13.672,-20.996,-14.648,-33.203,0.000,0
40093.472,-30.273,-25.879,-20.508,-33.203,0.000,0
40093.475,-18.066,-24.414,-22.461,-21.484,0.000,0
40093.479,-8.301,-20.020,-19.531,-17.090,0.000,0
40093.483,-12.695,-18.066,-16.113,-26.855,0.000,0
40093.487,-31.250,-20.996,-20.996,-39.062,0.000,0
40093.491,-39.062,-23.926,-21.973,-32.715,0.000,0
40093.495,-39.062,-28.809,-20.020,-31.250,0.000,0
40093.499,-48.340,-26.367,-18.555,-27.344,0.000,0
40093.503,-32.227,-22.949,-17.090,-29.785,0.000,0
40093.507,-32.227,-20.996,-17.578,-40.039,0.000,0
40093.511,-43.945,-16.602,-19.531,-30.273,0.000,0
40093.514,-37.598,-16.113,-22.461,-29.297,0.000,0
40093.518,-35.156,-17.090,-25.391,-31.250,0.000,0
40093.522,-0.977,-11.230,-21.973,-25.391,0.000,0
40093.526,-6.836,-6.836,-19.043,-29.785,0.000,0
40093.530,-49.316,-17.090,-20.996,-28.320,0.000,0
40093.534,-37.598,-20.996,-15.137,-19.531,0.000,0
40093.538,-19.043,-20.508,-17.090,-10.254,0.000,0
40093.542,-29.785,-24.414,-21.484,-16.602,0.000,0
40093.546,-30.273,-24.414,-22.461,-21.484,0.000,0
40093.550,-13.672,-17.578,-23.438,-17.578,0.000,0
40093.554,0.977,-15.137,-23.926,-20.508,0.000,0
40093.557,-27.344,-21.973,-28.320,-28.809,0.000,0
40093.561,-57.129,-21.973,-22.949,-34.180,0.000,0
40093.565,-45.410,-25.391,-18.066,-37.109,0.000,0
40093.569,-40.039,-28.320,-19.043,-43.945,0.000,0
40093.573,-34.180,-28.809,-19.531,-38.086,0.000,0
40093.577,-29.297,-28.320,-26.855,-27.344,0.000,0
40093.581,-27.344,-24.414,-30.762,-27.832,0.000,0
40093.585,-12.695,-17.090,-26.367,-24.902,0.000,0
40093.589,-0.488,-13.184,-27.344,-23.926,0.000,0
40093.593,-14.160,-14.648,-26.855,-35.156,0.000,0
40093.597,-41.992,-12.695,-27.832,-34.668,0.000,0
40093.600,-40.039,-10.742,-24.902,-25.879,0.000,0
40093.604,-29.785,-11.719,-18.555,-32.227,0.000,0
40093.608,-25.391,-11.719,-24.902,-33.203,0.000,0
40093.612,-8.789,-16.113,-27.832,-22.949,0.000,0
40093.616,-4.883,-16.602,-16.602,-22.949,0.000,0
40093.620,-12.695,-12.695,-14.160,-22.461,0.000,0
40093.624,-29.785,-9.277,-15.137,-17.578,0.000,0
40093.628,-21.484,-6.348,-16.113,-19.043,0.000,0
40093.632,-7.812,-4.883,-16.602,-21.484,0.000,0
40093.636,-18.555,-9.766,-20.996,-23.926,0.000,0
40093.639,-21.973,-15.137,-21.973,-23.438,0.000,0
40093.643,-5.371,-14.160,-20.996,-33.203,0.000,0
40093.647,-33.691,-15.137,-27.832,-34.180,0.000,0
40093.651,-54.688,-11.230,-21.973,-27.832,0.000,0
40093.655,-30.273,-7.812,-13.184,-29.785,0.000,0
40093.659,-15.137,-10.742,-14.648,-23.438,0.000,0
40093.663,-17.090,-5.859,-20.508,-25.879,0.000,0
40093.667,-20.020,-4.883,-20.996,-32.715,0.000,0
40093.671,-14.160,-9.277,-16.113,-34.668,0.000,0
40093.675,-22.461,-8.789,-23.438,-33.203,0.000,0
40093.679,-38.086,-8.789,-27.344,-31.250,0.000,0
40093.682,-31.250,-9.277,-21.484,-37.109,0.000,0
40093.686,-20.996,-4.883,-28.320,-24.414,0.000,0
40093.690,-11.719,0.000,-21.973,-6.348,0.000,2
40093.694,-11.719,-2.930,-13.672,-11.230,0.000,0
40093.698,-45.898,-8.301,-21.973,-27.344,0.000,0
40093.702,-37.598,-3.906,-16.602,-25.879,0.000,0
40093.706,-16.602,-6.836,-17.090,-14.648,0.000,0
40093.710,-22.461,-16.602,-27.344,-22.461,0.000,0
40093.714,-34.180,-18.066,-27.832,-37.109,0.000,0
40093.718,-31.250,-16.113,-28.320,-37.109,0.000,0
40093.722,-4.395,-16.602,-29.785,-48.340,0.000,0
40093.725,-24.902,-17.090,-31.250,-44.922,0.000,0
40093.729,-41.992,-9.277,-27.344,-9.277,0.000,0
40093.733,-29.785,-8.789,-26.367,-13.184,0.000,0
40093.737,-28.809,-16.113,-30.762,-34.668,0.000,0
40093.741,-34.180,-14.648,-18.555,-36.621,0.000,0
40093.745,-26.855,-8.301,-17.090,-30.762,0.000,0
40093.749,-10.742,-8.789,-25.391,-27.832,0.000,0
40093.753,-17.090,-16.602,-26.855,-32.715,0.000,0
40093.757,-21.973,-17.578,-27.344,-32.227,0.000,0
40093.761,-31.250,-14.648,-23.926,-31.738,0.000,0
40093.764,-33.203,-18.066,-25.391,-31.250,0.000,0
40093.768,-30.273,-18.066,-32.227,-27.832,0.000,0
40093.772,-25.391,-14.160,-31.250,-28.809,0.000,0
40093.776,-15.625,-12.695,-29.785,-1.465,0.000,0
40093.780,-12.207,-7.812,-29.785,-7.324,0.000,0
40093.784,-38.574,-11.230,-31.738,-35.645,0.000,0
40093.788,-42.480,-19.531,-38.574,-24.902,0.000,0
40093.792,-20.996,-19.043,-42.480,-27.344,0.000,0
40093.796,-19.531,-14.648,-34.668,-34.180,0.000,0
40093.800,-33.203,-16.113,-26.367,-44.434,0.000,0
40093.804,-36.621,-13.672,-26.855,-41.992,0.000,0
40093.807,-30.273,-6.836,-27.832,-35.645,0.000,0
40093.811,-22.949,-11.719,-27.344,-36.133,0.000,0
40093.815,-17.090,-15.137,-28.320,-19.043,0.000,0
40093.819,-24.902,-13.672,-27.344,-19.531,0.000,0
40093.823,-26.855,-14.648,-26.855,-27.832,0.000,0
40093.827,-14.160,-12.695,-23.438,-7.812,0.000,0
40093.831,-26.367,-12.695,-25.391,-7.812,0.000,0
40093.835,-33.691,-10.254,-24.902,-21.973,0.000,0
40093.839,-21.484,-12.207,-22.461,-20.020,0.000,0
40093.843,-30.762,-15.137,-22.949,-22.461,0.000,0
40093.847,-27.344,-11.719,-26.367,-17.578,0.000,0
40093.850,-15.137,-14.648,-26.855,-12.695,0.000,0
40093.854,-12.207,-11.719,-23.438,-12.207,0.000,0
40093.858,5.371,-5.859,-22.461,-18.066,0.000,0
40093.862,-15.137,-5.859,-23.926,-24.902,0.000,0
40093.866,-36.621,-7.812,-29.785,-15.137,0.000,0
40093.870,-21.484,-13.672,-28.809,-9.766,0.000,0
40093.874,-27.344,-12.695,-22.461,-22.461,0.000,0
40093.878,-16.113,-4.883,-16.113,-31.250,0.000,0
40093.882,-8.301,1.465,-15.137,-28.809,0.000,0
40093.886,-16.602,-2.441,-23.438,-27.344,0.000,0
40093.889,-11.230,-10.254,-28.809,-29.297,0.000,0
40093.893,-0.488,-9.277,-29.785,-22.461,0.000,0
40093.897,11.230,-1.465,-29.297,-24.902,0.000,0
40093.901,6.348,1.465,-26.855,-33.203,0.000,0
40093.905,-11.230,-1.465,-25.879,-18.555,0.000,0
40093.909,-13.672,-5.859,-28.320,-26.367,0.000,0
40093.913,1.465,-2.930,-28.320,-35.156,0.000,0
40093.917,-12.207,-1.953,-26.855,-35.645,0.000,0
40093.921,-35.156,-2.441,-27.344,-43.945,0.000,0
40093.925,-37.109,-9.766,-34.668,-50.293,0.000,0
40093.929,-30.762,-9.766,-37.109,-46.875,0.000,0
40093.932,-11.719,-2.930,-35.156,-36.133,0.000,0
40093.936,-20.020,-5.371,-30.762,-36.621,0.000,0
40093.940,-23.926,-3.418,-25.879,-38.086,0.000,0
40093.944,6.348,1.953,-25.879,-31.738,0.000,0
40093.948,-0.977,0.000,-21.973,-40.039,0.000,0
40093.952,-38.086,-3.418,-19.043,-38.574,0.000,0
40093.956,-33.691,-9.766,-23.926,-22.461,0.000,0
40093.960,-20.996,-11.230,-20.508,-36.133,0.000,0
40093.964,-18.066,-7.812,-20.508,-39.551,0.000,0
40093.968,-25.391,-6.348,-24.902,-23.438,0.000,0
40093.972,-20.508,-3.906,-31.250,-33.691,0.000,0
40093.975,-16.602,-10.254,-40.039,-43.457,0.000,0
40093.979,-33.203,-13.672,-36.133,-45.898,0.000,0
40093.983,-32.715,-12.695,-28.809,-41.016,0.000,0
40093.987,-17.090,-16.602,-30.273,-32.715,0.000,0
40093.991,-33.691,-15.137,-30.762,-31.250,0.000,0
40093.995,-46.387,-13.184,-27.832,-38.574,0.000,0
40093.999,-31.250,-8.301,-22.461,-40.039,0.000,0
40094.003,-17.578,-11.230,-28.320,-31.738,0.000,0
40094.007,-17.578,-16.113,-36.621,-23.438,0.000,0
40094.011,-23.438,-9.277,-30.762,-16.113,0.000,0
40094.014,-31.738,-8.789,-25.391,-31.250,0.000,0
40094.018,-21.484,-12.207,-24.414,-54.199,0.000,0
40094.022,-8.301,-11.719,-28.320,-52.246,0.000,0
40094.026,-15.137,-12.695,-27.344,-39.062,0.000,0
40094.030,-15.625,-13.184,-30.762,-33.691,0.000,0
40094.034,-21.973,-12.207,-35.645,-31.250,0.000,0
40094.038,-23.438,-12.695,-29.785,-35.645,0.000,0
40094.042,-13.672,-9.766,-28.809,-31.250,0.000,0
40094.046,-13.184,-10.254,-34.668,-31.250,0.000,0
40094.050,-11.719,-9.277,-34.180,-35.156,0.000,0
40094.054,-15.137,-10.254,-32.227,-32.715,0.000,0
40094.057,-21.484,-11.230,-28.320,-34.668,0.000,0
40094.061,-24.414,-4.395,-25.879,-32.227,0.000,0
40094.065,-41.992,-7.324,-34.668,-35.156,0.000,0
40094.069,-47.363,-10.254,-39.062,-33.203,0.000,0
40094.073,-34.180,-10.254,-40.039,-27.344,0.000,0
40094.077,-16.602,-12.207,-40.527,-39.551,0.000,0
40094.081,-15.625,-12.695,-42.969,-44.434,0.000,0
40094.085,-34.180,-16.113,-48.340,-41.016,0.000,0
40094.089,-41.016,-17.578,-37.598,-49.316,0.000,0
40094.093,-29.297,-13.672,-30.762,-44.434,0.000,0
40094.097,-21.484,-14.160,-34.668,-52.246,0.000,0
40094.100,-17.090,-14.160,-35.645,-49.316,0.000,0
40094.104,-21.484,-14.160,-34.668,-23.438,0.000,0
40094.108,-31.738,-17.578,-35.156,-24.902,0.000,0
40094.112,-13.672,-13.672,-36.133,-29.785,0.000,0
40094.116,-21.484,-5.859,-34.180,-27.832,0.000,0
40094.120,-33.203,-3.418,-36.133,-34.668,0.000,0
40094.124,-14.160,-7.324,-37.109,-33.203,0.000,0
40094.128,-17.090,-6.348,-28.809,-33.691,0.000,0
40094.132,-23.926,-3.906,-25.879,-27.344,0.000,0
40094.136,-22.949,-9.277,-27.344,-32.715,0.000,0
40094.139,-15.625,-7.324,-25.391,-35.156,0.000,0
40094.143,-18.066,-2.930,-23.926,-18.555,0.000,0
40094.147,-2.441,-3.906,-28.809,-23.438,0.000,0
40094.151,0.488,-2.930,-27.344,-28.320,0.000,0
40094.155,-33.691,0.488,-25.879,-21.484,0.000,0
40094.159,-39.551,-3.418,-28.809,-34.180,0.000,0
40094.163,-28.320,-11.230,-24.902,-43.457,0.000,0
40094.167,-17.578,-10.254,-26.855,-41.016,0.000,0
40094.171,-15.625,-10.254,-31.738,-34.668,0.000,0
40094.175,-33.691,-12.695,-32.715,-37.598,0.000,0
40094.179,-54.688,-11.719,-33.691,-43.945,0.000,0
40094.182,-39.551,-6.348,-23.438,-27.344,0.000,0
40094.186,-16.113,0.000,-15.137,-24.902,0.000,0
40094.190,-17.578,0.488,-17.578,-26.367,0.000,0
40094.194,-23.438,-3.906,-20.996,-33.691,0.000,0
40094.198,-33.691,-6.348,-24.902,-45.898,0.000,0
40094.202,-45.410,-7.812,-19.531,-40.527,0.000,0
40094.206,-48.340,-12.207,-20.996,-29.785,0.000,0
40094.210,-27.832,-8.301,-25.391,-23.926,0.000,0
40094.214,-5.859,-4.883,-28.320,-32.715,0.000,0
40094.218,-20.996,-7.324,-34.668,-37.598,0.000,0
40094.222,-27.344,-7.324,-29.297,-24.902,0.000,0
40094.225,-19.043,-8.301,-29.297,-17.578,0.000,0
40094.229,-27.344,-13.184,-30.762,-25.391,0.000,0
40094.233,-42.480,-13.184,-24.902,-29.297,0.000,0
40094.237,-53.711,-14.160,-26.855,-29.297,0.000,0
40094.241,-44.434,-14.160,-24.902,-25.879,0.000,0
40094.245,-18.555,-10.254,-27.832,-20.508,0.000,0
40094.249,-23.438,-11.719,-29.785,-25.391,0.000,0
40094.253,-35.645,-15.625,-20.996,-29.297,0.000,0
40094.257,-23.438,-11.719,-19.043,-27.832,0.000,0
40094.261,-14.160,-8.789,-23.438,-25.879,0.000,0
40094.264,-12.695,-2.930,-19.043,-26.367,0.000,0
40094.268,-29.785,-7.812,-19.531,-23.926,0.000,0
40094.272,-32.227,-20.020,-27.832,-19.531,0.000,0
40094.276,-15.625,-17.090,-22.949,-27.344,0.000,0
40094.280,-11.230,-16.113,-18.555,-20.020,0.000,0
40094.284,-20.996,-15.137,-21.484,-10.742,0.000,0
40094.288,-34.668,-13.184,-17.578,-25.879,0.000,0
40094.292,-34.180,-11.719,-14.648,-38.086,0.000,0
40094.296,-24.414,-7.812,-17.090,-37.109,0.000,0
40094.300,-30.762,-9.277,-24.902,-34.668,0.000,1
40094.304,-30.273,-11.230,-26.855,-41.016,0.000,0
40094.307,-10.742,-8.301,-22.949,-35.156,0.000,0
40094.311,-22.461,-5.371,-16.602,-23.438,0.000,0
40094.315,-32.715,-7.324,-14.160,-39.551,0.000,0
40094.319,-16.602,-8.301,-17.090,-30.273,0.000,0
40094.323,-20.508,-9.277,-20.996,-14.648,0.000,0
40094.327,-40.527,-11.230,-22.949,-28.320,0.000,0
40094.331,-27.344,-9.277,-18.066,-28.320,0.000,0
40094.335,-26.855,-10.742,-11.719,-32.715,0.000,0
40094.339,-39.062,-10.742,-13.672,-34.180,0.000,0
40094.343,-41.016,-11.230,-21.484,-31.250,0.000,0
40094.347,-20.508,-6.836,-20.996,-26.367,0.000,0
40094.350,-3.418,-3.418,-20.020,-32.715,0.000,0
40094.354,-33.203,-4.395,-20.508,-47.363,0.000,0
40094.358,-40.527,-0.488,-17.090,-40.527,0.000,0
40094.362,-13.672,3.906,-12.695,-33.691,0.000,0
40094.366,-24.902,3.906,-16.602,-28.809,0.000,0
40094.370,-31.738,1.465,-18.555,-8.301,0.000,0
40094.374,-25.879,0.977,-10.254,-2.930,0.000,0
40094.378,-17.578,4.883,-11.230,-11.230,0.000,0
40094.382,-9.766,0.488,-13.184,-10.742,0.000,0
40094.386,-13.672,-4.883,-7.324,-6.836,0.000,0
40094.389,-9.766,-3.906,-18.066,-9.277,0.000,0
40094.393,-13.184,-6.836,-27.344,-22.949,0.000,0
40094.397,-10.254,-3.418,-19.043,-22.461,0.000,0
40094.401,-23.438,0.488,-17.578,-22.949,0.000,0
40094.405,-25.391,-2.441,-15.137,-28.809,0.000,0
40094.409,-6.348,-0.977,-16.113,-25.391,0.000,0
40094.413,-13.184,-2.930,-20.996,-44.434,0.000,0
40094.417,-19.043,-7.812,-25.391,-39.551,0.000,0
40094.421,-27.344,-4.883,-27.344,-24.902,0.000,0
40094.425,-1.465,-1.953,-22.461,-23.438,0.000,0
40094.429,4.883,-4.395,-23.438,-21.484,0.000,0
40094.432,-20.020,-6.348,-20.508,-34.668,0.000,0
40094.436,-33.691,-7.324,-20.020,-29.785,0.000,0
40094.440,-32.715,-12.207,-25.391,-19.531,0.000,0
40094.444,-22.949,-15.137,-22.949,-22.461,0.000,0
40094.448,-27.832,-11.230,-16.602,-19.531,0.000,0
40094.452,-21.973,-10.742,-12.207,-35.156,0.000,0
40094.456,-17.578,-16.602,-16.113,-41.016,0.000,0
40094.460,-7.812,-14.160,-18.066,-40.527,0.000,0
40094.464,-18.555,-12.695,-17.578,-39.551,0.000,0
40094.468,-31.250,-14.160,-17.578,-28.809,0.000,0
40094.472,-35.156,-19.043,-13.184,-50.293,0.000,0
40094.475,-35.156,-15.137,-16.113,-56.152,0.000,0
40094.479,-24.902,-12.207,-22.461,-47.852,0.000,0
40094.483,-23.926,-14.648,-24.902,-40.039,0.000,0
40094.487,-29.785,-9.766,-21.973,-29.785,0.000,0
40094.491,-40.527,-11.230,-25.391,-34.180,0.000,0
40094.495,-27.832,-13.672,-26.855,-39.062,0.000,0
40094.499,-19.043,-9.277,-21.484,-32.227,0.000,0
40094.503,-33.691,-11.230,-22.461,-27.832,0.000,0
40094.507,-33.203,-9.277,-28.809,-27.344,0.000,0
40094.511,-24.902,-7.324,-28.320,-27.344,0.000,0
40094.514,-23.926,-7.812,-27.832,-31.250,0.000,0
40094.518,-31.738,-7.324,-33.203,-32.715,0.000,0
40094.522,-38.086,-6.348,-30.273,-34.668,0.000,0
40094.526,-33.691,-7.324,-25.879,-23.438,0.000,0
40094.530,-29.297,-5.371,-22.461,-13.672,0.000,0
40094.534,-41.504,-3.906,-26.855,-18.066,0.000,0
40094.538,-41.504,-10.742,-34.668,-12.695,0.000,0
40094.542,-16.602,-15.625,-39.062,-16.602,0.000,0
40094.546,-6.836,-13.184,-39.062,-32.715,0.000,0
40094.550,-20.508,-14.160,-26.367,-29.297,0.000,0
40094.554,-23.926,-19.043,-27.344,-11.230,0.000,0
40094.557,-31.250,-19.531,-36.133,-15.625,0.000,0
40094.561,-26.367,-15.137,-30.762,-15.137,0.000,0
40094.565,-18.066,-14.648,-26.367,-3.418,0.000,0
40094.569,-20.020,-14.648,-23.438,-7.812,0.000,0
40094.573,-20.996,-11.230,-25.391,-4.883,0.000,0
40094.577,-27.832,-9.277,-23.438,0.000,0.000,0
40094.581,-40.527,-14.160,-17.578,-5.371,0.000,0
40094.585,-29.297,-17.578,-20.020,-4.395,0.000,0
40094.589,-15.137,-15.137,-24.414,-7.324,0.000,0
40094.593,-20.996,-13.184,-28.320,-17.090,0.000,0
40094.597,-32.227,-11.719,-21.973,-14.160,0.000,0
40094.600,-28.320,-14.648,-21.484,-14.160,0.000,0
40094.604,-19.043,-22.949,-30.273,-32.227,0.000,0
40094.608,-35.156,-24.414,-31.738,-39.062,0.000,0
40094.612,-29.297,-17.090,-26.367,-26.367,0.000,0
40094.616,-21.973,-15.625,-23.438,-20.996,0.000,0
40094.620,-28.809,-13.184,-26.855,-21.973,0.000,0
40094.624,-41.016,-11.719,-29.785,-24.414,0.000,0
40094.628,-55.176,-16.602,-30.762,-21.484,0.000,0
40094.632,-25.391,-16.113,-29.785,-13.184,0.000,0
40094.636,-12.207,-14.648,-31.738,-18.066,0.000,0
40094.639,-22.949,-12.695,-30.273,-11.719,0.000,0
40094.643,-28.320,-12.695,-28.320,-8.789,0.000,0
40094.647,-24.902,-12.207,-24.414,-20.508,0.000,0
40094.651,-22.461,-13.672,-19.043,-29.785,0.000,0
40094.655,-30.273,-12.695,-21.973,-26.367,0.000,0
40094.659,-26.367,-14.160,-21.484,-27.832,0.000,0
40094.663,-16.602,-16.602,-25.391,-27.832,0.000,0
40094.667,-12.695,-17.090,-30.273,-28.809,0.000,0
40094.671,-31.250,-12.207,-23.926,-36.621,0.000,0
40094.675,-30.273,-9.766,-18.555,-24.902,0.000,0
40094.679,-14.648,-11.719,-24.414,-22.461,0.000,0
40094.682,-20.508,-8.789,-29.785,-25.391,0.000,0
40094.686,-20.996,-10.742,-23.926,-24.414,0.000,0
40094.690,-29.297,-6.836,-20.508,-26.855,0.000,0
40094.694,-18.555,1.465,-21.973,-23.926,0.000,0
40094.698,-18.555,2.441,-18.066,-26.367,0.000,0
40094.702,-15.137,-4.883,-15.625,-20.020,0.000,0
40094.706,-15.625,-7.812,-15.625,-18.066,0.000,0
40094.710,-27.832,-6.348,-16.602,-22.949,0.000,0
40094.714,-34.668,-14.160,-28.809,-12.207,0.000,0
40094.718,-29.785,-16.602,-34.180,-13.672,0.000,0
40094.722,-15.625,-15.625,-33.691,-20.508,0.000,0
40094.725,-19.043,-14.648,-27.832,-19.531,0.000,0
40094.729,-40.527,-12.695,-20.996,-20.996,0.000,0
40094.733,-34.180,-13.184,-20.020,-21.484,0.000,0
40094.737,-22.461,-11.719,-20.020,-17.090,0.000,0
40094.741,-20.020,-8.789,-22.949,-28.320,0.000,0
40094.745,-22.461,-1.953,-22.461,-42.969,0.000,0
40094.749,-29.297,-2.441,-20.020,-42.969,0.000,0
40094.753,-17.578,0.000,-19.043,-26.855,0.000,0
40094.757,-22.461,0.488,-17.090,-19.531,0.000,0
40094.761,-31.738,-4.395,-17.578,-24.902,0.000,0
40094.764,-25.391,-3.418,-23.438,-23.438,0.000,0
40094.768,-13.672,-5.859,-20.996,-27.832,0.000,0
40094.772,-18.555,-6.348,-17.090,-23.438,0.000,0
40094.776,-27.344,-8.789,-15.625,-20.508,0.000,0
40094.780,-8.301,-12.207,-18.066,-25.879,0.000,0
40094.784,-10.254,-9.277,-18.555,-24.902,0.000,0
40094.788,-18.066,-10.254,-19.043,-32.715,0.000,0
40094.792,-3.906,-10.254,-25.879,-23.926,0.000,0
40094.796,-13.672,-12.695,-28.320,-30.273,0.000,0
40094.800,-26.855,-14.648,-21.484,-41.504,0.000,0
40094.804,-45.898,-9.766,-20.996,-35.156,0.000,0
40094.807,-41.992,-9.277,-21.973,-43.945,0.000,0
40094.811,-26.367,-6.836,-20.020,-31.738,0.000,0
40094.815,-37.109,-9.766,-23.438,-22.461,0.000,0
40094.819,-46.387,-18.555,-32.227,-33.203,0.000,0
40094.823,-24.902,-20.508,-34.180,-30.762,0.000,0
40094.827,-9.277,-20.508,-30.273,-41.016,0.000,0
40094.831,-19.531,-18.555,-22.949,-42.969,0.000,0
40094.835,-43.457,-19.531,-21.484,-25.391,0.000,0
40094.839,-38.574,-22.949,-24.414,-13.672,0.000,0
40094.843,-22.949,-19.043,-20.508,-5.371,0.000,0
40094.847,-14.160,-14.160,-20.996,-15.625,0.000,0
40094.850,-22.461,-14.160,-24.902,-21.973,0.000,0
40094.854,-19.531,-10.254,-24.414,-16.602,0.000,0
40094.858,8.301,-7.324,-23.926,-17.090,0.000,0
40094.862,-3.418,-8.789,-23.438,-9.277,0.000,0
40094.866,-30.762,-10.254,-17.578,-0.488,0.000,0
40094.870,-10.254,-10.254,-12.207,5.859,0.000,0
40094.874,-6.348,-9.277,-12.207,4.395,0.000,0
40094.878,-19.043,-8.301,-17.090,2.930,0.000,0
40094.882,-5.371,-5.371,-19.531,4.395,0.000,0
40094.886,-15.137,-8.301,-18.555,-0.977,0.000,0
40094.889,-40.527,-15.625,-26.367,-8.789,0.000,0
40094.893,-32.227,-12.207,-30.273,-8.301,0.000,0
40094.897,-13.672,-9.277,-28.320,-12.207,0.000,0
40094.901,-14.648,-9.277,-20.996,-11.719,0.000,0
40094.905,-40.527,-6.836,-23.926,-0.977,0.000,0
40094.909,-35.156,-4.883,-31.250,3.418,0.000,0
40094.913,-8.301,-7.812,-31.250,-0.488,0.000,0
40094.917,-8.301,-9.766,-27.344,1.465,0.000,0
40094.921,-10.254,-1.953,-20.020,9.766,0.000,0
40094.925,-14.160,2.930,-14.160,-0.977,0.000,0
40094.929,-11.230,-0.977,-15.625,-9.766,0.000,0
40094.932,-9.766,-6.836,-19.043,-18.066,0.000,0
40094.936,-31.738,-7.812,-21.484,-15.137,0.000,0
40094.940,-39.551,-7.324,-27.832,1.953,0.000,0
40094.944,-15.137,-10.254,-29.785,-1.953,0.000,0
40094.948,-23.926,-12.695,-27.344,-16.602,0.000,0
40094.952,-38.086,-11.719,-24.414,-15.625,0.000,0
40094.956,-24.414,-9.766,-27.832,-14.648,0.000,0
40094.960,-22.949,-12.207,-29.785,-21.973,0.000,0
40094.964,-22.949,-12.207,-25.391,-14.648,0.000,1
40094.968,-16.113,-8.789,-24.902,-12.695,0.000,0
40094.972,-22.949,-9.277,-25.879,-20.508,0.000,0
40094.975,-26.367,-13.184,-22.461,-15.625,0.000,0
40094.979,-25.879,-7.324,-21.484,-3.418,0.000,0
40094.983,-34.668,-2.441,-23.438,-4.395,0.000,0
40094.987,-28.809,-9.766,-22.949,-9.277,0.000,0
40094.991,-12.695,-13.672,-29.785,-6.348,0.000,0
40094.995,-21.484,-10.742,-32.715,-10.254,0.000,0
40094.999,-42.480,-12.207,-29.297,-18.555,0.000,0
40095.003,-17.090,-12.207,-26.855,-27.344,0.000,0
40095.007,-3.906,-10.742,-28.809,-41.504,0.000,0
40095.011,-36.621,-16.113,-37.598,-43.457,0.000,0
40095.014,-42.480,-17.090,-33.691,-39.551,0.000,0
40095.018,-26.367,-13.672,-26.367,-28.320,0.000,0
40095.022,-18.555,-20.508,-30.762,-37.109,0.000,0
40095.026,-18.555,-22.461,-30.762,-48.828,0.000,0
40095.030,-24.414,-15.137,-29.785,-34.180,0.000,0
40095.034,-16.113,-14.160,-28.809,-35.156,0.000,0
40095.038,-17.090,-19.043,-30.273,-35.645,0.000,0
40095.042,-18.066,-17.090,-32.227,-24.414,0.000,0
40095.046,-8.301,-19.043,-30.762,-36.621,0.000,0
40095.050,-8.301,-18.066,-27.344,-36.621,0.000,0
40095.054,-19.043,-14.160,-30.273,-27.344,0.000,0
40095.057,-25.879,-18.555,-36.621,-19.043,0.000,0
40095.061,-22.461,-22.461,-30.762,-20.996,0.000,0
40095.065,-22.461,-16.602,-28.809,-36.621,0.000,0
40095.069,-29.297,-12.695,-30.273,-20.996,0.000,0
40095.073,-23.438,-18.066,-31.250,-13.184,0.000,0
40095.077,-16.113,-14.648,-29.785,-26.855,0.000,0
40095.081,-8.301,-4.395,-24.414,-30.273,0.000,0
40095.085,-14.160,-9.766,-24.902,-43.457,0.000,0
40095.089,-34.180,-19.531,-28.320,-41.992,0.000,0
40095.093,-33.691,-19.043,-37.598,-29.785,0.000,0
40095.097,-12.207,-16.602,-37.109,-27.344,0.000,0
40095.100,-0.488,-14.648,-32.227,-24.414,0.000,0
40095.104,-29.297,-12.207,-25.879,-30.762,0.000,0
40095.108,-28.809,-8.789,-19.043,-28.809,0.000,0
40095.112,-17.578,-15.625,-26.855,-33.203,0.000,0
40095.116,-16.602,-19.043,-25.879,-27.344,0.000,0
40095.120,-12.207,-21.973,-23.438,-9.277,0.000,0
40095.124,-22.949,-27.832,-33.203,-34.668,0.000,0
40095.128,-34.668,-21.484,-35.156,-38.086,0.000,0
40095.132,-33.203,-17.578,-30.762,-24.414,0.000,0
40095.136,-28.320,-21.484,-27.344,-28.809,0.000,0
40095.139,-29.297,-18.555,-23.926,-24.902,0.000,0
40095.143,-25.391,-19.531,-29.785,-32.715,0.000,0
40095.147,-9.766,-19.043,-34.180,-26.855,0.000,0
40095.151,-11.230,-22.461,-31.250,-20.996,0.000,0
40095.155,-25.391,-27.832,-32.227,-29.785,0.000,0
40095.159,-39.062,-21.973,-33.691,-17.578,0.000,0
40095.163,-36.621,-20.996,-28.320,-25.879,0.000,0
40095.167,-31.738,-20.996,-27.344,-27.832,0.000,0
40095.171,-21.484,-16.602,-31.738,-11.230,0.000,0
40095.175,-12.207,-14.648,-25.391,-12.207,0.000,0
40095.179,-21.484,-14.160,-24.414,-13.672,0.000,0
40095.182,-23.926,-20.508,-28.320,-24.414,0.000,0
40095.186,-13.672,-17.578,-20.508,-21.973,0.000,0
40095.190,-14.160,-12.207,-16.602,-10.254,0.000,0
40095.194,-33.691,-18.555,-21.484,-7.812,0.000,0
40095.198,-30.273,-16.602,-24.902,-6.836,0.000,0
40095.202,-23.438,-9.766,-24.414,-15.625,0.000,0
40095.206,-39.062,-12.695,-23.926,-17.090,0.000,0
40095.210,-31.250,-13.672,-24.902,-10.742,0.000,0
40095.214,-13.672,-17.090,-25.391,-12.695,0.000,0
40095.218,-17.090,-16.602,-22.461,-16.113,0.000,0
40095.222,-29.297,-14.648,-22.949,-23.926,0.000,0
40095.225,-17.578,-18.066,-27.832,-20.996,0.000,0
40095.229,-3.418,-16.113,-21.484,-14.648,0.000,0
40095.233,-24.414,-13.672,-20.508,-17.090,0.000,0
40095.237,-41.992,-16.113,-25.391,-23.926,0.000,0
40095.241,-48.828,-20.996,-29.785,-27.832,0.000,0
40095.245,-38.574,-18.555,-32.227,-26.367,0.000,0
40095.249,-15.137,-16.602,-28.809,-32.227,0.000,0
40095.253,-21.973,-17.090,-27.832,-19.531,0.000,0
40095.257,-28.320,-19.531,-32.715,-18.066,0.000,0
40095.261,-19.043,-18.555,-27.344,-30.762,0.000,0
40095.264,-24.414,-18.066,-25.879,-32.227,0.000,0
40095.268,-28.809,-20.996,-28.809,-21.973,0.000,0
40095.272,-7.324,-18.555,-24.902,-14.648,0.000,0
40095.276,1.465,-18.066,-28.320,-17.578,0.000,0
40095.280,-21.484,-21.484,-30.273,-18.066,0.000,0
40095.284,-45.898,-20.508,-27.344,-21.484,0.000,0
40095.288,-27.832,-20.508,-22.949,-24.414,0.000,0
40095.292,-14.160,-19.531,-21.484,-24.414,0.000,0
40095.296,-28.320,-22.461,-26.855,-20.508,0.000,0
