timestamps,TP9,AF7,AF8,TP10,Right AUX,Marker0
39831.636,-58.594,-64.453,-126.465,-57.617,0.000,0
39831.639,-177.734,-99.609,-159.180,-67.871,0.000,0
39831.643,-109.863,-93.262,-150.391,-37.109,0.000,0
39831.647,-83.984,-63.477,-128.906,-28.809,0.000,0
39831.651,-85.449,-57.129,-119.141,-19.043,0.000,0
39831.655,-155.273,-67.383,-145.996,-52.734,0.000,0
39831.659,-197.266,-85.449,-172.852,-62.012,0.000,0
39831.663,-36.133,-49.316,-139.160,-37.598,0.000,0
39831.667,20.020,-18.555,-102.051,-25.879,0.000,0
39831.671,-40.527,-73.242,-123.047,-41.992,0.000,0
39831.675,-23.926,-96.680,-160.156,-31.250,0.000,0
39831.679,-51.270,-78.613,-154.785,-13.184,0.000,0
39831.682,-58.105,-66.406,-125.488,17.090,0.000,0
39831.686,-79.102,-79.590,-122.070,11.230,0.000,0
39831.690,-58.594,-96.680,-125.000,41.992,0.000,0
39831.694,4.395,-68.848,-102.539,139.648,0.000,0
39831.698,2.441,-54.199,-81.055,231.934,0.000,0
39831.702,-24.902,-71.289,-93.750,262.695,0.000,0
39831.706,-2.930,-75.684,-105.957,259.766,0.000,0
39831.710,12.207,-65.430,-86.914,270.508,0.000,0
39831.714,-37.109,-64.941,-74.707,270.020,0.000,0
39831.718,-87.402,-84.473,-92.285,238.281,0.000,0
39831.722,-69.336,-90.820,-83.008,217.285,0.000,0
39831.725,-26.855,-87.891,-80.078,217.285,0.000,0
39831.729,-24.414,-77.637,-67.383,199.707,0.000,0
39831.733,-84.473,-73.730,-56.641,167.480,0.000,0
39831.737,-59.082,-77.148,-67.871,156.738,0.000,0
39831.741,-26.855,-68.848,-65.430,140.625,0.000,0
39831.745,-30.762,-87.402,-50.781,117.676,0.000,0
39831.749,-53.711,-130.371,-68.848,70.801,0.000,0
39831.753,-79.102,-149.414,-79.102,33.203,0.000,0
39831.757,-76.660,-144.531,-74.219,41.016,0.000,0
39831.761,-40.527,-136.230,-80.566,22.461,0.000,0
39831.764,-91.797,-127.930,-80.078,37.109,0.000,0
39831.768,-121.094,-125.488,-73.730,41.992,0.000,0
39831.772,-86.914,-132.324,-78.125,2.930,0.000,0
39831.776,-81.055,-132.812,-87.891,-20.020,0.000,0
39831.780,-89.844,-132.324,-96.191,-47.852,0.000,0
39831.784,-87.402,-132.812,-109.375,-59.570,0.000,0
39831.788,-90.820,-126.465,-113.770,-49.805,0.000,0
39831.792,-145.020,-119.141,-105.469,-57.617,0.000,0
39831.796,-141.602,-111.328,-98.633,-66.406,0.000,0
39831.800,-91.309,-108.887,-87.402,-73.730,0.000,0
39831.804,-132.324,-112.305,-99.121,-91.797,0.000,0
39831.807,-146.973,-112.793,-105.957,-92.285,0.000,0
39831.811,-105.957,-111.328,-99.121,-123.047,0.000,0
39831.815,-76.660,-99.609,-89.844,-127.441,0.000,0
39831.819,-75.684,-92.285,-81.055,-109.375,0.000,0
39831.823,-105.469,-104.492,-99.121,-130.859,0.000,0
39831.827,-106.934,-106.445,-108.887,-136.719,0.000,0
39831.831,-104.004,-93.750,-95.703,-131.348,0.000,0
39831.835,-80.566,-84.961,-84.961,-164.551,0.000,0
39831.839,-55.176,-80.078,-81.543,-187.012,0.000,0
39831.843,-104.492,-82.520,-85.449,-188.477,0.000,0
39831.847,-108.887,-86.426,-92.773,-200.684,0.000,0
39831.850,-83.984,-85.449,-92.285,-211.426,0.000,0
39831.854,-94.238,-81.055,-77.637,-204.590,0.000,0
39831.858,-33.203,-71.289,-68.359,-187.500,0.000,0
39831.862,-8.789,-71.289,-68.359,-193.359,0.000,0
39831.866,-82.520,-75.195,-74.219,-189.941,0.000,0
39831.870,-77.148,-85.449,-87.891,-216.309,0.000,0
39831.874,-49.316,-86.426,-91.797,-225.586,0.000,0
39831.878,-31.250,-73.242,-81.543,-204.590,0.000,0
39831.882,-34.180,-63.965,-75.195,-187.500,0.000,0
39831.886,-49.316,-56.641,-58.594,-187.988,0.000,0
39831.889,-49.316,-74.707,-76.172,-208.008,0.000,0
39831.893,-76.172,-89.355,-97.656,-228.027,0.000,0
39831.897,-78.125,-85.938,-88.867,-230.957,0.000,0
39831.901,-45.898,-86.426,-82.520,-208.496,0.000,0
39831.905,-20.996,-76.660,-78.613,-177.734,0.000,0
39831.909,-40.527,-54.688,-66.406,-184.082,0.000,0
39831.913,-41.992,-51.758,-65.430,-211.426,0.000,0
39831.917,-42.969,-53.223,-64.453,-228.516,0.000,0
39831.921,-41.504,-45.410,-57.617,-211.914,0.000,0
39831.925,-28.809,-52.734,-78.613,-195.801,0.000,0
39831.929,-46.387,-54.199,-91.309,-209.473,0.000,0
39831.932,-66.895,-44.922,-80.078,-194.824,0.000,0
39831.936,-43.945,-42.480,-75.195,-171.875,0.000,0
39831.940,-32.227,-43.945,-69.824,-175.293,0.000,0
39831.944,-51.758,-46.387,-67.871,-174.805,0.000,0
39831.948,-23.438,-41.992,-65.918,-161.621,0.000,0
39831.952,3.418,-28.809,-57.617,-144.043,0.000,0
39831.956,-3.906,-30.273,-54.199,-137.695,0.000,0
39831.960,-39.551,-39.551,-63.965,-132.812,0.000,0
39831.964,-59.570,-39.551,-74.707,-130.859,0.000,0
39831.968,-22.461,-36.133,-72.266,-110.840,0.000,0
39831.972,-25.879,-33.691,-72.754,-78.125,0.000,0
39831.975,-16.602,-21.973,-67.871,-73.730,0.000,0
39831.979,-19.043,-23.926,-68.848,-68.359,0.000,0
39831.983,-62.500,-32.227,-72.754,-63.965,0.000,0
39831.987,-42.969,-23.926,-62.988,-63.965,0.000,0
39831.991,-11.719,-17.578,-53.711,-60.547,0.000,0
39831.995,-23.926,-24.902,-67.383,-82.031,0.000,0
39831.999,-27.344,-28.320,-80.566,-94.727,0.000,0
39832.003,-29.297,-16.113,-81.055,-79.590,0.000,0
39832.007,-52.734,-18.555,-87.891,-111.816,0.000,0
39832.011,-64.941,-30.762,-84.961,-146.484,0.000,0
39832.014,-66.406,-27.344,-75.195,-141.602,0.000,0
39832.018,-37.109,-22.949,-71.777,-148.438,0.000,0
39832.022,-11.719,-19.531,-65.430,-148.438,0.000,0
39832.026,-3.906,-14.648,-53.711,-131.836,0.000,0
39832.030,11.230,-6.348,-50.293,-120.605,0.000,0
39832.034,-6.836,-10.742,-62.012,-132.324,0.000,0
39832.038,-41.992,-21.973,-62.500,-149.902,0.000,0
39832.042,-41.016,-15.625,-47.363,-133.789,0.000,0
39832.046,-17.090,-14.648,-48.828,-119.141,0.000,0
39832.050,-10.742,-23.926,-61.035,-118.652,0.000,0
39832.054,-19.531,-27.344,-67.871,-131.836,0.000,0
39832.057,-37.598,-27.832,-69.824,-135.742,0.000,0
39832.061,-31.738,-21.484,-65.430,-106.445,0.000,0
39832.065,-16.602,-13.184,-54.688,-108.398,0.000,0
39832.069,-2.930,-0.488,-37.109,-122.070,0.000,0
39832.073,-19.043,0.977,-33.203,-125.000,0.000,0
39832.077,-34.180,-14.648,-46.387,-146.973,0.000,0
39832.081,-15.137,-17.090,-57.617,-145.020,0.000,0
39832.085,-7.812,-15.137,-62.500,-132.812,0.000,0
39832.089,-7.812,-15.625,-61.523,-131.836,0.000,0
39832.093,22.949,-12.207,-55.664,-125.000,0.000,0
39832.097,-12.207,-9.766,-62.012,-121.094,0.000,0
39832.100,-53.711,-8.789,-64.453,-125.488,0.000,0
39832.104,-35.156,-13.184,-60.059,-131.348,0.000,0
39832.108,-34.180,-19.043,-70.801,-137.695,0.000,0
39832.112,-30.273,-18.555,-80.566,-133.789,0.000,0
39832.116,0.488,-17.090,-79.590,-143.555,0.000,0
39832.120,29.785,-13.672,-82.031,-151.855,0.000,0
39832.124,-37.598,-15.625,-96.680,-153.809,0.000,0
39832.128,-62.988,-21.484,-102.051,-165.039,0.000,0
39832.132,-21.973,-23.926,-90.332,-146.973,0.000,0
39832.136,-27.832,-22.461,-79.590,-140.137,0.000,0
39832.139,-21.484,-11.230,-69.336,-126.465,0.000,0
39832.143,40.527,-3.906,-71.289,-83.496,0.000,0
39832.147,24.902,-12.207,-79.102,-94.238,0.000,0
39832.151,-61.523,-24.414,-75.195,-154.785,0.000,0
39832.155,-79.102,-35.156,-68.359,-173.828,0.000,0
39832.159,-78.125,-41.992,-67.871,-166.504,0.000,0
39832.163,-76.172,-48.340,-64.941,-190.430,0.000,0
39832.167,-65.430,-55.664,-58.105,-183.594,0.000,0
39832.171,-110.352,-54.199,-46.875,-187.500,0.000,0
39832.175,-131.348,-48.340,-35.645,-209.473,0.000,0
39832.179,-107.910,-55.664,-26.855,-200.684,0.000,0
39832.182,-115.234,-51.758,-6.348,-183.594,0.000,0
39832.186,-94.238,-44.434,5.859,-167.480,0.000,0
39832.190,-108.398,-57.617,-4.883,-187.988,0.000,0
39832.194,-126.953,-62.500,-3.906,-187.988,0.000,0
39832.198,-141.602,-63.477,-4.883,-168.945,0.000,0
39832.202,-155.762,-60.059,-5.859,-170.410,0.000,0
39832.206,-144.043,-56.152,2.441,-166.016,0.000,0
39832.210,-122.559,-56.152,3.418,-155.762,0.000,0
39832.214,-104.492,-56.152,5.859,-165.527,0.000,0
39832.218,-128.418,-50.781,4.883,-170.410,0.000,0
39832.222,-132.324,-54.688,-4.883,-162.109,0.000,0
39832.225,-103.027,-59.082,-0.488,-153.320,0.000,0
39832.229,-122.559,-48.340,11.230,-133.789,0.000,0
39832.233,-111.816,-32.715,21.484,-109.863,0.000,0
39832.237,-99.121,-36.621,13.672,-128.906,0.000,0
39832.241,-99.609,-46.875,-11.719,-150.879,0.000,0
39832.245,-125.488,-44.922,-22.949,-146.484,0.000,0
39832.249,-122.559,-46.387,-30.273,-131.348,0.000,0
39832.253,-84.961,-47.852,-36.621,-122.559,0.000,0
39832.257,-99.121,-34.180,-20.996,-145.020,0.000,0
39832.261,-127.930,-24.414,-14.160,-133.301,0.000,0
39832.264,-117.676,-22.461,-18.555,-119.141,0.000,0
39832.268,-93.750,-15.625,-14.648,-121.582,0.000,0
39832.272,-110.840,-18.555,-14.648,-110.352,0.000,0
39832.276,-110.352,-20.508,-27.344,-109.863,0.000,0
39832.280,-69.336,-18.066,-39.062,-117.188,0.000,0
39832.284,-75.195,-13.672,-33.203,-120.117,0.000,0
39832.288,-97.656,-6.836,-34.180,-111.328,0.000,0
39832.292,-73.242,-5.371,-40.527,-110.352,0.000,0
39832.296,-83.496,-12.695,-46.387,-109.375,0.000,0
39832.300,-91.309,-9.277,-41.016,-91.797,0.000,0
39832.304,-78.125,-2.441,-41.504,-92.285,0.000,0
39832.307,-71.289,-1.465,-101.562,-97.656,0.000,0
39832.311,-74.219,-3.418,-145.508,-98.145,0.000,0
39832.315,-67.871,-8.301,-138.672,-93.750,0.000,0
39832.319,-79.590,-6.836,-141.113,-82.520,0.000,0
39832.323,-103.516,-7.324,-136.719,-97.168,0.000,0
39832.327,-89.355,-10.254,-128.418,-100.098,0.000,0
39832.331,-73.730,-13.184,-131.348,-111.328,0.000,0
39832.335,-80.078,-12.207,-125.000,-120.605,0.000,0
39832.339,-61.035,-12.695,-122.559,-106.445,0.000,0
39832.343,-58.105,-13.184,-125.977,-104.004,0.000,0
39832.347,-115.723,-11.230,-112.305,-105.469,0.000,0
39832.350,-118.652,-13.184,-99.609,-110.352,0.000,0
39832.354,-96.191,-19.043,-95.215,-125.488,0.000,0
39832.358,-103.027,-24.902,-92.773,-126.465,0.000,0
39832.362,-104.492,-26.367,-82.520,-121.094,0.000,0
39832.366,-93.262,-22.949,-84.473,-118.652,0.000,0
39832.370,-63.965,-21.484,-84.473,-122.559,0.000,0
39832.374,-55.176,-24.902,-83.008,-115.723,0.000,0
39832.378,-104.004,-25.391,-85.938,-105.957,0.000,0
39832.382,-93.262,-13.184,-73.242,-104.492,0.000,0
39832.386,-58.105,-19.531,-74.219,-121.094,0.000,0
39832.389,-77.148,-29.297,-87.891,-134.277,0.000,0
39832.393,-78.613,-22.949,-84.473,-138.184,0.000,0
39832.397,-65.918,-15.137,-74.707,-133.301,0.000,0
39832.401,-55.664,-14.160,-71.289,-125.488,0.000,0
39832.405,-61.035,-13.184,-73.242,-131.348,0.000,0
39832.409,-84.473,-9.277,-72.266,-129.395,0.000,0
39832.413,-77.148,-16.113,-75.684,-145.020,0.000,0
39832.417,-64.453,-28.320,-89.355,-148.438,0.000,0
39832.421,-73.242,-26.367,-85.938,-139.160,0.000,0
39832.425,-91.309,-25.879,-77.148,-141.602,0.000,0
39832.429,-78.125,-27.832,-85.449,-132.324,0.000,0
39832.432,-87.891,-26.855,-94.238,-135.254,0.000,0
39832.436,-108.887,-21.484,-79.590,-128.906,0.000,0
39832.440,-84.961,-15.625,-73.242,-113.281,0.000,0
39832.444,-69.336,-13.672,-75.684,-104.492,0.000,0
39832.448,-60.059,-11.719,-71.289,-99.121,0.000,0
39832.452,-79.102,-15.625,-77.148,-115.723,0.000,0
39832.456,-89.355,-9.766,-76.172,-115.234,0.000,0
39832.460,-66.406,-10.742,-80.566,-96.680,0.000,0
39832.464,-67.871,-16.602,-92.285,-91.797,0.000,0
39832.468,-86.426,-14.648,-87.402,-106.934,0.000,0
39832.472,-89.844,-20.020,-83.984,-124.512,0.000,0
39832.475,-81.543,-20.020,-85.449,-111.328,0.000,0
39832.479,-79.590,-18.555,-87.891,-110.352,0.000,0
39832.483,-87.891,-20.996,-89.355,-114.258,0.000,0
39832.487,-68.359,-10.742,-80.566,-97.656,0.000,0
39832.491,-59.082,-5.859,-76.172,-93.262,0.000,0
39832.495,-67.383,-9.766,-78.613,-95.703,0.000,0
39832.499,-74.219,-7.324,-75.684,-96.680,0.000,0
39832.503,-80.566,-6.348,-76.172,-100.098,0.000,0
39832.507,-41.992,12.695,-57.617,-88.867,0.000,0
39832.511,-19.043,33.691,-36.133,-71.289,0.000,0
39832.514,-46.875,33.691,-34.180,-54.688,0.000,0
39832.518,-26.367,26.855,-34.668,-52.734,0.000,0
39832.522,-13.184,19.043,-40.527,-79.102,0.000,0
39832.526,-51.758,19.043,-48.828,-85.938,0.000,0
39832.530,-66.406,17.578,-49.316,-82.031,0.000,0
39832.534,-51.758,14.648,-47.852,-84.961,0.000,0
39832.538,-67.871,14.160,-51.758,-87.402,0.000,0
39832.542,-71.777,14.160,-55.664,-91.309,0.000,0
39832.546,-52.246,14.648,-64.453,-90.332,0.000,0
39832.550,-51.758,10.254,-67.871,-80.566,0.000,0
39832.554,-46.387,8.301,-71.777,-72.754,0.000,0
39832.557,-84.961,4.883,-68.848,-96.680,0.000,0
39832.561,-107.422,-0.977,-67.383,-115.723,0.000,0
39832.565,-90.332,-1.465,-68.848,-111.328,0.000,0
39832.569,-86.426,2.930,-67.871,-93.750,0.000,0
39832.573,-82.520,5.859,-68.848,-89.844,0.000,0
39832.577,-97.168,1.953,-65.918,-94.238,0.000,0
39832.581,-96.680,8.301,-60.059,-73.730,0.000,0
39832.585,-87.891,14.648,-56.641,-78.125,0.000,0
39832.589,-91.797,12.695,-53.711,-94.727,0.000,0
39832.593,-121.582,5.859,-65.918,-99.609,0.000,0
39832.597,-121.582,-1.465,-78.125,-102.051,0.000,0
39832.600,-115.234,-2.930,-77.637,-94.238,0.000,0
39832.604,-92.285,-3.418,-78.613,-84.473,0.000,0
39832.608,-91.309,1.953,-70.801,-96.191,0.000,0
39832.612,-134.277,1.465,-67.871,-102.051,0.000,0
39832.616,-131.348,6.836,-65.430,-79.590,0.000,0
39832.620,-88.867,7.812,-67.383,-69.336,0.000,0
39832.624,-95.703,-1.465,-86.426,-89.355,0.000,0
39832.628,-160.645,-10.254,-90.820,-102.051,0.000,0
39832.632,-178.711,-10.254,-83.496,-104.980,0.000,0
39832.636,-153.809,-4.883,-85.938,-106.445,0.000,0
39832.639,-116.699,-4.883,-87.891,-102.539,0.000,0
39832.643,-132.812,-4.883,-85.938,-89.844,0.000,0
39832.647,-167.480,-2.441,-77.148,-92.773,0.000,0
39832.651,-148.438,0.977,-68.848,-96.191,0.000,0
39832.655,-138.184,0.000,-71.777,-91.309,0.000,0
39832.659,-125.977,0.000,-75.195,-97.656,0.000,0
39832.663,-135.742,-1.953,-81.543,-104.004,0.000,0
39832.667,-156.250,-11.719,-88.867,-125.488,0.000,0
39832.671,-152.832,-17.578,-89.844,-118.164,0.000,0
39832.675,-153.809,-17.578,-87.891,-104.980,0.000,0
39832.679,-154.785,-17.090,-88.867,-106.445,0.000,0
39832.682,-138.672,-11.230,-82.520,-82.520,0.000,0
39832.686,-124.023,-4.395,-74.219,-80.566,0.000,0
39832.690,-137.207,-9.277,-79.102,-97.656,0.000,0
39832.694,-138.184,-11.230,-86.426,-90.332,0.000,0
39832.698,-118.164,-12.695,-83.496,-91.309,0.000,0
39832.702,-113.281,-13.184,-80.566,-92.773,0.000,0
39832.706,-133.789,-11.230,-75.195,-96.680,0.000,0
39832.710,-145.996,-15.137,-67.383,-102.539,0.000,0
39832.714,-139.160,-22.461,-73.730,-92.285,0.000,0
39832.718,-121.094,-24.414,-83.984,-81.055,0.000,0
39832.722,-119.629,-27.344,-83.008,-79.590,0.000,0
39832.725,-158.203,-35.156,-78.613,-110.352,0.000,0
39832.729,-165.039,-26.855,-71.777,-117.188,0.000,0
39832.733,-157.715,-20.996,-73.730,-75.684,0.000,0
39832.737,-155.762,-28.320,-81.055,-77.637,0.000,0
39832.741,-120.117,-24.902,-74.707,-83.984,0.000,0
39832.745,-109.375,-28.809,-74.707,-90.820,0.000,0
39832.749,-163.086,-34.668,-77.148,-104.492,0.000,0
39832.753,-168.457,-35.156,-77.148,-91.309,0.000,0
39832.757,-147.949,-38.086,-75.684,-83.984,0.000,0
39832.761,-139.160,-39.062,-70.801,-81.543,0.000,0
39832.764,-144.531,-33.691,-66.895,-79.102,0.000,0
39832.768,-131.348,-33.203,-65.430,-98.145,0.000,0
39832.772,-130.859,-32.715,-62.988,-93.262,0.000,0
39832.776,-132.324,-30.273,-62.988,-93.750,0.000,0
39832.780,-127.441,-30.273,-72.266,-78.613,0.000,0
39832.784,-137.207,-26.855,-72.754,-60.547,0.000,0
39832.788,-124.023,-27.832,-68.848,-83.496,0.000,0
39832.792,-115.234,-27.832,-72.754,-72.266,0.000,0
39832.796,-123.047,-23.438,-67.383,-70.312,0.000,0
39832.800,-117.676,-27.832,-68.359,-88.379,0.000,0
39832.804,-99.609,-35.645,-75.684,-87.891,0.000,0
39832.807,-117.676,-31.250,-77.148,-78.125,0.000,0
39832.811,-135.742,-25.879,-75.195,-60.547,0.000,0
39832.815,-127.930,-25.879,-71.777,-61.035,0.000,0
39832.819,-123.047,-22.949,-68.359,-55.176,0.000,0
39832.823,-124.023,-23.438,-64.453,-53.711,0.000,0
39832.827,-132.324,-28.809,-74.707,-60.547,0.000,0
39832.831,-132.324,-29.785,-81.055,-53.711,0.000,0
39832.835,-110.352,-23.438,-77.148,-50.293,0.000,0
39832.839,-121.582,-17.578,-72.754,-49.805,0.000,0
39832.843,-133.301,-23.438,-76.172,-47.852,0.000,0
39832.847,-84.473,-25.879,-79.590,-41.504,0.000,0
39832.850,-100.098,-22.461,-76.172,-43.945,0.000,0
39832.854,-130.859,-24.414,-74.707,-56.152,0.000,0
39832.858,-108.887,-24.414,-81.055,-52.734,0.000,0
39832.862,-124.023,-19.043,-82.520,-60.547,0.000,0
39832.866,-134.766,-19.531,-75.684,-65.918,0.000,0
39832.870,-118.164,-20.020,-71.289,-52.246,0.000,0
39832.874,-111.328,-20.020,-70.312,-59.570,0.000,0
39832.878,-62.012,-22.461,-71.289,-75.195,0.000,0
39832.882,-45.410,-27.344,-79.590,-77.148,0.000,0
39832.886,-154.785,-31.250,-75.195,-80.078,0.000,0
39832.889,-153.320,-32.715,-65.430,-96.680,0.000,0
39832.893,-95.703,-38.086,-70.312,-88.867,0.000,0
39832.897,-103.516,-38.086,-72.266,-76.172,0.000,0
39832.901,-102.539,-33.203,-76.660,-83.008,0.000,0
39832.905,-97.656,-32.715,-81.055,-98.633,0.000,0
39832.909,-82.031,-29.785,-73.242,-93.262,0.000,0
39832.913,-74.707,-23.926,-65.918,-69.336,0.000,0
39832.917,-75.195,-20.508,-67.871,-61.035,0.000,0
39832.921,-82.031,-20.996,-67.383,-61.523,0.000,0
39832.925,-98.633,-27.832,-72.266,-81.543,0.000,0
39832.929,-120.605,-28.320,-80.078,-97.656,0.000,0
39832.932,-122.559,-22.461,-78.125,-89.355,0.000,0
39832.936,-80.566,-19.043,-74.219,-92.285,0.000,0
39832.940,-65.918,-14.160,-67.871,-97.656,0.000,0
39832.944,-82.031,-15.625,-64.453,-95.215,0.000,0
39832.948,-78.613,-17.578,-69.824,-87.402,0.000,0
39832.952,-70.312,-20.996,-67.383,-87.891,0.000,0
39832.956,-79.590,-25.391,-65.918,-75.195,0.000,0
39832.960,-85.938,-20.508,-62.500,-66.895,0.000,0
39832.964,-62.012,-13.184,-54.688,-72.266,0.000,0
39832.968,-77.148,-19.531,-61.035,-81.055,0.000,0
39832.972,-109.863,-23.926,-72.266,-97.168,0.000,0
39832.975,-117.188,-24.902,-71.777,-85.449,0.000,0
39832.979,-97.168,-22.949,-66.895,-72.754,0.000,0
39832.983,-79.102,-21.973,-64.941,-82.031,0.000,0
39832.987,-74.707,-19.043,-60.059,-76.172,0.000,0
39832.991,-47.852,-19.531,-58.594,-67.383,0.000,0
39832.995,-80.566,-24.414,-62.500,-47.363,0.000,0
39832.999,-98.145,-26.367,-66.895,-51.758,0.000,0
39833.003,-98.145,-25.391,-68.848,-63.965,0.000,0
39833.007,-85.449,-22.949,-70.801,-57.617,0.000,0
39833.011,-75.195,-23.926,-69.824,-65.918,0.000,0
39833.014,-87.891,-27.344,-72.266,-70.312,0.000,0
39833.018,-98.145,-24.902,-68.359,-74.707,0.000,0
39833.022,-88.379,-20.508,-61.523,-83.496,0.000,0
39833.026,-58.594,-15.625,-57.129,-71.289,0.000,0
39833.030,-63.965,-14.160,-56.641,-55.664,0.000,0
39833.034,-82.031,-17.578,-62.012,-55.176,0.000,0
39833.038,-68.359,-17.578,-62.012,-65.430,0.000,0
39833.042,-77.148,-22.949,-64.453,-78.613,0.000,0
39833.046,-89.355,-28.809,-70.312,-85.938,0.000,0
39833.050,-69.336,-28.809,-73.242,-85.938,0.000,0
39833.054,-74.707,-28.320,-66.406,-77.148,0.000,0
39833.057,-81.055,-22.949,-61.523,-71.777,0.000,0
39833.061,-65.430,-20.996,-69.824,-76.660,0.000,0
39833.065,-90.332,-23.926,-71.289,-85.938,0.000,0
39833.069,-107.910,-24.902,-62.500,-81.543,0.000,0
39833.073,-83.496,-23.926,-64.941,-73.730,0.000,0
39833.077,-78.125,-22.461,-66.895,-58.105,0.000,0
39833.081,-80.078,-17.090,-62.500,-55.664,0.000,0
39833.085,-56.152,-12.207,-61.035,-45.898,0.000,0
39833.089,-55.664,-10.742,-62.500,-47.363,0.000,0
39833.093,-101.562,-16.602,-65.430,-62.012,0.000,0
39833.097,-100.586,-20.996,-64.453,-55.664,0.000,0
39833.100,-93.262,-18.066,-65.430,-66.406,0.000,0
39833.104,-81.055,-13.184,-68.848,-59.082,0.000,0
39833.108,-74.219,-14.648,-66.895,-43.945,0.000,0
39833.112,-110.352,-20.020,-66.895,-60.059,0.000,0
39833.116,-108.398,-17.090,-68.359,-62.012,0.000,0
39833.120,-95.215,-15.137,-67.383,-59.082,0.000,0
39833.124,-91.309,-14.160,-63.477,-58.105,0.000,0
39833.128,-74.219,-14.160,-68.359,-56.152,0.000,0
39833.132,-56.641,-15.137,-72.266,-39.551,0.000,0
39833.136,-76.172,-17.578,-66.406,-35.156,0.000,0
39833.139,-114.258,-17.090,-64.941,-59.082,0.000,0
39833.143,-105.957,-14.648,-64.453,-60.547,0.000,0
39833.147,-73.242,-22.461,-61.035,-49.805,0.000,0
39833.151,-60.547,-21.973,-57.617,-54.688,0.000,0
39833.155,-81.543,-17.090,-59.570,-49.316,0.000,0
39833.159,-73.730,-20.508,-60.059,-41.992,0.000,0
39833.163,-74.219,-21.973,-62.500,-45.410,0.000,0
39833.167,-81.055,-19.531,-58.105,-42.969,0.000,0
39833.171,-74.707,-16.113,-52.246,-34.668,0.000,0
39833.175,-41.016,-12.207,-57.617,-33.691,0.000,0
39833.179,-30.273,-9.277,-56.152,-39.062,0.000,0
39833.182,-71.289,-11.230,-54.688,-43.945,0.000,0
39833.186,-90.820,-9.766,-56.152,-29.297,0.000,0
39833.190,-73.730,-10.742,-57.129,-30.762,0.000,0
39833.194,-60.059,-11.230,-61.035,-40.039,0.000,0
39833.198,-68.848,-8.301,-59.570,-32.715,0.000,0
39833.202,-82.520,-10.742,-58.594,-30.273,0.000,0
39833.206,-73.730,-10.254,-56.641,-33.691,0.000,0
39833.210,-53.711,-9.766,-53.223,-25.391,0.000,0
39833.214,-55.664,-14.160,-58.594,-32.715,0.000,0
39833.218,-82.031,-17.578,-63.477,-41.992,0.000,0
39833.222,-73.730,-13.184,-62.500,-22.461,0.000,0
39833.225,-63.477,-13.184,-62.012,-23.926,0.000,0
39833.229,-86.426,-14.160,-63.477,-41.016,0.000,0
39833.233,-75.195,-7.812,-58.105,-33.691,0.000,0
39833.237,-59.082,-9.766,-60.547,-30.762,0.000,0
39833.241,-57.129,-7.812,-55.664,-28.809,0.000,0
39833.245,-28.809,1.465,-51.270,-5.859,0.000,0
39833.249,-61.035,-5.859,-64.941,-6.348,0.000,0
39833.253,-83.496,-9.766,-59.570,-9.766,0.000,0
39833.257,-68.359,-5.371,-53.223,-14.648,0.000,0
39833.261,-73.730,-9.766,-56.152,-21.973,0.000,0
39833.264,-37.598,-10.254,-54.199,-18.066,0.000,0
39833.268,-49.805,-12.207,-55.664,-24.414,0.000,0
39833.272,-70.312,-19.043,-62.988,-14.160,0.000,0
39833.276,-68.848,-17.090,-63.477,-12.695,0.000,0
39833.280,-64.941,-10.254,-59.570,-21.973,0.000,0
39833.284,-65.918,-9.277,-64.453,-11.719,0.000,0
39833.288,-48.828,-5.859,-66.406,-3.418,0.000,0
39833.292,-41.016,1.953,-66.895,-4.883,0.000,0
39833.296,-77.148,1.953,-66.895,-12.695,0.000,0
39833.300,-92.285,-2.930,-64.453,-29.785,0.000,0
39833.304,-93.262,2.930,-60.059,-30.273,0.000,0
39833.307,-68.848,3.418,-57.617,-27.832,0.000,0
39833.311,-62.988,-5.859,-58.594,-25.879,0.000,0
39833.315,-75.684,-0.488,-56.152,-12.695,0.000,0
39833.319,-60.059,0.000,-50.293,1.953,0.000,0
39833.323,-74.707,-5.371,-56.641,-5.371,0.000,0
39833.327,-86.914,-1.465,-61.035,-29.297,0.000,0
39833.331,-75.195,-1.465,-55.176,-26.367,0.000,0
39833.335,-78.125,-1.465,-48.828,-28.320,0.000,0
39833.339,-81.055,2.930,-50.781,-36.133,0.000,0
39833.343,-102.051,3.418,-52.734,-22.461,0.000,0
39833.347,-128.906,0.977,-52.734,-22.949,0.000,0
39833.350,-120.605,0.488,-54.688,-22.949,0.000,0
39833.354,-94.727,3.418,-47.852,-17.578,0.000,0
39833.358,-96.680,2.441,-46.875,-23.926,0.000,0
39833.362,-101.562,-2.930,-50.293,-16.113,0.000,0
39833.366,-112.305,0.000,-41.016,-7.324,0.000,0
39833.370,-121.094,6.348,-40.039,-10.254,0.000,0
39833.374,-115.234,10.742,-40.527,-16.113,0.000,0
39833.378,-121.582,13.184,-38.086,-29.785,0.000,0
39833.382,-128.418,14.160,-43.457,-26.855,0.000,0
39833.386,-129.395,7.812,-36.133,-25.879,0.000,0
39833.389,-151.855,1.953,-40.527,-27.832,0.000,0
39833.393,-171.387,2.930,-45.898,-29.785,0.000,0
39833.397,-169.434,0.000,-36.621,-41.992,0.000,0
39833.401,-153.809,0.488,-34.668,-40.527,0.000,0
39833.405,-137.207,-0.977,-40.039,-19.043,0.000,0
39833.409,-138.184,-1.465,-42.480,1.465,0.000,0
39833.413,-132.812,-3.418,-42.480,5.859,0.000,0
39833.417,-115.234,-13.672,-52.734,-3.906,0.000,0
39833.421,-139.160,-18.555,-58.594,-7.812,0.000,0
39833.425,-169.922,-16.602,-53.711,-11.230,0.000,0
39833.429,-147.461,-14.160,-48.828,-7.812,0.000,0
39833.432,-116.699,-4.395,-30.762,-15.625,0.000,0
39833.436,-141.113,-0.488,-26.367,-31.738,0.000,0
39833.440,-145.020,-9.277,-52.246,-33.203,0.000,0
39833.444,-123.047,-12.207,-55.664,-23.438,0.000,0
39833.448,-113.281,-3.906,-41.992,-9.277,0.000,0
39833.452,-88.867,8.789,-34.668,2.930,0.000,0
39833.456,-90.820,12.695,-25.879,0.488,0.000,0
39833.460,-112.793,2.930,-32.227,7.324,0.000,0
39833.464,-89.844,6.836,-41.016,17.090,0.000,0
39833.468,-90.820,9.766,-36.621,12.207,0.000,0
39833.472,-105.469,2.930,-41.504,10.254,0.000,0
39833.475,-77.148,5.371,-43.457,12.695,0.000,0
39833.479,-61.035,12.695,-28.320,6.348,0.000,0
39833.483,-62.500,13.672,-22.461,9.277,0.000,0
39833.487,28.809,18.066,-23.926,29.297,0.000,0
39833.491,133.301,9.766,-38.574,17.090,0.000,0
39833.495,148.926,0.000,-48.828,0.488,0.000,0
39833.499,165.527,11.230,-36.133,21.973,0.000,0
39833.503,199.707,20.996,-27.832,32.715,0.000,0
39833.507,212.891,19.043,-33.203,20.996,0.000,0
39833.511,199.219,16.113,-31.738,10.254,0.000,0
39833.514,198.242,18.555,-21.973,10.254,0.000,0
39833.518,208.496,14.648,-28.320,5.371,0.000,0
39833.522,203.125,6.836,-35.645,-0.977,0.000,0
39833.526,188.965,8.301,-32.227,2.930,0.000,0
39833.530,187.988,6.348,-36.133,-2.441,0.000,0
39833.534,190.430,2.930,-36.621,-14.648,0.000,0
39833.538,178.711,6.836,-37.109,-3.906,0.000,0
39833.542,162.109,-0.488,-42.480,-8.301,0.000,0
39833.546,149.902,-12.207,-39.551,-20.020,0.000,0
39833.550,145.020,-11.719,-37.598,-21.973,0.000,0
39833.554,136.230,-11.719,-38.574,-25.879,0.000,0
39833.557,106.934,-14.648,-38.086,-27.832,0.000,0
39833.561,114.746,-9.277,-34.180,-5.859,0.000,0
39833.565,140.137,-5.371,-36.621,8.301,0.000,0
39833.569,119.141,-12.207,-46.875,-10.254,0.000,0
39833.573,92.285,-9.766,-35.156,-17.090,0.000,0
39833.577,66.406,-9.277,-30.762,-17.578,0.000,0
39833.581,65.430,-16.602,-45.410,-24.414,0.000,0
39833.585,74.219,-15.625,-35.156,-10.742,0.000,0
39833.589,62.012,-17.090,-32.227,1.465,0.000,0
39833.593,91.797,-12.207,-36.133,-7.324,0.000,0
39833.597,97.656,-6.348,-32.227,-8.301,0.000,0
39833.600,74.707,-7.324,-34.180,1.465,0.000,0
39833.604,91.797,-5.859,-29.785,0.000,0.000,0
39833.608,54.199,-3.906,-23.926,-12.207,0.000,0
39833.612,51.270,8.301,-15.137,5.371,0.000,0
39833.616,92.285,20.508,-7.812,37.598,0.000,0
39833.620,94.238,24.902,-6.348,50.781,0.000,0
39833.624,70.801,11.719,-15.625,37.109,0.000,0
39833.628,87.402,3.906,-21.484,25.879,0.000,0
39833.632,73.730,3.418,-24.414,10.254,0.000,0
39833.636,34.180,-2.930,-30.273,0.000,0.000,0
39833.639,60.059,2.441,-24.902,17.578,0.000,0
39833.643,45.898,1.465,-24.414,14.160,0.000,0
39833.647,32.715,-4.395,-32.715,8.789,0.000,0
39833.651,42.480,-6.348,-31.738,7.812,0.000,0
39833.655,46.875,0.488,-21.484,18.555,0.000,0
39833.659,48.828,4.883,-18.555,21.484,0.000,0
39833.663,31.738,0.000,-25.391,9.277,0.000,0
39833.667,34.180,0.977,-32.715,23.438,0.000,0
39833.671,46.875,7.324,-26.855,19.531,0.000,0
39833.675,23.926,6.836,-22.461,10.742,0.000,0
39833.679,12.695,8.301,-26.855,15.625,0.000,0
39833.682,32.715,6.348,-26.855,9.277,0.000,0
39833.686,38.086,3.418,-31.250,21.973,0.000,0
39833.690,22.461,3.418,-33.203,21.973,0.000,0
39833.694,23.438,5.371,-27.832,11.230,0.000,0
39833.698,19.531,6.836,-28.809,14.160,0.000,0
39833.702,27.832,-1.953,-45.898,25.879,0.000,0
39833.706,53.711,0.000,-46.875,41.992,0.000,0
39833.710,19.043,6.348,-35.156,19.043,0.000,0
39833.714,-11.719,3.418,-31.738,5.859,0.000,0
39833.718,4.883,3.906,-34.668,21.484,0.000,0
39833.722,19.531,7.324,-36.621,25.391,0.000,0
39833.725,35.645,5.371,-37.598,23.438,0.000,0
39833.729,49.805,7.812,-33.203,20.996,0.000,0
39833.733,36.133,5.859,-34.180,20.996,0.000,0
39833.737,27.832,5.371,-33.203,33.691,0.000,0
39833.741,36.621,2.930,-38.574,35.645,0.000,0
39833.745,56.641,0.488,-44.434,36.133,0.000,0
39833.749,36.133,-4.883,-32.715,18.555,0.000,0
39833.753,5.371,-7.812,-30.273,15.625,0.000,0
39833.757,32.227,0.977,-30.762,40.527,0.000,0
39833.761,44.922,-1.465,-33.203,32.715,0.000,0
39833.764,20.020,-9.277,-38.086,20.508,0.000,0
39833.768,2.930,-9.277,-39.062,13.184,0.000,0
39833.772,17.090,-10.254,-38.086,2.441,0.000,0
39833.776,34.668,-11.719,-30.762,9.277,0.000,0
39833.780,25.391,-6.836,-26.855,24.902,0.000,0
39833.784,24.414,-7.812,-34.668,8.301,0.000,0
39833.788,19.531,-12.695,-41.992,-5.859,0.000,0
39833.792,24.902,-16.602,-40.527,8.789,0.000,0
39833.796,26.855,-19.043,-41.504,4.883,0.000,0
39833.800,2.930,-21.973,-41.992,-20.020,0.000,0
39833.804,-4.883,-20.508,-39.062,-6.836,0.000,0
39833.807,13.672,-13.184,-35.156,5.859,0.000,0
39833.811,-8.789,-19.531,-40.527,0.000,0.000,0
39833.815,-20.020,-22.949,-36.621,8.301,0.000,0
39833.819,-20.508,-18.555,-25.879,0.000,0.000,0
39833.823,7.324,-20.508,-30.762,-21.484,0.000,0
39833.827,-7.324,-24.902,-33.203,-23.926,0.000,0
39833.831,-48.828,-28.320,-37.109,-13.184,0.000,0
39833.835,-26.367,-26.367,-41.016,0.977,0.000,0
39833.839,-18.555,-25.391,-40.527,-6.836,0.000,0
39833.843,-22.949,-28.809,-41.992,-6.836,0.000,0
39833.847,-14.160,-25.879,-45.898,10.254,0.000,0
39833.850,-9.766,-29.297,-48.340,7.324,0.000,0
39833.854,-15.137,-27.344,-42.969,5.859,0.000,0
39833.858,-18.555,-23.926,-40.527,8.301,0.000,0
39833.862,-8.301,-26.855,-38.086,7.812,0.000,0
39833.866,-3.418,-25.879,-32.227,8.789,0.000,0
39833.870,-9.277,-27.344,-35.645,1.953,0.000,0
39833.874,-39.551,-30.762,-35.156,-9.277,0.000,0
39833.878,-32.715,-33.691,-32.715,-5.859,0.000,0
39833.882,-0.977,-29.785,-39.062,9.277,0.000,0
39833.886,-25.391,-27.832,-43.945,0.977,0.000,0
39833.889,-50.781,-34.180,-50.781,-7.812,0.000,0
39833.893,-36.621,-42.480,-53.711,4.395,0.000,0
39833.897,-23.926,-34.180,-41.504,9.766,0.000,0
39833.901,-38.086,-31.738,-38.086,-2.930,0.000,0
39833.905,-42.969,-34.668,-43.945,4.883,0.000,0
39833.909,-33.203,-34.180,-45.410,-4.883,0.000,0
39833.913,-14.160,-35.156,-44.434,-4.395,0.000,1
39833.917,-6.836,-33.203,-44.434,24.414,0.000,0
39833.921,-34.180,-34.668,-46.875,25.879,0.000,0
39833.925,-49.316,-37.109,-47.852,8.301,0.000,0
39833.929,-56.152,-42.480,-43.945,-4.883,0.000,0
39833.932,-48.340,-39.062,-42.969,4.395,0.000,0
39833.936,-40.039,-41.992,-46.875,-2.930,0.000,0
39833.940,-52.246,-46.875,-48.828,-10.742,0.000,0
39833.944,-60.059,-38.086,-45.898,-7.812,0.000,0
39833.948,-62.988,-39.062,-44.922,-24.902,0.000,0
39833.952,-56.152,-39.551,-48.340,-25.391,0.000,0
39833.956,-34.668,-31.738,-44.434,8.789,0.000,0
39833.960,-37.598,-28.809,-41.504,2.441,0.000,0
39833.964,-63.477,-30.273,-45.898,-22.461,0.000,0
39833.968,-59.082,-30.273,-44.922,-21.973,0.000,0
39833.972,-32.227,-24.902,-43.457,-23.438,0.000,0
39833.975,-40.527,-23.438,-45.898,-19.531,0.000,0
39833.979,-47.363,-25.391,-44.922,7.812,0.000,0
39833.983,-51.758,-32.227,-52.246,6.348,0.000,0
39833.987,-81.055,-35.156,-50.781,-37.109,0.000,0
39833.991,-69.824,-30.762,-40.527,-29.785,0.000,0
39833.995,-56.152,-31.250,-43.945,-12.207,0.000,0
39833.999,-77.148,-33.203,-46.875,-25.879,0.000,0
39834.003,-69.824,-29.785,-46.387,-25.879,0.000,0
39834.007,-49.805,-32.227,-44.922,-28.809,0.000,0
39834.011,-37.598,-32.715,-51.270,-29.297,0.000,0
39834.014,-65.918,-29.785,-53.711,-29.785,0.000,0
39834.018,-85.449,-28.809,-46.875,-27.344,0.000,0
39834.022,-49.805,-27.344,-48.340,-15.625,0.000,0
39834.026,-31.250,-25.879,-46.875,-32.715,0.000,0
39834.030,-33.203,-24.902,-41.016,-22.949,0.000,0
39834.034,-19.043,-26.367,-40.039,-15.625,0.000,0
39834.038,-16.602,-28.809,-38.086,-40.527,0.000,0
39834.042,-41.504,-35.645,-40.039,-48.828,0.000,0
39834.046,-69.824,-43.945,-51.758,-62.012,0.000,0
39834.050,-50.293,-37.109,-59.082,-51.270,0.000,0
39834.054,-60.059,-39.062,-56.641,-37.109,0.000,0
39834.057,-60.059,-37.598,-50.781,-24.902,0.000,0
39834.061,-36.621,-37.598,-50.781,-22.461,0.000,0
39834.065,-40.527,-49.316,-49.805,-41.992,0.000,0
39834.069,-42.969,-44.434,-45.898,-40.039,0.000,0
39834.073,-51.758,-41.016,-46.387,-19.043,0.000,0
39834.077,-51.758,-42.969,-49.805,-15.137,0.000,0
39834.081,-43.945,-37.109,-49.316,-28.320,0.000,0
39834.085,-45.410,-42.480,-52.246,-45.410,0.000,0
39834.089,-47.363,-57.129,-64.453,-50.781,0.000,0
39834.093,-62.012,-58.594,-67.871,-45.898,0.000,0
39834.097,-95.703,-55.176,-59.082,-51.270,0.000,0
39834.100,-75.684,-49.316,-47.363,-49.316,0.000,0
39834.104,-51.270,-47.363,-45.410,-35.645,0.000,0
39834.108,-73.730,-54.199,-47.852,-29.785,0.000,0
39834.112,-81.055,-49.805,-51.270,-20.996,0.000,0
39834.116,-78.613,-49.316,-57.617,-37.598,0.000,0
39834.120,-70.801,-52.734,-62.012,-58.105,0.000,0
39834.124,-58.594,-52.246,-66.406,-53.223,0.000,0
39834.128,-45.410,-45.410,-65.430,-51.758,0.000,0
39834.132,-52.246,-38.574,-62.500,-41.992,0.000,0
39834.136,-43.457,-40.039,-62.500,-31.738,0.000,0
39834.139,-42.969,-42.969,-58.105,-50.781,0.000,0
39834.143,-60.059,-51.270,-65.918,-67.871,0.000,0
39834.147,-51.758,-42.969,-61.523,-42.480,0.000,0
39834.151,-22.949,-29.297,-45.410,0.000,0.000,0
39834.155,9.766,-33.691,-52.734,11.230,0.000,0
39834.159,-19.043,-46.387,-75.195,-30.762,0.000,0
39834.163,-42.969,-37.598,-67.871,-18.066,0.000,0
39834.167,-29.297,-19.531,-47.852,17.090,0.000,0
39834.171,-15.625,-19.531,-51.270,-10.742,0.000,0
39834.175,-13.184,-30.273,-56.152,-32.227,0.000,0
39834.179,-30.273,-41.504,-64.941,-22.461,0.000,0
39834.182,-49.316,-43.457,-59.082,-44.434,0.000,0
39834.186,-44.922,-34.668,-53.711,-46.875,0.000,0
39834.190,-23.926,-37.598,-63.965,-35.156,0.000,0
39834.194,-4.883,-41.016,-58.105,-34.180,0.000,0
39834.198,14.160,-24.414,-45.898,2.441,0.000,0
39834.202,-20.020,-24.902,-49.805,-21.484,0.000,0
39834.206,-45.898,-36.621,-56.152,-51.270,0.000,0
39834.210,-36.621,-29.297,-50.293,-8.789,0.000,0
39834.214,-37.109,-23.926,-49.316,-0.488,0.000,0
39834.218,-55.664,-30.273,-51.758,-36.133,0.000,0
39834.222,-18.555,-29.297,-54.199,-19.531,0.000,0
39834.225,18.066,-18.555,-46.875,-9.766,0.000,0
39834.229,-56.152,-16.113,-33.203,-18.066,0.000,0
39834.233,-44.434,-17.578,-37.598,20.996,0.000,0
39834.237,30.273,-8.301,-41.504,34.668,0.000,0
39834.241,33.691,-5.371,-39.062,8.789,0.000,0
39834.245,-7.812,-20.508,-46.875,-24.902,0.000,0
39834.249,-12.695,-22.461,-54.199,-22.461,0.000,0
39834.253,16.113,-10.742,-52.246,14.160,0.000,0
39834.257,4.395,-9.277,-43.457,10.254,0.000,0
39834.261,6.348,-4.883,-44.434,13.672,0.000,0
39834.264,12.207,-11.230,-59.570,1.953,0.000,0
39834.268,-14.648,-25.879,-58.594,-18.066,0.000,0
39834.272,-15.625,-18.555,-46.875,0.488,0.000,0
39834.276,17.090,-2.930,-41.016,14.648,0.000,0
39834.280,-1.953,-1.953,-44.434,7.812,0.000,0
39834.284,-27.832,-14.648,-50.781,-15.625,0.000,0
39834.288,-13.184,-8.301,-48.828,-2.930,0.000,0
39834.292,-11.719,-8.301,-50.781,5.371,0.000,0
39834.296,-14.160,-22.461,-58.594,-20.020,0.000,0
39834.300,-40.527,-14.648,-59.082,-19.531,0.000,0
39834.304,-49.316,-16.113,-50.293,-28.809,0.000,0
39834.307,-14.648,-14.648,-48.340,-14.648,0.000,0
39834.311,-13.184,-14.160,-50.293,-8.301,0.000,0
39834.315,-23.438,-33.691,-58.594,-56.641,0.000,0
39834.319,-15.137,-21.484,-55.176,-44.434,0.000,0
39834.323,-23.438,-10.254,-46.387,-24.902,0.000,0
39834.327,-57.129,-30.273,-47.852,-69.824,0.000,0
39834.331,-60.059,-37.109,-49.805,-84.961,0.000,0
39834.335,-40.527,-36.621,-53.223,-56.641,0.000,0
39834.339,-41.992,-17.578,-42.969,-2.930,0.000,0
39834.343,-40.527,-17.090,-42.969,-6.836,0.000,0
39834.347,-50.293,-32.227,-48.340,-52.246,0.000,0
39834.350,-58.594,-28.809,-45.410,-48.340,0.000,0
39834.354,-60.547,-29.785,-54.199,-28.809,0.000,0
39834.358,-32.227,-27.832,-52.246,-32.715,0.000,0
39834.362,-12.695,-26.855,-42.969,-34.180,0.000,0
39834.366,-38.086,-33.691,-39.062,-33.203,0.000,0
39834.370,-20.508,-28.809,-46.875,-4.883,0.000,0
39834.374,5.371,-22.949,-52.734,21.973,0.000,0
39834.378,-36.621,-41.992,-48.828,-41.992,0.000,0
39834.382,-13.184,-37.598,-49.316,-48.828,0.000,0
39834.386,-3.906,-28.320,-62.012,-21.973,0.000,0
39834.389,-33.691,-29.785,-60.547,-23.926,0.000,0
39834.393,-23.926,-27.832,-47.363,-13.672,0.000,0
39834.397,-43.457,-29.785,-47.852,-19.043,0.000,0
39834.401,-53.223,-32.715,-48.828,-37.109,0.000,0
39834.405,-20.996,-21.484,-45.410,-20.020,0.000,0
39834.409,-28.809,-20.508,-48.828,-1.953,0.000,0
39834.413,-58.594,-33.691,-53.223,-0.488,0.000,0
39834.417,-55.664,-39.551,-56.152,-27.832,0.000,0
39834.421,-77.148,-41.504,-55.664,-63.477,0.000,0
39834.425,-66.406,-28.320,-51.270,-27.832,0.000,0
39834.429,-65.918,-29.297,-52.734,-24.414,0.000,0
39834.432,-70.312,-45.898,-59.570,-54.199,0.000,0
39834.436,-67.871,-49.805,-71.777,-51.270,0.000,0
39834.440,-64.453,-45.410,-69.336,-36.133,0.000,0
39834.444,-37.598,-39.062,-53.223,-57.617,0.000,0
39834.448,-40.527,-39.062,-51.270,-54.199,0.000,0
39834.452,-61.523,-39.551,-48.828,-34.180,0.000,0
39834.456,-61.523,-36.133,-48.828,-40.527,0.000,0
39834.460,-52.246,-39.551,-59.570,-39.062,0.000,0
39834.464,-47.852,-35.645,-64.453,-43.945,0.000,0
39834.468,-32.227,-28.320,-58.105,-46.387,0.000,0
39834.472,-24.414,-26.855,-56.152,-31.738,0.000,0
39834.475,-39.551,-32.227,-63.965,-46.387,0.000,0
39834.479,-25.879,-28.320,-64.453,-58.594,0.000,0
39834.483,-37.598,-27.344,-60.547,-64.453,0.000,0
39834.487,-66.895,-43.457,-62.012,-70.312,0.000,0
39834.491,-44.434,-47.363,-71.777,-54.199,0.000,0
39834.495,7.812,-30.762,-63.965,-48.828,0.000,0
39834.499,-16.113,-27.344,-57.129,-65.918,0.000,2
39834.503,-69.336,-38.086,-60.059,-87.891,0.000,0
39834.507,-47.363,-32.715,-57.617,-82.520,0.000,0
39834.511,-38.086,-26.367,-52.246,-66.406,0.000,0
39834.514,-31.250,-21.484,-48.340,-50.293,0.000,0
39834.518,-17.090,-22.461,-54.199,-49.805,0.000,0
39834.522,-6.348,-24.414,-55.176,-50.781,0.000,0
39834.526,-13.672,-24.902,-51.270,-58.105,0.000,0
39834.530,-23.438,-27.832,-55.176,-56.152,0.000,0
39834.534,-27.344,-30.762,-56.641,-39.551,0.000,0
39834.538,-21.484,-31.250,-54.688,-33.691,0.000,0
39834.542,-15.137,-26.367,-54.688,-40.039,0.000,0
39834.546,-19.043,-25.391,-52.246,-42.969,0.000,0
39834.550,-16.113,-30.762,-54.688,-44.434,0.000,0
39834.554,-4.395,-28.809,-52.246,-48.340,0.000,0
39834.557,-13.184,-25.879,-48.828,-55.664,0.000,0
39834.561,-24.414,-25.391,-48.828,-39.551,0.000,0
39834.565,-4.883,-18.066,-49.805,-22.949,0.000,0
39834.569,6.836,-19.531,-52.246,-47.852,0.000,0
39834.573,8.789,-22.461,-49.316,-59.570,0.000,0
39834.577,-34.668,-21.484,-49.316,-45.898,0.000,0
39834.581,-46.387,-18.555,-45.898,-36.621,0.000,0
39834.585,-5.859,-19.531,-46.387,-25.391,0.000,0
39834.589,-6.348,-22.461,-49.805,-30.762,0.000,0
39834.593,-4.395,-19.531,-45.898,-27.344,0.000,0
39834.597,-12.207,-28.320,-51.758,-28.809,0.000,0
39834.600,-7.324,-34.180,-53.223,-50.293,0.000,0
39834.604,-9.277,-25.391,-51.758,-41.016,0.000,0
39834.608,-44.922,-21.973,-52.734,-36.133,0.000,0
39834.612,-30.762,-22.949,-53.223,-32.227,0.000,0
39834.616,3.418,-20.508,-57.617,-22.949,0.000,0
39834.620,-5.371,-17.090,-47.852,-26.367,0.000,0
39834.624,-44.434,-20.508,-41.992,-32.227,0.000,0
39834.628,-41.992,-28.320,-47.852,-22.949,0.000,0
39834.632,-20.508,-35.156,-51.270,-21.484,0.000,0
39834.636,-19.531,-30.273,-49.805,-22.461,0.000,0
39834.639,-34.180,-19.531,-40.527,-8.789,0.000,0
39834.643,-19.531,-19.531,-41.016,-3.418,0.000,0
39834.647,-6.348,-15.137,-44.922,2.930,0.000,0
39834.651,-28.809,-7.812,-37.598,10.742,0.000,0
39834.655,-42.969,-10.742,-32.715,23.926,0.000,0
39834.659,-23.438,-11.230,-30.273,8.301,0.000,0
39834.663,-13.672,-11.719,-26.855,4.395,0.000,0
39834.667,-22.949,-14.160,-23.926,23.438,0.000,0
39834.671,-20.508,-16.113,-24.414,21.973,0.000,0
39834.675,-31.250,-18.066,-29.785,18.555,0.000,0
39834.679,-35.645,-19.043,-37.109,20.996,0.000,0
39834.682,-27.832,-22.461,-41.504,12.207,0.000,0
39834.686,-53.711,-21.973,-37.109,4.883,0.000,0
39834.690,-60.059,-19.043,-39.551,3.418,0.000,0
39834.694,-28.320,-11.719,-42.480,4.395,0.000,0
39834.698,-36.621,-20.020,-41.504,-11.230,0.000,0
39834.702,-86.426,-27.832,-38.086,-18.555,0.000,0
39834.706,-72.754,-21.484,-34.668,-6.836,0.000,0
39834.710,-50.293,-21.484,-40.527,-4.395,0.000,0
39834.714,-49.316,-19.531,-37.109,4.883,0.000,0
39834.718,-30.762,-14.160,-29.297,4.883,0.000,0
39834.722,-34.668,-14.648,-30.273,-2.441,0.000,0
39834.725,-51.758,-11.719,-27.832,0.977,0.000,0
39834.729,-57.617,-7.812,-23.926,7.324,0.000,0
39834.733,-23.926,-6.836,-25.391,15.137,0.000,0
39834.737,-12.207,-4.395,-23.438,10.254,0.000,0
39834.741,-41.504,-1.953,-19.531,16.113,0.000,0
39834.745,-44.922,7.324,-14.160,28.320,0.000,0
39834.749,-35.645,10.742,-16.602,11.230,0.000,0
39834.753,-25.391,3.906,-24.902,5.859,0.000,0
39834.757,-46.387,2.441,-22.461,4.395,0.000,0
39834.761,-53.711,5.859,-20.508,0.000,0.000,0
39834.764,-25.391,8.789,-19.531,17.578,0.000,0
39834.768,-11.230,15.625,-12.207,29.297,0.000,0
39834.772,-7.324,15.137,-17.090,24.414,0.000,0
39834.776,-16.602,8.789,-22.461,8.301,0.000,0
39834.780,-33.203,7.324,-19.043,-3.906,0.000,0
39834.784,-39.062,7.324,-22.949,1.465,0.000,0
39834.788,-28.809,5.859,-28.809,8.789,0.000,0
39834.792,-50.293,5.859,-27.344,24.414,0.000,0
39834.796,-58.594,13.672,-25.391,32.715,0.000,0
39834.800,-50.781,6.348,-37.109,4.395,0.000,0
39834.804,-47.363,-0.977,-38.574,1.953,0.000,0
39834.807,-28.809,1.465,-31.738,13.184,0.000,0
39834.811,-44.434,0.488,-30.273,25.879,0.000,0
39834.815,-62.012,0.488,-27.344,29.785,0.000,0
39834.819,-41.504,1.465,-23.926,12.207,0.000,0
39834.823,-53.223,-0.488,-21.484,0.000,0.000,0
39834.827,-79.590,-4.395,-26.367,-1.465,0.000,0
39834.831,-81.543,-3.906,-28.809,17.578,0.000,0
39834.835,-68.848,0.488,-28.809,26.855,0.000,0
39834.839,-50.293,-0.488,-36.133,21.973,0.000,0
39834.843,-56.641,-3.906,-39.062,16.602,0.000,0
39834.847,-91.797,-4.883,-37.109,17.578,0.000,0
39834.850,-104.980,-3.418,-35.156,20.996,0.000,0
39834.854,-76.660,-7.324,-35.156,25.879,0.000,0
39834.858,-64.453,-10.254,-30.762,16.602,0.000,0
39834.862,-62.012,-9.277,-26.855,9.766,0.000,0
39834.866,-58.105,-6.836,-26.367,25.391,0.000,0
39834.870,-47.852,-3.418,-30.273,27.344,0.000,0
39834.874,-52.246,-3.906,-35.645,16.602,0.000,0
39834.878,-59.082,-10.254,-37.598,10.742,0.000,0
39834.882,-47.852,-9.766,-36.621,18.555,0.000,0
39834.886,-51.270,-3.418,-25.879,13.672,0.000,0
39834.889,-63.477,-5.859,-25.391,-2.441,0.000,0
39834.893,-64.941,-10.742,-31.250,-1.465,0.000,0
39834.897,-48.828,-8.789,-28.809,-3.418,0.000,0
39834.901,-33.691,-6.348,-27.832,1.465,0.000,0
39834.905,-28.320,-8.789,-34.180,5.859,0.000,0
39834.909,-27.344,-5.371,-38.086,5.371,0.000,0
39834.913,-42.969,-0.977,-29.297,12.207,0.000,0
39834.917,-49.805,-6.836,-27.832,-5.371,0.000,0
39834.921,-50.293,-12.207,-31.738,-8.301,0.000,0
39834.925,-37.598,-19.043,-37.598,-5.371,0.000,0
39834.929,-25.879,-20.508,-35.156,-4.395,0.000,0
39834.932,-4.395,-14.648,-34.180,3.906,0.000,0
39834.936,-45.410,-10.254,-35.645,-16.602,0.000,0
39834.940,-68.848,-4.883,-29.297,-17.578,0.000,0
39834.944,-16.602,-2.441,-27.344,-5.859,0.000,0
39834.948,-9.766,-5.371,-29.785,-10.254,0.000,0
39834.952,-28.320,-9.766,-32.715,-17.090,0.000,0
39834.956,-23.438,-10.742,-26.855,-12.695,0.000,0
39834.960,-18.066,-10.254,-31.250,-11.230,0.000,0
39834.964,-22.461,-12.207,-38.086,-25.391,0.000,0
39834.968,-3.906,-8.789,-35.156,-3.906,0.000,0
39834.972,-7.812,-9.766,-30.273,-13.184,0.000,0
39834.975,-20.020,-12.695,-26.855,-37.598,0.000,0
39834.979,-31.250,-12.695,-27.832,-25.391,0.000,0
39834.983,-33.203,-15.137,-29.297,-26.367,0.000,0
39834.987,-1.953,-16.113,-31.250,-20.020,0.000,0
39834.991,6.348,-18.555,-33.691,-31.738,0.000,0
39834.995,-17.578,-21.973,-37.109,-49.805,0.000,0
39834.999,-11.719,-23.438,-39.551,-28.809,0.000,0
39835.003,18.555,-20.020,-39.551,-28.809,0.000,0
39835.007,11.230,-15.625,-36.621,-32.715,0.000,0
39835.011,-31.738,-18.555,-29.785,-39.062,0.000,0
39835.014,-32.227,-20.996,-25.879,-44.922,0.000,0
39835.018,-7.324,-17.090,-29.785,-20.508,0.000,0
39835.022,-0.488,-16.602,-28.320,-19.043,0.000,0
39835.026,-6.836,-18.555,-24.902,-35.645,0.000,0
39835.030,-21.484,-18.555,-30.762,-28.809,0.000,0
39835.034,-5.859,-24.414,-32.715,-40.527,0.000,0
39835.038,7.324,-24.902,-38.574,-49.316,0.000,0
39835.042,-37.598,-26.367,-40.527,-40.039,0.000,0
39835.046,-34.668,-21.484,-29.785,-18.555,0.000,0
39835.050,-12.207,-6.836,-15.137,-6.836,0.000,0
39835.054,-32.715,-15.137,-20.020,-30.762,0.000,0
39835.057,-29.785,-21.484,-31.738,-28.809,0.000,0
39835.061,-17.090,-20.508,-36.133,-31.738,0.000,0
39835.065,-8.789,-27.344,-42.480,-42.969,0.000,0
39835.069,-15.625,-34.668,-48.828,-45.410,0.000,0
39835.073,-63.477,-35.645,-48.828,-43.457,0.000,0
39835.077,-59.570,-23.438,-42.480,-37.109,0.000,0
39835.081,-31.738,-18.555,-37.598,-25.391,0.000,0
39835.085,-24.902,-12.695,-26.367,-13.184,0.000,0
39835.089,-29.785,-15.625,-25.879,-32.227,0.000,0
39835.093,-22.949,-26.855,-35.156,-50.781,0.000,0
39835.097,-23.926,-27.344,-41.504,-42.969,0.000,0
39835.100,-30.273,-26.367,-40.039,-38.574,0.000,0
39835.104,-19.531,-25.391,-30.762,-28.320,0.000,0
39835.108,-21.973,-24.414,-30.273,-20.020,0.000,0
39835.112,-23.438,-17.578,-26.855,-30.273,0.000,0
39835.116,-50.781,-24.414,-36.133,-30.273,0.000,0
39835.120,-48.828,-32.715,-51.758,-21.484,0.000,0
39835.124,-39.062,-23.438,-44.434,-9.277,0.000,0
39835.128,-28.809,-17.578,-30.762,-1.465,0.000,0
39835.132,-20.996,-14.648,-22.949,-0.977,0.000,0
39835.136,-16.113,-16.113,-32.715,-12.695,0.000,0
39835.139,-8.301,-16.602,-43.945,-22.949,0.000,1
39835.143,-21.484,-18.555,-42.480,-18.066,0.000,0
39835.147,-20.508,-21.484,-40.039,-8.789,0.000,0
39835.151,-7.812,-22.461,-38.574,-19.531,0.000,0
39835.155,-10.254,-24.414,-38.086,-25.879,0.000,0
39835.159,-28.320,-20.020,-38.086,-19.043,0.000,0
39835.163,-29.785,-18.555,-32.227,-16.113,0.000,0
39835.167,-17.090,-21.973,-34.180,-19.043,0.000,0
39835.171,-24.414,-23.926,-41.504,-39.551,0.000,0
39835.175,-44.922,-27.344,-43.945,-45.898,0.000,0
39835.179,-29.785,-23.926,-40.039,-28.320,0.000,0
39835.182,-4.883,-20.508,-31.738,-27.832,0.000,0
39835.186,-24.414,-31.250,-42.480,-52.734,0.000,0
39835.190,-27.344,-31.250,-49.805,-50.293,0.000,0
39835.194,-15.137,-20.996,-33.203,-18.066,0.000,0
39835.198,-15.625,-25.879,-39.551,-29.785,0.000,0
39835.202,-23.438,-28.809,-48.340,-45.410,0.000,0
39835.206,-41.016,-22.949,-49.316,-29.785,0.000,0
39835.210,-36.621,-24.902,-50.293,-36.133,0.000,0
39835.214,-37.598,-25.879,-43.945,-44.434,0.000,0
39835.218,-36.621,-25.391,-42.480,-34.180,0.000,0
39835.222,-25.879,-23.926,-36.133,-29.297,0.000,0
39835.225,-29.297,-31.738,-38.086,-41.016,0.000,0
39835.229,-24.902,-39.062,-41.992,-48.828,0.000,0
39835.233,-31.738,-37.109,-38.086,-51.758,0.000,0
39835.237,-40.039,-34.180,-42.969,-49.316,0.000,0
39835.241,9.277,-28.809,-46.387,-38.574,0.000,0
39835.245,-19.531,-25.391,-43.457,-50.293,0.000,0
39835.249,-48.828,-13.672,-30.762,-41.016,0.000,0
39835.253,-31.738,-19.043,-36.133,-45.410,0.000,0
39835.257,-24.902,-31.250,-45.898,-67.871,0.000,0
39835.261,-27.344,-27.832,-47.852,-59.082,0.000,0
39835.264,-42.969,-28.809,-52.734,-62.012,0.000,0
39835.268,-40.527,-27.344,-44.922,-68.359,0.000,0
39835.272,-12.207,-15.625,-28.809,-55.176,0.000,0
39835.276,-37.109,-25.391,-38.086,-69.824,0.000,0
39835.280,-64.453,-37.598,-49.805,-76.172,0.000,0
39835.284,-45.898,-30.762,-46.875,-55.176,0.000,0
39835.288,-2.441,-25.391,-42.480,-43.945,0.000,0
39835.292,-19.043,-25.879,-46.387,-50.781,0.000,0
39835.296,-68.848,-23.438,-51.270,-48.340,0.000,0
39835.300,-35.156,-15.137,-43.457,-37.109,0.000,0
39835.304,-36.621,-26.855,-46.875,-58.594,0.000,0
39835.307,-53.711,-33.203,-49.316,-72.266,0.000,0
39835.311,-41.016,-27.832,-44.434,-69.824,0.000,0
39835.315,-30.762,-23.926,-36.621,-58.594,0.000,0
39835.319,-13.672,-25.391,-39.062,-53.711,0.000,0
39835.323,-39.062,-35.156,-57.129,-62.988,0.000,0
39835.327,-67.871,-31.738,-59.082,-47.852,0.000,0
39835.331,-27.832,-27.344,-51.758,-51.758,0.000,0
39835.335,-10.742,-28.809,-46.875,-34.180,0.000,0
39835.339,-14.648,-22.949,-40.527,-19.043,0.000,0
39835.343,-5.859,-21.973,-39.062,-31.738,0.000,0
39835.347,-9.277,-29.785,-43.945,-36.621,0.000,0
39835.350,-17.578,-30.273,-39.062,-40.527,0.000,0
39835.354,-26.367,-17.578,-26.855,-25.391,0.000,0
39835.358,-30.762,-22.949,-34.668,-31.738,0.000,0
39835.362,-6.348,-26.855,-40.039,-23.926,0.000,0
39835.366,2.930,-25.879,-41.504,-29.785,0.000,0
39835.370,-30.273,-26.855,-35.645,-44.434,0.000,0
39835.374,-30.273,-32.227,-33.203,-30.762,0.000,0
39835.378,-12.695,-42.480,-38.086,-45.410,0.000,0
39835.382,-35.645,-38.086,-39.551,-38.574,0.000,0
39835.386,-66.895,-45.898,-51.270,-36.621,0.000,0
39835.389,-39.551,-46.387,-47.852,-44.922,0.000,0
39835.393,-3.906,-36.133,-41.992,-44.434,0.000,0
39835.397,-30.762,-41.016,-50.781,-59.082,0.000,0
39835.401,-63.477,-42.480,-49.805,-64.941,0.000,0
39835.405,-44.922,-38.574,-37.109,-57.129,0.000,0
39835.409,-20.020,-40.527,-39.062,-63.477,0.000,0
39835.413,-19.043,-44.922,-47.363,-60.059,0.000,0
39835.417,-47.852,-45.410,-49.316,-53.223,0.000,0
39835.421,-47.363,-41.992,-53.711,-53.223,0.000,0
39835.425,-18.555,-36.133,-44.434,-39.551,0.000,0
39835.429,-20.508,-41.992,-44.922,-48.340,0.000,0
39835.432,-15.137,-43.945,-48.340,-52.734,0.000,0
39835.436,-29.297,-55.176,-54.199,-61.523,0.000,0
39835.440,-41.504,-58.594,-60.059,-63.965,0.000,0
39835.444,-35.156,-46.875,-51.758,-53.223,0.000,0
39835.448,-31.738,-43.457,-44.434,-47.363,0.000,0
39835.452,-27.832,-43.457,-46.387,-34.668,0.000,0
39835.456,-3.418,-35.156,-40.039,-33.203,0.000,0
39835.460,20.996,-17.090,-21.973,-29.785,0.000,0
39835.464,-6.348,-13.184,-11.719,-10.742,0.000,0
39835.468,-19.043,-20.508,-4.883,-25.391,0.000,0
39835.472,-8.301,-14.160,1.465,-23.438,0.000,0
39835.475,20.020,-5.859,-1.465,1.953,0.000,0
39835.479,34.668,-7.324,-1.465,-10.742,0.000,0
39835.483,11.230,-12.695,-9.766,-11.230,0.000,0
39835.487,3.418,-21.973,-26.367,-6.348,0.000,0
39835.491,11.230,-24.902,-24.902,0.488,0.000,0
39835.495,-4.395,-22.949,-11.230,9.277,0.000,0
39835.499,-30.762,-29.785,-17.578,0.488,0.000,0
39835.503,-24.902,-35.156,-26.855,8.789,0.000,0
39835.507,-23.926,-29.297,-15.137,18.555,0.000,0
39835.511,0.000,-22.461,-7.812,17.090,0.000,0
39835.514,16.602,-30.273,-17.090,11.719,0.000,0
39835.518,-16.113,-44.922,-26.855,0.488,0.000,0
39835.522,-18.066,-45.410,-30.762,4.883,0.000,0
39835.526,-4.395,-37.598,-21.484,9.277,0.000,0
39835.530,-11.230,-45.898,-30.273,-5.859,0.000,0
39835.534,-0.488,-47.852,-32.715,-1.465,0.000,0
39835.538,21.973,-45.410,-20.996,11.719,0.000,0
39835.542,43.945,-40.527,-22.461,33.203,0.000,0
39835.546,9.766,-42.969,-24.902,18.555,0.000,0
39835.550,-42.969,-52.734,-21.484,-3.418,0.000,0
39835.554,-25.391,-57.129,-20.508,17.578,0.000,0
39835.557,22.461,-45.898,-12.207,27.344,0.000,0
39835.561,34.668,-38.086,2.441,23.438,0.000,0
39835.565,-5.371,-60.547,-10.254,9.277,0.000,0
39835.569,-12.207,-66.406,-17.090,5.859,0.000,0
39835.573,3.906,-57.129,-17.578,14.648,0.000,0
39835.577,7.812,-56.152,-21.484,29.785,0.000,0
39835.581,-2.441,-59.082,-23.438,12.207,0.000,0
39835.585,-17.578,-58.594,-14.160,0.000,0.000,0
39835.589,-32.715,-64.941,-12.207,-0.977,0.000,0
39835.593,-11.230,-61.035,-14.648,8.301,0.000,0
39835.597,0.000,-54.688,-13.184,26.367,0.000,0
39835.600,-14.648,-63.965,-12.695,16.602,0.000,0
39835.604,6.348,-71.777,-17.090,0.488,0.000,0
39835.608,-4.395,-75.684,-21.973,3.418,0.000,0
39835.612,-16.113,-70.312,-33.691,7.324,0.000,0
39835.616,0.000,-62.012,-31.738,-3.906,0.000,0
39835.620,-33.691,-60.059,-18.555,-11.230,0.000,0
39835.624,-46.387,-59.570,-14.648,-16.113,0.000,0
39835.628,-30.273,-55.664,-16.113,-20.508,0.000,0
39835.632,-7.324,-61.523,-20.996,2.930,0.000,0
39835.636,5.859,-74.219,-25.391,19.043,0.000,0
39835.639,-13.672,-75.684,-21.973,15.625,0.000,0
39835.643,-14.160,-75.684,-23.438,5.859,0.000,0
39835.647,4.395,-80.566,-26.855,0.977,0.000,0
39835.651,-10.742,-72.266,-13.672,15.625,0.000,0
39835.655,-4.395,-66.406,-8.789,19.531,0.000,0
39835.659,-19.531,-72.266,-10.254,12.207,0.000,0
39835.663,-14.648,-76.660,-17.578,17.090,0.000,0
39835.667,-11.719,-84.473,-28.809,0.977,0.000,0
39835.671,-41.016,-80.566,-23.438,-10.254,0.000,0
39835.675,-27.344,-72.754,-21.484,8.789,0.000,0
39835.679,-17.578,-70.801,-11.719,20.508,0.000,0
39835.682,-24.902,-73.242,-10.254,0.488,0.000,0
39835.686,-35.645,-79.102,-26.855,-29.297,0.000,0
39835.690,-15.625,-80.566,-32.715,-24.902,0.000,0
39835.694,2.441,-72.266,-19.043,-4.395,0.000,1
39835.698,-4.883,-64.941,-13.184,18.066,0.000,0
39835.702,3.418,-71.289,-19.043,1.953,0.000,0
39835.706,-18.066,-80.078,-11.719,-18.066,0.000,0
39835.710,-16.113,-86.914,-26.855,-0.488,0.000,0
39835.714,-0.977,-89.844,-33.691,5.371,0.000,0
39835.718,10.742,-83.984,-8.301,4.883,0.000,0
39835.722,-5.371,-81.055,-9.766,-10.742,0.000,0
39835.725,-4.883,-85.938,-23.926,-2.930,0.000,0
39835.729,6.348,-83.008,-20.996,22.949,0.000,0
39835.733,-26.367,-85.938,-20.996,18.555,0.000,0
39835.737,-10.254,-89.355,-25.879,-4.395,0.000,0
39835.741,0.488,-89.355,-24.414,-25.879,0.000,0
39835.745,-31.250,-89.844,-17.090,-18.066,0.000,0
39835.749,-16.113,-87.402,-16.602,-8.789,0.000,0
39835.753,-3.418,-84.473,-28.320,-10.254,0.000,0
39835.757,-18.555,-91.797,-32.715,-18.066,0.000,0
39835.761,-0.977,-79.102,-5.371,-13.672,0.000,0
39835.764,-7.812,-71.777,-3.418,-25.879,0.000,0
39835.768,-15.625,-80.566,-10.254,-14.648,0.000,0
39835.772,-16.602,-81.543,-4.883,9.277,0.000,0
39835.776,-32.227,-89.844,-21.973,25.391,0.000,0
39835.780,-23.438,-95.703,-31.738,67.383,0.000,0
39835.784,-2.441,-84.473,-5.371,108.887,0.000,0
39835.788,20.020,-67.871,18.555,131.348,0.000,0
39835.792,14.648,-79.590,0.000,88.867,0.000,0
39835.796,1.465,-90.332,-22.461,65.918,0.000,0
39835.800,-9.766,-83.496,-18.555,71.777,0.000,0
39835.804,0.977,-83.008,-5.859,56.641,0.000,0
39835.807,34.180,-82.520,-5.859,60.547,0.000,0
39835.811,22.461,-82.520,-8.301,52.246,0.000,0
39835.815,-9.277,-83.984,-8.789,62.988,0.000,0
39835.819,0.488,-81.055,-0.977,64.941,0.000,0
39835.823,-4.883,-78.613,10.742,40.039,0.000,0
39835.827,-20.020,-79.590,10.254,35.645,0.000,0
39835.831,5.859,-73.242,7.812,35.645,0.000,0
39835.835,12.207,-78.125,-12.695,33.203,0.000,0
39835.839,22.461,-80.078,-5.371,20.996,0.000,0
39835.843,74.707,-80.078,4.883,-7.324,0.000,0
39835.847,34.180,-89.844,-13.184,-24.414,0.000,0
39835.850,-25.391,-92.285,-34.180,-17.090,0.000,0
39835.854,5.371,-88.867,-42.969,-5.859,0.000,0
39835.858,24.414,-85.449,-29.785,-6.836,0.000,0
39835.862,36.621,-75.195,-15.625,-2.930,0.000,0
39835.866,41.992,-79.102,-21.973,-12.207,0.000,0
39835.870,20.508,-90.820,-30.273,-21.973,0.000,0
39835.874,1.465,-87.891,-23.926,-16.602,0.000,0
39835.878,23.438,-81.055,-12.207,-8.789,0.000,0
39835.882,68.848,-75.684,-12.695,-3.418,0.000,0
39835.886,20.508,-82.520,-23.926,-16.602,0.000,0
39835.889,-19.531,-90.820,-16.113,-20.508,0.000,0
39835.893,27.832,-73.242,8.789,13.672,0.000,0
39835.897,39.551,-59.082,24.902,19.043,0.000,0
39835.901,19.531,-75.684,-0.488,-1.953,0.000,0
39835.905,11.719,-89.355,-28.809,-10.254,0.000,0
39835.909,13.184,-84.961,-10.742,-17.578,0.000,0
39835.913,49.316,-82.520,-0.977,-27.832,0.000,0
39835.917,66.406,-74.707,-5.859,-14.648,0.000,0
39835.921,31.738,-70.801,-18.555,-5.371,0.000,0
39835.925,31.738,-67.383,-8.789,-23.926,0.000,0
39835.929,49.805,-64.453,19.043,-36.133,0.000,0
39835.932,51.758,-78.613,17.578,-48.828,0.000,0
39835.936,64.941,-76.172,0.977,-38.574,0.000,0
39835.940,64.453,-76.660,-2.930,-46.875,0.000,0
39835.944,54.688,-67.871,21.484,-49.805,0.000,0
39835.948,47.852,-65.430,29.297,-50.293,0.000,0
39835.952,16.113,-73.730,4.395,-51.270,0.000,0
39835.956,-5.371,-78.613,3.418,-43.945,0.000,0
39835.960,5.859,-83.984,7.812,-71.777,0.000,0
39835.964,18.066,-101.074,-33.203,-105.957,0.000,0
39835.968,6.348,-100.098,-18.555,-91.309,0.000,0
39835.972,-11.230,-79.102,21.973,-76.660,0.000,0
39835.975,-9.766,-85.449,13.672,-82.031,0.000,0
39835.979,-20.020,-92.285,17.578,-82.031,0.000,0
39835.983,-20.020,-95.215,17.090,-86.426,0.000,0
39835.987,-16.113,-102.539,-8.789,-87.402,0.000,0
39835.991,-2.930,-102.051,-15.137,-88.867,0.000,0
39835.995,9.766,-98.145,-4.395,-80.566,0.000,0
39835.999,-9.766,-95.215,2.930,-74.707,0.000,0
39836.003,-36.133,-99.609,-10.742,-51.758,0.000,0
39836.007,-38.086,-98.145,-12.695,-36.621,0.000,0
39836.011,-37.598,-92.773,1.953,-49.805,0.000,0
39836.014,-47.852,-98.633,-7.812,-45.898,0.000,0
39836.018,-38.574,-104.980,-3.906,-66.895,0.000,0
39836.022,-1.953,-97.168,14.160,-80.566,0.000,0
39836.026,-10.742,-87.402,12.207,-58.105,0.000,0
39836.030,-39.062,-88.867,7.812,-47.852,0.000,0
39836.034,-1.953,-90.332,7.324,-43.457,0.000,0
39836.038,-5.371,-93.262,12.695,-52.734,0.000,0
39836.042,-48.828,-97.656,15.625,-56.641,0.000,0
39836.046,-33.691,-95.703,9.766,-57.617,0.000,0
39836.050,-19.043,-92.285,8.789,-64.941,0.000,0
39836.054,11.719,-89.844,14.648,-51.758,0.000,0
39836.057,1.465,-89.844,16.602,-61.523,0.000,0
39836.061,-62.012,-94.727,23.926,-74.707,0.000,0
39836.065,-29.785,-94.727,27.344,-62.500,0.000,0
39836.069,-7.324,-95.703,18.555,-50.293,0.000,0
39836.073,-62.988,-96.191,24.902,-51.270,0.000,0
39836.077,-44.434,-89.355,35.156,-64.941,0.000,0
39836.081,-15.625,-91.309,25.391,-57.617,0.000,0
39836.085,-17.090,-94.238,26.855,-51.270,0.000,0
39836.089,-15.137,-93.750,31.250,-36.133,0.000,0
39836.093,15.625,-91.797,27.832,-22.949,0.000,0
39836.097,18.066,-88.867,36.133,-35.645,0.000,0
39836.100,-3.906,-87.891,39.062,-38.086,0.000,0
39836.104,-13.184,-90.820,28.320,-22.461,0.000,0
39836.108,-3.906,-96.191,15.137,-24.902,0.000,0
39836.112,15.137,-84.961,31.250,-32.227,0.000,0
39836.116,0.977,-82.520,43.945,-44.434,0.000,0
39836.120,-25.879,-93.750,30.762,-38.574,0.000,0
39836.124,21.973,-84.473,38.086,-16.602,0.000,0
39836.128,13.184,-78.613,47.363,-28.809,0.000,0
39836.132,6.348,-81.543,41.504,-11.230,0.000,0
39836.136,42.969,-77.148,38.086,1.465,0.000,0
39836.139,10.742,-80.566,40.527,-7.812,0.000,0
39836.143,1.465,-89.844,39.551,4.883,0.000,0
39836.147,20.020,-92.773,39.551,-11.719,0.000,0
39836.151,76.172,-85.449,40.527,-5.371,0.000,0
39836.155,41.016,-76.660,41.504,17.090,0.000,0
39836.159,-14.160,-82.031,49.316,4.883,0.000,0
39836.163,14.160,-89.844,47.852,-6.836,0.000,0
39836.167,48.828,-85.449,44.922,0.000,0.000,0
39836.171,89.355,-81.055,44.434,22.461,0.000,0
39836.175,92.773,-82.520,39.551,30.273,0.000,0
39836.179,58.594,-75.684,41.992,29.297,0.000,0
39836.182,77.148,-66.895,54.688,36.621,0.000,0
39836.186,99.121,-69.824,56.641,29.785,0.000,0
39836.190,93.262,-73.730,44.922,16.602,0.000,0
39836.194,98.633,-72.754,48.828,26.855,0.000,0
39836.198,90.820,-60.547,58.594,38.574,0.000,0
39836.202,80.078,-62.012,45.410,35.156,0.000,0
39836.206,83.984,-73.730,39.551,31.250,0.000,0
39836.210,103.027,-64.941,50.293,34.668,0.000,0
39836.214,108.887,-62.012,51.270,24.902,0.000,0
39836.218,111.328,-68.359,40.039,9.277,0.000,0
39836.222,103.516,-74.219,29.297,15.625,0.000,0
39836.225,72.266,-68.848,35.156,10.254,0.000,0
39836.229,76.660,-60.059,40.527,13.672,0.000,0
39836.233,108.887,-58.105,38.574,27.344,0.000,0
39836.237,97.168,-55.176,36.133,27.832,0.000,0
39836.241,72.266,-59.082,30.762,11.230,0.000,0
39836.245,66.895,-64.453,36.133,-2.441,0.000,0
39836.249,65.918,-57.617,38.574,-4.883,0.000,0
39836.253,93.262,-52.246,35.645,12.207,0.000,0
39836.257,112.305,-54.688,39.062,24.414,0.000,1
39836.261,106.445,-56.641,36.621,1.465,0.000,0
39836.264,85.938,-61.035,22.461,-15.137,0.000,0
39836.268,42.969,-63.965,28.809,5.371,0.000,0
39836.272,59.570,-55.664,41.504,17.090,0.000,0
39836.276,106.445,-54.199,40.039,0.977,0.000,0
39836.280,87.402,-56.152,35.645,4.395,0.000,0
39836.284,80.078,-49.316,36.133,9.766,0.000,0
39836.288,101.562,-45.898,31.250,11.719,0.000,0
39836.292,79.590,-48.340,30.762,14.648,0.000,0
39836.296,48.828,-43.945,42.480,17.090,0.000,0
39836.300,35.645,-47.852,32.227,5.859,0.000,0
39836.304,67.871,-52.246,23.438,4.395,0.000,0
39836.307,71.289,-44.922,30.762,14.648,0.000,0
39836.311,39.062,-41.504,34.668,0.977,0.000,0
39836.315,62.988,-42.480,36.621,-14.648,0.000,0
39836.319,103.516,-42.969,34.668,3.418,0.000,0
39836.323,61.523,-43.945,32.715,7.812,0.000,0
39836.327,21.973,-43.457,37.109,-4.395,0.000,0
39836.331,40.527,-43.457,29.297,-8.789,0.000,0
39836.335,49.805,-43.457,24.414,-28.320,0.000,0
39836.339,48.340,-41.504,28.320,-20.996,0.000,0
39836.343,61.035,-40.039,23.438,-6.348,0.000,0
39836.347,73.730,-41.992,17.090,-6.348,0.000,0
39836.350,55.176,-41.504,22.949,-24.902,0.000,0
39836.354,34.180,-38.086,14.648,-34.180,0.000,0
39836.358,37.598,-37.598,5.371,-29.785,0.000,0
39836.362,61.523,-33.203,16.113,-26.855,0.000,0
39836.366,50.781,-28.320,20.508,-23.438,0.000,0
39836.370,44.922,-37.109,9.277,-46.875,0.000,0
39836.374,63.477,-38.086,9.766,-42.969,0.000,0
39836.378,62.012,-32.227,18.555,-28.809,0.000,0
39836.382,55.664,-35.156,18.555,-36.621,0.000,0
39836.386,49.805,-36.621,12.207,-40.527,0.000,0
39836.389,18.555,-37.109,4.883,-41.016,0.000,0
39836.393,45.410,-31.250,1.465,-20.020,0.000,0
39836.397,62.012,-28.320,5.859,-9.766,0.000,0
39836.401,24.414,-35.645,10.742,-28.809,0.000,0
39836.405,68.848,-37.109,10.742,-40.039,0.000,0
39836.409,88.867,-35.645,1.465,-39.062,0.000,0
39836.413,56.641,-32.715,0.977,-41.504,0.000,0
39836.417,60.059,-31.738,2.930,-42.969,0.000,0
39836.421,24.902,-37.109,0.977,-53.223,0.000,0
39836.425,14.648,-33.691,1.465,-54.199,0.000,0
39836.429,40.039,-28.809,4.395,-42.480,0.000,0
39836.432,47.852,-32.227,7.324,-40.527,0.000,0
39836.436,43.945,-32.715,2.930,-44.434,0.000,0
39836.440,96.191,-24.902,2.441,-43.457,0.000,0
39836.444,79.590,-23.438,10.742,-34.668,0.000,0
39836.448,12.207,-27.832,7.324,-33.691,0.000,0
39836.452,37.598,-28.809,2.441,-45.898,0.000,0
39836.456,65.430,-22.949,7.324,-34.180,0.000,0
39836.460,78.613,-24.414,1.953,-26.855,0.000,0
39836.464,45.898,-33.691,-5.859,-39.551,0.000,0
39836.468,35.156,-27.344,0.000,-31.738,0.000,0
39836.472,41.992,-26.367,-1.465,-43.457,0.000,0
39836.475,39.062,-31.738,-4.883,-49.805,0.000,0
39836.479,50.781,-29.785,-4.395,-39.551,0.000,0
39836.483,84.473,-24.902,-7.324,-26.367,0.000,0
39836.487,58.594,-25.391,-3.418,-30.762,0.000,0
39836.491,12.695,-30.273,-8.789,-46.875,0.000,0
39836.495,39.062,-29.297,-9.277,-39.062,0.000,0
39836.499,42.480,-31.738,-5.371,-28.809,0.000,0
39836.503,27.344,-37.598,-2.930,-26.367,0.000,0
39836.507,46.875,-30.762,4.395,-19.531,0.000,0
39836.511,72.754,-26.855,4.395,-36.133,0.000,0
39836.514,20.996,-32.715,-3.906,-53.223,0.000,0
39836.518,-10.254,-34.668,-8.301,-43.945,0.000,0
39836.522,24.902,-28.320,-3.418,-35.645,0.000,0
39836.526,40.527,-25.879,-6.348,-38.574,0.000,0
39836.530,26.367,-28.320,-1.465,-39.062,0.000,0
39836.534,18.555,-26.855,1.953,-28.809,0.000,0
39836.538,39.551,-20.996,-4.395,-17.578,0.000,0
39836.542,51.270,-22.461,-17.090,-18.066,0.000,0
39836.546,23.438,-30.762,-22.949,-25.391,0.000,0
39836.550,10.742,-32.715,-21.484,-44.434,0.000,0
39836.554,17.578,-26.855,-18.066,-62.012,0.000,0
39836.557,29.297,-19.043,-16.113,-52.246,0.000,0
39836.561,29.785,-16.113,-16.602,-36.621,0.000,0
39836.565,-14.648,-17.578,-6.348,-41.992,0.000,0
39836.569,-12.695,-20.020,-10.254,-47.363,0.000,0
39836.573,2.930,-21.484,-20.508,-47.852,0.000,0
39836.577,6.348,-22.461,-17.578,-52.246,0.000,0
39836.581,-1.953,-25.879,-17.090,-50.293,0.000,0
39836.585,-6.348,-25.391,-13.672,-47.363,0.000,0
39836.589,8.789,-22.461,-9.766,-44.434,0.000,0
39836.593,-11.719,-27.832,-22.461,-36.621,0.000,0
39836.597,11.719,-28.320,-26.855,-44.922,0.000,0
39836.600,7.812,-26.855,-23.438,-61.523,0.000,0
39836.604,-37.598,-31.738,-34.668,-76.660,0.000,0
39836.608,-38.086,-34.180,-25.879,-82.031,0.000,0
39836.612,-19.043,-28.320,-9.766,-74.219,0.000,0
39836.616,1.953,-20.020,-9.277,-73.730,0.000,0
39836.620,-7.324,-26.367,-22.461,-84.473,0.000,0
39836.624,-11.230,-35.645,-29.785,-88.867,0.000,0
39836.628,-17.090,-29.297,-22.949,-94.727,0.000,0
39836.632,-26.367,-21.484,-19.531,-85.449,0.000,0
39836.636,-20.508,-27.344,-28.809,-74.707,0.000,0
39836.639,-8.301,-31.738,-28.809,-74.707,0.000,0
39836.643,16.113,-24.902,-25.391,-68.359,0.000,0
39836.647,-0.488,-27.832,-31.250,-95.703,0.000,0
39836.651,-56.152,-30.762,-29.297,-105.957,0.000,0
39836.655,-45.410,-31.738,-25.879,-82.031,0.000,0
39836.659,-14.648,-37.598,-28.809,-91.309,0.000,0
39836.663,-29.785,-33.203,-28.320,-102.539,0.000,0
39836.667,-33.691,-30.762,-26.367,-101.074,0.000,0
39836.671,-38.574,-34.180,-28.320,-103.027,0.000,0
39836.675,-39.062,-34.180,-37.109,-98.145,0.000,0
39836.679,-17.578,-31.250,-34.668,-104.980,0.000,0
39836.682,9.277,-27.832,-29.297,-113.281,0.000,0
39836.686,-13.184,-30.273,-34.180,-108.887,0.000,0
39836.690,-51.270,-33.691,-22.461,-126.953,0.000,0
39836.694,-26.367,-33.691,-19.043,-138.184,0.000,0
39836.698,-11.230,-32.227,-22.461,-127.930,0.000,0
39836.702,-30.273,-29.785,-25.391,-113.770,0.000,0
39836.706,-13.672,-27.832,-30.273,-113.281,0.000,0
39836.710,-14.160,-32.715,-31.250,-107.422,0.000,0
39836.714,-29.785,-39.062,-33.691,-106.934,0.000,0
39836.718,-19.531,-38.086,-37.109,-104.980,0.000,0
39836.722,2.441,-35.645,-32.715,-101.562,0.000,0
39836.725,0.488,-40.039,-37.598,-121.582,0.000,0
39836.729,-52.734,-41.992,-38.086,-127.441,0.000,0
39836.733,-62.988,-36.133,-31.250,-125.977,0.000,0
39836.737,-19.043,-29.785,-31.738,-110.352,0.000,0
39836.741,1.953,-27.344,-36.133,-101.074,0.000,0
39836.745,-17.578,-35.156,-47.363,-121.094,0.000,0
39836.749,-51.758,-36.621,-44.434,-123.047,0.000,0
39836.753,-31.738,-32.715,-37.109,-112.793,0.000,0
39836.757,-16.113,-32.227,-36.621,-125.977,0.000,0
39836.761,-36.133,-26.855,-33.203,-124.512,0.000,0
39836.764,-45.898,-29.785,-37.598,-112.305,0.000,0
39836.768,-20.508,-30.273,-31.250,-110.840,0.000,0
39836.772,-31.250,-25.879,-32.715,-94.238,0.000,0
39836.776,-53.711,-27.344,-41.992,-94.238,0.000,0
39836.780,-47.363,-22.949,-27.832,-108.887,0.000,0
39836.784,-44.434,-23.926,-20.996,-115.723,0.000,0
39836.788,-52.246,-31.738,-31.250,-123.535,0.000,0
39836.792,-46.387,-35.645,-41.504,-125.977,0.000,1
39836.796,-46.387,-37.598,-44.922,-130.371,0.000,0
39836.800,-37.109,-32.715,-41.016,-121.582,0.000,0
39836.804,-37.598,-26.367,-31.250,-124.023,0.000,0
39836.807,-69.824,-24.414,-27.344,-125.000,0.000,0
39836.811,-82.031,-25.391,-33.691,-104.004,0.000,0
39836.815,-70.801,-25.879,-39.062,-111.816,0.000,0
39836.819,-66.895,-28.809,-39.062,-122.559,0.000,0
39836.823,-56.641,-27.344,-34.180,-123.535,0.000,0
39836.827,-29.785,-20.508,-32.227,-130.859,0.000,0
39836.831,-23.438,-19.043,-40.039,-131.836,0.000,0
39836.835,-65.430,-25.391,-45.898,-135.742,0.000,0
39836.839,-78.613,-32.715,-42.969,-135.742,0.000,0
39836.843,-64.453,-35.156,-41.016,-138.184,0.000,0
39836.847,-71.289,-31.250,-41.504,-137.207,0.000,0
39836.850,-73.242,-28.320,-41.504,-134.277,0.000,0
39836.854,-63.477,-31.738,-47.363,-141.113,0.000,0
39836.858,-57.617,-35.156,-55.664,-146.973,0.000,0
39836.862,-73.242,-29.785,-46.387,-147.461,0.000,0
39836.866,-74.707,-33.203,-37.109,-141.113,0.000,0
39836.870,-49.805,-36.133,-41.016,-151.367,0.000,0
39836.874,-50.293,-33.691,-46.875,-152.344,0.000,0
39836.878,-57.617,-33.203,-44.922,-151.367,0.000,0
39836.882,-39.551,-30.273,-42.480,-160.156,0.000,0
39836.886,-46.875,-28.320,-42.969,-153.809,0.000,0
39836.889,-60.059,-29.785,-41.016,-153.320,0.000,0
39836.893,-32.227,-31.738,-50.293,-168.945,0.000,0
39836.897,-35.645,-30.273,-59.570,-158.203,0.000,0
39836.901,-56.152,-20.508,-50.293,-139.648,0.000,0
39836.905,-35.156,-21.484,-49.805,-153.320,0.000,0
39836.909,-24.414,-24.414,-59.082,-154.785,0.000,0
39836.913,-64.941,-20.508,-53.711,-169.434,0.000,0
39836.917,-70.801,-26.367,-41.992,-164.551,0.000,0
39836.921,-66.406,-17.578,-38.086,-160.645,0.000,0
39836.925,-84.961,-4.883,-42.480,-171.387,0.000,0
39836.929,-55.664,-8.789,-44.922,-165.039,0.000,0
39836.932,-32.227,-8.789,-56.641,-166.504,0.000,0
39836.936,-51.270,-12.695,-69.824,-182.617,0.000,0
39836.940,-103.027,3.418,-52.734,-206.543,0.000,0
39836.944,-99.121,30.273,-26.367,-205.566,0.000,0
39836.948,-47.363,39.551,-28.320,-187.988,0.000,0
39836.952,-39.062,50.293,-45.898,-180.176,0.000,0
39836.956,-59.570,55.664,-60.059,-176.270,0.000,0
39836.960,-58.594,63.965,-42.969,-192.383,0.000,0
39836.964,-48.340,73.242,-36.621,-192.871,0.000,0
39836.968,-41.016,81.543,-41.504,-165.039,0.000,0
39836.972,-28.320,84.961,-36.133,-149.414,0.000,0
39836.975,-31.738,72.754,-50.293,-151.367,0.000,0
39836.979,-24.414,75.684,-48.828,-170.410,0.000,0
39836.983,-45.410,76.660,-42.969,-171.387,0.000,0
39836.987,-36.133,61.523,-51.270,-162.109,0.000,0
39836.991,-16.602,56.152,-44.922,-160.156,0.000,0
39836.995,-37.598,46.387,-48.340,-155.273,0.000,0
39836.999,-35.156,37.109,-53.711,-156.738,0.000,0
39837.003,-38.086,22.949,-51.758,-176.758,0.000,0
39837.007,0.000,13.184,-56.641,-168.457,0.000,0
39837.011,-25.879,8.301,-53.223,-148.438,0.000,0
39837.014,-62.988,-5.371,-53.223,-153.320,0.000,0
39837.018,-17.578,-12.695,-54.688,-172.363,0.000,0
39837.022,-46.875,-21.973,-58.105,-179.199,0.000,0
39837.026,-42.969,-20.020,-52.734,-152.344,0.000,0
39837.030,-33.203,-22.461,-43.457,-163.086,0.000,0
39837.034,-43.945,-31.738,-46.387,-178.711,0.000,0
39837.038,-35.645,-38.086,-51.758,-178.223,0.000,0
39837.042,-47.852,-42.969,-60.547,-186.035,0.000,0
39837.046,-59.570,-44.922,-59.082,-170.410,0.000,0
39837.050,-49.805,-45.898,-59.570,-158.203,0.000,0
39837.054,-49.316,-52.734,-72.754,-167.480,0.000,0
39837.057,-55.176,-54.199,-65.918,-169.434,0.000,0
39837.061,-45.898,-47.852,-62.500,-153.320,0.000,0
39837.065,-49.316,-51.270,-74.219,-136.230,0.000,0
39837.069,-58.105,-54.199,-69.824,-133.789,0.000,0
39837.073,-68.848,-50.293,-54.199,-135.254,0.000,0
39837.077,-66.895,-53.711,-50.293,-139.160,0.000,0
39837.081,-60.547,-62.012,-60.547,-147.461,0.000,0
39837.085,-67.383,-65.430,-63.965,-143.066,0.000,0
39837.089,-76.660,-54.199,-54.688,-114.746,0.000,0
39837.093,-68.848,-42.480,-47.363,-100.586,0.000,0
39837.097,-27.344,-55.176,-64.453,-132.324,0.000,0
39837.100,-53.711,-64.941,-75.684,-152.344,0.000,0
39837.104,-87.891,-53.711,-65.430,-145.020,0.000,0
39837.108,-41.504,-40.527,-56.152,-139.648,0.000,0
39837.112,-24.414,-36.621,-51.758,-119.629,0.000,0
39837.116,-16.602,-39.062,-54.688,-112.793,0.000,0
39837.120,-58.594,-41.504,-57.129,-120.605,0.000,0
39837.124,-76.660,-50.293,-67.871,-119.629,0.000,0
39837.128,-50.293,-56.641,-69.824,-124.512,0.000,0
39837.132,-44.434,-48.828,-59.082,-114.746,0.000,0
39837.136,-36.133,-44.922,-58.594,-99.609,0.000,0
39837.139,-56.152,-45.898,-60.547,-103.027,0.000,0
39837.143,-60.059,-48.340,-62.012,-107.422,0.000,0
39837.147,-48.828,-49.316,-58.594,-102.539,0.000,0
39837.151,-51.270,-52.246,-61.523,-100.586,0.000,0
39837.155,-38.574,-53.711,-61.035,-106.934,0.000,0
39837.159,-40.527,-49.805,-62.012,-107.422,0.000,0
39837.163,-48.340,-50.293,-64.453,-97.168,0.000,0
39837.167,-25.391,-46.387,-61.035,-89.355,0.000,0
39837.171,-20.020,-35.156,-63.477,-77.637,0.000,0
39837.175,-53.711,-32.227,-61.523,-81.055,0.000,0
39837.179,-83.984,-42.480,-64.453,-91.309,0.000,0
39837.182,-62.988,-44.922,-71.289,-83.008,0.000,0
39837.186,-39.062,-36.621,-65.430,-79.590,0.000,0
39837.190,-35.645,-31.250,-63.477,-62.012,0.000,0
39837.194,-43.945,-38.574,-69.336,-67.383,0.000,0
39837.198,-40.527,-43.945,-66.895,-97.656,0.000,0
39837.202,-29.785,-42.480,-66.895,-107.910,0.000,0
39837.206,-42.480,-38.574,-69.824,-89.844,0.000,0
39837.210,-72.754,-38.086,-65.918,-70.312,0.000,0
39837.214,-66.406,-42.480,-64.941,-71.777,0.000,0
39837.218,-54.688,-41.016,-65.918,-72.266,0.000,0
39837.222,-48.340,-36.133,-62.012,-56.641,0.000,0
39837.225,-35.645,-42.480,-71.289,-46.387,0.000,0
39837.229,-34.668,-41.504,-74.219,-46.387,0.000,0
39837.233,-64.453,-41.504,-62.988,-64.453,0.000,0
39837.237,-91.309,-45.410,-63.477,-69.336,0.000,0
39837.241,-64.453,-39.062,-69.336,-56.152,0.000,0
39837.245,-26.855,-38.086,-75.684,-58.594,0.000,0
39837.249,-40.039,-33.691,-68.848,-53.223,0.000,0
39837.253,-56.152,-28.320,-63.965,-56.152,0.000,0
39837.257,-25.391,-27.344,-65.430,-62.988,0.000,0
39837.261,-24.902,-26.367,-61.035,-55.664,0.000,0
39837.264,-66.895,-30.273,-62.500,-53.223,0.000,0
39837.268,-53.711,-32.715,-61.523,-54.199,0.000,0
39837.272,-30.273,-24.414,-58.594,-53.711,0.000,0
39837.276,-38.574,-17.578,-57.129,-62.012,0.000,0
39837.280,-57.617,-27.344,-63.965,-66.406,0.000,0
39837.284,-43.457,-32.227,-68.359,-64.941,0.000,0
39837.288,-24.902,-27.832,-70.801,-56.641,0.000,0
39837.292,-32.227,-20.508,-69.336,-43.457,0.000,0
39837.296,-49.316,-14.648,-50.293,-47.852,0.000,0
39837.300,-61.523,-19.043,-49.316,-38.086,0.000,0
39837.304,-51.758,-20.020,-62.012,-28.320,0.000,0
39837.307,-47.852,-19.531,-60.059,-48.828,0.000,0
39837.311,-66.406,-21.484,-52.246,-49.805,0.000,0
39837.315,-61.035,-18.555,-51.758,-50.781,0.000,0
39837.319,-48.340,-15.625,-53.711,-48.340,0.000,0
39837.323,-56.152,-19.531,-54.688,-60.059,0.000,0
39837.327,-66.406,-21.484,-56.152,-103.027,0.000,0
39837.331,-49.805,-19.043,-61.523,-111.328,0.000,0
39837.335,-39.062,-13.672,-61.035,-125.488,0.000,0
39837.339,-75.195,-13.672,-57.617,-139.160,0.000,0
39837.343,-79.590,-13.672,-56.641,-125.488,0.000,0
39837.347,-33.203,-13.672,-55.176,-125.977,0.000,0
39837.350,-32.715,-18.066,-58.105,-127.930,0.000,0
39837.354,-69.824,-20.508,-56.641,-128.906,0.000,0
39837.358,-65.430,-16.602,-51.758,-114.746,0.000,0
39837.362,-41.016,-10.254,-50.781,-93.750,0.000,1
39837.366,-23.438,-14.160,-63.965,-102.051,0.000,0
39837.370,-40.039,-19.531,-74.219,-120.605,0.000,0
39837.374,-67.383,-16.602,-66.406,-118.652,0.000,0
39837.378,-72.754,-12.695,-62.988,-104.004,0.000,0
39837.382,-56.152,-9.766,-60.547,-98.145,0.000,0
39837.386,-46.875,-1.953,-53.223,-87.891,0.000,0
39837.389,-64.453,-3.906,-52.246,-79.590,0.000,0
39837.393,-41.504,-7.324,-52.246,-85.938,0.000,0
39837.397,-47.852,-16.113,-55.176,-103.027,0.000,0
39837.401,-50.781,-18.555,-58.594,-99.609,0.000,0
39837.405,-29.785,-10.742,-58.105,-89.844,0.000,0
39837.409,-35.645,-8.301,-60.059,-78.613,0.000,0
39837.413,-40.527,-7.812,-56.152,-93.262,0.000,0
39837.417,-60.547,-10.742,-62.500,-98.633,0.000,0
39837.421,-59.082,-7.812,-65.918,-83.984,0.000,0
39837.425,-45.898,-12.695,-68.848,-95.703,0.000,0
39837.429,-42.480,-19.043,-77.637,-91.309,0.000,0
39837.432,-61.035,-17.578,-74.219,-83.008,0.000,0
39837.436,-54.688,-11.719,-65.918,-84.961,0.000,0
39837.440,-38.574,-11.230,-61.035,-81.055,0.000,0
39837.444,-60.547,-8.301,-53.223,-77.148,0.000,0
39837.448,-56.641,-2.930,-52.246,-67.383,0.000,0
39837.452,-41.992,-8.301,-57.129,-72.754,0.000,0
39837.456,-57.129,-17.578,-59.570,-78.613,0.000,0
39837.460,-58.594,-16.602,-62.500,-71.777,0.000,0
39837.464,-56.152,-8.789,-57.129,-73.730,0.000,0
39837.468,-61.523,-9.277,-58.105,-61.035,0.000,0
39837.472,-40.527,-8.301,-62.012,-58.105,0.000,0
39837.475,-46.387,-4.395,-60.547,-60.547,0.000,0
39837.479,-70.312,-2.930,-60.059,-44.922,0.000,0
39837.483,-51.758,-6.348,-64.941,-46.875,0.000,0
39837.487,-53.223,-13.672,-69.824,-56.152,0.000,0
39837.491,-58.594,-18.066,-65.918,-65.918,0.000,0
39837.495,-58.105,-10.254,-62.500,-67.383,0.000,0
39837.499,-48.340,-5.371,-66.406,-56.641,0.000,0
39837.503,-31.738,-4.395,-63.965,-45.410,0.000,0
39837.507,-60.059,-4.883,-60.547,-44.434,0.000,0
39837.511,-76.660,-13.184,-68.359,-49.316,0.000,0
39837.514,-62.988,-18.066,-69.336,-49.316,0.000,0
39837.518,-68.359,-19.531,-71.777,-46.875,0.000,0
39837.522,-63.965,-18.555,-75.195,-51.270,0.000,0
39837.526,-51.270,-16.602,-74.219,-51.758,0.000,0
39837.530,-62.988,-13.672,-68.848,-58.105,0.000,0
39837.534,-54.688,-4.883,-55.664,-48.828,0.000,0
39837.538,-31.738,-0.977,-48.340,-43.457,0.000,0
39837.542,-44.434,-6.348,-56.641,-43.945,0.000,0
39837.546,-65.430,-10.742,-62.988,-34.668,0.000,0
39837.550,-86.914,-12.695,-58.594,-45.410,0.000,0
39837.554,-77.637,-8.301,-53.711,-49.316,0.000,0
39837.557,-70.312,-3.906,-51.758,-36.621,0.000,0
39837.561,-81.543,-8.789,-57.617,-41.992,0.000,0
39837.565,-104.980,-16.113,-68.848,-65.430,0.000,0
39837.569,-82.031,-17.578,-67.871,-68.359,0.000,0
39837.573,-49.805,-16.602,-62.988,-46.387,0.000,0
39837.577,-83.008,-18.066,-63.477,-32.715,0.000,0
39837.581,-77.637,-17.090,-62.012,-34.668,0.000,0
39837.585,-54.688,-13.672,-56.152,-47.852,0.000,0
39837.589,-59.082,-8.789,-50.781,-52.734,0.000,0
39837.593,-61.523,-5.859,-48.828,-34.668,0.000,0
39837.597,-40.527,-6.836,-55.664,-32.715,0.000,0
39837.600,-40.039,-10.742,-58.594,-40.039,0.000,0
39837.604,-73.730,-12.207,-55.664,-40.039,0.000,0
39837.608,-84.961,-8.789,-55.176,-46.875,0.000,0
39837.612,-64.453,-13.184,-62.012,-52.246,0.000,0
39837.616,-55.176,-15.137,-60.547,-47.363,0.000,0
39837.620,-56.641,-7.324,-50.293,-40.039,0.000,0
39837.624,-53.711,-14.160,-55.176,-46.875,0.000,0
39837.628,-61.523,-19.531,-62.012,-58.594,0.000,0
39837.632,-55.664,-15.625,-58.105,-60.547,0.000,0
39837.636,-44.434,-9.277,-56.152,-47.852,0.000,0
39837.639,-68.848,-5.371,-52.734,-49.316,0.000,0
39837.643,-67.383,-0.488,-47.852,-47.363,0.000,0
39837.647,-46.875,4.883,-42.969,-41.992,0.000,0
39837.651,-67.383,-4.883,-49.316,-48.828,0.000,0
39837.655,-74.707,-8.301,-63.965,-41.992,0.000,0
39837.659,-67.383,-8.789,-66.895,-44.922,0.000,0
39837.663,-58.105,-9.277,-65.430,-57.129,0.000,0
39837.667,-52.734,-7.324,-63.477,-61.523,0.000,0
39837.671,-77.637,-8.789,-52.246,-73.242,0.000,0
39837.675,-68.848,-3.906,-53.223,-68.359,0.000,0
39837.679,-41.504,-3.418,-61.523,-56.641,0.000,0
39837.682,-41.992,-0.488,-52.246,-46.387,0.000,0
39837.686,-73.242,-2.441,-47.852,-45.898,0.000,0
39837.690,-70.312,-8.789,-55.176,-58.594,0.000,0
39837.694,-73.242,-10.742,-57.617,-59.082,0.000,0
39837.698,-91.309,-9.277,-53.223,-67.383,0.000,0
39837.702,-80.078,-12.207,-59.570,-63.965,0.000,0
39837.706,-55.664,-11.719,-58.105,-49.805,0.000,0
39837.710,-38.574,-3.906,-50.293,-58.594,0.000,0
39837.714,-36.133,-8.301,-59.570,-65.430,0.000,0
39837.718,-76.172,-14.648,-61.035,-69.336,0.000,0
39837.722,-79.102,-11.230,-54.688,-62.988,0.000,0
39837.725,-60.547,-11.719,-58.105,-55.664,0.000,0
39837.729,-63.965,-11.719,-62.500,-60.059,0.000,0
39837.733,-68.359,-12.695,-57.617,-63.965,0.000,0
39837.737,-62.500,-11.230,-50.781,-60.547,0.000,0
39837.741,-57.129,-10.254,-53.223,-60.059,0.000,0
39837.745,-71.777,-13.184,-61.035,-61.523,0.000,0
39837.749,-83.496,-16.113,-67.871,-60.547,0.000,0
39837.753,-68.848,-12.207,-66.406,-59.570,0.000,0
39837.757,-47.363,-9.277,-62.012,-62.012,0.000,0
39837.761,-57.617,-18.066,-63.477,-62.988,0.000,0
39837.764,-51.270,-18.066,-64.941,-57.129,0.000,0
39837.768,-55.664,-20.996,-71.777,-64.453,0.000,0
39837.772,-70.801,-23.926,-75.684,-74.707,0.000,0
39837.776,-62.012,-20.508,-75.684,-68.359,0.000,0
39837.780,-57.617,-18.066,-72.754,-52.734,0.000,0
39837.784,-46.387,-18.555,-66.895,-48.828,0.000,0
39837.788,-40.039,-19.531,-66.895,-57.617,0.000,0
39837.792,-33.203,-15.625,-69.336,-51.270,0.000,0
39837.796,-58.105,-15.137,-70.801,-46.875,0.000,0
39837.800,-54.688,-17.578,-73.242,-54.688,0.000,0
39837.804,-50.293,-15.625,-64.453,-49.316,0.000,0
39837.807,-49.805,-10.254,-51.758,-54.199,0.000,0
39837.811,-31.250,-7.812,-50.781,-72.754,0.000,0
39837.815,-36.621,-9.766,-53.223,-70.801,0.000,0
39837.819,-33.691,-12.207,-58.105,-58.594,0.000,0
39837.823,-47.852,-16.602,-65.430,-54.199,0.000,0
39837.827,-48.828,-15.137,-59.082,-62.988,0.000,0
39837.831,-37.109,-10.254,-53.223,-63.965,0.000,0
39837.835,-37.598,-6.348,-53.223,-55.664,0.000,0
39837.839,-35.645,-6.348,-49.316,-56.152,0.000,0
39837.843,-47.852,-10.254,-50.781,-58.594,0.000,0
39837.847,-42.480,-14.160,-53.223,-66.895,0.000,0
39837.850,-52.246,-12.695,-54.688,-57.129,0.000,0
39837.854,-69.336,-13.184,-53.223,-59.082,0.000,0
39837.858,-57.129,-15.625,-54.199,-64.941,0.000,0
39837.862,-49.316,-12.695,-51.758,-54.688,0.000,0
39837.866,-42.480,-7.812,-48.828,-60.059,0.000,0
39837.870,-27.344,-6.836,-50.781,-72.266,0.000,0
39837.874,-16.602,-8.789,-54.688,-63.477,0.000,0
39837.878,-38.086,-12.207,-59.570,-64.941,0.000,0
39837.882,-49.805,-8.301,-55.176,-62.988,0.000,0
39837.886,-16.602,-5.859,-45.898,-61.523,0.000,0
39837.889,-26.367,-17.090,-52.734,-78.125,0.000,0
39837.893,-40.039,-15.137,-56.641,-66.406,0.000,0
39837.897,-42.480,-11.230,-57.617,-49.316,0.000,0
39837.901,-49.316,-12.695,-58.105,-43.945,0.000,0
39837.905,-21.973,-6.836,-49.316,-37.598,0.000,0
39837.909,-28.320,-3.906,-47.852,-35.156,0.000,0
39837.913,-38.574,-5.859,-47.363,-36.621,0.000,0
39837.917,-28.320,-3.418,-44.434,-32.227,0.000,0
39837.921,-46.387,-5.371,-45.410,-38.086,0.000,0
39837.925,-63.965,-4.395,-38.086,-55.664,0.000,0
39837.929,-43.457,-5.371,-39.551,-50.293,0.000,0
39837.932,-26.855,-8.789,-49.805,-46.875,0.000,0
39837.936,-29.297,-6.348,-47.363,-45.410,0.000,0
39837.940,-49.316,-8.789,-44.922,-42.480,0.000,0
39837.944,-50.293,-11.719,-48.828,-57.617,0.000,0
39837.948,-40.039,-17.578,-51.270,-44.434,0.000,0
39837.952,-31.250,-14.160,-46.387,-32.227,0.000,0
39837.956,-20.508,-6.348,-44.922,-65.918,0.000,0
39837.960,-6.348,-7.324,-49.805,-57.129,0.000,0
39837.964,-27.832,-10.742,-50.293,-51.270,0.000,0
39837.968,-34.180,-10.742,-45.410,-58.105,0.000,0
39837.972,-11.719,-8.301,-45.898,-42.969,0.000,0
39837.975,-27.832,-9.277,-45.898,-54.688,0.000,0
39837.979,-51.270,-11.230,-51.270,-66.406,0.000,0
39837.983,-45.410,-14.160,-56.641,-54.199,0.000,0
39837.987,-39.062,-10.254,-47.852,-49.316,0.000,0
39837.991,-25.879,-8.301,-49.805,-46.387,0.000,0
39837.995,-25.879,-7.812,-48.828,-43.457,0.000,0
39837.999,-39.062,-3.906,-40.527,-18.555,0.000,0
39838.003,-25.391,-7.324,-37.109,-11.719,0.000,0
39838.007,-31.250,-11.230,-41.504,-43.457,0.000,0
39838.011,-48.828,-7.812,-43.457,-38.086,0.000,0
39838.014,-32.227,-4.395,-42.969,-25.879,0.000,0
39838.018,-21.973,-6.348,-48.340,-38.086,0.000,0
39838.022,-23.926,-8.301,-45.410,-39.062,0.000,0
39838.026,-40.039,-4.395,-37.109,-43.457,0.000,0
39838.030,-48.340,-6.348,-39.062,-38.574,0.000,0
39838.034,-22.949,-4.395,-41.016,-28.809,0.000,0
39838.038,-4.883,-1.465,-45.410,-22.461,0.000,0
39838.042,-27.344,0.000,-40.527,-29.785,0.000,0
39838.046,-28.809,-9.766,-34.668,-52.246,0.000,0
39838.050,16.113,-17.578,-47.363,-40.527,0.000,0
39838.054,-36.621,-11.719,-41.504,-42.480,0.000,0
39838.057,-75.684,-9.277,-31.250,-50.781,0.000,0
39838.061,-45.410,-9.766,-35.645,-39.551,0.000,0
39838.065,-30.273,-7.324,-40.039,-48.340,0.000,2
39838.069,-32.715,-0.488,-36.621,-40.527,0.000,0
39838.073,-32.715,0.000,-39.062,-30.762,0.000,0
39838.077,-35.645,-6.348,-49.805,-30.762,0.000,0
39838.081,-29.785,-8.301,-45.898,-34.668,0.000,0
39838.085,-14.160,-5.859,-39.551,-32.227,0.000,0
39838.089,-37.109,-6.348,-43.457,-8.301,0.000,0
39838.093,-46.387,-7.812,-42.969,-14.160,0.000,0
39838.097,-21.973,-7.324,-35.156,-24.902,0.000,0
39838.100,-27.832,-9.766,-43.945,-23.926,0.000,0
39838.104,-35.156,-9.277,-45.410,-26.367,0.000,0
39838.108,-18.555,-3.418,-34.668,-30.273,0.000,0
39838.112,-18.066,-5.371,-38.086,-25.391,0.000,0
39838.116,-7.812,-10.254,-45.898,-23.926,0.000,0
39838.120,-20.508,-17.578,-50.293,-28.809,0.000,0
39838.124,-61.035,-16.113,-47.852,-37.109,0.000,0
39838.128,-51.270,-15.625,-49.316,-43.945,0.000,0
39838.132,-33.691,-19.531,-57.129,-38.086,0.000,0
39838.136,-43.945,-15.625,-48.340,-35.645,0.000,0
39838.139,-17.578,-6.348,-37.109,-31.738,0.000,0
39838.143,1.953,-6.348,-42.480,-33.691,0.000,0
39838.147,-2.930,-7.812,-44.922,-21.973,0.000,0
39838.151,5.859,-6.836,-42.480,-8.789,0.000,0
39838.155,12.207,-2.930,-41.504,-24.414,0.000,0
39838.159,-36.621,-7.812,-41.504,-41.992,0.000,0
39838.163,-42.969,-17.090,-40.527,-43.457,0.000,0
39838.167,-12.695,-15.137,-40.527,-32.715,0.000,0
39838.171,-20.020,-10.742,-42.969,-34.180,0.000,0
39838.175,-7.324,-5.859,-41.504,-32.715,0.000,0
39838.179,3.418,-3.906,-43.457,-20.996,0.000,0
39838.182,-41.016,-17.578,-53.223,-53.223,0.000,0
39838.186,-41.992,-20.020,-54.688,-62.500,0.000,0
39838.190,-36.621,-12.695,-49.316,-33.691,0.000,0
39838.194,-62.988,-13.672,-49.805,-22.461,0.000,0
39838.198,-40.527,-7.812,-42.969,-18.555,0.000,0
39838.202,-22.949,-3.906,-42.969,-18.555,0.000,0
39838.206,-42.969,-7.812,-46.875,-9.766,0.000,0
39838.210,-38.574,-15.137,-47.852,-16.113,0.000,0
39838.214,-30.762,-18.066,-50.781,-29.297,0.000,0
39838.218,-56.152,-14.160,-58.105,-20.020,0.000,0
39838.222,-58.105,-15.137,-57.617,-8.301,0.000,0
39838.225,-58.105,-13.672,-45.898,-10.254,0.000,0
39838.229,-38.574,-8.301,-39.551,-13.672,0.000,0
39838.233,-13.672,-2.930,-35.156,-9.766,0.000,0
39838.237,-37.598,-4.395,-40.039,-15.625,0.000,0
39838.241,-51.270,-7.812,-45.898,-23.926,0.000,0
39838.245,-37.598,-8.789,-45.410,-18.555,0.000,0
39838.249,-49.805,-12.695,-55.664,-19.531,0.000,0
39838.253,-54.688,-13.672,-57.617,-12.695,0.000,0
39838.257,-46.875,-14.648,-54.199,-0.977,0.000,0
39838.261,-37.598,-13.184,-48.340,-1.953,0.000,0
39838.264,-46.387,-6.836,-41.504,-21.973,0.000,0
39838.268,-55.176,-6.348,-44.922,-27.344,0.000,0
39838.272,-42.480,-10.742,-47.363,-29.785,0.000,0
39838.276,-35.156,-5.859,-48.340,-25.391,0.000,0
39838.280,-47.363,-5.859,-44.434,-22.461,0.000,0
39838.284,-46.875,-11.719,-41.504,-33.203,0.000,0
39838.288,-48.340,-8.789,-45.410,-29.297,0.000,0
39838.292,-54.199,-10.254,-46.875,-13.672,0.000,0
39838.296,-72.754,-20.020,-51.758,-12.207,0.000,0
39838.300,-70.312,-15.137,-47.363,-28.320,0.000,0
39838.304,-53.223,-9.277,-38.574,-28.320,0.000,0
39838.307,-27.832,-9.277,-45.410,-15.625,0.000,0
39838.311,-34.668,-12.695,-54.688,-16.113,0.000,0
39838.315,-87.891,-12.695,-46.875,-7.324,0.000,0
39838.319,-58.105,-12.695,-37.109,-5.371,0.000,0
39838.323,-47.852,-16.602,-41.016,-27.832,0.000,0
39838.327,-59.570,-10.742,-45.410,-27.344,0.000,0
39838.331,-38.574,-7.324,-41.992,-20.020,0.000,0
39838.335,-28.809,-6.348,-36.621,-20.508,0.000,0
39838.339,-20.508,-4.395,-29.297,-16.113,0.000,0
39838.343,-27.344,-10.742,-31.250,-25.391,0.000,0
39838.347,-31.738,-11.230,-41.992,-28.809,0.000,0
39838.350,-23.926,-8.301,-46.387,-27.832,0.000,0
39838.354,-33.691,-8.789,-50.293,-15.137,0.000,0
39838.358,-62.988,-10.254,-48.340,-17.578,0.000,0
39838.362,-59.082,-8.301,-41.016,-37.598,0.000,0
39838.366,-40.527,-4.883,-37.109,-12.207,0.000,0
39838.370,-26.367,-5.859,-33.203,4.883,0.000,0
39838.374,-20.508,-8.301,-34.668,0.000,0.000,0
39838.378,-27.344,-10.254,-30.762,-0.488,0.000,0
39838.382,-26.367,-14.160,-24.414,-27.344,0.000,0
39838.386,-24.414,-13.184,-33.691,-32.227,0.000,0
39838.389,-34.180,-11.230,-38.574,-17.090,0.000,0
39838.393,-36.133,-13.184,-41.992,-9.277,0.000,0
39838.397,-36.133,-13.184,-44.922,-5.859,0.000,0
39838.401,-40.039,-11.719,-49.805,-16.113,0.000,0
39838.405,-60.059,-11.230,-54.688,-22.949,0.000,0
39838.409,-27.344,-9.766,-53.711,-15.625,0.000,0
39838.413,-6.348,-8.301,-50.781,-11.719,0.000,0
39838.417,-55.176,-5.859,-43.945,3.906,0.000,0
39838.421,-75.684,-4.395,-39.062,-6.836,0.000,0
39838.425,-40.527,-0.977,-43.457,-20.020,0.000,0
39838.429,-10.254,4.395,-40.527,-0.977,0.000,0
39838.432,-21.973,1.953,-37.109,-1.953,0.000,0
39838.436,-31.250,-2.930,-39.551,-22.461,0.000,0
39838.440,-26.855,-4.883,-46.875,-25.879,0.000,0
39838.444,-52.246,-6.836,-47.852,-21.484,0.000,0
39838.448,-56.152,-5.859,-37.598,-13.672,0.000,0
39838.452,-51.758,-8.789,-40.527,-9.766,0.000,0
39838.456,-37.109,-6.836,-35.645,-6.836,0.000,0
39838.460,-20.996,-2.930,-33.203,-20.020,0.000,0
39838.464,-44.434,-9.277,-40.527,-20.020,0.000,0
39838.468,-36.133,-19.531,-44.922,-11.230,0.000,0
39838.472,8.301,-18.066,-47.852,-19.043,0.000,0
39838.475,-11.230,-11.719,-42.969,-23.926,0.000,0
39838.479,-59.570,-19.531,-47.363,-20.508,0.000,0
39838.483,-62.500,-21.484,-56.152,-13.184,0.000,0
39838.487,-31.250,-14.160,-48.340,-15.137,0.000,0
39838.491,-21.973,-15.137,-42.969,-24.414,0.000,0
39838.495,-30.762,-21.484,-50.781,-23.438,0.000,0
39838.499,-9.277,-18.555,-55.176,-18.555,0.000,0
39838.503,-32.715,-17.578,-55.176,-21.484,0.000,0
39838.507,-39.062,-11.719,-43.945,-0.977,0.000,0
39838.511,-26.367,-8.789,-36.621,6.348,0.000,0
39838.514,-13.672,-19.043,-46.875,-14.160,0.000,0
39838.518,-1.953,-21.484,-49.805,-22.461,0.000,0
39838.522,0.000,-12.695,-38.574,-18.066,0.000,0
39838.526,-13.184,-13.672,-43.457,-17.578,0.000,0
39838.530,-20.996,-17.090,-47.852,-10.254,0.000,0
39838.534,-15.625,-15.137,-44.922,-4.395,0.000,0
39838.538,-19.043,-10.742,-38.086,-5.859,0.000,0
39838.542,-42.969,-3.418,-34.668,2.441,0.000,0
39838.546,-47.852,-10.742,-50.293,5.859,0.000,0
39838.550,-32.227,-17.090,-49.316,-20.508,0.000,0
39838.554,-21.484,-17.090,-48.828,-42.480,0.000,0
39838.557,-25.879,-16.602,-55.176,-45.898,0.000,0
39838.561,-24.414,-12.207,-44.922,-35.156,0.000,0
39838.565,-29.785,-12.207,-32.715,-17.578,0.000,0
39838.569,-43.945,-20.508,-38.086,-21.484,0.000,0
39838.573,-20.020,-20.508,-51.270,-33.691,0.000,0
39838.577,-15.625,-20.996,-49.805,-39.062,0.000,0
39838.581,-29.785,-20.020,-39.551,-29.785,0.000,0
39838.585,-31.738,-15.137,-36.621,-3.906,0.000,0
39838.589,-24.414,-16.602,-37.598,-8.301,0.000,0
39838.593,-26.855,-19.531,-40.039,-32.227,0.000,0
39838.597,-19.043,-15.625,-40.527,-37.109,0.000,0
39838.600,-25.879,-12.695,-38.086,-31.250,0.000,0
39838.604,-41.504,-16.113,-42.969,-27.832,0.000,0
39838.608,-34.668,-20.996,-48.828,-14.648,0.000,0
39838.612,-21.973,-15.137,-44.922,-16.602,0.000,0
39838.616,-18.555,-10.254,-40.527,-34.668,0.000,0
39838.620,-31.250,-10.254,-41.504,-26.367,0.000,0
39838.624,-28.809,-8.301,-41.992,-25.391,0.000,0
39838.628,-18.555,-10.742,-43.457,-35.645,0.000,0
39838.632,-37.598,-9.277,-41.016,-13.672,0.000,0
39838.636,-20.508,-4.395,-34.180,-6.836,0.000,0
39838.639,-9.277,-10.742,-44.922,-24.902,0.000,0
39838.643,-44.434,-14.648,-55.176,-13.672,0.000,0
39838.647,-42.480,-8.301,-45.898,-16.602,0.000,0
39838.651,-16.113,-9.766,-41.992,-21.973,0.000,2
39838.655,-13.184,-13.184,-41.992,-14.648,0.000,0
39838.659,-27.344,-16.602,-42.969,-20.508,0.000,0
39838.663,3.418,-20.020,-44.922,-15.137,0.000,0
39838.667,23.438,-15.625,-46.387,-13.184,0.000,0
39838.671,-41.992,-15.625,-47.363,-7.324,0.000,0
39838.675,-59.570,-22.949,-45.898,-17.578,0.000,0
39838.679,-27.344,-25.879,-44.922,-34.180,0.000,0
39838.682,-21.484,-25.879,-51.270,-25.879,0.000,0
39838.686,-29.785,-23.926,-59.570,-20.996,0.000,0
39838.690,-14.648,-21.973,-57.129,-20.996,0.000,0
39838.694,-0.488,-20.996,-46.387,-26.855,0.000,0
39838.698,-14.648,-22.461,-42.480,-31.250,0.000,0
39838.702,-2.930,-20.020,-47.363,-21.484,0.000,0
39838.706,-13.672,-16.602,-42.969,-18.555,0.000,0
39838.710,-11.230,-12.207,-36.621,-4.395,0.000,0
39838.714,-6.836,-13.672,-39.062,-11.230,0.000,0
39838.718,-13.184,-19.043,-41.016,-42.969,0.000,0
39838.722,-22.949,-22.461,-46.387,-43.945,0.000,0
39838.725,-15.625,-18.066,-43.945,-36.133,0.000,0
39838.729,-6.348,-12.207,-40.527,-30.273,0.000,0
39838.733,-32.715,-12.207,-33.691,-16.113,0.000,0
39838.737,-27.344,-13.672,-25.391,-18.066,0.000,0
39838.741,11.719,-8.789,-34.668,-32.715,0.000,0
39838.745,-20.020,-10.742,-42.480,-34.668,0.000,0
39838.749,-55.176,-13.184,-30.273,-18.066,0.000,0
39838.753,-28.809,-10.254,-27.344,-16.602,0.000,0
39838.757,-6.348,-11.230,-32.227,-20.020,0.000,0
39838.761,-18.066,-13.672,-30.762,-17.578,0.000,0
39838.764,-30.273,-21.484,-38.086,-25.879,0.000,0
39838.768,-23.926,-29.297,-46.875,-28.320,0.000,0
39838.772,-12.695,-25.879,-43.945,-13.672,0.000,0
39838.776,-20.508,-21.973,-34.180,-11.230,0.000,0
39838.780,-36.133,-19.531,-30.273,-12.207,0.000,0
39838.784,-29.785,-17.090,-37.598,-8.789,0.000,0
39838.788,-11.719,-17.578,-42.969,-13.184,0.000,0
39838.792,-5.859,-16.113,-40.527,-10.742,0.000,0
39838.796,-24.414,-23.438,-41.504,-12.695,0.000,0
39838.800,-12.695,-20.996,-44.434,-18.066,0.000,0
39838.804,-1.953,-15.625,-41.992,-16.602,0.000,0
39838.807,-1.465,-15.137,-37.109,-5.859,0.000,0
39838.811,3.906,-18.555,-47.852,12.695,0.000,0
39838.815,15.137,-19.531,-48.340,6.348,0.000,0
39838.819,23.926,-14.648,-38.086,5.859,0.000,0
39838.823,0.977,-18.555,-40.039,14.160,0.000,0
39838.827,-26.855,-21.484,-41.504,-7.812,0.000,0
39838.831,-0.977,-18.555,-35.156,-8.301,0.000,0
39838.835,12.695,-18.555,-30.273,0.488,0.000,0
39838.839,-7.324,-16.113,-37.109,-8.301,0.000,0
39838.843,-14.648,-14.648,-40.039,-14.648,0.000,0
39838.847,-0.977,-17.578,-41.016,-12.695,0.000,0
39838.850,-0.488,-16.602,-41.016,-6.348,0.000,0
39838.854,-21.484,-20.508,-35.156,-22.461,0.000,0
39838.858,-14.648,-24.902,-31.250,-27.832,0.000,0
39838.862,-13.672,-26.855,-36.133,-18.555,0.000,0
39838.866,-19.531,-27.344,-35.156,-13.672,0.000,0
39838.870,-20.508,-27.344,-29.297,-15.625,0.000,0
39838.874,-32.227,-25.391,-34.668,-26.855,0.000,0
39838.878,-39.551,-21.484,-41.992,-28.320,0.000,0
39838.882,-39.551,-23.926,-47.852,-30.273,0.000,0
39838.886,-62.988,-25.879,-44.434,-24.902,0.000,0
39838.889,-42.480,-20.996,-38.086,-21.973,0.000,0
39838.893,-22.461,-18.066,-31.250,-22.949,0.000,0
39838.897,-48.828,-17.090,-25.879,-22.949,0.000,0
39838.901,-57.617,-16.602,-34.180,-14.160,0.000,0
39838.905,-50.293,-13.184,-38.574,-22.461,0.000,0
39838.909,-45.410,-12.207,-37.109,-31.250,0.000,0
39838.913,-35.156,-11.719,-37.109,-21.484,0.000,0
39838.917,-38.574,-11.230,-40.039,-13.184,0.000,0
39838.921,-60.059,-16.113,-42.969,-10.254,0.000,0
39838.925,-51.270,-15.625,-37.598,-3.418,0.000,0
39838.929,-25.879,-12.695,-31.250,7.812,0.000,0
39838.932,-42.480,-10.742,-27.832,-3.906,0.000,0
39838.936,-37.598,-9.277,-33.691,-20.020,0.000,0
39838.940,-27.344,-8.301,-38.574,-12.207,0.000,0
39838.944,-33.691,-13.672,-34.668,-8.301,0.000,0
39838.948,-41.504,-20.020,-37.109,-8.301,0.000,0
39838.952,-39.062,-18.066,-37.598,-14.648,0.000,0
39838.956,-26.367,-11.719,-29.785,-14.648,0.000,0
39838.960,-24.414,-7.812,-29.297,-4.395,0.000,0
39838.964,-10.254,-12.695,-34.180,-2.441,0.000,0
39838.968,4.395,-15.625,-32.715,-5.371,0.000,0
39838.972,-40.039,-20.508,-36.133,-30.273,0.000,0
39838.975,-63.477,-18.555,-35.645,-36.621,0.000,0
39838.979,-25.391,-10.742,-32.715,-7.812,0.000,0
39838.983,-4.883,-8.789,-31.738,-9.277,0.000,0
39838.987,-12.207,-15.625,-37.109,-16.113,0.000,0
39838.991,-16.113,-18.066,-40.527,1.465,0.000,0
39838.995,-14.160,-20.020,-39.062,-7.324,0.000,0
39838.999,-13.184,-20.020,-41.992,-18.066,0.000,0
39839.003,-7.324,-17.578,-35.645,-9.277,0.000,0
39839.007,-12.207,-19.531,-31.738,-6.836,0.000,0
39839.011,13.672,-20.020,-34.668,1.465,0.000,0
39839.014,11.719,-15.137,-29.297,2.930,0.000,0
39839.018,-26.855,-12.207,-27.832,-7.812,0.000,0
39839.022,-25.879,-9.766,-28.809,-18.555,0.000,0
39839.026,9.277,-10.254,-32.227,-2.930,0.000,0
39839.030,0.000,-12.695,-34.668,0.488,0.000,0
39839.034,-35.645,-13.184,-31.738,-19.043,0.000,0
39839.038,-18.555,-18.555,-32.715,-23.438,0.000,0
39839.042,-11.230,-21.484,-35.645,-9.766,0.000,0
39839.046,-36.133,-22.461,-32.715,-1.465,0.000,0
39839.050,-37.598,-21.484,-26.367,-6.348,0.000,0
39839.054,-0.488,-15.137,-22.949,-6.348,0.000,0
39839.057,2.441,-10.742,-26.367,-3.418,0.000,0
39839.061,-27.344,-11.719,-31.738,-2.930,0.000,0
39839.065,-38.574,-10.742,-26.855,0.488,0.000,0
39839.069,-19.531,-6.348,-19.043,1.465,0.000,0
39839.073,6.348,-3.418,-17.578,-10.254,0.000,0
39839.077,-13.672,-8.789,-24.902,-2.441,0.000,0
39839.081,-37.598,-15.137,-31.738,-9.766,0.000,0
39839.085,-32.227,-12.695,-30.762,-12.207,0.000,0
39839.089,-30.762,-12.207,-30.762,-11.719,0.000,0
39839.093,-20.996,-16.113,-27.832,-23.438,0.000,0
39839.097,-17.090,-15.137,-22.461,-19.043,0.000,0
39839.100,-27.344,-14.160,-30.273,-12.207,0.000,0
39839.104,-33.203,-14.160,-36.133,-4.883,0.000,0
39839.108,-56.641,-9.766,-31.250,-0.977,0.000,0
39839.112,-50.781,-13.184,-29.785,-14.160,0.000,0
39839.116,-27.832,-16.602,-32.227,-10.254,0.000,0
39839.120,-29.297,-15.625,-36.621,-5.859,0.000,0
39839.124,-30.273,-13.184,-31.250,-5.859,0.000,0
39839.128,-6.836,-9.277,-27.344,7.324,0.000,0
39839.132,2.441,-12.207,-33.691,-6.836,0.000,0
39839.136,-12.207,-11.230,-32.715,-10.254,0.000,0
39839.139,-16.113,-7.324,-24.414,4.883,0.000,0
39839.143,-16.113,-12.695,-24.902,-11.719,0.000,0
39839.147,10.254,-11.719,-29.297,-7.812,0.000,0
39839.151,3.906,-12.207,-33.691,-0.977,0.000,0
39839.155,-11.230,-9.277,-31.250,-11.719,0.000,0
39839.159,1.465,-2.930,-26.367,-7.812,0.000,0
39839.163,23.438,-0.977,-26.855,-5.371,0.000,0
39839.167,14.160,-7.324,-31.738,-5.371,0.000,0
39839.171,-14.648,-18.555,-31.738,-10.742,0.000,0
39839.175,-0.977,-18.066,-29.785,-4.883,0.000,0
39839.179,18.555,-7.812,-25.391,25.391,0.000,0
39839.182,20.020,-5.371,-20.508,6.836,0.000,0
39839.186,1.953,-13.184,-24.902,-15.625,0.000,0
39839.190,-6.348,-13.672,-24.902,-3.906,0.000,0
39839.194,7.812,-8.301,-23.926,-6.348,0.000,0
39839.198,-5.859,-10.254,-27.344,-13.184,0.000,1
39839.202,-9.766,-14.160,-25.391,-3.418,0.000,0
39839.206,12.695,-14.160,-27.344,-4.883,0.000,0
39839.210,8.789,-10.742,-27.344,-10.742,0.000,0
39839.214,-11.719,-12.695,-22.461,0.488,0.000,0
39839.218,-16.113,-14.160,-23.438,15.137,0.000,0
39839.222,1.465,-11.719,-27.832,-9.766,0.000,0
39839.225,10.254,-8.789,-23.438,-22.461,0.000,0
39839.229,-2.930,-5.371,-21.973,2.441,0.000,0
39839.233,4.395,-4.883,-27.344,-0.977,0.000,0
39839.237,25.879,-10.254,-30.762,-13.184,0.000,0
39839.241,-29.297,-13.184,-29.785,-11.230,0.000,0
39839.245,-60.547,-9.766,-26.367,-12.695,0.000,0
39839.249,-10.742,-9.766,-28.320,-11.230,0.000,0
39839.253,-5.859,-15.137,-38.574,-7.812,0.000,0
39839.257,-36.621,-16.602,-37.109,-20.020,0.000,0
39839.261,-14.648,-11.230,-29.297,-10.254,0.000,0
39839.264,-0.488,-6.836,-23.438,-4.883,0.000,0
39839.268,-34.180,-8.301,-18.066,-20.996,0.000,0
39839.272,-36.133,-11.230,-20.996,-9.277,0.000,0
39839.276,-16.113,-11.719,-18.555,4.883,0.000,0
39839.280,-0.488,-11.230,-20.020,-4.395,0.000,0
39839.284,5.859,-10.742,-25.391,-10.254,0.000,0
39839.288,-10.254,-16.602,-23.438,-12.207,0.000,0
39839.292,-20.996,-17.090,-23.438,-11.719,0.000,0
39839.296,-19.531,-16.113,-24.414,-7.812,0.000,0
39839.300,-24.902,-18.066,-17.090,-1.953,0.000,0
39839.304,-26.855,-10.254,-8.301,4.883,0.000,0
39839.307,-18.066,-9.277,-6.348,-4.395,0.000,0
39839.311,-6.836,-14.648,-12.695,-9.766,0.000,0
39839.315,-12.695,-14.648,-17.090,-2.930,0.000,0
39839.319,-32.227,-13.672,-11.230,-7.324,0.000,0
39839.323,-33.691,-17.090,-5.371,-13.672,0.000,0
39839.327,-21.973,-20.508,-8.789,-17.090,0.000,0
39839.331,-24.902,-15.625,-11.719,-12.207,0.000,0
39839.335,-29.297,-11.230,-8.789,-10.254,0.000,0
39839.339,-22.461,-15.625,-11.719,-6.836,0.000,0
39839.343,-22.949,-16.113,-20.508,5.859,0.000,0
39839.347,-42.480,-18.555,-20.996,-9.766,0.000,0
39839.350,-41.504,-20.508,-16.602,-15.625,0.000,0
39839.354,-21.973,-18.066,-19.531,-0.488,0.000,0
39839.358,-13.672,-18.555,-24.902,-2.930,0.000,0
39839.362,-21.973,-17.578,-23.926,-8.789,0.000,0
39839.366,-21.973,-16.113,-20.508,-2.441,0.000,0
39839.370,-21.973,-20.020,-21.973,-12.207,0.000,0
39839.374,-15.625,-21.484,-25.391,-20.508,0.000,0
39839.378,1.465,-19.043,-29.785,-3.906,0.000,0
39839.382,-24.414,-25.879,-28.809,-2.441,0.000,0
39839.386,-32.227,-30.273,-20.508,-20.020,0.000,0
39839.389,-14.160,-26.855,-20.020,-20.996,0.000,0
39839.393,-8.789,-25.879,-26.855,-14.160,0.000,0
39839.397,-16.602,-26.855,-30.762,-29.785,0.000,0
39839.401,-20.020,-27.344,-30.273,-30.762,0.000,0
39839.405,-27.832,-28.809,-29.297,-20.508,0.000,0
39839.409,-25.879,-19.043,-19.531,-14.648,0.000,0
39839.413,-15.625,-13.672,-17.090,-9.766,0.000,0
39839.417,-17.090,-20.020,-22.949,-18.555,0.000,0
39839.421,-26.855,-24.414,-30.762,-18.066,0.000,0
39839.425,-36.621,-32.227,-43.945,-21.484,0.000,0
39839.429,-37.598,-33.203,-39.062,-24.902,0.000,0
39839.432,-24.414,-25.879,-27.344,-13.672,0.000,0
39839.436,-23.438,-25.391,-22.461,-20.508,0.000,0
39839.440,-49.316,-24.414,-25.879,-28.809,0.000,0
39839.444,-58.594,-27.832,-33.691,-46.875,0.000,0
39839.448,-43.945,-30.273,-33.203,-54.199,0.000,0
39839.452,-38.574,-24.414,-24.414,-29.785,0.000,0
39839.456,-42.480,-23.438,-20.508,-30.762,0.000,0
39839.460,-20.508,-20.996,-20.020,-32.227,0.000,0
39839.464,-26.855,-24.414,-20.020,-34.180,0.000,0
39839.468,-41.016,-25.391,-23.438,-40.039,0.000,0
39839.472,-27.344,-16.113,-17.090,-32.227,0.000,0
39839.475,-39.062,-17.578,-18.555,-42.969,0.000,0
39839.479,-67.383,-22.949,-28.809,-46.387,0.000,0
39839.483,-66.895,-15.625,-26.367,-37.109,0.000,0
39839.487,-30.762,-13.184,-25.879,-44.922,0.000,0
39839.491,-20.996,-13.672,-25.879,-29.297,0.000,0
39839.495,-37.109,-7.812,-19.531,-17.090,0.000,0
39839.499,-57.129,-12.695,-22.949,-42.480,0.000,0
39839.503,-54.199,-17.090,-25.879,-44.434,0.000,0
39839.507,-22.949,-12.207,-21.973,-30.273,0.000,0
39839.511,-22.949,-6.348,-20.508,-34.180,0.000,0
39839.514,-46.875,-5.371,-21.973,-35.156,0.000,0
39839.518,-30.273,-8.789,-25.391,-36.621,0.000,0
39839.522,-14.648,-5.859,-24.414,-39.551,0.000,0
39839.526,-60.059,-4.883,-22.461,-38.574,0.000,0
39839.530,-82.031,-8.301,-30.762,-29.297,0.000,0
39839.534,-41.504,-12.695,-35.645,-23.926,0.000,0
39839.538,-21.484,-12.695,-31.250,-28.320,0.000,0
39839.542,-38.574,-13.184,-29.785,-26.367,0.000,0
39839.546,-45.410,-15.137,-29.297,-37.598,0.000,0
39839.550,-35.156,-10.742,-30.762,-47.363,0.000,0
39839.554,-27.832,-8.789,-32.715,-34.180,0.000,0
39839.557,-30.762,-6.836,-34.668,-20.508,0.000,0
39839.561,-23.438,-3.418,-37.598,-5.859,0.000,0
39839.565,-22.949,-5.859,-31.738,-10.742,0.000,0
39839.569,-29.297,-9.277,-33.203,-22.949,0.000,0
39839.573,-51.270,-18.555,-38.574,-13.672,0.000,0
39839.577,-43.945,-20.996,-44.434,-2.930,0.000,0
39839.581,-21.484,-11.719,-42.480,-1.953,0.000,0
39839.585,-24.902,-10.742,-32.227,-5.371,0.000,0
39839.589,-47.363,-15.625,-33.203,-13.672,0.000,0
39839.593,-37.598,-14.648,-32.227,-14.648,0.000,0
39839.597,-20.508,-14.648,-32.715,-14.648,0.000,0
39839.600,-40.039,-14.160,-38.574,-19.531,0.000,0
39839.604,-25.391,-12.207,-36.133,-17.578,0.000,0
39839.608,-4.395,-11.230,-38.574,-7.812,0.000,0
39839.612,-6.348,-7.324,-43.457,-0.977,0.000,0
39839.616,-15.137,-5.859,-34.668,0.977,0.000,0
39839.620,-36.133,-3.418,-22.949,2.930,0.000,0
39839.624,-23.926,-1.465,-18.555,-9.766,0.000,0
39839.628,-6.348,-4.883,-27.344,-14.160,0.000,0
39839.632,-4.395,-6.836,-31.738,-2.441,0.000,0
39839.636,-16.113,-11.230,-37.109,-7.324,0.000,0
39839.639,-15.625,-14.160,-46.875,-3.906,0.000,0
39839.643,-14.648,-12.207,-44.434,6.836,0.000,0
39839.647,-18.066,-4.883,-36.621,2.441,0.000,0
39839.651,-13.184,0.488,-35.645,-9.766,0.000,0
39839.655,-11.719,-6.348,-37.109,-15.137,0.000,0
39839.659,-22.949,-12.695,-44.922,-10.254,0.000,0
39839.663,-27.832,-12.207,-46.387,-23.438,0.000,0
39839.667,-21.973,-17.090,-49.316,-28.320,0.000,0
39839.671,-19.531,-15.625,-51.758,-5.371,0.000,0
39839.675,-29.785,-12.695,-45.410,1.465,0.000,0
39839.679,-51.270,-16.113,-49.316,-3.418,0.000,0
39839.682,-46.875,-13.672,-43.457,-14.648,0.000,0
39839.686,-23.438,-6.348,-31.250,-19.531,0.000,0
39839.690,-30.762,-6.348,-33.691,-12.207,0.000,0
39839.694,-45.410,-11.719,-32.227,-4.883,0.000,0
39839.698,-24.414,-15.625,-38.574,-4.395,0.000,0
39839.702,-10.742,-15.625,-47.363,-13.184,0.000,0
39839.706,-49.316,-9.766,-38.086,-11.230,0.000,0
39839.710,-57.617,-8.301,-37.109,-8.789,0.000,0
39839.714,-35.156,-8.301,-40.527,-9.766,0.000,0
39839.718,-26.855,-2.930,-39.551,-0.488,0.000,0
39839.722,-42.480,-1.465,-34.668,-3.418,0.000,0
39839.725,-53.223,-3.418,-30.762,-14.648,0.000,0
39839.729,-26.367,-8.789,-42.969,-22.949,0.000,0
39839.733,-19.531,-13.184,-50.781,-20.020,0.000,0
39839.737,-34.180,-11.719,-47.852,-11.230,0.000,0
39839.741,-29.785,-11.230,-40.039,-19.043,0.000,0
39839.745,-41.504,-11.230,-35.645,-19.531,0.000,0
39839.749,-52.246,-10.742,-41.504,-9.766,0.000,0
39839.753,-41.992,-13.672,-43.945,-10.254,0.000,0
39839.757,-44.922,-16.602,-41.992,-16.113,0.000,0
39839.761,-59.570,-16.602,-37.109,-24.902,0.000,0
39839.764,-53.711,-17.578,-39.551,-33.691,0.000,0
39839.768,-60.547,-15.625,-42.480,-24.414,0.000,0
39839.772,-61.035,-13.672,-40.039,-10.254,0.000,0
39839.776,-37.109,-13.672,-36.133,-8.301,0.000,0
39839.780,-52.734,-15.137,-35.156,-9.766,0.000,0
39839.784,-63.477,-22.461,-44.922,-10.254,0.000,0
39839.788,-46.387,-22.949,-49.805,-9.766,0.000,0
39839.792,-32.227,-16.602,-46.387,-12.207,0.000,0
39839.796,-46.387,-12.207,-43.457,-8.789,0.000,0
39839.800,-66.895,-11.719,-31.738,-10.742,0.000,0
39839.804,-64.453,-12.695,-29.297,-15.625,0.000,0
39839.807,-57.617,-13.184,-30.273,-10.254,0.000,0
39839.811,-58.594,-12.695,-30.762,-1.953,0.000,0
39839.815,-37.598,-12.695,-38.574,-0.488,0.000,0
39839.819,-10.742,-15.137,-37.598,5.371,0.000,0
39839.823,-22.461,-19.043,-36.621,3.906,0.000,0
39839.827,-37.109,-19.531,-32.715,-2.441,0.000,0
39839.831,-38.574,-17.578,-31.738,-7.324,0.000,0
39839.835,-31.738,-11.719,-28.320,-0.488,0.000,0
39839.839,-39.062,-13.672,-29.785,-4.883,0.000,0
39839.843,-45.410,-22.461,-39.551,-24.902,0.000,0
39839.847,-30.273,-20.020,-37.598,-12.207,0.000,0
39839.850,-33.691,-21.973,-41.504,0.000,0.000,0
39839.854,-30.762,-25.879,-41.992,-2.441,0.000,0
39839.858,-41.016,-22.949,-35.156,-2.441,0.000,0
39839.862,-33.691,-20.020,-30.273,-6.348,0.000,0
39839.866,-9.277,-24.414,-34.180,-3.418,0.000,0
39839.870,-32.715,-23.438,-35.645,-5.371,0.000,0
39839.874,-47.363,-16.113,-29.785,-6.348,0.000,0
39839.878,-22.949,-11.230,-24.414,2.441,0.000,0
39839.882,-7.324,-7.812,-22.949,-14.648,0.000,1
39839.886,-30.762,-7.324,-28.809,-19.043,0.000,0
39839.889,-53.223,-11.230,-36.621,-14.648,0.000,0
39839.893,-33.203,-12.207,-37.109,-28.320,0.000,0
39839.897,-17.090,-13.672,-32.715,-25.391,0.000,0
39839.901,-32.227,-11.719,-33.203,-23.438,0.000,0
39839.905,-37.598,-12.207,-35.156,-26.855,0.000,0
39839.909,-31.738,-20.996,-35.156,-16.602,0.000,0
39839.913,-19.043,-20.508,-36.133,-11.719,0.000,0
39839.917,-32.715,-17.578,-34.180,-14.648,0.000,0
39839.921,-47.363,-17.578,-29.785,-6.836,0.000,0
39839.925,-25.879,-16.113,-29.297,-13.184,0.000,0
39839.929,-38.086,-17.578,-30.273,-22.949,0.000,0
39839.932,-42.969,-15.137,-29.785,-21.484,0.000,0
39839.936,-31.250,-9.277,-27.832,-15.137,0.000,0
39839.940,-28.809,-10.742,-22.949,-28.320,0.000,0
39839.944,-35.645,-14.648,-27.832,-36.133,0.000,0
39839.948,-42.969,-13.672,-35.645,-19.531,0.000,0
39839.952,-47.852,-16.602,-37.109,-23.438,0.000,0
39839.956,-22.461,-16.602,-31.738,-21.973,0.000,0
39839.960,-26.855,-12.695,-27.344,3.418,0.000,0
39839.964,-39.062,-14.648,-33.691,-7.812,0.000,0
39839.968,-12.695,-13.672,-39.062,-25.391,0.000,0
39839.972,-21.484,-15.625,-36.133,-19.043,0.000,0
39839.975,-12.207,-20.508,-37.109,-8.301,0.000,0
39839.979,-33.691,-23.438,-36.133,-31.738,0.000,0
39839.983,-49.805,-21.484,-37.598,-33.203,0.000,0
39839.987,-26.855,-14.648,-29.297,-9.766,0.000,0
39839.991,-28.320,-12.695,-25.391,-16.113,0.000,0
39839.995,-20.508,-20.996,-34.668,-25.391,0.000,0
39839.999,-24.414,-30.273,-44.434,-32.715,0.000,0
39840.003,-31.738,-25.391,-38.574,-33.203,0.000,0
39840.007,-26.855,-18.555,-31.250,-5.859,0.000,0
39840.011,-30.762,-19.531,-39.062,-4.883,0.000,0
39840.014,-29.785,-17.090,-34.180,-33.691,0.000,0
39840.018,-35.156,-17.090,-32.715,-25.879,0.000,0
39840.022,-26.367,-16.113,-33.203,-0.488,0.000,0
39840.026,-12.207,-20.020,-31.250,-12.207,0.000,0
39840.030,-17.090,-20.996,-34.668,-20.996,0.000,0
39840.034,-17.090,-21.484,-34.180,-29.297,0.000,0
39840.038,-2.441,-21.484,-38.086,-41.504,0.000,0
39840.042,-9.277,-19.531,-37.109,-29.785,0.000,0
39840.046,-32.227,-21.973,-32.715,-17.090,0.000,0
39840.050,-25.879,-22.949,-30.273,-13.184,0.000,0
39840.054,0.488,-19.043,-29.297,-25.879,0.000,0
39840.057,4.395,-15.137,-31.250,-22.949,0.000,0
39840.061,-24.414,-11.230,-31.250,-7.324,0.000,0
39840.065,-28.320,-7.324,-24.414,-20.020,0.000,0
39840.069,-19.531,-8.301,-24.902,-20.996,0.000,0
39840.073,-25.879,-9.766,-34.668,-22.949,0.000,0
39840.077,-44.922,-14.648,-39.062,-35.156,0.000,0
39840.081,-46.387,-16.113,-38.574,-17.578,0.000,0
39840.085,-25.391,-16.602,-38.574,-12.695,0.000,0
39840.089,-21.484,-12.207,-36.621,-21.484,0.000,0
39840.093,-39.062,-13.184,-34.668,-34.180,0.000,0
39840.097,-43.945,-10.742,-34.180,-39.551,0.000,0
39840.100,-23.926,-8.301,-32.715,-31.738,0.000,0
39840.104,-24.902,-14.160,-30.762,-35.645,0.000,0
39840.108,-31.250,-19.043,-32.227,-35.645,0.000,0
39840.112,-23.926,-20.020,-36.133,-31.250,0.000,0
39840.116,-25.879,-16.113,-37.109,-26.855,0.000,0
39840.120,-23.926,-18.555,-40.527,-29.297,0.000,0
39840.124,-29.785,-15.137,-38.086,-29.785,0.000,0
39840.128,-35.645,-7.812,-31.250,-29.297,0.000,0
39840.132,-19.531,-10.254,-33.203,-28.809,0.000,0
39840.136,-15.625,-7.324,-32.227,-19.531,0.000,0
39840.139,-18.066,-2.441,-32.227,-10.742,0.000,0
39840.143,-18.066,-8.789,-35.645,-2.930,0.000,0
39840.147,-1.465,-11.719,-36.133,-7.812,0.000,0
39840.151,-1.953,-9.766,-33.203,-11.230,0.000,0
39840.155,-31.738,-10.742,-24.902,-16.113,0.000,0
39840.159,-27.832,-9.766,-24.902,-5.371,0.000,0
39840.163,-6.836,-0.977,-26.367,7.324,0.000,0
39840.167,-11.719,-4.883,-20.508,-5.371,0.000,0
39840.171,-22.949,-11.230,-20.996,-8.301,0.000,0
39840.175,-24.414,-11.719,-31.250,-14.648,0.000,0
39840.179,-32.227,-14.160,-38.086,-26.367,0.000,0
39840.182,-34.180,-16.113,-37.109,-33.203,0.000,0
39840.186,-30.273,-16.113,-41.992,-24.902,0.000,0
39840.190,-36.621,-4.883,-36.621,-18.066,0.000,0
39840.194,-39.551,-1.953,-19.043,-20.508,0.000,0
39840.198,-60.059,-14.160,-23.926,-26.855,0.000,0
39840.202,-69.336,-20.996,-31.250,-43.945,0.000,0
39840.206,-34.180,-11.230,-23.926,-28.809,0.000,0
39840.210,-25.391,-3.906,-20.996,-18.066,0.000,0
39840.214,-36.133,-13.184,-26.855,-39.062,0.000,0
39840.218,-52.246,-19.531,-34.180,-47.852,0.000,0
39840.222,-53.711,-15.137,-32.227,-49.805,0.000,0
39840.225,-41.016,-11.230,-26.855,-39.551,0.000,0
39840.229,-48.828,-9.277,-23.438,-37.598,0.000,0
39840.233,-52.246,-12.207,-20.020,-49.316,0.000,0
39840.237,-33.203,-12.695,-25.879,-40.527,0.000,0
39840.241,-26.367,-9.277,-28.320,-18.555,0.000,0
39840.245,-52.734,-15.625,-23.926,-30.273,0.000,0
39840.249,-39.551,-8.789,-19.531,-40.527,0.000,0
39840.253,-7.324,0.488,-15.137,-24.902,0.000,0
39840.257,-9.277,-7.812,-22.949,-17.090,0.000,0
39840.261,-9.766,-8.301,-30.762,-7.324,0.000,0
39840.264,-5.371,-0.977,-25.879,0.000,0.000,0
39840.268,0.977,0.488,-18.555,-6.836,0.000,0
39840.272,-34.180,-7.812,-22.949,-19.531,0.000,0
39840.276,-43.945,-11.230,-28.320,-14.648,0.000,0
39840.280,-27.344,-9.766,-33.691,-20.508,0.000,0
39840.284,-17.090,-9.766,-30.762,-27.832,0.000,0
39840.288,-24.414,-7.324,-20.996,-17.578,0.000,0
39840.292,-17.578,-6.348,-20.508,-13.672,0.000,0
39840.296,4.883,-4.883,-23.438,-10.742,0.000,0
39840.300,-5.371,-11.719,-32.715,-16.602,0.000,0
39840.304,-11.719,-15.625,-36.133,-20.996,0.000,0
39840.307,-5.859,-8.301,-31.250,-20.020,0.000,0
39840.311,-3.418,-6.836,-25.391,-20.020,0.000,0
39840.315,-29.785,-12.207,-32.227,-27.832,0.000,0
39840.319,-38.574,-16.113,-37.109,-21.484,0.000,0
39840.323,-21.484,-10.742,-27.344,-2.930,0.000,0
39840.327,-19.043,-10.254,-24.414,0.977,0.000,0
39840.331,-8.301,-7.324,-21.973,-19.531,0.000,0
39840.335,-22.461,-6.348,-26.367,-18.555,0.000,0
39840.339,-25.879,-16.113,-35.645,-2.930,0.000,0
39840.343,-29.297,-22.461,-36.621,-19.043,0.000,0
39840.347,-34.180,-14.160,-29.297,-20.020,0.000,0
39840.350,-17.578,-13.184,-33.203,-26.855,0.000,0
39840.354,-34.180,-16.602,-40.527,-37.598,0.000,0
39840.358,-41.504,-15.625,-41.504,-33.691,0.000,0
39840.362,-32.227,-8.301,-29.297,-21.973,0.000,0
39840.366,-17.090,0.977,-22.949,1.953,0.000,0
39840.370,-8.789,-1.465,-41.016,-13.184,0.000,0
39840.374,-12.695,-9.766,-49.805,-21.484,0.000,0
39840.378,-46.875,-15.137,-44.434,-11.719,0.000,0
39840.382,-54.688,-7.324,-37.109,-11.719,0.000,0
39840.386,-21.973,-6.348,-31.738,-8.301,0.000,0
39840.389,-21.973,-11.719,-30.762,-27.832,0.000,0
39840.393,-28.809,-11.230,-33.203,-41.016,0.000,0
39840.397,-29.785,-12.207,-39.551,-24.902,0.000,0
39840.401,-32.715,-13.184,-37.598,-16.602,0.000,0
39840.405,-26.855,-14.648,-36.621,-19.531,0.000,0
39840.409,-32.227,-10.254,-41.504,-29.785,0.000,0
39840.413,-47.363,-3.418,-44.922,-22.949,0.000,0
39840.417,-41.992,-5.859,-46.387,-6.836,0.000,0
39840.421,-37.598,-12.695,-43.945,-14.160,0.000,0
39840.425,-34.180,-17.090,-41.016,-19.531,0.000,0
39840.429,-21.484,-16.602,-36.133,-7.812,0.000,0
39840.432,-13.184,-9.766,-30.273,-10.254,0.000,0
39840.436,0.000,-6.836,-30.762,-16.602,0.000,0
39840.440,-11.719,-11.230,-36.133,-3.906,0.000,0
39840.444,-30.273,-11.230,-33.203,-3.906,0.000,0
39840.448,-31.738,-12.207,-32.715,-24.902,0.000,0
39840.452,-48.828,-20.996,-38.574,-37.109,0.000,0
39840.456,-45.410,-21.484,-43.457,-29.785,0.000,0
39840.460,-23.926,-17.578,-44.922,-29.297,0.000,1
39840.464,-21.484,-18.555,-39.062,-41.504,0.000,0
39840.468,-41.016,-18.066,-32.227,-33.203,0.000,0
39840.472,-36.133,-10.742,-26.367,-26.367,0.000,0
39840.475,-17.578,-11.719,-32.227,-28.809,0.000,0
39840.479,-17.090,-13.672,-41.016,-18.555,0.000,0
39840.483,-32.715,-13.672,-40.527,-15.137,0.000,0
39840.487,-42.480,-15.137,-37.598,-25.879,0.000,0
39840.491,-22.461,-17.090,-37.598,-31.250,0.000,0
39840.495,-20.996,-18.066,-41.016,-24.902,0.000,0
39840.499,-9.277,-17.090,-35.156,-26.367,0.000,0
39840.503,-4.395,-19.531,-37.598,-17.090,0.000,0
39840.507,-27.832,-18.555,-40.039,-2.441,0.000,0
39840.511,-30.273,-18.066,-33.203,-17.578,0.000,0
39840.514,-33.203,-19.043,-37.598,-26.367,0.000,0
39840.518,-37.598,-22.949,-39.551,-29.785,0.000,0
39840.522,-22.461,-27.344,-38.574,-32.227,0.000,0
39840.526,-20.996,-25.879,-48.340,-18.555,0.000,0
39840.530,-38.574,-25.879,-44.922,-20.996,0.000,0
39840.534,-10.742,-18.555,-32.227,-26.855,0.000,0
39840.538,5.859,-8.301,-27.832,-17.090,0.000,0
39840.542,-25.879,-10.742,-22.949,6.836,0.000,0
39840.546,-32.715,-15.625,-25.879,-0.488,0.000,0
39840.550,-34.668,-19.043,-35.156,-26.367,0.000,0
39840.554,-28.320,-19.531,-42.969,-28.320,0.000,0
39840.557,-17.578,-13.184,-42.480,-23.438,0.000,0
39840.561,-36.621,-15.625,-40.527,-20.020,0.000,0
39840.565,-35.156,-20.508,-40.039,-27.344,0.000,0
39840.569,-23.926,-19.531,-35.645,-31.250,0.000,0
39840.573,-35.156,-20.020,-32.715,-24.902,0.000,0
39840.577,-42.480,-20.020,-31.738,-22.461,0.000,0
39840.581,-16.113,-20.508,-38.086,-25.391,0.000,0
39840.585,-31.738,-23.926,-42.480,-32.227,0.000,0
39840.589,-44.922,-23.438,-40.527,-34.668,0.000,0
39840.593,-28.809,-17.578,-38.574,-12.695,0.000,0
39840.597,-23.438,-10.254,-32.715,-7.324,0.000,0
39840.600,-10.742,-8.789,-24.902,-13.672,0.000,0
39840.604,-22.949,-9.277,-26.855,-16.113,0.000,0
39840.608,-42.480,-13.184,-37.109,-36.621,0.000,0
39840.612,-32.715,-16.602,-36.133,-29.297,0.000,0
39840.616,-45.898,-18.555,-33.203,-14.160,0.000,0
39840.620,-64.453,-14.160,-32.715,-19.043,0.000,0
39840.624,-45.410,-13.184,-39.551,-22.461,0.000,0
39840.628,-40.039,-21.484,-42.480,-31.250,0.000,0
39840.632,-49.316,-21.484,-34.668,-26.367,0.000,0
39840.636,-41.992,-15.137,-33.203,-12.207,0.000,0
39840.639,-41.504,-17.090,-36.133,-17.090,0.000,0
39840.643,-28.320,-15.137,-33.203,-8.301,0.000,0
39840.647,-23.926,-6.348,-22.461,-19.043,0.000,0
39840.651,-43.945,-10.742,-29.297,-33.203,0.000,0
39840.655,-29.297,-14.648,-41.992,-14.160,0.000,0
39840.659,17.090,-11.230,-40.039,-9.277,0.000,0
39840.663,-16.113,-9.766,-36.133,-16.113,0.000,0
39840.667,-39.551,-18.066,-33.203,-30.273,0.000,0
39840.671,0.488,-16.602,-31.250,-32.715,0.000,0
39840.675,-11.719,-12.695,-32.227,-18.066,0.000,0
39840.679,-22.949,-17.578,-34.180,-17.090,0.000,0
39840.682,-22.949,-22.461,-39.551,-14.160,0.000,0
39840.686,-12.207,-24.414,-34.668,-13.672,0.000,0
39840.690,-9.766,-21.973,-30.762,-19.043,0.000,0
39840.694,-18.066,-26.367,-40.039,-19.531,0.000,0
39840.698,-26.855,-28.320,-42.480,-11.719,0.000,0
39840.702,-45.898,-28.809,-43.457,-8.301,0.000,0
39840.706,-41.016,-28.809,-41.992,-16.602,0.000,0
39840.710,-32.227,-23.926,-35.156,-9.277,0.000,0
39840.714,-17.578,-20.508,-29.785,-8.301,0.000,0
39840.718,-13.184,-21.484,-27.344,-20.508,0.000,0
39840.722,-31.250,-25.391,-35.156,-19.043,0.000,0
39840.725,-12.207,-24.902,-37.598,-22.461,0.000,0
39840.729,-19.531,-19.043,-33.203,-21.973,0.000,0
39840.733,-43.457,-22.461,-45.898,-29.785,0.000,0
39840.737,-30.273,-32.715,-53.223,-41.992,0.000,0
39840.741,-36.133,-28.320,-42.969,-25.391,0.000,0
39840.745,-39.062,-17.090,-36.621,-9.277,0.000,0
39840.749,-41.992,-20.996,-39.551,-21.973,0.000,0
39840.753,-47.363,-25.391,-41.992,-15.137,0.000,0
39840.757,-27.344,-27.832,-42.480,-4.395,0.000,0
39840.761,-19.531,-31.250,-42.969,-11.719,0.000,0
39840.764,-44.434,-29.785,-41.992,-21.484,0.000,0
39840.768,-26.855,-20.996,-33.203,-8.789,0.000,0
39840.772,-30.762,-14.160,-26.855,-4.883,0.000,0
39840.776,-37.109,-17.090,-25.879,-20.508,0.000,0
39840.780,-33.691,-21.973,-28.320,-23.438,0.000,0
39840.784,-30.762,-20.508,-33.203,-27.344,0.000,0
39840.788,-25.391,-13.672,-32.227,-25.391,0.000,0
39840.792,-29.785,-15.137,-38.086,-20.996,0.000,0
39840.796,-48.340,-24.902,-43.457,-22.461,0.000,0
39840.800,-71.289,-18.555,-34.668,-22.949,0.000,0
39840.804,-50.293,-12.207,-27.344,-23.926,0.000,0
39840.807,-16.602,-9.766,-29.785,-19.043,0.000,0
39840.811,-14.160,-10.742,-32.715,-17.578,0.000,0
39840.815,-33.691,-14.648,-38.086,-26.855,0.000,0
39840.819,-36.621,-14.160,-33.691,-31.738,0.000,0
39840.823,-21.484,-13.672,-26.367,-21.973,0.000,0
39840.827,-37.598,-12.207,-30.273,-23.926,0.000,0
39840.831,-59.082,-9.277,-28.809,-28.809,0.000,0
39840.835,-45.410,-10.254,-29.785,-35.645,0.000,0
39840.839,-19.531,-11.230,-31.250,-38.574,0.000,0
39840.843,-10.742,-6.836,-25.879,-22.461,0.000,0
39840.847,-29.785,-7.324,-26.367,-23.438,0.000,0
39840.850,-21.973,-5.859,-35.156,-42.480,0.000,0
39840.854,0.977,-0.488,-38.086,-36.133,0.000,0
39840.858,-14.648,0.000,-45.410,-20.508,0.000,0
39840.862,-38.574,-1.465,-46.387,-24.414,0.000,0
39840.866,-40.039,-3.906,-38.086,-32.227,0.000,0
39840.870,-21.484,1.953,-28.809,-19.531,0.000,0
39840.874,-29.297,0.488,-32.227,-19.531,0.000,0
39840.878,-21.484,0.000,-36.133,-22.949,0.000,0
39840.882,0.000,-1.953,-36.133,-20.508,0.000,0
39840.886,-23.438,-15.625,-42.969,-20.996,0.000,0
39840.889,-38.086,-13.184,-38.574,-18.066,0.000,0
39840.893,-22.461,-7.324,-39.062,-25.391,0.000,0
39840.897,-22.949,-7.324,-42.480,-19.043,0.000,0
39840.901,-18.066,-5.859,-36.621,-12.207,0.000,0
39840.905,-38.574,-11.719,-35.645,-19.043,0.000,0
39840.909,-38.574,-8.301,-36.621,-16.113,0.000,0
39840.913,-9.277,-3.418,-34.180,-24.902,0.000,0
39840.917,-21.973,-9.766,-32.227,-37.109,0.000,0
39840.921,-28.809,-11.230,-31.250,-20.508,0.000,0
39840.925,-26.367,-8.301,-31.250,-15.625,0.000,0
39840.929,-34.668,-9.766,-33.691,-21.484,0.000,0
39840.932,-32.227,-13.672,-33.691,-20.508,0.000,0
39840.936,-30.762,-14.648,-37.598,-20.996,0.000,0
39840.940,-26.855,-18.555,-39.551,-24.414,0.000,0
39840.944,-52.734,-18.555,-31.250,-25.879,0.000,0
39840.948,-77.148,-15.137,-32.227,-23.438,0.000,0
39840.952,-60.059,-14.160,-38.574,-27.344,0.000,0
39840.956,-24.414,-9.766,-31.250,-25.391,0.000,0
39840.960,-41.992,-18.066,-37.109,-25.879,0.000,0
39840.964,-52.246,-29.785,-44.922,-40.039,0.000,0
39840.968,-55.176,-25.879,-41.992,-32.715,0.000,0
39840.972,-54.688,-20.020,-38.086,-22.461,0.000,0
39840.975,-41.016,-19.531,-41.992,-23.926,0.000,0
39840.979,-55.664,-22.949,-47.363,-23.926,0.000,0
39840.983,-43.457,-22.461,-39.551,-53.223,0.000,0
39840.987,-30.273,-17.090,-40.527,-54.688,0.000,0
39840.991,-29.297,-13.672,-41.504,-35.156,0.000,0
39840.995,-44.434,-8.789,-33.203,-23.438,0.000,0
39840.999,-59.082,-12.207,-34.668,-17.090,0.000,0
39841.003,-48.828,-20.020,-40.527,-42.969,0.000,1
39841.007,-60.059,-20.996,-41.016,-45.898,0.000,0
39841.011,-61.035,-20.020,-40.527,-27.832,0.000,0
39841.014,-41.992,-21.973,-42.969,-22.949,0.000,0
39841.018,-44.434,-23.438,-41.016,-28.809,0.000,0
39841.022,-58.105,-20.020,-33.203,-41.016,0.000,0
39841.026,-51.758,-18.555,-34.180,-43.945,0.000,0
39841.030,-42.969,-18.066,-40.039,-34.180,0.000,0
39841.034,-52.246,-19.531,-40.527,-29.785,0.000,0
39841.038,-63.477,-19.531,-44.922,-17.090,0.000,0
39841.042,-55.664,-16.602,-41.504,-27.344,0.000,0
39841.046,-33.691,-11.230,-34.668,-26.367,0.000,0
39841.050,-25.391,-10.742,-37.109,-12.207,0.000,0
39841.054,-15.137,-3.418,-28.809,-4.395,0.000,0
39841.057,-22.949,3.906,-23.926,-8.789,0.000,0
39841.061,-51.270,-6.836,-35.645,-47.363,0.000,0
39841.065,-55.176,-16.602,-45.410,-57.129,0.000,0
39841.069,-53.711,-16.602,-48.340,-36.621,0.000,0
39841.073,-44.922,-13.672,-45.898,-34.180,0.000,0
39841.077,-51.270,-12.207,-52.246,-32.715,0.000,0
39841.081,-50.293,-11.719,-45.410,-29.785,0.000,0
39841.085,-49.316,-9.277,-26.367,-13.184,0.000,0
39841.089,-53.223,-13.184,-33.203,-14.160,0.000,0
39841.093,-34.180,-14.648,-39.551,-21.484,0.000,0
39841.097,-36.133,-12.695,-37.598,-1.953,0.000,0
39841.100,-57.617,-14.648,-42.969,-16.602,0.000,0
39841.104,-62.988,-14.648,-39.551,-37.109,0.000,0
39841.108,-62.988,-17.090,-33.691,-30.273,0.000,0
39841.112,-67.383,-15.137,-34.180,-22.461,0.000,0
39841.116,-54.688,-17.090,-41.504,-24.414,0.000,0
39841.120,-50.293,-20.996,-46.875,-35.156,0.000,0
39841.124,-64.941,-19.531,-45.410,-25.879,0.000,0
39841.128,-60.547,-15.625,-35.156,-18.555,0.000,0
39841.132,-41.504,-4.883,-27.344,-20.508,0.000,0
39841.136,-38.086,-8.789,-34.180,-19.043,0.000,0
