timestamps,TP9,AF7,AF8,TP10,Right AUX,Marker0
109581.828,-0.977,-9.766,-2.930,5.371,0.000,0
109581.832,-9.766,-13.672,-6.348,-1.465,0.000,0
109581.836,-6.836,-18.555,1.465,-9.766,0.000,0
109581.840,-3.906,-20.508,17.090,-10.742,0.000,0
109581.844,-21.973,-20.020,4.883,-4.395,0.000,0
109581.848,-16.602,-16.113,-11.719,10.742,0.000,0
109581.852,0.977,-17.578,0.488,4.395,0.000,0
109581.855,-9.277,-21.484,20.020,4.395,0.000,0
109581.859,-20.996,-18.555,19.531,3.906,0.000,0
109581.863,-25.879,-20.508,-11.719,-0.488,0.000,0
109581.867,-17.578,-20.020,-8.301,0.488,0.000,0
109581.871,-8.789,-16.113,19.531,7.324,0.000,0
109581.875,-14.648,-20.020,2.441,5.371,0.000,0
109581.879,-19.531,-30.273,-23.438,-6.348,0.000,0
109581.883,-24.414,-28.809,-20.020,-4.883,0.000,0
109581.887,-32.715,-29.297,-13.672,-6.348,0.000,0
109581.891,-33.203,-31.738,-16.113,-12.207,0.000,0
109581.895,-24.414,-22.461,-29.297,-3.906,0.000,0
109581.898,-17.090,-18.555,-33.203,-3.418,0.000,0
109581.902,-28.809,-25.391,-4.395,-7.812,0.000,0
109581.906,-34.668,-32.227,-6.348,-1.953,0.000,0
109581.910,-23.438,-29.297,-34.668,-0.488,0.000,0
109581.914,-16.113,-23.926,-41.504,-7.812,0.000,0
109581.918,-17.578,-25.879,-21.484,-13.672,0.000,0
109581.922,-22.949,-27.344,-8.789,-15.137,0.000,0
109581.926,-17.578,-20.996,-33.691,-12.695,0.000,0
109581.930,-18.555,-19.531,-47.852,-14.648,0.000,0
109581.934,-26.367,-24.414,-42.969,-20.508,0.000,0
109581.938,-25.391,-26.855,-30.273,-27.832,0.000,0
109581.941,-30.273,-24.414,-25.391,-37.109,0.000,0
109581.945,-33.691,-19.043,-47.363,-18.066,0.000,0
109581.949,-27.832,-14.160,-52.734,-11.719,0.000,0
109581.953,-19.043,-18.066,-33.203,-25.879,0.000,0
109581.957,-17.578,-20.996,-20.996,-22.461,0.000,0
109581.961,-20.020,-24.414,-34.180,-31.250,0.000,0
109581.965,-35.156,-24.902,-48.828,-33.203,0.000,0
109581.969,-26.855,-15.625,-26.855,-22.461,0.000,0
109581.973,-13.672,-14.160,-13.184,-7.812,0.000,0
109581.977,-18.066,-22.461,-29.297,-4.883,0.000,0
109581.980,-27.832,-24.414,-41.504,-19.043,0.000,0
109581.984,-13.672,-20.020,-41.016,-18.555,0.000,0
109581.988,-18.066,-20.508,-23.926,-14.648,0.000,0
109581.992,-30.762,-20.020,-20.996,-15.625,0.000,0
109581.996,-19.043,-23.438,-50.293,-23.926,0.000,0
109582.000,-19.043,-26.367,-43.945,-33.203,0.000,0
109582.004,-12.695,-21.484,-16.113,-26.855,0.000,0
109582.008,-4.883,-19.531,-16.602,-23.926,0.000,0
109582.012,-5.371,-15.137,-44.434,-20.020,0.000,0
109582.016,0.977,-11.719,-48.828,-22.949,0.000,0
109582.020,-9.766,-13.184,-16.602,-30.762,0.000,0
109582.023,-17.578,-14.648,-19.043,-22.949,0.000,0
109582.027,-18.066,-14.160,-41.016,-16.113,0.000,0
109582.031,-17.578,-13.672,-50.293,-18.066,0.000,0
109582.035,-10.254,-17.090,-25.879,-16.113,0.000,0
109582.039,-16.602,-22.949,0.000,-19.531,0.000,0
109582.043,-16.113,-20.996,-34.668,-19.043,0.000,0
109582.047,-19.043,-25.879,-63.477,-21.973,0.000,0
109582.051,-21.484,-28.809,-48.828,-22.461,0.000,0
109582.055,-8.301,-24.414,-23.438,-22.949,0.000,0
109582.059,-16.113,-19.043,-24.414,-28.320,0.000,0
109582.063,-20.020,-9.277,-48.340,-13.672,0.000,0
109582.066,-14.160,-14.160,-49.805,-11.230,0.000,0
109582.070,-18.555,-20.508,-33.691,-16.602,0.000,0
109582.074,-17.090,-18.555,-25.879,-15.625,0.000,0
109582.078,-15.137,-19.043,-36.621,-26.855,0.000,0
109582.082,-11.230,-16.113,-52.734,-25.391,0.000,0
109582.086,-21.973,-21.973,-55.176,-26.367,0.000,0
109582.090,-34.668,-27.832,-55.176,-32.715,0.000,0
109582.094,-20.996,-23.438,-57.617,-31.250,0.000,0
109582.098,-22.949,-22.461,-36.621,-33.691,0.000,0
109582.102,-27.832,-22.461,-40.527,-28.320,0.000,0
109582.105,-12.695,-20.020,-37.109,-19.531,0.000,0
109582.109,-18.555,-14.160,-32.227,-24.414,0.000,0
109582.113,-30.762,-17.578,-71.289,-16.602,0.000,0
109582.117,-20.996,-21.973,-62.988,-35.156,0.000,0
109582.121,-35.645,-22.949,-68.359,-25.879,0.000,0
109582.125,-105.957,-19.531,-200.684,91.797,0.000,0
109582.129,-139.160,-22.461,-266.602,134.766,0.000,0
109582.133,-118.164,-24.414,-235.840,108.398,0.000,0
109582.137,-97.656,-22.949,-174.316,90.332,0.000,0
109582.141,-84.961,-23.926,-123.535,47.852,0.000,0
109582.145,-92.285,-24.414,-135.742,69.336,0.000,0
109582.148,-118.164,-24.902,-182.129,140.625,0.000,0
109582.152,-105.957,-24.902,-159.180,114.746,0.000,0
109582.156,-90.820,-27.832,-100.098,50.781,0.000,0
109582.160,-77.637,-24.902,-90.332,23.926,0.000,0
109582.164,-58.594,-20.508,-113.770,26.367,0.000,0
109582.168,-43.945,-20.020,-83.984,-0.488,0.000,0
109582.172,-46.387,-21.973,-35.156,-20.996,0.000,0
109582.176,-45.898,-19.043,-33.203,-29.297,0.000,0
109582.180,-40.527,-16.602,-50.293,-44.922,0.000,0
109582.184,-26.855,-16.602,-25.879,-52.734,0.000,0
109582.188,-8.789,-7.812,15.137,-55.664,0.000,0
109582.191,-14.160,-14.160,-3.906,-64.941,0.000,0
109582.195,-18.066,-19.043,-19.043,-73.730,0.000,0
109582.199,-7.812,-17.090,-5.371,-72.754,0.000,0
109582.203,-7.812,-20.508,8.789,-69.336,0.000,0
109582.207,-13.672,-22.461,10.254,-81.543,0.000,0
109582.211,-18.066,-19.043,-9.766,-82.520,0.000,0
109582.215,-17.090,-15.137,-13.184,-67.871,0.000,0
109582.219,-7.812,-16.113,5.371,-71.777,0.000,0
109582.223,-5.371,-16.113,17.578,-68.359,0.000,0
109582.227,-8.301,-16.113,-12.207,-63.477,0.000,0
109582.230,-9.766,-15.137,-24.902,-67.383,0.000,0
109582.234,-15.137,-15.625,15.137,-65.918,0.000,0
109582.238,-16.602,-24.414,22.949,-62.500,0.000,0
109582.242,-16.602,-27.832,-7.812,-58.105,0.000,0
109582.246,-25.391,-31.250,-24.902,-64.941,0.000,0
109582.250,-19.531,-30.762,-13.672,-63.477,0.000,0
109582.254,-10.742,-27.832,1.465,-61.035,0.000,0
109582.258,-17.578,-30.273,15.137,-71.289,0.000,0
109582.262,-22.461,-29.785,-5.859,-69.336,0.000,0
109582.266,-17.578,-25.879,-35.156,-49.316,0.000,0
109582.270,-6.348,-23.438,-13.184,-46.387,0.000,0
109582.273,-1.953,-20.020,7.324,-44.434,0.000,0
109582.277,-13.184,-19.531,7.324,-49.316,0.000,0
109582.281,-15.625,-21.973,-21.484,-52.246,0.000,0
109582.285,-19.043,-29.785,-19.043,-52.734,0.000,0
109582.289,-14.160,-26.855,4.395,-50.293,0.000,0
109582.293,-20.020,-15.137,-5.371,-46.387,0.000,0
109582.297,-25.391,-18.066,-13.672,-49.805,0.000,0
109582.301,-23.926,-20.508,-18.066,-40.039,0.000,0
109582.305,-27.832,-19.531,-9.766,-36.133,0.000,0
109582.309,-20.508,-20.996,-3.906,-31.738,0.000,0
109582.313,-26.367,-20.508,-20.020,-29.785,0.000,0
109582.316,-31.250,-20.020,-13.184,-41.504,0.000,0
109582.320,-26.367,-19.043,5.859,-42.480,0.000,0
109582.324,-20.508,-18.555,7.812,-36.133,0.000,0
109582.328,-14.160,-19.531,-18.066,-24.902,0.000,0
109582.332,-21.973,-19.531,-18.555,-28.809,0.000,0
109582.336,-23.438,-20.020,16.113,-41.016,0.000,0
109582.340,-15.137,-18.555,11.230,-27.344,0.000,0
109582.344,-16.113,-18.555,-20.996,-26.367,0.000,0
109582.348,-24.902,-17.578,-30.273,-36.621,0.000,0
109582.352,-20.508,-17.578,-3.906,-36.621,0.000,0
109582.355,-15.137,-19.043,16.602,-42.969,0.000,0
109582.359,-15.137,-18.555,-14.160,-30.762,0.000,0
109582.363,-13.184,-20.996,-26.855,-32.715,0.000,0
109582.367,-8.301,-18.066,-4.395,-30.273,0.000,0
109582.371,-12.207,-15.625,-6.348,-16.113,0.000,0
109582.375,-23.926,-17.578,-3.906,-28.809,0.000,0
109582.379,-29.785,-11.719,-26.367,-18.555,0.000,0
109582.383,-31.738,-11.719,-29.297,-14.648,0.000,0
109582.387,-21.973,-14.160,-0.977,-23.926,0.000,0
109582.391,-6.836,-13.184,2.930,-28.809,0.000,0
109582.395,-20.020,-14.160,-4.395,-36.133,0.000,0
109582.398,-24.902,-16.113,-21.973,-25.879,0.000,0
109582.402,-17.578,-20.020,-12.207,-21.973,0.000,0
109582.406,-30.762,-23.926,-10.742,-28.320,0.000,0
109582.410,-24.414,-20.508,-22.461,-28.809,0.000,0
109582.414,-8.789,-17.090,-8.301,-33.691,0.000,0
109582.418,-23.438,-21.484,-20.020,-31.738,0.000,0
109582.422,-27.344,-27.344,-23.438,-33.203,0.000,0
109582.426,-20.996,-24.414,-18.066,-38.574,0.000,0
109582.430,-10.742,-17.578,-28.320,-25.879,0.000,0
109582.434,-9.277,-14.160,-16.113,-28.809,0.000,0
109582.438,-18.555,-17.090,-0.488,-36.133,0.000,0
109582.441,-9.277,-17.578,-1.953,-25.879,0.000,0
109582.445,-8.301,-9.277,-25.879,-22.461,0.000,0
109582.449,-6.348,-9.766,-36.133,-25.391,0.000,0
109582.453,0.977,-13.184,-7.324,-30.273,0.000,0
109582.457,-12.207,-14.648,-5.859,-32.227,0.000,0
109582.461,-10.742,-12.695,-42.969,-30.273,0.000,0
109582.465,-3.418,-8.789,-49.316,-31.738,0.000,0
109582.469,-0.488,-8.301,-23.438,-26.855,0.000,0
109582.473,0.488,-11.719,-0.488,-16.602,0.000,0
109582.477,-3.418,-14.160,-19.531,-22.461,0.000,0
109582.480,-6.348,-16.113,-50.781,-23.438,0.000,0
109582.484,-10.742,-23.438,-43.457,-27.344,0.000,0
109582.488,-25.879,-27.832,-15.625,-36.133,0.000,0
109582.492,-15.625,-24.902,-14.160,-36.621,0.000,0
109582.496,-19.531,-20.020,-36.133,-29.297,0.000,0
109582.500,-30.273,-15.625,-36.621,-24.414,0.000,0
109582.504,-20.508,-15.625,-12.695,-20.996,0.000,0
109582.508,-27.344,-19.043,-27.344,-19.531,0.000,0
109582.512,-22.949,-15.137,-40.527,-20.996,0.000,0
109582.516,-11.230,-15.625,-28.809,-19.043,0.000,0
109582.520,-20.020,-14.160,-12.695,-13.672,0.000,0
109582.523,-19.043,-10.742,-2.930,-21.973,0.000,0
109582.527,-10.254,-12.695,-25.391,-27.832,0.000,0
109582.531,-4.395,-14.160,-26.367,-28.809,0.000,0
109582.535,-5.859,-16.113,-5.371,-28.809,0.000,0
109582.539,-8.789,-17.090,-12.207,-24.414,0.000,0
109582.543,-1.953,-11.719,-24.414,-13.184,0.000,0
109582.547,-5.859,-9.766,-22.461,-1.953,0.000,0
109582.551,-10.742,-15.137,-13.672,-10.254,0.000,0
109582.555,-20.020,-21.484,-14.160,-19.043,0.000,0
109582.559,-28.809,-20.020,-18.066,-9.277,0.000,0
109582.563,-23.438,-15.137,-16.113,-9.277,0.000,0
109582.566,-20.020,-19.531,-27.832,-21.973,0.000,0
109582.570,-20.996,-23.438,-7.812,-27.832,0.000,0
109582.574,-15.625,-22.461,0.488,-28.320,0.000,0
109582.578,-23.926,-19.531,-45.410,-9.277,0.000,0
109582.582,-34.180,-15.625,-100.098,32.715,0.000,0
109582.586,-39.551,-14.648,-91.797,45.898,0.000,0
109582.590,-51.270,-17.578,-57.617,39.551,0.000,0
109582.594,-46.387,-18.066,-62.988,36.621,0.000,0
109582.598,-32.715,-15.625,-75.684,28.320,0.000,0
109582.602,-43.945,-11.230,-47.852,11.719,0.000,0
109582.605,-46.387,-13.672,-14.160,2.441,0.000,0
109582.609,-31.738,-17.578,-3.906,-5.371,0.000,0
109582.613,-22.949,-10.742,-14.160,-15.137,0.000,0
109582.617,-21.484,-9.766,-9.766,-14.648,0.000,0
109582.621,-18.066,-9.766,13.184,-10.254,0.000,0
109582.625,-15.137,-11.230,6.836,-12.207,0.000,0
109582.629,-17.090,-12.207,-9.766,-21.973,0.000,0
109582.633,-22.949,-12.207,0.000,-37.109,0.000,0
109582.637,-27.344,-12.207,17.090,-42.480,0.000,0
109582.641,-30.762,-11.719,18.555,-30.762,0.000,0
109582.645,-37.598,-10.742,-4.883,-20.020,0.000,0
109582.648,-24.414,-10.742,-7.324,-18.066,0.000,0
109582.652,-23.438,-11.719,31.738,-22.949,0.000,0
109582.656,-31.738,-10.254,30.762,-18.555,0.000,0
109582.660,-25.391,-12.207,4.395,-15.137,0.000,0
109582.664,-26.855,-12.695,-1.953,-18.066,0.000,0
109582.668,-19.043,-13.184,13.672,-19.043,0.000,0
109582.672,-4.883,-13.672,45.410,-29.297,0.000,0
109582.676,-5.859,-8.789,15.137,-27.344,0.000,0
109582.680,-11.719,-10.254,-20.020,-20.996,0.000,0
109582.684,-3.906,-13.672,-1.953,-12.695,0.000,0
109582.688,-5.371,-20.996,7.812,-17.090,0.000,0
109582.691,-17.090,-29.297,7.812,-22.461,0.000,0
109582.695,-18.066,-18.066,-10.742,-8.301,0.000,0
109582.699,-16.113,-14.648,-10.742,-11.719,0.000,0
109582.703,-22.461,-20.508,-1.465,-19.531,0.000,0
109582.707,-28.809,-17.090,7.324,-24.414,0.000,0
109582.711,-25.879,-20.020,4.395,-26.367,0.000,0
109582.715,-16.113,-14.648,-17.090,-18.066,0.000,0
109582.719,-20.508,-13.184,-16.113,-20.996,0.000,0
109582.723,-30.762,-23.438,-8.301,-26.367,0.000,0
109582.727,-21.973,-24.414,-1.465,-22.461,0.000,0
109582.730,-19.043,-24.414,-10.254,-22.461,0.000,0
109582.734,-19.043,-23.438,-24.902,-27.832,0.000,0
109582.738,-15.625,-30.762,-9.277,-34.668,0.000,0
109582.742,-19.531,-29.785,-6.836,-23.926,0.000,0
109582.746,-9.277,-21.484,-32.227,-12.695,0.000,0
109582.750,-3.906,-23.438,-20.508,-31.250,0.000,0
109582.754,-11.719,-22.949,2.930,-34.180,0.000,0
109582.758,-14.648,-20.020,-5.859,-27.832,0.000,1
109582.762,-20.508,-21.484,-34.668,-33.691,0.000,0
109582.766,-26.367,-24.902,-37.109,-34.180,0.000,0
109582.770,-31.250,-28.809,-6.348,-32.227,0.000,0
109582.773,-39.551,-33.203,-8.789,-33.691,0.000,0
109582.777,-37.109,-33.203,-39.551,-29.785,0.000,0
109582.781,-27.344,-29.785,-58.594,-24.414,0.000,0
109582.785,-35.645,-30.762,-33.691,-20.508,0.000,0
109582.789,-26.367,-31.738,-0.977,-28.809,0.000,0
109582.793,-5.371,-28.809,-20.996,-23.926,0.000,0
109582.797,-16.113,-25.879,-47.363,-13.672,0.000,0
109582.801,-18.066,-23.438,-29.785,-8.301,0.000,0
109582.805,-15.625,-26.367,-11.230,-14.160,0.000,0
109582.809,-23.926,-28.809,-16.113,-27.344,0.000,0
109582.813,-12.207,-23.926,-31.738,-25.879,0.000,0
109582.816,-7.812,-19.531,-20.508,-24.902,0.000,0
109582.820,-9.277,-18.066,1.465,-22.461,0.000,0
109582.824,-11.719,-17.578,-9.277,-10.742,0.000,0
109582.828,-8.789,-18.555,-20.996,-11.719,0.000,0
109582.832,-11.230,-15.137,-18.066,-12.695,0.000,0
109582.836,-9.766,-17.578,-11.719,-6.348,0.000,0
109582.840,-1.465,-23.926,-11.719,-20.996,0.000,0
109582.844,-11.230,-18.066,-23.926,-23.438,0.000,0
109582.848,-18.555,-10.254,-11.230,-11.230,0.000,0
109582.852,-16.113,-20.508,-10.742,-21.484,0.000,0
109582.855,-14.160,-29.785,-10.254,-22.949,0.000,0
109582.859,-20.508,-23.926,-12.207,-20.996,0.000,0
109582.863,-22.461,-19.531,-29.785,-16.602,0.000,0
109582.867,-22.461,-19.043,-19.043,-16.113,0.000,0
109582.871,-14.648,-12.695,5.371,-18.066,0.000,0
109582.875,-7.324,-10.742,-2.441,-5.371,0.000,0
109582.879,-22.949,-16.602,-17.090,-7.324,0.000,0
109582.883,-23.438,-18.555,-16.113,-17.578,0.000,0
109582.887,-15.625,-18.066,-2.930,-9.766,0.000,0
109582.891,-20.020,-15.625,16.113,-9.766,0.000,0
109582.895,-22.949,-10.742,-2.930,-10.254,0.000,0
109582.898,-22.461,-12.207,-36.621,-8.789,0.000,0
109582.902,-21.484,-15.625,-21.973,-6.836,0.000,0
109582.906,-21.484,-15.137,10.254,-3.906,0.000,0
109582.910,-21.484,-17.578,-4.395,-11.719,0.000,0
109582.914,-19.043,-15.625,-32.227,-7.324,0.000,0
109582.918,-19.043,-12.695,-10.254,-6.348,0.000,0
109582.922,-11.230,-15.625,15.625,-9.277,0.000,0
109582.926,-11.230,-13.184,6.348,-12.695,0.000,0
109582.930,-17.578,-7.324,-8.301,-20.020,0.000,0
109582.934,-11.230,-9.766,-10.254,-9.766,0.000,0
109582.938,-14.648,-14.160,19.043,-2.930,0.000,0
109582.941,-14.648,-14.648,8.789,-7.812,0.000,0
109582.945,-8.789,-16.602,-16.113,-3.418,0.000,0
109582.949,-24.414,-15.625,-8.789,-6.836,0.000,0
109582.953,-34.180,-22.949,0.000,-6.348,0.000,0
109582.957,-26.367,-24.414,5.371,2.441,0.000,0
109582.961,-21.973,-15.137,-16.602,0.977,0.000,0
109582.965,-15.137,-15.137,-30.273,-6.348,0.000,0
109582.969,-18.555,-17.090,-3.906,-14.648,0.000,0
109582.973,-21.973,-11.230,8.789,-15.625,0.000,0
109582.977,-16.113,-9.766,-22.949,-10.254,0.000,0
109582.980,-17.578,-17.578,-31.250,-15.625,0.000,0
109582.984,-22.949,-21.484,6.836,-20.508,0.000,0
109582.988,-30.762,-23.926,-2.441,-20.020,0.000,0
109582.992,-31.738,-26.367,-29.297,-22.949,0.000,0
109582.996,-27.832,-22.461,-26.855,-17.578,0.000,0
109583.000,-20.020,-17.578,-15.625,-7.812,0.000,0
109583.004,-18.555,-24.414,-3.418,-2.930,0.000,0
109583.008,-20.508,-27.832,2.930,-9.277,0.000,0
109583.012,-19.531,-17.090,-27.832,-2.441,0.000,0
109583.016,-20.508,-14.160,-32.227,4.883,0.000,0
109583.020,-10.254,-15.137,-6.836,5.371,0.000,0
109583.023,-6.836,-14.160,2.441,6.348,0.000,0
109583.027,-7.812,-14.648,10.742,6.348,0.000,0
109583.031,-4.883,-15.137,-18.066,3.418,0.000,0
109583.035,-10.742,-16.602,-21.973,-2.930,0.000,0
109583.039,-4.395,-14.160,5.371,-1.465,0.000,0
109583.043,1.953,-10.742,-1.465,-5.371,0.000,0
109583.047,-2.930,-11.230,-15.625,-14.648,0.000,0
109583.051,-3.418,-13.184,-20.996,-7.812,0.000,0
109583.055,4.883,-13.184,-5.859,-9.277,0.000,0
109583.059,-8.789,-13.672,-4.395,-16.113,0.000,0
109583.063,-23.438,-13.672,-29.785,-9.766,0.000,0
109583.066,-18.555,-14.160,-20.508,-12.695,0.000,0
109583.070,-20.020,-14.160,9.277,-16.113,0.000,0
109583.074,-22.949,-13.672,2.441,-6.836,0.000,0
109583.078,-21.484,-16.113,-33.691,-4.395,0.000,0
109583.082,-20.508,-18.066,-38.574,-13.672,0.000,0
109583.086,-25.879,-22.949,-1.953,-18.555,0.000,0
109583.090,-28.320,-21.973,-5.859,-11.719,0.000,0
109583.094,-21.484,-15.625,-35.156,-11.719,0.000,0
109583.098,-23.438,-6.348,-23.438,-12.695,0.000,0
109583.102,-20.020,-1.953,8.789,-6.836,0.000,0
109583.105,-15.137,-9.766,25.391,-18.555,0.000,0
109583.109,-12.207,-11.719,0.000,-15.625,0.000,0
109583.113,-29.297,-14.648,-31.738,-15.625,0.000,0
109583.117,-38.086,-17.090,-20.020,-18.066,0.000,0
109583.121,-24.902,-11.719,2.930,-10.254,0.000,0
109583.125,-18.066,-10.742,4.883,-15.625,0.000,0
109583.129,-20.996,-8.789,-18.066,-18.066,0.000,0
109583.133,-14.648,-5.371,-21.484,-13.672,0.000,0
109583.137,-5.859,-4.395,1.465,-7.324,0.000,0
109583.141,-22.461,-9.766,-4.883,-6.836,0.000,0
109583.145,-25.391,-14.160,-18.555,-8.301,0.000,0
109583.148,-11.719,-13.672,-20.996,-8.789,0.000,0
109583.152,-20.996,-13.672,-11.230,-7.812,0.000,0
109583.156,-21.973,-10.254,4.883,-6.836,0.000,0
109583.160,-22.461,-10.742,-6.836,-10.742,0.000,0
109583.164,-27.832,-13.672,-19.043,-18.066,0.000,0
109583.168,-20.508,-13.184,-12.695,-18.555,0.000,0
109583.172,-19.043,-11.230,4.395,-14.160,0.000,0
109583.176,-27.832,-17.578,-2.441,-12.695,0.000,0
109583.180,-27.832,-23.438,-32.227,-10.254,0.000,0
109583.184,-34.180,-23.438,-28.320,-20.996,0.000,0
109583.188,-34.180,-21.484,0.000,-31.250,0.000,0
109583.191,-20.996,-23.438,-1.953,-21.973,0.000,0
109583.195,-39.062,-20.508,-64.941,9.766,0.000,0
109583.199,-56.152,-17.090,-101.074,32.227,0.000,0
109583.203,-44.434,-20.996,-64.941,31.738,0.000,0
109583.207,-43.457,-24.414,-43.457,26.367,0.000,0
109583.211,-52.734,-24.902,-64.941,21.484,0.000,0
109583.215,-58.594,-27.344,-79.102,17.090,0.000,0
109583.219,-42.969,-31.250,-41.504,5.859,0.000,0
109583.223,-31.250,-36.133,4.883,-11.719,0.000,0
109583.227,-33.691,-35.156,-19.043,-26.367,0.000,0
109583.230,-33.203,-30.273,-45.898,-26.367,0.000,0
109583.234,-24.902,-31.250,-21.973,-29.785,0.000,0
109583.238,-21.973,-33.203,0.000,-35.156,0.000,0
109583.242,-20.996,-32.227,-10.742,-31.250,0.000,0
109583.246,-15.625,-28.320,-20.508,-35.156,0.000,0
109583.250,-20.020,-21.973,-20.020,-38.574,0.000,0
109583.254,-16.113,-23.926,-14.648,-35.156,0.000,0
109583.258,-9.277,-28.320,-16.602,-48.828,0.000,0
109583.262,-11.719,-27.344,-39.062,-48.340,0.000,0
109583.266,-21.973,-30.762,-44.922,-40.527,0.000,0
109583.270,-25.391,-36.133,-31.250,-40.527,0.000,0
109583.273,-15.137,-35.645,-30.273,-43.457,0.000,0
109583.277,-15.137,-31.250,-42.969,-40.527,0.000,0
109583.281,-7.812,-24.902,-33.203,-38.574,0.000,0
109583.285,-14.648,-19.531,-10.742,-39.551,0.000,0
109583.289,-18.066,-18.555,-5.371,-37.109,0.000,0
109583.293,-13.184,-20.020,-11.719,-38.086,0.000,0
109583.297,-13.672,-23.438,-27.344,-24.902,0.000,0
109583.301,-16.113,-19.043,-19.043,-28.809,0.000,0
109583.305,-18.066,-19.531,6.348,-47.363,0.000,0
109583.309,-20.508,-21.973,5.371,-36.133,0.000,0
109583.313,-14.160,-17.090,-8.789,-20.996,0.000,0
109583.316,-6.348,-16.113,-18.555,-13.672,0.000,0
109583.320,-17.578,-19.531,3.418,-23.926,0.000,0
109583.324,-31.250,-21.973,16.602,-43.457,0.000,0
109583.328,-17.090,-24.414,-11.230,-24.902,0.000,0
109583.332,-10.254,-25.879,-24.414,-15.137,0.000,0
109583.336,-23.438,-27.344,-12.207,-30.762,0.000,0
109583.340,-11.230,-26.367,0.000,-36.133,0.000,0
109583.344,-18.066,-21.973,-5.371,-40.039,0.000,0
109583.348,-38.086,-21.973,-30.762,-38.574,0.000,0
109583.352,-28.809,-29.785,-32.715,-38.574,0.000,0
109583.355,-14.648,-31.250,-8.301,-31.738,0.000,0
109583.359,-9.766,-27.344,0.977,-30.273,0.000,0
109583.363,-18.066,-27.344,-16.602,-41.504,0.000,0
109583.367,-19.531,-25.879,-25.391,-35.645,0.000,0
109583.371,-11.719,-25.391,-7.324,-29.785,0.000,1
109583.375,-11.230,-26.855,-6.836,-39.062,0.000,0
109583.379,-18.555,-26.855,-24.902,-47.852,0.000,0
109583.383,-21.973,-26.855,-6.348,-53.223,0.000,0
109583.387,-18.555,-27.344,6.348,-46.387,0.000,0
109583.391,-22.949,-28.320,-4.395,-37.598,0.000,0
109583.395,-21.973,-20.996,-22.949,-29.297,0.000,0
109583.398,-11.230,-20.020,-27.344,-34.180,0.000,0
109583.402,-24.414,-21.973,-0.977,-38.086,0.000,0
109583.406,-19.531,-19.043,-8.789,-24.414,0.000,0
109583.410,-12.207,-19.531,-37.598,-26.855,0.000,0
109583.414,-27.344,-22.461,-36.621,-30.273,0.000,0
109583.418,-30.273,-23.438,-16.113,-25.391,0.000,0
109583.422,-23.438,-27.832,5.371,-29.785,0.000,0
109583.426,-8.789,-23.926,-6.836,-23.438,0.000,0
109583.430,-14.160,-20.020,-38.574,-12.695,0.000,0
109583.434,-16.113,-20.996,-26.367,-9.277,0.000,0
109583.438,-5.859,-17.578,0.977,-12.695,0.000,0
109583.441,-4.883,-15.137,0.977,-21.484,0.000,0
109583.445,-8.789,-14.160,-19.043,-25.391,0.000,0
109583.449,-11.230,-17.578,-19.531,-22.949,0.000,0
109583.453,-9.277,-20.508,-7.324,-19.531,0.000,0
109583.457,-13.672,-21.973,-3.418,-10.254,0.000,0
109583.461,-16.113,-23.438,-10.254,-21.484,0.000,0
109583.465,-13.184,-21.484,-21.973,-22.949,0.000,0
109583.469,-11.230,-20.996,-15.137,-8.301,0.000,0
109583.473,2.930,-22.949,0.488,-3.906,0.000,0
109583.477,7.812,-21.973,-2.930,-11.719,0.000,0
109583.480,-13.672,-24.414,-15.625,-19.043,0.000,0
109583.484,-7.812,-23.438,-12.207,-20.996,0.000,0
109583.488,1.953,-22.461,2.441,-19.043,0.000,0
109583.492,-9.277,-23.438,2.441,-16.602,0.000,0
109583.496,-7.324,-21.973,-25.391,-16.602,0.000,0
109583.500,4.883,-14.648,-6.348,-19.531,0.000,0
109583.504,4.883,-7.324,19.043,-18.066,0.000,0
109583.508,9.277,-6.348,0.488,-14.160,0.000,0
109583.512,14.160,-5.371,-17.578,-16.602,0.000,0
109583.516,8.301,-9.277,-20.996,-20.996,0.000,0
109583.520,-5.859,-17.090,0.977,-15.137,0.000,0
109583.523,-12.695,-17.578,6.836,-13.184,0.000,0
109583.527,-14.160,-16.602,-16.602,-20.508,0.000,0
109583.531,-17.578,-20.020,-33.691,-25.391,0.000,0
109583.535,-21.484,-24.414,-17.578,-26.367,0.000,0
109583.539,-22.949,-22.949,11.230,-22.949,0.000,0
109583.543,-20.508,-20.508,-6.836,-21.484,0.000,0
109583.547,-25.879,-20.996,-42.480,-20.020,0.000,0
109583.551,-22.461,-17.090,-22.461,-13.672,0.000,0
109583.555,-17.578,-19.043,7.812,-13.672,0.000,0
109583.559,-14.160,-21.484,0.000,-13.672,0.000,0
109583.563,-15.625,-14.160,-17.090,-12.695,0.000,0
109583.566,-24.902,-16.602,-19.531,-21.973,0.000,0
109583.570,-26.855,-23.926,-7.324,-21.484,0.000,0
109583.574,-22.461,-18.066,-6.348,-13.184,0.000,0
109583.578,-30.762,-15.625,-20.020,-16.113,0.000,0
109583.582,-33.203,-20.508,-7.812,-22.461,0.000,0
109583.586,-17.090,-22.461,-4.395,-20.996,0.000,0
109583.590,-8.789,-21.484,-15.625,-25.391,0.000,0
109583.594,-12.207,-18.066,-23.926,-18.555,0.000,0
109583.598,-11.230,-19.531,-20.020,-4.395,0.000,0
109583.602,-6.836,-24.902,-6.348,-17.090,0.000,0
109583.605,-0.488,-23.438,5.859,-26.367,0.000,0
109583.609,-6.836,-19.043,-11.230,-8.301,0.000,0
109583.613,-15.137,-18.066,-33.203,0.977,0.000,0
109583.617,-15.137,-23.438,-22.949,-5.859,0.000,0
109583.621,-8.789,-21.484,1.953,-13.184,0.000,0
109583.625,-12.207,-13.184,-1.465,-9.766,0.000,0
109583.629,-17.090,-17.578,-23.926,-13.672,0.000,0
109583.633,-12.207,-22.461,-34.668,-27.832,0.000,0
109583.637,-17.578,-21.484,-23.438,-33.691,0.000,0
109583.641,-23.438,-19.043,4.883,-30.762,0.000,0
109583.645,-22.949,-15.625,-4.883,-19.043,0.000,0
109583.648,-21.484,-15.625,-33.691,-15.137,0.000,0
109583.652,-16.602,-20.020,-16.113,-22.461,0.000,0
109583.656,-20.020,-22.461,2.930,-29.785,0.000,0
109583.660,-20.020,-19.043,-20.508,-25.391,0.000,0
109583.664,-19.531,-18.555,-37.109,-36.621,0.000,0
109583.668,-20.508,-18.555,-10.742,-33.203,0.000,0
109583.672,-17.578,-13.184,4.395,-11.719,0.000,0
109583.676,-15.137,-14.648,-11.719,-24.414,0.000,0
109583.680,-16.113,-11.719,-21.973,-20.020,0.000,0
109583.684,-19.531,-8.301,-6.348,-6.348,0.000,0
109583.688,-18.555,-12.207,11.230,-15.625,0.000,0
109583.691,-15.625,-12.207,-18.555,-19.043,0.000,0
109583.695,-8.789,-8.301,-26.367,-23.926,0.000,0
109583.699,-12.695,-7.812,-9.766,-27.344,0.000,0
109583.703,-17.090,-10.254,0.000,-26.367,0.000,0
109583.707,-16.113,-12.207,-5.371,-18.555,0.000,0
109583.711,-23.438,-17.090,-40.527,-18.555,0.000,0
109583.715,-20.020,-20.996,-19.043,-33.203,0.000,0
109583.719,-6.836,-19.531,20.020,-27.832,0.000,0
109583.723,-14.648,-19.531,-2.930,-18.066,0.000,0
109583.727,-29.785,-26.855,-28.320,-25.391,0.000,0
109583.730,-34.180,-26.855,-22.949,-30.273,0.000,0
109583.734,-22.461,-24.414,0.000,-28.809,0.000,0
109583.738,-14.160,-24.902,5.371,-29.297,0.000,0
109583.742,-21.973,-18.555,-16.113,-21.484,0.000,0
109583.746,-15.137,-9.277,-20.020,-13.184,0.000,0
109583.750,-18.555,-12.207,-6.836,-17.090,0.000,0
109583.754,-22.461,-16.602,10.254,-26.855,0.000,0
109583.758,-11.230,-15.625,2.441,-21.484,0.000,0
109583.762,-10.742,-17.090,-32.715,-7.812,0.000,0
109583.766,-12.695,-13.672,-19.531,-11.719,0.000,0
109583.770,-18.066,-18.066,-2.930,-15.137,0.000,0
109583.773,-20.996,-23.438,-6.836,-18.066,0.000,0
109583.777,-23.926,-22.949,-18.555,-31.250,0.000,0
109583.781,-28.809,-22.949,-43.457,-32.715,0.000,0
109583.785,-32.227,-22.949,-32.715,-30.273,0.000,0
109583.789,-32.227,-19.531,-10.254,-27.832,0.000,0
109583.793,-21.484,-17.090,-13.672,-26.855,0.000,0
109583.797,-19.043,-20.996,-19.043,-33.203,0.000,0
109583.801,-15.625,-21.973,-6.836,-27.344,0.000,0
109583.805,-14.160,-26.855,-0.977,-25.879,0.000,0
109583.809,-24.414,-30.762,-22.461,-22.949,0.000,0
109583.813,-31.738,-26.367,-43.457,-24.414,0.000,0
109583.816,-19.531,-20.508,-20.996,-20.508,0.000,0
109583.820,-16.113,-15.625,3.906,-9.277,0.000,0
109583.824,-28.320,-12.207,-17.578,-18.066,0.000,0
109583.828,-27.344,-13.672,-40.527,-25.879,0.000,0
109583.832,-26.855,-17.090,-22.461,-27.832,0.000,0
109583.836,-30.762,-19.043,9.277,-33.691,0.000,0
109583.840,-22.949,-17.090,-5.859,-29.297,0.000,0
109583.844,-29.297,-20.508,-45.410,-31.738,0.000,0
109583.848,-44.922,-27.344,-44.434,-30.762,0.000,0
109583.852,-30.762,-27.344,-10.254,-20.996,0.000,0
109583.855,-18.555,-20.020,-1.465,-28.320,0.000,0
109583.859,-25.879,-21.484,-28.320,-25.879,0.000,0
109583.863,-23.438,-24.902,-35.645,-22.461,0.000,0
109583.867,-17.090,-17.578,-13.672,-25.391,0.000,0
109583.871,-22.461,-20.020,3.906,-30.762,0.000,0
109583.875,-31.738,-27.832,-10.742,-36.621,0.000,0
109583.879,-32.227,-24.414,-22.461,-35.645,0.000,0
109583.883,-22.949,-21.973,-6.836,-27.344,0.000,0
109583.887,-21.973,-30.762,-6.348,-16.113,0.000,0
109583.891,-15.625,-26.855,-11.719,-11.230,0.000,0
109583.895,-15.625,-24.902,-18.066,-12.695,0.000,0
109583.898,-18.555,-20.996,-15.137,-12.207,0.000,0
109583.902,-17.578,-18.555,-3.418,-14.648,0.000,0
109583.906,-27.832,-25.879,-3.418,-19.043,0.000,0
109583.910,-29.297,-26.855,-28.809,-20.020,0.000,0
109583.914,-24.902,-27.344,-24.414,-20.508,0.000,0
109583.918,-17.090,-22.949,-0.488,-22.949,0.000,0
109583.922,-19.531,-20.996,-4.883,-19.043,0.000,0
109583.926,-17.090,-18.555,-12.695,-8.789,0.000,0
109583.930,-9.766,-13.672,-18.555,-14.160,0.000,0
109583.934,-9.766,-20.020,-2.930,-20.020,0.000,0
109583.938,-13.672,-20.508,9.277,-13.184,0.000,0
109583.941,-15.137,-19.531,-9.766,-12.695,0.000,0
109583.945,-5.859,-20.020,-21.973,-17.578,0.000,0
109583.949,-9.277,-20.020,-3.906,-12.695,0.000,0
109583.953,-19.043,-23.438,19.531,-14.160,0.000,0
109583.957,-16.113,-20.020,3.418,-22.461,0.000,0
109583.961,-13.672,-21.484,-31.738,-15.137,0.000,0
109583.965,-21.484,-27.344,-42.480,-20.508,0.000,0
109583.969,-17.578,-22.949,-7.812,-23.926,0.000,0
109583.973,-14.648,-19.531,17.578,-21.484,0.000,0
109583.977,-18.066,-19.043,-20.508,-26.855,0.000,0
109583.980,-9.277,-20.996,-32.227,-21.484,0.000,0
109583.984,-14.648,-21.484,-5.859,-14.648,0.000,0
109583.988,-24.414,-17.090,-5.859,-16.113,0.000,0
109583.992,-15.137,-16.113,-18.555,-25.391,0.000,0
109583.996,-12.207,-17.090,-27.344,-21.973,0.000,0
109584.000,-21.484,-17.090,-14.160,-15.625,0.000,0
109584.004,-20.508,-14.648,9.766,-19.043,0.000,0
109584.008,-21.973,-12.695,-15.137,-20.020,0.000,0
109584.012,-31.250,-15.625,-32.227,-19.531,0.000,0
109584.016,-28.809,-18.066,-0.488,-18.066,0.000,1
109584.020,-23.438,-17.578,8.301,-17.578,0.000,0
109584.023,-18.066,-20.996,-24.414,-8.789,0.000,0
109584.027,-7.812,-19.531,-38.086,-5.859,0.000,0
109584.031,-0.488,-17.090,-7.324,-13.672,0.000,0
109584.035,-9.277,-17.578,11.230,-11.230,0.000,0
109584.039,-9.277,-11.230,7.812,2.930,0.000,0
109584.043,-2.441,-5.371,-1.953,-2.930,0.000,0
109584.047,-9.277,-3.418,-14.160,-4.883,0.000,0
109584.051,-18.555,-7.324,6.348,-16.113,0.000,0
109584.055,-16.113,-10.254,6.348,-23.926,0.000,0
109584.059,-16.113,-2.441,-11.230,-13.672,0.000,0
109584.063,-23.926,-0.977,-19.531,-11.719,0.000,0
109584.066,-22.461,-4.395,-30.273,-12.207,0.000,0
109584.070,-19.043,-6.836,-2.930,-24.902,0.000,0
109584.074,-18.066,-7.812,0.488,-21.973,0.000,0
109584.078,-20.996,-0.977,-31.738,-7.812,0.000,0
109584.082,-22.461,-3.906,-28.320,-17.090,0.000,0
109584.086,-26.855,-11.719,-8.789,-23.438,0.000,0
109584.090,-33.691,-13.672,-6.348,-29.297,0.000,0
109584.094,-25.879,-13.184,-22.949,-30.273,0.000,0
109584.098,-21.484,-3.906,-30.762,-19.043,0.000,0
109584.102,-21.973,-3.906,-11.719,-10.742,0.000,0
109584.105,-16.113,-9.766,0.488,-12.695,0.000,0
109584.109,-10.742,-12.207,-14.648,-21.484,0.000,0
109584.113,-9.277,-14.648,-25.391,-27.344,0.000,0
109584.117,-9.277,-14.160,-3.418,-20.020,0.000,0
109584.121,-15.137,-15.137,11.719,-16.602,0.000,0
109584.125,-24.414,-13.184,-20.996,-4.883,0.000,0
109584.129,-28.320,-11.230,-32.227,-1.953,0.000,0
109584.133,-34.180,-15.137,-10.742,-16.602,0.000,0
109584.137,-40.527,-12.695,-3.418,-15.625,0.000,0
109584.141,-35.645,-10.742,-11.719,-11.719,0.000,0
109584.145,-36.621,-8.301,-31.250,-10.254,0.000,0
109584.148,-32.227,-5.371,-15.625,-7.324,0.000,0
109584.152,-22.949,-10.254,15.137,-13.184,0.000,0
109584.156,-23.438,-14.160,-11.719,-17.578,0.000,0
109584.160,-26.855,-20.020,-32.227,-15.137,0.000,0
109584.164,-25.879,-20.508,-26.367,-10.254,0.000,0
109584.168,-27.344,-20.508,-11.719,-15.137,0.000,0
109584.172,-29.297,-25.391,-2.930,-24.414,0.000,0
109584.176,-41.016,-22.461,-24.902,-17.090,0.000,0
109584.180,-41.992,-18.555,-34.180,-13.184,0.000,0
109584.184,-28.320,-16.602,-12.695,-20.508,0.000,0
109584.188,-20.020,-18.066,-0.488,-23.926,0.000,0
109584.191,-17.578,-17.090,-17.578,-33.691,0.000,0
109584.195,-26.367,-9.277,-21.973,-40.039,0.000,0
109584.199,-25.391,-9.277,-8.301,-27.832,0.000,0
109584.203,-19.043,-16.602,-4.395,-17.578,0.000,0
109584.207,-24.902,-17.578,-5.371,-17.090,0.000,0
109584.211,-27.344,-16.602,-19.531,-21.484,0.000,0
109584.215,-25.879,-15.625,-25.879,-18.066,0.000,0
109584.219,-22.949,-18.555,-6.836,-14.160,0.000,0
109584.223,-17.090,-18.066,0.000,-17.090,0.000,0
109584.227,-12.207,-14.160,-20.020,-12.695,0.000,0
109584.230,-11.719,-17.090,-23.438,-19.531,0.000,0
109584.234,-17.090,-19.043,-8.301,-29.297,0.000,0
109584.238,-17.090,-23.926,-3.418,-20.508,0.000,0
109584.242,-10.254,-29.297,-20.996,-10.742,0.000,0
109584.246,-0.488,-32.227,-42.480,-19.043,0.000,0
109584.250,-5.371,-31.738,-15.625,-20.020,0.000,0
109584.254,-14.648,-30.762,2.441,-17.578,0.000,0
109584.258,-13.672,-28.320,-14.648,-24.902,0.000,0
109584.262,-17.578,-25.391,-38.086,-25.391,0.000,0
109584.266,-25.391,-29.785,-37.598,-28.320,0.000,0
109584.270,-20.020,-29.297,3.418,-28.320,0.000,0
109584.273,-17.090,-27.832,0.488,-24.414,0.000,0
109584.277,-21.484,-27.344,-31.250,-13.184,0.000,0
109584.281,-21.484,-27.344,-29.297,-3.906,0.000,0
109584.285,-8.789,-28.320,-5.371,-6.348,0.000,0
109584.289,-5.859,-27.832,-0.488,-11.230,0.000,0
109584.293,-15.137,-27.832,-32.715,-19.043,0.000,0
109584.297,-14.648,-28.320,-34.180,-21.484,0.000,0
109584.301,-13.672,-28.320,0.488,-12.695,0.000,0
109584.305,-20.996,-29.297,-2.441,-15.137,0.000,0
109584.309,-27.832,-27.832,-20.020,-23.438,0.000,0
109584.313,-25.879,-20.020,-30.273,-20.996,0.000,0
109584.316,-26.367,-22.949,-31.250,-17.578,0.000,0
109584.320,-25.391,-27.344,-15.625,-20.020,0.000,0
109584.324,-26.367,-26.367,-17.090,-14.648,0.000,0
109584.328,-23.438,-26.855,-24.414,-16.602,0.000,0
109584.332,-27.832,-27.344,-22.949,-23.926,0.000,0
109584.336,-39.062,-26.367,-16.602,-18.066,0.000,0
109584.340,-35.156,-24.902,-25.391,-14.648,0.000,0
109584.344,-23.438,-21.484,-37.598,-10.254,0.000,0
109584.348,-16.113,-20.020,-16.113,-10.254,0.000,0
109584.352,-12.207,-16.602,2.441,-8.301,0.000,0
109584.355,-14.160,-19.531,-10.254,-2.441,0.000,0
109584.359,-23.438,-23.926,-23.438,-8.301,0.000,0
109584.363,-19.043,-20.508,-29.785,-0.977,0.000,0
109584.367,-14.160,-18.555,-11.719,-12.207,0.000,0
109584.371,-9.277,-17.578,8.301,-22.461,0.000,0
109584.375,-3.418,-13.184,-18.066,-18.555,0.000,0
109584.379,-19.531,-9.766,-35.645,-20.020,0.000,0
109584.383,-31.250,-14.160,-35.156,-14.160,0.000,0
109584.387,-19.043,-12.695,-7.324,-12.207,0.000,0
109584.391,-12.207,-8.789,10.742,-12.695,0.000,0
109584.395,-12.695,-11.719,-26.367,-8.789,0.000,0
109584.398,-15.137,-15.625,-36.133,-13.672,0.000,0
109584.402,-16.602,-20.508,-9.277,-18.066,0.000,0
109584.406,-11.230,-20.996,1.953,-13.672,0.000,0
109584.410,-5.371,-17.090,-21.973,-17.578,0.000,0
109584.414,2.441,-12.207,-33.691,-10.254,0.000,0
109584.418,6.348,-11.230,-6.836,7.812,0.000,0
109584.422,0.977,-13.672,1.465,0.488,0.000,0
109584.426,-9.766,-12.695,-18.066,-12.207,0.000,0
109584.430,-11.230,-9.766,-28.320,-15.625,0.000,0
109584.434,-2.441,-10.254,2.930,-19.043,0.000,0
109584.438,2.930,-12.695,17.090,-14.160,0.000,0
109584.441,-0.488,-10.254,-21.973,3.906,0.000,0
109584.445,-8.301,-9.277,-29.785,-0.977,0.000,0
109584.449,-10.254,-8.301,-1.953,-17.578,0.000,0
109584.453,-9.766,-8.301,7.324,-4.883,0.000,0
109584.457,-10.742,-9.766,-10.254,-2.441,0.000,0
109584.461,-12.695,-10.254,-31.738,-9.277,0.000,0
109584.465,-12.695,-14.160,-21.484,-10.742,0.000,0
109584.469,-10.742,-16.602,4.883,-20.508,0.000,0
109584.473,-15.137,-18.066,-7.812,-10.254,0.000,0
109584.477,-14.648,-17.090,-36.133,-10.254,0.000,0
109584.480,-17.578,-19.531,-35.645,-21.973,0.000,0
109584.484,-20.020,-24.414,-17.578,-19.043,0.000,0
109584.488,-19.043,-18.066,-4.883,-24.414,0.000,0
109584.492,-12.695,-9.766,-20.020,-18.555,0.000,0
109584.496,-13.672,-7.812,-34.668,-6.348,0.000,0
109584.500,-9.277,-13.184,-17.090,-9.766,0.000,0
109584.504,-6.348,-16.602,2.930,-14.648,0.000,0
109584.508,0.000,-11.719,-1.465,-13.184,0.000,0
109584.512,-1.465,-15.625,-24.414,-16.602,0.000,0
109584.516,-8.789,-17.578,-18.066,-23.926,0.000,0
109584.520,-2.441,-13.672,0.977,-20.996,0.000,0
109584.523,-8.301,-20.996,-2.441,-19.531,0.000,0
109584.527,-17.578,-26.367,-14.160,-21.973,0.000,0
109584.531,-17.578,-28.809,-31.738,-23.926,0.000,0
109584.535,-21.973,-31.738,-12.695,-30.762,0.000,0
109584.539,-21.484,-23.438,8.789,-22.949,0.000,0
109584.543,-20.508,-16.602,-17.578,-15.137,0.000,0
109584.547,-15.625,-16.113,-17.090,-20.508,0.000,0
109584.551,-0.977,-14.160,3.418,-15.137,0.000,0
109584.555,2.441,-12.207,11.230,-4.395,0.000,0
109584.559,-9.277,-11.230,-9.766,-0.488,0.000,0
109584.563,-14.160,-13.184,-22.949,-14.160,0.000,0
109584.566,-8.789,-15.137,-1.953,-17.090,0.000,0
109584.570,-4.395,-13.672,17.090,-10.742,0.000,0
109584.574,-12.207,-13.672,-2.441,-13.672,0.000,0
109584.578,-9.277,-14.648,-29.297,-10.254,0.000,0
109584.582,-16.113,-16.602,-17.578,-16.113,0.000,0
109584.586,-19.043,-20.508,7.324,-25.879,0.000,0
109584.590,-4.883,-21.484,-3.418,-22.461,0.000,0
109584.594,-2.930,-19.531,-35.645,-13.184,0.000,0
109584.598,-6.348,-11.230,-30.273,-15.137,0.000,0
109584.602,-14.160,-4.883,0.488,-18.555,0.000,0
109584.605,-18.066,-3.906,7.812,-21.484,0.000,0
109584.609,-15.137,-3.906,-20.508,-28.320,0.000,0
109584.613,-14.160,-6.348,-33.691,-23.926,0.000,0
109584.617,-23.926,-6.348,-5.859,-20.508,0.000,0
109584.621,-27.344,-8.789,-4.883,-14.160,0.000,1
109584.625,-21.484,-10.742,-20.020,-17.090,0.000,0
109584.629,-22.949,-8.789,-26.855,-22.461,0.000,0
109584.633,-27.832,-9.277,-25.879,-16.113,0.000,0
109584.637,-16.602,-9.766,-5.859,-7.324,0.000,0
109584.641,-19.043,-8.301,-7.812,-9.277,0.000,0
109584.645,-20.508,-5.371,-23.926,-11.230,0.000,0
109584.648,-17.578,-10.742,-21.973,-8.301,0.000,0
109584.652,-14.160,-15.137,-11.230,-6.836,0.000,0
109584.656,-12.695,-14.160,-3.418,-12.207,0.000,0
109584.660,-14.160,-13.184,-30.273,-3.906,0.000,0
109584.664,-12.695,-14.648,-34.668,-11.719,0.000,0
109584.668,-13.672,-14.648,1.465,-12.207,0.000,0
109584.672,-10.742,-15.625,-6.348,-1.465,0.000,0
109584.676,-13.672,-12.695,-26.367,-3.418,0.000,0
109584.680,-21.973,-11.719,-33.691,-7.324,0.000,0
109584.684,-3.906,-15.625,-13.672,-8.301,0.000,0
109584.688,0.488,-15.137,8.789,-12.207,0.000,0
109584.691,-25.391,-17.578,-17.578,-28.320,0.000,0
109584.695,-23.926,-14.160,-36.133,-19.043,0.000,0
109584.699,-17.578,-10.254,-22.949,-4.883,0.000,0
109584.703,-14.160,-11.719,-3.418,-18.555,0.000,0
109584.707,-10.742,-11.719,-7.812,-18.066,0.000,0
109584.711,-20.996,-11.719,-36.133,-10.742,0.000,0
109584.715,-24.414,-15.625,-42.480,-19.531,0.000,0
109584.719,-5.371,-16.113,-8.301,-17.578,0.000,0
109584.723,-2.441,-15.137,13.672,-17.090,0.000,0
109584.727,-2.441,-12.695,-9.766,-26.855,0.000,0
109584.730,0.977,-7.324,-31.250,-19.043,0.000,0
109584.734,6.348,-11.719,-8.301,-23.438,0.000,0
109584.738,-0.488,-15.625,3.418,-35.156,0.000,0
109584.742,-15.625,-11.230,-38.574,-16.602,0.000,0
109584.746,-13.184,-9.766,-52.246,-8.301,0.000,0
109584.750,-11.230,-13.672,-19.531,-16.602,0.000,0
109584.754,-15.625,-22.949,-6.836,-23.438,0.000,0
109584.758,-18.066,-23.926,-39.062,-30.762,0.000,0
109584.762,-22.461,-18.066,-32.227,-37.598,0.000,0
109584.766,-26.367,-14.648,-1.465,-34.180,0.000,0
109584.770,-22.461,-15.137,-13.672,-24.902,0.000,0
109584.773,-18.555,-17.090,-38.574,-22.461,0.000,0
109584.777,-23.438,-19.043,-43.945,-22.949,0.000,0
109584.781,-23.926,-25.879,-18.555,-35.156,0.000,0
109584.785,-18.555,-22.949,-5.371,-32.227,0.000,0
109584.789,-17.578,-19.531,-27.832,-19.531,0.000,0
109584.793,-19.531,-20.508,-41.992,-14.160,0.000,0
109584.797,-22.949,-25.879,-34.180,-29.785,0.000,0
109584.801,-18.066,-27.832,-11.230,-36.133,0.000,0
109584.805,-21.484,-22.949,-19.531,-18.555,0.000,0
109584.809,-27.832,-17.578,-36.133,-14.160,0.000,0
109584.813,-23.438,-20.020,-29.785,-18.066,0.000,0
109584.816,-20.020,-27.344,-6.836,-29.297,0.000,0
109584.820,-21.484,-25.879,-1.953,-32.715,0.000,0
109584.824,-25.391,-27.344,-30.762,-25.879,0.000,0
109584.828,-31.250,-33.691,-33.203,-34.180,0.000,0
109584.832,-42.480,-33.691,-14.160,-36.133,0.000,0
109584.836,-43.457,-32.227,-26.367,-24.414,0.000,0
109584.840,-33.203,-32.227,-38.574,-32.715,0.000,0
109584.844,-40.527,-29.785,-39.062,-23.438,0.000,0
109584.848,-44.922,-27.344,-29.785,-18.555,0.000,0
109584.852,-30.762,-24.902,-13.184,-28.320,0.000,0
109584.855,-20.508,-22.461,-32.227,-27.832,0.000,0
109584.859,-14.160,-22.461,-42.480,-31.738,0.000,0
109584.863,-8.301,-20.508,-16.602,-31.250,0.000,0
109584.867,-9.277,-14.648,0.000,-27.344,0.000,0
109584.871,-11.719,-11.719,-19.043,-21.973,0.000,0
109584.875,-18.555,-14.648,-41.016,-26.855,0.000,0
109584.879,-19.043,-15.625,-14.160,-31.738,0.000,0
109584.883,-12.695,-11.230,4.883,-17.578,0.000,0
109584.887,-23.438,-12.695,-12.695,-20.020,0.000,0
109584.891,-29.785,-14.160,-28.320,-26.855,0.000,0
109584.895,-34.668,-10.742,-15.625,-23.926,0.000,0
109584.898,-36.621,-13.184,16.113,-25.879,0.000,0
109584.902,-38.574,-18.066,-6.836,-30.273,0.000,0
109584.906,-35.156,-19.043,-45.410,-31.250,0.000,0
109584.910,-28.809,-14.648,-22.949,-14.160,0.000,0
109584.914,-15.625,-10.254,12.207,-9.277,0.000,0
109584.918,6.836,-10.254,10.254,-14.648,0.000,0
109584.922,-2.441,-9.766,-13.184,-6.836,0.000,0
109584.926,-21.484,-10.254,-25.879,-10.742,0.000,0
109584.930,-16.113,-11.230,-6.836,-11.719,0.000,0
109584.934,-14.648,-13.184,-0.488,-12.207,0.000,0
109584.938,-14.648,-15.137,-13.184,-15.137,0.000,0
109584.941,-25.391,-13.184,-26.855,-18.555,0.000,0
109584.945,-33.691,-13.672,-22.461,-13.672,0.000,0
109584.949,-21.973,-15.625,-18.555,-4.883,0.000,0
109584.953,-12.695,-15.137,-25.391,-7.812,0.000,0
109584.957,-17.578,-15.625,-12.207,-15.137,0.000,0
109584.961,-10.742,-17.090,-11.230,-22.461,0.000,0
109584.965,0.000,-13.184,-8.789,-19.531,0.000,0
109584.969,-18.066,-15.625,-5.371,-25.391,0.000,0
109584.973,-19.043,-14.648,-21.973,-23.438,0.000,0
109584.977,-14.648,-13.184,-17.090,-23.438,0.000,0
109584.980,-26.855,-14.160,0.977,-26.367,0.000,0
109584.984,-20.996,-7.324,-1.465,-18.066,0.000,0
109584.988,-10.742,-7.324,-16.113,-20.508,0.000,0
109584.992,-27.344,-10.254,-38.086,-28.320,0.000,0
109584.996,-33.691,-13.184,-22.949,-35.156,0.000,0
109585.000,-21.973,-17.090,13.184,-36.621,0.000,0
109585.004,-26.367,-14.648,4.883,-31.738,0.000,0
109585.008,-31.250,-17.578,-39.551,-38.086,0.000,0
109585.012,-15.137,-19.531,-41.016,-41.504,0.000,0
109585.016,-17.578,-19.043,7.812,-49.316,0.000,0
109585.020,-31.250,-17.090,4.883,-36.621,0.000,0
109585.023,-20.508,-17.090,-39.062,-19.531,0.000,0
109585.027,-14.160,-17.090,-34.668,-20.996,0.000,0
109585.031,-11.719,-13.184,6.836,-8.789,0.000,0
109585.035,-17.090,-10.254,20.020,-18.555,0.000,0
109585.039,-21.484,-10.254,-19.043,-28.320,0.000,0
109585.043,-20.020,-14.160,-41.504,-22.461,0.000,0
109585.047,-27.832,-17.090,-4.395,-14.160,0.000,0
109585.051,-24.414,-20.020,-1.953,0.977,0.000,0
109585.055,-17.090,-20.996,-23.926,-12.695,0.000,0
109585.059,-27.832,-16.602,-24.902,-17.090,0.000,0
109585.063,-25.391,-15.137,-19.043,-2.930,0.000,0
109585.066,-17.578,-19.043,-0.977,-24.414,0.000,0
109585.070,-21.484,-19.531,-15.625,-28.809,0.000,0
109585.074,-19.531,-19.531,-21.973,-25.391,0.000,0
109585.078,-12.695,-21.484,-4.883,-32.715,0.000,0
109585.082,-15.137,-21.973,-4.883,-24.414,0.000,0
109585.086,-23.926,-17.578,-20.020,-18.555,0.000,0
109585.090,-29.297,-19.043,-37.598,-19.531,0.000,0
109585.094,-22.461,-25.879,-19.531,-22.949,0.000,0
109585.098,-5.859,-21.973,-7.812,-30.273,0.000,0
109585.102,-2.930,-20.508,-13.672,-35.645,0.000,0
109585.105,-16.602,-20.508,-17.090,-27.344,0.000,0
109585.109,-26.855,-21.973,-27.344,-22.949,0.000,0
109585.113,-21.973,-24.414,-12.207,-31.250,0.000,0
109585.117,-18.555,-26.855,2.441,-35.645,0.000,0
109585.121,-20.020,-24.414,-23.438,-28.320,0.000,0
109585.125,-22.461,-18.066,-40.039,-22.949,0.000,0
109585.129,-12.207,-17.090,-23.438,-28.809,0.000,0
109585.133,-3.906,-20.020,-4.883,-34.180,0.000,0
109585.137,-13.184,-16.602,-1.465,-33.203,0.000,0
109585.141,-6.348,-6.836,-27.344,-26.855,0.000,0
109585.145,0.000,-10.742,-32.715,-27.832,0.000,0
109585.148,-4.883,-15.625,0.488,-20.996,0.000,0
109585.152,-1.953,-13.184,0.000,-10.254,0.000,0
109585.156,-3.906,-13.672,-22.461,-21.484,0.000,0
109585.160,-8.301,-13.184,-31.250,-20.020,0.000,0
109585.164,-0.488,-11.719,-6.836,-7.324,0.000,0
109585.168,-6.836,-18.555,0.000,-18.555,0.000,0
109585.172,-19.531,-26.855,-27.344,-30.273,0.000,0
109585.176,-15.625,-22.461,-29.297,-24.414,0.000,0
109585.180,-12.695,-21.484,-12.207,-31.738,0.000,0
109585.184,-11.230,-32.715,-1.465,-42.969,0.000,0
109585.188,4.395,-31.738,-21.973,-27.344,0.000,0
109585.191,2.441,-23.438,-34.180,-21.484,0.000,0
109585.195,-3.418,-25.391,-8.301,-30.273,0.000,0
109585.199,3.906,-23.926,4.883,-21.484,0.000,0
109585.203,4.395,-24.902,-25.391,-22.461,0.000,0
109585.207,-3.906,-24.414,-40.039,-28.809,0.000,0
109585.211,-10.742,-23.926,-18.555,-24.414,0.000,0
109585.215,-7.812,-28.320,4.883,-30.762,0.000,0
109585.219,-3.906,-27.832,0.000,-29.785,0.000,0
109585.223,-10.254,-27.832,-22.949,-24.902,0.000,0
109585.227,-20.508,-28.809,-20.508,-26.855,0.000,0
109585.230,-14.160,-28.320,-4.395,-30.762,0.000,0
109585.234,-9.766,-30.273,-5.371,-33.203,0.000,0
109585.238,-8.301,-30.762,-22.461,-29.785,0.000,0
109585.242,-14.648,-27.832,-35.156,-37.109,0.000,0
109585.246,-16.113,-28.809,-20.020,-31.738,0.000,0
109585.250,-18.555,-29.297,0.000,-27.344,0.000,0
109585.254,-29.297,-22.949,-16.602,-28.809,0.000,0
109585.258,-32.715,-23.438,-32.227,-31.250,0.000,0
109585.262,-35.156,-22.949,-27.832,-26.855,0.000,0
109585.266,-36.133,-29.297,-25.391,-19.043,0.000,0
109585.270,-31.738,-33.203,-13.672,-32.715,0.000,0
109585.273,-26.855,-21.484,-14.648,-35.645,0.000,0
109585.277,-21.484,-13.672,-21.973,-29.297,0.000,0
109585.281,-27.344,-19.043,-7.812,-32.715,0.000,1
109585.285,-26.367,-24.414,7.812,-28.320,0.000,0
109585.289,-28.809,-24.414,-13.672,-13.672,0.000,0
109585.293,-33.691,-24.902,-26.367,-27.344,0.000,0
109585.297,-19.531,-21.973,0.977,-40.527,0.000,0
109585.301,-18.066,-25.391,3.418,-38.574,0.000,0
109585.305,-23.926,-26.855,-20.020,-33.691,0.000,0
109585.309,-17.090,-19.531,-24.414,-26.367,0.000,0
109585.313,-16.113,-24.414,-1.953,-43.457,0.000,0
109585.316,-20.508,-31.738,1.953,-52.734,0.000,0
109585.320,-20.508,-29.297,-20.020,-37.598,0.000,0
109585.324,-18.555,-28.320,-41.016,-31.738,0.000,0
109585.328,-13.672,-24.902,-40.527,-27.344,0.000,0
109585.332,-10.254,-22.461,12.207,-34.180,0.000,0
109585.336,-3.906,-21.973,14.160,-32.715,0.000,0
109585.340,-1.465,-18.066,-28.320,-24.902,0.000,0
109585.344,2.441,-21.484,-24.902,-30.762,0.000,0
109585.348,3.906,-24.414,-4.883,-24.902,0.000,0
109585.352,-10.742,-28.320,7.812,-39.551,0.000,0
109585.355,-13.672,-27.344,-7.324,-41.016,0.000,0
109585.359,-5.859,-19.043,-32.227,-26.855,0.000,0
109585.363,9.277,-15.137,-2.441,-20.996,0.000,0
109585.367,9.277,-15.137,1.465,-18.066,0.000,0
109585.371,-9.277,-17.090,-20.508,-34.668,0.000,0
109585.375,-16.602,-14.648,-17.578,-27.832,0.000,0
109585.379,-11.230,-14.160,-15.625,-15.137,0.000,0
109585.383,-14.160,-20.020,-11.230,-20.996,0.000,0
109585.387,-20.020,-22.461,-18.066,-23.438,0.000,0
109585.391,-16.113,-23.926,-22.461,-24.414,0.000,0
109585.395,-14.648,-20.508,-12.207,-34.668,0.000,0
109585.398,-13.184,-19.043,-3.906,-35.156,0.000,0
109585.402,-11.230,-23.438,-9.277,-28.320,0.000,0
109585.406,-20.508,-20.996,-33.203,-25.391,0.000,0
109585.410,-27.344,-22.949,-35.645,-24.902,0.000,0
109585.414,-24.902,-23.438,-18.555,-29.785,0.000,0
109585.418,-21.484,-21.484,-19.531,-28.809,0.000,0
109585.422,-25.879,-20.508,-18.555,-26.367,0.000,0
109585.426,-30.273,-18.555,-24.414,-23.926,0.000,0
109585.430,-28.320,-22.461,-22.461,-26.855,0.000,0
109585.434,-23.926,-23.438,1.465,-34.668,0.000,0
109585.438,-15.625,-21.484,-12.207,-24.414,0.000,0
109585.441,-11.230,-18.555,-26.855,-15.137,0.000,0
109585.445,-19.043,-20.020,-21.973,-24.902,0.000,0
109585.449,-17.090,-24.902,5.371,-27.344,0.000,0
109585.453,-13.184,-19.531,10.254,-26.367,0.000,0
109585.457,-19.043,-12.207,-22.949,-22.949,0.000,0
109585.461,-12.695,-13.184,-20.020,-18.066,0.000,0
109585.465,-5.371,-14.160,6.348,-6.836,0.000,0
109585.469,-11.719,-15.137,15.625,2.930,0.000,0
109585.473,-15.625,-16.113,-12.695,-9.277,0.000,0
109585.477,-15.625,-14.648,-29.297,-12.207,0.000,0
109585.480,-14.648,-15.625,-5.859,-9.277,0.000,0
109585.484,-15.625,-14.160,6.836,-13.184,0.000,0
109585.488,-15.625,-13.184,-9.766,-15.137,0.000,0
109585.492,-13.184,-12.695,-12.207,-19.531,0.000,0
109585.496,-7.324,-13.672,1.465,-16.113,0.000,0
109585.500,-14.160,-15.137,2.930,-14.648,0.000,0
109585.504,-21.973,-15.137,-15.625,-11.719,0.000,0
109585.508,-13.672,-15.625,-34.180,-13.184,0.000,0
109585.512,-20.020,-14.160,-9.766,-24.414,0.000,0
109585.516,-25.391,-11.719,7.324,-18.555,0.000,0
109585.520,-18.555,-12.695,-14.160,-14.160,0.000,0
109585.523,-17.578,-13.184,-27.344,-21.973,0.000,0
109585.527,-22.461,-16.113,-25.879,-24.902,0.000,0
109585.531,-28.809,-20.020,-6.836,-26.855,0.000,0
109585.535,-31.250,-20.996,-8.789,-33.691,0.000,0
109585.539,-32.227,-27.344,-27.832,-36.621,0.000,0
109585.543,-36.621,-28.809,-35.645,-33.691,0.000,0
109585.547,-29.785,-23.926,-20.020,-28.809,0.000,0
109585.551,-19.043,-19.043,2.441,-22.461,0.000,0
109585.555,-25.879,-21.484,-11.719,-19.531,0.000,0
109585.559,-29.785,-26.855,-29.297,-20.996,0.000,0
109585.563,-22.949,-26.367,-15.625,-25.879,0.000,0
109585.566,-20.996,-23.438,-12.695,-21.973,0.000,0
109585.570,-27.832,-20.996,-18.555,-19.531,0.000,0
109585.574,-33.691,-20.508,-23.438,-25.391,0.000,0
109585.578,-36.621,-21.484,-27.832,-21.973,0.000,0
109585.582,-30.273,-22.949,-7.324,-14.160,0.000,0
109585.586,-28.320,-19.531,-2.930,-24.414,0.000,0
109585.590,-30.273,-19.043,-19.043,-27.344,0.000,0
109585.594,-26.855,-24.902,-26.855,-22.949,0.000,0
109585.598,-22.949,-22.949,-9.766,-29.785,0.000,0
109585.602,-29.785,-19.043,6.348,-31.738,0.000,0
109585.605,-37.109,-24.414,-20.996,-27.344,0.000,0
109585.609,-41.504,-25.879,-33.203,-32.227,0.000,0
109585.613,-44.922,-22.461,-10.254,-25.391,0.000,0
109585.617,-38.086,-21.484,-5.859,-16.113,0.000,0
109585.621,-40.527,-24.414,-25.879,-20.996,0.000,0
109585.625,-36.621,-24.414,-39.062,-18.066,0.000,0
109585.629,-27.832,-17.578,-4.883,-21.973,0.000,0
109585.633,-33.691,-19.531,10.742,-28.320,0.000,0
109585.637,-35.645,-21.484,-12.695,-23.438,0.000,0
109585.641,-34.180,-13.672,-31.738,-16.602,0.000,0
109585.645,-32.227,-13.184,-29.785,-9.766,0.000,0
109585.648,-28.320,-20.020,6.836,-14.160,0.000,0
109585.652,-27.832,-20.996,0.488,-13.184,0.000,0
109585.656,-25.391,-16.113,-31.738,-3.418,0.000,0
109585.660,-25.879,-16.602,-25.391,-7.324,0.000,0
109585.664,-25.879,-16.602,7.324,-10.742,0.000,0
109585.668,-20.508,-20.020,14.160,-16.113,0.000,0
109585.672,-17.578,-20.020,-13.672,-21.973,0.000,0
109585.676,-15.137,-19.043,-26.367,-21.973,0.000,0
109585.680,-18.066,-24.414,-14.160,-26.367,0.000,0
109585.684,-24.902,-27.832,-3.906,-16.602,0.000,0
109585.688,-17.578,-29.297,-8.789,-22.461,0.000,0
109585.691,-20.508,-27.832,-22.461,-24.902,0.000,0
109585.695,-33.203,-21.484,-23.438,-14.648,0.000,0
109585.699,-29.785,-24.902,-10.742,-22.949,0.000,0
109585.703,-26.855,-31.250,-16.113,-26.855,0.000,0
109585.707,-25.879,-27.832,-9.277,-26.855,0.000,0
109585.711,-19.531,-24.902,-5.859,-27.344,0.000,0
109585.715,-8.301,-23.438,-8.301,-24.902,0.000,0
109585.719,-12.695,-23.438,2.930,-23.438,0.000,0
109585.723,-15.625,-20.508,-13.184,-14.648,0.000,0
109585.727,-9.766,-19.531,-16.113,-19.531,0.000,0
109585.730,-15.137,-22.461,5.371,-22.461,0.000,0
109585.734,-11.230,-17.578,3.906,-8.789,0.000,0
109585.738,-10.254,-17.090,-13.184,-11.230,0.000,0
109585.742,-18.066,-21.484,-32.715,-20.020,0.000,0
109585.746,-15.137,-22.949,-15.625,-20.996,0.000,0
109585.750,-20.020,-24.414,19.531,-17.090,0.000,0
109585.754,-28.320,-26.855,2.930,-18.555,0.000,0
109585.758,-28.320,-30.273,-35.645,-20.020,0.000,0
109585.762,-16.602,-26.855,-17.578,-15.625,0.000,0
109585.766,-6.348,-25.879,21.484,-23.438,0.000,0
109585.770,-16.113,-23.438,-11.719,-27.832,0.000,0
109585.773,-14.160,-18.555,-34.180,-19.531,0.000,0
109585.777,-10.254,-17.578,-4.883,-14.648,0.000,0
109585.781,-14.648,-15.625,14.160,-7.812,0.000,0
109585.785,-20.996,-19.531,-8.789,-23.438,0.000,0
109585.789,-20.996,-20.020,-29.297,-21.484,0.000,0
109585.793,-22.949,-16.113,-1.465,-12.207,0.000,0
109585.797,-18.066,-16.113,2.930,-23.926,0.000,0
109585.801,-14.648,-18.066,-19.043,-24.414,0.000,0
109585.805,-27.344,-22.461,-25.391,-28.320,0.000,0
109585.809,-24.902,-15.137,-12.207,-21.484,0.000,0
109585.813,-13.184,-14.160,4.883,-21.484,0.000,0
109585.816,-20.996,-19.531,-9.766,-28.809,0.000,0
109585.820,-28.320,-20.508,-28.809,-29.785,0.000,0
109585.824,-21.484,-20.020,-15.625,-29.297,0.000,0
109585.828,-18.555,-17.578,-2.930,-18.555,0.000,0
109585.832,-23.438,-18.066,-9.766,-18.555,0.000,0
109585.836,-21.484,-22.949,-31.250,-20.508,0.000,0
109585.840,-17.578,-28.320,-30.273,-26.855,0.000,0
109585.844,-20.508,-29.297,-8.301,-35.645,0.000,0
109585.848,-19.531,-28.809,-8.789,-28.809,0.000,0
109585.852,-27.344,-26.367,-22.461,-22.949,0.000,0
109585.855,-25.879,-20.508,-26.855,-15.137,0.000,0
109585.859,-10.254,-16.602,-12.695,-7.812,0.000,0
109585.863,-12.207,-26.367,16.113,-23.926,0.000,0
109585.867,-15.137,-25.391,-8.301,-18.555,0.000,0
109585.871,-10.742,-15.137,-45.410,-4.883,0.000,0
109585.875,-18.066,-18.066,-18.066,-19.043,0.000,0
109585.879,-15.625,-22.461,2.930,-22.949,0.000,0
109585.883,-2.930,-19.043,7.324,-20.996,0.000,0
109585.887,-7.812,-17.090,-10.742,-25.391,0.000,0
109585.891,-9.277,-20.996,-25.879,-24.414,0.000,0
109585.895,-14.160,-23.926,-7.324,-20.020,0.000,0
109585.898,-10.254,-20.020,-3.906,-17.578,0.000,0
109585.902,-11.230,-16.113,-13.184,-16.602,0.000,0
109585.906,-22.949,-14.648,-17.090,-12.207,0.000,0
109585.910,-16.602,-15.625,-7.324,-13.672,0.000,0
109585.914,-2.441,-18.555,4.395,-11.230,0.000,0
109585.918,-8.301,-20.020,-17.090,-13.672,0.000,0
109585.922,-21.484,-21.484,-22.949,-27.832,0.000,0
109585.926,-17.578,-17.578,-4.395,-25.879,0.000,0
109585.930,-6.836,-13.184,1.953,-12.207,0.000,0
109585.934,-3.906,-17.090,-23.926,-14.160,0.000,1
109585.938,-9.277,-22.461,-46.387,-22.949,0.000,0
109585.941,-15.625,-20.996,-17.578,-34.180,0.000,0
109585.945,-16.602,-20.996,0.488,-39.062,0.000,0
109585.949,-9.766,-25.391,-16.602,-32.715,0.000,0
109585.953,-16.602,-25.879,-28.320,-31.250,0.000,0
109585.957,-26.367,-26.855,-30.273,-32.227,0.000,0
109585.961,-13.672,-25.879,-7.324,-24.414,0.000,0
109585.965,-0.488,-22.949,-3.418,-25.879,0.000,0
109585.969,-14.160,-21.484,-33.203,-27.344,0.000,0
109585.973,-27.832,-15.625,-38.574,-15.625,0.000,0
109585.977,-22.949,-15.137,-23.438,-19.043,0.000,0
109585.980,-23.438,-20.996,-5.371,-28.320,0.000,0
109585.984,-16.602,-18.066,-19.531,-22.949,0.000,0
109585.988,-14.648,-13.184,-25.391,-15.625,0.000,0
109585.992,-19.043,-15.625,-11.230,-17.578,0.000,0
109585.996,-20.996,-21.484,-17.578,-22.949,0.000,0
109586.000,-18.555,-26.367,-17.090,-41.504,0.000,0
109586.004,-11.230,-20.020,-28.320,-40.527,0.000,0
109586.008,-17.090,-21.484,-38.086,-32.715,0.000,0
109586.012,-19.043,-27.344,-15.625,-39.062,0.000,0
109586.016,-13.184,-22.949,-11.230,-38.086,0.000,0
109586.020,-11.230,-20.996,-22.461,-29.297,0.000,0
109586.023,-7.812,-18.555,-10.742,-21.484,0.000,0
109586.027,-4.395,-20.996,1.953,-23.926,0.000,0
109586.031,0.000,-16.602,-3.418,-14.160,0.000,0
109586.035,-4.395,-10.254,-25.879,-14.160,0.000,0
109586.039,-9.277,-7.324,-11.230,-30.273,0.000,0
109586.043,-5.859,-11.230,7.812,-18.066,0.000,0
109586.047,1.465,-14.160,-1.465,-13.672,0.000,0
109586.051,2.930,-7.812,-16.113,-18.066,0.000,0
109586.055,-6.836,-10.254,-12.695,-16.113,0.000,0
109586.059,-13.672,-20.508,18.555,-24.902,0.000,0
109586.063,-19.043,-26.855,5.859,-25.879,0.000,0
109586.066,-25.391,-27.832,-26.367,-26.855,0.000,0
109586.070,-26.855,-28.809,-32.715,-35.156,0.000,0
109586.074,-34.180,-31.738,-21.484,-32.227,0.000,0
109586.078,-33.691,-35.156,9.277,-28.320,0.000,0
109586.082,-28.809,-33.203,-23.438,-21.484,0.000,0
109586.086,-25.879,-29.297,-53.223,-22.461,0.000,0
109586.090,-12.695,-30.762,-22.461,-22.949,0.000,0
109586.094,-8.301,-29.785,1.465,-13.184,0.000,0
109586.098,-13.672,-22.949,-1.465,-22.461,0.000,0
109586.102,-8.301,-19.043,-18.555,-18.555,0.000,0
109586.105,-15.625,-19.043,-17.578,-2.441,0.000,0
109586.109,-24.414,-24.902,-3.418,-14.160,0.000,0
109586.113,-15.137,-27.832,-13.672,-17.578,0.000,0
109586.117,-14.160,-27.344,-23.438,-22.461,0.000,0
109586.121,-18.555,-32.227,-15.137,-26.855,0.000,0
109586.125,-13.672,-34.180,-10.254,-19.531,0.000,0
109586.129,-19.531,-32.715,-14.160,-25.391,0.000,0
109586.133,-23.926,-31.250,-31.738,-23.438,0.000,0
109586.137,-16.602,-31.250,-28.809,-26.367,0.000,0
109586.141,-20.020,-27.344,-13.184,-27.832,0.000,0
109586.145,-21.973,-26.367,-16.602,-23.926,0.000,0
109586.148,-26.367,-29.785,-37.109,-30.273,0.000,0
109586.152,-32.715,-28.320,-42.969,-28.320,0.000,0
109586.156,-26.367,-28.809,-20.020,-25.879,0.000,0
109586.160,-19.043,-26.855,0.977,-27.344,0.000,0
109586.164,-14.160,-27.344,-12.207,-18.555,0.000,0
109586.168,-20.996,-30.762,-28.809,-20.508,0.000,0
109586.172,-27.344,-23.438,-23.926,-19.531,0.000,0
109586.176,-25.879,-15.625,-9.766,-10.742,0.000,0
109586.180,-24.414,-20.996,-11.230,-20.020,0.000,0
109586.184,-20.020,-22.949,-35.645,-16.602,0.000,0
109586.188,-27.832,-26.367,-38.574,-20.996,0.000,0
109586.191,-28.809,-30.762,-14.160,-29.785,0.000,0
109586.195,-26.855,-26.855,7.324,-26.367,0.000,0
109586.199,-25.879,-25.879,-15.137,-30.273,0.000,0
109586.203,-30.273,-29.297,-40.527,-27.344,0.000,0
109586.207,-34.180,-29.297,-19.531,-17.578,0.000,0
109586.211,-22.949,-24.902,1.465,-14.160,0.000,0
109586.215,-25.391,-22.949,-19.043,-14.648,0.000,0
109586.219,-27.832,-20.508,-40.527,-22.461,0.000,0
109586.223,-21.973,-18.066,-20.996,-24.414,0.000,0
109586.227,-19.531,-19.531,4.883,-24.902,0.000,0
109586.230,-10.742,-22.461,-10.254,-22.949,0.000,0
109586.234,-6.348,-28.809,-33.203,-23.438,0.000,0
109586.238,-7.324,-26.855,-25.879,-22.949,0.000,0
109586.242,-12.207,-24.902,-5.859,-13.672,0.000,0
109586.246,-17.578,-32.715,-12.695,-12.207,0.000,0
109586.250,-16.602,-28.320,-28.809,-17.578,0.000,0
109586.254,-20.996,-23.926,-22.461,-22.949,0.000,0
109586.258,-31.250,-26.855,3.418,-29.297,0.000,0
109586.262,-25.391,-23.926,3.906,-31.250,0.000,0
109586.266,-15.137,-19.043,-30.762,-30.273,0.000,0
109586.270,-21.973,-17.090,-36.621,-16.602,0.000,0
109586.273,-26.367,-19.043,-6.348,-15.137,0.000,0
109586.277,-19.043,-25.391,4.883,-27.344,0.000,0
109586.281,-20.020,-24.902,-27.344,-18.555,0.000,0
109586.285,-29.785,-20.996,-35.645,-11.719,0.000,0
109586.289,-22.949,-19.043,-15.625,-15.625,0.000,0
109586.293,-13.672,-20.996,2.441,-20.508,0.000,0
109586.297,-22.461,-25.879,0.488,-30.762,0.000,0
109586.301,-27.344,-21.973,-16.602,-27.344,0.000,0
109586.305,-14.648,-15.625,-21.484,-20.020,0.000,0
109586.309,-10.742,-18.555,-11.230,-15.137,0.000,0
109586.313,-13.184,-21.484,-0.977,-22.949,0.000,0
109586.316,-8.301,-17.090,-1.953,-24.902,0.000,0
109586.320,-14.648,-14.648,-29.297,-19.531,0.000,0
109586.324,-24.414,-22.461,-27.832,-25.879,0.000,0
109586.328,-20.020,-27.344,-7.812,-23.926,0.000,0
109586.332,-24.414,-26.367,-14.160,-26.855,0.000,0
109586.336,-30.273,-27.832,-20.996,-38.086,0.000,0
109586.340,-29.297,-28.320,-18.555,-29.297,0.000,0
109586.344,-31.738,-31.250,-7.812,-19.531,0.000,0
109586.348,-33.691,-30.762,-14.160,-18.066,0.000,0
109586.352,-29.297,-25.879,-33.203,-29.297,0.000,0
109586.355,-27.832,-27.832,-28.809,-41.992,0.000,0
109586.359,-23.926,-31.738,-7.812,-27.344,0.000,0
109586.363,-18.555,-23.926,3.418,-14.160,0.000,0
109586.367,-10.254,-18.066,-26.855,-19.043,0.000,0
109586.371,-9.277,-18.066,-27.832,-23.926,0.000,0
109586.375,-17.578,-22.461,11.719,-26.855,0.000,0
109586.379,-15.137,-19.043,7.812,-22.949,0.000,0
109586.383,-20.508,-22.461,-29.785,-21.484,0.000,0
109586.387,-18.066,-25.391,-51.758,-18.066,0.000,0
109586.391,-1.953,-20.508,-17.578,-19.531,0.000,0
109586.395,-6.348,-20.996,0.977,-29.785,0.000,0
109586.398,-17.578,-20.996,-29.297,-23.926,0.000,0
109586.402,-17.578,-20.508,-42.480,-20.020,0.000,0
109586.406,-9.766,-19.043,-7.812,-26.367,0.000,0
109586.410,-1.953,-18.066,5.859,-25.879,0.000,0
109586.414,-7.324,-18.555,-10.254,-31.250,0.000,0
109586.418,-15.625,-12.207,-26.855,-35.156,0.000,0
109586.422,-9.766,-14.160,-29.297,-30.762,0.000,0
109586.426,-8.301,-21.973,-14.648,-28.320,0.000,0
109586.430,-19.531,-26.855,-15.625,-32.227,0.000,0
109586.434,-23.926,-24.902,-23.926,-40.527,0.000,0
109586.438,-34.668,-22.949,-28.809,-40.039,0.000,0
109586.441,-38.574,-26.367,-17.090,-41.992,0.000,0
109586.445,-31.738,-21.973,-4.395,-42.480,0.000,0
109586.449,-27.832,-21.973,-23.438,-32.715,0.000,0
109586.453,-26.367,-26.367,-17.090,-36.133,0.000,0
109586.457,-26.367,-29.297,-15.137,-39.062,0.000,0
109586.461,-29.785,-27.344,-9.766,-27.832,0.000,0
109586.465,-29.785,-27.832,-13.672,-26.367,0.000,0
109586.469,-27.344,-27.832,-31.738,-27.344,0.000,0
109586.473,-23.438,-25.879,-18.066,-32.715,0.000,0
109586.477,-11.230,-27.832,-3.906,-38.574,0.000,0
109586.480,-10.742,-28.320,-13.184,-38.086,0.000,0
109586.484,-14.648,-25.879,-31.738,-33.203,0.000,0
109586.488,-19.531,-24.902,-38.086,-26.367,0.000,0
109586.492,-19.531,-24.902,-16.113,-30.762,0.000,0
109586.496,-18.066,-25.391,-6.836,-27.344,0.000,0
109586.500,-16.113,-20.020,-30.273,-18.555,0.000,0
109586.504,-15.137,-20.020,-40.039,-20.508,0.000,0
109586.508,-26.855,-27.344,-15.137,-29.297,0.000,0
109586.512,-26.367,-27.832,4.883,-36.621,0.000,0
109586.516,-24.414,-25.879,-18.555,-36.621,0.000,0
109586.520,-25.391,-23.926,-35.645,-32.715,0.000,0
109586.523,-31.738,-20.020,-14.648,-26.855,0.000,0
109586.527,-41.504,-25.391,-7.324,-25.391,0.000,0
109586.531,-40.527,-26.367,-16.113,-31.738,0.000,0
109586.535,-34.668,-20.996,-23.438,-32.715,0.000,0
109586.539,-29.785,-16.113,-16.113,-26.855,0.000,0
109586.543,-23.438,-14.160,11.230,-25.879,0.000,0
109586.547,-12.207,-16.602,-4.395,-33.691,0.000,0
109586.551,-22.461,-15.625,-21.973,-42.969,0.000,0
109586.555,-28.320,-14.648,-17.090,-46.875,0.000,0
109586.559,-21.973,-14.160,-13.184,-38.574,0.000,0
109586.563,-20.020,-9.277,-10.742,-25.391,0.000,0
109586.566,-14.648,-10.254,-24.902,-24.902,0.000,0
109586.570,-19.043,-10.742,-15.137,-26.855,0.000,0
109586.574,-34.668,-10.254,0.977,-29.785,0.000,0
109586.578,-28.320,-10.254,-2.930,-26.367,0.000,0
109586.582,-18.066,-5.371,-4.883,-24.902,0.000,1
109586.586,-27.344,-11.719,-9.277,-33.691,0.000,0
109586.590,-26.367,-20.996,-5.859,-33.691,0.000,0
109586.594,-18.066,-20.508,7.324,-42.969,0.000,0
109586.598,-25.391,-23.438,-10.742,-43.945,0.000,0
109586.602,-20.996,-20.996,-31.250,-28.320,0.000,0
109586.605,-14.648,-16.113,-27.344,-20.996,0.000,0
109586.609,-18.066,-21.973,0.000,-31.250,0.000,0
109586.613,-20.020,-23.926,13.184,-31.738,0.000,0
109586.617,-24.902,-17.090,-17.578,-26.855,0.000,0
109586.621,-23.926,-17.090,-19.531,-29.297,0.000,0
109586.625,-28.320,-17.090,1.465,-18.555,0.000,0
109586.629,-24.414,-14.648,9.277,-15.137,0.000,0
109586.633,-22.461,-12.695,5.859,-24.414,0.000,0
109586.637,-33.691,-10.254,-21.484,-23.926,0.000,0
109586.641,-35.645,-14.160,-14.648,-17.578,0.000,0
109586.645,-33.691,-18.555,6.348,-18.555,0.000,0
109586.648,-34.180,-22.461,-3.906,-29.297,0.000,0
109586.652,-32.227,-19.531,-18.066,-37.109,0.000,0
109586.656,-30.762,-21.484,-15.137,-33.203,0.000,0
109586.660,-31.250,-24.414,5.371,-26.855,0.000,0
109586.664,-35.156,-19.531,-9.277,-15.137,0.000,0
109586.668,-38.574,-27.832,-39.551,-25.879,0.000,0
109586.672,-43.945,-40.039,-28.809,-38.086,0.000,0
109586.676,-38.086,-34.668,-13.184,-24.414,0.000,0
109586.680,-31.250,-31.250,-22.461,-21.973,0.000,0
109586.684,-37.598,-29.785,-44.922,-22.949,0.000,0
109586.688,-25.879,-22.461,-28.809,-14.160,0.000,0
109586.691,-21.973,-21.973,4.883,-20.020,0.000,0
109586.695,-21.973,-25.391,-6.836,-29.785,0.000,0
109586.699,-13.672,-25.391,-30.762,-32.227,0.000,0
109586.703,-20.996,-24.902,-39.062,-22.949,0.000,0
109586.707,-30.273,-27.344,-19.531,-23.438,0.000,0
109586.711,-26.855,-25.391,10.254,-29.297,0.000,0
109586.715,-19.531,-23.438,-14.160,-17.578,0.000,0
109586.719,-26.855,-24.414,-40.527,-21.973,0.000,0
109586.723,-34.668,-20.996,-20.020,-24.414,0.000,0
109586.727,-25.879,-17.578,-2.930,-20.508,0.000,0
109586.730,-9.766,-20.996,-3.906,-27.832,0.000,0
109586.734,-12.695,-18.066,-15.625,-28.320,0.000,0
109586.738,-26.855,-14.160,-16.113,-27.344,0.000,0
109586.742,-29.785,-18.066,-10.254,-23.438,0.000,0
109586.746,-22.461,-21.973,-8.301,-20.996,0.000,0
109586.750,-22.461,-22.949,-10.742,-33.203,0.000,0
109586.754,-37.109,-20.508,-27.832,-33.691,0.000,0
109586.758,-35.645,-21.484,-20.020,-34.180,0.000,0
109586.762,-28.320,-19.531,2.441,-37.109,0.000,0
109586.766,-29.785,-12.695,-6.348,-29.785,0.000,0
109586.770,-39.062,-13.184,-17.578,-31.250,0.000,0
109586.773,-33.203,-14.160,-17.090,-28.809,0.000,0
109586.777,-28.809,-14.160,-7.812,-20.508,0.000,0
109586.781,-31.250,-11.719,-18.555,-27.832,0.000,0
109586.785,-29.785,-16.113,-25.879,-39.062,0.000,0
109586.789,-30.273,-19.043,-2.441,-29.297,0.000,0
109586.793,-34.180,-15.137,-10.742,-20.996,0.000,0
109586.797,-35.156,-17.090,-34.668,-21.484,0.000,0
109586.801,-22.461,-19.531,-36.133,-11.230,0.000,0
109586.805,-30.762,-20.996,-1.953,-13.672,0.000,0
109586.809,-32.227,-20.508,3.418,-17.090,0.000,0
109586.813,-11.230,-13.672,-21.484,-1.465,0.000,0
109586.816,-20.508,-10.742,-22.949,-3.418,0.000,0
109586.820,-32.227,-13.672,2.441,-15.625,0.000,0
109586.824,-27.344,-12.207,27.344,-15.137,0.000,0
109586.828,-26.855,-16.113,-2.930,-25.391,0.000,0
109586.832,-29.297,-17.578,-30.273,-32.227,0.000,0
109586.836,-25.879,-10.742,-7.812,-21.973,0.000,0
109586.840,-20.996,-8.301,4.395,-16.602,0.000,0
109586.844,-20.508,-7.324,-5.371,-16.602,0.000,0
109586.848,-19.043,-9.277,-14.648,-18.555,0.000,0
109586.852,-13.184,-13.184,-22.949,-15.625,0.000,0
109586.855,3.906,-18.066,-6.836,-12.695,0.000,0
109586.859,0.000,-24.902,-5.371,-21.484,0.000,0
109586.863,-24.414,-29.297,-22.949,-22.461,0.000,0
109586.867,-25.391,-33.203,-18.066,-12.695,0.000,0
109586.871,-19.531,-32.227,-6.348,-12.695,0.000,0
109586.875,-10.742,-28.320,-6.836,-12.695,0.000,0
109586.879,-26.367,-26.855,-27.344,-7.812,0.000,0
109586.883,-37.109,-25.391,-27.344,-13.672,0.000,0
109586.887,-27.832,-26.367,-0.488,-19.043,0.000,0
109586.891,-24.902,-28.320,-11.719,-9.766,0.000,0
109586.895,-19.531,-26.855,-29.297,-15.137,0.000,0
109586.898,-20.508,-30.273,-29.785,-19.043,0.000,0
109586.902,-24.902,-36.133,-22.461,-17.578,0.000,0
109586.906,-28.809,-35.156,0.000,-24.902,0.000,0
109586.910,-30.762,-29.297,-5.371,-20.996,0.000,0
109586.914,-31.250,-26.367,-30.273,-15.137,0.000,0
109586.918,-33.691,-31.250,-41.504,-21.973,0.000,0
109586.922,-27.832,-34.668,-18.555,-24.414,0.000,0
109586.926,-20.996,-32.715,3.418,-22.461,0.000,0
109586.930,-23.438,-30.273,-11.719,-16.113,0.000,0
109586.934,-29.785,-36.621,-28.320,-28.320,0.000,0
109586.938,-27.832,-39.062,-10.742,-34.180,0.000,0
109586.941,-30.762,-35.156,7.324,-33.691,0.000,0
109586.945,-25.391,-32.227,-3.906,-37.598,0.000,0
109586.949,-31.738,-29.785,-24.902,-34.668,0.000,0
109586.953,-40.527,-31.250,-16.602,-25.391,0.000,0
109586.957,-30.762,-29.785,6.348,-17.090,0.000,0
109586.961,-28.809,-29.785,-6.836,-25.879,0.000,0
109586.965,-26.367,-27.832,-22.949,-26.367,0.000,0
109586.969,-33.691,-28.320,-16.602,-21.973,0.000,0
109586.973,-32.227,-34.180,-0.977,-27.832,0.000,0
109586.977,-22.949,-31.738,-14.648,-23.926,0.000,0
109586.980,-23.926,-28.809,-35.645,-17.578,0.000,0
109586.984,-4.883,-24.414,-12.207,-17.090,0.000,0
109586.988,5.371,-16.113,17.578,-17.578,0.000,0
109586.992,-4.395,-13.672,-4.395,-0.488,0.000,0
109586.996,-10.742,-16.602,-32.227,-0.488,0.000,0
109587.000,-26.367,-20.020,-29.297,-14.160,0.000,0
109587.004,-18.555,-16.602,5.859,-18.555,0.000,0
109587.008,-11.719,-12.207,8.789,-10.254,0.000,0
109587.012,-19.531,-16.113,-29.785,-14.648,0.000,0
109587.016,-22.949,-19.043,-33.691,-11.719,0.000,0
109587.020,-17.090,-21.484,-4.395,-6.836,0.000,0
109587.023,-15.625,-27.344,4.395,-17.578,0.000,0
109587.027,-18.555,-21.484,-14.160,-10.254,0.000,0
109587.031,-15.625,-19.531,-33.691,-14.160,0.000,0
109587.035,-15.625,-20.508,-21.484,-18.066,0.000,0
109587.039,-14.160,-19.043,1.465,-20.996,0.000,0
109587.043,-6.348,-20.996,9.766,-33.691,0.000,0
109587.047,0.488,-15.137,-7.812,-25.391,0.000,0
109587.051,-4.395,-14.160,-20.996,-17.090,0.000,0
109587.055,-10.254,-18.066,-13.672,-15.625,0.000,0
109587.059,-0.977,-18.066,-9.766,-17.090,0.000,0
109587.063,-6.348,-18.555,-4.395,-24.902,0.000,0
109587.066,-14.648,-18.066,-26.855,-20.020,0.000,0
109587.070,-8.301,-17.578,-19.531,-14.160,0.000,0
109587.074,-3.418,-17.090,5.859,-15.137,0.000,0
109587.078,-8.301,-17.578,-14.160,-22.461,0.000,0
109587.082,-12.207,-23.926,-27.832,-29.297,0.000,0
109587.086,-6.836,-25.879,-21.973,-25.879,0.000,0
109587.090,-16.113,-28.320,-12.207,-32.227,0.000,0
109587.094,-27.832,-24.902,-20.508,-22.461,0.000,0
109587.098,-25.879,-17.090,-32.227,-10.742,0.000,0
109587.102,-32.715,-18.555,-20.508,-35.645,0.000,0
109587.105,-29.297,-20.020,-0.488,-37.109,0.000,0
109587.109,-19.043,-15.137,10.742,-20.508,0.000,0
109587.113,-23.438,-16.113,-14.648,-27.344,0.000,0
109587.117,-31.738,-18.555,-36.133,-24.902,0.000,0
109587.121,-30.762,-18.555,-7.324,-28.320,0.000,0
109587.125,-30.273,-17.578,10.742,-29.297,0.000,0
109587.129,-31.250,-21.973,-24.414,-22.461,0.000,0
109587.133,-22.461,-21.484,-33.691,-22.461,0.000,0
109587.137,-19.043,-14.648,-10.254,-26.367,0.000,0
109587.141,-13.672,-10.742,15.625,-22.949,0.000,0
109587.145,-10.254,-11.230,0.000,-19.531,0.000,0
109587.148,-9.766,-10.254,-28.320,-15.137,0.000,0
109587.152,5.859,-10.254,-14.648,-11.719,0.000,0
109587.156,-13.184,-21.484,-4.395,-22.949,0.000,0
109587.160,-26.855,-25.879,-11.719,-31.250,0.000,0
109587.164,-7.324,-17.578,-19.531,-18.066,0.000,0
109587.168,-10.254,-15.137,-22.949,-9.766,0.000,0
109587.172,-2.441,-15.137,-7.324,-5.859,0.000,0
109587.176,4.395,-9.766,-1.953,0.488,0.000,0
109587.180,-5.371,-6.348,-15.625,-3.418,0.000,0
109587.184,-16.113,-7.324,-17.578,-15.625,0.000,0
109587.188,-13.184,-4.395,-2.441,-12.695,0.000,0
109587.191,-7.812,-1.465,10.254,3.418,0.000,0
109587.195,-14.160,-3.418,-7.812,-4.883,0.000,0
109587.199,-20.508,-5.859,-23.438,-7.324,0.000,0
109587.203,-23.926,-10.742,-10.742,-5.371,0.000,0
109587.207,-29.785,-16.113,-6.836,-17.578,0.000,0
109587.211,-33.203,-18.555,-19.531,-24.414,0.000,0
109587.215,-24.902,-10.742,-22.461,-17.090,0.000,0
109587.219,-16.602,-12.695,-12.695,-23.926,0.000,0
109587.223,-20.020,-19.531,2.441,-37.109,0.000,0
109587.227,-18.555,-19.531,1.465,-33.203,0.000,0
109587.230,-18.555,-14.648,-20.020,-24.902,0.000,0
109587.234,-26.367,-7.812,-27.344,-25.879,0.000,0
109587.238,-23.926,-5.859,1.953,-35.645,0.000,0
109587.242,-19.043,-5.859,15.625,-35.645,0.000,0
109587.246,-20.508,0.000,-16.113,-23.926,0.000,1
109587.250,-16.602,-0.977,-28.320,-25.879,0.000,0
109587.254,-6.348,-7.812,-0.488,-27.832,0.000,0
109587.258,-21.484,-18.066,9.766,-31.738,0.000,0
109587.262,-27.344,-20.996,-17.578,-37.109,0.000,0
109587.266,-20.996,-19.043,-35.645,-32.227,0.000,0
109587.270,-23.926,-19.531,-17.578,-24.414,0.000,0
109587.273,-28.809,-21.973,-5.859,-28.320,0.000,0
109587.277,-24.414,-23.438,-18.555,-38.086,0.000,0
109587.281,-16.113,-18.555,-26.855,-33.203,0.000,0
109587.285,-21.484,-16.602,-4.883,-31.250,0.000,0
109587.289,-19.043,-15.137,11.230,-32.227,0.000,0
109587.293,-11.719,-12.695,-12.695,-23.926,0.000,0
109587.297,-18.555,-15.137,-21.973,-28.809,0.000,0
109587.301,-24.902,-21.484,-11.719,-36.621,0.000,0
109587.305,-20.508,-21.973,-2.441,-30.273,0.000,0
109587.309,-15.137,-20.508,-14.648,-25.391,0.000,0
109587.313,-13.672,-18.555,-30.273,-26.855,0.000,0
109587.316,-9.766,-19.043,-10.254,-27.832,0.000,0
109587.320,-5.371,-23.926,3.906,-30.273,0.000,0
109587.324,-15.137,-18.066,-9.766,-28.809,0.000,0
109587.328,-21.973,-11.719,-24.414,-23.926,0.000,0
109587.332,-20.508,-15.137,-30.762,-21.484,0.000,0
109587.336,-27.832,-19.531,-11.230,-39.062,0.000,0
109587.340,-30.762,-21.484,-8.789,-42.480,0.000,0
109587.344,-24.414,-19.043,-22.949,-24.414,0.000,0
109587.348,-25.879,-13.184,-20.020,-19.531,0.000,0
109587.352,-22.461,-14.648,-12.695,-23.438,0.000,0
109587.355,-19.531,-21.484,7.324,-29.297,0.000,0
109587.359,-24.414,-21.973,-6.348,-32.227,0.000,0
109587.363,-19.043,-19.043,-33.203,-31.738,0.000,0
109587.367,-13.672,-20.020,-20.996,-27.344,0.000,0
109587.371,-17.090,-20.020,-1.465,-19.043,0.000,0
109587.375,-18.555,-21.484,-7.812,-29.785,0.000,0
109587.379,-17.090,-19.531,-28.320,-31.738,0.000,0
109587.383,-21.484,-16.602,-31.738,-21.484,0.000,0
109587.387,-23.438,-17.578,-13.672,-20.508,0.000,0
109587.391,-19.531,-20.996,-11.230,-27.832,0.000,0
109587.395,-27.344,-23.438,-26.855,-43.457,0.000,0
109587.398,-30.273,-19.043,-24.414,-40.039,0.000,0
109587.402,-29.785,-16.602,-15.137,-19.043,0.000,0
109587.406,-27.832,-16.602,0.488,-10.742,0.000,0
109587.410,-18.066,-15.137,-20.020,-14.648,0.000,0
109587.414,-16.113,-13.672,-30.273,-22.949,0.000,0
109587.418,-21.484,-21.484,-3.418,-25.879,0.000,0
109587.422,-22.949,-26.367,-1.953,-21.973,0.000,0
109587.426,-20.020,-25.391,-12.695,-22.949,0.000,0
109587.430,-15.625,-28.809,-34.180,-20.508,0.000,0
109587.434,-17.090,-29.785,-14.648,-24.414,0.000,0
109587.438,-25.391,-31.738,22.949,-31.738,0.000,0
109587.441,-13.672,-33.691,-12.695,-19.043,0.000,0
109587.445,-13.184,-28.809,-38.574,-12.695,0.000,0
109587.449,-24.414,-24.414,-23.438,-15.137,0.000,0
109587.453,-16.602,-25.879,3.906,-16.113,0.000,0
109587.457,-16.113,-26.855,7.324,-26.367,0.000,0
109587.461,-17.578,-27.344,-19.531,-23.438,0.000,0
109587.465,-13.672,-27.832,-23.438,-20.996,0.000,0
109587.469,-15.137,-28.320,-3.418,-20.508,0.000,0
109587.473,-20.020,-29.785,2.441,-11.230,0.000,0
109587.477,-23.438,-31.738,-16.113,-16.113,0.000,0
109587.480,-18.555,-26.855,-25.391,-12.207,0.000,0
109587.484,-12.695,-22.949,-11.719,-8.301,0.000,0
109587.488,-12.207,-20.508,1.953,-11.230,0.000,0
109587.492,-25.391,-20.020,-5.859,-10.254,0.000,0
109587.496,-34.668,-26.855,-21.973,-17.090,0.000,0
109587.500,-17.578,-30.273,-10.742,-26.855,0.000,0
109587.504,-13.672,-28.809,0.488,-21.973,0.000,0
109587.508,-15.625,-28.320,-18.066,-3.418,0.000,0
109587.512,-9.277,-21.973,-24.414,-3.418,0.000,0
109587.516,-16.602,-19.531,-17.090,-19.531,0.000,0
109587.520,-16.602,-25.879,-2.441,-20.996,0.000,0
109587.523,-13.184,-20.020,2.930,-19.531,0.000,0
109587.527,-13.184,-12.207,-10.742,-21.484,0.000,0
109587.531,-13.672,-15.625,-27.344,-25.879,0.000,0
109587.535,-9.766,-18.555,-4.395,-33.691,0.000,0
109587.539,-11.719,-23.438,4.883,-34.668,0.000,0
109587.543,-26.855,-31.250,-25.879,-36.133,0.000,0
109587.547,-29.297,-30.273,-48.828,-29.297,0.000,0
109587.551,-23.926,-29.785,-39.062,-29.297,0.000,0
109587.555,-10.742,-29.785,-5.859,-32.715,0.000,0
109587.559,-8.789,-22.949,-20.996,-27.344,0.000,0
109587.563,-27.344,-20.508,-50.293,-27.344,0.000,0
109587.566,-27.832,-18.066,-23.926,-23.438,0.000,0
109587.570,-23.438,-17.090,5.859,-22.949,0.000,0
109587.574,-22.461,-20.020,-1.953,-28.809,0.000,0
109587.578,-20.020,-16.602,-30.762,-18.555,0.000,0
109587.582,-18.555,-18.555,-30.273,-7.324,0.000,0
109587.586,-23.926,-27.344,-12.207,-13.672,0.000,0
109587.590,-34.180,-27.344,-11.230,-20.020,0.000,0
109587.594,-25.391,-23.438,-18.555,-13.184,0.000,0
109587.598,-14.160,-17.578,-22.461,-4.883,0.000,0
109587.602,-15.137,-19.043,-0.488,-16.602,0.000,0
109587.605,-15.137,-25.879,3.906,-21.973,0.000,0
109587.609,-18.066,-24.414,-24.902,-15.625,0.000,0
109587.613,-28.809,-24.902,-18.555,-36.133,0.000,0
109587.617,-26.855,-22.949,-1.953,-39.062,0.000,0
109587.621,-16.113,-22.949,-1.953,-32.715,0.000,0
109587.625,-24.902,-25.879,-25.391,-41.016,0.000,0
109587.629,-26.367,-20.508,-32.227,-34.180,0.000,0
109587.633,-20.508,-23.438,-12.207,-29.297,0.000,0
109587.637,-29.785,-26.367,-1.465,-33.691,0.000,0
109587.641,-34.668,-24.414,-11.230,-31.738,0.000,0
109587.645,-34.180,-25.879,-27.344,-27.344,0.000,0
109587.648,-40.527,-24.414,-41.504,-18.066,0.000,0
109587.652,-39.551,-27.832,-18.555,-22.949,0.000,0
109587.656,-32.715,-30.762,1.953,-17.090,0.000,0
109587.660,-31.250,-24.414,-24.902,-3.906,0.000,0
109587.664,-30.762,-20.020,-48.340,-17.090,0.000,0
109587.668,-21.973,-23.438,-24.414,-16.113,0.000,0
109587.672,-5.371,-22.461,13.672,-14.648,0.000,0
109587.676,-1.465,-22.949,8.301,-14.648,0.000,0
109587.680,-17.578,-23.438,-22.461,-21.484,0.000,0
109587.684,-27.344,-24.902,-19.043,-25.391,0.000,0
109587.688,-20.996,-24.902,3.418,-4.395,0.000,0
109587.691,-12.695,-20.996,10.742,-9.277,0.000,0
109587.695,-6.836,-20.020,-7.812,-12.695,0.000,0
109587.699,-8.789,-22.949,-23.926,-7.812,0.000,0
109587.703,-7.324,-26.855,-1.953,-16.602,0.000,0
109587.707,-11.719,-24.902,8.789,-15.137,0.000,0
109587.711,-17.578,-24.902,-20.996,-16.113,0.000,0
109587.715,-15.137,-24.414,-33.691,-25.391,0.000,0
109587.719,-26.367,-17.090,8.301,-21.973,0.000,0
109587.723,-20.020,-21.484,1.953,-14.160,0.000,0
109587.727,-15.137,-22.949,-34.668,-19.531,0.000,0
109587.730,-23.926,-22.461,-14.160,-30.762,0.000,0
109587.734,-24.902,-26.855,-2.441,-24.414,0.000,0
109587.738,-27.344,-27.344,-17.578,-22.461,0.000,0
109587.742,-30.762,-28.809,-29.785,-33.203,0.000,0
109587.746,-29.297,-30.273,-32.715,-33.691,0.000,0
109587.750,-24.414,-34.180,-5.859,-35.156,0.000,0
109587.754,-22.949,-34.668,5.371,-32.715,0.000,0
109587.758,-25.879,-27.832,-22.461,-20.996,0.000,0
109587.762,-27.344,-30.273,-41.016,-24.902,0.000,0
109587.766,-21.484,-29.297,-13.184,-24.414,0.000,0
109587.770,-7.324,-27.344,6.348,-34.668,0.000,0
109587.773,-12.695,-26.855,-6.348,-46.875,0.000,0
109587.777,-24.902,-21.484,-22.949,-38.086,0.000,0
109587.781,-26.367,-21.973,-20.996,-37.598,0.000,0
109587.785,-20.508,-27.344,-11.230,-34.180,0.000,0
109587.789,-22.949,-31.738,-2.441,-39.062,0.000,0
109587.793,-27.832,-31.738,-20.020,-30.762,0.000,0
109587.797,-21.973,-33.203,-33.691,-17.578,0.000,0
109587.801,-22.949,-37.598,-8.301,-23.438,0.000,0
109587.805,-27.832,-37.109,-10.254,-29.785,0.000,0
109587.809,-28.320,-32.227,-18.555,-31.250,0.000,0
109587.813,-32.227,-28.809,-21.484,-40.039,0.000,0
109587.816,-25.391,-22.949,-34.180,-40.527,0.000,0
109587.820,-27.344,-23.926,-11.719,-29.297,0.000,0
109587.824,-25.391,-23.926,-9.766,-14.160,0.000,0
109587.828,-20.996,-20.508,-27.344,-17.578,0.000,0
109587.832,-26.855,-27.344,-27.344,-29.297,0.000,0
109587.836,-22.949,-33.691,-23.438,-21.973,0.000,0
109587.840,-18.555,-28.809,-19.531,-22.461,0.000,0
109587.844,-27.832,-21.484,-28.809,-38.086,0.000,0
109587.848,-31.250,-25.391,-32.715,-43.457,0.000,0
109587.852,-21.973,-25.391,-18.555,-35.645,0.000,0
109587.855,-30.273,-24.902,-20.020,-38.086,0.000,0
109587.859,-37.598,-30.762,-48.828,-42.480,0.000,0
109587.863,-18.555,-26.855,-55.176,-34.180,0.000,0
109587.867,-18.066,-26.367,-22.461,-39.062,0.000,0
109587.871,-25.879,-29.297,-7.324,-35.156,0.000,0
109587.875,-16.602,-26.367,-34.180,-26.855,0.000,0
109587.879,-7.812,-27.832,-46.387,-33.203,0.000,0
109587.883,-16.113,-33.691,-23.926,-34.668,0.000,0
109587.887,-31.250,-29.297,-5.371,-28.320,0.000,0
109587.891,-21.973,-22.461,-20.020,-29.297,0.000,0
109587.895,-11.719,-21.484,-37.598,-28.809,0.000,0
109587.898,-14.160,-20.508,-21.973,-23.926,0.000,0
109587.902,-8.789,-17.090,-6.348,-25.879,0.000,0
109587.906,-3.418,-22.949,-15.137,-31.250,0.000,0
109587.910,-4.883,-23.926,-21.484,-23.926,0.000,0
109587.914,-6.348,-21.484,-18.066,-24.902,0.000,0
109587.918,-17.578,-27.832,-22.949,-24.902,0.000,0
109587.922,-21.484,-25.391,-21.484,-20.020,0.000,0
109587.926,-15.625,-20.508,-25.879,-23.438,0.000,0
109587.930,-7.324,-20.508,-23.438,-20.996,0.000,0
109587.934,-2.930,-21.484,-13.184,-18.555,0.000,0
109587.938,-9.766,-27.344,-15.625,-16.113,0.000,0
109587.941,-12.207,-30.273,-37.109,-22.949,0.000,0
109587.945,-13.672,-27.344,-36.133,-30.762,0.000,1
109587.949,-28.809,-31.250,-19.043,-33.691,0.000,0
109587.953,-28.809,-29.785,-14.648,-32.715,0.000,0
109587.957,-12.695,-25.879,-15.137,-37.109,0.000,0
109587.961,-8.789,-24.902,-34.668,-28.809,0.000,0
109587.965,-16.113,-29.785,-28.809,-21.973,0.000,0
109587.969,-16.113,-39.551,0.000,-42.480,0.000,0
109587.973,-16.113,-33.691,-13.184,-38.086,0.000,0
109587.977,-16.113,-28.320,-39.551,-29.297,0.000,0
109587.980,-18.066,-27.344,-37.598,-32.227,0.000,0
109587.984,-24.902,-26.367,-8.789,-39.551,0.000,0
109587.988,-25.879,-30.273,7.324,-44.922,0.000,0
109587.992,-25.879,-27.832,-29.785,-39.551,0.000,0
109587.996,-29.785,-22.461,-49.805,-41.016,0.000,0
109588.000,-24.902,-16.113,-25.391,-38.574,0.000,0
109588.004,-14.160,-17.578,4.883,-30.273,0.000,0
109588.008,-18.066,-19.043,-1.953,-32.715,0.000,0
109588.012,-18.066,-15.625,-26.855,-16.113,0.000,0
109588.016,-10.742,-20.508,-8.789,-19.043,0.000,0
109588.020,-23.926,-20.020,3.418,-20.996,0.000,0
109588.023,-29.785,-19.043,-18.066,-19.531,0.000,0
109588.027,-26.855,-22.949,-21.484,-40.039,0.000,0
109588.031,-24.414,-18.555,-10.254,-38.086,0.000,0
109588.035,-16.602,-20.996,8.301,-25.879,0.000,0
109588.039,-24.414,-25.391,-7.812,-20.020,0.000,0
109588.043,-33.203,-25.879,-32.715,-26.855,0.000,0
109588.047,-30.762,-27.344,-12.695,-36.133,0.000,0
109588.051,-26.367,-26.367,2.441,-18.555,0.000,0
109588.055,-30.762,-29.785,-8.789,-15.625,0.000,0
109588.059,-33.691,-34.180,-26.855,-20.020,0.000,0
109588.063,-22.949,-29.297,-29.785,-18.555,0.000,0
109588.066,-23.926,-29.785,-4.883,-25.391,0.000,0
109588.070,-36.621,-30.273,0.977,-27.832,0.000,0
109588.074,-33.203,-25.391,-17.090,-20.020,0.000,0
109588.078,-29.297,-21.484,-29.297,-10.254,0.000,0
109588.082,-37.109,-20.508,-17.578,-17.578,0.000,0
109588.086,-27.344,-20.996,10.254,-16.113,0.000,0
109588.090,-11.230,-15.625,3.418,-2.930,0.000,0
109588.094,-19.043,-15.625,-19.043,-7.812,0.000,0
109588.098,-17.090,-18.066,-16.602,-11.230,0.000,0
109588.102,0.488,-17.090,5.371,0.977,0.000,0
109588.105,1.465,-14.648,14.160,-4.883,0.000,0
109588.109,-0.488,-11.719,-5.859,-5.371,0.000,0
109588.113,4.883,-14.648,-19.043,4.395,0.000,0
109588.117,-0.488,-20.020,4.395,-3.418,0.000,0
109588.121,-9.766,-20.996,13.184,-6.348,0.000,0
109588.125,-16.602,-25.391,-12.695,-14.648,0.000,0
109588.129,-12.695,-25.391,-20.996,-19.531,0.000,0
109588.133,-9.277,-27.832,-10.254,-9.766,0.000,0
109588.137,-14.160,-30.273,2.930,-10.742,0.000,0
109588.141,-16.602,-26.367,-2.441,-5.371,0.000,0
109588.145,-22.949,-28.809,-29.297,-14.648,0.000,0
109588.148,-25.391,-23.438,-17.090,-20.996,0.000,0
109588.152,-18.555,-17.578,0.488,-5.859,0.000,0
109588.156,-14.160,-16.602,-13.672,-2.930,0.000,0
109588.160,-18.066,-18.066,-36.621,-4.395,0.000,0
109588.164,-26.855,-21.973,-25.879,-11.230,0.000,0
109588.168,-23.438,-21.973,0.977,-17.578,0.000,0
109588.172,-16.113,-19.531,-7.812,-18.555,0.000,0
109588.176,-23.926,-16.602,-22.949,-11.230,0.000,0
109588.180,-23.438,-20.996,-34.668,-6.348,0.000,0
109588.184,-21.484,-21.973,-1.953,-17.090,0.000,0
109588.188,-20.508,-21.484,12.695,-18.066,0.000,0
109588.191,-15.137,-24.902,-28.809,-16.602,0.000,0
109588.195,-9.277,-20.020,-30.762,-15.137,0.000,0
109588.199,-5.371,-19.043,-2.930,-17.090,0.000,0
109588.203,-11.719,-22.949,7.812,-25.391,0.000,0
109588.207,-21.484,-24.414,-8.789,-30.762,0.000,0
109588.211,-25.391,-22.949,-24.902,-26.855,0.000,0
109588.215,-25.879,-19.043,-12.207,-11.719,0.000,0
109588.219,-23.926,-22.461,1.465,-16.602,0.000,0
109588.223,-32.715,-25.879,-13.184,-30.762,0.000,0
109588.227,-39.062,-20.996,-30.762,-27.832,0.000,0
109588.230,-33.691,-25.391,-20.508,-28.320,0.000,0
109588.234,-28.320,-25.391,-13.184,-30.762,0.000,0
109588.238,-24.902,-14.160,-18.066,-32.227,0.000,0
109588.242,-21.973,-15.625,-31.250,-34.668,0.000,0
109588.246,-23.926,-20.996,-29.297,-36.621,0.000,0
109588.250,-23.926,-23.438,-14.160,-31.738,0.000,0
109588.254,-15.625,-25.879,-0.488,-26.855,0.000,0
109588.258,-27.344,-26.367,-19.043,-26.855,0.000,0
109588.262,-31.250,-25.391,-30.273,-20.996,0.000,0
109588.266,-23.438,-23.438,-3.418,-19.531,0.000,0
109588.270,-26.367,-22.461,1.465,-19.531,0.000,0
109588.273,-28.320,-21.484,-15.625,-16.602,0.000,0
109588.277,-24.902,-20.020,-26.855,-12.207,0.000,0
109588.281,-19.531,-23.926,0.000,-17.578,0.000,0
109588.285,-16.113,-23.926,19.531,-20.508,0.000,0
109588.289,-18.555,-20.996,-7.812,-16.113,0.000,0
109588.293,-13.672,-19.531,-31.250,-14.648,0.000,0
109588.297,-9.277,-23.438,-13.184,-19.043,0.000,0
109588.301,-8.301,-28.320,18.066,-23.438,0.000,0
109588.305,-10.742,-32.715,-1.465,-29.297,0.000,0
109588.309,-6.836,-27.832,-34.668,-30.762,0.000,0
109588.313,-6.348,-22.949,-19.043,-20.020,0.000,0
109588.316,-21.484,-24.902,0.000,-11.719,0.000,0
109588.320,-14.648,-20.996,-13.184,-21.973,0.000,0
109588.324,-6.836,-19.043,-32.227,-22.949,0.000,0
109588.328,-20.996,-22.461,-24.414,-16.602,0.000,0
109588.332,-19.043,-20.020,-7.324,-13.672,0.000,0
109588.336,-11.719,-19.043,-12.207,-19.043,0.000,0
109588.340,-13.184,-16.113,-20.020,-33.203,0.000,0
109588.344,-9.766,-12.207,-15.625,-27.832,0.000,0
109588.348,-11.230,-19.043,-0.977,-22.461,0.000,0
109588.352,-6.348,-20.996,-10.254,-14.160,0.000,0
109588.355,-6.348,-16.113,-32.715,-13.184,0.000,0
109588.359,-25.391,-16.113,-15.625,-24.414,0.000,0
109588.363,-29.785,-15.625,-0.488,-13.672,0.000,0
109588.367,-16.113,-15.137,-11.230,-7.812,0.000,0
109588.371,-10.254,-17.578,-28.320,-16.602,0.000,0
109588.375,-13.184,-15.137,-14.648,-13.184,0.000,0
109588.379,-18.066,-17.090,7.812,-20.020,0.000,0
109588.383,-19.531,-19.043,2.930,-25.391,0.000,0
109588.387,-16.602,-19.043,-17.090,-18.066,0.000,0
109588.391,-11.719,-13.672,-30.273,-7.812,0.000,0
109588.395,-18.555,-9.766,-19.531,-12.207,0.000,0
109588.398,-12.207,-12.695,8.301,-25.879,0.000,0
109588.402,-2.441,-12.695,-10.742,-23.438,0.000,0
109588.406,-13.672,-13.672,-38.086,-22.461,0.000,0
109588.410,-33.203,-19.043,-29.297,-27.344,0.000,0
109588.414,-26.367,-19.043,-14.648,-24.902,0.000,0
109588.418,-15.625,-22.461,-4.395,-29.785,0.000,0
109588.422,-25.391,-21.973,-14.648,-34.180,0.000,0
109588.426,-20.020,-14.160,-36.133,-20.996,0.000,0
109588.430,-17.090,-16.602,-17.578,-7.324,0.000,0
109588.434,-15.137,-17.090,-1.465,-8.789,0.000,0
109588.438,-12.695,-14.160,-12.207,-19.043,0.000,0
109588.441,-19.531,-10.742,-27.832,-16.602,0.000,0
109588.445,-14.648,-12.207,-24.414,-16.602,0.000,0
109588.449,-13.184,-16.602,4.395,-14.648,0.000,0
109588.453,-19.531,-15.625,-9.766,-9.766,0.000,0
109588.457,-19.531,-13.672,-34.668,-23.926,0.000,0
109588.461,-17.578,-6.836,-8.301,-15.625,0.000,0
109588.465,-15.625,-6.836,3.906,-2.930,0.000,0
109588.469,-15.625,-12.695,-31.738,-14.160,0.000,0
109588.473,-21.484,-17.090,-45.410,-21.484,0.000,0
109588.477,-20.996,-18.555,-12.695,-24.414,0.000,0
109588.480,-15.137,-17.578,3.906,-21.973,0.000,0
109588.484,-18.555,-20.020,-9.766,-11.719,0.000,0
109588.488,-21.973,-15.625,-32.227,-9.766,0.000,0
109588.492,-15.625,-12.207,-25.879,-13.672,0.000,0
109588.496,-14.160,-13.184,2.930,-14.648,0.000,0
109588.500,-16.113,-13.672,-6.348,-13.184,0.000,0
109588.504,-21.484,-13.672,-26.367,-12.695,0.000,1
109588.508,-29.297,-18.555,-19.043,-24.414,0.000,0
109588.512,-24.414,-20.508,-1.953,-28.809,0.000,0
109588.516,-26.367,-22.949,-4.883,-28.320,0.000,0
109588.520,-27.832,-23.926,-22.461,-31.250,0.000,0
109588.523,-31.738,-24.414,-42.480,-21.973,0.000,0
109588.527,-35.156,-28.809,-38.574,-24.902,0.000,0
109588.531,-33.203,-28.320,-20.508,-34.180,0.000,0
109588.535,-36.621,-26.855,-19.531,-32.227,0.000,0
109588.539,-44.434,-26.367,-33.203,-23.926,0.000,0
109588.543,-36.133,-25.879,-27.344,-21.973,0.000,0
109588.547,-30.762,-31.250,-4.883,-31.738,0.000,0
109588.551,-30.762,-30.762,-12.695,-30.273,0.000,0
109588.555,-17.090,-20.996,-18.555,-21.973,0.000,0
109588.559,-8.301,-17.090,-30.273,-29.785,0.000,0
109588.563,-18.066,-19.043,-21.973,-35.645,0.000,0
109588.566,-22.949,-20.996,-1.953,-23.438,0.000,0
109588.570,-17.090,-17.090,-19.043,-18.066,0.000,0
109588.574,-19.531,-20.508,-20.508,-29.785,0.000,0
109588.578,-24.902,-27.832,-8.789,-29.785,0.000,0
109588.582,-23.438,-25.391,-3.418,-26.855,0.000,0
109588.586,-25.879,-23.438,-17.090,-25.879,0.000,0
109588.590,-31.250,-16.602,-22.949,-18.066,0.000,0
109588.594,-14.160,-16.602,3.906,-18.555,0.000,0
109588.598,-4.395,-18.555,12.695,-21.484,0.000,0
109588.602,-29.785,-12.207,-16.113,-29.297,0.000,0
109588.605,-34.668,-9.277,-36.621,-27.344,0.000,0
109588.609,-19.043,-5.859,-15.137,-12.207,0.000,0
109588.613,-14.160,-5.371,31.250,-10.742,0.000,0
109588.617,-12.207,-5.371,19.531,-17.578,0.000,0
109588.621,-9.277,-9.766,-20.020,-27.344,0.000,0
109588.625,-12.695,-11.230,-6.836,-18.555,0.000,0
109588.629,-14.648,-13.672,2.930,-7.812,0.000,0
109588.633,-8.789,-15.625,4.883,-28.320,0.000,0
109588.637,-0.488,-15.625,-12.695,-34.668,0.000,0
109588.641,-9.277,-18.066,-25.879,-24.902,0.000,0
109588.645,-17.090,-19.043,2.441,-19.531,0.000,0
109588.648,-16.602,-17.578,-0.977,-18.555,0.000,0
109588.652,-9.766,-15.137,-20.020,-24.414,0.000,0
109588.656,1.953,-10.254,-8.789,-20.508,0.000,0
109588.660,-3.418,-10.254,5.371,-15.137,0.000,0
109588.664,-5.371,-15.137,9.277,-18.066,0.000,0
109588.668,-6.836,-18.555,-14.648,-14.160,0.000,0
109588.672,-16.113,-16.602,-18.555,-22.949,0.000,0
109588.676,-15.625,-11.719,2.441,-19.043,0.000,0
109588.680,-17.090,-16.113,-3.418,-16.113,0.000,0
109588.684,-17.578,-15.625,-17.578,-22.461,0.000,0
109588.688,-20.020,-9.766,-21.484,-22.949,0.000,0
109588.691,-22.949,-12.695,-5.859,-25.391,0.000,0
109588.695,-18.555,-21.973,-1.953,-32.227,0.000,0
109588.699,-20.508,-22.949,-9.766,-35.156,0.000,0
109588.703,-19.043,-24.902,-18.066,-16.602,0.000,0
109588.707,-27.832,-26.855,-26.855,-14.648,0.000,0
109588.711,-27.832,-27.344,2.441,-34.180,0.000,0
109588.715,-22.461,-26.855,-4.395,-25.391,0.000,0
109588.719,-25.391,-28.320,-35.645,-22.461,0.000,0
109588.723,-16.602,-24.414,-16.113,-27.344,0.000,0
109588.727,-18.066,-24.414,-8.301,-21.484,0.000,0
109588.730,-22.461,-28.320,-0.488,-29.785,0.000,0
109588.734,-21.484,-23.926,-14.160,-27.832,0.000,0
109588.738,-29.785,-25.879,-36.621,-22.461,0.000,0
109588.742,-27.832,-30.273,-25.879,-20.020,0.000,0
109588.746,-21.973,-27.344,-2.441,-12.207,0.000,0
109588.750,-19.043,-29.785,-16.113,-23.438,0.000,0
109588.754,-15.625,-31.738,-49.316,-22.949,0.000,0
109588.758,-18.555,-28.809,-24.414,-15.137,0.000,0
109588.762,-16.113,-29.297,5.371,-16.602,0.000,0
109588.766,-11.230,-33.203,-17.578,-13.672,0.000,0
109588.770,-19.043,-34.668,-32.227,-22.949,0.000,0
109588.773,-15.137,-29.785,-21.484,-25.879,0.000,0
109588.777,-11.230,-27.344,-7.812,-19.043,0.000,0
109588.781,-19.531,-26.855,-12.695,-22.949,0.000,0
109588.785,-23.926,-20.996,-31.250,-27.344,0.000,0
109588.789,-20.996,-23.926,-20.020,-30.762,0.000,0
109588.793,-13.184,-28.320,1.953,-32.715,0.000,0
109588.797,-15.625,-24.414,-8.789,-28.809,0.000,0
109588.801,-24.902,-24.902,-23.926,-27.344,0.000,0
109588.805,-23.926,-27.344,-30.273,-21.973,0.000,0
109588.809,-21.484,-27.832,-10.254,-33.203,0.000,0
109588.813,-20.020,-30.273,7.812,-39.062,0.000,0
109588.816,-20.020,-22.949,-11.719,-29.297,0.000,0
109588.820,-24.414,-17.578,-21.484,-33.203,0.000,0
109588.824,-22.949,-20.996,-2.441,-38.574,0.000,0
109588.828,-19.531,-20.508,4.883,-38.086,0.000,0
109588.832,-17.090,-17.578,-6.348,-31.250,0.000,0
109588.836,-22.949,-16.113,-20.508,-26.367,0.000,0
109588.840,-21.484,-12.695,-20.020,-21.973,0.000,0
109588.844,-9.766,-9.277,-4.883,-16.602,0.000,0
109588.848,-17.090,-13.672,-2.441,-23.926,0.000,0
109588.852,-27.344,-17.578,-18.555,-27.344,0.000,0
109588.855,-19.531,-13.184,-29.785,-21.484,0.000,0
109588.859,-11.719,-15.137,-15.137,-28.320,0.000,0
109588.863,-17.578,-20.020,-7.324,-32.227,0.000,0
109588.867,-21.973,-17.090,-18.066,-27.832,0.000,0
109588.871,-15.137,-14.648,-28.320,-27.344,0.000,0
109588.875,-20.020,-20.996,-23.438,-35.156,0.000,0
109588.879,-25.879,-19.531,-3.906,-29.297,0.000,0
109588.883,-25.879,-18.555,-12.207,-21.484,0.000,0
109588.887,-22.949,-22.461,-41.504,-30.273,0.000,0
109588.891,-22.461,-24.414,-30.273,-35.156,0.000,0
109588.895,-16.602,-20.996,-6.836,-26.855,0.000,0
109588.898,-13.672,-19.043,-15.625,-23.926,0.000,0
109588.902,-26.855,-22.949,-46.875,-27.344,0.000,0
109588.906,-34.180,-26.367,-40.527,-38.086,0.000,0
109588.910,-27.344,-28.320,-8.301,-42.480,0.000,0
109588.914,-26.855,-31.738,-18.555,-38.086,0.000,0
109588.918,-30.762,-33.691,-53.711,-37.109,0.000,0
109588.922,-25.879,-31.250,-54.199,-31.250,0.000,0
109588.926,-30.273,-31.250,-10.254,-31.250,0.000,0
109588.930,-38.086,-30.762,10.742,-39.551,0.000,0
109588.934,-34.180,-29.297,-42.480,-33.691,0.000,0
109588.938,-27.344,-29.297,-58.594,-33.691,0.000,0
109588.941,-26.855,-23.926,-19.531,-22.949,0.000,0
109588.945,-33.691,-25.391,-9.766,-20.020,0.000,0
109588.949,-30.273,-31.250,-20.020,-27.832,0.000,0
109588.953,-19.531,-24.902,-37.598,-14.160,0.000,0
109588.957,-18.555,-20.508,-25.879,-11.719,0.000,0
109588.961,-16.113,-22.461,-7.812,-17.578,0.000,0
109588.965,-16.602,-18.066,-11.230,-20.020,0.000,0
109588.969,-23.438,-18.066,-18.555,-31.250,0.000,0
109588.973,-22.949,-16.602,-30.273,-26.855,0.000,0
109588.977,-28.320,-17.090,-14.160,-16.602,0.000,0
109588.980,-35.645,-25.391,-20.508,-13.184,0.000,0
109588.984,-38.086,-24.902,-40.527,-21.973,0.000,0
109588.988,-35.645,-15.625,-10.254,-28.809,0.000,0
109588.992,-37.109,-16.602,-8.301,-21.973,0.000,0
109588.996,-24.902,-20.996,-6.836,-18.066,0.000,0
109589.000,-18.066,-18.555,-17.578,-17.578,0.000,0
109589.004,-32.227,-25.391,-39.062,-24.902,0.000,0
109589.008,-30.273,-33.691,-12.695,-35.156,0.000,0
109589.012,-25.391,-28.809,0.977,-28.320,0.000,0
109589.016,-27.344,-21.973,-7.324,-19.043,0.000,0
109589.020,-28.320,-25.391,-29.297,-11.230,0.000,0
109589.023,-25.391,-27.832,-30.273,-17.578,0.000,0
109589.027,-17.578,-21.973,3.418,-26.367,0.000,0
109589.031,-12.207,-14.160,16.602,-16.602,0.000,0
109589.035,-10.742,-10.254,-22.949,-15.137,0.000,0
109589.039,-18.066,-8.789,-44.434,-19.531,0.000,0
109589.043,-22.949,-11.719,-7.324,-20.020,0.000,0
109589.047,-20.020,-14.160,12.207,-23.926,0.000,0
109589.051,-23.438,-14.160,-23.438,-26.855,0.000,0
109589.055,-23.926,-16.113,-37.109,-27.832,0.000,0
109589.059,-24.902,-17.578,-13.184,-23.926,0.000,0
109589.063,-24.902,-20.020,-4.883,-22.949,0.000,0
109589.066,-16.602,-16.113,-17.090,-18.555,0.000,0
109589.070,-13.672,-12.695,-34.180,-18.066,0.000,0
109589.074,-11.719,-11.230,-21.484,-22.461,0.000,0
109589.078,-4.883,-5.371,21.484,-14.648,0.000,0
109589.082,2.441,0.000,3.418,-6.348,0.000,0
109589.086,4.395,2.930,-16.602,-11.719,0.000,0
109589.090,0.977,1.953,-7.324,-14.160,0.000,0
109589.094,-1.953,-5.859,4.883,-14.648,0.000,0
109589.098,-3.418,-16.602,0.000,-18.555,0.000,2
109589.102,-3.418,-10.742,-18.555,-20.020,0.000,0
109589.105,-7.812,0.977,-6.348,-26.855,0.000,0
109589.109,-18.555,-0.488,3.418,-27.344,0.000,0
109589.113,-17.090,-1.953,1.465,-21.484,0.000,0
109589.117,-11.230,-2.930,-19.531,-22.461,0.000,0
109589.121,-22.461,-5.371,-28.320,-18.555,0.000,0
109589.125,-20.508,-8.301,-6.836,-24.902,0.000,0
109589.129,-10.742,-13.184,-1.465,-29.785,0.000,0
109589.133,-13.672,-12.695,-11.230,-22.461,0.000,0
109589.137,-9.766,-9.766,-31.250,-17.578,0.000,0
109589.141,0.977,-12.695,-33.203,-20.996,0.000,0
109589.145,-10.742,-21.484,-1.465,-34.180,0.000,0
109589.148,-23.438,-25.391,4.883,-41.504,0.000,0
109589.152,-18.066,-25.391,-26.367,-36.621,0.000,0
109589.156,-20.508,-24.902,-33.203,-31.738,0.000,0
109589.160,-22.461,-20.020,-15.137,-21.484,0.000,0
109589.164,-15.137,-15.625,-4.395,-19.043,0.000,0
109589.168,-16.113,-14.160,-21.973,-20.020,0.000,0
109589.172,-16.113,-14.160,-41.504,-12.695,0.000,0
109589.176,-13.672,-13.672,-10.742,-10.254,0.000,0
109589.180,-10.254,-16.113,5.371,-12.207,0.000,0
109589.184,-10.742,-16.602,-7.812,-15.625,0.000,0
109589.188,-18.066,-15.625,-25.879,-23.438,0.000,0
109589.191,-17.090,-17.578,-15.137,-25.391,0.000,0
109589.195,-9.766,-17.578,14.648,-15.625,0.000,0
109589.199,-23.438,-24.902,-7.812,-24.902,0.000,0
109589.203,-27.344,-30.762,-32.715,-39.551,0.000,0
109589.207,-14.648,-25.391,-12.695,-34.668,0.000,0
109589.211,-25.391,-26.855,5.859,-23.438,0.000,0
109589.215,-33.203,-33.203,-13.672,-31.738,0.000,0
109589.219,-27.344,-29.785,-45.898,-37.598,0.000,0
109589.223,-28.809,-28.809,-36.621,-33.203,0.000,0
109589.227,-27.344,-35.156,-3.906,-41.992,0.000,0
109589.230,-17.578,-34.180,-11.719,-37.109,0.000,0
109589.234,-26.855,-33.203,-35.645,-31.738,0.000,0
109589.238,-34.668,-36.133,-38.086,-29.785,0.000,0
109589.242,-28.320,-38.574,-12.207,-29.297,0.000,0
109589.246,-20.996,-34.668,8.301,-32.715,0.000,0
109589.250,-22.949,-32.715,-24.414,-26.367,0.000,0
109589.254,-30.273,-34.180,-34.668,-26.855,0.000,0
109589.258,-34.180,-35.645,-4.883,-29.297,0.000,0
109589.262,-29.785,-39.551,-9.277,-24.414,0.000,0
109589.266,-33.691,-40.527,-17.578,-34.180,0.000,0
109589.270,-42.480,-36.133,-32.715,-30.762,0.000,0
109589.273,-33.691,-34.180,-28.320,-14.648,0.000,0
109589.277,-27.344,-33.691,-11.230,-17.090,0.000,0
109589.281,-25.391,-32.715,-13.672,-28.320,0.000,0
109589.285,-32.227,-32.715,-21.484,-35.156,0.000,0
109589.289,-35.645,-31.250,-31.738,-32.715,0.000,0
109589.293,-24.414,-32.715,-8.301,-29.297,0.000,0
109589.297,-21.484,-32.715,-0.488,-27.832,0.000,0
109589.301,-15.625,-28.809,-17.090,-22.461,0.000,0
109589.305,-12.695,-29.785,-19.043,-25.879,0.000,0
109589.309,-13.184,-25.879,-10.742,-15.137,0.000,0
109589.313,-8.301,-23.926,1.465,-11.230,0.000,0
109589.316,-5.859,-23.926,-0.977,-10.742,0.000,0
109589.320,-1.953,-20.508,-16.602,-7.812,0.000,0
109589.324,-5.859,-25.391,0.000,-20.996,0.000,0
109589.328,-13.184,-28.320,16.602,-18.555,0.000,0
109589.332,-11.230,-28.809,-3.418,-14.648,0.000,0
109589.336,-15.137,-32.715,-33.203,-8.789,0.000,0
109589.340,-15.625,-27.344,-24.414,-7.812,0.000,0
109589.344,-7.324,-29.297,0.488,-24.414,0.000,0
109589.348,-12.695,-29.297,-1.465,-20.996,0.000,0
109589.352,-15.625,-21.484,-25.879,-12.207,0.000,0
109589.355,-14.160,-20.020,-37.109,-14.648,0.000,0
109589.359,-18.066,-17.578,-0.977,-17.578,0.000,0
109589.363,-20.020,-15.137,29.785,-25.391,0.000,0
109589.367,-26.855,-18.555,-16.602,-22.461,0.000,0
109589.371,-17.090,-16.113,-36.621,-10.254,0.000,0
109589.375,-11.230,-16.113,-13.184,-6.836,0.000,0
109589.379,-32.227,-24.414,-4.395,-18.555,0.000,0
109589.383,-37.598,-27.344,-6.348,-22.949,0.000,0
109589.387,-31.738,-21.484,-30.762,-16.113,0.000,0
109589.391,-21.484,-14.160,-26.855,-16.602,0.000,0
109589.395,-6.348,-14.648,4.395,-10.742,0.000,0
109589.398,-9.277,-17.090,-17.090,-24.414,0.000,0
109589.402,-9.766,-17.090,-29.785,-33.691,0.000,0
109589.406,0.977,-17.090,-2.930,-22.949,0.000,0
109589.410,-1.953,-24.414,-0.488,-22.949,0.000,0
109589.414,-6.836,-26.367,-13.184,-19.531,0.000,0
109589.418,-4.395,-20.508,-20.020,-13.672,0.000,0
109589.422,-7.324,-19.043,-13.184,-17.578,0.000,0
109589.426,-3.906,-17.090,-5.859,-9.766,0.000,0
109589.430,-8.789,-24.414,-9.277,-9.277,0.000,0
109589.434,-21.484,-20.508,-25.879,-15.625,0.000,0
109589.438,-21.484,-15.137,-33.691,-19.043,0.000,0
109589.441,-13.184,-22.949,-9.277,-25.879,0.000,0
109589.445,-17.090,-22.461,-7.324,-26.855,0.000,0
109589.449,-21.484,-17.090,-19.531,-19.043,0.000,0
109589.453,-14.160,-19.531,-35.645,-18.555,0.000,0
109589.457,-8.789,-20.996,-21.484,-24.902,0.000,0
109589.461,-11.230,-17.090,9.766,-20.020,0.000,0
109589.465,-15.137,-16.113,-13.672,-14.648,0.000,0
109589.469,-18.555,-19.043,-33.691,-18.066,0.000,0
109589.473,-17.578,-21.973,-20.020,-16.602,0.000,0
109589.477,-11.719,-22.949,4.395,-15.137,0.000,0
109589.480,-8.301,-24.414,1.465,-18.066,0.000,0
109589.484,-22.461,-24.414,-26.855,-12.207,0.000,0
109589.488,-27.344,-19.531,-22.461,-10.742,0.000,0
109589.492,-17.090,-18.555,1.465,-7.324,0.000,0
109589.496,-24.414,-20.508,-2.441,-10.742,0.000,0
109589.500,-40.039,-23.926,-27.344,-26.367,0.000,0
109589.504,-38.086,-23.438,-36.621,-20.996,0.000,0
109589.508,-35.645,-24.414,-16.113,-19.043,0.000,0
109589.512,-35.156,-24.902,-7.812,-21.484,0.000,0
109589.516,-36.133,-19.043,-30.273,-17.090,0.000,0
109589.520,-37.598,-19.043,-33.691,-21.484,0.000,0
109589.523,-34.668,-15.137,-16.602,-19.043,0.000,0
109589.527,-28.809,-16.113,-12.695,-17.090,0.000,0
109589.531,-31.738,-20.996,-30.762,-22.949,0.000,0
109589.535,-32.227,-18.066,-39.551,-14.648,0.000,0
109589.539,-15.625,-20.020,-10.742,-9.277,0.000,0
109589.543,-9.277,-20.996,6.348,-13.184,0.000,0
109589.547,-19.043,-20.996,-20.996,-10.254,0.000,0
109589.551,-12.695,-19.531,-32.227,1.465,0.000,0
109589.555,-15.625,-16.602,-25.879,5.371,0.000,0
109589.559,-30.762,-20.020,-7.324,-15.137,0.000,0
109589.563,-32.227,-24.414,-15.137,-22.461,0.000,0
109589.566,-30.762,-24.414,-47.852,-18.066,0.000,0
109589.570,-21.484,-25.879,-40.039,-13.184,0.000,0
109589.574,-20.996,-32.715,-19.531,-12.207,0.000,0
109589.578,-31.738,-31.738,-9.766,-26.855,0.000,0
109589.582,-29.297,-27.832,-24.414,-24.902,0.000,0
109589.586,-24.902,-22.949,-42.480,-16.602,0.000,0
109589.590,-24.902,-22.949,-32.227,-16.602,0.000,0
109589.594,-22.461,-26.367,-13.184,-14.648,0.000,0
109589.598,-19.043,-23.438,-8.301,-14.648,0.000,0
109589.602,-14.648,-23.438,-29.297,-13.184,0.000,0
109589.605,-15.137,-25.879,-24.414,-13.672,0.000,0
109589.609,-9.277,-20.996,9.277,-13.184,0.000,0
109589.613,-2.441,-15.625,6.348,-15.137,0.000,0
109589.617,-6.836,-22.949,-13.184,-27.344,0.000,0
109589.621,-12.207,-26.367,-16.113,-25.391,0.000,0
109589.625,-14.160,-26.367,-13.672,-20.020,0.000,0
109589.629,-18.066,-30.273,-4.395,-25.391,0.000,0
109589.633,-16.113,-23.438,-19.531,-23.926,0.000,0
109589.637,-17.090,-25.879,-27.344,-34.668,0.000,0
109589.641,-16.113,-24.902,-0.488,-41.016,0.000,0
109589.645,-12.695,-14.648,8.301,-25.879,0.000,0
109589.648,-23.926,-16.113,-18.066,-27.832,0.000,0
109589.652,-30.762,-16.602,-36.133,-29.785,0.000,0
109589.656,-30.273,-18.555,-5.371,-30.273,0.000,0
109589.660,-30.273,-21.973,15.625,-33.691,0.000,0
109589.664,-33.691,-20.020,-7.812,-26.855,0.000,0
109589.668,-31.250,-20.020,-31.250,-26.855,0.000,2
109589.672,-32.227,-24.414,-17.578,-36.133,0.000,0
109589.676,-41.992,-29.785,2.930,-50.781,0.000,0
109589.680,-32.715,-29.785,-12.207,-49.805,0.000,0
109589.684,-32.715,-27.344,-34.180,-47.363,0.000,0
109589.688,-41.992,-22.461,-25.879,-52.246,0.000,0
109589.691,-34.180,-22.461,-11.719,-41.016,0.000,0
109589.695,-29.297,-30.273,-11.230,-46.387,0.000,0
109589.699,-31.250,-29.785,-27.344,-48.340,0.000,0
109589.703,-32.715,-23.926,-37.598,-34.668,0.000,0
109589.707,-28.809,-22.461,-16.113,-40.039,0.000,0
109589.711,-24.414,-22.949,-6.836,-39.551,0.000,0
109589.715,-26.367,-23.438,-6.836,-52.734,0.000,0
109589.719,-26.855,-24.902,-16.113,-61.035,0.000,0
109589.723,-20.996,-19.531,-22.461,-37.109,0.000,0
109589.727,-21.484,-26.855,-28.809,-34.668,0.000,0
109589.730,-20.508,-30.762,-40.527,-38.574,0.000,0
109589.734,-14.648,-23.438,-12.207,-36.133,0.000,0
109589.738,-12.207,-23.926,-8.301,-26.367,0.000,0
109589.742,-13.184,-25.879,-18.066,-27.344,0.000,0
109589.746,-10.742,-27.344,-28.320,-27.344,0.000,0
109589.750,-13.184,-22.949,-23.438,-25.879,0.000,0
109589.754,-21.484,-22.461,-3.906,-36.621,0.000,0
109589.758,-24.902,-24.902,-6.836,-32.715,0.000,0
109589.762,-28.809,-26.367,-26.367,-27.832,0.000,0
109589.766,-30.273,-29.785,-42.480,-27.344,0.000,0
109589.770,-20.996,-26.855,-9.277,-31.738,0.000,0
109589.773,-10.254,-17.090,9.766,-34.180,0.000,0
109589.777,-14.648,-10.254,-23.926,-29.785,0.000,0
109589.781,-20.996,-10.742,-39.551,-36.133,0.000,0
109589.785,-15.137,-13.672,-13.184,-33.203,0.000,0
109589.789,-9.766,-12.695,5.859,-32.227,0.000,0
109589.793,-20.996,-11.230,-15.625,-36.133,0.000,0
109589.797,-28.320,-10.742,-38.086,-37.109,0.000,0
109589.801,-26.855,-11.230,-20.996,-37.109,0.000,0
109589.805,-16.602,-9.766,9.277,-28.320,0.000,0
109589.809,-16.113,-12.207,2.930,-32.715,0.000,0
109589.813,-16.113,-17.578,-24.414,-43.457,0.000,0
109589.816,-10.742,-15.625,-13.672,-35.156,0.000,0
109589.820,-17.578,-11.719,18.555,-31.738,0.000,0
109589.824,-12.695,-14.648,-7.324,-30.762,0.000,0
109589.828,-6.836,-15.625,-24.414,-32.227,0.000,0
109589.832,-15.137,-12.695,-5.859,-35.156,0.000,0
109589.836,-12.207,-12.207,5.859,-23.926,0.000,0
109589.840,-8.789,-15.625,2.441,-21.484,0.000,0
109589.844,-10.742,-18.555,-16.602,-23.926,0.000,0
109589.848,-15.137,-16.113,-10.254,-25.879,0.000,0
109589.852,-22.949,-19.043,3.906,-33.203,0.000,0
109589.855,-21.484,-27.832,5.859,-45.898,0.000,0
109589.859,-19.043,-22.949,-18.555,-30.273,0.000,0
109589.863,-17.578,-19.043,-33.691,-17.578,0.000,0
109589.867,-15.137,-21.973,-6.836,-31.250,0.000,0
109589.871,-18.555,-24.414,-0.977,-36.621,0.000,0
109589.875,-20.996,-28.320,-20.508,-29.785,0.000,0
109589.879,-20.020,-28.320,-25.879,-32.227,0.000,0
109589.883,-15.625,-23.438,-14.648,-34.668,0.000,0
109589.887,-10.254,-26.367,5.371,-32.227,0.000,0
109589.891,-4.395,-25.391,6.836,-31.250,0.000,0
109589.895,-5.371,-18.555,-15.137,-30.273,0.000,0
109589.898,-16.602,-20.020,-25.391,-23.926,0.000,0
109589.902,-10.742,-21.973,-5.859,-20.996,0.000,0
109589.906,-13.184,-19.043,6.836,-24.414,0.000,0
109589.910,-20.996,-17.578,-10.742,-31.738,0.000,0
109589.914,-21.973,-17.578,-32.227,-32.227,0.000,0
109589.918,-25.391,-20.508,-18.555,-32.227,0.000,0
109589.922,-25.879,-21.973,-4.395,-27.344,0.000,0
109589.926,-26.367,-22.949,-21.973,-17.090,0.000,0
109589.930,-25.391,-28.809,-39.062,-28.320,0.000,0
109589.934,-20.508,-32.715,-27.344,-29.297,0.000,0
109589.938,-23.438,-33.691,-10.742,-22.949,0.000,0
109589.941,-23.926,-36.133,-26.855,-24.414,0.000,0
109589.945,-25.391,-40.527,-41.992,-32.715,0.000,0
109589.949,-24.902,-37.109,-22.461,-40.527,0.000,0
109589.953,-17.578,-27.344,-4.395,-28.809,0.000,0
109589.957,-26.855,-27.832,-8.301,-33.691,0.000,0
109589.961,-31.738,-31.738,-35.156,-41.016,0.000,0
109589.965,-21.973,-25.879,-45.898,-32.227,0.000,0
109589.969,-17.090,-21.973,4.883,-34.180,0.000,0
109589.973,-21.973,-21.484,-1.465,-28.809,0.000,0
109589.977,-19.043,-19.531,-40.527,-20.508,0.000,0
109589.980,-21.484,-20.020,-36.133,-24.414,0.000,0
109589.984,-23.926,-18.555,-6.348,-26.367,0.000,0
109589.988,-19.531,-20.996,10.254,-40.527,0.000,0
109589.992,-25.391,-23.438,-20.996,-45.898,0.000,0
109589.996,-28.320,-24.414,-41.016,-41.504,0.000,0
109590.000,-28.809,-27.344,-31.738,-36.621,0.000,0
109590.004,-34.180,-27.832,-14.160,-44.922,0.000,0
109590.008,-35.156,-29.297,-17.578,-59.082,0.000,0
109590.012,-27.832,-27.832,-42.969,-42.480,0.000,0
109590.016,-21.973,-24.902,-23.438,-31.250,0.000,0
109590.020,-18.555,-25.879,-10.742,-37.109,0.000,0
109590.023,-20.996,-30.273,-16.602,-39.551,0.000,0
109590.027,-31.738,-33.691,-22.461,-47.363,0.000,0
109590.031,-24.902,-29.297,-34.668,-43.457,0.000,0
109590.035,-18.066,-26.855,-20.996,-36.621,0.000,0
109590.039,-18.555,-25.391,-11.230,-27.344,0.000,0
109590.043,-26.855,-25.391,-18.066,-30.273,0.000,0
109590.047,-26.855,-27.832,-17.090,-41.992,0.000,0
109590.051,-22.949,-24.414,-15.625,-31.738,0.000,0
109590.055,-20.996,-20.020,-10.254,-20.996,0.000,0
109590.059,-9.277,-15.137,-2.441,-20.996,0.000,0
109590.063,-4.883,-15.137,-7.324,-26.855,0.000,0
109590.066,-5.859,-21.973,-8.301,-29.297,0.000,0
109590.070,3.906,-23.926,9.766,-29.297,0.000,0
109590.074,4.883,-19.531,1.953,-28.320,0.000,0
109590.078,-3.906,-20.996,-21.973,-30.762,0.000,0
109590.082,-3.906,-25.391,-22.949,-26.367,0.000,0
109590.086,-4.395,-23.438,5.859,-29.785,0.000,0
109590.090,-2.441,-21.484,0.000,-26.855,0.000,0
109590.094,-1.953,-19.043,-38.086,-22.461,0.000,0
109590.098,-6.836,-18.555,-33.203,-28.809,0.000,0
109590.102,-5.859,-20.508,0.488,-26.855,0.000,0
109590.105,-10.742,-18.555,21.484,-30.273,0.000,0
109590.109,-10.742,-16.602,-11.719,-28.809,0.000,0
109590.113,-6.836,-18.555,-38.574,-14.160,0.000,0
109590.117,-10.254,-18.555,-14.648,-17.090,0.000,0
109590.121,-13.672,-25.391,0.488,-32.715,0.000,0
109590.125,-14.160,-25.391,-7.812,-40.527,0.000,0
109590.129,-9.766,-19.043,-22.949,-36.621,0.000,0
109590.133,-1.465,-19.043,-13.672,-36.133,0.000,0
109590.137,-2.441,-20.020,0.000,-38.574,0.000,0
109590.141,-3.418,-19.043,-14.648,-26.367,0.000,0
109590.145,-14.648,-20.020,-31.250,-30.762,0.000,0
109590.148,-27.344,-21.484,-22.461,-35.645,0.000,0
109590.152,-16.113,-20.996,-14.160,-22.461,0.000,0
109590.156,-18.555,-26.855,-30.273,-33.203,0.000,0
109590.160,-24.902,-20.020,-40.039,-37.598,0.000,0
109590.164,-17.090,-16.113,-9.766,-33.203,0.000,0
109590.168,-21.973,-19.531,1.465,-35.645,0.000,0
109590.172,-23.926,-19.531,-12.207,-34.180,0.000,0
109590.176,-20.508,-18.066,-12.695,-28.320,0.000,0
109590.180,-22.949,-17.090,-19.531,-14.648,0.000,0
109590.184,-19.043,-17.578,-11.230,-23.438,0.000,0
109590.188,-8.301,-17.090,8.789,-35.156,0.000,0
109590.191,-15.137,-19.043,-5.371,-22.461,0.000,0
109590.195,-14.160,-14.648,-16.602,-17.578,0.000,0
109590.199,12.207,-11.230,-14.648,-10.254,0.000,0
109590.203,11.230,-17.090,0.488,-3.906,0.000,0
109590.207,-21.973,-20.996,2.930,-28.809,0.000,0
109590.211,-28.320,-15.625,-31.738,-30.762,0.000,0
109590.215,-13.672,-14.648,-37.109,-16.113,0.000,0
109590.219,-18.555,-18.555,-8.789,-20.508,0.000,0
109590.223,-22.949,-20.508,12.207,-21.484,0.000,0
109590.227,-22.461,-19.043,4.395,-26.367,0.000,0
109590.230,-27.832,-13.184,-16.602,-26.367,0.000,0
109590.234,-24.902,-17.090,-2.930,-27.832,0.000,0
109590.238,-24.902,-21.973,7.324,-31.738,0.000,0
109590.242,-37.598,-19.531,-18.066,-33.203,0.000,0
109590.246,-41.016,-13.672,-34.668,-33.691,0.000,0
109590.250,-30.762,-14.648,-7.812,-31.250,0.000,0
109590.254,-28.809,-15.625,23.926,-19.531,0.000,0
109590.258,-23.926,-16.602,-8.789,-14.648,0.000,0
109590.262,-23.926,-22.461,-39.062,-28.809,0.000,0
109590.266,-46.875,-23.438,-17.578,-41.504,0.000,0
109590.270,-39.551,-20.020,8.789,-42.480,0.000,0
109590.273,-29.297,-17.090,-10.742,-37.109,0.000,0
109590.277,-44.922,-25.879,-46.875,-36.621,0.000,0
109590.281,-47.363,-26.855,-31.738,-33.691,0.000,0
109590.285,-34.668,-27.344,1.953,-39.551,0.000,0
109590.289,-33.203,-30.273,-3.906,-39.062,0.000,0
109590.293,-36.621,-26.367,-32.715,-27.344,0.000,0
109590.297,-31.738,-25.879,-32.227,-22.461,0.000,0
109590.301,-32.227,-25.879,0.488,-25.391,0.000,0
109590.305,-35.156,-26.855,11.230,-33.691,0.000,1
109590.309,-32.227,-23.926,-17.578,-40.527,0.000,0
109590.313,-30.273,-21.484,-33.691,-41.992,0.000,0
109590.316,-34.180,-22.949,-26.855,-29.785,0.000,0
109590.320,-30.762,-21.973,-8.301,-31.250,0.000,0
109590.324,-26.855,-18.066,4.395,-42.969,0.000,0
109590.328,-21.484,-14.648,-18.555,-34.180,0.000,0
109590.332,-8.301,-16.113,-22.949,-31.738,0.000,0
109590.336,-21.973,-21.484,-10.254,-40.039,0.000,0
109590.340,-27.832,-21.484,-8.789,-43.945,0.000,0
109590.344,-18.066,-21.484,-5.371,-41.992,0.000,0
109590.348,-30.273,-25.391,-24.902,-37.109,0.000,0
109590.352,-34.668,-29.297,-15.625,-34.668,0.000,0
109590.355,-31.250,-25.879,-2.930,-29.297,0.000,0
109590.359,-30.273,-21.484,-11.719,-26.855,0.000,0
109590.363,-23.926,-26.367,-23.926,-30.273,0.000,0
109590.367,-22.461,-23.926,-20.508,-19.043,0.000,0
109590.371,-23.926,-20.020,7.324,-18.066,0.000,0
109590.375,-28.320,-25.391,-13.184,-17.578,0.000,0
109590.379,-29.785,-26.855,-37.109,-12.695,0.000,0
109590.383,-29.297,-29.785,-24.414,-27.832,0.000,0
109590.387,-28.320,-33.203,-9.277,-35.645,0.000,0
109590.391,-23.926,-26.367,-11.230,-25.879,0.000,0
109590.395,-24.414,-20.996,-45.898,-17.578,0.000,0
109590.398,-20.996,-23.926,-45.410,-22.461,0.000,0
109590.402,-16.602,-26.367,-1.953,-28.320,0.000,0
109590.406,-23.438,-21.973,0.000,-15.137,0.000,0
109590.410,-22.949,-20.020,-27.344,-10.742,0.000,0
109590.414,-20.508,-20.508,-29.297,-11.719,0.000,0
109590.418,-21.973,-19.043,-1.465,-11.719,0.000,0
109590.422,-19.043,-21.973,10.742,-25.879,0.000,0
109590.426,-22.461,-20.020,-9.766,-37.109,0.000,0
109590.430,-28.320,-18.066,-33.203,-31.250,0.000,0
109590.434,-24.414,-21.484,-18.066,-22.949,0.000,0
109590.438,-18.555,-18.066,-0.977,-23.438,0.000,0
109590.441,-20.996,-18.066,-9.766,-26.367,0.000,0
109590.445,-18.066,-20.996,-28.320,-27.344,0.000,0
109590.449,-10.742,-14.160,-22.949,-22.949,0.000,0
109590.453,-14.160,-13.184,1.953,-22.949,0.000,0
109590.457,-19.531,-20.020,-10.742,-15.137,0.000,0
109590.461,-16.602,-20.508,-20.996,-11.230,0.000,0
109590.465,-22.949,-22.461,-15.625,-23.926,0.000,0
109590.469,-28.809,-27.344,-12.695,-27.832,0.000,0
109590.473,-29.785,-23.438,-9.766,-24.414,0.000,0
109590.477,-33.203,-20.020,-22.949,-26.367,0.000,0
109590.480,-32.227,-16.602,-20.508,-21.484,0.000,0
109590.484,-30.273,-16.113,-14.648,-23.438,0.000,0
109590.488,-29.785,-23.926,-6.836,-25.879,0.000,0
109590.492,-32.715,-24.414,-17.578,-23.438,0.000,0
109590.496,-31.250,-21.484,-46.875,-25.391,0.000,0
109590.500,-26.367,-20.996,-29.297,-31.250,0.000,0
109590.504,-25.391,-21.484,-3.906,-28.320,0.000,0
109590.508,-20.020,-21.973,-15.137,-15.137,0.000,0
109590.512,-19.531,-22.461,-38.574,-23.438,0.000,0
109590.516,-15.137,-16.602,-27.344,-25.391,0.000,0
109590.520,-20.020,-13.184,6.836,-22.949,0.000,0
109590.523,-18.066,-14.160,10.254,-35.645,0.000,0
109590.527,-7.324,-12.207,-24.902,-35.156,0.000,0
109590.531,-4.883,-11.230,-33.691,-23.926,0.000,0
109590.535,-3.418,-13.184,-5.371,-12.207,0.000,0
109590.539,-8.789,-14.160,7.812,-14.648,0.000,0
109590.543,-18.066,-13.672,-13.672,-21.973,0.000,0
109590.547,-15.137,-11.719,-32.227,-16.602,0.000,0
109590.551,-16.602,-18.066,-19.531,-16.113,0.000,0
109590.555,-23.438,-20.020,-8.301,-19.531,0.000,0
109590.559,-24.414,-16.113,-20.508,-20.996,0.000,0
109590.563,-21.484,-14.648,-28.320,-19.043,0.000,0
109590.566,-15.625,-13.184,-15.625,-10.742,0.000,0
109590.570,-22.949,-13.672,-3.418,-7.812,0.000,0
109590.574,-38.086,-18.555,-27.832,-11.719,0.000,0
109590.578,-33.203,-21.973,-30.762,-9.766,0.000,0
109590.582,-35.156,-19.531,2.930,1.465,0.000,0
109590.586,-40.527,-19.043,2.441,0.000,0.000,0
109590.590,-33.203,-18.555,-24.414,-8.789,0.000,0
109590.594,-32.715,-14.648,-34.180,-7.812,0.000,0
109590.598,-35.645,-14.160,-11.719,-13.672,0.000,0
109590.602,-30.273,-20.020,1.953,-19.531,0.000,0
109590.605,-27.344,-21.973,-10.742,-10.742,0.000,0
109590.609,-28.809,-16.602,-22.949,-12.207,0.000,0
109590.613,-31.250,-16.113,-18.066,-23.438,0.000,0
109590.617,-31.250,-20.020,5.859,-28.320,0.000,0
109590.621,-24.902,-20.020,4.395,-27.344,0.000,0
109590.625,-29.785,-18.555,-19.531,-23.926,0.000,0
109590.629,-31.738,-23.438,-25.391,-26.855,0.000,0
109590.633,-31.250,-24.902,-20.996,-24.414,0.000,0
109590.637,-27.344,-22.461,1.465,-23.926,0.000,0
109590.641,-25.391,-20.508,-6.836,-21.484,0.000,0
109590.645,-33.691,-17.090,-33.691,-7.324,0.000,0
109590.648,-40.527,-20.020,-23.438,-11.719,0.000,0
109590.652,-32.715,-18.066,-3.418,-10.254,0.000,0
109590.656,-23.438,-16.113,-4.883,-7.812,0.000,0
109590.660,-27.344,-16.602,-23.438,-19.531,0.000,0
109590.664,-31.738,-21.484,-33.691,-25.391,0.000,0
109590.668,-42.969,-28.809,-23.926,-23.438,0.000,0
109590.672,-36.621,-21.973,-10.742,-18.555,0.000,0
109590.676,-19.531,-19.043,-15.137,-27.832,0.000,0
109590.680,-21.484,-21.484,-18.555,-30.273,0.000,0
109590.684,-33.203,-23.438,-6.836,-25.391,0.000,0
109590.688,-34.668,-20.996,-8.301,-24.902,0.000,0
109590.691,-26.367,-17.578,-26.367,-24.414,0.000,0
109590.695,-24.902,-20.508,-20.508,-36.133,0.000,0
109590.699,-26.367,-24.902,2.930,-39.062,0.000,0
109590.703,-27.832,-20.996,10.254,-26.367,0.000,0
109590.707,-31.738,-17.578,-10.742,-20.996,0.000,0
109590.711,-31.738,-22.949,-45.898,-22.949,0.000,0
109590.715,-35.156,-27.344,-18.066,-34.180,0.000,0
109590.719,-34.180,-27.344,19.531,-31.250,0.000,0
109590.723,-25.391,-27.832,-18.555,-27.344,0.000,0
109590.727,-30.273,-28.320,-39.062,-35.645,0.000,0
109590.730,-39.551,-27.344,-21.484,-34.180,0.000,0
109590.734,-25.879,-30.273,-2.441,-41.016,0.000,0
109590.738,-17.090,-27.832,-3.418,-56.152,0.000,0
109590.742,-16.602,-21.484,-33.203,-44.434,0.000,0
109590.746,-11.230,-27.832,-44.434,-28.809,0.000,0
109590.750,-20.996,-32.715,-21.973,-23.926,0.000,0
109590.754,-20.020,-28.809,-8.301,-20.508,0.000,0
109590.758,-19.043,-27.344,-21.973,-25.879,0.000,0
109590.762,-26.367,-23.926,-26.855,-27.344,0.000,0
109590.766,-24.902,-25.879,-13.672,-24.414,0.000,0
109590.770,-28.809,-27.832,-7.812,-20.508,0.000,0
109590.773,-32.227,-23.926,-13.672,-17.090,0.000,0
109590.777,-31.738,-24.902,-23.926,-22.949,0.000,0
109590.781,-30.273,-30.762,-22.949,-19.043,0.000,0
109590.785,-16.602,-33.691,1.953,-12.207,0.000,0
109590.789,-17.578,-29.785,-10.742,-12.207,0.000,0
109590.793,-22.949,-27.344,-37.109,-15.625,0.000,0
109590.797,-17.578,-27.344,-21.973,-16.113,0.000,0
109590.801,-21.973,-26.367,-3.906,-15.625,0.000,0
109590.805,-21.973,-23.926,0.000,-13.672,0.000,0
109590.809,-8.789,-22.461,-22.949,-7.324,0.000,0
109590.813,-13.184,-23.438,-39.551,-4.883,0.000,0
109590.816,-19.531,-26.367,-7.812,-13.184,0.000,0
109590.820,-9.766,-27.832,3.906,-12.207,0.000,0
109590.824,-10.742,-26.367,-19.531,-11.230,0.000,0
109590.828,-12.695,-20.508,-24.902,-13.184,0.000,0
109590.832,-6.836,-21.973,-5.371,-8.301,0.000,0
109590.836,-6.348,-25.879,12.695,-5.859,0.000,0
109590.840,-10.254,-22.461,-5.371,-7.812,0.000,0
109590.844,-12.207,-20.996,-27.344,-9.766,0.000,0
109590.848,-14.648,-21.973,-21.973,-4.883,0.000,0
109590.852,-13.672,-21.484,1.465,-7.812,0.000,0
109590.855,-18.555,-24.414,-0.977,-15.625,0.000,0
109590.859,-25.391,-24.902,-41.992,-13.672,0.000,0
109590.863,-22.461,-21.973,-47.852,-4.395,0.000,0
109590.867,-19.531,-19.531,-11.230,-3.906,0.000,0
109590.871,-18.066,-14.160,0.488,-5.859,0.000,0
109590.875,-13.672,-16.113,-18.066,-12.695,0.000,0
109590.879,1.953,-14.160,-20.508,-12.207,0.000,0
109590.883,10.254,-11.230,0.000,1.465,0.000,0
109590.887,0.488,-10.254,13.672,6.348,0.000,0
109590.891,2.441,-5.859,-8.301,9.277,0.000,0
109590.895,-4.883,-9.766,-23.926,-1.465,0.000,0
109590.898,-5.859,-12.207,-6.836,-12.207,0.000,0
109590.902,1.465,-12.207,-6.836,-6.348,0.000,0
109590.906,-0.977,-13.184,-12.695,-3.906,0.000,0
109590.910,-7.324,-14.648,-33.203,-2.930,0.000,0
109590.914,-2.930,-19.531,-20.996,-0.977,0.000,0
109590.918,9.277,-14.160,11.230,-1.953,0.000,0
109590.922,5.371,-9.277,-3.418,-6.348,0.000,0
109590.926,-5.371,-14.648,-32.227,-10.254,0.000,0
109590.930,-6.348,-20.020,-24.414,-9.766,0.000,0
109590.934,-14.160,-22.949,3.906,-18.066,0.000,0
109590.938,-26.855,-26.855,0.488,-29.297,0.000,0
109590.941,-28.809,-24.414,-20.508,-26.855,0.000,0
109590.945,-20.996,-22.461,-24.902,-24.902,0.000,0
109590.949,-20.020,-26.855,-20.020,-29.297,0.000,0
109590.953,-13.184,-30.273,1.465,-32.715,0.000,0
109590.957,-22.461,-31.738,-18.066,-30.762,0.000,0
109590.961,-35.645,-30.762,-47.363,-27.832,0.000,2
109590.965,-20.996,-30.762,-28.320,-32.227,0.000,0
109590.969,-20.020,-29.297,-5.859,-30.762,0.000,0
109590.973,-25.391,-32.715,-6.348,-31.738,0.000,0
109590.977,-29.297,-34.668,-32.227,-33.691,0.000,0
109590.980,-15.137,-24.414,-38.086,-20.508,0.000,0
109590.984,-1.953,-20.996,-5.859,-12.207,0.000,0
109590.988,-19.043,-24.902,-5.859,-7.812,0.000,0
109590.992,-18.066,-21.973,-20.508,-13.184,0.000,0
109590.996,-13.672,-21.973,-26.367,-16.113,0.000,0
109591.000,-23.438,-21.484,-11.230,-6.348,0.000,0
109591.004,-29.297,-21.484,4.883,-13.184,0.000,0
109591.008,-27.832,-25.391,-33.691,-22.949,0.000,0
109591.012,-28.320,-25.879,-37.598,-30.273,0.000,0
109591.016,-30.273,-21.973,-9.277,-36.621,0.000,0
109591.020,-25.391,-19.531,-6.836,-32.227,0.000,0
109591.023,-28.809,-20.996,-25.391,-28.809,0.000,0
109591.027,-37.598,-19.531,-45.898,-24.414,0.000,0
109591.031,-20.996,-17.578,-19.043,-25.879,0.000,0
109591.035,-21.484,-19.043,-3.906,-27.344,0.000,0
109591.039,-43.945,-17.090,-37.598,-30.273,0.000,0
109591.043,-38.086,-15.625,-41.992,-31.738,0.000,0
109591.047,-32.227,-13.672,-14.160,-31.738,0.000,0
109591.051,-32.227,-20.020,5.859,-41.504,0.000,0
109591.055,-34.668,-22.461,-12.695,-36.621,0.000,0
109591.059,-48.828,-20.020,-27.344,-36.133,0.000,0
109591.063,-47.852,-19.531,-20.020,-32.715,0.000,0
109591.066,-37.109,-19.531,-9.766,-27.344,0.000,0
109591.070,-35.156,-17.578,-1.465,-35.645,0.000,0
109591.074,-38.574,-15.137,-29.297,-32.715,0.000,0
109591.078,-39.062,-19.043,-40.527,-30.762,0.000,0
109591.082,-28.809,-20.020,-8.301,-29.785,0.000,0
109591.086,-26.367,-22.461,-15.137,-29.297,0.000,0
109591.090,-26.855,-25.391,-24.414,-29.785,0.000,0
109591.094,-18.555,-22.949,-25.391,-24.902,0.000,0
109591.098,-15.625,-20.508,-21.973,-16.113,0.000,0
109591.102,-12.695,-19.043,-15.137,-9.766,0.000,0
109591.105,-9.766,-19.043,-20.996,-13.672,0.000,0
109591.109,-4.395,-18.555,-20.508,-23.438,0.000,0
109591.113,1.465,-15.625,-15.137,-23.926,0.000,0
109591.117,-15.137,-16.113,-3.906,-29.785,0.000,0
109591.121,-25.879,-18.066,-8.301,-30.762,0.000,0
109591.125,-26.367,-21.973,-41.016,-19.531,0.000,0
109591.129,-32.227,-26.367,-25.879,-17.090,0.000,0
109591.133,-22.461,-20.996,7.812,-9.766,0.000,0
109591.137,-15.137,-14.648,7.812,-1.465,0.000,0
109591.141,-14.648,-13.672,-26.367,-6.348,0.000,0
109591.145,-16.113,-17.090,-31.250,-12.207,0.000,0
109591.148,-15.137,-22.949,0.488,-20.020,0.000,0
109591.152,-13.672,-22.949,1.465,-23.926,0.000,0
109591.156,-18.555,-20.996,-38.574,-24.902,0.000,0
109591.160,-19.531,-25.391,-50.293,-24.902,0.000,0
109591.164,-16.113,-30.762,-22.949,-14.160,0.000,0
109591.168,-20.020,-31.738,-7.812,-16.113,0.000,0
