timestamps,TP9,AF7,AF8,TP10,Right AUX,Marker0
109714.672,26.367,-74.219,-95.215,82.520,0.000,0
109714.676,19.531,-76.660,-88.867,77.637,0.000,0
109714.680,32.227,-86.914,-59.570,69.336,0.000,0
109714.684,35.645,-85.449,-51.758,67.383,0.000,0
109714.688,17.578,-82.520,-88.379,68.359,0.000,0
109714.691,4.883,-92.285,-101.074,70.312,0.000,0
109714.695,13.184,-79.590,-94.727,77.637,0.000,0
109714.699,21.973,-82.031,-74.707,72.266,0.000,0
109714.703,19.043,-91.309,-66.895,68.848,0.000,0
109714.707,14.648,-73.242,-104.492,77.637,0.000,0
109714.711,9.277,-65.918,-126.465,68.848,0.000,0
109714.715,0.000,-71.289,-94.238,70.312,0.000,0
109714.719,6.348,-80.566,-78.125,78.613,0.000,0
109714.723,18.066,-74.219,-105.957,64.453,0.000,0
109714.727,8.301,-62.012,-106.445,65.430,0.000,0
109714.730,-13.184,-72.754,-83.984,74.219,0.000,0
109714.734,-6.836,-67.871,-99.609,74.219,0.000,0
109714.738,-4.883,-69.336,-125.488,71.289,0.000,0
109714.742,-20.996,-74.707,-135.254,58.594,0.000,0
109714.746,-17.090,-75.684,-98.145,59.570,0.000,0
109714.750,-5.859,-74.707,-72.754,70.801,0.000,0
109714.754,-9.277,-64.453,-123.535,70.801,0.000,0
109714.758,-9.277,-71.777,-127.441,53.223,0.000,0
109714.762,-1.465,-75.684,-86.914,45.410,0.000,0
109714.766,-10.254,-64.453,-99.121,58.594,0.000,0
109714.770,-5.371,-60.059,-132.812,62.988,0.000,0
109714.773,0.000,-60.547,-139.648,60.059,0.000,0
109714.777,-18.066,-67.871,-94.727,54.199,0.000,0
109714.781,-20.020,-70.801,-63.965,54.199,0.000,0
109714.785,-11.719,-64.941,-99.609,57.617,0.000,0
109714.789,-5.859,-61.523,-129.883,62.012,0.000,0
109714.793,-0.488,-54.199,-94.727,76.660,0.000,0
109714.797,0.977,-56.152,-55.664,71.289,0.000,0
109714.801,-6.836,-56.641,-69.336,57.617,0.000,0
109714.805,-9.766,-63.477,-82.031,69.824,0.000,0
109714.809,-15.137,-66.895,-86.914,73.730,0.000,0
109714.813,-18.066,-48.828,-95.215,68.848,0.000,0
109714.816,-7.324,-54.199,-94.238,62.500,0.000,0
109714.820,-11.719,-74.219,-104.492,49.805,0.000,0
109714.824,-20.508,-67.871,-124.512,48.340,0.000,0
109714.828,-17.578,-60.547,-116.211,52.246,0.000,0
109714.832,-14.648,-74.707,-94.238,59.570,0.000,0
109714.836,-8.301,-70.801,-94.238,66.406,0.000,0
109714.840,-4.395,-61.523,-98.145,59.570,0.000,0
109714.844,1.953,-54.688,-97.656,58.105,0.000,0
109714.848,10.254,-49.805,-65.430,70.801,0.000,0
109714.852,10.254,-48.828,-70.801,72.266,0.000,0
109714.855,4.883,-56.152,-105.957,66.406,0.000,0
109714.859,4.395,-62.012,-102.539,53.711,0.000,0
109714.863,2.930,-60.059,-75.684,47.363,0.000,0
109714.867,4.883,-62.012,-76.660,59.570,0.000,0
109714.871,0.000,-65.918,-114.746,69.336,0.000,0
109714.875,-16.113,-69.336,-125.000,58.594,0.000,0
109714.879,-17.578,-75.684,-70.312,44.922,0.000,0
109714.883,-9.766,-75.684,-62.012,51.758,0.000,0
109714.887,-11.719,-70.801,-118.652,51.758,0.000,0
109714.891,-9.766,-65.430,-129.395,58.105,0.000,0
109714.895,2.441,-59.570,-99.609,70.312,0.000,0
109714.898,9.766,-60.547,-75.195,61.523,0.000,0
109714.902,13.184,-50.781,-108.887,62.500,0.000,0
109714.906,7.812,-60.059,-138.672,66.895,0.000,0
109714.910,-0.977,-66.895,-113.281,68.359,0.000,0
109714.914,-2.930,-55.176,-105.469,76.660,0.000,0
109714.918,5.371,-62.500,-117.188,68.359,0.000,0
109714.922,-6.348,-62.012,-149.414,63.477,0.000,0
109714.926,-12.695,-63.965,-146.484,64.941,0.000,0
109714.930,-7.324,-72.266,-122.070,62.012,0.000,0
109714.934,3.418,-63.965,-144.043,67.871,0.000,0
109714.938,6.836,-63.477,-158.203,70.312,0.000,0
109714.941,0.977,-65.430,-160.156,69.336,0.000,0
109714.945,4.395,-60.059,-147.461,69.336,0.000,0
109714.949,8.789,-60.547,-136.230,67.871,0.000,0
109714.953,14.160,-56.152,-146.484,67.383,0.000,0
109714.957,19.043,-53.711,-128.418,64.453,0.000,0
109714.961,28.809,-38.574,-101.562,78.125,0.000,0
109714.965,34.668,-32.715,-88.867,77.637,0.000,0
109714.969,37.598,-38.086,-99.121,80.566,0.000,0
109714.973,27.832,-41.016,-136.719,76.660,0.000,0
109714.977,31.738,-47.852,-125.488,58.594,0.000,0
109714.980,34.668,-38.086,-100.098,61.035,0.000,0
109714.984,26.367,-37.109,-113.770,66.406,0.000,0
109714.988,26.855,-46.875,-132.324,62.988,0.000,0
109714.992,26.855,-45.898,-142.578,65.918,0.000,0
109714.996,38.086,-53.223,-104.004,63.965,0.000,0
109715.000,36.133,-45.898,-90.820,60.547,0.000,0
109715.004,21.484,-27.344,-141.602,60.059,0.000,0
109715.008,19.043,-37.109,-156.250,56.641,0.000,0
109715.012,18.555,-39.062,-129.883,57.129,0.000,0
109715.016,9.766,-40.039,-110.352,50.293,0.000,0
109715.020,3.418,-45.898,-134.277,51.758,0.000,0
109715.023,12.695,-23.438,-172.363,67.383,0.000,0
109715.027,20.508,-13.184,-158.691,66.895,0.000,0
109715.031,21.484,-21.973,-118.164,67.871,0.000,0
109715.035,18.555,-38.086,-117.676,49.805,0.000,0
109715.039,18.555,-34.180,-169.434,24.414,0.000,0
109715.043,21.484,-23.926,-174.316,29.785,0.000,0
109715.047,18.555,-33.203,-143.066,36.621,0.000,0
109715.051,11.719,-31.738,-156.738,37.598,0.000,0
109715.055,-8.789,-42.969,-179.688,33.203,0.000,0
109715.059,-2.441,-50.781,-168.945,31.250,0.000,0
109715.063,7.324,-33.691,-154.785,35.645,0.000,0
109715.066,-0.977,-37.598,-144.531,25.391,0.000,0
109715.070,-4.883,-41.016,-183.594,13.672,0.000,0
109715.074,-1.465,-40.527,-184.570,15.137,0.000,0
109715.078,4.395,-39.551,-111.816,21.973,0.000,0
109715.082,6.348,-27.832,-117.676,31.250,0.000,0
109715.086,7.812,-29.297,-154.785,29.785,0.000,0
109715.090,1.953,-37.109,-160.156,25.879,0.000,0
109715.094,10.742,-41.504,-119.141,30.273,0.000,0
109715.098,15.625,-41.016,-84.473,30.273,0.000,0
109715.102,6.348,-38.574,-110.352,33.203,0.000,0
109715.105,-0.488,-42.969,-122.559,37.598,0.000,0
109715.109,-4.395,-40.527,-101.562,48.340,0.000,0
109715.113,1.465,-43.457,-88.379,47.852,0.000,0
109715.117,-7.324,-42.480,-95.703,48.340,0.000,0
109715.121,-5.859,-46.875,-93.750,56.152,0.000,0
109715.125,0.000,-49.316,-96.191,67.383,0.000,0
109715.129,1.953,-30.762,-86.426,64.453,0.000,0
109715.133,4.883,-27.344,-55.664,60.059,0.000,0
109715.137,1.465,-29.297,-78.613,62.988,0.000,0
109715.141,6.348,-23.438,-104.004,59.082,0.000,0
109715.145,4.883,-22.461,-76.172,62.012,0.000,0
109715.148,-3.418,-21.973,-51.270,66.895,0.000,0
109715.152,11.230,-23.438,-67.383,67.383,0.000,0
109715.156,13.672,-29.297,-91.797,56.152,0.000,0
109715.160,0.488,-26.367,-81.543,56.641,0.000,0
109715.164,8.789,-20.508,-59.082,55.664,0.000,0
109715.168,9.766,-23.926,-53.711,60.547,0.000,0
109715.172,-2.441,-26.367,-83.008,58.594,0.000,0
109715.176,1.465,-22.461,-83.984,44.922,0.000,0
109715.180,9.277,-22.461,-52.734,52.734,0.000,0
109715.184,9.277,-20.020,-53.711,65.918,0.000,0
109715.188,3.906,-22.461,-93.262,78.613,0.000,0
109715.191,9.766,-24.902,-100.586,73.730,0.000,0
109715.195,20.508,-24.902,-49.805,62.988,0.000,0
109715.199,16.602,-29.297,-44.434,73.242,0.000,0
109715.203,7.812,-35.156,-82.520,76.660,0.000,0
109715.207,5.859,-35.156,-93.262,69.336,0.000,0
109715.211,-0.977,-34.180,-62.012,62.988,0.000,0
109715.215,-3.906,-26.367,-36.621,67.871,0.000,0
109715.219,6.348,-27.344,-64.941,69.824,0.000,0
109715.223,3.906,-45.898,-71.289,70.312,0.000,0
109715.227,-2.441,-26.855,-74.707,74.219,0.000,0
109715.230,-3.418,-25.879,-74.219,64.941,0.000,0
109715.234,-4.395,-41.504,-72.266,65.918,0.000,0
109715.238,-3.906,-43.457,-95.215,67.871,0.000,0
109715.242,5.859,-39.062,-72.266,68.359,0.000,0
109715.246,8.301,-31.738,-53.223,69.824,0.000,0
109715.250,-4.883,-38.574,-78.613,60.059,0.000,0
109715.254,-2.930,-53.711,-76.660,62.988,0.000,0
109715.258,7.324,-42.480,-71.289,68.359,0.000,0
109715.262,11.230,-30.762,-66.406,60.547,0.000,0
109715.266,3.418,-28.809,-67.383,69.824,0.000,0
109715.270,-13.184,-36.621,-87.402,61.523,0.000,0
109715.273,-11.719,-44.922,-79.102,49.316,0.000,0
109715.277,6.836,-35.156,-48.828,55.176,0.000,0
109715.281,20.020,-30.273,-34.180,57.617,0.000,0
109715.285,20.020,-24.902,-61.035,69.824,0.000,0
109715.289,10.254,-28.320,-86.426,69.336,0.000,0
109715.293,13.672,-38.086,-51.270,63.477,0.000,0
109715.297,21.973,-34.668,-42.480,69.336,0.000,0
109715.301,13.672,-40.039,-69.336,64.941,0.000,0
109715.305,6.836,-38.574,-95.215,62.012,0.000,0
109715.309,11.719,-35.645,-75.195,63.477,0.000,0
109715.313,12.207,-42.969,-36.133,56.641,0.000,0
109715.316,10.254,-33.203,-61.523,60.547,0.000,0
109715.320,16.602,-33.691,-96.680,61.523,0.000,0
109715.324,22.949,-46.875,-83.496,60.547,0.000,0
109715.328,13.184,-37.109,-63.965,62.012,0.000,0
109715.332,9.277,-37.598,-64.453,60.547,0.000,0
109715.336,11.719,-32.715,-109.375,62.500,0.000,0
109715.340,9.766,-33.203,-122.559,48.340,0.000,0
109715.344,4.395,-38.574,-78.125,47.852,0.000,0
109715.348,8.301,-41.992,-67.383,49.805,0.000,0
109715.352,22.461,-46.387,-88.867,46.387,0.000,0
109715.355,20.508,-39.551,-104.980,51.270,0.000,0
109715.359,14.160,-46.387,-94.238,49.316,0.000,0
109715.363,11.230,-49.805,-85.449,55.176,0.000,0
109715.367,4.395,-37.598,-101.562,49.316,0.000,0
109715.371,0.977,-40.527,-107.910,40.039,0.000,0
109715.375,-2.930,-42.480,-89.844,49.316,0.000,0
109715.379,7.324,-31.250,-57.617,57.617,0.000,0
109715.383,9.766,-27.344,-75.195,54.688,0.000,0
109715.387,-15.137,-33.203,-100.586,42.480,0.000,0
109715.391,-18.066,-39.551,-65.430,47.363,0.000,0
109715.395,-6.836,-20.020,-40.039,60.059,0.000,0
109715.398,-3.418,-9.277,-69.336,57.129,0.000,0
109715.402,-7.812,-21.484,-99.609,55.664,0.000,0
109715.406,-8.301,-33.691,-77.148,60.547,0.000,0
109715.410,-4.883,-37.109,-40.527,46.387,0.000,0
109715.414,3.418,-21.973,-45.410,44.434,0.000,0
109715.418,12.207,-14.648,-86.426,53.711,0.000,0
109715.422,5.371,-22.949,-90.820,62.500,0.000,0
109715.426,7.812,-34.180,-53.223,66.895,0.000,0
109715.430,9.766,-38.574,-43.945,62.500,0.000,0
109715.434,9.277,-32.715,-77.637,66.895,0.000,0
109715.438,3.906,-39.062,-104.492,64.453,0.000,0
109715.441,7.324,-42.969,-91.309,59.082,0.000,0
109715.445,21.973,-30.762,-56.641,66.895,0.000,0
109715.449,26.367,-33.203,-47.363,62.500,0.000,0
109715.453,15.137,-41.016,-73.242,55.664,0.000,0
109715.457,5.859,-36.621,-96.191,57.129,0.000,0
109715.461,14.160,-38.574,-66.895,63.965,0.000,0
109715.465,9.277,-39.551,-56.641,72.754,0.000,0
109715.469,1.465,-46.387,-80.078,72.754,0.000,0
109715.473,10.742,-41.504,-86.426,72.754,0.000,0
109715.477,23.926,-30.273,-76.172,81.055,0.000,0
109715.480,22.949,-40.527,-70.312,72.266,0.000,0
109715.484,16.113,-40.039,-105.469,55.664,0.000,0
109715.488,13.672,-36.133,-142.578,45.410,0.000,0
109715.492,15.137,-38.086,-131.836,38.086,0.000,0
109715.496,15.625,-35.156,-102.539,36.133,0.000,0
109715.500,7.324,-42.969,-134.277,32.227,0.000,0
109715.504,3.906,-50.781,-172.852,30.273,0.000,0
109715.508,7.812,-54.199,-137.695,35.156,0.000,0
109715.512,14.160,-49.805,-95.215,38.574,0.000,0
109715.516,14.648,-40.039,-105.957,41.504,0.000,0
109715.520,6.348,-39.062,-136.719,48.340,0.000,0
109715.523,4.883,-46.875,-150.391,40.039,0.000,0
109715.527,5.859,-46.387,-122.070,24.902,0.000,0
109715.531,3.906,-34.668,-136.230,23.926,0.000,0
109715.535,7.812,-37.598,-167.969,27.344,0.000,0
109715.539,16.602,-39.062,-151.855,33.203,0.000,0
109715.543,5.859,-37.109,-122.070,28.809,0.000,0
109715.547,5.371,-41.016,-126.465,27.344,0.000,0
109715.551,10.742,-36.621,-157.715,25.391,0.000,0
109715.555,-0.488,-42.480,-157.227,22.461,0.000,0
109715.559,6.348,-48.340,-133.789,21.484,0.000,0
109715.563,16.113,-44.922,-130.371,25.391,0.000,0
109715.566,9.766,-46.387,-145.996,26.367,0.000,0
109715.570,1.465,-34.180,-149.902,24.414,0.000,0
109715.574,4.395,-23.926,-136.719,29.297,0.000,0
109715.578,15.137,-19.043,-108.887,32.227,0.000,0
109715.582,11.719,-24.414,-114.746,30.273,0.000,0
109715.586,4.395,-33.691,-136.230,36.133,0.000,0
109715.590,1.465,-26.855,-130.371,28.320,0.000,0
109715.594,2.441,-21.973,-108.398,21.973,0.000,0
109715.598,11.719,-26.855,-104.980,39.062,0.000,0
109715.602,1.465,-37.598,-124.512,35.645,0.000,0
109715.605,0.000,-44.922,-111.328,15.137,0.000,0
109715.609,16.113,-35.645,-72.266,23.438,0.000,0
109715.613,19.043,-33.691,-78.613,32.227,0.000,0
109715.617,0.977,-39.551,-109.375,32.227,0.000,0
109715.621,-5.859,-37.109,-106.934,37.598,0.000,0
109715.625,4.883,-40.527,-55.176,37.598,0.000,0
109715.629,2.441,-37.109,-45.898,35.156,0.000,0
109715.633,-6.836,-42.969,-83.008,25.879,0.000,0
109715.637,-2.930,-35.645,-108.398,35.645,0.000,0
109715.641,0.000,-19.043,-87.402,54.199,0.000,0
109715.645,-4.883,-34.668,-30.273,46.875,0.000,0
109715.648,-8.789,-41.992,-60.547,39.062,0.000,0
109715.652,-6.348,-31.250,-118.164,41.016,0.000,0
109715.656,6.836,-26.367,-91.797,47.852,0.000,0
109715.660,5.371,-34.180,-57.129,55.664,0.000,0
109715.664,-2.930,-52.734,-76.172,48.828,0.000,0
109715.668,-3.418,-56.152,-109.863,35.645,0.000,0
109715.672,-3.418,-46.875,-109.375,40.527,0.000,0
109715.676,-2.930,-45.898,-86.914,50.293,0.000,0
109715.680,-4.395,-36.133,-108.398,40.039,0.000,0
109715.684,-5.859,-45.410,-135.254,23.438,0.000,0
109715.688,-5.859,-55.176,-119.141,39.062,0.000,0
109715.691,-0.488,-45.410,-95.703,56.152,0.000,0
109715.695,5.859,-35.645,-96.680,39.551,0.000,0
109715.699,4.395,-37.109,-121.582,41.016,0.000,0
109715.703,4.395,-51.270,-126.465,37.109,0.000,0
109715.707,12.695,-46.387,-97.168,27.344,0.000,0
109715.711,25.391,-34.668,-92.773,40.527,0.000,0
109715.715,20.996,-35.156,-114.746,41.504,0.000,0
109715.719,2.441,-40.527,-132.812,34.668,0.000,0
109715.723,-0.977,-54.688,-108.887,29.785,0.000,0
109715.727,0.488,-47.852,-81.055,20.508,0.000,0
109715.730,2.930,-31.738,-109.863,17.090,0.000,0
109715.734,5.859,-45.410,-105.957,20.996,0.000,0
109715.738,-1.465,-38.086,-116.211,37.598,0.000,0
109715.742,10.742,-32.715,-109.375,39.551,0.000,0
109715.746,14.648,-44.434,-79.590,29.297,0.000,0
109715.750,11.230,-38.086,-117.188,39.551,0.000,0
109715.754,12.207,-37.598,-132.812,44.922,0.000,0
109715.758,5.859,-32.715,-106.445,33.691,0.000,0
109715.762,7.324,-38.574,-77.637,28.809,0.000,0
109715.766,8.789,-39.062,-97.656,24.414,0.000,0
109715.770,9.277,-17.578,-135.254,26.855,0.000,0
109715.773,19.531,-14.648,-117.188,38.574,0.000,0
109715.777,17.090,-21.973,-90.332,48.828,0.000,0
109715.781,13.672,-33.691,-104.492,46.387,0.000,0
109715.785,21.973,-39.551,-134.277,28.320,0.000,0
109715.789,18.066,-25.879,-140.625,29.785,0.000,0
109715.793,14.160,-25.879,-110.352,40.527,0.000,0
109715.797,4.883,-35.156,-106.445,31.738,0.000,0
109715.801,6.836,-41.992,-139.160,30.273,0.000,0
109715.805,8.301,-48.340,-126.465,26.855,0.000,0
109715.809,16.113,-41.992,-98.633,28.320,0.000,0
109715.813,17.090,-51.270,-92.773,41.504,0.000,0
109715.816,3.906,-55.176,-126.465,40.039,0.000,0
109715.820,8.301,-45.410,-135.254,40.039,0.000,0
109715.824,9.766,-47.852,-90.820,40.039,0.000,0
109715.828,1.465,-41.016,-92.773,42.969,0.000,0
109715.832,11.230,-34.180,-125.488,50.781,0.000,0
109715.836,20.508,-49.805,-109.375,47.363,0.000,0
109715.840,15.625,-47.852,-94.238,44.922,0.000,0
109715.844,19.043,-37.598,-99.121,44.434,0.000,0
109715.848,12.695,-45.410,-107.910,46.387,0.000,0
109715.852,4.883,-49.805,-122.559,51.758,0.000,0
109715.855,9.277,-58.594,-112.305,52.246,0.000,0
109715.859,13.184,-48.828,-90.820,55.664,0.000,0
109715.863,8.789,-39.062,-84.473,68.359,0.000,0
109715.867,-2.930,-42.480,-112.305,60.059,0.000,0
109715.871,-0.977,-46.387,-119.629,56.641,0.000,0
109715.875,7.812,-41.016,-97.168,48.340,0.000,0
109715.879,11.719,-35.645,-82.031,39.062,0.000,0
109715.883,5.371,-38.086,-93.750,43.945,0.000,0
109715.887,-6.348,-37.109,-117.676,41.504,0.000,0
109715.891,-10.742,-30.273,-119.629,52.734,0.000,0
109715.895,-13.672,-27.832,-98.145,55.176,0.000,0
109715.898,-3.418,-38.086,-99.121,51.270,0.000,0
109715.902,1.465,-39.062,-107.910,49.316,0.000,0
109715.906,3.906,-27.344,-95.703,40.527,0.000,0
109715.910,6.348,-26.367,-70.801,45.410,0.000,0
109715.914,-9.766,-30.273,-84.473,40.527,0.000,0
109715.918,-14.160,-32.227,-125.977,29.785,0.000,0
109715.922,-8.789,-29.785,-111.816,38.086,0.000,0
109715.926,-5.371,-32.715,-74.219,35.645,0.000,0
109715.930,-0.488,-31.250,-67.383,45.898,0.000,0
109715.934,-17.090,-31.738,-117.188,36.621,0.000,0
109715.938,-11.719,-44.922,-110.352,15.625,0.000,0
109715.941,1.953,-43.945,-50.293,22.461,0.000,0
109715.945,-1.953,-27.344,-82.031,26.855,0.000,0
109715.949,1.465,-25.879,-120.605,28.320,0.000,0
109715.953,10.742,-28.809,-112.305,41.016,0.000,0
109715.957,15.625,-29.785,-56.641,52.734,0.000,0
109715.961,10.742,-33.203,-57.617,49.316,0.000,0
109715.965,7.812,-31.738,-121.094,47.363,0.000,0
109715.969,15.137,-32.715,-118.652,48.340,0.000,0
109715.973,14.648,-33.691,-85.449,47.363,0.000,0
109715.977,20.996,-37.598,-76.172,41.016,0.000,0
109715.980,23.926,-32.715,-86.914,31.738,0.000,0
109715.984,15.137,-19.043,-108.398,31.738,0.000,0
109715.988,21.973,-20.508,-86.914,46.387,0.000,0
109715.992,26.855,-26.855,-71.289,51.270,0.000,0
109715.996,14.648,-32.227,-87.891,40.527,0.000,0
109716.000,12.207,-35.645,-104.980,40.039,0.000,0
109716.004,22.949,-30.273,-107.422,53.711,0.000,0
109716.008,29.297,-24.414,-71.777,62.500,0.000,0
109716.012,33.691,-13.672,-81.543,58.594,0.000,0
109716.016,30.273,-22.461,-98.633,57.617,0.000,0
109716.020,19.531,-40.039,-68.848,48.340,0.000,0
109716.023,22.461,-26.855,-62.012,41.504,0.000,0
109716.027,21.484,-28.320,-68.359,53.711,0.000,0
109716.031,13.672,-36.621,-97.656,53.711,0.000,0
109716.035,23.438,-35.156,-111.328,43.457,0.000,0
109716.039,28.809,-41.016,-54.688,29.785,0.000,0
109716.043,25.391,-25.879,-47.363,41.992,0.000,1
109716.047,37.598,-27.344,-86.914,54.688,0.000,0
109716.051,25.391,-36.621,-101.074,55.176,0.000,0
109716.055,18.066,-25.879,-87.402,57.617,0.000,0
109716.059,32.715,-32.227,-51.270,49.805,0.000,0
109716.063,32.227,-31.738,-65.430,51.758,0.000,0
109716.066,30.273,-28.320,-109.375,60.547,0.000,0
109716.070,34.668,-35.156,-107.422,55.176,0.000,0
109716.074,25.391,-36.621,-74.219,44.434,0.000,0
109716.078,11.230,-44.922,-45.898,33.691,0.000,0
109716.082,20.508,-35.645,-82.520,39.062,0.000,0
109716.086,30.762,-30.273,-120.605,55.176,0.000,0
109716.090,29.297,-35.645,-94.238,53.711,0.000,0
109716.094,27.344,-39.062,-85.449,50.293,0.000,0
109716.098,11.719,-41.016,-110.352,39.062,0.000,0
109716.102,9.277,-25.391,-109.375,37.598,0.000,0
109716.105,11.719,-30.273,-68.848,38.574,0.000,0
109716.109,9.766,-41.016,-85.449,31.250,0.000,0
109716.113,13.672,-38.086,-106.934,28.320,0.000,0
109716.117,13.184,-35.645,-89.844,23.926,0.000,0
109716.121,15.137,-29.785,-108.398,16.602,0.000,0
109716.125,8.789,-37.109,-112.305,10.254,0.000,0
109716.129,9.277,-37.598,-126.953,19.531,0.000,0
109716.133,16.113,-33.691,-123.535,22.461,0.000,0
109716.137,15.137,-40.527,-94.727,19.043,0.000,0
109716.141,11.230,-45.410,-96.191,25.879,0.000,0
109716.145,10.254,-39.062,-132.324,18.555,0.000,0
109716.148,18.066,-30.762,-136.230,19.531,0.000,0
109716.152,23.438,-29.297,-106.445,37.109,0.000,0
109716.156,9.277,-36.621,-109.863,20.508,0.000,0
109716.160,3.906,-41.016,-135.742,13.672,0.000,0
109716.164,15.137,-36.133,-144.531,40.527,0.000,0
109716.168,9.277,-37.598,-139.648,38.086,0.000,0
109716.172,12.695,-38.086,-121.582,23.438,0.000,0
109716.176,14.648,-32.227,-97.168,28.809,0.000,0
109716.180,12.207,-33.203,-137.695,42.480,0.000,0
109716.184,18.066,-30.762,-152.832,39.062,0.000,0
109716.188,43.457,-19.043,-97.168,47.852,0.000,0
109716.191,34.668,-26.367,-74.219,49.316,0.000,0
109716.195,-12.207,-43.457,-108.398,19.531,0.000,0
109716.199,-0.488,-34.668,-126.953,22.949,0.000,0
109716.203,19.043,-21.973,-112.305,38.574,0.000,0
109716.207,2.930,-27.344,-94.727,36.133,0.000,0
109716.211,1.465,-33.203,-105.469,40.527,0.000,0
109716.215,2.930,-46.875,-118.164,26.367,0.000,0
109716.219,-2.930,-47.363,-119.629,15.625,0.000,0
109716.223,3.906,-23.438,-108.887,28.809,0.000,0
109716.227,2.930,-22.949,-107.422,21.484,0.000,0
109716.230,-0.977,-27.344,-146.484,17.090,0.000,0
109716.234,8.789,-20.508,-126.953,16.113,0.000,0
109716.238,5.859,-10.254,-98.145,18.066,0.000,0
109716.242,-4.395,-18.066,-102.539,15.137,0.000,0
109716.246,-4.883,-24.414,-133.301,12.695,0.000,0
109716.250,9.277,-9.277,-156.250,26.367,0.000,0
109716.254,7.324,-22.949,-99.609,24.902,0.000,0
109716.258,-9.766,-33.691,-77.637,10.254,0.000,0
109716.262,-4.883,-20.996,-119.141,5.859,0.000,0
109716.266,-7.324,-21.484,-134.277,23.438,0.000,0
109716.270,-11.719,-32.715,-116.211,29.785,0.000,0
109716.273,2.930,-34.180,-75.195,27.344,0.000,0
109716.277,5.859,-26.367,-86.426,29.785,0.000,0
109716.281,2.441,-25.879,-117.676,24.902,0.000,0
109716.285,6.348,-28.809,-98.145,30.273,0.000,0
109716.289,9.277,-20.508,-79.590,30.762,0.000,0
109716.293,15.625,-17.090,-74.219,20.020,0.000,0
109716.297,7.812,-21.973,-91.797,15.625,0.000,0
109716.301,1.953,-17.578,-100.098,24.902,0.000,0
109716.305,6.348,-9.766,-66.895,37.598,0.000,0
109716.309,17.578,-8.789,-72.266,39.551,0.000,0
109716.313,22.949,-20.508,-84.473,27.832,0.000,0
109716.316,11.719,-20.020,-96.191,18.555,0.000,0
109716.320,9.766,-13.184,-100.586,14.648,0.000,0
109716.324,17.578,-13.184,-72.266,19.043,0.000,0
109716.328,15.137,-7.324,-80.566,29.297,0.000,0
109716.332,0.977,-17.578,-104.004,13.184,0.000,0
109716.336,-9.277,-23.438,-97.168,2.930,0.000,0
109716.340,1.953,-13.184,-86.914,15.625,0.000,0
109716.344,6.836,-27.344,-73.730,18.555,0.000,0
109716.348,-2.930,-38.574,-96.680,17.090,0.000,0
109716.352,1.465,-27.344,-114.258,24.414,0.000,0
109716.355,2.441,-18.555,-70.312,32.715,0.000,0
109716.359,0.000,-20.508,-78.125,34.668,0.000,0
109716.363,-1.465,-34.668,-117.676,29.297,0.000,0
109716.367,-6.836,-35.156,-126.465,25.391,0.000,0
109716.371,-4.395,-40.527,-84.473,21.484,0.000,0
109716.375,4.395,-35.645,-65.430,19.531,0.000,0
109716.379,5.371,-30.273,-111.328,25.391,0.000,0
109716.383,5.859,-32.227,-139.648,24.414,0.000,0
109716.387,9.277,-26.367,-122.070,25.391,0.000,0
109716.391,4.883,-42.969,-65.430,23.438,0.000,0
109716.395,6.836,-47.363,-76.660,11.719,0.000,0
109716.398,14.648,-34.668,-121.582,17.578,0.000,0
109716.402,0.977,-38.574,-99.609,20.996,0.000,0
109716.406,-10.254,-41.992,-81.543,25.391,0.000,0
109716.410,-4.395,-43.457,-90.820,28.809,0.000,0
109716.414,-0.488,-41.016,-100.586,21.973,0.000,0
109716.418,0.000,-30.273,-101.074,24.902,0.000,0
109716.422,0.488,-33.691,-75.684,29.785,0.000,0
109716.426,-7.812,-34.180,-68.359,33.203,0.000,0
109716.430,-8.789,-35.645,-97.656,29.785,0.000,0
109716.434,-0.977,-46.875,-87.891,35.156,0.000,0
109716.438,2.441,-47.852,-50.781,35.156,0.000,0
109716.441,4.395,-44.434,-57.129,29.297,0.000,0
109716.445,0.977,-41.992,-80.566,36.133,0.000,0
109716.449,6.836,-37.109,-83.496,28.809,0.000,0
109716.453,17.090,-26.367,-75.195,20.020,0.000,0
109716.457,7.324,-28.809,-77.148,30.273,0.000,0
109716.461,3.906,-40.039,-93.750,33.203,0.000,0
109716.465,7.324,-39.551,-96.191,31.738,0.000,0
109716.469,3.906,-44.434,-81.055,35.156,0.000,0
109716.473,3.906,-50.781,-62.012,29.785,0.000,0
109716.477,6.348,-46.387,-70.801,24.414,0.000,0
109716.480,-0.977,-46.875,-101.074,28.320,0.000,0
109716.484,9.277,-43.457,-111.328,33.203,0.000,0
109716.488,24.414,-39.551,-83.984,29.297,0.000,0
109716.492,8.301,-45.898,-66.406,22.461,0.000,0
109716.496,4.883,-48.340,-109.375,25.391,0.000,0
109716.500,-1.465,-49.805,-134.766,18.555,0.000,0
109716.504,1.953,-43.457,-99.609,13.184,0.000,0
109716.508,18.066,-37.598,-70.312,18.555,0.000,0
109716.512,3.906,-39.062,-86.914,13.184,0.000,0
109716.516,-0.977,-31.250,-113.281,20.020,0.000,0
109716.520,0.977,-31.250,-106.445,31.250,0.000,0
109716.523,3.418,-36.621,-80.566,31.738,0.000,0
109716.527,7.812,-36.621,-85.449,36.133,0.000,0
109716.531,10.254,-37.109,-123.047,36.621,0.000,0
109716.535,7.812,-32.227,-124.023,34.180,0.000,0
109716.539,6.836,-32.227,-89.355,32.715,0.000,0
109716.543,13.184,-39.062,-79.590,28.809,0.000,0
109716.547,7.812,-44.434,-106.445,26.367,0.000,0
109716.551,11.719,-40.039,-88.379,31.250,0.000,0
109716.555,19.043,-27.832,-67.871,35.156,0.000,0
109716.559,8.301,-31.250,-87.891,36.621,0.000,0
109716.563,5.859,-35.645,-119.141,35.156,0.000,0
109716.566,12.695,-38.086,-105.957,28.320,0.000,0
109716.570,18.555,-32.715,-68.359,22.949,0.000,0
109716.574,23.926,-24.414,-76.660,24.414,0.000,0
109716.578,17.578,-29.297,-105.469,20.996,0.000,0
109716.582,6.836,-36.133,-105.469,25.391,0.000,0
109716.586,9.766,-34.668,-73.242,26.855,0.000,0
109716.590,17.090,-29.785,-59.082,25.879,0.000,0
109716.594,2.930,-32.227,-94.238,32.227,0.000,0
109716.598,0.488,-43.457,-111.328,23.438,0.000,0
109716.602,17.578,-39.551,-86.426,19.043,0.000,0
109716.605,21.484,-38.086,-65.430,15.137,0.000,0
109716.609,20.508,-41.504,-72.754,9.277,0.000,0
109716.613,17.578,-25.879,-87.891,19.043,0.000,1
109716.617,13.672,-20.020,-87.891,27.344,0.000,0
109716.621,16.602,-27.344,-82.520,32.227,0.000,0
109716.625,18.066,-37.598,-75.195,31.738,0.000,0
109716.629,15.625,-43.457,-69.824,36.133,0.000,0
109716.633,14.160,-27.832,-89.355,41.992,0.000,0
109716.637,16.113,-26.855,-75.195,34.668,0.000,0
109716.641,8.301,-30.762,-59.082,29.297,0.000,0
109716.645,-0.488,-39.062,-83.984,19.531,0.000,0
109716.648,6.348,-41.504,-84.961,15.137,0.000,0
109716.652,9.277,-22.949,-63.477,28.320,0.000,0
109716.656,8.301,-16.602,-58.594,44.434,0.000,0
109716.660,5.371,-17.090,-97.656,47.363,0.000,0
109716.664,14.160,-14.160,-120.117,31.738,0.000,0
109716.668,14.160,-20.020,-79.590,13.184,0.000,0
109716.672,7.324,-19.531,-59.570,32.715,0.000,0
109716.676,12.207,-20.996,-73.730,49.805,0.000,0
109716.680,10.742,-16.602,-104.980,39.551,0.000,0
109716.684,21.484,-20.508,-106.445,43.457,0.000,0
109716.688,25.879,-33.691,-62.012,41.992,0.000,0
109716.691,11.230,-19.531,-64.941,33.203,0.000,0
109716.695,11.719,-20.508,-106.445,32.227,0.000,0
109716.699,14.160,-34.180,-114.258,27.344,0.000,0
109716.703,8.301,-37.109,-81.055,20.508,0.000,0
109716.707,11.230,-41.016,-72.266,13.672,0.000,0
109716.711,22.461,-31.738,-108.398,18.066,0.000,0
109716.715,14.648,-30.273,-114.258,22.461,0.000,0
109716.719,11.230,-32.227,-75.684,28.809,0.000,0
109716.723,20.508,-24.902,-67.871,32.715,0.000,0
109716.727,16.602,-31.250,-80.566,23.926,0.000,0
109716.730,13.672,-23.926,-105.957,30.762,0.000,0
109716.734,15.137,-16.602,-99.609,38.574,0.000,0
109716.738,25.391,-20.508,-73.242,33.203,0.000,0
109716.742,22.461,-29.297,-92.773,20.996,0.000,0
109716.746,3.906,-40.039,-103.516,15.137,0.000,0
109716.750,9.277,-31.738,-98.145,26.367,0.000,0
109716.754,10.254,-22.461,-80.078,32.715,0.000,0
109716.758,1.465,-22.949,-79.590,29.297,0.000,0
109716.762,7.324,-20.020,-117.188,31.738,0.000,0
109716.766,12.695,-27.832,-110.840,28.320,0.000,0
109716.770,12.207,-23.926,-84.961,25.391,0.000,0
109716.773,22.461,-18.066,-89.355,34.668,0.000,0
109716.777,21.484,-30.762,-102.051,33.203,0.000,0
109716.781,15.625,-29.297,-102.539,31.738,0.000,0
109716.785,20.020,-27.832,-83.496,24.414,0.000,0
109716.789,20.996,-26.367,-66.895,23.438,0.000,0
109716.793,19.531,-20.508,-81.543,32.227,0.000,0
109716.797,27.832,-25.879,-105.469,41.504,0.000,0
109716.801,30.762,-25.391,-97.168,45.898,0.000,0
109716.805,26.855,-23.438,-64.453,39.062,0.000,0
109716.809,25.879,-24.902,-62.500,46.875,0.000,0
109716.813,22.949,-18.555,-111.328,49.805,0.000,0
109716.816,23.926,-13.672,-104.004,46.387,0.000,0
109716.820,18.555,-14.160,-57.617,35.645,0.000,0
109716.824,20.020,-20.508,-59.082,29.297,0.000,0
109716.828,18.066,-29.785,-89.355,31.250,0.000,0
109716.832,15.137,-28.809,-115.723,30.762,0.000,0
109716.836,36.133,-29.785,-86.914,31.250,0.000,0
109716.840,30.762,-30.762,-50.293,32.227,0.000,0
109716.844,20.508,-29.785,-84.961,26.855,0.000,0
109716.848,18.555,-38.086,-100.586,16.113,0.000,0
109716.852,17.578,-30.273,-74.219,20.508,0.000,0
109716.855,33.691,-12.695,-45.410,34.180,0.000,0
109716.859,28.320,-14.160,-67.871,35.645,0.000,0
109716.863,12.207,-17.090,-95.703,31.250,0.000,0
109716.867,12.207,-12.695,-85.938,26.855,0.000,0
109716.871,19.043,-20.996,-66.406,35.156,0.000,0
109716.875,17.090,-25.391,-78.125,44.434,0.000,0
109716.879,25.391,-22.461,-101.074,42.969,0.000,0
109716.883,34.180,-27.832,-83.008,44.434,0.000,0
109716.887,23.438,-28.320,-49.805,32.227,0.000,0
109716.891,11.230,-21.973,-60.059,19.531,0.000,0
109716.895,3.906,-31.738,-98.633,18.555,0.000,0
109716.898,13.184,-32.227,-93.750,39.062,0.000,0
109716.902,12.695,-25.879,-62.012,40.039,0.000,0
109716.906,11.719,-24.414,-58.105,30.273,0.000,0
109716.910,9.277,-32.227,-105.469,29.785,0.000,0
109716.914,1.465,-40.039,-130.371,27.832,0.000,0
109716.918,4.395,-27.344,-100.586,35.156,0.000,0
109716.922,14.160,-24.902,-67.871,31.738,0.000,0
109716.926,8.789,-40.527,-82.031,20.508,0.000,0
109716.930,2.441,-39.062,-110.840,34.668,0.000,0
109716.934,9.766,-31.738,-88.867,50.781,0.000,0
109716.938,14.648,-28.320,-66.895,49.805,0.000,0
109716.941,11.719,-36.133,-72.754,41.016,0.000,0
109716.945,3.906,-41.016,-81.543,39.062,0.000,0
109716.949,0.977,-26.855,-105.957,41.504,0.000,0
109716.953,8.789,-21.973,-90.332,35.156,0.000,0
109716.957,3.906,-26.367,-62.012,26.855,0.000,0
109716.961,6.348,-37.109,-83.984,28.320,0.000,0
109716.965,10.254,-45.898,-95.703,27.344,0.000,0
109716.969,2.441,-25.391,-87.891,26.855,0.000,0
109716.973,5.859,-21.973,-57.129,35.156,0.000,0
109716.977,1.953,-32.715,-87.402,37.598,0.000,0
109716.980,6.836,-30.273,-119.629,38.574,0.000,0
109716.984,15.625,-29.785,-70.312,32.715,0.000,0
109716.988,3.906,-23.438,-50.293,40.039,0.000,0
109716.992,4.883,-20.508,-85.938,41.504,0.000,0
109716.996,13.184,-25.391,-112.793,30.762,0.000,0
109717.000,9.766,-29.785,-80.566,28.320,0.000,0
109717.004,14.160,-38.086,-20.508,27.832,0.000,0
109717.008,15.625,-31.250,-43.945,27.832,0.000,0
109717.012,12.207,-25.391,-100.586,24.902,0.000,0
109717.016,12.695,-30.273,-100.098,26.855,0.000,0
109717.020,11.230,-37.109,-55.664,24.902,0.000,0
109717.023,7.324,-39.062,-32.227,20.996,0.000,0
109717.027,6.836,-32.227,-74.219,25.879,0.000,0
109717.031,6.836,-38.086,-94.727,21.484,0.000,0
109717.035,9.766,-39.062,-63.477,19.531,0.000,0
109717.039,13.184,-32.227,-55.664,20.996,0.000,0
109717.043,3.906,-44.434,-77.637,14.648,0.000,0
109717.047,0.000,-46.875,-83.496,19.043,0.000,0
109717.051,1.465,-35.645,-65.430,29.297,0.000,0
109717.055,4.395,-27.344,-72.266,26.855,0.000,0
109717.059,4.395,-29.297,-81.055,22.949,0.000,0
109717.063,-1.465,-43.457,-69.824,20.996,0.000,0
109717.066,-4.395,-37.598,-72.754,14.160,0.000,0
109717.070,0.000,-24.414,-74.219,19.043,0.000,0
109717.074,-3.418,-24.414,-78.613,27.344,0.000,0
109717.078,-3.906,-30.762,-92.285,35.156,0.000,0
109717.082,0.488,-36.133,-91.309,25.879,0.000,0
109717.086,-4.883,-35.645,-75.195,10.742,0.000,0
109717.090,-2.930,-33.203,-71.777,16.602,0.000,0
109717.094,4.883,-39.551,-73.730,22.949,0.000,0
109717.098,3.906,-37.109,-99.609,21.973,0.000,0
109717.102,2.441,-33.203,-80.566,14.648,0.000,0
109717.105,6.836,-21.973,-45.898,26.367,0.000,0
109717.109,0.977,-20.996,-66.406,34.668,0.000,0
109717.113,-5.859,-24.902,-109.863,31.738,0.000,0
109717.117,2.930,-22.949,-105.469,37.598,0.000,0
109717.121,12.695,-27.344,-58.105,24.902,0.000,0
109717.125,15.625,-21.484,-56.641,23.926,0.000,0
109717.129,8.789,-20.508,-99.121,37.109,0.000,0
109717.133,12.207,-19.531,-112.793,30.762,0.000,0
109717.137,18.066,-22.461,-74.219,26.855,0.000,0
109717.141,16.602,-33.203,-42.969,24.902,0.000,0
109717.145,6.836,-27.344,-86.426,7.812,0.000,0
109717.148,-6.836,-24.414,-110.840,15.137,0.000,0
109717.152,-2.930,-31.250,-78.613,35.645,0.000,0
109717.156,4.395,-27.344,-62.988,32.227,0.000,0
109717.160,0.488,-34.668,-80.566,29.785,0.000,0
109717.164,-2.441,-35.645,-104.004,35.156,0.000,0
109717.168,3.418,-31.250,-85.938,38.574,0.000,0
109717.172,4.883,-30.762,-62.012,27.832,0.000,0
109717.176,-1.953,-28.320,-89.355,17.090,0.000,0
109717.180,-2.441,-33.691,-114.258,16.113,0.000,0
109717.184,0.977,-33.203,-94.238,16.113,0.000,0
109717.188,5.859,-26.367,-76.172,15.137,0.000,0
109717.191,7.324,-27.344,-87.402,20.996,0.000,1
109717.195,5.859,-37.109,-107.910,29.297,0.000,0
109717.199,5.859,-44.434,-94.238,32.227,0.000,0
109717.203,10.254,-36.621,-64.453,25.879,0.000,0
109717.207,10.254,-29.297,-65.430,21.484,0.000,0
109717.211,6.348,-35.645,-93.750,22.461,0.000,0
109717.215,8.301,-40.039,-108.887,32.715,0.000,0
109717.219,9.766,-35.156,-83.984,34.668,0.000,0
109717.223,7.324,-37.598,-68.848,27.832,0.000,0
109717.227,8.301,-34.668,-89.355,30.273,0.000,0
109717.230,11.230,-36.133,-115.234,27.344,0.000,0
109717.234,9.277,-40.527,-113.281,21.973,0.000,0
109717.238,0.977,-35.645,-74.707,28.809,0.000,0
109717.242,-3.418,-29.297,-73.730,33.203,0.000,0
109717.246,-1.953,-27.832,-108.398,32.715,0.000,0
109717.250,0.488,-28.320,-107.910,31.250,0.000,0
109717.254,8.301,-22.461,-78.613,45.898,0.000,0
109717.258,10.742,-22.461,-57.617,41.992,0.000,0
109717.262,3.906,-21.973,-78.125,22.461,0.000,0
109717.266,1.465,-19.531,-110.352,21.484,0.000,0
109717.270,7.812,-27.832,-80.566,21.973,0.000,0
109717.273,3.418,-29.785,-48.828,25.391,0.000,0
109717.277,0.488,-29.297,-88.379,30.762,0.000,0
109717.281,5.859,-32.227,-106.934,29.785,0.000,0
109717.285,5.371,-20.996,-85.449,35.645,0.000,0
109717.289,1.465,-18.066,-64.941,41.016,0.000,0
109717.293,2.441,-20.996,-91.309,45.898,0.000,0
109717.297,4.883,-28.809,-110.840,36.621,0.000,0
109717.301,6.348,-32.715,-74.707,22.461,0.000,0
109717.305,9.277,-25.879,-64.453,35.156,0.000,0
109717.309,1.465,-28.320,-98.145,37.109,0.000,0
109717.313,0.488,-35.645,-119.629,25.879,0.000,0
109717.316,10.742,-38.574,-88.867,26.855,0.000,0
109717.320,15.137,-34.668,-46.387,31.738,0.000,0
109717.324,19.043,-20.996,-70.312,26.855,0.000,0
109717.328,27.832,-20.020,-102.539,24.902,0.000,0
109717.332,20.508,-17.578,-104.980,33.691,0.000,0
109717.336,11.719,-14.160,-76.660,30.273,0.000,0
109717.340,12.207,-19.531,-57.617,19.531,0.000,0
109717.344,11.719,-16.602,-96.680,27.832,0.000,0
109717.348,9.766,-19.043,-111.816,31.738,0.000,0
109717.352,12.207,-20.996,-93.750,27.344,0.000,0
109717.355,19.043,-23.438,-74.219,25.391,0.000,0
109717.359,20.996,-31.250,-66.895,20.020,0.000,0
109717.363,18.066,-23.926,-98.633,19.043,0.000,0
109717.367,8.301,-23.438,-100.098,26.367,0.000,0
109717.371,10.254,-18.555,-74.707,30.273,0.000,0
109717.375,17.090,-27.832,-70.312,31.738,0.000,0
109717.379,14.648,-41.992,-74.219,22.461,0.000,0
109717.383,14.160,-29.297,-95.215,20.996,0.000,0
109717.387,22.949,-29.297,-83.984,25.879,0.000,0
109717.391,23.438,-24.414,-60.547,27.344,0.000,0
109717.395,23.926,-11.719,-79.590,33.203,0.000,0
109717.398,26.855,-23.926,-96.191,25.391,0.000,0
109717.402,33.203,-20.996,-76.660,30.762,0.000,0
109717.406,40.039,-13.184,-61.035,47.852,0.000,0
109717.410,24.902,-20.020,-87.402,42.969,0.000,0
109717.414,11.719,-20.508,-123.535,28.809,0.000,0
109717.418,30.273,-27.344,-86.914,30.762,0.000,0
109717.422,37.598,-28.320,-47.363,30.273,0.000,0
109717.426,21.973,-30.762,-77.637,21.973,0.000,0
109717.430,18.555,-32.227,-107.910,30.762,0.000,0
109717.434,31.250,-20.508,-96.191,42.969,0.000,0
109717.438,21.973,-29.297,-46.387,35.645,0.000,0
109717.441,11.230,-25.879,-56.152,31.738,0.000,0
109717.445,14.160,-20.508,-112.305,35.156,0.000,0
109717.449,18.066,-22.949,-104.492,25.391,0.000,0
109717.453,21.484,-24.414,-62.500,31.738,0.000,0
109717.457,19.531,-26.855,-52.246,36.133,0.000,0
109717.461,23.438,-24.414,-93.750,20.508,0.000,0
109717.465,21.484,-21.973,-118.652,20.508,0.000,0
109717.469,18.555,-25.391,-68.359,48.828,0.000,0
109717.473,26.855,-27.344,-52.734,44.922,0.000,0
109717.477,21.484,-34.668,-86.914,33.203,0.000,0
109717.480,15.137,-29.297,-106.445,49.316,0.000,0
109717.484,23.438,-25.391,-83.008,41.992,0.000,0
109717.488,29.785,-23.926,-67.383,36.133,0.000,0
109717.492,31.250,-22.949,-87.891,39.062,0.000,0
109717.496,30.273,-27.344,-95.215,30.762,0.000,0
109717.500,20.996,-23.438,-78.613,22.461,0.000,0
109717.504,18.555,-18.555,-64.453,25.879,0.000,0
109717.508,22.461,-16.113,-83.008,34.668,0.000,0
109717.512,9.277,-25.879,-101.562,27.344,0.000,0
109717.516,12.695,-28.809,-87.402,24.902,0.000,0
109717.520,21.973,-20.996,-76.660,29.785,0.000,0
109717.523,20.020,-24.414,-83.008,30.762,0.000,0
109717.527,17.090,-31.250,-101.562,29.297,0.000,0
109717.531,13.184,-34.180,-102.539,25.879,0.000,0
109717.535,4.395,-37.109,-67.871,24.902,0.000,0
109717.539,-1.465,-39.551,-65.430,13.184,0.000,0
109717.543,0.488,-43.457,-101.562,12.695,0.000,0
109717.547,-0.977,-43.457,-111.816,11.230,0.000,0
109717.551,1.953,-36.133,-79.590,7.812,0.000,0
109717.555,2.930,-41.504,-56.641,3.418,0.000,0
109717.559,4.395,-39.062,-86.914,4.883,0.000,0
109717.563,9.277,-28.320,-116.699,5.859,0.000,0
109717.566,9.277,-29.297,-86.426,5.859,0.000,0
109717.570,7.812,-28.320,-70.312,15.137,0.000,0
109717.574,1.953,-36.133,-66.895,4.395,0.000,0
109717.578,4.883,-28.809,-85.449,9.277,0.000,0
109717.582,12.695,-10.742,-105.469,19.043,0.000,0
109717.586,6.836,-18.066,-66.895,21.484,0.000,0
109717.590,3.906,-21.484,-62.500,26.367,0.000,0
109717.594,4.883,-24.902,-92.285,15.137,0.000,0
109717.598,6.836,-25.391,-85.938,16.602,0.000,0
109717.602,8.789,-22.949,-54.688,17.090,0.000,0
109717.605,11.230,-16.602,-62.988,24.414,0.000,0
109717.609,17.090,-12.695,-107.910,28.809,0.000,0
109717.613,11.230,-21.973,-90.820,24.414,0.000,0
109717.617,11.230,-24.414,-50.293,30.273,0.000,0
109717.621,18.555,-18.066,-57.617,30.273,0.000,0
109717.625,12.207,-12.207,-85.938,32.227,0.000,0
109717.629,10.254,-11.719,-94.238,35.645,0.000,0
109717.633,6.836,-20.508,-60.547,22.461,0.000,0
109717.637,1.953,-16.602,-51.758,17.578,0.000,0
109717.641,6.836,-10.254,-72.266,21.973,0.000,0
109717.645,-2.441,-17.578,-89.355,18.066,0.000,0
109717.648,-2.441,-18.066,-93.750,20.508,0.000,0
109717.652,18.066,-16.602,-58.105,16.113,0.000,0
109717.656,24.414,-7.324,-56.152,19.043,0.000,0
109717.660,21.484,0.000,-98.145,30.273,0.000,0
109717.664,22.461,-6.348,-96.191,26.855,0.000,0
109717.668,20.020,-3.418,-61.523,29.297,0.000,0
109717.672,22.461,-13.184,-45.898,27.344,0.000,0
109717.676,15.137,-26.367,-62.500,17.090,0.000,0
109717.680,12.695,-13.672,-85.938,20.996,0.000,0
109717.684,9.277,-1.465,-82.031,29.297,0.000,0
109717.688,11.230,-2.930,-58.594,25.879,0.000,0
109717.691,13.184,-16.602,-58.105,23.926,0.000,0
109717.695,3.906,-24.414,-85.938,12.695,0.000,0
109717.699,3.906,-11.719,-99.121,16.113,0.000,0
109717.703,4.883,-14.160,-58.105,14.648,0.000,0
109717.707,1.465,-13.184,-67.871,23.926,0.000,0
109717.711,1.465,-17.578,-95.215,28.320,0.000,0
109717.715,2.930,-17.090,-71.777,17.090,0.000,0
109717.719,7.812,-12.207,-52.734,26.855,0.000,0
109717.723,18.555,-18.555,-63.477,33.203,0.000,0
109717.727,9.766,-17.090,-98.633,32.227,0.000,0
109717.730,-0.488,-20.996,-90.332,22.949,0.000,0
109717.734,2.930,-21.484,-51.270,18.555,0.000,0
109717.738,3.418,-11.230,-47.363,26.855,0.000,0
109717.742,1.465,-8.301,-88.379,24.414,0.000,0
109717.746,5.859,-2.441,-119.141,30.273,0.000,1
109717.750,8.301,-15.625,-65.430,30.273,0.000,0
109717.754,7.812,-26.855,-29.297,17.090,0.000,0
109717.758,9.766,-14.648,-82.520,24.902,0.000,0
109717.762,1.953,-14.160,-107.910,23.926,0.000,0
109717.766,-1.465,-17.090,-91.309,22.949,0.000,0
109717.770,3.906,-15.137,-58.594,23.926,0.000,0
109717.773,12.695,-13.672,-57.129,11.230,0.000,0
109717.777,8.789,-17.578,-98.633,8.301,0.000,0
109717.781,1.465,-21.973,-96.680,19.531,0.000,0
109717.785,8.301,-16.113,-72.266,34.668,0.000,0
109717.789,9.766,-16.602,-78.125,20.996,0.000,0
109717.793,13.672,-18.555,-100.586,16.113,0.000,0
109717.797,4.395,-25.391,-101.562,24.902,0.000,0
109717.801,-2.441,-26.367,-80.078,23.438,0.000,0
109717.805,3.418,-19.531,-72.754,19.043,0.000,0
109717.809,3.906,-23.438,-88.379,17.578,0.000,0
109717.813,0.977,-24.414,-95.703,12.207,0.000,0
109717.816,7.812,-14.648,-83.008,9.277,0.000,0
109717.820,9.766,-15.137,-72.266,6.836,0.000,0
109717.824,4.395,-18.066,-84.961,15.625,0.000,0
109717.828,1.953,-19.043,-102.051,10.254,0.000,0
109717.832,0.000,-17.578,-85.449,4.395,0.000,0
109717.836,8.301,-15.137,-69.824,13.184,0.000,0
109717.840,7.324,-17.090,-77.148,17.090,0.000,0
109717.844,5.859,-11.719,-90.820,20.508,0.000,0
109717.848,7.324,-11.230,-98.633,19.043,0.000,0
109717.852,11.230,-16.602,-66.406,9.277,0.000,0
109717.855,7.324,-15.625,-60.547,8.301,0.000,0
109717.859,4.883,-20.020,-95.703,20.020,0.000,0
109717.863,9.766,-23.926,-108.398,16.602,0.000,0
109717.867,8.301,-22.461,-76.172,6.836,0.000,0
109717.871,-0.488,-23.438,-50.293,2.930,0.000,0
109717.875,-5.371,-25.879,-76.172,-2.930,0.000,0
109717.879,-2.930,-27.832,-96.680,-3.906,0.000,0
109717.883,-4.883,-37.109,-79.102,-7.812,0.000,0
109717.887,-10.254,-38.574,-57.129,0.488,0.000,0
109717.891,-2.930,-30.762,-64.941,9.277,0.000,0
109717.895,-5.371,-31.250,-100.586,0.977,0.000,0
109717.898,-16.602,-34.668,-108.887,-6.836,0.000,0
109717.902,-3.906,-34.668,-72.754,-3.906,0.000,0
109717.906,-4.883,-33.203,-70.312,-8.301,0.000,0
109717.910,-14.160,-36.621,-93.262,-20.996,0.000,0
109717.914,-14.160,-32.715,-90.332,-16.113,0.000,0
109717.918,-8.789,-27.344,-68.359,-4.883,0.000,0
109717.922,-2.930,-29.297,-66.895,-4.883,0.000,0
109717.926,-3.906,-37.109,-98.633,0.977,0.000,0
109717.930,-4.395,-41.992,-90.820,-7.324,0.000,0
109717.934,-10.254,-34.180,-58.105,-1.465,0.000,0
109717.938,-10.742,-28.809,-68.359,9.766,0.000,0
109717.941,-7.812,-34.180,-88.379,0.000,0.000,0
109717.945,-20.996,-45.898,-109.375,-5.859,0.000,0
109717.949,-16.602,-44.434,-81.543,-6.836,0.000,0
109717.953,0.488,-31.738,-46.875,-0.977,0.000,0
109717.957,-1.465,-28.809,-76.660,-6.836,0.000,0
109717.961,-1.953,-34.180,-109.375,-1.465,0.000,0
109717.965,-1.465,-32.227,-101.562,-4.395,0.000,0
109717.969,-2.441,-28.320,-60.059,-10.254,0.000,0
109717.973,-4.883,-28.320,-61.523,-1.953,0.000,0
109717.977,-11.230,-22.461,-93.262,2.930,0.000,0
109717.980,-7.812,-17.090,-105.469,0.000,0.000,0
109717.984,-4.883,-22.461,-82.031,-17.578,0.000,0
109717.988,-4.883,-35.156,-54.199,-22.949,0.000,0
109717.992,-3.418,-37.109,-90.820,-9.277,0.000,0
109717.996,-6.348,-41.016,-118.164,-2.441,0.000,0
109718.000,-4.883,-42.480,-99.121,0.977,0.000,0
109718.004,2.441,-38.574,-75.195,-2.441,0.000,0
109718.008,-2.441,-47.852,-77.148,-13.672,0.000,0
109718.012,-6.348,-45.898,-100.098,-5.859,0.000,0
109718.016,-4.883,-32.227,-96.191,5.859,0.000,0
109718.020,-1.465,-38.086,-65.918,-1.465,0.000,0
109718.023,3.906,-37.109,-76.172,1.953,0.000,0
109718.027,11.719,-35.156,-99.121,1.953,0.000,0
109718.031,3.418,-35.645,-87.402,-4.395,0.000,0
109718.035,-1.953,-28.809,-64.453,5.371,0.000,0
109718.039,8.301,-33.691,-64.453,15.625,0.000,0
109718.043,6.348,-39.551,-101.562,9.277,0.000,0
109718.047,7.324,-44.922,-96.191,-3.906,0.000,0
109718.051,12.207,-39.551,-58.594,0.000,0.000,0
109718.055,13.672,-29.785,-60.059,10.254,0.000,0
109718.059,18.066,-31.738,-85.449,11.719,0.000,0
109718.063,18.555,-33.203,-104.004,11.719,0.000,0
109718.066,19.531,-37.109,-71.289,11.719,0.000,0
109718.070,19.531,-23.926,-64.453,14.648,0.000,0
109718.074,22.949,-12.207,-114.746,14.648,0.000,0
109718.078,24.414,-18.555,-110.840,11.719,0.000,0
109718.082,28.320,-20.508,-66.895,17.090,0.000,0
109718.086,28.809,-28.809,-44.922,10.742,0.000,0
109718.090,21.484,-15.625,-78.613,10.742,0.000,0
109718.094,23.926,-6.348,-100.586,14.160,0.000,0
109718.098,16.602,-16.602,-75.684,13.672,0.000,0
109718.102,6.348,-12.207,-68.359,15.625,0.000,0
109718.105,11.230,-17.090,-72.754,14.648,0.000,0
109718.109,17.578,-13.184,-84.473,24.414,0.000,0
109718.113,17.090,-5.371,-85.449,33.203,0.000,0
109718.117,20.508,-6.348,-78.613,26.367,0.000,0
109718.121,19.531,-4.883,-79.590,29.297,0.000,0
109718.125,9.766,-18.066,-66.406,35.645,0.000,0
109718.129,10.742,-17.578,-82.520,27.832,0.000,0
109718.133,16.113,-10.742,-85.938,25.391,0.000,0
109718.137,18.555,-23.926,-72.266,30.273,0.000,0
109718.141,27.832,-25.879,-87.891,35.645,0.000,0
109718.145,20.996,-25.879,-95.703,30.273,0.000,0
109718.148,9.277,-24.902,-71.777,29.785,0.000,0
109718.152,13.672,-19.043,-63.477,27.832,0.000,0
109718.156,15.137,-19.531,-85.449,13.672,0.000,0
109718.160,2.930,-25.391,-102.051,17.090,0.000,0
109718.164,5.371,-22.949,-92.285,20.020,0.000,0
109718.168,9.766,-18.555,-65.918,10.742,0.000,0
109718.172,11.719,-21.484,-64.453,20.508,0.000,0
109718.176,19.043,-12.695,-101.074,32.227,0.000,0
109718.180,16.113,-10.254,-100.098,23.926,0.000,0
109718.184,14.648,-13.184,-59.570,23.438,0.000,0
109718.188,20.996,-9.766,-51.270,25.879,0.000,0
109718.191,20.020,-17.578,-85.449,10.742,0.000,0
109718.195,15.625,-20.508,-105.469,10.254,0.000,0
109718.199,20.020,-16.602,-74.707,25.391,0.000,0
109718.203,16.602,-18.066,-62.500,26.855,0.000,0
109718.207,3.418,-16.113,-84.961,13.184,0.000,0
109718.211,9.766,-12.207,-97.168,15.625,0.000,0
109718.215,16.113,-23.438,-68.848,15.137,0.000,0
109718.219,14.160,-20.020,-72.754,22.461,0.000,0
109718.223,8.789,-24.414,-98.145,18.066,0.000,0
109718.227,14.648,-27.344,-100.586,11.719,0.000,0
109718.230,17.578,-22.949,-90.332,17.090,0.000,0
109718.234,17.578,-27.832,-73.242,14.160,0.000,0
109718.238,21.973,-24.414,-83.008,21.484,0.000,0
109718.242,19.531,-24.902,-103.516,18.066,0.000,0
109718.246,19.531,-27.344,-88.867,6.836,0.000,0
109718.250,19.043,-22.461,-70.312,9.277,0.000,0
109718.254,11.719,-23.438,-79.102,9.766,0.000,0
109718.258,2.930,-27.344,-102.051,11.719,0.000,0
109718.262,-0.488,-30.273,-99.609,3.418,0.000,0
109718.266,4.883,-27.344,-80.566,-10.254,0.000,0
109718.270,9.277,-20.996,-75.195,-2.441,0.000,0
109718.273,8.789,-22.949,-86.914,7.324,0.000,0
109718.277,11.719,-25.879,-109.863,6.348,0.000,0
109718.281,9.766,-31.738,-95.703,-0.977,0.000,0
109718.285,10.254,-31.738,-60.547,1.953,0.000,0
109718.289,16.113,-26.367,-82.031,20.020,0.000,0
109718.293,16.602,-31.738,-104.492,15.137,0.000,0
109718.297,20.996,-22.461,-98.633,18.066,0.000,0
109718.301,18.066,-20.020,-71.777,24.414,0.000,0
109718.305,17.090,-29.297,-51.270,18.066,0.000,1
109718.309,11.230,-21.973,-100.098,14.648,0.000,0
109718.313,5.371,-26.855,-112.305,13.184,0.000,0
109718.316,10.254,-32.715,-82.520,18.555,0.000,0
109718.320,14.160,-34.668,-70.801,13.672,0.000,0
109718.324,16.113,-31.738,-80.078,11.719,0.000,0
109718.328,11.230,-25.879,-110.352,26.367,0.000,0
109718.332,19.531,-23.438,-88.379,24.902,0.000,0
109718.336,22.461,-26.855,-60.059,10.742,0.000,0
109718.340,10.742,-31.250,-82.520,13.184,0.000,0
109718.344,13.184,-35.645,-94.727,10.254,0.000,0
109718.348,11.719,-21.973,-70.312,12.207,0.000,0
109718.352,5.371,-19.043,-41.992,22.949,0.000,0
109718.355,15.137,-19.531,-76.172,26.367,0.000,0
109718.359,17.578,-18.066,-101.074,20.508,0.000,0
109718.363,5.859,-29.785,-67.871,9.277,0.000,0
109718.367,7.812,-23.438,-54.199,12.695,0.000,0
109718.371,8.301,-9.766,-75.684,13.672,0.000,0
109718.375,4.883,-13.672,-107.422,7.324,0.000,0
109718.379,7.812,-21.484,-99.121,13.672,0.000,0
109718.383,9.766,-25.391,-51.270,12.695,0.000,0
109718.387,16.113,-14.648,-54.199,7.812,0.000,0
109718.391,14.160,-10.254,-88.379,22.461,0.000,0
109718.395,6.836,-20.508,-88.379,23.926,0.000,0
109718.398,6.836,-25.391,-69.824,25.391,0.000,0
109718.402,9.277,-20.996,-63.477,23.926,0.000,0
109718.406,11.719,-13.184,-78.125,18.066,0.000,0
109718.410,13.184,-20.996,-88.867,20.508,0.000,0
109718.414,14.648,-27.344,-82.031,27.344,0.000,0
109718.418,22.949,-18.066,-66.895,31.738,0.000,0
109718.422,16.602,-27.344,-62.500,14.160,0.000,0
109718.426,1.953,-24.902,-85.938,11.719,0.000,0
109718.430,10.742,-5.859,-100.098,26.367,0.000,0
109718.434,17.090,0.488,-76.660,20.996,0.000,0
109718.438,14.160,-11.230,-61.523,13.184,0.000,0
109718.441,11.719,-23.438,-79.102,9.766,0.000,0
109718.445,18.555,-12.695,-91.797,2.930,0.000,0
109718.449,26.367,-10.742,-72.754,12.695,0.000,0
109718.453,20.020,-18.066,-61.523,29.297,0.000,0
109718.457,13.184,-18.555,-87.891,27.832,0.000,0
109718.461,24.414,-17.090,-89.844,17.578,0.000,0
109718.465,31.250,-8.789,-67.383,17.578,0.000,0
109718.469,18.066,-12.695,-70.312,22.461,0.000,0
109718.473,13.184,-16.602,-98.145,20.020,0.000,0
109718.477,17.090,-17.090,-104.492,17.578,0.000,0
109718.480,17.090,-19.531,-65.918,19.043,0.000,0
109718.484,18.066,-15.137,-48.828,25.391,0.000,0
109718.488,13.184,-20.508,-87.402,27.832,0.000,0
109718.492,5.859,-23.438,-125.488,24.414,0.000,0
109718.496,8.301,-34.668,-79.590,25.879,0.000,0
109718.500,-0.977,-41.016,-45.410,30.762,0.000,0
109718.504,-0.488,-29.785,-98.145,29.785,0.000,0
109718.508,4.883,-34.180,-122.070,27.832,0.000,0
109718.512,1.953,-41.992,-104.492,28.320,0.000,0
109718.516,0.977,-41.016,-75.195,26.855,0.000,0
109718.520,1.953,-31.250,-71.289,15.137,0.000,0
109718.523,-3.418,-27.344,-105.957,11.719,0.000,0
109718.527,-8.301,-35.156,-122.559,18.555,0.000,0
109718.531,-8.301,-39.551,-99.609,10.254,0.000,0
109718.535,-8.301,-41.992,-87.402,-4.395,0.000,0
109718.539,-5.859,-41.992,-106.445,-1.465,0.000,0
109718.543,0.488,-40.039,-109.863,3.418,0.000,0
109718.547,18.066,-34.180,-87.891,2.930,0.000,0
109718.551,18.066,-34.180,-82.031,2.930,0.000,0
109718.555,-0.488,-44.922,-102.051,0.977,0.000,0
109718.559,-4.883,-50.293,-109.863,-3.418,0.000,0
109718.563,0.977,-41.016,-94.238,-0.488,0.000,0
109718.566,3.906,-35.156,-79.102,12.695,0.000,0
109718.570,0.977,-41.016,-91.797,11.230,0.000,0
109718.574,-3.418,-39.062,-115.723,6.836,0.000,0
109718.578,-10.742,-41.992,-98.145,5.371,0.000,0
109718.582,-8.789,-38.574,-66.895,4.395,0.000,0
109718.586,0.488,-35.156,-67.871,3.906,0.000,0
109718.590,0.000,-33.691,-102.051,16.113,0.000,0
109718.594,6.836,-35.645,-108.398,17.090,0.000,0
109718.598,0.488,-55.664,-52.734,-8.301,0.000,0
109718.602,-3.906,-36.133,-76.172,10.742,0.000,0
109718.605,10.742,-22.461,-118.652,23.926,0.000,0
109718.609,8.301,-25.391,-107.910,12.207,0.000,0
109718.613,5.371,-33.203,-62.988,10.254,0.000,0
109718.617,17.578,-39.551,-51.270,12.207,0.000,0
109718.621,17.090,-29.785,-95.215,15.137,0.000,0
109718.625,13.184,-35.156,-102.539,21.484,0.000,0
109718.629,17.090,-34.180,-73.242,25.879,0.000,0
109718.633,7.324,-32.715,-55.176,16.602,0.000,0
109718.637,7.812,-40.527,-81.055,7.812,0.000,0
109718.641,16.602,-29.297,-107.422,18.555,0.000,0
109718.645,8.301,-25.879,-80.566,20.508,0.000,0
109718.648,-7.324,-23.926,-61.035,15.137,0.000,0
109718.652,-3.906,-18.555,-78.613,20.508,0.000,0
109718.656,6.836,-23.438,-87.402,16.113,0.000,0
109718.660,4.395,-17.578,-76.660,14.160,0.000,0
109718.664,3.418,-18.555,-61.035,20.996,0.000,0
109718.668,6.836,-21.484,-75.195,23.438,0.000,0
109718.672,0.000,-28.320,-103.516,12.207,0.000,0
109718.676,-5.371,-39.551,-77.637,1.953,0.000,0
109718.680,-1.465,-27.832,-61.035,4.883,0.000,0
109718.684,-0.488,-19.043,-84.473,8.301,0.000,0
109718.688,1.953,-24.414,-99.609,18.066,0.000,0
109718.691,15.625,-28.809,-83.008,35.645,0.000,0
109718.695,11.719,-28.320,-57.129,21.973,0.000,0
109718.699,5.859,-25.879,-52.246,2.441,0.000,0
109718.703,3.418,-17.578,-89.844,16.113,0.000,0
109718.707,-3.418,-12.207,-109.375,17.578,0.000,0
109718.711,0.488,-15.137,-79.590,16.602,0.000,0
109718.715,0.000,-24.414,-41.992,9.766,0.000,0
109718.719,-2.441,-21.484,-64.941,18.066,0.000,0
109718.723,1.465,-19.043,-99.121,21.973,0.000,0
109718.727,2.441,-17.578,-86.914,22.461,0.000,0
109718.730,-3.418,-20.020,-80.078,21.484,0.000,0
109718.734,-6.836,-44.922,-66.406,5.371,0.000,0
109718.738,6.348,-39.551,-73.242,14.648,0.000,0
109718.742,0.488,-19.531,-107.910,21.973,0.000,0
109718.746,-7.324,-22.949,-91.309,11.230,0.000,0
109718.750,-1.953,-31.738,-62.500,6.836,0.000,0
109718.754,-11.719,-45.410,-78.125,0.488,0.000,0
109718.758,-11.719,-36.621,-102.051,-1.953,0.000,0
109718.762,2.441,-24.902,-80.078,6.348,0.000,0
109718.766,7.812,-24.902,-59.082,22.949,0.000,0
109718.770,0.977,-25.391,-92.285,17.578,0.000,0
109718.773,2.441,-22.949,-103.027,15.625,0.000,0
109718.777,4.395,-19.531,-72.266,25.879,0.000,0
109718.781,9.277,-17.090,-60.547,22.949,0.000,0
109718.785,15.137,-12.695,-96.191,24.414,0.000,0
109718.789,17.578,-17.578,-110.352,20.020,0.000,0
109718.793,14.160,-23.438,-79.590,11.230,0.000,0
109718.797,12.207,-21.484,-65.918,11.230,0.000,0
109718.801,12.695,-19.043,-89.355,14.648,0.000,0
109718.805,12.695,-7.324,-122.070,26.855,0.000,0
109718.809,17.578,-7.324,-88.867,30.762,0.000,0
109718.813,17.090,-20.996,-56.641,22.461,0.000,0
109718.816,16.602,-18.066,-79.102,28.320,0.000,0
109718.820,15.137,-13.184,-110.352,20.508,0.000,0
109718.824,21.973,-20.996,-94.238,12.207,0.000,0
109718.828,31.738,-18.555,-62.012,13.184,0.000,0
109718.832,24.414,-15.625,-66.406,8.789,0.000,0
109718.836,13.184,-13.184,-87.891,13.184,0.000,0
109718.840,9.277,-12.207,-99.121,13.672,0.000,0
109718.844,16.113,-18.555,-78.613,15.137,0.000,0
109718.848,19.531,-21.973,-64.941,14.160,0.000,0
109718.852,5.371,-29.297,-77.637,2.441,0.000,0
109718.855,0.488,-22.949,-93.262,-0.488,0.000,0
109718.859,9.766,-18.555,-71.289,1.953,0.000,0
109718.863,8.789,-19.043,-54.688,10.254,0.000,0
109718.867,2.441,-18.555,-78.613,21.484,0.000,0
109718.871,11.719,-18.555,-85.449,22.949,0.000,0
109718.875,14.648,-15.625,-77.637,22.461,0.000,0
109718.879,0.977,-19.531,-65.430,18.066,0.000,0
109718.883,4.883,-22.461,-71.289,12.207,0.000,0
109718.887,-1.953,-20.020,-93.262,11.230,0.000,0
109718.891,-5.371,-18.066,-83.496,9.766,0.000,0
109718.895,-2.441,-12.207,-54.688,9.766,0.000,0
109718.898,-12.695,-16.602,-63.477,5.371,0.000,0
109718.902,-12.207,-22.461,-97.656,13.672,0.000,0
109718.906,-4.883,-19.043,-104.980,21.973,0.000,0
109718.910,11.719,-19.531,-47.852,20.020,0.000,0
109718.914,13.184,-10.254,-46.387,24.414,0.000,0
109718.918,9.766,-11.719,-94.238,19.531,0.000,0
109718.922,14.648,-15.625,-87.891,15.137,0.000,0
109718.926,15.625,-20.020,-41.992,14.648,0.000,0
109718.930,8.301,-25.391,-45.898,9.766,0.000,0
109718.934,7.812,-19.531,-92.285,11.230,0.000,0
109718.938,10.742,-18.066,-90.820,18.555,0.000,0
109718.941,-2.441,-22.949,-61.035,24.414,0.000,0
109718.945,-7.324,-30.762,-53.223,18.555,0.000,0
109718.949,-7.324,-34.668,-69.336,7.812,0.000,0
109718.953,-7.324,-29.785,-95.215,8.301,0.000,0
109718.957,1.465,-26.855,-78.613,6.836,0.000,0
109718.961,3.906,-16.602,-66.406,4.395,0.000,0
109718.965,4.395,-17.090,-84.961,3.418,0.000,0
109718.969,6.836,-29.297,-88.867,-2.441,0.000,2
109718.973,1.465,-21.973,-67.871,11.230,0.000,0
109718.977,0.000,-16.113,-52.246,15.137,0.000,0
109718.980,8.789,-12.695,-67.871,13.672,0.000,0
109718.984,-1.465,-16.113,-86.914,12.207,0.000,0
109718.988,-6.836,-24.902,-70.312,4.883,0.000,0
109718.992,-8.789,-19.043,-62.988,7.812,0.000,0
109718.996,-11.230,-17.578,-69.824,10.254,0.000,0
109719.000,-5.859,-19.531,-83.008,6.836,0.000,0
109719.004,-4.395,-23.926,-86.426,9.766,0.000,0
109719.008,4.883,-24.414,-62.500,3.906,0.000,0
109719.012,5.859,-20.020,-56.641,9.766,0.000,0
109719.016,0.488,-22.461,-77.148,21.973,0.000,0
109719.020,2.441,-19.043,-87.891,19.043,0.000,0
109719.023,9.766,-20.508,-58.594,16.113,0.000,0
109719.027,12.207,-26.855,-41.992,7.812,0.000,0
109719.031,8.789,-20.996,-82.031,5.371,0.000,0
109719.035,5.371,-18.066,-91.797,7.812,0.000,0
109719.039,8.301,-15.137,-72.266,16.113,0.000,0
109719.043,14.648,-22.461,-50.293,12.695,0.000,0
109719.047,-0.488,-29.297,-65.918,-0.977,0.000,0
109719.051,-6.836,-21.484,-99.609,9.277,0.000,0
109719.055,1.953,-18.555,-92.285,7.324,0.000,0
109719.059,6.836,-17.090,-62.012,8.789,0.000,0
109719.063,14.160,-25.391,-52.246,11.230,0.000,0
109719.066,9.766,-31.250,-88.867,-0.977,0.000,0
109719.070,0.977,-18.066,-97.168,1.953,0.000,0
109719.074,3.906,-15.625,-63.477,6.348,0.000,0
109719.078,2.930,-21.484,-67.871,8.789,0.000,0
109719.082,4.395,-26.367,-101.562,2.441,0.000,0
109719.086,1.465,-29.297,-95.703,-2.930,0.000,0
109719.090,-1.953,-25.879,-72.754,5.371,0.000,0
109719.094,10.742,-27.344,-62.012,1.465,0.000,0
109719.098,14.648,-21.973,-89.844,-0.977,0.000,0
109719.102,0.977,-22.949,-90.820,-7.812,0.000,0
109719.105,2.930,-21.484,-49.805,-4.395,0.000,0
109719.109,9.766,-7.812,-55.664,0.488,0.000,0
109719.113,5.371,-15.137,-85.938,-5.371,0.000,0
109719.117,-8.301,-24.414,-108.887,3.906,0.000,0
109719.121,-2.930,-22.949,-90.820,-0.977,0.000,0
109719.125,10.254,-26.367,-52.246,-2.930,0.000,0
109719.129,12.207,-21.973,-73.730,4.395,0.000,0
109719.133,14.160,-16.602,-104.492,2.930,0.000,0
109719.137,10.742,-13.672,-79.102,5.371,0.000,0
109719.141,10.254,-9.766,-53.711,-1.953,0.000,0
109719.145,5.859,-15.625,-56.641,-5.371,0.000,0
109719.148,0.488,-16.602,-83.008,-4.883,0.000,0
109719.152,-4.395,-19.043,-102.051,-8.789,0.000,0
109719.156,10.254,-17.090,-90.820,-10.254,0.000,0
109719.160,16.602,-14.648,-62.500,-13.184,0.000,0
109719.164,8.301,-16.113,-70.801,-16.602,0.000,0
109719.168,12.207,-12.207,-100.586,-19.531,0.000,0
109719.172,13.184,-14.648,-80.566,-27.344,0.000,0
109719.176,11.719,-14.160,-49.316,-24.414,0.000,0
109719.180,13.184,-13.672,-65.430,-23.438,0.000,0
109719.184,16.113,-20.996,-90.820,-29.297,0.000,0
109719.188,12.695,-16.113,-77.637,-21.973,0.000,0
109719.191,10.254,-9.277,-60.059,-14.648,0.000,0
109719.195,5.371,-20.508,-63.965,-21.973,0.000,0
109719.199,5.371,-22.461,-95.703,-26.855,0.000,0
109719.203,12.207,-31.738,-85.449,-35.156,0.000,0
109719.207,13.184,-38.086,-43.945,-36.133,0.000,0
109719.211,1.465,-22.949,-67.383,-20.020,0.000,0
109719.215,-7.324,-24.902,-103.027,-21.973,0.000,0
109719.219,-6.836,-27.344,-106.934,-21.484,0.000,0
109719.223,-10.254,-31.738,-71.289,-27.832,0.000,0
109719.227,-2.441,-31.738,-56.152,-32.715,0.000,0
109719.230,12.695,-21.484,-89.355,-24.902,0.000,0
109719.234,8.301,-20.508,-107.910,-29.297,0.000,0
109719.238,-6.348,-22.949,-79.590,-29.785,0.000,0
109719.242,-6.348,-28.320,-38.574,-33.691,0.000,0
109719.246,0.977,-28.809,-57.129,-33.691,0.000,0
109719.250,0.977,-32.715,-106.445,-34.180,0.000,0
109719.254,-0.977,-30.273,-96.191,-25.879,0.000,0
109719.258,0.488,-29.297,-64.453,-14.160,0.000,0
109719.262,0.977,-37.109,-68.359,-27.344,0.000,0
109719.266,-1.465,-32.715,-91.797,-22.949,0.000,0
109719.270,-0.488,-34.180,-97.656,-18.555,0.000,0
109719.273,1.953,-40.527,-72.266,-26.855,0.000,0
109719.277,0.977,-33.691,-66.895,-24.414,0.000,0
109719.281,-9.277,-41.504,-81.543,-30.762,0.000,0
109719.285,-9.277,-35.645,-95.215,-26.367,0.000,0
109719.289,-0.977,-20.996,-82.031,-15.625,0.000,0
109719.293,2.441,-16.602,-65.430,-13.184,0.000,0
109719.297,7.324,-12.695,-83.008,-7.812,0.000,0
109719.301,9.766,-27.344,-76.172,-14.648,0.000,0
109719.305,11.230,-25.879,-56.641,-17.578,0.000,0
109719.309,16.113,-15.137,-48.340,-6.348,0.000,0
109719.313,11.719,-15.625,-58.105,-0.977,0.000,0
109719.316,12.695,-17.578,-84.473,-4.395,0.000,0
109719.320,13.184,-26.367,-68.848,-21.973,0.000,0
109719.324,11.719,-25.391,-47.852,-32.227,0.000,0
109719.328,16.113,-22.461,-58.594,-20.508,0.000,0
109719.332,6.348,-24.414,-84.961,-10.742,0.000,0
109719.336,2.441,-20.996,-107.910,-14.160,0.000,0
109719.340,7.812,-26.855,-74.707,-18.555,0.000,0
109719.344,6.836,-34.180,-38.574,-13.184,0.000,0
109719.348,10.742,-24.902,-69.336,-7.324,0.000,0
109719.352,10.254,-16.113,-97.656,-13.184,0.000,0
109719.355,5.371,-12.207,-83.008,-12.207,0.000,0
109719.359,3.906,-18.066,-57.129,-16.113,0.000,0
109719.363,-1.465,-29.297,-68.359,-15.625,0.000,0
109719.367,-5.371,-22.461,-113.281,-7.324,0.000,0
109719.371,8.301,-18.066,-95.703,0.000,0.000,0
109719.375,15.625,-14.648,-53.711,11.719,0.000,0
109719.379,0.000,-16.113,-57.617,-0.488,0.000,0
109719.383,-8.301,-28.809,-76.660,-23.926,0.000,0
109719.387,-6.348,-12.207,-71.777,0.488,0.000,0
109719.391,5.371,-4.395,-46.387,13.672,0.000,0
109719.395,7.324,-8.789,-76.172,9.766,0.000,0
109719.398,-8.301,-19.531,-95.703,2.441,0.000,0
109719.402,-11.719,-17.578,-77.637,-3.418,0.000,0
109719.406,-1.953,-17.578,-59.570,5.371,0.000,0
109719.410,-1.953,-19.531,-68.848,1.953,0.000,0
109719.414,-6.348,-9.766,-106.445,-3.418,0.000,0
109719.418,-3.906,-21.484,-79.102,-7.324,0.000,0
109719.422,5.859,-18.555,-49.316,-18.555,0.000,0
109719.426,5.859,-4.883,-65.430,-18.555,0.000,0
109719.430,2.441,-10.254,-90.332,-7.812,0.000,0
109719.434,8.789,-16.113,-93.750,-6.836,0.000,0
109719.438,14.648,-14.648,-61.523,-13.184,0.000,0
109719.441,16.602,-12.207,-59.570,-8.789,0.000,0
109719.445,15.625,-8.301,-89.844,1.953,0.000,0
109719.449,17.578,-6.348,-96.191,8.301,0.000,0
109719.453,14.160,-6.836,-73.730,9.277,0.000,0
109719.457,11.719,-11.719,-52.734,-0.488,0.000,0
109719.461,18.066,-6.348,-64.941,-0.488,0.000,0
109719.465,18.066,-0.488,-91.309,0.977,0.000,0
109719.469,11.719,-5.859,-85.938,0.488,0.000,0
109719.473,8.789,-9.766,-57.617,5.371,0.000,0
109719.477,7.324,-16.113,-54.688,5.859,0.000,0
109719.480,5.859,-18.555,-87.402,0.488,0.000,0
109719.484,17.090,-9.277,-101.074,5.371,0.000,0
109719.488,19.531,-10.742,-63.965,4.883,0.000,0
109719.492,17.578,-18.555,-44.434,6.836,0.000,0
109719.496,17.578,-24.414,-75.195,6.836,0.000,0
109719.500,20.020,-20.508,-89.844,0.488,0.000,0
109719.504,27.344,-12.207,-65.430,8.301,0.000,0
109719.508,22.949,-23.926,-45.410,7.812,0.000,0
109719.512,10.742,-32.715,-69.336,-2.441,0.000,0
109719.516,5.371,-21.973,-100.586,-2.441,0.000,0
109719.520,2.441,-26.367,-77.637,-5.859,0.000,0
109719.523,5.859,-22.949,-45.898,-1.953,0.000,0
109719.527,4.395,-22.949,-66.895,-3.906,0.000,0
109719.531,2.441,-23.926,-104.980,3.418,0.000,0
109719.535,5.859,-16.602,-91.309,9.277,0.000,0
109719.539,1.465,-13.672,-51.758,-0.488,0.000,0
109719.543,10.742,-9.277,-69.336,0.977,0.000,0
109719.547,4.883,-12.207,-106.445,5.859,0.000,0
109719.551,-9.277,-17.090,-99.121,4.395,0.000,0
109719.555,13.184,-18.555,-58.594,5.371,0.000,0
109719.559,22.461,-14.160,-50.293,-1.953,0.000,0
109719.563,3.906,-5.371,-78.613,-1.953,0.000,0
109719.566,0.488,-6.348,-83.008,1.465,0.000,0
109719.570,0.000,-15.137,-66.406,5.859,0.000,0
109719.574,6.836,-15.625,-56.641,4.883,0.000,0
109719.578,10.254,-15.625,-67.871,-2.441,0.000,0
109719.582,0.488,-20.020,-95.215,8.789,0.000,0
109719.586,0.488,-24.414,-84.961,16.113,0.000,0
109719.590,3.906,-21.973,-70.312,1.465,0.000,0
109719.594,4.883,-24.902,-80.566,-3.906,0.000,0
109719.598,7.812,-28.320,-84.961,3.418,0.000,0
109719.602,6.348,-16.602,-89.355,2.930,0.000,0
109719.605,11.230,-8.301,-78.613,3.418,0.000,0
109719.609,19.531,-8.301,-75.684,15.137,0.000,0
109719.613,10.254,-19.531,-84.961,13.184,0.000,0
109719.617,7.324,-22.949,-77.637,2.930,0.000,0
109719.621,16.113,-0.488,-77.148,10.742,0.000,0
109719.625,14.160,-4.883,-67.871,15.137,0.000,0
109719.629,12.207,-20.020,-66.895,9.766,0.000,2
109719.633,9.277,-19.531,-82.031,0.488,0.000,0
109719.637,19.531,-23.926,-63.477,1.953,0.000,0
109719.641,26.855,-19.531,-51.758,13.672,0.000,0
109719.645,0.488,-18.066,-74.219,1.465,0.000,0
109719.648,-5.859,-15.625,-104.980,1.465,0.000,0
109719.652,15.625,-18.066,-88.379,13.184,0.000,0
109719.656,12.695,-28.809,-43.945,15.137,0.000,0
109719.660,6.836,-19.043,-55.664,31.250,0.000,0
109719.664,12.695,-15.137,-85.938,35.156,0.000,0
109719.668,18.066,-10.742,-90.820,25.391,0.000,0
109719.672,21.973,-11.719,-49.316,23.926,0.000,0
109719.676,23.438,-24.902,-11.719,22.949,0.000,0
109719.680,23.926,-15.137,-63.477,25.879,0.000,0
109719.684,17.578,-19.043,-83.984,30.762,0.000,0
109719.688,16.113,-21.973,-47.363,31.250,0.000,0
109719.691,15.137,-21.484,-39.551,15.625,0.000,0
109719.695,9.766,-34.668,-52.734,-5.859,0.000,0
109719.699,16.602,-24.414,-77.148,-0.977,0.000,0
109719.703,21.973,-21.484,-66.406,7.324,0.000,0
109719.707,16.602,-20.020,-46.875,2.441,0.000,0
109719.711,7.812,-11.719,-76.172,2.930,0.000,0
109719.715,8.301,-22.461,-90.820,-1.953,0.000,0
109719.719,11.719,-23.926,-61.523,3.418,0.000,0
109719.723,3.418,-19.043,-55.176,14.160,0.000,0
109719.727,3.418,-12.695,-84.473,9.277,0.000,0
109719.730,10.254,-15.137,-100.098,4.395,0.000,0
109719.734,2.930,-30.762,-75.684,4.395,0.000,0
109719.738,6.348,-23.926,-56.152,11.719,0.000,0
109719.742,8.789,-15.625,-58.105,16.602,0.000,0
109719.746,-4.395,-18.555,-77.148,15.137,0.000,0
109719.750,-5.859,-18.555,-86.914,18.066,0.000,0
109719.754,0.488,-22.949,-52.246,17.090,0.000,0
109719.758,9.277,-17.578,-62.500,21.973,0.000,0
109719.762,11.719,-18.555,-84.961,24.414,0.000,0
109719.766,2.441,-21.484,-84.473,18.555,0.000,0
109719.770,5.859,-23.926,-69.824,4.395,0.000,0
109719.773,3.906,-27.344,-50.293,-0.488,0.000,0
109719.777,-6.836,-20.508,-82.031,-3.418,0.000,0
109719.781,-8.789,-23.926,-102.539,-4.883,0.000,0
109719.785,-7.812,-24.902,-83.008,3.418,0.000,0
109719.789,-0.977,-28.320,-54.199,0.000,0.000,0
109719.793,7.324,-29.297,-58.594,5.371,0.000,0
109719.797,1.953,-15.625,-98.145,6.348,0.000,0
109719.801,-0.488,-12.207,-83.496,2.441,0.000,0
109719.805,9.277,-16.113,-45.410,6.836,0.000,0
109719.809,2.930,-21.973,-64.453,4.395,0.000,0
109719.813,-13.184,-22.461,-104.492,-4.883,0.000,0
109719.816,-3.418,-18.066,-99.121,-6.836,0.000,0
109719.820,-1.465,-22.949,-61.523,-0.488,0.000,0
109719.824,-17.090,-22.949,-75.195,-2.930,0.000,0
109719.828,-14.648,-23.438,-110.840,0.000,0.000,0
109719.832,-13.672,-31.738,-90.820,6.836,0.000,0
109719.836,-13.184,-28.320,-60.059,6.836,0.000,0
109719.840,-9.277,-25.879,-59.570,1.465,0.000,0
109719.844,-4.395,-30.273,-81.543,0.488,0.000,0
109719.848,-3.418,-27.344,-98.633,1.953,0.000,0
109719.852,-7.812,-22.461,-70.801,-5.371,0.000,0
109719.855,-2.441,-16.113,-50.781,-6.348,0.000,0
109719.859,3.906,-16.113,-82.520,5.371,0.000,0
109719.863,-2.441,-19.531,-102.539,12.207,0.000,0
109719.867,-0.977,-21.484,-83.496,8.301,0.000,0
109719.871,4.395,-22.461,-56.152,7.324,0.000,0
109719.875,-1.953,-18.555,-64.941,9.766,0.000,0
109719.879,2.930,-20.996,-88.379,10.742,0.000,0
109719.883,6.836,-25.879,-85.449,8.789,0.000,0
109719.887,-7.812,-22.461,-76.660,0.000,0.000,0
109719.891,-3.906,-25.879,-66.406,-2.930,0.000,0
109719.895,5.859,-19.043,-81.055,4.883,0.000,0
109719.898,3.906,-11.719,-95.703,17.578,0.000,0
109719.902,3.418,-15.137,-81.543,13.672,0.000,0
109719.906,7.324,-15.625,-77.148,2.441,0.000,0
109719.910,7.324,-24.902,-66.406,2.930,0.000,0
109719.914,9.766,-23.926,-73.730,9.766,0.000,0
109719.918,18.066,-19.043,-84.473,5.859,0.000,0
109719.922,22.949,-29.297,-55.664,11.719,0.000,0
109719.926,24.414,-21.973,-72.754,23.926,0.000,0
109719.930,26.367,-22.461,-102.051,11.719,0.000,0
109719.934,32.715,-22.949,-90.332,14.160,0.000,0
109719.938,26.855,-16.113,-71.289,14.160,0.000,0
109719.941,18.555,-18.555,-72.754,4.883,0.000,0
109719.945,9.766,-15.625,-105.957,3.418,0.000,0
109719.949,10.254,-14.648,-101.562,2.441,0.000,0
109719.953,10.742,-20.020,-61.523,11.230,0.000,0
109719.957,-3.906,-21.973,-54.688,12.207,0.000,0
109719.961,-2.441,-21.484,-89.844,17.578,0.000,0
109719.965,-0.977,-18.555,-108.398,19.531,0.000,0
109719.969,1.465,-17.578,-59.570,11.719,0.000,0
109719.973,5.859,-16.602,-42.480,10.254,0.000,0
109719.977,-1.465,-13.672,-81.543,10.254,0.000,0
109719.980,0.488,-17.090,-97.656,2.930,0.000,0
109719.984,10.742,-18.066,-82.031,2.441,0.000,0
109719.988,3.906,-24.902,-52.734,2.441,0.000,0
109719.992,-5.859,-23.926,-72.266,1.465,0.000,0
109719.996,-0.977,-14.648,-113.770,5.859,0.000,0
109720.000,0.488,-27.344,-88.379,10.742,0.000,0
109720.004,2.930,-32.715,-46.387,9.766,0.000,0
109720.008,9.277,-26.367,-60.059,-1.953,0.000,0
109720.012,4.395,-26.855,-89.355,-3.906,0.000,0
109720.016,0.488,-26.367,-96.680,4.883,0.000,0
109720.020,6.348,-26.367,-78.125,-1.953,0.000,0
109720.023,-4.395,-34.668,-64.453,-7.324,0.000,0
109720.027,-8.789,-37.598,-87.891,-3.906,0.000,0
109720.031,1.953,-28.320,-95.215,-3.906,0.000,0
109720.035,-1.465,-28.320,-71.289,5.859,0.000,0
109720.039,-3.906,-24.902,-69.824,16.602,0.000,0
109720.043,-3.418,-11.719,-88.867,13.672,0.000,0
109720.047,1.953,-21.484,-69.824,9.766,0.000,0
109720.051,9.277,-24.902,-54.688,7.324,0.000,0
109720.055,13.672,-13.184,-59.570,1.465,0.000,0
109720.059,9.766,-20.020,-50.781,-1.953,0.000,0
109720.063,1.953,-25.391,-86.426,4.395,0.000,0
109720.066,-3.418,-27.832,-96.680,-6.836,0.000,0
109720.070,5.371,-26.855,-52.734,-13.184,0.000,0
109720.074,18.555,-15.625,-53.711,4.883,0.000,0
109720.078,16.113,-14.160,-85.938,7.812,0.000,0
109720.082,8.301,-14.160,-92.773,7.324,0.000,0
109720.086,5.371,-10.254,-62.012,3.906,0.000,0
109720.090,0.977,-12.207,-38.086,1.953,0.000,0
109720.094,-1.953,-9.766,-69.336,7.812,0.000,0
109720.098,-10.254,-8.789,-99.609,4.883,0.000,0
109720.102,-19.043,-16.602,-86.914,9.766,0.000,0
109720.105,-16.113,-23.438,-48.340,6.348,0.000,0
109720.109,-13.184,-20.020,-52.734,7.324,0.000,0
109720.113,-17.578,-9.766,-102.539,16.113,0.000,0
109720.117,-16.602,-9.766,-89.844,11.719,0.000,0
109720.121,-7.812,-5.371,-52.246,11.719,0.000,0
109720.125,-0.977,-17.090,-57.617,13.184,0.000,0
109720.129,-0.488,-21.973,-90.820,10.742,0.000,0
109720.133,-7.812,-9.766,-82.520,10.254,0.000,0
109720.137,-4.395,-15.137,-59.082,19.043,0.000,0
109720.141,2.441,-7.812,-78.125,16.113,0.000,0
109720.145,3.906,-4.883,-93.262,6.836,0.000,0
109720.148,8.301,-3.906,-77.148,4.883,0.000,0
109720.152,10.254,3.418,-61.035,0.977,0.000,0
109720.156,-4.395,-5.371,-71.777,-4.395,0.000,0
109720.160,-12.695,-10.742,-92.285,-4.883,0.000,0
109720.164,-11.719,-12.695,-84.961,-5.859,0.000,0
109720.168,-7.324,-11.719,-62.988,-13.184,0.000,0
109720.172,0.977,-3.418,-59.082,0.488,0.000,0
109720.176,6.348,-5.859,-82.520,16.602,0.000,0
109720.180,-5.371,-15.625,-95.215,11.719,0.000,0
109720.184,-21.973,-19.531,-72.754,1.465,0.000,0
109720.188,-15.137,-18.066,-62.500,-0.977,0.000,0
109720.191,-13.184,-16.602,-100.098,1.465,0.000,0
109720.195,-14.648,-16.113,-109.863,8.301,0.000,0
109720.199,-7.812,-11.230,-84.961,13.672,0.000,0
109720.203,-5.371,-25.879,-56.152,5.859,0.000,0
109720.207,-13.184,-28.320,-69.336,0.000,0.000,0
109720.211,-14.160,-15.625,-112.305,5.371,0.000,0
109720.215,-1.953,-18.066,-104.492,15.625,0.000,0
109720.219,3.418,-13.184,-80.566,20.508,0.000,0
109720.223,-3.906,-22.461,-66.406,10.254,0.000,0
109720.227,0.000,-37.598,-67.871,2.930,0.000,0
109720.230,5.371,-18.555,-107.422,11.719,0.000,0
109720.234,-2.930,-12.207,-88.379,12.695,0.000,0
109720.238,2.930,-17.578,-60.059,14.160,0.000,0
109720.242,6.836,-20.996,-80.078,11.230,0.000,0
109720.246,-1.953,-31.250,-92.285,2.930,0.000,0
109720.250,0.488,-28.809,-79.102,6.348,0.000,0
109720.254,9.766,-25.879,-58.594,9.766,0.000,0
109720.258,9.277,-23.438,-70.801,8.301,0.000,0
109720.262,5.371,-22.461,-85.938,-2.441,0.000,0
109720.266,5.371,-26.855,-64.453,-12.207,0.000,0
109720.270,6.836,-18.066,-48.340,-4.883,0.000,0
109720.273,4.395,-15.625,-76.660,-4.395,0.000,0
109720.277,-2.930,-17.578,-112.793,-3.418,0.000,0
109720.281,-2.930,-18.066,-88.867,1.465,0.000,0
109720.285,-9.766,-21.973,-25.391,0.977,0.000,0
109720.289,-14.648,-15.137,-50.781,6.836,0.000,0
109720.293,-12.207,-11.230,-89.844,10.254,0.000,0
109720.297,-18.066,-15.625,-86.914,10.254,0.000,0
109720.301,-17.090,-20.020,-61.035,12.695,0.000,0
109720.305,-10.254,-25.879,-37.598,7.324,0.000,0
109720.309,-16.113,-19.043,-75.195,5.371,0.000,0
109720.313,-24.414,-16.602,-110.840,8.301,0.000,0
109720.316,-12.207,-18.555,-87.891,9.277,0.000,0
109720.320,1.953,-11.230,-63.965,5.371,0.000,0
109720.324,-3.418,-18.555,-74.707,9.766,0.000,0
109720.328,-5.859,-24.902,-87.402,7.812,0.000,1
109720.332,11.230,-13.184,-72.754,12.695,0.000,0
109720.336,20.996,-4.883,-57.617,15.625,0.000,0
109720.340,21.973,-10.742,-61.523,5.859,0.000,0
109720.344,22.461,-16.113,-66.895,0.000,0.000,0
109720.348,27.832,-3.418,-76.172,-0.488,0.000,0
109720.352,31.250,3.906,-67.871,10.742,0.000,0
109720.355,29.785,-0.488,-54.688,11.230,0.000,0
109720.359,24.902,-5.371,-76.172,5.859,0.000,0
109720.363,28.320,-9.766,-84.473,1.953,0.000,0
109720.367,24.902,-9.277,-66.406,-5.371,0.000,0
109720.371,21.973,-2.930,-53.223,-0.977,0.000,0
109720.375,26.855,-5.371,-59.570,17.090,0.000,0
109720.379,30.273,-10.742,-88.867,20.508,0.000,0
109720.383,32.715,-18.555,-67.871,8.301,0.000,0
109720.387,19.043,-14.160,-45.410,8.301,0.000,0
109720.391,10.254,-9.277,-73.242,14.648,0.000,0
109720.395,13.184,-13.184,-101.562,19.043,0.000,0
109720.398,2.441,-13.672,-95.215,8.789,0.000,0
109720.402,1.465,-22.949,-50.781,-6.836,0.000,0
109720.406,5.371,-22.949,-52.246,-1.465,0.000,0
109720.410,-1.465,-12.695,-77.148,13.184,0.000,0
109720.414,-1.953,-5.371,-76.172,21.973,0.000,0
109720.418,1.953,2.930,-62.012,19.531,0.000,0
109720.422,5.371,-5.371,-44.922,9.277,0.000,0
109720.426,0.977,-8.789,-77.148,12.207,0.000,0
109720.430,-2.441,-14.648,-102.051,4.395,0.000,0
109720.434,4.883,-13.672,-68.359,0.000,0.000,0
109720.438,8.789,0.488,-48.828,6.836,0.000,0
109720.441,15.625,-4.883,-73.242,-4.883,0.000,0
109720.445,16.602,-8.301,-84.961,-8.789,0.000,0
109720.449,13.672,-6.836,-62.988,-3.418,0.000,0
109720.453,10.742,-6.836,-47.363,-7.324,0.000,0
109720.457,7.324,-4.395,-58.105,0.000,0.000,0
109720.461,2.441,-5.371,-81.543,0.000,0.000,0
109720.465,0.977,-10.742,-69.824,-8.301,0.000,0
109720.469,6.348,-7.812,-55.664,-7.324,0.000,0
109720.473,4.395,-10.254,-65.430,-5.371,0.000,0
109720.477,-11.719,-21.973,-85.449,-12.207,0.000,0
109720.480,-13.672,-20.020,-81.543,-12.695,0.000,0
109720.484,-0.488,-12.695,-54.199,-5.371,0.000,0
109720.488,-4.883,-9.277,-63.965,-4.883,0.000,0
109720.492,-19.043,-17.578,-94.238,3.418,0.000,0
109720.496,-23.926,-21.484,-95.703,7.812,0.000,0
109720.500,-19.043,-14.160,-58.594,8.301,0.000,0
109720.504,-19.043,-17.578,-33.203,4.883,0.000,0
109720.508,-27.832,-18.555,-61.523,7.812,0.000,0
109720.512,-26.855,-16.113,-76.660,8.301,0.000,0
109720.516,-20.020,-19.531,-76.172,5.371,0.000,0
109720.520,-16.602,-22.461,-56.641,10.742,0.000,0
109720.523,-10.742,-17.090,-49.316,8.789,0.000,0
109720.527,-0.488,-15.137,-89.355,10.254,0.000,0
109720.531,-0.977,-23.438,-84.961,6.348,0.000,0
109720.535,-0.488,-16.113,-58.105,5.859,0.000,0
109720.539,13.672,-14.160,-57.129,16.113,0.000,0
109720.543,7.812,-14.648,-68.848,14.160,0.000,0
109720.547,-3.906,-10.254,-88.379,14.648,0.000,0
109720.551,0.977,-18.555,-64.453,7.324,0.000,0
109720.555,8.789,-18.066,-42.480,15.137,0.000,0
109720.559,2.441,-21.484,-75.195,11.719,0.000,0
109720.563,10.254,-18.555,-92.285,-3.906,0.000,0
109720.566,21.973,-11.719,-70.312,13.672,0.000,0
109720.570,10.254,-16.602,-53.711,17.090,0.000,0
109720.574,4.883,-15.137,-75.684,7.812,0.000,0
109720.578,2.441,-20.020,-91.797,8.301,0.000,0
109720.582,-1.953,-27.344,-70.801,-0.977,0.000,0
109720.586,5.371,-18.555,-50.293,1.953,0.000,0
109720.590,12.695,-12.695,-51.270,15.625,0.000,0
109720.594,5.371,-7.324,-80.566,20.508,0.000,0
109720.598,-4.395,-9.766,-73.730,6.836,0.000,0
109720.602,-8.301,-20.508,-38.574,-4.395,0.000,0
109720.605,-2.930,-6.348,-64.453,0.488,0.000,0
109720.609,0.488,0.977,-102.051,-0.488,0.000,0
109720.613,-4.883,-10.742,-97.656,-6.836,0.000,0
109720.617,1.953,-9.766,-56.152,1.953,0.000,0
109720.621,6.836,-9.277,-35.156,-5.859,0.000,0
109720.625,-4.883,-7.324,-67.383,-7.812,0.000,0
109720.629,-9.277,-12.207,-88.379,5.859,0.000,0
109720.633,-3.418,-16.113,-71.777,3.418,0.000,0
109720.637,4.883,-10.742,-52.734,-7.324,0.000,0
109720.641,9.277,-9.277,-66.406,-5.859,0.000,0
109720.645,-2.930,-6.836,-95.703,0.977,0.000,0
109720.648,-8.301,-10.254,-93.262,-4.395,0.000,0
109720.652,-2.930,-11.230,-72.266,-4.883,0.000,0
109720.656,0.977,-13.672,-65.918,-4.395,0.000,0
109720.660,-3.906,-26.855,-68.848,-10.254,0.000,0
109720.664,-4.395,-18.066,-88.867,-6.836,0.000,0
109720.668,3.418,-9.766,-80.078,5.859,0.000,0
109720.672,8.789,-13.672,-63.477,12.207,0.000,0
109720.676,8.301,-22.949,-74.707,10.742,0.000,0
109720.680,12.207,-25.879,-74.219,-2.441,0.000,0
109720.684,22.461,-9.766,-60.547,6.836,0.000,0
109720.688,19.531,-3.418,-48.828,8.301,0.000,0
109720.691,14.648,-6.836,-69.336,4.883,0.000,0
109720.695,6.348,-6.348,-102.051,5.859,0.000,0
109720.699,0.488,-10.254,-78.613,-4.883,0.000,0
109720.703,5.371,-7.812,-44.434,2.930,0.000,0
109720.707,1.465,-9.277,-58.594,11.719,0.000,0
109720.711,2.930,-8.789,-89.844,6.836,0.000,0
109720.715,5.371,-10.254,-80.566,6.836,0.000,0
109720.719,1.465,-19.043,-44.434,1.953,0.000,0
109720.723,1.465,-7.812,-54.688,2.930,0.000,0
109720.727,2.930,4.395,-98.145,5.859,0.000,0
109720.730,-0.977,1.465,-103.516,11.719,0.000,0
109720.734,5.859,-10.254,-62.988,11.719,0.000,0
109720.738,0.977,-17.578,-58.594,4.395,0.000,0
109720.742,-6.836,-12.207,-96.191,17.090,0.000,0
109720.746,4.395,-12.207,-84.473,14.648,0.000,0
109720.750,6.836,-12.207,-60.059,7.812,0.000,0
109720.754,5.859,-11.719,-67.871,15.137,0.000,0
109720.758,-0.488,-7.324,-82.031,10.254,0.000,0
109720.762,-1.953,-0.488,-84.961,9.766,0.000,0
109720.766,-1.465,-4.395,-57.129,15.625,0.000,0
109720.770,2.441,0.977,-46.387,19.043,0.000,0
109720.773,8.301,-0.488,-73.242,16.602,0.000,0
109720.777,0.488,-7.324,-79.590,8.301,0.000,0
109720.781,-2.930,1.953,-69.336,10.254,0.000,0
109720.785,8.789,3.906,-54.199,14.160,0.000,0
109720.789,4.883,-1.953,-71.289,7.324,0.000,0
109720.793,-0.977,-8.789,-85.449,4.883,0.000,0
109720.797,-1.465,-8.301,-64.941,2.930,0.000,0
109720.801,0.488,0.488,-55.664,-1.953,0.000,0
109720.805,7.324,-1.465,-57.129,7.812,0.000,0
109720.809,4.395,-5.371,-82.520,15.625,0.000,0
109720.813,-7.812,-9.766,-89.844,2.930,0.000,0
109720.816,-2.930,-8.789,-57.617,1.465,0.000,0
109720.820,-0.488,-7.324,-47.363,13.184,0.000,0
109720.824,-7.812,-15.137,-79.102,1.953,0.000,0
109720.828,-6.836,-16.113,-85.938,-6.348,0.000,0
109720.832,-12.695,-9.277,-55.664,-1.465,0.000,0
109720.836,-6.836,-6.836,-39.551,-0.488,0.000,0
109720.840,-5.371,-17.090,-52.246,-6.836,0.000,0
109720.844,-14.160,-12.207,-96.680,-4.395,0.000,0
109720.848,-7.324,-2.930,-91.797,1.465,0.000,0
109720.852,3.418,-7.812,-45.410,3.906,0.000,0
109720.855,7.324,-7.324,-57.617,0.488,0.000,0
109720.859,4.883,-4.883,-88.867,-1.953,0.000,0
109720.863,2.930,-11.230,-81.543,1.465,0.000,0
109720.867,6.348,-14.648,-54.688,6.836,0.000,0
109720.871,20.996,-5.371,-59.570,14.160,0.000,0
109720.875,25.391,-5.371,-78.613,10.254,0.000,0
109720.879,25.879,-5.859,-78.613,19.043,0.000,0
109720.883,25.879,-9.277,-55.176,26.367,0.000,0
109720.887,18.555,-8.301,-54.199,16.602,0.000,0
109720.891,19.043,-3.418,-84.473,20.508,0.000,0
109720.895,14.160,-9.766,-80.566,20.996,0.000,0
109720.898,13.184,-7.324,-56.152,13.672,0.000,0
109720.902,19.043,1.465,-47.852,20.508,0.000,0
109720.906,13.672,0.977,-79.590,27.832,0.000,0
109720.910,18.555,-3.418,-94.727,27.344,0.000,0
109720.914,25.879,-9.766,-53.711,21.484,0.000,2
109720.918,15.625,-2.930,-38.086,23.438,0.000,0
109720.922,15.137,-3.906,-62.012,30.273,0.000,0
109720.926,12.695,-10.742,-86.914,25.879,0.000,0
109720.930,4.883,-7.812,-84.473,10.254,0.000,0
109720.934,13.184,-9.766,-54.199,0.488,0.000,0
109720.938,14.160,-2.441,-54.688,1.953,0.000,0
109720.941,6.348,-5.371,-65.918,8.789,0.000,0
109720.945,6.348,-3.906,-81.543,19.043,0.000,0
109720.949,7.324,5.371,-83.008,24.902,0.000,0
109720.953,12.207,-8.789,-52.734,14.160,0.000,0
109720.957,7.324,-10.742,-62.500,13.184,0.000,0
109720.961,-4.883,-0.488,-95.703,18.555,0.000,0
109720.965,2.441,-0.488,-82.520,17.090,0.000,0
109720.969,2.930,-8.301,-59.082,15.625,0.000,0
109720.973,-2.441,-22.949,-47.363,9.766,0.000,0
109720.977,2.930,-14.648,-78.613,4.883,0.000,0
109720.980,16.602,2.930,-95.215,11.719,0.000,0
109720.984,22.949,1.465,-57.129,16.113,0.000,0
109720.988,13.184,-0.488,-51.758,19.531,0.000,0
109720.992,11.719,-8.301,-73.242,16.602,0.000,0
109720.996,18.555,-5.859,-75.684,18.555,0.000,0
109721.000,16.113,-0.977,-56.152,15.625,0.000,0
109721.004,17.090,-5.371,-46.387,10.254,0.000,0
109721.008,20.996,1.953,-77.148,23.926,0.000,0
109721.012,12.695,-9.766,-81.055,9.766,0.000,0
109721.016,7.812,-12.207,-43.945,0.977,0.000,0
109721.020,12.207,-0.488,-38.086,19.531,0.000,0
109721.023,15.625,-3.906,-72.266,24.902,0.000,0
109721.027,5.859,-5.371,-106.934,19.043,0.000,0
109721.031,1.953,-23.926,-59.082,14.648,0.000,0
109721.035,8.301,-25.879,-16.602,12.207,0.000,0
109721.039,12.207,-8.301,-66.406,14.160,0.000,0
109721.043,7.812,-25.879,-81.055,2.441,0.000,0
109721.047,3.906,-22.949,-70.801,10.742,0.000,0
109721.051,3.906,-13.184,-51.270,13.184,0.000,0
109721.055,3.906,-19.531,-46.387,-4.883,0.000,0
109721.059,2.441,-11.230,-75.684,5.371,0.000,0
109721.063,0.977,-16.602,-75.195,7.812,0.000,0
109721.066,3.906,-11.719,-54.199,6.836,0.000,0
109721.070,4.883,1.953,-49.805,0.000,0.000,0
109721.074,5.371,-5.371,-71.777,-5.371,0.000,0
109721.078,4.883,-5.371,-75.684,-1.465,0.000,0
109721.082,6.836,0.488,-55.176,-2.441,0.000,0
109721.086,2.930,-1.953,-58.105,2.441,0.000,0
109721.090,2.930,-3.418,-69.336,-0.488,0.000,0
109721.094,4.395,-3.418,-72.754,-3.418,0.000,0
109721.098,1.953,4.395,-68.848,-0.488,0.000,0
109721.102,4.395,8.301,-51.758,-0.488,0.000,0
109721.105,7.812,2.930,-59.082,3.906,0.000,0
109721.109,-0.977,-7.324,-87.402,-0.488,0.000,0
109721.113,0.000,-0.488,-75.684,-5.859,0.000,0
109721.117,8.789,9.277,-52.246,1.953,0.000,0
109721.121,2.441,-3.906,-61.035,4.883,0.000,0
109721.125,5.371,-10.254,-84.473,7.324,0.000,0
109721.129,15.137,-5.859,-93.750,6.836,0.000,0
109721.133,21.484,-4.395,-56.152,6.836,0.000,0
109721.137,22.949,1.953,-52.246,7.324,0.000,0
109721.141,9.277,0.000,-92.285,2.930,0.000,0
109721.145,2.441,-10.254,-89.355,-4.883,0.000,0
109721.148,5.859,-8.301,-63.477,-1.953,0.000,0
109721.152,7.812,0.977,-56.641,3.906,0.000,0
109721.156,1.953,0.488,-70.312,-3.418,0.000,0
109721.160,-7.324,-4.395,-94.238,1.465,0.000,0
109721.164,-7.812,-2.441,-90.332,6.348,0.000,0
109721.168,-2.930,-0.488,-60.547,-1.953,0.000,0
109721.172,4.883,-6.836,-58.594,0.000,0.000,0
109721.176,6.836,-9.766,-100.098,-2.441,0.000,0
109721.180,6.348,-8.789,-92.285,-3.418,0.000,0
109721.184,-0.977,-8.789,-59.082,-4.883,0.000,0
109721.188,-9.766,-14.648,-71.289,-1.953,0.000,0
109721.191,-15.625,-17.090,-86.426,-8.301,0.000,0
109721.195,-12.695,-9.766,-80.566,-2.930,0.000,0
109721.199,0.488,-5.859,-58.594,9.277,0.000,0
109721.203,-2.930,-9.766,-53.223,3.418,0.000,0
109721.207,-3.418,-8.789,-80.078,2.930,0.000,0
109721.211,-1.465,-10.254,-76.660,-3.418,0.000,0
109721.215,-2.441,-5.371,-57.129,-4.883,0.000,0
109721.219,8.301,-0.488,-58.105,3.906,0.000,0
109721.223,5.371,-1.953,-69.336,15.137,0.000,0
109721.227,2.441,-2.441,-83.984,11.719,0.000,0
109721.230,8.789,-9.766,-71.289,-1.953,0.000,0
109721.234,11.719,-9.766,-55.664,1.953,0.000,0
109721.238,17.578,-9.277,-69.824,10.254,0.000,0
109721.242,17.090,-9.766,-91.797,10.742,0.000,0
109721.246,19.043,-7.812,-75.195,10.254,0.000,0
109721.250,11.230,-12.695,-37.109,8.789,0.000,0
109721.254,0.977,-11.230,-51.270,11.230,0.000,0
109721.258,1.953,-10.254,-73.730,16.602,0.000,0
109721.262,-1.465,-11.719,-79.590,16.602,0.000,0
109721.266,2.441,-12.207,-68.848,14.160,0.000,0
109721.270,9.277,-18.066,-36.621,12.695,0.000,0
109721.273,5.371,-7.324,-59.570,16.113,0.000,0
109721.277,0.488,-0.488,-100.098,20.508,0.000,0
109721.281,-1.465,-2.930,-82.031,12.695,0.000,0
109721.285,-3.906,-3.906,-47.852,13.184,0.000,0
109721.289,-7.324,-17.090,-41.504,17.578,0.000,0
109721.293,-14.160,-13.184,-74.219,12.207,0.000,0
109721.297,-8.301,-6.348,-74.707,12.207,0.000,0
109721.301,-5.859,-11.719,-43.945,17.578,0.000,0
109721.305,-10.254,-13.184,-57.617,13.184,0.000,0
109721.309,-3.418,-16.602,-73.242,5.859,0.000,0
109721.313,-2.441,-10.742,-65.918,12.695,0.000,0
109721.316,-7.324,-8.789,-55.664,21.973,0.000,0
109721.320,7.324,-16.113,-46.387,16.113,0.000,0
109721.324,9.277,-8.301,-73.730,16.113,0.000,0
109721.328,-0.977,-13.184,-71.289,13.672,0.000,0
109721.332,7.812,-15.137,-35.645,17.090,0.000,0
109721.336,8.301,-3.906,-41.504,25.879,0.000,0
109721.340,-1.465,-11.719,-73.242,31.738,0.000,0
109721.344,-5.371,-20.508,-92.285,28.809,0.000,0
109721.348,-2.930,-21.973,-59.082,9.277,0.000,0
109721.352,4.395,-21.973,-34.180,4.395,0.000,0
109721.355,9.277,-13.184,-74.219,16.113,0.000,0
109721.359,4.395,-16.113,-98.145,7.324,0.000,0
109721.363,12.695,-20.020,-75.195,14.160,0.000,0
109721.367,22.949,-20.508,-43.457,19.531,0.000,0
109721.371,18.066,-21.484,-42.969,7.812,0.000,0
109721.375,16.602,-14.648,-79.590,17.090,0.000,0
109721.379,11.719,-15.137,-86.914,20.020,0.000,0
109721.383,14.648,-12.695,-60.547,18.555,0.000,0
109721.387,14.160,-15.137,-41.992,9.766,0.000,0
109721.391,3.906,-16.113,-55.664,0.000,0.000,0
109721.395,0.977,-3.418,-77.148,1.465,0.000,0
109721.398,5.859,0.977,-65.430,9.766,0.000,0
109721.402,13.184,0.488,-57.617,24.902,0.000,0
109721.406,3.418,-12.695,-56.152,20.508,0.000,0
109721.410,-2.930,-20.020,-62.988,12.695,0.000,0
109721.414,-0.977,-8.789,-79.102,10.254,0.000,0
109721.418,0.000,-7.324,-55.176,11.719,0.000,0
109721.422,0.488,-5.859,-55.176,19.531,0.000,0
109721.426,5.859,-8.789,-81.055,15.625,0.000,0
109721.430,-1.953,-12.695,-75.195,-4.883,0.000,0
109721.434,-10.742,-6.836,-64.453,-8.789,0.000,0
109721.438,-0.488,-6.836,-66.895,9.277,0.000,0
109721.441,1.953,-9.277,-87.891,20.020,0.000,0
109721.445,0.977,-7.324,-104.492,12.695,0.000,0
109721.449,8.789,-9.766,-71.289,9.277,0.000,0
109721.453,6.836,-19.043,-46.387,15.137,0.000,0
109721.457,6.836,-16.602,-80.078,14.648,0.000,0
109721.461,14.648,-12.695,-104.004,11.230,0.000,0
109721.465,8.789,-22.461,-71.777,6.836,0.000,0
109721.469,7.812,-27.344,-48.828,1.465,0.000,0
109721.473,16.113,-13.672,-70.801,7.812,0.000,0
109721.477,15.625,-12.695,-94.238,14.648,0.000,0
109721.480,5.859,-18.066,-81.543,20.996,0.000,0
109721.484,1.465,-22.949,-55.664,19.531,0.000,0
109721.488,-1.953,-28.809,-72.754,1.953,0.000,0
109721.492,-2.441,-19.531,-95.703,7.812,0.000,0
109721.496,-1.953,-23.438,-65.430,13.672,0.000,0
109721.500,-2.930,-24.414,-49.805,11.719,0.000,0
109721.504,-9.277,-23.926,-74.219,7.324,0.000,0
109721.508,-12.695,-22.949,-84.961,9.766,0.000,0
109721.512,-10.742,-19.043,-73.730,8.789,0.000,0
109721.516,-8.301,-19.531,-58.594,0.488,0.000,0
109721.520,2.930,-18.555,-60.059,2.441,0.000,0
109721.523,2.930,-17.578,-76.172,-0.977,0.000,0
109721.527,1.465,-17.578,-78.125,-9.277,0.000,0
109721.531,1.465,-17.578,-62.500,-5.371,0.000,1
109721.535,-9.766,-17.578,-61.523,0.000,0.000,0
109721.539,-13.184,-16.113,-86.914,12.695,0.000,0
109721.543,-4.883,-19.043,-81.543,13.184,0.000,0
109721.547,-6.836,-21.484,-64.941,-4.395,0.000,0
109721.551,-5.371,-17.090,-64.453,-0.488,0.000,0
109721.555,0.977,-15.137,-80.078,3.418,0.000,0
109721.559,3.418,-9.277,-95.215,4.395,0.000,0
109721.563,1.953,-12.207,-72.266,0.000,0.000,0
109721.566,6.348,-17.090,-44.434,1.465,0.000,0
109721.570,7.812,-10.742,-59.082,8.301,0.000,0
109721.574,-4.395,-9.277,-89.355,2.441,0.000,0
109721.578,-11.230,-10.254,-85.938,2.930,0.000,0
109721.582,-7.324,-8.789,-56.152,6.348,0.000,0
109721.586,0.488,-8.301,-41.016,2.930,0.000,0
109721.590,5.859,1.953,-78.613,9.766,0.000,0
109721.594,9.277,3.418,-96.680,17.578,0.000,0
109721.598,11.230,3.906,-54.199,31.250,0.000,0
109721.602,4.883,-1.953,-35.645,20.508,0.000,0
109721.605,-1.465,-12.695,-63.965,6.348,0.000,0
109721.609,-0.977,-11.230,-89.844,12.695,0.000,0
109721.613,-3.906,-6.836,-78.613,5.371,0.000,0
109721.617,9.277,1.465,-54.688,12.695,0.000,0
109721.621,9.766,-1.465,-68.848,1.465,0.000,0
109721.625,-7.812,-13.672,-86.426,-10.254,0.000,0
109721.629,-9.277,-8.301,-77.148,-0.977,0.000,0
109721.633,-4.395,-12.207,-53.223,-1.953,0.000,0
109721.637,2.441,-9.277,-66.406,2.441,0.000,0
109721.641,3.906,-7.324,-88.379,-2.930,0.000,0
109721.645,10.742,-13.672,-64.941,-10.742,0.000,0
109721.648,15.625,-0.977,-46.875,1.953,0.000,0
109721.652,8.789,-10.254,-63.477,3.418,0.000,0
109721.656,-4.395,-19.531,-91.797,-1.953,0.000,0
109721.660,-7.324,-9.766,-98.145,-1.465,0.000,0
109721.664,5.859,-11.719,-53.223,-1.953,0.000,0
109721.668,-1.953,0.977,-47.852,7.324,0.000,0
109721.672,-11.230,4.883,-87.891,10.254,0.000,0
109721.676,6.348,-1.465,-88.379,9.766,0.000,0
109721.680,14.160,-2.930,-80.078,13.672,0.000,0
109721.684,4.395,-9.277,-65.430,0.977,0.000,0
109721.688,3.418,-12.207,-78.613,7.324,0.000,0
109721.691,-2.441,-18.555,-89.844,21.484,0.000,0
109721.695,-0.488,-15.137,-78.613,14.648,0.000,0
109721.699,1.465,-12.207,-59.570,9.766,0.000,0
109721.703,3.418,-13.672,-43.945,11.719,0.000,0
109721.707,9.277,-1.465,-70.801,18.555,0.000,0
109721.711,14.648,5.371,-81.543,8.789,0.000,0
109721.715,12.695,1.953,-58.105,8.789,0.000,0
109721.719,1.953,5.371,-61.035,15.625,0.000,0
109721.723,-7.324,-3.906,-92.285,6.348,0.000,0
109721.727,-4.395,-7.812,-84.961,15.137,0.000,0
109721.730,5.859,-0.488,-56.152,16.602,0.000,0
109721.734,2.441,-3.418,-59.082,9.766,0.000,0
109721.738,-3.906,-16.113,-82.520,3.906,0.000,0
109721.742,-1.465,-16.113,-78.125,-3.418,0.000,0
109721.746,2.930,-9.277,-52.246,-3.418,0.000,0
109721.750,6.348,-8.301,-53.711,-4.883,0.000,0
109721.754,2.930,-8.301,-73.242,-0.488,0.000,0
109721.758,2.441,-5.859,-89.844,1.465,0.000,0
109721.762,12.695,-9.277,-68.359,0.977,0.000,0
109721.766,2.930,-17.578,-48.340,11.230,0.000,0
109721.770,-8.789,-17.090,-70.312,13.184,0.000,0
109721.773,-3.418,-10.254,-92.773,9.766,0.000,0
109721.777,3.906,-12.207,-62.988,8.789,0.000,0
109721.781,4.395,-19.531,-20.508,6.836,0.000,0
109721.785,2.930,-9.766,-58.105,2.441,0.000,0
109721.789,2.441,-8.301,-97.656,2.441,0.000,0
109721.793,2.930,-13.184,-76.172,4.395,0.000,0
109721.797,8.789,-9.277,-44.434,7.812,0.000,0
109721.801,11.230,-7.324,-51.270,5.371,0.000,0
109721.805,6.836,-4.395,-76.172,6.836,0.000,0
109721.809,8.789,-1.953,-77.148,12.695,0.000,0
109721.813,0.977,-7.324,-53.711,4.395,0.000,0
109721.816,-5.859,-13.672,-46.387,9.277,0.000,0
109721.820,-2.930,-15.137,-75.684,12.695,0.000,0
109721.824,1.465,-12.695,-71.289,9.277,0.000,0
109721.828,4.883,-19.043,-48.828,14.160,0.000,0
109721.832,7.812,-22.949,-52.734,14.648,0.000,0
109721.836,5.859,-20.020,-65.430,16.602,0.000,0
109721.840,5.371,-16.113,-70.801,13.672,0.000,0
109721.844,10.254,-12.207,-61.035,11.230,0.000,0
109721.848,17.578,-10.742,-52.734,12.695,0.000,0
109721.852,15.625,-12.207,-54.688,19.043,0.000,0
109721.855,5.371,-20.020,-63.965,16.113,0.000,0
109721.859,8.789,-16.113,-59.082,12.207,0.000,0
109721.863,8.789,-3.906,-45.410,10.742,0.000,0
109721.867,-1.953,-9.766,-46.875,9.277,0.000,0
109721.871,-3.418,-13.672,-74.707,4.883,0.000,0
109721.875,4.395,-6.348,-84.961,-0.977,0.000,0
109721.879,10.742,-6.836,-51.758,3.418,0.000,0
109721.883,11.230,-0.488,-41.992,0.000,0.000,0
109721.887,12.207,6.836,-67.871,-5.859,0.000,0
109721.891,16.113,2.441,-87.891,3.906,0.000,0
109721.895,17.090,1.465,-72.266,2.441,0.000,0
109721.898,19.531,-1.953,-35.645,-11.719,0.000,0
109721.902,25.391,4.395,-54.199,0.977,0.000,0
109721.906,22.461,10.254,-89.355,9.766,0.000,0
109721.910,20.996,9.766,-73.730,6.348,0.000,0
109721.914,23.926,9.766,-42.480,9.766,0.000,0
109721.918,17.090,-2.441,-45.410,1.465,0.000,0
109721.922,19.531,-5.859,-81.055,-7.324,0.000,0
109721.926,21.484,0.488,-79.590,-7.812,0.000,0
109721.930,20.020,3.418,-38.086,0.488,0.000,0
109721.934,19.531,5.371,-45.898,6.836,0.000,0
109721.938,15.625,-3.418,-70.312,-6.348,0.000,0
109721.941,19.531,6.348,-64.941,0.977,0.000,0
109721.945,26.367,20.996,-43.945,16.602,0.000,0
109721.949,17.090,10.254,-43.945,2.441,0.000,0
109721.953,5.859,2.930,-71.289,0.000,0.000,0
109721.957,3.418,-1.953,-64.941,0.488,0.000,0
109721.961,6.348,-1.465,-41.992,-2.441,0.000,0
109721.965,11.719,3.418,-44.434,-1.953,0.000,0
109721.969,16.602,5.371,-68.359,-1.953,0.000,0
109721.973,10.254,7.324,-84.473,4.395,0.000,0
109721.977,5.371,-1.953,-53.711,0.000,0.000,0
109721.980,10.742,-2.441,-39.551,-4.883,0.000,0
109721.984,10.742,0.977,-64.941,-2.441,0.000,0
109721.988,11.230,-4.883,-79.590,-3.906,0.000,0
109721.992,11.230,-2.930,-76.172,3.418,0.000,0
109721.996,7.812,-11.230,-45.898,-0.977,0.000,0
109722.000,-0.977,-13.184,-39.551,-5.371,0.000,0
109722.004,-2.441,-6.348,-74.219,13.672,0.000,0
109722.008,-1.465,-11.230,-95.703,13.184,0.000,0
109722.012,1.953,-7.812,-81.055,7.812,0.000,0
109722.016,6.348,-15.625,-44.922,4.395,0.000,0
109722.020,8.301,-25.879,-48.828,1.465,0.000,0
109722.023,20.996,-14.648,-82.520,5.371,0.000,0
109722.027,17.578,-6.836,-66.895,-5.859,0.000,0
109722.031,18.555,-2.441,-40.039,7.324,0.000,0
109722.035,6.348,-7.324,-47.363,6.348,0.000,0
109722.039,-5.859,-11.230,-74.707,-7.324,0.000,0
109722.043,5.371,-5.371,-82.031,4.883,0.000,0
109722.047,3.418,-8.301,-53.711,-0.488,0.000,0
109722.051,2.441,-7.812,-57.617,-1.953,0.000,0
109722.055,5.859,-3.906,-78.613,3.418,0.000,0
109722.059,2.930,1.953,-78.125,-1.465,0.000,0
109722.063,6.348,1.465,-46.875,4.883,0.000,0
109722.066,10.254,-5.371,-28.320,18.066,0.000,0
109722.070,5.371,1.465,-88.867,20.996,0.000,0
109722.074,-1.465,-5.859,-99.609,18.555,0.000,0
109722.078,5.859,-14.160,-49.805,19.531,0.000,0
109722.082,16.113,-9.766,-39.551,25.391,0.000,0
109722.086,9.766,-9.766,-74.219,20.996,0.000,0
109722.090,5.859,-10.742,-95.215,7.324,0.000,0
109722.094,5.859,-13.184,-68.359,8.301,0.000,0
109722.098,12.695,-9.766,-34.180,10.254,0.000,0
109722.102,16.602,3.418,-48.340,6.348,0.000,0
109722.105,8.789,7.324,-88.379,5.859,0.000,1
109722.109,4.883,-2.930,-74.219,14.648,0.000,0
109722.113,12.207,-9.277,-36.133,15.137,0.000,0
109722.117,14.648,-2.441,-48.340,9.766,0.000,0
109722.121,11.230,-0.488,-82.520,14.648,0.000,0
109722.125,2.441,-7.812,-76.172,3.418,0.000,0
109722.129,5.371,-5.371,-46.875,6.348,0.000,0
109722.133,8.301,-1.953,-41.992,14.160,0.000,0
109722.137,3.906,-3.906,-59.570,8.789,0.000,0
109722.141,11.230,-5.859,-74.219,13.184,0.000,0
109722.145,5.371,-8.789,-56.641,17.090,0.000,0
109722.148,3.418,-4.883,-47.852,20.996,0.000,0
109722.152,9.277,-11.230,-62.500,24.414,0.000,0
109722.156,3.418,-20.508,-67.871,16.602,0.000,0
109722.160,-3.906,-11.230,-71.777,6.348,0.000,0
109722.164,-3.418,-9.277,-55.664,7.812,0.000,0
109722.168,3.418,-11.230,-50.293,21.484,0.000,0
109722.172,0.000,-10.254,-83.984,22.461,0.000,0
109722.176,-6.836,-12.207,-91.797,8.301,0.000,0
109722.180,1.465,-12.207,-61.035,5.371,0.000,0
109722.184,7.324,-6.836,-62.012,8.301,0.000,0
109722.188,-0.977,-4.395,-82.520,9.277,0.000,0
109722.191,-9.766,-10.254,-81.543,6.836,0.000,0
109722.195,-10.254,-10.254,-59.570,11.230,0.000,0
109722.199,-7.324,-10.254,-32.715,8.789,0.000,0
109722.203,-6.348,-9.766,-61.523,13.672,0.000,0
109722.207,-2.441,-2.930,-106.445,29.785,0.000,0
109722.211,6.836,-4.395,-82.520,38.574,0.000,0
109722.215,7.324,-6.836,-43.457,25.879,0.000,0
109722.219,-7.324,-2.930,-62.012,2.441,0.000,0
109722.223,-7.812,-10.254,-107.910,13.672,0.000,0
109722.227,3.418,-10.742,-88.867,18.066,0.000,0
109722.230,-3.418,-1.465,-53.223,4.883,0.000,0
109722.234,-12.695,-8.301,-58.105,0.977,0.000,0
109722.238,-11.719,-3.906,-89.355,-2.930,0.000,0
109722.242,-17.578,2.930,-89.355,-5.371,0.000,0
109722.246,-17.090,0.000,-57.129,-1.465,0.000,0
109722.250,-3.906,-2.930,-72.266,-4.883,0.000,0
109722.254,3.418,-8.301,-74.219,-5.859,0.000,0
109722.258,-0.977,-5.371,-74.219,-1.953,0.000,0
109722.262,0.000,2.441,-75.684,-5.371,0.000,0
109722.266,6.836,0.488,-68.848,-8.789,0.000,0
109722.270,6.836,-4.883,-76.172,-0.977,0.000,0
109722.273,-0.977,-12.207,-72.266,-9.277,0.000,0
109722.277,0.000,-10.742,-68.359,-11.719,0.000,0
109722.281,6.836,-2.930,-56.641,-0.488,0.000,0
109722.285,-2.441,-3.906,-64.453,1.953,0.000,0
109722.289,-12.695,-7.812,-92.285,8.301,0.000,0
109722.293,-1.465,-14.648,-69.336,10.742,0.000,0
109722.297,3.418,-12.695,-49.316,11.230,0.000,0
109722.301,-6.836,-11.719,-62.500,13.184,0.000,0
109722.305,-5.859,-17.578,-77.148,13.672,0.000,0
109722.309,0.488,-16.113,-83.496,8.301,0.000,0
109722.313,6.836,-18.555,-52.246,-4.883,0.000,0
109722.316,10.742,-12.695,-38.574,-1.953,0.000,0
109722.320,3.418,-7.812,-76.660,5.371,0.000,0
109722.324,1.953,-17.578,-93.262,6.348,0.000,0
109722.328,16.602,-12.207,-73.242,9.766,0.000,0
109722.332,14.160,-14.160,-36.621,3.418,0.000,0
109722.336,5.859,-18.555,-47.363,1.465,0.000,0
109722.340,11.230,-8.789,-92.285,2.930,0.000,0
109722.344,17.090,-14.160,-77.637,-4.883,0.000,0
109722.348,13.672,-15.625,-50.781,8.789,0.000,0
109722.352,7.324,-24.902,-60.547,8.301,0.000,0
109722.355,11.719,-28.809,-83.008,-2.441,0.000,0
109722.359,16.113,-19.531,-85.449,3.418,0.000,0
109722.363,20.996,-20.020,-64.453,3.418,0.000,0
109722.367,26.367,-14.648,-58.594,3.418,0.000,0
109722.371,12.695,-14.160,-69.824,1.465,0.000,0
109722.375,6.348,-7.812,-70.801,3.906,0.000,0
109722.379,13.672,1.465,-50.293,6.348,0.000,0
109722.383,7.812,-6.348,-41.992,6.348,0.000,0
109722.387,3.906,-4.883,-81.055,8.789,0.000,0
109722.391,1.465,-5.371,-100.586,1.465,0.000,0
109722.395,-5.371,-14.648,-53.223,-3.418,0.000,0
109722.398,0.488,-2.930,-41.992,6.348,0.000,0
109722.402,-6.836,0.000,-77.148,6.836,0.000,0
109722.406,-11.719,-4.395,-88.379,1.953,0.000,0
109722.410,-0.977,-5.859,-63.477,1.465,0.000,0
109722.414,-4.395,-4.883,-41.992,6.348,0.000,0
109722.418,-10.254,0.488,-56.641,10.254,0.000,0
109722.422,-5.859,-2.441,-75.684,9.766,0.000,0
109722.426,3.906,-0.488,-67.871,20.020,0.000,0
109722.430,10.254,1.465,-45.410,11.230,0.000,0
109722.434,10.742,-3.906,-50.781,8.301,0.000,0
109722.438,8.301,-6.836,-75.195,14.160,0.000,0
109722.441,5.371,-4.395,-73.730,8.301,0.000,0
109722.445,12.207,0.000,-58.105,8.789,0.000,0
109722.449,7.812,-6.348,-58.105,14.648,0.000,0
109722.453,-1.465,-5.859,-79.102,14.648,0.000,0
109722.457,-0.488,-1.953,-85.938,4.883,0.000,0
109722.461,-1.953,-6.836,-62.988,7.812,0.000,0
109722.465,4.883,-3.418,-50.293,20.996,0.000,0
109722.469,6.836,-5.371,-61.035,6.348,0.000,0
109722.473,1.465,-10.254,-72.754,-5.859,0.000,0
109722.477,0.000,-9.277,-63.477,0.488,0.000,0
109722.480,2.930,-6.836,-45.410,10.742,0.000,0
109722.484,0.488,-3.906,-60.547,14.160,0.000,0
109722.488,-0.977,-5.859,-81.055,7.812,0.000,0
109722.492,7.324,-1.953,-62.500,3.418,0.000,0
109722.496,13.672,4.395,-45.410,1.465,0.000,0
109722.500,-3.906,6.348,-66.406,2.441,0.000,0
109722.504,-8.301,2.930,-88.379,0.977,0.000,0
109722.508,6.348,-0.488,-68.359,-9.277,0.000,0
109722.512,2.930,1.465,-40.039,-8.789,0.000,0
109722.516,-13.184,3.906,-54.199,-5.859,0.000,0
109722.520,-13.184,-3.418,-83.008,-15.625,0.000,0
109722.523,-6.836,-11.230,-84.961,-2.441,0.000,0
109722.527,0.488,-14.160,-50.293,1.953,0.000,0
109722.531,3.906,-15.625,-48.828,-7.324,0.000,0
109722.535,2.930,-13.184,-86.426,4.395,0.000,0
109722.539,11.719,-9.277,-98.633,12.207,0.000,0
109722.543,10.742,-13.184,-71.777,13.672,0.000,0
109722.547,3.418,-17.090,-53.711,10.254,0.000,0
109722.551,0.000,-18.066,-67.383,-6.348,0.000,0
109722.555,-3.418,-17.090,-84.473,-2.441,0.000,0
109722.559,2.930,-12.207,-69.824,10.254,0.000,0
109722.563,3.906,-7.812,-50.781,16.113,0.000,0
109722.566,1.465,-10.254,-58.105,9.766,0.000,0
109722.570,7.812,-18.066,-63.965,8.301,0.000,0
109722.574,6.348,-6.836,-62.988,21.484,0.000,0
109722.578,11.230,-3.906,-51.758,22.949,0.000,0
109722.582,14.160,-6.836,-51.270,22.949,0.000,0
109722.586,4.883,-4.883,-83.496,11.719,0.000,0
109722.590,6.348,-20.020,-85.938,-0.488,0.000,0
109722.594,3.906,-13.184,-71.289,1.465,0.000,0
109722.598,2.930,-8.789,-59.082,4.883,0.000,0
109722.602,11.719,-13.672,-77.637,18.066,0.000,0
109722.605,13.672,-11.230,-96.680,17.578,0.000,0
109722.609,2.930,-10.254,-65.430,0.977,0.000,0
109722.613,-2.441,-2.441,-60.059,9.277,0.000,0
109722.617,-0.488,-2.441,-79.590,14.160,0.000,0
109722.621,-0.488,-8.301,-97.168,8.789,0.000,0
109722.625,4.395,-14.160,-87.891,3.906,0.000,0
109722.629,6.836,-19.043,-46.875,-0.977,0.000,0
109722.633,2.930,-8.301,-62.012,2.441,0.000,0
109722.637,-0.488,-9.277,-97.656,3.418,0.000,0
109722.641,-11.719,-14.648,-97.656,3.906,0.000,0
109722.645,-14.160,-11.719,-61.035,0.977,0.000,0
109722.648,-7.324,-16.113,-42.969,-0.977,0.000,0
109722.652,-3.906,-11.719,-86.914,8.789,0.000,0
109722.656,0.488,-3.418,-91.309,14.160,0.000,0
109722.660,6.836,2.441,-50.781,16.113,0.000,0
109722.664,11.230,0.977,-43.457,17.578,0.000,0
109722.668,7.812,-6.348,-62.988,7.324,0.000,0
109722.672,1.465,0.488,-85.449,16.113,0.000,2
109722.676,9.766,1.953,-83.008,20.996,0.000,0
109722.680,13.672,-11.230,-51.758,12.695,0.000,0
109722.684,-4.395,-14.160,-53.223,8.301,0.000,0
109722.688,-8.301,-6.348,-80.566,5.859,0.000,0
109722.691,-0.488,-1.953,-74.219,17.578,0.000,0
109722.695,3.906,0.488,-48.828,17.090,0.000,0
109722.699,1.953,0.977,-57.129,13.672,0.000,0
109722.703,-1.953,-6.348,-87.891,30.273,0.000,0
109722.707,-3.906,-16.602,-77.637,26.855,0.000,0
109722.711,0.488,-6.836,-55.664,16.113,0.000,0
109722.715,11.230,5.371,-73.730,15.625,0.000,0
109722.719,17.090,-1.465,-84.473,22.461,0.000,0
109722.723,8.301,-10.742,-69.824,26.855,0.000,0
109722.727,6.836,-16.602,-43.457,15.625,0.000,0
109722.730,5.371,-6.836,-38.086,15.137,0.000,0
109722.734,-4.395,0.488,-75.684,16.113,0.000,0
109722.738,-7.812,-3.906,-88.379,15.137,0.000,0
109722.742,-2.930,-1.465,-69.824,21.973,0.000,0
109722.746,-5.859,-8.301,-46.387,3.418,0.000,0
109722.750,-0.488,-7.324,-53.223,5.859,0.000,0
109722.754,3.418,1.953,-87.402,19.043,0.000,0
109722.758,0.977,2.930,-87.402,9.766,0.000,0
109722.762,10.254,5.859,-54.688,12.695,0.000,0
109722.766,23.438,-0.977,-36.133,16.113,0.000,0
109722.770,-0.488,-5.859,-56.152,4.395,0.000,0
109722.773,-6.836,1.465,-75.195,6.348,0.000,0
109722.777,12.207,4.883,-56.152,22.461,0.000,0
109722.781,3.906,-0.977,-41.992,18.066,0.000,0
109722.785,-4.395,-13.184,-64.453,3.906,0.000,0
109722.789,-10.254,-9.766,-79.102,3.906,0.000,0
109722.793,-15.137,-7.324,-54.199,1.465,0.000,0
109722.797,-9.277,-15.137,-51.270,6.348,0.000,0
109722.801,-2.930,-9.277,-73.730,19.043,0.000,0
109722.805,-6.836,-11.230,-79.590,7.324,0.000,0
109722.809,10.254,-8.789,-42.969,2.441,0.000,0
109722.813,23.438,-4.395,-29.297,17.578,0.000,0
109722.816,4.395,-11.230,-68.359,15.137,0.000,0
109722.820,-0.977,-13.184,-81.543,4.395,0.000,0
109722.824,4.883,-12.695,-39.062,4.883,0.000,0
109722.828,9.277,-5.371,-24.902,6.836,0.000,0
109722.832,9.766,2.930,-59.570,10.742,0.000,0
109722.836,13.672,0.977,-74.707,16.113,0.000,0
109722.840,18.066,1.953,-60.059,21.484,0.000,0
109722.844,11.230,5.371,-32.227,14.160,0.000,0
109722.848,6.836,3.418,-46.387,6.348,0.000,0
109722.852,5.371,4.395,-74.707,15.625,0.000,0
109722.855,4.883,10.742,-76.172,18.066,0.000,0
109722.859,7.812,6.348,-60.547,11.230,0.000,0
109722.863,-1.953,-1.465,-51.758,8.789,0.000,0
109722.867,-12.207,-3.418,-77.637,1.465,0.000,0
109722.871,-2.930,-4.395,-75.684,2.441,0.000,0
109722.875,3.418,-2.930,-55.664,14.160,0.000,0
109722.879,0.977,0.977,-63.477,18.066,0.000,0
109722.883,-5.859,-12.207,-56.641,4.395,0.000,0
109722.887,-1.465,-9.277,-74.707,12.207,0.000,0
109722.891,3.418,8.301,-88.867,20.020,0.000,0
109722.895,-9.766,1.465,-48.828,6.348,0.000,0
109722.898,-14.160,-9.766,-54.199,5.371,0.000,0
109722.902,-19.043,-20.508,-68.848,-2.441,0.000,0
109722.906,-29.785,-14.160,-70.312,-0.488,0.000,0
109722.910,-18.066,-4.883,-61.035,3.906,0.000,0
109722.914,-9.277,-9.766,-60.059,12.695,0.000,0
109722.918,-19.043,-17.090,-86.426,21.973,0.000,0
109722.922,-14.160,-23.438,-77.148,10.742,0.000,0
109722.926,0.000,-14.648,-45.898,13.672,0.000,0
109722.930,3.906,-4.395,-51.758,23.438,0.000,0
109722.934,-2.441,-13.184,-75.195,19.043,0.000,0
109722.938,-9.277,-17.090,-83.008,16.113,0.000,0
109722.941,-12.207,-22.949,-48.340,3.418,0.000,0
109722.945,-16.113,-23.438,-32.715,-3.418,0.000,0
109722.949,-14.160,-9.766,-67.383,8.789,0.000,0
109722.953,-12.207,-11.719,-92.285,19.531,0.000,0
109722.957,-9.766,-16.113,-74.219,20.508,0.000,0
109722.961,4.883,-15.625,-40.039,7.324,0.000,0
109722.965,4.883,-13.672,-53.711,15.625,0.000,0
109722.969,-7.324,-3.418,-96.191,19.531,0.000,0
109722.973,0.977,-4.883,-76.172,7.324,0.000,0
109722.977,11.230,-5.859,-34.668,15.625,0.000,0
109722.980,16.602,-13.184,-39.062,13.184,0.000,0
109722.984,19.531,-11.719,-66.406,11.230,0.000,0
109722.988,18.555,0.977,-69.336,18.555,0.000,0
109722.992,19.531,-6.348,-49.805,20.508,0.000,0
109722.996,16.602,-0.977,-64.941,23.926,0.000,0
109723.000,12.207,-1.465,-73.730,15.137,0.000,0
109723.004,11.719,-7.324,-68.359,13.184,0.000,0
109723.008,5.859,-2.930,-58.105,14.648,0.000,0
109723.012,13.184,-3.906,-38.574,9.277,0.000,0
109723.016,18.555,-0.977,-62.988,22.461,0.000,0
109723.020,11.719,-4.395,-75.195,19.531,0.000,0
109723.023,8.789,-6.348,-44.922,10.742,0.000,0
109723.027,11.230,4.395,-45.898,26.855,0.000,0
109723.031,7.812,-0.977,-62.500,28.320,0.000,0
109723.035,7.324,-12.695,-70.801,21.484,0.000,0
109723.039,10.254,-15.137,-56.641,18.066,0.000,0
109723.043,8.789,-11.719,-28.320,11.719,0.000,0
109723.047,10.254,0.000,-39.551,13.672,0.000,0
109723.051,10.742,-0.488,-65.918,15.137,0.000,0
109723.055,6.836,0.977,-80.078,18.066,0.000,0
109723.059,10.254,-3.418,-57.129,11.719,0.000,0
109723.063,10.742,-10.742,-33.203,-1.953,0.000,0
109723.066,-7.324,-6.836,-67.383,3.906,0.000,0
109723.070,3.418,-5.371,-88.379,17.578,0.000,0
109723.074,15.625,-2.441,-59.082,20.996,0.000,0
109723.078,13.184,-1.953,-28.809,29.785,0.000,0
109723.082,17.578,2.441,-39.062,32.715,0.000,0
109723.086,17.090,7.812,-70.312,26.367,0.000,0
109723.090,18.555,2.441,-67.383,33.203,0.000,0
109723.094,20.996,-0.488,-39.551,42.480,0.000,0
109723.098,20.508,-4.883,-48.828,39.062,0.000,0
109723.102,20.508,-10.254,-78.613,22.949,0.000,0
109723.105,13.184,-8.301,-82.520,22.461,0.000,0
109723.109,10.254,-6.836,-57.129,25.879,0.000,0
109723.113,21.484,1.465,-48.340,28.320,0.000,0
109723.117,26.367,2.441,-68.359,28.809,0.000,0
109723.121,13.672,-1.953,-69.824,23.926,0.000,0
109723.125,0.977,-3.418,-51.270,22.461,0.000,0
109723.129,0.488,1.953,-42.480,31.250,0.000,0
109723.133,5.859,7.812,-72.754,39.062,0.000,0
109723.137,7.812,3.418,-95.215,26.855,0.000,0
109723.141,11.719,-7.324,-51.270,29.785,0.000,0
109723.145,18.066,-9.766,-36.621,41.016,0.000,0
109723.148,21.973,-8.789,-67.383,35.156,0.000,0
109723.152,18.555,-16.113,-78.613,38.574,0.000,0
109723.156,26.367,-18.555,-66.406,42.969,0.000,0
109723.160,25.391,-10.742,-42.480,33.691,0.000,0
109723.164,8.789,-9.277,-51.758,30.762,0.000,0
109723.168,2.930,-15.137,-82.520,38.574,0.000,0
109723.172,5.371,-6.836,-79.102,39.062,0.000,0
109723.176,1.465,-9.766,-56.641,37.598,0.000,0
109723.180,3.906,-11.719,-52.734,31.738,0.000,0
109723.184,16.602,-3.906,-57.129,28.809,0.000,0
109723.188,17.578,-5.371,-53.711,36.133,0.000,0
109723.191,12.207,-4.883,-48.340,37.598,0.000,0
109723.195,15.625,-7.812,-31.738,36.133,0.000,0
109723.199,20.508,-13.184,-36.621,26.367,0.000,0
109723.203,7.324,-8.789,-65.918,27.832,0.000,0
109723.207,0.000,-0.977,-73.242,32.227,0.000,0
109723.211,7.812,2.930,-55.176,21.973,0.000,0
109723.215,12.695,-1.953,-53.223,20.508,0.000,0
109723.219,7.812,-9.766,-63.477,17.090,0.000,0
109723.223,3.418,-4.883,-59.082,11.719,0.000,0
109723.227,7.812,-1.953,-44.922,4.883,0.000,0
109723.230,6.348,-4.883,-39.551,15.625,0.000,0
109723.234,2.930,-2.930,-63.477,21.973,0.000,0
109723.238,0.488,-11.230,-68.359,7.324,0.000,0
109723.242,-2.441,-15.137,-44.922,7.812,0.000,0
109723.246,0.977,-8.301,-43.945,9.277,0.000,0
109723.250,3.906,-10.254,-63.477,7.812,0.000,0
109723.254,-10.742,-9.766,-73.242,9.766,0.000,0
109723.258,-18.066,-10.254,-39.551,3.906,0.000,0
109723.262,-10.742,-6.836,-26.367,12.207,0.000,0
109723.266,-8.789,-1.465,-55.176,20.996,0.000,0
109723.270,-5.371,-1.953,-70.801,24.902,0.000,0
109723.273,-4.883,-2.441,-61.523,21.973,0.000,0
109723.277,-6.836,-15.137,-31.250,4.395,0.000,0
109723.281,-2.441,-10.254,-50.781,3.906,0.000,0
109723.285,0.977,3.418,-87.891,14.160,0.000,0
109723.289,8.789,1.465,-73.242,19.531,0.000,0
109723.293,7.812,2.930,-47.852,19.043,0.000,0
109723.297,-4.395,-1.465,-58.105,5.371,0.000,0
109723.301,-15.137,0.488,-100.586,-0.977,0.000,0
109723.305,-15.625,-1.953,-94.238,10.254,0.000,0
109723.309,-2.441,-3.906,-65.918,8.301,0.000,0
109723.313,0.488,-6.348,-75.195,-4.395,0.000,0
109723.316,-1.953,-13.184,-76.172,-6.348,0.000,0
109723.320,0.488,-2.930,-70.312,6.348,0.000,0
109723.324,7.324,5.371,-72.754,7.324,0.000,0
109723.328,3.906,6.348,-83.008,7.812,0.000,0
109723.332,-0.488,-9.277,-98.633,12.207,0.000,0
109723.336,4.883,-24.414,-84.961,1.953,0.000,0
109723.340,-1.465,-13.184,-70.801,3.906,0.000,0
109723.344,-2.441,-3.906,-66.895,5.859,0.000,0
109723.348,1.953,-1.953,-74.707,10.742,0.000,0
109723.352,-3.906,-5.859,-93.750,4.883,0.000,0
109723.355,-2.930,-14.648,-68.359,-13.184,0.000,0
109723.359,5.859,-2.930,-48.340,-6.348,0.000,0
109723.363,-5.371,-3.906,-65.430,-8.789,0.000,0
109723.367,-13.672,-7.812,-100.586,-7.812,0.000,0
109723.371,-3.906,-9.277,-97.656,-4.883,0.000,0
109723.375,-2.441,-20.996,-53.223,-13.672,0.000,0
109723.379,-6.836,-18.555,-64.941,-0.977,0.000,1
109723.383,-3.418,-17.090,-100.098,3.906,0.000,0
109723.387,-11.719,-14.648,-93.750,-7.812,0.000,0
109723.391,-19.043,-18.066,-59.082,-12.207,0.000,0
109723.395,-12.207,-32.715,-51.758,-27.832,0.000,0
109723.398,-14.648,-21.973,-92.285,-25.879,0.000,0
109723.402,-14.160,-14.648,-102.539,-18.555,0.000,0
109723.406,-5.371,-22.949,-72.266,-19.043,0.000,0
109723.410,-5.371,-22.461,-70.801,-18.555,0.000,0
109723.414,-11.719,-19.043,-100.098,-18.555,0.000,0
109723.418,-7.324,-18.555,-105.957,-8.789,0.000,0
109723.422,-3.418,-21.484,-61.523,-11.230,0.000,0
109723.426,-2.930,-26.367,-55.664,-19.043,0.000,0
109723.430,-13.672,-35.156,-91.797,-16.602,0.000,0
109723.434,-12.207,-37.109,-88.867,-21.973,0.000,0
109723.438,-0.977,-25.879,-70.312,-21.973,0.000,0
109723.441,-8.789,-25.879,-59.082,-18.066,0.000,0
109723.445,-12.207,-29.785,-79.102,-10.254,0.000,0
109723.449,-7.812,-23.926,-83.496,-2.930,0.000,0
109723.453,-11.719,-20.020,-54.688,0.488,0.000,0
109723.457,-6.348,-12.695,-43.945,8.301,0.000,0
109723.461,6.348,-1.953,-65.430,2.930,0.000,0
109723.465,2.441,-2.441,-77.148,-0.488,0.000,0
109723.469,2.930,-14.648,-56.152,2.930,0.000,0
109723.473,11.230,-13.672,-49.316,-3.418,0.000,0
109723.477,7.324,-10.742,-59.082,-14.648,0.000,0
109723.480,-6.348,-18.066,-83.496,-19.043,0.000,0
109723.484,-4.395,-17.578,-90.820,-14.648,0.000,0
109723.488,4.883,-12.207,-69.824,-13.184,0.000,0
109723.492,-1.465,-16.602,-54.688,-16.113,0.000,0
109723.496,-8.789,-25.879,-68.359,-24.902,0.000,0
109723.500,-12.695,-19.531,-81.055,-24.902,0.000,0
109723.504,-6.836,-10.742,-62.012,-6.836,0.000,0
109723.508,-4.395,-9.277,-56.641,-4.395,0.000,0
109723.512,-4.395,-12.207,-53.711,-5.371,0.000,0
109723.516,3.906,-2.441,-57.129,8.789,0.000,0
109723.520,8.789,7.324,-61.523,17.578,0.000,0
109723.523,12.207,4.883,-31.738,14.648,0.000,0
109723.527,14.648,5.859,-31.738,8.301,0.000,0
109723.531,16.602,0.000,-56.641,-0.977,0.000,0
109723.535,6.836,-0.488,-57.617,2.441,0.000,0
109723.539,6.348,-2.930,-29.785,5.371,0.000,0
109723.543,11.719,-6.836,-32.227,6.348,0.000,0
109723.547,1.465,-2.930,-68.359,10.742,0.000,0
109723.551,-10.742,-11.230,-69.336,-1.953,0.000,0
109723.555,-8.301,-17.578,-44.434,-5.371,0.000,0
109723.559,-3.906,-15.137,-42.480,3.418,0.000,0
109723.563,-2.441,-16.113,-75.195,-0.488,0.000,0
109723.566,1.465,-17.578,-85.449,1.465,0.000,0
109723.570,-0.488,-22.949,-43.945,0.488,0.000,0
109723.574,9.766,-18.066,-25.879,1.465,0.000,0
109723.578,4.395,-17.578,-56.641,0.977,0.000,0
109723.582,-15.625,-21.973,-74.219,3.906,0.000,0
109723.586,-13.184,-19.531,-63.477,11.719,0.000,0
109723.590,-10.254,-27.344,-36.133,5.859,0.000,0
109723.594,-7.812,-23.438,-48.828,5.371,0.000,0
109723.598,-9.277,-12.695,-74.707,3.906,0.000,0
109723.602,-6.836,-13.184,-51.758,3.906,0.000,0
109723.605,-2.441,-10.254,-39.551,7.812,0.000,0
109723.609,4.883,-13.672,-39.062,-3.906,0.000,0
109723.613,9.277,-12.695,-54.688,-2.441,0.000,0
109723.617,7.324,-7.812,-77.148,1.465,0.000,0
109723.621,1.465,-5.859,-58.105,2.930,0.000,0
109723.625,18.066,4.395,-43.945,16.113,0.000,0
109723.629,27.344,1.465,-41.992,10.742,0.000,0
109723.633,1.953,-7.324,-61.523,7.324,0.000,0
109723.637,0.977,-3.906,-66.406,12.695,0.000,0
109723.641,8.789,-4.395,-40.527,1.953,0.000,0
109723.645,5.859,0.977,-45.898,8.789,0.000,0
109723.648,2.930,-0.977,-55.664,-1.465,0.000,0
109723.652,5.371,-3.906,-56.641,-8.789,0.000,0
109723.656,7.812,5.859,-52.246,11.230,0.000,0
109723.660,8.789,8.789,-44.434,18.555,0.000,0
109723.664,8.301,10.742,-69.336,19.043,0.000,0
109723.668,5.371,1.465,-65.918,12.695,0.000,0
109723.672,2.930,-4.883,-30.273,6.836,0.000,0
109723.676,0.000,0.488,-40.039,7.324,0.000,0
109723.680,4.883,-4.883,-69.336,4.883,0.000,0
109723.684,-0.488,-9.766,-81.543,5.859,0.000,0
109723.688,-4.395,-12.695,-58.105,-2.441,0.000,0
109723.691,-3.418,-15.625,-35.156,-10.254,0.000,0
109723.695,-3.906,-9.766,-63.965,-0.977,0.000,0
109723.699,7.812,-2.441,-90.332,5.371,0.000,0
109723.703,7.324,-8.789,-60.059,6.836,0.000,0
109723.707,0.977,-16.602,-25.391,6.836,0.000,0
109723.711,2.930,-18.066,-43.945,-5.859,0.000,0
109723.715,10.742,-8.789,-78.125,0.000,0.000,0
109723.719,10.254,-10.254,-61.035,9.766,0.000,0
109723.723,10.742,-9.277,-36.621,16.113,0.000,0
109723.727,15.137,-4.883,-42.480,17.090,0.000,0
109723.730,7.324,-4.395,-56.152,5.859,0.000,0
109723.734,12.695,4.395,-64.941,6.836,0.000,0
109723.738,20.020,4.395,-44.434,13.672,0.000,0
109723.742,15.625,5.371,-48.828,13.184,0.000,0
109723.746,8.789,2.930,-81.543,2.930,0.000,0
109723.750,0.000,-5.859,-70.801,2.441,0.000,0
109723.754,6.836,-3.418,-49.316,12.207,0.000,0
109723.758,5.371,-0.488,-51.758,3.906,0.000,0
109723.762,-5.371,-2.441,-68.848,11.230,0.000,0
109723.766,-8.789,-3.906,-84.473,18.066,0.000,0
109723.770,-3.906,-2.930,-63.965,11.719,0.000,0
109723.773,9.277,3.906,-49.805,23.926,0.000,0
109723.777,5.859,5.859,-65.918,21.973,0.000,0
109723.781,-1.953,0.000,-79.102,15.137,0.000,0
109723.785,-4.883,-11.230,-76.660,20.020,0.000,0
109723.789,-7.324,-8.301,-57.617,2.930,0.000,0
109723.793,-4.395,2.441,-50.781,-4.395,0.000,0
109723.797,-6.836,-3.906,-74.707,11.230,0.000,0
109723.801,-7.324,-6.348,-87.402,13.672,0.000,0
109723.805,-3.906,0.488,-61.035,5.859,0.000,0
109723.809,-2.930,8.789,-47.852,6.348,0.000,0
109723.813,2.441,10.254,-68.359,6.836,0.000,0
109723.816,-0.977,4.883,-84.473,4.395,0.000,0
109723.820,3.418,3.906,-70.312,8.789,0.000,0
109723.824,8.301,8.789,-49.316,20.508,0.000,0
109723.828,-0.488,3.906,-57.617,12.207,0.000,0
109723.832,0.000,0.977,-83.008,3.906,0.000,0
109723.836,4.395,4.883,-86.426,11.230,0.000,0
109723.840,4.883,0.977,-56.152,19.043,0.000,0
109723.844,6.348,-4.883,-46.875,15.625,0.000,0
109723.848,-2.441,-3.418,-73.730,5.371,0.000,0
109723.852,-7.324,9.277,-67.383,7.812,0.000,0
109723.855,4.883,15.625,-43.945,16.113,0.000,0
109723.859,3.418,5.859,-50.293,15.137,0.000,0
109723.863,-7.812,-4.395,-82.520,9.277,0.000,0
109723.867,-9.277,-8.789,-74.219,4.395,0.000,0
109723.871,-1.953,0.000,-48.340,-0.977,0.000,0
109723.875,2.441,6.348,-51.270,2.441,0.000,0
109723.879,-3.418,0.488,-69.824,1.953,0.000,0
109723.883,-4.395,1.953,-94.727,0.488,0.000,0
109723.887,-2.441,-3.418,-56.152,-0.488,0.000,0
109723.891,7.812,-0.488,-32.227,1.953,0.000,0
109723.895,5.371,1.465,-66.895,5.859,0.000,0
109723.898,8.301,-11.719,-83.008,3.418,0.000,0
109723.902,16.602,-11.719,-73.730,4.883,0.000,0
109723.906,7.324,-17.090,-36.621,-2.441,0.000,0
109723.910,9.277,-16.113,-41.992,-2.441,0.000,0
109723.914,9.766,-9.277,-83.984,2.441,0.000,0
109723.918,8.301,-16.602,-89.355,-4.395,0.000,0
109723.922,9.277,-14.160,-67.871,-4.395,0.000,0
109723.926,1.465,-14.160,-54.199,-6.836,0.000,0
109723.930,0.977,-22.461,-75.195,-14.648,0.000,0
109723.934,2.441,-26.367,-92.285,-5.371,0.000,0
109723.938,0.000,-23.438,-83.496,-4.883,0.000,0
109723.941,3.906,-9.766,-69.336,-6.836,0.000,0
109723.945,13.672,-10.742,-62.012,-3.418,0.000,0
109723.949,11.719,-10.742,-74.707,-8.789,0.000,0
109723.953,10.254,-9.766,-80.078,-7.324,0.000,0
109723.957,8.789,-12.695,-55.664,-6.348,0.000,0
109723.961,6.348,-3.906,-57.617,-1.953,0.000,0
109723.965,11.230,-10.254,-68.359,-0.977,0.000,0
109723.969,8.789,-13.672,-57.129,-3.906,0.000,1
109723.973,14.648,-6.348,-43.945,8.789,0.000,0
109723.977,24.902,-9.766,-35.645,20.508,0.000,0
109723.980,21.973,-5.371,-58.105,21.484,0.000,0
109723.984,19.531,-7.812,-62.500,20.020,0.000,0
109723.988,13.672,-8.789,-31.738,13.184,0.000,0
109723.992,15.137,3.906,-30.273,10.254,0.000,0
109723.996,10.254,-2.441,-52.246,10.254,0.000,0
109724.000,5.371,-4.883,-73.730,11.719,0.000,0
109724.004,5.371,-4.883,-49.805,8.789,0.000,0
109724.008,10.254,-4.395,-16.113,4.395,0.000,0
109724.012,10.742,10.742,-50.293,15.137,0.000,0
109724.016,8.301,12.207,-82.520,18.555,0.000,0
109724.020,15.137,8.301,-63.477,12.695,0.000,0
109724.023,15.625,6.348,-34.180,10.254,0.000,0
109724.027,7.812,6.836,-47.852,0.488,0.000,0
109724.031,1.953,17.578,-89.844,0.977,0.000,0
109724.035,8.789,13.672,-76.660,2.930,0.000,0
109724.039,12.207,2.441,-46.387,5.859,0.000,0
109724.043,10.742,-3.418,-49.805,7.324,0.000,0
109724.047,5.371,-6.836,-58.594,-0.977,0.000,0
109724.051,5.859,-2.930,-68.848,8.789,0.000,0
109724.055,11.230,2.930,-56.641,11.230,0.000,0
109724.059,10.254,11.719,-43.945,10.254,0.000,0
109724.063,14.160,9.766,-56.152,7.812,0.000,0
109724.066,10.254,2.441,-69.336,-0.488,0.000,0
109724.070,8.301,7.812,-63.965,-2.930,0.000,0
109724.074,10.742,5.371,-61.035,2.930,0.000,0
109724.078,3.906,0.977,-73.730,4.883,0.000,0
109724.082,3.906,-0.977,-73.242,4.883,0.000,0
109724.086,3.418,-1.953,-54.688,9.277,0.000,0
109724.090,3.418,16.602,-45.410,0.488,0.000,0
109724.094,6.836,12.695,-58.105,-4.883,0.000,0
109724.098,5.371,-4.395,-70.801,0.488,0.000,0
109724.102,0.000,-0.488,-61.035,2.930,0.000,0
109724.105,1.953,-3.906,-40.527,-2.930,0.000,0
109724.109,2.441,-8.789,-35.645,-8.301,0.000,0
109724.113,-7.324,-4.883,-67.871,1.953,0.000,0
109724.117,-4.395,4.883,-88.379,10.742,0.000,0
109724.121,-0.977,9.277,-73.242,-5.859,0.000,0
109724.125,3.418,5.371,-47.852,-3.418,0.000,0
109724.129,0.000,8.301,-53.223,16.113,0.000,0
109724.133,-5.371,6.836,-92.285,9.766,0.000,0
109724.137,-4.395,0.977,-84.473,-0.977,0.000,0
109724.141,-6.836,-5.371,-67.383,-6.348,0.000,0
109724.145,-13.184,-13.184,-81.543,-15.137,0.000,0
109724.148,-18.066,-14.160,-107.422,-15.137,0.000,0
109724.152,-18.066,-14.648,-120.605,-8.301,0.000,0
109724.156,-18.555,-19.043,-97.656,-8.789,0.000,0
109724.160,-16.602,-23.926,-96.191,-11.719,0.000,0
109724.164,-14.160,-23.438,-120.117,-19.043,0.000,0
109724.168,-11.230,-13.672,-121.094,-20.996,0.000,0
109724.172,-8.301,-14.648,-80.566,-8.789,0.000,0
109724.176,-7.324,-20.020,-78.125,-0.488,0.000,0
109724.180,-6.836,-23.438,-120.117,-0.977,0.000,0
109724.184,-4.395,-32.715,-111.328,-5.859,0.000,0
109724.188,3.906,-26.855,-84.961,-3.906,0.000,0
109724.191,-1.953,-23.926,-86.426,3.906,0.000,0
109724.195,-12.207,-30.273,-90.820,-2.930,0.000,0
109724.199,-11.719,-24.902,-105.957,-7.324,0.000,0
109724.203,-8.789,-23.926,-90.820,-7.324,0.000,0
109724.207,-5.371,-14.648,-65.430,-5.859,0.000,0
109724.211,-0.977,-7.324,-79.102,2.930,0.000,0
109724.215,-1.465,-17.578,-82.520,12.207,0.000,0
109724.219,-7.812,-8.301,-81.055,17.090,0.000,0
109724.223,-2.441,3.906,-57.129,9.766,0.000,0
109724.227,4.395,5.859,-56.152,16.602,0.000,0
109724.230,2.441,2.441,-90.332,17.578,0.000,0
109724.234,-2.930,-5.371,-85.449,10.742,0.000,0
109724.238,-9.766,-4.883,-62.500,11.230,0.000,0
109724.242,-15.137,-5.859,-43.457,0.000,0.000,0
109724.246,-8.789,-5.371,-66.406,3.418,0.000,0
109724.250,-2.441,-2.441,-84.961,16.602,0.000,0
109724.254,-9.766,-8.789,-65.430,20.020,0.000,0
109724.258,-2.441,-11.719,-68.359,19.531,0.000,0
109724.262,4.883,-17.578,-60.059,9.766,0.000,0
109724.266,4.883,-17.090,-71.777,13.184,0.000,0
109724.270,8.789,-1.465,-97.656,13.672,0.000,0
109724.273,13.184,-0.488,-66.895,6.836,0.000,0
109724.277,12.207,-6.348,-57.129,9.277,0.000,0
109724.281,18.066,-9.277,-68.848,10.742,0.000,0
109724.285,18.066,-4.883,-68.848,15.625,0.000,0
109724.289,7.324,4.395,-50.293,14.648,0.000,0
109724.293,7.812,5.371,-44.434,14.648,0.000,0
109724.297,7.324,6.348,-70.801,12.695,0.000,0
109724.301,2.930,-4.395,-71.289,-4.883,0.000,0
109724.305,1.465,-9.277,-47.852,-5.859,0.000,0
109724.309,2.441,0.977,-41.016,9.766,0.000,0
109724.313,3.906,0.000,-68.359,2.441,0.000,0
109724.316,7.812,-4.395,-76.660,12.207,0.000,0
109724.320,4.395,-10.254,-52.246,15.625,0.000,0
109724.324,5.371,-11.230,-31.250,8.789,0.000,0
109724.328,10.742,2.441,-57.617,26.855,0.000,0
109724.332,10.742,1.465,-87.402,31.250,0.000,0
109724.336,8.789,-0.977,-64.453,25.391,0.000,0
109724.340,7.324,-5.859,-27.832,17.578,0.000,0
109724.344,10.742,-7.812,-33.691,14.160,0.000,0
109724.348,9.766,7.324,-67.383,22.461,0.000,0
109724.352,5.859,3.418,-58.105,21.973,0.000,0
109724.355,11.719,1.953,-38.574,23.438,0.000,0
109724.359,15.625,1.953,-45.410,22.461,0.000,0
109724.363,0.488,-21.973,-45.410,12.207,0.000,0
109724.367,-2.441,-16.602,-54.688,25.391,0.000,0
109724.371,0.977,-1.465,-57.129,32.715,0.000,0
109724.375,-0.977,-11.719,-55.176,19.043,0.000,0
