timestamps,TP9,AF7,AF8,TP10,Right AUX,Marker0
215091.164,26.367,12.695,45.410,22.461,41.504,0
215091.168,24.414,22.461,43.945,22.949,56.641,0
215091.172,32.715,32.715,41.504,39.062,70.801,0
215091.176,36.621,34.180,34.180,36.621,36.133,0
215091.180,33.203,26.367,18.555,24.902,68.848,0
215091.184,33.203,28.809,16.113,26.367,57.617,0
215091.188,43.945,35.156,23.438,34.668,-2.441,0
215091.192,42.969,27.832,11.719,41.016,13.184,0
215091.195,33.203,28.809,17.090,22.949,1.953,0
215091.199,30.273,28.809,33.691,15.137,0.488,0
215091.203,30.762,24.414,33.691,38.086,65.430,0
215091.207,29.785,27.344,29.785,38.086,70.801,0
215091.211,27.832,28.809,29.297,29.297,16.602,0
215091.215,34.668,29.297,33.203,34.180,1.953,0
215091.219,37.109,30.762,29.297,34.668,13.184,0
215091.223,35.156,30.273,20.020,45.410,-0.977,0
215091.227,47.363,35.645,27.344,56.641,-0.488,0
215091.231,50.293,39.062,35.645,51.758,41.016,0
215091.235,39.062,31.738,29.785,42.969,35.645,0
215091.238,30.273,19.043,22.949,31.738,14.648,0
215091.242,25.391,21.973,29.785,20.996,24.902,0
215091.246,32.227,33.691,40.527,32.715,39.551,0
215091.250,37.109,28.320,31.250,36.621,18.066,0
215091.254,27.832,20.996,35.156,33.691,3.418,0
215091.258,28.809,32.227,45.898,37.598,-3.906,0
215091.262,34.180,43.945,47.363,41.992,36.133,0
215091.266,35.645,44.922,42.969,44.922,57.617,0
215091.270,38.086,41.504,37.598,43.945,33.691,0
215091.274,37.598,41.016,37.598,41.504,61.035,0
215091.277,41.016,35.156,41.016,48.828,22.949,0
215091.281,44.434,25.879,32.227,53.711,-36.621,0
215091.285,41.992,27.832,24.902,38.086,-36.133,0
215091.289,41.016,31.738,31.738,38.574,-13.672,0
215091.293,41.504,34.668,35.645,42.969,6.348,0
215091.297,38.574,44.434,42.480,33.691,-4.883,0
215091.301,33.691,43.457,41.504,34.180,9.277,0
215091.305,36.133,34.180,42.969,41.504,22.461,0
215091.309,34.668,29.785,38.574,39.551,20.020,0
215091.313,39.062,34.668,31.250,46.875,52.246,0
215091.317,42.480,33.691,43.457,50.293,69.336,0
215091.320,38.086,23.438,45.898,46.875,53.711,1
215091.324,42.480,23.438,34.180,57.129,20.996,0
215091.328,42.480,24.414,31.250,43.457,-5.371,0
215091.332,40.039,31.738,37.109,40.039,3.906,0
215091.336,43.945,41.504,44.434,50.293,47.363,0
215091.340,38.086,42.480,41.504,33.691,49.316,0
215091.344,30.762,41.992,37.109,31.738,63.965,0
215091.348,24.902,32.227,36.133,34.668,52.246,0
215091.352,18.555,25.391,31.738,31.738,34.668,0
215091.356,29.297,32.715,29.297,34.668,21.973,0
215091.360,37.598,32.715,33.691,42.480,6.836,0
215091.363,34.668,26.367,35.156,43.945,62.988,0
215091.367,37.598,28.320,31.738,52.246,55.176,0
215091.371,41.992,32.715,29.785,62.012,-3.906,0
215091.375,34.668,25.879,33.691,38.086,-35.156,0
215091.379,31.250,22.949,35.645,26.855,-34.668,0
215091.383,34.668,25.391,33.203,42.969,30.273,0
215091.387,25.391,24.414,30.273,39.062,36.133,0
215091.391,21.484,29.785,30.273,31.738,6.348,0
215091.395,31.250,40.527,28.809,34.180,19.531,0
215091.399,39.551,43.457,22.461,40.527,20.508,0
215091.402,38.574,39.062,28.320,32.227,-0.977,0
215091.406,33.203,38.086,40.039,30.273,-1.465,0
215091.410,32.715,34.668,40.527,36.133,26.855,0
215091.414,36.621,33.691,31.738,39.062,37.598,0
215091.418,43.457,32.715,20.996,42.480,-24.414,0
215091.422,45.898,26.367,16.602,30.273,-55.176,0
215091.426,31.250,21.484,30.762,27.832,-12.695,0
215091.430,24.902,26.367,37.109,35.645,38.086,0
215091.434,23.926,31.738,29.785,23.438,4.395,0
215091.438,18.066,28.809,23.926,20.020,-14.648,0
215091.442,24.902,34.180,33.203,36.133,54.688,0
215091.445,31.250,44.434,36.621,37.598,26.367,0
215091.449,36.133,46.387,23.438,42.480,-1.953,0
215091.453,37.598,41.504,26.367,41.016,31.738,0
215091.457,35.645,38.574,42.480,42.480,20.508,0
215091.461,29.785,36.621,36.621,41.992,-24.902,0
215091.465,29.785,31.738,27.344,29.785,-40.527,0
215091.469,36.133,29.297,26.367,28.320,-23.438,0
215091.473,33.203,31.738,25.879,28.809,0.977,0
215091.477,30.273,32.715,31.738,30.273,-5.371,0
215091.481,43.945,33.203,25.391,38.574,2.441,0
215091.485,51.758,33.691,26.367,50.781,54.199,0
215091.488,38.086,33.691,40.039,48.828,48.828,0
215091.492,30.273,34.668,38.574,39.062,39.062,0
215091.496,23.926,31.738,27.832,28.320,52.734,0
215091.500,25.391,36.133,28.809,29.297,83.984,0
215091.504,41.992,44.922,41.504,36.133,65.430,0
215091.508,44.922,41.504,40.527,29.785,63.965,0
215091.512,42.480,29.785,27.832,35.156,43.457,0
215091.516,43.945,25.879,25.391,45.898,-5.859,0
215091.520,42.969,37.598,31.738,44.922,20.020,0
215091.524,38.086,44.922,25.391,37.598,12.695,0
215091.527,26.855,36.133,29.785,31.250,-4.395,0
215091.531,23.926,29.297,43.457,33.691,17.578,0
215091.535,32.715,41.016,35.156,48.340,3.418,0
215091.539,41.016,45.410,30.762,55.176,23.438,0
215091.543,38.086,32.715,40.527,39.551,49.805,0
215091.547,27.832,31.738,34.668,21.484,56.641,0
215091.551,29.297,37.109,24.414,24.902,52.246,0
215091.555,42.480,35.645,27.344,31.738,17.090,0
215091.559,41.992,32.715,31.738,28.809,11.719,0
215091.563,33.691,33.203,38.086,21.973,33.691,0
215091.567,33.203,34.180,37.109,19.043,44.922,0
215091.570,41.504,32.715,32.227,22.949,2.441,0
215091.574,45.410,30.762,23.438,36.133,29.785,0
215091.578,41.016,22.461,16.602,41.016,74.219,0
215091.582,41.992,30.273,14.648,33.203,65.430,0
215091.586,42.480,43.457,24.902,35.645,62.988,0
215091.590,41.016,32.715,35.156,36.621,47.852,0
215091.594,32.227,25.391,38.574,35.645,65.430,0
215091.598,29.785,32.227,42.969,43.945,55.664,0
215091.602,32.227,38.574,39.551,41.504,17.090,0
215091.606,23.438,30.273,29.297,27.832,33.203,0
215091.610,21.973,21.973,30.762,27.832,57.617,0
215091.613,30.273,32.227,27.344,36.621,56.152,0
215091.617,35.645,25.391,17.578,45.410,19.531,0
215091.621,36.133,10.742,25.879,47.852,69.336,0
215091.625,31.250,24.902,45.898,38.086,85.449,0
215091.629,28.809,40.527,47.363,33.203,54.199,0
215091.633,27.344,39.551,40.039,31.738,45.898,0
215091.637,24.902,25.391,35.156,22.461,4.395,0
215091.641,30.273,23.438,33.203,24.902,-7.812,0
215091.645,38.086,30.273,29.785,34.180,1.465,0
215091.649,33.203,24.414,22.949,35.156,16.113,0
215091.652,30.762,22.461,26.367,34.668,20.508,0
215091.656,33.203,31.250,22.461,34.668,20.996,0
215091.660,39.062,36.621,10.742,38.574,2.441,0
215091.664,44.434,40.039,24.902,39.062,17.578,0
215091.668,45.898,39.062,43.945,41.504,52.734,0
215091.672,39.062,33.691,41.992,51.270,35.156,0
215091.676,31.738,33.203,37.109,43.945,13.672,0
215091.680,32.227,38.574,34.668,35.645,-35.645,0
215091.684,24.414,32.715,35.645,31.250,2.930,0
215091.688,20.996,28.809,35.156,28.320,35.156,0
215091.692,24.414,34.180,27.344,34.180,39.062,0
215091.695,30.273,36.621,20.996,35.645,56.152,0
215091.699,38.086,35.645,7.324,31.250,30.273,0
215091.703,34.668,34.180,7.812,31.738,3.906,0
215091.707,33.691,32.227,43.945,21.484,16.602,0
215091.711,35.645,32.715,65.918,20.996,32.227,0
215091.715,33.203,34.668,60.059,28.809,6.836,0
215091.719,26.367,28.809,43.945,19.531,13.672,0
215091.723,16.113,17.578,32.227,8.789,56.641,0
215091.727,14.160,17.090,26.855,14.648,57.617,0
215091.731,16.602,24.902,25.391,19.531,34.180,0
215091.735,20.020,25.391,19.043,20.996,18.555,0
215091.738,24.902,22.461,19.043,27.832,29.297,0
215091.742,29.785,22.949,32.227,31.738,31.250,0
215091.746,29.297,24.414,37.109,32.715,24.902,0
215091.750,28.320,24.902,40.039,26.855,-8.301,0
215091.754,30.762,26.855,44.434,24.414,0.488,0
215091.758,32.715,32.227,31.250,32.715,21.484,0
215091.762,34.180,36.133,24.902,33.691,9.766,0
215091.766,31.738,37.598,29.297,38.574,30.762,0
215091.770,35.156,33.203,32.715,40.527,67.871,0
215091.774,33.203,25.879,28.809,22.461,85.938,0
215091.777,24.902,23.926,19.043,12.695,41.992,0
215091.781,25.391,24.902,28.809,16.113,14.160,0
215091.785,25.391,24.902,33.203,17.090,34.180,0
215091.789,31.738,23.438,30.762,28.320,32.715,0
215091.793,42.969,27.344,31.250,38.086,3.906,0
215091.797,43.945,33.691,27.832,34.180,7.812,0
215091.801,37.598,36.621,27.344,30.762,27.832,0
215091.805,31.738,32.227,30.762,26.855,-4.395,0
215091.809,30.762,25.391,29.297,27.344,-6.836,0
215091.813,36.133,25.879,31.250,35.645,27.832,0
215091.817,39.551,27.832,27.832,36.133,51.758,0
215091.820,40.039,21.973,18.555,33.691,46.875,0
215091.824,42.480,22.949,23.926,41.992,3.418,0
215091.828,42.969,29.297,40.039,47.363,-2.441,0
215091.832,46.387,28.320,44.434,53.711,-1.953,0
215091.836,44.922,27.832,36.133,53.223,11.230,0
215091.840,35.645,28.320,18.555,40.527,-12.207,0
215091.844,29.297,26.855,9.766,28.320,-11.230,0
215091.848,24.414,25.391,23.438,20.020,26.855,0
215091.852,22.949,27.344,35.156,20.020,19.531,0
215091.856,22.461,26.367,33.691,17.090,1.953,0
215091.860,25.879,26.367,36.621,18.555,9.766,0
215091.863,33.203,26.367,45.898,36.621,36.621,0
215091.867,34.180,28.809,36.621,49.316,24.414,0
215091.871,34.180,32.227,29.297,42.969,5.371,0
215091.875,31.250,21.973,34.668,31.250,43.945,0
215091.879,30.273,19.531,30.762,27.832,58.594,0
215091.883,30.273,33.203,32.715,31.738,38.574,1
215091.887,26.855,36.621,28.320,25.879,15.625,0
215091.891,27.832,33.203,21.973,22.949,12.207,0
215091.895,33.203,27.344,29.785,28.320,52.734,0
215091.899,38.574,28.809,38.086,31.250,61.035,0
215091.902,37.109,33.203,33.691,38.086,18.066,0
215091.906,34.180,29.297,21.484,45.410,57.617,0
215091.910,29.297,30.762,20.020,47.363,92.285,0
215091.914,23.926,31.738,25.391,48.828,65.918,0
215091.918,20.508,20.508,29.297,38.574,81.055,0
215091.922,19.531,23.926,37.109,40.039,91.309,0
215091.926,23.926,31.738,41.016,46.387,52.734,0
215091.930,26.367,23.926,24.414,32.227,28.320,0
215091.934,25.879,18.555,23.438,25.879,8.301,0
215091.938,32.715,24.414,37.109,33.203,6.836,0
215091.942,47.363,36.621,36.621,40.039,10.742,0
215091.945,43.457,39.551,27.832,37.109,-16.602,0
215091.949,31.250,35.156,29.785,27.832,-12.207,0
215091.953,31.738,32.227,30.273,29.297,-3.906,0
215091.957,34.180,24.902,30.273,30.762,-2.930,0
215091.961,35.156,26.855,37.598,29.785,0.977,0
215091.965,38.574,38.086,39.551,35.156,32.227,0
215091.969,37.598,39.062,39.551,44.434,86.426,0
215091.973,38.574,32.715,29.297,48.340,101.562,0
215091.977,38.086,27.832,24.902,43.457,85.938,0
215091.981,36.133,25.391,33.691,39.062,67.383,0
215091.985,42.480,30.762,31.738,39.062,41.504,0
215091.988,43.945,28.320,28.320,32.227,28.320,0
215091.992,39.062,17.578,35.156,23.926,46.875,0
215091.996,36.133,23.926,26.367,32.715,53.711,0
215092.000,38.086,35.645,20.996,36.621,45.410,0
215092.004,37.109,32.227,31.250,28.320,65.430,0
215092.008,33.691,29.785,27.832,29.785,97.656,0
215092.012,33.203,32.227,26.367,39.551,76.660,0
215092.016,33.203,24.414,27.832,37.109,36.621,0
215092.020,36.621,19.043,29.785,29.297,42.480,0
215092.024,36.133,31.738,27.832,34.180,50.781,0
215092.027,32.715,34.180,30.762,42.969,30.273,0
215092.031,28.809,29.785,26.367,30.273,24.414,0
215092.035,25.391,27.344,19.531,6.836,-6.348,0
215092.039,34.180,27.832,31.250,17.090,1.465,0
215092.043,42.969,37.109,33.203,34.668,49.316,0
215092.047,38.086,37.109,24.902,29.785,54.688,0
215092.051,37.109,31.738,26.367,31.250,28.809,0
215092.055,43.945,33.691,27.344,37.598,49.805,0
215092.059,48.340,34.668,24.902,39.062,52.246,0
215092.063,35.156,24.902,14.160,30.273,-11.719,0
215092.067,25.879,22.461,13.672,26.367,-31.250,0
215092.070,31.738,31.738,29.785,39.062,-17.578,0
215092.074,36.621,31.738,39.062,48.340,-13.184,0
215092.078,40.039,27.832,37.109,43.945,-21.973,0
215092.082,41.992,28.320,28.320,40.527,-13.672,0
215092.086,37.598,29.785,31.738,36.133,15.137,0
215092.090,38.574,29.297,25.879,44.434,2.441,0
215092.094,42.480,32.227,11.719,55.176,5.859,0
215092.098,44.434,41.992,14.160,37.598,7.324,0
215092.102,42.480,38.574,30.762,29.297,-22.461,0
215092.106,27.832,24.902,49.316,26.855,-5.371,0
215092.110,17.090,24.902,49.805,24.414,25.391,0
215092.113,21.484,30.273,37.598,26.855,-13.672,0
215092.117,29.785,25.391,39.062,32.715,-18.066,0
215092.121,30.762,33.691,43.945,37.109,-9.766,0
215092.125,32.715,41.016,37.598,39.062,1.953,0
215092.129,36.621,30.762,32.227,46.387,52.734,0
215092.133,39.062,26.367,23.438,49.316,77.148,0
215092.137,34.668,27.344,24.414,36.621,41.016,0
215092.141,24.414,27.832,48.340,34.180,27.832,0
215092.145,20.020,27.344,46.387,43.457,53.223,0
215092.149,22.461,33.203,27.832,41.504,48.340,0
215092.152,27.344,39.551,27.344,30.273,58.594,0
215092.156,29.297,34.668,40.039,24.902,93.262,0
215092.160,33.203,32.715,43.457,33.691,98.633,0
215092.164,37.109,37.598,32.715,28.320,96.191,0
215092.168,45.410,35.645,36.621,31.250,39.551,0
215092.172,45.898,32.715,36.133,38.574,20.508,0
215092.176,31.250,34.668,22.949,34.180,23.926,0
215092.180,29.297,40.039,20.996,41.504,-5.859,0
215092.184,30.762,38.086,29.785,37.109,14.648,0
215092.188,29.297,31.738,31.738,30.762,37.109,0
215092.192,33.203,30.762,26.367,27.344,32.715,0
215092.195,26.367,28.809,26.855,20.020,22.461,0
215092.199,17.090,26.367,30.273,16.602,31.250,0
215092.203,21.973,34.180,28.809,20.508,64.453,0
215092.207,26.367,34.180,26.855,34.180,57.129,0
215092.211,26.855,25.879,25.879,38.574,32.715,0
215092.215,28.320,26.367,24.414,32.227,38.574,0
215092.219,28.809,31.250,18.066,25.879,57.129,0
215092.223,30.273,32.227,21.484,24.414,71.289,0
215092.227,33.691,32.715,28.320,35.156,30.762,0
215092.231,30.273,36.133,20.020,36.621,-31.738,0
215092.235,21.484,31.738,20.508,36.133,-2.441,0
215092.238,22.461,30.273,20.508,37.109,42.480,0
215092.242,22.949,26.855,22.461,28.809,0.977,0
215092.246,23.926,21.973,31.738,26.855,-0.488,0
215092.250,29.785,29.297,33.203,29.785,19.043,0
215092.254,26.367,28.320,32.227,32.715,25.879,0
215092.258,23.438,22.461,30.273,23.438,37.109,0
215092.262,27.344,22.461,30.762,27.832,-7.324,0
215092.266,31.738,26.367,26.367,42.969,6.348,0
215092.270,38.574,31.250,29.297,45.898,34.668,0
215092.274,34.668,24.902,34.668,39.551,6.836,0
215092.277,27.344,20.996,25.391,27.832,0.000,0
215092.281,26.367,24.902,13.184,29.785,21.973,0
215092.285,29.785,24.902,26.855,35.156,24.902,0
215092.289,28.320,24.902,28.320,27.344,42.969,0
215092.293,19.531,24.414,17.090,20.020,53.711,0
215092.297,13.672,15.625,30.273,23.438,35.645,0
215092.301,27.344,21.973,40.039,25.391,15.137,0
215092.305,40.527,31.250,40.039,28.809,9.766,0
215092.309,32.227,32.227,32.715,28.320,36.133,0
215092.313,25.879,32.715,21.484,20.508,75.195,0
215092.317,27.344,29.785,15.137,20.996,82.520,0
215092.320,29.297,32.715,11.719,25.391,20.508,0
215092.324,33.691,30.762,26.855,24.414,7.324,0
215092.328,30.762,24.414,38.086,22.949,52.246,0
215092.332,30.273,26.855,38.086,20.508,92.773,0
215092.336,32.715,29.785,28.320,28.320,110.840,0
215092.340,33.203,28.320,14.160,37.598,83.496,0
215092.344,28.320,28.320,26.855,25.391,70.801,0
215092.348,20.508,25.879,39.551,14.648,65.430,0
215092.352,25.391,32.715,34.668,21.484,47.852,0
215092.356,33.691,37.598,24.902,31.738,51.270,0
215092.360,35.645,38.086,20.020,36.133,46.875,0
215092.363,38.574,37.598,16.602,36.133,-2.441,0
215092.367,41.504,28.809,21.484,33.691,12.207,0
215092.371,38.086,27.832,34.668,37.109,79.590,0
215092.375,32.227,28.320,35.645,39.551,75.684,0
215092.379,31.250,28.320,31.250,32.715,18.555,0
215092.383,34.180,35.156,30.762,29.785,46.875,0
215092.387,32.227,33.203,29.297,25.391,78.125,0
215092.391,25.879,27.344,25.879,18.555,24.414,0
215092.395,31.250,34.668,23.926,29.785,22.461,0
215092.399,36.133,39.551,21.973,39.551,3.418,0
215092.402,29.297,33.691,19.531,38.086,14.160,0
215092.406,28.809,31.738,21.484,31.250,52.246,0
215092.410,26.367,25.879,29.785,20.020,-6.836,0
215092.414,22.949,17.578,32.715,20.508,-10.254,0
215092.418,24.414,17.578,32.227,24.414,26.367,0
215092.422,31.738,22.949,32.227,39.062,45.898,0
215092.426,37.109,26.855,25.391,46.387,82.031,0
215092.430,33.691,31.738,25.391,39.551,101.562,0
215092.434,33.203,37.109,31.738,42.480,86.914,0
215092.438,28.809,31.738,23.926,38.086,83.496,0
215092.442,19.043,24.414,15.137,28.809,60.059,0
215092.445,20.508,25.391,25.391,26.855,61.523,0
215092.449,26.367,33.203,30.273,23.926,57.617,0
215092.453,32.715,30.273,28.320,19.531,-0.977,0
215092.457,31.738,19.531,34.180,20.996,1.953,0
215092.461,26.855,23.438,32.715,29.297,60.059,0
215092.465,33.691,32.715,27.344,39.062,95.703,0
215092.469,30.273,32.715,28.320,32.227,74.219,0
215092.473,24.902,26.367,26.367,31.250,64.941,0
215092.477,31.250,25.879,25.879,36.133,61.523,0
215092.481,38.574,34.180,29.785,42.480,54.688,0
215092.485,35.156,37.598,25.391,42.969,73.730,0
215092.488,31.250,31.250,24.414,32.227,103.027,0
215092.492,31.250,29.297,27.832,30.273,65.918,0
215092.496,29.785,25.879,25.391,23.438,0.000,0
215092.500,28.320,23.438,25.391,15.137,-50.781,0
215092.504,29.785,29.785,31.250,21.484,-20.020,0
215092.508,31.250,31.738,28.320,37.109,64.941,0
215092.512,33.203,34.668,22.949,40.039,26.855,0
215092.516,41.016,39.551,27.344,34.180,20.996,0
215092.520,34.668,35.156,24.902,30.762,49.805,0
215092.524,27.832,28.809,25.391,20.508,32.227,0
215092.527,29.785,28.809,30.273,15.137,25.391,0
215092.531,27.344,30.762,24.414,22.949,62.988,0
215092.535,23.438,31.250,31.738,20.508,104.980,0
215092.539,30.762,29.297,33.203,22.949,97.168,0
215092.543,30.273,30.273,14.160,26.855,40.527,0
215092.547,27.832,30.273,18.555,18.555,40.527,0
215092.551,29.297,28.809,24.902,30.762,83.496,0
215092.555,28.320,31.250,24.414,41.992,65.430,0
215092.559,26.855,30.273,28.320,27.832,64.453,0
215092.563,25.879,26.855,17.578,13.672,61.035,0
215092.567,22.949,23.926,27.344,6.348,35.156,0
215092.570,21.973,26.367,37.598,16.113,44.434,0
215092.574,27.344,25.391,22.461,22.461,47.363,0
215092.578,25.391,20.508,13.672,19.043,58.105,0
215092.582,25.391,25.879,14.160,30.273,55.176,0
215092.586,18.555,23.438,17.578,35.156,10.254,0
215092.590,11.230,12.695,19.531,28.320,-5.371,0
215092.594,18.066,12.695,19.043,30.762,-16.602,0
215092.598,23.438,24.902,24.902,34.668,-8.301,0
215092.602,24.414,32.715,28.320,29.785,-5.371,1
215092.606,17.578,25.879,27.832,16.113,-62.500,0
215092.610,13.672,25.391,30.762,24.414,-48.828,0
215092.613,19.531,36.621,28.320,31.250,-10.742,0
215092.617,26.855,36.621,17.090,20.996,-11.230,0
215092.621,30.762,33.203,15.137,22.461,-21.973,0
215092.625,28.320,28.809,21.973,20.996,18.555,0
215092.629,30.273,28.320,25.879,29.297,73.242,0
215092.633,41.992,35.645,35.156,41.504,57.129,0
215092.637,41.992,31.250,36.621,45.410,46.875,0
215092.641,36.133,22.461,31.738,46.387,96.680,0
215092.645,38.086,20.020,35.156,40.527,82.031,0
215092.649,40.527,25.879,40.527,31.250,36.621,0
215092.652,41.504,38.574,35.645,34.668,42.480,0
215092.656,39.062,38.574,24.902,44.922,89.355,0
215092.660,41.016,33.203,18.555,39.062,100.586,0
215092.664,40.527,27.832,21.484,28.320,65.918,0
215092.668,45.898,30.762,33.691,41.992,70.312,0
215092.672,54.199,41.016,35.156,50.293,107.910,0
215092.676,45.898,37.109,33.203,36.133,120.117,0
215092.680,38.574,23.438,42.480,39.062,122.070,0
215092.684,40.527,20.508,34.668,56.152,102.539,0
215092.688,39.062,29.297,19.531,52.246,49.316,0
215092.692,28.320,28.809,15.137,39.062,25.879,0
215092.695,21.973,33.691,27.344,35.156,49.316,0
215092.699,20.020,36.621,50.781,30.762,53.223,0
215092.703,13.184,32.227,51.270,27.344,67.383,0
215092.707,21.973,33.691,27.832,40.039,48.340,0
215092.711,39.062,34.668,24.414,54.688,45.898,0
215092.715,24.902,35.156,38.574,27.344,47.852,0
215092.719,12.695,34.180,39.551,5.859,41.504,0
215092.723,22.949,31.738,34.180,20.020,52.734,0
215092.727,26.367,31.738,22.949,30.273,56.641,0
215092.731,30.762,30.273,13.184,34.668,23.926,0
215092.735,35.645,33.691,18.066,34.180,9.766,0
215092.738,37.109,38.086,31.250,29.297,-9.277,0
215092.742,42.969,35.156,35.156,31.250,-55.664,0
215092.746,39.551,33.203,41.992,37.598,-7.812,0
215092.750,34.180,28.809,44.434,45.410,62.500,0
215092.754,37.598,28.809,36.621,41.504,31.738,0
215092.758,37.109,36.133,32.227,39.551,28.809,0
215092.762,40.039,38.574,36.621,53.223,50.293,0
215092.766,41.992,35.156,29.785,55.664,21.973,0
215092.770,34.180,30.273,21.484,37.598,7.324,0
215092.774,37.109,31.250,25.391,41.016,30.762,0
215092.777,43.945,34.180,26.855,50.781,22.949,0
215092.781,39.551,31.250,40.039,41.016,-0.488,0
215092.785,38.574,28.809,44.922,39.551,-0.977,0
215092.789,35.156,27.832,37.598,39.062,13.672,0
215092.793,27.344,32.227,33.203,29.785,38.086,0
215092.797,27.832,34.668,30.762,25.391,0.488,0
215092.801,26.367,31.738,27.832,27.832,-22.949,0
215092.805,34.668,35.645,20.020,37.109,14.160,0
215092.809,41.504,41.992,23.926,45.898,26.367,0
215092.813,37.598,35.645,36.133,39.062,26.855,0
215092.817,35.645,29.297,30.762,30.273,20.508,0
215092.820,31.738,24.902,25.391,30.273,18.555,0
215092.824,31.250,22.949,33.203,28.809,38.574,0
215092.828,40.039,30.273,42.480,31.250,27.832,0
215092.832,47.363,35.156,33.203,33.691,45.898,0
215092.836,48.828,39.551,24.902,42.969,83.496,0
215092.840,51.270,45.898,18.066,43.945,56.152,0
215092.844,49.805,40.527,15.137,42.480,37.598,0
215092.848,39.062,32.227,26.367,43.945,53.223,0
215092.852,30.273,30.762,32.227,39.062,44.922,0
215092.856,26.367,28.809,28.320,27.832,26.855,0
215092.860,27.344,28.809,30.762,25.879,12.207,0
215092.863,32.227,34.668,27.344,30.273,40.039,0
215092.867,33.691,36.133,30.762,28.320,82.031,0
215092.871,40.039,32.715,33.691,38.574,80.078,0
215092.875,38.574,28.320,25.879,34.668,38.086,0
215092.879,39.551,39.062,26.855,29.297,26.855,0
215092.883,44.922,45.410,21.973,41.504,68.848,0
215092.887,35.645,36.133,31.250,38.574,64.941,0
215092.891,23.438,34.668,44.434,22.461,49.316,0
215092.895,22.949,41.016,38.574,19.043,30.273,0
215092.899,32.227,41.016,40.039,28.320,13.672,0
215092.902,35.156,35.156,44.434,33.691,5.859,0
215092.906,36.133,32.715,40.039,33.691,28.320,0
215092.910,31.250,30.273,37.598,30.762,50.293,0
215092.914,32.227,31.738,39.062,33.203,57.129,0
215092.918,39.062,37.598,26.855,36.621,-5.859,0
215092.922,37.109,40.039,18.066,41.016,-13.672,0
215092.926,41.016,36.133,25.879,48.828,67.383,0
215092.930,47.852,31.250,28.809,52.734,63.477,0
215092.934,41.992,26.367,34.180,53.711,17.578,0
215092.938,25.391,21.973,42.969,39.062,42.969,0
215092.942,18.066,24.902,47.852,28.320,81.543,0
215092.945,25.879,31.250,43.945,26.367,55.664,0
215092.949,32.715,36.133,37.598,29.785,38.574,0
215092.953,37.109,37.109,31.738,34.180,56.152,0
215092.957,37.598,29.297,23.926,34.668,57.129,0
215092.961,39.551,28.320,23.926,40.527,54.199,0
215092.965,41.016,31.250,34.180,37.598,25.879,0
215092.969,29.785,25.391,33.691,37.598,5.371,0
215092.973,27.344,29.785,37.598,43.945,21.973,0
215092.977,30.762,37.598,34.668,44.922,-1.953,0
215092.981,24.414,31.250,26.367,41.504,-41.016,0
215092.985,23.438,33.203,36.133,40.039,-10.742,0
215092.988,33.203,40.527,37.598,36.621,7.812,0
215092.992,31.250,32.227,36.621,33.203,-10.742,0
215092.996,23.438,27.832,25.391,36.621,-2.441,0
215093.000,20.508,30.273,18.066,38.574,30.273,0
215093.004,19.043,29.785,17.578,26.855,67.383,0
215093.008,18.066,24.414,20.996,21.973,17.090,0
215093.012,17.578,22.461,33.691,30.273,-14.648,0
215093.016,20.020,29.297,34.180,39.551,10.254,0
215093.020,15.625,27.344,27.832,37.598,21.484,0
215093.024,20.996,28.809,27.832,35.645,25.879,0
215093.027,29.785,35.645,33.691,40.527,14.648,0
215093.031,27.832,29.297,38.574,32.227,35.645,0
215093.035,25.391,26.855,31.738,21.973,59.082,0
215093.039,25.391,33.203,20.508,27.344,46.875,0
215093.043,24.414,32.715,22.461,21.484,21.484,0
215093.047,20.020,31.250,26.367,20.020,19.531,0
215093.051,24.414,31.738,18.555,27.344,13.184,0
215093.055,33.691,30.762,26.367,32.227,-1.465,0
215093.059,30.273,27.344,40.039,30.273,-14.160,0
215093.063,32.715,26.367,41.016,30.762,-17.578,0
215093.067,36.621,25.391,36.133,35.156,-14.160,0
215093.070,33.203,24.414,31.250,32.227,6.348,0
215093.074,29.785,28.320,34.180,29.785,35.645,0
215093.078,33.691,34.668,36.133,45.898,62.988,0
215093.082,39.551,35.156,33.691,49.805,48.828,0
215093.086,40.039,29.297,35.156,30.762,38.574,0
215093.090,42.969,29.297,28.809,26.367,57.129,0
215093.094,46.875,33.691,23.926,41.992,41.504,0
215093.098,42.480,30.273,20.508,37.109,13.184,0
215093.102,38.086,24.902,26.855,27.344,-8.789,0
215093.106,37.109,29.297,41.504,39.551,4.395,0
215093.110,28.320,35.156,42.969,32.715,70.312,0
215093.113,32.227,40.039,40.527,23.438,52.734,0
215093.117,40.527,39.062,36.621,28.809,41.016,0
215093.121,37.109,29.785,30.762,34.668,66.895,0
215093.125,27.344,25.879,25.391,32.715,61.523,0
215093.129,23.438,35.156,31.738,27.344,56.152,0
215093.133,26.855,41.992,36.133,23.926,61.523,0
215093.137,26.367,36.133,21.484,27.832,74.219,0
215093.141,35.645,38.086,18.555,37.109,57.617,0
215093.145,43.945,36.621,32.227,38.086,41.504,0
215093.149,39.062,36.133,34.668,44.922,45.898,0
215093.152,38.574,46.875,22.461,48.340,20.020,0
215093.156,46.875,44.922,17.578,37.109,6.836,0
215093.160,40.039,41.016,33.691,25.879,26.367,0
215093.164,27.832,36.621,43.457,22.461,28.809,0
215093.168,29.785,28.809,41.992,26.367,39.062,0
215093.172,31.738,27.344,31.250,24.414,52.246,0
215093.176,33.691,26.367,27.344,23.438,40.039,0
215093.180,33.203,23.438,40.039,32.227,17.578,0
215093.184,40.527,32.227,35.156,39.551,34.180,0
215093.188,49.316,41.016,23.438,43.457,53.223,0
215093.192,35.645,41.504,30.273,42.969,40.527,0
215093.195,30.762,35.645,34.668,45.898,37.109,0
215093.199,28.809,26.855,34.180,36.621,23.926,0
215093.203,20.508,24.902,31.250,15.625,-11.230,0
215093.207,28.320,33.691,32.227,21.973,-16.113,0
215093.211,30.273,33.203,32.715,35.156,11.719,0
215093.215,22.461,21.973,21.484,34.668,24.414,0
215093.219,26.855,21.484,20.996,28.320,10.254,0
215093.223,36.133,29.785,25.391,29.785,-34.180,0
215093.227,33.203,31.738,24.414,35.645,-13.672,0
215093.231,31.250,35.156,35.156,37.598,2.930,0
215093.235,32.715,33.203,40.039,35.645,-18.066,0
215093.238,26.855,25.391,31.738,24.414,12.695,0
215093.242,25.391,23.438,24.414,21.484,38.086,0
215093.246,35.645,25.391,21.973,34.180,0.488,0
215093.250,40.039,29.785,26.367,37.598,-43.457,0
215093.254,36.133,30.762,38.574,35.156,-34.180,0
215093.258,36.133,28.809,45.898,37.109,0.488,0
215093.262,41.016,30.273,45.410,38.574,0.977,0
215093.266,44.922,37.598,45.898,48.340,11.719,0
215093.270,42.969,41.992,30.762,55.176,11.230,0
215093.274,38.574,41.016,27.832,49.805,13.672,0
215093.277,34.180,36.621,34.180,37.598,25.391,0
215093.281,30.273,34.180,23.926,28.809,14.648,0
215093.285,36.133,38.086,20.508,36.133,22.949,0
215093.289,41.992,36.133,27.344,40.527,47.852,0
215093.293,48.340,30.762,30.762,44.434,6.836,0
215093.297,43.945,27.832,29.297,40.527,-14.648,0
215093.301,17.578,29.297,25.391,18.066,15.625,0
215093.305,12.695,35.156,26.367,13.672,16.113,0
215093.309,21.484,33.691,25.879,18.555,18.066,1
215093.313,16.113,24.902,19.531,16.602,29.785,0
215093.317,16.113,25.879,19.043,25.879,51.758,0
215093.320,14.648,30.273,18.555,23.438,47.852,0
215093.324,11.719,34.668,17.578,16.602,21.973,0
215093.328,15.137,38.086,20.020,18.555,14.160,0
215093.332,16.113,32.715,14.160,14.648,13.184,0
215093.336,18.555,29.785,13.184,20.508,-21.484,0
215093.340,20.020,27.344,24.414,23.438,-26.855,0
215093.344,20.996,25.879,32.227,22.461,1.465,0
215093.348,26.855,28.809,39.062,29.785,-6.836,0
215093.352,23.438,27.344,34.668,30.273,-17.090,0
215093.356,16.113,21.973,20.996,17.090,-17.578,0
215093.360,20.508,19.043,21.973,19.531,-6.836,0
215093.363,29.297,25.879,31.250,31.738,5.859,0
215093.367,28.809,30.273,30.273,33.691,12.695,0
215093.371,28.809,32.715,29.785,34.668,-6.836,0
215093.375,24.414,32.227,32.715,30.762,10.254,0
215093.379,20.996,26.367,28.809,27.344,54.688,0
215093.383,15.137,30.762,34.180,24.414,39.551,0
215093.387,17.090,34.180,41.016,25.391,49.316,0
215093.391,32.715,24.902,34.668,39.551,53.711,0
215093.395,30.762,28.320,28.320,45.898,47.363,0
215093.399,23.438,43.457,33.691,30.762,23.926,0
215093.402,21.973,43.457,35.156,15.137,36.621,0
215093.406,23.926,32.227,26.855,21.484,114.746,0
215093.410,29.785,34.668,22.461,34.668,102.539,0
215093.414,25.391,33.691,19.531,21.484,56.152,0
215093.418,27.344,32.227,30.762,11.230,42.969,0
215093.422,26.367,32.227,39.551,16.602,36.621,0
215093.426,26.855,27.832,31.738,29.297,50.293,0
215093.430,35.645,30.273,20.996,27.832,47.852,0
215093.434,38.086,37.109,14.648,20.020,44.922,0
215093.438,42.480,40.527,26.367,23.926,44.922,0
215093.442,42.480,35.156,28.809,34.668,35.645,0
215093.445,37.109,30.762,28.320,30.762,17.578,0
215093.449,34.668,31.738,37.598,25.879,49.316,0
215093.453,34.180,35.645,36.133,32.227,76.172,0
215093.457,34.668,37.598,36.133,30.762,33.691,0
215093.461,32.227,35.156,27.344,29.785,-7.324,0
215093.465,35.156,38.574,13.184,38.574,10.742,0
215093.469,37.598,38.574,14.160,37.598,9.277,0
215093.473,32.715,33.203,19.531,24.902,-37.109,0
215093.477,34.668,31.250,22.949,23.926,-57.129,0
215093.481,37.109,29.785,26.855,27.344,-23.438,0
215093.485,36.133,34.180,30.762,28.809,3.906,0
215093.488,34.180,38.574,37.598,24.414,2.930,0
215093.492,36.621,37.598,36.621,23.926,23.438,0
215093.496,29.785,30.273,30.273,27.344,51.270,0
215093.500,26.367,29.297,27.832,28.320,75.684,0
215093.504,30.762,36.133,36.621,28.320,38.086,0
215093.508,24.414,31.250,36.621,25.879,28.809,0
215093.512,13.184,23.438,24.414,17.578,100.586,0
215093.516,14.648,23.926,31.738,20.996,67.383,0
215093.520,23.926,29.297,36.133,33.203,25.391,0
215093.524,28.809,28.320,37.109,31.738,75.684,0
215093.527,33.691,31.250,39.062,32.715,92.285,0
215093.531,31.738,31.250,31.738,37.598,70.312,0
215093.535,31.250,27.832,22.949,27.344,46.387,0
215093.539,28.809,32.715,34.180,25.391,58.594,0
215093.543,23.438,35.156,44.434,28.320,70.801,0
215093.547,21.973,27.344,37.109,22.461,67.871,0
215093.551,20.508,22.461,41.992,25.879,41.992,0
215093.555,20.020,27.832,41.016,21.484,31.738,0
215093.559,31.250,36.133,34.668,26.855,40.527,0
215093.563,41.016,39.551,27.832,41.016,29.297,0
215093.567,40.527,41.016,27.344,41.504,20.020,0
215093.570,42.969,41.992,39.062,38.574,40.039,0
215093.574,44.434,40.527,41.992,39.551,44.922,0
215093.578,40.039,41.016,32.227,37.109,15.625,0
215093.582,34.668,38.574,23.926,29.297,-5.371,0
215093.586,29.785,22.949,25.391,29.297,30.273,0
215093.590,27.832,12.695,32.715,22.461,62.012,0
215093.594,28.809,25.391,29.297,20.020,57.129,0
215093.598,33.203,43.457,23.926,34.180,49.805,0
215093.602,41.504,54.199,38.086,40.527,60.547,0
215093.606,37.109,45.410,42.969,30.762,39.551,0
215093.610,32.715,32.715,44.434,30.762,20.996,0
215093.613,37.598,33.203,44.434,39.551,37.109,0
215093.617,39.551,33.203,41.504,44.434,31.738,0
215093.621,41.992,41.016,38.574,41.504,34.668,0
215093.625,42.480,47.852,20.508,40.039,49.805,0
215093.629,36.621,33.203,23.926,40.039,39.062,0
215093.633,40.039,19.043,51.270,46.875,33.203,0
215093.637,53.223,30.273,57.129,57.617,5.859,0
215093.641,52.246,35.156,50.293,48.828,29.297,0
215093.645,36.621,24.414,42.969,39.062,50.781,0
215093.649,29.297,20.020,38.086,32.227,51.270,0
215093.652,29.785,24.414,34.668,23.438,45.410,0
215093.656,35.156,36.133,41.016,30.273,9.766,0
215093.660,41.504,48.340,46.875,36.133,-2.930,0
215093.664,41.504,46.387,44.922,37.598,6.836,0
215093.668,40.527,40.039,35.156,41.504,12.207,0
215093.672,35.156,30.273,30.273,34.180,2.930,0
215093.676,33.203,24.414,40.527,30.273,28.809,0
215093.680,33.691,27.344,42.480,35.156,52.246,0
215093.684,27.344,27.832,37.109,35.645,30.273,0
215093.688,27.344,23.438,32.227,31.250,54.199,0
215093.692,24.902,27.344,24.902,22.949,36.133,0
215093.695,27.832,42.969,24.414,27.344,11.719,0
215093.699,36.133,47.852,31.250,41.992,14.160,0
215093.703,31.250,42.480,34.180,36.621,5.859,0
215093.707,33.691,40.527,45.898,32.715,55.664,0
215093.711,36.133,39.062,49.316,36.133,85.449,0
215093.715,23.438,34.180,31.250,24.902,54.199,0
215093.719,18.555,32.227,25.879,27.832,27.832,0
215093.723,20.996,37.109,21.973,31.250,0.977,0
215093.727,26.855,42.969,6.836,30.273,-7.812,0
215093.731,26.855,37.109,14.160,33.203,11.230,0
215093.735,21.484,29.785,41.504,36.133,32.715,0
215093.738,23.438,30.762,48.828,42.480,45.898,0
215093.742,29.297,34.668,42.480,45.410,45.410,0
215093.746,37.109,39.062,41.992,52.734,38.574,0
215093.750,37.109,43.945,42.969,64.453,54.688,0
215093.754,33.203,42.480,38.086,56.641,66.895,0
215093.758,28.320,31.250,34.668,36.621,26.367,0
215093.762,29.297,25.879,26.855,41.504,23.438,0
215093.766,34.668,24.414,22.461,42.480,40.039,0
215093.770,37.109,28.320,22.949,33.203,35.156,0
215093.774,37.109,32.227,25.391,31.738,20.020,0
215093.777,38.574,37.109,34.668,34.180,1.953,0
215093.781,40.527,38.086,37.109,41.992,65.430,0
215093.785,43.945,32.227,40.527,39.551,94.727,0
215093.789,47.363,28.809,45.898,38.086,53.223,0
215093.793,47.852,33.691,40.527,41.016,51.270,0
215093.797,40.039,30.762,29.297,36.133,52.246,0
215093.801,39.062,28.320,13.672,37.598,32.227,0
215093.805,44.434,39.062,19.531,43.945,36.133,0
215093.809,41.016,35.156,29.785,41.504,30.762,0
215093.813,38.086,33.203,27.344,44.922,37.109,0
215093.817,40.039,40.039,29.297,54.199,22.949,0
215093.820,38.086,31.250,32.227,41.992,-8.301,0
215093.824,35.156,24.902,39.062,27.344,21.973,0
215093.828,35.645,32.227,34.668,33.691,71.289,0
215093.832,44.434,33.691,30.762,37.598,12.695,0
215093.836,43.945,27.344,32.715,30.273,-26.855,0
215093.840,40.527,22.949,15.137,39.551,40.527,0
215093.844,42.480,28.320,4.883,49.805,73.730,0
215093.848,33.691,39.551,25.879,34.668,59.570,0
215093.852,29.297,41.016,38.574,23.926,20.996,0
215093.856,27.832,38.086,41.016,30.762,-7.812,0
215093.860,30.273,34.180,46.387,33.203,-0.977,0
215093.863,35.156,31.738,40.527,31.738,-18.555,0
215093.867,37.109,34.668,34.668,41.016,-47.363,0
215093.871,36.133,34.668,37.109,48.828,-21.973,0
215093.875,31.250,29.297,37.598,49.316,32.715,0
215093.879,27.344,28.320,21.973,40.039,24.414,0
215093.883,31.250,31.250,23.438,36.621,19.043,0
215093.887,38.086,32.227,25.879,42.480,31.250,0
215093.891,41.016,35.645,23.438,46.875,1.953,0
215093.895,42.969,34.668,29.297,42.969,4.395,0
215093.899,38.086,32.715,32.715,37.109,42.480,0
215093.902,35.156,37.598,40.039,39.062,51.758,0
215093.906,36.133,42.480,38.574,41.016,38.086,0
215093.910,30.273,41.992,27.344,32.227,-6.348,0
215093.914,28.320,38.086,25.879,30.762,6.836,0
215093.918,24.902,34.668,29.297,39.062,71.777,0
215093.922,26.855,31.250,30.762,43.945,33.691,0
215093.926,38.574,28.320,26.367,50.781,-24.902,0
215093.930,34.180,26.367,25.391,38.574,-17.578,0
215093.934,31.250,25.391,33.203,30.273,23.438,0
215093.938,40.039,31.250,35.645,35.156,47.852,0
215093.942,41.504,34.668,29.785,38.574,41.016,0
215093.945,38.574,35.645,32.227,43.457,41.504,0
215093.949,34.180,33.691,39.551,36.133,63.965,0
215093.953,28.809,25.391,43.457,20.020,17.578,0
215093.957,27.832,25.391,37.109,20.508,-21.484,0
215093.961,30.273,31.738,26.855,37.109,39.062,0
215093.965,27.344,36.621,29.785,33.691,48.828,0
215093.969,18.555,31.738,31.738,23.926,0.977,1
215093.973,17.090,27.832,34.668,26.367,-10.254,0
215093.977,23.438,35.645,38.574,34.180,11.230,0
215093.981,30.762,33.691,32.715,36.133,17.090,0
215093.985,32.227,30.762,32.227,32.227,-0.488,0
215093.988,20.508,19.043,34.668,21.484,-2.441,0
215093.992,15.625,11.719,31.738,21.973,-16.113,0
215093.996,21.484,23.926,27.832,25.879,2.930,0
215094.000,24.414,36.621,32.715,35.156,-9.277,0
215094.004,22.461,35.156,36.621,31.738,-48.340,0
215094.008,23.926,32.227,37.109,21.973,-33.691,0
215094.012,27.832,31.738,29.785,32.715,12.207,0
215094.016,37.598,32.227,25.391,38.086,26.855,0
215094.020,41.992,34.180,26.367,42.969,23.926,0
215094.024,36.621,31.738,31.250,41.016,-13.184,0
215094.027,31.738,29.297,31.738,31.738,-30.273,0
215094.031,33.691,30.273,31.250,28.809,0.000,0
215094.035,36.621,29.297,37.109,29.297,29.785,0
215094.039,39.551,35.156,35.645,36.133,53.711,0
215094.043,53.223,46.875,34.668,50.293,37.109,0
215094.047,52.734,44.434,26.367,50.781,16.602,0
215094.051,38.574,36.133,26.367,46.387,13.672,0
215094.055,34.180,39.062,24.902,43.945,40.039,0
215094.059,36.133,40.039,28.320,37.598,46.387,0
215094.063,41.504,37.598,45.410,38.086,38.574,0
215094.067,43.457,42.969,47.852,48.340,59.570,0
215094.070,36.621,37.109,39.551,43.945,51.758,0
215094.074,39.062,27.344,32.715,33.203,42.969,0
215094.078,38.574,31.738,31.738,31.738,50.293,0
215094.082,34.668,37.109,36.133,34.668,54.688,0
215094.086,39.062,37.598,27.344,38.086,48.340,0
215094.090,35.645,32.715,22.461,40.039,24.414,0
215094.094,27.344,26.367,31.250,33.691,20.508,0
215094.098,34.180,22.949,37.109,35.156,45.410,0
215094.102,32.715,21.484,32.715,38.086,66.895,0
215094.106,25.391,23.926,33.203,20.996,55.176,0
215094.110,20.996,23.438,41.992,13.672,96.680,0
215094.113,21.484,28.320,39.551,24.902,92.285,0
215094.117,26.367,35.156,35.645,27.344,70.801,0
215094.121,33.203,38.574,20.996,31.250,81.543,0
215094.125,37.109,39.062,6.836,38.574,99.609,0
215094.129,37.598,32.227,17.578,35.156,95.703,0
215094.133,37.109,25.391,35.156,32.227,49.316,0
215094.137,36.621,24.414,38.574,35.156,26.855,0
215094.141,34.180,25.879,27.832,34.668,6.836,0
215094.145,32.227,23.926,26.855,37.598,23.926,0
215094.149,30.762,23.438,34.668,27.832,27.832,0
215094.152,31.250,27.344,26.855,16.602,37.109,0
215094.156,33.691,26.367,16.602,35.645,52.246,0
215094.160,26.855,30.762,26.367,30.762,60.059,0
215094.164,15.137,34.180,29.297,7.324,77.148,0
215094.168,16.602,29.785,24.414,14.160,32.715,0
215094.172,25.391,36.133,34.668,34.668,38.574,0
215094.176,26.855,38.086,38.574,39.062,54.688,0
215094.180,31.250,34.668,31.250,32.227,35.645,0
215094.184,35.645,34.180,26.367,32.715,37.109,0
215094.188,36.133,35.156,20.508,37.109,26.367,0
215094.192,39.062,37.109,20.508,33.203,-2.441,0
215094.195,39.062,35.645,26.367,31.738,6.348,0
215094.199,39.062,35.156,23.926,37.109,28.809,0
215094.203,34.180,30.762,9.277,34.668,10.742,0
215094.207,32.227,33.203,13.672,30.273,8.789,0
215094.211,30.273,37.109,34.180,29.785,16.602,0
215094.215,29.297,34.668,35.645,40.039,30.762,0
215094.219,33.691,37.109,32.227,42.480,60.547,0
215094.223,36.133,33.691,35.645,28.320,45.898,0
215094.227,34.180,26.855,35.156,24.902,42.969,0
215094.231,30.762,28.320,28.320,36.133,67.383,0
215094.235,29.785,31.250,24.902,37.598,66.406,0
215094.238,31.250,30.273,28.809,28.809,45.898,0
215094.242,29.785,29.297,35.156,24.902,36.621,0
215094.246,29.785,34.668,35.645,34.668,69.824,0
215094.250,37.109,36.133,36.133,40.527,68.359,0
215094.254,41.504,34.180,37.598,44.434,53.711,0
215094.258,39.062,33.203,35.156,52.734,83.496,0
215094.262,36.133,29.785,35.156,50.781,103.027,0
215094.266,31.738,25.879,39.551,44.434,102.051,0
215094.270,37.598,30.273,38.574,44.434,87.891,0
215094.274,43.457,37.109,36.133,44.434,80.078,0
215094.277,36.133,32.227,30.762,40.039,52.734,0
215094.281,27.344,24.902,23.926,30.273,39.551,0
215094.285,28.320,28.809,21.484,31.250,20.020,0
215094.289,31.250,25.879,25.879,30.762,6.348,0
215094.293,30.273,27.344,29.297,36.621,77.148,0
215094.297,40.039,33.691,29.297,45.410,80.078,0
215094.301,38.574,26.855,36.621,34.668,87.402,0
215094.305,26.367,24.414,38.574,24.414,112.793,0
215094.309,31.738,33.691,32.227,24.414,56.641,0
215094.313,32.227,31.250,31.250,17.090,29.297,0
215094.317,21.484,22.949,35.645,11.719,29.785,0
215094.320,23.926,27.832,30.273,19.531,31.738,0
215094.324,30.762,30.273,17.090,24.414,36.133,0
215094.328,31.250,30.273,9.277,28.320,37.109,0
215094.332,37.598,36.621,24.902,27.832,43.945,0
215094.336,41.992,38.574,38.086,28.320,1.953,0
215094.340,35.156,31.250,28.320,31.250,0.488,0
215094.344,32.227,26.367,28.809,41.016,35.156,0
215094.348,32.715,28.809,35.156,44.434,45.898,0
215094.352,25.391,33.691,31.250,23.926,54.199,0
215094.356,24.902,35.156,27.344,18.555,39.551,0
215094.360,26.855,27.832,28.320,24.902,12.695,0
215094.363,25.879,25.391,24.902,29.785,6.348,0
215094.367,26.367,35.156,19.043,32.227,21.973,0
215094.371,22.949,39.551,23.926,26.855,56.641,0
215094.375,19.531,34.180,29.785,19.043,35.645,0
215094.379,28.320,35.156,36.133,30.273,12.695,0
215094.383,28.809,34.668,33.691,35.645,53.223,0
215094.387,29.785,31.738,29.297,38.574,25.391,0
215094.391,43.945,41.016,42.480,45.898,-4.395,0
215094.395,42.480,38.086,39.062,35.645,1.465,0
215094.399,30.273,24.414,22.461,24.902,2.930,0
215094.402,26.367,24.902,24.902,18.555,35.645,0
215094.406,29.785,37.598,29.297,20.020,68.359,0
215094.410,29.297,43.945,28.320,21.484,65.918,0
215094.414,26.855,37.109,34.668,29.785,75.195,0
215094.418,25.879,30.273,34.180,24.902,36.133,0
215094.422,21.973,32.227,31.738,16.602,2.930,0
215094.426,28.809,35.645,39.062,34.668,58.594,0
215094.430,34.668,32.715,43.457,34.668,37.598,0
215094.434,30.273,31.250,37.109,26.855,-6.348,0
215094.438,30.762,34.668,28.809,29.297,10.254,0
215094.442,26.855,27.344,28.809,24.414,45.898,0
215094.445,27.832,25.879,36.133,28.809,58.594,0
215094.449,34.180,27.344,36.621,35.156,31.738,0
215094.453,32.715,22.949,32.715,31.250,34.668,0
215094.457,31.738,30.273,31.738,28.320,60.059,0
215094.461,26.367,36.133,28.320,32.227,59.570,0
215094.465,25.391,41.992,24.414,31.738,38.574,0
215094.469,30.762,42.480,20.996,22.461,59.082,0
215094.473,27.344,36.133,30.762,20.020,73.242,0
215094.477,31.250,39.062,38.574,27.832,40.527,0
215094.481,36.621,41.992,28.809,25.879,-2.441,0
215094.485,37.109,34.668,25.879,25.879,0.000,0
215094.488,38.574,32.227,29.785,35.156,22.949,0
215094.492,35.645,34.180,26.367,34.180,15.137,0
215094.496,35.645,35.156,21.484,39.062,26.367,0
215094.500,40.527,39.551,27.344,47.363,70.312,0
215094.504,42.969,40.039,35.645,46.387,32.715,0
215094.508,39.062,35.156,26.367,41.504,-26.855,0
215094.512,40.527,35.156,17.090,36.621,-19.043,0
215094.516,39.551,38.574,27.344,33.203,-16.602,0
215094.520,36.133,40.039,40.039,35.645,1.953,0
215094.524,43.457,43.457,32.715,39.551,-22.949,0
215094.527,43.457,37.109,19.531,36.133,-40.527,0
215094.531,42.480,34.668,21.484,46.875,-4.395,0
215094.535,40.039,38.574,28.809,46.875,15.625,0
215094.539,36.621,36.133,34.180,33.691,23.438,0
215094.543,37.598,28.320,33.203,39.062,16.602,0
215094.547,38.574,24.902,37.109,47.363,27.344,0
215094.551,42.480,34.668,37.598,49.805,42.480,0
215094.555,38.574,41.016,23.438,41.016,31.738,0
215094.559,31.250,36.133,20.020,31.738,9.277,0
215094.563,30.273,27.832,27.832,34.668,-10.254,0
215094.567,30.273,28.320,28.809,37.598,-22.949,0
215094.570,27.344,29.297,35.156,26.855,-51.270,0
215094.574,24.902,30.273,31.738,19.531,-28.809,0
215094.578,28.809,36.133,27.832,30.273,8.301,0
215094.582,33.203,36.621,37.109,40.039,4.395,0
215094.586,37.109,34.668,39.062,40.039,26.855,0
215094.590,42.480,38.086,40.039,43.945,18.066,0
215094.594,46.875,38.086,35.156,55.176,23.438,0
215094.598,45.410,36.621,29.297,50.781,35.645,0
215094.602,45.410,38.086,23.926,49.805,37.598,0
215094.606,46.387,36.133,17.578,52.246,46.875,0
215094.610,38.086,32.715,24.414,37.109,47.363,0
215094.613,25.879,28.320,31.250,16.113,-4.395,0
215094.617,20.508,25.391,28.809,11.719,-16.602,0
215094.621,21.484,27.344,34.180,25.879,57.617,0
215094.625,28.320,34.180,30.273,27.344,47.363,0
215094.629,33.691,34.668,20.996,26.367,0.488,0
215094.633,32.227,31.250,24.414,37.109,18.066,0
215094.637,31.250,36.133,34.180,34.668,19.531,0
215094.641,32.715,39.551,33.203,28.320,0.977,0
215094.645,34.180,41.504,30.273,31.738,-38.574,0
215094.649,35.645,43.457,33.691,32.715,-18.066,0
215094.652,34.180,38.086,26.367,33.691,-10.254,0
215094.656,32.227,31.738,22.461,35.645,-11.230,0
215094.660,29.785,29.297,29.297,24.414,-20.508,0
215094.664,28.320,27.344,37.598,21.484,-9.277,0
215094.668,33.691,25.879,41.016,33.203,2.930,0
215094.672,38.574,30.273,42.969,44.434,-0.488,0
215094.676,37.598,31.738,37.598,44.922,14.160,0
215094.680,36.133,37.109,29.297,39.551,33.203,0
215094.684,32.715,40.039,27.832,36.621,27.832,0
215094.688,31.738,36.133,25.391,30.762,35.156,1
215094.692,32.715,34.180,27.344,33.203,69.336,0
215094.695,26.855,29.785,33.203,36.133,84.473,0
215094.699,25.879,27.344,27.344,28.809,107.422,0
215094.703,28.809,26.367,25.879,23.926,69.336,0
215094.707,34.180,29.297,29.785,24.414,48.340,0
215094.711,39.551,35.156,32.227,33.691,96.191,0
215094.715,34.668,38.574,24.414,40.039,80.566,0
215094.719,30.762,35.156,15.625,23.926,75.195,0
215094.723,37.598,34.180,29.785,18.555,86.426,0
215094.727,35.156,29.785,37.109,25.879,60.547,0
215094.731,29.297,24.902,34.668,28.320,40.039,0
215094.735,36.133,34.668,42.480,36.133,-19.043,0
215094.738,36.133,33.203,39.062,36.133,-36.133,0
215094.742,35.645,28.809,22.949,35.156,6.836,0
215094.746,38.574,36.621,23.438,42.480,9.766,0
215094.750,27.344,38.086,29.297,32.227,-24.902,0
215094.754,18.066,35.645,31.250,25.391,-31.738,0
215094.758,20.996,32.227,41.504,36.133,13.184,0
215094.762,20.508,28.809,40.039,27.832,33.691,0
215094.766,18.555,38.086,29.785,21.973,-2.441,0
215094.770,18.066,39.062,27.832,22.949,-18.066,0
215094.774,24.414,28.809,33.203,27.344,4.395,0
215094.777,27.832,26.367,32.715,35.645,26.367,0
215094.781,24.902,28.320,24.902,36.133,30.762,0
215094.785,27.344,28.320,24.414,34.668,38.086,0
215094.789,32.715,25.391,16.602,35.645,55.176,0
215094.793,31.250,20.020,7.812,30.273,14.160,0
215094.797,22.949,24.414,24.414,16.602,10.254,0
215094.801,25.391,33.691,35.156,16.602,36.133,0
215094.805,23.926,31.250,34.180,26.855,43.457,0
215094.809,16.602,26.367,32.227,22.461,49.316,0
215094.813,24.414,29.785,31.250,18.066,40.039,0
215094.817,36.133,31.250,37.598,30.273,50.781,0
215094.820,36.621,33.203,39.551,41.504,26.855,0
215094.824,29.297,33.691,29.785,34.180,-6.348,0
215094.828,25.879,29.785,28.320,29.785,-15.137,0
215094.832,31.250,32.715,25.391,44.434,1.953,0
215094.836,34.668,38.086,15.137,42.969,45.898,0
215094.840,27.344,29.297,28.320,29.785,55.176,0
215094.844,20.996,20.508,41.504,26.855,39.062,0
215094.848,17.578,21.973,39.062,25.391,52.246,0
215094.852,25.391,20.996,37.598,27.344,66.895,0
215094.856,29.785,20.508,34.180,37.598,18.066,0
215094.860,20.996,25.879,33.691,31.738,11.719,0
215094.863,26.367,29.785,38.574,26.367,62.988,0
215094.867,33.203,33.691,37.109,28.320,71.289,0
215094.871,33.691,42.480,20.996,31.250,50.781,0
215094.875,32.227,42.480,20.508,30.762,42.480,0
215094.879,26.855,30.273,38.574,20.020,40.527,0
215094.883,22.949,27.344,41.016,18.555,0.977,0
215094.887,21.973,29.297,30.762,23.438,3.418,0
215094.891,17.090,22.461,21.973,20.020,17.090,0
215094.895,19.531,19.043,19.531,22.949,41.016,0
215094.899,28.320,16.602,24.414,31.738,48.340,0
215094.902,31.250,15.625,32.227,37.109,25.879,0
215094.906,31.250,20.996,30.762,36.133,62.500,0
215094.910,27.832,30.762,19.043,32.715,58.105,0
215094.914,26.855,29.297,26.367,28.320,22.461,0
215094.918,30.762,25.391,35.645,31.738,27.832,0
215094.922,35.156,30.762,33.203,36.621,40.039,0
215094.926,29.297,29.785,31.250,29.785,-7.812,0
215094.930,20.508,26.855,23.926,32.715,-1.953,0
215094.934,20.020,27.832,13.672,33.203,20.996,0
215094.938,25.879,28.320,13.672,29.785,20.020,0
215094.942,29.297,26.855,21.973,25.391,35.156,0
215094.945,28.809,28.320,29.785,20.020,35.156,0
215094.949,32.715,27.344,39.062,24.414,52.734,0
215094.953,37.109,24.414,35.645,34.668,69.824,0
215094.957,39.062,27.832,28.809,42.480,29.297,0
215094.961,42.969,35.645,25.391,48.340,60.547,0
215094.965,46.875,38.574,20.508,47.852,106.445,0
215094.969,46.387,36.133,33.203,39.551,67.383,0
215094.973,43.945,36.621,39.551,33.203,33.691,0
215094.977,36.133,38.086,30.273,37.598,24.902,0
215094.981,27.344,31.738,27.344,35.156,13.184,0
215094.985,22.461,20.508,25.879,23.926,51.270,0
215094.988,19.531,19.043,27.832,15.137,78.125,0
215094.992,19.531,22.461,27.832,12.695,47.363,0
215094.996,21.973,26.367,22.949,24.414,52.734,0
215095.000,22.949,30.762,30.273,28.320,36.621,0
215095.004,21.484,30.762,28.320,25.391,12.207,0
215095.008,22.461,28.809,22.949,28.809,5.859,0
215095.012,21.973,25.879,27.344,24.902,19.531,0
215095.016,26.855,32.227,29.785,29.785,40.039,0
215095.020,32.715,39.551,27.832,36.133,52.734,0
215095.024,32.715,39.551,32.715,33.691,69.824,0
215095.027,30.762,31.738,37.598,33.691,49.316,0
215095.031,30.273,25.879,31.738,28.320,-8.301,0
215095.035,32.227,25.391,29.297,27.832,-36.133,0
215095.039,30.762,20.508,39.062,38.574,33.203,0
215095.043,33.203,23.926,37.109,41.016,54.688,0
215095.047,35.156,33.691,23.926,38.086,25.879,0
215095.051,33.203,32.715,24.902,33.203,36.621,0
215095.055,31.250,30.762,21.484,30.273,28.809,0
215095.059,25.879,29.785,12.207,32.715,20.020,0
215095.063,23.926,26.855,23.438,27.832,0.977,0
215095.067,31.250,32.227,48.340,31.738,-1.953,0
215095.070,38.086,33.691,49.805,42.969,30.273,0
215095.074,35.645,27.344,39.551,41.016,44.434,0
215095.078,31.250,24.414,38.086,34.180,10.254,0
215095.082,27.832,27.344,34.668,22.461,-8.301,0
215095.086,18.066,20.508,33.203,18.066,47.363,0
215095.090,9.277,15.625,29.297,26.855,42.480,0
215095.094,12.695,25.391,26.855,21.973,2.930,0
215095.098,23.438,37.109,31.738,18.555,41.992,0
215095.102,34.668,40.527,27.344,25.391,112.793,0
215095.106,41.016,38.574,26.367,32.715,89.355,0
215095.110,42.480,40.527,36.133,37.598,60.059,0
215095.113,39.551,35.645,25.879,40.039,67.383,0
215095.117,32.227,22.949,23.926,40.527,48.340,0
215095.121,29.297,22.461,37.109,34.668,17.578,0
215095.125,19.043,24.902,37.598,21.973,17.090,0
215095.129,14.648,25.391,34.180,15.625,47.852,0
215095.133,16.602,23.926,26.855,12.695,79.102,0
215095.137,20.020,25.391,18.555,14.648,78.613,0
215095.141,20.996,30.762,6.836,18.066,43.457,0
215095.145,19.531,30.273,8.789,22.461,42.480,0
215095.149,27.832,29.785,29.297,28.809,53.223,0
215095.152,31.250,32.227,38.086,26.367,-7.812,0
215095.156,28.320,30.762,29.785,31.250,-23.926,0
215095.160,23.926,26.367,32.227,30.273,34.180,0
215095.164,22.461,24.414,41.504,20.996,5.859,0
215095.168,22.949,27.832,38.574,13.672,-23.926,0
215095.172,21.973,29.785,34.668,9.766,15.137,0
215095.176,24.902,29.297,33.691,21.484,50.781,0
215095.180,27.832,30.273,27.832,28.320,57.617,0
215095.184,28.809,33.203,15.625,27.832,44.922,0
215095.188,28.809,33.203,8.301,23.438,49.805,0
215095.192,36.133,31.738,26.367,27.344,53.711,0
215095.195,45.410,34.180,42.969,38.574,2.930,0
215095.199,42.480,32.715,34.668,34.668,-23.926,0
215095.203,34.180,23.926,32.227,31.738,30.762,0
215095.207,29.297,20.508,30.273,37.598,20.996,0
215095.211,32.715,26.367,28.320,38.086,-8.301,0
215095.215,35.156,28.320,29.297,21.484,12.207,0
215095.219,28.809,25.391,19.043,8.789,17.090,0
215095.223,29.297,29.297,16.113,17.578,10.254,0
215095.227,32.715,37.109,12.695,25.391,44.434,0
215095.231,29.785,40.039,11.719,20.996,-3.906,0
215095.235,31.738,30.762,32.227,20.996,-55.176,0
215095.238,35.156,24.414,38.574,33.203,15.137,0
215095.242,34.180,28.809,37.598,38.574,35.156,0
215095.246,34.668,31.250,33.691,27.344,-8.301,0
215095.250,34.668,34.668,22.949,31.250,-2.441,0
215095.254,35.156,35.156,16.113,47.363,44.434,0
215095.258,37.598,27.832,19.043,40.039,43.945,0
215095.262,39.551,22.461,28.320,31.250,-5.859,0
215095.266,39.551,28.809,41.992,30.273,31.250,0
215095.270,43.945,37.109,48.828,42.480,47.852,0
215095.274,47.852,44.922,39.062,50.781,-13.672,0
215095.277,35.645,44.434,20.508,43.457,-10.254,0
215095.281,22.461,28.320,15.137,38.086,30.273,0
215095.285,18.066,21.973,16.113,38.086,15.137,0
215095.289,24.902,24.414,16.602,45.898,-12.695,0
215095.293,32.227,29.785,31.738,37.109,-11.719,0
215095.297,30.762,39.062,39.062,35.156,8.301,0
215095.301,45.410,42.969,29.785,43.945,24.414,0
215095.305,48.828,31.250,30.762,41.504,37.109,0
215095.309,37.109,26.367,41.992,40.527,16.113,0
215095.313,40.527,36.621,49.805,44.922,36.621,0
215095.317,31.250,32.715,46.875,38.574,63.477,0
215095.320,23.438,30.762,39.062,21.973,-10.742,0
215095.324,28.809,36.133,33.691,27.832,-30.273,0
215095.328,35.645,34.668,31.738,45.410,11.719,0
215095.332,39.551,39.551,38.086,40.527,26.367,0
215095.336,41.016,42.480,34.180,34.668,14.160,0
215095.340,39.551,37.109,33.203,44.434,31.738,0
215095.344,36.621,33.203,35.645,51.758,30.273,0
215095.348,40.527,35.645,35.156,42.969,21.973,0
215095.352,42.969,41.016,36.621,45.410,10.742,0
215095.356,38.086,36.133,33.691,43.945,-6.348,0
215095.360,35.156,30.762,39.551,32.227,5.859,0
215095.363,29.785,30.273,38.574,32.715,-4.883,0
215095.367,23.926,27.832,34.180,30.273,-3.906,0
215095.371,29.297,29.785,39.062,46.875,12.207,0
215095.375,35.156,35.645,35.645,52.734,18.066,0
215095.379,30.762,37.598,35.156,35.156,12.207,0
215095.383,25.879,34.180,32.227,32.715,34.668,1
215095.387,28.809,34.668,21.484,38.574,53.223,0
215095.391,32.227,36.621,30.762,45.410,42.969,0
215095.395,35.156,29.785,43.945,52.734,39.062,0
215095.399,31.738,20.508,41.992,47.363,44.434,0
215095.402,28.320,28.809,41.992,43.945,47.852,0
215095.406,23.438,38.086,38.086,36.133,20.020,0
215095.410,17.578,31.738,26.367,24.902,-48.340,0
215095.414,20.020,26.855,24.902,28.320,-32.715,0
215095.418,22.949,28.809,30.273,28.809,-0.488,0
215095.422,27.344,36.133,33.691,24.902,-18.555,0
215095.426,34.180,42.480,34.668,27.344,2.930,0
215095.430,42.480,41.992,29.297,41.016,27.832,0
215095.434,39.062,38.574,20.996,42.480,23.438,0
215095.438,31.738,30.273,22.461,27.832,-9.277,0
215095.442,35.156,26.855,30.273,23.438,-20.508,0
215095.445,36.621,30.762,32.715,26.367,-33.691,0
215095.449,29.785,30.762,34.180,25.879,-24.414,0
215095.453,26.367,32.715,30.273,28.809,-10.742,0
215095.457,29.297,36.133,29.297,21.973,-32.227,0
215095.461,29.297,32.715,27.832,24.414,1.465,0
215095.465,36.133,36.621,26.855,40.527,22.949,0
215095.469,37.598,37.598,25.879,34.180,15.625,0
215095.473,30.273,33.691,27.344,22.949,36.621,0
215095.477,25.391,31.738,28.809,22.461,80.078,0
215095.481,19.531,28.320,32.715,20.508,105.469,0
215095.485,21.484,29.785,39.062,20.996,102.051,0
215095.488,33.203,30.273,32.227,34.668,53.711,0
215095.492,34.668,24.414,24.902,38.574,26.855,0
215095.496,24.902,20.996,23.926,23.438,19.043,0
215095.500,29.297,26.855,25.391,23.438,11.230,0
215095.504,31.738,32.715,30.273,26.855,55.176,0
215095.508,31.250,36.621,39.551,35.156,101.074,0
215095.512,38.086,35.645,32.715,46.387,81.543,0
215095.516,32.227,31.250,19.531,37.598,67.383,0
215095.520,30.762,39.062,23.438,35.156,50.781,0
215095.524,39.062,48.340,33.691,41.992,24.902,0
215095.527,38.086,36.133,33.203,34.668,24.902,0
215095.531,32.227,21.973,27.344,24.414,49.805,0
215095.535,36.133,28.809,30.762,31.250,62.012,0
215095.539,41.992,29.297,34.668,37.109,44.922,0
215095.543,36.621,21.484,42.969,33.691,6.348,0
215095.547,29.785,19.043,37.109,32.715,-17.090,0
215095.551,31.250,24.414,27.344,37.598,9.277,0
215095.555,30.762,34.180,30.762,38.086,21.973,0
215095.559,26.367,36.621,27.832,34.180,32.227,0
215095.563,26.855,36.133,23.438,29.785,48.340,0
215095.567,28.809,31.738,23.438,34.180,60.547,0
215095.570,29.785,27.832,27.832,33.203,75.684,0
215095.574,30.273,25.879,36.621,20.020,59.082,0
215095.578,35.645,26.367,36.133,24.902,36.133,0
215095.582,37.109,27.344,29.785,27.832,48.828,0
215095.586,32.715,28.809,28.320,26.367,67.871,0
215095.590,33.691,33.203,32.227,30.762,56.152,0
215095.594,33.691,36.621,28.809,29.785,46.875,0
215095.598,31.738,31.738,25.391,25.879,73.242,0
215095.602,38.086,25.391,30.273,29.785,73.730,0
215095.606,37.109,28.320,28.320,23.926,22.949,0
215095.610,39.062,37.109,22.949,19.043,12.695,0
215095.613,45.410,39.062,22.949,33.691,18.555,0
215095.617,28.809,28.809,20.020,36.621,4.395,0
215095.621,20.508,29.785,23.438,33.691,11.719,0
215095.625,32.715,41.992,39.062,47.363,37.109,0
215095.629,31.250,40.527,41.504,41.992,32.715,0
215095.633,20.020,31.250,28.809,25.391,23.926,0
215095.637,24.414,30.273,13.184,33.203,43.945,0
215095.641,37.598,36.621,12.207,37.109,49.805,0
215095.645,41.992,38.086,27.832,29.297,23.926,0
215095.649,38.086,31.250,36.133,24.902,-10.254,0
215095.652,33.691,26.855,35.645,20.508,-15.625,0
215095.656,31.738,22.949,32.227,25.879,22.461,0
215095.660,29.297,18.555,22.461,29.297,-10.254,0
215095.664,30.762,23.926,15.137,37.109,-61.035,0
215095.668,32.715,28.320,17.090,38.086,-21.973,0
215095.672,29.297,31.250,16.113,25.391,54.688,0
215095.676,38.086,33.691,19.043,33.691,32.715,0
215095.680,47.363,36.133,31.738,49.316,-18.555,0
215095.684,36.621,28.320,31.250,43.457,-13.184,0
215095.688,29.297,21.484,35.156,29.785,23.926,0
215095.692,28.320,25.879,47.363,31.738,40.039,0
215095.695,28.809,26.367,41.016,29.785,19.531,0
215095.699,25.879,22.461,27.832,19.531,52.734,0
215095.703,22.949,20.996,25.391,22.949,70.801,0
215095.707,23.438,26.855,32.715,25.879,44.922,0
215095.711,29.785,32.227,30.762,23.926,10.254,0
215095.715,33.203,31.738,17.090,26.855,15.137,0
215095.719,36.133,43.457,22.949,38.086,43.945,0
215095.723,40.527,49.316,34.668,43.457,63.965,0
215095.727,32.715,31.738,36.621,39.551,60.059,0
215095.731,23.926,20.020,34.668,33.691,18.066,0
215095.735,19.531,22.461,33.203,25.391,45.410,0
215095.738,15.625,23.926,30.762,12.207,45.898,0
215095.742,19.531,23.926,27.832,6.836,-5.371,0
215095.746,24.414,23.926,25.391,23.926,20.508,0
215095.750,25.879,26.367,25.391,32.715,23.438,0
215095.754,32.715,30.273,24.902,34.180,22.949,0
215095.758,29.785,31.250,24.414,27.344,34.668,0
215095.762,27.832,33.691,22.461,29.297,41.016,0
215095.766,29.785,35.645,25.391,39.062,42.480,0
215095.770,34.180,38.086,41.992,41.016,11.719,0
215095.774,32.227,32.227,39.551,30.273,-25.391,0
215095.777,21.484,21.973,32.227,24.414,7.324,0
215095.781,14.160,25.391,28.809,20.508,28.809,0
215095.785,18.555,26.855,24.902,16.113,-20.020,0
215095.789,26.367,21.484,29.297,22.949,-41.992,0
215095.793,30.273,26.367,28.809,32.715,-12.207,0
215095.797,33.203,31.250,28.809,36.621,0.000,0
215095.801,35.156,32.227,24.414,29.297,9.766,0
215095.805,38.086,39.062,25.879,29.297,32.715,0
215095.809,43.945,46.387,39.062,48.340,8.789,0
215095.813,39.551,44.922,33.203,46.875,17.578,0
215095.817,37.598,38.086,23.926,33.203,25.879,0
215095.820,40.039,29.297,38.086,32.715,22.949,0
215095.824,30.762,24.902,43.945,32.715,-2.441,0
215095.828,28.320,25.879,30.762,28.320,-47.363,0
215095.832,24.414,20.508,28.320,17.090,-11.230,0
215095.836,19.531,21.484,29.785,15.625,65.430,0
215095.840,23.926,28.320,24.414,23.438,95.215,0
215095.844,28.320,30.762,21.484,25.879,78.613,0
215095.848,31.250,37.598,18.066,25.879,49.805,0
215095.852,36.621,43.945,14.648,29.297,58.105,0
215095.856,38.574,42.969,18.555,33.691,43.457,0
215095.860,38.086,40.039,25.391,36.621,50.781,0
215095.863,37.109,34.668,34.180,32.227,67.383,0
215095.867,35.156,32.227,29.297,24.902,22.461,0
215095.871,31.250,31.738,21.973,24.414,20.020,0
215095.875,26.367,28.320,23.438,20.020,33.203,0
215095.879,27.832,26.367,23.926,26.855,32.715,0
215095.883,31.738,26.855,30.273,32.715,38.574,0
215095.887,31.250,28.809,30.273,29.297,14.160,0
215095.891,29.785,30.762,27.832,36.621,42.969,0
215095.895,35.156,28.320,33.203,39.062,76.660,0
215095.899,35.156,32.227,38.086,34.180,31.250,0
215095.902,39.551,41.504,33.691,41.992,-13.672,0
215095.906,45.410,37.598,30.273,46.387,-7.324,0
215095.910,40.039,24.902,41.504,41.992,-0.977,0
215095.914,36.621,22.949,37.598,30.762,16.113,0
215095.918,30.762,25.391,23.438,20.996,33.691,0
215095.922,22.461,24.414,22.949,16.113,14.160,0
215095.926,22.949,27.344,32.227,25.391,25.879,0
215095.930,26.855,27.832,30.762,34.180,53.223,0
215095.934,33.203,29.785,24.902,36.621,30.762,0
215095.938,43.945,35.645,27.344,45.898,62.500,0
215095.942,41.992,34.180,29.785,47.363,78.125,0
215095.945,32.715,26.855,29.297,33.691,62.988,0
215095.949,31.250,25.879,30.273,35.645,46.875,0
215095.953,33.691,34.668,28.809,49.316,-0.488,0
215095.957,28.320,36.133,23.926,40.039,-3.418,0
215095.961,20.508,25.391,20.508,27.832,23.926,0
215095.965,16.113,17.090,30.273,22.461,28.320,0
215095.969,19.043,23.926,36.133,17.578,4.395,0
215095.973,25.391,34.180,34.668,20.996,-7.812,0
215095.977,27.832,38.574,29.785,29.297,-17.578,0
215095.981,34.180,42.480,30.762,30.273,-44.922,0
215095.985,35.156,38.086,33.203,25.879,-36.621,0
215095.988,28.320,29.297,24.414,17.578,2.441,0
215095.992,24.414,22.461,26.367,13.672,20.996,0
215095.996,26.367,27.344,25.391,26.367,12.695,0
215096.000,30.762,36.133,19.531,38.574,-4.395,0
215096.004,31.738,38.574,20.020,35.645,6.348,0
215096.008,25.391,36.133,21.973,21.973,31.738,0
215096.012,19.531,31.738,20.020,16.113,38.086,0
215096.016,25.391,33.691,25.879,18.555,27.344,0
215096.020,28.809,34.180,42.969,19.043,-4.395,0
215096.024,22.949,34.668,45.898,14.648,-23.926,0
215096.027,20.508,28.809,33.203,10.742,-5.371,0
215096.031,17.090,14.160,23.926,9.277,21.484,0
215096.035,12.695,14.648,20.996,3.418,20.020,0
215096.039,18.555,29.297,22.461,10.254,-4.395,0
215096.043,21.484,32.227,28.809,12.695,-6.348,0
215096.047,15.137,25.391,33.691,8.789,24.414,2
215096.051,14.648,24.414,37.109,15.625,33.203,0
215096.055,19.531,25.391,49.316,17.090,21.484,0
215096.059,20.996,28.809,43.945,18.066,54.199,0
215096.063,17.578,32.227,33.691,22.461,84.473,0
215096.067,14.160,33.691,40.527,13.672,71.289,0
215096.070,14.160,37.598,37.598,5.371,50.781,0
215096.074,14.648,35.645,31.250,5.371,62.988,0
215096.078,19.043,34.180,35.645,11.230,93.750,0
215096.082,18.555,39.062,35.156,10.254,93.750,0
215096.086,2.441,43.457,34.668,-4.883,51.758,0
215096.090,-5.859,43.457,38.574,-6.836,48.828,0
215096.094,-6.836,41.992,28.809,-7.324,48.340,0
215096.098,-16.602,46.875,28.809,-20.508,29.785,0
215096.102,-21.484,50.781,45.410,-24.414,52.246,0
215096.106,-16.602,56.152,40.039,-15.625,58.594,0
215096.110,-31.738,52.246,24.902,-25.391,62.500,0
215096.113,-41.992,44.922,21.973,-44.922,10.254,0
215096.117,-38.086,49.316,29.297,-50.293,-7.324,0
215096.121,-47.363,55.664,30.273,-51.758,58.594,0
215096.125,-51.270,58.594,26.367,-48.828,38.086,0
215096.129,-40.039,70.312,30.762,-40.039,18.066,0
215096.133,-43.945,75.684,30.273,-48.340,25.391,0
215096.137,-51.270,70.801,33.203,-55.176,18.555,0
215096.141,-45.898,69.336,37.598,-48.340,9.277,0
215096.145,-46.387,61.035,26.367,-49.805,29.785,0
215096.149,-47.852,43.945,20.996,-42.969,37.598,0
215096.152,-48.340,34.668,20.996,-41.992,29.785,0
215096.156,-45.410,42.969,16.113,-46.875,41.016,0
215096.160,-34.180,55.176,28.320,-39.062,5.859,0
215096.164,-19.531,59.570,29.785,-22.461,18.066,0
215096.168,-8.789,60.059,17.090,-5.371,59.082,0
215096.172,-13.184,52.246,25.391,-8.301,65.918,0
215096.176,-27.832,40.039,29.785,-20.508,48.828,0
215096.180,-23.926,46.387,33.203,-18.555,60.547,0
215096.184,-11.230,47.852,35.156,-16.113,67.383,0
215096.188,-13.184,30.762,27.832,-16.113,59.082,0
215096.192,-9.766,32.227,31.250,-5.371,60.059,0
215096.195,0.000,41.016,37.598,10.254,61.035,0
215096.199,0.488,37.109,24.902,12.695,33.203,0
215096.203,5.859,33.691,19.043,6.348,-6.348,0
215096.207,16.602,34.180,20.020,6.836,-1.953,0
215096.211,18.066,29.297,20.020,12.207,60.059,0
215096.215,13.672,26.855,28.809,16.113,84.961,0
215096.219,12.695,26.855,34.180,18.066,106.934,0
215096.223,19.043,24.902,31.250,27.832,105.469,0
215096.227,24.902,31.250,30.762,35.645,103.027,0
215096.231,26.855,33.691,31.250,35.645,86.914,0
215096.235,34.180,30.762,31.250,41.992,85.938,0
215096.238,41.992,35.645,22.949,51.758,104.492,0
215096.242,35.645,34.180,13.672,42.969,67.871,0
215096.246,35.156,27.832,23.926,36.133,32.715,0
215096.250,41.016,24.902,35.156,35.645,14.160,0
215096.254,41.992,24.414,34.668,37.598,42.969,0
215096.258,49.805,26.367,32.715,54.688,96.191,0
215096.262,55.176,25.391,27.832,54.199,77.148,0
215096.266,59.082,26.855,14.648,47.363,37.109,0
215096.270,64.453,29.297,14.648,52.246,36.621,0
215096.274,65.918,31.250,22.949,58.594,80.078,0
215096.277,66.406,36.621,24.414,65.918,84.473,0
215096.281,62.500,34.668,33.691,66.406,44.922,0
215096.285,56.152,24.414,40.039,62.012,48.340,0
215096.289,53.223,19.531,36.621,55.176,43.457,0
215096.293,55.176,20.508,30.762,54.199,21.484,0
215096.297,63.965,26.855,23.926,57.129,19.043,0
215096.301,66.895,26.855,18.555,55.664,65.430,0
215096.305,67.383,19.531,23.438,59.082,75.195,0
215096.309,71.289,16.113,33.203,69.824,38.086,0
215096.313,69.336,21.973,27.832,70.801,57.129,0
215096.317,65.430,26.367,21.973,66.406,107.910,0
215096.320,66.895,26.367,18.066,71.289,124.512,0
215096.324,69.824,27.344,17.578,65.918,117.676,0
215096.328,68.848,26.367,23.926,60.059,78.125,0
215096.332,66.406,17.578,23.926,63.965,56.641,0
215096.336,58.594,12.207,36.133,56.641,47.363,0
215096.340,57.129,18.555,43.457,52.246,22.461,0
215096.344,60.547,26.855,34.668,69.336,20.996,0
215096.348,58.594,27.344,27.344,75.195,33.691,0
215096.352,62.988,24.414,34.668,67.871,42.969,0
215096.356,69.824,24.902,42.969,66.406,20.996,0
215096.360,69.824,27.832,36.133,67.383,14.160,0
215096.363,64.941,28.809,23.438,67.871,8.789,0
215096.367,67.383,35.645,23.438,64.453,0.977,0
215096.371,72.266,36.621,27.344,61.523,17.578,0
215096.375,68.359,26.855,30.273,59.082,25.879,0
215096.379,62.012,24.902,30.762,60.547,32.227,0
215096.383,63.965,28.320,29.297,61.523,49.316,0
215096.387,65.430,28.809,30.273,69.824,2.441,0
215096.391,62.500,23.926,33.203,67.383,-9.277,0
215096.395,60.547,22.949,38.086,53.223,0.977,0
215096.399,61.035,29.297,44.922,52.246,-20.996,0
215096.402,62.988,29.785,44.434,56.641,1.953,0
215096.406,62.500,29.297,33.691,65.918,17.578,0
215096.410,63.477,36.621,32.227,66.406,32.227,0
215096.414,61.035,38.086,33.203,63.477,15.625,0
215096.418,51.758,31.250,22.461,58.594,8.789,0
215096.422,53.711,31.738,14.648,63.477,30.273,0
215096.426,61.523,39.062,30.273,70.312,-0.977,0
215096.430,57.129,32.715,41.992,44.922,3.906,0
215096.434,52.246,22.461,44.922,28.809,35.645,0
215096.438,50.293,25.879,41.992,35.645,42.480,0
215096.442,53.223,27.344,39.062,38.086,20.996,0
215096.445,52.734,25.391,43.945,34.668,-42.969,0
215096.449,49.805,31.738,35.156,36.133,-28.320,0
215096.453,52.246,34.668,26.855,48.828,51.270,0
215096.457,52.734,37.598,34.180,51.758,34.180,0
215096.461,52.734,38.086,23.438,42.480,31.250,0
215096.465,57.129,40.527,25.391,59.082,72.754,0
215096.469,54.688,37.109,37.109,62.500,82.031,0
215096.473,48.828,30.762,28.809,40.527,104.004,0
215096.477,49.316,27.832,38.086,38.086,108.887,0
215096.481,46.387,24.414,45.898,43.945,98.633,0
215096.485,44.922,28.320,37.598,46.387,124.512,0
215096.488,41.992,27.832,40.527,38.086,105.957,0
215096.492,42.480,25.391,37.598,31.250,51.270,0
215096.496,50.781,21.484,40.039,37.598,83.984,0
215096.500,54.199,21.973,40.039,49.805,44.922,0
215096.504,45.898,25.879,29.785,52.246,17.090,0
215096.508,40.039,28.809,29.297,49.316,46.387,0
215096.512,44.434,31.250,34.668,54.199,39.551,0
215096.516,42.969,30.273,37.109,48.340,51.270,0
215096.520,41.016,25.391,28.809,34.668,30.762,0
215096.524,54.199,24.414,32.715,32.715,20.020,0
215096.527,58.594,27.832,41.992,33.203,25.879,0
215096.531,59.082,34.180,36.133,43.945,1.953,0
215096.535,55.176,35.645,25.879,43.457,16.602,0
215096.539,45.410,23.438,22.949,38.574,32.715,0
215096.543,35.645,14.160,35.645,39.062,70.801,0
215096.547,31.738,18.066,40.527,31.250,43.457,0
215096.551,32.715,29.785,42.480,38.574,15.137,0
215096.555,37.598,35.156,37.598,42.480,33.691,0
215096.559,39.062,28.809,23.438,36.621,32.715,0
215096.563,36.621,31.250,21.973,37.109,57.617,0
215096.567,36.621,32.227,22.461,37.109,54.688,0
215096.570,35.156,28.809,25.879,42.480,45.410,0
215096.574,39.551,37.598,33.203,49.316,62.988,0
215096.578,42.480,41.992,32.715,40.039,50.293,0
215096.582,36.133,25.879,29.297,25.391,9.277,0
215096.586,32.715,10.742,26.855,22.949,18.066,0
215096.590,34.668,16.113,25.391,33.691,50.293,0
215096.594,33.203,33.203,27.832,36.133,33.691,0
215096.598,31.738,39.551,27.832,27.832,41.992,0
215096.602,32.227,33.203,27.344,30.273,64.941,0
215096.606,30.762,27.344,21.484,34.180,21.484,0
215096.610,33.691,22.949,13.184,37.598,15.137,0
215096.613,31.738,23.926,15.137,39.062,20.508,0
215096.617,21.484,29.785,29.297,33.203,7.812,0
215096.621,20.508,27.344,39.551,22.949,34.180,0
215096.625,20.996,18.066,41.504,11.719,3.906,0
215096.629,23.926,20.996,30.273,15.625,-37.598,1
215096.633,25.879,29.297,15.137,28.809,16.602,0
215096.637,25.879,32.715,20.508,36.621,9.277,0
215096.641,30.762,25.879,32.227,27.344,-4.395,0
215096.645,28.320,20.508,25.391,19.043,33.203,0
215096.649,23.926,23.926,20.996,22.949,62.012,0
215096.652,25.391,30.273,18.066,24.414,55.664,0
215096.656,34.668,32.715,3.906,31.738,20.020,0
215096.660,37.598,28.809,17.578,30.273,66.406,0
215096.664,34.668,28.809,44.922,29.297,91.797,0
215096.668,28.320,31.738,45.898,25.391,68.359,0
215096.672,22.949,28.809,33.203,18.555,22.461,0
215096.676,34.180,29.297,28.320,30.762,-10.254,0
215096.680,39.551,35.645,32.227,38.086,36.133,0
215096.684,31.738,31.738,23.438,28.320,54.688,0
215096.688,27.344,21.484,10.254,23.438,46.387,0
215096.692,26.855,19.531,20.996,27.832,44.922,0
215096.695,28.809,24.414,35.645,36.133,31.738,0
215096.699,27.832,29.297,41.992,40.527,14.160,0
215096.703,22.949,27.344,36.621,36.133,45.898,0
215096.707,22.949,31.250,26.855,41.504,63.965,0
215096.711,34.668,38.086,33.691,52.246,21.973,0
215096.715,37.109,38.086,44.434,49.805,21.973,0
215096.719,32.227,31.250,43.945,38.574,30.762,0
215096.723,31.738,27.344,28.320,33.691,42.480,0
215096.727,28.809,28.809,28.320,28.320,58.105,0
215096.731,32.715,30.762,36.133,23.438,2.441,0
215096.735,33.203,28.320,31.250,27.832,-20.508,0
215096.738,27.344,29.785,37.109,41.992,29.297,0
215096.742,29.785,29.785,33.203,47.363,62.500,0
215096.746,30.762,24.902,24.414,30.762,60.547,0
215096.750,29.785,20.996,28.809,29.297,60.059,0
215096.754,38.574,29.785,27.832,40.527,42.480,0
215096.758,48.340,37.109,29.297,44.922,35.645,0
215096.762,48.340,36.133,31.738,44.922,20.996,0
215096.766,35.156,31.250,36.621,42.480,23.438,0
215096.770,21.484,23.926,39.551,40.527,28.809,0
215096.774,20.508,26.367,22.949,42.969,-1.953,0
215096.777,22.461,25.391,19.043,34.180,-2.441,0
215096.781,16.113,14.648,30.762,23.438,40.527,0
215096.785,18.066,15.625,28.320,30.762,39.062,0
215096.789,25.879,24.414,22.949,34.668,-32.227,0
215096.793,29.297,30.273,33.203,31.738,-39.551,0
215096.797,27.832,33.203,40.527,36.133,5.859,0
215096.801,21.973,28.809,37.598,39.062,20.996,0
215096.805,24.902,23.926,31.250,36.133,16.113,0
215096.809,30.762,25.879,25.879,36.133,26.367,0
215096.813,28.809,25.879,24.414,36.133,42.480,0
215096.817,25.391,27.832,23.926,35.645,22.461,0
215096.820,30.762,26.855,29.297,38.086,-9.277,0
215096.824,35.645,23.926,33.691,44.434,18.066,0
215096.828,34.668,28.320,33.691,43.945,36.133,0
215096.832,28.809,29.297,29.297,29.297,40.527,0
215096.836,36.133,31.250,29.785,33.203,30.762,0
215096.840,52.246,40.527,42.969,53.223,41.504,0
215096.844,46.875,37.598,41.504,49.316,47.363,0
215096.848,38.086,33.691,27.832,46.875,19.531,0
215096.852,45.410,40.039,29.297,58.105,25.391,0
215096.856,45.410,30.762,28.320,61.035,32.715,0
215096.860,33.203,18.066,24.414,42.480,66.895,0
215096.863,30.273,22.949,32.227,25.879,13.672,0
215096.867,38.574,32.227,34.668,31.250,-36.133,0
215096.871,42.480,38.574,33.203,43.457,35.645,0
215096.875,41.992,38.086,33.203,42.480,70.312,0
215096.879,40.039,35.156,33.203,40.039,60.547,0
215096.883,45.898,38.086,34.180,46.875,34.668,0
215096.887,47.852,37.109,34.668,48.828,51.758,0
215096.891,43.945,35.156,34.668,48.340,54.688,0
215096.895,47.363,45.410,34.668,47.852,16.602,0
215096.899,41.504,42.480,25.879,42.969,43.457,0
215096.902,35.156,31.738,25.879,38.086,68.848,0
215096.906,41.016,29.297,34.668,38.574,50.293,0
215096.910,41.992,29.297,32.715,28.809,21.484,0
215096.914,38.574,34.180,31.250,29.785,16.602,0
215096.918,38.086,36.133,35.156,38.574,43.457,0
215096.922,43.457,41.504,26.367,50.781,47.852,0
215096.926,54.199,44.922,26.855,57.617,38.574,0
215096.930,49.805,36.133,35.156,41.504,36.133,0
215096.934,41.016,34.180,39.062,39.551,21.484,0
215096.938,38.574,33.691,42.969,38.086,11.719,0
215096.942,28.809,23.438,35.645,21.973,6.836,0
215096.945,30.762,19.531,34.668,22.461,26.855,0
215096.949,34.668,26.855,38.086,32.227,32.227,0
215096.953,31.738,33.691,28.809,32.227,13.672,0
215096.957,31.738,34.180,20.508,31.250,-1.953,0
215096.961,28.320,35.645,24.414,31.250,42.480,0
215096.965,37.109,43.457,33.203,42.969,79.102,0
215096.969,46.387,46.387,38.574,51.758,34.668,0
215096.973,40.039,38.086,32.715,40.527,-4.883,0
215096.977,36.133,28.320,31.738,39.551,20.020,0
215096.981,32.715,21.973,36.621,33.203,62.500,0
215096.985,29.297,19.531,35.645,23.438,48.340,0
215096.988,29.785,24.414,31.250,25.391,10.742,0
215096.992,26.367,26.855,33.691,22.461,38.086,0
215096.996,25.391,28.320,33.203,28.809,62.500,0
215097.000,30.762,36.621,32.227,32.227,-1.465,0
215097.004,33.203,38.086,37.598,33.691,3.418,0
215097.008,34.180,35.645,43.945,43.945,30.273,0
215097.012,35.645,34.668,44.922,50.781,4.883,0
215097.016,35.156,34.180,31.250,55.664,-1.465,0
215097.020,33.691,35.645,21.973,44.434,8.789,0
215097.024,34.668,30.762,30.762,36.621,22.949,0
215097.027,29.785,21.484,36.133,35.645,30.762,0
215097.031,24.902,21.484,34.668,30.762,64.941,0
215097.035,23.926,28.320,28.320,34.180,49.805,0
215097.039,21.484,26.367,27.344,31.250,5.859,0
215097.043,21.973,25.879,42.969,26.855,-24.414,0
215097.047,28.809,39.062,43.945,30.762,-46.387,0
215097.051,31.250,43.457,28.809,42.480,-16.113,0
215097.055,21.484,34.668,26.367,41.504,12.695,0
215097.059,15.625,24.414,34.180,24.414,-15.137,0
215097.063,20.996,25.391,30.762,16.113,2.441,0
215097.067,22.949,29.297,21.484,16.113,35.645,0
215097.070,20.996,29.785,22.461,20.508,8.301,0
215097.074,34.180,36.133,26.367,28.320,15.625,0
215097.078,36.133,33.691,28.320,25.391,18.066,0
215097.082,30.762,29.297,26.855,34.668,20.996,0
215097.086,32.227,37.598,27.344,38.086,65.430,0
215097.090,29.297,40.039,31.250,22.949,56.641,0
215097.094,33.203,29.785,31.738,26.855,18.555,0
215097.098,28.320,27.344,30.273,33.203,35.156,0
215097.102,20.020,30.762,20.996,25.391,61.035,0
215097.106,24.902,31.250,21.973,14.648,28.320,0
215097.110,19.531,25.879,32.715,12.207,-6.348,0
215097.113,10.254,18.066,28.320,20.020,3.418,0
215097.117,21.973,23.438,20.996,26.367,22.949,0
215097.121,33.691,23.438,24.902,29.297,34.180,0
215097.125,30.762,23.926,38.574,32.227,20.508,0
215097.129,25.391,32.715,38.574,29.785,41.504,0
215097.133,31.250,37.109,27.344,27.832,53.223,0
215097.137,35.645,38.574,29.297,30.762,31.250,0
215097.141,34.668,35.156,33.691,29.785,45.898,0
215097.145,29.785,28.320,27.832,32.715,21.484,0
215097.149,34.180,29.785,32.227,36.621,4.395,0
215097.152,38.574,25.391,35.645,22.949,42.480,0
215097.156,35.645,17.090,27.344,23.926,68.848,0
215097.160,38.574,18.555,26.855,35.156,68.359,0
215097.164,39.062,23.926,36.621,35.156,56.152,0
215097.168,41.504,32.227,33.203,35.645,67.383,0
215097.172,43.457,28.809,21.484,40.527,61.035,0
215097.176,41.016,21.484,22.949,37.109,38.574,0
215097.180,40.039,25.391,28.320,30.762,50.293,0
215097.184,38.086,34.668,26.855,29.785,45.898,0
215097.188,34.668,39.062,24.902,26.367,45.410,0
215097.192,36.621,41.016,25.391,31.250,57.129,0
215097.195,41.992,39.551,35.156,36.621,39.062,0
215097.199,38.086,31.250,40.039,31.250,16.113,0
215097.203,28.809,23.926,32.227,29.785,46.387,0
215097.207,26.855,21.484,28.809,30.273,60.547,0
215097.211,33.691,20.996,32.227,33.203,48.828,0
215097.215,34.180,20.508,30.762,38.086,59.082,0
215097.219,31.738,21.973,33.691,39.551,73.242,0
215097.223,37.598,30.273,26.855,43.945,57.129,0
215097.227,46.875,38.086,25.391,54.199,17.578,0
215097.231,41.504,31.250,33.691,40.039,45.898,0
215097.235,37.598,28.809,28.809,34.180,77.148,0
215097.238,43.457,35.645,24.902,41.016,42.480,0
215097.242,40.527,32.227,24.902,34.180,23.438,0
215097.246,39.062,27.832,27.344,33.203,26.855,0
215097.250,34.180,34.668,28.809,27.832,26.855,0
215097.254,35.156,35.645,35.645,30.762,30.273,0
215097.258,45.898,35.645,43.457,43.945,44.434,0
215097.262,43.945,37.109,39.551,48.828,77.148,0
215097.266,40.039,34.668,29.297,45.410,87.402,0
215097.270,40.039,31.738,27.832,42.480,73.242,0
215097.274,35.156,27.344,24.414,36.133,59.570,1
215097.277,34.180,23.438,22.949,33.691,25.879,0
215097.281,37.598,19.531,28.809,42.480,29.297,0
215097.285,39.062,24.902,30.762,37.598,24.902,0
215097.289,38.086,34.180,32.715,30.762,-26.855,0
215097.293,40.527,39.062,40.527,41.992,0.977,0
215097.297,44.922,42.480,40.527,50.293,25.391,0
215097.301,34.668,32.715,32.227,39.551,8.301,0
215097.305,23.438,22.949,33.691,29.785,6.836,0
215097.309,26.855,26.855,41.504,31.738,5.859,0
215097.313,31.738,37.598,40.039,32.227,16.602,0
215097.317,29.297,35.156,37.109,35.645,10.254,0
215097.320,30.762,28.809,33.203,36.133,7.324,0
215097.324,36.621,33.203,30.273,38.574,-13.672,0
215097.328,39.062,34.180,34.180,44.922,-44.434,0
215097.332,37.109,37.109,34.668,41.992,-28.320,0
215097.336,34.668,42.480,30.762,33.691,2.930,0
215097.340,37.598,42.969,26.855,30.762,26.855,0
215097.344,31.738,36.133,25.391,29.297,36.621,0
215097.348,23.438,33.691,28.809,23.438,15.625,0
215097.352,27.832,39.062,29.785,20.996,-2.930,0
215097.356,22.461,32.715,17.578,22.461,9.766,0
215097.360,15.137,23.926,13.672,24.414,26.367,0
215097.363,19.043,29.297,30.762,24.902,19.531,0
215097.367,20.020,30.762,36.621,24.414,10.742,0
215097.371,20.020,30.762,37.598,22.949,-2.441,0
215097.375,20.020,34.668,35.645,20.508,-5.371,0
215097.379,14.648,31.738,27.832,16.113,-12.207,0
215097.383,22.461,30.762,24.902,35.156,9.766,0
215097.387,35.645,33.691,24.902,51.270,25.879,0
215097.391,24.902,27.832,28.809,30.273,20.508,0
215097.395,10.742,23.438,30.762,15.137,68.848,0
215097.399,9.277,21.973,29.785,16.602,70.312,0
215097.402,12.695,20.020,27.344,18.555,45.410,0
215097.406,16.113,19.531,26.855,19.043,48.340,0
215097.410,17.090,20.996,31.250,22.949,65.918,0
215097.414,20.020,24.902,29.785,23.926,68.359,0
215097.418,20.020,26.367,26.367,21.484,41.016,0
215097.422,17.090,26.855,25.879,21.973,69.336,0
215097.426,22.461,28.320,28.320,27.344,105.957,0
215097.430,24.902,27.832,28.809,30.273,94.727,0
215097.434,19.531,28.809,23.438,21.973,83.496,0
215097.438,17.578,27.344,19.043,12.695,40.527,0
215097.442,20.020,25.879,23.926,19.531,15.137,0
215097.445,23.926,27.344,19.043,25.879,46.387,0
215097.449,30.762,20.508,14.160,22.949,56.641,0
215097.453,32.715,17.578,23.438,31.250,40.527,0
215097.457,29.297,24.902,28.809,34.180,61.523,0
215097.461,30.273,28.809,26.855,33.691,43.457,0
215097.465,33.203,31.250,21.973,36.133,24.414,0
215097.469,27.832,30.273,17.090,30.762,42.480,0
215097.473,20.020,28.320,26.367,27.832,73.730,0
215097.477,12.207,28.809,29.297,15.625,54.688,0
215097.481,16.602,26.855,25.391,11.230,-6.348,0
215097.485,23.438,31.250,37.598,20.996,14.160,0
215097.488,28.320,33.203,38.086,27.344,40.527,0
215097.492,32.227,26.367,31.250,28.809,-9.277,0
215097.496,27.832,20.996,24.902,25.391,2.930,0
215097.500,23.926,16.602,25.391,23.926,55.176,0
215097.504,19.531,17.578,23.926,15.625,75.684,0
215097.508,22.461,27.344,16.113,11.719,67.871,0
215097.512,30.273,33.691,16.113,20.508,45.898,0
215097.516,32.715,32.715,20.020,33.203,55.664,0
215097.520,34.180,27.344,20.996,31.738,59.082,0
215097.524,35.156,25.391,27.344,23.926,30.762,0
215097.527,33.691,31.738,32.227,28.809,38.574,0
215097.531,32.227,35.156,29.297,38.086,87.402,0
215097.535,28.809,31.250,24.414,38.574,61.523,0
215097.539,34.180,26.855,27.344,28.809,-9.766,0
215097.543,35.156,28.809,30.273,27.344,-25.391,0
215097.547,28.809,29.297,26.367,35.156,30.273,0
215097.551,27.832,27.344,21.484,32.227,42.480,0
215097.555,24.902,28.320,18.555,20.020,-8.789,0
215097.559,26.367,26.855,13.672,18.066,-12.207,0
215097.563,29.785,24.414,15.137,31.250,-1.465,0
215097.567,29.297,25.391,30.762,35.645,-18.555,0
215097.570,31.250,26.855,29.297,28.320,-16.113,0
215097.574,31.738,25.879,25.879,22.461,11.230,0
215097.578,30.762,30.273,33.203,30.762,41.992,0
215097.582,36.133,37.109,32.227,35.156,-0.977,0
215097.586,42.969,34.180,32.227,36.621,-24.902,0
215097.590,33.691,27.832,27.832,32.227,-13.672,0
215097.594,23.438,28.320,26.855,32.227,-6.836,0
215097.598,25.879,32.227,27.344,36.621,40.527,0
215097.602,29.297,32.227,25.879,33.203,82.031,0
215097.606,31.738,26.855,27.832,38.086,54.199,0
215097.610,29.785,24.902,24.902,36.621,37.109,0
215097.613,23.926,27.344,16.602,26.367,0.000,0
215097.617,26.855,22.461,25.879,25.391,-21.973,0
215097.621,35.645,20.996,39.062,27.832,39.551,0
215097.625,27.832,19.531,37.598,21.973,51.270,0
215097.629,21.484,24.414,30.762,20.020,20.020,0
215097.633,26.855,33.203,25.391,32.227,27.344,0
215097.637,28.320,34.180,21.973,34.668,33.203,0
215097.641,25.391,30.273,21.973,28.809,57.617,0
215097.645,36.133,31.250,27.344,36.133,34.668,0
215097.649,46.387,36.133,28.320,43.945,-3.906,0
215097.652,34.180,31.738,26.367,42.480,-17.090,0
215097.656,30.762,28.809,28.320,38.574,-12.695,0
215097.660,44.434,36.133,32.715,41.504,-0.488,0
215097.664,44.922,34.180,35.645,51.270,8.301,0
215097.668,37.109,28.320,37.598,44.922,12.207,0
215097.672,37.109,28.320,36.621,31.250,9.277,0
215097.676,39.551,29.785,25.391,39.062,13.672,0
215097.680,40.527,33.691,21.973,42.480,17.578,0
215097.684,42.480,39.062,29.297,45.410,21.484,0
215097.688,45.898,41.992,28.809,56.152,39.062,0
215097.692,45.410,34.668,23.438,53.711,13.672,0
215097.695,37.598,29.297,17.090,41.992,13.184,0
215097.699,28.809,24.902,27.344,32.715,46.875,0
215097.703,29.297,27.832,38.086,31.738,21.484,0
215097.707,29.297,33.691,36.621,32.227,3.906,0
215097.711,27.344,30.273,32.227,34.180,43.457,0
215097.715,28.320,29.297,29.785,29.297,66.406,0
215097.719,25.391,32.227,29.297,20.508,27.832,0
215097.723,29.297,34.180,26.855,27.344,29.297,0
215097.727,37.109,29.785,25.391,32.227,73.242,0
215097.731,42.480,26.367,25.879,33.691,80.078,0
215097.735,45.898,30.762,30.762,35.645,41.992,0
215097.738,42.969,33.203,33.203,36.133,41.504,0
215097.742,41.504,30.273,36.133,37.598,65.918,0
215097.746,41.504,27.344,27.344,34.180,41.016,0
215097.750,37.109,31.250,21.484,27.344,9.277,0
215097.754,34.180,33.691,22.949,20.508,-20.020,0
215097.758,40.039,31.738,28.320,23.926,21.973,0
215097.762,41.016,28.809,28.320,28.320,55.176,0
215097.766,42.480,32.715,28.320,32.715,-2.441,0
215097.770,43.457,34.668,27.344,32.227,-53.223,0
215097.774,46.387,33.203,27.832,35.156,-49.316,0
215097.777,51.270,34.668,28.320,42.969,-18.555,0
215097.781,50.293,29.297,28.320,43.945,7.324,0
215097.785,40.527,24.414,35.645,35.156,9.277,0
215097.789,33.203,20.996,25.879,24.902,19.043,0
215097.793,33.691,24.902,25.879,30.273,25.879,0
215097.797,30.762,34.668,37.598,36.133,-1.465,0
215097.801,26.855,31.250,29.785,37.598,12.695,0
215097.805,29.785,27.344,27.344,40.527,14.160,0
215097.809,24.414,23.926,27.832,33.203,-4.883,0
215097.813,18.555,25.879,28.320,27.832,1.953,0
215097.817,26.367,30.762,38.086,33.203,11.230,0
215097.820,27.344,21.973,35.645,28.809,-0.488,0
215097.824,26.367,21.973,28.320,27.832,22.949,0
215097.828,31.738,28.809,26.855,30.273,31.250,0
215097.832,33.203,32.227,23.926,28.320,63.477,0
215097.836,25.391,25.879,29.785,28.320,62.988,0
215097.840,19.531,20.508,30.273,26.855,11.230,0
215097.844,22.461,27.344,23.926,20.508,3.906,0
215097.848,23.438,32.227,23.926,17.578,22.461,0
215097.852,26.367,28.809,17.090,16.602,37.109,0
215097.856,31.250,25.391,18.066,17.090,21.973,0
215097.860,34.180,23.926,33.691,22.949,33.203,0
215097.863,38.086,24.414,36.133,29.297,36.133,0
215097.867,38.086,28.809,26.855,32.715,46.387,0
215097.871,36.621,31.250,22.949,39.062,33.203,0
215097.875,34.180,27.344,19.531,39.062,36.133,0
215097.879,33.203,23.926,10.742,39.062,44.922,0
215097.883,34.180,24.902,10.742,41.016,21.484,0
215097.887,34.180,26.367,21.973,43.945,25.879,0
215097.891,38.086,24.902,32.227,40.039,40.527,0
215097.895,39.062,22.461,29.297,34.668,23.438,0
215097.899,37.109,21.973,21.973,28.320,-6.348,0
215097.902,38.574,25.879,25.879,25.391,12.207,0
215097.906,36.133,33.691,32.715,35.645,30.762,0
215097.910,31.250,35.156,19.531,44.922,13.184,0
215097.914,31.250,34.180,20.996,41.016,42.969,2
215097.918,25.879,28.320,32.227,32.227,66.406,0
215097.922,24.902,24.902,17.090,32.715,71.777,0
215097.926,31.250,29.785,18.066,39.062,83.984,0
215097.930,23.926,19.531,32.715,34.668,54.199,0
215097.934,20.996,14.648,33.203,34.180,29.785,0
215097.938,30.273,26.367,24.414,47.852,58.594,0
215097.942,33.691,24.902,22.461,41.992,50.781,0
215097.945,35.645,25.391,27.832,31.738,6.836,0
215097.949,40.039,34.180,36.133,39.551,58.594,0
215097.953,42.969,33.691,40.039,43.945,79.102,0
215097.957,40.039,27.832,30.273,39.062,38.086,0
215097.961,35.645,30.273,23.926,35.645,14.648,0
215097.965,36.133,27.344,26.367,37.109,33.691,0
215097.969,32.227,19.043,23.926,37.109,69.824,0
215097.973,34.180,20.996,25.879,39.551,62.988,0
215097.977,38.574,25.391,33.691,42.969,68.848,0
215097.981,34.180,31.250,28.809,39.551,57.129,0
215097.985,36.621,34.180,25.879,36.621,57.129,0
215097.988,42.969,37.109,32.227,35.156,35.156,0
215097.992,35.645,37.109,37.598,34.668,-29.297,0
215097.996,29.785,33.691,29.785,45.898,30.273,0
215098.000,32.227,33.691,27.344,42.480,85.449,0
215098.004,28.809,31.738,17.578,31.250,51.758,0
215098.008,24.902,29.297,10.742,28.320,42.969,0
215098.012,26.855,25.879,19.043,33.691,66.406,0
215098.016,25.879,22.461,17.090,34.180,78.125,0
215098.020,24.414,21.484,19.043,22.461,70.801,0
215098.024,29.297,28.809,27.344,26.367,48.340,0
215098.027,31.738,29.785,28.320,30.762,67.871,0
215098.031,29.785,22.949,25.879,25.391,78.613,0
215098.035,23.926,22.461,21.484,21.484,6.348,0
215098.039,25.391,26.367,24.902,29.297,-6.348,0
215098.043,33.203,28.809,27.344,35.645,19.531,0
215098.047,32.227,30.762,28.809,33.203,12.207,0
215098.051,28.809,33.691,31.738,34.180,10.742,0
215098.055,26.367,31.738,18.555,32.227,-2.441,0
215098.059,22.949,23.926,18.066,26.367,2.441,0
215098.063,23.926,19.531,28.320,19.043,6.348,0
215098.067,33.691,19.043,26.367,30.273,31.738,0
215098.070,27.344,13.672,25.879,35.645,35.645,0
215098.074,9.766,15.625,21.484,14.648,25.879,0
215098.078,5.371,22.461,22.461,8.789,27.832,0
215098.082,12.695,25.391,26.855,19.531,26.367,0
215098.086,17.090,28.809,28.809,20.508,24.414,0
215098.090,11.719,27.344,29.297,12.207,4.883,0
215098.094,15.625,31.250,21.484,10.254,15.137,0
215098.098,27.344,35.645,22.949,18.555,7.324,0
215098.102,34.180,34.180,28.320,29.297,14.160,0
215098.106,28.809,31.250,24.902,23.926,54.688,0
215098.110,22.461,27.344,18.555,21.973,59.082,0
215098.113,27.344,29.785,19.531,23.926,26.367,0
215098.117,33.691,30.762,29.785,21.973,-2.441,0
215098.121,36.133,33.691,37.109,27.832,0.000,0
215098.125,32.227,31.250,33.203,28.320,7.324,0
215098.129,30.273,24.414,28.320,33.691,17.578,0
215098.133,31.738,24.414,36.133,33.691,34.180,0
215098.137,28.320,28.809,32.227,19.531,28.809,0
215098.141,18.555,28.320,23.926,19.043,72.754,0
215098.145,20.020,33.203,27.832,28.320,75.684,0
215098.149,26.367,41.992,21.973,32.227,34.180,0
215098.152,25.879,31.738,11.719,27.344,-2.930,0
215098.156,23.438,22.461,24.414,20.020,36.133,0
215098.160,20.996,25.391,34.180,16.602,90.332,0
215098.164,24.902,32.715,26.367,23.438,56.152,0
215098.168,24.902,35.156,27.344,22.949,1.953,0
215098.172,18.555,30.762,23.438,16.113,-3.418,0
215098.176,19.531,27.344,23.438,21.484,7.812,0
215098.180,27.832,30.762,37.109,32.715,-5.371,0
215098.184,24.902,31.250,33.691,34.180,-16.113,0
215098.188,24.414,20.020,25.879,35.645,-11.230,0
215098.192,36.133,19.043,29.297,45.898,1.465,0
215098.195,37.598,30.762,33.203,41.016,-11.719,0
215098.199,37.598,42.480,36.621,39.062,-12.695,0
215098.203,41.504,45.898,21.973,41.992,-11.719,0
215098.207,33.691,35.645,13.184,34.668,-8.301,0
215098.211,28.809,24.902,22.461,23.926,19.531,0
215098.215,34.180,29.297,33.691,20.020,12.207,0
215098.219,33.691,36.621,37.109,25.879,-13.672,0
215098.223,22.461,21.973,28.320,20.508,-2.930,0
215098.227,22.949,18.555,29.297,19.531,-7.812,0
215098.231,29.785,26.855,32.227,21.484,-60.059,0
215098.235,31.250,32.227,33.203,27.832,-43.457,0
215098.238,33.691,36.621,27.832,40.039,10.742,0
215098.242,33.203,34.668,27.832,39.062,0.000,0
215098.246,30.273,31.738,37.109,27.832,-7.324,0
215098.250,22.949,33.691,31.250,23.926,7.324,0
215098.254,18.555,33.203,19.043,29.297,0.488,0
215098.258,25.879,31.250,7.812,35.156,-35.645,0
215098.262,36.621,40.527,13.672,34.180,-60.547,0
215098.266,30.762,41.016,30.273,22.949,-6.348,0
215098.270,21.973,28.320,32.715,16.113,30.273,0
215098.274,23.438,28.809,35.156,15.625,-17.578,0
215098.277,18.555,30.762,29.785,16.113,0.000,0
215098.281,15.137,23.926,20.996,22.461,48.340,0
215098.285,24.902,26.855,29.785,28.320,33.691,0
215098.289,29.297,29.785,35.645,25.879,25.879,0
215098.293,27.344,26.367,28.809,21.973,40.039,0
215098.297,26.855,24.414,21.973,26.855,48.828,0
215098.301,33.203,29.785,20.508,41.992,13.672,0
215098.305,41.504,33.691,30.762,43.457,-7.324,0
215098.309,24.414,29.297,37.109,20.508,21.484,0
215098.313,9.766,25.879,34.668,4.395,52.246,0
215098.317,20.020,30.273,27.832,14.160,61.035,0
215098.320,21.973,32.715,26.367,18.555,16.113,0
215098.324,17.090,23.926,20.996,12.695,27.832,0
215098.328,20.996,23.926,20.508,18.066,76.172,0
215098.332,26.367,29.297,23.926,20.508,57.617,0
215098.336,24.414,24.902,24.414,17.090,23.438,0
215098.340,30.273,28.809,22.461,23.438,43.457,0
215098.344,40.039,36.133,12.695,31.738,50.781,0
215098.348,40.039,27.832,15.625,31.738,-5.371,0
215098.352,41.504,23.926,20.996,31.738,-20.996,0
215098.356,44.922,30.273,20.996,29.785,-35.645,0
215098.360,37.598,29.785,19.043,19.531,-9.277,0
215098.363,28.809,28.320,24.414,16.602,48.828,0
215098.367,27.832,27.832,23.926,19.531,76.660,0
215098.371,27.344,34.180,25.391,21.973,100.098,0
215098.375,25.879,38.574,32.227,16.113,42.969,0
215098.379,20.996,28.809,26.367,9.766,16.602,0
215098.383,22.949,28.320,23.926,18.555,33.691,0
215098.387,24.902,36.621,22.461,26.367,26.855,0
215098.391,23.926,34.180,23.926,23.438,29.297,0
215098.395,33.203,37.109,30.273,24.414,15.625,0
215098.399,37.598,40.039,22.949,33.203,28.320,0
215098.402,36.133,35.156,14.648,37.109,27.832,0
215098.406,40.039,37.109,29.297,39.062,26.855,0
215098.410,41.992,34.668,41.504,30.762,8.789,0
215098.414,33.203,26.367,40.039,20.020,21.973,0
215098.418,29.785,28.809,34.180,26.367,64.453,0
215098.422,33.691,35.156,24.414,33.203,30.762,0
215098.426,32.715,34.668,29.785,23.926,21.973,0
215098.430,34.668,29.297,25.391,21.973,34.180,0
215098.434,35.156,30.273,22.949,34.668,55.664,0
215098.438,36.621,32.715,34.668,33.691,55.176,0
215098.442,40.039,34.668,34.180,36.621,49.805,0
215098.445,41.504,34.668,28.320,40.039,50.781,0
215098.449,40.527,32.227,31.250,37.598,65.430,0
215098.453,45.410,37.109,41.504,38.086,29.785,0
215098.457,46.387,36.133,37.598,35.645,-19.531,0
215098.461,38.574,30.273,30.273,36.133,-16.113,0
215098.465,37.598,26.855,29.297,41.504,5.859,0
215098.469,36.133,19.043,29.297,37.598,36.133,0
215098.473,32.715,22.949,36.621,37.109,53.711,0
215098.477,33.203,32.715,41.016,34.668,49.316,0
215098.481,41.016,38.086,41.504,38.086,8.789,0
215098.485,38.086,34.668,33.691,42.969,18.066,0
215098.488,33.691,26.367,20.508,35.156,25.879,0
215098.492,32.715,27.832,25.879,39.551,34.668,0
215098.496,23.926,27.832,30.273,36.621,59.570,0
215098.500,22.949,21.484,35.645,20.508,27.832,0
215098.504,31.738,24.414,44.922,24.414,-4.883,0
215098.508,33.203,30.273,41.504,36.621,31.738,0
215098.512,30.273,27.344,33.691,34.180,59.570,0
215098.516,31.738,24.414,29.785,35.156,37.598,0
215098.520,32.227,30.762,24.902,31.738,32.227,0
215098.524,34.180,36.133,20.996,32.715,50.781,0
215098.527,37.109,37.598,21.973,36.621,36.133,1
215098.531,38.086,41.992,24.902,31.250,24.902,0
215098.535,33.203,35.156,27.344,26.855,64.453,0
215098.539,30.762,25.391,29.297,33.203,86.914,0
215098.543,30.762,25.879,21.484,30.273,69.824,0
215098.547,29.297,27.344,29.297,17.578,44.434,0
215098.551,27.344,32.227,41.016,26.367,48.340,0
215098.555,35.156,41.992,35.645,46.875,64.941,0
215098.559,44.434,42.969,28.320,49.805,70.801,0
215098.563,34.180,35.156,25.391,29.785,54.688,0
215098.567,25.879,35.156,25.879,31.738,69.336,0
215098.570,33.691,34.180,21.484,38.574,61.523,0
215098.574,37.598,35.645,28.320,46.875,50.781,0
215098.578,35.156,40.039,36.621,48.828,70.801,0
215098.582,33.691,40.039,35.156,32.715,79.590,0
215098.586,31.250,37.109,30.273,30.273,45.898,0
215098.590,29.785,35.645,26.367,34.180,27.832,0
215098.594,31.738,37.598,23.926,33.691,30.762,0
215098.598,37.109,41.504,28.809,43.457,-19.531,0
215098.602,43.457,38.574,40.039,49.316,-24.414,0
215098.606,41.992,32.227,34.180,34.180,-19.043,0
215098.610,38.086,30.273,24.414,40.527,5.371,0
215098.613,36.133,30.273,20.508,48.828,52.734,0
215098.617,31.250,30.273,14.648,33.203,29.785,0
215098.621,23.926,24.414,26.367,34.668,30.273,0
215098.625,20.996,20.508,37.598,35.156,46.875,0
215098.629,19.531,19.043,33.691,23.926,31.250,0
215098.633,18.555,16.113,31.250,18.555,9.766,0
215098.637,18.066,18.555,29.785,16.602,-20.996,0
215098.641,20.508,23.438,30.762,23.438,-1.465,0
215098.645,24.902,26.855,35.156,33.203,50.293,0
215098.649,28.809,32.715,31.250,35.645,20.996,0
215098.652,26.367,29.297,30.762,32.715,15.137,0
215098.656,25.391,24.414,33.691,32.715,78.125,0
215098.660,25.391,24.902,25.879,25.391,69.336,0
215098.664,25.391,22.461,22.461,16.113,35.645,0
215098.668,28.809,20.020,32.715,18.066,56.152,0
215098.672,31.250,23.926,31.738,29.785,73.730,0
215098.676,32.227,29.297,23.926,36.133,60.547,0
215098.680,33.203,29.297,29.785,28.809,66.895,0
215098.684,39.062,28.809,34.668,32.227,97.656,0
215098.688,47.363,35.156,26.855,47.363,102.051,0
215098.692,45.898,34.180,24.902,44.922,97.168,0
215098.695,37.109,30.273,28.809,25.391,54.199,0
215098.699,30.273,33.691,38.086,16.602,24.902,0
215098.703,38.086,36.133,37.598,28.809,62.500,0
215098.707,45.898,34.668,17.090,42.480,61.523,0
215098.711,39.062,31.250,10.742,30.762,55.176,0
215098.715,35.156,34.668,26.855,21.973,48.340,0
215098.719,32.227,35.645,38.086,30.762,50.781,0
215098.723,28.809,33.203,41.504,28.809,30.762,0
215098.727,35.156,27.832,35.645,28.809,3.906,0
215098.731,41.992,18.555,21.484,35.645,9.277,0
215098.735,38.574,22.949,29.785,36.621,8.301,0
215098.738,40.039,34.668,40.039,37.109,1.465,0
215098.742,42.480,41.992,24.414,30.762,20.020,0
215098.746,43.457,44.922,24.414,30.762,51.758,0
215098.750,30.762,36.621,27.344,22.461,20.996,0
215098.754,18.066,29.297,20.508,10.254,46.875,0
215098.758,25.391,27.344,23.926,21.484,76.172,0
215098.762,33.203,24.414,28.809,42.480,49.316,0
215098.766,34.668,24.414,27.344,39.551,51.758,0
215098.770,29.785,26.367,27.344,23.438,73.242,0
215098.774,24.414,26.367,21.484,23.438,81.543,0
215098.777,33.203,29.785,25.879,32.227,83.496,0
215098.781,40.039,28.320,38.086,38.086,68.848,0
215098.785,35.156,21.484,31.250,28.320,41.504,0
215098.789,23.926,17.578,25.391,21.973,34.668,0
215098.793,22.949,21.973,28.320,34.668,72.266,0
215098.797,29.297,21.973,26.855,45.898,34.668,0
215098.801,27.832,13.672,36.621,39.062,-4.883,0
215098.805,31.250,15.625,41.016,41.016,21.484,0
215098.809,37.109,21.484,37.598,49.316,68.359,0
215098.813,40.039,23.926,39.551,47.363,63.965,0
215098.817,45.898,33.203,39.062,51.758,25.879,0
215098.820,48.340,39.551,40.527,57.617,29.297,0
215098.824,42.969,34.180,38.086,53.711,12.207,0
215098.828,32.227,28.320,25.879,41.016,4.395,0
215098.832,30.762,27.832,24.414,41.992,32.227,0
215098.836,35.645,23.438,34.180,45.898,39.062,0
215098.840,33.691,20.020,37.598,42.480,9.277,0
215098.844,34.668,24.902,38.086,43.945,-28.320,0
215098.848,37.109,28.320,40.039,49.316,-24.414,0
215098.852,41.992,36.133,45.410,47.363,15.625,0
215098.856,50.293,43.457,39.551,43.457,28.320,0
215098.860,54.199,44.434,32.715,49.316,17.090,0
215098.863,47.363,42.969,40.527,51.758,6.836,0
215098.867,40.527,36.133,38.086,48.340,58.105,0
215098.871,37.109,31.738,20.508,41.016,62.012,0
215098.875,29.297,30.273,15.137,28.320,0.488,0
215098.879,26.367,33.203,27.832,26.367,17.090,0
215098.883,28.809,42.480,36.133,38.086,65.430,0
215098.887,27.832,35.156,34.180,33.691,50.293,0
215098.891,28.320,30.273,31.250,26.367,52.246,0
215098.895,33.203,38.574,35.156,36.621,93.262,0
215098.899,41.504,35.156,38.086,41.992,70.801,0
215098.902,41.992,27.832,33.203,33.203,27.344,0
215098.906,36.621,33.691,29.785,29.297,13.184,0
215098.910,42.480,45.898,31.250,36.621,46.875,0
215098.914,52.246,48.828,24.902,42.969,75.684,0
215098.918,38.086,37.598,21.973,21.973,28.809,0
215098.922,22.949,33.691,23.438,7.812,-18.066,0
215098.926,19.531,30.762,26.367,16.113,29.297,0
215098.930,17.578,19.531,27.344,16.602,59.570,0
215098.934,23.926,20.508,20.508,13.184,21.973,0
215098.938,23.926,23.926,14.160,16.113,38.086,0
215098.942,21.973,30.762,16.113,23.438,43.945,0
215098.945,28.809,35.156,26.855,26.367,7.812,0
215098.949,35.156,36.133,31.250,28.809,17.578,0
215098.953,43.457,41.992,29.297,32.715,9.277,0
215098.957,37.109,32.715,27.832,26.855,-10.742,0
215098.961,25.391,21.484,26.855,20.508,-14.160,0
215098.965,28.809,26.855,24.414,23.438,-22.949,0
215098.969,26.855,27.832,18.555,16.602,3.906,0
215098.973,24.902,26.855,15.625,14.160,-0.977,0
215098.977,24.414,27.832,17.578,20.020,9.766,0
215098.981,22.461,26.367,24.902,23.926,18.066,0
215098.985,23.438,23.926,33.203,26.367,-0.977,0
215098.988,24.414,20.996,35.645,32.227,35.645,0
215098.992,23.926,18.555,40.527,33.691,47.852,0
215098.996,23.926,19.043,44.434,30.273,21.973,0
215099.000,24.414,22.461,41.504,36.133,38.086,0
215099.004,24.902,18.066,36.133,38.086,54.688,0
215099.008,25.391,15.625,32.715,32.227,34.668,0
215099.012,26.367,22.461,32.227,30.273,21.484,0
215099.016,29.785,21.973,33.203,24.902,-3.906,0
215099.020,32.715,20.020,25.391,27.832,28.320,0
215099.024,27.832,24.414,10.254,32.715,13.184,0
215099.027,27.832,25.879,15.137,24.414,-41.016,0
215099.031,35.645,23.438,38.574,24.902,-29.297,0
215099.035,41.992,24.414,53.223,37.598,-33.691,0
215099.039,43.945,27.832,44.922,43.945,-5.371,0
215099.043,35.645,27.344,30.762,37.109,-1.465,0
215099.047,29.785,23.438,31.738,30.273,-11.719,0
215099.051,35.156,19.531,28.320,30.273,-16.113,0
215099.055,36.621,22.461,17.578,29.297,3.906,0
215099.059,31.250,28.320,13.672,26.367,-0.977,0
215099.063,32.715,35.645,19.043,23.926,2.930,0
215099.067,32.227,39.062,12.695,22.949,66.895,0
215099.070,32.715,41.016,7.324,19.531,39.551,0
215099.074,37.598,37.109,18.555,27.344,51.758,0
215099.078,40.039,34.180,13.184,33.691,80.078,0
215099.082,46.875,45.410,3.418,41.504,53.223,0
215099.086,47.852,47.363,11.719,37.109,17.578,0
215099.090,38.574,36.133,17.578,19.531,1.953,0
215099.094,34.668,33.203,22.949,22.461,33.691,0
215099.098,29.297,34.180,31.738,22.461,50.293,0
215099.102,29.297,28.320,29.785,13.184,53.223,0
215099.106,29.785,25.879,23.926,14.648,11.719,0
215099.110,23.438,28.320,20.996,18.555,15.137,0
215099.113,20.508,26.855,19.043,13.672,34.180,0
215099.117,20.996,26.855,21.484,9.277,-10.254,0
215099.121,21.484,25.391,35.156,24.902,42.969,0
215099.125,30.762,22.461,32.227,41.992,75.684,0
215099.129,38.086,23.438,20.020,40.039,34.180,0
215099.133,25.879,22.461,19.043,32.715,39.062,0
215099.137,15.625,22.461,25.391,25.879,51.270,0
215099.141,20.508,18.555,35.156,21.973,29.785,0
215099.145,26.855,20.020,45.410,27.344,40.527,0
215099.149,28.809,28.809,44.922,32.227,55.176,0
215099.152,31.738,30.273,43.457,35.645,48.340,0
215099.156,33.691,21.973,41.504,41.016,1.465,0
215099.160,36.621,20.508,34.668,34.180,-78.125,0
215099.164,37.598,22.949,30.762,29.297,-67.871,0
215099.168,38.574,23.926,34.668,41.504,-3.418,0
215099.172,39.062,24.414,33.691,46.387,-39.062,0
215099.176,37.598,21.484,28.809,41.992,-63.477,1
215099.180,37.109,13.184,32.227,41.504,-23.926,0
215099.184,34.180,11.719,36.621,40.039,17.578,0
215099.188,29.785,20.020,41.016,29.297,10.742,0
215099.192,36.133,29.785,41.016,33.691,-14.160,0
215099.195,42.969,32.715,30.273,37.598,-3.906,0
215099.199,38.574,30.762,28.809,33.203,-4.883,0
215099.203,38.086,36.133,31.250,35.156,-5.859,0
215099.207,39.062,39.062,32.715,29.297,6.836,0
215099.211,39.551,38.086,36.621,34.668,41.504,0
215099.215,42.969,41.504,32.227,42.969,60.059,0
215099.219,35.645,35.156,26.367,31.250,33.203,0
215099.223,28.320,27.344,26.855,20.020,11.719,0
215099.227,33.203,32.227,27.832,31.250,34.668,0
215099.231,38.086,41.992,25.879,39.062,40.039,0
215099.235,44.922,42.480,23.438,38.086,8.301,0
215099.238,41.504,32.227,30.273,36.621,-19.043,0
215099.242,33.691,31.738,36.621,33.691,13.184,0
215099.246,38.086,40.527,32.715,38.086,41.504,0
215099.250,39.551,41.016,25.391,39.062,26.855,0
215099.254,37.598,42.969,29.297,40.527,12.207,0
215099.258,39.551,45.410,30.273,44.434,58.594,0
215099.262,36.621,41.992,21.973,41.992,76.660,0
215099.266,32.227,32.715,26.855,34.180,50.781,0
215099.270,33.691,27.832,34.180,33.691,55.176,0
215099.274,38.574,32.715,33.203,40.039,72.754,0
215099.277,35.156,34.668,34.180,34.180,79.590,0
215099.281,27.832,31.738,37.109,27.832,84.473,0
215099.285,26.855,25.391,35.156,37.598,87.891,0
215099.289,32.715,21.973,32.715,46.875,83.984,0
215099.293,34.180,19.531,33.691,41.992,65.918,0
215099.297,32.227,20.508,32.715,36.621,74.707,0
215099.301,35.156,31.250,32.715,42.969,96.680,0
215099.305,36.133,30.273,39.551,46.387,74.219,0
215099.309,30.273,22.461,43.945,38.574,94.238,0
215099.313,32.227,30.762,42.969,41.016,83.496,0
215099.317,31.250,34.668,37.598,37.598,69.824,0
215099.320,29.785,30.762,28.809,31.250,79.102,0
215099.324,36.621,28.320,25.879,36.621,94.238,0
215099.328,39.062,26.855,33.203,30.273,85.938,0
215099.332,35.156,25.879,43.457,31.738,84.961,0
215099.336,39.062,27.344,46.387,42.480,117.676,0
215099.340,46.875,31.738,40.039,42.969,76.660,0
215099.344,41.504,27.832,30.762,40.527,8.789,0
215099.348,32.227,26.855,37.598,36.133,36.621,0
215099.352,23.438,31.738,41.992,29.297,51.758,0
215099.356,19.531,32.715,38.574,19.531,26.855,0
215099.360,21.973,29.785,37.109,27.832,43.945,0
215099.363,27.832,28.320,32.227,41.992,32.715,0
215099.367,24.414,26.855,25.879,33.203,14.160,0
215099.371,20.020,23.926,23.438,29.785,75.195,0
215099.375,22.949,23.926,28.809,39.551,63.477,0
215099.379,23.438,27.344,33.691,36.621,25.879,0
215099.383,15.137,28.320,34.180,25.391,71.777,0
215099.387,13.184,28.809,19.531,26.855,98.633,0
215099.391,19.043,31.250,14.160,28.809,79.590,0
215099.395,19.531,33.203,28.320,28.320,50.781,0
215099.399,22.949,34.668,29.785,28.809,-5.371,0
215099.402,34.180,37.109,27.344,24.414,-8.301,0
215099.406,40.039,38.086,29.785,28.320,41.992,0
215099.410,32.715,36.133,18.555,33.691,16.113,0
215099.414,29.297,29.785,7.324,31.738,-45.898,0
215099.418,31.738,31.250,16.113,33.203,-40.527,0
215099.422,31.738,35.156,31.250,40.039,-8.301,0
215099.426,31.738,34.668,36.621,37.598,-34.668,0
215099.430,33.691,36.133,38.086,27.344,-54.688,0
215099.434,39.551,39.551,33.691,30.762,-57.617,0
215099.438,45.410,41.504,27.832,44.434,-57.617,0
215099.442,46.387,40.039,28.320,45.898,-13.184,0
215099.445,41.992,41.016,27.344,38.086,-47.852,0
215099.449,39.551,39.062,21.973,39.062,-37.598,0
215099.453,29.297,20.996,23.926,42.480,32.715,0
215099.457,28.809,20.508,29.297,34.180,22.949,0
215099.461,37.109,31.738,33.203,23.438,15.625,0
215099.465,37.109,35.645,29.785,31.250,48.828,0
215099.469,36.621,34.668,29.785,38.574,30.273,0
215099.473,35.156,31.250,28.809,40.527,14.160,0
215099.477,37.598,37.109,26.367,50.781,25.879,0
215099.481,40.527,38.574,29.785,52.734,37.598,0
215099.485,39.062,29.297,33.691,36.133,34.180,0
215099.488,39.062,26.367,37.598,34.180,-0.488,0
215099.492,39.551,34.180,40.527,38.086,10.254,0
215099.496,34.180,39.062,33.691,37.598,27.832,0
215099.500,30.762,35.156,23.926,37.109,26.855,0
215099.504,28.320,28.320,31.738,33.691,40.527,0
215099.508,28.809,24.902,35.645,34.668,18.066,0
215099.512,30.762,25.879,40.527,38.086,38.574,0
215099.516,36.621,35.156,47.363,45.898,57.617,0
215099.520,42.969,43.945,44.434,47.363,37.109,0
215099.524,41.504,39.062,37.598,42.480,24.902,0
215099.527,38.574,33.691,32.715,33.203,6.836,0
215099.531,38.574,30.762,32.227,32.227,2.441,0
215099.535,39.062,30.762,33.691,33.203,-0.488,0
215099.539,35.156,34.668,36.621,33.691,30.273,0
215099.543,29.785,34.180,33.203,37.109,45.898,0
215099.547,30.762,34.668,31.738,34.180,47.852,0
215099.551,32.227,31.250,29.297,37.109,62.988,0
215099.555,31.250,26.855,19.043,30.273,90.820,0
215099.559,34.180,30.762,27.832,37.109,96.191,0
215099.563,37.109,32.227,38.574,43.945,83.984,0
215099.567,32.227,24.902,25.879,28.809,92.773,0
215099.570,27.344,20.020,16.602,27.344,73.242,0
215099.574,27.832,23.926,30.273,34.668,59.082,0
215099.578,37.109,35.645,38.086,36.621,63.477,0
215099.582,41.504,40.527,29.785,30.762,71.777,0
215099.586,32.227,34.668,21.484,28.320,79.102,0
215099.590,29.297,33.203,24.414,28.320,62.012,0
215099.594,27.832,27.344,30.273,27.344,58.594,0
215099.598,30.762,27.832,34.180,32.715,70.312,0
215099.602,40.039,37.109,30.762,39.551,90.820,0
215099.606,33.203,32.715,24.414,37.598,95.215,0
215099.610,26.855,24.902,23.926,32.715,99.609,0
215099.613,34.180,25.391,27.832,39.062,105.469,0
215099.617,37.598,20.020,38.574,54.688,47.852,0
215099.621,39.551,15.137,42.480,60.059,10.254,0
215099.625,43.945,25.879,36.621,51.270,-14.648,0
215099.629,42.969,35.156,32.227,49.805,-34.668,0
215099.633,36.621,36.133,33.691,49.805,-14.160,0
215099.637,31.250,34.668,36.621,41.016,-3.418,0
215099.641,30.762,29.297,37.109,36.133,35.156,0
215099.645,34.180,26.367,30.273,35.645,46.387,0
215099.649,35.156,27.832,30.762,31.250,48.340,0
215099.652,34.180,28.809,18.555,29.785,68.359,0
215099.656,38.086,35.156,17.090,35.156,53.711,0
215099.660,37.109,34.180,33.203,43.457,30.762,0
215099.664,30.273,28.320,29.785,42.480,45.898,0
215099.668,24.902,26.367,31.250,24.414,16.113,0
215099.672,20.508,25.391,38.574,16.113,9.277,0
215099.676,19.531,27.832,45.410,27.344,37.109,0
215099.680,21.484,32.227,41.992,29.785,56.152,0
215099.684,22.461,22.949,32.715,23.438,53.223,0
215099.688,26.855,17.578,33.203,26.855,9.277,0
215099.692,33.203,25.391,30.273,36.621,30.273,0
215099.695,29.785,31.738,25.391,37.598,51.758,0
215099.699,26.855,32.227,25.879,27.344,34.180,0
215099.703,26.367,35.645,24.902,25.391,33.203,0
215099.707,25.391,37.109,26.367,31.738,38.574,0
215099.711,29.297,41.504,31.738,39.551,-2.930,1
215099.715,35.156,46.387,24.414,40.527,-30.762,0
215099.719,38.086,42.480,24.414,28.809,-42.480,0
215099.723,38.086,35.645,29.785,27.344,11.719,0
215099.727,32.227,30.762,27.344,30.273,69.336,0
215099.731,28.809,30.762,31.738,21.973,41.016,0
215099.735,25.879,28.809,32.227,17.090,65.918,0
215099.738,25.879,28.809,24.414,20.996,101.074,0
215099.742,29.785,31.250,20.020,18.555,90.332,0
215099.746,29.297,31.738,28.809,21.484,31.738,0
215099.750,34.180,33.203,35.156,30.762,32.715,0
215099.754,35.156,33.691,31.738,32.715,57.617,0
215099.758,30.762,33.691,30.762,28.320,7.324,0
215099.762,32.715,37.109,29.785,21.484,-3.906,0
215099.766,30.762,34.668,20.508,27.344,20.996,0
215099.770,33.203,24.902,16.113,28.320,33.691,0
215099.774,43.457,24.414,30.273,25.391,23.438,0
215099.777,35.156,27.832,34.668,29.785,-35.156,0
215099.781,27.344,32.715,35.645,36.621,7.324,0
215099.785,33.691,34.180,32.715,47.363,64.453,0
215099.789,33.203,31.250,23.438,42.969,39.551,0
215099.793,24.414,32.227,32.227,33.691,39.062,0
215099.797,19.043,32.227,39.551,32.227,13.184,0
215099.801,25.391,33.203,32.227,34.180,-22.461,0
215099.805,33.203,36.133,37.109,37.109,13.672,0
215099.809,33.203,30.762,46.875,42.969,18.555,0
215099.813,30.273,27.344,44.434,37.109,-3.906,0
215099.817,28.320,26.855,31.250,25.879,16.602,0
215099.820,28.809,26.367,22.461,20.020,-13.672,0
215099.824,33.203,28.320,30.762,23.926,-20.508,0
215099.828,36.621,31.250,36.133,37.109,43.945,0
215099.832,31.250,34.180,33.203,30.273,57.617,0
215099.836,24.902,31.250,25.391,21.973,47.363,0
215099.840,21.484,28.320,19.531,23.438,47.363,0
215099.844,19.043,26.367,19.531,24.414,42.480,0
215099.848,28.320,30.762,21.973,33.203,53.223,0
215099.852,33.691,31.738,29.297,33.203,85.938,0
215099.856,24.902,21.973,30.762,25.391,60.547,0
215099.860,29.785,20.996,32.227,36.133,7.812,0
215099.863,33.203,24.414,37.109,38.086,-7.812,0
215099.867,17.090,26.367,37.109,19.531,-6.348,0
215099.871,14.160,31.250,33.691,13.184,25.391,0
215099.875,20.996,33.203,20.996,12.695,21.484,0
215099.879,20.020,32.227,17.578,14.648,12.695,0
215099.883,22.461,27.832,28.809,18.555,11.719,0
215099.887,25.391,25.879,23.438,24.414,3.418,0
215099.891,25.879,31.738,19.531,30.273,61.035,0
215099.895,23.438,33.203,28.809,26.367,41.016,0
215099.899,21.484,27.832,34.668,24.902,-2.441,0
215099.902,27.344,30.762,31.738,30.273,39.062,0
215099.906,30.762,37.109,28.809,26.855,65.430,0
215099.910,30.762,36.621,35.645,20.020,12.207,0
215099.914,26.855,31.738,32.715,16.602,-34.180,0
215099.918,26.855,31.738,23.438,17.578,-11.719,0
215099.922,32.715,34.180,22.949,22.949,-19.531,0
215099.926,44.922,34.668,23.926,34.180,-25.879,0
215099.930,52.734,31.738,20.508,35.645,5.371,0
215099.934,47.852,25.879,21.973,30.273,11.230,0
215099.938,40.527,25.391,30.273,33.203,17.578,0
215099.942,34.668,32.227,30.762,35.156,41.016,0
215099.945,39.062,41.992,39.062,39.551,46.387,0
215099.949,40.039,35.645,48.340,37.598,44.922,0
215099.953,24.902,25.879,35.156,28.809,22.461,0
215099.957,18.066,24.414,29.297,24.414,37.598,0
215099.961,22.461,23.926,34.180,24.414,89.355,0
215099.965,29.297,29.785,38.086,33.691,69.824,0
215099.969,36.621,31.250,45.898,42.969,32.227,0
215099.973,39.551,24.902,41.504,49.316,70.312,0
215099.977,43.457,28.809,25.391,47.363,119.141,0
215099.981,41.504,36.621,28.809,42.969,115.723,0
215099.985,37.109,36.621,41.016,44.434,105.957,0
215099.988,38.086,33.691,45.898,40.039,84.473,0
215099.992,34.180,33.203,40.527,32.227,57.129,0
215099.996,26.367,32.227,25.879,26.855,41.992,0
215100.000,24.414,32.715,24.902,20.996,-11.230,0
215100.004,28.320,32.715,30.273,22.949,-22.461,0
215100.008,27.832,26.855,28.320,37.109,29.297,0
215100.012,31.738,30.762,21.484,37.109,23.926,0
215100.016,35.156,40.039,24.414,34.180,43.457,0
215100.020,26.855,30.273,31.738,29.785,66.406,0
215100.024,23.926,16.602,31.250,25.391,76.172,0
215100.027,28.809,20.996,34.668,24.902,64.453,0
215100.031,27.344,30.762,39.062,21.484,57.129,0
215100.035,33.203,32.715,37.109,28.320,55.176,0
215100.039,37.598,31.738,32.227,43.945,67.383,0
215100.043,31.738,33.203,29.785,42.480,83.984,0
215100.047,25.391,31.738,28.809,22.949,21.973,0
215100.051,17.578,29.297,25.879,20.508,38.574,0
215100.055,20.020,37.598,20.996,28.320,54.199,0
215100.059,23.438,40.039,26.855,26.855,26.855,0
215100.063,20.996,32.227,29.785,21.973,44.434,0
215100.067,22.949,36.133,27.832,29.297,40.527,0
215100.070,23.438,38.086,32.227,35.156,30.273,0
215100.074,18.066,27.832,33.203,32.227,44.922,0
215100.078,17.090,30.273,36.621,34.180,46.875,0
215100.082,19.531,39.062,37.109,35.645,46.387,0
215100.086,22.949,41.992,34.180,38.086,31.738,0
215100.090,24.902,33.691,25.879,36.133,-0.977,0
215100.094,20.508,26.367,21.973,31.250,15.625,0
215100.098,25.391,37.109,30.762,38.574,66.895,0
215100.102,28.809,41.016,36.133,36.133,56.152,0
215100.106,30.273,39.551,38.086,39.062,8.301,0
215100.110,40.039,44.434,42.969,42.969,28.809,0
215100.113,47.852,44.434,40.527,45.898,53.223,0
215100.117,46.875,41.992,38.086,43.457,22.461,0
215100.121,44.434,40.039,34.668,32.227,21.973,0
215100.125,50.781,36.133,28.320,27.832,19.531,0
215100.129,49.805,30.273,30.762,25.391,41.504,0
215100.133,37.598,26.367,32.715,27.832,71.289,0
215100.137,30.762,28.809,36.133,31.738,38.574,0
215100.141,39.551,35.645,40.527,35.156,46.875,0
215100.145,40.527,38.086,37.598,34.668,76.660,0
215100.149,34.668,35.156,33.691,41.016,44.434,0
215100.152,39.062,31.250,36.621,41.992,-2.441,0
215100.156,42.969,36.621,35.645,34.180,44.922,0
215100.160,37.598,41.504,22.949,31.250,62.500,0
215100.164,27.344,41.016,24.902,29.297,31.738,0
215100.168,20.020,33.691,34.668,23.926,37.109,0
215100.172,21.973,22.949,33.203,25.391,10.254,0
215100.176,32.715,23.926,37.109,34.180,30.762,0
215100.180,38.086,34.668,37.109,34.668,24.902,0
215100.184,34.180,37.109,33.691,34.668,-19.043,0
215100.188,34.668,26.367,32.715,36.621,-0.488,0
215100.192,39.062,25.391,35.156,42.480,31.250,0
215100.195,41.504,35.156,41.504,49.316,9.766,0
215100.199,36.621,37.109,45.898,42.480,-3.418,0
215100.203,32.227,30.762,36.133,38.574,21.484,0
215100.207,37.109,30.273,29.297,38.086,-7.812,0
215100.211,36.621,30.273,30.273,44.922,-31.738,0
215100.215,33.691,25.391,21.973,42.480,0.488,0
215100.219,39.062,25.879,28.809,37.109,20.020,0
215100.223,44.434,27.344,43.945,39.551,9.766,0
215100.227,41.016,29.785,39.062,34.180,-8.789,0
215100.231,38.574,31.250,35.645,35.156,-18.066,0
215100.235,38.086,31.250,35.645,47.852,-13.672,0
215100.238,41.992,37.598,32.227,55.664,0.000,0
215100.242,51.270,42.480,36.621,52.734,5.371,0
215100.246,50.293,37.598,39.062,46.387,23.926,0
215100.250,44.922,36.133,40.527,37.598,42.480,0
215100.254,43.457,41.016,41.504,34.668,36.133,0
215100.258,45.410,37.598,35.645,38.086,22.461,0
215100.262,44.434,31.250,37.598,41.992,34.180,0
215100.266,45.410,38.086,36.133,46.875,42.969,0
215100.270,48.828,40.039,25.879,58.105,-5.859,0
215100.274,48.340,35.645,30.273,58.594,-11.719,0
215100.277,46.875,37.109,39.551,51.270,4.395,0
215100.281,44.434,40.039,35.645,52.246,-16.602,1
215100.285,41.992,46.875,29.297,48.340,-12.207,0
215100.289,40.527,44.922,35.156,40.527,29.297,0
215100.293,37.109,33.203,41.504,43.457,41.504,0
215100.297,29.785,28.809,44.434,35.156,5.371,0
215100.301,25.879,31.738,45.410,28.320,-21.973,0
215100.305,27.832,32.227,38.574,30.762,-7.812,0
215100.309,28.809,33.203,34.180,35.645,19.531,0
215100.313,30.762,38.086,39.062,37.598,36.133,0
215100.317,33.691,37.598,35.645,33.203,33.691,0
215100.320,35.156,36.133,30.273,38.086,10.742,0
215100.324,36.133,33.691,25.391,41.992,16.602,0
215100.328,28.320,24.902,24.902,28.809,23.926,0
215100.332,27.832,27.832,28.320,28.809,5.859,0
215100.336,31.250,23.438,36.133,35.645,38.086,0
215100.340,33.691,18.555,41.016,29.785,75.684,0
215100.344,34.180,24.414,37.109,25.391,81.543,0
215100.348,26.367,25.391,29.785,22.461,84.473,0
215100.352,28.809,33.691,27.832,29.785,55.176,0
215100.356,30.762,36.621,27.832,31.738,26.855,0
215100.360,24.902,28.320,21.484,24.902,41.504,0
215100.363,25.391,29.785,10.742,26.367,42.480,0
215100.367,27.344,28.320,15.137,31.250,27.832,0
215100.371,23.438,27.344,23.438,37.598,28.320,0
215100.375,24.414,33.203,22.949,26.855,-4.395,0
215100.379,28.320,27.832,34.668,18.555,-11.719,0
215100.383,31.738,22.461,36.621,25.391,49.805,0
215100.387,28.809,25.391,33.203,21.484,58.105,0
215100.391,32.715,31.250,37.109,27.344,37.109,0
215100.395,40.527,34.180,29.785,33.203,55.664,0
215100.399,40.039,34.180,17.578,31.250,91.309,0
215100.402,42.969,41.992,14.648,37.598,61.035,0
215100.406,41.992,40.527,24.414,28.809,41.016,0
215100.410,31.738,28.809,30.762,20.996,42.969,0
215100.414,29.297,29.785,39.551,26.855,40.527,0
215100.418,35.645,33.203,41.992,24.414,-8.789,0
215100.422,39.551,29.297,38.086,27.344,-24.414,0
215100.426,40.527,31.250,35.156,37.109,24.902,0
215100.430,40.039,32.715,36.621,36.621,0.977,0
215100.434,38.086,25.879,35.156,28.809,-7.812,0
215100.438,38.574,27.344,25.879,34.180,15.625,0
215100.442,45.898,36.621,27.344,41.504,19.043,0
215100.445,41.504,34.668,34.180,35.645,19.531,0
215100.449,34.668,28.809,34.668,32.227,27.344,0
215100.453,33.691,30.762,39.062,32.227,2.930,0
215100.457,30.273,31.738,34.180,32.227,1.953,0
215100.461,27.344,34.668,25.391,39.062,30.762,0
215100.465,33.691,41.016,28.809,36.133,0.977,0
215100.469,32.715,34.668,31.250,26.855,-8.789,0
215100.473,21.484,22.949,33.203,23.438,0.977,0
215100.477,23.926,24.902,40.039,31.250,13.672,0
215100.481,24.902,32.715,41.504,39.062,17.090,0
215100.485,21.973,29.297,29.785,31.250,19.043,0
215100.488,25.391,22.461,31.738,32.227,30.273,0
215100.492,28.809,20.020,41.016,35.645,42.969,0
215100.496,27.344,20.020,34.180,36.621,66.406,0
215100.500,25.879,24.902,27.344,46.875,33.691,0
215100.504,26.367,30.762,33.203,47.852,24.414,0
215100.508,19.531,31.738,25.879,27.832,37.598,0
215100.512,19.043,30.273,12.207,22.949,-3.418,0
215100.516,23.438,25.391,27.344,23.438,-36.621,0
215100.520,20.508,24.902,42.480,17.090,-3.906,0
215100.524,25.879,26.367,34.668,21.484,28.320,0
215100.527,33.203,30.273,33.691,30.762,15.137,0
215100.531,28.809,30.762,41.992,29.785,23.438,0
215100.535,29.785,31.738,33.691,19.043,26.367,0
215100.539,31.738,26.367,26.367,18.066,17.578,0
215100.543,42.480,32.227,30.762,29.785,18.066,0
215100.547,52.734,41.992,28.809,33.691,46.875,0
215100.551,44.434,31.738,21.484,33.691,26.367,0
215100.555,39.062,23.926,20.508,25.879,-6.348,0
215100.559,42.969,34.668,28.809,27.344,25.879,0
215100.563,40.039,38.086,35.156,28.809,48.828,0
215100.567,39.062,30.273,37.109,25.391,44.922,0
215100.570,41.992,33.203,36.621,23.438,-11.719,0
215100.574,39.062,31.250,28.320,21.973,3.906,0
215100.578,35.156,25.879,25.391,31.250,55.176,0
215100.582,39.551,30.273,21.973,37.109,4.883,0
215100.586,45.410,29.785,28.320,48.828,-13.672,0
215100.590,45.898,31.738,29.785,47.852,33.691,0
215100.594,48.340,41.992,14.160,34.180,44.434,0
215100.598,52.734,45.410,16.602,36.133,-10.254,0
215100.602,52.246,44.922,30.762,35.156,-42.969,0
215100.606,45.898,41.504,37.598,31.738,-30.762,0
215100.610,35.156,31.738,33.691,29.297,-6.348,0
215100.613,27.832,23.438,23.926,22.461,-0.488,0
215100.617,29.297,25.391,31.250,14.160,3.418,0
215100.621,25.391,23.926,39.062,14.648,45.410,0
215100.625,15.625,19.043,36.621,20.508,39.551,0
215100.629,10.254,21.973,29.785,22.461,49.316,0
215100.633,16.113,32.227,22.461,28.809,41.016,0
215100.637,27.344,40.527,19.531,36.133,55.664,0
215100.641,27.832,38.086,30.762,27.832,81.543,0
215100.645,18.066,29.785,42.969,16.602,46.875,0
215100.649,11.719,24.414,36.621,17.090,48.340,0
215100.652,17.090,20.020,26.367,21.484,57.129,0
215100.656,22.949,19.531,24.902,28.320,63.965,0
215100.660,22.461,24.902,31.738,25.879,55.176,0
215100.664,16.113,16.602,38.086,20.508,23.438,0
215100.668,13.672,10.742,36.621,25.391,48.340,0
215100.672,22.461,26.855,34.668,34.668,64.453,0
215100.676,29.785,37.598,32.227,41.504,52.734,0
215100.680,32.227,37.598,37.598,39.062,57.617,0
215100.684,37.109,38.086,37.109,36.621,89.844,0
215100.688,37.109,34.668,27.832,40.527,57.129,0
215100.692,38.086,31.738,30.273,34.668,36.133,0
215100.695,45.898,38.086,37.109,31.738,82.520,0
215100.699,43.945,34.180,36.621,40.527,40.039,0
215100.703,38.086,31.738,31.250,40.039,-7.324,0
215100.707,38.574,39.551,29.297,35.156,-12.207,0
215100.711,48.340,41.016,26.855,44.922,-14.160,0
215100.715,58.105,45.410,33.203,51.758,46.875,0
215100.719,58.105,54.199,40.039,49.805,74.219,0
215100.723,49.805,55.664,36.133,43.457,37.109,0
215100.727,46.387,49.316,34.180,38.574,29.785,0
215100.731,41.992,39.551,28.809,37.109,36.621,0
215100.735,34.668,31.250,20.508,32.227,35.645,0
215100.738,37.598,33.203,26.855,28.320,35.156,0
215100.742,44.434,37.598,41.016,37.598,39.551,0
215100.746,45.898,41.504,39.062,44.434,26.367,0
215100.750,41.992,41.992,25.879,37.109,-41.504,0
215100.754,41.016,41.992,22.461,37.109,-47.363,0
215100.758,39.551,48.340,30.762,42.480,9.766,0
215100.762,36.133,50.781,40.039,45.410,-20.020,0
215100.766,35.156,47.363,43.457,37.109,-24.902,0
215100.770,31.738,39.062,26.367,29.297,26.855,0
215100.774,31.250,38.086,20.508,31.738,39.062,0
215100.777,33.203,33.691,31.738,31.738,3.906,0
215100.781,32.715,25.391,30.762,27.344,0.977,0
215100.785,30.273,31.250,29.785,23.438,-0.977,0
215100.789,26.855,38.086,41.016,27.344,18.555,0
215100.793,27.832,36.133,40.527,32.227,15.625,0
215100.797,26.855,26.367,31.250,31.250,-29.785,0
215100.801,27.832,25.879,30.762,41.016,-11.230,0
215100.805,28.320,23.438,31.250,49.316,3.906,0
215100.809,35.645,22.949,34.180,54.199,43.457,0
215100.813,29.785,27.832,31.250,39.062,45.410,0
215100.817,8.301,25.879,23.926,16.113,4.395,0
215100.820,9.766,27.344,28.809,23.438,32.227,0
215100.824,17.090,25.391,37.598,32.227,50.293,0
215100.828,12.695,24.902,45.898,27.344,56.641,0
215100.832,13.184,24.902,47.363,25.879,65.918,0
215100.836,23.438,17.578,39.062,34.180,24.902,0
215100.840,25.879,17.090,33.203,40.039,9.277,0
215100.844,18.066,17.578,36.621,29.785,53.711,0
215100.848,25.879,20.996,37.598,33.203,61.523,0
215100.852,36.621,23.438,36.621,45.898,34.180,0
215100.856,32.227,21.973,35.645,42.969,44.434,0
215100.860,30.762,28.320,36.133,31.738,68.848,0
215100.863,32.715,34.180,28.320,29.297,59.570,0
215100.867,24.902,35.645,23.926,28.809,50.781,0
215100.871,21.484,34.668,29.785,19.043,21.484,0
215100.875,23.926,33.203,35.645,29.297,14.160,0
215100.879,19.531,33.691,35.156,31.250,43.457,0
215100.883,19.043,34.668,29.785,20.996,46.387,0
215100.887,23.926,37.109,25.879,23.926,54.688,0
215100.891,21.484,36.133,27.344,23.926,55.664,0
215100.895,22.949,30.762,32.715,28.320,46.387,0
215100.899,31.738,37.109,22.949,25.879,46.387,0
215100.902,31.738,42.480,8.301,14.648,21.484,0
215100.906,29.297,39.062,20.020,16.602,18.555,0
215100.910,27.832,40.039,25.391,20.020,-26.367,0
215100.914,29.785,41.504,22.949,30.762,-22.949,0
