timestamps,TP9,AF7,AF8,TP10,Right AUX,Marker0
214835.977,41.992,24.414,34.180,37.598,57.129,0
214835.981,40.527,25.391,30.273,38.574,50.293,0
214835.985,39.551,35.156,30.273,45.898,20.996,0
214835.988,45.898,34.668,20.020,43.457,29.297,0
214835.992,40.527,27.344,22.949,39.551,40.039,0
214835.996,38.086,29.785,38.086,41.016,44.434,0
214836.000,43.457,28.809,41.016,33.691,70.312,0
214836.004,34.180,24.902,35.645,31.738,95.215,0
214836.008,32.715,34.180,37.598,34.668,43.457,0
214836.012,35.645,37.598,33.691,29.297,10.742,0
214836.016,30.762,21.484,34.668,23.926,14.648,0
214836.020,23.926,5.859,38.086,25.879,16.602,0
214836.024,8.301,13.672,26.367,22.461,44.434,0
214836.027,10.742,21.973,29.297,16.113,78.613,0
214836.031,25.879,28.809,37.109,27.344,63.965,0
214836.035,33.203,40.039,30.273,35.645,79.590,0
214836.039,35.645,39.062,26.367,46.875,106.934,0
214836.043,43.945,44.922,34.668,60.547,50.781,0
214836.047,38.574,48.340,44.922,47.363,24.414,0
214836.051,18.555,28.320,35.156,27.344,19.531,0
214836.055,11.719,15.625,26.855,18.555,-11.230,0
214836.059,15.137,20.020,36.133,26.367,-0.977,0
214836.063,27.344,19.531,36.133,34.180,15.625,0
214836.067,28.809,24.414,31.250,41.016,17.578,0
214836.070,28.320,38.086,36.621,56.152,24.414,0
214836.074,38.574,35.645,44.922,59.082,48.340,0
214836.078,47.852,39.062,47.363,48.828,20.996,0
214836.082,47.363,45.410,41.992,41.016,-48.340,0
214836.086,43.457,44.922,48.340,44.434,-40.039,0
214836.090,41.016,33.691,47.852,40.039,-11.230,0
214836.094,34.180,20.996,35.645,30.273,-12.207,0
214836.098,36.621,24.902,19.043,31.250,-21.973,0
214836.102,44.922,31.738,16.602,35.645,-14.160,0
214836.106,43.457,39.062,35.156,36.133,11.719,2
214836.110,45.898,39.551,32.227,34.180,-8.789,0
214836.113,48.340,30.273,30.762,41.504,0.000,0
214836.117,43.457,32.227,40.039,47.852,4.395,0
214836.121,41.504,40.527,42.969,51.758,-17.090,0
214836.125,39.551,40.039,39.062,47.363,-40.527,0
214836.129,32.227,30.762,26.367,36.621,-34.668,0
214836.133,22.949,27.832,17.090,34.180,-26.367,0
214836.137,20.508,27.344,25.879,28.320,-41.504,0
214836.141,22.949,22.461,37.109,27.832,-22.949,0
214836.145,25.879,30.762,28.809,33.203,-54.199,0
214836.149,32.715,31.738,32.227,37.598,-26.367,0
214836.152,34.180,27.832,41.504,41.992,61.035,0
214836.156,35.645,35.156,35.156,41.016,35.156,0
214836.160,41.016,32.715,31.250,35.645,-5.859,0
214836.164,36.621,30.273,37.598,36.133,13.184,0
214836.168,28.809,33.691,41.992,35.156,54.688,0
214836.172,23.438,36.133,35.645,28.320,27.832,0
214836.176,23.438,34.180,29.785,23.438,34.180,0
214836.180,23.926,29.297,30.762,27.344,89.844,0
214836.184,29.785,30.762,24.414,35.645,47.363,0
214836.188,31.738,29.785,15.625,35.156,-27.832,0
214836.192,20.508,20.508,22.949,20.508,-4.395,0
214836.195,25.879,25.879,40.039,20.508,43.945,0
214836.199,26.367,43.457,44.922,24.902,57.129,0
214836.203,25.391,44.434,37.598,16.602,72.266,0
214836.207,30.273,41.016,24.902,14.160,70.312,0
214836.211,25.879,41.016,18.066,21.484,84.473,0
214836.215,34.668,39.062,30.762,32.715,61.523,0
214836.219,43.457,36.621,27.344,37.109,30.762,0
214836.223,39.062,36.133,15.625,28.320,48.828,0
214836.227,34.668,36.133,25.879,20.508,57.617,0
214836.231,28.809,35.645,35.645,20.996,59.570,0
214836.235,25.391,31.738,28.809,21.484,46.387,0
214836.238,27.344,27.832,33.203,22.949,51.758,0
214836.242,35.645,37.109,36.621,32.227,77.637,0
214836.246,44.434,38.574,26.367,40.527,70.312,0
214836.250,47.852,26.367,29.785,50.293,70.801,0
214836.254,36.621,28.320,42.969,41.992,94.238,0
214836.258,29.785,34.668,40.039,23.438,98.633,0
214836.262,34.180,35.156,32.227,24.902,78.613,0
214836.266,39.062,28.809,39.551,37.109,88.379,0
214836.270,40.527,23.926,47.363,30.762,101.074,0
214836.274,23.926,31.250,45.410,16.113,82.031,0
214836.277,16.602,33.691,36.133,11.230,73.242,0
214836.281,17.578,29.297,33.691,15.137,40.527,0
214836.285,20.508,32.715,27.832,24.902,22.461,0
214836.289,25.879,30.762,22.461,39.551,28.809,0
214836.293,28.320,28.320,29.785,33.203,47.363,0
214836.297,29.785,32.227,35.645,16.602,41.992,0
214836.301,28.809,34.668,37.109,21.973,43.457,0
214836.305,36.621,29.785,37.598,35.645,25.391,0
214836.309,37.109,25.879,29.785,34.668,11.719,0
214836.313,34.668,38.086,24.902,42.969,37.109,0
214836.317,32.227,42.969,24.902,43.945,42.969,0
214836.320,22.461,18.066,24.902,23.438,38.086,0
214836.324,22.461,14.648,37.598,25.879,36.133,0
214836.328,23.438,32.227,36.621,36.621,23.438,0
214836.332,22.461,42.969,18.555,43.945,20.996,0
214836.336,25.391,52.734,18.555,38.086,-0.977,0
214836.340,29.297,46.387,31.738,24.902,-37.598,0
214836.344,32.227,43.457,28.809,31.250,-2.441,0
214836.348,33.203,44.434,23.926,39.551,13.184,0
214836.352,34.668,37.109,28.320,41.016,6.348,0
214836.356,29.785,22.461,30.762,35.645,41.504,0
214836.360,21.973,18.066,26.367,28.320,17.578,0
214836.363,19.043,29.785,28.320,25.391,-7.324,0
214836.367,19.043,40.527,36.133,23.438,-6.836,0
214836.371,22.949,41.016,39.551,26.855,24.414,0
214836.375,24.414,40.039,24.902,29.785,54.199,0
214836.379,27.832,39.062,12.207,41.504,21.973,0
214836.383,31.738,33.203,23.438,42.969,7.324,0
214836.387,29.297,29.297,32.715,25.391,2.930,0
214836.391,30.762,27.344,37.598,21.484,23.926,0
214836.395,29.297,29.785,42.480,26.855,22.461,0
214836.399,21.973,29.297,43.457,27.832,7.812,0
214836.402,23.438,26.855,32.715,25.391,11.230,0
214836.406,28.320,23.438,24.902,25.879,-9.766,0
214836.410,20.508,20.020,29.297,21.973,-17.578,0
214836.414,19.043,27.832,35.645,25.879,-7.324,0
214836.418,28.320,33.203,30.762,36.621,-34.180,0
214836.422,32.227,32.715,22.949,43.945,5.371,0
214836.426,33.203,33.691,25.879,38.574,40.039,0
214836.430,41.504,30.762,31.738,25.879,11.230,0
214836.434,33.691,20.996,34.180,24.414,12.695,0
214836.438,33.691,21.484,40.039,33.203,16.602,0
214836.442,42.480,28.320,44.922,41.504,54.199,0
214836.445,38.086,23.438,30.762,39.551,95.215,0
214836.449,40.039,19.531,20.996,38.574,92.285,0
214836.453,43.945,36.621,28.809,46.875,20.020,0
214836.457,38.574,43.457,28.809,48.828,-4.395,0
214836.461,28.809,28.809,13.672,32.715,37.598,0
214836.465,24.902,27.832,23.438,31.738,44.922,0
214836.469,30.273,19.043,33.203,36.621,24.414,0
214836.473,39.551,20.996,23.926,38.086,11.230,0
214836.477,45.410,41.504,22.949,36.133,14.648,0
214836.481,50.293,42.969,32.715,27.832,30.762,0
214836.485,41.504,39.551,39.551,26.855,57.617,0
214836.488,37.598,31.250,32.227,21.973,20.020,0
214836.492,38.086,24.902,23.926,30.273,4.883,0
214836.496,39.062,25.391,16.602,36.621,34.180,0
214836.500,37.598,29.785,18.066,29.785,9.766,0
214836.504,34.668,28.320,34.668,41.992,0.977,0
214836.508,40.527,22.949,39.062,35.645,6.348,0
214836.512,35.645,26.855,27.832,28.809,32.227,0
214836.516,39.551,37.598,32.715,37.598,33.691,0
214836.520,44.922,35.156,39.551,32.227,11.230,0
214836.524,35.156,24.414,39.062,33.691,47.852,0
214836.527,34.668,33.691,30.762,42.480,58.105,0
214836.531,44.922,37.598,12.207,47.363,58.105,0
214836.535,40.039,24.414,12.207,49.316,62.500,0
214836.539,24.414,25.391,35.156,36.621,67.383,0
214836.543,23.438,28.320,41.016,28.809,36.621,0
214836.547,29.785,25.391,35.645,43.457,4.883,0
214836.551,24.902,26.855,33.203,40.527,22.949,0
214836.555,20.508,23.926,30.762,27.832,17.090,0
214836.559,30.762,26.367,32.715,34.180,38.086,0
214836.563,38.086,32.715,38.086,37.598,49.316,0
214836.567,34.668,34.668,41.016,33.691,43.457,0
214836.570,29.297,35.156,32.715,37.598,68.359,0
214836.574,32.715,36.133,21.484,40.527,62.500,0
214836.578,31.738,30.273,13.672,38.086,111.816,0
214836.582,30.273,26.367,20.020,29.785,139.160,0
214836.586,35.645,19.531,32.715,27.832,100.586,0
214836.590,37.109,12.207,41.504,35.156,104.492,0
214836.594,38.574,28.809,43.945,40.527,119.629,0
214836.598,42.480,41.016,35.156,37.598,84.961,0
214836.602,41.504,39.551,31.250,36.133,110.352,0
214836.606,43.945,38.574,29.297,44.434,105.957,0
214836.610,43.457,36.621,25.879,41.992,13.672,0
214836.613,38.086,34.180,24.902,41.016,2.441,0
214836.617,35.156,33.203,33.203,49.316,46.387,0
214836.621,26.855,30.273,28.320,37.598,57.129,0
214836.625,32.227,40.527,26.367,43.457,34.668,0
214836.629,36.133,45.898,32.227,42.969,44.922,0
214836.633,24.414,30.762,29.297,24.414,48.828,1
214836.637,22.461,30.273,36.621,16.602,54.688,0
214836.641,27.832,33.691,37.598,19.043,72.754,0
214836.645,34.668,32.715,35.645,32.227,51.758,0
214836.649,32.227,34.180,29.297,31.250,-5.859,0
214836.652,31.250,34.668,21.484,20.020,-70.312,0
214836.656,30.273,38.574,24.414,22.461,-63.477,0
214836.660,28.320,32.715,28.809,32.227,-34.668,0
214836.664,26.367,18.066,34.668,33.203,-34.668,0
214836.668,20.996,15.625,30.762,14.160,-16.602,0
214836.672,21.484,27.832,30.273,-2.930,18.555,0
214836.676,20.996,37.598,33.691,7.324,58.105,0
214836.680,22.461,41.504,25.391,20.508,33.691,0
214836.684,27.344,40.039,13.184,26.367,13.672,0
214836.688,37.109,37.109,17.090,35.156,27.832,0
214836.692,35.156,35.156,28.320,37.109,72.754,0
214836.695,25.879,35.645,27.832,31.738,102.539,0
214836.699,26.367,32.227,27.344,28.320,85.449,0
214836.703,15.625,16.113,32.227,11.719,61.035,0
214836.707,7.812,11.230,41.016,5.859,71.289,0
214836.711,12.695,18.555,42.480,8.301,67.871,0
214836.715,21.973,26.855,35.645,5.371,35.645,0
214836.719,30.762,35.156,29.785,13.184,58.105,0
214836.723,23.926,35.645,24.414,21.484,94.238,0
214836.727,25.879,39.551,28.320,27.832,71.289,0
214836.731,37.109,43.945,31.250,30.273,60.059,0
214836.735,34.668,38.086,23.438,30.762,59.082,0
214836.738,36.621,31.250,32.227,34.668,48.828,0
214836.742,37.598,26.367,38.574,36.133,15.137,0
214836.746,28.809,22.949,29.785,30.762,-8.789,0
214836.750,26.855,26.855,33.691,24.902,53.223,0
214836.754,25.879,26.367,34.668,20.020,55.176,0
214836.758,23.438,25.879,34.180,16.113,14.648,0
214836.762,28.809,29.297,45.410,16.602,-2.441,0
214836.766,32.227,28.809,41.504,30.273,14.160,0
214836.770,38.574,35.645,31.250,34.180,16.602,0
214836.774,42.969,41.016,36.133,29.297,-20.020,0
214836.777,35.156,36.621,35.156,24.414,-16.602,0
214836.781,29.785,32.227,26.367,18.066,-29.297,0
214836.785,33.691,25.879,27.832,23.926,-14.160,0
214836.789,31.250,16.602,27.832,31.738,33.691,0
214836.793,25.391,22.461,25.879,32.227,33.203,0
214836.797,33.203,33.203,32.715,39.062,39.551,0
214836.801,32.715,33.691,38.086,35.156,36.133,0
214836.805,23.438,25.391,36.621,17.578,19.043,0
214836.809,22.949,26.367,33.203,19.043,63.477,0
214836.813,22.949,29.785,31.738,23.926,86.426,0
214836.817,23.438,29.785,34.668,19.043,80.078,0
214836.820,22.461,28.809,30.273,16.113,82.520,0
214836.824,19.043,25.391,30.273,15.625,55.176,0
214836.828,15.625,24.414,32.715,19.531,9.766,0
214836.832,9.766,23.438,23.438,19.531,6.836,0
214836.836,5.859,28.320,18.066,15.625,4.883,0
214836.840,12.207,33.691,17.090,9.766,5.859,0
214836.844,20.508,30.762,26.855,11.230,54.688,0
214836.848,19.043,30.762,39.062,12.207,9.766,0
214836.852,20.508,33.691,34.180,20.020,-21.973,0
214836.856,27.832,34.180,21.973,25.879,18.066,0
214836.860,29.785,39.062,32.227,24.414,55.176,0
214836.863,25.391,35.645,38.574,23.438,62.012,0
214836.867,15.625,22.949,24.414,15.625,51.270,0
214836.871,12.207,19.043,24.902,21.484,67.871,0
214836.875,16.602,22.461,25.391,26.367,57.129,0
214836.879,29.785,27.344,19.531,25.391,39.062,0
214836.883,37.598,22.461,18.066,31.250,45.410,0
214836.887,27.832,18.555,24.902,29.785,34.180,0
214836.891,27.832,27.832,34.180,32.715,-2.441,0
214836.895,39.062,31.250,39.062,39.551,-23.438,0
214836.899,19.043,28.320,43.457,29.785,-4.883,0
214836.902,2.930,28.320,38.574,20.508,6.348,0
214836.906,11.719,19.531,40.527,24.414,-28.809,0
214836.910,23.926,26.855,44.922,39.062,-8.301,0
214836.914,33.203,41.016,38.574,55.664,9.766,0
214836.918,13.672,35.645,23.438,31.250,14.648,0
214836.922,-0.488,30.762,23.926,5.371,27.344,0
214836.926,10.742,29.297,38.086,10.254,-4.883,0
214836.930,15.625,29.785,42.480,20.508,9.766,0
214836.934,20.996,28.809,41.992,26.367,8.789,0
214836.938,29.785,26.855,40.039,24.902,-9.766,0
214836.942,31.738,26.367,35.645,20.996,-32.227,0
214836.945,31.250,30.273,39.551,30.273,-19.043,0
214836.949,39.062,47.852,45.898,50.781,26.855,0
214836.953,38.574,52.734,37.598,47.852,8.301,0
214836.957,26.367,33.691,23.926,33.691,-10.742,0
214836.961,28.809,30.273,28.809,35.156,0.977,0
214836.965,24.902,39.551,35.645,33.691,24.902,0
214836.969,20.020,39.551,36.621,36.621,39.551,0
214836.973,27.832,41.016,41.016,41.992,1.953,0
214836.977,26.367,34.668,44.434,42.969,17.578,0
214836.981,17.090,24.902,38.574,33.203,36.133,0
214836.985,23.926,30.273,40.039,25.879,2.441,0
214836.988,36.133,40.039,48.828,44.434,-1.953,0
214836.992,46.875,46.875,40.527,51.270,8.789,0
214836.996,47.363,44.434,33.691,38.574,30.762,0
214837.000,41.016,39.062,40.039,40.039,37.598,0
214837.004,33.691,37.109,44.922,39.062,66.895,0
214837.008,32.227,30.762,37.598,37.598,78.613,0
214837.012,38.086,31.250,39.551,39.062,49.316,0
214837.016,47.363,46.387,42.480,46.387,48.340,0
214837.020,57.617,49.316,40.527,48.828,47.363,0
214837.024,50.293,37.109,50.781,44.434,42.480,0
214837.027,46.387,39.551,54.688,49.316,18.555,0
214837.031,55.664,44.434,46.387,45.410,9.766,0
214837.035,57.617,41.504,40.527,47.363,15.137,0
214837.039,51.270,35.156,40.527,46.387,22.461,0
214837.043,44.922,26.367,40.039,42.480,18.066,0
214837.047,43.945,27.344,37.598,41.992,10.742,0
214837.051,42.480,37.598,39.062,33.203,46.387,0
214837.055,34.668,38.574,30.762,27.344,72.754,0
214837.059,43.457,33.691,27.344,36.621,54.199,0
214837.063,53.223,32.227,44.434,49.316,44.922,0
214837.067,44.922,35.645,45.410,47.852,53.223,0
214837.070,42.969,40.039,34.668,46.387,28.320,0
214837.074,41.016,43.945,31.738,47.363,9.766,0
214837.078,41.504,48.340,39.551,41.992,44.434,0
214837.082,41.992,42.969,42.480,40.039,29.297,0
214837.086,39.062,38.086,36.621,47.363,-17.090,0
214837.090,37.109,32.715,31.738,42.480,20.508,0
214837.094,38.086,27.832,26.367,28.809,43.457,0
214837.098,37.109,26.855,15.625,31.250,52.734,0
214837.102,40.527,24.414,3.906,41.016,68.848,0
214837.106,46.875,28.809,15.625,37.598,62.500,0
214837.110,47.852,35.156,38.086,38.086,64.941,0
214837.113,40.527,31.250,43.945,48.340,29.785,0
214837.117,39.551,36.621,46.387,36.621,18.066,0
214837.121,44.434,40.527,44.922,25.879,18.066,0
214837.125,38.574,32.227,35.156,34.180,6.348,0
214837.129,32.715,28.320,16.602,33.691,13.672,0
214837.133,38.086,28.320,3.418,16.602,14.648,0
214837.137,35.156,33.203,20.508,18.066,-15.625,0
214837.141,32.715,28.809,41.016,27.344,-29.785,0
214837.145,36.133,25.879,48.340,36.133,-9.766,0
214837.149,41.504,33.691,42.480,36.621,29.297,0
214837.152,37.109,30.762,35.156,29.785,45.898,0
214837.156,40.527,31.250,33.203,48.340,52.246,0
214837.160,53.711,38.574,25.879,62.012,50.781,0
214837.164,43.945,27.832,26.367,38.086,33.203,0
214837.168,32.227,16.602,24.902,24.902,8.789,0
214837.172,31.250,22.949,26.367,34.180,25.879,0
214837.176,35.156,30.273,34.668,41.016,27.344,0
214837.180,38.086,36.133,38.574,37.109,-1.465,0
214837.184,35.156,23.438,39.551,33.691,33.691,0
214837.188,34.668,17.090,30.273,37.109,74.219,0
214837.192,38.086,33.691,22.461,41.016,94.727,0
214837.195,40.527,42.480,35.645,45.898,87.891,0
214837.199,32.715,43.945,43.457,41.016,57.129,0
214837.203,32.227,42.480,36.621,27.344,25.391,0
214837.207,31.250,32.227,24.414,20.996,26.855,0
214837.211,29.785,30.273,15.137,35.156,32.227,0
214837.215,35.645,39.062,24.414,37.598,50.293,0
214837.219,32.715,36.133,36.621,27.344,62.988,0
214837.223,28.809,31.738,35.156,25.391,23.926,0
214837.227,24.414,33.203,26.367,20.996,20.020,0
214837.231,20.020,35.645,32.715,24.414,61.523,0
214837.235,28.809,37.109,31.738,35.645,60.547,0
214837.238,32.227,38.086,23.926,39.551,39.551,0
214837.242,31.250,39.062,26.367,39.062,57.129,0
214837.246,34.668,36.133,29.297,27.344,72.266,0
214837.250,26.855,33.203,24.414,15.625,66.406,0
214837.254,24.902,29.785,22.461,20.996,63.965,0
214837.258,28.809,22.461,24.414,18.066,35.645,0
214837.262,28.809,15.625,27.344,14.648,14.160,0
214837.266,26.367,26.367,26.367,20.020,-9.766,0
214837.270,27.832,43.457,20.020,26.855,-27.344,0
214837.274,25.879,36.621,19.043,22.949,31.738,0
214837.277,17.090,21.484,24.414,15.625,47.852,0
214837.281,27.832,28.809,19.043,31.250,4.883,0
214837.285,39.551,29.297,19.531,33.691,41.992,0
214837.289,37.109,24.414,39.551,27.832,65.430,0
214837.293,34.668,30.273,41.016,41.992,49.316,0
214837.297,26.367,25.879,33.203,27.832,63.965,0
214837.301,20.020,24.902,30.762,8.789,64.941,0
214837.305,25.391,30.273,28.320,18.066,54.199,0
214837.309,24.414,27.832,31.738,23.438,40.039,0
214837.313,27.344,22.461,26.855,20.020,34.180,0
214837.317,35.645,22.949,16.113,26.855,31.738,0
214837.320,35.156,26.367,16.113,37.598,30.762,0
214837.324,32.715,32.715,31.738,43.945,8.789,0
214837.328,31.250,40.527,48.340,44.922,-1.465,0
214837.332,29.785,34.180,48.828,36.621,14.160,0
214837.336,23.438,24.414,41.016,25.391,38.574,1
214837.340,26.367,27.832,37.598,20.996,30.762,0
214837.344,28.320,29.785,30.273,23.926,20.020,0
214837.348,26.367,30.273,20.508,23.926,24.414,0
214837.352,34.180,28.320,10.254,31.738,8.301,0
214837.356,30.762,26.367,12.695,37.598,12.695,0
214837.360,27.832,29.785,31.250,33.203,-19.531,0
214837.363,24.902,23.926,39.062,27.344,-1.953,0
214837.367,20.508,22.461,35.645,29.297,58.594,0
214837.371,14.648,32.715,25.879,24.414,57.129,0
214837.375,15.137,34.668,16.113,21.973,61.523,0
214837.379,28.320,34.180,22.461,41.016,62.500,0
214837.383,33.203,35.156,23.438,39.551,61.035,0
214837.387,21.484,24.902,14.160,24.902,56.641,0
214837.391,24.414,20.020,19.043,19.043,58.105,0
214837.395,27.832,25.391,29.785,22.949,70.312,0
214837.399,21.973,28.809,24.902,30.273,32.227,0
214837.402,25.391,25.879,27.344,24.902,2.930,0
214837.406,26.367,21.484,39.062,20.508,16.113,0
214837.410,19.043,16.602,29.297,18.555,37.598,0
214837.414,25.391,21.484,24.902,21.484,54.199,0
214837.418,34.668,31.738,28.809,28.809,56.641,0
214837.422,32.715,27.344,26.855,32.715,63.965,0
214837.426,25.879,23.926,21.973,28.809,77.637,0
214837.430,23.926,29.297,16.113,18.555,71.289,0
214837.434,26.367,26.855,21.973,19.043,51.758,0
214837.438,27.832,22.461,32.227,26.855,71.289,0
214837.442,31.250,27.344,37.109,28.320,81.543,0
214837.445,40.039,28.809,33.203,31.250,58.594,0
214837.449,41.016,31.738,23.438,38.574,17.090,0
214837.453,35.156,36.621,30.273,31.250,14.648,0
214837.457,33.691,31.250,42.480,28.809,35.645,0
214837.461,35.156,38.086,37.109,36.621,28.809,0
214837.465,39.062,41.504,31.250,37.598,15.625,0
214837.469,37.598,26.855,35.156,34.668,15.625,0
214837.473,34.668,22.461,30.273,25.879,32.715,0
214837.477,31.250,27.832,26.367,26.367,37.109,0
214837.481,32.715,26.855,28.320,37.109,50.293,0
214837.485,33.691,25.879,34.668,41.504,50.781,0
214837.488,33.203,27.344,39.551,28.809,16.602,0
214837.492,37.109,29.785,30.762,27.832,4.883,0
214837.496,39.551,36.621,35.156,37.598,-4.395,0
214837.500,41.504,40.527,38.574,40.039,-22.949,0
214837.504,37.109,32.715,32.715,39.062,-21.973,0
214837.508,30.273,16.602,27.832,30.762,-42.480,0
214837.512,33.203,20.020,21.973,29.785,-22.949,0
214837.516,38.086,28.320,34.180,41.504,17.578,0
214837.520,32.715,19.531,41.016,28.809,10.254,0
214837.524,26.367,20.508,34.668,12.207,-33.691,0
214837.527,34.180,30.273,26.855,24.414,-24.414,0
214837.531,40.039,33.203,18.555,35.645,23.926,0
214837.535,33.691,33.691,13.184,28.809,20.020,0
214837.539,31.250,30.762,20.020,21.973,2.930,0
214837.543,32.227,21.484,28.320,23.926,-10.254,0
214837.547,32.715,17.090,31.250,31.738,13.672,0
214837.551,36.133,24.902,29.297,36.133,26.855,0
214837.555,38.574,32.715,20.996,34.668,-0.488,0
214837.559,41.992,34.180,16.602,44.922,20.508,0
214837.563,42.480,36.621,27.832,59.082,52.734,0
214837.567,40.039,35.156,38.574,47.363,35.156,0
214837.570,30.762,27.832,34.180,27.344,26.367,0
214837.574,24.414,28.320,25.879,26.367,45.410,0
214837.578,29.297,36.621,20.996,35.156,64.941,0
214837.582,32.715,32.227,18.066,27.832,64.453,0
214837.586,31.738,24.414,19.043,19.531,56.641,0
214837.590,33.691,22.461,28.320,24.902,62.500,0
214837.594,34.180,24.414,24.902,34.180,68.359,0
214837.598,42.480,27.832,13.672,41.992,44.922,0
214837.602,47.852,32.227,22.461,36.621,26.855,0
214837.606,35.645,37.109,43.945,29.785,55.176,0
214837.610,28.320,40.527,44.434,28.320,56.641,0
214837.613,28.809,36.133,31.250,28.320,35.645,0
214837.617,23.926,27.832,27.832,28.809,32.227,0
214837.621,25.879,27.832,31.738,27.344,15.625,0
214837.625,28.809,24.902,35.156,32.715,38.574,0
214837.629,26.855,22.949,29.297,36.133,52.246,0
214837.633,27.344,23.926,22.461,30.273,22.461,0
214837.637,29.785,25.879,27.344,26.855,56.152,0
214837.641,35.156,34.180,35.156,30.762,71.289,0
214837.645,27.344,29.785,26.367,25.391,46.387,0
214837.649,25.879,24.414,15.625,27.832,75.195,0
214837.652,31.250,26.855,24.414,46.875,77.148,0
214837.656,31.738,29.297,28.809,39.062,47.852,0
214837.660,37.598,32.715,33.203,27.344,20.508,0
214837.664,34.668,27.344,38.086,28.320,12.207,0
214837.668,30.762,23.926,26.367,23.926,50.781,0
214837.672,33.691,26.367,29.297,24.902,57.129,0
214837.676,32.715,33.203,37.109,32.227,32.715,0
214837.680,32.715,33.203,24.414,36.133,21.973,0
214837.684,33.691,29.785,16.113,34.180,19.043,0
214837.688,28.809,35.645,16.602,20.508,-26.367,0
214837.692,28.320,39.551,22.949,18.555,17.578,0
214837.695,31.250,30.273,29.785,33.691,81.055,0
214837.699,27.832,31.250,32.715,42.969,52.734,0
214837.703,35.645,41.504,34.180,41.992,54.688,0
214837.707,43.457,32.715,35.156,38.574,60.059,0
214837.711,33.691,19.043,34.668,35.156,73.242,0
214837.715,30.273,23.926,35.645,32.227,71.289,0
214837.719,26.367,27.832,31.738,28.320,58.594,0
214837.723,17.578,25.879,23.438,20.020,82.520,0
214837.727,18.066,31.738,19.043,26.367,66.406,0
214837.731,27.344,34.180,22.461,42.480,33.691,0
214837.735,31.250,28.320,31.738,38.574,-2.441,0
214837.738,32.227,25.391,39.551,38.574,-11.719,0
214837.742,36.133,30.273,37.598,49.316,5.859,0
214837.746,33.203,31.738,39.062,42.969,-3.418,0
214837.750,37.598,30.762,44.922,41.504,-1.953,0
214837.754,42.969,35.156,38.574,42.480,44.434,0
214837.758,39.551,30.273,22.949,35.156,42.969,0
214837.762,34.180,19.531,18.555,33.691,18.555,0
214837.766,27.832,11.230,29.297,31.738,61.523,0
214837.770,20.508,13.672,37.109,29.785,66.895,0
214837.774,27.344,34.180,24.414,39.062,27.832,0
214837.777,39.062,49.805,21.484,47.852,12.207,0
214837.781,34.668,44.434,32.227,45.898,13.184,0
214837.785,27.832,32.715,28.809,40.527,29.785,0
214837.789,22.461,30.762,32.227,39.062,31.250,0
214837.793,23.438,32.227,30.273,39.551,-13.184,0
214837.797,29.297,33.691,24.414,34.668,-22.461,0
214837.801,25.879,31.738,28.809,30.273,-2.441,0
214837.805,26.855,28.320,27.344,28.809,-29.785,0
214837.809,33.203,31.738,25.879,26.855,-21.484,0
214837.813,31.738,34.180,37.598,31.738,-29.297,0
214837.817,31.250,37.109,34.668,36.133,-25.391,0
214837.820,38.086,41.016,27.344,36.133,-5.859,0
214837.824,38.086,35.645,30.762,28.320,7.324,0
214837.828,24.414,31.250,33.691,23.438,48.340,0
214837.832,30.762,32.715,35.156,38.086,34.180,0
214837.836,40.527,32.715,33.691,42.480,1.953,0
214837.840,32.227,26.367,37.109,27.344,-47.852,0
214837.844,29.785,25.391,42.480,26.855,-30.273,0
214837.848,30.762,28.320,33.691,31.738,20.508,0
214837.852,34.668,28.320,25.391,33.203,36.133,0
214837.856,38.086,32.227,31.250,32.715,50.781,0
214837.860,38.574,37.109,28.809,34.668,35.645,0
214837.863,48.828,41.504,21.973,52.734,49.316,0
214837.867,47.852,36.621,22.949,52.734,20.996,0
214837.871,30.273,27.344,24.902,27.832,-7.324,0
214837.875,32.227,25.391,33.203,20.508,11.230,0
214837.879,35.645,20.996,42.480,31.250,47.363,0
214837.883,33.203,18.066,41.504,33.203,27.832,0
214837.887,35.156,16.602,30.273,22.949,-4.883,0
214837.891,31.250,15.137,29.785,27.344,47.363,0
214837.895,33.203,22.949,32.715,35.645,77.637,0
214837.899,41.016,28.320,28.320,33.203,61.523,0
214837.902,41.992,25.391,28.320,40.039,63.965,0
214837.906,38.574,27.832,19.043,41.504,63.965,0
214837.910,38.574,26.855,20.508,36.621,13.672,0
214837.914,39.551,24.414,44.434,36.621,-1.465,0
214837.918,34.668,21.973,49.805,31.738,39.551,0
214837.922,29.297,15.137,37.598,34.180,45.410,0
214837.926,33.203,16.602,32.227,41.504,25.879,1
214837.930,34.180,21.973,33.203,40.527,-20.508,0
214837.934,35.645,20.020,37.598,41.504,-35.156,0
214837.938,39.551,10.254,33.691,40.039,-8.301,0
214837.942,37.109,10.742,25.391,36.621,-0.488,0
214837.945,37.598,21.484,17.090,43.457,31.250,0
214837.949,43.457,24.902,13.184,50.781,10.254,0
214837.953,49.805,17.578,32.715,46.387,-14.160,0
214837.957,54.688,4.883,42.480,41.504,-0.977,0
214837.961,54.199,8.789,30.273,40.527,7.324,0
214837.965,54.199,27.344,32.715,40.039,-0.488,0
214837.969,54.688,31.250,25.879,40.527,1.953,0
214837.973,45.898,28.320,16.113,40.527,1.953,0
214837.977,47.363,37.109,19.531,42.480,10.742,0
214837.981,44.434,36.621,10.742,35.645,56.152,0
214837.985,39.062,31.250,12.695,28.320,75.195,0
214837.988,44.434,36.621,29.297,28.809,40.039,0
214837.992,47.363,32.715,21.973,24.414,28.809,0
214837.996,47.852,29.785,7.812,30.273,46.875,0
214838.000,48.828,34.180,19.531,38.086,43.945,0
214838.004,53.223,34.668,24.902,41.992,25.391,0
214838.008,48.828,29.297,13.184,33.203,3.906,0
214838.012,41.504,33.203,4.883,26.855,37.598,0
214838.016,37.109,35.645,5.371,29.785,66.895,0
214838.020,35.645,32.227,11.230,27.344,19.531,0
214838.024,39.062,36.133,19.043,30.273,29.297,0
214838.027,42.480,37.598,20.508,36.621,31.738,0
214838.031,43.945,41.992,19.531,40.527,25.879,0
214838.035,39.062,41.016,18.555,34.180,13.184,0
214838.039,35.156,37.109,17.090,31.250,28.809,0
214838.043,41.504,42.480,18.066,40.527,74.219,0
214838.047,38.574,38.574,17.578,41.992,62.012,0
214838.051,24.902,25.879,26.367,35.645,69.824,0
214838.055,22.461,20.996,34.180,30.762,76.172,0
214838.059,22.949,18.555,29.785,27.344,83.496,0
214838.063,24.902,21.973,31.250,36.133,35.645,0
214838.067,23.926,32.715,33.691,37.109,-7.812,0
214838.070,24.414,41.504,29.297,24.902,40.527,0
214838.074,24.414,42.480,22.461,24.902,38.086,0
214838.078,25.391,38.574,24.414,27.832,20.996,0
214838.082,33.203,39.551,28.320,27.832,37.109,0
214838.086,32.715,39.062,23.926,25.879,56.152,0
214838.090,21.484,30.273,25.391,19.531,49.805,0
214838.094,16.602,34.180,30.762,20.996,48.828,0
214838.098,14.648,35.156,29.297,21.973,75.195,0
214838.102,9.766,28.809,26.855,14.648,43.457,0
214838.106,10.742,28.809,29.785,24.414,16.113,0
214838.110,21.484,31.250,30.762,36.133,28.809,0
214838.113,20.020,34.180,24.414,24.414,68.848,0
214838.117,11.719,31.738,31.250,20.996,85.938,0
214838.121,19.531,26.855,38.086,20.508,34.180,0
214838.125,21.484,30.762,33.691,20.508,-20.996,0
214838.129,18.555,41.016,33.691,24.414,-4.883,0
214838.133,19.043,37.598,31.738,23.926,44.434,0
214838.137,24.414,32.227,27.344,26.367,70.312,0
214838.141,36.133,37.109,29.785,31.738,4.395,0
214838.145,35.645,35.156,28.809,32.227,-7.812,0
214838.149,27.832,35.156,23.926,26.367,54.688,0
214838.152,28.320,40.039,22.461,29.297,12.207,0
214838.156,33.691,40.527,15.625,29.297,-18.066,0
214838.160,36.133,37.598,25.391,23.438,8.789,0
214838.164,24.902,35.156,32.715,14.160,20.020,0
214838.168,15.625,38.574,27.344,9.277,20.996,0
214838.172,16.602,39.062,28.809,17.090,-4.883,0
214838.176,15.625,37.109,31.738,20.020,26.855,0
214838.180,14.648,35.645,27.832,20.508,11.719,0
214838.184,20.020,34.668,27.344,21.973,-14.648,0
214838.188,24.902,35.156,32.715,19.043,18.555,0
214838.192,21.973,37.598,36.621,23.438,17.090,0
214838.195,18.066,38.086,26.855,21.484,19.531,0
214838.199,14.160,28.320,11.230,14.648,28.320,0
214838.203,15.137,29.785,15.625,18.066,-11.719,0
214838.207,22.461,43.457,34.668,28.809,-5.859,0
214838.211,26.367,39.062,30.273,27.344,-12.695,0
214838.215,28.320,28.320,31.738,15.137,-6.836,0
214838.219,19.043,29.785,38.086,13.184,20.020,0
214838.223,13.184,33.203,34.668,16.602,22.461,0
214838.227,13.184,33.203,29.785,18.066,28.809,0
214838.231,14.648,32.227,24.902,20.996,42.480,0
214838.235,19.043,29.297,21.973,20.020,65.430,0
214838.238,21.484,30.273,24.414,32.715,68.359,0
214838.242,23.926,35.156,29.297,30.762,45.898,0
214838.246,28.320,34.668,23.926,13.184,15.137,0
214838.250,35.156,41.504,29.297,28.320,20.996,0
214838.254,35.156,42.480,40.039,36.133,30.273,0
214838.258,37.598,34.180,35.156,28.320,25.391,0
214838.262,37.598,34.180,28.809,29.297,46.875,0
214838.266,39.551,37.109,33.691,38.086,83.008,0
214838.270,41.992,30.762,37.598,40.527,85.449,0
214838.274,29.785,21.484,24.902,28.809,56.152,0
214838.277,23.438,27.344,17.578,21.484,56.641,0
214838.281,29.297,34.668,25.879,28.809,77.637,0
214838.285,25.879,29.297,36.133,35.156,47.363,0
214838.289,20.020,31.738,35.645,21.973,22.461,0
214838.293,24.902,46.875,30.273,12.695,37.598,0
214838.297,25.879,44.434,24.902,12.695,23.926,0
214838.301,34.180,39.551,23.926,10.742,3.418,0
214838.305,40.039,43.457,28.320,22.949,-22.949,0
214838.309,30.273,41.992,28.809,33.203,0.977,0
214838.313,27.344,39.062,24.902,31.738,40.039,0
214838.317,27.344,40.527,25.391,29.297,-9.277,0
214838.320,25.879,38.574,30.762,28.320,-21.484,0
214838.324,32.227,38.574,33.691,36.621,8.789,0
214838.328,34.180,37.598,29.785,43.457,27.832,0
214838.332,26.855,30.762,23.926,27.344,-0.488,0
214838.336,25.391,29.297,28.320,15.137,-10.742,0
214838.340,33.691,36.133,37.598,23.438,39.551,0
214838.344,35.156,35.645,36.133,30.273,23.926,0
214838.348,27.832,26.855,31.250,25.879,-1.953,0
214838.352,26.855,27.344,30.273,22.949,-16.602,0
214838.356,36.621,31.738,30.762,37.109,13.672,0
214838.360,42.480,34.180,31.250,52.246,29.297,0
214838.363,46.875,41.504,30.273,48.340,-1.953,0
214838.367,44.922,43.457,31.250,47.363,39.551,0
214838.371,37.598,32.715,39.551,47.852,77.148,0
214838.375,30.762,25.879,40.039,32.227,37.598,0
214838.379,30.762,28.320,31.250,25.391,15.625,0
214838.383,30.762,28.320,31.250,28.320,58.105,0
214838.387,22.461,19.531,38.086,26.367,90.332,0
214838.391,23.926,13.672,40.039,23.438,46.875,0
214838.395,23.926,19.043,39.551,20.996,20.996,0
214838.399,21.484,26.855,44.434,25.391,52.246,0
214838.402,29.785,33.203,49.805,43.945,57.129,0
214838.406,40.039,39.551,44.434,64.941,18.555,0
214838.410,36.133,38.574,33.691,58.594,-5.859,0
214838.414,27.832,32.715,32.715,36.621,8.301,0
214838.418,25.879,27.344,33.691,29.297,50.781,0
214838.422,26.855,24.902,34.180,30.762,71.777,0
214838.426,33.691,26.367,36.621,37.598,54.688,0
214838.430,35.645,25.879,39.062,41.504,51.270,0
214838.434,39.062,25.879,38.086,37.598,51.270,0
214838.438,39.551,29.297,34.668,29.297,39.062,0
214838.442,35.156,31.250,39.062,26.855,1.465,0
214838.445,36.621,30.762,39.551,41.016,27.832,0
214838.449,40.039,32.715,29.297,51.270,5.859,0
214838.453,38.574,36.621,36.133,48.340,-2.930,0
214838.457,36.621,32.227,37.109,41.992,11.230,0
214838.461,37.598,24.414,23.926,34.180,8.789,0
214838.465,36.133,17.578,31.738,24.902,26.367,0
214838.469,24.902,17.578,42.969,20.996,-3.418,0
214838.473,20.996,25.391,36.621,20.996,20.996,0
214838.477,30.273,32.227,32.715,26.367,22.949,0
214838.481,34.180,30.762,36.133,34.180,1.465,0
214838.485,30.273,27.832,36.133,24.414,-18.555,0
214838.488,35.156,33.203,32.715,26.855,9.766,0
214838.492,47.852,41.016,40.039,45.410,24.414,0
214838.496,49.805,42.480,34.668,45.410,2.930,0
214838.500,43.457,33.203,22.949,32.227,30.762,2
214838.504,34.180,22.461,27.832,19.531,40.527,0
214838.508,36.133,20.996,29.785,20.508,30.273,0
214838.512,42.480,24.902,31.738,24.414,47.363,0
214838.516,41.992,33.203,38.574,23.438,56.641,0
214838.520,39.551,31.738,40.039,20.508,94.238,0
214838.524,35.645,25.879,34.180,25.879,147.949,0
214838.527,37.598,26.367,24.414,29.297,83.008,0
214838.531,34.180,29.785,24.414,25.391,23.438,0
214838.535,37.109,38.574,36.133,38.086,33.203,0
214838.539,43.457,40.039,37.598,47.363,40.039,0
214838.543,31.738,29.297,17.090,37.598,41.992,0
214838.547,24.414,24.414,14.648,30.273,41.504,0
214838.551,26.855,27.344,31.250,29.785,25.879,0
214838.555,24.414,23.438,36.133,21.973,36.621,0
214838.559,24.414,21.484,34.180,24.414,12.695,0
214838.563,27.832,24.902,30.273,28.809,7.324,0
214838.567,29.785,25.391,21.484,27.832,46.875,0
214838.570,34.668,25.391,24.414,37.109,56.152,0
214838.574,42.969,30.762,42.480,54.199,39.551,0
214838.578,46.875,35.156,36.621,61.035,24.902,0
214838.582,48.340,32.715,23.438,48.340,12.695,0
214838.586,41.992,22.461,31.250,44.434,-5.371,0
214838.590,33.691,17.090,42.969,39.062,-27.344,0
214838.594,34.180,25.391,43.945,30.273,2.930,0
214838.598,30.273,28.320,40.039,28.320,49.316,0
214838.602,23.926,26.367,31.250,23.926,39.062,0
214838.606,23.438,23.438,25.391,26.855,33.691,0
214838.610,34.668,28.320,30.762,39.062,83.496,0
214838.613,38.574,36.621,32.715,44.922,76.172,0
214838.617,28.809,28.320,25.391,35.156,38.574,0
214838.621,22.461,22.949,35.156,34.180,28.809,0
214838.625,24.414,30.273,49.805,41.016,15.137,0
214838.629,27.832,29.297,41.504,43.945,40.527,0
214838.633,24.414,22.949,32.227,35.645,37.598,0
214838.637,20.508,25.879,27.832,15.625,17.090,0
214838.641,20.508,32.227,27.344,21.973,63.965,0
214838.645,19.043,32.227,31.250,32.227,70.801,0
214838.649,25.391,33.203,32.715,30.762,25.879,0
214838.652,30.762,44.922,30.273,38.086,14.160,0
214838.656,26.367,41.016,27.832,38.574,19.531,0
214838.660,23.926,27.344,31.250,33.691,35.645,0
214838.664,27.832,30.762,38.574,29.785,30.273,0
214838.668,20.996,30.273,38.086,24.902,15.625,0
214838.672,17.578,20.996,36.133,21.484,27.832,0
214838.676,21.484,20.508,37.598,23.926,24.414,0
214838.680,24.414,25.391,31.738,31.738,1.953,0
214838.684,27.832,32.227,29.785,37.109,22.949,0
214838.688,32.715,33.203,40.039,33.691,28.809,0
214838.692,24.414,30.273,28.809,29.785,28.809,0
214838.695,23.926,33.691,32.227,38.574,26.367,0
214838.699,41.016,32.227,44.434,51.758,21.484,0
214838.703,42.480,32.715,34.668,48.828,46.387,0
214838.707,28.809,25.391,33.691,38.574,58.105,0
214838.711,15.137,11.719,25.879,23.438,57.617,0
214838.715,18.555,13.672,22.949,19.043,57.617,0
214838.719,19.531,16.602,25.391,27.344,64.941,0
214838.723,19.531,19.043,27.344,25.879,37.109,0
214838.727,27.832,28.809,31.250,23.926,21.973,0
214838.731,31.738,31.738,31.250,34.180,74.219,0
214838.735,26.367,22.949,27.344,35.645,101.562,0
214838.738,29.297,23.438,27.344,36.133,65.430,0
214838.742,38.574,35.645,28.320,42.969,18.066,0
214838.746,34.180,34.180,29.297,41.504,56.152,0
214838.750,22.461,16.113,38.574,31.738,87.402,0
214838.754,19.531,12.695,38.574,26.367,13.184,0
214838.758,22.461,23.438,25.879,29.297,20.996,0
214838.762,28.809,27.344,26.855,35.645,82.031,0
214838.766,30.273,25.879,30.762,30.762,56.641,0
214838.770,28.320,30.762,28.809,19.531,46.387,0
214838.774,28.320,31.738,26.367,27.832,42.969,0
214838.777,32.715,33.203,25.879,41.016,22.949,0
214838.781,38.086,40.039,27.344,42.480,15.625,0
214838.785,32.715,37.598,23.438,31.250,-9.277,0
214838.789,22.949,27.832,24.414,21.484,7.812,0
214838.793,25.391,29.297,37.598,31.738,57.129,0
214838.797,27.832,28.320,40.039,38.574,36.133,0
214838.801,21.484,20.996,28.809,27.832,10.742,0
214838.805,25.391,26.367,25.391,29.785,18.066,0
214838.809,36.133,38.086,32.715,41.992,12.207,0
214838.813,37.598,36.133,29.297,38.574,4.883,0
214838.817,43.457,35.156,30.273,43.457,0.488,0
214838.820,42.969,37.598,39.551,41.016,26.367,0
214838.824,33.691,39.062,34.180,33.691,43.457,0
214838.828,34.180,40.039,31.250,32.227,45.410,0
214838.832,30.762,29.297,35.645,29.297,25.391,0
214838.836,25.391,26.367,37.598,31.250,-3.906,0
214838.840,29.297,35.645,31.250,32.715,0.977,0
214838.844,37.598,38.574,33.691,40.527,37.109,0
214838.848,36.621,32.227,39.551,39.551,70.801,0
214838.852,30.273,28.320,34.180,36.133,84.961,0
214838.856,31.250,27.832,32.227,34.180,76.172,0
214838.860,38.086,32.227,40.039,32.227,33.203,0
214838.863,31.738,25.879,37.109,34.180,33.203,0
214838.867,21.973,15.625,38.086,23.926,59.570,0
214838.871,24.414,22.949,42.969,17.578,43.945,0
214838.875,21.973,22.461,36.133,20.996,32.227,0
214838.879,20.996,21.973,32.715,30.273,43.457,0
214838.883,26.855,40.527,32.227,42.969,89.844,0
214838.887,23.926,49.316,27.344,34.668,67.383,0
214838.891,29.785,37.598,27.344,36.621,21.973,0
214838.895,37.109,34.180,27.832,52.246,51.270,0
214838.899,39.062,37.598,20.508,45.898,67.871,0
214838.902,36.133,33.203,27.832,35.156,12.695,0
214838.906,23.926,28.320,43.457,35.156,-9.766,0
214838.910,24.902,29.297,49.805,36.621,28.320,0
214838.914,24.414,28.809,41.504,27.832,53.223,0
214838.918,22.949,29.297,32.715,27.832,92.285,0
214838.922,32.227,33.691,24.414,33.203,93.262,0
214838.926,36.133,38.086,27.832,30.762,32.227,0
214838.930,29.785,38.574,35.645,27.344,-29.297,0
214838.934,31.738,36.621,21.484,36.133,-31.250,0
214838.938,36.133,37.598,26.367,40.039,-30.273,0
214838.942,25.391,33.203,39.551,27.832,-42.480,0
214838.945,20.508,27.344,35.156,23.438,-20.508,0
214838.949,26.367,27.832,28.320,21.484,-10.254,0
214838.953,21.484,31.250,21.973,14.160,-20.508,0
214838.957,23.438,40.039,18.555,32.227,-25.879,0
214838.961,31.738,40.039,20.996,42.480,-7.324,0
214838.965,23.926,32.227,21.973,24.902,-3.418,0
214838.969,20.508,34.180,25.391,20.508,5.371,0
214838.973,24.414,35.645,34.668,20.996,47.363,0
214838.977,20.996,24.414,37.109,19.531,65.918,0
214838.981,18.066,17.578,41.992,20.508,35.645,0
214838.985,22.461,25.391,45.410,35.156,27.344,0
214838.988,29.785,28.320,34.668,37.598,54.688,0
214838.992,34.668,26.855,29.785,33.691,52.246,0
214838.996,41.992,37.598,26.367,42.480,29.785,0
214839.000,39.062,42.969,28.809,39.551,21.973,0
214839.004,33.691,38.086,30.273,40.039,11.230,0
214839.008,41.504,38.086,29.297,40.039,-18.555,0
214839.012,38.574,31.738,32.227,21.973,-6.348,0
214839.016,35.645,28.320,32.715,17.090,80.078,0
214839.020,40.527,26.367,24.902,20.996,72.754,0
214839.024,40.527,20.020,29.297,21.973,55.664,0
214839.027,37.109,22.461,36.133,30.762,59.570,0
214839.031,39.062,28.320,35.156,43.457,48.340,0
214839.035,37.598,26.855,31.250,46.875,39.551,0
214839.039,28.320,20.508,12.695,39.551,28.320,0
214839.043,25.391,18.555,11.230,32.715,29.785,0
214839.047,27.832,23.926,24.902,28.809,39.062,0
214839.051,34.668,38.086,31.738,42.969,31.250,0
214839.055,32.715,37.109,38.574,39.062,30.273,0
214839.059,24.414,22.461,39.062,13.672,71.777,0
214839.063,26.855,23.926,36.133,14.648,62.988,0
214839.067,29.297,26.855,34.668,17.578,39.062,0
214839.070,34.668,33.203,30.273,26.855,18.066,0
214839.074,38.574,36.621,20.996,38.086,29.297,0
214839.078,40.527,30.762,11.230,36.133,69.824,0
214839.082,37.109,32.715,24.414,35.156,27.344,0
214839.086,34.668,34.668,36.621,36.133,40.039,0
214839.090,39.062,29.297,39.062,34.180,37.109,0
214839.094,38.574,28.320,36.133,34.668,17.090,1
214839.098,37.109,33.691,26.855,33.691,20.508,0
214839.102,37.598,27.832,26.855,37.109,20.996,0
214839.106,32.227,23.926,20.996,42.969,52.734,0
214839.110,32.715,32.715,7.812,40.039,45.898,0
214839.113,46.387,38.086,16.602,38.574,45.898,0
214839.117,49.316,36.133,38.574,41.504,55.176,0
214839.121,30.273,32.715,32.227,22.461,56.152,0
214839.125,16.602,32.227,18.555,3.906,87.402,0
214839.129,22.949,28.809,21.484,9.766,89.355,0
214839.133,25.391,25.391,18.066,11.719,91.309,0
214839.137,24.902,27.832,22.461,17.090,75.684,0
214839.141,30.273,32.227,21.484,21.973,46.387,0
214839.145,32.227,37.109,8.789,16.113,5.371,0
214839.149,33.691,31.250,8.301,25.391,-7.324,0
214839.152,38.086,24.902,20.020,36.133,43.945,0
214839.156,38.086,20.508,36.133,26.855,21.973,0
214839.160,33.691,25.391,39.551,17.090,1.465,0
214839.164,32.715,33.691,34.180,19.043,18.066,0
214839.168,36.621,34.180,21.973,30.762,46.387,0
214839.172,28.320,31.738,23.926,28.320,14.160,0
214839.176,24.414,28.809,32.715,23.438,5.371,0
214839.180,33.203,40.039,30.762,31.250,34.668,0
214839.184,32.227,43.945,27.344,30.273,33.691,0
214839.188,29.297,37.109,24.902,32.715,42.969,0
214839.192,29.785,39.551,22.461,36.133,33.203,0
214839.195,29.297,32.227,22.461,29.297,37.109,0
214839.199,30.762,25.391,23.438,32.715,33.691,0
214839.203,32.227,26.855,31.738,40.527,53.711,0
214839.207,31.738,32.715,28.809,37.109,56.641,0
214839.211,35.156,34.668,21.973,35.645,44.922,0
214839.215,37.598,35.156,24.414,38.086,6.836,0
214839.219,39.062,36.133,25.879,35.156,-3.906,0
214839.223,46.875,45.410,23.438,39.062,44.434,0
214839.227,54.199,55.176,21.484,48.340,57.129,0
214839.231,45.410,41.504,22.461,36.133,27.832,0
214839.235,39.551,31.250,29.785,20.020,-26.855,0
214839.238,43.457,33.691,31.250,27.832,-23.926,0
214839.242,38.086,32.715,20.508,34.668,15.137,0
214839.246,30.762,35.156,28.809,34.180,31.250,0
214839.250,21.484,30.762,34.180,25.879,41.016,0
214839.254,20.508,29.297,26.367,18.555,75.684,0
214839.258,31.738,34.668,24.902,20.020,65.918,0
214839.262,30.762,29.297,25.391,21.484,37.109,0
214839.266,22.461,23.926,23.926,21.484,33.203,0
214839.270,21.973,27.832,28.809,18.066,15.137,0
214839.274,25.879,38.574,35.156,21.973,2.441,0
214839.277,30.273,41.504,34.668,28.809,9.766,0
214839.281,36.621,39.551,37.109,35.645,-13.184,0
214839.285,30.762,39.551,38.574,37.598,-6.348,0
214839.289,33.203,36.621,36.133,41.016,-8.301,0
214839.293,40.039,37.109,33.203,47.852,-38.574,0
214839.297,36.133,40.527,32.715,45.410,-32.715,0
214839.301,32.227,40.039,32.227,38.574,-15.137,0
214839.305,33.691,37.109,33.203,38.086,-8.301,0
214839.309,37.598,27.344,28.809,38.086,-26.367,0
214839.313,34.180,22.949,22.949,33.203,10.742,0
214839.317,35.645,32.715,33.203,38.086,23.438,0
214839.320,35.645,41.504,41.504,38.086,-5.371,0
214839.324,30.762,38.574,38.086,32.715,2.441,0
214839.328,24.902,35.645,35.156,22.461,39.551,0
214839.332,27.344,32.227,28.320,13.672,7.324,0
214839.336,30.762,25.879,27.832,20.508,-12.695,0
214839.340,33.203,32.715,37.598,20.508,-30.762,0
214839.344,33.691,33.203,34.180,22.461,-45.898,0
214839.348,28.320,29.297,31.738,31.738,6.836,0
214839.352,30.762,37.109,28.320,24.414,13.672,0
214839.356,25.391,38.086,29.297,14.160,10.742,0
214839.360,27.832,36.133,26.855,23.926,19.531,0
214839.363,35.156,33.203,28.809,35.645,28.809,0
214839.367,34.180,24.414,39.551,41.016,44.922,0
214839.371,33.203,23.926,37.109,42.480,40.039,0
214839.375,35.645,33.203,33.691,46.387,27.344,0
214839.379,40.527,37.109,35.156,46.875,55.664,0
214839.383,31.250,30.273,32.227,41.016,48.340,0
214839.387,19.043,23.438,28.320,33.203,-18.555,0
214839.391,20.020,26.855,23.926,37.598,-15.137,0
214839.395,31.250,33.691,34.180,42.480,4.883,0
214839.399,39.551,28.809,43.457,39.062,18.555,0
214839.402,44.434,27.344,34.668,44.922,47.852,0
214839.406,49.805,32.227,34.180,47.852,63.965,0
214839.410,49.805,31.738,39.062,40.527,79.590,0
214839.414,43.945,34.180,30.762,33.203,70.801,0
214839.418,50.293,34.180,25.879,40.039,41.504,0
214839.422,50.781,27.832,26.855,36.133,6.836,0
214839.426,35.156,20.020,11.719,25.879,5.859,0
214839.430,30.273,20.508,12.207,26.855,-9.277,0
214839.434,25.879,28.320,31.738,23.438,-16.113,0
214839.438,29.297,29.785,34.668,26.367,28.809,0
214839.442,35.156,27.832,37.598,32.715,5.859,0
214839.445,32.715,34.668,43.457,35.156,0.488,0
214839.449,42.969,45.898,42.480,39.062,23.438,0
214839.453,42.480,39.062,34.668,35.156,14.648,0
214839.457,32.715,25.391,26.367,37.598,30.762,0
214839.461,26.367,21.973,21.484,30.762,30.273,0
214839.465,18.555,22.949,22.949,19.531,38.574,0
214839.469,14.160,25.391,30.273,24.414,38.086,0
214839.473,11.230,22.461,31.738,16.602,17.578,0
214839.477,15.625,20.996,32.227,15.137,13.184,0
214839.481,23.438,23.926,36.621,30.273,38.086,0
214839.485,24.902,26.367,33.691,33.691,40.527,0
214839.488,23.926,35.645,33.691,31.738,40.527,0
214839.492,36.133,40.039,41.016,39.062,62.012,0
214839.496,45.410,37.598,41.504,40.527,59.570,0
214839.500,35.645,38.086,27.344,37.598,57.617,0
214839.504,24.902,35.645,11.719,38.086,65.430,0
214839.508,22.949,32.715,14.648,31.738,56.152,0
214839.512,27.832,36.133,28.809,20.508,27.832,0
214839.516,27.832,40.527,31.250,28.320,21.973,0
214839.520,28.320,41.992,30.762,27.344,-19.531,0
214839.524,32.227,34.668,27.344,18.066,-2.441,0
214839.527,34.668,31.738,26.367,29.785,53.711,0
214839.531,38.086,30.762,37.598,32.227,13.184,0
214839.535,35.645,29.297,41.016,27.344,15.625,0
214839.539,41.504,36.621,35.645,34.668,36.621,0
214839.543,54.199,40.527,26.367,42.480,47.852,0
214839.547,49.805,37.109,29.785,40.527,72.754,0
214839.551,38.574,31.250,38.086,35.645,81.543,0
214839.555,36.621,30.762,30.273,34.668,71.289,0
214839.559,37.109,35.156,17.578,29.297,32.715,0
214839.563,33.691,40.039,20.996,27.344,9.277,0
214839.567,32.227,35.156,37.109,26.855,4.395,0
214839.570,30.762,27.832,40.527,32.715,-7.324,0
214839.574,30.273,26.855,35.156,38.574,-4.883,0
214839.578,29.785,31.250,28.809,42.969,46.387,0
214839.582,32.227,35.645,24.414,41.992,78.125,0
214839.586,39.551,37.598,33.691,43.945,81.055,0
214839.590,37.109,35.156,41.016,43.945,64.453,0
214839.594,25.391,28.320,23.438,29.297,40.527,0
214839.598,25.391,28.809,13.672,30.762,50.781,0
214839.602,33.203,35.156,28.809,43.457,38.086,0
214839.606,33.203,37.109,30.273,36.621,78.125,0
214839.610,28.320,29.297,25.879,15.625,87.402,0
214839.613,24.414,27.832,39.551,22.461,63.477,0
214839.617,26.855,39.551,42.480,32.227,69.824,0
214839.621,37.109,37.109,39.062,27.344,53.223,0
214839.625,40.527,38.086,36.621,33.203,63.965,0
214839.629,43.945,44.434,33.203,39.551,60.547,0
214839.633,36.621,31.738,31.250,35.645,41.992,0
214839.637,21.484,23.926,23.926,25.879,10.742,0
214839.641,20.020,20.996,19.043,19.531,18.555,0
214839.645,25.391,20.508,24.902,25.391,54.688,0
214839.649,27.344,26.367,34.180,24.414,59.082,0
214839.652,30.762,37.598,40.527,18.555,42.480,0
214839.656,24.414,39.551,32.715,14.160,2.441,0
214839.660,20.020,29.297,25.879,20.020,25.879,1
214839.664,26.367,28.320,34.180,33.691,32.715,0
214839.668,29.297,31.250,38.574,34.180,21.484,0
214839.672,39.062,37.598,42.969,38.574,28.809,0
214839.676,40.527,39.062,35.156,43.457,36.133,0
214839.680,33.203,31.738,20.020,45.898,29.785,0
214839.684,29.297,28.320,28.809,45.898,51.758,0
214839.688,27.344,29.297,41.016,36.621,82.031,0
214839.692,32.227,32.227,36.133,43.945,61.035,0
214839.695,29.785,31.250,26.855,40.527,31.250,0
214839.699,30.273,28.809,28.320,34.180,-15.625,0
214839.703,41.016,26.855,30.273,41.504,-13.672,0
214839.707,38.086,23.438,31.250,46.387,18.066,0
214839.711,38.574,27.832,40.527,48.340,8.789,0
214839.715,42.480,35.156,47.363,40.039,-8.789,0
214839.719,37.109,32.227,39.062,36.133,12.207,0
214839.723,37.598,33.691,22.461,39.551,15.625,0
214839.727,33.691,30.273,9.277,39.551,24.414,0
214839.731,26.367,20.996,14.160,35.645,3.906,0
214839.735,22.949,23.438,30.273,26.367,1.465,0
214839.738,19.531,27.832,36.133,30.273,9.277,0
214839.742,24.902,28.320,33.691,39.551,-34.668,0
214839.746,27.832,31.250,32.227,32.227,-34.668,0
214839.750,24.414,35.156,40.527,25.879,-30.762,0
214839.754,27.344,33.203,47.363,30.273,2.441,0
214839.758,36.133,34.668,41.016,26.855,21.484,0
214839.762,28.320,30.762,25.879,18.066,5.371,0
214839.766,20.996,20.020,13.672,26.367,18.066,0
214839.770,23.438,18.066,20.508,34.668,35.156,0
214839.774,23.438,23.438,32.227,30.762,34.668,0
214839.777,22.949,31.250,35.156,24.902,13.672,0
214839.781,26.855,37.109,25.879,28.320,12.207,0
214839.785,43.945,42.480,22.949,37.109,33.203,0
214839.789,47.852,36.621,33.691,36.133,37.109,0
214839.793,36.133,25.879,33.691,25.879,28.320,0
214839.797,30.762,27.344,25.391,26.367,26.367,0
214839.801,24.902,26.855,24.902,31.250,10.254,0
214839.805,18.555,22.949,29.785,26.367,-24.902,0
214839.809,17.578,22.949,19.531,30.273,-22.461,0
214839.813,21.973,29.297,17.090,41.016,11.230,0
214839.817,24.414,29.297,23.926,40.527,20.996,0
214839.820,23.926,26.855,27.832,35.645,-4.395,0
214839.824,31.250,38.574,38.086,34.668,25.391,0
214839.828,36.133,44.434,46.387,29.297,32.227,0
214839.832,26.855,34.668,44.434,25.391,19.043,0
214839.836,20.996,25.879,26.855,21.973,22.949,0
214839.840,21.484,29.297,19.043,23.438,48.828,0
214839.844,22.949,33.203,21.484,21.484,119.141,0
214839.848,20.508,27.344,18.555,11.230,130.859,0
214839.852,21.973,28.809,21.973,13.184,84.961,0
214839.856,23.438,35.645,18.555,26.367,120.117,0
214839.860,32.227,36.621,17.578,35.156,146.484,0
214839.863,34.180,28.809,23.438,31.738,100.586,0
214839.867,39.062,30.273,33.691,40.527,71.289,0
214839.871,38.086,38.574,41.504,48.340,60.547,0
214839.875,15.625,35.156,33.203,28.809,65.430,0
214839.879,12.695,25.879,21.973,14.648,55.664,0
214839.883,28.809,23.926,30.762,17.090,46.875,0
214839.887,33.203,29.297,40.039,25.391,12.695,0
214839.891,20.020,32.715,29.297,27.832,-1.953,0
214839.895,18.066,37.109,16.113,20.508,8.789,0
214839.899,28.809,35.645,17.090,20.996,14.160,0
214839.902,30.273,30.762,31.250,29.297,25.391,0
214839.906,31.738,30.762,31.250,31.738,0.488,0
214839.910,35.645,33.691,23.926,28.809,-9.766,0
214839.914,35.156,36.621,29.297,35.156,1.465,0
214839.918,32.715,34.180,41.016,35.156,-1.465,0
214839.922,25.879,25.391,35.645,27.832,-13.672,0
214839.926,30.762,24.414,23.926,33.691,3.418,0
214839.930,35.156,28.809,28.809,34.180,10.742,0
214839.934,27.832,33.203,34.180,28.809,7.324,0
214839.938,30.273,27.344,31.250,25.391,-3.906,0
214839.942,31.738,13.184,22.461,22.461,-15.625,0
214839.945,32.227,20.996,25.391,38.086,-4.883,0
214839.949,36.621,33.691,37.598,41.992,2.930,0
214839.953,34.180,35.156,43.945,26.855,40.527,0
214839.957,32.227,34.180,42.969,30.273,46.875,0
214839.961,38.574,36.133,35.156,38.086,32.715,0
214839.965,37.109,36.133,25.391,32.227,36.133,0
214839.969,41.504,35.645,21.973,23.438,40.039,0
214839.973,42.969,36.133,27.832,24.902,58.105,0
214839.977,37.598,40.039,35.156,27.344,47.363,0
214839.981,42.480,37.109,35.156,27.832,18.555,0
214839.985,41.992,32.715,33.691,30.273,-20.508,0
214839.988,45.898,37.598,36.621,48.340,53.711,0
214839.992,51.270,41.992,31.250,59.082,131.836,0
214839.996,54.199,43.945,24.902,45.410,107.910,0
214840.000,48.340,36.621,25.879,31.738,78.613,0
214840.004,47.363,40.527,32.227,37.598,73.730,0
214840.008,41.992,44.922,32.227,45.410,77.637,0
214840.012,28.320,33.691,32.715,38.574,93.262,0
214840.016,38.086,35.645,44.434,39.062,118.652,0
214840.020,43.945,43.457,43.457,40.039,109.375,0
214840.024,33.203,40.527,33.203,30.762,106.934,0
214840.027,32.715,35.645,26.855,31.250,89.355,0
214840.031,37.598,32.227,24.902,45.410,81.055,0
214840.035,39.062,33.691,27.344,51.758,102.051,0
214840.039,43.457,39.062,36.621,42.969,55.664,0
214840.043,39.062,41.504,41.504,30.762,30.762,0
214840.047,28.320,37.109,42.480,23.438,59.082,0
214840.051,26.367,32.715,44.922,23.438,83.496,0
214840.055,26.855,30.273,38.574,26.367,79.590,0
214840.059,38.086,31.250,37.109,37.109,40.527,0
214840.063,46.875,38.086,41.016,41.992,40.039,0
214840.067,43.945,39.551,36.133,40.039,74.219,0
214840.070,46.387,39.062,33.203,52.734,75.195,0
214840.074,47.363,44.434,30.762,55.664,54.688,0
214840.078,49.805,44.922,28.809,45.898,40.039,0
214840.082,47.852,40.527,27.832,42.969,47.852,0
214840.086,49.805,42.969,32.227,50.293,23.926,0
214840.090,57.617,47.363,45.410,61.035,2.930,0
214840.094,44.434,41.016,49.805,45.898,14.160,0
214840.098,38.574,35.156,42.969,31.738,29.297,0
214840.102,41.992,37.109,40.039,32.715,15.625,0
214840.106,41.016,31.250,37.598,37.109,54.688,0
214840.110,39.551,22.949,34.180,44.434,88.379,0
214840.113,32.227,26.855,39.551,41.504,49.316,0
214840.117,28.320,37.109,40.039,34.180,16.602,0
214840.121,29.297,39.551,23.926,30.762,26.855,0
214840.125,34.180,37.109,15.625,33.691,45.410,0
214840.129,41.016,40.527,32.227,42.969,35.156,0
214840.133,38.086,40.527,50.293,43.457,25.391,0
214840.137,29.297,34.180,51.270,29.297,17.090,0
214840.141,25.879,31.738,43.945,24.902,36.621,0
214840.145,32.715,32.715,38.086,37.109,68.359,0
214840.149,35.156,31.738,37.109,40.527,38.086,0
214840.152,32.227,31.738,35.645,30.273,-6.836,0
214840.156,28.320,32.715,31.738,29.297,15.625,0
214840.160,32.715,31.738,21.484,32.227,13.184,0
214840.164,40.527,31.738,28.320,33.691,5.859,0
214840.168,31.738,29.785,43.457,27.832,-9.277,0
214840.172,31.738,32.715,38.086,30.273,-34.180,0
214840.176,41.992,45.898,34.668,41.016,-23.926,0
214840.180,40.527,43.457,37.109,39.551,-34.180,0
214840.184,34.180,27.832,34.180,32.227,-39.551,0
214840.188,29.297,29.297,27.832,32.715,-12.207,0
214840.192,23.438,31.250,21.484,27.344,-38.086,0
214840.195,23.438,30.273,28.320,20.020,-31.738,0
214840.199,28.809,33.691,33.691,26.367,19.043,0
214840.203,27.832,33.203,27.344,34.668,4.395,0
214840.207,29.297,35.156,30.762,36.621,-25.879,0
214840.211,27.832,35.645,45.410,33.691,-36.133,1
214840.215,33.691,38.086,46.387,43.945,-12.207,0
214840.219,37.598,38.574,40.039,44.922,13.184,0
214840.223,29.297,30.273,37.598,34.668,-11.230,0
214840.227,26.367,28.809,34.180,29.785,-65.430,0
214840.231,25.391,31.738,31.250,26.855,-25.879,0
214840.235,27.832,38.086,27.832,32.715,12.695,0
214840.238,31.250,35.645,22.949,38.086,20.020,0
214840.242,31.250,32.227,22.949,39.551,12.695,0
214840.246,39.551,33.691,20.020,41.504,16.602,0
214840.250,45.898,38.574,21.973,47.363,21.484,0
214840.254,43.457,37.598,29.785,50.781,9.766,0
214840.258,41.504,30.273,47.363,41.016,52.246,0
214840.262,41.504,36.133,56.641,37.598,83.008,0
214840.266,36.133,40.039,42.480,39.551,52.734,0
214840.270,29.297,29.785,36.133,23.926,0.000,0
214840.274,24.902,23.438,33.691,18.066,-3.906,0
214840.277,28.809,28.809,30.762,34.180,28.320,0
214840.281,35.156,26.367,26.855,41.016,40.527,0
214840.285,32.227,26.367,14.160,35.156,42.969,0
214840.289,31.738,34.668,13.184,35.156,84.961,0
214840.293,37.598,37.598,33.203,37.598,91.309,0
214840.297,39.551,34.180,51.270,31.738,55.176,0
214840.301,33.691,28.320,48.828,34.668,60.059,0
214840.305,24.902,23.438,35.156,35.156,37.109,0
214840.309,23.926,24.414,35.645,35.156,15.137,0
214840.313,28.320,33.203,36.621,38.086,11.230,0
214840.317,32.227,35.645,19.531,29.785,-7.812,0
214840.320,39.062,37.598,15.137,34.668,26.855,0
214840.324,41.504,38.086,30.273,41.992,58.105,0
214840.328,38.574,34.180,38.574,41.504,68.848,0
214840.332,39.551,36.621,41.504,45.410,107.910,0
214840.336,37.109,39.551,46.387,38.574,79.590,0
214840.340,31.250,28.809,43.457,32.227,20.996,0
214840.344,30.762,24.902,37.598,31.738,27.344,0
214840.348,37.598,38.574,37.598,30.273,35.645,0
214840.352,38.574,38.574,28.320,34.668,75.684,0
214840.356,36.133,40.039,14.648,37.598,83.496,0
214840.360,36.621,41.992,18.555,28.809,39.062,0
214840.363,36.133,35.645,23.438,30.273,10.742,0
214840.367,37.598,34.180,20.020,39.551,-44.434,0
214840.371,34.668,31.738,26.367,33.691,-73.730,0
214840.375,39.062,32.715,38.086,39.551,-41.992,0
214840.379,38.574,39.551,43.945,48.340,-28.809,0
214840.383,29.785,36.621,42.480,31.250,-26.855,0
214840.387,31.250,23.438,25.879,21.484,20.020,0
214840.391,39.551,22.461,16.602,28.320,17.090,0
214840.395,37.109,31.250,21.484,30.273,9.766,0
214840.399,32.715,38.086,21.973,37.109,30.273,0
214840.402,33.203,42.480,26.855,31.738,-8.789,0
214840.406,34.668,39.062,38.086,19.531,-41.992,0
214840.410,40.527,30.762,45.898,35.156,-12.695,0
214840.414,38.086,24.414,47.363,39.551,1.465,0
214840.418,27.832,29.297,37.109,25.879,4.395,0
214840.422,26.855,35.156,32.227,25.391,11.719,0
214840.426,38.574,32.715,23.438,41.504,32.715,0
214840.430,40.527,35.645,23.438,47.363,52.246,0
214840.434,33.691,31.250,32.715,36.621,20.020,0
214840.438,29.297,23.926,29.785,24.902,19.531,0
214840.442,29.297,22.461,24.902,25.879,22.461,0
214840.445,28.809,24.902,15.137,30.273,18.555,0
214840.449,37.109,39.062,21.484,36.621,30.762,0
214840.453,36.621,40.039,33.691,39.062,25.391,0
214840.457,26.367,34.180,37.109,31.738,27.344,0
214840.461,21.484,43.457,45.410,27.832,20.020,0
214840.465,18.555,42.969,43.945,15.137,15.137,0
214840.469,24.902,33.691,32.715,21.484,37.109,0
214840.473,31.250,40.039,23.926,30.762,37.598,0
214840.477,31.250,35.645,25.391,22.949,38.086,0
214840.481,32.715,24.902,26.855,29.785,29.297,0
214840.485,34.180,22.461,23.926,34.668,6.836,0
214840.488,41.992,26.855,23.438,38.086,62.012,0
214840.492,45.410,32.715,17.578,40.527,57.617,0
214840.496,37.109,28.809,20.020,38.574,8.301,0
214840.500,37.598,23.926,38.086,38.086,20.020,0
214840.504,34.180,27.344,41.016,24.902,50.781,0
214840.508,33.203,38.086,34.668,17.578,24.414,0
214840.512,37.109,37.598,29.785,35.645,-1.465,0
214840.516,34.180,27.344,29.785,36.621,10.254,0
214840.520,28.320,25.879,26.367,17.578,40.527,0
214840.524,22.949,31.250,22.461,15.625,24.902,0
214840.527,21.973,35.156,20.508,22.949,14.160,0
214840.531,20.020,34.180,19.531,20.020,41.504,0
214840.535,23.438,35.645,24.414,18.066,40.527,0
214840.539,28.320,35.645,22.461,24.414,35.645,0
214840.543,24.414,31.738,25.391,29.297,7.812,0
214840.547,19.043,30.273,29.785,33.203,9.766,0
214840.551,20.996,33.691,33.691,40.039,28.809,0
214840.555,26.367,28.809,36.621,36.133,-0.488,0
214840.559,29.785,25.879,35.156,34.668,-16.113,0
214840.563,28.320,29.785,26.367,41.992,28.320,0
214840.567,22.461,24.414,23.926,30.273,23.926,0
214840.570,24.414,24.414,22.461,26.855,20.020,0
214840.574,35.156,32.227,17.578,38.574,29.297,0
214840.578,38.574,37.109,15.137,37.598,52.246,0
214840.582,27.832,33.691,11.719,31.250,63.965,0
214840.586,24.902,28.809,24.902,29.297,32.227,0
214840.590,26.855,29.297,40.527,31.738,35.645,0
214840.594,24.414,31.250,37.598,34.668,36.133,0
214840.598,29.297,32.715,23.438,28.320,13.672,0
214840.602,28.809,26.367,23.926,16.113,27.832,0
214840.606,29.785,27.832,35.645,24.414,63.477,0
214840.610,32.715,29.297,24.414,43.457,61.523,0
214840.613,28.809,33.203,16.113,43.457,42.480,0
214840.617,23.926,32.227,25.879,23.438,90.820,0
214840.621,16.602,18.555,27.832,14.648,94.238,0
214840.625,14.160,16.113,31.250,19.531,46.387,0
214840.629,18.555,23.926,40.039,26.367,59.570,0
214840.633,21.973,29.785,39.062,29.297,59.082,0
214840.637,33.203,31.250,30.273,38.086,61.035,0
214840.641,39.551,34.668,31.250,40.039,78.613,0
214840.645,33.203,30.762,37.598,23.438,50.781,0
214840.649,28.809,27.344,31.738,13.184,42.969,0
214840.652,36.621,31.250,26.855,27.344,85.449,0
214840.656,47.852,36.621,24.414,39.062,73.730,0
214840.660,58.105,40.527,21.484,44.434,60.059,0
214840.664,57.129,35.645,25.391,48.340,55.176,0
214840.668,44.434,22.461,38.086,43.457,26.367,0
214840.672,31.250,15.625,39.062,34.668,38.086,0
214840.676,23.438,21.973,33.203,34.668,39.551,0
214840.680,23.438,25.879,35.156,44.434,44.434,0
214840.684,23.438,22.461,32.227,35.156,37.109,0
214840.688,19.043,24.902,25.391,18.555,11.230,0
214840.692,16.113,29.785,23.438,10.742,19.043,0
214840.695,24.414,35.156,22.461,23.926,49.805,0
214840.699,34.180,35.156,24.902,44.434,28.320,0
214840.703,33.203,34.668,29.297,42.969,20.020,0
214840.707,32.227,36.133,30.762,39.551,45.410,0
214840.711,26.855,34.180,40.039,30.762,51.270,0
214840.715,21.484,29.785,37.598,18.066,36.133,0
214840.719,23.438,31.250,26.855,26.367,41.504,0
214840.723,23.438,35.645,23.926,30.762,65.430,0
214840.727,28.809,36.133,25.879,27.344,68.359,0
214840.731,32.715,34.668,30.762,29.297,20.996,0
214840.735,29.785,31.250,26.855,18.555,-55.176,0
214840.738,32.227,34.668,18.555,21.484,-55.176,0
214840.742,35.156,39.551,23.926,37.109,-9.277,0
214840.746,35.645,33.691,31.738,29.297,-9.766,0
214840.750,37.598,25.391,39.551,30.762,24.414,0
214840.754,41.016,32.227,39.551,45.898,53.223,0
214840.758,38.574,33.691,31.738,33.203,17.578,1
214840.762,36.621,25.391,32.715,21.973,29.297,0
214840.766,36.621,24.902,33.203,26.367,46.875,0
214840.770,26.855,27.832,24.414,20.996,33.203,0
214840.774,24.414,28.809,17.090,20.996,55.176,0
214840.777,28.809,31.250,20.508,21.973,22.949,0
214840.781,26.855,29.785,34.180,23.438,-9.277,0
214840.785,26.855,27.344,31.738,31.250,-11.230,0
214840.789,31.250,32.715,23.438,32.227,0.488,0
214840.793,34.180,37.598,30.273,32.227,34.668,0
214840.797,31.250,30.762,30.762,31.250,53.711,0
214840.801,27.344,23.438,31.738,28.320,86.426,0
214840.805,24.902,20.996,34.668,24.902,54.688,0
214840.809,30.762,19.531,22.461,35.156,21.484,0
214840.813,36.621,28.809,17.578,52.734,-0.977,0
214840.817,35.645,37.109,32.227,36.621,-6.836,0
214840.820,32.227,38.086,44.434,20.020,40.039,0
214840.824,28.809,35.156,42.969,18.555,34.180,0
214840.828,32.227,31.738,41.016,20.020,4.883,0
214840.832,32.227,35.156,36.621,24.902,23.438,0
214840.836,29.785,36.133,24.902,30.762,24.414,0
214840.840,35.645,38.574,22.461,30.762,-3.418,0
214840.844,41.016,42.969,31.250,35.156,17.578,0
214840.848,41.016,36.621,41.016,42.480,61.523,0
214840.852,38.086,37.109,44.434,34.180,56.641,0
214840.856,34.668,36.133,41.504,27.344,24.414,0
214840.860,33.691,26.855,37.598,26.855,45.410,0
214840.863,31.250,22.461,25.391,22.949,89.844,0
214840.867,29.785,27.344,13.184,21.973,76.172,0
214840.871,30.762,36.621,22.949,24.414,1.953,0
214840.875,35.156,38.574,37.598,33.203,-9.277,0
214840.879,35.645,35.645,39.551,32.227,63.965,0
214840.883,27.344,34.180,39.062,28.320,82.520,0
214840.887,31.738,35.645,39.062,35.156,44.434,0
214840.891,41.016,34.668,35.156,43.457,70.312,0
214840.895,38.086,31.738,30.273,39.062,86.914,0
214840.899,31.250,27.344,36.133,36.621,65.918,0
214840.902,27.832,29.297,38.086,28.809,49.805,0
214840.906,32.715,26.367,28.320,27.344,41.992,0
214840.910,33.203,25.391,34.668,37.598,28.809,0
214840.914,31.250,33.691,46.387,34.668,61.035,0
214840.918,33.691,41.016,31.738,35.156,95.215,0
214840.922,32.715,37.109,18.555,35.156,61.035,0
214840.926,31.738,27.344,24.414,28.320,26.367,0
214840.930,33.203,28.320,21.973,28.809,8.301,0
214840.934,37.598,36.133,29.297,39.551,46.387,0
214840.938,36.621,34.668,47.363,34.180,24.902,0
214840.942,35.156,28.320,52.734,25.391,-30.273,0
214840.945,30.762,31.738,41.504,27.832,-4.883,0
214840.949,28.320,30.762,36.133,24.414,1.465,0
214840.953,29.297,26.367,38.086,24.414,27.832,0
214840.957,30.762,31.250,30.762,35.156,45.898,0
214840.961,31.250,37.598,23.438,46.387,29.785,0
214840.965,25.879,37.598,29.785,32.227,62.012,0
214840.969,20.020,31.250,29.785,21.973,43.945,0
214840.973,20.508,28.809,33.691,23.438,-47.363,0
214840.977,24.902,26.855,41.016,18.555,-67.383,0
214840.981,28.320,28.809,40.039,25.391,-41.992,0
214840.985,28.809,33.203,32.227,29.297,-21.484,0
214840.988,31.250,34.668,23.438,29.785,2.441,0
214840.992,29.297,37.109,22.949,31.738,4.883,0
214840.996,25.879,33.203,33.203,31.250,-0.488,0
214841.000,26.367,27.832,32.227,30.273,-5.859,0
214841.004,32.227,33.691,32.227,31.738,-1.953,0
214841.008,40.527,35.156,37.598,41.992,-12.207,0
214841.012,35.645,25.391,30.762,37.598,12.207,0
214841.016,32.227,29.785,38.086,29.297,38.086,0
214841.020,32.715,37.598,37.598,20.996,-23.438,0
214841.024,31.738,32.715,26.855,9.277,-23.926,0
214841.027,32.715,31.738,24.414,21.973,20.020,0
214841.031,32.715,31.738,21.484,26.855,19.043,0
214841.035,31.738,39.551,21.484,29.297,17.578,0
214841.039,34.180,41.992,21.484,39.062,61.523,0
214841.043,35.645,35.156,26.367,41.992,75.195,0
214841.047,37.109,41.504,37.109,42.969,93.750,0
214841.051,38.086,41.504,43.457,43.457,76.172,0
214841.055,36.133,35.645,42.480,46.387,33.691,0
214841.059,30.273,34.668,39.062,39.551,18.555,0
214841.063,25.879,31.738,41.504,34.180,34.668,0
214841.067,29.785,31.250,34.180,33.203,43.945,0
214841.070,29.297,29.785,20.020,32.715,35.645,0
214841.074,29.297,30.762,25.879,39.062,26.855,0
214841.078,33.691,32.227,33.691,37.109,59.082,0
214841.082,35.156,30.273,39.551,37.109,64.941,0
214841.086,34.668,33.691,43.457,30.762,60.059,0
214841.090,26.855,32.227,37.598,23.926,88.867,0
214841.094,24.414,35.645,37.109,27.344,77.148,0
214841.098,26.367,41.992,37.109,29.785,47.363,0
214841.102,23.438,39.551,42.969,28.320,27.832,0
214841.106,26.855,37.109,41.504,24.414,21.484,0
214841.110,32.227,36.133,29.297,22.949,58.594,0
214841.113,37.109,31.738,13.672,37.109,52.246,0
214841.117,39.062,31.738,9.766,45.410,29.297,0
214841.121,41.992,36.621,23.926,42.969,20.996,0
214841.125,41.016,32.715,31.738,28.320,23.438,0
214841.129,34.668,31.738,31.250,22.949,51.758,0
214841.133,34.668,40.527,40.527,31.250,-0.977,0
214841.137,35.645,40.527,47.363,28.809,-55.664,0
214841.141,27.832,34.668,45.898,24.414,-29.297,0
214841.145,24.414,31.738,41.992,26.855,-18.555,0
214841.149,25.879,34.668,34.180,29.785,24.902,0
214841.152,26.367,38.086,28.320,27.344,5.859,0
214841.156,29.785,42.480,28.320,31.250,-29.297,0
214841.160,36.133,50.781,27.344,42.969,6.348,0
214841.164,37.598,44.434,20.508,46.875,19.043,0
214841.168,30.762,28.809,22.949,34.180,-8.789,0
214841.172,25.879,30.762,25.879,26.855,-17.578,0
214841.176,27.344,39.551,27.832,33.203,62.500,0
214841.180,27.344,38.086,42.480,31.738,53.711,0
214841.184,23.926,37.109,48.340,23.438,24.902,0
214841.188,19.531,30.273,36.621,21.973,56.641,0
214841.192,23.438,23.926,23.438,22.461,67.871,0
214841.195,29.785,29.785,20.996,26.367,69.336,0
214841.199,43.945,39.551,28.809,39.551,40.039,0
214841.203,53.711,46.387,36.133,38.086,33.203,0
214841.207,40.527,40.039,28.809,20.508,23.438,0
214841.211,34.180,36.621,24.902,19.531,-25.879,0
214841.215,38.086,44.434,33.691,26.855,-41.992,0
214841.219,42.969,41.016,33.203,31.738,-12.207,0
214841.223,43.945,35.645,31.250,31.738,2.930,0
214841.227,45.898,38.086,34.668,33.691,-25.391,0
214841.231,40.527,35.645,29.785,36.621,8.301,0
214841.235,39.062,41.016,25.391,34.668,28.320,0
214841.238,46.875,41.504,39.551,39.551,36.133,0
214841.242,43.945,27.832,42.969,34.668,74.219,0
214841.246,40.527,29.785,32.227,31.250,33.203,0
214841.250,37.598,35.156,25.879,34.668,31.738,0
214841.254,37.598,35.156,26.855,32.715,71.777,0
214841.258,40.527,32.715,32.715,30.273,43.945,0
214841.262,34.180,30.762,22.949,37.109,17.090,0
214841.266,36.133,36.133,20.508,57.129,53.223,0
214841.270,37.598,38.574,28.320,51.270,73.242,0
214841.274,30.762,31.250,33.691,28.809,41.504,0
214841.277,29.785,25.391,42.969,31.250,82.520,0
214841.281,32.227,31.250,42.480,35.156,77.637,0
214841.285,34.668,29.785,34.668,34.668,4.883,0
214841.289,37.109,23.926,36.621,35.645,8.789,0
214841.293,41.016,30.273,35.645,42.480,43.945,0
214841.297,41.992,30.762,23.926,39.062,52.734,0
214841.301,36.621,27.832,20.996,33.691,22.949,0
214841.305,31.250,30.273,25.391,26.367,-9.766,0
214841.309,30.273,35.156,30.273,28.320,-7.324,0
214841.313,37.598,41.016,25.391,42.480,20.996,0
214841.317,33.691,37.598,30.762,30.762,20.508,0
214841.320,20.020,29.297,44.434,14.648,13.184,0
214841.324,20.508,27.344,38.574,15.137,-11.230,0
214841.328,23.926,27.344,31.738,22.461,-8.789,0
214841.332,26.367,34.180,34.668,24.902,17.090,0
214841.336,25.391,34.668,37.109,22.461,3.418,0
214841.340,24.902,31.738,31.250,26.367,-7.812,0
214841.344,27.832,31.738,17.090,35.156,16.602,0
214841.348,31.738,36.621,16.602,37.598,13.672,0
214841.352,35.645,41.504,29.785,38.086,13.184,0
214841.356,39.551,36.621,38.574,41.504,44.922,0
214841.360,37.598,29.297,38.086,39.551,42.480,0
214841.363,34.668,29.785,32.715,39.062,19.531,0
214841.367,31.250,34.668,29.297,32.715,12.695,0
214841.371,26.367,32.715,29.297,18.555,9.766,0
214841.375,30.762,37.598,27.344,21.973,24.902,0
214841.379,36.133,43.457,19.043,25.391,-0.488,0
214841.383,35.645,37.598,22.461,27.344,-19.531,0
214841.387,39.062,33.691,32.715,24.414,-0.977,0
214841.391,39.551,36.133,35.645,19.043,-11.719,0
214841.395,41.016,37.109,34.668,29.297,-22.461,0
214841.399,36.133,33.203,33.203,30.762,-10.254,0
214841.402,32.715,32.227,33.203,29.297,17.090,0
214841.406,34.668,36.621,29.785,30.273,29.785,2
214841.410,30.762,37.598,31.250,29.297,23.926,0
214841.414,27.832,31.738,32.227,30.762,27.344,0
214841.418,30.762,27.832,33.203,30.273,29.785,0
214841.422,33.691,30.273,34.668,30.762,-16.113,0
214841.426,31.250,37.109,27.344,27.344,3.418,0
214841.430,36.133,34.180,21.973,35.156,46.875,0
214841.434,45.410,32.715,33.691,51.758,20.020,0
214841.438,42.969,39.062,39.062,51.270,-12.207,0
214841.442,32.227,32.227,35.645,31.738,-28.809,0
214841.445,28.320,26.367,38.574,23.438,-3.906,0
214841.449,26.855,31.250,33.203,31.250,49.316,0
214841.453,31.250,40.039,36.621,39.062,63.477,0
214841.457,35.156,41.992,41.016,39.551,33.203,0
214841.461,25.391,27.832,24.414,29.785,5.859,0
214841.465,26.367,24.902,17.090,29.785,7.812,0
214841.469,33.203,38.086,28.809,36.621,55.176,0
214841.473,31.738,33.691,32.227,35.645,52.246,0
214841.477,33.203,27.344,23.438,44.434,22.949,0
214841.481,39.062,34.668,24.902,49.316,22.461,0
214841.485,34.668,40.039,27.344,37.109,-11.230,0
214841.488,26.855,40.527,27.832,30.273,-3.906,0
214841.492,29.785,38.086,28.320,35.156,48.340,0
214841.496,31.250,33.691,21.484,33.203,12.695,0
214841.500,36.621,38.574,17.090,35.156,7.812,0
214841.504,36.621,41.504,17.090,40.527,31.250,0
214841.508,27.832,35.645,23.438,28.809,-4.883,0
214841.512,24.902,35.156,28.809,21.484,-24.902,0
214841.516,35.156,42.969,25.391,31.738,-21.973,0
214841.520,37.598,41.992,18.066,39.062,-22.949,0
214841.524,35.156,37.109,17.578,41.016,12.695,0
214841.527,40.039,35.645,25.879,37.598,41.504,0
214841.531,40.039,40.527,33.203,30.762,62.500,0
214841.535,39.062,42.480,24.414,31.738,72.754,0
214841.539,34.668,37.109,15.137,34.180,61.523,0
214841.543,30.273,33.203,26.367,34.180,66.895,0
214841.547,32.715,35.645,39.062,36.621,76.172,0
214841.551,39.062,40.039,39.551,39.062,55.176,0
214841.555,38.086,36.133,27.832,33.203,51.758,0
214841.559,35.645,31.250,21.973,33.203,57.129,0
214841.563,35.645,26.855,19.531,32.715,60.547,0
214841.567,35.645,28.809,21.973,36.133,61.035,0
214841.570,33.691,30.762,29.785,32.715,40.527,0
214841.574,33.691,31.250,35.156,25.879,27.344,0
214841.578,38.574,33.691,40.039,33.203,33.691,0
214841.582,33.203,27.832,41.016,31.738,39.551,0
214841.586,22.949,20.508,41.016,29.297,15.625,0
214841.590,26.367,29.297,44.922,28.809,34.668,0
214841.594,27.344,34.668,40.527,24.414,34.180,0
214841.598,16.113,27.832,30.273,22.949,32.715,0
214841.602,11.719,26.367,32.227,16.113,50.293,0
214841.606,16.113,26.855,38.574,29.297,12.207,0
214841.610,21.973,26.855,34.180,37.598,22.949,0
214841.613,24.902,34.180,30.762,22.949,22.949,0
214841.617,30.273,39.062,33.691,17.090,33.203,0
214841.621,31.250,29.785,24.902,13.184,46.875,0
214841.625,30.273,23.926,25.879,12.207,63.965,0
214841.629,29.785,30.762,36.133,19.531,80.078,0
214841.633,26.367,35.156,38.086,20.508,6.348,0
214841.637,27.344,37.598,42.480,21.973,-36.133,0
214841.641,28.809,37.598,43.457,31.250,47.363,0
214841.645,30.762,32.715,29.785,31.250,95.703,0
214841.649,32.227,36.621,17.578,30.273,79.590,0
214841.652,29.785,36.621,17.090,31.738,76.660,0
214841.656,25.391,23.926,25.879,30.762,49.805,0
214841.660,20.996,20.508,25.391,28.809,24.414,0
214841.664,19.043,27.344,19.531,35.645,28.320,0
214841.668,19.043,28.320,24.902,34.180,33.691,0
214841.672,17.578,28.809,28.320,29.297,32.715,0
214841.676,23.438,30.762,36.621,32.715,39.062,0
214841.680,32.227,32.227,40.039,32.715,-3.906,0
214841.684,27.832,26.855,34.180,25.391,-0.488,0
214841.688,19.531,24.414,34.668,24.902,12.695,0
214841.692,22.461,28.320,34.180,26.855,19.531,0
214841.695,23.438,27.344,25.391,22.461,50.781,0
214841.699,19.531,23.926,21.973,20.996,84.473,0
214841.703,24.414,23.926,33.691,26.367,98.633,0
214841.707,25.391,29.297,35.156,30.762,14.160,0
214841.711,24.902,32.227,24.902,27.344,-48.828,0
214841.715,30.273,30.762,31.250,26.855,-28.809,0
214841.719,28.320,32.227,43.945,19.531,-16.113,0
214841.723,28.809,32.715,43.457,15.625,-58.105,0
214841.727,34.180,34.668,39.551,27.344,-60.547,0
214841.731,28.809,31.738,39.551,33.691,2.930,0
214841.735,20.996,17.578,35.645,24.414,-0.977,0
214841.738,17.578,20.020,31.250,27.344,-42.969,0
214841.742,19.531,34.180,31.738,43.945,-38.086,0
214841.746,22.949,39.551,32.715,46.387,0.977,0
214841.750,21.484,38.574,27.832,29.785,1.953,0
214841.754,19.531,36.133,23.438,20.508,-2.441,0
214841.758,30.273,37.109,35.156,29.297,49.805,0
214841.762,31.738,34.180,42.969,35.156,32.715,0
214841.766,29.785,34.180,40.527,33.203,8.789,0
214841.770,41.504,38.086,42.480,30.273,-17.090,0
214841.774,44.434,41.016,44.434,33.691,-1.953,0
214841.777,42.480,42.969,41.504,39.062,40.527,0
214841.781,37.598,38.086,31.250,31.738,8.301,0
214841.785,37.109,34.668,23.438,30.762,21.973,0
214841.789,44.922,40.527,28.809,39.551,19.043,0
214841.793,45.898,39.551,28.809,43.457,-3.418,0
214841.797,43.457,41.504,31.738,48.828,14.648,0
214841.801,41.016,43.457,45.410,47.852,29.785,0
214841.805,37.109,35.645,43.457,46.387,34.668,0
214841.809,40.039,34.668,31.250,47.852,22.461,0
214841.813,43.457,35.156,30.273,35.645,17.090,0
214841.817,32.227,36.621,36.133,32.715,52.246,0
214841.820,29.297,36.133,36.621,38.086,80.566,0
214841.824,35.645,39.551,31.738,36.621,90.332,0
214841.828,34.668,44.434,25.879,33.203,97.656,0
214841.832,36.621,46.387,18.066,34.668,84.473,0
214841.836,37.109,45.410,22.949,39.551,65.918,0
214841.840,32.715,30.762,40.039,34.668,24.902,0
214841.844,25.879,23.438,48.828,28.809,29.785,0
214841.848,25.391,34.668,36.133,30.273,59.570,0
214841.852,27.344,34.668,23.438,35.645,34.180,0
214841.856,24.414,31.738,29.785,32.715,20.508,0
214841.860,29.297,34.668,32.715,23.926,16.602,0
214841.863,33.203,29.297,30.762,26.367,5.371,0
214841.867,33.691,31.250,33.203,41.504,54.688,0
214841.871,37.109,41.016,34.180,52.246,59.082,0
214841.875,31.738,41.016,27.344,43.945,31.738,0
214841.879,24.414,31.738,24.902,27.832,62.012,0
214841.883,27.344,27.832,29.297,27.344,81.543,0
214841.887,29.297,29.785,38.574,37.109,55.176,0
214841.891,27.344,27.832,33.691,30.762,27.344,0
214841.895,29.785,26.367,23.438,23.438,52.246,0
214841.899,35.156,30.762,35.645,34.668,35.156,0
214841.902,37.109,32.227,44.434,41.016,-25.879,0
214841.906,29.297,25.879,38.574,30.273,-1.953,0
214841.910,28.809,28.320,35.645,25.879,51.270,0
214841.914,30.762,36.133,27.832,24.414,56.152,0
214841.918,23.926,33.203,23.926,20.020,35.645,0
214841.922,16.113,29.297,24.902,15.137,14.648,0
214841.926,17.578,25.391,26.367,20.508,34.668,0
214841.930,31.738,25.391,24.902,31.250,72.754,0
214841.934,40.039,32.715,19.043,40.039,47.363,0
214841.938,32.227,29.297,23.926,36.133,32.715,0
214841.942,23.438,23.926,30.273,26.367,51.758,0
214841.945,27.832,29.297,35.156,28.320,9.277,0
214841.949,31.250,37.598,40.527,34.180,-4.883,0
214841.953,24.414,37.109,33.691,26.367,6.348,0
214841.957,25.391,37.109,16.602,20.996,32.227,0
214841.961,30.762,34.180,21.973,30.762,42.969,0
214841.965,34.668,32.227,34.668,24.902,-1.953,0
214841.969,38.574,39.062,31.250,23.438,29.785,0
214841.973,39.062,43.457,16.602,35.156,59.570,0
214841.977,37.598,43.945,13.184,36.133,-1.953,0
214841.981,35.156,40.039,29.297,30.273,-16.113,0
214841.985,29.297,34.180,39.062,22.949,9.766,0
214841.988,32.715,32.227,40.527,25.879,22.461,0
214841.992,31.250,28.809,35.645,27.344,19.531,0
214841.996,21.973,27.344,22.949,20.020,16.113,0
214842.000,23.926,26.855,23.926,18.066,10.254,0
214842.004,26.855,27.344,28.320,30.273,45.410,0
214842.008,32.227,32.715,29.297,40.527,33.203,0
214842.012,28.809,43.945,28.320,32.715,-26.855,0
214842.016,15.137,47.852,27.344,24.414,-0.977,0
214842.020,8.789,38.574,22.461,16.113,41.504,0
214842.024,11.719,33.203,26.855,12.695,42.969,0
214842.027,21.973,31.250,40.527,19.531,69.336,0
214842.031,23.926,27.832,34.668,29.785,80.078,0
214842.035,23.438,31.738,39.551,44.434,44.434,0
214842.039,22.949,33.203,45.898,39.551,34.668,0
214842.043,19.043,19.531,36.133,20.020,51.270,0
214842.047,22.949,10.254,37.109,15.625,35.645,0
214842.051,31.738,26.855,39.551,24.902,10.254,0
214842.055,32.227,43.457,29.785,25.879,-25.391,0
214842.059,28.809,38.574,27.832,24.414,-16.113,0
214842.063,35.156,35.156,35.645,31.738,39.062,0
214842.067,38.574,32.715,35.156,32.715,39.551,0
214842.070,39.062,32.715,36.133,34.668,41.016,0
214842.074,45.410,38.086,38.086,45.898,63.477,0
214842.078,43.945,30.762,40.039,47.852,51.270,0
214842.082,35.645,20.996,33.203,43.457,-0.488,0
214842.086,43.457,29.785,26.855,57.129,-9.766,0
214842.090,43.457,34.668,32.227,52.246,22.949,0
214842.094,29.297,23.926,27.344,29.297,43.945,1
214842.098,25.391,20.508,22.949,21.484,20.508,0
214842.102,23.438,25.391,31.738,14.160,-1.465,0
214842.106,29.297,36.621,34.668,22.461,27.832,0
214842.110,34.668,44.922,32.227,32.227,40.527,0
214842.113,32.227,38.086,27.832,33.691,70.801,0
214842.117,33.203,29.297,31.738,30.273,76.172,0
214842.121,30.762,32.227,40.039,26.367,31.738,0
214842.125,27.832,34.668,31.250,25.391,14.160,0
214842.129,35.645,35.156,27.832,38.086,30.273,0
214842.133,42.480,41.504,34.180,50.781,31.738,0
214842.137,36.621,38.086,22.461,43.457,-6.836,0
214842.141,28.320,33.691,11.230,32.227,-20.996,0
214842.145,30.762,36.621,20.020,20.508,-37.109,0
214842.149,27.832,32.227,36.133,15.137,-27.832,0
214842.152,24.414,20.996,40.039,20.020,17.578,0
214842.156,25.391,19.043,31.250,26.367,5.371,0
214842.160,30.762,28.320,29.785,35.156,-12.207,0
214842.164,33.691,36.133,31.250,28.809,11.230,0
214842.168,26.367,34.668,27.344,20.996,7.812,0
214842.172,25.879,34.180,29.297,28.320,4.395,0
214842.176,30.762,36.133,36.133,31.738,31.738,0
214842.180,31.250,37.598,45.410,31.738,17.578,0
214842.184,28.809,33.691,35.645,28.809,-8.301,0
214842.188,21.484,25.879,20.996,22.949,-27.344,0
214842.192,18.555,26.855,26.855,28.809,-14.648,0
214842.195,24.414,24.902,28.809,29.785,42.969,0
214842.199,26.367,23.438,30.762,26.367,54.199,0
214842.203,26.855,31.250,38.086,29.785,71.289,0
214842.207,28.320,29.297,42.969,29.785,63.477,0
214842.211,29.785,25.391,46.387,38.086,52.246,0
214842.215,29.297,30.273,46.387,43.945,24.414,0
214842.219,30.273,29.297,40.527,39.062,31.738,0
214842.223,34.180,23.438,31.250,34.180,46.387,0
214842.227,37.109,26.367,24.414,40.527,11.230,0
214842.231,40.527,29.297,30.762,45.898,14.648,0
214842.235,26.855,26.367,34.180,26.855,-6.348,0
214842.238,18.066,23.438,32.715,26.367,-25.391,0
214842.242,31.250,25.879,34.180,41.992,-7.324,0
214842.246,34.668,31.250,34.668,42.969,1.465,0
214842.250,31.738,32.715,34.180,45.898,-9.277,0
214842.254,36.133,34.668,37.109,51.270,18.555,0
214842.258,36.621,37.109,38.086,45.410,51.758,0
214842.262,41.016,34.180,33.691,41.504,-7.324,0
214842.266,45.410,30.762,33.691,44.434,16.113,0
214842.270,35.645,30.273,32.227,36.621,65.918,0
214842.274,35.156,37.109,26.367,35.156,56.641,0
214842.277,32.715,42.969,24.902,35.645,39.062,0
214842.281,21.973,34.668,27.344,25.391,25.879,0
214842.285,23.438,30.273,30.273,22.949,53.711,0
214842.289,27.344,35.156,29.785,24.414,82.031,0
214842.293,18.555,32.715,28.320,17.090,38.574,0
214842.297,14.648,34.180,29.297,19.531,17.090,0
214842.301,18.555,35.156,39.062,30.762,75.684,0
214842.305,23.438,31.250,35.645,40.527,81.543,0
214842.309,28.809,32.227,22.949,41.016,47.363,0
214842.313,26.367,30.762,21.973,28.320,42.969,0
214842.317,20.508,25.879,31.738,18.555,81.055,0
214842.320,17.090,26.855,32.715,16.113,79.102,0
214842.324,19.531,32.715,30.762,21.973,59.570,0
214842.328,25.391,36.621,30.762,25.391,64.941,0
214842.332,23.926,35.645,32.715,20.996,56.152,0
214842.336,18.066,32.715,27.832,23.438,58.105,0
214842.340,28.320,33.691,24.414,29.297,58.105,0
214842.344,41.992,32.227,37.598,33.691,49.316,0
214842.348,44.922,29.785,42.480,41.504,35.645,0
214842.352,37.598,25.879,33.203,39.062,72.754,0
214842.356,25.391,25.391,18.555,32.715,90.332,0
214842.360,21.484,30.273,21.484,35.645,43.945,0
214842.363,17.578,28.320,30.762,24.902,40.039,0
214842.367,22.949,25.391,37.109,20.996,66.895,0
214842.371,29.297,27.832,41.992,28.320,60.059,0
214842.375,28.320,28.809,41.016,25.879,69.336,0
214842.379,30.273,30.762,41.504,24.902,66.406,0
214842.383,39.062,33.203,26.855,27.832,13.672,0
214842.387,42.969,41.504,21.973,29.297,1.465,0
214842.391,36.621,40.527,30.273,38.086,25.879,0
214842.395,31.738,31.250,35.156,36.621,55.176,0
214842.399,28.320,27.832,35.645,31.738,51.758,0
214842.402,23.926,26.367,32.715,35.645,25.879,0
214842.406,20.996,25.391,30.762,29.297,16.602,0
214842.410,23.438,25.879,40.527,28.320,17.090,0
214842.414,31.738,33.203,49.805,35.156,10.742,0
214842.418,35.156,40.527,46.387,33.203,10.742,0
214842.422,32.227,33.203,33.203,32.715,23.438,0
214842.426,39.062,28.320,21.484,29.297,53.711,0
214842.430,40.527,32.715,26.367,24.414,51.270,0
214842.434,36.133,36.133,33.203,17.090,38.574,0
214842.438,32.715,35.156,29.785,20.508,37.109,0
214842.442,30.273,35.645,25.391,25.391,25.879,0
214842.445,30.762,34.668,34.180,27.832,46.387,0
214842.449,27.832,26.367,34.668,33.691,78.613,0
214842.453,27.832,22.461,30.273,27.832,68.848,0
214842.457,28.809,24.414,31.250,26.367,36.133,0
214842.461,26.367,29.297,43.457,30.273,36.133,0
214842.465,33.691,40.039,55.176,29.785,78.125,0
214842.469,27.832,31.738,44.922,22.949,75.684,0
214842.473,18.555,17.090,31.738,14.160,13.184,0
214842.477,19.531,18.066,29.785,12.695,3.418,0
214842.481,24.414,23.438,33.203,23.438,32.715,0
214842.485,33.691,34.668,30.762,34.668,36.133,0
214842.488,31.738,41.016,24.902,32.715,46.387,0
214842.492,25.879,35.156,17.090,36.621,28.809,0
214842.496,28.320,32.715,28.320,43.945,8.301,0
214842.500,28.809,31.250,41.016,35.645,47.363,0
214842.504,31.250,32.227,39.551,25.391,11.719,0
214842.508,40.527,39.551,44.434,34.180,-63.477,0
214842.512,37.109,35.156,40.039,38.574,-12.207,0
214842.516,31.250,29.297,27.344,29.297,17.578,0
214842.520,30.762,29.297,23.926,19.531,-35.156,0
214842.524,27.344,28.809,27.832,18.066,-52.246,0
214842.527,29.297,32.715,24.902,24.902,7.812,0
214842.531,27.344,31.738,24.902,30.273,23.926,0
214842.535,26.367,31.738,35.645,35.156,32.715,0
214842.539,29.297,41.016,40.527,44.922,38.574,0
214842.543,30.273,42.969,38.574,50.293,28.320,0
214842.547,28.809,32.227,30.273,43.945,26.367,0
214842.551,29.785,25.879,25.879,36.133,-6.348,0
214842.555,23.438,23.926,26.855,34.180,0.000,0
214842.559,27.832,30.273,31.250,46.875,18.066,0
214842.563,41.016,33.691,24.414,43.457,3.418,0
214842.567,36.621,28.320,22.461,35.645,-15.137,0
214842.570,27.344,29.297,30.273,39.551,-16.113,0
214842.574,23.926,31.250,30.762,34.668,25.879,0
214842.578,23.926,27.344,31.250,26.367,41.992,0
214842.582,23.926,26.855,31.250,26.855,49.316,0
214842.586,26.855,29.785,27.344,31.250,44.922,0
214842.590,29.785,30.762,29.785,39.062,31.250,0
214842.594,40.527,32.715,30.273,46.387,58.105,0
214842.598,42.480,31.738,29.297,37.598,77.148,0
214842.602,38.574,35.156,38.574,29.785,75.684,0
214842.606,47.852,35.645,41.504,35.156,43.945,0
214842.610,48.340,28.320,32.227,28.809,5.371,0
214842.613,37.109,31.250,28.320,22.949,6.836,0
214842.617,29.785,32.227,29.785,22.949,23.926,0
214842.621,29.297,32.227,34.180,20.996,64.453,0
214842.625,34.180,40.039,40.039,30.762,49.805,0
214842.629,34.668,41.016,37.109,35.645,36.621,0
214842.633,35.156,34.668,29.785,25.879,50.293,0
214842.637,38.574,33.203,34.668,33.203,27.832,0
214842.641,34.668,35.156,37.109,35.645,34.180,0
214842.645,41.992,39.062,41.504,29.297,85.938,0
214842.649,51.270,42.969,46.387,37.598,64.941,0
214842.652,41.992,44.434,35.156,34.180,31.250,0
214842.656,38.574,42.969,24.414,31.738,43.457,0
214842.660,34.668,39.551,17.090,35.156,48.828,0
214842.664,27.832,39.062,12.207,33.203,77.637,0
214842.668,34.180,41.504,26.367,40.039,47.852,0
214842.672,31.250,37.109,40.527,41.504,75.684,0
214842.676,24.414,28.320,36.133,39.062,82.031,0
214842.680,29.785,30.273,29.297,40.039,62.500,0
214842.684,29.785,33.691,36.133,35.156,92.285,0
214842.688,33.691,36.133,41.504,33.203,76.660,0
214842.692,38.574,32.715,39.062,33.203,46.387,0
214842.695,35.156,33.203,31.738,34.180,49.805,0
214842.699,37.109,42.480,28.809,43.457,73.242,0
214842.703,32.715,37.109,30.273,41.992,47.363,0
214842.707,37.598,34.180,26.367,43.457,41.992,0
214842.711,44.922,38.086,32.227,48.340,69.336,0
214842.715,31.250,31.250,45.898,38.086,28.809,0
214842.719,28.809,26.367,35.645,36.621,14.160,0
214842.723,28.809,27.344,23.926,39.062,21.973,0
214842.727,27.832,32.715,26.855,35.645,27.344,0
214842.731,33.691,30.762,27.344,34.180,62.500,0
214842.735,31.250,22.461,30.273,32.715,48.828,0
214842.738,30.762,27.344,30.762,33.203,13.672,0
214842.742,32.227,30.273,31.250,32.227,40.039,0
214842.746,34.180,30.273,24.414,29.785,53.223,0
214842.750,39.551,40.527,19.043,41.992,61.523,0
214842.754,36.133,34.668,26.367,42.480,99.121,0
214842.758,25.391,21.973,28.809,22.461,34.668,0
214842.762,24.902,27.832,29.785,23.926,-14.648,0
214842.766,32.227,27.832,36.621,35.645,7.324,0
214842.770,30.762,20.020,43.945,32.715,48.340,0
214842.774,31.250,21.484,40.527,31.738,83.496,0
214842.777,33.691,28.809,35.645,39.062,30.762,0
214842.781,35.156,36.133,31.250,52.246,21.973,0
214842.785,35.645,33.203,16.602,45.898,24.902,0
214842.789,38.086,25.391,16.602,32.715,40.527,0
214842.793,41.992,30.762,34.668,38.086,25.391,0
214842.797,39.551,32.227,48.828,42.969,5.859,0
214842.801,33.203,26.367,37.598,40.039,41.016,0
214842.805,30.762,26.855,18.555,23.926,7.812,0
214842.809,32.715,29.785,25.391,18.066,16.113,0
214842.813,30.762,32.227,30.273,32.715,89.355,1
214842.817,33.203,37.598,15.625,42.480,47.363,0
214842.820,27.832,34.668,17.578,35.156,3.906,0
214842.824,26.367,32.227,30.762,30.273,40.039,0
214842.828,42.969,32.227,36.133,46.875,35.156,0
214842.832,41.992,29.785,40.039,48.340,13.184,0
214842.836,38.086,34.180,38.086,31.738,5.859,0
214842.840,38.574,34.180,33.203,27.344,-0.977,0
214842.844,30.762,30.273,26.367,22.949,51.270,0
214842.848,30.273,31.738,21.973,22.949,64.453,0
214842.852,34.180,29.785,22.461,18.066,35.645,0
214842.856,32.227,28.320,22.949,12.695,39.062,0
214842.860,34.180,28.320,25.391,19.531,30.762,0
214842.863,37.109,33.203,27.832,31.250,49.805,0
214842.867,34.180,37.598,22.461,30.273,66.406,0
214842.871,31.738,38.574,28.320,23.438,38.574,0
214842.875,28.320,34.668,39.062,20.996,48.828,0
214842.879,22.949,25.879,36.621,20.020,63.965,0
214842.883,20.020,18.555,36.133,24.902,29.297,0
214842.887,22.949,22.461,37.109,41.992,2.930,0
214842.891,26.855,32.715,39.062,45.898,18.555,0
214842.895,35.156,35.645,36.133,24.902,-9.766,0
214842.899,38.574,32.715,23.438,26.367,-18.066,0
214842.902,38.086,30.273,23.926,35.645,59.082,0
214842.906,39.551,30.273,34.180,30.762,69.336,0
214842.910,40.039,26.367,27.832,33.691,50.781,0
214842.914,40.527,31.738,28.320,36.621,69.824,0
214842.918,34.668,38.086,40.039,30.273,82.520,0
214842.922,34.180,27.832,43.945,28.809,63.477,0
214842.926,28.320,24.902,42.480,30.762,56.152,0
214842.930,25.879,31.250,22.461,36.621,70.801,0
214842.934,35.645,31.738,11.230,50.293,82.520,0
214842.938,32.715,25.391,24.902,32.227,43.945,0
214842.942,32.227,29.785,32.715,18.066,27.832,0
214842.945,36.133,36.133,35.156,38.574,57.617,0
214842.949,37.598,28.320,34.668,49.316,70.312,0
214842.953,42.480,29.297,33.203,39.062,71.289,0
214842.957,40.039,32.715,39.062,31.738,60.059,0
214842.961,42.969,24.902,37.109,37.598,39.062,0
214842.965,47.852,24.414,26.367,40.039,21.973,0
214842.969,40.527,31.738,25.391,34.668,7.812,0
214842.973,31.738,36.133,28.809,27.832,5.859,0
214842.977,34.180,36.621,22.461,31.250,9.277,0
214842.981,37.598,34.668,15.137,34.668,-10.742,0
214842.985,38.086,39.062,21.973,33.691,-65.918,0
214842.988,42.969,41.016,34.180,45.410,-71.777,0
214842.992,36.133,34.180,36.621,43.457,-40.039,0
214842.996,35.645,34.180,34.668,39.551,-58.105,0
214843.000,34.180,28.320,34.668,38.086,-36.621,0
214843.004,28.320,22.461,30.273,32.715,23.926,0
214843.008,30.762,26.855,28.809,28.320,46.875,0
214843.012,32.227,26.855,28.809,27.344,0.488,0
214843.016,30.762,21.973,21.484,26.855,20.996,0
214843.020,25.879,27.832,21.484,21.973,50.781,0
214843.024,24.902,37.598,22.949,24.414,35.156,0
214843.027,30.273,32.715,29.297,24.414,34.180,0
214843.031,31.738,36.621,37.109,21.973,-17.578,0
214843.035,28.320,39.551,30.762,20.996,-6.348,0
214843.039,26.855,32.715,26.367,21.973,35.156,0
214843.043,24.414,25.391,27.832,20.996,0.000,0
214843.047,15.625,22.461,24.414,13.184,14.160,0
214843.051,19.043,25.391,27.832,15.137,80.078,0
214843.055,28.809,28.320,35.156,21.973,38.574,0
214843.059,29.785,29.297,31.250,20.020,-13.184,0
214843.063,27.832,27.344,29.297,20.996,19.043,0
214843.067,27.832,25.879,17.578,28.809,41.016,0
214843.070,30.762,30.762,5.371,34.180,-10.254,0
214843.074,29.297,35.645,16.602,33.691,-45.410,0
214843.078,27.344,41.504,38.574,32.227,-51.758,0
214843.082,28.320,41.992,48.828,31.738,0.000,0
214843.086,23.438,29.785,40.527,33.203,-1.953,0
214843.090,24.902,26.367,33.203,39.062,-56.641,0
214843.094,30.273,29.785,33.691,31.250,-41.504,0
214843.098,34.180,30.762,31.250,26.367,-24.902,0
214843.102,36.621,29.785,26.367,26.855,-27.344,0
214843.106,36.621,28.809,23.438,23.926,-48.340,0
214843.110,33.691,29.785,25.879,27.832,-20.020,0
214843.113,40.039,35.156,23.438,38.086,58.594,0
214843.117,48.340,33.203,22.949,42.969,45.898,0
214843.121,41.016,25.879,33.203,34.668,10.254,0
214843.125,31.738,29.785,40.039,29.785,8.301,0
214843.129,36.621,33.203,36.621,36.133,28.809,0
214843.133,41.016,30.762,33.691,29.297,-20.508,0
214843.137,42.480,36.133,31.250,25.391,-54.688,0
214843.141,40.039,40.527,25.391,31.250,29.297,0
214843.145,35.156,39.062,27.344,32.227,44.922,0
214843.149,41.504,40.527,25.879,41.992,29.297,0
214843.152,43.945,37.598,21.973,47.363,43.457,0
214843.156,34.180,32.227,29.785,41.504,30.762,0
214843.160,33.203,33.203,30.273,46.387,24.414,0
214843.164,39.062,37.109,31.250,48.828,55.176,0
214843.168,32.227,26.855,31.250,28.320,38.086,0
214843.172,22.461,12.695,33.691,15.625,17.090,0
214843.176,20.996,18.555,37.598,21.484,48.828,0
214843.180,20.020,30.273,33.203,21.484,41.504,0
214843.184,22.461,33.691,35.156,28.320,27.832,0
214843.188,29.785,32.715,37.109,35.156,35.645,0
214843.192,31.250,36.621,33.691,35.645,7.324,0
214843.195,27.344,38.574,32.715,37.109,4.883,0
214843.199,20.020,30.762,28.320,21.973,38.086,0
214843.203,18.555,27.832,26.367,17.090,62.500,0
214843.207,18.066,27.344,31.738,21.973,37.598,0
214843.211,16.113,26.855,30.762,20.996,20.020,0
214843.215,18.555,29.297,25.391,21.973,60.059,0
214843.219,19.043,22.949,30.273,17.578,62.500,0
214843.223,17.578,18.066,38.086,10.254,17.090,0
214843.227,16.113,16.113,35.156,11.719,-6.836,0
214843.231,19.043,14.160,32.715,21.973,47.363,0
214843.235,31.738,25.391,39.551,36.133,75.195,0
214843.238,38.086,34.180,40.039,39.062,55.664,0
214843.242,23.926,29.785,31.250,28.320,6.836,0
214843.246,17.090,25.391,27.344,27.832,-9.766,0
214843.250,27.832,28.809,28.320,35.156,17.090,0
214843.254,28.809,31.250,35.645,33.691,-4.883,0
214843.258,22.949,26.855,36.621,23.926,-5.371,0
214843.262,25.391,24.414,25.391,26.855,10.254,0
214843.266,30.273,29.785,25.391,34.180,10.254,0
214843.270,34.180,35.156,36.621,35.156,-13.184,0
214843.274,31.250,34.180,37.109,33.691,-36.133,0
214843.277,24.902,33.691,32.227,24.414,-7.812,0
214843.281,23.438,31.738,33.203,21.484,-22.461,0
214843.285,26.855,32.227,35.156,28.809,-36.621,0
214843.289,28.320,28.809,25.879,32.227,6.348,0
214843.293,31.738,25.391,26.367,25.879,21.484,0
214843.297,41.016,36.133,41.504,28.809,18.555,0
214843.301,43.945,41.504,39.062,33.203,20.996,0
214843.305,39.062,31.738,23.926,23.438,44.434,0
214843.309,37.109,28.320,17.090,23.926,82.031,0
214843.313,43.945,32.715,18.555,32.227,80.078,0
214843.317,50.293,37.598,22.461,36.621,52.246,0
214843.320,45.898,36.621,29.297,48.828,72.266,0
214843.324,35.645,28.320,40.039,42.480,65.430,0
214843.328,30.273,20.508,36.621,18.555,32.227,0
214843.332,32.227,29.297,34.180,17.090,43.457,0
214843.336,34.180,41.504,35.645,20.508,18.555,0
214843.340,32.227,39.551,30.762,18.066,23.438,0
214843.344,29.785,32.227,24.414,19.531,46.875,0
214843.348,35.156,31.738,26.855,25.879,28.809,0
214843.352,39.062,31.738,28.809,34.180,53.711,1
214843.356,39.062,27.832,25.391,35.156,82.520,0
214843.360,41.992,31.738,24.414,34.180,51.758,0
214843.363,39.551,29.785,32.715,37.109,42.480,0
214843.367,34.668,28.320,39.551,41.992,86.914,0
214843.371,23.926,21.484,24.414,37.598,81.543,0
214843.375,11.230,9.766,19.531,22.461,63.477,0
214843.379,15.137,16.113,30.762,24.902,95.215,0
214843.383,25.879,27.832,36.621,37.109,70.312,0
214843.387,27.344,28.320,36.621,35.645,21.484,0
214843.391,23.438,23.926,31.738,33.691,34.180,0
214843.395,32.227,27.832,31.738,46.875,48.828,0
214843.399,43.945,29.785,34.668,46.387,18.555,0
214843.402,45.410,25.879,26.855,35.156,17.578,0
214843.406,39.062,28.320,19.531,38.086,34.668,0
214843.410,41.016,31.250,29.297,44.922,68.359,0
214843.414,37.598,26.855,32.227,40.039,63.965,0
214843.418,33.203,24.414,35.645,34.668,43.457,0
214843.422,36.621,21.484,45.410,32.715,34.180,0
214843.426,35.645,21.973,39.551,32.715,47.363,0
214843.430,35.156,29.297,28.809,38.574,27.344,0
214843.434,35.645,36.621,32.227,40.527,-35.645,0
214843.438,35.156,41.992,39.551,40.527,-0.488,0
214843.442,27.832,36.133,33.691,38.086,86.914,0
214843.445,25.879,30.762,24.414,33.691,62.012,0
214843.449,26.855,28.320,30.762,34.180,10.742,0
214843.453,27.832,24.414,35.645,30.762,30.273,0
214843.457,27.344,25.879,30.273,28.809,42.969,0
214843.461,25.879,28.320,30.762,35.645,39.551,0
214843.465,27.832,29.785,32.227,34.180,10.254,0
214843.469,32.227,24.414,32.227,29.297,-15.137,0
214843.473,43.945,27.832,37.598,36.133,-7.324,0
214843.477,49.805,41.016,32.227,38.574,4.883,0
214843.481,43.945,43.457,28.809,35.645,18.066,0
214843.485,34.668,42.480,36.133,33.203,35.156,0
214843.488,27.344,36.621,35.156,26.855,38.086,0
214843.492,28.320,27.832,33.691,23.926,40.039,0
214843.496,29.297,23.438,23.438,22.949,9.277,0
214843.500,30.273,27.344,14.648,31.738,-4.883,0
214843.504,27.344,33.691,24.902,34.668,62.500,0
214843.508,23.438,36.133,28.809,23.926,77.148,0
214843.512,24.414,38.086,23.926,17.090,24.414,0
214843.516,21.484,27.832,29.297,18.555,20.508,0
214843.520,20.996,25.879,32.715,25.391,24.414,0
214843.524,32.227,34.180,33.203,33.691,3.906,0
214843.527,39.062,26.367,38.086,36.133,13.184,0
214843.531,37.109,24.414,33.203,33.691,28.809,0
214843.535,36.133,35.645,26.855,34.180,16.602,0
214843.539,32.227,34.180,35.156,29.785,6.836,0
214843.543,33.203,36.133,38.574,29.785,13.184,0
214843.547,36.621,38.574,39.062,35.645,29.785,0
214843.551,31.738,30.762,38.086,35.156,-14.160,0
214843.555,29.785,31.250,33.203,27.344,-38.574,0
214843.559,34.668,34.668,38.086,29.297,18.066,0
214843.563,35.156,20.508,45.410,35.156,57.129,0
214843.567,34.180,16.113,43.945,39.551,42.480,0
214843.570,31.250,33.691,38.574,41.504,30.762,0
214843.574,22.461,35.645,24.902,33.203,39.062,0
214843.578,21.484,27.344,27.832,33.203,-2.930,0
214843.582,30.762,32.715,36.621,34.180,21.484,0
214843.586,34.180,32.715,35.645,25.879,20.020,0
214843.590,25.879,29.297,33.691,22.461,8.789,0
214843.594,24.902,31.250,34.180,31.738,40.039,0
214843.598,31.250,30.762,37.598,35.645,19.043,0
214843.602,28.320,31.738,31.738,25.391,12.207,0
214843.606,29.297,38.086,20.996,25.391,26.855,0
214843.610,32.715,41.992,16.113,31.250,4.395,0
214843.613,26.855,34.180,22.949,29.297,-28.320,0
214843.617,22.949,24.414,29.297,28.320,-8.789,0
214843.621,26.855,26.855,32.227,32.227,7.812,0
214843.625,31.738,37.109,29.785,37.598,15.137,0
214843.629,36.133,41.992,25.879,46.387,18.555,0
214843.633,42.480,47.363,32.227,47.363,14.160,0
214843.637,48.340,55.176,34.668,46.875,-1.953,0
214843.641,41.016,48.828,30.762,41.016,9.277,0
214843.645,25.391,37.598,20.020,18.555,14.160,0
214843.649,26.367,34.668,20.020,18.555,15.625,0
214843.652,26.855,35.645,29.785,25.391,48.340,0
214843.656,26.367,33.203,28.320,22.949,9.277,0
214843.660,37.598,34.668,30.273,30.762,14.648,0
214843.664,34.668,30.273,33.691,32.715,26.855,0
214843.668,30.762,21.973,33.203,33.691,15.625,0
214843.672,34.180,28.809,29.297,34.180,-16.113,0
214843.676,37.598,35.156,32.715,35.156,-29.297,0
214843.680,32.227,27.832,45.410,29.297,10.254,0
214843.684,22.461,20.508,38.086,17.090,31.250,0
214843.688,21.484,23.438,22.461,22.461,4.395,0
214843.692,22.949,30.273,24.902,26.855,3.906,0
214843.695,22.949,31.250,37.109,25.879,66.406,0
214843.699,31.250,29.297,37.598,36.133,57.129,0
214843.703,36.621,32.715,32.715,42.969,26.367,0
214843.707,34.180,36.133,32.227,43.945,29.297,0
214843.711,34.668,31.250,35.645,39.062,13.672,0
214843.715,34.668,33.203,38.574,37.598,4.395,0
214843.719,31.250,34.180,38.086,41.016,-9.277,0
214843.723,28.809,26.367,41.016,32.227,-5.371,0
214843.727,30.273,26.855,39.062,26.855,-21.973,0
214843.731,32.715,29.297,29.297,30.762,-47.852,0
214843.735,33.691,31.250,27.832,27.344,-48.340,0
214843.738,29.785,29.785,30.762,19.043,-24.902,0
214843.742,29.297,26.855,28.320,29.785,11.230,0
214843.746,29.785,25.879,27.344,37.109,20.020,0
214843.750,23.926,28.320,24.902,26.367,65.430,0
214843.754,26.855,40.039,19.531,21.973,78.125,0
214843.758,39.551,52.734,26.855,33.203,54.688,0
214843.762,34.668,43.457,33.203,37.109,19.531,0
214843.766,19.043,26.367,35.645,26.855,21.484,0
214843.770,17.090,23.926,36.133,21.484,61.523,0
214843.774,21.484,20.996,31.738,28.320,77.148,0
214843.777,21.973,26.367,25.879,20.996,11.719,0
214843.781,18.555,32.715,24.414,8.301,-20.020,0
214843.785,21.484,34.180,27.344,20.020,-3.418,0
214843.789,30.762,37.598,26.855,28.809,-3.906,0
214843.793,40.527,43.945,33.691,23.438,21.973,0
214843.797,42.480,43.457,38.086,27.832,13.672,0
214843.801,42.480,41.992,36.621,41.504,-3.906,0
214843.805,44.434,40.527,36.133,44.922,27.832,0
214843.809,34.180,33.203,25.879,27.832,18.555,0
214843.813,30.273,36.133,20.508,19.043,-13.184,0
214843.817,33.691,36.133,24.414,20.020,8.789,0
214843.820,34.668,33.691,29.785,29.785,51.270,0
214843.824,30.762,37.598,33.691,40.039,83.008,0
214843.828,28.320,38.086,33.203,27.344,45.898,0
214843.832,31.250,33.691,32.715,20.020,53.711,0
214843.836,32.715,31.738,39.551,31.738,70.801,0
214843.840,31.738,32.715,41.992,31.250,29.297,0
214843.844,28.320,37.598,41.992,37.109,48.828,0
214843.848,27.344,37.598,35.645,36.621,99.609,0
214843.852,20.508,28.320,23.926,15.625,95.703,0
214843.856,19.531,23.926,30.762,18.066,52.734,0
214843.860,21.484,21.484,39.551,23.438,33.691,0
214843.863,25.391,20.508,41.504,23.926,60.059,0
214843.867,30.762,25.879,41.992,30.762,62.988,0
214843.871,32.715,26.367,38.086,31.250,46.875,0
214843.875,33.203,28.320,30.273,32.227,54.199,0
214843.879,35.156,38.086,22.949,37.598,37.598,0
214843.883,38.086,45.410,28.809,38.574,12.695,0
214843.887,37.598,52.246,36.133,48.828,14.160,0
214843.891,35.156,49.316,40.527,51.758,60.059,0
214843.895,26.855,32.227,30.273,27.344,84.961,0
214843.899,23.926,26.855,17.090,16.602,57.129,0
214843.902,19.531,20.996,19.531,10.254,31.738,0
214843.906,17.578,16.602,28.320,17.090,31.738,0
214843.910,22.461,25.879,34.668,27.832,18.066,0
214843.914,26.367,37.109,33.203,22.461,0.000,0
214843.918,32.715,47.852,31.250,30.273,15.625,0
214843.922,33.203,47.363,32.227,36.621,23.926,0
214843.926,31.738,37.109,30.762,30.273,42.969,0
214843.930,33.691,36.621,26.367,26.367,2.930,0
214843.934,31.738,35.156,23.438,32.227,-32.227,0
214843.938,27.832,34.668,22.949,38.086,16.113,0
214843.942,30.273,31.738,18.066,32.227,29.785,0
214843.945,29.785,28.320,15.137,29.297,34.180,0
214843.949,24.414,31.250,23.438,30.273,84.473,0
214843.953,35.156,37.598,38.086,36.621,79.102,0
214843.957,40.527,38.086,37.109,38.086,35.645,0
214843.961,38.574,33.691,29.785,38.574,32.227,0
214843.965,41.016,38.574,21.484,45.410,39.062,0
214843.969,38.086,38.574,25.391,50.293,37.109,0
214843.973,34.180,27.344,37.109,44.922,7.812,0
214843.977,30.273,24.414,36.133,29.785,0.000,0
214843.981,33.691,24.902,31.250,33.691,34.180,2
214843.985,28.809,15.625,24.902,31.738,41.016,0
214843.988,14.160,12.695,20.508,19.531,50.293,0
214843.992,19.531,25.391,22.461,25.391,38.574,0
214843.996,26.855,32.227,29.785,29.297,56.641,0
214844.000,20.996,31.738,38.086,25.879,47.852,0
214844.004,23.438,36.133,41.016,23.926,17.090,0
214844.008,29.785,35.645,29.785,30.273,41.016,0
214844.012,30.762,30.273,27.832,38.086,33.203,0
214844.016,40.527,29.297,37.109,40.527,6.348,0
214844.020,47.852,34.668,32.227,40.527,-15.137,0
214844.024,39.062,35.156,23.438,38.086,32.227,0
214844.027,31.738,28.320,25.391,38.086,55.176,0
214844.031,33.203,30.762,36.621,35.645,24.902,0
214844.035,30.762,28.320,37.598,33.691,30.762,0
214844.039,25.879,23.438,32.715,27.344,62.012,0
214844.043,32.715,28.809,30.762,20.508,67.871,0
214844.047,38.086,32.715,26.367,34.668,45.410,0
214844.051,35.645,28.320,29.297,40.039,30.762,0
214844.055,35.645,27.344,22.949,33.691,47.852,0
214844.059,39.062,33.691,20.020,32.227,44.922,0
214844.063,36.621,34.668,32.227,30.762,-3.906,0
214844.067,26.855,32.715,28.809,18.066,-69.336,0
214844.070,22.949,32.227,26.855,22.461,-22.461,0
214844.074,21.973,32.715,31.250,31.250,53.223,0
214844.078,20.996,30.273,39.062,22.949,32.227,0
214844.082,22.949,33.691,37.109,21.484,42.969,0
214844.086,27.832,39.062,28.320,25.879,62.500,0
214844.090,31.738,29.785,18.555,27.832,50.293,0
214844.094,32.715,27.344,26.855,35.156,27.344,0
214844.098,31.738,33.691,37.598,38.574,41.504,0
214844.102,32.227,37.598,34.180,33.203,55.664,0
214844.106,29.297,33.691,31.738,22.949,50.293,0
214844.110,24.902,34.180,33.691,14.648,59.570,0
214844.113,22.949,37.598,33.691,23.926,57.129,0
214844.117,25.879,36.621,32.715,32.715,87.402,0
214844.121,27.344,37.109,28.809,21.484,82.031,0
214844.125,25.879,30.762,30.762,20.996,20.020,0
214844.129,31.250,25.879,29.785,30.273,54.688,0
214844.133,34.180,32.227,20.996,28.809,65.918,0
214844.137,36.133,35.645,20.996,25.391,48.340,0
214844.141,38.086,30.273,29.297,30.273,76.172,0
214844.145,32.715,25.879,36.621,25.391,56.641,0
214844.149,28.809,27.832,33.691,22.949,15.625,0
214844.152,34.668,35.156,34.180,26.855,19.043,0
214844.156,40.527,37.598,34.668,23.438,46.875,0
214844.160,33.691,28.809,32.715,30.273,64.453,0
214844.164,28.320,23.926,33.691,30.273,71.289,0
214844.168,28.809,26.367,30.762,22.949,58.594,0
214844.172,34.668,33.203,23.438,38.086,41.504,0
214844.176,32.715,33.203,19.531,37.109,23.438,0
214844.180,27.344,26.855,29.785,24.414,27.832,0
214844.184,31.250,30.762,39.062,31.250,22.461,0
214844.188,32.227,28.809,34.668,38.086,-0.977,0
214844.192,37.598,33.691,31.250,35.645,11.230,0
214844.195,36.133,36.621,31.738,30.273,27.832,0
214844.199,28.809,30.273,34.668,24.414,22.461,0
214844.203,29.785,36.621,45.898,24.414,-6.348,0
214844.207,32.227,41.016,43.457,27.344,-21.973,0
214844.211,38.574,37.598,28.809,38.574,-38.086,0
214844.215,38.574,37.109,26.367,38.574,-34.180,0
214844.219,32.227,33.203,31.738,24.414,14.160,0
214844.223,32.715,27.344,40.039,32.715,51.758,0
214844.227,33.691,35.156,33.691,40.039,35.645,0
214844.231,24.414,36.621,29.297,35.156,-5.371,0
214844.235,27.832,34.180,43.457,45.898,19.531,0
214844.238,38.086,30.762,38.086,41.016,51.758,0
214844.242,33.203,21.973,31.738,27.344,40.039,0
214844.246,31.738,26.855,34.668,29.297,8.301,0
214844.250,43.457,41.992,25.879,41.992,-40.039,0
214844.254,47.852,42.480,26.855,44.434,-6.348,0
214844.258,40.527,35.645,33.691,36.133,1.465,0
214844.262,31.738,35.645,32.227,30.273,-30.762,0
214844.266,31.738,32.227,36.133,32.227,20.996,0
214844.270,39.062,32.227,40.527,40.039,13.184,0
214844.274,43.945,46.875,40.039,50.781,-24.414,0
214844.277,35.645,42.969,34.180,48.340,0.977,0
214844.281,33.691,33.203,32.715,38.086,38.574,0
214844.285,35.645,39.551,29.297,31.250,37.598,0
214844.289,30.762,37.109,21.484,28.320,-5.371,0
214844.293,33.203,29.785,27.832,38.574,-9.277,0
214844.297,30.273,30.762,32.715,42.480,26.367,0
214844.301,23.926,26.367,35.156,36.621,26.367,0
214844.305,29.297,25.879,41.504,25.391,-42.969,0
214844.309,31.738,36.133,39.062,23.438,-81.055,0
214844.313,34.180,39.062,34.180,31.738,1.953,0
214844.317,39.551,35.156,30.762,35.156,20.508,0
214844.320,34.668,28.320,27.344,32.227,-26.367,0
214844.324,24.414,23.926,30.273,25.879,7.812,0
214844.328,24.414,28.320,32.715,30.273,29.785,0
214844.332,27.344,30.273,38.086,33.203,0.488,0
214844.336,26.367,26.855,41.504,29.297,5.859,0
214844.340,22.949,25.879,31.738,29.785,11.230,0
214844.344,23.926,20.996,23.926,39.551,57.617,0
214844.348,25.391,21.973,31.738,36.133,32.227,0
214844.352,27.344,32.227,42.969,23.438,-20.020,0
214844.356,25.391,35.645,32.227,27.832,43.945,0
214844.360,23.438,34.180,26.855,33.203,29.297,0
214844.363,30.273,32.227,36.133,31.250,19.531,0
214844.367,28.809,28.809,37.109,29.785,56.641,0
214844.371,26.855,32.227,38.086,34.180,55.176,0
214844.375,32.715,40.527,35.645,38.574,88.379,0
214844.379,31.250,37.598,27.344,33.691,87.402,0
214844.383,22.949,26.855,18.066,28.320,31.250,0
214844.387,23.438,29.785,19.043,29.297,4.395,0
214844.391,29.785,37.598,30.762,35.645,1.465,0
214844.395,29.785,41.504,35.156,28.809,-40.039,0
214844.399,22.949,32.715,38.086,20.508,-32.715,0
214844.402,19.531,23.438,30.273,27.832,35.645,0
214844.406,25.879,29.785,21.484,27.344,31.250,0
214844.410,26.855,34.180,31.738,22.949,23.438,0
214844.414,22.949,35.645,34.180,23.438,19.531,0
214844.418,26.855,35.156,22.461,30.762,10.254,0
214844.422,31.250,26.367,19.043,30.273,45.898,0
214844.426,25.879,21.973,22.461,23.926,59.570,0
214844.430,26.855,26.855,20.508,27.832,36.621,0
214844.434,41.992,35.645,29.785,40.039,17.578,0
214844.438,42.969,38.574,39.551,34.668,2.930,0
214844.442,34.668,29.785,34.668,30.762,14.648,0
214844.445,36.133,30.762,35.156,44.922,37.109,0
214844.449,36.621,30.273,39.062,44.922,62.988,0
214844.453,32.227,21.484,26.855,30.273,55.664,0
214844.457,33.203,24.902,21.484,32.227,34.668,0
214844.461,38.574,25.879,30.273,39.062,54.688,0
214844.465,33.691,18.066,37.109,29.785,61.523,0
214844.469,35.645,24.414,38.574,36.133,16.113,0
214844.473,46.875,40.039,27.344,45.410,38.086,0
214844.477,45.410,38.574,20.996,33.691,84.473,0
214844.481,40.039,39.551,25.879,33.691,56.641,0
214844.485,37.598,39.551,22.949,30.762,11.230,0
214844.488,42.480,35.156,29.785,31.738,-4.883,0
214844.492,43.457,34.668,42.480,43.945,36.621,0
214844.496,39.062,29.785,41.992,40.527,26.855,0
214844.500,41.504,27.832,37.109,36.133,17.578,0
214844.504,47.852,31.738,28.809,40.039,61.035,0
214844.508,53.711,37.598,26.855,49.316,50.781,0
214844.512,46.875,41.016,28.320,42.480,37.109,0
214844.516,45.410,44.922,32.227,35.156,64.453,0
214844.520,46.387,43.945,31.250,42.480,82.520,0
214844.524,41.016,37.598,25.391,35.156,76.172,0
214844.527,39.062,33.691,30.762,24.902,52.734,0
214844.531,33.203,34.668,43.457,24.902,29.297,0
214844.535,30.762,39.551,44.434,25.391,62.012,0
214844.539,35.645,46.387,40.039,27.832,55.664,0
214844.543,38.574,41.504,34.668,26.855,13.184,0
214844.547,41.504,37.598,26.367,34.180,4.395,0
214844.551,40.527,43.457,18.066,35.645,24.902,0
214844.555,37.109,42.969,14.160,32.227,48.828,0
214844.559,37.598,41.016,19.531,34.180,73.242,0
214844.563,37.598,36.621,23.926,32.227,87.891,0
214844.567,37.598,34.180,29.785,29.785,48.828,0
214844.570,36.621,33.691,39.551,28.320,41.016,0
214844.574,31.738,31.738,41.016,26.855,40.527,0
214844.578,30.762,39.062,42.480,26.367,45.410,0
214844.582,39.551,41.992,43.457,32.227,80.078,0
214844.586,41.504,33.203,31.738,40.527,80.078,0
214844.590,37.109,33.203,27.344,39.551,45.898,0
214844.594,36.133,36.621,31.250,40.039,30.762,0
214844.598,29.785,30.762,22.461,41.016,28.809,0
214844.602,29.297,28.809,12.695,29.297,21.484,0
214844.606,41.992,33.691,22.949,32.227,19.531,0
214844.610,44.434,34.180,45.898,38.086,61.523,0
214844.613,35.156,26.367,50.293,31.738,42.480,0
214844.617,34.668,17.090,41.992,29.297,19.043,0
214844.621,35.156,19.043,37.109,31.738,21.973,0
214844.625,36.133,28.809,29.785,36.133,25.879,0
214844.629,40.039,34.668,23.438,44.434,51.270,0
214844.633,43.457,37.109,20.508,54.199,-29.785,0
214844.637,44.434,36.133,9.766,51.758,-67.383,0
214844.641,33.203,28.809,13.672,28.809,-50.293,0
214844.645,20.996,21.973,34.180,15.625,-52.734,0
214844.649,21.973,25.391,36.133,18.066,-39.551,0
214844.652,31.250,33.691,36.621,25.879,-20.996,0
214844.656,37.598,34.668,41.016,39.062,31.738,0
214844.660,41.016,33.203,38.086,42.969,40.039,0
214844.664,35.645,30.273,23.926,34.668,24.414,0
214844.668,23.926,27.832,14.160,27.344,41.016,0
214844.672,20.508,27.832,12.207,29.785,72.266,0
214844.676,25.391,34.180,21.973,30.762,93.262,0
214844.680,27.832,42.480,36.621,28.809,89.844,0
214844.684,24.414,35.645,39.551,23.926,66.895,0
214844.688,20.508,28.320,35.645,16.113,73.242,2
214844.692,16.602,25.879,25.879,11.719,93.750,0
214844.695,19.531,26.855,20.996,12.207,73.730,0
214844.699,20.020,31.738,25.879,15.137,87.402,0
214844.703,17.090,28.809,25.879,12.207,104.492,0
214844.707,12.695,28.320,26.367,3.418,72.266,0
214844.711,12.695,31.250,39.062,1.953,46.875,0
214844.715,11.719,35.156,38.086,6.836,42.969,0
214844.719,9.766,36.621,32.715,4.883,20.996,0
214844.723,18.066,33.203,25.879,20.020,5.859,0
214844.727,13.672,39.062,27.832,19.531,11.230,0
214844.731,-12.695,48.340,35.156,-21.973,21.973,0
214844.735,-18.066,50.293,33.691,-30.762,45.898,0
214844.738,-12.695,39.062,35.645,-22.461,38.574,0
214844.742,-30.273,26.367,28.320,-42.969,28.809,0
214844.746,-37.598,34.668,20.996,-46.387,7.812,0
214844.750,-30.273,49.316,20.996,-36.621,-7.812,0
214844.754,-37.598,52.246,27.832,-43.457,-7.324,0
214844.758,-51.758,45.898,28.320,-57.129,20.508,0
214844.762,-58.594,41.016,30.273,-66.895,46.875,0
214844.766,-62.988,46.387,31.738,-68.359,49.316,0
214844.770,-64.941,51.758,32.227,-70.801,-2.930,0
214844.774,-68.359,47.363,35.156,-71.289,-34.180,0
214844.777,-63.965,57.617,33.691,-55.176,7.812,0
214844.781,-50.293,68.359,40.039,-37.598,7.812,0
214844.785,-58.105,52.734,37.598,-44.922,-5.859,0
214844.789,-72.754,47.363,18.066,-62.012,-3.906,0
214844.793,-74.707,38.574,3.418,-68.359,2.930,0
214844.797,-68.848,26.855,20.020,-62.988,0.977,0
214844.801,-62.500,32.715,38.574,-57.129,-0.488,0
214844.805,-59.570,37.598,32.715,-56.152,-2.441,0
214844.809,-44.434,42.480,35.645,-40.527,6.348,0
214844.813,-27.344,50.293,41.504,-26.855,-7.324,0
214844.817,-25.879,49.316,35.645,-22.461,-40.527,0
214844.820,-31.250,46.875,21.484,-20.508,-27.344,0
214844.824,-29.785,44.434,14.160,-11.719,24.414,0
214844.828,-21.484,35.645,18.555,-9.277,50.781,0
214844.832,-11.719,23.438,17.578,-11.719,51.758,0
214844.836,6.348,21.484,24.902,9.766,63.477,0
214844.840,7.324,24.902,22.949,18.555,53.223,0
214844.844,6.348,33.203,20.996,26.367,62.988,0
214844.848,20.996,38.086,32.227,39.551,89.844,0
214844.852,24.414,30.762,35.156,32.715,85.938,0
214844.856,22.949,33.203,29.297,33.203,46.387,0
214844.860,26.855,36.133,26.855,31.738,4.395,0
214844.863,31.250,32.227,31.738,26.855,7.812,0
214844.867,33.203,32.715,31.738,37.598,68.848,0
214844.871,35.645,28.320,26.367,38.574,68.359,0
214844.875,38.086,19.043,23.926,41.504,14.648,0
214844.879,46.387,26.855,20.020,56.152,-0.488,0
214844.883,49.316,29.785,15.625,55.664,8.301,0
214844.887,43.457,19.043,22.461,46.387,4.395,0
214844.891,46.875,20.020,28.809,54.199,10.742,0
214844.895,57.129,22.949,34.180,58.105,2.441,0
214844.899,54.688,20.996,29.785,52.246,11.719,0
214844.902,53.223,25.391,20.508,52.734,19.043,0
214844.906,56.152,28.809,35.156,53.711,23.926,0
214844.910,58.105,20.996,36.133,61.523,61.035,0
214844.914,53.711,16.113,20.508,67.871,57.617,0
214844.918,50.293,20.020,19.043,61.523,44.434,0
214844.922,57.129,21.484,23.438,60.547,44.434,0
214844.926,58.105,17.090,32.715,65.430,27.832,0
214844.930,54.688,14.648,35.645,65.918,17.090,0
214844.934,55.176,17.578,28.320,62.988,41.504,0
214844.938,55.664,16.113,26.367,55.176,26.855,0
214844.942,53.223,18.066,31.738,52.734,27.832,0
214844.945,53.711,19.531,35.156,51.270,37.598,0
214844.949,54.199,21.484,30.273,52.734,28.320,0
214844.953,50.293,28.809,24.414,52.246,55.176,0
214844.957,57.129,33.203,25.391,58.594,88.379,0
214844.961,60.547,31.250,23.438,63.965,101.562,0
214844.965,54.199,23.926,22.949,49.805,40.039,0
214844.969,55.664,21.973,39.551,46.875,30.762,0
214844.973,55.176,19.531,41.992,58.594,43.457,0
214844.977,52.246,16.602,33.203,56.152,6.348,0
214844.981,49.316,21.484,31.738,50.293,38.574,0
214844.985,51.270,19.043,28.809,62.012,74.219,0
214844.988,53.223,17.578,27.832,65.918,81.543,0
214844.992,53.711,21.973,24.902,51.758,54.199,0
214844.996,53.711,22.461,23.438,42.480,40.527,0
214845.000,52.246,23.438,27.344,44.434,72.754,0
214845.004,48.828,25.391,26.855,44.434,90.820,0
214845.008,53.223,28.809,21.484,42.969,71.289,0
214845.012,57.617,29.785,25.391,42.969,50.781,0
214845.016,50.781,26.855,32.227,50.293,115.234,0
214845.020,48.828,19.043,36.621,59.570,127.441,0
214845.024,58.105,19.043,41.016,67.871,57.129,0
214845.027,65.918,30.762,40.039,69.336,38.574,0
214845.031,59.082,29.297,34.668,60.059,70.312,0
214845.035,51.758,23.438,29.297,49.316,80.566,0
214845.039,53.711,23.438,27.832,46.387,61.035,0
214845.043,53.711,24.902,28.320,49.805,26.855,0
214845.047,56.641,30.762,29.297,54.688,55.664,0
214845.051,61.523,36.621,34.180,56.152,69.824,0
214845.055,58.105,25.879,38.574,45.410,16.113,0
214845.059,62.012,22.461,30.273,47.363,17.578,0
214845.063,55.664,28.809,33.203,58.594,34.668,0
214845.067,43.457,24.414,44.922,49.805,22.461,0
214845.070,53.223,21.973,43.945,39.551,9.766,0
214845.074,56.152,22.461,30.762,38.574,34.180,0
214845.078,46.387,21.973,18.555,36.133,31.250,0
214845.082,41.016,22.949,18.066,28.809,0.977,0
214845.086,39.062,21.973,21.973,24.902,-10.254,0
214845.090,43.945,30.762,33.691,35.645,-24.902,0
214845.094,44.922,37.109,42.969,38.086,-7.324,0
214845.098,39.062,28.809,29.785,29.297,22.461,0
214845.102,34.668,25.879,25.391,25.391,-9.766,0
214845.106,31.738,24.902,29.297,29.297,13.184,0
214845.110,25.879,21.973,27.344,37.109,64.941,0
214845.113,29.297,27.344,28.320,43.457,50.293,0
214845.117,37.598,27.344,27.832,42.969,53.711,0
214845.121,29.297,14.648,26.855,36.621,52.734,0
214845.125,22.461,12.695,24.414,31.738,9.766,0
214845.129,29.297,26.367,21.973,38.574,-12.695,0
214845.133,41.504,35.156,32.715,42.969,15.625,0
214845.137,44.434,39.551,42.969,41.504,35.156,0
214845.141,43.457,34.180,37.109,45.410,3.418,0
214845.145,39.551,24.414,28.320,32.715,-1.953,0
214845.149,35.156,24.902,28.320,27.832,24.414,0
214845.152,37.109,25.391,32.715,42.480,44.922,0
214845.156,33.691,24.414,34.668,41.016,16.602,0
214845.160,31.738,27.344,26.367,34.180,26.855,0
214845.164,37.109,28.320,18.555,37.109,20.996,0
214845.168,40.527,25.391,31.738,41.504,-4.883,0
214845.172,38.086,22.949,35.156,44.922,-1.465,0
214845.176,36.621,21.484,31.250,41.016,28.320,0
214845.180,38.086,25.391,36.133,36.133,33.691,0
214845.184,39.062,25.879,31.738,34.668,-28.809,0
214845.188,39.551,24.414,28.320,37.109,-35.156,0
214845.192,38.086,27.832,30.273,34.668,-44.434,0
214845.195,35.645,33.691,36.621,41.504,-18.555,0
214845.199,37.109,30.762,30.762,60.059,12.207,0
214845.203,37.109,29.297,29.785,55.664,-7.324,0
214845.207,31.250,28.320,40.039,39.062,7.324,0
214845.211,22.949,19.531,32.227,32.715,17.090,0
214845.215,21.484,20.020,32.715,26.855,13.672,0
214845.219,33.203,35.156,38.086,35.156,45.898,0
214845.223,38.574,34.180,33.203,44.922,58.594,0
214845.227,28.809,17.090,29.297,32.715,31.738,0
214845.231,30.762,13.672,25.879,28.809,54.688,0
214845.235,43.457,23.926,28.809,37.598,48.828,0
214845.238,40.039,32.227,34.668,38.574,29.785,0
214845.242,31.738,27.832,33.691,36.621,84.961,0
214845.246,30.273,27.344,24.414,35.156,85.449,0
214845.250,24.902,32.715,24.414,27.832,78.125,0
214845.254,18.555,31.738,29.785,25.391,80.566,0
214845.258,18.066,31.250,31.250,31.250,73.730,0
214845.262,18.066,24.414,31.250,23.926,43.945,0
214845.266,11.230,16.602,31.250,13.184,50.293,0
214845.270,8.789,16.113,26.855,22.461,89.355,0
214845.274,18.555,26.367,25.879,27.344,46.875,0
214845.277,27.344,37.598,21.973,19.043,-0.977,0
214845.281,32.227,31.738,18.555,18.555,-10.742,0
214845.285,35.156,21.484,18.555,32.227,0.977,0
214845.289,40.527,25.879,20.996,36.621,5.859,0
214845.293,36.133,34.668,32.227,27.832,-25.391,0
214845.297,32.715,37.109,41.016,24.902,-12.695,0
214845.301,38.574,40.527,36.621,35.156,47.852,0
214845.305,39.062,39.062,29.297,43.457,55.664,0
214845.309,37.109,28.809,32.227,40.039,29.785,0
214845.313,32.715,20.996,29.785,38.086,16.602,0
214845.317,32.227,18.555,26.855,36.621,23.438,0
214845.320,29.297,18.555,32.715,36.133,24.414,0
214845.324,31.250,16.113,41.016,39.062,1.953,0
214845.328,37.109,22.461,34.180,40.527,7.324,0
214845.332,37.109,27.832,24.414,47.363,51.758,0
214845.336,41.992,28.809,33.203,53.223,63.965,0
214845.340,51.270,40.039,39.551,42.969,16.602,0
214845.344,46.875,42.480,43.457,34.180,11.230,0
214845.348,34.180,32.715,42.480,31.250,42.969,0
214845.352,31.250,25.391,34.180,23.438,51.270,0
214845.356,36.621,20.508,35.156,26.367,56.152,0
214845.360,35.156,26.367,38.574,34.180,50.293,0
214845.363,29.785,30.762,33.203,30.273,2.930,0
214845.367,30.762,29.297,27.832,31.250,-12.207,0
214845.371,28.809,29.785,21.973,36.621,-9.277,0
214845.375,38.574,31.738,14.648,49.316,18.555,0
214845.379,47.363,28.809,14.648,51.758,81.543,0
214845.383,37.109,26.855,31.738,30.762,42.480,1
214845.387,36.621,20.508,49.805,23.926,15.137,0
214845.391,39.551,14.648,52.246,36.621,28.809,0
214845.395,32.227,22.949,40.039,45.898,21.484,0
214845.399,30.762,31.738,33.691,34.180,30.762,0
214845.402,35.156,34.668,34.668,28.809,53.711,0
214845.406,33.203,34.180,25.879,39.551,62.500,0
214845.410,30.273,32.227,20.508,40.527,44.922,0
214845.414,34.668,30.762,27.344,38.574,30.762,0
214845.418,33.203,29.785,31.250,39.551,33.691,0
214845.422,25.391,27.832,30.762,32.715,66.406,0
214845.426,24.902,23.926,37.109,33.203,75.195,0
214845.430,31.250,30.762,42.480,40.039,25.879,0
214845.434,32.715,38.574,39.551,41.016,10.254,0
214845.438,34.180,30.762,35.645,49.805,17.090,0
214845.442,33.691,24.902,34.668,45.898,1.953,0
214845.445,29.785,28.809,31.738,35.645,17.090,0
214845.449,33.203,40.527,28.320,43.945,53.223,0
214845.453,33.691,41.016,27.344,40.527,48.340,0
214845.457,30.762,31.250,34.668,21.973,40.039,0
214845.461,31.250,32.715,43.457,20.508,32.227,0
214845.465,36.621,41.992,38.086,20.508,27.344,0
214845.469,37.598,42.969,31.250,24.414,-1.465,0
214845.473,29.785,35.645,31.738,27.344,-26.855,0
214845.477,39.062,41.504,33.203,30.273,-10.742,0
214845.481,43.945,40.527,31.738,43.457,35.645,0
214845.485,38.574,31.250,34.180,43.945,45.410,0
214845.488,42.969,30.273,38.574,41.016,32.715,0
214845.492,50.293,36.133,30.273,48.340,33.203,0
214845.496,44.434,39.062,21.484,46.387,57.617,0
214845.500,32.227,38.086,30.273,36.133,75.195,0
214845.504,30.762,35.156,34.668,30.273,47.852,0
214845.508,31.738,33.203,38.086,28.320,60.547,0
214845.512,35.645,31.738,43.945,35.156,104.492,0
214845.516,35.645,36.133,34.180,37.598,95.215,0
214845.520,35.645,42.480,26.855,29.297,24.414,0
214845.524,36.133,39.062,29.297,19.531,5.371,0
214845.527,32.715,21.973,28.320,20.996,29.297,0
214845.531,28.320,15.137,31.738,24.902,8.301,0
214845.535,26.367,27.832,41.504,23.438,45.898,0
214845.539,27.344,31.250,35.645,29.297,56.641,0
214845.543,26.855,22.461,25.879,32.715,10.742,0
214845.547,27.344,26.367,36.133,24.902,15.625,0
214845.551,29.297,36.133,41.504,21.973,31.250,0
214845.555,36.621,38.574,39.062,34.668,29.297,0
214845.559,34.668,34.180,36.133,38.574,6.836,0
214845.563,33.691,32.715,33.203,25.879,-26.367,0
214845.567,34.668,28.320,36.621,24.414,-77.637,0
214845.570,27.344,24.902,31.250,28.320,-38.574,0
214845.574,30.762,33.691,24.414,32.227,30.273,0
214845.578,34.180,38.086,27.832,31.250,38.574,0
214845.582,30.762,39.551,35.156,29.297,27.832,0
214845.586,33.691,41.992,37.598,37.109,29.297,0
214845.590,37.598,39.551,40.039,39.551,38.574,0
214845.594,35.645,33.691,38.086,36.621,42.480,0
214845.598,40.039,35.645,29.297,37.598,69.336,0
214845.602,43.945,40.039,25.879,44.434,41.992,0
214845.606,40.039,39.062,29.297,41.016,25.391,0
214845.610,40.039,46.387,27.832,32.227,-9.766,0
214845.613,43.457,50.293,23.926,39.551,-16.113,0
214845.617,43.457,39.062,13.184,44.922,31.250,0
214845.621,36.133,35.156,6.836,34.180,38.574,0
214845.625,31.738,36.133,23.438,26.367,24.414,0
214845.629,31.250,30.762,37.109,23.926,14.648,0
214845.633,27.832,26.855,36.621,21.484,52.734,0
214845.637,23.438,22.461,32.715,24.414,59.570,0
214845.641,22.949,21.484,29.785,24.902,42.480,0
214845.645,28.809,33.691,33.691,28.809,38.574,0
214845.649,26.855,38.086,35.156,36.133,33.203,0
214845.652,25.391,37.109,25.879,29.297,35.645,0
214845.656,30.273,38.086,22.949,20.020,-3.906,0
214845.660,27.344,31.250,26.855,22.461,-29.297,0
214845.664,22.461,26.367,33.203,26.367,22.461,0
214845.668,27.344,26.367,39.062,30.762,72.266,0
214845.672,30.762,22.461,39.551,41.992,47.363,0
214845.676,26.855,19.043,40.527,37.109,63.477,0
214845.680,21.484,17.578,37.598,23.926,58.594,0
214845.684,21.973,19.531,29.785,27.344,19.043,0
214845.688,33.691,34.180,24.902,44.434,26.855,0
214845.692,36.133,34.180,23.438,43.457,38.574,0
214845.695,33.203,22.461,23.926,28.809,57.617,0
214845.699,32.715,22.949,32.715,25.879,50.293,0
214845.703,23.438,24.414,42.969,22.949,35.156,0
214845.707,22.949,27.832,45.898,27.832,31.250,0
214845.711,33.691,29.297,42.969,37.598,13.184,0
214845.715,41.504,37.598,32.227,37.598,-24.902,0
214845.719,41.016,43.945,26.367,42.480,-7.812,0
214845.723,34.180,34.668,23.438,42.969,-4.883,0
214845.727,28.809,26.367,23.438,35.645,-18.066,0
