timestamps,TP9,AF7,AF8,TP10,Right AUX,Marker0
214707.024,65.918,20.020,35.645,63.477,150.391,0
214707.027,70.801,13.672,22.461,73.730,132.812,0
214707.031,64.941,15.137,25.391,70.312,92.773,0
214707.035,54.199,22.949,42.969,65.918,125.488,0
214707.039,53.223,25.879,42.480,61.523,125.000,0
214707.043,56.641,30.762,34.180,54.199,52.734,0
214707.047,57.129,27.832,27.832,57.617,55.664,0
214707.051,55.664,18.066,21.973,49.805,64.453,0
214707.055,60.547,16.602,27.344,47.852,50.293,0
214707.059,55.176,11.719,27.832,47.363,62.012,0
214707.063,45.898,13.184,23.926,38.574,61.523,0
214707.067,46.875,22.949,24.414,49.805,70.312,0
214707.070,44.434,22.461,20.996,49.805,56.641,0
214707.074,48.828,17.090,21.973,43.945,28.320,0
214707.078,45.898,14.160,28.809,51.270,29.785,0
214707.082,38.086,20.020,34.180,46.875,27.832,0
214707.086,42.480,28.320,31.738,41.016,39.551,0
214707.090,41.992,26.855,25.391,41.016,6.836,0
214707.094,41.016,21.484,19.531,50.293,15.137,0
214707.098,42.480,20.020,19.043,47.363,32.715,0
214707.102,42.969,10.742,33.203,42.480,-13.672,0
214707.106,40.039,4.395,41.992,41.016,-34.668,0
214707.109,43.945,7.324,37.598,50.293,26.367,0
214707.113,51.270,25.391,25.879,69.336,47.852,0
214707.117,45.410,35.156,23.438,55.176,35.156,0
214707.121,46.387,20.508,32.227,40.039,34.180,0
214707.125,52.246,23.926,39.551,43.945,21.973,0
214707.129,44.922,31.250,39.551,43.457,24.902,0
214707.133,50.293,24.902,32.227,39.062,25.879,0
214707.137,52.734,21.973,26.367,41.992,0.977,0
214707.141,44.434,27.832,31.738,51.758,-0.977,0
214707.145,52.246,32.715,28.809,55.664,22.949,0
214707.149,65.430,32.715,24.414,61.523,1.465,0
214707.152,72.754,38.086,34.668,61.035,0.977,0
214707.156,56.152,33.203,43.457,46.875,14.648,0
214707.160,41.016,24.414,44.922,38.086,16.602,0
214707.164,46.387,24.414,40.527,41.504,4.395,0
214707.168,43.945,26.855,41.016,38.086,14.648,0
214707.172,45.410,23.926,41.504,41.504,3.906,0
214707.176,53.711,18.555,38.086,47.852,-53.223,0
214707.180,47.852,21.973,37.598,46.387,-47.852,0
214707.184,44.434,20.996,38.574,50.781,-20.020,0
214707.188,44.434,22.461,31.738,57.129,-34.668,0
214707.192,45.410,25.391,27.344,50.781,-46.875,0
214707.195,54.199,22.461,30.273,46.387,-55.176,0
214707.199,44.434,20.020,31.250,42.969,-50.781,0
214707.203,36.133,27.832,37.598,35.645,-27.344,0
214707.207,33.203,33.691,51.758,39.551,-1.953,0
214707.211,32.227,26.367,41.504,42.969,-33.203,0
214707.215,44.434,22.461,34.180,44.922,-58.105,0
214707.219,43.457,21.484,31.250,39.551,-35.156,0
214707.223,36.133,19.531,23.438,35.156,-30.762,0
214707.227,37.598,18.555,29.297,34.668,-21.484,0
214707.231,40.039,15.137,30.762,35.156,-17.090,0
214707.234,34.668,11.230,28.809,40.527,-21.484,0
214707.238,36.133,22.949,27.832,41.016,-45.898,0
214707.242,43.945,40.039,28.809,41.016,-54.199,0
214707.246,37.598,35.645,28.320,47.363,-31.250,0
214707.250,29.297,29.785,30.273,49.805,-35.156,0
214707.254,26.367,35.645,36.621,27.344,-55.664,0
214707.258,31.738,34.668,41.992,26.367,-37.109,0
214707.262,39.062,28.320,38.574,37.109,-18.066,0
214707.266,23.438,26.367,38.086,32.715,-31.250,0
214707.270,28.320,35.645,30.273,39.062,-17.578,0
214707.274,39.062,35.645,24.902,44.434,-20.996,0
214707.277,26.367,20.020,35.156,29.785,-27.344,0
214707.281,30.762,18.066,35.645,35.645,-69.336,0
214707.285,36.133,25.879,36.621,40.039,-114.258,0
214707.289,36.133,30.273,40.039,48.340,-65.430,0
214707.293,49.316,24.902,41.992,54.199,-62.012,0
214707.297,59.082,18.555,45.898,50.781,-38.574,0
214707.301,53.711,27.832,41.504,52.734,-11.719,0
214707.305,56.152,34.180,38.574,60.547,-24.902,0
214707.309,60.547,39.062,42.969,58.594,-26.367,0
214707.313,56.641,35.156,50.293,42.969,-36.621,0
214707.317,60.059,30.762,52.246,33.203,-55.664,0
214707.320,56.152,41.016,55.664,19.043,-68.359,0
214707.324,51.758,44.922,53.711,25.391,-65.430,0
214707.328,59.082,42.969,46.387,37.109,-59.570,0
214707.332,60.547,32.715,43.457,34.180,-79.590,0
214707.336,59.082,24.902,50.781,33.691,-61.035,0
214707.340,50.781,31.250,53.711,31.250,-57.129,0
214707.344,46.875,40.527,49.805,39.551,-70.801,0
214707.348,48.828,44.434,49.805,41.016,-35.645,0
214707.352,39.551,36.133,51.758,34.180,-37.598,0
214707.356,36.621,26.367,48.828,30.273,-48.828,0
214707.359,32.715,23.438,38.086,27.832,-54.688,0
214707.363,27.832,25.391,33.691,32.227,-62.988,0
214707.367,32.227,34.668,42.480,35.156,-62.500,0
214707.371,40.527,37.598,42.480,31.250,-65.918,0
214707.375,46.387,31.738,40.039,40.527,-99.609,0
214707.379,43.457,21.973,36.621,38.574,-82.520,0
214707.383,41.016,23.438,31.250,35.645,-42.969,0
214707.387,43.945,39.551,43.945,34.180,-48.828,0
214707.391,43.945,42.480,57.129,29.785,-60.059,0
214707.395,38.574,37.598,60.547,34.180,-22.461,0
214707.399,30.762,39.062,50.781,36.621,-27.344,0
214707.402,44.922,44.922,34.668,38.086,-91.309,0
214707.406,47.852,35.156,36.133,38.086,-94.727,0
214707.410,35.645,15.625,40.039,35.645,-41.504,0
214707.414,34.180,13.672,39.062,38.574,-28.320,0
214707.418,37.598,21.973,40.039,44.922,-50.781,0
214707.422,38.574,28.809,37.109,47.363,-75.195,0
214707.426,38.086,30.762,40.039,47.852,-66.406,0
214707.430,41.504,34.668,43.945,45.898,-10.254,0
214707.434,44.434,34.668,39.062,35.645,-43.457,1
214707.438,52.734,31.738,41.016,37.598,-79.102,0
214707.442,49.316,33.203,51.758,43.945,-33.203,0
214707.445,40.039,36.621,49.316,46.387,-15.137,0
214707.449,46.875,40.039,39.551,50.293,-27.344,0
214707.453,56.152,31.250,35.156,44.434,-7.324,0
214707.457,55.664,17.090,39.551,46.875,6.836,0
214707.461,51.270,24.414,45.410,35.156,0.000,0
214707.465,48.828,44.434,41.016,30.273,13.672,0
214707.469,51.758,47.363,36.621,48.340,45.898,0
214707.473,55.664,37.598,43.457,56.152,67.383,0
214707.477,55.176,38.574,42.480,53.223,31.738,0
214707.481,57.129,44.434,41.992,51.270,0.488,0
214707.484,51.270,45.898,49.316,50.781,17.090,0
214707.488,43.457,35.156,45.410,53.711,10.742,0
214707.492,50.781,28.320,42.969,65.918,4.883,0
214707.496,57.129,42.969,53.711,63.477,27.344,0
214707.500,49.316,46.875,54.688,47.852,30.273,0
214707.504,46.875,43.945,49.805,44.922,15.137,0
214707.508,54.688,41.992,37.598,51.758,4.883,0
214707.512,49.316,37.109,36.133,42.969,28.809,0
214707.516,32.227,28.320,46.875,32.227,38.574,0
214707.520,34.180,30.762,46.875,30.273,12.207,0
214707.524,41.504,38.574,39.062,32.715,-34.180,0
214707.527,39.551,41.016,35.156,40.527,-44.922,0
214707.531,37.109,40.527,39.062,42.969,16.602,0
214707.535,28.809,30.762,35.645,37.598,21.973,0
214707.539,31.250,27.344,27.344,33.691,16.113,0
214707.543,33.203,38.574,31.738,38.086,23.438,0
214707.547,31.250,44.434,33.691,45.410,34.668,0
214707.551,30.762,35.156,23.438,33.691,34.668,0
214707.555,27.344,32.715,25.391,24.414,29.785,0
214707.559,28.809,37.109,28.809,30.762,14.160,0
214707.563,28.809,33.691,31.250,28.320,-41.992,0
214707.567,30.273,33.691,29.297,23.926,-82.520,0
214707.570,34.180,25.879,23.438,23.438,-60.547,0
214707.574,30.273,26.367,30.762,31.250,6.836,0
214707.578,31.250,34.668,34.180,40.527,30.762,0
214707.582,44.922,30.762,37.109,47.852,15.625,0
214707.586,45.898,29.297,39.551,46.387,15.625,0
214707.590,38.574,33.691,39.062,39.551,18.555,0
214707.594,33.203,32.227,40.039,36.621,6.836,0
214707.598,35.156,26.367,37.598,40.527,-13.184,0
214707.602,42.969,27.344,38.086,40.527,-25.391,0
214707.606,46.875,24.902,36.133,38.574,-8.301,0
214707.609,42.480,17.578,35.156,44.434,18.066,0
214707.613,36.621,25.391,33.691,45.410,-0.488,0
214707.617,42.969,39.551,32.227,50.293,-5.859,0
214707.621,51.270,36.133,36.621,53.223,27.344,0
214707.625,51.758,34.180,39.062,51.270,53.223,0
214707.629,48.340,38.086,38.086,51.270,48.828,0
214707.633,41.504,28.320,43.457,49.805,69.336,0
214707.637,40.527,24.414,50.781,53.223,82.031,0
214707.641,41.504,40.039,46.387,49.316,65.918,0
214707.645,36.133,40.039,30.762,31.250,76.660,0
214707.649,40.527,32.715,26.367,37.109,82.520,0
214707.652,45.410,34.180,34.668,41.504,41.504,0
214707.656,36.621,35.156,42.480,35.645,-4.395,0
214707.660,29.297,41.992,44.922,42.480,1.953,0
214707.664,28.320,39.062,46.875,37.598,57.617,0
214707.668,23.438,30.762,45.898,28.320,64.453,0
214707.672,23.926,43.457,41.504,29.297,47.852,0
214707.676,35.156,51.758,36.621,30.273,46.387,0
214707.680,28.320,40.527,27.832,32.227,59.570,0
214707.684,23.438,28.320,33.203,31.738,24.414,0
214707.688,32.715,31.738,31.738,33.691,-2.441,0
214707.692,33.691,40.039,15.137,38.574,-8.301,0
214707.695,27.832,44.434,27.344,28.320,10.254,0
214707.699,25.391,39.062,45.898,27.344,35.645,0
214707.703,26.855,29.297,36.133,16.602,7.812,0
214707.707,23.438,26.367,29.785,10.254,27.344,0
214707.711,15.625,25.879,30.273,22.461,33.691,0
214707.715,10.742,33.691,29.297,10.254,6.836,0
214707.719,8.789,34.180,36.621,8.301,14.648,0
214707.723,7.324,26.855,35.645,19.531,37.598,0
214707.727,13.184,27.344,23.926,27.344,83.496,0
214707.731,20.020,17.578,22.461,29.785,52.246,0
214707.734,20.508,5.859,27.832,21.973,2.930,0
214707.738,17.090,16.602,34.668,10.254,24.414,0
214707.742,7.812,30.273,37.109,6.836,23.926,0
214707.746,5.859,36.133,40.039,10.742,-7.324,0
214707.750,10.254,35.645,39.062,14.160,7.812,0
214707.754,11.230,29.297,27.832,18.066,28.809,0
214707.758,16.602,23.438,25.879,14.648,17.090,0
214707.762,21.484,20.020,25.391,16.602,29.785,0
214707.766,25.879,23.926,23.926,27.832,22.461,0
214707.770,24.414,26.855,31.250,20.996,18.066,0
214707.774,15.137,19.043,37.598,13.672,33.691,0
214707.777,20.996,16.113,30.762,20.020,55.176,0
214707.781,30.762,23.926,26.855,25.879,66.406,0
214707.785,27.832,28.320,25.879,30.762,81.055,0
214707.789,27.344,20.508,18.066,27.344,79.590,0
214707.793,31.738,12.695,22.461,17.090,30.762,0
214707.797,33.203,14.648,34.668,18.555,18.066,0
214707.801,31.738,14.648,37.598,30.762,36.621,0
214707.805,32.227,23.926,27.344,34.180,19.043,0
214707.809,41.016,34.668,20.020,23.926,-27.832,0
214707.813,45.410,32.715,22.949,27.832,-15.625,0
214707.817,34.668,37.598,26.855,39.062,37.109,0
214707.820,30.762,39.062,32.227,39.062,61.035,0
214707.824,29.785,22.949,33.691,32.715,34.668,0
214707.828,25.879,21.973,28.320,21.973,21.484,0
214707.832,26.367,40.527,28.320,26.367,42.480,0
214707.836,27.832,39.551,30.273,28.320,15.137,0
214707.840,23.926,34.180,28.809,12.695,-9.277,0
214707.844,12.207,31.250,25.879,5.371,28.809,0
214707.848,15.625,31.738,22.949,11.230,75.195,0
214707.852,18.066,33.203,20.508,7.812,43.457,0
214707.856,16.602,27.344,23.438,4.883,-14.648,0
214707.859,23.926,27.832,23.926,16.113,22.461,0
214707.863,32.715,32.715,6.836,22.949,61.523,0
214707.867,33.203,25.391,11.719,16.113,57.617,0
214707.871,24.414,17.090,35.645,17.090,41.504,0
214707.875,20.508,26.367,36.133,30.273,53.223,0
214707.879,32.715,37.109,25.879,38.574,20.508,0
214707.883,38.574,30.273,22.949,31.738,-1.953,0
214707.887,27.832,21.973,26.367,23.926,-0.977,0
214707.891,27.344,20.020,35.156,30.273,6.348,0
214707.895,24.902,17.090,31.738,37.109,24.902,0
214707.899,29.785,22.949,15.625,40.527,18.555,0
214707.902,29.297,35.645,16.602,36.133,26.367,0
214707.906,20.996,27.832,20.020,23.438,1.465,0
214707.910,24.414,20.508,28.320,25.879,-19.043,0
214707.914,21.973,33.691,47.852,30.762,28.809,0
214707.918,14.648,37.598,44.922,19.531,70.801,0
214707.922,13.184,26.855,36.621,23.438,58.105,0
214707.926,20.020,27.344,39.062,37.109,38.574,0
214707.930,23.926,32.715,33.691,28.809,17.090,0
214707.934,17.090,29.785,22.949,20.996,-21.484,0
214707.938,20.996,35.156,20.020,26.367,-2.930,0
214707.942,34.668,38.574,19.531,33.691,9.766,0
214707.945,32.227,29.297,28.320,28.809,-25.391,0
214707.949,37.109,25.879,44.434,32.715,-25.391,0
214707.953,41.016,24.902,46.387,42.480,-12.695,0
214707.957,28.809,20.508,34.180,30.273,-12.207,0
214707.961,32.715,25.879,42.480,31.250,2.930,0
214707.965,47.852,28.809,45.410,36.621,31.250,0
214707.969,52.246,23.438,38.574,35.645,-7.324,0
214707.973,47.363,24.902,37.109,37.109,-48.340,0
214707.977,41.016,36.133,25.879,30.273,-32.227,0
214707.981,46.387,46.875,29.297,33.691,-12.207,0
214707.984,43.457,49.805,37.109,37.598,-31.250,0
214707.988,34.668,41.016,25.391,24.414,-75.684,0
214707.992,32.227,31.738,20.996,19.043,-38.086,0
214707.996,34.180,23.926,32.227,20.020,19.531,0
214708.000,29.297,21.484,34.180,19.043,36.621,0
214708.004,24.902,26.855,30.273,22.949,17.090,0
214708.008,20.996,27.344,34.668,22.461,26.367,0
214708.012,18.555,28.809,34.180,18.066,21.973,0
214708.016,21.484,36.621,29.785,23.438,8.789,0
214708.020,21.484,31.738,20.020,32.227,40.039,0
214708.024,27.832,26.855,17.090,28.809,38.086,0
214708.027,34.180,32.715,23.926,29.785,2.441,0
214708.031,32.715,28.320,27.832,26.367,-46.875,0
214708.035,28.809,15.137,33.203,8.301,-78.125,0
214708.039,31.250,20.996,35.156,20.508,-55.664,0
214708.043,28.320,34.180,32.715,40.527,-19.531,0
214708.047,17.578,31.250,32.227,27.344,-19.043,0
214708.051,16.602,26.367,28.320,25.391,-6.836,0
214708.055,27.344,28.320,22.461,36.621,38.574,0
214708.059,42.480,33.691,33.691,38.574,46.875,0
214708.063,46.387,28.320,31.738,38.086,19.043,0
214708.067,46.387,20.996,18.066,37.598,34.180,0
214708.070,49.316,27.832,26.367,36.621,23.438,0
214708.074,43.457,32.227,33.203,35.645,10.742,0
214708.078,25.879,30.273,27.344,19.043,32.227,0
214708.082,27.832,34.180,27.832,13.672,10.742,0
214708.086,26.855,32.715,32.227,15.625,39.551,0
214708.090,12.695,30.273,31.738,10.254,78.613,1
214708.094,13.672,34.668,29.785,15.137,49.316,0
214708.098,14.160,42.480,27.832,13.672,18.066,0
214708.102,11.230,44.922,30.273,7.324,57.129,0
214708.106,20.508,42.969,28.320,12.695,89.844,0
214708.109,25.391,40.527,19.531,15.137,71.777,0
214708.113,17.578,35.645,24.902,10.742,68.359,0
214708.117,11.230,28.809,26.855,12.695,71.289,0
214708.121,13.672,30.273,22.461,11.230,24.902,0
214708.125,21.484,21.484,28.320,4.883,-0.488,0
214708.129,17.090,9.766,28.809,7.324,42.969,0
214708.133,21.484,18.066,17.578,13.184,91.309,0
214708.137,21.484,28.320,18.555,13.672,86.914,0
214708.141,19.043,41.504,29.297,15.137,98.633,0
214708.145,20.020,46.875,25.879,13.184,88.379,0
214708.149,24.414,47.363,19.531,20.996,51.270,0
214708.152,29.785,45.410,27.344,28.320,76.172,0
214708.156,27.344,32.227,35.645,25.391,89.844,0
214708.160,26.855,25.879,31.738,24.902,71.777,0
214708.164,17.578,24.902,23.438,17.578,87.891,0
214708.168,13.184,22.461,27.344,22.461,68.359,0
214708.172,24.902,21.484,23.438,32.715,29.297,0
214708.176,22.949,21.484,15.625,33.203,39.062,0
214708.180,17.578,33.691,25.879,38.086,44.434,0
214708.184,18.555,40.527,35.645,33.691,-2.441,0
214708.188,16.602,30.762,38.574,28.809,-20.996,0
214708.192,17.578,25.879,37.109,30.273,50.293,0
214708.195,20.020,31.738,31.250,31.250,56.641,0
214708.199,18.066,41.016,25.391,39.062,48.828,0
214708.203,14.160,31.250,28.320,33.691,102.051,0
214708.207,17.578,12.207,29.785,27.832,99.609,0
214708.211,18.066,19.043,32.715,28.809,28.809,0
214708.215,16.602,28.809,34.668,21.484,7.812,0
214708.219,23.926,39.551,27.832,19.043,41.016,0
214708.223,41.016,47.363,35.156,31.738,56.641,0
214708.227,42.969,46.875,35.156,43.945,73.730,0
214708.231,38.086,37.109,27.344,29.297,25.391,0
214708.234,46.387,18.555,26.855,24.414,5.859,0
214708.238,61.523,23.438,34.180,34.180,25.391,0
214708.242,76.660,41.016,34.668,33.691,57.129,0
214708.246,43.457,41.504,34.180,37.598,70.312,0
214708.250,6.348,30.762,43.945,50.293,48.340,0
214708.254,13.672,29.297,39.062,56.152,42.480,0
214708.258,18.555,35.156,24.414,45.410,42.480,0
214708.262,22.461,36.621,15.137,45.410,71.777,0
214708.266,25.879,40.527,21.484,44.922,53.711,0
214708.270,35.156,47.852,37.109,50.293,2.930,0
214708.274,43.945,50.293,42.480,49.316,-3.906,0
214708.277,37.598,40.039,41.504,35.645,1.465,0
214708.281,36.621,24.902,40.527,40.039,30.273,0
214708.285,36.621,32.715,31.738,44.434,37.109,0
214708.289,34.180,43.945,31.738,44.434,46.875,0
214708.293,37.109,38.574,34.180,43.945,59.082,0
214708.297,36.133,30.273,27.344,33.203,39.551,0
214708.301,43.457,30.762,23.926,35.645,44.922,0
214708.305,46.387,42.480,29.297,43.945,53.223,0
214708.309,41.504,41.992,36.133,39.062,14.648,0
214708.313,38.574,35.156,43.945,37.598,26.367,0
214708.317,38.574,31.738,33.691,33.203,56.152,0
214708.320,44.434,31.250,29.785,37.598,32.715,0
214708.324,51.758,35.645,39.062,45.410,40.527,0
214708.328,38.574,36.133,35.156,43.457,40.527,0
214708.332,36.621,31.250,35.156,35.645,50.293,0
214708.336,49.805,25.391,33.203,34.180,37.598,0
214708.340,49.805,30.273,27.344,48.340,20.996,0
214708.344,45.410,35.156,34.180,55.664,68.848,0
214708.348,42.969,36.133,41.992,55.176,92.773,0
214708.352,47.852,31.250,44.434,48.828,46.387,0
214708.356,41.992,27.832,45.898,32.227,24.414,0
214708.359,33.203,30.273,43.945,28.809,23.926,0
214708.363,32.227,31.738,36.621,32.715,9.277,0
214708.367,32.227,35.645,34.668,30.762,23.926,0
214708.371,37.109,33.203,40.039,41.504,40.039,0
214708.375,43.945,25.879,32.227,56.641,45.410,0
214708.379,44.434,25.391,20.996,45.410,33.203,0
214708.383,38.574,34.180,27.344,29.785,24.902,0
214708.387,29.297,30.762,39.062,31.250,20.508,0
214708.391,18.555,16.602,39.062,24.902,30.273,0
214708.395,22.461,21.484,33.203,29.785,45.898,0
214708.399,23.926,24.902,36.621,33.691,28.809,0
214708.402,25.879,22.461,37.109,29.785,16.602,0
214708.406,28.809,26.367,30.762,30.762,0.977,0
214708.410,28.809,20.996,32.715,29.785,-14.160,0
214708.414,38.574,17.578,35.156,34.180,37.109,0
214708.418,41.992,21.973,27.344,44.434,67.871,0
214708.422,41.992,23.926,23.438,49.316,37.109,0
214708.426,51.758,36.133,22.949,51.758,5.371,0
214708.430,50.293,49.316,21.973,53.223,7.324,0
214708.434,45.898,43.945,36.621,42.969,34.180,0
214708.438,46.387,37.598,39.062,33.203,61.523,0
214708.442,43.457,44.922,28.320,34.668,20.508,0
214708.445,41.504,41.016,31.738,35.645,-31.738,0
214708.449,33.691,30.762,41.016,36.621,-24.902,0
214708.453,31.738,41.016,37.109,30.273,-27.832,0
214708.457,41.016,41.992,30.762,38.086,-9.277,0
214708.461,48.828,23.438,32.715,48.828,15.625,0
214708.465,42.480,28.320,37.109,39.551,10.742,0
214708.469,39.062,50.293,35.645,38.086,32.227,0
214708.473,40.527,56.152,30.762,42.480,11.719,0
214708.477,39.062,47.363,21.484,34.668,17.090,0
214708.481,37.109,42.969,27.832,32.227,78.125,0
214708.484,36.133,40.527,31.738,17.578,49.805,0
214708.488,36.133,41.504,17.578,17.090,20.020,0
214708.492,36.621,41.504,23.438,37.598,33.203,0
214708.496,27.832,33.203,23.926,32.715,20.020,0
214708.500,19.531,29.297,24.902,24.902,-4.395,0
214708.504,25.391,25.391,41.016,20.996,19.043,0
214708.508,29.785,28.320,37.109,22.949,29.785,0
214708.512,28.809,31.250,33.691,30.273,24.902,0
214708.516,29.785,34.180,38.086,34.668,22.461,0
214708.520,29.297,37.598,34.668,33.691,-5.371,0
214708.524,27.832,36.621,37.109,33.203,-2.441,0
214708.527,24.902,33.691,34.180,35.156,-16.602,0
214708.531,18.066,23.926,22.461,29.297,-42.969,0
214708.535,18.555,21.973,18.555,25.879,-17.578,0
214708.539,20.996,19.043,17.090,17.090,5.371,0
214708.543,18.066,22.461,18.555,19.043,-9.277,0
214708.547,25.391,10.742,25.391,28.809,-19.043,0
214708.551,24.414,-0.977,29.785,27.344,42.969,0
214708.555,23.926,26.367,34.668,30.762,35.156,0
214708.559,32.227,41.992,34.180,32.227,-24.902,0
214708.563,29.297,41.016,34.180,27.832,2.930,0
214708.567,34.180,36.133,37.109,33.691,50.293,0
214708.570,35.156,32.715,29.297,41.992,26.367,0
214708.574,33.203,42.480,26.855,37.598,1.953,0
214708.578,38.574,46.387,30.762,36.621,30.762,0
214708.582,35.645,36.133,22.949,32.715,33.691,0
214708.586,30.762,37.109,18.555,23.438,23.926,0
214708.590,34.668,44.434,23.438,26.367,43.457,0
214708.594,33.203,38.574,27.344,26.367,78.613,0
214708.598,23.926,35.645,29.785,22.461,88.379,0
214708.602,32.227,43.945,31.738,22.461,72.266,0
214708.606,42.969,42.969,30.762,28.809,41.504,0
214708.609,46.875,42.969,29.297,42.480,68.359,0
214708.613,47.363,46.875,34.668,44.922,50.293,0
214708.617,42.480,46.875,41.504,41.016,-10.742,0
214708.621,45.898,40.527,41.504,41.992,20.508,0
214708.625,41.504,34.180,25.879,40.039,17.578,0
214708.629,32.227,33.203,14.648,30.762,13.184,0
214708.633,30.273,34.180,26.855,24.414,24.902,0
214708.637,29.785,36.621,35.645,22.461,22.461,0
214708.641,27.832,33.691,33.691,26.855,55.664,0
214708.645,32.715,26.855,27.832,31.250,46.387,0
214708.649,38.086,24.414,19.043,34.180,17.578,0
214708.652,36.621,27.344,30.273,37.598,44.434,1
214708.656,32.715,27.344,39.062,33.203,88.379,0
214708.660,29.785,26.855,38.086,28.320,67.383,0
214708.664,33.691,28.809,44.922,28.320,42.480,0
214708.668,34.180,30.762,37.598,23.438,63.477,0
214708.672,28.809,41.504,21.484,25.879,71.777,0
214708.676,23.438,39.551,22.461,28.809,50.781,0
214708.680,17.578,30.762,32.715,16.602,31.250,0
214708.684,10.742,23.926,27.832,6.348,55.664,0
214708.688,12.207,16.602,25.879,9.766,94.238,0
214708.692,17.578,17.578,32.227,14.648,61.523,0
214708.695,16.602,17.578,33.691,16.602,-10.742,0
214708.699,12.207,18.066,30.762,15.137,8.301,0
214708.703,8.789,18.066,25.879,18.555,85.938,0
214708.707,12.695,15.137,29.785,23.438,92.773,0
214708.711,17.090,25.879,30.273,26.367,31.738,0
214708.715,29.297,38.574,29.785,43.945,15.625,0
214708.719,47.363,44.434,35.645,60.059,52.246,0
214708.723,39.062,35.645,34.180,39.551,21.484,0
214708.727,13.672,22.461,26.367,12.207,1.465,0
214708.731,16.113,21.973,27.832,15.137,36.133,0
214708.734,27.832,22.949,27.832,19.043,23.926,0
214708.738,25.391,26.367,23.926,12.207,-8.789,0
214708.742,23.926,29.785,36.133,16.113,-18.555,0
214708.746,29.785,30.762,39.551,26.367,-10.742,0
214708.750,40.039,34.180,27.832,34.180,20.508,0
214708.754,45.410,36.133,26.367,40.527,41.504,0
214708.758,42.480,35.645,40.527,33.203,2.930,0
214708.762,47.852,33.203,44.434,35.156,-21.484,0
214708.766,48.828,35.156,33.691,35.645,4.395,0
214708.770,32.227,32.715,26.855,22.949,12.695,0
214708.774,32.227,26.367,26.855,20.020,21.973,0
214708.777,30.762,29.297,25.879,18.555,39.062,0
214708.781,31.250,36.133,22.461,22.949,1.465,0
214708.785,46.387,47.363,17.090,37.109,-20.996,0
214708.789,46.875,49.316,21.973,42.480,43.457,0
214708.793,36.621,41.504,34.180,39.062,87.402,0
214708.797,35.156,38.086,40.527,37.109,85.449,0
214708.801,31.738,33.691,32.715,36.133,82.031,0
214708.805,34.668,31.250,29.785,46.387,78.125,0
214708.809,40.527,25.879,39.551,52.734,69.336,0
214708.813,32.227,14.160,36.621,38.574,72.754,0
214708.817,27.832,16.113,27.344,27.344,69.824,0
214708.820,28.320,20.020,31.250,33.203,58.105,0
214708.824,26.855,20.996,34.180,33.691,65.430,0
214708.828,22.461,20.996,34.180,26.367,52.246,0
214708.832,24.414,24.414,36.621,33.691,42.969,0
214708.836,25.879,29.785,30.762,39.062,45.410,0
214708.840,24.414,28.809,30.273,32.715,36.133,0
214708.844,21.973,22.461,37.598,27.832,17.578,0
214708.848,21.484,17.578,40.039,26.367,49.316,0
214708.852,27.832,17.578,39.062,30.273,93.750,0
214708.856,28.809,25.391,41.504,41.016,84.961,0
214708.859,28.809,31.250,40.527,44.434,50.781,0
214708.863,22.949,23.438,34.668,26.367,55.664,0
214708.867,16.602,21.973,29.297,22.949,56.641,0
214708.871,20.996,27.344,25.391,25.879,37.109,0
214708.875,37.109,20.508,24.902,28.320,21.484,0
214708.879,49.805,23.438,30.273,46.875,51.758,0
214708.883,39.551,35.645,34.180,41.992,81.543,0
214708.887,21.973,29.785,30.273,19.043,37.598,0
214708.891,26.855,19.531,29.785,20.996,7.812,0
214708.895,33.203,21.484,31.250,28.809,31.250,0
214708.899,30.762,34.668,30.762,29.297,35.156,0
214708.902,36.133,36.621,35.156,30.762,20.508,0
214708.906,36.133,32.227,29.785,26.367,4.883,0
214708.910,31.250,40.039,26.367,27.344,26.855,0
214708.914,41.016,41.504,34.180,36.133,47.852,0
214708.918,45.898,37.598,38.574,43.945,52.734,0
214708.922,40.039,41.992,31.250,42.480,68.359,0
214708.926,41.504,40.527,25.879,35.156,73.242,0
214708.930,41.504,27.832,32.227,32.227,77.637,0
214708.934,40.039,29.297,33.203,27.344,44.434,0
214708.938,41.504,34.180,31.738,23.438,23.438,0
214708.942,29.297,26.855,31.738,32.227,50.781,0
214708.945,24.414,25.879,32.227,36.133,55.664,0
214708.949,34.668,35.156,35.156,32.227,37.598,0
214708.953,28.809,30.273,33.203,26.367,-23.926,0
214708.957,18.555,25.391,29.297,17.578,-18.555,0
214708.961,23.926,35.645,29.785,20.508,22.949,0
214708.965,28.320,32.227,35.645,21.484,-12.695,0
214708.969,25.391,31.250,36.621,25.879,-46.875,0
214708.973,27.832,35.156,36.133,31.738,-24.902,0
214708.977,36.133,36.621,39.551,31.738,-16.113,0
214708.981,43.457,37.598,39.551,32.227,-62.500,0
214708.984,41.504,29.785,33.203,33.691,-20.020,0
214708.988,40.527,30.273,35.645,35.156,-1.465,0
214708.992,43.945,32.227,39.062,37.598,-18.555,0
214708.996,42.480,28.320,34.668,38.574,16.113,0
214709.000,38.574,29.785,37.109,39.551,47.852,0
214709.004,41.992,36.133,35.645,43.945,57.129,0
214709.008,43.457,36.621,32.715,39.551,32.715,0
214709.012,38.086,36.133,42.969,29.297,16.113,0
214709.016,33.691,30.762,48.340,32.227,25.879,0
214709.020,31.738,22.461,40.039,40.527,-0.977,0
214709.024,29.297,19.043,46.387,23.926,-19.531,0
214709.027,30.273,20.020,55.176,18.555,19.531,0
214709.031,33.691,27.832,51.270,32.715,33.691,0
214709.035,30.762,35.156,44.922,33.691,21.973,0
214709.039,38.086,36.621,41.016,35.645,3.906,0
214709.043,42.969,35.645,35.156,38.574,14.648,0
214709.047,41.016,40.039,34.668,36.621,3.906,0
214709.051,40.527,37.109,32.227,33.203,9.277,0
214709.055,39.062,35.156,29.785,36.133,4.883,0
214709.059,42.480,42.969,37.598,37.109,-8.789,0
214709.063,40.527,45.898,43.945,28.809,0.000,0
214709.067,37.598,43.457,45.898,26.855,-11.719,0
214709.070,39.062,35.156,41.016,27.344,3.906,0
214709.074,44.434,34.668,33.691,30.762,20.020,0
214709.078,41.504,34.668,34.180,33.203,23.438,0
214709.082,32.227,31.250,28.320,33.203,45.898,0
214709.086,33.691,39.062,25.879,33.691,36.133,0
214709.090,35.156,41.992,34.180,34.180,6.348,0
214709.094,36.133,46.875,38.574,32.715,30.762,0
214709.098,41.016,45.410,36.621,38.574,55.664,0
214709.102,36.133,35.156,29.785,48.340,18.555,0
214709.106,31.738,33.691,28.809,43.945,2.930,0
214709.109,31.738,38.086,25.879,35.156,31.738,0
214709.113,36.621,49.316,17.090,35.156,13.672,0
214709.117,39.551,46.875,22.461,35.156,20.508,0
214709.121,31.738,37.598,41.504,29.785,62.012,0
214709.125,31.250,37.109,48.828,29.297,54.688,0
214709.129,37.598,35.645,46.387,34.668,53.711,0
214709.133,32.227,28.809,37.109,28.809,68.359,0
214709.137,31.738,33.203,33.203,34.180,53.223,0
214709.141,35.645,35.156,31.250,41.504,12.207,0
214709.145,30.762,21.973,25.391,33.203,3.418,0
214709.149,26.855,19.043,23.438,28.809,31.738,0
214709.152,20.508,22.949,24.902,22.461,34.180,0
214709.156,20.996,27.344,28.320,22.461,42.480,0
214709.160,23.926,27.344,34.668,27.832,33.691,0
214709.164,30.273,21.484,40.039,33.203,14.160,0
214709.168,27.832,14.160,37.109,27.344,50.293,0
214709.172,19.531,14.648,39.062,35.645,62.988,0
214709.176,23.926,22.949,39.551,43.945,42.969,0
214709.180,26.367,25.391,33.691,30.762,48.340,0
214709.184,17.090,16.602,32.715,36.133,37.598,0
214709.188,24.902,24.902,27.832,42.969,30.762,0
214709.192,42.480,37.598,22.461,36.133,38.086,0
214709.195,42.480,34.180,33.203,31.250,68.848,0
214709.199,41.016,38.086,40.039,27.832,71.777,0
214709.203,32.227,40.527,27.832,26.855,44.434,0
214709.207,25.879,33.203,17.578,23.926,52.246,0
214709.211,28.320,24.414,20.508,31.250,57.129,0
214709.215,29.785,26.367,26.855,37.598,45.410,0
214709.219,28.320,34.180,28.809,38.086,32.227,0
214709.223,39.062,39.551,26.367,41.504,66.406,0
214709.227,51.758,39.551,27.832,41.992,75.195,0
214709.231,46.387,31.250,40.039,41.016,54.688,1
214709.234,35.645,28.320,44.922,39.062,63.477,0
214709.238,35.645,34.668,42.969,39.062,66.406,0
214709.242,42.969,33.691,31.250,33.203,54.688,0
214709.246,45.410,30.273,20.020,25.879,18.555,0
214709.250,43.457,24.902,22.461,27.832,-18.555,0
214709.254,43.945,30.273,24.902,38.086,4.395,0
214709.258,45.898,41.992,18.555,42.480,14.648,0
214709.262,45.410,44.434,15.625,47.363,24.902,0
214709.266,47.852,40.527,28.320,51.270,34.668,0
214709.270,46.387,33.691,37.109,42.969,37.598,0
214709.274,48.340,34.668,48.828,41.016,53.223,0
214709.277,45.410,33.203,55.176,38.086,59.082,0
214709.281,32.715,22.949,41.504,29.785,42.480,0
214709.285,26.855,18.066,37.598,29.297,22.949,0
214709.289,30.762,25.391,38.086,31.738,32.227,0
214709.293,32.715,36.133,28.809,28.809,30.762,0
214709.297,28.809,41.504,22.461,23.438,30.273,0
214709.301,33.691,49.316,27.344,30.762,2.441,0
214709.305,43.457,55.176,35.156,43.945,35.156,0
214709.309,35.156,34.180,37.598,28.809,24.902,0
214709.313,21.973,20.996,41.992,18.066,10.742,0
214709.317,22.949,27.832,42.969,26.367,52.734,0
214709.320,20.996,20.020,37.598,30.273,51.270,0
214709.324,23.438,18.555,31.738,34.668,-0.488,0
214709.328,24.902,26.855,32.227,29.785,-14.160,0
214709.332,23.438,28.809,38.086,26.367,-20.996,0
214709.336,30.762,33.691,46.387,33.203,-34.668,0
214709.340,35.156,33.203,48.828,31.738,-22.949,0
214709.344,35.156,23.926,31.738,29.297,-9.277,0
214709.348,30.273,22.461,20.996,35.156,15.625,0
214709.352,35.156,26.855,35.156,32.227,-9.766,0
214709.356,34.180,29.785,47.363,22.461,-13.672,0
214709.359,22.461,30.273,45.410,27.344,15.625,0
214709.363,27.832,32.715,42.969,36.621,28.320,0
214709.367,27.832,34.668,38.086,32.715,5.859,0
214709.371,25.879,38.574,35.156,32.715,-9.277,0
214709.375,30.762,32.715,43.945,34.668,6.836,0
214709.379,37.109,30.273,39.062,40.039,21.484,0
214709.383,42.480,33.691,28.320,43.945,4.883,0
214709.387,36.133,25.391,30.762,37.598,6.836,0
214709.391,33.203,27.832,37.109,34.180,26.367,0
214709.395,37.109,34.180,40.039,31.250,51.270,0
214709.399,46.387,31.738,42.969,31.738,68.848,0
214709.402,48.340,30.273,44.922,41.992,74.219,0
214709.406,38.086,37.598,41.016,40.039,77.148,0
214709.410,34.668,35.645,32.227,31.738,52.734,0
214709.414,33.203,29.297,27.344,32.227,45.410,0
214709.418,26.367,31.738,35.156,32.227,67.383,0
214709.422,27.832,36.621,40.527,39.551,53.223,0
214709.426,33.691,38.086,29.785,40.039,28.809,0
214709.430,31.738,35.156,23.926,32.715,52.734,0
214709.434,25.391,34.180,32.715,29.785,79.102,0
214709.438,20.508,37.598,40.039,28.320,74.707,0
214709.442,20.508,33.691,26.367,25.879,71.777,0
214709.445,20.996,30.762,15.137,20.508,31.250,0
214709.449,18.066,25.391,33.203,23.926,30.762,0
214709.453,18.555,20.020,41.992,28.320,24.414,0
214709.457,21.973,27.344,32.227,24.902,-8.301,0
214709.461,30.273,27.344,20.996,25.391,15.625,0
214709.465,28.320,25.391,22.461,29.297,39.551,0
214709.469,23.438,32.715,36.133,24.902,20.996,0
214709.473,27.832,33.203,42.969,16.113,18.555,0
214709.477,23.926,27.344,41.992,14.648,39.062,0
214709.481,20.508,27.832,31.250,20.508,-4.395,0
214709.484,24.902,30.273,29.297,21.484,-26.367,0
214709.488,30.762,32.227,40.039,27.832,-37.109,0
214709.492,34.668,30.273,39.551,33.203,-15.625,0
214709.496,34.180,27.344,34.180,27.832,12.695,0
214709.500,35.156,20.996,25.879,28.809,14.160,0
214709.504,28.809,16.602,14.160,22.949,21.973,0
214709.508,16.113,25.879,30.273,17.090,34.668,0
214709.512,20.996,30.273,48.340,25.879,62.988,0
214709.516,29.297,24.902,48.340,35.645,46.387,0
214709.520,25.391,16.602,44.434,29.785,5.371,0
214709.524,27.832,24.902,37.109,24.902,14.160,0
214709.527,34.180,31.250,32.227,35.156,32.715,0
214709.531,31.250,33.203,26.855,31.738,22.949,0
214709.535,29.785,41.016,25.879,29.785,-28.809,0
214709.539,32.715,41.016,37.598,38.574,-11.230,0
214709.543,34.668,36.133,36.621,37.109,41.504,0
214709.547,29.297,33.203,33.691,27.832,24.414,0
214709.551,25.879,33.203,37.109,23.926,9.766,0
214709.555,33.691,41.992,29.297,32.227,6.836,0
214709.559,38.574,44.434,33.203,35.156,-0.488,0
214709.563,41.016,34.180,42.480,32.227,5.371,0
214709.567,42.480,30.273,39.551,35.645,5.371,0
214709.570,42.969,39.551,33.691,46.875,-1.465,0
214709.574,43.945,39.551,28.320,45.410,7.812,0
214709.578,37.109,28.320,27.832,30.273,8.789,0
214709.582,30.273,28.320,35.645,23.926,22.461,0
214709.586,30.762,34.180,39.062,28.320,70.312,0
214709.590,37.109,34.668,38.086,36.133,68.359,0
214709.594,33.691,31.738,35.156,38.086,30.762,0
214709.598,30.762,31.250,26.367,34.180,50.781,0
214709.602,37.109,31.738,23.438,45.410,76.660,0
214709.606,32.715,27.832,34.180,40.527,66.895,0
214709.609,24.902,13.184,45.410,29.297,46.875,0
214709.613,20.508,20.508,48.340,39.062,61.523,0
214709.617,17.090,41.992,43.945,37.598,63.477,0
214709.621,19.043,43.457,41.504,30.273,30.762,0
214709.625,19.043,32.227,43.457,30.273,-6.836,0
214709.629,13.672,23.926,46.387,29.785,-1.465,0
214709.633,13.672,23.926,44.922,22.949,39.551,0
214709.637,26.367,23.926,42.480,20.996,0.000,0
214709.641,37.598,25.879,41.504,23.438,-29.785,0
214709.645,32.715,29.785,41.016,27.344,-2.441,0
214709.649,36.621,29.785,29.785,33.691,13.184,0
214709.652,53.711,30.762,19.531,34.668,0.488,0
214709.656,48.340,26.855,26.855,30.762,-19.531,0
214709.660,37.598,18.066,36.621,25.391,-11.719,0
214709.664,42.480,17.578,36.133,25.391,3.906,0
214709.668,34.180,17.578,36.621,28.320,-4.883,0
214709.672,20.996,25.879,37.109,35.156,-30.762,0
214709.676,28.320,42.969,27.344,42.480,19.043,0
214709.680,30.273,45.410,25.879,41.992,72.754,0
214709.684,29.785,35.156,34.668,29.785,54.199,0
214709.688,27.832,32.227,31.738,23.438,72.266,0
214709.692,19.531,36.621,32.227,33.203,108.398,0
214709.695,23.926,37.109,31.250,36.621,51.758,0
214709.699,34.180,37.598,26.367,33.691,7.812,0
214709.703,30.762,32.715,22.949,34.180,2.930,0
214709.707,29.785,24.902,30.273,27.832,27.832,0
214709.711,34.668,25.879,33.203,34.668,71.777,0
214709.715,33.691,36.133,36.133,44.922,62.012,0
214709.719,27.832,36.133,37.598,31.738,21.973,0
214709.723,31.250,33.691,26.367,31.250,26.855,0
214709.727,40.039,36.621,19.531,38.086,29.297,0
214709.731,42.480,38.086,34.180,41.992,-3.906,0
214709.734,41.504,34.180,47.363,41.504,-23.438,0
214709.738,47.363,28.809,38.574,39.062,-1.465,0
214709.742,46.875,30.273,37.598,36.133,28.320,0
214709.746,40.039,31.738,36.133,39.551,18.555,0
214709.750,35.645,40.039,32.715,49.316,21.484,0
214709.754,36.621,43.457,28.809,44.434,33.691,0
214709.758,39.062,36.621,18.066,32.715,63.965,0
214709.762,47.363,26.855,30.762,40.039,69.336,0
214709.766,41.504,24.902,48.340,40.039,55.176,0
214709.770,29.297,28.809,45.410,28.809,61.523,1
214709.774,32.715,22.461,38.574,24.902,37.109,0
214709.777,31.738,12.207,38.574,21.973,24.902,0
214709.781,32.227,20.508,45.410,36.133,49.805,0
214709.785,35.156,45.898,45.898,50.781,19.043,0
214709.789,45.410,49.316,41.504,45.410,2.930,0
214709.793,45.410,33.691,38.086,35.156,26.367,0
214709.797,41.504,32.715,33.691,43.457,22.949,0
214709.801,39.062,36.621,32.227,42.969,27.344,0
214709.805,36.133,35.156,38.574,34.180,31.738,0
214709.809,41.016,30.762,42.480,38.086,19.043,0
214709.813,41.504,26.855,44.922,42.480,9.277,0
214709.817,39.062,28.809,44.434,36.621,12.207,0
214709.820,44.922,34.668,45.410,35.156,10.254,0
214709.824,41.504,34.668,52.734,42.969,23.926,0
214709.828,40.527,32.227,48.828,46.387,11.719,0
214709.832,40.527,26.855,33.691,47.363,-7.324,0
214709.836,31.738,22.461,26.367,35.156,2.930,0
214709.840,41.016,28.809,35.645,27.832,32.227,0
214709.844,46.387,37.598,41.504,30.273,61.523,0
214709.848,40.527,34.668,36.621,24.414,53.711,0
214709.852,39.551,27.344,34.668,21.484,65.918,0
214709.856,41.016,31.250,34.180,27.344,86.426,0
214709.859,48.828,36.621,32.715,37.598,66.406,0
214709.863,44.922,41.992,34.668,37.598,55.664,0
214709.867,28.809,46.875,34.180,32.715,5.859,0
214709.871,24.902,43.457,30.762,31.250,23.438,0
214709.875,32.227,42.969,31.250,34.180,56.641,0
214709.879,32.227,41.504,36.133,29.785,44.434,0
214709.883,34.668,39.551,41.016,32.715,75.195,0
214709.887,44.922,36.133,44.434,36.621,78.125,0
214709.891,42.480,30.273,42.480,41.504,60.547,0
214709.895,34.180,37.109,30.762,44.434,49.805,0
214709.899,33.691,42.480,22.949,41.992,58.594,0
214709.902,29.297,30.762,19.531,47.852,61.523,0
214709.906,29.785,28.320,27.344,41.992,69.824,0
214709.910,26.855,38.574,31.738,28.320,43.945,0
214709.914,22.461,36.621,31.738,34.180,41.016,0
214709.918,21.973,35.156,29.785,33.203,61.035,0
214709.922,24.414,31.738,30.273,25.879,30.762,0
214709.926,29.297,30.762,43.945,31.738,20.508,0
214709.930,31.738,36.133,43.945,30.762,66.406,0
214709.934,30.762,32.715,36.621,25.879,56.152,0
214709.938,28.320,21.973,29.785,35.645,35.156,0
214709.942,34.668,23.926,30.762,41.016,35.645,0
214709.945,39.062,35.156,34.668,30.762,37.598,0
214709.949,37.109,40.527,32.715,29.297,53.223,0
214709.953,29.297,37.109,26.367,20.508,28.809,0
214709.957,28.320,36.621,25.879,15.137,3.906,0
214709.961,29.785,33.691,30.762,20.508,46.875,0
214709.965,23.926,23.438,29.785,19.043,54.688,0
214709.969,19.531,30.762,29.785,18.555,26.367,0
214709.973,18.555,40.039,38.086,18.066,47.852,0
214709.977,24.902,35.645,36.621,22.949,18.066,0
214709.981,27.832,26.367,37.598,28.809,-15.625,0
214709.984,23.926,28.809,36.621,23.438,-3.418,0
214709.988,31.250,35.156,32.227,26.855,7.324,0
214709.992,33.691,32.227,26.855,33.203,36.621,0
214709.996,25.879,33.691,21.973,30.273,-7.812,0
214710.000,33.203,37.109,29.785,27.344,-44.922,0
214710.004,34.180,30.762,42.480,25.391,14.648,0
214710.008,29.785,29.785,37.109,31.250,45.898,0
214710.012,24.414,33.203,32.227,28.809,33.203,0
214710.016,23.438,32.715,37.109,22.461,32.715,0
214710.020,30.762,32.715,33.203,29.785,6.348,0
214710.024,32.715,28.320,27.832,29.297,-41.504,0
214710.027,31.738,22.949,22.949,17.578,-13.184,0
214710.031,36.621,27.344,24.414,20.020,30.762,0
214710.035,41.992,36.621,30.762,29.785,-8.789,0
214710.039,38.574,36.133,39.551,31.738,-35.645,0
214710.043,39.062,37.109,40.527,28.320,-28.320,0
214710.047,37.598,41.504,38.574,25.879,-26.855,0
214710.051,32.227,30.273,37.598,27.344,-6.836,0
214710.055,39.551,27.832,32.715,34.668,33.691,0
214710.059,39.551,34.668,30.273,26.367,15.625,0
214710.063,35.645,34.668,37.598,20.020,-8.789,0
214710.067,36.133,23.438,40.039,27.344,32.715,0
214710.070,28.809,18.555,31.738,30.273,59.082,0
214710.074,28.809,27.832,22.949,27.832,42.969,0
214710.078,37.109,17.578,23.926,31.738,39.551,0
214710.082,38.086,15.625,28.320,36.621,18.555,0
214710.086,33.691,31.250,36.621,36.621,3.418,0
214710.090,30.762,37.109,48.828,34.180,33.691,0
214710.094,30.273,42.969,44.922,36.621,42.969,0
214710.098,26.855,41.992,36.133,35.156,32.227,0
214710.102,24.902,35.156,30.273,28.809,49.316,0
214710.106,23.926,31.250,35.156,21.973,57.129,0
214710.109,22.461,31.738,43.457,26.855,49.316,0
214710.113,23.926,32.715,39.062,34.180,-0.488,0
214710.117,20.508,21.973,37.109,23.438,-36.621,0
214710.121,22.949,23.438,41.016,19.531,-7.324,0
214710.125,29.297,33.691,33.691,33.691,14.648,0
214710.129,29.297,32.715,25.879,31.738,20.020,0
214710.133,28.809,28.320,32.715,27.344,8.301,0
214710.137,23.926,21.484,44.434,23.438,1.953,0
214710.141,21.484,16.602,42.480,22.949,35.645,0
214710.145,27.344,26.367,31.250,27.344,39.062,0
214710.149,27.344,35.645,29.785,25.879,3.906,0
214710.152,25.879,36.621,36.621,23.926,-23.438,0
214710.156,25.879,41.016,41.016,27.832,16.113,0
214710.160,28.320,41.992,37.109,41.016,24.414,0
214710.164,35.645,37.598,29.785,43.945,-7.812,0
214710.168,34.180,30.273,24.902,32.715,-21.484,0
214710.172,31.738,20.508,30.273,33.691,-20.996,0
214710.176,35.645,16.113,40.527,40.039,-21.973,0
214710.180,35.645,20.020,34.668,30.762,-0.488,0
214710.184,37.598,32.715,34.668,39.551,37.109,0
214710.188,37.598,31.250,46.875,46.387,49.805,0
214710.192,36.621,27.344,46.387,27.832,42.480,0
214710.195,35.156,46.875,43.945,20.508,39.062,0
214710.199,34.180,63.477,41.992,31.738,73.730,0
214710.203,35.156,55.176,39.551,34.668,83.984,0
214710.207,26.367,39.062,29.297,26.367,57.129,0
214710.211,18.555,35.645,19.043,26.367,3.418,0
214710.215,19.043,35.156,28.809,21.484,16.113,0
214710.219,31.738,32.227,42.969,20.996,43.945,0
214710.223,39.062,28.809,41.016,26.367,38.574,0
214710.227,47.363,27.344,42.969,36.133,47.852,0
214710.231,57.617,27.344,42.480,38.574,41.504,0
214710.234,54.688,33.203,31.250,47.363,46.387,0
214710.238,48.340,38.086,34.668,41.016,15.137,0
214710.242,32.715,35.645,46.387,16.602,12.207,0
214710.246,30.762,30.762,42.480,22.461,35.645,0
214710.250,40.039,36.621,35.645,33.691,15.625,0
214710.254,37.598,40.527,38.574,33.691,14.160,0
214710.258,28.809,29.297,42.480,33.691,16.113,0
214710.262,18.555,28.320,31.250,35.156,9.277,0
214710.266,19.531,29.785,24.414,24.902,49.805,0
214710.270,22.949,32.715,33.203,22.949,63.965,0
214710.274,20.020,34.668,38.574,31.738,61.523,0
214710.277,23.438,29.785,45.410,35.156,100.098,0
214710.281,24.414,28.809,38.574,25.879,57.129,0
214710.285,25.879,32.715,30.762,23.438,11.719,0
214710.289,32.715,28.809,41.504,35.156,75.684,0
214710.293,30.762,16.113,43.457,32.715,81.543,0
214710.297,24.902,22.461,41.016,30.273,52.246,0
214710.301,24.414,32.715,36.621,24.902,69.824,0
214710.305,26.855,36.621,28.809,22.461,73.730,0
214710.309,24.414,36.133,27.344,33.691,64.453,0
214710.313,23.926,26.367,21.484,34.180,41.504,0
214710.317,29.785,30.762,29.785,34.180,43.945,0
214710.320,35.645,35.156,39.551,41.016,51.758,0
214710.324,40.039,32.715,40.039,33.203,18.555,0
214710.328,39.062,29.785,36.621,24.902,-6.348,0
214710.332,34.180,20.996,30.273,27.344,27.344,0
214710.336,41.504,28.320,27.832,38.574,96.680,1
214710.340,41.992,37.109,29.297,33.691,107.910,0
214710.344,28.320,29.785,32.715,20.996,45.898,0
214710.348,31.738,30.762,25.391,19.043,23.438,0
214710.352,30.273,41.016,29.297,21.973,59.082,0
214710.356,17.090,40.527,35.156,18.066,101.074,0
214710.359,16.602,36.133,30.273,19.531,96.680,0
214710.363,24.414,37.598,29.785,33.691,80.078,0
214710.367,28.320,36.133,36.621,36.133,77.637,0
214710.371,27.832,34.668,42.480,29.297,37.109,0
214710.375,27.832,31.250,46.875,23.926,16.602,0
214710.379,25.391,20.020,38.086,26.855,58.105,0
214710.383,25.879,18.555,29.785,33.203,110.840,0
214710.387,26.855,24.414,32.227,29.297,85.449,0
214710.391,24.902,32.227,30.762,24.902,70.312,0
214710.395,26.855,40.039,22.949,31.738,87.402,0
214710.399,22.461,39.551,17.578,27.344,46.875,0
214710.402,24.414,38.086,21.973,22.949,32.715,0
214710.406,37.109,38.086,30.762,29.785,54.688,0
214710.410,37.109,34.180,36.133,35.645,26.367,0
214710.414,33.203,36.133,32.227,46.387,57.617,0
214710.418,41.992,37.109,30.273,47.363,92.285,0
214710.422,45.410,33.203,35.156,40.527,47.852,0
214710.426,32.715,27.832,36.133,35.645,43.945,0
214710.430,20.508,18.066,27.832,32.227,44.922,0
214710.434,20.996,22.461,22.461,30.273,12.207,0
214710.438,27.344,33.203,19.531,28.809,-29.785,0
214710.442,34.668,35.156,25.391,37.109,0.000,0
214710.445,41.504,32.715,43.945,40.527,32.227,0
214710.449,44.922,30.762,43.457,33.691,45.898,0
214710.453,49.316,37.598,32.715,32.715,37.109,0
214710.457,48.340,39.062,29.297,33.691,30.273,0
214710.461,43.457,35.645,28.809,33.691,40.039,0
214710.465,43.457,37.109,30.273,38.574,23.926,0
214710.469,36.133,35.645,33.691,21.973,23.438,0
214710.473,29.297,16.602,34.180,13.672,47.363,0
214710.477,24.902,10.742,28.809,14.160,26.855,0
214710.481,22.461,25.391,26.855,5.859,-21.484,0
214710.484,25.879,33.203,30.762,14.160,30.273,0
214710.488,27.832,37.598,24.902,26.855,66.406,0
214710.492,28.809,35.156,20.508,24.902,44.434,0
214710.496,31.250,28.320,22.461,27.832,40.527,0
214710.500,30.273,30.762,25.391,32.715,54.688,0
214710.504,38.086,37.598,29.297,35.645,71.289,0
214710.508,43.945,36.621,22.949,42.480,50.781,0
214710.512,33.203,33.203,27.344,34.180,-8.789,0
214710.516,27.344,26.367,35.645,39.551,-8.301,0
214710.520,22.461,20.996,25.879,46.387,35.156,0
214710.524,21.484,22.461,24.902,28.809,28.320,0
214710.527,29.297,25.879,32.227,25.391,22.461,0
214710.531,32.227,19.531,31.250,41.992,38.086,0
214710.535,38.086,18.066,29.785,41.992,1.465,0
214710.539,33.691,26.367,26.367,28.320,-12.207,0
214710.543,22.949,41.016,23.926,22.461,39.551,0
214710.547,23.926,46.387,23.438,25.391,43.457,0
214710.551,28.809,32.227,21.973,26.367,2.930,0
214710.555,37.109,29.297,17.090,31.738,-8.301,0
214710.559,42.969,39.062,15.137,42.480,-9.766,0
214710.563,43.945,38.574,22.461,46.387,-22.461,0
214710.567,37.598,30.273,22.461,32.227,-35.645,0
214710.570,26.367,25.879,23.926,16.602,-29.785,0
214710.574,30.273,24.414,27.832,27.344,1.953,0
214710.578,36.133,20.508,27.832,39.062,14.648,0
214710.582,28.320,24.902,26.367,29.297,-20.508,0
214710.586,27.832,30.273,31.738,28.809,-14.648,0
214710.590,26.855,29.297,40.527,37.598,7.812,0
214710.594,21.973,34.668,29.785,34.668,7.812,0
214710.598,24.414,31.738,23.926,29.297,22.461,0
214710.602,30.762,22.949,28.809,33.691,49.316,0
214710.606,23.438,22.949,15.625,32.227,46.875,0
214710.609,20.508,29.297,10.254,26.367,32.227,0
214710.613,25.391,33.691,23.438,23.926,14.648,0
214710.617,30.762,35.156,25.391,25.879,11.719,0
214710.621,31.738,34.180,29.297,31.250,34.180,0
214710.625,25.879,33.203,32.715,26.367,25.391,0
214710.629,27.344,30.273,34.180,26.855,48.340,0
214710.633,30.762,32.227,38.086,40.527,62.500,0
214710.637,35.645,36.621,39.551,46.387,65.430,0
214710.641,39.062,24.902,33.691,41.504,67.871,0
214710.645,40.039,20.020,33.203,41.992,43.945,0
214710.649,43.945,28.809,36.133,51.758,0.000,0
214710.652,36.621,27.832,29.785,40.527,-15.625,0
214710.656,26.367,22.461,28.809,17.578,-20.020,0
214710.660,28.809,31.738,27.344,22.949,0.977,0
214710.664,37.109,39.551,27.344,36.133,50.293,0
214710.668,33.203,36.621,24.902,39.062,20.508,0
214710.672,27.832,38.086,27.832,41.992,-22.949,0
214710.676,35.645,38.086,37.598,42.969,1.953,0
214710.680,40.527,39.551,40.527,51.758,60.547,0
214710.684,31.738,33.691,37.598,47.363,74.707,0
214710.688,27.344,29.785,42.969,40.527,55.664,0
214710.692,33.691,29.297,44.434,42.480,26.367,0
214710.695,31.738,26.367,37.598,37.109,18.555,0
214710.699,23.926,23.926,35.156,31.250,36.133,0
214710.703,22.461,21.973,28.809,25.391,22.461,0
214710.707,22.949,26.367,28.320,25.391,-11.230,0
214710.711,29.785,32.227,36.133,44.922,32.227,0
214710.715,29.297,28.320,26.855,50.293,46.875,0
214710.719,28.809,32.715,16.113,36.133,16.602,0
214710.723,32.715,39.551,25.391,25.879,36.621,0
214710.727,29.785,41.016,37.109,29.785,64.941,0
214710.731,30.762,40.039,37.109,33.203,85.938,0
214710.734,29.785,31.250,31.250,25.391,69.824,0
214710.738,28.809,31.250,38.086,24.414,15.625,0
214710.742,28.320,33.203,41.016,27.832,28.320,0
214710.746,31.738,34.180,34.668,33.203,71.289,0
214710.750,36.133,34.668,32.715,40.039,27.344,0
214710.754,42.969,37.109,32.227,39.551,-3.906,0
214710.758,50.293,44.922,32.715,41.016,10.254,0
214710.762,41.504,39.062,27.832,41.504,-5.371,0
214710.766,30.273,29.785,27.832,38.574,-23.926,0
214710.770,27.344,34.668,42.480,39.551,8.789,0
214710.774,30.762,40.527,41.504,45.898,14.160,0
214710.777,39.062,34.668,32.227,51.270,-37.109,0
214710.781,37.598,26.855,37.109,40.527,-30.762,0
214710.785,36.133,32.715,39.062,40.039,28.809,0
214710.789,36.621,38.574,33.203,45.898,13.672,0
214710.793,30.273,34.180,30.762,40.039,-11.230,0
214710.797,30.762,31.738,35.156,43.945,-4.883,0
214710.801,30.273,29.785,34.180,49.316,4.883,0
214710.805,29.785,26.367,27.344,42.480,17.090,0
214710.809,32.715,29.785,25.879,28.320,15.137,0
214710.813,38.574,33.203,30.762,29.785,53.223,0
214710.817,38.086,36.133,40.039,36.133,76.172,0
214710.820,32.715,33.203,35.645,29.297,45.898,0
214710.824,32.227,32.227,28.320,32.227,41.016,0
214710.828,32.715,32.715,32.227,34.180,56.152,0
214710.832,29.297,31.250,30.273,34.668,50.781,0
214710.836,27.832,29.297,28.320,36.621,7.324,0
214710.840,24.414,26.855,30.762,30.762,4.395,0
214710.844,25.879,33.203,38.086,35.156,33.203,0
214710.848,28.320,41.016,33.203,40.527,46.875,0
214710.852,28.320,36.133,24.414,29.785,65.918,0
214710.856,32.227,28.320,35.645,21.973,53.711,0
214710.859,31.738,27.344,40.527,24.414,49.316,0
214710.863,33.691,27.832,35.156,22.949,52.246,0
214710.867,43.945,33.691,36.133,33.203,61.523,0
214710.871,40.527,37.598,34.668,38.086,60.059,0
214710.875,40.527,35.645,27.832,37.598,46.875,0
214710.879,44.434,37.109,21.484,43.457,12.207,0
214710.883,38.574,37.109,20.508,37.598,3.418,0
214710.887,37.598,29.785,16.602,30.273,12.695,0
214710.891,39.062,31.738,21.484,34.180,-3.418,0
214710.895,42.480,41.016,34.180,40.039,29.297,0
214710.899,41.504,38.574,35.156,27.832,15.137,0
214710.902,34.180,29.785,33.691,19.531,-7.812,1
214710.906,27.832,23.438,28.809,26.367,31.250,0
214710.910,28.809,29.297,33.203,23.438,18.066,0
214710.914,34.668,38.086,47.363,25.879,17.578,0
214710.918,30.273,35.156,37.598,25.879,18.555,0
214710.922,28.809,32.715,26.855,21.484,50.781,0
214710.926,31.738,28.809,30.273,27.832,51.758,0
214710.930,30.762,24.902,26.367,39.551,20.996,0
214710.934,33.203,22.949,18.555,42.480,-7.324,0
214710.938,36.621,21.973,22.949,37.109,-9.766,0
214710.942,33.691,37.598,28.320,32.227,19.043,0
214710.945,27.832,47.363,29.785,22.949,21.484,0
214710.949,31.738,45.410,34.180,30.273,53.223,0
214710.953,28.320,41.504,37.109,31.250,81.055,0
214710.957,22.461,35.645,34.668,21.484,56.152,0
214710.961,25.391,32.227,33.203,22.461,67.383,0
214710.965,31.738,37.598,29.297,27.344,84.473,0
214710.969,40.527,42.969,31.738,33.203,69.824,0
214710.973,34.668,35.156,26.367,25.391,69.824,0
214710.977,26.855,30.762,16.113,25.391,57.129,0
214710.981,30.273,33.203,20.020,34.180,42.969,0
214710.984,26.367,28.809,21.484,20.508,49.805,0
214710.988,16.602,26.855,28.320,9.766,18.555,0
214710.992,17.090,28.809,41.016,19.531,-9.766,0
214710.996,20.996,30.273,43.945,28.809,-1.953,0
214711.000,24.902,33.203,43.945,29.785,-17.578,0
214711.004,31.738,35.645,41.504,39.551,2.930,0
214711.008,32.227,26.367,29.785,37.109,10.742,0
214711.012,26.855,23.926,24.414,28.320,-5.859,0
214711.016,28.809,36.133,25.391,33.691,16.602,0
214711.020,30.273,37.598,24.414,38.574,58.105,0
214711.024,26.855,33.203,32.715,42.480,45.898,0
214711.027,30.762,32.715,29.297,47.363,43.945,0
214711.031,32.715,35.645,22.461,34.668,34.180,0
214711.035,24.902,32.715,34.180,15.137,-2.441,0
214711.039,20.508,26.367,37.598,20.508,38.086,0
214711.043,22.461,24.902,30.273,29.785,58.594,0
214711.047,29.785,17.578,33.691,27.832,18.066,0
214711.051,37.109,18.066,41.016,29.785,-33.691,0
214711.055,27.344,21.484,42.969,29.785,-26.367,0
214711.059,20.508,25.391,32.715,22.461,-0.977,0
214711.063,26.367,36.133,28.320,24.902,-13.672,0
214711.067,25.391,36.621,26.367,22.949,-3.418,0
214711.070,25.391,34.668,22.461,29.297,8.301,0
214711.074,28.809,36.133,23.926,40.039,37.109,0
214711.078,28.320,28.320,23.926,29.785,18.066,0
214711.082,24.414,14.648,27.344,17.578,9.766,0
214711.086,16.602,18.066,30.273,17.090,59.570,0
214711.090,18.555,28.809,23.438,21.973,30.762,0
214711.094,21.973,31.738,22.949,27.832,23.926,0
214711.098,25.391,30.273,28.320,33.203,72.266,0
214711.102,31.738,24.414,26.855,33.203,89.844,0
214711.106,33.203,24.414,15.625,25.879,66.895,0
214711.109,29.785,30.273,14.648,20.996,56.152,0
214711.113,22.461,33.691,29.297,24.414,67.871,0
214711.117,25.879,32.715,30.273,32.227,57.617,0
214711.121,25.391,25.391,23.438,31.250,23.926,0
214711.125,24.902,28.809,26.855,21.484,12.207,0
214711.129,32.715,37.598,33.203,32.227,27.344,0
214711.133,31.738,35.645,32.227,44.434,47.852,0
214711.137,32.227,33.691,29.297,41.504,50.293,0
214711.141,33.203,28.809,30.273,33.691,44.434,0
214711.145,35.645,28.809,28.809,27.344,49.316,0
214711.149,41.016,31.738,23.926,28.809,40.527,0
214711.152,37.109,30.762,22.461,28.809,16.602,0
214711.156,33.691,29.785,27.344,36.621,67.871,0
214711.160,38.086,28.809,24.902,43.457,89.355,0
214711.164,34.180,29.785,22.461,40.039,85.938,0
214711.168,24.902,39.062,35.156,39.551,78.125,0
214711.172,18.066,36.133,35.645,27.344,37.109,0
214711.176,14.160,25.879,29.785,20.508,69.336,0
214711.180,20.996,27.344,31.250,28.320,75.684,0
214711.184,27.344,32.715,27.344,25.879,-0.977,0
214711.188,26.367,23.926,25.879,20.996,17.578,0
214711.192,21.973,10.254,25.391,28.320,63.965,0
214711.195,16.602,24.414,28.809,28.809,35.156,0
214711.199,13.184,35.156,32.715,20.020,43.457,0
214711.203,13.672,30.762,27.832,14.648,32.715,0
214711.207,12.695,34.180,18.066,20.996,5.859,0
214711.211,20.020,37.109,22.949,28.320,5.859,0
214711.215,29.785,37.109,33.691,27.832,16.602,0
214711.219,19.531,27.344,29.785,22.949,7.812,0
214711.223,16.602,14.648,29.297,23.438,21.484,0
214711.227,22.949,16.602,24.414,22.461,16.113,0
214711.231,21.484,28.320,29.785,16.113,-0.977,0
214711.234,17.090,28.320,37.109,22.461,40.527,0
214711.238,20.508,30.762,29.297,40.039,63.965,0
214711.242,27.832,30.762,23.438,39.551,33.203,0
214711.246,30.273,27.832,27.832,38.574,33.203,0
214711.250,34.180,32.227,40.039,43.945,40.039,0
214711.254,33.691,31.738,39.551,35.645,35.156,0
214711.258,31.250,35.645,34.668,33.203,40.527,0
214711.262,26.367,38.574,31.738,35.156,23.926,0
214711.266,18.555,28.809,26.367,36.133,45.410,0
214711.270,14.160,28.809,24.414,32.227,34.180,0
214711.274,23.926,35.156,27.832,28.320,-25.391,0
214711.277,36.133,32.715,33.203,35.645,-27.344,0
214711.281,36.621,30.273,36.133,42.969,19.043,0
214711.285,32.227,27.832,23.438,36.621,17.090,0
214711.289,31.250,26.367,18.555,30.273,-2.441,0
214711.293,31.738,21.973,27.832,27.344,-6.348,0
214711.297,36.621,21.484,28.809,22.949,-24.414,0
214711.301,40.527,30.273,31.738,22.461,-32.227,0
214711.305,38.086,30.273,28.809,21.973,-11.230,0
214711.309,38.574,21.484,28.809,25.391,-18.066,0
214711.313,40.527,26.855,27.344,39.062,28.320,0
214711.317,34.180,36.133,21.973,41.016,72.266,0
214711.320,27.832,35.645,24.902,29.785,33.203,0
214711.324,30.762,34.668,27.344,29.785,61.523,0
214711.328,32.715,33.203,35.156,40.527,73.242,0
214711.332,19.531,19.531,24.902,32.715,35.156,0
214711.336,10.742,11.719,11.719,20.508,52.734,0
214711.340,19.531,26.367,27.344,21.973,68.848,0
214711.344,21.484,24.414,27.832,25.879,27.344,0
214711.348,21.484,15.137,25.879,28.809,43.457,0
214711.352,27.832,20.996,35.156,28.809,62.988,0
214711.356,33.203,28.320,35.645,28.809,31.738,0
214711.359,37.109,33.203,30.273,32.715,41.992,0
214711.363,28.809,30.273,24.414,24.902,22.949,0
214711.367,22.949,28.320,20.996,20.508,1.465,0
214711.371,27.832,21.484,26.855,29.785,27.344,0
214711.375,34.668,14.160,33.203,30.273,64.941,0
214711.379,36.621,29.785,32.715,26.367,53.711,0
214711.383,41.016,40.039,26.855,31.250,39.062,0
214711.387,41.504,24.902,20.996,34.668,47.363,0
214711.391,25.879,16.602,25.879,25.391,60.547,0
214711.395,19.531,33.203,35.156,32.715,40.039,0
214711.399,27.832,45.410,33.691,39.062,0.000,0
214711.402,35.156,40.527,28.320,43.457,3.906,0
214711.406,36.621,38.086,20.020,60.547,35.156,0
214711.410,26.855,30.762,8.789,41.016,22.461,0
214711.414,22.461,25.391,28.320,29.297,15.625,0
214711.418,26.855,27.344,45.410,31.738,41.992,0
214711.422,20.996,22.949,47.363,24.902,47.852,0
214711.426,21.973,22.949,50.781,26.855,66.895,0
214711.430,26.367,24.902,51.270,36.133,77.148,0
214711.434,27.832,22.461,38.086,38.086,49.316,0
214711.438,30.273,21.484,33.203,35.156,21.484,0
214711.442,28.320,14.648,34.668,35.156,8.301,0
214711.445,25.391,15.625,32.715,33.691,-13.184,0
214711.449,27.344,28.320,38.574,28.809,-18.555,0
214711.453,30.273,33.691,38.086,32.715,-31.250,0
214711.457,38.574,33.691,32.715,39.551,-26.367,0
214711.461,42.969,32.715,29.785,44.434,20.508,0
214711.465,44.434,29.297,22.949,41.016,2.930,0
214711.469,41.992,25.391,21.484,27.832,-7.324,0
214711.473,38.086,27.344,32.227,26.367,1.953,0
214711.477,44.922,28.809,32.715,38.574,18.555,0
214711.481,48.340,26.855,23.926,44.434,30.273,0
214711.484,42.969,29.785,27.832,34.668,0.000,0
214711.488,39.062,26.855,39.551,30.762,13.672,0
214711.492,34.180,23.438,46.387,24.902,18.555,0
214711.496,33.203,24.414,43.457,25.391,52.734,0
214711.500,40.527,28.809,39.062,33.691,76.172,0
214711.504,43.945,34.180,37.109,31.738,71.289,0
214711.508,47.852,29.297,34.668,34.668,97.656,0
214711.512,45.410,20.996,20.996,36.133,78.125,0
214711.516,40.527,27.344,17.578,39.551,69.336,0
214711.520,44.922,41.504,25.391,50.293,78.125,0
214711.524,40.039,37.598,25.879,44.922,41.016,0
214711.527,34.668,25.391,31.738,28.320,31.250,0
214711.531,30.762,25.391,37.598,20.020,39.062,0
214711.535,35.645,28.320,33.203,31.738,77.148,0
214711.539,45.898,29.297,32.715,43.457,79.102,0
214711.543,42.969,31.250,29.297,44.922,51.270,0
214711.547,41.992,29.785,32.227,41.504,6.836,0
214711.551,44.434,35.645,46.875,40.527,-22.949,0
214711.555,37.598,36.621,54.688,44.922,47.852,0
214711.559,32.227,29.297,41.992,36.133,62.012,0
214711.563,38.574,39.062,35.645,40.039,39.551,0
214711.567,41.016,41.992,37.109,43.457,42.480,0
214711.570,34.180,30.762,33.691,34.180,19.043,0
214711.574,35.645,27.832,40.039,40.039,6.836,0
214711.578,37.598,27.832,40.039,41.504,35.645,0
214711.582,37.598,31.738,34.180,40.527,42.480,0
214711.586,39.062,33.691,45.410,41.504,59.082,0
214711.590,34.180,31.738,49.316,41.016,27.344,0
214711.594,32.715,29.297,36.621,36.621,-17.090,0
214711.598,35.645,29.785,38.574,36.621,0.000,2
214711.602,31.250,29.297,40.527,35.645,-12.207,0
214711.606,24.902,31.738,37.109,30.273,-24.902,0
214711.609,27.832,37.109,31.250,38.086,-8.789,0
214711.613,31.738,35.156,23.926,44.434,4.395,0
214711.617,28.320,31.250,22.461,36.621,16.602,0
214711.621,25.391,27.344,27.344,23.926,11.230,0
214711.625,22.461,24.902,29.297,19.043,-0.488,0
214711.629,25.391,30.762,28.320,23.926,41.504,0
214711.633,29.785,28.809,26.367,36.133,54.199,0
214711.637,28.809,24.414,23.926,29.297,43.457,0
214711.641,30.762,28.809,25.879,23.438,29.785,0
214711.645,34.180,28.320,28.320,35.645,24.414,0
214711.649,32.715,29.297,14.648,29.297,16.113,0
214711.652,32.227,23.438,18.066,16.602,29.785,0
214711.656,31.738,19.043,34.668,29.297,59.570,0
214711.660,30.762,31.738,33.203,36.133,57.617,0
214711.664,27.832,35.156,25.391,25.391,41.016,0
214711.668,25.879,38.574,19.043,23.926,29.297,0
214711.672,23.438,40.527,27.832,33.691,40.039,0
214711.676,16.113,31.738,36.621,28.320,39.062,0
214711.680,14.648,32.715,35.645,14.160,41.016,0
214711.684,18.555,34.180,33.203,20.996,35.645,0
214711.688,23.926,31.738,27.344,28.809,48.828,0
214711.692,27.344,28.320,35.645,28.320,62.012,0
214711.695,25.391,34.180,41.016,24.902,37.598,0
214711.699,24.414,37.109,43.945,32.715,48.340,0
214711.703,26.367,29.297,45.898,38.574,36.621,0
214711.707,27.832,30.762,33.691,34.180,14.160,0
214711.711,22.949,39.062,29.785,30.762,18.066,0
214711.715,21.973,37.598,36.133,32.227,15.625,0
214711.719,31.738,29.785,31.738,36.621,20.020,0
214711.723,33.691,30.273,31.250,31.250,-24.902,0
214711.727,33.691,40.039,35.645,34.668,-37.109,0
214711.731,38.086,46.387,37.598,36.133,-6.836,0
214711.734,29.785,36.621,51.270,21.484,5.859,0
214711.738,28.809,30.273,48.340,20.996,-14.648,0
214711.742,30.273,34.668,29.297,27.832,0.488,0
214711.746,23.926,28.809,25.391,28.320,27.344,0
214711.750,24.902,25.391,34.668,23.438,33.203,0
214711.754,25.879,27.344,36.133,25.391,60.059,0
214711.758,29.785,25.391,22.461,34.180,22.949,0
214711.762,35.156,31.250,18.066,39.551,29.297,0
214711.766,33.203,37.598,32.227,39.551,64.941,0
214711.770,28.320,37.109,34.180,36.621,43.945,0
214711.774,34.180,34.180,26.855,34.180,53.711,0
214711.777,36.133,29.785,33.203,35.645,26.367,0
214711.781,30.273,30.273,38.574,34.668,2.930,0
214711.785,23.926,32.227,33.203,24.902,20.020,0
214711.789,20.508,25.879,29.297,23.926,21.973,0
214711.793,24.414,18.066,23.438,31.250,46.875,0
214711.797,22.461,18.555,18.555,26.367,60.059,0
214711.801,20.508,24.414,20.996,27.344,27.832,0
214711.805,28.809,32.715,20.996,38.086,0.977,0
214711.809,35.645,33.691,26.367,42.480,16.113,0
214711.813,31.738,25.879,29.297,30.273,26.367,0
214711.817,26.367,23.438,29.785,20.996,4.883,0
214711.820,22.949,20.996,38.574,24.414,14.160,0
214711.824,26.367,20.020,40.527,32.227,34.180,0
214711.828,33.691,23.926,30.273,37.598,-18.555,0
214711.832,23.926,16.113,25.391,30.762,-19.043,0
214711.836,20.508,13.184,25.391,28.809,34.180,0
214711.840,35.645,30.273,26.367,32.715,20.508,0
214711.844,38.086,40.527,24.902,34.668,17.090,0
214711.848,30.762,42.969,14.648,32.715,71.777,0
214711.852,25.879,37.598,17.578,29.785,96.191,0
214711.856,23.438,28.809,27.344,31.738,83.984,0
214711.859,27.832,26.855,27.344,35.156,74.707,0
214711.863,26.855,26.367,31.250,26.855,73.242,0
214711.867,29.785,30.762,34.668,20.508,58.105,0
214711.871,33.203,21.484,31.738,18.555,29.785,0
214711.875,30.762,12.695,24.902,12.207,21.973,0
214711.879,26.367,17.578,23.438,18.066,27.344,0
214711.883,22.949,19.531,33.691,30.762,54.199,0
214711.887,20.996,24.902,32.715,28.809,55.176,0
214711.891,23.438,29.297,22.461,22.461,69.336,0
214711.895,29.785,28.320,25.391,26.855,61.523,0
214711.899,29.297,32.227,32.227,30.762,37.109,0
214711.902,20.996,27.832,40.039,20.996,46.387,0
214711.906,9.277,20.020,43.457,13.184,50.293,0
214711.910,7.324,18.555,38.086,11.719,47.852,0
214711.914,14.160,17.578,34.180,10.254,42.969,0
214711.918,18.066,22.949,32.715,13.672,24.902,0
214711.922,24.414,28.809,30.273,16.113,29.297,0
214711.926,29.785,26.367,29.297,22.949,38.574,0
214711.930,23.926,22.949,29.785,33.203,45.898,0
214711.934,20.508,24.902,24.902,26.367,39.062,0
214711.938,27.832,32.715,20.020,17.090,31.738,0
214711.942,32.227,28.809,24.414,26.855,51.758,0
214711.945,36.133,20.996,36.621,38.086,85.938,0
214711.949,31.738,23.438,40.527,31.250,72.266,0
214711.953,29.785,27.344,33.691,21.973,67.383,0
214711.957,39.551,38.086,31.250,25.879,73.730,0
214711.961,35.156,37.598,34.180,24.414,49.316,0
214711.965,24.414,26.367,22.949,20.996,27.344,0
214711.969,25.879,24.414,25.391,17.578,25.879,0
214711.973,22.461,24.414,34.668,15.137,48.340,0
214711.977,26.367,19.043,27.832,20.020,4.395,0
214711.981,32.227,18.066,30.273,24.414,-28.320,0
214711.984,32.715,29.297,35.645,30.762,37.598,0
214711.988,24.414,29.785,32.715,33.691,64.941,0
214711.992,11.230,24.902,34.180,27.832,37.598,0
214711.996,1.465,20.508,37.109,21.484,40.527,0
214712.000,0.000,20.996,37.598,20.020,56.152,0
214712.004,14.160,30.762,29.785,23.926,89.844,0
214712.008,15.625,32.715,14.648,18.066,86.426,0
214712.012,9.766,32.227,18.555,12.207,54.688,0
214712.016,18.066,32.715,31.250,19.531,86.914,0
214712.020,24.902,32.227,37.109,24.902,108.398,0
214712.024,21.484,22.949,32.227,20.020,69.824,0
214712.027,23.438,23.438,33.203,21.484,59.570,0
214712.031,23.926,23.438,33.203,29.785,91.797,0
214712.035,26.367,15.137,25.879,26.855,68.848,0
214712.039,32.227,19.043,23.926,23.926,54.199,0
214712.043,33.691,30.273,24.902,29.297,68.848,0
214712.047,34.180,35.645,28.809,34.668,69.336,0
214712.051,33.203,38.574,27.344,31.250,52.246,0
214712.055,33.691,38.086,25.391,29.785,25.391,0
214712.059,37.109,38.086,30.273,34.668,41.016,0
214712.063,34.180,30.762,31.738,36.621,39.551,0
214712.067,24.902,27.832,19.531,24.902,-6.836,0
214712.070,25.879,31.738,16.113,25.391,-13.672,0
214712.074,30.273,25.391,25.391,36.621,9.277,0
214712.078,22.461,15.137,29.297,23.438,52.734,0
214712.082,15.625,15.625,30.762,11.230,56.641,0
214712.086,26.367,23.438,29.785,17.578,27.344,0
214712.090,42.480,25.391,23.438,29.785,58.105,0
214712.094,40.039,30.273,17.578,33.691,10.254,0
214712.098,30.273,33.691,20.996,32.715,-20.020,0
214712.102,34.668,29.297,19.043,36.133,16.602,0
214712.106,43.457,29.785,14.648,39.551,13.184,0
214712.109,35.645,29.297,25.879,39.551,35.156,0
214712.113,26.855,27.344,36.621,29.297,3.418,0
214712.117,23.926,28.809,37.109,20.020,11.230,0
214712.121,23.438,31.738,35.645,30.762,46.387,0
214712.125,30.273,31.250,24.902,39.062,13.184,0
214712.129,32.227,23.926,21.973,40.039,-8.301,0
214712.133,32.227,24.414,25.879,35.156,-14.648,0
214712.137,32.227,20.996,30.762,27.344,-8.301,0
214712.141,26.855,18.555,35.156,22.949,-8.301,0
214712.145,27.344,26.855,33.691,26.367,9.766,0
214712.149,28.320,35.156,35.645,37.598,43.945,0
214712.152,25.879,37.109,32.227,37.109,37.598,0
214712.156,27.832,29.785,29.297,30.762,28.809,0
214712.160,27.832,23.438,31.250,27.832,17.578,0
214712.164,37.598,25.391,30.762,45.898,19.043,0
214712.168,39.062,26.367,28.809,45.410,19.531,1
214712.172,22.949,22.949,35.645,18.066,-18.555,0
214712.176,14.160,23.926,37.598,7.812,-6.348,0
214712.180,17.090,25.391,26.855,12.207,30.273,0
214712.184,21.484,31.738,20.996,17.090,-13.184,0
214712.188,29.785,31.738,21.484,14.648,-22.949,0
214712.192,38.086,22.461,24.414,25.391,-6.348,0
214712.195,33.691,14.160,15.625,34.668,13.672,0
214712.199,23.438,21.484,7.324,33.203,61.035,0
214712.203,19.531,37.109,23.926,29.785,11.719,0
214712.207,26.367,41.016,38.574,26.367,-26.855,0
214712.211,26.367,37.109,37.598,22.949,29.297,0
214712.215,20.508,31.250,32.715,28.320,57.617,0
214712.219,22.949,26.367,24.414,25.879,53.223,0
214712.223,31.250,29.785,31.250,18.555,51.758,0
214712.227,32.227,29.785,36.133,25.879,75.684,0
214712.231,37.109,26.367,25.879,33.691,63.477,0
214712.234,46.875,30.762,22.461,42.969,34.180,0
214712.238,41.016,25.879,25.391,53.223,20.996,0
214712.242,32.715,22.949,27.344,52.734,-2.930,0
214712.246,30.273,27.344,38.574,46.875,-0.977,0
214712.250,26.855,26.367,41.992,39.062,-34.180,0
214712.254,25.879,26.855,30.762,39.551,-32.227,0
214712.258,25.391,28.320,23.926,39.551,24.902,0
214712.262,27.832,32.715,27.344,32.715,23.438,0
214712.266,35.156,36.621,39.551,47.363,32.715,0
214712.270,42.480,38.574,43.945,50.781,47.363,0
214712.274,38.086,37.109,37.598,35.156,41.016,0
214712.277,31.738,27.832,34.180,24.902,1.465,0
214712.281,34.180,30.273,28.809,21.973,-13.672,0
214712.285,34.180,37.109,20.508,23.926,31.738,0
214712.289,21.973,28.320,22.461,19.043,34.668,0
214712.293,15.137,25.391,31.250,18.555,80.566,0
214712.297,10.742,21.484,21.973,17.578,114.258,0
214712.301,12.207,19.043,19.043,18.066,59.570,0
214712.305,18.066,25.879,28.320,23.926,39.062,0
214712.309,20.508,31.250,29.297,19.043,47.363,0
214712.313,21.973,29.297,34.668,18.555,58.105,0
214712.317,24.902,28.809,35.645,31.738,76.660,0
214712.320,27.344,36.621,34.668,28.809,87.402,0
214712.324,26.855,41.504,35.645,19.531,82.031,0
214712.328,25.879,36.621,31.738,28.320,72.266,0
214712.332,27.344,26.855,17.578,27.344,83.008,0
214712.336,32.227,27.344,12.695,18.555,62.500,0
214712.340,26.367,30.762,20.020,21.973,31.250,0
214712.344,22.461,27.344,27.832,25.391,41.504,0
214712.348,26.367,24.902,27.344,23.926,80.566,0
214712.352,26.855,28.809,31.250,29.785,87.891,0
214712.356,31.250,25.879,47.363,31.250,46.387,0
214712.359,30.762,23.438,48.828,30.273,74.219,0
214712.363,34.668,31.250,35.645,36.621,107.422,0
214712.367,45.410,39.551,32.227,44.922,83.008,0
214712.371,45.410,41.504,31.250,45.410,89.844,0
214712.375,33.203,34.180,28.809,31.250,105.469,0
214712.379,24.902,29.297,17.578,20.020,89.844,0
214712.383,32.227,31.250,8.301,32.227,74.219,0
214712.387,36.133,32.715,19.531,34.668,64.453,0
214712.391,32.227,35.156,34.180,29.785,69.824,0
214712.395,37.109,35.645,41.504,39.551,62.012,0
214712.399,41.992,38.574,39.062,38.574,29.297,0
214712.402,44.922,42.480,31.250,32.715,48.340,0
214712.406,47.852,36.621,28.809,41.016,77.148,0
214712.410,38.574,28.809,26.855,42.969,51.758,0
214712.414,32.715,34.668,21.484,41.016,22.461,0
214712.418,33.691,42.480,25.391,41.504,37.598,0
214712.422,33.203,39.551,27.344,28.320,51.270,0
214712.426,37.598,38.086,20.508,20.508,11.230,0
214712.430,39.551,36.621,18.555,25.879,33.203,0
214712.434,38.574,34.180,25.391,27.344,59.082,0
214712.438,35.156,33.203,38.086,30.762,50.781,0
214712.442,34.668,28.809,40.527,33.691,43.945,0
214712.445,38.574,32.227,39.551,37.598,-28.809,0
214712.449,34.668,41.016,37.109,33.691,-41.992,0
214712.453,31.738,41.016,35.645,31.250,12.695,0
214712.457,33.203,39.062,38.574,42.480,-13.672,0
214712.461,31.738,35.645,27.832,39.551,-8.301,0
214712.465,33.203,31.250,19.531,34.668,26.855,0
214712.469,24.902,26.855,29.785,39.551,48.340,0
214712.473,28.320,27.344,39.062,44.922,0.488,0
214712.477,40.039,35.156,46.387,49.316,-7.324,0
214712.481,42.969,36.133,38.086,46.875,32.227,0
214712.484,45.410,30.762,23.438,43.945,31.250,0
214712.488,26.855,29.785,32.227,31.738,-6.348,0
214712.492,14.160,34.180,46.875,26.855,-27.344,0
214712.496,15.625,31.738,45.410,33.691,44.922,0
214712.500,15.625,30.273,38.574,39.062,18.066,0
214712.504,20.508,33.691,38.574,33.203,-7.812,0
214712.508,27.832,37.109,35.156,36.133,42.969,0
214712.512,32.227,37.109,32.715,41.504,17.090,0
214712.516,31.738,28.320,34.180,31.250,-39.062,0
214712.520,31.738,25.391,30.762,33.203,-16.113,0
214712.524,37.598,29.785,33.203,50.293,21.484,0
214712.527,40.527,33.203,36.133,44.922,9.766,0
214712.531,36.621,36.621,30.273,28.809,-17.090,0
214712.535,39.062,34.180,26.855,27.344,-22.949,0
214712.539,35.645,23.438,17.090,19.531,-18.555,0
214712.543,29.297,21.973,19.043,21.973,4.395,0
214712.547,31.738,25.879,40.039,22.949,-41.504,0
214712.551,31.738,30.273,35.645,29.297,-43.457,0
214712.555,33.691,32.715,32.227,36.621,-10.254,0
214712.559,34.668,30.273,41.016,24.414,-21.973,0
214712.563,35.645,24.414,39.551,18.066,-20.508,0
214712.567,35.645,22.949,37.109,15.625,-53.223,0
214712.570,30.762,27.344,27.832,22.461,-59.570,0
214712.574,24.414,29.785,20.996,19.043,-44.922,0
214712.578,28.809,32.227,22.949,13.184,-38.086,0
214712.582,35.645,28.809,29.297,22.949,-24.902,0
214712.586,27.832,26.855,38.086,29.785,-9.277,0
214712.590,24.414,25.391,40.039,35.156,7.324,0
214712.594,32.715,25.391,31.738,37.598,29.297,0
214712.598,32.715,32.227,30.273,36.621,72.266,0
214712.602,31.250,33.691,36.133,34.180,85.449,0
214712.606,29.785,32.227,36.133,27.344,40.527,0
214712.609,28.320,30.762,31.250,32.227,28.320,0
214712.613,30.273,24.902,26.367,34.668,62.500,0
214712.617,29.297,26.855,37.598,25.391,76.660,0
214712.621,29.785,28.809,42.480,26.855,88.867,0
214712.625,27.832,30.762,35.645,29.785,91.797,0
214712.629,28.809,33.203,43.457,31.250,57.129,0
214712.633,30.273,28.809,41.504,32.227,8.789,0
214712.637,27.832,26.855,30.762,33.691,-8.789,0
214712.641,33.203,29.785,30.762,34.668,-8.301,0
214712.645,40.039,31.738,28.320,42.480,25.391,0
214712.649,34.180,30.273,27.344,37.109,21.973,0
214712.652,31.250,34.668,37.598,30.273,13.184,0
214712.656,34.180,39.551,42.480,33.203,66.406,0
214712.660,32.715,35.156,39.551,33.203,77.637,0
214712.664,31.250,25.879,37.109,33.203,56.152,0
214712.668,33.691,27.832,32.715,37.109,70.801,0
214712.672,34.180,33.203,35.645,34.668,94.238,0
214712.676,31.738,27.832,31.738,30.762,79.102,0
214712.680,34.180,29.297,20.996,37.598,33.691,0
214712.684,39.062,30.762,27.344,39.551,-13.184,0
214712.688,36.133,24.902,29.785,36.133,3.418,0
214712.692,37.109,31.250,23.438,40.039,53.223,0
214712.695,36.133,32.715,20.996,30.762,41.992,0
214712.699,31.738,32.227,25.879,25.391,23.926,0
214712.703,43.457,41.992,26.367,38.574,5.371,0
214712.707,36.133,40.527,22.949,38.574,29.785,0
214712.711,21.973,30.762,32.227,30.762,37.598,0
214712.715,26.855,28.320,39.551,35.645,53.223,0
214712.719,34.668,31.250,34.668,43.945,53.711,0
214712.723,34.180,33.691,36.133,45.410,46.875,0
214712.727,31.738,29.297,33.691,39.551,45.898,0
214712.731,30.273,26.367,20.020,36.621,17.578,0
214712.734,25.391,29.297,23.926,39.551,33.691,0
214712.738,26.855,26.367,29.785,37.598,40.039,0
214712.742,38.574,31.738,34.180,38.574,19.043,0
214712.746,41.992,36.621,41.016,38.086,15.137,0
214712.750,35.645,29.297,28.809,37.598,27.344,0
214712.754,37.598,33.203,19.531,35.645,16.113,0
214712.758,35.645,34.668,28.320,30.273,-0.488,0
214712.762,30.273,26.367,35.156,29.297,37.598,0
214712.766,34.180,21.484,31.250,26.367,50.293,0
214712.770,40.527,25.391,30.273,32.715,38.574,0
214712.774,39.551,25.391,31.738,38.574,26.855,0
214712.777,35.156,21.484,32.715,28.320,10.254,0
214712.781,37.109,28.320,28.320,30.762,26.855,0
214712.785,46.387,37.109,24.414,41.504,17.090,0
214712.789,41.504,40.527,31.250,41.504,22.949,0
214712.793,28.320,28.320,41.016,33.203,64.453,0
214712.797,28.320,20.996,43.945,24.902,79.590,0
214712.801,25.391,26.367,40.527,21.973,59.082,0
214712.805,20.996,28.320,41.504,28.320,57.129,0
214712.809,22.461,26.367,36.621,30.273,46.387,0
214712.813,24.414,28.320,26.367,23.926,34.668,0
214712.817,21.973,32.227,23.926,22.949,47.363,0
214712.820,27.344,41.016,25.879,30.273,43.457,0
214712.824,29.785,41.992,38.574,40.527,86.426,0
214712.828,21.973,28.809,38.086,33.203,95.703,0
214712.832,15.137,18.066,32.715,23.438,65.918,0
214712.836,13.184,25.391,39.551,33.203,49.805,0
214712.840,20.020,26.855,40.039,35.645,10.254,0
214712.844,24.902,23.926,28.809,39.551,0.000,0
214712.848,26.855,36.133,16.602,55.176,23.926,0
214712.852,25.391,32.227,24.414,45.410,21.973,0
214712.856,22.461,20.020,26.367,25.879,31.738,0
214712.859,28.809,24.414,31.250,24.414,33.691,0
214712.863,34.668,27.832,41.504,36.621,11.719,0
214712.867,31.250,24.902,28.809,30.273,6.836,0
214712.871,28.320,28.320,20.020,16.602,54.199,0
214712.875,25.391,33.203,35.156,24.414,54.688,0
214712.879,28.320,30.762,40.039,34.180,81.055,0
214712.883,37.109,32.227,32.227,31.738,94.727,0
214712.887,36.133,28.320,20.020,32.227,73.730,0
214712.891,31.250,22.461,20.020,32.715,29.785,1
214712.895,34.180,28.809,35.645,23.438,-13.672,0
214712.899,30.273,33.203,42.480,22.461,40.039,0
214712.902,30.273,34.180,48.828,25.391,41.992,0
214712.906,33.203,29.785,52.734,20.508,36.133,0
214712.910,27.344,27.832,38.086,14.160,46.875,0
214712.914,28.809,35.645,29.785,23.438,45.410,0
214712.918,30.273,34.668,30.762,29.785,45.410,0
214712.922,24.902,26.367,34.180,25.391,30.273,0
214712.926,25.391,25.391,43.945,31.250,40.527,0
214712.930,31.250,30.273,39.062,35.156,19.531,0
214712.934,34.668,28.320,26.855,33.203,-9.766,0
214712.938,35.645,27.344,30.762,45.898,0.488,0
214712.942,35.645,33.203,45.410,53.223,29.785,0
214712.945,23.438,26.367,50.781,23.926,35.156,0
214712.949,13.184,16.113,51.270,7.324,-8.789,0
214712.953,20.996,23.438,42.969,12.207,0.000,0
214712.957,27.832,22.949,32.715,20.020,10.254,0
214712.961,31.738,19.531,31.738,37.598,48.828,0
214712.965,36.133,30.273,41.992,47.852,102.539,0
214712.969,34.668,35.156,39.551,41.504,54.688,0
214712.973,35.156,33.691,33.203,36.621,40.039,0
214712.977,34.668,34.668,40.039,36.621,58.594,0
214712.981,32.227,32.227,35.645,33.691,47.852,0
214712.984,31.250,18.066,30.273,35.156,37.109,0
214712.988,30.273,3.418,34.180,37.598,62.988,0
214712.992,31.250,15.137,36.621,41.016,65.430,0
214712.996,29.785,33.691,28.320,39.551,79.590,0
214713.000,27.832,37.598,18.066,34.668,78.613,0
214713.004,25.391,33.691,21.484,34.668,34.180,0
214713.008,25.879,39.551,29.297,32.715,32.715,0
214713.012,32.227,49.805,39.551,35.645,47.852,0
214713.016,26.367,41.016,40.527,27.344,38.574,0
214713.020,22.949,34.668,30.273,23.438,37.109,0
214713.024,29.785,38.086,27.832,29.785,60.059,0
214713.027,31.250,39.551,33.691,36.133,53.711,0
214713.031,31.250,33.203,36.621,40.039,31.250,0
214713.035,22.461,19.531,30.762,27.832,16.602,0
214713.039,15.625,18.066,31.250,19.531,25.391,0
214713.043,23.926,26.367,22.461,18.555,0.488,0
214713.047,26.855,39.062,21.973,18.555,-38.574,0
214713.051,24.414,41.016,35.156,32.715,3.418,0
214713.055,27.832,34.180,31.250,34.668,15.625,0
214713.059,28.320,26.367,22.949,20.020,-55.176,0
214713.063,24.902,17.578,36.621,20.508,-53.711,0
214713.067,21.484,21.973,43.945,26.367,-6.348,0
214713.070,21.484,32.715,36.621,33.691,26.855,0
214713.074,18.066,30.273,33.203,32.715,44.922,0
214713.078,22.461,24.902,34.180,31.250,25.391,0
214713.082,25.391,20.508,32.715,34.180,24.902,0
214713.086,21.484,16.602,20.508,22.949,31.250,0
214713.090,27.344,24.414,16.602,24.414,20.020,0
214713.094,27.344,36.621,27.344,29.785,5.371,0
214713.098,27.344,36.133,33.203,28.809,14.648,0
214713.102,23.926,30.273,28.809,19.043,38.086,0
214713.106,20.508,27.832,26.367,6.836,64.453,0
214713.109,21.484,23.438,30.762,14.160,80.078,0
214713.113,20.996,20.508,28.320,26.855,38.086,0
214713.117,25.391,29.297,30.762,26.855,58.105,0
214713.121,26.855,29.785,29.785,28.320,100.586,0
214713.125,34.180,27.344,21.973,36.621,68.359,0
214713.129,36.621,30.273,29.785,25.879,65.430,0
214713.133,30.273,27.832,37.598,29.297,76.660,0
214713.137,33.691,24.902,37.109,39.062,51.270,0
214713.141,32.715,21.973,41.992,24.902,40.527,0
214713.145,22.949,26.855,38.574,25.391,38.574,0
214713.149,22.949,35.156,36.621,24.902,25.391,0
214713.152,27.832,36.133,31.250,20.996,53.223,0
214713.156,30.273,44.922,25.879,31.250,60.547,0
214713.160,32.715,42.969,31.738,28.320,50.293,0
214713.164,27.344,32.227,28.320,22.461,28.320,0
214713.168,25.879,31.738,23.438,26.855,61.523,0
214713.172,31.738,33.203,26.367,28.320,94.727,0
214713.176,35.156,33.691,20.508,30.273,40.039,0
214713.180,33.691,26.367,13.184,39.551,5.859,0
214713.184,31.250,25.879,23.926,40.527,14.648,0
214713.188,25.879,27.344,34.180,33.203,12.207,0
214713.192,28.809,24.414,32.715,37.598,-33.691,0
214713.195,35.156,36.133,30.273,30.273,-68.848,0
214713.199,31.738,44.922,30.273,22.949,-45.898,0
214713.203,33.203,43.945,37.598,39.062,-2.441,0
214713.207,33.691,34.668,35.156,41.504,-4.883,0
214713.211,30.762,31.738,24.902,32.715,-36.133,0
214713.215,30.273,31.250,23.438,28.320,-9.766,0
214713.219,35.645,32.715,28.809,27.832,-22.949,0
214713.223,38.574,32.227,28.809,31.738,-49.316,0
214713.227,35.645,31.738,26.855,32.715,4.395,0
214713.231,34.668,38.574,28.320,37.598,25.391,0
214713.234,32.227,39.551,29.297,37.109,-12.207,0
214713.238,28.320,35.156,30.762,28.809,-47.852,0
214713.242,31.250,34.180,29.297,34.668,-25.879,0
214713.246,42.480,35.156,28.320,40.039,36.621,0
214713.250,42.480,28.809,22.949,33.691,4.395,0
214713.254,37.109,30.273,25.391,33.691,-31.738,0
214713.258,38.574,38.086,32.715,41.504,-6.348,0
214713.262,41.504,38.086,28.320,45.410,9.766,0
214713.266,38.086,33.203,22.461,40.039,-3.906,0
214713.270,34.180,29.785,21.973,36.621,-3.906,0
214713.274,37.598,32.227,23.926,44.434,36.133,0
214713.277,40.039,32.715,27.344,49.316,43.945,0
214713.281,39.062,31.738,25.879,42.480,20.996,0
214713.285,38.086,36.621,34.180,34.668,1.465,0
214713.289,36.621,36.133,43.457,40.527,41.016,0
214713.293,35.156,31.738,33.203,45.410,54.688,0
214713.297,33.203,32.715,31.738,41.016,36.621,0
214713.301,29.785,26.855,41.504,30.762,54.199,0
214713.305,31.738,21.484,40.039,35.645,104.004,0
214713.309,41.016,26.367,29.297,42.480,103.516,0
214713.313,43.945,32.227,24.902,40.527,61.523,0
214713.317,36.621,32.715,23.438,39.551,79.102,0
214713.320,38.574,35.156,29.785,36.133,75.684,0
214713.324,39.551,40.527,39.551,33.691,93.750,0
214713.328,39.062,42.480,41.016,32.715,75.684,0
214713.332,42.969,38.574,41.992,39.062,45.410,0
214713.336,43.457,39.551,41.504,43.457,53.711,0
214713.340,42.480,40.527,31.738,41.016,73.242,0
214713.344,47.852,35.645,29.297,44.434,56.152,0
214713.348,46.387,27.344,34.180,42.969,23.438,0
214713.352,31.738,23.926,30.273,31.738,21.484,0
214713.356,28.320,33.203,29.785,34.180,33.691,0
214713.359,31.250,34.668,28.809,35.156,59.570,0
214713.363,27.832,32.227,24.902,32.715,54.688,0
214713.367,24.902,37.109,26.367,34.668,60.059,0
214713.371,32.715,39.551,30.762,25.879,44.922,0
214713.375,36.133,39.062,26.367,26.855,30.273,0
214713.379,33.203,39.551,25.391,34.668,38.086,0
214713.383,28.809,31.738,39.062,34.668,33.691,0
214713.387,29.785,28.809,46.387,35.645,43.457,0
214713.391,33.203,35.645,41.992,34.668,25.879,0
214713.395,35.645,36.621,24.414,40.527,4.395,0
214713.399,42.969,36.621,10.742,41.992,23.926,0
214713.402,41.992,41.992,22.949,41.016,37.598,0
214713.406,38.574,39.062,38.086,33.691,42.480,0
214713.410,38.574,24.902,47.852,24.902,44.434,0
214713.414,32.227,21.484,41.992,23.438,29.297,0
214713.418,31.250,32.227,32.227,25.391,38.086,0
214713.422,29.785,33.691,30.762,24.902,5.371,0
214713.426,22.461,33.203,33.203,23.926,-20.996,0
214713.430,27.344,37.598,33.691,39.062,3.906,0
214713.434,31.738,40.039,23.438,39.551,-20.020,0
214713.438,24.902,32.227,19.531,21.973,5.371,0
214713.442,28.320,27.344,20.996,22.949,60.059,0
214713.445,34.668,32.227,21.973,30.273,76.660,0
214713.449,28.320,28.320,29.785,23.926,64.453,0
214713.453,22.949,23.926,28.809,22.949,30.273,0
214713.457,30.762,31.250,26.855,37.109,0.977,0
214713.461,34.668,34.180,27.344,42.480,-20.996,0
214713.465,31.738,27.344,27.344,30.762,16.113,0
214713.469,33.203,27.344,29.297,30.762,37.109,0
214713.473,40.039,30.762,27.344,42.480,69.336,0
214713.477,34.668,25.391,25.391,40.039,66.895,0
214713.481,24.414,24.902,18.066,30.762,2.930,0
214713.484,28.320,30.762,21.484,33.203,27.832,0
214713.488,34.668,32.227,27.344,39.551,55.664,0
214713.492,33.691,33.203,28.320,38.086,65.918,0
214713.496,32.715,36.621,38.086,37.109,62.988,0
214713.500,30.762,35.645,40.039,39.551,33.203,0
214713.504,31.738,30.762,19.043,38.574,39.062,0
214713.508,38.574,31.738,13.672,46.875,41.016,0
214713.512,42.480,38.086,34.180,47.852,15.137,0
214713.516,41.992,46.387,39.551,35.156,24.414,0
214713.520,39.062,41.016,30.273,39.551,44.922,1
214713.524,33.691,30.273,25.879,28.320,45.898,0
214713.527,29.785,30.273,25.391,13.672,17.090,0
214713.531,27.344,34.668,11.719,23.438,33.691,0
214713.535,26.367,29.785,15.137,23.438,54.688,0
214713.539,29.297,30.273,30.273,22.949,35.156,0
214713.543,28.809,31.738,32.227,22.949,17.090,0
214713.547,27.832,24.414,34.180,22.949,5.371,0
214713.551,31.738,24.902,32.227,23.926,-17.578,0
214713.555,30.762,27.832,25.391,20.996,-28.809,0
214713.559,20.508,28.809,23.438,21.973,-1.465,0
214713.563,16.113,32.715,21.973,22.949,11.719,0
214713.567,19.531,32.227,17.090,23.438,10.742,0
214713.570,26.855,23.926,17.090,25.391,-29.785,0
214713.574,36.133,30.273,33.203,34.180,-5.859,0
214713.578,29.297,39.062,48.340,29.785,38.086,0
214713.582,25.879,37.598,47.363,30.762,32.715,0
214713.586,34.180,36.621,32.715,37.109,29.785,0
214713.590,34.668,38.086,27.344,33.203,22.461,0
214713.594,31.738,37.109,32.227,37.598,33.203,0
214713.598,22.461,30.762,30.762,38.086,42.480,0
214713.602,17.578,27.344,32.227,31.250,38.574,0
214713.606,17.090,27.832,30.273,22.949,25.391,0
214713.609,17.090,25.879,25.391,20.508,28.320,0
214713.613,22.461,27.344,25.391,16.602,16.602,0
214713.617,30.762,37.109,28.320,25.879,23.438,0
214713.621,33.691,48.828,26.367,33.203,89.355,0
214713.625,27.832,45.898,27.344,29.297,90.332,0
214713.629,23.926,39.062,33.203,21.973,47.852,0
214713.633,21.973,33.691,37.598,13.184,70.801,0
214713.637,19.531,28.320,36.133,2.930,91.309,0
214713.641,18.066,30.762,26.367,-1.953,51.270,0
214713.645,11.230,35.645,18.555,4.395,58.594,0
214713.649,7.812,37.109,20.996,6.348,73.242,0
214713.652,15.625,35.645,24.902,14.160,61.035,0
214713.656,5.371,40.039,16.602,0.488,41.016,0
214713.660,-20.020,34.668,17.578,-32.715,-3.418,0
214713.664,-18.066,32.227,32.227,-24.902,11.230,0
214713.668,-17.090,37.109,24.902,-20.020,35.645,0
214713.672,-14.160,43.945,15.625,-22.461,12.207,0
214713.676,-5.371,50.293,27.832,-22.461,-15.137,0
214713.680,-22.461,41.504,38.574,-35.645,13.184,0
214713.684,-47.852,24.902,32.715,-46.875,26.855,0
214713.688,-60.059,31.250,17.578,-55.664,8.789,0
214713.692,-60.547,51.270,12.695,-58.105,63.477,0
214713.695,-59.082,59.570,10.254,-55.176,72.754,0
214713.699,-53.223,58.105,15.137,-51.270,41.504,0
214713.703,-37.109,53.223,25.879,-47.363,26.855,0
214713.707,-22.949,49.805,29.785,-37.598,21.484,0
214713.711,-22.461,42.969,30.273,-28.809,67.383,0
214713.715,-19.043,41.504,26.855,-20.996,48.340,0
214713.719,-3.906,46.875,20.508,-4.883,38.086,0
214713.723,-6.836,35.156,18.555,-7.812,60.059,0
214713.727,-11.719,32.715,18.555,-12.207,35.645,0
214713.731,-4.395,38.574,13.184,2.441,-8.789,0
214713.734,-1.953,38.574,15.625,9.277,-5.859,0
214713.738,12.207,43.945,22.461,8.789,30.762,0
214713.742,22.949,37.109,25.391,15.625,54.688,0
214713.746,19.043,34.668,27.344,17.090,28.809,0
214713.750,24.902,39.551,35.645,19.531,-21.973,0
214713.754,25.391,16.602,34.668,29.785,-12.207,0
214713.758,21.973,14.648,26.367,33.691,9.277,0
214713.762,22.461,37.109,25.391,31.738,-19.043,0
214713.766,23.438,41.992,29.785,37.598,-17.578,0
214713.770,29.785,26.855,25.391,35.156,33.203,0
214713.774,39.062,18.066,18.066,40.039,0.977,0
214713.777,38.574,21.484,27.344,47.363,-22.949,0
214713.781,37.598,18.066,35.156,44.922,-0.488,0
214713.785,41.504,24.902,34.668,52.246,24.414,0
214713.789,45.410,29.785,29.785,58.105,40.527,0
214713.793,51.758,33.691,26.367,59.570,61.035,0
214713.797,52.734,41.016,32.715,54.199,52.246,0
214713.801,40.039,31.738,32.227,50.293,34.668,0
214713.805,33.691,22.461,23.926,45.410,81.055,0
214713.809,42.969,26.855,17.578,39.062,63.965,0
214713.813,48.340,22.949,19.531,43.945,36.621,0
214713.817,45.410,19.043,30.273,46.387,67.383,0
214713.820,40.039,27.832,28.320,49.316,35.645,0
214713.824,42.969,34.668,18.555,53.711,24.902,0
214713.828,52.246,37.598,19.531,47.363,37.109,0
214713.832,50.293,33.691,35.645,45.898,50.781,0
214713.836,45.898,23.438,38.086,44.434,78.125,0
214713.840,41.504,14.160,30.273,36.133,42.969,0
214713.844,35.645,13.672,32.227,34.668,19.531,0
214713.848,35.156,15.625,33.203,38.574,40.039,0
214713.852,42.480,19.531,28.809,41.016,9.766,0
214713.856,45.898,24.414,24.414,40.039,-31.738,0
214713.859,41.016,26.367,25.391,51.758,20.020,0
214713.863,40.527,23.438,26.367,59.570,42.969,0
214713.867,39.062,21.484,23.926,46.875,32.227,0
214713.871,43.457,35.645,31.738,52.246,51.758,0
214713.875,45.898,39.551,36.621,60.547,41.504,0
214713.879,42.969,28.320,41.504,49.316,38.086,0
214713.883,43.945,20.020,32.715,41.016,52.246,0
214713.887,45.898,23.438,30.762,45.410,41.992,0
214713.891,42.480,31.250,35.156,39.551,16.113,0
214713.895,45.410,29.785,32.227,36.621,5.859,0
214713.899,45.410,28.320,26.855,32.715,0.000,0
214713.902,44.434,33.203,18.555,31.738,-1.465,0
214713.906,56.641,38.574,27.832,49.805,57.617,0
214713.910,53.223,33.691,37.598,50.293,57.617,0
214713.914,42.969,31.250,36.133,45.410,31.738,0
214713.918,44.434,24.414,26.855,45.898,55.664,0
214713.922,37.598,16.113,15.137,41.504,31.250,0
214713.926,38.086,24.902,24.902,48.340,6.348,0
214713.930,41.992,28.320,34.180,48.340,22.949,0
214713.934,41.992,26.855,29.785,43.457,3.906,0
214713.938,45.898,27.832,27.832,46.875,5.859,0
214713.942,43.457,21.484,30.762,47.852,7.812,0
214713.945,43.457,19.043,33.691,40.039,-23.926,0
214713.949,46.387,31.738,36.621,42.969,-24.902,0
214713.953,45.410,34.668,35.645,47.852,46.875,0
214713.957,51.270,34.668,36.621,57.617,36.133,0
214713.961,52.734,36.621,36.133,62.500,29.785,0
214713.965,45.410,27.344,19.043,52.246,73.242,0
214713.969,43.457,18.066,12.695,41.504,44.922,0
214713.973,47.363,26.367,24.414,36.621,25.391,0
214713.977,44.434,30.273,30.762,41.504,56.641,0
214713.981,42.480,30.273,30.273,36.621,75.195,0
214713.984,41.992,36.133,36.621,31.250,40.527,0
214713.988,34.668,33.203,36.621,27.344,22.461,0
214713.992,41.016,38.086,34.180,36.133,15.137,0
214713.996,53.223,47.363,41.016,54.688,12.207,0
214714.000,45.898,36.133,32.227,51.270,33.691,0
214714.004,41.504,25.879,17.090,41.504,39.062,0
214714.008,41.504,30.762,8.301,47.852,37.598,0
214714.012,38.574,32.227,17.090,52.734,57.129,0
214714.016,36.133,27.832,31.250,38.574,44.922,0
214714.020,36.621,25.879,34.668,23.926,53.711,0
214714.024,39.062,24.902,27.832,28.320,47.363,0
214714.027,36.621,27.832,20.508,35.156,-10.254,0
214714.031,34.180,34.180,23.926,34.668,35.645,0
214714.035,41.504,41.504,34.180,26.367,76.660,0
214714.039,44.434,43.457,41.504,29.297,60.547,0
214714.043,30.762,25.879,38.086,31.250,48.828,0
214714.047,27.832,10.742,29.297,30.762,21.973,0
214714.051,40.527,13.184,24.902,44.434,17.578,0
214714.055,36.621,19.043,28.809,36.133,6.348,0
214714.059,32.227,38.574,21.973,26.367,5.371,0
214714.063,40.527,52.734,15.137,42.480,24.902,0
214714.067,40.039,38.574,20.996,42.480,66.895,0
214714.070,35.645,28.809,27.832,31.738,72.266,0
214714.074,33.203,36.621,39.551,27.832,78.125,0
214714.078,32.715,35.156,44.434,21.484,55.176,0
214714.082,28.809,26.367,36.133,20.020,39.551,0
214714.086,32.715,28.809,31.250,27.344,83.984,0
214714.090,36.133,29.297,16.602,32.227,43.945,0
214714.094,33.691,28.809,10.742,29.297,39.551,0
214714.098,38.574,32.227,14.160,30.273,82.031,0
214714.102,45.898,39.551,20.996,35.645,107.910,0
214714.106,44.434,42.480,40.039,39.062,117.676,0
214714.109,48.340,40.527,47.852,39.062,97.168,0
214714.113,53.711,38.574,43.457,44.434,104.004,0
214714.117,53.223,32.715,31.250,52.246,127.930,0
214714.121,54.688,34.668,29.297,40.527,96.191,0
214714.125,54.199,35.156,27.832,30.273,20.508,0
214714.129,47.852,24.902,22.949,37.598,16.602,0
214714.133,39.062,26.367,23.926,31.250,62.988,0
214714.137,36.621,37.109,30.273,25.879,30.762,0
214714.141,38.086,36.133,34.668,29.297,11.719,0
214714.145,41.992,40.039,30.273,35.645,51.270,0
214714.149,44.922,44.434,26.367,49.316,27.832,0
214714.152,44.434,43.457,37.598,44.922,0.488,0
214714.156,36.133,40.039,43.945,32.227,23.438,0
214714.160,31.738,34.668,37.598,43.945,62.500,0
214714.164,35.645,29.785,36.133,49.316,64.941,0
214714.168,30.762,26.855,30.762,36.133,30.273,0
214714.172,36.133,35.156,30.762,41.016,16.602,0
214714.176,54.199,37.598,34.668,60.547,30.273,0
214714.180,48.828,30.762,30.762,59.082,43.457,0
214714.184,30.273,21.973,28.320,43.945,7.812,0
214714.188,33.203,29.785,32.715,41.016,13.672,0
214714.192,38.574,36.621,34.180,37.109,23.926,0
214714.195,40.527,32.715,31.250,34.668,20.508,0
214714.199,47.852,30.273,31.250,36.133,55.176,0
214714.203,37.598,27.832,26.367,33.203,73.730,0
214714.207,29.297,30.762,27.344,34.180,68.359,0
214714.211,29.785,32.715,33.691,36.621,42.969,0
214714.215,33.691,41.016,36.133,37.109,35.645,0
214714.219,37.109,39.551,35.156,37.109,16.602,0
214714.223,32.715,26.855,31.250,35.156,-7.324,0
214714.227,33.203,32.715,32.227,40.039,-7.324,0
214714.231,37.109,34.668,30.273,31.738,12.695,0
214714.234,32.715,28.320,34.180,23.926,34.668,2
214714.238,21.973,26.855,38.086,28.320,30.762,0
214714.242,25.391,20.508,29.785,35.645,33.691,0
214714.246,29.785,20.508,23.926,41.016,44.922,0
214714.250,27.832,33.203,31.738,35.645,42.480,0
214714.254,31.738,41.504,37.598,35.645,2.441,0
214714.258,34.180,32.227,24.902,39.062,9.277,0
214714.262,35.645,34.668,29.785,33.203,25.879,0
214714.266,37.109,39.551,51.270,26.855,2.930,0
214714.270,31.738,24.414,50.293,28.320,58.105,0
214714.274,20.020,19.531,42.969,21.973,46.387,0
214714.277,23.926,30.762,36.621,18.555,1.465,0
214714.281,29.785,30.762,30.273,26.367,23.438,0
214714.285,24.414,25.879,18.066,19.043,13.672,0
214714.289,28.809,25.879,9.277,20.996,35.156,0
214714.293,38.574,30.273,20.020,41.504,19.043,0
214714.297,46.875,48.340,30.762,50.293,-28.809,0
214714.301,43.457,42.969,31.250,37.598,-39.551,0
214714.305,28.320,22.949,35.645,22.461,-44.922,0
214714.309,17.090,23.926,38.086,13.672,-30.762,0
214714.313,18.555,24.414,31.250,12.207,-43.945,0
214714.317,26.855,17.578,25.391,22.949,-24.902,0
214714.320,30.273,18.555,23.438,22.461,-40.527,0
214714.324,34.668,26.855,23.926,25.879,-43.457,0
214714.328,38.574,32.715,27.832,40.039,-16.602,0
214714.332,32.715,38.574,35.645,36.621,-50.781,0
214714.336,20.996,37.598,33.203,25.879,-56.152,0
214714.340,20.020,31.738,26.855,30.273,-43.945,0
214714.344,31.738,23.438,31.738,30.273,-62.012,0
214714.348,36.133,18.555,29.785,29.297,-51.270,0
214714.352,30.762,28.809,21.973,39.062,-11.230,0
214714.356,33.691,35.645,29.297,36.133,-39.062,0
214714.359,32.715,33.203,26.855,23.438,-55.176,0
214714.363,30.762,43.457,27.344,17.090,-15.137,0
214714.367,31.250,47.363,40.527,14.648,-27.832,0
214714.371,32.715,45.410,33.691,23.438,-20.508,0
214714.375,38.574,44.922,22.461,31.738,-10.742,0
214714.379,38.574,35.156,23.438,29.297,-9.766,0
214714.383,36.133,31.738,32.715,30.762,13.672,0
214714.387,37.598,36.133,36.133,35.645,1.953,0
214714.391,40.039,36.621,37.109,37.598,42.969,0
214714.395,43.457,31.738,32.227,34.668,63.477,0
214714.399,43.945,26.855,23.926,35.645,60.547,0
214714.402,49.316,37.109,29.785,43.945,31.250,0
214714.406,44.434,43.457,34.668,40.039,-11.719,0
214714.410,30.273,34.668,30.273,28.809,9.766,0
214714.414,24.414,27.344,23.926,19.531,29.785,0
214714.418,22.949,27.832,20.996,14.160,31.738,0
214714.422,24.414,31.738,30.762,23.926,38.086,0
214714.426,26.855,32.227,31.738,33.203,20.508,0
214714.430,29.297,34.668,25.879,29.785,22.949,0
214714.434,33.203,37.109,28.809,35.645,12.207,0
214714.438,38.086,34.180,29.785,40.527,23.926,0
214714.442,38.086,30.273,27.344,35.645,91.309,0
214714.445,33.203,38.086,26.367,31.738,46.875,0
214714.449,31.250,45.410,21.484,33.203,18.555,0
214714.453,25.879,33.203,24.902,27.344,-4.395,0
214714.457,16.602,20.508,36.621,12.695,-20.996,0
214714.461,17.090,24.902,38.086,19.043,11.719,0
214714.465,25.879,31.738,32.715,28.320,-20.508,0
214714.469,30.762,36.621,34.180,30.273,-6.348,0
214714.473,29.785,32.227,37.109,30.762,40.527,0
214714.477,33.203,32.227,24.414,31.738,32.715,0
214714.481,38.574,33.691,15.137,35.156,5.859,0
214714.484,30.273,27.344,13.672,31.250,10.742,0
214714.488,30.762,32.715,20.996,40.039,37.109,0
214714.492,43.457,37.598,30.762,51.758,26.855,0
214714.496,38.086,32.227,32.227,46.387,-28.320,0
214714.500,26.367,26.367,33.691,30.273,-34.668,0
214714.504,36.133,26.855,39.062,33.203,6.348,0
214714.508,37.598,29.297,38.086,47.363,11.719,0
214714.512,22.461,24.902,28.809,33.203,3.906,0
214714.516,24.414,27.344,24.414,32.227,-7.324,0
214714.520,34.180,25.879,24.414,46.387,-20.996,0
214714.524,31.250,23.926,28.320,43.945,-25.391,0
214714.527,25.879,23.926,39.551,40.039,-0.488,0
214714.531,22.461,17.578,32.715,32.227,29.297,0
214714.535,24.414,25.391,23.926,24.902,42.480,0
214714.539,32.715,37.109,33.691,39.062,20.508,0
214714.543,30.762,30.762,33.691,40.039,-1.953,0
214714.547,27.344,21.973,31.738,28.809,14.160,0
214714.551,31.250,29.785,40.039,33.691,2.441,0
214714.555,34.180,41.504,45.898,36.133,6.836,0
214714.559,31.250,37.598,36.621,26.855,-10.254,0
214714.563,19.043,28.320,24.902,19.531,-14.648,0
214714.567,8.301,24.414,21.484,12.695,33.691,0
214714.570,15.625,19.043,15.625,17.090,29.297,0
214714.574,22.949,18.555,18.555,24.414,-7.324,0
214714.578,23.926,30.762,36.133,25.391,-1.465,0
214714.582,36.133,34.668,36.621,35.156,23.438,0
214714.586,38.574,32.715,31.738,38.086,65.430,0
214714.590,30.273,31.250,29.297,33.691,49.805,0
214714.594,31.250,26.367,25.391,38.574,22.949,0
214714.598,37.109,31.250,28.320,39.551,38.574,0
214714.602,34.668,34.668,25.879,21.973,8.301,0
214714.606,24.414,17.578,25.391,14.160,-29.785,0
214714.609,29.297,18.066,20.508,23.438,-6.348,0
214714.613,41.992,29.297,22.949,29.785,5.371,0
214714.617,36.133,29.785,32.715,30.273,-18.555,0
214714.621,22.949,38.574,26.367,27.832,-30.273,0
214714.625,17.090,38.574,21.973,21.973,-5.859,0
214714.629,19.531,31.738,29.297,26.855,18.066,0
214714.633,29.297,35.156,41.504,42.969,28.809,0
214714.637,37.109,30.762,44.434,41.992,-4.883,0
214714.641,35.645,25.879,40.527,40.039,6.348,0
214714.645,27.832,25.391,31.250,38.574,53.223,0
214714.649,24.902,27.832,20.508,33.691,27.344,0
214714.652,20.508,34.668,11.230,27.832,30.762,0
214714.656,16.602,41.016,12.695,21.973,22.949,0
214714.660,31.250,44.434,34.668,24.414,-5.859,0
214714.664,40.527,43.457,47.363,20.020,-5.371,0
214714.668,33.203,40.039,32.715,19.043,11.230,0
214714.672,24.902,30.273,20.508,16.113,55.664,0
214714.676,19.043,18.066,24.902,8.789,75.684,0
214714.680,21.484,14.160,33.203,10.742,116.699,0
214714.684,38.086,21.484,34.668,21.484,88.379,0
214714.688,40.039,29.297,30.273,34.668,73.242,0
214714.692,42.969,38.574,32.715,42.969,112.305,0
214714.695,47.852,31.250,32.227,29.785,75.195,0
214714.699,26.855,21.484,27.344,21.484,82.031,0
214714.703,11.230,29.785,23.926,21.484,93.262,0
214714.707,14.648,33.691,32.227,13.184,54.199,0
214714.711,19.531,29.297,42.969,14.160,28.320,0
214714.715,23.926,29.785,33.691,26.855,28.809,0
214714.719,29.785,32.227,20.508,42.480,64.453,0
214714.723,35.156,30.762,30.762,51.758,69.824,0
214714.727,37.598,33.691,45.410,44.922,93.262,0
214714.731,31.738,24.902,39.551,33.691,107.910,0
214714.734,17.578,9.766,31.250,29.785,65.430,0
214714.738,13.672,22.461,27.832,24.414,27.344,0
214714.742,21.484,31.738,27.832,37.109,19.043,0
214714.746,27.344,28.320,35.645,41.992,62.500,0
214714.750,25.879,33.203,27.832,28.320,101.074,0
214714.754,21.484,44.434,25.879,29.297,95.215,0
214714.758,23.926,39.551,34.668,24.414,54.199,0
214714.762,25.879,20.996,37.109,26.855,27.832,0
214714.766,27.344,34.180,34.668,28.809,28.809,0
214714.770,25.879,55.176,32.715,25.391,40.039,0
214714.774,22.949,48.340,36.133,26.367,25.391,0
214714.777,24.414,44.922,38.574,25.879,20.508,0
214714.781,20.508,38.086,29.297,18.555,0.977,0
214714.785,23.926,27.832,30.762,20.508,-24.902,0
214714.789,29.785,26.855,35.156,28.809,-1.465,0
214714.793,41.504,33.203,27.832,44.922,20.996,0
214714.797,47.852,42.480,43.457,56.641,21.484,0
214714.801,36.133,47.363,52.734,42.480,20.508,0
214714.805,29.785,46.875,38.574,42.969,6.836,0
214714.809,29.297,30.273,41.016,54.688,8.789,0
214714.813,35.156,25.391,43.945,55.664,0.000,0
214714.817,35.645,31.738,40.527,45.898,10.254,0
214714.820,27.344,26.855,35.645,30.273,46.387,0
214714.824,26.367,20.020,31.738,29.785,31.250,0
214714.828,25.391,24.414,36.133,27.344,0.977,0
214714.832,27.344,38.574,37.598,24.902,-29.297,0
214714.836,30.273,48.828,40.039,35.156,3.418,0
214714.840,25.391,41.992,35.156,29.297,18.066,0
214714.844,22.949,30.762,25.879,22.949,-8.301,0
214714.848,28.809,32.227,26.367,35.156,12.207,0
214714.852,32.227,24.902,26.855,38.086,85.938,0
214714.856,29.785,19.043,24.414,37.598,115.234,0
214714.859,36.621,37.109,27.344,42.480,87.402,0
214714.863,45.898,44.434,38.086,42.480,72.754,0
214714.867,47.852,41.504,43.457,42.480,85.938,0
214714.871,53.711,47.363,44.922,50.781,37.109,0
214714.875,44.434,43.457,40.039,42.969,4.395,0
214714.879,34.180,32.715,23.438,32.227,32.715,0
214714.883,39.551,26.367,21.973,39.551,69.336,0
214714.887,48.340,30.762,36.133,47.363,77.637,0
214714.891,47.363,33.691,37.598,44.922,76.660,0
214714.895,41.992,31.738,36.621,45.898,101.562,0
214714.899,41.992,36.133,31.738,43.457,94.238,0
214714.902,43.457,34.668,26.855,36.621,44.434,0
214714.906,42.480,39.062,30.762,41.504,26.367,0
214714.910,34.180,45.410,30.273,41.016,56.152,0
214714.914,31.738,38.086,27.344,38.086,50.781,0
214714.918,37.109,33.203,20.508,32.227,43.945,0
214714.922,47.363,33.691,19.043,33.691,45.898,0
214714.926,46.387,27.832,34.668,49.316,24.414,0
214714.930,36.133,25.391,35.156,45.898,2.930,0
214714.934,37.109,31.250,32.227,30.762,-4.883,1
214714.938,41.992,36.621,25.879,32.715,29.297,0
214714.942,41.992,40.039,17.090,41.992,68.359,0
214714.945,40.039,40.527,19.531,44.922,44.434,0
214714.949,41.504,34.180,33.203,42.969,10.742,0
214714.953,44.434,38.086,43.457,48.340,0.000,0
214714.957,33.691,37.598,39.551,41.992,17.578,0
214714.961,21.973,19.043,33.691,19.531,30.762,0
214714.965,27.832,16.113,32.227,21.973,3.906,0
214714.969,31.738,35.156,30.762,31.250,-33.203,0
214714.973,29.785,37.109,25.391,29.297,-5.371,0
214714.977,30.762,31.250,23.926,23.926,32.715,0
214714.981,34.668,37.109,16.602,20.508,3.418,0
214714.984,41.016,44.922,23.926,32.715,-0.977,0
214714.988,41.504,47.852,38.086,45.410,25.391,0
214714.992,36.621,43.945,36.133,43.457,25.879,0
214714.996,39.062,38.574,32.715,34.668,27.344,0
214715.000,32.715,29.297,36.133,25.879,45.410,0
214715.004,34.180,20.020,41.016,31.738,45.410,0
214715.008,41.992,16.113,32.715,41.504,50.781,0
214715.012,35.645,26.367,32.715,37.598,44.922,0
214715.016,33.691,33.691,37.598,33.203,61.035,0
214715.020,31.738,27.344,30.762,43.457,46.875,0
214715.024,23.438,34.180,31.738,32.227,-11.230,0
214715.027,24.414,42.969,26.367,17.578,-10.742,0
214715.031,36.133,45.898,22.949,38.086,32.227,0
214715.035,39.062,49.805,36.133,41.992,45.898,0
214715.039,34.180,46.875,35.156,29.297,80.566,0
214715.043,38.086,40.039,30.273,33.691,82.031,0
214715.047,44.922,36.621,33.203,41.504,31.250,0
214715.051,38.574,38.086,38.086,33.691,10.742,0
214715.055,39.062,43.945,32.715,32.227,30.273,0
214715.059,42.969,38.086,23.926,32.227,39.551,0
214715.063,33.691,18.555,19.531,31.738,23.438,0
214715.067,33.203,19.043,23.438,32.227,23.438,0
214715.070,27.832,28.809,27.832,18.066,25.879,0
214715.074,22.949,31.250,35.156,29.297,18.555,0
214715.078,32.715,40.039,46.387,46.875,40.039,0
214715.082,34.668,38.574,45.410,34.180,64.941,0
214715.086,27.344,22.949,32.227,15.625,34.180,0
214715.090,29.785,30.762,28.809,24.414,28.320,0
214715.094,31.250,45.410,29.785,33.203,36.621,0
214715.098,25.879,38.574,22.461,27.832,18.555,0
214715.102,25.879,33.691,18.066,27.344,19.043,0
214715.106,24.902,35.645,22.949,32.227,49.316,0
214715.109,25.879,31.738,32.227,33.691,79.590,0
214715.113,30.762,31.250,33.691,30.273,67.871,0
214715.117,34.668,28.320,36.621,27.344,24.414,0
214715.121,33.203,20.996,38.574,33.203,41.016,0
214715.125,28.809,21.484,40.039,37.109,81.543,0
214715.129,22.461,23.438,35.156,28.320,62.500,0
214715.133,19.531,28.320,28.809,29.297,23.926,0
214715.137,20.020,26.855,18.066,32.227,23.926,0
214715.141,29.297,28.809,15.137,29.785,33.691,0
214715.145,34.180,36.621,27.344,26.855,26.855,0
214715.149,25.391,31.250,31.738,21.973,15.137,0
214715.152,27.832,28.809,30.273,21.484,47.363,0
214715.156,40.527,31.250,24.414,28.320,51.270,0
214715.160,40.039,32.227,20.996,18.555,6.836,0
214715.164,36.133,25.879,32.715,18.555,-9.277,0
214715.168,39.551,33.203,32.227,32.715,-0.977,0
214715.172,40.527,38.574,22.949,32.715,28.809,0
214715.176,34.180,27.344,35.645,28.320,16.113,0
214715.180,24.902,25.879,36.133,24.414,22.949,0
214715.184,28.320,36.133,26.855,26.855,33.691,0
214715.188,29.785,40.527,20.508,25.879,21.484,0
214715.192,32.715,38.086,15.137,26.367,63.965,0
214715.195,41.504,37.598,25.391,35.156,73.242,0
214715.199,34.180,32.227,40.527,33.203,40.039,0
214715.203,28.320,23.926,38.574,25.391,8.301,0
214715.207,34.180,28.320,34.180,33.691,9.766,0
214715.211,31.738,32.227,29.785,41.504,44.434,0
214715.215,18.555,18.555,21.484,28.320,39.062,0
214715.219,14.648,17.090,21.973,27.832,0.488,0
214715.223,19.531,24.902,23.438,32.715,11.719,0
214715.227,22.949,24.414,20.508,37.598,47.363,0
214715.231,29.297,20.996,15.625,36.133,40.527,0
214715.234,28.320,20.996,22.461,20.020,39.551,0
214715.238,29.785,29.785,19.531,20.996,41.992,0
214715.242,32.715,32.227,11.719,29.297,22.461,0
214715.246,31.738,29.297,23.438,27.344,13.184,0
214715.250,37.598,25.879,31.738,29.297,-6.348,0
214715.254,40.527,22.461,32.715,37.598,26.855,0
214715.258,33.691,24.902,29.785,43.457,48.828,0
214715.262,29.785,28.320,30.273,40.039,34.668,0
214715.266,25.879,29.785,21.973,31.738,38.574,0
214715.270,20.508,29.297,12.207,32.227,38.574,0
214715.274,19.043,26.855,19.043,27.832,23.926,0
214715.277,22.949,21.484,23.926,20.996,27.832,0
214715.281,23.926,16.602,22.461,17.090,15.137,0
214715.285,22.461,29.785,24.414,16.113,-3.418,0
214715.289,28.320,43.457,27.832,23.438,7.812,0
214715.293,34.180,43.457,27.832,35.645,-5.859,0
214715.297,30.273,37.109,26.855,30.273,17.578,0
214715.301,29.297,37.598,29.785,34.668,39.062,0
214715.305,30.762,38.086,21.484,51.270,50.293,0
214715.309,28.320,33.203,17.090,37.109,55.176,0
214715.313,32.715,29.785,26.367,23.438,71.289,0
214715.317,29.297,25.391,24.414,23.438,76.660,0
214715.320,29.785,26.855,30.273,19.531,29.785,0
214715.324,31.250,26.367,33.203,19.531,10.254,0
214715.328,28.320,20.996,30.273,15.625,45.898,0
214715.332,25.879,22.461,25.879,9.766,66.895,0
214715.336,28.320,34.668,19.043,11.719,35.156,0
214715.340,32.227,36.133,21.973,22.461,12.207,0
214715.344,27.832,33.203,19.043,30.273,36.621,0
214715.348,21.484,32.227,17.090,22.949,50.293,0
214715.352,21.484,32.715,28.809,20.508,13.184,0
214715.356,20.020,30.273,36.133,18.555,-11.719,0
214715.359,15.625,24.414,32.227,28.809,35.156,0
214715.363,17.578,26.367,25.879,39.551,44.434,0
214715.367,14.648,26.367,25.879,25.879,-3.906,0
214715.371,14.648,20.996,30.762,19.043,-5.859,0
214715.375,17.578,17.090,28.320,25.879,39.551,0
214715.379,20.508,24.414,28.320,35.156,71.777,0
214715.383,25.391,35.645,40.039,39.062,85.449,0
214715.387,31.738,32.715,40.527,57.617,48.828,0
214715.391,30.762,28.320,30.762,53.711,21.484,0
214715.395,25.391,17.578,23.438,28.809,29.785,0
214715.399,28.320,15.137,31.738,24.414,-19.043,0
214715.402,29.785,27.832,29.785,19.043,-8.301,0
214715.406,25.879,26.855,17.578,22.461,28.809,0
214715.410,31.738,29.297,26.367,29.785,11.230,0
214715.414,39.551,35.645,31.738,32.715,2.930,0
214715.418,36.621,37.109,27.832,32.715,29.297,0
214715.422,32.227,33.203,30.762,31.738,75.684,0
214715.426,32.715,25.391,34.668,30.762,74.707,0
214715.430,32.715,26.367,34.180,34.180,50.781,0
214715.434,25.879,27.344,27.344,29.785,48.340,0
214715.438,24.902,25.391,26.367,25.879,49.316,0
214715.442,22.949,21.973,25.391,26.367,21.484,0
214715.445,27.344,28.320,25.879,25.391,-8.789,0
214715.449,37.109,35.645,33.203,35.156,51.758,0
214715.453,33.691,34.668,31.250,36.133,96.680,0
214715.457,32.715,30.273,20.020,29.297,51.758,0
214715.461,35.156,31.738,14.648,32.227,20.020,0
214715.465,32.715,33.691,31.250,27.832,45.898,0
214715.469,38.574,37.598,32.715,24.414,55.176,0
214715.473,37.598,40.039,22.461,25.391,28.320,0
214715.477,27.832,30.762,20.020,25.391,40.527,0
214715.481,28.320,27.832,20.508,28.320,24.414,0
214715.484,29.297,30.273,27.832,29.785,19.531,0
214715.488,32.227,27.344,30.762,29.297,55.176,0
214715.492,39.062,26.855,34.180,36.133,61.523,0
214715.496,40.039,34.668,32.227,41.992,49.316,0
214715.500,35.156,32.227,29.297,32.715,-14.648,0
214715.504,26.855,16.602,25.879,27.344,-16.602,0
214715.508,21.973,19.531,24.414,26.855,2.930,0
214715.512,24.414,36.621,28.320,29.785,9.277,0
214715.516,24.414,42.480,31.250,38.574,28.809,0
214715.520,17.090,33.691,32.715,40.527,-9.277,0
214715.524,15.137,32.227,33.691,29.297,-17.578,0
214715.527,20.996,38.086,30.273,21.973,29.785,0
214715.531,24.414,29.785,30.273,25.391,32.227,0
214715.535,30.273,30.273,28.809,28.809,20.996,0
214715.539,24.414,30.762,26.855,23.926,35.156,0
214715.543,20.020,26.855,24.902,27.344,30.273,0
214715.547,25.391,27.832,24.902,33.203,-8.789,0
214715.551,22.949,26.855,19.531,20.996,-12.695,0
214715.555,26.367,35.645,21.973,22.949,59.082,0
214715.559,34.180,36.133,33.203,32.715,92.773,0
214715.563,29.785,26.855,27.832,28.809,72.266,0
214715.567,28.320,28.809,24.902,31.738,64.453,0
214715.570,33.203,24.414,35.156,33.691,88.379,0
214715.574,30.762,18.066,28.809,30.762,82.031,0
214715.578,27.344,24.414,10.254,28.809,82.520,1
214715.582,32.227,31.250,15.625,36.133,107.422,0
214715.586,37.109,33.691,34.668,47.363,90.820,0
214715.590,36.133,34.180,41.504,41.992,41.016,0
214715.594,35.645,25.391,36.133,30.762,28.320,0
214715.598,37.598,26.855,28.809,35.645,55.176,0
214715.602,36.621,43.945,22.949,47.852,73.730,0
214715.606,21.484,40.039,23.926,32.715,66.406,0
214715.609,12.207,25.391,30.273,19.043,44.434,0
214715.613,21.973,20.508,39.062,30.273,29.785,0
214715.617,29.297,27.344,41.992,38.086,30.762,0
214715.621,29.785,39.062,19.531,35.645,30.762,0
214715.625,34.180,42.480,12.207,30.762,3.906,0
214715.629,33.691,30.273,29.297,29.785,-0.488,0
214715.633,29.785,25.391,24.902,33.691,26.855,0
214715.637,35.156,36.621,22.949,36.133,24.414,0
214715.641,36.133,41.504,33.203,39.551,2.930,0
214715.645,29.785,40.527,37.598,36.621,21.973,0
214715.649,27.344,36.133,43.945,27.832,70.312,0
214715.652,28.809,31.250,39.062,21.973,42.969,0
214715.656,32.227,31.250,32.227,28.320,9.277,0
214715.660,33.203,22.949,32.715,30.273,35.645,0
214715.664,32.715,20.508,25.879,28.320,38.086,0
214715.668,36.133,34.668,27.832,33.691,36.621,0
214715.672,40.527,47.363,34.180,32.715,0.977,0
214715.676,43.945,48.340,29.297,35.645,-38.086,0
214715.680,37.109,35.645,23.926,37.109,-30.762,0
214715.684,35.156,29.785,25.391,27.832,-49.805,0
214715.688,38.574,31.738,39.062,29.297,-39.062,0
214715.692,35.645,32.227,45.410,37.598,-34.180,0
214715.695,38.086,34.180,35.645,43.457,-16.113,0
214715.699,43.457,37.109,19.531,54.199,37.598,0
214715.703,43.945,29.785,19.531,53.223,83.496,0
214715.707,37.598,25.879,32.227,36.133,76.172,0
214715.711,25.391,24.902,32.227,24.902,50.293,0
214715.715,15.625,25.879,28.320,22.949,45.410,0
214715.719,18.555,34.180,30.273,22.461,42.480,0
214715.723,25.391,34.180,31.738,24.902,14.160,0
214715.727,22.949,31.250,32.227,25.391,19.043,0
214715.731,17.090,25.391,34.180,17.578,39.551,0
214715.734,17.090,29.785,33.691,19.531,28.320,0
214715.738,27.344,39.062,37.109,43.945,54.688,0
214715.742,23.926,37.109,36.621,45.410,70.801,0
214715.746,20.508,38.086,38.086,27.344,68.359,0
214715.750,25.879,37.598,35.645,26.855,57.129,0
214715.754,19.531,31.250,21.973,23.438,65.430,0
214715.758,15.137,26.855,25.879,23.926,87.891,0
214715.762,20.508,25.879,31.250,27.344,33.203,0
214715.766,31.250,34.668,32.715,31.738,20.996,0
214715.770,29.297,31.738,34.180,30.273,65.918,0
214715.774,22.949,28.809,29.297,25.879,22.949,0
214715.777,32.227,40.039,30.273,36.133,-16.113,0
214715.781,27.832,40.039,30.762,42.969,64.941,0
214715.785,20.996,30.762,28.809,31.250,76.172,0
214715.789,24.902,28.809,29.297,19.043,41.992,0
214715.793,31.250,30.762,33.203,27.344,54.688,0
214715.797,31.250,30.762,38.086,34.668,40.527,0
214715.801,23.438,27.344,40.527,26.367,4.883,0
214715.805,25.391,22.949,39.551,26.855,15.137,0
214715.809,31.738,13.184,27.344,39.062,41.016,0
214715.813,31.250,19.531,25.391,28.809,20.996,0
214715.817,26.855,41.504,34.180,20.020,30.762,0
214715.820,27.344,44.434,30.762,24.902,16.113,0
214715.824,29.297,40.039,25.879,24.902,12.695,0
214715.828,31.738,38.086,26.367,24.902,27.832,0
214715.832,33.691,31.738,26.367,24.414,18.066,0
214715.836,40.527,29.785,30.273,38.574,-11.230,0
214715.840,49.316,37.109,34.180,45.898,-6.836,0
214715.844,47.363,39.062,36.133,31.250,34.668,0
214715.848,46.387,35.156,39.062,29.297,23.438,0
214715.852,47.852,32.715,36.133,35.156,0.977,0
214715.856,39.062,26.855,30.762,29.785,31.738,0
214715.859,39.062,31.738,32.227,20.508,78.125,0
214715.863,40.527,41.992,31.738,17.090,53.223,0
214715.867,28.809,39.551,29.785,22.461,42.969,0
214715.871,29.785,38.086,32.715,30.762,49.805,0
214715.875,31.250,38.086,32.715,27.344,67.383,0
214715.879,28.320,35.645,36.621,25.391,96.680,0
214715.883,35.156,36.621,39.551,32.715,56.152,0
214715.887,37.598,37.598,35.645,40.527,52.734,0
214715.891,32.227,31.738,32.227,41.992,74.219,0
214715.895,28.809,23.438,30.762,26.855,36.621,0
214715.899,30.273,30.762,30.273,19.043,42.969,0
214715.902,25.391,38.086,31.738,19.043,41.504,0
214715.906,24.902,31.250,34.180,19.043,26.367,0
214715.910,33.691,29.785,32.227,22.461,35.645,0
214715.914,41.016,38.574,28.320,36.621,41.504,0
214715.918,42.480,44.922,29.785,42.480,42.480,0
214715.922,42.969,45.410,28.320,34.668,22.461,0
214715.926,41.504,37.109,30.273,37.598,1.465,0
214715.930,39.062,37.109,31.250,41.992,-0.977,0
214715.934,41.992,45.410,37.109,45.410,3.906,0
214715.938,39.551,43.457,44.922,44.434,9.277,0
214715.942,38.086,39.062,41.016,41.992,7.324,0
214715.945,44.434,30.273,36.621,38.574,50.781,0
214715.949,47.852,28.809,40.039,46.875,53.711,0
214715.953,41.504,31.738,37.598,43.945,-6.348,0
214715.957,39.062,34.668,26.855,32.227,20.508,0
214715.961,39.551,42.480,25.391,39.551,57.129,0
214715.965,36.133,39.062,33.691,39.551,46.875,0
214715.969,36.621,38.086,41.992,28.320,44.922,0
214715.973,41.992,46.875,49.316,31.250,49.805,0
214715.977,39.551,41.504,42.480,36.621,99.121,0
214715.981,34.668,32.715,25.879,25.391,110.352,0
214715.984,38.086,27.344,26.367,23.926,64.453,0
214715.988,35.645,20.508,33.203,33.691,7.324,0
214715.992,29.297,30.762,33.203,30.273,46.875,0
214715.996,31.250,39.551,35.156,20.020,76.172,0
214716.000,28.809,31.738,30.762,17.090,36.621,0
214716.004,31.250,30.762,24.414,30.762,58.105,0
214716.008,34.668,33.691,27.344,38.574,74.219,0
214716.012,38.086,35.156,30.273,34.668,45.410,0
214716.016,44.434,35.156,25.391,41.016,69.824,0
214716.020,40.039,32.715,30.762,44.434,38.086,0
214716.024,35.645,30.762,32.715,36.133,-8.301,0
214716.027,33.691,26.367,32.715,28.320,-4.395,0
214716.031,34.180,29.297,26.367,30.273,-21.973,0
214716.035,36.133,35.156,26.367,41.016,14.648,0
214716.039,37.109,34.180,37.109,41.016,-4.395,0
214716.043,38.086,31.250,34.180,28.320,-43.945,0
214716.047,40.039,29.785,31.738,24.414,-38.574,0
214716.051,39.062,34.668,22.949,33.203,-2.930,0
214716.055,41.992,46.875,18.066,44.922,28.320,0
214716.059,40.039,45.410,28.320,45.410,20.996,0
214716.063,34.668,36.621,36.621,31.250,39.551,0
214716.067,26.367,31.250,35.156,21.973,60.059,0
214716.070,28.320,22.461,28.809,30.273,44.922,0
214716.074,37.598,24.414,27.832,37.109,-4.883,0
214716.078,38.086,28.809,20.020,38.574,-7.812,0
214716.082,42.480,29.297,22.461,43.945,25.391,0
214716.086,34.180,28.809,30.762,37.598,28.320,0
214716.090,23.926,31.250,35.645,29.785,31.738,0
214716.094,29.297,32.715,36.621,30.273,13.672,0
214716.098,26.855,25.879,30.762,26.367,-23.926,0
214716.102,25.391,27.832,25.391,19.043,-9.277,0
214716.106,25.879,31.738,24.414,20.508,5.371,0
214716.109,21.484,18.555,26.855,24.414,-7.324,0
214716.113,24.414,18.555,29.785,22.461,-11.230,0
214716.117,29.297,35.156,24.902,17.578,-27.832,0
214716.121,31.738,43.945,21.484,27.344,-19.531,0
214716.125,22.949,41.016,26.367,30.273,11.719,0
214716.129,18.555,36.133,28.320,24.902,52.246,0
214716.133,28.809,39.551,24.902,36.133,24.902,0
214716.137,28.809,35.156,20.996,45.898,50.781,0
214716.141,24.414,18.555,17.090,40.527,73.242,1
214716.145,24.414,20.996,17.090,31.250,43.945,0
214716.149,12.695,26.855,19.043,16.602,18.066,0
214716.152,11.230,17.090,23.926,14.160,-12.695,0
214716.156,26.367,15.625,32.227,29.297,13.672,0
214716.160,39.062,33.203,34.180,39.062,16.602,0
214716.164,42.969,41.992,35.645,44.922,26.367,0
214716.168,40.527,39.551,28.320,43.945,47.363,0
214716.172,29.785,37.109,16.602,34.180,24.902,0
214716.176,29.297,37.109,23.438,37.598,31.738,0
214716.180,38.086,41.016,36.133,52.734,68.359,0
214716.184,40.039,40.527,36.621,55.664,52.734,0
214716.188,37.598,37.109,34.668,47.363,33.203,0
214716.192,31.738,32.227,27.832,40.039,-19.043,0
214716.195,27.344,18.555,20.508,32.227,-18.066,0
214716.199,25.391,14.160,20.508,27.344,10.254,0
214716.203,33.691,26.367,23.926,33.203,4.883,0
214716.207,39.062,33.691,32.715,34.180,6.348,0
214716.211,32.715,32.715,27.344,27.832,12.207,0
214716.215,34.180,36.133,24.902,30.273,19.043,0
214716.219,39.062,41.992,32.227,33.691,13.184,0
214716.223,47.363,52.734,39.551,42.480,26.855,0
214716.227,43.945,48.828,37.598,41.504,37.109,0
214716.231,29.297,31.250,23.926,25.879,41.504,0
214716.234,26.855,31.250,24.414,23.926,12.695,0
214716.238,28.320,30.273,26.367,29.785,-19.531,0
214716.242,29.785,27.832,20.996,30.762,12.207,0
214716.246,26.367,31.738,24.902,30.762,82.031,0
214716.250,20.996,24.902,29.785,20.996,79.590,0
214716.254,21.973,22.949,31.738,15.137,31.738,0
214716.258,20.996,27.344,27.344,25.391,30.762,0
214716.262,24.902,31.250,27.344,34.180,71.289,0
214716.266,32.227,40.039,31.738,32.715,26.855,0
214716.270,34.668,37.598,27.344,30.273,-8.301,0
214716.274,35.156,30.762,35.645,29.297,45.410,0
214716.277,31.250,28.809,39.551,28.320,47.363,0
214716.281,32.715,29.785,23.926,33.691,-5.859,0
214716.285,37.598,40.527,22.949,32.715,2.930,0
214716.289,34.668,41.016,30.762,25.391,17.578,0
214716.293,32.227,24.902,24.902,29.297,25.879,0
214716.297,33.203,16.602,20.996,25.879,37.109,0
214716.301,33.203,20.020,18.555,20.996,54.688,0
214716.305,39.062,27.344,23.926,30.762,78.125,0
214716.309,35.156,33.203,29.297,33.691,70.801,0
214716.313,32.227,36.133,28.320,27.832,47.852,0
214716.317,35.645,39.551,31.738,29.297,67.871,0
214716.320,33.203,36.133,35.645,33.691,84.961,0
214716.324,29.785,35.156,32.715,30.762,81.055,0
214716.328,23.438,29.785,24.414,24.902,40.039,0
214716.332,21.484,24.902,17.578,20.020,27.832,0
214716.336,23.926,28.320,17.578,29.297,64.941,0
214716.340,21.484,27.832,28.320,33.691,63.965,0
214716.344,20.508,26.855,29.297,26.367,32.715,0
214716.348,21.484,32.715,12.695,33.691,46.875,0
214716.352,23.926,38.574,13.672,38.574,85.938,0
214716.356,35.645,40.527,31.250,38.086,63.965,0
214716.359,36.621,34.180,34.180,34.180,55.664,0
214716.363,27.344,25.879,33.691,25.879,95.215,0
214716.367,24.414,31.250,38.574,28.809,83.008,0
214716.371,26.367,26.855,33.691,30.762,45.898,0
214716.375,26.367,23.926,19.531,20.996,22.461,0
214716.379,20.020,29.785,20.020,22.949,44.922,0
214716.383,19.531,28.809,25.879,28.809,20.020,0
214716.387,20.508,29.297,22.949,27.344,-14.160,0
214716.391,23.926,30.273,27.832,33.203,-0.977,0
214716.395,31.738,32.715,26.367,40.527,53.711,0
214716.399,30.762,39.551,23.926,38.574,44.434,0
214716.402,24.902,34.180,36.621,26.367,9.766,0
214716.406,17.578,12.695,32.227,19.043,6.348,0
214716.410,11.230,9.766,22.461,22.461,21.484,0
214716.414,10.742,23.438,19.531,17.578,40.527,0
214716.418,15.137,34.180,24.902,14.160,20.508,0
214716.422,14.160,36.133,30.273,14.160,21.484,0
214716.426,11.719,31.250,26.367,12.207,42.969,0
214716.430,16.113,33.691,28.809,17.090,55.176,0
214716.434,18.066,36.133,30.762,20.996,73.730,0
214716.438,20.508,33.203,23.926,29.297,76.660,0
214716.442,24.902,35.645,13.672,41.504,42.480,0
214716.445,24.414,35.645,13.672,36.621,33.691,0
214716.449,20.996,29.785,28.809,33.691,37.598,0
214716.453,17.578,27.832,33.203,35.156,15.625,0
214716.457,22.949,27.832,32.715,34.668,26.367,0
214716.461,29.297,30.762,38.086,36.133,41.016,0
214716.465,21.484,28.809,30.762,33.691,12.695,0
214716.469,20.508,25.879,24.902,38.086,46.875,0
214716.473,29.297,31.738,34.180,40.527,60.059,0
214716.477,35.156,36.621,35.645,30.762,11.230,0
214716.481,39.062,36.133,27.832,32.715,0.488,0
214716.484,35.156,32.715,30.762,41.992,31.250,0
214716.488,31.250,26.367,39.062,37.598,46.387,0
214716.492,28.809,25.391,39.062,32.227,11.230,0
214716.496,25.391,28.809,35.645,31.250,0.000,0
214716.500,22.949,26.855,30.762,26.855,40.039,0
214716.504,23.926,27.344,27.832,32.715,37.598,0
214716.508,23.926,27.832,29.297,35.645,34.180,0
214716.512,24.414,23.438,26.367,31.250,56.152,0
214716.516,28.320,25.879,24.414,29.785,35.645,0
214716.520,29.297,35.645,27.344,25.879,0.977,0
214716.524,32.715,39.551,35.156,28.809,-2.930,0
214716.527,40.527,42.480,34.180,34.180,4.883,0
214716.531,35.645,39.551,28.809,29.785,34.180,0
214716.535,27.832,25.391,29.297,24.414,44.922,0
214716.539,25.879,14.160,31.738,25.879,72.266,0
214716.543,27.344,18.066,28.809,35.645,69.824,0
214716.547,30.762,32.715,23.438,36.621,36.621,0
214716.551,28.809,37.598,25.391,28.320,12.695,0
214716.555,26.855,23.926,24.414,34.180,-2.930,0
214716.559,33.203,18.555,24.902,41.504,24.902,0
214716.563,40.039,27.832,28.320,41.016,28.809,0
214716.567,32.715,32.715,30.273,39.551,7.324,0
214716.570,30.762,38.086,33.203,40.527,0.488,0
214716.574,33.203,38.574,35.645,37.598,21.484,0
214716.578,26.855,37.598,29.785,30.762,25.391,0
214716.582,25.879,35.645,18.066,28.809,38.086,0
214716.586,30.273,30.273,18.066,26.367,51.270,0
214716.590,30.273,29.785,28.809,24.902,33.691,0
214716.594,35.645,25.879,32.227,32.227,19.043,0
214716.598,34.180,21.484,23.438,27.344,44.922,0
214716.602,30.273,31.250,19.043,21.973,44.434,0
214716.606,34.180,38.574,29.785,32.227,56.152,0
214716.609,33.691,33.203,33.691,33.203,74.707,0
214716.613,39.551,36.133,21.973,35.645,27.344,0
214716.617,40.039,41.504,19.531,33.203,17.090,0
214716.621,28.809,36.621,31.738,29.785,51.270,0
214716.625,23.926,25.391,30.273,32.715,36.621,0
214716.629,20.020,19.043,34.668,29.785,25.391,0
214716.633,19.531,22.949,37.598,26.855,55.664,0
214716.637,23.438,28.809,28.809,27.832,60.547,0
214716.641,26.855,36.133,27.344,39.062,29.785,0
214716.645,26.855,37.109,26.367,37.598,1.465,0
214716.649,25.391,30.762,27.832,23.926,-4.883,0
214716.652,27.832,28.320,33.691,25.391,-2.930,0
214716.656,33.691,32.715,38.086,31.738,-3.906,0
214716.660,35.645,36.133,33.691,32.715,-19.531,0
214716.664,30.273,32.715,25.391,30.762,17.090,0
214716.668,26.855,30.273,27.832,41.504,35.156,0
214716.672,24.902,23.926,20.508,39.062,7.324,0
214716.676,29.297,22.949,17.578,25.879,49.316,0
214716.680,31.250,24.414,24.902,24.902,62.988,0
214716.684,27.344,21.484,23.438,25.391,58.105,0
214716.688,30.762,24.902,29.785,25.391,50.293,0
214716.692,32.227,27.344,42.969,29.785,27.832,0
214716.695,32.227,30.273,47.852,36.133,19.531,0
214716.699,39.062,35.156,41.504,39.062,-7.812,0
214716.703,41.016,33.691,32.715,38.086,-9.766,0
214716.707,37.598,37.598,30.273,34.180,5.371,0
214716.711,34.180,42.969,20.996,34.180,34.180,0
214716.715,36.133,40.527,20.996,32.227,1.465,0
214716.719,42.480,32.715,32.227,34.180,13.672,0
214716.723,39.551,26.367,28.320,33.691,26.367,0
214716.727,35.645,33.203,23.438,26.855,0.000,0
214716.731,34.668,35.645,28.809,28.809,7.812,0
214716.734,31.738,33.203,35.645,31.738,22.461,0
214716.738,38.086,33.691,29.297,37.109,21.973,0
214716.742,44.922,36.133,30.762,41.016,57.617,0
214716.746,37.109,34.180,23.438,40.527,1.465,0
214716.750,37.598,35.645,17.090,34.668,-34.668,0
214716.754,40.039,36.621,22.949,33.203,31.250,1
214716.758,31.738,25.391,20.996,35.645,47.852,0
214716.762,32.715,23.438,29.785,35.156,30.762,0
214716.766,29.785,24.414,40.039,33.691,7.812,0
214716.770,24.414,28.809,41.992,34.180,11.719,0
