timestamps,TP9,AF7,AF8,TP10,Right AUX,Marker0
214962.914,20.996,16.602,26.367,31.250,45.898,0
214962.918,23.926,22.949,29.297,39.062,83.496,0
214962.922,33.691,23.926,15.625,32.715,74.219,0
214962.926,28.320,19.531,7.812,25.391,81.055,0
214962.930,26.855,24.902,23.438,31.738,73.242,0
214962.934,24.414,28.320,29.297,36.133,38.086,0
214962.938,17.578,24.902,30.273,28.320,32.227,0
214962.942,23.926,24.414,29.785,34.668,76.172,0
214962.945,33.203,22.949,26.367,36.621,73.242,0
214962.949,33.691,15.625,24.414,29.785,-6.836,0
214962.953,32.227,12.695,21.973,41.016,26.855,0
214962.957,35.645,16.113,20.508,41.992,92.773,0
214962.961,37.109,23.926,24.414,36.133,44.922,0
214962.965,30.762,21.484,32.227,36.621,30.273,0
214962.969,24.414,13.672,29.785,33.691,44.434,0
214962.973,20.020,18.066,26.855,31.250,57.617,0
214962.977,17.578,10.742,30.273,20.996,65.430,0
214962.981,23.438,2.441,34.668,27.832,28.809,0
214962.984,30.273,14.648,27.344,47.363,34.668,0
214962.988,35.156,20.020,22.461,46.387,94.727,0
214962.992,41.016,18.066,31.738,42.969,118.164,0
214962.996,38.574,25.879,32.227,37.109,67.383,0
214963.000,32.715,26.367,29.297,33.691,21.484,0
214963.004,32.227,12.695,25.879,32.227,13.672,0
214963.008,35.645,13.672,27.832,30.273,45.410,0
214963.012,44.922,26.855,31.738,30.273,37.109,0
214963.016,49.316,26.855,27.344,32.715,3.906,0
214963.020,33.691,20.020,36.133,37.109,23.438,0
214963.024,19.531,20.020,33.691,41.992,5.859,0
214963.027,24.902,20.508,17.578,40.039,15.137,0
214963.031,29.785,22.461,28.320,37.109,47.852,0
214963.035,33.691,22.461,33.203,45.410,65.430,0
214963.039,37.109,22.949,35.156,37.598,28.809,0
214963.043,29.297,27.344,42.969,22.461,17.090,0
214963.047,17.090,20.996,42.480,21.973,47.363,0
214963.051,25.879,16.113,35.156,21.484,26.855,0
214963.055,38.574,18.066,24.414,35.645,35.156,0
214963.059,30.273,15.137,24.902,41.504,63.477,0
214963.063,20.020,12.207,35.645,18.066,42.480,0
214963.067,25.879,15.137,43.945,15.137,53.223,2
214963.070,26.367,20.508,40.039,24.414,61.035,0
214963.074,26.367,24.902,33.203,24.902,52.734,0
214963.078,28.320,31.250,32.227,21.484,66.406,0
214963.082,23.438,34.180,34.668,11.719,13.184,0
214963.086,20.020,31.250,34.668,10.742,-7.324,0
214963.090,25.391,27.344,27.344,26.367,7.812,0
214963.094,28.809,21.484,19.531,35.156,17.090,0
214963.098,23.438,14.648,28.809,23.926,35.645,0
214963.102,33.203,13.672,37.109,22.949,12.207,0
214963.106,34.180,15.625,43.945,21.973,16.602,0
214963.109,23.926,16.113,45.410,22.461,20.020,0
214963.113,34.180,20.508,33.691,29.297,-10.742,0
214963.117,41.016,22.949,26.367,31.738,19.043,0
214963.121,36.133,20.508,27.832,29.297,47.363,0
214963.125,41.992,23.926,36.621,32.227,-13.184,0
214963.129,45.410,23.926,31.738,35.645,-38.574,0
214963.133,33.691,16.602,29.297,31.250,-8.789,0
214963.137,24.414,18.555,46.387,22.949,43.457,0
214963.141,42.480,28.320,52.734,28.809,35.645,0
214963.145,74.219,27.344,41.504,50.781,29.785,0
214963.149,48.828,14.648,32.715,36.133,70.312,0
214963.152,14.648,13.184,33.203,11.719,54.688,0
214963.156,20.508,26.367,29.785,9.766,19.043,0
214963.160,21.484,28.320,31.250,13.184,-13.672,0
214963.164,25.879,18.066,37.598,20.996,0.000,0
214963.168,21.484,20.996,42.969,22.949,43.457,0
214963.172,7.324,22.461,45.410,15.137,9.766,0
214963.176,17.090,18.555,40.527,11.719,-21.973,0
214963.180,36.133,21.973,30.762,30.273,6.348,0
214963.184,47.852,28.809,20.996,48.340,26.855,0
214963.188,41.992,24.414,30.273,42.480,26.367,0
214963.192,27.344,21.973,38.086,38.574,10.254,0
214963.195,19.531,22.949,30.762,33.691,-3.418,0
214963.199,21.484,21.484,35.156,25.391,23.926,0
214963.203,26.367,22.461,40.527,22.949,33.691,0
214963.207,26.855,18.555,38.086,23.926,46.875,0
214963.211,23.438,19.531,36.621,28.320,93.262,0
214963.215,10.742,29.297,25.879,26.855,65.918,0
214963.219,6.348,35.645,20.996,17.578,46.875,0
214963.223,7.812,34.180,21.973,12.695,45.898,0
214963.227,1.465,29.785,23.438,9.766,54.688,0
214963.231,-2.441,20.996,22.949,-1.465,85.449,0
214963.234,-4.883,13.672,29.297,-4.395,74.707,0
214963.238,-1.953,17.578,27.832,-3.418,61.035,0
214963.242,19.043,21.973,11.719,-0.977,44.434,0
214963.246,23.438,22.949,14.648,5.859,25.879,0
214963.250,2.930,21.973,33.203,8.789,24.902,0
214963.254,-0.488,23.926,25.879,6.348,10.254,0
214963.258,3.418,35.645,19.531,6.348,22.461,0
214963.262,3.906,38.574,29.785,13.672,17.090,0
214963.266,12.207,29.297,29.785,20.508,-2.441,0
214963.270,15.625,20.020,30.273,27.832,15.137,0
214963.274,11.230,26.855,34.668,20.508,4.883,0
214963.277,19.531,38.086,21.484,13.184,11.719,0
214963.281,20.508,39.062,13.184,16.113,18.066,0
214963.285,14.160,36.133,26.367,16.113,56.152,0
214963.289,24.414,27.832,24.902,23.926,41.504,0
214963.293,30.273,16.113,17.090,27.832,-11.230,0
214963.297,20.020,19.043,25.879,16.113,15.137,0
214963.301,21.484,16.113,27.344,16.602,31.738,0
214963.305,23.926,13.184,23.438,28.809,21.973,0
214963.309,20.020,17.578,28.809,32.715,15.625,0
214963.313,25.879,13.184,29.785,37.598,22.949,0
214963.317,32.227,18.066,28.809,38.574,12.207,0
214963.320,31.250,35.645,29.785,33.203,1.953,0
214963.324,27.344,44.922,29.297,31.738,8.301,0
214963.328,27.832,34.668,27.832,30.762,41.016,0
214963.332,34.180,22.461,37.109,23.438,80.078,0
214963.336,41.504,24.414,32.715,27.832,24.414,0
214963.340,42.480,23.926,22.461,37.109,13.184,0
214963.344,46.875,13.184,34.668,37.598,59.082,0
214963.348,43.457,11.719,35.156,43.945,65.430,0
214963.352,41.504,25.391,28.809,44.434,59.570,0
214963.356,41.016,28.809,35.156,31.738,39.062,0
214963.359,34.180,23.438,36.621,28.320,57.129,0
214963.363,34.180,23.438,23.926,40.527,68.359,0
214963.367,45.898,31.738,24.902,48.828,12.695,0
214963.371,47.363,27.832,35.645,35.156,-24.414,0
214963.375,45.898,19.043,33.691,40.527,21.973,0
214963.379,48.828,19.043,30.273,47.363,60.547,0
214963.383,53.711,25.391,39.062,42.480,22.461,0
214963.387,62.012,20.508,36.133,45.898,13.184,0
214963.391,48.828,19.043,26.855,55.664,33.203,0
214963.395,37.109,28.320,33.691,49.316,7.324,0
214963.399,39.551,28.320,34.180,28.320,10.742,0
214963.402,38.574,34.180,25.391,31.250,38.574,0
214963.406,38.086,39.551,36.133,35.156,36.133,0
214963.410,38.574,31.738,51.270,31.738,32.227,0
214963.414,37.598,24.414,52.734,29.297,12.695,0
214963.418,29.785,22.461,46.875,31.250,-19.043,0
214963.422,30.762,28.320,36.621,43.457,44.922,0
214963.426,33.691,25.879,28.809,41.992,71.289,0
214963.430,37.109,17.578,27.344,31.250,38.086,0
214963.434,32.715,17.578,30.273,28.809,62.988,0
214963.438,23.438,22.461,33.203,30.273,76.660,0
214963.442,27.832,24.902,40.039,41.016,42.480,0
214963.445,31.250,24.414,49.805,53.711,12.695,0
214963.449,34.180,25.391,49.316,46.875,-0.488,0
214963.453,37.109,22.949,38.574,31.738,22.949,0
214963.457,37.109,27.344,28.809,30.762,50.781,0
214963.461,41.992,39.062,29.785,41.504,57.129,0
214963.465,41.992,30.762,24.414,38.086,76.660,0
214963.469,39.062,19.043,21.484,38.086,82.031,0
214963.473,43.945,19.531,24.902,37.598,106.934,0
214963.477,49.805,29.297,34.668,38.086,78.613,0
214963.481,50.293,37.109,47.363,49.805,62.500,0
214963.484,34.668,25.879,44.922,40.527,67.871,0
214963.488,23.438,14.160,38.574,29.785,49.316,0
214963.492,28.809,14.648,42.969,30.273,56.641,0
214963.496,30.762,7.324,30.273,30.762,66.895,0
214963.500,35.645,8.789,15.625,41.992,69.336,0
214963.504,43.457,22.461,16.602,41.016,35.645,0
214963.508,31.738,28.809,20.508,25.879,49.316,0
214963.512,21.484,29.785,40.039,32.227,104.492,0
214963.516,28.809,21.484,47.852,36.621,71.289,0
214963.520,38.574,18.066,38.574,40.527,62.500,0
214963.524,34.180,30.762,34.668,39.062,98.145,0
214963.527,25.391,30.273,34.668,30.762,106.445,0
214963.531,24.902,15.137,34.668,25.879,76.172,0
214963.535,18.555,8.301,33.203,23.926,44.922,0
214963.539,24.414,15.137,23.438,31.250,31.738,0
214963.543,34.668,21.973,22.949,36.133,33.203,0
214963.547,35.156,19.531,24.902,36.133,0.000,0
214963.551,36.133,14.648,32.227,35.156,-45.898,0
214963.555,45.410,20.020,35.156,45.898,-7.812,0
214963.559,48.340,31.250,27.344,57.129,43.945,0
214963.563,34.668,31.738,24.902,45.898,20.996,0
214963.567,19.531,19.531,24.414,25.391,36.621,0
214963.570,18.555,11.719,33.203,10.742,57.617,0
214963.574,29.785,10.254,25.879,16.113,86.426,0
214963.578,41.504,14.648,22.461,28.809,67.871,0
214963.582,45.410,30.762,34.180,36.133,-3.418,0
214963.586,39.062,35.156,29.297,44.434,7.324,0
214963.590,40.039,29.297,23.438,52.734,11.719,0
214963.594,41.016,24.902,30.762,35.645,-39.551,0
214963.598,29.785,5.371,34.180,20.020,-27.832,0
214963.602,23.926,1.953,27.832,23.438,13.184,0
214963.606,27.832,18.555,27.832,30.762,19.043,0
214963.609,22.461,30.762,35.645,31.738,26.855,0
214963.613,21.973,31.250,42.969,30.762,23.438,0
214963.617,28.809,12.695,37.109,31.738,41.016,0
214963.621,26.367,6.348,21.484,30.273,50.781,0
214963.625,27.344,25.879,18.555,44.434,37.109,0
214963.629,24.902,34.180,28.809,37.598,45.410,0
214963.633,17.578,29.785,43.457,17.578,64.453,0
214963.637,20.508,18.066,45.410,16.113,37.109,0
214963.641,28.320,10.254,37.109,20.508,-14.160,0
214963.645,31.250,14.648,24.902,25.879,23.926,0
214963.649,42.969,23.438,25.391,39.551,56.152,0
214963.652,52.734,38.086,27.344,51.270,11.719,0
214963.656,42.480,41.992,22.461,51.270,-16.113,0
214963.660,34.668,33.203,31.738,44.922,-28.809,0
214963.664,37.598,29.297,45.410,42.969,-15.625,0
214963.668,42.480,30.273,56.152,43.945,8.301,0
214963.672,39.062,30.762,54.199,36.133,22.461,0
214963.676,30.273,28.320,42.969,28.809,36.133,0
214963.680,30.273,19.531,27.832,30.273,22.461,0
214963.684,32.227,13.672,28.809,31.738,18.066,0
214963.688,34.668,20.996,44.922,32.715,20.996,0
214963.692,38.574,30.273,43.945,38.574,0.488,0
214963.695,39.062,31.250,34.668,46.875,6.836,0
214963.699,42.969,27.344,29.297,52.734,-2.441,0
214963.703,62.012,35.645,37.109,60.059,-2.441,0
214963.707,59.082,30.273,47.363,46.875,7.324,0
214963.711,34.668,19.043,43.457,28.809,8.789,0
214963.715,29.297,23.926,40.527,36.621,-18.555,1
214963.719,33.691,26.367,48.828,37.109,3.906,0
214963.723,35.645,27.344,42.969,33.691,46.875,0
214963.727,37.598,20.020,33.691,36.621,28.320,0
214963.731,34.668,12.207,37.109,29.785,28.809,0
214963.734,41.016,30.273,34.180,40.039,47.852,0
214963.738,49.805,44.922,30.273,51.270,35.645,0
214963.742,46.875,34.180,40.039,37.598,-13.184,0
214963.746,40.039,24.414,35.156,24.414,-32.715,0
214963.750,41.016,21.973,26.367,37.109,-5.859,0
214963.754,37.109,12.207,34.180,38.086,1.953,0
214963.758,24.414,13.184,34.668,20.508,17.090,0
214963.762,27.832,27.832,28.320,32.715,41.016,0
214963.766,31.738,41.992,34.668,39.062,35.156,0
214963.770,25.879,37.598,42.480,25.879,20.508,0
214963.774,23.438,21.484,41.992,20.020,-12.695,0
214963.777,31.738,26.367,29.785,35.645,-28.320,0
214963.781,28.809,31.250,31.250,38.574,4.883,0
214963.785,16.602,22.461,40.527,28.320,20.996,0
214963.789,20.996,23.438,38.574,18.555,9.277,0
214963.793,37.109,36.621,27.344,20.508,0.000,0
214963.797,38.574,36.621,16.113,26.367,29.785,0
214963.801,30.273,27.832,22.461,18.555,31.250,0
214963.805,29.297,28.809,32.715,16.602,11.719,0
214963.809,32.715,29.297,35.156,27.832,40.527,0
214963.813,29.297,26.367,32.227,35.156,60.059,0
214963.817,35.156,26.855,22.949,46.387,49.805,0
214963.820,53.223,34.668,28.809,57.129,21.973,0
214963.824,51.758,37.109,26.855,42.480,37.109,0
214963.828,42.480,19.043,21.973,31.738,58.105,0
214963.832,42.969,13.184,40.527,26.367,49.316,0
214963.836,33.203,26.855,43.457,19.043,39.062,0
214963.840,23.926,32.227,36.133,20.996,74.707,0
214963.844,28.809,41.504,36.133,28.320,63.965,0
214963.848,28.809,41.016,32.227,31.250,35.156,0
214963.852,23.438,27.344,33.203,28.809,39.551,0
214963.856,29.297,29.297,34.668,32.227,22.949,0
214963.859,39.551,31.738,25.391,38.086,31.250,0
214963.863,37.598,17.090,20.996,33.691,53.223,0
214963.867,30.273,12.207,33.691,31.738,57.617,0
214963.871,31.738,20.020,39.551,24.902,63.477,0
214963.875,31.738,37.598,41.992,20.020,64.453,0
214963.879,31.250,48.828,42.969,25.391,11.230,0
214963.883,32.227,36.621,26.855,25.879,20.996,0
214963.887,27.832,22.949,19.531,27.344,51.758,0
214963.891,29.785,23.926,31.738,26.367,36.621,0
214963.895,39.551,26.367,33.691,34.668,6.348,0
214963.899,38.086,20.020,20.020,37.109,-13.184,0
214963.902,35.156,14.648,25.879,24.902,4.883,0
214963.906,35.645,14.648,34.668,23.438,6.836,0
214963.910,35.645,19.531,27.344,40.039,40.039,0
214963.914,45.410,32.715,38.574,45.410,82.031,0
214963.918,33.691,43.457,44.434,23.926,65.918,0
214963.922,14.648,34.668,36.133,3.906,40.039,0
214963.926,17.090,29.785,32.227,6.836,-9.766,0
214963.930,13.672,33.691,31.250,12.207,28.809,0
214963.934,12.695,38.086,28.809,17.578,44.922,0
214963.938,31.250,41.992,15.625,32.227,1.465,0
214963.942,32.715,30.273,12.695,29.297,-8.789,0
214963.945,18.555,20.996,25.879,13.184,-7.324,0
214963.949,22.949,24.414,37.598,17.090,20.020,0
214963.953,30.273,22.949,41.992,28.809,41.016,0
214963.957,27.832,24.902,40.039,26.855,65.430,0
214963.961,29.785,22.949,34.668,20.996,93.262,0
214963.965,36.133,19.531,32.227,25.391,62.012,0
214963.969,30.273,27.832,35.645,24.414,-13.672,0
214963.973,22.949,30.273,33.203,14.160,-16.113,0
214963.977,28.320,26.367,21.484,28.809,21.484,0
214963.981,42.480,23.438,15.137,36.621,37.598,0
214963.984,45.898,30.273,24.902,23.926,2.930,0
214963.988,39.551,29.785,38.086,27.832,24.414,0
214963.992,37.109,15.625,41.504,38.086,78.613,0
214963.996,35.156,23.438,43.457,32.715,52.246,0
214964.000,39.551,37.109,41.504,29.297,58.105,0
214964.004,40.527,31.250,34.180,36.621,77.148,0
214964.008,32.715,25.879,26.367,36.133,71.289,0
214964.012,35.645,30.762,21.484,41.504,52.246,0
214964.016,46.875,33.203,17.578,43.945,22.949,0
214964.020,42.969,28.320,29.297,53.223,12.695,0
214964.024,31.738,25.391,40.527,50.293,31.738,0
214964.027,28.320,21.973,32.715,28.809,26.367,0
214964.031,29.297,21.973,38.086,27.832,21.973,0
214964.035,34.180,26.367,46.875,30.762,46.387,0
214964.039,40.039,26.855,37.109,29.297,23.926,0
214964.043,41.992,28.809,26.367,38.574,8.789,0
214964.047,46.387,33.691,13.672,45.410,29.297,0
214964.051,52.246,36.133,-0.488,45.898,53.711,0
214964.055,49.805,30.273,18.066,41.992,57.129,0
214964.059,40.527,26.367,45.898,34.180,48.828,0
214964.063,32.227,30.273,49.805,34.668,55.176,0
214964.067,37.109,30.273,40.527,36.133,87.891,0
214964.070,44.434,33.691,32.715,46.387,78.613,0
214964.074,43.457,41.016,32.227,41.504,49.316,0
214964.078,37.598,36.621,24.414,28.320,59.570,0
214964.082,31.738,34.668,19.043,30.273,76.660,0
214964.086,25.391,36.133,23.926,28.809,74.707,0
214964.090,23.438,34.668,20.996,19.531,53.711,0
214964.094,34.668,34.668,18.555,30.762,35.156,0
214964.098,36.621,27.832,28.809,39.551,53.223,0
214964.102,25.391,24.902,40.039,31.250,47.852,0
214964.106,28.320,24.902,41.016,35.156,32.227,0
214964.109,35.156,25.391,34.668,41.016,37.109,0
214964.113,35.645,34.180,36.133,41.504,32.227,0
214964.117,34.180,35.645,30.762,40.039,17.090,0
214964.121,33.691,26.367,14.160,36.621,-35.645,0
214964.125,39.551,28.320,12.695,41.504,-21.973,0
214964.129,38.086,37.598,29.785,47.363,4.883,0
214964.133,28.320,35.156,40.039,38.086,-1.953,0
214964.137,26.367,20.020,32.715,31.250,7.812,0
214964.141,30.273,13.672,33.691,36.621,-1.953,0
214964.145,27.832,18.555,44.434,32.227,10.742,0
214964.149,22.949,20.508,48.340,27.832,28.320,0
214964.152,32.227,25.879,46.875,37.109,29.785,0
214964.156,33.691,33.691,32.227,35.156,34.668,0
214964.160,27.832,32.715,22.949,30.762,33.691,0
214964.164,37.109,30.273,20.508,41.016,12.695,0
214964.168,37.109,32.715,9.766,41.016,19.043,0
214964.172,22.949,34.180,15.625,32.227,35.156,0
214964.176,24.902,35.156,39.551,30.273,0.000,0
214964.180,24.414,20.508,51.758,20.020,-0.977,0
214964.184,20.996,17.578,49.316,12.695,38.086,0
214964.188,24.902,18.066,44.434,21.973,23.438,0
214964.192,25.879,15.625,28.809,25.879,-19.531,0
214964.195,28.320,30.762,17.578,34.668,-31.738,0
214964.199,36.133,40.527,23.926,51.758,-57.129,0
214964.203,35.645,37.109,39.551,37.109,-21.973,0
214964.207,24.902,29.785,35.645,14.160,14.648,0
214964.211,26.367,30.273,31.250,24.414,-20.020,0
214964.215,41.992,36.133,49.805,37.109,-33.691,0
214964.219,42.969,35.156,47.363,32.715,20.996,0
214964.223,30.273,23.926,31.250,29.297,36.133,0
214964.227,30.273,8.789,28.809,30.273,20.508,0
214964.231,33.203,11.230,30.273,31.738,20.020,0
214964.234,32.715,23.926,35.645,36.133,8.789,0
214964.238,40.527,28.809,39.062,43.945,44.922,0
214964.242,43.457,27.344,31.738,37.598,89.844,0
214964.246,36.133,32.227,29.785,25.391,87.402,0
214964.250,41.016,37.598,36.621,39.551,64.453,0
214964.254,49.316,39.062,37.109,49.316,39.062,0
214964.258,41.016,37.109,29.297,35.156,41.016,0
214964.262,28.809,35.156,30.762,30.273,61.523,0
214964.266,27.344,26.367,40.527,34.180,61.035,0
214964.270,35.156,16.113,50.293,32.715,42.969,0
214964.274,34.180,21.484,50.781,26.855,19.043,0
214964.277,25.391,33.203,43.945,24.414,26.855,0
214964.281,21.973,31.738,35.645,25.391,33.691,0
214964.285,28.320,27.344,33.203,29.785,26.855,0
214964.289,33.203,29.785,27.832,41.016,58.594,0
214964.293,22.461,24.902,20.020,36.133,49.316,0
214964.297,9.766,23.438,22.461,16.113,-18.066,0
214964.301,13.672,27.344,28.809,7.812,-58.105,0
214964.305,20.020,25.879,41.504,16.113,-33.691,0
214964.309,21.973,20.996,51.758,24.902,8.789,0
214964.313,26.855,20.020,43.457,24.414,24.902,0
214964.317,34.180,19.043,32.715,38.086,29.297,0
214964.320,27.344,20.996,41.504,37.598,59.082,0
214964.324,30.273,41.504,39.551,29.785,77.148,0
214964.328,47.363,53.711,29.297,38.086,65.918,0
214964.332,43.457,40.527,35.645,33.691,58.105,0
214964.336,29.297,20.996,43.945,22.461,62.500,0
214964.340,30.273,17.090,40.039,21.484,49.805,0
214964.344,32.715,28.809,37.109,26.367,6.836,0
214964.348,30.273,28.320,33.691,28.320,-30.273,0
214964.352,38.086,25.879,34.668,41.504,16.113,0
214964.356,38.574,33.203,28.320,49.805,54.688,0
214964.359,27.832,37.598,24.414,37.109,41.992,0
214964.363,25.391,36.133,38.574,21.484,41.992,0
214964.367,27.832,27.832,41.504,17.578,41.504,0
214964.371,23.926,17.090,39.062,21.484,36.621,0
214964.375,21.484,22.461,42.969,27.344,23.926,0
214964.379,34.668,38.086,40.039,41.016,13.184,0
214964.383,40.039,39.551,27.832,47.363,29.785,0
214964.387,32.715,32.227,30.273,28.809,6.836,0
214964.391,33.691,33.691,44.434,22.461,-25.391,0
214964.395,28.809,34.668,36.621,29.785,41.016,0
214964.399,20.020,32.715,20.996,21.973,76.660,0
214964.402,22.461,33.691,29.297,19.531,43.945,0
214964.406,26.367,35.156,36.133,27.832,7.324,0
214964.410,31.738,35.645,41.504,41.504,-7.812,0
214964.414,38.086,35.156,43.945,41.992,-8.301,0
214964.418,47.363,32.715,43.457,35.645,-12.207,1
214964.422,52.734,30.762,39.062,46.387,21.484,0
214964.426,47.363,32.227,31.250,47.363,67.383,0
214964.430,43.945,29.785,24.902,35.156,46.875,0
214964.434,41.992,27.832,20.508,43.457,6.348,0
214964.438,38.574,36.621,30.762,47.852,27.832,0
214964.442,40.039,40.527,41.992,39.062,57.617,0
214964.445,42.480,40.039,43.457,43.457,44.434,0
214964.449,47.852,38.574,41.016,45.898,-27.832,0
214964.453,43.945,35.645,39.062,40.527,-26.855,0
214964.457,40.527,36.621,40.527,43.457,26.855,0
214964.461,39.062,36.133,43.945,45.410,14.648,0
214964.465,38.086,36.133,42.969,46.387,23.438,0
214964.469,41.992,32.227,38.086,54.199,39.551,0
214964.473,37.598,29.297,40.039,57.617,23.926,0
214964.477,34.668,35.156,42.480,57.129,-14.648,0
214964.481,42.480,32.715,48.340,55.176,-36.621,0
214964.484,43.457,30.273,42.480,46.875,-7.812,0
214964.488,40.039,33.203,28.320,46.875,17.090,0
214964.492,46.875,35.645,35.156,38.574,5.371,0
214964.496,39.062,40.039,42.969,25.879,11.230,0
214964.500,31.250,38.086,43.945,34.668,62.500,0
214964.504,34.668,32.227,47.852,37.109,73.242,0
214964.508,29.297,30.273,46.875,26.855,61.523,0
214964.512,32.715,35.156,43.945,27.344,45.898,0
214964.516,41.504,38.086,35.156,42.480,25.391,0
214964.520,42.480,37.109,36.133,51.758,30.762,0
214964.524,41.504,31.738,45.898,47.363,34.668,0
214964.527,42.969,27.344,43.457,48.828,19.043,0
214964.531,42.480,37.598,38.574,44.434,14.160,0
214964.535,41.016,37.109,35.645,36.133,32.715,0
214964.539,30.762,24.902,35.645,25.391,16.113,0
214964.543,31.250,27.344,42.969,20.508,31.250,0
214964.547,39.551,35.156,41.504,35.645,87.891,0
214964.551,41.016,39.062,37.598,45.898,103.516,0
214964.555,43.945,38.086,37.109,49.805,55.664,0
214964.559,41.504,33.691,42.480,44.434,38.086,0
214964.563,29.297,30.273,41.504,23.926,83.496,0
214964.567,20.020,36.133,42.969,17.578,77.148,0
214964.570,21.484,40.527,45.898,23.926,67.871,0
214964.574,23.438,31.738,46.875,25.391,80.566,0
214964.578,29.785,25.391,44.434,32.227,84.473,0
214964.582,34.668,30.762,30.273,31.250,31.250,0
214964.586,36.133,35.645,22.461,35.156,-9.277,0
214964.590,46.875,44.434,28.320,59.570,-8.301,0
214964.594,41.016,43.457,38.574,53.711,-9.766,0
214964.598,26.367,31.738,41.504,28.809,-4.395,0
214964.602,25.879,28.320,42.969,20.508,-20.996,0
214964.606,26.367,22.461,38.574,24.902,-4.883,0
214964.609,26.855,24.902,29.785,29.785,-3.906,0
214964.613,28.809,29.785,34.180,34.180,-16.602,0
214964.617,31.738,22.461,35.645,38.086,8.789,0
214964.621,29.297,18.066,35.645,43.945,11.230,0
214964.625,28.320,26.855,33.691,50.781,36.133,0
214964.629,33.691,32.715,26.855,48.340,26.367,0
214964.633,34.180,29.297,35.645,35.645,43.945,0
214964.637,32.227,26.367,40.527,30.762,77.637,0
214964.641,30.762,27.832,34.668,40.527,74.707,0
214964.645,35.156,23.438,29.785,39.062,74.219,0
214964.649,41.504,22.461,14.648,27.832,80.566,0
214964.652,38.574,24.902,20.020,32.715,78.613,0
214964.656,32.715,24.902,38.086,34.180,31.250,0
214964.660,30.762,32.227,43.457,30.273,-1.953,0
214964.664,30.762,35.645,35.156,30.762,30.762,0
214964.668,38.574,33.203,21.973,32.715,37.598,0
214964.672,41.016,26.855,16.113,39.062,-5.859,0
214964.676,29.785,6.348,30.762,29.297,-33.691,0
214964.680,23.926,9.766,41.504,22.949,26.367,0
214964.684,27.832,37.109,30.273,32.227,66.406,0
214964.688,26.855,44.434,32.715,31.250,36.621,0
214964.692,19.531,37.598,33.691,18.555,-3.906,0
214964.695,16.602,30.273,22.949,12.695,27.832,0
214964.699,20.996,26.367,22.461,19.531,62.988,0
214964.703,27.344,26.855,17.090,24.902,44.922,0
214964.707,28.320,22.461,12.695,20.508,75.195,0
214964.711,26.855,18.066,24.414,20.996,69.336,0
214964.715,29.785,23.438,38.086,32.715,38.086,0
214964.719,39.551,37.109,33.203,31.250,-7.324,0
214964.723,37.109,33.691,25.879,13.184,-19.531,0
214964.727,20.508,21.973,26.855,8.789,29.785,0
214964.731,16.113,25.391,18.555,20.508,37.109,0
214964.734,18.555,28.809,23.926,14.648,42.480,0
214964.738,25.391,26.367,40.039,16.113,48.340,0
214964.742,40.527,22.949,38.574,28.809,43.945,0
214964.746,45.898,28.320,24.902,36.621,45.898,0
214964.750,34.180,33.203,25.391,46.875,46.875,0
214964.754,29.297,33.691,29.785,43.457,53.711,0
214964.758,32.715,39.062,26.367,32.227,58.105,0
214964.762,22.461,32.715,27.832,25.391,58.105,0
214964.766,14.648,14.648,28.809,21.484,29.297,0
214964.770,24.414,12.695,28.320,32.227,2.441,0
214964.774,32.227,22.461,27.832,41.504,7.812,0
214964.777,34.180,27.832,20.508,29.297,-2.441,0
214964.781,31.738,28.320,19.531,27.344,45.898,0
214964.785,37.109,41.016,32.227,39.551,46.875,0
214964.789,38.574,42.969,37.598,37.109,8.301,0
214964.793,27.832,27.344,21.973,24.902,20.020,0
214964.797,30.762,20.996,18.066,18.555,5.859,0
214964.801,28.809,21.484,24.414,16.602,-19.043,0
214964.805,29.785,29.297,23.926,26.367,-25.879,0
214964.809,37.598,36.133,23.438,29.785,-3.906,0
214964.813,34.668,33.691,22.949,26.367,17.578,0
214964.817,31.250,28.809,20.508,28.320,24.902,0
214964.820,39.062,31.250,25.391,32.227,13.184,0
214964.824,36.621,33.203,32.715,20.996,-36.133,0
214964.828,20.020,30.273,38.086,11.230,-41.992,0
214964.832,8.301,26.855,29.297,20.996,-16.113,0
214964.836,6.836,28.809,19.531,18.555,-21.973,0
214964.840,20.508,35.156,23.926,20.020,-32.227,0
214964.844,25.879,19.531,24.414,22.461,7.324,0
214964.848,20.996,18.066,24.414,23.438,10.742,0
214964.852,28.320,41.992,21.484,34.180,-28.320,0
214964.856,29.297,39.551,15.625,41.992,-19.043,0
214964.859,17.578,14.648,16.602,39.062,-4.883,0
214964.863,21.973,4.883,33.691,26.855,27.344,0
214964.867,26.855,18.555,36.133,25.879,29.785,0
214964.871,25.879,27.344,21.484,16.602,-1.953,0
214964.875,27.344,27.832,27.832,13.184,21.484,0
214964.879,30.273,33.691,31.738,33.691,38.574,0
214964.883,37.598,33.691,28.320,35.156,23.926,0
214964.887,38.574,30.762,21.484,24.414,29.297,0
214964.891,42.969,30.762,19.531,29.785,51.758,0
214964.895,45.898,32.715,24.902,36.133,57.617,0
214964.899,44.434,34.668,20.996,41.992,32.715,0
214964.902,44.434,31.738,23.438,48.828,9.766,0
214964.906,40.527,26.855,33.691,42.969,18.555,0
214964.910,44.434,22.949,28.809,41.016,31.250,0
214964.914,42.480,22.949,21.973,32.715,-2.441,0
214964.918,37.109,32.715,30.273,27.344,2.930,0
214964.922,41.504,36.133,30.762,32.227,33.203,0
214964.926,44.922,30.762,34.180,36.133,49.805,0
214964.930,43.457,39.062,39.062,36.621,43.945,0
214964.934,30.762,40.039,27.832,30.273,73.242,0
214964.938,24.902,30.273,10.254,38.574,74.707,0
214964.942,38.574,26.367,23.438,47.363,50.293,0
214964.945,43.457,31.738,33.691,45.410,80.078,0
214964.949,37.109,33.691,28.320,37.598,106.934,0
214964.953,33.203,27.344,34.180,26.855,68.848,0
214964.957,38.574,27.832,40.039,35.645,20.020,0
214964.961,39.551,27.344,44.922,32.227,4.883,0
214964.965,35.156,25.391,31.250,23.438,34.668,0
214964.969,35.156,25.879,12.207,23.438,70.312,0
214964.973,37.109,26.367,20.020,26.367,57.129,0
214964.977,41.504,33.691,39.062,31.250,46.875,0
214964.981,38.086,33.203,34.180,30.273,42.969,0
214964.984,36.133,33.691,33.203,32.227,12.695,0
214964.988,41.016,37.598,47.363,29.297,18.066,1
214964.992,36.621,38.574,42.480,20.508,34.180,0
214964.996,33.691,33.203,33.203,22.461,7.324,0
214965.000,41.992,33.691,27.832,32.227,11.719,0
214965.004,43.457,34.180,22.949,31.738,-10.742,0
214965.008,29.785,24.902,18.066,14.160,-43.457,0
214965.012,24.414,21.484,26.855,16.602,-22.949,0
214965.016,35.156,32.227,45.898,34.668,10.742,0
214965.020,45.410,45.898,39.062,42.969,-0.977,0
214965.024,38.574,42.969,27.832,38.086,-20.996,0
214965.027,32.227,29.297,33.203,47.852,24.414,0
214965.031,36.621,25.879,41.504,43.945,1.953,0
214965.035,42.969,29.785,43.945,35.645,-35.156,0
214965.039,41.016,38.086,34.668,53.711,-9.766,0
214965.043,25.879,37.109,23.438,47.852,-6.348,0
214965.047,15.625,26.855,26.367,19.531,-20.020,0
214965.051,17.578,24.902,41.504,12.207,-25.391,0
214965.055,21.973,23.926,40.527,22.461,-22.461,0
214965.059,22.949,22.949,35.156,29.297,-14.648,0
214965.063,23.438,28.809,43.457,33.203,-22.461,0
214965.067,27.832,29.785,40.039,30.762,-39.062,0
214965.070,33.691,27.344,23.926,34.180,-14.648,0
214965.074,42.969,35.645,24.414,45.410,24.902,0
214965.078,45.410,45.898,31.738,45.410,13.184,0
214965.082,33.203,43.457,25.391,43.457,16.113,0
214965.086,25.879,29.785,38.086,40.039,13.184,0
214965.090,25.879,22.461,46.387,34.180,21.484,0
214965.094,27.832,26.367,28.320,28.320,6.836,0
214965.098,23.926,22.949,28.320,20.020,-30.273,0
214965.102,22.461,20.020,41.016,24.414,38.086,0
214965.106,23.926,24.902,38.086,32.715,42.480,0
214965.109,26.367,23.438,34.668,36.621,25.391,0
214965.113,35.156,32.715,30.273,42.480,70.801,0
214965.117,40.039,45.898,20.996,47.363,104.492,0
214965.121,36.133,35.156,18.555,35.156,63.965,0
214965.125,32.227,19.043,27.832,29.785,40.527,0
214965.129,29.785,20.508,36.133,38.574,53.711,0
214965.133,26.367,29.785,35.645,28.809,27.344,0
214965.137,25.879,30.273,38.574,23.926,29.785,0
214965.141,24.902,25.391,38.086,24.902,35.645,0
214965.145,19.043,27.832,36.133,27.832,36.621,0
214965.149,28.320,38.086,32.227,43.945,25.879,0
214965.152,34.180,35.645,15.625,40.039,-7.324,0
214965.156,28.809,30.762,10.742,21.484,16.602,0
214965.160,22.461,20.508,29.785,17.578,21.973,0
214965.164,27.344,22.949,31.738,26.367,37.598,0
214965.168,24.902,32.715,31.738,27.344,82.031,0
214965.172,19.531,24.902,43.945,30.762,68.848,0
214965.176,29.297,22.949,41.504,36.133,41.504,0
214965.180,30.762,25.391,38.086,35.156,50.293,0
214965.184,24.414,27.344,39.062,34.180,67.383,0
214965.188,22.461,34.180,35.645,30.762,34.180,0
214965.192,30.273,32.227,35.645,40.527,35.645,0
214965.195,29.297,19.043,38.574,42.969,60.547,0
214965.199,19.043,14.648,26.367,21.973,45.898,0
214965.203,23.926,21.484,25.879,31.738,39.551,0
214965.207,40.039,32.715,27.832,46.387,31.250,0
214965.211,41.016,34.668,21.973,40.039,19.531,0
214965.215,36.621,35.645,32.715,40.527,17.090,0
214965.219,33.691,29.785,45.410,37.598,13.672,0
214965.223,33.203,21.973,40.527,36.621,28.320,0
214965.227,39.551,22.949,33.691,45.410,40.039,0
214965.231,35.645,17.090,34.180,44.434,22.461,0
214965.234,29.785,15.625,38.574,40.527,35.156,0
214965.238,31.250,20.508,41.992,30.273,49.316,0
214965.242,30.762,21.973,31.738,23.926,24.902,0
214965.246,29.785,30.273,29.297,33.203,17.090,0
214965.250,30.273,29.297,43.457,38.574,54.199,0
214965.254,27.344,21.973,45.410,33.691,62.500,0
214965.258,25.391,27.832,38.574,26.367,74.219,0
214965.262,32.715,29.785,38.574,29.297,95.215,0
214965.266,39.062,29.785,40.039,48.828,65.918,0
214965.270,42.480,31.738,41.504,55.176,63.477,0
214965.274,36.133,29.297,33.203,33.203,74.219,0
214965.277,27.344,29.785,26.367,23.926,70.312,0
214965.281,35.645,37.598,33.691,36.133,63.965,0
214965.285,39.551,41.016,40.527,40.527,57.129,0
214965.289,36.621,24.902,32.715,40.527,25.879,0
214965.293,38.574,19.531,23.926,41.504,22.949,0
214965.297,31.250,23.926,31.738,36.133,51.270,0
214965.301,29.785,29.297,34.180,30.273,51.270,0
214965.305,34.180,37.598,42.480,26.855,18.555,0
214965.309,32.715,33.203,49.805,28.320,26.367,0
214965.313,33.691,29.785,33.203,29.297,66.895,0
214965.317,35.645,31.738,26.855,32.715,41.504,0
214965.320,35.156,26.855,36.621,36.621,39.551,0
214965.324,34.180,24.414,41.016,37.598,101.562,0
214965.328,36.133,23.438,40.039,47.363,116.699,0
214965.332,37.109,19.531,33.691,42.480,82.031,0
214965.336,34.668,22.461,24.902,31.738,39.062,0
214965.340,38.574,33.203,33.203,38.574,65.430,0
214965.344,36.133,32.715,42.969,41.504,45.898,0
214965.348,38.086,33.691,39.551,42.480,50.781,0
214965.352,42.480,25.879,37.109,40.039,97.656,0
214965.356,34.180,10.742,34.180,36.133,74.707,0
214965.359,26.367,21.484,38.574,35.645,47.363,0
214965.363,25.879,33.691,43.945,32.715,23.926,0
214965.367,29.297,23.926,34.180,27.344,15.625,0
214965.371,28.809,21.973,33.203,32.715,-4.883,0
214965.375,30.273,21.973,30.273,42.480,5.371,0
214965.379,41.992,22.461,22.949,41.504,-2.441,0
214965.383,40.039,37.109,28.809,42.480,-26.367,0
214965.387,27.832,32.715,33.691,41.504,21.484,0
214965.391,28.809,19.531,37.598,36.621,70.801,0
214965.395,32.227,23.438,42.969,30.273,55.176,0
214965.399,31.738,32.715,40.527,26.367,36.133,0
214965.402,34.180,35.156,26.367,32.715,62.012,0
214965.406,37.598,35.156,20.508,37.598,72.266,0
214965.410,33.691,28.809,20.508,41.992,53.711,0
214965.414,36.133,29.297,31.250,48.340,79.590,0
214965.418,38.574,30.762,49.316,37.598,64.453,0
214965.422,27.832,24.902,40.039,24.902,56.152,0
214965.426,34.668,34.668,33.691,30.762,69.824,0
214965.430,39.551,36.621,49.805,36.621,55.664,0
214965.434,28.809,21.973,43.457,34.668,59.082,0
214965.438,26.855,18.066,28.320,28.320,17.090,0
214965.442,25.879,23.438,33.691,24.414,23.438,0
214965.445,33.203,34.668,34.668,33.691,68.848,0
214965.449,33.691,36.621,35.156,34.668,72.754,0
214965.453,29.297,32.715,46.875,31.250,98.633,0
214965.457,26.855,26.367,48.828,20.508,70.801,0
214965.461,23.926,18.066,26.367,23.438,27.832,0
214965.465,24.414,26.855,17.090,38.086,1.953,0
214965.469,20.508,26.855,28.320,24.902,-16.602,0
214965.473,24.902,24.902,34.180,16.602,-6.348,0
214965.477,32.227,34.668,36.133,36.621,47.852,0
214965.481,38.086,44.434,37.598,43.457,71.777,0
214965.484,39.062,44.434,41.504,31.250,52.734,0
214965.488,28.320,29.297,43.945,29.785,24.414,0
214965.492,20.996,20.508,39.062,27.832,15.137,0
214965.496,26.855,29.785,41.504,29.297,3.418,0
214965.500,32.227,39.062,32.227,41.016,10.742,0
214965.504,32.227,34.180,12.695,35.156,8.301,0
214965.508,35.645,28.320,21.484,36.133,24.414,0
214965.512,38.574,26.855,32.227,42.480,41.504,0
214965.516,41.016,34.180,31.250,31.250,-27.344,0
214965.520,37.598,32.227,28.320,27.832,-24.902,0
214965.524,29.785,24.902,30.762,30.762,2.441,0
214965.527,25.391,27.344,33.203,31.250,-3.418,0
214965.531,22.461,21.973,31.738,36.133,9.277,0
214965.535,22.949,20.996,34.180,37.598,-20.020,0
214965.539,24.414,22.949,25.879,45.410,-24.902,0
214965.543,25.391,11.230,16.602,47.363,-5.859,0
214965.547,27.832,14.160,29.297,39.062,-35.156,0
214965.551,29.297,30.273,43.945,32.715,-23.926,0
214965.555,29.785,37.109,38.086,30.273,-2.930,0
214965.559,28.809,35.156,26.367,30.273,-22.461,0
214965.563,20.996,31.250,30.762,24.414,-8.789,0
214965.567,20.996,27.832,28.809,26.367,38.574,0
214965.570,28.809,28.320,24.414,32.715,54.688,0
214965.574,30.273,25.879,30.273,26.855,-1.953,0
214965.578,39.062,27.832,27.832,31.738,9.766,0
214965.582,47.363,33.203,13.184,61.035,84.961,0
214965.586,32.715,22.949,19.043,45.898,69.824,0
214965.590,17.578,16.113,30.762,19.043,25.391,0
214965.594,16.602,20.508,31.250,16.602,25.391,0
214965.598,19.531,20.020,32.715,9.277,48.828,0
214965.602,23.926,21.973,34.180,11.719,34.668,0
214965.606,23.438,24.902,27.832,14.648,28.320,0
214965.609,23.926,23.926,25.391,20.508,26.367,0
214965.613,29.297,32.227,23.926,30.762,-3.906,0
214965.617,32.715,41.504,19.043,36.133,8.301,0
214965.621,32.715,34.668,25.391,29.785,25.391,0
214965.625,31.250,19.531,30.762,23.438,15.625,0
214965.629,24.414,21.484,21.484,10.254,31.738,0
214965.633,18.066,28.320,24.414,8.301,57.129,0
214965.637,21.973,29.785,41.016,23.926,69.336,0
214965.641,22.461,22.949,44.922,17.090,48.828,0
214965.645,21.973,22.461,33.691,16.602,28.809,0
214965.649,31.738,41.016,23.926,32.715,34.668,0
214965.652,38.086,41.992,26.367,43.457,17.578,0
214965.656,38.086,32.227,25.391,40.039,0.000,0
214965.660,41.504,26.855,27.832,31.250,26.367,0
214965.664,52.246,22.949,32.227,35.645,-4.395,0
214965.668,35.156,21.484,34.180,26.367,-17.090,0
214965.672,9.277,21.484,34.668,4.883,12.207,0
214965.676,30.762,26.855,36.133,17.578,66.406,0
214965.680,40.527,36.621,34.668,28.320,88.867,0
214965.684,22.461,37.109,32.227,17.578,65.918,0
214965.688,29.297,35.645,33.691,25.879,63.477,0
214965.692,39.062,38.574,29.785,38.086,48.340,0
214965.695,44.434,45.410,26.367,49.805,46.387,1
214965.699,44.922,42.480,27.344,45.898,64.453,0
214965.703,37.598,32.715,26.855,29.297,22.461,0
214965.707,32.227,33.203,21.484,20.020,-15.137,0
214965.711,30.273,31.250,32.227,22.461,20.996,0
214965.715,24.902,12.695,39.062,32.715,76.172,0
214965.719,29.297,13.184,37.109,35.645,76.172,0
214965.723,43.457,34.668,33.691,34.668,81.055,0
214965.727,41.016,34.180,27.344,31.738,36.621,0
214965.731,36.621,31.250,31.250,30.762,3.418,0
214965.734,40.527,44.922,33.691,37.598,18.555,0
214965.738,38.574,47.852,30.762,41.504,3.906,0
214965.742,38.574,38.574,29.785,41.992,94.727,0
214965.746,35.645,25.879,31.250,30.762,112.305,0
214965.750,30.273,24.902,32.227,24.414,70.312,0
214965.754,38.086,29.785,34.180,33.203,36.621,0
214965.758,41.016,28.320,31.250,33.691,31.738,0
214965.762,41.992,33.203,37.598,39.551,102.539,0
214965.766,46.387,33.203,42.969,44.922,54.688,0
214965.770,38.574,26.367,33.691,41.504,14.648,0
214965.774,40.039,29.297,32.227,46.875,43.457,0
214965.777,59.082,33.203,30.762,56.152,41.504,0
214965.781,49.805,34.668,24.414,49.805,34.180,0
214965.785,37.598,29.297,33.203,34.668,32.715,0
214965.789,36.621,26.367,34.668,29.297,24.414,0
214965.793,37.109,41.016,25.879,41.992,18.066,0
214965.797,38.574,50.293,30.762,43.457,9.766,0
214965.801,34.668,38.086,39.062,36.133,5.371,0
214965.805,32.227,27.832,39.062,29.785,26.367,0
214965.809,35.156,27.344,38.574,30.273,41.016,0
214965.813,44.434,34.668,41.992,44.922,42.969,0
214965.817,39.551,23.926,37.598,51.758,54.199,0
214965.820,30.273,13.672,34.180,42.969,48.340,0
214965.824,36.621,33.691,39.551,35.645,30.273,0
214965.828,50.293,41.016,39.062,40.039,25.879,0
214965.832,54.199,42.480,40.527,47.363,39.551,0
214965.836,55.176,46.875,40.039,57.617,71.289,0
214965.840,51.270,36.133,25.879,54.199,45.410,0
214965.844,38.086,27.344,29.785,36.133,8.789,0
214965.848,37.109,28.320,42.969,34.180,17.578,0
214965.852,36.621,31.738,32.227,42.480,40.527,0
214965.856,34.180,31.738,32.715,48.340,64.453,0
214965.859,31.738,30.273,47.852,40.527,46.875,0
214965.863,23.438,24.414,36.133,30.273,18.555,0
214965.867,21.973,22.461,27.344,32.227,59.570,0
214965.871,33.203,29.297,30.273,36.621,54.199,0
214965.875,40.039,34.180,33.203,35.645,36.133,0
214965.879,32.227,40.039,33.203,35.156,45.898,0
214965.883,26.367,41.016,33.691,37.598,14.648,0
214965.887,26.855,33.203,26.855,29.297,21.973,0
214965.891,28.809,33.691,21.484,23.438,-1.465,0
214965.895,30.273,34.180,29.297,31.738,-5.371,0
214965.899,27.344,31.738,33.691,35.156,30.762,0
214965.902,23.926,29.785,35.645,35.645,9.277,0
214965.906,32.715,31.250,38.086,36.621,16.113,0
214965.910,40.039,36.621,41.504,35.645,56.641,0
214965.914,38.086,26.367,41.504,31.738,32.715,0
214965.918,33.203,14.160,31.738,26.855,21.484,0
214965.922,26.855,22.461,18.066,25.879,49.316,0
214965.926,27.344,30.762,21.484,29.297,49.805,0
214965.930,34.668,36.133,33.203,31.738,57.129,0
214965.934,36.133,40.039,35.645,36.621,32.715,0
214965.938,28.809,28.809,27.344,34.668,-6.348,0
214965.942,29.297,23.926,32.715,30.762,8.789,0
214965.945,37.598,26.367,42.969,36.133,17.578,0
214965.949,33.691,37.598,39.062,42.969,-5.371,0
214965.953,32.715,44.434,33.203,53.711,26.367,0
214965.957,45.410,34.668,32.715,60.059,59.570,0
214965.961,42.480,24.902,33.691,40.039,29.785,0
214965.965,33.691,23.926,35.156,28.320,46.875,0
214965.969,32.715,30.273,36.133,27.344,53.711,0
214965.973,24.902,35.156,40.039,30.762,10.254,0
214965.977,17.090,31.738,41.016,28.809,26.367,0
214965.981,18.555,33.691,30.762,17.090,28.809,0
214965.984,16.602,32.227,25.391,14.648,25.391,0
214965.988,12.695,24.902,24.902,16.113,50.293,0
214965.992,11.719,28.320,28.809,13.184,16.602,0
214965.996,12.207,27.344,32.227,13.184,-12.207,0
214966.000,13.672,23.438,26.367,18.066,12.207,0
214966.004,20.996,21.484,25.879,27.832,21.484,0
214966.008,25.879,24.414,35.156,36.133,0.977,0
214966.012,28.809,32.227,44.922,38.086,6.836,0
214966.016,32.227,37.109,40.039,39.062,22.949,0
214966.020,31.250,32.715,27.344,32.715,17.578,0
214966.024,31.738,25.879,26.367,34.668,40.039,0
214966.027,31.738,33.203,28.320,41.504,9.277,0
214966.031,21.484,33.691,23.438,23.438,-10.742,0
214966.035,11.719,20.508,32.227,9.766,44.922,0
214966.039,14.648,22.461,43.945,9.277,13.184,0
214966.043,21.484,26.367,34.180,20.996,-14.648,0
214966.047,19.531,23.438,29.297,42.969,30.273,0
214966.051,14.648,24.902,30.762,33.691,29.785,0
214966.055,20.020,25.879,30.762,18.555,9.277,0
214966.059,26.367,32.227,35.645,24.902,19.531,0
214966.063,28.809,35.645,31.738,35.156,2.441,0
214966.067,31.738,40.527,19.531,45.898,-5.859,0
214966.070,35.156,43.457,21.484,39.062,10.254,0
214966.074,33.691,32.227,21.973,12.207,-19.043,0
214966.078,26.855,27.832,26.367,-0.977,-19.043,0
214966.082,26.855,30.273,25.391,10.742,-0.977,0
214966.086,40.039,31.250,25.391,27.832,0.488,0
214966.090,43.945,26.855,36.621,31.250,13.184,0
214966.094,43.945,25.391,36.621,33.203,29.785,0
214966.098,39.062,23.926,36.133,31.738,36.621,0
214966.102,21.484,23.926,33.691,27.832,58.594,0
214966.106,16.113,32.227,36.621,28.320,88.867,0
214966.109,14.160,33.691,39.062,27.832,84.473,0
214966.113,18.555,36.133,28.809,40.527,21.973,0
214966.117,28.809,41.016,20.508,46.875,15.137,0
214966.121,19.043,28.320,21.973,37.109,31.250,0
214966.125,9.766,22.461,27.832,26.855,-2.930,0
214966.129,20.508,32.715,23.438,28.809,-40.039,0
214966.133,27.344,32.227,14.160,34.668,-14.160,0
214966.137,26.855,22.949,26.855,38.086,42.480,0
214966.141,27.344,23.438,37.109,32.715,15.625,0
214966.145,27.832,36.133,24.902,30.762,9.277,0
214966.149,28.809,42.969,16.113,29.785,9.277,0
214966.152,32.715,32.227,24.902,27.832,34.180,0
214966.156,33.203,28.320,30.273,31.250,23.438,0
214966.160,26.855,28.809,31.250,23.926,-20.996,0
214966.164,31.250,32.715,40.039,28.809,41.504,0
214966.168,40.039,33.691,31.250,48.828,77.637,0
214966.172,43.945,36.621,21.484,52.734,19.043,0
214966.176,41.504,33.203,21.973,36.621,-7.812,0
214966.180,37.598,15.625,27.344,30.762,43.457,0
214966.184,50.293,23.926,28.809,37.598,63.477,0
214966.188,46.875,40.039,23.926,29.785,6.348,0
214966.192,32.227,29.297,29.785,37.109,6.836,0
214966.195,39.551,27.832,35.645,53.711,52.734,0
214966.199,41.992,35.645,34.180,43.457,56.641,0
214966.203,33.203,24.414,31.250,20.508,37.109,0
214966.207,34.180,28.809,34.668,21.484,68.848,0
214966.211,32.715,42.480,33.691,35.645,125.488,0
214966.215,22.949,34.180,27.832,34.180,106.934,0
214966.219,26.367,24.414,25.879,22.949,37.109,0
214966.223,33.203,33.203,26.855,26.367,22.461,0
214966.227,34.180,46.387,39.062,40.039,62.012,0
214966.231,35.156,41.504,41.016,38.574,69.824,2
214966.234,31.250,25.391,36.133,27.832,59.570,0
214966.238,25.879,21.973,33.691,17.090,44.922,0
214966.242,29.297,24.902,32.715,25.391,23.926,0
214966.246,33.691,28.809,23.926,37.109,32.715,0
214966.250,32.227,36.621,11.230,31.738,17.090,0
214966.254,34.180,42.480,21.973,36.133,-16.113,0
214966.258,32.227,39.062,34.180,38.574,7.324,0
214966.262,31.250,26.367,40.039,31.738,20.508,0
214966.266,29.297,21.973,42.969,23.926,-2.441,0
214966.270,30.273,24.902,40.527,33.203,27.832,0
214966.274,36.621,28.320,39.551,39.551,68.848,0
214966.277,39.062,29.785,33.691,33.203,37.598,0
214966.281,38.086,34.180,27.832,35.645,8.301,0
214966.285,36.621,37.598,28.809,37.109,43.945,0
214966.289,36.621,38.086,31.250,40.527,75.684,0
214966.293,33.691,34.180,20.996,32.715,32.227,0
214966.297,27.832,32.715,19.531,31.738,21.484,0
214966.301,29.297,31.738,36.133,40.039,68.359,0
214966.305,31.738,25.391,36.133,41.992,54.688,0
214966.309,36.133,23.438,35.645,41.504,43.457,0
214966.313,44.922,27.344,44.434,46.387,73.730,0
214966.317,43.457,34.180,40.527,48.828,83.984,0
214966.320,39.062,37.109,26.855,36.621,42.480,0
214966.324,40.039,32.715,27.832,44.434,0.977,0
214966.328,43.457,27.344,39.062,51.758,18.066,0
214966.332,42.969,29.297,38.574,42.969,31.738,0
214966.336,39.551,41.016,34.668,40.039,19.043,0
214966.340,42.969,48.340,24.414,36.621,20.508,0
214966.344,45.898,50.781,25.391,42.969,16.113,0
214966.348,44.434,41.504,41.016,50.293,48.828,0
214966.352,42.969,22.461,36.621,50.293,81.543,0
214966.356,34.668,15.625,28.809,39.551,53.711,0
214966.359,28.809,20.508,33.203,18.066,54.199,0
214966.363,31.738,32.227,34.668,18.555,44.922,0
214966.367,38.574,41.504,33.203,40.039,-10.742,0
214966.371,40.039,43.457,23.438,41.504,-15.137,0
214966.375,39.551,38.086,20.020,35.645,60.547,0
214966.379,40.039,32.227,20.508,42.480,69.336,0
214966.383,39.062,30.762,24.902,35.156,64.941,0
214966.387,39.062,28.320,43.457,38.574,64.941,0
214966.391,33.691,29.297,48.828,44.434,66.895,0
214966.395,30.273,34.668,42.480,44.434,84.473,0
214966.399,30.273,33.203,39.551,42.969,76.660,0
214966.402,26.367,23.438,36.133,36.621,70.801,0
214966.406,29.297,20.996,30.762,30.762,36.133,0
214966.410,36.621,30.762,33.203,30.762,14.160,0
214966.414,37.598,31.250,29.297,31.250,12.695,0
214966.418,36.621,27.344,17.578,33.203,-9.277,0
214966.422,37.109,36.621,29.297,31.250,21.973,0
214966.426,38.086,38.574,41.504,31.738,30.273,0
214966.430,43.457,30.273,37.109,37.598,15.137,0
214966.434,41.992,29.785,41.992,41.992,27.832,0
214966.438,41.016,38.086,45.410,49.316,18.066,0
214966.442,45.410,39.551,34.668,46.875,8.789,0
214966.445,33.691,38.574,28.809,33.691,-3.906,0
214966.449,24.414,41.504,28.320,27.832,6.836,0
214966.453,27.832,40.039,29.297,31.738,58.594,0
214966.457,36.133,39.551,41.992,39.551,45.898,0
214966.461,42.969,33.691,52.734,43.945,3.906,0
214966.465,36.621,17.578,44.434,34.668,39.551,0
214966.469,29.785,20.508,28.320,22.949,86.914,0
214966.473,29.785,26.855,29.785,23.926,68.359,0
214966.477,33.691,24.902,34.180,25.879,3.906,0
214966.481,34.180,21.973,33.203,32.715,-15.137,0
214966.484,27.344,22.461,33.203,40.527,6.836,0
214966.488,18.066,25.879,24.414,29.297,-10.254,0
214966.492,20.508,31.738,27.344,25.391,-46.387,0
214966.496,25.391,35.156,35.645,24.414,-64.941,0
214966.500,25.391,30.273,37.598,22.949,-57.129,0
214966.504,22.949,34.180,37.109,20.020,-52.246,0
214966.508,21.973,39.062,37.109,21.973,24.902,0
214966.512,25.879,33.203,43.457,22.461,106.445,0
214966.516,33.203,31.738,34.180,18.066,88.379,0
214966.520,33.203,28.809,24.414,23.926,59.082,0
214966.524,26.855,20.996,31.250,27.344,60.547,0
214966.527,33.203,31.738,34.180,34.668,78.613,0
214966.531,41.504,42.969,27.344,36.621,52.246,0
214966.535,40.039,39.062,28.809,34.668,37.109,0
214966.539,30.762,30.273,40.527,31.738,58.594,0
214966.543,26.367,26.855,40.527,25.879,44.434,0
214966.547,32.715,32.227,35.645,21.484,21.973,0
214966.551,41.504,34.668,27.344,22.949,6.348,0
214966.555,42.969,29.297,22.461,37.109,21.973,0
214966.559,35.156,24.414,34.180,41.016,15.137,0
214966.563,34.180,30.762,45.410,36.621,-16.602,0
214966.567,36.621,34.180,47.852,43.945,3.418,0
214966.570,32.227,34.180,36.621,39.551,30.273,0
214966.574,30.762,39.551,31.738,38.574,4.395,0
214966.578,37.109,42.969,30.273,41.016,-18.066,0
214966.582,33.203,38.574,23.438,36.133,1.465,0
214966.586,34.180,38.574,28.320,36.133,8.301,0
214966.590,38.086,35.645,32.715,38.086,29.297,0
214966.594,38.574,33.203,42.969,32.715,51.270,0
214966.598,40.039,36.133,52.246,27.832,67.871,0
214966.602,33.203,32.227,44.434,36.133,125.488,0
214966.606,35.645,35.645,30.762,38.574,153.320,0
214966.609,43.457,43.945,27.832,37.109,124.512,0
214966.613,41.016,32.715,32.227,32.227,73.242,0
214966.617,39.062,30.273,33.203,32.715,55.176,0
214966.621,43.457,42.969,33.691,35.156,20.996,0
214966.625,39.062,37.109,41.504,38.574,3.418,0
214966.629,24.902,25.391,38.574,36.621,36.133,0
214966.633,27.832,30.273,38.086,37.598,38.086,0
214966.637,36.621,38.086,34.668,41.992,5.371,0
214966.641,32.227,40.527,27.832,35.645,-8.301,0
214966.645,26.367,37.598,27.832,27.832,-7.324,0
214966.649,25.391,30.762,32.715,37.109,11.230,0
214966.652,22.461,28.320,40.039,31.250,20.508,0
214966.656,18.555,29.785,32.227,25.879,7.812,0
214966.660,27.832,34.180,34.180,37.109,-33.203,0
214966.664,34.180,30.273,36.621,39.551,-47.852,0
214966.668,27.344,30.273,38.574,37.598,-18.555,0
214966.672,25.391,35.156,36.621,21.973,9.766,0
214966.676,30.762,29.297,35.156,21.973,31.250,0
214966.680,26.367,25.879,39.551,21.484,41.992,0
214966.684,20.020,26.855,33.691,10.742,-13.184,0
214966.688,20.508,30.273,34.180,15.625,-22.949,0
214966.692,26.367,38.086,37.109,25.391,46.387,0
214966.695,26.367,39.062,29.785,30.762,31.250,0
214966.699,28.809,43.457,15.137,32.715,-18.555,0
214966.703,38.574,41.504,9.277,42.480,-31.250,0
214966.707,44.922,29.297,30.273,42.480,-43.457,0
214966.711,37.598,25.391,47.852,33.691,-5.371,0
214966.715,26.855,24.414,45.410,24.414,45.898,0
214966.719,25.879,20.020,40.039,18.555,60.059,0
214966.723,26.855,25.391,40.527,24.414,60.059,0
214966.727,33.203,31.738,42.480,41.504,41.992,0
214966.731,38.574,26.367,29.785,51.270,33.203,0
214966.734,39.062,25.391,16.113,38.086,12.207,0
214966.738,36.133,36.133,27.832,30.762,14.160,0
214966.742,35.156,42.480,44.922,31.250,41.992,0
214966.746,32.227,31.250,41.504,25.391,0.977,0
214966.750,32.227,22.461,31.738,33.203,0.488,0
214966.754,38.086,32.715,31.738,36.133,37.109,0
214966.758,34.180,31.738,27.344,21.973,14.160,0
214966.762,34.180,24.414,29.785,27.832,7.812,0
214966.766,38.574,23.926,32.227,35.156,26.367,0
214966.770,35.156,24.414,29.785,36.133,55.664,0
214966.774,35.645,33.203,33.691,36.133,23.926,0
214966.777,34.180,34.668,32.227,31.250,32.715,0
214966.781,34.180,28.320,28.809,22.461,53.711,0
214966.785,34.180,25.879,29.297,18.555,30.273,0
214966.789,32.227,28.320,27.832,23.438,10.742,0
214966.793,32.715,22.461,23.438,28.320,10.254,0
214966.797,26.367,9.766,27.344,26.367,72.266,0
214966.801,20.996,20.508,28.320,18.066,33.691,0
214966.805,18.066,28.809,24.902,17.578,26.855,0
214966.809,20.020,33.691,32.715,21.973,84.961,0
214966.813,27.832,46.875,39.062,28.320,101.074,0
214966.817,25.879,42.480,23.926,29.785,67.871,0
214966.820,30.762,33.691,18.066,30.273,40.039,0
214966.824,35.156,32.227,36.133,32.227,4.395,0
214966.828,25.879,25.879,44.922,30.273,-1.465,0
214966.832,25.879,28.320,42.480,27.832,-0.488,0
214966.836,29.785,38.086,41.504,24.414,-6.348,0
214966.840,33.203,41.016,24.414,27.344,49.805,0
214966.844,42.480,42.480,12.207,37.109,49.805,0
214966.848,44.434,39.062,8.301,34.180,40.039,0
214966.852,36.133,37.109,16.113,20.020,83.984,0
214966.856,31.250,31.250,34.668,14.648,60.547,0
214966.859,28.320,25.879,39.062,21.484,12.207,0
214966.863,28.320,31.250,40.527,23.926,13.672,0
214966.867,29.785,34.668,38.574,29.297,23.926,0
214966.871,28.809,30.273,32.227,38.086,29.297,0
214966.875,36.621,31.738,29.785,41.016,14.648,2
214966.879,39.062,40.039,14.648,32.715,-3.418,0
214966.883,29.785,35.156,10.254,27.344,5.371,0
214966.887,27.344,28.809,22.461,35.156,47.363,0
214966.891,28.809,28.809,36.621,41.504,72.266,0
214966.895,34.180,31.250,38.086,36.133,80.566,0
214966.899,31.738,24.902,29.785,36.133,87.891,0
214966.902,19.043,11.719,35.645,41.504,77.637,0
214966.906,24.414,19.531,45.410,33.691,63.965,0
214966.910,39.062,38.086,40.527,39.062,47.852,0
214966.914,41.992,44.922,26.855,41.504,8.301,0
214966.918,35.156,30.762,30.273,32.715,13.672,0
214966.922,33.691,28.320,30.273,28.809,19.043,0
214966.926,31.738,35.156,23.926,31.738,16.602,0
214966.930,27.832,31.738,22.949,38.574,90.332,0
214966.934,28.320,30.762,29.785,32.227,121.094,0
214966.938,25.879,30.273,30.762,24.902,95.703,0
214966.942,19.531,24.902,32.715,18.066,114.258,0
214966.945,19.531,24.414,44.434,24.902,121.094,0
214966.949,18.066,21.484,38.574,30.762,105.469,0
214966.953,20.508,19.043,23.926,24.414,114.258,0
214966.957,22.461,28.320,24.414,19.531,99.121,0
214966.961,27.832,38.086,34.180,26.855,65.430,0
214966.965,33.203,33.203,23.438,39.062,78.125,0
214966.969,38.086,27.344,17.578,35.156,87.891,0
214966.973,46.387,33.691,27.344,28.809,67.383,0
214966.977,37.109,35.645,26.855,22.949,55.176,0
214966.981,35.156,34.668,41.992,28.809,57.617,0
214966.984,32.715,33.691,47.363,27.832,38.086,0
214966.988,23.438,35.645,39.551,24.902,15.137,0
214966.992,30.273,37.598,38.086,34.180,30.273,0
214966.996,31.738,31.738,31.250,37.598,44.922,0
214967.000,30.762,31.250,30.273,40.527,72.754,0
214967.004,37.598,30.762,26.367,40.039,89.844,0
214967.008,33.691,19.531,23.438,32.715,93.750,0
214967.012,32.227,17.578,34.180,31.250,29.297,0
214967.016,32.227,26.367,42.969,37.109,-6.836,0
214967.020,23.438,28.320,38.574,43.945,38.574,0
214967.024,34.668,28.809,32.715,42.480,49.316,0
214967.027,42.969,28.320,43.945,37.598,42.480,0
214967.031,33.691,24.414,44.434,31.250,41.016,0
214967.035,32.227,25.879,31.250,31.250,51.758,0
214967.039,28.809,26.367,32.227,33.203,68.359,0
214967.043,23.438,25.879,36.621,27.344,45.410,0
214967.047,20.996,22.949,41.504,23.438,19.531,0
214967.051,25.391,26.367,48.828,28.320,14.160,0
214967.055,30.273,30.273,38.086,36.621,17.578,0
214967.059,22.949,29.297,22.949,38.086,34.180,0
214967.063,24.414,25.879,30.273,31.250,36.133,0
214967.067,32.715,28.320,36.621,32.715,38.086,0
214967.070,33.691,29.297,38.574,28.320,-4.883,0
214967.074,36.621,29.785,39.062,26.855,-48.340,0
214967.078,35.645,34.668,36.621,32.715,-54.688,0
214967.082,43.457,29.785,33.691,31.250,-30.273,0
214967.086,44.922,21.484,33.691,27.832,-47.363,0
214967.090,27.344,21.973,30.762,29.785,-66.406,0
214967.094,28.320,26.855,35.156,35.645,-48.828,0
214967.098,36.621,25.391,37.598,37.109,-33.691,0
214967.102,40.527,24.414,32.715,41.016,-15.137,0
214967.106,32.715,32.715,31.250,41.504,-16.113,0
214967.109,28.809,39.062,33.203,25.879,-15.137,0
214967.113,26.855,36.133,35.156,16.113,10.742,0
214967.117,24.902,33.203,40.527,15.625,35.156,0
214967.121,27.832,33.203,48.340,9.766,1.953,0
214967.125,17.090,27.344,26.855,7.812,-34.668,0
214967.129,22.461,25.391,15.137,15.625,-34.180,0
214967.133,35.645,30.762,27.832,23.438,-12.695,0
214967.137,26.367,34.180,28.809,23.926,-18.555,0
214967.141,15.625,34.668,33.203,25.391,-0.977,0
214967.145,16.113,27.832,37.109,26.367,19.043,0
214967.149,23.438,18.555,41.504,28.809,6.348,0
214967.152,23.438,22.461,46.875,39.062,17.090,0
214967.156,19.531,30.762,36.621,32.715,19.043,0
214967.160,17.090,35.156,27.832,26.855,26.367,0
214967.164,11.719,31.250,33.203,25.879,24.902,0
214967.168,11.719,24.902,43.457,18.066,8.301,0
214967.172,21.484,30.273,48.828,28.320,62.988,0
214967.176,21.484,32.715,49.805,34.180,47.852,0
214967.180,18.555,30.273,39.551,23.438,15.137,0
214967.184,23.438,32.227,30.762,20.020,49.805,0
214967.188,23.438,32.715,26.855,25.879,69.336,0
214967.192,26.367,34.180,29.785,38.086,74.707,0
214967.195,26.367,35.156,39.062,38.086,70.312,0
214967.199,27.832,27.832,39.062,32.715,64.941,0
214967.203,26.367,21.973,35.645,33.203,56.641,0
214967.207,23.438,24.414,38.574,29.297,24.902,0
214967.211,22.461,29.785,46.875,16.602,36.133,0
214967.215,26.367,38.086,45.410,22.461,31.738,0
214967.219,34.180,40.039,19.043,27.832,30.762,0
214967.223,37.109,38.574,12.695,23.438,46.387,0
214967.227,38.574,37.109,30.762,26.855,32.227,0
214967.231,36.621,34.668,37.598,39.551,22.461,0
214967.234,40.527,41.504,29.785,46.387,13.672,0
214967.238,41.504,36.621,24.902,48.828,34.180,0
214967.242,31.250,23.926,32.715,37.109,41.992,0
214967.246,37.109,25.879,37.598,27.832,13.672,0
214967.250,48.340,29.785,36.133,38.574,-10.742,0
214967.254,35.156,26.367,35.156,28.320,-27.344,0
214967.258,23.438,27.832,36.133,20.508,-9.277,0
214967.262,29.785,27.344,34.180,39.062,44.922,0
214967.266,32.227,30.762,31.738,51.758,34.180,0
214967.270,31.250,38.574,41.992,49.316,20.508,0
214967.274,30.762,30.273,39.062,38.086,48.828,0
214967.277,36.133,23.438,25.879,49.316,46.875,0
214967.281,37.598,33.203,22.949,62.012,20.996,0
214967.285,29.785,37.598,33.203,49.316,4.883,0
214967.289,26.367,20.508,38.574,37.598,-11.719,0
214967.293,32.227,8.789,46.875,38.574,6.348,0
214967.297,39.062,15.137,48.828,40.527,15.625,0
214967.301,31.250,31.738,26.855,36.621,-17.578,0
214967.305,28.809,42.480,19.531,42.969,24.414,0
214967.309,25.879,33.691,38.574,40.527,58.594,0
214967.313,23.438,25.391,44.434,35.156,38.086,0
214967.317,30.273,25.879,35.645,37.598,37.598,0
214967.320,34.180,28.320,31.738,41.992,47.363,0
214967.324,29.785,24.414,33.691,49.316,55.176,0
214967.328,28.809,20.508,37.598,43.457,56.641,0
214967.332,31.250,20.020,37.109,36.621,57.129,0
214967.336,31.738,26.855,23.926,39.062,100.586,0
214967.340,29.785,34.180,23.438,25.879,104.492,0
214967.344,27.832,32.227,26.367,17.578,37.598,0
214967.348,33.691,33.203,29.297,30.273,20.020,0
214967.352,35.156,30.762,41.504,43.945,50.781,0
214967.356,36.133,29.785,41.016,42.969,61.523,0
214967.359,35.645,31.738,39.551,41.992,14.160,0
214967.363,29.785,26.367,30.762,36.621,29.785,0
214967.367,30.762,26.855,22.949,38.086,68.359,0
214967.371,32.715,28.809,30.273,41.504,40.527,0
214967.375,30.273,31.738,33.691,33.203,17.578,0
214967.379,35.645,28.809,36.621,37.598,43.945,0
214967.383,41.992,31.250,44.922,46.875,58.594,0
214967.387,44.922,41.016,38.086,54.199,39.551,0
214967.391,40.527,32.715,26.367,45.898,50.781,0
214967.395,34.668,28.320,20.996,28.809,73.730,0
214967.399,32.227,31.738,26.367,33.691,76.172,0
214967.402,22.949,28.809,34.668,31.250,91.797,0
214967.406,21.484,28.809,32.227,32.715,85.938,0
214967.410,30.273,33.691,31.738,46.875,62.012,0
214967.414,34.180,33.203,32.227,36.621,64.453,0
214967.418,38.574,29.297,24.902,38.086,52.734,0
214967.422,42.480,34.668,18.066,43.457,48.828,0
214967.426,42.480,47.363,26.855,31.250,66.895,0
214967.430,46.875,49.805,46.387,37.109,39.062,0
214967.434,43.457,42.480,49.316,38.086,19.531,0
214967.438,30.273,38.574,35.645,28.809,12.695,0
214967.442,24.414,35.645,29.785,27.344,-21.484,0
214967.445,25.391,36.621,33.203,38.574,6.836,0
214967.449,28.809,35.156,39.551,37.598,10.742,0
214967.453,37.109,34.668,33.203,30.273,0.488,0
214967.457,47.363,40.039,24.902,38.574,45.898,0
214967.461,48.340,41.016,29.297,45.898,48.828,0
214967.465,38.574,30.762,43.457,41.992,16.113,0
214967.469,28.320,20.996,47.852,29.297,-4.883,0
214967.473,27.832,21.973,39.062,27.832,11.719,0
214967.477,33.203,32.227,35.645,23.926,27.344,0
214967.481,31.738,33.203,31.738,20.508,2.930,0
214967.484,36.133,35.645,32.227,37.109,-32.227,0
214967.488,44.922,41.504,22.461,44.922,13.184,0
214967.492,44.922,38.086,19.043,44.434,3.906,0
214967.496,41.992,34.668,33.691,43.457,-47.363,0
214967.500,44.434,34.668,45.898,47.852,3.418,0
214967.504,47.852,36.621,42.480,49.316,12.695,0
214967.508,41.992,34.668,35.156,36.621,-35.156,0
214967.512,39.551,37.598,33.203,37.109,-33.691,0
214967.516,40.527,39.062,29.785,41.504,26.367,0
214967.520,37.598,32.715,29.785,32.715,55.664,0
214967.524,41.016,33.203,25.391,32.715,22.949,0
214967.527,46.875,36.133,20.508,38.086,35.645,0
214967.531,44.434,38.574,23.926,34.180,54.688,0
214967.535,43.457,42.480,22.461,37.598,40.527,0
214967.539,46.875,38.086,22.461,33.691,-10.254,0
214967.543,46.875,38.086,35.156,28.809,-0.977,0
214967.547,42.969,39.551,32.227,31.250,11.719,0
214967.551,43.457,31.738,22.461,30.762,-48.340,0
214967.555,38.574,28.809,23.926,21.484,-18.066,0
214967.559,27.832,29.297,25.391,18.555,-14.648,0
214967.563,28.320,30.762,24.902,28.320,0.000,1
214967.567,31.250,31.738,19.531,28.809,10.742,0
214967.570,31.250,30.762,13.672,26.855,-6.348,0
214967.574,35.156,36.621,26.855,33.691,29.785,0
214967.578,33.691,40.039,40.039,32.715,45.898,0
214967.582,37.598,36.133,34.668,33.691,78.125,0
214967.586,42.969,28.809,27.344,35.156,93.750,0
214967.590,35.156,30.762,23.926,37.109,52.734,0
214967.594,35.645,39.062,22.949,42.480,21.973,0
214967.598,43.945,43.945,32.227,44.922,20.996,0
214967.602,35.645,42.969,39.551,39.062,4.883,0
214967.606,25.879,36.621,26.367,33.691,10.254,0
214967.609,28.320,38.086,17.578,31.738,-2.441,0
214967.613,27.832,35.645,25.391,26.367,4.395,0
214967.617,25.391,23.438,31.250,27.832,4.395,0
214967.621,30.273,23.438,31.250,30.273,-31.250,0
214967.625,29.785,27.344,34.180,28.809,-21.484,0
214967.629,29.297,25.879,33.691,30.273,-38.086,0
214967.633,33.691,33.203,27.832,36.621,-46.387,0
214967.637,28.809,35.645,25.391,33.203,4.395,0
214967.641,25.879,29.297,20.996,27.832,24.414,0
214967.645,29.785,32.227,26.367,25.879,30.762,0
214967.649,33.203,35.156,40.039,23.438,14.160,0
214967.652,36.133,35.156,41.992,27.344,2.930,0
214967.656,31.250,30.273,33.203,29.297,-2.930,0
214967.660,31.250,32.715,26.855,27.832,7.324,0
214967.664,30.762,29.785,27.344,23.926,63.477,0
214967.668,27.832,32.227,26.367,29.785,33.203,0
214967.672,43.457,49.805,27.832,46.875,-41.016,0
214967.676,43.945,48.828,25.879,36.621,-24.902,0
214967.680,27.832,33.691,24.902,19.531,-7.812,0
214967.684,25.391,21.973,35.645,26.855,-33.691,0
214967.688,21.484,21.973,46.875,33.691,-32.227,0
214967.692,17.578,23.926,49.805,32.227,27.344,0
214967.695,15.137,24.902,40.527,28.809,49.805,0
214967.699,18.555,26.855,29.297,26.855,6.836,0
214967.703,30.762,24.902,27.344,42.969,32.715,0
214967.707,38.086,30.273,25.391,59.082,47.363,0
214967.711,31.250,40.527,27.344,39.551,35.645,0
214967.715,25.391,40.039,33.691,23.438,73.242,0
214967.719,28.320,38.086,33.691,21.484,55.176,0
214967.723,36.133,37.598,32.227,26.367,16.602,0
214967.727,34.668,31.738,37.598,33.203,34.668,0
214967.731,21.484,30.273,34.668,26.367,38.086,0
214967.734,23.438,31.738,32.715,25.391,37.109,0
214967.738,34.180,30.273,35.645,34.180,64.941,0
214967.742,37.109,26.367,35.645,38.574,66.895,0
214967.746,30.762,28.809,34.180,34.668,48.340,0
214967.750,33.203,33.203,22.949,32.715,42.969,0
214967.754,45.898,38.086,20.508,45.898,60.059,0
214967.758,46.875,39.551,27.344,44.434,54.199,0
214967.762,36.133,36.133,28.320,26.367,19.043,0
214967.766,29.297,38.086,35.156,21.484,-2.441,0
214967.770,29.297,38.574,45.410,30.762,27.832,0
214967.774,31.250,31.738,40.527,35.156,29.785,0
214967.777,25.879,24.414,30.273,25.391,40.527,0
214967.781,21.484,22.949,38.574,23.438,81.543,0
214967.785,34.668,20.508,44.434,38.086,68.359,0
214967.789,43.945,20.020,36.133,54.199,48.340,0
214967.793,41.016,28.809,26.367,54.688,25.391,0
214967.797,38.574,32.227,25.391,46.875,17.090,0
214967.801,38.574,35.645,23.438,33.203,8.301,0
214967.805,36.133,36.621,31.250,26.367,24.902,0
214967.809,26.855,25.391,36.621,28.809,25.879,0
214967.813,21.484,18.555,32.227,20.508,9.766,0
214967.817,22.461,16.113,37.109,19.531,39.062,0
214967.820,22.461,17.090,42.480,29.297,51.758,0
214967.824,29.297,25.879,38.574,27.832,22.461,0
214967.828,37.598,29.785,38.086,24.902,14.648,0
214967.832,36.621,31.738,36.621,29.297,47.363,0
214967.836,38.574,33.203,30.273,34.668,34.668,0
214967.840,42.969,28.809,28.809,37.598,8.301,0
214967.844,40.527,36.621,21.484,30.762,42.969,0
214967.848,32.227,46.875,19.043,29.297,55.664,0
214967.852,23.926,25.879,25.879,31.738,16.602,0
214967.856,23.926,13.672,34.668,24.414,24.414,0
214967.859,29.297,20.508,46.387,24.414,24.414,0
214967.863,31.738,26.367,47.852,31.738,-9.277,0
214967.867,29.297,34.668,39.551,28.809,-26.367,0
214967.871,28.320,38.574,25.879,30.273,-41.504,0
214967.875,22.461,35.645,15.137,35.156,-6.836,0
214967.879,19.043,31.250,17.090,32.227,53.223,0
214967.883,20.508,27.832,23.926,25.391,69.824,0
214967.887,27.344,28.809,21.973,26.855,50.293,0
214967.891,29.297,30.273,22.461,36.621,60.059,0
214967.895,23.438,20.508,24.902,28.809,36.621,0
214967.899,26.367,17.090,22.949,20.020,9.277,0
214967.902,28.809,25.879,36.621,22.949,28.320,0
214967.906,32.227,34.668,47.852,32.227,18.066,0
214967.910,30.762,33.691,41.016,34.668,38.574,0
214967.914,27.344,30.762,30.762,24.902,39.551,0
214967.918,24.414,29.297,29.297,26.855,-16.113,0
214967.922,26.367,33.203,33.691,44.434,0.488,0
214967.926,32.227,38.086,35.156,41.504,2.441,0
214967.930,31.738,30.273,27.832,32.227,-4.883,0
214967.934,34.180,31.738,21.973,42.969,35.156,0
214967.938,40.039,39.062,29.297,41.992,52.734,0
214967.942,41.504,38.574,41.992,30.762,24.414,0
214967.945,35.645,32.227,45.410,29.297,3.418,0
214967.949,29.785,25.391,39.062,30.273,25.879,0
214967.953,26.367,23.438,35.645,29.297,18.555,0
214967.957,29.297,26.367,38.574,29.297,-9.277,0
214967.961,35.156,34.668,33.691,32.227,8.789,0
214967.965,41.992,41.016,33.203,43.457,20.996,0
214967.969,44.922,39.551,44.922,51.758,20.508,0
214967.973,41.016,33.203,46.875,41.992,-12.695,0
214967.977,41.016,29.297,33.691,42.480,-21.973,0
214967.981,38.574,24.414,31.738,41.992,19.043,0
214967.984,33.203,30.273,39.062,30.762,28.320,0
214967.988,33.691,41.992,39.062,31.250,68.848,0
214967.992,37.109,44.434,37.598,38.086,83.008,0
214967.996,36.621,36.621,37.109,37.109,26.855,0
214968.000,34.180,36.621,40.527,33.691,22.461,0
214968.004,29.297,36.133,38.086,24.902,16.113,0
214968.008,39.551,36.133,30.762,32.227,-1.465,0
214968.012,42.480,40.527,33.691,39.062,10.742,0
214968.016,33.691,36.621,35.645,24.414,-4.395,0
214968.020,36.133,35.156,42.480,29.297,1.953,0
214968.024,34.180,31.738,48.340,35.156,12.695,0
214968.027,24.414,24.414,28.809,23.438,12.207,0
214968.031,23.926,28.320,26.367,25.879,18.066,0
214968.035,25.879,32.715,43.945,33.691,39.062,0
214968.039,27.344,29.785,40.527,35.645,41.016,0
214968.043,32.715,33.691,35.645,37.598,47.852,0
214968.047,29.297,35.645,29.785,34.180,57.617,0
214968.051,26.855,37.109,19.531,39.062,34.180,0
214968.055,30.273,37.598,23.926,49.805,83.984,0
214968.059,34.668,35.645,33.203,49.316,128.418,0
214968.063,34.668,31.250,33.691,45.898,100.586,0
214968.067,26.855,26.855,40.527,33.203,102.051,0
214968.070,30.273,25.391,50.293,25.879,119.141,0
214968.074,32.715,23.926,41.992,22.949,121.582,0
214968.078,28.320,27.832,34.668,22.949,126.465,0
214968.082,30.273,30.273,34.668,27.832,79.102,0
214968.086,38.574,34.668,33.691,31.250,44.922,0
214968.090,44.434,39.062,40.527,40.527,69.824,0
214968.094,48.340,39.551,40.527,45.410,55.664,0
214968.098,42.969,39.551,21.973,42.969,39.062,0
214968.102,33.203,30.762,25.879,37.109,70.312,0
214968.106,31.738,25.391,38.574,31.738,45.410,0
214968.109,32.227,24.902,34.180,41.016,37.109,0
214968.113,30.273,27.344,34.180,39.062,71.777,0
214968.117,33.691,34.668,37.109,35.156,71.777,0
214968.121,35.645,37.109,37.109,36.621,70.801,0
214968.125,29.785,32.715,35.645,28.809,66.895,0
214968.129,34.180,33.203,36.621,37.598,48.340,0
214968.133,33.203,33.203,37.598,38.574,66.895,0
214968.137,30.762,36.621,30.762,30.762,101.074,0
214968.141,38.086,39.062,39.062,34.668,54.199,0
214968.145,35.645,34.180,46.387,30.273,38.574,0
214968.149,21.973,20.996,30.273,22.949,54.688,0
214968.152,18.555,14.160,29.297,27.832,82.520,0
214968.156,29.297,26.855,40.527,42.969,96.680,0
214968.160,31.250,34.180,35.156,40.527,95.215,0
214968.164,26.855,34.180,27.344,26.855,97.168,0
214968.168,31.738,33.203,29.297,31.738,60.059,0
214968.172,38.086,31.250,32.227,43.457,30.273,0
214968.176,38.086,37.598,28.809,45.410,35.645,0
214968.180,35.645,43.457,27.832,32.715,26.855,0
214968.184,35.156,37.598,35.645,28.809,-8.301,0
214968.188,35.156,21.973,41.504,26.367,-13.672,0
214968.192,31.738,17.090,33.691,21.484,8.789,0
214968.195,31.738,30.762,28.320,35.645,25.391,0
214968.199,35.645,42.969,34.180,41.992,-19.043,0
214968.203,32.227,42.480,38.086,31.250,-37.109,0
214968.207,25.879,39.062,42.480,25.879,30.273,0
214968.211,22.461,35.645,41.992,14.160,42.969,0
214968.215,16.602,33.691,39.551,4.395,24.414,0
214968.219,19.043,37.109,35.156,9.766,71.289,0
214968.223,29.785,41.016,28.809,22.461,64.453,0
214968.227,25.391,46.875,30.273,21.484,19.043,0
214968.231,6.348,52.734,26.367,-0.977,21.973,0
214968.234,-0.488,46.875,17.578,-6.348,35.156,0
214968.238,-2.930,41.504,24.902,0.000,20.508,0
214968.242,-7.324,54.199,40.527,-12.695,-24.902,0
214968.246,-12.695,63.477,44.922,-32.227,-48.340,0
214968.250,-26.855,59.570,34.180,-42.969,-23.438,0
214968.254,-36.621,58.594,30.273,-44.434,3.418,0
214968.258,-41.992,58.105,35.645,-52.246,-10.254,0
214968.262,-44.922,57.129,37.109,-53.223,-34.668,1
214968.266,-43.945,54.199,32.227,-45.898,-16.602,0
214968.270,-48.340,52.734,24.902,-53.223,-6.836,0
214968.274,-58.594,66.406,19.531,-62.012,11.230,0
214968.277,-59.570,73.730,23.438,-57.129,21.484,0
214968.281,-60.059,70.801,34.180,-60.547,7.324,0
214968.285,-68.848,64.941,29.297,-72.754,19.043,0
214968.289,-66.895,58.105,21.973,-71.289,-19.531,0
214968.293,-59.570,50.781,22.949,-57.617,-14.648,0
214968.297,-53.223,52.246,23.926,-50.781,24.902,0
214968.301,-55.664,57.617,20.508,-50.781,5.371,0
214968.305,-59.082,59.082,12.695,-46.875,-5.859,0
214968.309,-48.828,58.105,16.602,-41.992,29.297,0
214968.313,-37.598,46.387,29.297,-25.879,44.434,0
214968.317,-28.809,41.016,33.691,-14.160,28.809,0
214968.320,-26.855,44.922,28.809,-17.090,45.898,0
214968.324,-25.391,39.551,20.996,-20.508,34.180,0
214968.328,-11.230,40.527,22.461,-11.230,0.000,0
214968.332,-2.930,46.875,21.484,0.000,0.977,0
214968.336,-2.441,40.527,11.719,6.836,-5.371,0
214968.340,2.930,31.738,8.789,17.578,22.949,0
214968.344,8.301,26.855,11.719,12.695,19.043,0
214968.348,13.184,26.855,14.648,13.672,-8.301,0
214968.352,20.508,28.809,27.344,32.715,15.137,0
214968.356,27.832,22.949,37.598,36.133,50.781,0
214968.359,28.809,28.320,42.480,36.621,77.148,0
214968.363,27.344,40.527,42.480,39.062,70.312,0
214968.367,34.668,41.992,28.320,43.457,59.570,0
214968.371,35.156,33.691,17.578,42.969,91.797,0
214968.375,33.203,29.297,15.137,39.062,82.031,0
214968.379,41.992,30.273,15.137,44.434,16.602,0
214968.383,44.434,26.367,22.461,52.734,-3.906,0
214968.387,38.574,21.973,40.039,57.617,33.203,0
214968.391,51.270,26.367,48.828,71.777,42.969,0
214968.395,59.570,29.785,47.852,71.777,44.434,0
214968.399,52.734,20.996,36.621,48.340,55.176,0
214968.402,51.270,14.160,29.785,38.574,22.949,0
214968.406,48.828,18.066,31.738,47.852,7.812,0
214968.410,45.898,16.602,24.902,55.176,20.020,0
214968.414,50.781,13.184,26.367,59.082,29.297,0
214968.418,55.176,16.602,35.156,59.082,36.621,0
214968.422,60.547,22.949,34.668,59.082,26.855,0
214968.426,62.012,24.414,41.016,58.105,24.414,0
214968.430,56.152,22.949,49.316,58.594,34.180,0
214968.434,61.035,26.367,42.969,64.453,34.668,0
214968.438,61.035,27.832,32.715,63.965,10.254,0
214968.442,52.246,26.855,36.621,60.059,21.484,0
214968.445,57.617,23.438,39.551,66.406,57.617,0
214968.449,68.848,16.113,29.785,68.848,49.316,0
214968.453,72.754,21.973,21.484,64.941,41.016,0
214968.457,68.359,26.367,31.250,59.082,38.086,0
214968.461,65.918,20.996,32.227,52.734,30.273,0
214968.465,60.547,19.043,19.043,54.688,48.828,0
214968.469,52.734,18.555,19.531,56.152,31.738,0
214968.473,55.176,26.367,31.250,59.082,48.340,0
214968.477,61.523,36.133,46.875,65.918,97.168,0
214968.481,62.012,33.691,42.969,70.312,96.680,0
214968.484,59.570,24.902,28.320,65.430,84.473,0
214968.488,57.129,18.066,25.879,62.988,82.031,0
214968.492,57.617,13.184,23.926,59.082,73.242,0
214968.496,55.176,14.648,26.367,48.828,49.805,0
214968.500,55.664,22.949,32.715,52.246,54.199,0
214968.504,61.035,24.902,31.250,61.035,85.449,0
214968.508,63.965,25.879,29.297,63.477,95.703,0
214968.512,65.918,24.414,29.297,64.453,89.844,0
214968.516,63.477,13.184,30.762,53.711,82.520,0
214968.520,57.129,12.695,38.574,53.711,75.195,0
214968.524,49.316,14.648,40.527,64.941,112.793,0
214968.527,47.363,15.137,38.086,56.641,114.258,0
214968.531,52.246,20.996,40.039,48.828,65.430,0
214968.535,49.805,16.602,35.645,41.992,62.500,0
214968.539,44.434,10.742,31.250,35.156,79.590,0
214968.543,44.922,23.438,26.367,39.062,68.359,0
214968.547,52.734,29.785,13.672,54.199,12.207,0
214968.551,59.570,26.855,23.926,62.988,43.457,0
214968.555,58.594,24.414,34.668,62.500,73.242,0
214968.559,57.617,21.973,31.250,59.570,34.180,0
214968.563,54.688,20.996,34.180,60.059,56.641,0
214968.567,52.734,20.508,37.598,66.406,88.379,0
214968.570,55.664,16.113,43.945,58.594,70.801,0
214968.574,50.781,14.160,42.480,44.922,7.812,0
214968.578,42.969,20.996,37.109,43.457,-12.207,0
214968.582,46.387,25.391,34.180,50.293,41.504,0
214968.586,52.246,21.484,27.832,55.664,19.043,0
214968.590,52.734,17.578,28.809,55.176,-22.949,0
214968.594,44.922,18.555,33.691,48.828,40.527,0
214968.598,36.133,21.973,34.180,47.363,128.418,0
214968.602,38.086,26.855,45.410,52.246,90.332,0
214968.606,34.180,21.484,46.387,43.945,25.879,0
214968.609,28.809,13.672,33.203,39.551,5.859,0
214968.613,36.133,12.207,33.203,46.875,3.906,0
214968.617,38.574,9.766,30.273,42.480,20.020,0
214968.621,39.551,11.230,22.461,40.039,-10.254,0
214968.625,43.457,28.320,25.391,39.062,3.906,0
214968.629,42.969,35.645,31.738,38.574,80.566,0
214968.633,48.340,23.438,36.133,41.016,66.406,0
214968.637,56.641,26.855,38.086,49.316,59.082,0
214968.641,55.664,34.180,31.738,43.945,62.500,0
214968.645,49.805,27.832,22.949,32.715,35.156,0
214968.649,42.480,19.043,26.855,34.180,50.781,0
214968.652,37.598,11.719,29.785,34.180,59.570,0
214968.656,38.574,12.207,33.691,32.227,25.879,0
214968.660,47.363,22.461,37.109,51.270,48.828,0
214968.664,51.758,32.715,19.531,58.105,27.832,0
214968.668,45.898,26.855,12.207,31.738,36.133,0
214968.672,40.039,22.949,21.484,25.879,88.379,0
214968.676,44.922,31.250,22.949,40.039,48.340,0
214968.680,37.598,20.020,22.949,37.109,35.645,0
214968.684,22.949,10.742,29.297,22.461,71.777,0
214968.688,26.367,16.113,36.621,26.367,68.359,0
214968.692,30.273,23.438,34.180,37.598,26.367,0
214968.695,27.344,27.832,31.738,38.574,12.695,0
214968.699,28.320,30.273,31.250,40.039,-5.371,0
214968.703,33.203,36.133,26.855,46.387,-1.953,0
214968.707,39.062,35.156,22.949,48.340,-20.020,0
214968.711,48.828,36.621,35.645,46.875,-54.199,0
214968.715,45.410,30.762,47.363,39.062,-15.625,0
214968.719,31.250,18.555,38.086,36.133,8.789,0
214968.723,24.902,15.625,31.250,31.250,10.742,0
214968.727,26.855,16.602,27.832,31.738,19.043,0
214968.731,30.273,17.578,18.066,35.156,42.480,0
214968.734,32.227,20.020,9.277,33.203,37.109,0
214968.738,31.250,25.879,17.578,33.691,14.160,0
214968.742,33.691,36.133,35.156,31.738,20.996,0
214968.746,40.039,36.133,39.062,36.621,16.113,0
214968.750,38.086,26.855,29.297,37.109,26.367,0
214968.754,31.250,18.066,31.738,29.785,25.879,0
214968.758,30.273,14.648,38.086,36.621,22.461,0
214968.762,39.551,24.414,24.902,53.223,26.367,0
214968.766,41.992,32.227,22.461,43.945,13.672,0
214968.770,36.133,33.691,26.855,26.855,-4.395,0
214968.774,38.086,36.621,32.227,30.762,11.230,0
214968.777,40.039,33.691,39.551,33.203,15.137,0
214968.781,34.180,21.484,39.551,26.367,3.418,0
214968.785,34.668,18.066,31.738,31.250,26.367,0
214968.789,38.574,24.414,26.367,34.668,20.508,0
214968.793,35.156,29.297,27.344,33.203,-13.672,0
214968.797,32.227,33.203,31.738,37.109,-24.902,0
214968.801,32.715,35.156,33.691,40.527,-39.062,0
214968.805,34.668,35.645,25.879,40.527,-19.043,0
214968.809,43.945,36.133,20.996,45.898,24.902,0
214968.813,41.016,29.785,18.066,35.156,6.836,0
214968.817,37.598,26.855,30.762,23.438,12.207,0
214968.820,37.598,31.250,45.898,21.973,18.066,0
214968.824,30.273,31.738,37.109,16.113,-8.789,0
214968.828,32.227,32.715,20.996,19.531,-6.348,0
214968.832,36.621,35.156,20.020,29.785,15.137,0
214968.836,34.668,38.086,30.762,23.438,11.719,0
214968.840,36.621,34.180,33.691,26.855,5.859,0
214968.844,35.156,26.367,22.949,31.250,19.531,0
214968.848,28.809,28.809,12.695,17.578,33.691,0
214968.852,34.180,32.715,12.695,28.320,78.613,0
214968.856,36.621,30.762,18.555,40.527,32.715,0
214968.859,31.738,30.273,30.273,29.785,-18.555,0
214968.863,34.180,37.109,42.480,23.438,47.852,0
214968.867,41.504,38.574,38.574,40.039,78.613,0
214968.871,39.551,30.762,17.090,34.668,54.688,0
214968.875,35.645,34.180,21.484,24.414,36.133,2
214968.879,41.504,36.133,31.738,38.086,48.340,0
214968.883,40.039,25.391,20.996,36.133,50.781,0
214968.887,40.039,21.973,11.230,27.344,22.949,0
214968.891,41.504,31.738,19.043,29.297,-15.137,0
214968.895,34.668,37.598,24.902,41.504,-45.898,0
214968.899,33.691,32.227,25.391,51.270,17.578,0
214968.902,34.180,29.785,30.762,51.758,3.418,0
214968.906,31.250,32.715,39.062,53.223,-20.508,0
214968.910,25.879,25.879,37.598,41.016,50.293,0
214968.914,29.785,20.996,27.832,34.668,62.988,0
214968.918,43.945,25.391,34.180,41.992,20.996,0
214968.922,43.457,19.531,36.621,41.504,8.301,0
214968.926,35.156,20.020,29.785,39.551,21.484,0
214968.930,34.668,30.273,25.879,41.992,50.293,0
214968.934,33.691,35.156,24.902,43.457,63.965,0
214968.938,32.227,29.785,29.785,39.062,34.180,0
214968.942,28.320,25.391,31.250,34.180,26.367,0
214968.945,34.668,36.621,30.273,43.457,67.383,0
214968.949,37.598,33.691,30.762,37.109,61.523,0
214968.953,34.180,20.020,32.227,27.832,29.297,0
214968.957,31.250,18.555,40.527,29.297,35.645,0
214968.961,34.668,23.926,45.410,37.109,51.758,0
214968.965,42.480,25.879,36.133,48.340,41.504,0
214968.969,36.133,26.367,31.250,40.039,-28.809,0
214968.973,34.180,29.785,40.039,29.785,-33.203,0
214968.977,33.203,27.832,43.457,29.297,-9.277,0
214968.981,27.344,28.809,38.086,29.297,-17.578,0
214968.984,32.715,40.039,28.320,30.273,8.301,0
214968.988,40.039,43.457,23.438,37.109,23.438,0
214968.992,29.297,24.902,28.809,32.715,3.418,0
214968.996,25.391,20.508,36.621,17.578,-4.395,0
214969.000,28.809,26.855,36.621,20.996,56.641,0
214969.004,24.414,28.320,23.438,20.020,92.773,0
214969.008,32.715,27.344,19.531,23.438,78.125,0
214969.012,39.062,18.555,27.344,26.855,90.820,0
214969.016,36.133,22.461,27.832,23.438,87.891,0
214969.020,37.109,32.715,33.203,34.180,26.367,0
214969.024,32.227,26.855,35.156,30.273,10.254,0
214969.027,30.273,22.949,31.738,18.555,12.207,0
214969.031,31.250,26.367,31.738,27.344,41.504,0
214969.035,31.738,36.621,30.273,38.086,40.527,0
214969.039,42.480,42.969,28.320,42.480,-20.996,0
214969.043,52.246,40.039,29.785,48.340,-36.621,0
214969.047,41.992,40.039,28.320,46.387,-6.348,0
214969.051,36.621,40.039,30.273,45.898,12.695,0
214969.055,37.598,34.180,43.945,43.457,25.879,0
214969.059,30.762,19.043,41.016,37.109,0.000,0
214969.063,32.227,18.555,33.203,40.527,38.086,0
214969.067,30.762,24.414,29.297,35.645,33.691,0
214969.070,26.367,26.855,26.855,35.645,-5.859,0
214969.074,32.227,38.574,35.645,45.410,18.066,0
214969.078,42.480,45.898,39.551,54.199,3.906,0
214969.082,47.363,43.457,32.715,54.688,-31.738,0
214969.086,49.805,41.016,42.969,49.316,-50.293,0
214969.090,49.805,38.086,48.340,45.898,-27.344,0
214969.094,45.898,33.691,41.504,42.969,18.066,0
214969.098,42.969,27.832,31.738,34.180,54.688,0
214969.102,45.410,29.785,24.414,39.062,40.039,0
214969.106,42.969,27.344,31.738,47.852,28.320,0
214969.109,38.086,22.461,41.504,39.062,47.852,0
214969.113,34.180,25.391,45.410,30.762,20.020,0
214969.117,35.156,34.180,45.898,36.133,6.348,0
214969.121,39.062,41.504,32.715,48.340,20.508,0
214969.125,37.598,42.969,36.133,45.898,30.273,0
214969.129,38.086,40.039,50.293,36.133,11.719,0
214969.133,43.457,30.273,46.387,33.203,-18.066,0
214969.137,38.574,24.414,37.109,37.109,18.066,0
214969.141,26.855,21.973,31.250,34.180,48.340,0
214969.145,24.902,24.414,32.227,25.391,27.832,0
214969.149,25.879,30.762,36.133,21.484,44.434,0
214969.152,29.785,32.715,36.621,33.203,73.730,0
214969.156,39.062,28.320,35.156,41.992,64.941,0
214969.160,43.457,33.203,43.457,48.340,73.730,0
214969.164,42.480,44.922,55.664,59.082,71.289,0
214969.168,38.574,41.504,47.363,56.152,34.668,0
214969.172,34.180,35.156,35.156,45.410,5.859,0
214969.176,36.133,35.156,35.156,35.156,3.418,0
214969.180,37.109,29.297,39.062,33.203,32.227,0
214969.184,35.156,30.762,45.410,41.016,58.105,0
214969.188,32.227,35.156,51.270,41.016,40.039,0
214969.192,31.250,32.227,43.945,38.086,31.738,0
214969.195,27.344,27.832,30.762,41.016,54.199,0
214969.199,27.344,29.297,36.621,40.039,47.363,0
214969.203,35.156,37.109,43.945,43.945,15.137,0
214969.207,36.133,41.504,38.086,42.480,25.879,0
214969.211,31.250,44.922,28.809,46.875,25.391,0
214969.215,31.738,38.574,21.484,45.410,17.090,0
214969.219,33.691,27.832,32.227,23.926,1.953,0
214969.223,36.133,35.156,43.457,26.855,-14.160,0
214969.227,37.109,44.434,46.387,41.992,9.766,0
214969.231,33.203,38.086,42.480,44.922,-3.418,0
214969.234,28.320,33.203,32.715,38.086,-24.414,0
214969.238,29.297,35.645,25.391,38.574,24.414,0
214969.242,32.715,33.691,29.297,45.410,30.273,0
214969.246,31.738,32.715,43.457,45.410,8.789,0
214969.250,29.297,24.902,41.504,44.434,-1.465,0
214969.254,27.832,21.973,27.832,43.457,7.324,0
214969.258,31.738,36.133,21.484,41.504,6.836,0
214969.262,31.738,33.691,31.250,41.992,-23.438,0
214969.266,34.668,34.180,45.898,43.457,-40.039,0
214969.270,38.574,40.527,40.527,41.504,-0.977,0
214969.274,32.715,36.133,23.926,36.133,58.594,0
214969.277,31.250,40.527,28.809,36.621,53.711,0
214969.281,35.645,44.434,48.340,39.062,68.359,0
214969.285,30.762,38.086,49.805,35.156,91.797,0
214969.289,27.344,29.785,38.574,40.527,76.660,0
214969.293,29.785,28.809,37.109,44.922,46.875,0
214969.297,27.344,32.227,29.297,34.180,35.156,0
214969.301,34.180,40.039,24.902,32.227,54.199,0
214969.305,41.504,46.387,32.715,40.527,50.781,0
214969.309,41.016,43.945,29.785,46.387,54.688,0
214969.313,46.875,47.852,32.715,54.688,53.223,0
214969.317,49.805,48.340,39.062,53.223,49.805,0
214969.320,47.363,38.086,42.969,51.270,61.523,0
214969.324,45.898,28.320,44.434,44.922,59.082,0
214969.328,44.434,29.297,46.875,38.086,51.758,0
214969.332,42.480,34.668,41.504,43.945,44.434,0
214969.336,33.203,26.855,32.227,32.715,63.965,0
214969.340,28.320,29.785,40.039,29.297,60.547,0
214969.344,28.320,41.504,32.227,40.039,62.500,0
214969.348,25.391,33.691,22.461,26.367,72.266,0
214969.352,29.297,34.668,29.785,20.996,65.918,0
214969.356,35.156,40.527,36.133,33.203,54.688,0
214969.359,34.180,35.645,39.062,35.156,80.078,0
214969.363,32.227,33.203,44.922,37.598,125.488,0
214969.367,29.297,33.203,41.016,35.645,145.020,0
214969.371,25.879,35.645,27.832,32.227,92.285,0
214969.375,29.785,34.668,27.832,35.156,123.047,0
214969.379,32.227,20.996,31.738,40.527,162.109,0
214969.383,29.785,20.508,32.227,33.691,117.676,0
214969.387,38.574,32.715,31.250,32.227,96.191,0
214969.391,44.434,37.109,22.461,42.480,104.980,0
214969.395,46.387,39.551,23.926,46.387,95.703,0
214969.399,47.852,38.574,44.434,41.992,57.617,0
214969.402,40.039,38.086,54.688,37.598,42.969,0
214969.406,38.574,45.898,45.410,43.457,77.637,0
214969.410,39.062,39.551,34.180,43.945,64.941,0
214969.414,36.621,27.344,32.227,32.715,-12.207,0
214969.418,39.062,25.879,26.367,25.879,-46.875,0
214969.422,36.133,26.855,23.438,29.785,-29.785,0
214969.426,30.273,27.832,24.902,26.367,-22.461,0
214969.430,29.785,32.715,31.250,23.438,-4.883,2
214969.434,33.691,30.273,33.691,32.227,36.621,0
214969.438,39.062,28.809,28.320,35.645,44.922,0
214969.442,40.039,32.715,30.273,32.715,-0.488,0
214969.445,32.715,25.391,31.250,29.785,35.156,0
214969.449,31.250,27.832,38.574,25.391,40.039,0
214969.453,37.109,36.133,39.062,31.738,6.348,0
214969.457,36.133,33.691,24.902,37.109,33.691,0
214969.461,41.016,35.645,19.531,40.527,-1.953,0
214969.465,41.016,31.738,36.133,39.062,-0.488,0
214969.469,36.133,33.203,41.992,38.574,19.043,0
214969.473,32.227,36.133,32.227,36.133,26.855,0
214969.477,26.367,27.832,27.832,34.668,53.223,0
214969.481,29.297,30.273,26.367,41.504,49.805,0
214969.484,28.809,31.250,24.902,34.668,3.906,0
214969.488,26.855,26.367,26.855,24.902,1.465,0
214969.492,25.391,29.297,21.973,27.344,20.996,0
214969.496,27.344,31.738,19.043,36.133,-1.953,0
214969.500,33.203,29.785,30.273,47.363,28.320,0
214969.504,28.320,25.391,34.668,33.203,3.906,0
214969.508,23.926,24.414,36.133,16.113,-38.574,0
214969.512,24.902,29.297,40.039,29.785,-1.953,0
214969.516,20.020,35.156,38.086,33.691,-35.645,0
214969.520,15.137,34.668,22.949,23.438,-20.996,0
214969.524,16.602,19.531,7.812,23.926,45.898,0
214969.527,18.555,11.719,19.043,37.598,38.574,0
214969.531,22.949,21.484,34.668,37.598,27.344,0
214969.535,28.320,22.949,28.809,31.738,9.277,0
214969.539,22.461,27.832,21.973,24.902,17.090,0
214969.543,25.879,38.086,31.250,26.855,37.109,0
214969.547,32.227,36.133,36.133,31.738,34.668,0
214969.551,17.578,32.227,38.086,15.625,38.574,0
214969.555,12.207,28.320,30.273,18.555,75.195,0
214969.559,21.484,28.320,20.996,36.621,84.473,0
214969.563,18.555,27.832,20.508,37.598,38.574,0
214969.567,10.742,21.973,17.090,26.367,51.270,0
214969.570,18.555,21.973,16.602,30.762,65.430,0
214969.574,33.203,29.785,14.160,53.223,9.766,0
214969.578,37.109,28.809,24.414,51.270,1.465,0
214969.582,34.668,21.973,45.898,32.715,17.090,0
214969.586,31.738,23.438,43.945,28.320,14.160,0
214969.590,27.344,29.785,36.133,29.297,-1.953,0
214969.594,26.367,30.762,28.320,20.020,-29.297,0
214969.598,23.926,27.832,23.438,16.113,-17.090,0
214969.602,21.973,27.344,28.809,26.367,5.859,0
214969.606,29.297,29.297,33.691,30.762,2.930,0
214969.609,37.598,32.227,23.438,28.809,-10.254,0
214969.613,48.340,37.109,12.695,35.156,21.484,0
214969.617,49.316,36.133,26.855,41.016,55.664,0
214969.621,35.156,29.785,41.992,29.785,77.148,0
214969.625,27.832,29.297,41.504,22.949,106.934,0
214969.629,29.297,30.273,34.668,28.320,92.773,0
214969.633,30.273,19.531,27.344,28.320,43.945,0
214969.637,30.273,14.648,30.273,27.832,27.832,0
214969.641,30.273,20.020,29.785,20.996,17.090,0
214969.645,33.203,27.832,30.273,32.227,28.320,0
214969.649,37.109,39.062,35.645,46.387,61.523,0
214969.652,37.598,40.039,29.297,34.180,19.531,0
214969.656,40.039,37.109,20.020,35.156,-20.508,0
214969.660,43.945,42.969,22.949,44.922,4.395,0
214969.664,42.480,45.410,33.691,37.109,1.465,0
214969.668,34.180,30.273,40.527,24.902,0.000,0
214969.672,25.879,20.508,33.691,25.391,23.926,0
214969.676,20.020,16.602,26.367,20.996,37.109,0
214969.680,19.531,15.625,27.344,20.508,4.395,0
214969.684,23.438,19.531,29.785,27.832,-1.465,0
214969.688,26.855,21.484,28.809,23.438,22.461,0
214969.692,28.320,32.715,31.738,27.832,54.688,0
214969.695,34.668,41.016,20.508,38.086,64.453,0
214969.699,32.227,33.691,14.160,42.969,1.465,0
214969.703,25.391,26.855,24.902,35.645,11.230,0
214969.707,24.414,30.762,34.180,22.461,62.988,0
214969.711,26.367,38.574,42.480,18.555,36.133,0
214969.715,24.902,34.180,38.574,22.949,33.203,0
214969.719,16.113,21.973,24.902,21.484,59.082,0
214969.723,18.555,25.391,28.809,16.113,52.246,0
214969.727,27.832,27.832,28.809,17.578,16.113,0
214969.731,35.156,26.367,11.230,25.879,-8.301,0
214969.734,32.715,26.855,12.207,24.414,28.320,0
214969.738,28.320,31.738,24.414,25.879,41.992,0
214969.742,27.832,33.203,31.250,26.855,-3.906,0
214969.746,27.344,31.250,31.250,24.902,-16.602,0
214969.750,28.809,32.715,34.668,28.809,24.414,0
214969.754,25.879,28.809,39.062,23.926,10.254,0
214969.758,23.438,24.902,37.598,25.391,-12.207,0
214969.762,24.414,25.391,31.250,31.250,14.160,0
214969.766,30.273,30.762,18.555,31.250,29.297,0
214969.770,33.203,37.109,17.578,26.367,42.480,0
214969.774,29.785,37.598,27.832,22.949,36.133,0
214969.777,19.043,33.691,27.344,26.855,9.766,0
214969.781,11.719,25.391,29.297,20.020,5.371,0
214969.785,17.578,16.602,33.691,17.578,50.293,0
214969.789,14.648,11.230,28.320,13.184,18.555,0
214969.793,14.648,12.695,29.785,14.160,-15.625,0
214969.797,25.391,18.555,34.180,25.879,16.602,0
214969.801,29.785,30.762,34.668,22.949,3.906,0
214969.805,30.273,36.133,29.297,24.902,11.719,0
214969.809,35.156,41.992,23.438,31.250,31.738,0
214969.813,38.574,49.805,23.438,41.504,18.066,0
214969.817,32.227,30.762,31.250,41.016,-3.906,0
214969.820,33.203,25.391,29.297,33.691,-3.906,0
214969.824,31.738,32.227,18.066,33.691,14.648,0
214969.828,26.855,20.020,27.344,36.133,59.082,0
214969.832,28.809,13.184,49.316,39.062,47.852,0
214969.836,26.367,13.184,58.594,40.039,13.672,0
214969.840,20.996,24.414,46.875,43.457,44.922,0
214969.844,20.996,36.133,25.879,37.109,62.988,0
214969.848,22.949,32.227,14.648,25.879,52.734,0
214969.852,27.344,36.621,25.879,35.645,39.551,0
214969.856,28.320,43.457,30.762,43.457,39.551,0
214969.859,26.367,33.691,31.250,35.645,66.895,0
214969.863,20.996,23.926,35.645,29.785,68.848,0
214969.867,14.160,22.461,32.715,22.461,62.988,0
214969.871,17.578,26.367,41.504,24.902,41.016,0
214969.875,21.973,29.297,43.945,27.832,28.809,0
214969.879,28.320,32.715,38.086,29.785,0.977,0
214969.883,32.715,30.273,24.902,33.691,-2.441,0
214969.887,35.645,28.809,15.625,44.434,65.430,0
214969.891,32.227,32.715,26.367,43.457,100.098,0
214969.895,27.832,32.715,38.574,32.227,78.125,0
214969.899,33.691,28.809,45.410,41.504,78.613,0
214969.902,28.320,20.020,43.457,36.621,80.566,0
214969.906,31.250,29.297,34.180,26.367,20.508,0
214969.910,41.992,40.039,26.855,34.668,22.949,0
214969.914,37.109,35.156,18.066,41.016,62.500,0
214969.918,38.574,34.668,22.461,48.828,33.691,0
214969.922,36.621,30.762,31.250,43.457,28.809,0
214969.926,30.273,27.344,37.598,36.621,12.695,0
214969.930,33.203,34.668,53.711,40.039,14.160,0
214969.934,30.762,25.391,54.199,38.086,9.766,0
214969.938,22.949,6.348,45.410,25.391,-13.184,0
214969.942,19.531,10.254,38.086,22.949,6.836,0
214969.945,20.508,19.043,26.367,26.367,-18.066,0
214969.949,22.949,25.879,22.461,26.367,17.578,0
214969.953,26.367,33.203,16.113,30.273,21.484,0
214969.957,31.738,35.645,11.230,31.250,-0.488,0
214969.961,35.156,42.480,26.855,33.691,19.043,0
214969.965,33.203,42.480,32.227,35.645,22.461,0
214969.969,31.250,30.273,25.391,28.809,-5.859,0
214969.973,32.715,19.043,33.691,32.227,5.371,2
214969.977,34.668,20.996,42.969,37.109,70.801,0
214969.981,33.203,28.809,41.992,35.645,99.609,0
214969.984,35.156,38.086,37.598,35.645,63.965,0
214969.988,35.645,41.992,28.809,26.855,27.344,0
214969.992,29.297,31.250,24.414,18.066,49.316,0
214969.996,26.855,29.785,19.531,25.391,78.125,0
214970.000,29.785,36.133,20.508,25.391,73.242,0
214970.004,32.715,35.156,32.227,31.250,58.105,0
214970.008,33.203,35.645,43.945,44.922,46.875,0
214970.012,31.738,31.738,44.434,32.227,12.695,0
214970.016,25.391,25.879,38.574,18.555,-29.297,0
214970.020,30.762,30.762,39.062,31.738,3.906,0
214970.024,33.203,33.203,32.227,41.016,50.293,0
214970.027,25.879,32.227,33.203,34.668,60.547,0
214970.031,29.785,30.762,37.109,34.668,61.523,0
214970.035,33.203,29.297,22.949,39.551,56.152,0
214970.039,30.273,29.297,14.648,39.551,20.508,0
214970.043,35.645,28.809,30.762,37.109,25.879,0
214970.047,47.363,32.715,49.316,37.109,47.852,0
214970.051,41.992,33.203,49.316,37.109,37.598,0
214970.055,33.691,25.391,38.086,33.203,24.902,0
214970.059,36.133,24.414,40.527,31.738,23.926,0
214970.063,43.457,38.574,46.387,40.039,-1.953,0
214970.067,49.316,49.316,29.785,55.176,10.742,0
214970.070,43.457,44.434,23.926,56.152,49.316,0
214970.074,36.621,33.691,32.227,37.598,55.176,0
214970.078,33.691,31.250,28.320,34.180,30.273,0
214970.082,31.738,33.203,25.879,43.457,-15.137,0
214970.086,36.621,38.086,39.062,41.504,-27.832,0
214970.090,37.109,39.551,45.410,44.922,-12.695,0
214970.094,34.180,32.715,41.504,46.875,15.625,0
214970.098,41.504,31.738,45.898,36.621,31.738,0
214970.102,45.898,36.133,45.410,31.738,4.395,0
214970.106,39.062,35.645,36.133,32.227,-11.230,0
214970.109,36.133,37.109,32.715,33.691,8.301,0
214970.113,35.156,31.738,32.227,34.668,43.457,0
214970.117,29.785,28.320,32.227,32.227,39.062,0
214970.121,27.832,33.691,32.227,36.133,6.348,0
214970.125,27.832,33.691,30.273,40.039,27.344,0
214970.129,23.926,30.762,32.715,25.879,61.523,0
214970.133,25.879,32.715,37.598,20.508,44.922,0
214970.137,31.250,38.574,31.738,30.273,36.133,0
214970.141,31.738,32.715,25.879,29.297,9.277,0
214970.145,39.551,34.180,35.645,32.715,-8.301,0
214970.149,44.922,44.434,34.180,42.969,8.789,0
214970.152,39.062,42.969,26.367,35.156,8.301,0
214970.156,29.785,36.621,28.809,21.973,-8.789,0
214970.160,33.203,34.180,29.297,26.367,35.645,0
214970.164,36.133,32.227,26.855,32.715,18.555,0
214970.168,26.855,24.902,33.203,25.879,-16.113,0
214970.172,30.273,25.879,36.133,33.203,-1.953,0
214970.176,40.039,38.574,33.203,44.434,-5.859,0
214970.180,40.039,42.969,37.109,38.574,-0.977,0
214970.184,36.133,37.598,39.551,29.297,-12.207,0
214970.188,41.016,40.527,35.156,31.250,1.465,0
214970.192,49.316,50.781,35.645,35.156,1.953,0
214970.195,43.945,44.922,38.574,34.180,-9.277,0
214970.199,34.668,29.785,35.645,30.273,23.438,0
214970.203,29.297,23.438,29.297,27.832,53.223,0
214970.207,24.902,24.414,19.531,25.391,61.523,0
214970.211,30.273,32.715,17.578,24.902,35.645,0
214970.215,33.203,32.227,28.320,36.133,34.180,0
214970.219,28.320,21.484,27.344,38.086,95.215,0
214970.223,33.203,24.414,25.391,28.809,103.516,0
214970.227,39.062,31.250,32.227,32.715,97.168,0
214970.231,41.016,38.086,27.344,44.922,93.750,0
214970.234,39.062,41.992,25.391,44.922,72.754,0
214970.238,32.227,43.457,34.668,34.668,43.945,0
214970.242,26.855,41.016,35.645,23.926,51.758,0
214970.246,17.578,28.809,30.762,27.832,57.617,0
214970.250,14.648,26.855,28.809,34.180,58.105,0
214970.254,30.762,30.273,33.203,35.645,70.312,0
214970.258,50.781,32.715,39.062,51.270,76.660,0
214970.262,37.109,31.250,34.180,44.434,88.379,0
214970.266,14.160,27.344,25.391,28.809,84.961,0
214970.270,19.043,31.250,30.762,35.156,83.008,0
214970.274,30.762,35.156,30.762,40.527,49.316,0
214970.277,34.668,36.133,23.438,44.922,23.926,0
214970.281,37.598,35.645,26.855,45.410,8.789,0
214970.285,32.715,27.832,32.715,31.738,6.836,0
214970.289,25.391,23.926,33.203,18.555,-16.602,0
214970.293,28.320,27.344,29.297,22.461,-2.930,0
214970.297,35.156,25.879,31.738,30.273,23.438,0
214970.301,28.320,24.902,33.691,32.227,7.812,0
214970.305,22.949,30.273,35.645,35.645,43.457,0
214970.309,27.344,34.668,30.273,39.551,56.641,0
214970.313,27.344,30.762,22.461,39.062,52.246,0
214970.317,34.668,33.203,29.297,43.945,55.176,0
214970.320,36.133,35.645,20.508,42.969,56.152,0
214970.324,23.438,33.691,16.602,31.250,48.828,0
214970.328,23.438,37.598,29.785,31.738,34.180,0
214970.332,25.879,27.344,31.250,34.668,16.113,0
214970.336,25.879,18.555,28.320,26.855,19.043,0
214970.340,30.762,24.414,31.738,29.785,41.992,0
214970.344,25.391,31.250,39.551,24.902,-3.418,0
214970.348,20.508,31.738,40.527,20.020,-23.926,0
214970.352,20.020,27.832,37.109,20.996,26.367,0
214970.356,17.578,34.180,26.367,21.484,46.387,0
214970.359,25.879,39.551,22.949,28.320,38.574,0
214970.363,32.715,37.109,31.738,31.250,37.109,0
214970.367,28.320,33.691,27.344,32.715,39.551,0
214970.371,27.832,26.367,20.020,31.738,36.621,0
214970.375,24.414,21.484,24.414,20.508,37.598,0
214970.379,24.902,29.297,27.832,24.414,47.363,0
214970.383,23.438,31.250,34.668,34.180,78.613,0
214970.387,16.113,25.391,37.598,21.973,54.688,0
214970.391,18.555,23.438,35.645,6.836,10.742,0
214970.395,26.367,24.902,25.879,9.277,9.766,0
214970.399,31.250,27.832,22.949,21.973,28.809,0
214970.402,27.832,27.344,34.668,26.367,63.477,0
214970.406,25.391,23.438,33.203,21.484,65.918,0
214970.410,25.391,25.391,21.484,21.484,40.039,0
214970.414,27.344,29.297,23.438,25.391,40.039,0
214970.418,26.855,30.273,32.227,30.762,46.875,0
214970.422,19.531,30.762,34.180,21.484,39.062,0
214970.426,21.973,32.715,35.645,19.531,53.223,0
214970.430,25.391,29.297,31.738,31.250,72.754,0
214970.434,26.855,25.391,26.367,29.785,43.945,0
214970.438,37.109,29.785,26.367,29.297,28.809,0
214970.442,35.645,23.438,22.461,25.391,58.105,0
214970.445,26.855,22.461,23.438,20.020,53.223,0
214970.449,28.809,33.691,25.391,31.250,49.316,0
214970.453,33.203,28.320,18.066,38.574,45.410,0
214970.457,31.250,26.367,24.902,26.855,36.133,0
214970.461,28.809,28.320,39.551,22.461,38.086,0
214970.465,31.738,26.367,40.527,33.203,0.000,0
214970.469,40.039,37.109,38.086,44.922,-31.738,0
214970.473,39.551,40.039,27.832,45.410,7.324,0
214970.477,36.133,37.109,27.344,41.504,41.504,0
214970.481,35.645,32.715,37.598,41.016,-1.953,0
214970.484,31.738,24.902,36.133,37.598,-2.930,0
214970.488,31.738,26.855,35.156,33.203,41.504,0
214970.492,32.715,22.949,34.180,28.809,25.879,0
214970.496,24.414,13.672,25.391,23.926,-20.508,0
214970.500,31.738,23.926,29.785,35.645,2.441,0
214970.504,34.180,31.738,31.250,42.480,42.480,0
214970.508,26.367,29.785,24.902,35.645,40.039,0
214970.512,29.785,32.715,22.949,37.598,38.574,0
214970.516,27.344,32.715,34.180,33.691,48.340,0
214970.520,31.738,35.645,45.898,31.250,43.945,0
214970.524,42.480,42.480,40.039,38.086,21.484,0
214970.527,39.551,38.086,37.598,34.180,29.297,0
214970.531,30.762,31.250,35.645,22.461,41.016,0
214970.535,29.297,25.879,20.508,19.043,18.555,0
214970.539,29.297,25.879,4.883,15.137,2.441,0
214970.543,21.484,26.855,18.066,15.137,0.488,0
214970.547,18.555,26.855,38.574,22.461,17.090,0
214970.551,24.414,26.367,37.109,25.879,37.109,0
214970.555,31.738,29.297,38.574,24.414,6.836,0
214970.559,26.855,31.250,36.133,27.344,33.691,0
214970.563,20.996,29.785,30.273,29.785,82.031,0
214970.567,25.391,33.691,36.621,26.367,50.781,0
214970.570,32.715,36.133,38.574,30.762,31.738,0
214970.574,35.645,31.250,29.297,42.969,28.809,0
214970.578,29.785,24.414,20.996,38.574,46.387,0
214970.582,23.926,31.738,22.461,32.715,47.363,0
214970.586,25.391,39.551,28.320,29.297,10.742,0
214970.590,24.902,34.180,27.832,24.414,20.996,0
214970.594,22.461,33.691,28.809,26.367,72.266,0
214970.598,26.855,35.645,36.621,29.785,61.523,0
214970.602,33.203,35.645,36.133,36.133,23.438,0
214970.606,31.250,31.250,33.203,36.133,35.156,0
214970.609,33.203,24.902,34.180,40.039,26.367,0
214970.613,40.527,29.785,40.527,42.480,13.672,0
214970.617,40.527,41.504,38.574,38.574,-25.879,0
214970.621,29.297,34.180,21.484,32.227,-5.859,0
214970.625,26.367,23.438,22.461,27.344,62.988,2
214970.629,26.855,22.461,28.809,24.414,44.922,0
214970.633,25.391,21.484,21.484,23.926,24.414,0
214970.637,29.785,20.996,27.832,35.645,68.848,0
214970.641,31.738,27.344,38.086,37.598,53.711,0
214970.645,26.855,39.062,32.715,36.621,5.859,0
214970.649,27.832,38.086,36.621,40.039,21.973,0
214970.652,26.855,32.227,39.062,36.621,-5.859,0
214970.656,23.926,33.691,28.320,35.645,-19.531,0
214970.660,29.785,31.738,23.438,30.762,-10.254,0
214970.664,35.645,24.902,26.855,29.785,25.391,0
214970.668,31.738,21.484,25.391,34.180,62.500,0
214970.672,22.461,26.367,25.391,31.738,50.293,0
214970.676,23.926,34.180,30.762,20.996,43.457,0
214970.680,27.344,35.645,27.832,25.879,37.598,0
214970.684,33.203,38.574,33.691,43.457,53.711,0
214970.688,37.598,37.598,30.762,35.645,42.969,0
214970.692,36.133,36.133,29.785,33.691,50.781,0
214970.695,38.086,34.180,35.645,41.992,43.457,0
214970.699,36.621,24.902,35.156,45.410,7.324,0
214970.703,32.227,20.996,36.133,43.457,20.020,0
214970.707,30.762,24.414,32.715,40.039,58.105,0
214970.711,29.785,24.414,32.227,45.410,72.266,0
214970.715,35.156,23.926,30.273,47.852,50.781,0
214970.719,36.133,26.367,30.273,33.691,3.906,0
214970.723,26.855,26.367,34.668,27.832,1.953,0
214970.727,26.367,29.297,40.527,39.062,71.289,0
214970.731,26.855,35.156,35.645,33.203,98.633,0
214970.734,29.297,38.086,26.855,31.250,58.594,0
214970.738,35.156,37.109,30.273,39.551,39.062,0
214970.742,35.156,35.645,30.273,40.039,56.152,0
214970.746,36.621,34.180,27.344,38.086,64.941,0
214970.750,39.551,34.668,28.809,38.086,43.457,0
214970.754,37.109,33.691,35.156,37.109,15.137,0
214970.758,37.598,34.180,41.992,34.180,1.953,0
214970.762,34.180,30.762,39.062,26.367,20.996,0
214970.766,22.949,21.484,30.762,21.484,12.207,0
214970.770,23.438,21.484,24.902,23.438,33.203,0
214970.774,32.715,27.344,25.391,28.320,54.688,0
214970.777,35.156,38.574,28.320,39.551,28.320,0
214970.781,30.762,37.109,28.809,32.715,17.578,0
214970.785,29.297,25.391,25.391,16.602,41.016,0
214970.789,37.598,31.738,26.367,20.020,52.734,0
214970.793,34.668,33.203,26.367,28.320,21.484,0
214970.797,32.227,30.273,28.809,35.156,9.277,0
214970.801,41.992,35.645,29.785,45.410,10.254,0
214970.805,36.621,34.180,26.367,40.039,10.742,0
214970.809,27.832,28.809,24.902,24.414,-15.625,0
214970.813,29.297,27.344,29.297,27.344,-18.555,0
214970.817,29.297,28.320,36.621,37.598,-1.953,0
214970.820,29.785,35.156,43.457,39.062,7.812,0
214970.824,40.039,37.109,46.387,43.945,17.090,0
214970.828,38.086,28.320,30.762,44.922,12.695,0
214970.832,28.320,23.438,20.996,36.133,34.668,0
214970.836,29.785,24.414,34.668,28.809,39.062,0
214970.840,32.227,32.715,43.457,29.297,13.184,0
214970.844,29.297,30.273,35.645,28.809,-0.977,0
214970.848,35.156,25.879,21.973,34.668,-0.488,0
214970.852,43.457,30.762,27.344,42.969,9.277,0
214970.856,27.344,30.762,34.180,27.344,61.035,0
214970.859,14.648,27.832,26.367,18.555,80.566,0
214970.863,24.902,29.297,32.715,22.949,94.727,0
214970.867,26.855,31.738,34.180,22.461,74.707,0
214970.871,22.461,29.297,24.414,25.391,21.484,0
214970.875,26.367,31.250,31.250,35.645,41.504,0
214970.879,29.785,35.645,40.039,33.691,58.105,0
214970.883,35.645,31.738,41.992,25.391,47.363,0
214970.887,38.574,32.715,43.945,34.668,51.270,0
214970.891,37.598,38.574,35.156,41.016,60.059,0
214970.895,38.574,32.715,27.344,36.621,66.406,0
214970.899,32.715,25.391,31.250,30.762,55.664,0
214970.902,29.785,30.273,32.227,25.879,33.691,0
214970.906,36.133,32.227,20.508,34.668,28.320,0
214970.910,40.527,31.250,20.020,33.691,53.711,0
214970.914,39.551,30.762,34.668,22.949,42.969,0
214970.918,35.156,31.738,40.527,29.785,50.293,0
214970.922,35.156,36.621,34.180,34.668,47.852,0
214970.926,33.691,33.691,29.785,22.949,46.875,0
214970.930,29.785,28.320,30.273,15.137,47.852,0
214970.934,35.645,31.738,32.715,23.926,36.133,0
214970.938,34.668,29.785,28.809,39.551,74.707,0
214970.942,28.809,23.438,26.855,31.738,66.406,0
214970.945,24.902,17.578,33.691,21.973,43.457,0
214970.949,21.484,14.648,35.645,24.902,39.551,0
214970.953,24.902,26.855,38.086,26.855,51.270,0
214970.957,29.297,36.621,31.250,29.297,64.941,0
214970.961,31.250,34.668,29.785,26.855,2.441,0
214970.965,27.832,33.203,40.527,25.879,-6.348,0
214970.969,20.996,24.414,39.551,27.832,70.312,0
214970.973,27.344,20.020,35.156,27.344,56.152,0
214970.977,35.645,28.320,29.785,29.785,32.227,0
214970.981,38.574,30.762,26.855,43.945,79.102,0
214970.984,36.621,22.949,30.273,45.898,100.098,0
214970.988,32.715,16.602,33.691,28.809,80.078,0
214970.992,36.621,24.414,38.574,31.738,62.012,0
214970.996,39.551,30.762,47.852,46.387,67.383,0
214971.000,43.457,31.738,47.363,51.270,84.961,0
214971.004,40.527,30.762,39.551,42.480,54.688,0
214971.008,26.367,25.879,33.691,28.320,1.953,0
214971.012,25.391,28.320,28.809,40.039,27.344,0
214971.016,29.785,26.855,15.625,46.387,47.363,0
214971.020,31.738,25.391,15.625,40.527,11.719,0
214971.024,30.762,28.809,37.109,41.016,1.953,0
214971.027,22.461,24.902,49.316,35.645,36.621,0
214971.031,21.484,23.438,44.434,26.855,46.875,0
214971.035,28.809,24.902,36.133,26.855,24.414,0
214971.039,37.598,32.227,35.156,29.785,25.879,0
214971.043,38.086,38.086,32.227,37.598,27.344,0
214971.047,32.715,37.109,29.297,43.457,-2.930,0
214971.051,31.738,30.273,33.691,27.344,-23.438,0
214971.055,27.832,22.461,35.645,28.809,3.906,0
214971.059,23.926,19.531,28.809,37.109,32.227,0
214971.063,24.414,24.414,18.066,30.762,37.109,0
214971.067,31.250,30.273,20.996,36.621,41.992,0
214971.070,28.320,32.227,31.250,32.715,44.922,0
214971.074,26.367,32.715,35.156,26.367,23.926,0
214971.078,32.715,33.691,41.016,34.180,-17.090,0
214971.082,26.855,30.273,39.062,26.367,9.766,0
214971.086,17.578,24.414,31.738,19.531,10.742,0
214971.090,18.066,26.367,33.691,22.949,-28.809,0
214971.094,20.508,25.391,24.414,17.090,-44.922,0
214971.098,23.926,27.344,12.695,14.648,-32.227,0
214971.102,25.879,25.879,15.137,28.809,30.273,0
214971.106,25.391,19.043,14.648,33.691,47.852,0
214971.109,31.250,28.809,27.832,25.879,14.648,0
214971.113,31.250,31.250,40.039,17.578,17.090,0
214971.117,34.668,38.574,39.551,24.414,58.594,0
214971.121,35.645,41.016,27.832,27.832,111.328,0
214971.125,24.414,28.809,18.066,16.113,132.812,0
214971.129,21.484,28.809,20.020,10.254,78.613,0
214971.133,24.414,32.227,20.508,16.113,48.340,0
214971.137,30.273,36.621,20.508,24.414,62.012,0
214971.141,33.691,37.598,24.902,22.461,31.250,0
214971.145,31.250,34.668,34.180,22.461,-1.465,0
214971.149,32.227,34.180,35.156,28.809,10.742,0
214971.152,35.645,30.762,33.203,33.203,51.270,0
214971.156,28.809,25.391,31.738,38.086,17.578,0
214971.160,30.762,30.273,37.109,44.434,-15.625,0
214971.164,45.898,40.039,41.016,45.410,-3.418,0
214971.168,41.016,30.762,34.180,34.180,-32.227,0
214971.172,34.668,26.855,28.320,24.414,-40.039,0
214971.176,34.180,31.738,19.043,28.320,-15.137,0
214971.180,22.949,29.297,19.043,31.250,4.883,0
214971.184,26.367,31.738,35.156,35.156,-33.203,0
214971.188,24.902,31.738,43.457,42.969,-43.457,0
214971.192,15.625,33.691,40.039,36.133,25.879,0
214971.195,24.902,39.551,39.551,32.715,29.785,0
214971.199,35.156,39.551,46.387,46.875,7.812,0
214971.203,33.203,34.668,35.156,38.574,26.855,0
214971.207,25.391,23.438,23.438,19.531,43.945,0
214971.211,22.949,20.996,32.227,22.949,26.367,0
214971.215,32.715,28.809,39.062,35.645,22.461,0
214971.219,40.039,29.785,30.273,43.457,39.062,0
214971.223,38.086,26.855,24.902,45.898,16.602,0
214971.227,34.668,24.902,25.391,41.016,-14.648,0
214971.231,33.203,26.367,26.855,36.621,-28.320,0
214971.234,37.109,30.762,29.297,41.016,-7.812,0
214971.238,49.805,41.016,30.762,47.852,5.371,0
214971.242,45.898,40.527,32.227,45.898,-9.277,0
214971.246,27.344,23.438,29.297,25.879,-13.184,0
214971.250,26.855,18.066,27.832,33.203,38.086,0
214971.254,30.273,23.926,28.809,40.527,23.926,0
214971.258,25.391,29.297,35.156,28.809,0.000,0
214971.262,29.785,27.832,34.180,32.227,12.207,0
214971.266,36.133,25.879,27.344,39.062,12.695,0
214971.270,37.109,26.855,30.762,41.504,-10.254,0
214971.274,39.062,32.227,41.504,42.969,-9.277,0
214971.277,39.551,33.203,41.504,44.434,9.766,0
214971.281,41.016,29.785,33.691,39.551,-1.465,0
214971.285,38.086,30.762,29.785,36.133,-4.395,0
214971.289,27.344,27.344,38.574,30.762,-10.254,0
214971.293,23.926,25.391,36.133,26.855,-20.020,0
214971.297,32.227,26.367,26.367,37.598,-12.207,0
214971.301,31.738,27.832,29.785,43.945,-29.785,0
214971.305,33.203,27.832,35.645,40.039,-8.301,0
214971.309,33.203,25.879,41.504,41.016,32.227,0
214971.313,33.203,32.227,47.852,50.781,35.156,0
214971.317,33.203,36.133,37.598,50.781,22.461,0
214971.320,30.273,36.133,27.344,37.109,35.156,0
214971.324,30.273,34.668,26.367,30.273,66.406,0
214971.328,25.391,31.738,26.855,28.809,30.273,0
214971.332,27.832,31.250,20.508,32.715,8.301,0
214971.336,33.203,26.855,23.926,33.691,14.648,0
214971.340,30.762,19.043,36.621,30.273,23.926,0
214971.344,30.762,16.113,38.574,34.180,37.109,0
214971.348,33.691,18.555,36.133,38.574,45.410,0
214971.352,32.715,25.879,30.762,36.621,2.930,1
214971.356,37.109,38.086,29.785,40.039,-3.906,0
214971.359,45.410,37.598,35.645,58.594,31.250,0
214971.363,39.551,27.832,29.785,55.176,34.180,0
214971.367,33.203,33.203,25.391,33.203,33.691,0
214971.371,33.691,39.062,32.227,25.391,7.812,0
214971.375,28.809,30.273,28.320,20.508,19.531,0
214971.379,21.484,25.879,25.391,14.160,51.758,0
214971.383,19.531,30.762,32.715,13.672,21.484,0
214971.387,24.414,33.691,33.203,23.438,36.621,0
214971.391,29.785,33.691,32.227,34.180,48.828,0
214971.395,33.691,34.668,29.785,35.645,12.695,0
214971.399,32.715,35.156,29.297,37.598,20.508,0
214971.402,26.855,25.391,32.227,36.621,46.875,0
214971.406,24.414,19.043,34.668,31.250,56.641,0
214971.410,26.367,20.020,34.668,35.156,41.992,0
214971.414,29.297,21.484,37.109,43.945,31.738,0
214971.418,34.668,38.086,35.156,50.781,67.871,0
214971.422,30.762,41.016,28.320,43.945,73.242,0
214971.426,23.438,29.297,27.832,19.531,48.340,0
214971.430,27.832,25.391,30.762,15.137,85.449,0
214971.434,32.715,23.926,29.785,26.855,118.652,0
214971.438,35.645,29.785,24.902,32.227,84.473,0
214971.442,36.133,33.691,30.273,40.527,46.387,0
214971.445,35.156,29.297,37.598,32.227,38.574,0
214971.449,36.133,28.809,33.691,28.320,60.547,0
214971.453,30.273,23.926,27.832,26.367,50.781,0
214971.457,28.320,22.461,21.973,18.555,-0.488,0
214971.461,36.133,31.250,30.273,25.391,45.898,0
214971.465,34.180,30.273,31.738,25.391,67.871,0
214971.469,34.180,25.879,29.297,20.996,3.906,0
214971.473,41.504,35.645,32.715,25.879,7.812,0
214971.477,39.062,42.480,21.484,37.109,72.266,0
214971.481,41.016,41.016,15.137,48.828,57.129,0
214971.484,51.758,41.016,21.973,45.410,13.672,0
214971.488,45.898,37.109,34.668,37.598,67.871,0
214971.492,25.879,33.203,38.086,31.738,119.141,0
214971.496,25.879,28.809,29.297,27.832,91.797,0
214971.500,25.391,27.344,29.785,15.137,81.543,0
214971.504,28.320,32.715,31.738,15.137,65.918,0
214971.508,28.320,29.297,30.273,22.949,68.848,0
214971.512,18.555,20.020,31.738,11.230,73.242,0
214971.516,24.902,24.902,40.039,8.789,28.809,0
214971.520,33.691,35.645,34.668,26.367,25.391,0
214971.524,34.668,34.180,19.531,40.039,38.086,0
214971.527,27.832,29.785,26.367,33.203,27.344,0
214971.531,22.949,30.273,27.344,29.297,20.996,0
214971.535,25.879,30.273,26.367,34.668,14.160,0
214971.539,24.414,27.344,34.668,37.109,29.297,0
214971.543,27.344,29.785,42.480,40.527,22.949,0
214971.547,33.203,42.480,47.363,50.293,23.438,0
214971.551,33.691,46.387,49.316,48.340,57.617,0
214971.555,30.273,34.180,40.527,31.250,48.340,0
214971.559,27.344,25.391,23.438,23.926,42.969,0
214971.563,27.344,21.973,21.484,26.367,45.410,0
214971.567,28.809,26.367,36.621,32.227,51.270,0
214971.570,30.762,35.645,37.109,38.086,39.062,0
214971.574,26.855,40.039,30.273,33.691,5.859,0
214971.578,23.438,42.969,37.109,34.668,19.043,0
214971.582,24.902,38.086,40.527,33.691,21.484,0
214971.586,27.832,34.180,39.551,29.785,21.484,0
214971.590,27.344,37.598,39.551,40.527,41.016,0
214971.594,23.926,39.062,33.691,38.086,43.457,0
214971.598,23.926,33.691,23.926,22.461,3.906,0
214971.602,21.973,24.414,30.273,15.137,-33.203,0
214971.606,27.832,24.902,39.551,25.879,8.789,0
214971.609,34.180,31.738,30.273,29.785,26.855,0
214971.613,36.621,32.715,21.484,29.785,-8.301,0
214971.617,42.969,36.133,30.273,39.551,-19.531,0
214971.621,43.945,37.109,40.527,35.645,9.766,0
214971.625,38.086,37.598,43.457,28.320,54.199,0
214971.629,31.250,37.598,43.945,30.762,57.129,0
214971.633,28.809,38.574,37.109,26.367,1.465,0
214971.637,28.320,34.668,32.227,26.367,-15.625,0
214971.641,27.344,30.273,28.320,31.738,10.742,0
214971.645,27.344,31.738,23.438,34.668,33.691,0
214971.649,26.855,31.738,19.531,28.809,58.105,0
214971.652,31.250,33.691,20.508,27.344,42.969,0
214971.656,25.391,31.250,25.879,26.855,33.691,0
214971.660,19.531,30.273,27.832,27.832,38.086,0
214971.664,30.762,36.621,36.621,33.203,10.254,0
214971.668,33.691,32.715,40.527,26.855,17.578,0
214971.672,30.273,26.367,25.391,22.461,63.965,0
214971.676,33.203,29.297,12.207,27.344,58.594,0
214971.680,35.156,32.715,18.066,28.809,61.035,0
214971.684,37.598,36.133,24.902,30.273,65.918,0
214971.688,42.480,38.086,16.602,36.621,62.500,0
214971.692,41.016,33.691,20.996,35.156,35.156,0
214971.695,33.203,28.809,26.855,32.715,22.461,0
214971.699,34.668,33.203,26.855,42.969,56.152,0
214971.703,40.527,32.227,38.086,44.434,65.430,0
214971.707,38.574,25.879,36.621,27.832,60.059,0
214971.711,34.180,26.855,26.855,22.461,32.227,0
214971.715,37.109,36.133,31.738,27.344,11.230,0
214971.719,34.180,42.969,35.156,22.949,11.719,0
214971.723,28.320,38.086,32.227,17.090,14.648,0
214971.727,31.250,31.738,33.203,19.043,1.953,0
214971.731,31.738,29.297,30.273,27.832,17.090,0
214971.734,27.832,31.738,27.344,28.320,38.086,0
214971.738,27.344,33.691,30.273,25.391,47.852,0
214971.742,40.039,37.109,30.273,40.527,64.453,0
214971.746,41.992,33.691,20.508,36.133,39.551,0
214971.750,31.250,28.809,17.090,31.738,19.531,0
214971.754,36.621,31.738,22.949,38.574,-21.973,0
214971.758,38.086,35.645,34.668,26.855,-36.621,0
214971.762,27.832,31.250,35.156,21.973,-10.742,0
214971.766,27.344,20.996,31.738,27.344,4.395,0
214971.770,30.762,19.531,27.832,27.832,22.461,0
214971.774,27.344,23.926,26.855,24.414,53.223,0
214971.777,26.855,28.320,39.551,28.320,69.336,0
214971.781,27.344,36.621,42.969,28.320,33.691,0
214971.785,22.461,28.320,24.902,29.297,11.230,0
214971.789,21.973,16.602,13.184,26.367,9.766,0
214971.793,31.738,25.391,23.438,23.438,32.227,0
214971.797,35.156,32.227,26.367,28.809,25.391,0
214971.801,32.227,30.762,20.020,27.832,-8.301,0
214971.805,31.250,33.203,17.090,26.855,4.395,0
214971.809,26.367,33.203,20.020,28.809,15.137,0
214971.813,20.996,28.320,37.109,25.879,7.324,0
214971.817,20.996,26.367,43.945,31.738,7.812,0
214971.820,25.879,28.809,43.945,34.180,-1.953,0
214971.824,28.809,26.367,41.504,28.809,-19.531,0
214971.828,24.414,25.391,36.133,29.297,2.441,0
214971.832,27.832,34.668,19.043,39.551,40.039,0
214971.836,35.156,41.504,11.230,50.293,33.203,0
214971.840,37.598,43.945,24.902,48.828,19.531,0
214971.844,30.762,31.738,25.391,30.273,9.766,0
214971.848,27.344,20.508,29.785,18.066,6.836,0
214971.852,28.809,25.391,40.527,28.320,12.695,0
214971.856,22.949,20.020,38.574,26.855,14.160,0
214971.859,25.879,11.719,33.691,33.691,30.273,0
214971.863,29.785,19.043,28.320,40.527,14.160,0
214971.867,28.320,28.809,24.902,39.062,24.414,0
214971.871,41.504,31.738,24.414,43.945,53.711,0
214971.875,46.387,35.645,22.461,48.828,39.062,0
214971.879,40.039,31.738,26.855,51.758,48.340,0
214971.883,45.410,27.832,28.320,52.246,59.082,0
214971.887,45.898,33.203,25.879,50.781,50.293,0
214971.891,34.668,31.250,21.484,34.668,41.016,0
214971.895,27.344,24.414,30.273,20.508,1.953,0
214971.899,31.738,26.367,39.551,26.367,-1.953,0
214971.902,32.227,30.273,36.621,24.902,1.953,0
214971.906,30.762,36.133,35.156,26.367,-20.996,0
214971.910,30.273,33.691,22.949,35.645,1.953,0
214971.914,28.320,26.367,20.996,31.250,42.480,0
214971.918,25.879,24.414,24.414,22.461,31.738,0
214971.922,35.156,33.203,24.902,25.879,20.020,0
214971.926,44.434,42.969,34.180,37.598,37.598,0
214971.930,32.227,34.668,28.809,38.086,64.453,0
214971.934,23.438,25.391,21.973,17.578,47.363,0
214971.938,19.043,23.438,23.926,4.883,6.348,0
214971.942,24.902,28.320,31.250,19.531,37.598,0
214971.945,30.273,30.762,31.738,29.297,67.871,0
214971.949,24.414,27.832,29.297,23.926,61.035,0
214971.953,32.715,32.715,25.879,24.902,63.477,0
214971.957,39.551,35.645,21.484,41.016,77.637,0
214971.961,31.738,31.250,24.902,52.734,54.199,0
214971.965,32.715,31.738,37.109,49.316,20.508,0
214971.969,33.691,33.691,40.039,39.551,29.297,0
214971.973,26.855,24.414,27.344,35.156,23.926,0
214971.977,25.391,23.438,23.926,37.598,8.789,0
214971.981,28.809,31.738,26.855,46.875,-11.719,0
214971.984,34.668,33.691,31.738,46.387,-14.648,0
214971.988,30.762,32.227,31.250,34.668,1.953,0
214971.992,27.344,26.367,24.902,33.203,9.277,0
214971.996,29.297,21.484,25.879,31.738,-46.875,1
214972.000,25.879,22.461,31.738,30.273,-43.945,0
214972.004,28.320,26.367,41.992,33.691,-0.488,0
214972.008,40.039,35.156,41.016,41.016,-18.066,0
214972.012,38.086,37.109,30.762,52.246,-11.719,0
214972.016,22.461,24.902,19.043,39.062,31.738,0
214972.020,18.555,22.461,14.160,22.949,34.668,0
214972.024,17.090,27.832,34.668,25.879,5.859,0
214972.027,15.137,24.902,46.387,27.832,-1.953,0
214972.031,22.461,25.391,36.621,30.273,-28.809,0
214972.035,18.555,27.344,25.879,20.020,-19.531,0
214972.039,20.996,27.344,22.949,14.648,20.996,0
214972.043,28.809,29.297,24.414,22.461,-7.324,0
214972.047,38.574,30.762,28.320,37.598,-0.977,0
214972.051,44.434,29.785,34.180,46.875,42.480,0
214972.055,31.738,25.879,31.250,36.133,33.203,0
214972.059,21.484,22.461,28.320,24.414,47.363,0
214972.063,26.855,27.832,31.250,28.809,55.176,0
214972.067,30.273,35.645,38.574,41.504,42.969,0
214972.070,28.809,34.668,43.945,35.156,60.547,0
214972.074,27.832,29.297,29.297,23.926,27.344,0
214972.078,29.297,27.344,12.207,37.109,35.645,0
214972.082,32.227,27.832,23.438,45.898,51.758,0
214972.086,33.203,29.297,40.039,44.434,12.207,0
214972.090,34.180,21.973,41.504,34.180,47.852,0
214972.094,30.273,20.020,40.039,28.320,51.270,0
214972.098,28.320,31.250,31.738,24.902,24.902,0
214972.102,30.762,39.062,28.320,23.926,-27.344,0
214972.106,25.879,36.133,33.691,32.227,-7.324,0
214972.109,25.879,33.691,40.527,29.297,59.570,0
214972.113,34.180,37.109,39.551,31.250,49.805,0
214972.117,31.250,34.180,38.086,36.133,25.879,0
214972.121,26.367,31.250,36.133,36.133,27.832,0
214972.125,37.109,38.574,35.156,42.480,28.320,0
214972.129,36.133,39.062,39.551,35.156,-6.836,0
214972.133,30.273,36.621,36.621,25.879,-43.457,0
214972.137,35.156,39.062,32.715,32.715,3.906,0
214972.141,40.527,42.480,37.598,41.016,57.129,0
214972.145,45.410,35.156,34.668,48.828,49.805,0
214972.149,46.387,30.762,32.227,47.363,48.340,0
214972.152,41.992,35.156,37.109,42.480,66.406,0
214972.156,37.109,33.691,41.016,35.645,83.008,0
214972.160,35.156,30.273,43.945,32.715,75.195,0
214972.164,39.551,25.879,39.551,37.598,80.566,0
214972.168,50.293,28.320,37.598,50.293,60.547,0
214972.172,45.410,35.156,37.109,53.223,25.879,0
214972.176,20.996,36.133,29.785,32.227,26.367,0
214972.180,8.789,30.762,29.297,19.043,23.926,0
214972.184,21.484,28.809,36.621,23.926,37.109,0
214972.188,36.621,28.809,40.527,33.691,34.180,0
214972.192,34.668,29.297,35.645,40.527,26.855,0
214972.195,28.320,29.785,28.320,31.250,24.902,0
214972.199,32.227,25.391,29.297,24.414,14.160,0
214972.203,38.086,33.203,35.156,33.203,6.836,0
214972.207,39.551,47.363,34.180,34.668,-1.465,0
214972.211,40.527,46.387,28.809,34.180,10.254,0
214972.215,41.504,36.133,24.902,41.504,30.762,0
214972.219,40.039,27.832,25.879,37.598,-27.832,0
214972.223,34.668,27.344,35.156,40.039,-74.219,0
214972.227,38.086,32.227,41.016,49.805,-6.348,0
214972.231,44.922,35.645,36.133,42.969,-12.695,0
214972.234,41.504,33.203,33.203,44.434,-56.641,0
214972.238,37.598,26.367,32.715,39.062,-28.320,0
214972.242,40.527,27.832,39.062,35.156,31.250,0
214972.246,42.480,41.504,27.832,45.898,72.754,0
214972.250,42.480,43.457,20.508,45.410,65.430,0
214972.254,39.551,35.645,34.180,35.156,39.551,0
214972.258,32.227,31.250,39.551,33.691,42.969,0
214972.262,32.227,28.809,37.598,39.062,51.758,0
214972.266,37.109,27.832,24.414,32.715,-10.254,0
214972.270,35.156,27.832,27.344,33.691,-5.371,0
214972.274,31.738,27.832,40.527,44.922,60.059,0
214972.277,33.691,33.691,41.992,39.062,29.297,0
214972.281,35.645,38.086,38.086,38.086,28.320,0
214972.285,31.250,29.785,30.273,36.621,31.738,0
214972.289,31.250,31.738,36.621,34.668,19.043,0
214972.293,34.180,37.598,45.898,30.762,11.719,0
214972.297,30.762,32.227,40.039,28.320,21.973,0
214972.301,24.902,21.973,38.574,32.227,58.105,0
214972.305,26.855,23.926,40.527,28.809,95.215,0
214972.309,38.574,36.133,38.086,26.367,63.477,0
214972.313,34.668,37.598,36.133,24.902,17.578,0
214972.317,27.832,31.250,38.086,27.832,56.152,0
214972.320,30.273,31.250,38.086,33.203,51.758,0
214972.324,25.879,32.715,28.809,27.344,16.113,0
214972.328,16.113,20.508,29.785,21.973,60.059,0
214972.332,12.695,17.090,33.691,27.344,84.961,0
214972.336,21.973,28.809,32.715,38.086,73.730,0
214972.340,27.344,30.762,32.227,38.574,47.852,0
214972.344,25.879,30.273,32.715,26.855,33.203,0
214972.348,30.762,31.738,32.715,24.902,42.480,0
214972.352,38.574,36.621,26.855,35.156,39.062,0
214972.356,34.180,36.621,26.855,36.621,5.371,0
214972.359,34.180,36.621,35.645,32.227,-14.648,0
214972.363,37.109,34.180,41.504,35.156,22.461,0
214972.367,31.738,29.785,40.527,35.645,5.859,0
214972.371,32.715,32.715,36.133,30.762,-54.199,0
214972.375,38.086,36.133,37.598,37.109,-16.113,0
214972.379,39.062,39.062,35.156,44.434,-3.906,0
214972.383,43.945,39.062,20.020,58.105,2.930,0
214972.387,45.898,33.691,21.973,58.594,56.152,0
214972.391,36.133,24.902,36.621,43.457,30.273,0
214972.395,35.156,33.691,38.086,45.410,52.734,0
214972.399,30.762,34.180,28.809,40.527,61.523,0
214972.402,23.438,31.250,28.809,31.250,4.395,0
214972.406,23.926,32.227,37.598,27.832,26.855,0
214972.410,23.438,32.227,36.133,25.391,79.102,0
214972.414,19.531,34.668,30.762,20.508,29.297,0
214972.418,18.066,36.133,26.855,14.160,17.578,0
214972.422,12.695,30.762,15.625,18.555,53.711,0
214972.426,15.625,26.855,12.695,20.508,20.020,0
214972.430,24.902,30.273,20.996,23.438,7.812,0
214972.434,26.855,23.438,33.203,29.297,15.137,0
214972.438,26.367,17.090,35.156,28.320,55.664,0
214972.442,20.508,22.461,28.809,25.879,53.223,0
214972.445,19.531,28.809,40.039,21.973,10.254,0
214972.449,22.949,29.785,40.527,20.508,-1.953,0
214972.453,19.043,25.391,31.250,22.949,23.438,0
214972.457,29.297,28.320,24.902,25.391,12.207,0
214972.461,35.645,37.109,15.137,22.949,-32.227,0
214972.465,30.762,31.738,16.113,35.156,14.648,0
214972.469,29.785,25.391,22.949,48.340,35.156,0
214972.473,26.367,29.785,20.020,31.250,23.438,0
214972.477,26.855,30.762,27.832,16.602,22.461,0
214972.481,19.043,21.973,24.902,15.137,11.230,0
214972.484,13.184,15.625,16.113,11.230,20.020,0
214972.488,25.391,20.508,30.762,15.625,64.941,0
214972.492,30.762,22.949,33.203,21.484,66.406,0
214972.496,28.809,27.344,22.949,23.926,24.902,0
214972.500,29.785,27.344,23.926,32.227,61.035,0
214972.504,28.809,27.344,25.879,28.809,42.969,0
214972.508,34.180,34.180,30.273,29.297,7.324,0
214972.512,32.715,27.832,19.531,35.645,55.664,0
214972.516,30.762,27.832,12.207,43.945,85.449,0
214972.520,36.133,33.203,26.367,43.945,76.660,0
214972.524,32.227,30.273,30.273,25.391,59.570,0
214972.527,28.809,24.414,27.344,20.508,62.012,0
214972.531,28.320,22.461,27.832,23.926,67.383,0
214972.535,29.297,24.414,29.785,25.391,55.664,0
214972.539,26.855,26.367,28.320,22.949,58.105,0
214972.543,27.344,29.297,30.762,23.438,42.969,0
214972.547,32.227,27.832,34.180,31.738,46.875,0
214972.551,39.062,34.180,34.668,35.645,28.809,0
214972.555,41.016,36.133,31.738,35.645,-6.836,0
214972.559,40.527,29.297,28.809,41.016,-5.371,0
214972.563,41.504,30.762,28.809,38.574,-9.766,0
214972.567,39.062,35.645,29.785,31.738,35.156,0
214972.570,32.227,37.109,29.785,29.785,74.219,0
214972.574,26.367,29.297,32.715,28.809,35.156,0
214972.578,26.855,28.320,30.762,28.809,-11.719,0
214972.582,24.902,31.250,23.926,25.879,15.137,0
214972.586,23.438,24.902,26.855,29.297,21.484,0
214972.590,27.344,23.926,22.949,27.344,-8.789,0
214972.594,30.762,25.391,23.438,21.973,-32.227,0
214972.598,36.621,30.762,36.621,32.227,-54.688,0
214972.602,37.598,36.133,31.738,36.133,-28.809,0
214972.606,39.062,38.086,23.438,38.574,-23.438,0
214972.609,41.992,38.574,24.414,42.480,-44.434,0
214972.613,34.180,31.250,22.949,31.738,-19.531,0
214972.617,26.855,25.879,33.691,23.438,13.184,0
214972.621,24.902,30.762,39.551,23.438,3.418,0
214972.625,22.949,31.738,31.738,35.156,1.953,0
214972.629,27.344,25.879,35.156,41.992,47.363,0
214972.633,36.133,30.273,39.062,39.062,51.758,0
214972.637,37.598,32.715,25.879,35.645,33.203,0
214972.641,31.738,28.809,18.066,28.320,39.062,0
214972.645,28.320,30.273,11.230,25.879,53.711,2
214972.649,29.785,26.855,21.973,28.320,55.176,0
214972.652,27.344,25.391,43.945,25.879,64.941,0
214972.656,23.926,28.809,41.504,27.344,59.082,0
214972.660,28.809,35.645,40.527,31.250,73.242,0
214972.664,27.832,33.203,41.992,33.691,77.148,0
214972.668,24.414,24.902,37.109,40.039,38.086,0
