timestamps,TP9,AF7,AF8,TP10,Right AUX,Marker0
215246.414,31.738,26.367,39.551,42.969,55.664,0
215246.418,29.297,31.738,39.062,37.109,74.219,0
215246.422,35.156,39.062,32.227,29.297,52.734,0
215246.426,42.969,45.898,24.414,41.016,16.113,0
215246.430,53.223,50.293,16.113,50.781,13.184,0
215246.434,76.660,49.805,28.320,54.199,43.945,0
215246.438,61.523,32.227,34.180,35.156,44.922,0
215246.442,31.250,27.832,28.320,10.254,0.488,0
215246.445,26.855,34.668,37.598,12.695,25.879,0
215246.449,33.203,31.250,46.387,33.203,49.316,0
215246.453,40.527,31.250,52.246,44.922,68.359,0
215246.457,43.945,32.715,48.340,45.410,75.684,0
215246.461,38.574,26.855,40.039,45.898,75.195,0
215246.465,31.250,22.461,37.598,40.527,81.055,1
215246.469,31.250,20.020,31.250,41.992,63.477,0
215246.473,38.574,20.020,27.344,51.270,41.016,0
215246.477,42.969,24.414,20.508,47.852,66.406,0
215246.481,41.016,25.879,20.508,52.734,81.543,0
215246.485,38.574,25.879,30.762,52.734,48.340,0
215246.488,32.227,18.555,32.227,35.645,7.812,0
215246.492,34.668,17.090,22.949,37.109,-11.719,0
215246.496,44.922,20.508,28.809,46.387,21.484,0
215246.500,46.875,17.090,45.898,47.363,50.781,0
215246.504,40.039,24.414,42.480,56.152,24.902,0
215246.508,38.086,26.367,42.480,44.922,-8.789,0
215246.512,36.621,15.137,43.457,28.809,0.000,0
215246.516,28.809,8.301,34.180,27.344,7.324,0
215246.520,28.809,8.301,40.039,30.273,43.945,0
215246.524,29.785,20.020,46.875,32.715,30.762,0
215246.527,29.785,30.762,42.480,30.762,-9.766,0
215246.531,39.551,36.133,35.645,35.645,-9.277,0
215246.535,42.480,38.574,37.109,44.434,17.578,0
215246.539,41.016,30.273,44.434,43.945,57.129,0
215246.543,45.410,25.879,37.598,34.668,53.223,0
215246.547,46.387,27.832,33.203,32.715,23.438,0
215246.551,44.434,29.785,26.855,38.086,21.484,0
215246.555,42.480,30.762,17.578,44.922,37.598,0
215246.559,52.246,33.203,22.949,52.734,-2.930,0
215246.563,62.012,38.574,27.832,54.688,-18.555,0
215246.567,62.988,41.016,38.086,46.387,41.992,0
215246.570,48.828,29.785,42.969,45.898,36.621,0
215246.574,28.809,20.996,41.016,43.457,13.672,0
215246.578,29.785,27.832,44.434,30.273,-15.625,0
215246.582,31.738,25.879,38.086,33.691,-23.438,0
215246.586,22.949,30.762,33.203,30.762,54.688,0
215246.590,36.133,50.781,35.645,29.297,50.293,0
215246.594,42.969,50.293,36.621,34.180,27.832,0
215246.598,24.414,32.715,30.273,17.578,32.227,0
215246.602,30.273,31.250,22.949,23.926,8.301,0
215246.606,38.086,32.227,25.391,36.621,-11.230,0
215246.610,23.926,29.297,23.926,20.508,29.297,0
215246.613,20.996,31.250,30.762,13.184,42.480,0
215246.617,24.414,23.438,41.016,16.113,19.531,0
215246.621,27.832,21.484,26.855,24.902,-27.344,0
215246.625,34.668,29.297,10.742,36.621,-39.551,0
215246.629,42.969,26.855,20.996,45.898,10.254,0
215246.633,53.711,30.273,36.133,42.480,5.371,0
215246.637,48.340,38.574,46.387,27.832,-43.457,0
215246.641,38.574,37.109,49.805,24.902,-54.199,0
215246.645,36.621,24.414,46.875,33.203,8.301,0
215246.649,32.227,9.277,38.086,31.250,17.090,0
215246.652,31.738,22.949,24.414,27.832,14.160,0
215246.656,31.250,44.434,34.668,35.156,12.695,0
215246.660,30.273,38.574,40.527,26.367,-10.254,0
215246.664,26.855,24.414,35.645,15.625,15.137,0
215246.668,15.137,22.461,39.062,9.766,26.855,0
215246.672,14.160,20.020,35.156,9.277,37.598,0
215246.676,25.391,11.719,28.320,19.043,37.598,0
215246.680,34.180,16.602,29.785,26.855,12.695,0
215246.684,32.227,30.273,20.020,34.668,7.324,0
215246.688,39.062,35.645,20.996,44.434,12.695,0
215246.692,43.945,30.273,34.668,34.668,31.738,0
215246.695,27.832,23.926,41.016,15.137,26.855,0
215246.699,21.484,16.602,41.992,15.137,64.941,0
215246.703,26.367,12.695,30.273,23.926,95.703,0
215246.707,30.762,22.461,21.973,25.391,49.805,0
215246.711,32.227,32.715,29.297,27.344,35.156,0
215246.715,31.738,34.180,25.879,29.785,56.641,0
215246.719,36.133,36.133,21.973,27.344,64.453,0
215246.723,38.574,28.809,21.484,27.832,62.012,0
215246.727,37.109,26.367,24.902,26.855,44.922,0
215246.731,38.086,37.598,23.926,25.391,45.898,0
215246.735,36.133,30.762,0.977,37.109,82.520,0
215246.738,30.273,10.254,8.301,31.250,75.195,0
215246.742,31.738,14.648,41.016,24.414,73.242,0
215246.746,34.668,31.738,42.969,31.738,83.984,0
215246.750,30.273,29.785,30.762,28.809,135.254,0
215246.754,22.461,24.902,23.438,32.715,145.996,0
215246.758,25.391,28.809,25.391,34.180,109.863,0
215246.762,33.691,30.762,31.250,25.879,97.168,0
215246.766,37.598,36.133,27.344,23.926,71.777,0
215246.770,41.504,43.945,29.785,26.367,50.293,0
215246.774,42.969,41.992,33.691,30.273,27.832,0
215246.777,41.504,31.250,25.879,32.227,47.852,0
215246.781,41.992,23.926,20.508,34.668,101.074,0
215246.785,34.180,25.391,27.832,31.250,68.848,0
215246.789,26.367,23.438,38.574,21.484,40.527,0
215246.793,28.320,23.926,39.062,20.020,55.664,0
215246.797,20.020,16.602,27.832,21.973,77.148,0
215246.801,22.461,14.648,26.855,30.273,84.473,0
215246.805,28.809,18.555,34.668,24.414,113.281,0
215246.809,28.320,18.555,40.527,22.949,99.609,0
215246.813,33.691,25.879,41.016,38.574,56.152,0
215246.817,35.645,29.297,26.855,30.762,49.805,0
215246.820,26.367,24.902,16.602,18.066,27.832,0
215246.824,21.484,27.832,7.812,21.484,35.156,0
215246.828,26.855,30.273,8.301,21.973,47.363,0
215246.832,30.762,18.066,22.461,26.855,47.852,0
215246.836,23.926,13.672,35.156,29.785,74.707,0
215246.840,20.020,24.414,31.738,33.691,107.910,0
215246.844,27.344,20.996,24.414,25.879,116.211,0
215246.848,33.203,20.020,27.832,20.508,69.824,0
215246.852,40.527,29.785,29.785,29.297,39.551,0
215246.856,49.805,32.715,23.926,38.574,54.199,0
215246.860,46.875,29.785,17.578,34.180,63.477,0
215246.863,38.086,21.973,25.879,31.738,77.637,0
215246.867,34.180,25.391,21.484,36.133,55.176,0
215246.871,31.738,36.133,8.789,41.016,48.340,0
215246.875,25.879,39.551,17.090,30.762,67.383,0
215246.879,23.438,38.574,21.484,19.043,43.457,0
215246.883,32.715,32.227,26.367,27.344,15.625,0
215246.887,32.715,22.949,24.414,33.203,18.555,0
215246.891,26.367,22.949,23.438,20.996,27.344,0
215246.895,23.926,29.785,32.227,19.043,48.340,0
215246.899,31.250,41.016,36.133,34.180,28.320,0
215246.902,39.551,39.551,35.645,38.574,2.441,0
215246.906,40.039,27.344,29.297,27.832,3.906,0
215246.910,34.180,21.973,25.391,21.484,34.668,0
215246.914,27.832,23.438,29.297,37.109,61.523,0
215246.918,30.762,32.715,23.438,52.734,12.695,0
215246.922,28.320,33.203,21.484,47.363,-31.738,0
215246.926,23.438,24.414,31.738,32.715,-12.207,0
215246.930,28.320,18.066,34.668,34.668,19.531,0
215246.934,25.879,24.902,34.668,34.668,-10.254,0
215246.938,20.996,32.715,34.668,34.668,-5.371,0
215246.942,27.832,28.320,23.926,48.828,0.977,0
215246.945,45.410,35.156,23.926,47.363,-69.336,0
215246.949,46.387,32.715,37.598,28.320,-42.480,0
215246.953,26.367,17.578,40.527,12.207,-32.715,0
215246.957,20.996,16.602,24.414,8.789,-31.250,0
215246.961,31.738,28.320,22.461,21.973,-1.953,0
215246.965,51.270,34.180,39.062,32.715,-18.066,0
215246.969,48.828,37.109,34.668,30.762,-20.020,0
215246.973,24.902,33.203,23.926,28.320,-15.137,0
215246.977,25.879,27.344,18.555,27.344,-10.742,0
215246.981,37.598,26.367,20.996,16.113,-14.648,0
215246.985,41.504,20.508,40.039,8.789,-21.973,0
215246.988,36.133,10.254,49.805,17.090,-3.418,0
215246.992,38.086,21.973,43.457,28.809,-6.348,0
215246.996,39.551,32.227,31.250,31.738,-0.977,0
215247.000,27.832,23.438,23.438,18.555,26.855,0
215247.004,19.531,9.277,21.484,12.695,15.137,0
215247.008,27.832,3.418,20.996,22.949,7.812,0
215247.012,31.738,17.578,18.066,27.344,1.465,0
215247.016,31.250,25.879,20.508,26.367,34.668,0
215247.020,30.762,14.160,27.344,20.996,41.992,0
215247.024,30.273,20.508,38.574,24.902,27.344,0
215247.027,30.762,38.574,47.852,25.391,62.988,0
215247.031,21.484,35.645,39.551,14.160,69.824,0
215247.035,20.020,33.691,35.645,20.508,26.367,0
215247.039,25.879,35.156,37.598,26.855,4.395,0
215247.043,27.344,30.762,34.180,25.879,31.250,0
215247.047,28.809,21.484,35.645,30.273,62.988,0
215247.051,28.809,17.578,35.156,33.691,33.691,0
215247.055,32.227,28.320,31.738,36.621,-21.484,0
215247.059,35.645,33.203,22.949,28.320,-39.062,0
215247.063,33.691,24.414,30.762,29.785,2.441,0
215247.067,39.551,20.996,46.387,45.898,53.711,0
215247.070,46.387,25.391,33.691,48.828,46.875,0
215247.074,45.898,25.879,28.809,50.293,25.391,0
215247.078,39.062,26.855,41.992,43.945,39.551,0
215247.082,22.949,30.762,46.387,17.578,16.113,0
215247.086,17.090,30.273,46.875,4.395,9.766,2
215247.090,26.367,30.273,46.875,8.789,6.836,0
215247.094,28.809,33.691,39.062,17.578,0.488,0
215247.098,34.180,41.992,34.668,28.320,15.137,0
215247.102,39.551,42.969,36.133,28.809,19.043,0
215247.106,23.438,22.461,35.645,23.438,30.762,0
215247.110,19.531,16.113,31.250,15.625,17.090,0
215247.113,28.809,28.320,36.133,17.578,26.367,0
215247.117,29.785,39.062,35.156,30.762,-8.789,0
215247.121,37.598,39.551,32.715,41.504,-35.156,0
215247.125,38.086,21.484,35.645,35.645,0.488,0
215247.129,33.203,23.438,33.691,30.273,2.930,0
215247.133,30.273,30.273,30.273,35.645,10.742,0
215247.137,30.762,18.066,23.438,28.320,32.715,0
215247.141,24.414,13.184,31.250,20.508,28.320,0
215247.145,12.695,23.926,40.527,23.926,-1.465,0
215247.149,18.555,29.297,33.691,23.438,3.906,0
215247.152,27.832,29.297,33.691,26.367,54.199,0
215247.156,25.391,22.461,50.781,22.461,45.410,0
215247.160,28.320,23.438,55.664,18.555,13.672,0
215247.164,28.809,30.762,37.109,33.691,3.906,0
215247.168,26.367,36.621,30.273,43.945,5.859,0
215247.172,31.738,40.039,21.973,35.156,15.625,0
215247.176,32.715,32.227,17.578,25.391,32.227,0
215247.180,34.668,22.461,28.809,29.785,34.180,0
215247.184,38.086,24.414,35.156,35.156,22.949,0
215247.188,20.508,34.668,26.855,21.484,21.484,0
215247.192,3.418,35.156,26.855,2.930,8.301,0
215247.195,14.648,30.762,30.273,6.836,43.945,0
215247.199,22.461,22.461,29.297,20.020,76.660,0
215247.203,22.461,27.832,24.902,25.391,75.684,0
215247.207,18.555,37.598,13.672,25.879,83.008,0
215247.211,0.488,31.250,13.184,12.695,53.223,0
215247.215,-2.441,30.273,18.066,-2.441,45.898,0
215247.219,2.441,38.086,15.137,0.977,48.340,0
215247.223,10.742,40.527,19.043,8.789,74.707,0
215247.227,20.996,35.645,18.066,17.090,105.957,0
215247.231,11.230,42.480,1.953,19.531,49.805,0
215247.235,12.207,45.410,15.625,9.766,28.809,0
215247.238,15.625,36.133,41.992,5.371,68.848,0
215247.242,12.695,30.273,30.273,9.766,100.586,0
215247.246,13.672,23.926,29.785,8.789,79.102,0
215247.250,14.648,23.438,38.574,15.625,44.434,0
215247.254,23.438,25.391,28.320,35.156,64.941,0
215247.258,24.414,21.973,24.902,44.922,62.500,0
215247.262,16.602,28.320,20.996,33.691,43.945,0
215247.266,15.137,38.086,25.879,21.973,34.180,0
215247.270,21.973,31.738,25.391,20.020,10.254,0
215247.274,25.391,30.762,27.832,18.066,5.859,0
215247.277,26.855,29.297,40.527,17.578,-8.789,0
215247.281,32.227,16.113,39.551,22.461,-35.645,0
215247.285,46.875,26.855,36.133,34.668,-39.551,0
215247.289,38.574,27.344,41.504,28.809,-0.488,0
215247.293,26.367,24.902,37.598,25.391,-12.695,0
215247.297,31.250,34.180,31.738,34.668,38.574,0
215247.301,23.438,18.066,26.367,31.738,95.703,0
215247.305,20.996,5.859,27.344,28.809,51.758,0
215247.309,29.297,18.066,32.227,41.016,4.883,0
215247.313,33.203,33.691,22.461,55.176,-21.484,0
215247.317,31.250,33.691,27.832,46.875,-62.012,0
215247.320,27.832,32.715,33.691,33.203,-60.059,0
215247.324,32.715,37.109,37.598,44.922,-6.836,0
215247.328,45.410,35.156,34.668,50.293,-23.926,0
215247.332,41.992,31.250,38.574,48.828,-37.109,0
215247.336,40.039,28.809,42.969,63.965,-9.766,0
215247.340,36.133,28.809,30.273,55.664,-39.062,0
215247.344,27.832,40.527,31.250,25.879,-51.270,0
215247.348,28.809,41.992,51.758,14.648,-6.836,0
215247.352,15.137,20.508,59.082,9.277,-14.648,0
215247.356,11.719,12.695,51.270,12.207,-74.707,0
215247.360,39.062,20.996,53.223,32.715,-76.172,0
215247.363,43.945,23.438,48.340,35.645,-30.273,0
215247.367,32.227,29.785,32.227,36.133,-48.828,0
215247.371,39.062,39.551,25.879,45.898,-86.426,0
215247.375,48.828,29.297,28.809,38.086,-31.738,0
215247.379,49.805,13.672,27.832,33.203,4.395,0
215247.383,48.340,26.855,22.461,38.086,11.719,0
215247.387,50.293,44.922,25.391,42.480,24.414,0
215247.391,48.828,47.363,25.391,49.316,7.324,0
215247.395,42.480,46.875,31.738,31.250,29.785,0
215247.399,37.598,35.645,51.758,17.578,18.066,0
215247.402,37.109,24.902,55.176,17.090,-33.203,0
215247.406,37.109,31.738,45.898,28.809,-9.766,0
215247.410,46.875,36.621,40.527,45.898,49.316,0
215247.414,61.035,35.156,39.551,48.828,62.012,0
215247.418,55.176,35.156,31.738,54.199,59.570,0
215247.422,42.969,35.645,26.855,47.852,54.199,0
215247.426,40.527,29.297,37.598,35.156,62.500,0
215247.430,41.504,21.484,49.805,21.484,49.316,0
215247.434,32.715,27.832,48.340,17.090,19.531,0
215247.438,23.438,24.902,32.715,18.555,51.270,0
215247.442,24.902,16.602,20.996,25.391,101.562,0
215247.445,22.949,18.066,27.832,29.785,64.941,0
215247.449,17.090,20.020,41.992,24.902,46.387,0
215247.453,27.832,21.484,39.551,32.227,49.316,0
215247.457,39.551,18.555,32.715,35.156,25.391,0
215247.461,30.273,20.996,38.086,28.320,37.598,0
215247.465,23.438,23.438,34.668,33.203,15.137,0
215247.469,27.344,30.762,36.621,35.645,4.883,0
215247.473,30.762,34.180,47.852,33.691,38.086,0
215247.477,34.668,32.715,40.527,38.574,33.203,0
215247.481,41.992,29.785,37.598,30.762,18.555,0
215247.485,50.293,22.461,41.992,28.320,35.156,0
215247.488,44.434,22.461,30.762,34.180,43.945,0
215247.492,41.016,32.715,30.762,24.902,46.387,0
215247.496,43.457,37.598,40.039,28.320,48.828,0
215247.500,40.039,32.227,33.691,34.180,49.316,0
215247.504,41.016,33.691,23.926,35.645,44.434,0
215247.508,42.969,32.715,26.367,37.598,23.926,0
215247.512,34.668,24.902,42.480,31.738,40.527,0
215247.516,34.180,28.320,49.805,28.320,39.551,0
215247.520,42.480,33.691,45.898,31.250,-20.020,0
215247.524,42.480,32.227,42.480,30.273,3.418,0
215247.527,38.574,29.785,27.344,31.250,37.109,0
215247.531,43.457,31.738,21.973,37.598,19.531,0
215247.535,52.734,40.039,28.809,42.969,16.602,0
215247.539,54.688,40.039,19.531,40.527,21.484,0
215247.543,46.387,35.645,16.602,31.250,20.508,0
215247.547,39.551,41.992,21.484,21.973,35.156,0
215247.551,49.805,44.922,33.203,34.180,24.902,0
215247.555,47.852,40.527,40.527,38.574,-9.277,0
215247.559,35.645,43.945,35.156,26.367,-0.488,0
215247.563,31.738,47.852,29.297,18.555,18.066,0
215247.567,32.715,41.504,25.879,10.742,29.785,0
215247.570,37.109,43.945,24.414,17.578,77.148,0
215247.574,33.691,41.016,25.391,31.738,104.980,0
215247.578,36.133,41.504,29.297,37.109,74.219,0
215247.582,37.109,37.109,29.785,31.250,43.945,0
215247.586,36.133,23.438,43.457,34.668,43.457,0
215247.590,39.062,31.738,30.273,42.969,63.477,0
215247.594,44.434,33.691,15.625,42.969,72.754,0
215247.598,46.387,21.973,31.250,46.387,73.242,0
215247.602,41.504,25.879,37.109,52.734,89.355,0
215247.606,39.062,35.645,45.898,46.875,86.426,0
215247.610,38.086,39.062,50.781,35.645,72.266,0
215247.613,32.715,45.898,39.551,34.180,54.199,0
215247.617,25.391,43.945,20.020,26.367,49.805,0
215247.621,32.227,41.504,14.648,24.902,79.590,0
215247.625,37.109,36.133,32.715,31.738,70.312,0
215247.629,29.785,26.367,41.016,39.551,55.664,0
215247.633,24.902,22.461,31.250,44.922,68.359,0
215247.637,26.367,14.648,29.297,34.180,54.199,0
215247.641,28.809,15.625,43.945,30.762,32.227,0
215247.645,32.227,25.879,45.898,36.621,34.180,0
215247.649,36.133,25.391,36.621,43.457,32.715,0
215247.652,23.926,23.438,42.480,43.945,27.344,0
215247.656,18.555,28.320,43.945,36.621,11.230,0
215247.660,21.484,34.668,38.574,39.551,23.926,0
215247.664,27.832,39.551,36.133,55.176,70.312,0
215247.668,24.902,22.949,30.273,51.270,43.945,0
215247.672,21.973,10.254,28.809,35.156,3.418,0
215247.676,22.949,17.090,38.574,31.738,49.805,0
215247.680,19.531,21.973,41.016,44.434,82.520,0
215247.684,28.320,21.973,43.457,50.293,69.336,0
215247.688,36.621,28.809,41.504,52.734,58.105,0
215247.692,38.574,38.086,35.645,56.641,48.340,0
215247.695,31.738,30.762,38.086,53.223,35.645,0
215247.699,28.320,31.738,38.574,48.828,52.246,0
215247.703,40.527,40.527,27.832,41.016,31.738,0
215247.707,41.504,39.062,24.414,30.273,29.785,0
215247.711,38.086,31.738,31.250,23.926,27.344,0
215247.715,44.922,26.367,37.109,24.414,11.230,0
215247.719,44.922,32.227,38.574,30.762,29.785,0
215247.723,43.457,34.668,28.809,33.691,46.875,0
215247.727,41.992,35.645,24.414,37.598,64.453,0
215247.731,34.180,33.691,27.832,23.926,37.598,0
215247.735,30.273,20.508,35.156,15.137,30.762,0
215247.738,37.109,10.742,37.109,24.902,73.730,0
215247.742,46.875,17.090,20.996,36.621,53.223,0
215247.746,40.039,35.645,13.184,47.363,48.340,0
215247.750,31.250,44.434,26.367,42.480,47.363,2
215247.754,36.133,37.598,35.645,34.180,5.371,0
215247.758,45.898,36.133,36.133,44.434,22.461,0
215247.762,35.156,31.738,39.062,31.250,32.227,0
215247.766,18.555,31.250,32.227,8.301,29.297,0
215247.770,21.484,33.691,28.809,13.672,70.801,0
215247.774,30.762,29.297,33.691,20.020,88.867,0
215247.777,34.180,31.250,34.668,33.691,68.848,0
215247.781,34.180,34.180,23.438,45.410,83.496,0
215247.785,39.062,35.156,22.461,35.156,78.613,0
215247.789,35.156,36.133,43.457,27.832,54.688,0
215247.793,41.016,37.598,50.293,36.133,53.223,0
215247.797,48.340,38.574,48.828,43.945,46.875,0
215247.801,38.086,30.273,34.668,54.199,62.988,0
215247.805,37.109,24.902,19.531,44.434,51.270,0
215247.809,41.016,26.367,31.738,34.180,-2.930,0
215247.813,38.574,23.926,43.457,45.898,6.836,0
215247.817,45.410,28.320,47.363,42.969,18.555,0
215247.820,47.852,22.949,42.969,33.691,42.969,0
215247.824,25.391,19.043,30.273,24.902,36.621,0
215247.828,20.020,22.461,29.785,27.344,11.230,0
215247.832,31.738,17.090,31.250,29.785,12.207,0
215247.836,38.086,32.715,34.180,31.250,44.434,0
215247.840,33.691,39.062,32.227,40.039,75.195,0
215247.844,27.832,30.273,20.996,42.969,33.203,0
215247.848,31.738,38.574,20.020,42.480,14.648,0
215247.852,30.762,41.504,12.695,38.086,17.090,0
215247.856,27.832,25.391,25.879,28.809,-7.324,0
215247.860,30.273,19.531,52.734,30.762,33.691,0
215247.863,29.785,22.949,62.500,31.738,90.332,0
215247.867,29.297,29.785,48.828,28.809,93.262,0
215247.871,41.504,46.875,36.621,38.574,117.188,0
215247.875,37.109,44.434,35.156,43.457,83.984,0
215247.879,33.203,33.203,29.785,44.922,40.039,0
215247.883,34.180,28.809,37.598,43.945,51.758,0
215247.887,32.227,26.367,40.527,31.250,51.270,0
215247.891,27.344,27.832,35.645,17.578,51.758,0
215247.895,29.297,42.969,33.691,15.625,40.527,0
215247.899,33.691,49.316,35.156,23.438,-9.277,0
215247.902,31.250,40.527,37.109,26.855,-9.277,0
215247.906,27.344,36.621,37.598,27.832,23.926,0
215247.910,22.461,37.109,36.133,27.832,16.602,0
215247.914,19.043,38.574,32.715,12.695,-20.508,0
215247.918,20.996,41.016,35.156,5.859,-16.113,0
215247.922,27.832,43.945,33.691,12.695,0.977,0
215247.926,20.020,44.922,36.133,12.695,-4.395,0
215247.930,-1.953,51.270,42.480,-5.371,4.395,0
215247.934,-11.230,51.758,38.086,-20.508,11.230,0
215247.938,-28.809,40.039,35.156,-28.320,19.043,0
215247.942,-47.363,34.668,32.715,-31.738,-12.695,0
215247.945,-53.711,39.551,34.180,-37.598,25.391,0
215247.949,-65.430,41.504,34.180,-41.016,73.730,0
215247.953,-69.824,38.574,31.738,-39.551,33.691,0
215247.957,-77.637,36.621,35.156,-53.223,3.906,0
215247.961,-78.125,36.621,29.785,-66.895,24.414,0
215247.965,-75.195,40.527,20.020,-67.871,36.133,0
215247.969,-73.730,41.016,33.203,-61.523,67.383,0
215247.973,-68.848,29.785,37.598,-67.383,56.641,0
215247.977,-72.754,38.574,28.809,-71.289,20.996,0
215247.981,-73.242,58.105,31.250,-64.941,31.738,0
215247.985,-68.359,53.223,38.574,-55.664,22.461,0
215247.988,-71.777,45.898,42.480,-61.035,2.441,0
215247.992,-64.941,39.062,34.668,-61.035,2.441,0
215247.996,-42.480,35.645,28.320,-41.016,39.062,0
215248.000,-29.785,41.992,23.438,-29.785,31.738,0
215248.004,-27.832,37.598,25.879,-16.602,10.254,0
215248.008,-24.414,33.203,28.320,-10.742,52.246,0
215248.012,-20.996,34.180,26.855,-14.648,76.172,0
215248.016,-14.648,37.598,34.668,-11.719,62.012,0
215248.020,6.836,45.410,34.180,8.301,14.648,0
215248.024,26.855,43.457,34.668,22.461,-15.137,0
215248.027,22.461,34.180,33.691,24.414,21.973,0
215248.031,21.484,31.738,23.926,31.738,49.316,0
215248.035,30.762,43.457,25.879,33.691,29.785,0
215248.039,34.668,45.410,34.668,36.621,24.902,0
215248.043,39.551,38.574,31.250,32.715,30.273,0
215248.047,43.945,37.598,23.926,32.227,31.738,0
215248.051,42.480,39.062,20.508,40.039,73.730,0
215248.055,47.363,34.180,19.531,48.828,68.848,0
215248.059,52.734,31.250,17.578,52.246,-1.953,0
215248.063,55.664,36.133,22.949,45.410,-13.672,0
215248.067,63.477,35.645,28.320,51.270,5.859,0
215248.070,61.035,32.715,31.250,49.316,17.090,0
215248.074,53.711,27.344,32.227,50.781,35.645,0
215248.078,54.199,20.996,21.973,43.457,-27.832,0
215248.082,47.363,20.996,19.531,36.133,-17.090,0
215248.086,41.992,22.949,25.879,50.781,41.992,0
215248.090,40.527,25.391,32.227,53.223,36.621,0
215248.094,43.945,26.367,37.109,50.293,36.621,0
215248.098,54.688,24.902,31.738,51.758,30.273,0
215248.102,53.223,20.996,29.785,48.828,17.090,0
215248.106,55.176,10.742,36.621,57.617,37.109,0
215248.110,58.594,3.906,40.527,67.383,61.523,0
215248.113,58.105,8.789,15.625,66.895,40.527,0
215248.117,53.223,14.160,7.812,58.105,30.762,0
215248.121,47.363,21.484,33.203,42.969,29.785,0
215248.125,45.410,30.762,42.480,36.621,6.836,0
215248.129,51.270,26.367,53.711,50.293,13.184,0
215248.133,65.918,11.719,46.387,65.918,0.000,0
215248.137,65.430,6.348,29.297,64.941,-15.625,0
215248.141,50.293,10.742,35.156,62.988,30.273,0
215248.145,58.594,26.855,44.434,84.473,53.711,0
215248.149,71.777,36.133,38.574,87.402,56.152,0
215248.152,66.895,25.391,32.715,60.547,33.203,0
215248.156,62.012,2.930,38.574,51.758,28.320,0
215248.160,66.406,6.836,43.457,63.965,103.516,0
215248.164,71.289,25.391,34.180,72.266,86.426,0
215248.168,58.594,28.809,20.508,54.688,-0.488,0
215248.172,62.500,32.227,29.297,61.523,7.324,0
215248.176,71.777,29.297,55.176,74.219,54.688,0
215248.180,58.594,15.625,43.457,53.711,84.961,0
215248.184,58.594,11.719,27.344,43.457,55.176,0
215248.188,56.641,22.461,27.344,35.156,61.523,0
215248.192,56.641,35.156,19.043,43.945,108.398,0
215248.195,48.828,27.832,21.973,50.781,102.051,0
215248.199,43.457,19.531,30.762,42.969,81.543,0
215248.203,58.594,27.832,26.367,60.547,51.270,0
215248.207,60.547,26.367,29.297,66.895,-3.906,0
215248.211,58.105,24.414,24.414,63.965,-14.160,0
215248.215,63.965,40.039,22.949,71.777,10.254,0
215248.219,63.965,50.781,43.945,65.430,21.973,0
215248.223,58.105,43.457,50.781,56.641,13.672,0
215248.227,56.641,25.391,43.457,52.246,-13.672,0
215248.231,62.500,23.438,31.250,51.270,-30.273,0
215248.235,62.988,35.645,28.320,59.570,13.184,0
215248.238,50.781,27.832,37.109,58.594,38.574,0
215248.242,50.781,25.879,38.574,56.152,42.480,0
215248.246,58.105,37.598,19.531,69.336,74.219,0
215248.250,52.246,36.133,18.066,65.430,71.289,0
215248.254,47.363,31.250,44.434,50.781,47.852,0
215248.258,52.246,38.086,59.570,57.129,53.223,0
215248.262,62.500,33.203,47.852,58.105,40.039,0
215248.266,50.781,19.531,34.180,50.293,23.926,0
215248.270,31.250,14.648,30.273,43.457,5.371,0
215248.274,30.762,10.254,30.273,33.203,4.395,0
215248.277,26.855,5.859,41.016,31.250,47.363,0
215248.281,24.414,9.277,45.410,38.086,33.691,0
215248.285,34.668,27.832,42.480,45.898,39.062,0
215248.289,45.410,34.668,29.297,45.410,60.547,0
215248.293,55.176,34.180,28.809,59.570,51.758,0
215248.297,69.336,34.180,36.133,71.777,59.570,0
215248.301,62.012,22.949,34.668,55.176,47.852,0
215248.305,51.270,28.320,33.691,53.223,34.668,0
215248.309,49.805,38.574,34.180,61.035,40.039,0
215248.313,46.875,25.391,44.922,51.270,61.035,0
215248.317,49.805,18.555,36.133,47.852,40.039,0
215248.320,56.152,28.320,33.203,50.293,39.062,0
215248.324,59.082,36.621,43.457,47.363,81.055,0
215248.328,54.688,36.133,39.062,47.852,26.855,0
215248.332,41.016,30.762,39.062,42.969,-2.930,0
215248.336,34.180,21.973,36.133,33.203,56.152,0
215248.340,39.551,15.137,29.785,32.227,65.918,0
215248.344,49.316,26.855,37.598,41.504,55.664,0
215248.348,49.316,41.992,26.367,46.875,54.199,0
215248.352,42.969,45.898,21.484,53.711,31.738,0
215248.356,41.992,46.387,41.504,52.734,56.152,0
215248.360,41.016,41.992,52.246,45.410,64.453,0
215248.363,40.527,41.992,43.945,31.250,26.367,0
215248.367,35.645,39.551,33.691,28.320,44.434,0
215248.371,34.180,30.273,27.344,44.434,39.551,0
215248.375,37.109,23.926,27.832,44.922,19.043,0
215248.379,41.992,31.250,38.574,34.180,24.414,0
215248.383,41.992,36.133,34.668,34.180,30.273,0
215248.387,41.504,31.738,25.391,40.527,46.875,0
215248.391,42.969,29.297,21.973,46.387,40.527,0
215248.395,40.527,31.738,16.602,43.945,40.039,0
215248.399,35.645,28.809,28.809,31.738,67.383,0
215248.402,31.250,22.949,39.551,26.855,49.805,1
215248.406,35.645,28.809,27.344,27.832,-22.949,0
215248.410,35.156,44.434,33.203,31.738,4.883,0
215248.414,28.320,49.805,34.668,32.715,37.109,0
215248.418,38.086,52.734,33.203,35.645,6.348,0
215248.422,51.270,58.594,36.621,50.293,4.395,0
215248.426,38.574,42.969,26.367,41.504,-14.648,0
215248.430,19.043,13.184,26.855,14.160,-21.484,0
215248.434,13.184,2.930,27.832,10.742,-19.043,0
215248.438,18.555,17.578,26.855,20.508,21.484,0
215248.442,20.508,16.602,25.391,18.555,20.508,0
215248.445,12.695,13.672,35.156,16.113,3.906,0
215248.449,17.090,19.043,37.598,28.320,16.113,0
215248.453,25.879,30.762,34.668,44.434,-21.973,0
215248.457,21.484,36.621,36.621,36.621,24.414,0
215248.461,29.785,30.273,37.109,37.109,67.871,0
215248.465,33.691,21.973,34.180,33.691,3.418,0
215248.469,20.508,17.578,20.508,21.484,0.977,0
215248.473,18.555,22.461,24.902,27.832,18.066,0
215248.477,29.297,29.297,31.250,29.297,2.930,0
215248.481,34.668,28.809,29.785,22.461,22.461,0
215248.485,34.668,23.926,28.320,16.113,36.133,0
215248.488,46.875,31.738,35.645,32.227,17.090,0
215248.492,45.898,38.086,38.574,41.992,-0.488,0
215248.496,34.668,36.621,29.785,33.203,-32.227,0
215248.500,33.203,31.250,26.367,30.273,-46.387,0
215248.504,36.133,29.785,31.250,34.668,-3.906,0
215248.508,43.945,32.227,42.480,42.480,2.930,0
215248.512,47.852,33.203,29.785,47.363,-9.766,0
215248.516,53.223,42.480,17.578,57.617,-2.930,0
215248.520,49.805,32.715,28.320,50.293,13.184,0
215248.524,41.504,15.625,32.715,41.504,51.270,0
215248.527,41.992,23.438,41.504,45.410,35.645,0
215248.531,37.598,39.062,42.480,32.227,28.320,0
215248.535,29.785,40.039,27.832,25.879,12.695,0
215248.539,37.598,41.504,29.297,34.180,-7.812,0
215248.543,35.645,45.898,32.715,27.832,0.977,0
215248.547,26.367,40.527,32.227,19.531,27.344,0
215248.551,37.598,31.250,36.133,35.156,48.828,0
215248.555,42.480,36.133,30.762,41.504,-1.465,0
215248.559,35.156,39.551,25.879,28.809,-12.695,0
215248.563,30.273,31.738,28.809,28.320,29.785,0
215248.567,32.227,34.180,30.762,35.645,39.062,0
215248.570,31.738,28.809,30.762,38.574,9.277,0
215248.574,24.414,25.879,35.645,55.176,11.230,0
215248.578,30.762,38.086,35.156,66.895,43.457,0
215248.582,32.715,37.109,23.926,34.180,12.695,0
215248.586,32.715,29.297,30.762,16.113,-6.348,0
215248.590,33.203,26.367,38.574,29.297,20.508,0
215248.594,24.902,20.508,29.297,21.484,14.160,0
215248.598,29.297,23.926,20.508,16.113,-15.137,0
215248.602,36.621,32.227,29.297,25.879,-29.785,0
215248.606,30.273,26.367,37.598,34.180,8.301,0
215248.610,28.320,10.254,40.527,50.781,64.941,0
215248.613,34.180,7.324,40.039,55.176,59.082,0
215248.617,34.668,19.531,28.809,47.852,41.504,0
215248.621,34.180,23.438,24.902,44.922,20.020,0
215248.625,37.109,18.066,21.973,42.969,6.348,0
215248.629,29.297,14.160,23.926,35.156,50.293,0
215248.633,24.902,25.879,34.180,29.785,76.172,0
215248.637,21.973,42.969,40.039,24.902,47.852,0
215248.641,19.043,32.227,26.367,24.414,70.312,0
215248.645,20.996,16.113,21.973,33.691,34.668,0
215248.649,26.367,16.602,35.645,29.785,20.508,0
215248.652,34.180,34.668,41.992,32.227,47.852,0
215248.656,33.691,42.480,41.016,42.969,1.465,0
215248.660,37.109,37.109,41.504,43.457,-0.488,0
215248.664,32.715,36.133,41.016,34.180,21.484,0
215248.668,21.484,29.297,31.250,17.578,26.855,0
215248.672,18.555,31.738,21.973,22.461,-15.137,0
215248.676,18.555,33.691,21.973,28.320,-22.949,0
215248.680,18.066,23.926,19.531,26.367,7.324,0
215248.684,22.949,19.043,20.508,41.504,-19.043,0
215248.688,36.133,25.879,15.137,60.059,-30.273,0
215248.692,39.062,33.691,11.719,38.574,-31.738,0
215248.695,27.344,40.039,24.902,13.184,14.160,0
215248.699,28.320,36.621,40.039,19.043,30.273,0
215248.703,32.227,30.762,35.156,21.484,8.789,0
215248.707,25.879,38.086,29.297,24.902,-20.508,0
215248.711,24.902,41.504,39.551,29.297,-24.414,0
215248.715,27.344,38.086,36.133,30.273,21.973,0
215248.719,20.508,28.320,25.391,30.273,56.152,0
215248.723,20.508,24.414,14.160,22.461,46.387,0
215248.727,30.762,37.109,7.324,18.066,52.246,0
215248.731,37.598,46.387,16.113,21.484,73.242,0
215248.735,30.762,41.016,14.648,23.438,94.727,0
215248.738,28.320,31.250,10.742,20.508,46.387,0
215248.742,31.738,23.438,20.996,17.090,16.113,0
215248.746,26.855,20.020,27.832,22.949,66.406,0
215248.750,35.645,35.645,22.461,33.203,58.594,0
215248.754,39.551,41.016,16.602,27.832,47.363,0
215248.758,36.621,32.227,33.203,30.273,78.125,0
215248.762,35.156,26.367,41.504,34.668,68.848,0
215248.766,29.297,29.785,27.832,24.902,61.035,0
215248.770,26.855,41.992,24.902,26.855,95.703,0
215248.774,20.996,30.762,29.785,30.762,63.965,0
215248.777,19.043,11.230,37.109,24.902,30.762,0
215248.781,25.879,7.324,42.480,23.438,37.109,0
215248.785,29.297,2.930,35.156,28.809,-7.812,0
215248.789,35.156,19.043,24.414,44.434,14.160,0
215248.793,44.434,39.551,25.879,55.664,40.039,0
215248.797,40.039,35.156,34.180,47.852,51.758,0
215248.801,37.109,27.344,47.852,30.762,79.102,0
215248.805,33.203,27.344,44.922,27.344,61.523,0
215248.809,31.250,28.809,44.434,33.691,42.969,0
215248.813,37.598,29.785,47.852,43.457,35.645,0
215248.817,46.387,41.992,42.969,55.664,62.500,0
215248.820,48.828,46.387,40.527,49.316,103.516,0
215248.824,38.086,24.414,32.715,26.855,67.871,0
215248.828,40.527,17.090,25.879,20.508,-15.625,0
215248.832,45.898,22.461,22.949,27.344,-19.531,0
215248.836,45.410,26.367,23.926,35.156,42.480,0
215248.840,42.480,28.809,34.180,45.410,53.711,0
215248.844,30.273,19.531,40.527,47.852,27.832,0
215248.848,29.785,27.344,34.668,46.387,58.105,0
215248.852,44.434,44.922,44.922,48.828,70.312,0
215248.856,44.434,41.504,46.875,49.316,26.855,0
215248.860,30.762,31.738,32.715,41.016,41.504,0
215248.863,32.227,37.598,32.227,43.457,32.227,0
215248.867,39.062,45.410,40.527,53.223,5.859,0
215248.871,32.715,25.391,31.250,41.016,11.719,0
215248.875,25.391,18.555,22.949,26.367,33.691,0
215248.879,26.855,30.273,31.250,23.438,31.250,0
215248.883,32.715,37.109,37.598,27.832,31.738,0
215248.887,36.133,37.598,33.691,29.785,25.879,0
215248.891,47.363,36.133,27.344,42.480,10.254,0
215248.895,52.246,37.598,27.344,52.734,-4.883,0
215248.899,43.457,33.691,34.180,39.062,-6.836,0
215248.902,37.598,41.992,45.410,45.410,-19.043,0
215248.906,33.203,48.340,44.434,48.828,26.855,0
215248.910,20.508,26.367,21.484,18.066,49.805,0
215248.914,23.438,22.949,15.625,13.672,30.762,0
215248.918,42.969,41.992,21.973,31.738,38.574,0
215248.922,36.621,33.691,22.461,20.508,33.203,0
215248.926,37.598,24.414,30.273,24.414,55.664,0
215248.930,48.828,30.273,19.531,42.969,27.344,0
215248.934,33.203,25.391,19.531,30.762,-22.461,0
215248.938,20.508,18.066,40.039,23.926,13.672,0
215248.942,24.414,23.438,31.738,23.926,49.805,0
215248.945,22.949,22.949,31.250,21.484,13.184,0
215248.949,25.879,31.250,41.504,23.926,-20.508,0
215248.953,30.762,39.062,38.086,28.809,28.809,0
215248.957,32.715,29.785,35.156,24.902,44.922,0
215248.961,34.180,29.297,32.227,29.297,15.625,0
215248.965,34.668,19.531,23.926,36.621,-8.789,0
215248.969,30.273,12.207,23.926,33.203,-30.273,0
215248.973,26.855,26.855,26.855,40.039,-0.488,0
215248.977,33.691,34.180,20.508,40.039,-2.441,0
215248.981,30.273,31.738,30.273,30.273,-30.273,0
215248.985,21.484,29.297,39.062,22.461,0.488,0
215248.988,21.973,22.949,27.344,20.996,7.324,0
215248.992,32.715,27.832,22.949,31.250,2.930,0
215248.996,45.898,34.180,33.691,45.410,11.719,0
215249.000,47.852,32.715,26.367,54.199,44.434,0
215249.004,48.340,36.133,24.414,54.199,72.754,0
215249.008,46.387,33.691,34.180,38.574,83.008,0
215249.012,43.945,32.715,33.691,34.180,65.918,0
215249.016,42.969,29.297,30.273,42.480,61.035,0
215249.020,37.109,25.391,34.668,36.133,79.102,0
215249.024,41.504,31.738,38.086,36.621,59.082,0
215249.027,46.387,38.086,33.203,41.016,20.020,0
215249.031,34.668,35.156,28.320,30.273,56.641,0
215249.035,30.273,28.809,39.062,31.738,94.238,0
215249.039,40.527,28.320,49.316,48.828,113.281,0
215249.043,43.945,37.598,30.762,50.293,115.723,0
215249.047,40.039,46.875,17.578,48.828,77.637,0
215249.051,33.203,41.992,33.691,45.898,69.336,0
215249.055,33.691,40.039,47.852,45.410,43.457,0
215249.059,50.293,46.875,55.664,61.523,0.488,0
215249.063,57.129,41.504,40.527,66.406,29.785,1
215249.067,46.875,31.738,29.297,47.363,32.715,0
215249.070,43.945,33.203,35.156,34.180,39.062,0
215249.074,42.480,36.133,38.086,39.551,67.383,0
215249.078,41.016,35.645,36.133,42.969,35.645,0
215249.082,43.457,36.133,30.762,42.969,17.578,0
215249.086,42.480,36.621,32.227,40.527,24.414,0
215249.090,33.691,36.133,31.738,34.668,45.410,0
215249.094,29.297,34.668,29.297,30.273,65.918,0
215249.098,30.762,26.855,33.691,31.738,53.711,0
215249.102,33.691,23.438,31.250,35.156,36.133,0
215249.106,36.621,26.855,31.250,44.434,68.848,0
215249.110,42.480,33.691,39.062,55.176,82.520,0
215249.113,49.316,35.645,41.504,51.270,27.832,0
215249.117,52.246,28.809,38.574,54.688,61.035,0
215249.121,41.504,24.902,29.785,59.570,90.332,0
215249.125,21.484,27.344,15.625,38.086,75.195,0
215249.129,25.879,34.180,28.809,26.855,80.566,0
215249.133,35.156,34.180,42.969,34.180,38.086,0
215249.137,40.527,26.855,42.969,43.945,3.906,0
215249.141,41.016,22.949,42.969,41.992,30.762,0
215249.145,31.250,25.391,44.434,33.203,72.754,0
215249.149,31.738,24.414,41.016,36.133,38.086,0
215249.152,39.551,31.738,32.715,50.781,21.973,0
215249.156,36.133,39.551,33.203,61.035,40.039,0
215249.160,36.133,42.480,19.531,53.711,20.508,0
215249.164,33.691,38.574,10.254,42.969,55.176,0
215249.168,28.320,26.855,28.320,35.645,89.355,0
215249.172,44.434,30.273,39.062,47.852,83.984,0
215249.176,48.828,24.414,35.645,57.617,73.730,0
215249.180,39.551,23.438,40.527,47.852,58.594,0
215249.184,39.551,40.527,47.363,37.109,39.062,0
215249.188,40.039,43.945,45.898,30.273,50.293,0
215249.192,39.062,35.156,38.574,29.785,73.242,0
215249.195,39.062,34.180,30.273,31.250,67.383,0
215249.199,35.645,35.156,22.949,27.832,44.922,0
215249.203,37.109,35.645,17.090,26.855,34.668,0
215249.207,46.387,40.527,14.648,41.504,12.695,0
215249.211,41.016,34.180,24.902,44.434,33.691,0
215249.215,26.367,26.367,33.691,27.344,46.387,0
215249.219,28.320,38.574,40.527,21.973,-25.879,0
215249.223,30.762,45.410,42.969,22.461,-44.922,0
215249.227,28.320,36.621,37.109,26.855,-9.277,0
215249.231,36.621,36.621,35.156,30.762,0.977,0
215249.235,43.457,45.410,37.598,31.250,7.324,0
215249.238,35.645,38.086,28.809,25.391,15.625,0
215249.242,33.691,33.691,21.484,27.832,30.273,0
215249.246,37.598,41.504,21.973,39.551,54.688,0
215249.250,37.598,38.086,16.113,36.133,55.664,0
215249.254,35.156,24.902,20.996,25.391,62.012,0
215249.258,36.133,20.508,30.273,24.902,64.941,0
215249.262,51.758,25.391,41.016,32.227,61.035,0
215249.266,67.383,29.297,41.016,35.156,55.664,0
215249.270,49.805,20.508,30.273,34.668,87.402,0
215249.274,36.621,19.043,27.832,34.180,84.961,0
215249.277,47.363,29.785,34.668,39.551,19.531,0
215249.281,50.293,29.297,46.875,49.805,31.738,0
215249.285,50.293,31.250,41.504,54.688,67.871,0
215249.289,37.598,34.180,32.227,43.457,60.547,0
215249.293,30.762,33.203,42.480,32.227,41.504,0
215249.297,30.762,33.203,49.316,32.227,31.250,0
215249.301,22.949,36.621,35.156,26.367,46.387,0
215249.305,27.344,33.691,22.949,23.926,24.902,0
215249.309,28.320,25.879,36.133,20.020,-4.883,0
215249.313,28.320,30.762,54.688,26.855,33.203,0
215249.317,41.016,41.992,57.129,44.922,50.781,0
215249.320,34.180,35.645,39.062,40.039,54.688,0
215249.324,17.578,30.762,28.320,29.297,55.176,0
215249.328,18.555,33.691,32.715,24.902,45.410,0
215249.332,23.438,27.832,22.949,13.672,36.621,0
215249.336,25.391,30.273,19.043,16.602,21.484,0
215249.340,27.832,33.203,31.250,30.762,35.156,0
215249.344,23.438,25.879,28.809,21.973,16.602,0
215249.348,24.414,25.391,19.531,19.531,0.977,0
215249.352,30.273,18.066,18.555,25.391,-59.082,0
215249.356,25.879,17.090,30.273,16.602,-59.082,0
215249.360,23.926,33.691,36.133,22.949,10.254,0
215249.363,21.484,31.250,32.227,23.926,-19.531,0
215249.367,30.762,32.715,38.086,32.715,-2.930,0
215249.371,35.156,42.969,37.598,43.457,26.367,0
215249.375,26.855,36.621,28.809,27.832,28.809,0
215249.379,37.598,37.598,30.762,30.762,21.973,0
215249.383,51.270,40.527,33.691,44.922,-2.441,0
215249.387,48.340,35.156,26.855,42.480,12.695,0
215249.391,40.039,29.785,36.621,34.668,47.852,0
215249.395,38.086,35.156,44.922,30.273,32.715,0
215249.399,45.898,40.039,41.992,38.574,-24.414,0
215249.402,51.758,34.668,42.480,47.363,-7.324,0
215249.406,46.875,32.227,41.992,44.434,10.254,0
215249.410,41.504,27.832,47.363,49.316,-35.156,0
215249.414,46.875,31.250,46.387,43.945,-39.551,0
215249.418,45.410,34.668,43.945,40.039,-15.137,0
215249.422,32.715,30.273,44.434,45.410,-17.090,0
215249.426,27.832,21.973,39.062,44.434,13.184,0
215249.430,36.621,28.320,47.363,40.039,52.734,0
215249.434,40.039,33.203,49.316,32.715,48.828,0
215249.438,38.574,26.367,40.527,34.180,71.289,0
215249.442,36.621,25.879,35.645,30.762,102.539,0
215249.445,26.855,21.973,40.527,28.809,76.660,0
215249.449,26.367,19.531,50.293,36.133,80.078,0
215249.453,24.902,22.949,43.457,31.738,94.727,0
215249.457,15.625,22.461,28.809,25.391,77.637,0
215249.461,19.043,22.461,25.879,28.809,82.031,0
215249.465,25.391,23.926,28.320,36.133,49.316,0
215249.469,32.715,29.297,33.691,40.527,58.105,0
215249.473,33.691,35.156,37.109,34.180,86.914,0
215249.477,32.715,42.969,39.551,31.250,82.520,0
215249.481,37.109,41.016,34.180,31.738,71.777,0
215249.485,33.691,36.133,24.902,25.879,46.875,0
215249.488,29.297,32.715,31.738,24.902,57.129,0
215249.492,33.691,34.668,36.133,34.180,85.938,0
215249.496,32.715,39.062,38.086,34.668,68.848,0
215249.500,30.273,37.109,21.484,31.250,57.617,0
215249.504,38.574,39.551,13.184,41.016,58.105,0
215249.508,35.645,36.621,29.297,38.574,90.332,0
215249.512,30.762,29.297,35.156,32.227,100.586,0
215249.516,36.621,31.250,32.715,37.598,69.336,0
215249.520,48.828,36.133,37.109,43.457,83.984,0
215249.524,51.270,42.480,40.527,41.992,73.242,0
215249.527,41.504,46.875,32.715,41.504,56.152,0
215249.531,46.387,38.574,31.738,45.410,41.992,0
215249.535,44.434,33.203,35.156,38.574,3.906,0
215249.539,33.203,29.297,33.203,30.762,64.453,0
215249.543,28.809,29.785,37.109,20.020,69.824,0
215249.547,31.250,40.039,35.156,22.461,35.645,0
215249.551,35.156,38.574,25.879,37.109,48.340,0
215249.555,35.156,29.785,37.109,40.527,57.617,0
215249.559,41.016,35.156,45.410,38.574,48.828,0
215249.563,43.457,41.504,42.480,33.691,16.113,0
215249.567,41.016,45.898,38.574,40.039,18.066,0
215249.570,41.504,44.922,36.621,49.316,32.227,0
215249.574,39.062,41.504,34.668,45.898,12.207,0
215249.578,38.574,43.945,37.109,38.574,-10.742,0
215249.582,38.086,44.922,46.387,41.016,14.648,0
215249.586,34.180,39.062,41.504,44.434,63.965,0
215249.590,38.086,37.598,30.762,41.016,41.016,0
215249.594,42.969,39.551,33.203,32.227,-7.324,0
215249.598,41.992,38.574,40.039,22.461,28.320,1
215249.602,40.039,40.527,37.598,22.461,-21.973,0
215249.606,35.156,36.621,45.898,32.715,-62.500,0
215249.610,38.574,33.203,38.574,54.199,-18.555,0
215249.613,38.086,34.180,12.207,44.434,-24.414,0
215249.617,30.762,40.527,22.949,24.902,-33.203,0
215249.621,31.250,38.086,39.551,32.227,-39.062,0
215249.625,34.668,34.668,42.969,39.062,-31.250,0
215249.629,28.809,41.992,37.109,44.922,-9.277,0
215249.633,23.926,39.551,26.367,46.875,11.230,0
215249.637,22.949,39.062,28.320,39.062,45.410,0
215249.641,10.742,39.062,38.574,22.949,32.715,0
215249.645,6.836,30.273,38.574,17.090,4.395,0
215249.649,24.414,32.227,31.250,28.320,3.906,0
215249.652,38.574,44.434,29.297,38.086,-9.277,0
215249.656,41.992,44.434,27.832,41.016,30.762,0
215249.660,35.645,25.391,32.227,40.039,13.184,0
215249.664,30.762,24.902,35.156,28.809,-40.527,0
215249.668,42.480,41.992,32.715,33.691,-1.953,0
215249.672,46.387,42.969,31.738,45.410,3.418,0
215249.676,46.387,46.387,37.109,34.668,1.465,0
215249.680,49.805,39.062,40.527,38.086,-11.719,0
215249.684,42.969,36.621,38.574,46.875,-31.738,0
215249.688,38.086,53.223,34.668,41.992,-8.789,0
215249.692,49.805,54.199,33.203,42.480,18.555,0
215249.695,48.828,45.410,37.598,43.945,9.766,0
215249.699,39.551,39.062,39.062,48.340,-22.949,0
215249.703,52.734,40.527,36.133,43.945,-21.484,0
215249.707,53.711,41.992,46.387,37.598,-23.926,0
215249.711,41.504,41.504,38.086,32.227,-20.996,0
215249.715,38.574,40.527,24.902,28.809,23.438,0
215249.719,34.180,26.855,34.180,26.855,54.199,0
215249.723,34.180,20.996,41.992,28.809,37.598,0
215249.727,35.156,29.297,39.551,29.785,-5.371,0
215249.731,33.203,38.086,41.992,36.133,-0.977,0
215249.735,35.156,39.551,37.598,41.504,35.156,0
215249.738,27.344,26.855,30.762,21.973,42.480,0
215249.742,20.996,18.555,35.156,12.695,40.527,0
215249.746,28.809,27.832,32.715,30.273,42.480,0
215249.750,36.621,31.738,26.367,31.738,60.547,0
215249.754,33.203,34.668,20.508,16.113,20.996,0
215249.758,23.926,43.945,22.949,11.230,-20.508,0
215249.762,34.668,44.922,33.203,21.484,14.160,0
215249.766,37.109,40.527,38.086,29.785,28.320,0
215249.770,19.043,32.715,38.086,24.414,9.277,0
215249.774,17.578,24.414,37.598,11.719,-35.156,0
215249.777,27.344,27.344,21.484,22.949,-24.902,0
215249.781,38.086,30.273,18.555,41.016,24.902,0
215249.785,30.273,27.832,25.391,24.902,18.555,0
215249.789,30.273,33.203,39.551,20.996,24.902,0
215249.793,33.203,34.180,44.922,36.133,41.992,0
215249.797,25.879,36.133,34.668,31.250,38.086,0
215249.801,34.180,43.457,24.902,35.156,51.270,0
215249.805,44.922,42.480,20.020,35.645,59.570,0
215249.809,41.504,35.645,26.367,23.926,35.645,0
215249.813,33.691,39.062,32.227,22.461,40.039,0
215249.817,26.367,42.480,34.180,17.090,35.156,0
215249.820,24.414,36.621,33.203,13.672,3.418,0
215249.824,28.809,36.621,37.109,23.438,46.875,0
215249.828,30.273,34.180,40.039,25.879,51.270,0
215249.832,28.809,36.621,31.738,19.043,22.949,0
215249.836,26.367,42.969,29.785,30.762,46.875,0
215249.840,23.926,41.016,25.879,29.785,56.641,0
215249.844,25.391,44.434,20.020,28.320,38.086,0
215249.848,30.762,47.852,27.832,30.273,32.227,0
215249.852,29.785,35.156,24.902,14.648,49.805,0
215249.856,34.668,16.113,37.598,20.020,49.805,0
215249.860,44.922,19.531,48.828,33.691,5.371,0
215249.863,42.480,45.410,40.527,35.645,-25.391,0
215249.867,31.250,55.176,37.598,33.203,23.438,0
215249.871,19.043,42.480,30.762,29.297,33.203,0
215249.875,23.438,35.645,28.809,21.484,9.277,0
215249.879,39.062,38.574,28.320,29.297,15.625,0
215249.883,43.457,34.668,19.531,49.316,34.668,0
215249.887,38.086,33.691,23.438,45.410,62.988,0
215249.891,20.508,33.691,28.809,25.879,34.668,0
215249.895,12.207,25.879,28.809,25.879,17.578,0
215249.899,12.695,10.742,31.738,28.320,35.645,0
215249.902,15.137,16.113,47.852,20.020,9.766,0
215249.906,29.297,39.551,59.570,18.066,-16.602,0
215249.910,29.785,33.691,47.363,24.902,-0.488,0
215249.914,20.508,19.043,41.504,32.715,37.109,0
215249.918,26.367,22.461,42.969,41.016,56.641,0
215249.922,28.320,25.391,35.645,36.621,50.781,0
215249.926,19.531,19.531,26.855,22.461,48.340,0
215249.930,29.785,19.043,15.137,25.879,53.223,0
215249.934,45.898,20.996,25.391,43.457,43.945,0
215249.938,40.039,25.391,42.969,45.898,23.438,0
215249.942,30.273,33.691,44.434,36.133,8.789,0
215249.945,28.320,31.250,42.969,40.039,42.480,0
215249.949,39.062,21.973,37.598,48.340,34.668,0
215249.953,52.246,29.297,37.109,52.246,-31.250,0
215249.957,46.387,48.828,39.062,51.270,-19.043,0
215249.961,32.715,53.711,36.621,46.387,9.277,0
215249.965,34.180,42.480,39.551,49.316,22.949,0
215249.969,43.457,37.109,19.531,40.039,31.738,0
215249.973,38.574,34.668,6.348,32.227,26.367,0
215249.977,32.227,33.203,21.973,30.273,45.410,0
215249.981,29.297,30.273,28.320,20.508,43.945,0
215249.985,40.527,37.598,36.621,28.809,41.992,0
215249.988,47.363,42.969,36.621,38.574,71.289,0
215249.992,43.457,40.039,28.320,37.598,51.270,0
215249.996,45.410,35.645,27.344,33.203,57.617,0
215250.000,34.668,20.508,33.203,30.762,63.965,0
215250.004,25.879,14.648,41.016,32.715,84.473,0
215250.008,36.621,35.156,30.273,33.691,79.102,0
215250.012,43.945,50.293,20.020,38.574,21.484,0
215250.016,44.434,43.457,22.461,51.270,29.785,0
215250.020,45.410,36.133,21.973,54.199,56.152,0
215250.024,46.387,34.668,21.484,45.898,60.059,0
215250.027,49.805,33.203,31.738,52.246,48.340,0
215250.031,39.062,32.715,36.621,52.734,53.711,0
215250.035,32.715,31.738,31.738,38.574,50.293,0
215250.039,30.273,34.180,29.297,30.762,40.527,0
215250.043,38.574,35.645,38.086,32.715,5.371,0
215250.047,41.504,25.879,39.551,34.180,0.488,0
215250.051,27.344,9.766,24.414,33.203,18.066,0
215250.055,34.668,10.742,18.555,40.039,8.301,0
215250.059,38.086,15.137,34.180,36.621,19.531,0
215250.063,33.203,22.949,40.527,38.574,6.836,0
215250.067,29.785,28.809,39.062,48.828,37.598,0
215250.070,25.391,24.414,40.039,44.434,39.062,0
215250.074,25.879,22.949,37.109,35.156,3.418,0
215250.078,32.227,23.438,39.062,45.898,39.551,0
215250.082,38.086,24.902,38.574,55.664,45.410,0
215250.086,34.668,23.926,35.645,41.016,30.762,0
215250.090,33.203,22.461,29.297,42.480,28.809,0
215250.094,38.086,20.996,21.484,51.270,26.855,0
215250.098,42.480,25.391,33.691,48.828,21.973,0
215250.102,35.156,27.832,41.992,39.062,-28.809,0
215250.106,23.926,20.020,39.062,28.809,-54.199,0
215250.110,33.203,15.625,41.016,42.480,-13.672,0
215250.113,39.551,21.973,43.945,50.293,-14.160,0
215250.117,31.250,38.086,37.598,36.621,-18.555,0
215250.121,27.344,42.480,24.414,26.367,24.414,0
215250.125,35.645,42.480,32.227,35.645,21.973,0
215250.129,43.945,42.969,31.738,51.270,16.602,0
215250.133,30.273,35.645,15.137,44.922,11.230,0
215250.137,27.832,34.668,10.254,35.645,1.465,0
215250.141,40.527,42.969,24.902,37.598,7.324,0
215250.145,35.645,50.781,41.016,32.715,-13.672,0
215250.149,22.461,43.945,37.109,17.090,-7.812,0
215250.152,18.066,35.156,30.273,17.090,-1.465,0
215250.156,20.508,30.273,23.438,28.320,31.250,0
215250.160,33.203,33.203,19.043,32.715,48.828,0
215250.164,41.504,35.645,23.926,35.156,58.105,0
215250.168,40.039,32.227,28.320,37.598,62.500,0
215250.172,42.480,35.156,22.949,41.504,8.789,0
215250.176,51.758,37.109,31.250,40.527,73.730,0
215250.180,47.852,34.668,43.945,36.621,127.930,0
215250.184,33.691,36.621,27.344,38.086,83.496,0
215250.188,41.504,43.945,19.531,55.664,60.547,0
215250.192,49.316,45.410,40.527,56.641,34.668,0
215250.195,44.434,32.715,52.734,46.387,24.414,0
215250.199,42.480,19.531,47.852,43.945,53.223,0
215250.203,35.645,17.090,33.203,25.879,75.195,1
215250.207,29.785,27.344,19.043,11.719,46.387,0
215250.211,25.391,30.273,27.832,17.578,62.012,0
215250.215,19.043,23.438,36.621,17.090,50.781,0
215250.219,25.879,18.066,33.691,17.578,46.387,0
215250.223,39.551,19.531,38.574,32.227,72.266,0
215250.227,41.992,33.691,40.527,41.504,40.527,0
215250.231,38.086,39.551,28.809,41.992,39.062,0
215250.235,43.457,35.156,33.203,43.945,60.547,0
215250.238,40.527,28.809,35.156,35.156,36.621,0
215250.242,30.762,29.785,20.996,33.203,0.000,0
215250.246,33.691,40.527,26.367,34.180,6.836,0
215250.250,30.762,34.180,37.598,25.879,1.953,0
215250.254,20.996,16.602,36.621,21.484,-2.441,0
215250.258,28.809,20.020,37.598,29.297,8.301,0
215250.262,35.645,27.344,36.133,37.598,-15.625,0
215250.266,36.621,34.180,29.785,35.645,-15.137,0
215250.270,37.598,39.062,18.555,32.227,5.859,0
215250.274,41.504,31.250,21.973,35.645,14.160,0
215250.277,42.480,26.367,30.762,42.969,14.648,0
215250.281,39.551,33.691,20.996,37.598,-30.273,0
215250.285,41.992,37.598,25.391,26.367,-38.574,0
215250.289,33.203,29.297,29.297,20.996,18.066,0
215250.293,27.832,34.668,26.855,20.996,31.738,0
215250.297,34.180,34.180,39.551,25.391,56.152,0
215250.301,34.668,25.879,37.109,23.438,106.934,0
215250.305,33.691,29.785,23.926,23.438,94.727,0
215250.309,35.645,36.621,23.926,22.461,74.707,0
215250.313,40.039,31.250,22.461,21.484,69.336,0
215250.317,51.758,28.809,21.973,32.227,30.762,0
215250.320,47.363,36.621,26.367,31.738,25.879,0
215250.324,36.621,40.527,25.879,26.367,55.664,0
215250.328,46.387,44.434,27.344,27.344,25.879,0
215250.332,48.340,37.109,31.250,31.250,37.109,0
215250.336,35.156,30.762,30.273,26.367,55.176,0
215250.340,27.832,30.273,35.645,20.508,55.176,0
215250.344,30.762,25.391,33.691,36.621,94.238,0
215250.348,27.344,12.207,19.531,39.062,98.145,0
215250.352,23.926,17.578,24.902,23.926,59.570,0
215250.356,20.996,21.973,31.738,20.996,48.340,0
215250.360,15.625,4.395,13.672,20.020,44.434,0
215250.363,15.137,2.441,13.184,17.090,68.359,0
215250.367,12.695,11.719,33.203,19.531,79.590,0
215250.371,22.461,28.809,31.738,27.832,42.480,0
215250.375,33.691,40.527,30.273,35.156,18.555,0
215250.379,42.969,42.969,44.922,49.805,38.574,0
215250.383,34.180,28.320,43.457,46.875,33.203,0
215250.387,22.461,12.695,26.855,34.180,20.508,0
215250.391,21.973,18.555,18.066,40.527,43.457,0
215250.395,21.484,30.273,26.855,38.086,92.285,0
215250.399,14.648,23.926,35.156,13.672,76.660,0
215250.402,13.672,18.555,30.762,4.395,36.133,0
215250.406,18.555,23.926,23.438,8.301,42.969,0
215250.410,29.297,29.297,24.414,20.508,72.266,0
215250.414,37.598,41.992,35.156,31.250,12.207,0
215250.418,39.062,36.133,35.156,33.203,-50.293,0
215250.422,48.340,32.715,31.250,43.457,-15.625,0
215250.426,40.527,36.621,32.227,37.598,57.617,0
215250.430,32.715,21.973,30.273,27.832,88.379,0
215250.434,41.016,30.273,32.715,31.738,43.457,0
215250.438,38.574,47.852,23.438,27.832,43.457,0
215250.442,28.809,43.945,19.043,27.832,65.430,0
215250.445,24.414,34.668,29.297,23.926,62.012,0
215250.449,29.297,26.855,33.691,27.832,64.941,0
215250.453,28.320,24.414,34.668,39.062,74.707,0
215250.457,20.996,21.484,31.738,30.273,62.500,0
215250.461,18.555,22.949,23.926,31.738,41.992,0
215250.465,25.391,29.785,28.320,43.457,43.945,0
215250.469,27.832,29.297,33.203,38.086,72.266,0
215250.473,35.156,43.945,39.551,36.621,61.523,0
215250.477,43.945,59.082,32.715,37.109,-5.371,0
215250.481,36.133,53.711,22.461,43.457,-5.859,0
215250.485,28.320,43.457,30.762,44.922,34.180,0
215250.488,27.832,32.715,32.715,29.297,34.668,0
215250.492,25.391,31.250,37.598,35.645,24.902,0
215250.496,27.344,26.855,39.062,37.598,42.480,0
215250.500,35.156,25.391,28.320,34.668,55.664,0
215250.504,36.133,30.273,21.484,42.480,40.039,0
215250.508,32.715,29.785,35.645,38.574,-11.230,0
215250.512,37.598,29.297,54.199,31.250,-22.949,0
215250.516,43.457,25.391,55.664,30.273,11.230,0
215250.520,40.527,26.367,48.828,31.250,-6.836,0
215250.524,37.109,34.668,36.133,32.715,-28.809,0
215250.527,36.133,43.945,21.484,32.227,-43.945,0
215250.531,40.039,47.363,16.602,43.457,-42.480,0
215250.535,42.480,45.410,23.926,50.293,-19.043,0
215250.539,34.668,36.133,27.832,40.039,-17.578,0
215250.543,28.809,29.297,25.391,41.016,1.953,0
215250.547,27.344,27.344,27.832,41.992,51.758,0
215250.551,38.086,23.438,41.016,27.344,53.711,0
215250.555,40.039,29.785,53.711,34.668,62.012,0
215250.559,35.156,43.945,47.363,47.852,63.965,0
215250.563,31.250,39.551,33.691,34.668,63.477,0
215250.567,36.621,44.434,37.598,42.480,33.203,0
215250.570,38.574,51.270,39.062,56.152,23.438,0
215250.574,21.484,34.180,17.578,36.133,83.984,0
215250.578,17.090,18.555,19.531,21.484,46.875,0
215250.582,24.902,19.531,29.297,25.879,-0.977,0
215250.586,24.902,25.879,25.879,21.973,33.691,0
215250.590,25.879,35.645,33.203,21.484,76.172,0
215250.594,23.438,41.992,32.715,24.414,53.711,0
215250.598,25.879,39.062,28.320,21.484,30.273,0
215250.602,33.203,45.410,31.250,31.250,41.016,0
215250.606,34.668,50.293,34.668,38.574,37.598,0
215250.610,40.527,44.922,29.785,36.621,16.602,0
215250.613,35.645,34.180,17.578,29.297,21.973,0
215250.617,32.715,34.668,19.043,29.785,72.266,0
215250.621,38.086,34.668,33.691,39.062,79.102,0
215250.625,39.062,32.715,44.922,37.109,59.082,0
215250.629,35.156,36.621,42.969,33.691,51.758,0
215250.633,26.855,31.738,41.992,42.480,40.527,0
215250.637,28.320,25.879,38.086,44.922,39.062,0
215250.641,29.785,22.461,33.691,35.645,51.758,0
215250.645,28.809,16.602,36.621,35.156,10.742,0
215250.649,29.297,20.020,36.133,34.180,-20.996,0
215250.652,32.227,26.367,35.645,35.156,4.883,0
215250.656,39.551,41.016,30.273,45.410,-6.348,0
215250.660,26.855,45.410,25.879,29.785,-24.414,0
215250.664,19.531,32.227,37.109,16.113,7.324,0
215250.668,24.414,27.344,38.574,25.391,-3.906,0
215250.672,30.762,22.461,42.480,36.133,14.648,0
215250.676,35.156,22.461,49.316,31.738,64.453,0
215250.680,38.574,37.109,49.316,32.227,46.387,0
215250.684,38.574,44.434,45.410,39.062,44.922,0
215250.688,31.250,39.551,34.180,30.762,11.719,0
215250.692,35.645,38.574,25.879,31.738,25.391,0
215250.695,34.668,31.250,15.137,34.668,41.992,0
215250.699,36.621,26.367,21.484,36.133,14.648,0
215250.703,42.969,31.738,27.344,25.391,7.812,0
215250.707,35.645,31.738,34.668,19.043,15.137,0
215250.711,17.090,20.508,37.598,24.414,69.824,0
215250.715,17.090,23.926,31.250,22.949,89.355,0
215250.719,30.273,27.832,28.809,35.645,69.336,0
215250.723,25.879,25.391,29.297,46.875,27.832,0
215250.727,22.949,33.691,31.250,38.574,11.719,0
215250.731,33.691,47.852,33.691,46.875,27.832,0
215250.735,41.016,53.223,34.668,56.152,45.898,0
215250.738,36.621,36.621,24.414,45.898,58.105,0
215250.742,35.645,28.320,27.832,53.223,52.246,0
215250.746,37.598,36.621,43.945,48.828,56.152,0
215250.750,32.715,25.879,33.691,28.809,37.109,0
215250.754,25.879,15.137,22.949,16.113,9.766,0
215250.758,28.320,29.297,30.762,22.461,41.016,0
215250.762,28.320,41.504,39.551,40.039,9.766,0
215250.766,25.879,36.621,44.434,31.738,14.160,0
215250.770,28.320,22.949,41.016,18.555,50.781,0
215250.774,28.809,22.461,40.527,30.273,12.207,0
215250.777,32.227,28.320,36.621,28.809,14.648,0
215250.781,28.320,16.602,25.391,13.672,26.367,0
215250.785,28.320,18.066,23.926,17.578,39.551,0
215250.789,36.621,30.762,34.668,28.809,33.203,0
215250.793,28.320,29.785,34.180,26.855,-13.672,1
215250.797,29.297,32.715,32.227,34.668,10.742,0
215250.801,39.062,35.645,36.621,48.828,47.852,0
215250.805,32.715,21.973,34.668,46.875,37.109,0
215250.809,22.949,22.949,31.738,36.133,-2.930,0
215250.813,21.973,27.832,30.762,21.484,5.371,0
215250.817,20.508,23.438,29.297,16.602,24.902,0
215250.820,26.855,31.250,29.785,30.762,17.578,0
215250.824,39.551,35.156,26.367,42.969,49.805,0
215250.828,48.828,36.133,29.785,42.480,51.270,0
215250.832,34.180,33.691,38.574,29.297,70.801,0
215250.836,20.020,25.391,37.109,22.949,68.848,0
215250.840,22.461,21.973,30.762,16.602,24.414,0
215250.844,25.391,30.762,32.715,17.090,4.883,0
215250.848,36.621,40.039,45.410,31.250,20.996,0
215250.852,41.504,44.434,44.922,28.809,20.020,0
215250.856,33.203,41.992,36.133,23.438,-8.789,0
215250.860,24.414,22.461,12.695,31.250,11.719,0
215250.863,28.320,24.902,6.836,28.320,23.926,0
215250.867,35.645,41.992,33.691,24.902,39.062,0
215250.871,32.227,39.062,39.062,32.715,34.668,0
215250.875,33.203,32.715,30.273,39.551,33.691,0
215250.879,41.992,43.945,23.926,39.062,30.762,0
215250.883,38.574,38.574,26.855,33.691,32.715,0
215250.887,27.344,22.949,30.762,23.438,22.461,0
215250.891,29.297,31.250,30.762,22.461,40.527,0
215250.895,33.691,32.715,31.738,23.438,36.133,0
215250.899,32.227,26.855,33.691,18.555,-25.391,0
215250.902,42.969,37.109,35.645,40.039,44.434,0
215250.906,53.223,37.598,29.297,57.617,77.637,0
215250.910,37.598,21.484,29.297,43.945,55.176,0
215250.914,27.344,20.508,34.180,36.621,38.574,0
215250.918,39.062,23.926,38.574,38.574,5.859,0
215250.922,42.969,17.090,36.621,48.340,28.809,0
215250.926,42.969,22.461,14.648,51.270,43.945,0
215250.930,51.270,35.645,16.113,41.016,23.926,0
215250.934,41.992,35.156,34.668,29.297,4.883,0
215250.938,15.137,26.855,30.762,7.324,-6.836,0
215250.942,14.648,29.785,31.738,3.418,-16.113,0
215250.945,22.949,36.621,31.738,19.043,5.859,0
215250.949,18.555,35.156,22.949,23.926,42.480,0
215250.953,17.090,31.250,27.832,22.461,65.918,0
215250.957,21.973,34.668,38.574,34.180,54.688,0
215250.961,19.531,29.297,30.762,31.250,6.348,0
215250.965,25.879,29.785,25.879,33.203,19.531,0
215250.969,40.039,42.969,21.973,41.016,21.973,0
215250.973,39.551,40.039,24.414,36.133,4.883,0
215250.977,37.109,36.133,35.645,36.133,30.273,0
215250.981,37.109,36.133,42.969,34.668,49.805,0
215250.985,36.133,35.156,37.109,44.434,45.898,0
215250.988,39.551,38.086,29.785,42.480,29.785,0
215250.992,30.273,29.785,22.949,29.785,24.414,0
215250.996,24.414,26.367,24.414,25.879,32.227,0
215251.000,28.320,31.250,37.109,19.043,52.246,0
215251.004,28.809,28.809,31.250,18.555,76.660,0
215251.008,24.902,33.691,33.691,28.809,63.477,0
215251.012,22.461,35.645,43.457,32.227,70.312,0
215251.016,27.344,25.879,36.133,34.668,68.848,0
215251.020,33.203,24.414,35.156,42.969,35.645,0
215251.024,33.203,24.902,36.621,41.504,9.277,0
215251.027,36.133,13.672,39.062,48.340,26.855,0
215251.031,23.926,17.090,40.039,40.039,58.594,0
215251.035,8.789,30.273,40.039,25.391,33.691,0
215251.039,20.508,33.203,32.715,36.621,40.039,0
215251.043,27.344,27.832,33.203,40.527,47.852,0
215251.047,20.508,22.949,41.504,33.203,26.855,0
215251.051,25.391,32.715,44.922,38.086,33.203,0
215251.055,28.809,26.367,42.480,41.504,22.949,0
215251.059,24.414,11.719,35.156,38.086,-19.043,0
215251.063,27.832,22.461,38.574,37.109,-31.250,0
215251.067,31.738,30.762,37.109,38.574,15.137,0
215251.070,29.297,12.207,28.320,38.086,30.273,0
215251.074,31.250,7.812,21.973,34.180,-29.297,0
215251.078,32.715,30.762,17.090,33.203,-73.242,0
215251.082,41.504,34.668,30.273,38.574,-34.180,0
215251.086,47.852,23.438,43.457,37.598,7.324,0
215251.090,39.062,34.180,43.457,39.062,-1.465,0
215251.094,29.785,45.898,40.039,38.086,-0.488,0
215251.098,21.484,36.621,31.738,32.715,24.414,0
215251.102,14.160,21.973,27.344,28.320,58.594,0
215251.106,27.344,25.391,28.809,29.785,46.387,0
215251.110,27.832,33.691,17.578,26.855,55.664,0
215251.113,25.391,38.574,26.367,32.715,74.707,0
215251.117,31.250,34.180,42.480,34.180,89.844,0
215251.121,17.578,31.250,38.574,17.578,36.133,0
215251.125,15.137,35.156,36.133,11.719,-21.484,0
215251.129,29.297,44.434,36.133,30.762,24.414,0
215251.133,31.250,41.016,36.621,32.715,40.039,0
215251.137,17.090,23.926,25.879,13.184,19.043,0
215251.141,18.066,27.344,21.973,13.672,78.613,0
215251.145,26.367,36.133,26.367,28.809,71.777,0
215251.149,24.902,32.715,20.508,19.531,5.859,0
215251.152,21.484,24.902,21.484,8.789,33.691,0
215251.156,26.855,26.855,29.297,26.367,66.406,0
215251.160,28.809,33.203,32.227,39.062,57.129,0
215251.164,30.762,43.457,32.715,47.852,43.945,0
215251.168,47.852,55.664,42.969,52.246,34.668,0
215251.172,48.340,42.969,42.480,32.715,35.156,0
215251.176,39.062,25.879,34.180,33.691,48.828,0
215251.180,39.062,20.996,28.809,41.016,5.859,0
215251.184,39.551,24.902,33.691,24.414,-10.254,0
215251.188,29.297,35.645,37.109,35.156,57.129,0
215251.192,21.484,35.645,34.180,42.969,37.109,0
215251.195,27.832,29.785,44.434,34.180,-3.906,0
215251.199,28.809,25.879,42.969,36.133,41.504,0
215251.203,35.156,30.273,30.762,48.828,51.270,0
215251.207,47.363,43.945,34.668,56.641,57.129,0
215251.211,41.992,49.316,42.480,52.246,78.125,0
215251.215,29.297,41.016,39.062,40.039,56.641,0
215251.219,30.273,27.344,34.180,25.391,32.715,0
215251.223,40.527,24.902,39.551,32.715,20.996,0
215251.227,44.922,34.180,37.598,35.156,4.395,0
215251.231,33.691,29.785,27.344,22.461,-10.742,0
215251.235,30.762,29.297,30.273,30.762,18.066,0
215251.238,38.574,37.109,33.691,35.645,27.344,0
215251.242,30.762,41.992,36.621,25.879,27.344,0
215251.246,21.973,27.832,34.180,31.738,48.340,0
215251.250,22.949,22.949,24.902,46.875,62.988,0
215251.254,32.715,41.992,32.227,51.270,57.617,0
215251.258,28.809,44.434,42.480,44.922,49.316,0
215251.262,17.578,40.039,34.180,24.414,37.109,0
215251.266,29.785,45.898,32.227,27.832,41.016,0
215251.270,34.668,47.363,38.574,41.992,45.410,0
215251.274,22.949,35.156,36.621,33.691,31.738,0
215251.277,21.484,33.691,37.598,22.461,15.137,0
215251.281,29.785,36.133,39.551,20.020,28.320,0
215251.285,33.203,32.227,30.273,23.926,46.875,0
215251.289,31.738,31.250,25.391,30.762,19.043,0
215251.293,30.273,37.598,35.156,39.551,32.227,0
215251.297,31.250,35.156,38.086,34.180,56.152,0
215251.301,39.062,31.250,32.227,33.691,52.246,0
215251.305,37.598,38.086,29.297,34.180,43.945,0
215251.309,27.832,35.645,31.738,25.391,41.504,0
215251.313,36.133,23.438,34.668,37.109,37.598,0
215251.317,39.062,24.414,24.414,44.922,15.625,0
215251.320,29.297,34.180,27.344,34.180,-6.348,0
215251.324,22.949,34.668,38.574,31.738,10.742,0
215251.328,31.738,38.574,36.621,43.945,25.391,1
215251.332,43.457,37.598,39.062,50.293,-3.418,0
215251.336,33.203,23.926,47.852,42.480,-21.484,0
215251.340,20.508,15.625,41.992,37.598,41.504,0
215251.344,21.484,15.137,31.250,39.551,96.191,0
215251.348,28.809,22.949,40.039,37.109,78.125,0
215251.352,37.109,23.438,48.828,36.133,57.617,0
215251.356,44.434,14.160,51.270,53.223,51.758,0
215251.360,47.363,21.484,37.109,50.781,46.875,0
215251.363,47.363,40.527,27.832,47.852,47.852,0
215251.367,42.480,42.969,38.086,51.758,49.316,0
215251.371,30.273,35.156,33.203,34.668,24.414,0
215251.375,22.949,35.645,20.020,39.062,18.555,0
215251.379,27.344,34.668,17.578,41.016,37.109,0
215251.383,33.203,27.832,24.414,31.250,54.688,0
215251.387,36.133,30.762,33.691,32.227,73.730,0
215251.391,31.738,34.668,35.645,30.273,68.359,0
215251.395,29.785,33.203,40.039,29.297,25.879,0
215251.399,34.668,41.016,57.129,41.504,10.742,0
215251.402,35.645,39.062,49.316,51.270,23.438,0
215251.406,29.297,21.973,21.484,38.086,-1.953,0
215251.410,38.086,19.043,15.137,25.879,0.000,0
215251.414,44.434,31.738,22.949,34.668,6.348,0
215251.418,40.039,26.855,25.391,34.180,-26.855,0
215251.422,47.852,20.020,23.926,32.715,-17.090,0
215251.426,44.922,28.320,30.762,37.598,8.301,0
215251.430,28.320,26.855,24.902,30.762,11.230,0
215251.434,17.578,24.414,16.113,26.367,13.184,0
215251.438,19.043,18.555,19.043,23.926,8.789,0
215251.442,32.227,25.879,32.715,24.902,46.875,0
215251.445,27.344,31.738,50.293,28.320,53.711,0
215251.449,15.625,22.461,45.410,33.203,41.504,0
215251.453,14.648,15.137,30.273,27.344,35.645,0
215251.457,23.926,23.926,30.273,33.691,53.711,0
215251.461,38.574,44.922,43.457,49.805,80.566,0
215251.465,31.738,43.457,34.668,33.691,40.039,0
215251.469,20.996,33.691,24.902,16.602,43.457,0
215251.473,21.973,28.809,30.273,18.555,28.320,0
215251.477,17.578,20.508,25.391,16.602,-6.836,0
215251.481,4.395,17.578,22.949,10.254,-6.836,0
215251.485,9.766,20.020,31.250,14.648,24.902,0
215251.488,29.785,17.090,35.645,27.832,45.898,0
215251.492,35.645,9.766,20.508,28.320,48.828,0
215251.496,35.156,28.809,16.602,22.949,22.461,0
215251.500,36.621,48.340,34.180,34.668,5.859,0
215251.504,39.062,42.480,39.551,39.062,20.996,0
215251.508,31.738,30.273,36.133,24.414,27.344,0
215251.512,26.367,26.855,38.574,20.020,25.391,0
215251.516,32.715,29.297,37.598,30.762,-1.465,0
215251.520,35.156,33.203,34.668,32.715,31.250,0
215251.524,31.250,21.973,21.484,20.020,77.637,0
215251.527,35.156,17.578,16.113,19.043,50.293,0
215251.531,42.480,27.832,20.996,30.762,40.527,0
215251.535,34.668,34.668,23.438,37.598,26.367,0
215251.539,23.438,34.668,24.902,38.086,15.137,0
215251.543,31.738,30.273,25.879,46.875,8.789,0
215251.547,32.715,32.715,21.973,45.898,0.000,0
215251.551,31.250,42.969,24.414,43.457,16.113,0
215251.555,28.809,36.621,36.133,53.223,7.812,0
215251.559,22.949,18.555,46.387,37.598,-20.508,0
215251.563,20.508,15.625,36.133,21.484,-1.953,0
215251.567,15.625,28.320,20.508,25.879,29.297,0
215251.570,12.207,29.785,30.273,19.043,22.461,0
215251.574,4.395,9.277,38.574,8.301,5.371,0
215251.578,8.789,17.578,35.645,16.113,22.461,0
215251.582,23.926,41.504,26.367,30.273,26.367,0
215251.586,26.367,32.715,20.020,27.832,15.625,0
215251.590,21.484,20.508,22.461,17.090,12.207,0
215251.594,24.414,36.621,30.273,19.531,25.879,0
215251.598,35.645,38.574,29.785,28.809,55.664,0
215251.602,35.645,22.949,18.555,20.020,15.625,0
215251.606,33.203,16.113,20.020,15.625,-34.668,0
215251.610,37.109,19.043,42.480,30.273,-28.320,0
215251.613,39.551,31.250,44.434,42.969,-7.324,0
215251.617,45.898,35.156,33.691,51.758,30.273,0
215251.621,42.480,28.809,38.086,41.016,46.387,0
215251.625,31.250,26.855,34.180,27.344,43.457,0
215251.629,23.438,26.855,27.832,32.227,33.691,0
215251.633,27.344,38.086,35.156,42.969,18.066,0
215251.637,33.203,41.504,39.551,45.898,29.785,0
215251.641,29.785,20.508,38.574,36.621,44.922,0
215251.645,31.738,18.555,30.762,41.992,58.105,0
215251.649,39.551,31.250,26.367,49.316,23.438,0
215251.652,42.480,32.227,38.086,44.434,13.672,0
215251.656,27.344,27.832,45.898,36.133,50.781,0
215251.660,16.113,23.438,41.992,23.438,23.926,0
215251.664,18.555,31.250,33.691,18.555,0.977,0
215251.668,15.137,32.715,27.832,20.508,34.180,0
215251.672,15.625,33.691,25.879,20.996,56.152,0
215251.676,16.113,37.598,28.320,19.043,29.785,0
215251.680,16.602,30.762,27.344,19.531,35.645,0
215251.684,20.508,25.391,22.461,19.043,21.484,0
215251.688,21.973,27.832,22.461,18.555,6.836,0
215251.692,24.414,33.203,20.020,18.555,42.969,0
215251.695,32.227,39.551,15.137,20.996,41.016,0
215251.699,38.574,30.273,16.602,38.086,63.477,0
215251.703,29.297,29.785,25.879,43.457,84.473,0
215251.707,15.625,40.527,32.715,22.949,48.340,0
215251.711,16.113,39.551,38.574,16.602,29.785,0
215251.715,24.414,38.574,35.645,31.250,56.641,0
215251.719,26.855,32.715,27.832,30.273,46.875,0
215251.723,25.391,25.879,32.227,23.438,52.734,0
215251.727,15.625,25.391,36.621,23.926,100.098,0
215251.731,9.766,30.273,33.691,24.902,107.910,0
215251.735,17.090,33.691,28.320,31.250,76.660,0
215251.738,22.949,28.320,29.785,27.832,55.176,0
215251.742,24.414,23.926,27.344,27.344,44.434,0
215251.746,25.391,24.414,26.367,37.598,24.902,0
215251.750,21.973,29.785,32.227,36.133,28.809,0
215251.754,18.555,29.785,33.203,30.762,24.414,0
215251.758,27.832,27.832,33.203,38.574,31.250,0
215251.762,31.738,23.926,23.926,38.574,52.246,0
215251.766,33.691,24.902,19.531,39.551,71.777,0
215251.770,41.016,35.156,24.902,41.992,63.965,0
215251.774,39.551,30.273,24.902,31.250,79.590,0
215251.777,46.387,28.320,29.297,35.156,103.027,0
215251.781,41.992,33.203,36.621,36.133,85.449,0
215251.785,29.297,34.668,27.832,32.715,45.898,0
215251.789,30.273,25.879,25.391,35.645,69.824,0
215251.793,20.508,16.602,26.367,26.855,84.473,0
215251.797,22.461,24.902,24.414,31.250,54.688,0
215251.801,28.809,30.273,33.203,36.133,61.523,0
215251.805,30.762,28.809,33.691,27.832,86.914,0
215251.809,35.645,25.879,30.762,27.832,81.055,0
215251.813,27.344,23.438,30.762,27.832,59.570,0
215251.817,21.484,24.414,26.367,22.461,79.102,0
215251.820,25.879,33.203,31.250,35.156,51.758,0
215251.824,37.109,39.551,36.133,46.387,28.809,0
215251.828,37.109,28.320,36.133,33.203,35.156,0
215251.832,29.785,19.531,43.945,26.367,38.574,0
215251.836,34.180,21.973,41.504,41.016,65.918,0
215251.840,35.156,21.973,33.691,51.270,73.242,0
215251.844,26.367,11.719,32.227,33.203,41.992,0
215251.848,22.949,18.555,24.902,21.973,12.695,0
215251.852,22.949,31.738,26.367,29.297,46.387,0
215251.856,29.785,27.832,32.715,33.203,44.922,0
215251.860,36.133,26.367,32.715,34.668,30.762,0
215251.863,33.691,30.273,32.715,31.250,49.316,0
215251.867,32.227,38.086,30.762,27.832,17.578,0
215251.871,34.180,41.992,32.227,27.832,-24.902,0
215251.875,37.598,45.410,40.527,36.133,13.672,0
215251.879,35.645,41.016,36.621,39.551,38.086,0
215251.883,24.414,24.902,32.227,29.785,14.648,0
215251.887,20.508,17.090,36.621,27.832,2.930,0
215251.891,24.902,26.367,35.645,29.785,4.883,0
215251.895,19.043,29.785,25.879,21.973,43.945,1
215251.899,17.090,24.414,21.973,23.438,40.527,0
215251.902,21.484,26.855,34.180,25.391,-8.301,0
215251.906,21.484,32.715,34.668,15.625,-26.367,0
215251.910,21.973,36.621,23.438,21.973,-0.977,0
215251.914,24.414,26.855,14.160,23.438,-1.953,0
215251.918,35.156,33.203,20.996,33.691,-13.184,0
215251.922,37.109,46.387,40.039,42.480,14.648,0
215251.926,32.227,33.691,41.504,28.320,38.086,0
215251.930,28.809,19.043,35.156,21.973,30.273,0
215251.934,22.949,14.648,34.668,19.043,-46.875,0
215251.938,21.484,22.949,35.645,18.555,-29.785,0
215251.942,27.344,33.691,40.527,28.320,41.504,0
215251.945,23.926,26.855,38.574,26.855,21.973,0
215251.949,23.438,14.648,30.762,28.809,14.160,0
215251.953,30.762,16.113,27.344,39.551,9.766,0
215251.957,38.574,34.668,33.691,45.898,28.320,0
215251.961,37.109,36.133,35.645,35.645,46.387,0
215251.965,33.203,27.832,29.297,29.785,49.805,0
215251.969,41.016,41.016,35.156,36.133,47.363,0
215251.973,40.527,46.387,46.387,39.062,38.574,0
215251.977,41.992,37.598,38.574,40.039,-9.766,0
215251.981,43.457,35.645,30.762,36.621,-21.484,0
215251.985,41.504,30.273,32.715,36.621,30.273,0
215251.988,36.133,20.996,36.621,37.598,60.059,0
215251.992,20.996,22.949,33.203,26.367,63.965,0
215251.996,21.973,27.832,31.738,25.391,87.891,0
215252.000,39.551,38.574,32.715,44.922,83.984,0
215252.004,43.457,42.969,35.156,45.898,28.320,0
215252.008,35.156,34.180,34.668,30.762,20.996,0
215252.012,39.551,39.551,27.344,39.551,44.922,0
215252.016,39.062,41.016,27.344,39.062,66.406,0
215252.020,27.832,25.879,36.133,25.879,80.078,0
215252.024,23.926,10.742,38.086,20.020,35.156,0
215252.027,21.973,9.766,35.645,26.855,23.926,0
215252.031,24.902,16.113,23.926,38.086,36.133,0
215252.035,31.738,19.043,18.555,28.809,28.809,0
215252.039,43.457,33.691,35.156,28.809,69.336,0
215252.043,45.898,42.480,35.156,39.551,46.387,0
215252.047,36.621,38.086,22.949,36.133,8.789,0
215252.051,34.180,23.438,24.414,31.250,9.277,0
215252.055,34.180,18.555,27.832,31.250,2.930,0
215252.059,38.086,33.691,37.598,35.156,13.672,0
215252.063,36.621,38.086,47.363,32.715,27.344,0
215252.067,35.156,23.926,38.574,26.367,15.625,0
215252.070,40.039,22.949,34.668,28.320,0.977,0
215252.074,32.227,37.598,41.504,39.062,24.414,0
215252.078,25.879,37.109,40.039,42.969,51.758,0
215252.082,31.738,38.086,38.574,40.527,28.809,0
215252.086,34.180,35.645,30.273,37.109,40.039,0
215252.090,32.227,26.855,23.438,32.227,83.984,0
215252.094,35.156,23.438,32.715,26.855,80.078,0
215252.098,34.668,23.438,29.297,33.691,37.598,0
215252.102,28.320,34.180,19.043,40.039,58.105,0
215252.106,31.738,40.039,20.996,30.273,58.105,0
215252.110,40.039,44.922,18.555,37.598,30.273,0
215252.113,40.039,47.852,22.949,38.086,27.832,0
215252.117,34.668,42.480,30.273,22.949,18.555,0
215252.121,37.598,37.109,30.273,31.250,-13.672,0
215252.125,39.551,37.598,29.785,46.387,-32.227,0
215252.129,41.504,36.133,28.809,46.875,-65.918,0
215252.133,44.922,26.367,37.109,41.504,-41.504,0
215252.137,42.480,23.438,44.922,32.715,12.207,0
215252.141,37.109,28.809,39.551,25.879,22.461,0
215252.145,36.133,37.109,33.691,31.738,22.949,0
215252.149,43.457,38.086,29.785,40.527,32.715,0
215252.152,41.992,29.785,24.414,41.016,58.594,0
215252.156,31.250,23.926,21.973,23.438,7.812,0
215252.160,28.809,35.645,21.973,16.602,7.324,0
215252.164,35.645,48.340,29.297,46.875,58.105,0
215252.168,32.227,35.645,31.250,43.457,36.621,0
215252.172,20.020,7.324,23.926,16.113,42.480,0
215252.176,24.902,18.066,26.367,28.320,62.988,0
215252.180,31.738,38.574,39.551,38.574,56.152,0
215252.184,23.438,31.738,47.363,26.367,27.344,0
215252.188,13.672,19.043,40.527,14.160,10.742,0
215252.192,21.973,19.043,31.738,24.902,42.969,0
215252.195,45.410,31.250,35.645,46.875,56.641,0
215252.199,34.180,30.273,32.715,40.527,22.949,0
215252.203,18.555,28.320,20.508,35.156,-13.672,0
215252.207,25.879,27.832,23.926,42.480,12.695,0
215252.211,19.531,21.973,29.785,30.762,63.965,0
215252.215,14.648,25.879,30.762,29.785,62.500,0
215252.219,26.855,28.809,36.621,37.109,38.086,0
215252.223,37.598,24.414,39.062,37.109,20.020,0
215252.227,36.133,24.414,30.273,30.762,34.180,0
215252.231,35.645,24.902,21.973,27.344,27.832,0
215252.235,39.062,18.555,25.391,29.785,49.805,0
215252.238,43.457,17.578,32.715,37.109,63.965,0
215252.242,51.270,41.992,37.109,56.152,70.801,0
215252.246,51.270,56.152,31.738,55.664,48.828,0
215252.250,42.480,44.922,26.855,35.156,15.625,0
215252.254,37.598,29.297,32.715,25.879,41.504,0
215252.258,37.598,24.902,39.551,25.391,-4.883,0
215252.262,41.992,31.250,41.992,31.738,-15.625,0
215252.266,42.480,28.320,31.738,36.621,29.297,0
215252.270,43.457,35.156,12.695,41.992,28.809,0
215252.274,45.410,35.156,15.137,46.387,31.250,0
215252.277,44.922,22.461,18.555,47.852,27.344,0
215252.281,41.504,41.016,24.902,42.969,-10.254,0
215252.285,25.391,54.688,36.133,18.066,-3.906,0
215252.289,19.043,45.898,39.062,9.766,4.883,0
215252.293,23.438,36.621,43.945,18.555,3.906,0
215252.297,25.879,35.645,39.062,24.902,-18.555,0
215252.301,37.598,39.062,30.762,35.156,-20.508,0
215252.305,41.992,41.016,19.531,33.691,-12.207,0
215252.309,38.086,40.039,15.625,27.344,-21.484,0
215252.313,39.551,39.551,20.996,17.578,32.227,0
215252.317,48.340,43.457,24.902,21.973,69.824,0
215252.320,49.316,42.480,20.508,42.480,38.574,0
215252.324,40.527,34.668,14.160,37.109,40.039,0
215252.328,32.227,38.086,26.855,17.090,33.691,0
215252.332,18.066,41.992,31.738,8.789,43.945,0
215252.336,15.625,33.203,29.785,13.672,28.809,0
215252.340,26.367,19.531,28.320,17.578,6.348,0
215252.344,39.551,18.066,27.832,22.949,20.020,0
215252.348,39.551,27.344,31.250,27.832,35.645,0
215252.352,31.250,32.227,30.762,16.602,40.527,0
215252.356,30.273,31.250,33.691,15.137,29.297,0
215252.360,27.344,35.645,28.320,25.879,41.016,0
215252.363,28.320,32.227,22.461,27.832,58.594,0
215252.367,33.203,22.949,26.855,26.367,40.527,0
215252.371,34.180,28.809,31.250,36.621,31.738,0
215252.375,21.484,23.926,35.645,27.832,70.312,0
215252.379,19.531,20.508,35.645,17.090,62.012,0
215252.383,29.297,25.391,33.203,25.879,24.902,0
215252.387,31.738,20.508,26.855,26.367,41.992,0
215252.391,39.551,25.879,37.109,35.156,55.176,0
215252.395,37.598,37.598,45.410,48.340,58.105,0
215252.399,33.691,33.691,30.273,32.715,17.578,0
215252.402,36.621,30.762,28.809,26.367,7.812,0
215252.406,35.645,32.227,42.969,34.180,26.367,0
215252.410,30.273,26.855,45.898,29.297,39.551,0
215252.414,31.738,29.785,36.133,31.250,28.320,0
215252.418,38.574,35.645,30.273,48.828,26.367,0
215252.422,33.203,27.832,21.973,46.875,49.316,0
215252.426,26.855,25.391,22.949,26.855,58.105,0
215252.430,28.320,30.273,26.855,33.203,27.832,0
215252.434,32.715,32.227,18.066,38.574,19.043,0
215252.438,35.156,33.203,20.020,23.926,29.297,0
215252.442,31.738,34.668,24.414,18.555,45.898,0
215252.445,37.598,41.992,30.273,25.879,47.363,0
215252.449,46.387,44.434,39.551,38.086,50.781,0
215252.453,47.852,37.598,39.062,41.992,67.383,0
215252.457,40.039,25.879,32.227,34.180,41.016,0
215252.461,31.250,24.902,22.461,20.020,45.898,0
215252.465,41.504,44.434,25.391,31.738,70.312,0
215252.469,48.340,44.922,25.391,47.852,57.129,0
215252.473,47.852,31.250,19.043,51.270,39.551,0
215252.477,45.410,26.367,18.066,42.480,35.645,0
215252.481,42.969,30.762,21.973,32.227,35.156,0
215252.485,37.598,39.062,34.180,35.156,50.781,0
215252.488,41.504,37.598,40.039,40.039,38.086,0
215252.492,49.316,35.156,34.180,50.781,27.344,0
215252.496,42.480,41.504,29.785,57.617,24.902,1
215252.500,25.879,30.762,26.367,50.293,0.977,0
215252.504,23.438,21.484,34.668,46.875,-0.977,0
215252.508,25.879,20.996,33.203,41.992,11.719,0
215252.512,33.691,17.578,15.625,45.410,15.625,0
215252.516,46.387,26.855,31.738,47.363,3.906,0
215252.520,33.691,20.508,36.621,31.738,21.484,0
215252.524,23.438,7.324,31.250,34.180,48.828,0
215252.527,18.066,10.254,37.598,33.691,26.855,0
215252.531,16.113,9.277,39.551,32.715,4.395,0
215252.535,25.879,20.020,36.133,42.480,0.977,0
215252.539,20.996,27.832,28.809,35.645,40.039,0
215252.543,17.578,23.438,29.785,31.250,70.312,0
215252.547,24.414,27.832,37.598,27.832,71.289,0
215252.551,27.832,30.273,35.156,21.484,89.355,0
215252.555,27.344,25.879,33.203,24.414,80.566,0
215252.559,32.715,22.949,33.203,36.621,40.527,0
215252.563,35.645,21.973,23.926,36.133,70.312,0
215252.567,28.809,21.973,26.855,25.879,74.707,0
215252.570,24.414,28.320,35.156,22.461,60.547,0
215252.574,33.203,29.785,40.039,33.203,63.477,0
215252.578,33.203,17.090,35.645,32.715,-0.488,0
215252.582,21.484,14.160,30.273,18.555,-0.977,0
215252.586,28.809,27.832,40.039,33.203,51.270,0
215252.590,30.273,29.785,37.109,31.250,18.555,0
215252.594,24.414,22.949,24.414,20.020,-13.184,0
215252.598,29.297,31.738,16.113,27.832,9.766,0
215252.602,32.227,41.504,26.367,27.344,22.949,0
215252.606,32.715,38.574,32.227,30.762,18.066,0
215252.610,35.156,24.902,18.555,36.133,22.461,0
215252.613,44.922,30.762,26.367,37.109,52.246,0
215252.617,45.410,42.480,43.945,36.621,63.965,0
215252.621,30.762,41.016,38.086,27.344,36.621,0
215252.625,20.508,37.109,29.297,19.531,30.273,0
215252.629,24.414,30.762,29.297,26.855,65.918,0
215252.633,32.715,31.738,21.484,38.574,55.664,0
215252.637,41.992,41.016,19.531,43.457,35.645,0
215252.641,33.203,34.668,20.996,30.762,9.277,0
215252.645,16.113,24.902,19.531,14.160,12.207,0
215252.649,18.555,22.461,24.902,11.719,22.461,0
215252.652,27.344,25.391,32.227,27.344,16.113,0
215252.656,25.879,32.227,24.414,30.762,45.410,0
215252.660,27.344,32.715,27.344,23.926,34.668,0
215252.664,35.156,35.645,44.434,26.855,15.137,0
215252.668,30.273,23.926,35.645,21.973,24.902,0
215252.672,27.344,15.137,27.832,27.344,14.160,0
215252.676,27.344,20.996,42.480,32.715,33.203,0
215252.680,28.320,23.438,43.457,37.598,21.484,0
215252.684,32.227,25.391,37.109,37.598,-9.277,0
215252.688,21.973,27.832,30.762,29.785,18.555,0
215252.692,19.531,25.879,26.855,36.621,40.527,0
215252.695,24.902,27.344,34.180,41.504,24.902,0
215252.699,18.555,28.809,34.668,34.180,9.766,0
215252.703,16.602,19.531,31.250,30.273,19.043,0
215252.707,23.926,21.484,42.969,33.203,37.109,0
215252.711,26.855,32.715,46.875,35.156,63.477,0
215252.715,20.508,29.297,36.133,17.090,55.664,0
215252.719,6.348,21.973,33.691,0.977,37.598,0
215252.723,7.324,28.809,39.062,9.766,27.344,0
215252.727,20.508,36.133,42.969,21.973,11.230,0
215252.731,20.996,35.645,40.039,18.066,18.555,0
215252.735,16.602,38.574,30.273,16.113,21.484,0
215252.738,22.949,42.969,28.809,20.020,36.621,0
215252.742,20.020,38.574,29.297,14.648,13.672,0
215252.746,12.695,33.691,28.809,11.719,-10.742,0
215252.750,17.090,37.598,28.809,12.207,23.926,0
215252.754,5.859,42.480,24.902,0.488,3.906,0
215252.758,-13.672,41.992,22.461,-22.461,7.324,0
215252.762,-5.371,46.875,23.438,-22.461,15.625,0
215252.766,-0.977,55.664,21.484,-17.090,29.785,0
215252.770,-9.766,52.246,14.160,-21.973,25.879,0
215252.774,-18.066,42.480,14.648,-31.738,-21.973,0
215252.777,-17.090,47.363,28.809,-26.855,-29.297,0
215252.781,-13.672,54.199,30.762,-20.508,9.766,0
215252.785,-26.855,63.965,23.926,-31.738,26.367,0
215252.789,-37.598,74.707,27.344,-29.297,41.016,0
215252.793,-44.922,70.312,23.926,-40.039,44.922,0
215252.797,-53.711,64.453,29.785,-60.059,47.852,0
215252.801,-65.430,47.852,28.809,-70.312,67.383,0
215252.805,-61.035,44.434,24.414,-66.406,42.969,0
215252.809,-52.246,53.223,37.598,-57.617,2.930,0
215252.813,-56.641,44.434,25.391,-64.941,24.414,0
215252.817,-55.664,40.527,16.113,-61.035,17.090,0
215252.820,-53.223,44.434,22.461,-51.270,13.672,0
215252.824,-46.875,41.016,15.625,-41.016,60.547,0
215252.828,-28.320,34.668,20.020,-24.414,50.781,0
215252.832,-21.973,35.156,34.668,-21.484,20.508,0
215252.836,-20.996,38.574,34.668,-21.973,33.691,0
215252.840,-8.789,38.086,31.738,-11.719,41.992,0
215252.844,-3.418,37.598,26.367,-1.465,7.324,0
215252.848,-1.465,34.180,21.484,0.000,25.391,0
215252.852,3.906,32.715,27.344,-3.906,75.684,0
215252.856,21.484,39.551,41.992,11.719,82.031,0
215252.860,27.832,28.809,43.945,21.484,46.875,0
215252.863,14.160,16.602,34.668,14.160,35.156,0
215252.867,16.113,20.996,34.668,18.555,10.742,0
215252.871,28.320,19.531,32.227,30.762,43.457,0
215252.875,34.180,21.484,22.949,40.039,88.379,0
215252.879,41.992,26.855,33.203,53.223,41.016,0
215252.883,41.504,27.344,42.480,54.199,25.879,0
215252.887,38.574,22.949,44.434,53.711,23.926,0
215252.891,35.645,11.719,45.898,54.688,41.992,0
215252.895,29.785,6.836,37.598,46.875,50.293,0
215252.899,31.250,12.207,41.504,39.551,39.062,0
215252.902,30.762,17.090,45.410,41.504,18.555,0
215252.906,27.344,21.973,38.574,37.598,18.066,0
215252.910,32.227,18.555,39.551,41.016,34.180,0
215252.914,43.457,22.949,34.668,50.781,40.039,0
215252.918,54.199,35.156,20.508,53.711,15.625,0
215252.922,62.500,41.016,23.438,61.523,0.488,0
215252.926,57.129,35.156,27.344,56.152,21.973,0
215252.930,53.223,24.902,15.137,54.199,21.484,0
215252.934,64.941,27.344,15.137,60.059,42.969,0
215252.938,74.707,39.551,36.621,70.312,59.570,0
215252.942,62.500,40.527,37.109,57.617,42.969,0
215252.945,49.805,27.344,23.926,38.086,41.016,0
215252.949,49.805,24.902,15.137,41.504,20.508,0
215252.953,49.316,35.645,16.602,40.527,-1.465,0
215252.957,54.688,30.762,21.973,43.457,26.367,0
215252.961,60.547,22.949,21.484,51.270,30.273,0
215252.965,60.059,33.691,20.996,49.805,20.996,0
215252.969,56.641,34.668,22.949,50.293,43.457,0
215252.973,56.641,31.250,28.809,57.617,77.148,0
215252.977,61.035,41.016,37.109,74.219,49.316,0
215252.981,67.871,39.062,45.410,81.055,0.000,0
215252.985,66.895,24.414,34.668,70.312,36.133,0
215252.988,59.082,22.461,26.855,64.941,1.953,0
215252.992,46.387,20.996,27.344,46.875,-36.621,0
215252.996,49.805,20.020,30.273,43.457,-13.184,0
215253.000,65.918,20.508,37.598,57.617,-14.648,0
215253.004,68.848,25.879,38.574,69.336,-5.859,0
215253.008,61.035,29.785,34.668,70.801,26.367,0
215253.012,53.711,23.438,28.320,58.594,13.184,0
215253.016,56.152,18.066,36.133,55.664,29.297,0
215253.020,54.199,18.555,48.828,60.547,68.359,0
215253.024,49.805,15.625,46.387,58.105,41.992,0
215253.027,52.734,10.742,35.645,50.781,26.367,0
215253.031,50.293,13.672,31.250,46.875,59.570,0
215253.035,41.504,18.555,35.156,45.898,52.246,0
215253.039,46.387,23.926,37.109,60.059,41.016,0
215253.043,53.711,26.367,37.109,71.777,12.695,0
215253.047,47.363,16.602,39.062,61.035,1.953,0
215253.051,46.387,12.695,41.504,48.828,37.109,0
215253.055,42.969,20.996,39.551,48.828,59.082,0
215253.059,39.062,24.902,31.250,49.316,60.059,0
215253.063,42.480,22.949,34.180,52.246,39.062,0
215253.067,51.270,25.879,50.781,57.617,51.758,0
215253.070,53.711,31.250,56.641,55.664,59.082,0
215253.074,41.992,35.645,38.086,48.340,35.645,0
215253.078,39.062,34.180,37.598,36.621,43.945,0
215253.082,38.574,23.926,35.156,32.227,62.988,0
215253.086,39.062,24.414,22.461,38.574,49.805,0
215253.090,39.062,28.809,26.855,42.480,18.066,0
215253.094,32.227,27.832,26.367,37.109,1.953,0
215253.098,33.691,42.969,23.926,38.574,53.223,1
215253.102,41.504,46.875,22.949,41.992,66.406,0
215253.106,41.992,33.691,25.391,31.250,47.363,0
215253.110,41.504,33.691,23.438,41.992,85.938,0
215253.113,49.316,47.363,20.996,54.688,52.246,0
215253.117,59.082,47.852,16.602,49.805,29.785,0
215253.121,51.758,29.785,11.230,41.504,61.035,0
215253.125,51.758,35.156,22.461,43.945,50.293,0
215253.129,56.641,49.316,29.297,45.410,61.523,0
215253.133,41.504,32.715,23.926,34.668,66.895,0
215253.137,36.621,23.438,25.391,31.738,-29.297,0
215253.141,46.875,35.645,34.180,36.621,-54.688,0
215253.145,53.223,48.340,36.621,44.922,-9.277,0
215253.149,56.641,48.828,39.062,47.363,-32.715,0
215253.152,56.152,38.086,36.133,55.176,4.883,0
215253.156,47.363,31.250,22.461,50.781,47.363,0
215253.160,34.668,20.996,13.184,30.762,32.715,0
215253.164,35.156,15.625,13.672,41.504,33.203,0
215253.168,43.945,31.738,40.039,49.316,54.688,0
215253.172,40.039,30.273,46.875,31.250,79.102,0
215253.176,35.156,9.277,33.203,35.645,56.152,0
215253.180,26.855,7.812,32.715,36.621,41.504,0
215253.184,27.832,17.578,39.062,39.062,22.949,0
215253.188,40.039,22.949,38.086,43.945,7.812,0
215253.192,36.621,23.438,38.086,31.250,18.555,0
215253.195,35.156,20.020,43.945,40.039,35.645,0
215253.199,43.457,26.367,28.809,60.059,44.922,0
215253.203,29.785,25.391,21.973,41.504,22.461,0
215253.207,12.695,13.184,35.156,16.113,0.977,0
215253.211,18.555,12.695,35.645,20.508,29.297,0
215253.215,31.738,16.602,44.434,34.180,53.223,0
215253.219,20.020,5.859,48.340,23.926,15.625,0
215253.223,11.230,12.207,33.691,12.695,13.184,0
215253.227,21.484,29.297,30.273,29.785,23.926,0
215253.231,29.785,29.785,41.016,41.504,8.789,0
215253.235,34.180,29.785,34.668,35.645,6.836,0
215253.238,35.156,33.691,28.809,35.156,-4.883,0
215253.242,40.039,34.180,32.227,43.457,10.254,0
215253.246,49.316,36.133,33.691,57.129,42.969,0
215253.250,44.922,39.062,28.320,48.828,47.363,0
215253.254,33.203,25.391,22.461,25.391,42.480,0
215253.258,29.785,8.301,30.273,20.020,71.289,0
215253.262,23.438,10.254,33.203,13.672,77.637,0
215253.266,24.414,14.160,29.785,16.113,75.684,0
215253.270,30.762,19.531,32.227,27.344,48.828,0
215253.274,34.668,36.133,33.691,32.227,18.555,0
215253.277,45.410,42.969,31.738,42.480,43.945,0
215253.281,49.805,47.363,26.367,38.574,40.527,0
215253.285,38.086,43.457,13.672,20.996,-9.277,0
215253.289,33.203,29.785,15.137,23.926,18.066,0
215253.293,40.527,29.297,22.461,38.086,21.484,0
215253.297,41.504,29.297,23.926,37.109,42.480,0
215253.301,46.875,36.133,29.297,27.344,73.242,0
215253.305,42.969,36.621,31.250,28.809,49.805,0
215253.309,37.598,28.320,26.855,35.156,38.086,0
215253.313,41.016,32.715,22.949,40.527,67.871,0
215253.317,30.762,33.203,32.227,27.344,64.453,0
215253.320,29.785,38.574,34.668,24.902,41.016,0
215253.324,46.875,51.758,32.227,46.875,67.383,0
215253.328,40.527,34.668,32.715,32.715,29.297,0
215253.332,28.320,22.949,28.320,19.043,10.254,0
215253.336,29.785,26.855,21.973,25.391,40.039,0
215253.340,25.879,14.648,18.066,33.691,32.715,0
215253.344,32.227,23.926,13.184,41.504,45.410,0
215253.348,41.504,40.527,29.297,37.598,49.316,0
215253.352,27.832,31.738,50.781,38.086,59.082,0
215253.356,25.391,27.344,37.598,43.945,-4.883,0
215253.360,34.668,27.832,33.203,43.457,-53.711,0
215253.363,34.668,25.879,47.852,39.551,-7.324,0
215253.367,34.180,27.344,44.434,37.598,12.207,0
215253.371,27.344,18.066,36.621,28.809,-14.648,0
215253.375,26.855,17.090,39.551,24.902,-66.406,0
215253.379,28.809,20.020,38.574,25.879,-48.340,0
215253.383,30.273,22.949,37.109,27.344,3.418,0
215253.387,35.156,26.855,30.273,32.715,-2.930,0
215253.391,41.016,27.344,32.715,41.016,0.000,0
215253.395,49.316,28.809,31.250,54.199,22.461,0
215253.399,51.758,33.691,31.250,59.082,56.152,0
215253.402,45.410,35.156,37.598,53.223,117.676,0
215253.406,45.410,29.785,39.062,48.340,105.469,0
215253.410,48.828,33.203,44.922,48.340,75.195,0
215253.414,51.270,38.086,44.922,55.176,79.590,0
215253.418,36.621,34.668,40.039,39.062,53.711,0
215253.422,15.625,25.879,25.391,4.395,71.777,0
215253.426,14.648,18.555,19.043,9.277,97.656,0
215253.430,18.066,21.484,20.996,21.484,84.961,0
215253.434,25.391,41.016,21.484,17.090,84.961,0
215253.438,31.250,50.293,28.320,21.973,62.500,0
215253.442,34.180,41.992,27.832,21.973,47.852,0
215253.445,33.203,37.598,25.879,19.043,44.922,0
215253.449,25.879,33.203,26.855,20.508,10.742,0
215253.453,27.832,28.809,28.809,32.227,57.617,0
215253.457,35.645,42.480,29.785,42.480,87.891,0
215253.461,35.645,47.363,23.926,37.109,67.383,0
215253.465,25.879,29.785,4.395,23.438,51.270,0
215253.469,20.996,23.926,11.230,24.902,22.461,0
215253.473,25.391,32.227,31.250,31.738,3.418,0
215253.477,19.531,32.715,32.227,25.391,0.000,0
215253.481,20.508,28.320,28.809,26.367,-6.836,0
215253.485,26.855,29.297,14.648,29.785,9.766,0
215253.488,27.344,27.832,20.508,33.691,21.484,0
215253.492,43.457,31.250,38.086,43.945,5.371,0
215253.496,39.551,30.762,34.180,45.898,60.547,0
215253.500,19.531,27.344,23.438,30.762,100.586,0
215253.504,25.879,28.809,33.203,20.020,47.363,0
215253.508,39.062,28.809,39.062,33.203,20.020,0
215253.512,33.691,25.391,24.414,33.203,32.715,0
215253.516,16.113,21.484,14.160,20.996,11.230,0
215253.520,11.719,20.508,8.301,19.531,2.441,0
215253.524,21.973,25.879,10.254,20.020,1.465,0
215253.527,36.621,28.320,16.113,31.738,35.156,0
215253.531,40.039,20.996,16.113,37.109,40.039,0
215253.535,49.316,20.996,25.879,49.316,25.391,0
215253.539,50.781,20.508,24.902,53.711,36.621,0
215253.543,28.320,17.090,20.996,30.273,18.066,0
215253.547,25.879,26.855,33.691,23.438,30.273,0
215253.551,39.062,35.156,39.551,28.809,34.180,0
215253.555,42.480,21.973,37.598,35.156,24.414,0
215253.559,46.387,18.066,35.645,47.852,21.973,0
215253.563,50.293,30.762,28.320,48.828,8.301,0
215253.567,43.945,27.344,14.648,38.574,-12.695,0
215253.570,34.180,27.344,10.742,32.227,-42.969,0
215253.574,29.297,38.574,26.367,29.785,0.977,0
215253.578,29.785,37.598,29.785,30.273,40.527,0
215253.582,33.203,28.809,24.414,32.715,-3.906,0
215253.586,43.945,35.645,30.762,43.945,6.348,0
215253.590,50.293,48.340,33.203,52.734,70.312,0
215253.594,53.223,46.875,39.551,54.688,63.965,0
215253.598,47.363,27.344,35.156,43.457,39.551,0
215253.602,32.715,22.949,27.832,26.367,5.859,0
215253.606,35.645,42.480,34.180,22.949,-10.742,0
215253.610,38.574,31.250,25.391,33.203,-3.906,0
215253.613,40.039,26.367,19.531,39.062,-11.230,0
215253.617,42.480,41.504,27.344,32.227,-11.230,0
215253.621,41.504,38.574,30.762,32.715,12.695,0
215253.625,42.480,34.180,32.227,28.809,35.645,0
215253.629,35.156,35.645,23.438,30.762,33.203,0
215253.633,34.180,41.504,16.602,37.109,25.879,0
215253.637,40.039,33.691,25.879,40.527,31.738,0
215253.641,40.527,25.391,30.762,40.527,27.832,0
215253.645,45.898,29.785,33.691,38.086,-6.836,0
215253.649,55.664,48.828,44.434,57.129,-34.180,0
215253.652,47.363,63.477,36.621,63.477,-20.508,0
215253.656,29.297,43.457,18.066,25.391,-29.785,0
215253.660,25.391,29.785,16.602,19.531,-22.461,0
215253.664,29.297,36.621,31.250,41.992,25.879,0
215253.668,28.809,27.344,44.434,30.762,34.180,0
215253.672,30.273,26.367,39.551,20.020,40.527,0
215253.676,31.250,34.668,37.109,21.484,7.812,0
215253.680,20.508,30.273,50.781,26.855,1.953,0
215253.684,27.344,32.715,57.617,39.062,62.988,0
215253.688,32.715,40.039,42.480,42.969,72.754,0
215253.692,20.996,28.809,35.156,29.297,24.902,0
215253.695,16.602,16.113,42.480,29.785,20.996,0
215253.699,21.484,5.859,39.062,31.738,44.434,0
215253.703,26.367,9.277,41.504,25.391,-32.227,0
215253.707,28.320,24.414,45.410,32.715,-9.277,0
215253.711,28.809,32.715,41.992,42.480,75.195,0
215253.715,34.668,34.180,33.691,38.086,42.969,0
215253.719,39.062,36.133,31.738,36.621,23.926,0
215253.723,36.133,35.156,32.715,47.852,63.965,0
215253.727,36.621,34.180,35.156,49.316,35.645,0
215253.731,49.805,36.133,44.434,51.758,13.672,0
215253.735,46.875,27.344,46.387,44.922,41.992,0
215253.738,25.879,17.578,47.852,40.039,31.250,0
215253.742,24.902,15.137,36.621,41.992,32.227,0
215253.746,38.574,21.973,21.973,39.062,39.062,0
215253.750,37.598,20.996,27.832,27.344,28.320,0
215253.754,33.203,28.320,41.992,32.715,31.738,2
215253.758,36.133,43.945,41.504,40.527,24.902,0
215253.762,28.809,33.691,35.645,32.227,45.898,0
215253.766,34.180,27.344,33.691,32.715,34.180,0
215253.770,48.340,47.852,41.992,40.527,21.484,0
215253.774,39.551,44.922,34.668,38.086,30.273,0
215253.777,33.203,32.715,21.973,29.297,58.105,0
215253.781,38.574,40.039,32.227,30.273,93.262,0
215253.785,39.062,46.387,33.203,36.621,65.918,0
215253.789,41.504,48.828,18.555,47.852,35.645,0
215253.793,49.316,49.316,18.066,51.758,13.672,0
215253.797,48.340,44.922,38.086,41.504,9.277,0
215253.801,43.945,49.316,51.758,37.598,58.594,0
215253.805,40.039,42.480,41.504,36.621,63.477,0
215253.809,41.504,28.320,36.621,33.203,25.879,0
215253.813,53.223,29.297,37.598,40.039,52.246,0
215253.817,56.641,43.457,29.785,55.176,71.289,0
215253.820,36.133,33.203,24.414,50.781,46.875,0
215253.824,27.832,18.066,10.254,31.250,19.531,0
215253.828,33.203,22.461,11.230,27.344,-2.441,0
215253.832,29.785,21.484,36.133,29.785,9.277,0
215253.836,30.762,29.785,54.688,41.504,24.414,0
215253.840,41.992,46.875,47.852,56.152,15.137,0
215253.844,38.086,35.645,32.715,49.316,3.906,0
215253.848,36.133,19.531,43.457,55.176,38.574,0
215253.852,43.945,21.484,36.133,50.293,30.762,0
215253.856,39.062,31.250,28.320,32.715,24.902,0
215253.860,34.180,33.203,39.062,34.668,45.410,0
215253.863,27.344,20.996,30.762,28.320,31.250,0
215253.867,26.367,21.484,25.879,20.996,3.906,0
215253.871,29.785,21.973,39.062,27.344,-6.348,0
215253.875,26.855,14.648,43.457,34.180,22.949,0
215253.879,27.832,24.902,30.273,33.203,12.207,0
215253.883,33.203,28.809,23.438,37.598,44.434,0
215253.887,36.621,15.625,32.715,41.016,42.969,0
215253.891,28.809,15.137,35.645,38.574,44.434,0
215253.895,33.203,32.227,32.715,50.293,78.125,0
215253.899,37.598,36.621,41.992,44.922,37.109,0
215253.902,30.762,30.273,39.551,33.691,4.883,0
215253.906,29.785,30.273,35.645,34.668,29.785,0
215253.910,16.602,21.484,33.203,20.020,59.082,0
215253.914,21.484,21.484,31.250,20.020,44.434,0
215253.918,35.645,29.297,26.367,35.645,35.645,0
215253.922,34.668,29.297,20.996,43.945,59.082,0
215253.926,28.809,18.066,21.484,41.504,82.031,0
215253.930,33.691,13.672,26.367,48.828,46.387,0
215253.934,43.457,20.996,24.902,50.293,-5.859,0
215253.938,41.992,20.996,20.996,42.480,16.113,0
215253.942,43.457,32.227,25.879,46.875,29.297,0
215253.945,44.434,43.945,38.086,37.598,-9.277,0
215253.949,36.133,46.387,45.898,26.855,15.137,0
215253.953,25.391,52.734,37.598,32.227,26.367,0
215253.957,14.648,44.922,27.832,32.715,27.344,0
215253.961,18.066,24.414,32.715,32.715,68.359,0
215253.965,25.391,24.902,38.574,34.180,53.223,0
215253.969,14.648,36.621,32.227,27.832,13.184,0
215253.973,12.207,32.227,24.414,30.273,51.758,0
215253.977,26.367,26.855,21.973,37.109,66.406,0
215253.981,37.598,36.133,31.738,38.574,17.090,0
215253.985,26.367,37.598,34.180,29.297,25.879,0
215253.988,28.320,33.691,38.574,27.832,15.625,0
215253.992,36.621,28.320,47.363,40.527,-1.953,0
215253.996,29.785,19.531,45.410,42.480,32.715,0
215254.000,36.133,21.973,43.945,39.551,34.180,0
215254.004,39.062,26.367,41.504,43.457,17.090,0
215254.008,33.203,32.715,39.551,41.016,46.875,0
215254.012,43.945,37.109,40.527,50.781,53.223,0
215254.016,41.504,22.949,35.645,49.805,79.590,0
215254.020,39.551,32.715,29.297,46.387,96.680,0
215254.024,45.898,50.781,31.738,59.082,54.688,0
215254.027,43.457,41.016,29.297,54.688,8.789,0
215254.031,55.664,31.738,36.133,48.828,26.855,0
215254.035,48.828,26.367,41.992,44.922,61.035,0
215254.039,26.855,26.855,37.109,50.781,72.754,0
215254.043,21.973,28.320,36.133,37.109,23.438,0
215254.047,26.367,18.066,31.738,30.273,-4.395,0
215254.051,31.250,21.484,22.949,37.109,8.301,0
215254.055,32.715,30.762,32.227,33.203,12.695,0
215254.059,39.551,35.156,47.363,45.410,28.320,0
215254.063,41.016,44.922,42.480,53.711,15.625,0
215254.067,35.645,39.551,43.457,43.457,43.945,0
215254.070,35.645,30.762,49.316,41.992,62.500,0
215254.074,30.762,22.461,33.203,43.457,28.320,0
215254.078,33.691,20.996,12.695,38.086,0.000,0
215254.082,41.504,43.457,27.832,36.133,7.324,0
215254.086,39.551,46.875,39.062,40.527,18.066,0
215254.090,39.551,27.832,26.855,39.551,1.953,0
215254.094,37.109,26.367,26.367,26.367,11.719,0
215254.098,31.738,31.738,26.367,29.297,24.414,0
215254.102,34.668,34.180,39.551,36.621,28.809,0
215254.106,35.156,33.691,42.969,31.738,39.062,0
215254.110,26.855,33.203,25.879,25.879,47.852,0
215254.113,31.738,35.156,28.320,33.203,43.945,0
215254.117,44.922,35.156,34.668,37.598,29.785,0
215254.121,44.922,37.598,36.133,27.344,17.578,0
215254.125,43.457,38.086,33.203,24.902,11.230,0
215254.129,52.246,45.410,34.180,42.969,19.531,0
215254.133,52.734,48.340,38.086,49.316,45.898,0
215254.137,38.574,39.551,34.180,39.062,69.336,0
215254.141,39.062,40.039,23.438,52.246,65.430,0
215254.145,46.387,43.945,26.855,60.547,80.566,0
215254.149,46.875,38.086,40.039,52.246,76.660,0
215254.152,56.641,28.809,43.457,54.199,38.086,0
215254.156,43.457,16.602,41.992,52.734,41.504,0
215254.160,22.461,8.789,39.551,45.410,49.316,0
215254.164,18.555,4.395,42.969,28.320,35.156,0
215254.168,20.996,10.742,38.574,25.391,20.996,0
215254.172,24.414,20.996,37.109,33.203,20.508,0
215254.176,35.645,30.762,42.969,34.668,13.184,0
215254.180,41.016,28.809,43.457,32.227,27.832,0
215254.184,27.344,11.230,35.645,26.367,13.672,0
215254.188,29.297,20.508,32.715,36.133,8.301,0
215254.192,32.715,37.109,30.273,49.316,40.039,0
215254.195,28.320,41.016,22.461,44.922,28.809,0
215254.199,27.832,37.598,26.855,37.109,-3.418,0
215254.203,17.090,32.715,34.180,24.902,13.672,0
215254.207,17.090,25.879,35.156,21.484,42.969,0
215254.211,37.598,24.414,49.805,39.551,16.113,0
215254.215,44.922,30.762,49.805,35.645,17.578,0
215254.219,31.250,25.391,34.180,27.344,53.711,0
215254.223,27.344,31.738,38.574,25.879,80.078,0
215254.227,28.809,37.109,30.273,6.348,42.969,0
215254.231,37.109,32.227,23.926,19.531,15.625,0
215254.235,43.457,35.156,33.691,45.410,36.133,0
215254.238,35.645,31.250,32.715,29.785,14.648,0
215254.242,29.785,25.879,33.691,20.020,-13.184,0
215254.246,25.879,31.738,41.016,25.391,4.395,0
215254.250,25.391,33.203,39.062,20.996,22.461,0
215254.254,24.414,30.273,30.273,23.926,16.602,0
215254.258,29.297,35.156,32.715,30.762,30.762,0
215254.262,40.039,46.875,37.598,37.598,48.340,0
215254.266,39.062,43.945,36.133,40.039,48.828,0
215254.270,33.203,35.645,41.016,36.133,30.273,0
215254.274,38.086,35.645,26.855,34.668,-10.254,0
215254.277,44.434,29.297,20.020,39.062,19.531,0
215254.281,49.805,37.598,36.133,45.898,70.801,0
215254.285,41.504,43.457,26.367,37.109,39.062,0
215254.289,37.109,45.410,20.508,22.461,21.973,0
215254.293,41.992,42.480,25.879,21.484,64.941,0
215254.297,33.203,34.180,26.855,17.090,53.711,0
215254.301,27.344,41.992,29.297,19.043,23.438,0
215254.305,34.668,46.875,40.527,37.109,15.137,0
215254.309,40.039,36.621,41.504,38.574,35.645,0
215254.313,43.457,33.691,26.367,33.203,58.594,0
215254.317,50.781,41.504,23.926,44.434,18.555,0
215254.320,52.246,35.156,35.645,51.270,-15.625,0
215254.324,40.527,22.461,38.574,41.016,-9.766,0
215254.328,38.086,34.180,34.180,37.598,-4.395,0
215254.332,51.758,51.270,32.715,56.152,14.160,0
215254.336,44.434,51.270,28.809,52.246,27.832,0
215254.340,26.367,48.340,38.086,33.203,39.551,0
215254.344,31.738,49.316,51.270,29.785,19.531,0
215254.348,41.016,40.527,50.781,36.621,-2.930,0
215254.352,29.297,29.785,36.133,29.785,7.812,0
215254.356,19.531,30.762,24.902,25.879,-8.789,0
215254.360,30.762,41.016,31.738,41.504,-18.066,0
215254.363,35.156,41.992,34.668,34.180,6.348,0
215254.367,21.484,30.273,30.762,24.414,-2.930,0
215254.371,23.926,27.832,29.297,29.297,19.531,0
215254.375,27.344,33.203,28.809,23.438,53.223,0
215254.379,23.438,38.574,36.621,28.320,18.555,0
215254.383,24.414,37.598,39.551,35.156,32.227,0
215254.387,26.367,32.227,25.879,31.738,45.898,0
215254.391,40.039,40.527,31.738,43.457,36.621,0
215254.395,41.016,47.363,42.969,45.410,29.297,0
215254.399,34.180,43.945,42.480,35.156,31.250,0
215254.402,38.086,34.180,36.621,32.715,14.648,0
215254.406,44.434,40.039,38.086,38.086,-13.672,0
215254.410,35.156,49.805,45.898,45.410,-3.418,0
215254.414,24.414,34.180,30.762,40.527,25.879,0
215254.418,23.926,20.508,24.902,32.715,26.855,0
215254.422,23.926,28.809,29.785,26.855,40.039,0
215254.426,30.273,34.668,21.973,31.738,54.688,0
215254.430,27.832,31.250,21.973,30.273,71.289,0
215254.434,17.578,36.133,33.691,23.438,95.703,0
215254.438,27.344,40.527,42.969,30.762,66.406,0
215254.442,32.227,40.527,41.504,40.527,58.105,0
215254.445,25.879,41.992,24.414,32.227,59.082,0
215254.449,26.855,39.062,13.184,34.180,21.484,0
215254.453,19.043,35.156,20.508,29.785,13.672,0
215254.457,18.555,28.809,33.203,20.020,37.598,0
215254.461,24.414,23.926,38.086,26.367,75.195,0
215254.465,27.832,31.250,33.691,26.367,52.246,0
215254.469,39.551,43.945,36.133,39.062,15.137,0
215254.473,38.086,36.133,26.855,42.969,30.762,0
215254.477,30.273,27.832,19.531,38.086,42.480,0
215254.481,37.598,33.203,18.555,42.969,17.090,0
215254.485,47.363,35.156,23.438,41.504,-15.137,1
215254.488,39.551,32.227,36.133,41.504,0.000,0
215254.492,27.832,28.809,35.156,46.875,9.766,0
215254.496,28.809,30.273,25.391,40.527,-38.086,0
215254.500,32.227,30.273,20.996,33.691,-33.691,0
215254.504,30.762,37.598,33.691,39.551,34.668,0
215254.508,29.297,42.480,41.992,34.668,30.762,0
215254.512,31.738,36.133,36.133,27.832,5.371,0
215254.516,40.527,44.922,39.062,47.363,41.016,0
215254.520,43.945,49.805,42.480,52.734,58.105,0
215254.524,39.551,32.227,32.715,37.109,41.016,0
215254.527,34.668,24.414,19.531,40.039,0.488,0
215254.531,22.461,25.879,16.113,36.133,-34.180,0
215254.535,20.508,19.531,27.832,28.320,-33.203,0
215254.539,29.297,13.184,39.551,20.508,-61.035,0
215254.543,27.832,21.484,23.926,15.137,-62.500,0
215254.547,27.344,23.926,20.020,22.461,-6.836,0
215254.551,29.785,21.973,36.133,32.715,5.371,0
215254.555,30.762,31.738,39.551,29.785,14.648,0
215254.559,41.016,38.574,35.156,27.344,-1.465,0
215254.563,45.410,39.551,28.320,28.809,9.766,0
215254.567,54.688,41.504,33.203,32.227,40.039,0
215254.570,46.875,46.387,34.180,34.180,13.672,0
215254.574,29.785,43.457,30.273,37.598,5.371,0
215254.578,26.855,32.227,28.320,37.109,33.691,0
215254.582,21.484,27.344,26.367,31.738,63.477,0
215254.586,25.391,21.973,31.738,29.785,61.035,0
215254.590,29.297,25.391,39.062,23.926,57.129,0
215254.594,27.832,34.668,38.574,20.020,34.668,0
215254.598,34.180,33.203,38.574,27.832,14.648,0
215254.602,50.293,31.250,43.945,35.156,39.062,0
215254.606,57.129,31.250,40.039,41.016,57.617,0
215254.610,44.434,30.273,33.203,38.086,78.125,0
215254.613,30.762,39.062,25.391,30.762,90.820,0
215254.617,35.645,45.410,22.461,32.227,50.293,0
215254.621,49.316,40.527,33.203,44.434,32.227,0
215254.625,35.156,21.973,39.062,45.898,73.242,0
215254.629,20.996,22.461,34.668,30.273,71.289,0
215254.633,32.227,36.621,35.156,29.785,56.641,0
215254.637,27.344,33.691,47.852,24.902,103.027,0
215254.641,20.508,27.344,45.410,13.184,87.402,0
215254.645,23.926,28.320,30.273,20.020,58.105,0
215254.649,26.367,32.227,29.785,24.414,57.129,0
215254.652,20.508,30.762,33.203,18.066,50.293,0
215254.656,12.695,24.414,30.273,19.043,41.504,0
215254.660,20.020,29.297,28.809,26.855,-6.836,0
215254.664,32.715,36.621,31.738,41.992,15.625,0
215254.668,32.715,22.949,32.715,41.016,37.598,0
215254.672,32.715,20.996,37.598,32.227,15.625,0
215254.676,31.250,36.133,44.434,34.180,21.973,0
215254.680,27.832,35.645,37.109,29.785,6.348,0
215254.684,34.180,34.668,27.832,28.809,-0.977,0
215254.688,35.156,31.738,30.273,40.039,2.441,0
215254.692,32.227,32.227,34.180,35.645,-17.578,0
215254.695,30.762,28.809,27.344,21.973,-15.625,0
215254.699,29.297,22.949,24.902,26.855,4.395,0
215254.703,34.668,28.320,35.156,26.367,-11.719,0
215254.707,37.109,29.297,38.574,25.879,-47.852,0
215254.711,41.504,29.297,32.715,28.320,-29.297,0
215254.715,40.039,38.086,34.668,35.156,22.461,0
215254.719,27.832,29.785,36.133,36.621,68.359,0
215254.723,31.250,24.902,34.180,44.922,69.336,0
215254.727,41.992,38.574,39.551,53.711,51.270,0
215254.731,37.109,36.621,27.832,37.598,38.086,0
215254.735,27.832,27.832,21.484,25.391,68.359,0
215254.738,29.785,24.414,26.855,22.949,44.922,0
215254.742,28.320,20.508,26.367,26.855,37.598,0
215254.746,20.508,16.113,30.273,29.785,53.223,0
215254.750,22.461,25.879,32.715,30.273,24.414,0
215254.754,29.785,33.691,33.203,41.016,21.973,0
215254.758,28.809,25.391,30.273,41.016,7.812,0
215254.762,28.809,22.461,28.320,41.016,-8.301,0
215254.766,38.574,30.762,32.227,41.992,-3.418,0
215254.770,33.203,21.973,25.391,33.203,-35.645,0
215254.774,31.738,23.438,19.531,38.086,-39.551,0
215254.777,35.645,33.691,27.832,41.992,-4.395,0
215254.781,26.367,23.438,28.320,23.926,-30.762,0
215254.785,24.902,19.531,26.855,10.254,-21.973,0
215254.789,29.297,23.438,36.133,20.020,41.016,0
215254.793,16.113,20.508,38.086,22.461,28.320,0
215254.797,20.020,15.625,33.691,29.785,38.086,0
215254.801,33.203,19.531,32.715,39.062,82.520,0
215254.805,29.297,24.902,33.691,36.621,63.965,0
215254.809,36.133,30.762,30.762,45.898,21.484,0
215254.813,47.852,34.180,32.227,48.340,44.434,0
215254.817,47.363,41.992,31.250,41.504,83.496,0
215254.820,38.574,45.410,23.438,38.574,82.520,0
215254.824,42.480,43.457,28.320,39.551,65.918,0
215254.828,44.922,46.875,21.973,31.250,14.160,0
215254.832,30.273,34.668,17.578,24.414,28.320,0
215254.836,24.902,17.090,33.203,22.461,54.688,0
215254.840,26.367,19.043,39.062,17.578,27.832,0
215254.844,25.391,25.879,38.086,21.484,46.387,0
215254.848,22.949,26.367,36.621,27.344,82.031,0
215254.852,23.926,23.926,28.320,29.297,86.426,0
215254.856,22.461,27.832,16.602,27.344,76.660,0
215254.860,23.926,41.016,22.949,42.969,86.426,0
215254.863,33.203,58.105,35.156,46.387,77.637,0
215254.867,30.762,46.387,29.297,22.461,40.039,0
215254.871,23.438,21.973,20.996,13.184,1.465,0
215254.875,15.625,25.879,21.973,5.859,-7.812,0
215254.879,15.625,29.297,27.344,12.695,25.391,0
215254.883,30.762,27.344,41.016,30.762,10.742,0
215254.887,33.691,31.250,43.945,33.203,9.766,0
215254.891,29.785,27.832,37.109,32.715,33.691,0
215254.895,32.227,29.297,25.391,34.180,25.391,0
215254.899,36.133,34.180,16.602,38.086,34.180,0
215254.902,42.969,30.273,28.320,43.457,56.152,0
215254.906,43.945,35.645,33.203,43.945,71.777,0
215254.910,35.645,39.551,26.855,44.434,62.012,0
215254.914,30.762,28.809,32.227,41.992,56.152,0
215254.918,27.344,27.344,37.598,36.621,31.738,0
215254.922,23.926,23.926,37.598,38.086,-5.859,0
215254.926,30.762,17.578,38.086,45.410,4.395,0
215254.930,25.879,23.438,37.109,34.668,20.020,0
215254.934,17.090,24.902,34.668,15.137,1.953,0
215254.938,14.160,26.855,26.855,18.066,5.859,0
215254.942,29.785,41.016,26.367,36.133,13.672,0
215254.945,40.527,41.504,37.109,38.086,4.883,0
215254.949,30.762,41.504,38.086,29.785,-3.906,0
215254.953,30.273,41.016,31.250,32.715,55.664,0
215254.957,36.621,29.297,24.414,35.645,102.539,0
215254.961,39.062,28.809,28.809,39.062,56.641,0
215254.965,36.133,32.227,30.273,34.180,32.227,0
215254.969,30.762,28.809,29.297,26.367,16.602,0
215254.973,31.250,26.855,39.062,32.715,20.996,0
215254.977,29.785,34.180,34.668,24.902,9.277,0
215254.981,32.715,44.922,29.297,24.414,0.000,0
215254.985,33.203,45.410,24.414,40.039,34.668,0
215254.988,32.715,42.969,19.531,39.062,50.781,0
215254.992,32.715,35.645,27.344,26.367,41.504,0
215254.996,30.273,26.855,37.109,26.367,31.250,0
215255.000,24.902,22.949,37.109,29.297,36.133,0
215255.004,26.855,22.949,32.715,23.438,10.254,0
215255.008,32.715,25.879,35.645,25.879,-25.879,0
215255.012,37.598,33.691,36.133,37.598,-10.254,0
215255.016,43.457,27.344,34.668,40.039,25.391,0
215255.020,37.598,20.020,32.715,39.551,30.762,0
215255.024,39.062,34.180,29.785,32.715,5.859,0
215255.027,42.969,48.828,24.902,31.250,2.930,0
215255.031,37.598,51.270,17.578,36.133,37.598,0
215255.035,39.062,47.363,26.367,35.645,37.109,0
215255.039,31.250,39.551,24.414,28.809,-0.488,0
215255.043,20.996,29.785,20.996,24.414,12.207,0
215255.047,27.832,26.855,40.039,34.180,42.969,0
215255.051,34.668,31.250,40.039,48.340,61.035,0
215255.055,26.367,27.832,38.086,39.062,63.965,0
215255.059,24.902,20.508,37.109,24.414,42.480,0
215255.063,29.297,26.855,25.391,23.926,34.180,0
215255.067,22.949,34.180,28.320,18.555,4.395,0
215255.070,29.785,31.738,34.180,20.996,-35.156,0
215255.074,36.133,27.344,33.691,38.086,5.859,0
215255.078,40.039,32.715,39.062,41.992,32.715,0
215255.082,52.734,47.852,49.805,50.781,31.738,0
215255.086,43.457,40.527,36.133,44.922,20.020,0
215255.090,31.250,25.879,26.855,36.133,21.973,0
215255.094,31.250,28.320,37.598,39.062,48.828,0
215255.098,36.133,41.504,37.598,38.086,50.293,0
215255.102,34.180,46.387,29.297,39.062,42.969,0
215255.106,23.438,33.691,33.203,44.922,37.598,0
215255.110,22.949,28.809,41.016,41.504,13.672,0
215255.113,32.227,40.527,39.551,45.898,16.113,0
215255.117,38.086,42.480,51.270,50.781,24.414,0
215255.121,35.156,31.250,44.922,34.668,18.555,0
215255.125,37.109,28.809,25.391,29.297,-11.719,0
215255.129,41.016,31.738,28.320,36.133,-10.742,0
215255.133,33.203,34.668,35.156,34.180,37.598,0
215255.137,27.832,34.180,41.016,24.902,69.824,0
215255.141,21.973,31.250,38.574,21.973,53.223,0
215255.145,20.508,29.297,33.691,24.902,-11.719,0
215255.149,30.762,34.180,36.621,36.133,-6.348,0
215255.152,45.898,41.016,39.551,50.293,26.855,0
215255.156,46.875,32.715,33.691,44.434,26.855,0
215255.160,35.156,22.461,35.645,33.691,30.273,0
215255.164,28.320,24.414,41.504,26.367,22.461,0
215255.168,22.461,29.785,41.504,23.438,26.367,0
215255.172,29.785,41.016,38.086,27.344,-23.926,0
215255.176,44.922,52.734,39.551,38.086,-68.848,0
215255.180,45.410,45.898,37.598,51.270,-30.762,0
215255.184,39.551,29.297,35.645,44.922,-8.789,1
215255.188,31.250,19.043,29.785,33.203,-29.785,0
215255.192,27.344,22.949,30.762,34.180,-28.320,0
215255.195,26.855,33.203,30.762,42.480,-14.648,0
215255.199,20.996,23.926,18.066,32.227,-14.648,0
215255.203,17.578,23.438,24.414,6.348,-40.039,0
215255.207,23.926,32.715,42.480,8.789,-32.715,0
215255.211,26.855,27.832,40.039,23.926,0.488,0
215255.215,29.297,33.691,30.762,28.809,-8.789,0
215255.219,43.945,47.363,41.504,39.551,12.695,0
215255.223,37.598,40.527,41.504,34.180,39.062,0
215255.227,23.438,25.879,21.973,21.973,48.340,0
215255.231,28.320,25.879,18.066,25.879,50.781,0
215255.235,32.715,20.020,30.273,34.180,97.656,0
215255.238,34.668,17.090,36.133,36.133,91.797,0
215255.242,40.527,31.738,39.062,43.457,77.148,0
215255.246,40.039,29.785,33.691,49.316,62.988,0
215255.250,32.715,18.066,33.203,39.062,25.879,0
215255.254,20.020,14.160,34.180,22.949,44.434,0
215255.258,13.672,19.531,29.785,14.648,29.297,0
215255.262,18.555,28.809,27.832,21.973,46.875,0
215255.266,19.043,20.508,24.414,27.344,70.312,0
215255.270,25.879,8.789,32.715,20.020,65.430,0
215255.274,29.297,18.066,30.273,17.090,96.191,0
215255.277,17.578,24.902,24.414,26.855,92.285,0
215255.281,21.484,28.320,31.738,30.762,68.848,0
215255.285,27.832,32.715,32.227,33.203,89.355,0
215255.289,23.926,25.879,28.809,38.086,73.242,0
215255.293,21.484,23.926,25.391,27.832,21.973,0
215255.297,20.996,27.344,26.367,19.043,16.602,0
215255.301,22.949,24.902,32.715,30.273,49.316,0
215255.305,25.391,20.996,28.320,39.551,60.547,0
215255.309,23.438,19.531,25.879,34.180,38.086,0
215255.313,26.367,16.113,26.855,22.461,42.969,0
215255.317,40.039,29.297,25.391,32.715,63.477,0
215255.320,37.598,31.250,13.672,22.949,53.223,0
215255.324,31.250,11.230,17.578,7.812,93.750,0
215255.328,31.738,13.184,36.133,20.020,126.953,0
215255.332,31.250,27.344,36.621,32.227,99.121,0
215255.336,39.551,39.551,26.367,35.645,67.383,0
215255.340,41.992,33.203,28.809,28.809,42.969,0
215255.344,43.945,29.297,38.574,32.715,59.570,0
215255.348,44.922,37.109,29.785,43.945,77.148,0
215255.352,48.828,39.551,24.902,45.898,41.016,0
215255.356,41.504,27.344,27.344,35.156,37.109,0
215255.360,30.762,14.160,20.508,22.949,78.613,0
215255.363,34.180,25.879,20.020,27.832,44.922,0
215255.367,33.691,35.156,27.344,35.156,23.438,0
215255.371,33.203,36.621,37.598,34.668,67.383,0
215255.375,25.879,23.926,36.621,29.297,82.031,0
215255.379,21.484,13.184,29.785,30.273,76.172,0
215255.383,22.949,8.301,30.273,27.832,26.855,0
215255.387,25.879,11.230,29.297,23.438,-4.395,0
215255.391,36.621,22.949,20.996,29.297,40.527,0
215255.395,30.273,22.461,17.578,25.879,29.785,0
215255.399,18.555,30.762,20.020,14.648,-16.113,0
215255.402,26.855,39.551,17.090,21.973,-1.953,0
215255.406,28.809,30.762,20.508,29.297,57.129,0
215255.410,23.926,18.555,30.762,23.926,42.969,0
215255.414,20.020,10.742,22.461,17.578,29.297,0
215255.418,28.320,23.438,13.184,22.461,49.805,0
215255.422,38.574,32.227,24.414,36.133,29.297,0
215255.426,26.367,20.996,23.438,27.832,41.016,0
215255.430,23.438,25.879,20.508,23.926,52.734,0
215255.434,34.668,34.668,30.273,39.551,53.223,0
215255.438,43.945,34.668,33.203,52.734,81.055,0
215255.442,51.270,20.996,21.973,45.898,26.367,0
215255.445,43.457,12.207,18.555,34.180,-20.020,0
215255.449,37.109,21.484,27.832,48.828,20.996,0
215255.453,34.180,18.066,26.367,56.152,21.973,0
215255.457,27.344,16.113,21.973,38.574,14.648,0
215255.461,36.621,40.039,37.109,36.133,-12.695,0
215255.465,34.668,46.875,41.016,32.715,0.977,0
215255.469,14.160,24.414,22.949,14.648,13.184,0
215255.473,7.812,20.508,17.090,10.254,18.066,0
215255.477,8.789,20.020,23.926,17.090,72.754,0
215255.481,18.066,17.090,25.391,30.762,72.754,0
215255.485,29.297,25.879,24.414,33.203,40.527,0
215255.488,28.320,24.414,27.832,22.949,-0.488,0
215255.492,24.414,23.926,33.203,20.508,35.156,0
215255.496,24.414,22.461,30.762,24.902,79.102,0
215255.500,23.926,24.414,26.855,26.367,41.504,0
215255.504,31.738,42.480,30.762,35.156,22.949,0
215255.508,43.945,47.852,28.809,41.992,10.254,0
215255.512,40.527,36.621,18.066,39.062,45.898,0
215255.516,28.809,22.949,21.973,37.109,90.820,0
215255.520,28.320,20.020,25.879,30.762,29.297,0
215255.524,29.297,24.902,21.484,23.438,-8.301,0
215255.527,20.020,20.996,25.391,27.832,27.832,0
215255.531,22.949,20.020,23.438,24.414,41.992,0
215255.535,34.668,20.996,25.879,26.367,6.836,0
215255.539,38.086,24.414,34.180,37.598,-27.832,0
215255.543,35.156,28.809,35.156,37.109,1.953,0
215255.547,40.527,33.203,40.527,42.969,10.742,0
215255.551,48.828,45.410,37.109,45.898,10.742,0
215255.555,33.691,32.227,21.484,37.598,25.879,0
215255.559,19.531,22.461,27.832,30.762,19.531,0
215255.563,14.160,28.320,35.156,20.996,21.973,0
215255.567,13.184,29.297,29.297,22.461,16.602,0
215255.570,17.578,27.344,27.344,28.809,3.418,0
215255.574,19.043,27.832,26.855,30.273,23.438,0
215255.578,24.414,32.715,24.902,31.738,-1.953,0
215255.582,24.902,21.484,23.438,31.738,-11.230,0
215255.586,26.367,17.090,25.879,36.133,33.691,0
215255.590,29.297,25.391,23.926,34.668,37.598,0
215255.594,31.250,25.391,24.902,32.715,13.672,0
215255.598,41.504,27.344,32.227,41.504,20.508,0
215255.602,48.340,27.832,25.879,44.922,42.969,0
215255.606,30.762,19.043,17.090,33.691,30.762,0
215255.610,20.996,17.578,21.484,24.902,7.812,0
215255.613,26.855,18.066,29.785,27.344,6.348,0
215255.617,30.273,20.508,31.250,29.297,44.922,0
215255.621,34.668,27.832,30.273,23.926,26.367,0
215255.625,36.133,34.180,35.156,28.320,22.461,0
215255.629,29.297,37.598,33.691,29.297,68.848,0
215255.633,21.973,33.203,23.926,16.113,65.918,0
215255.637,21.973,23.926,22.461,15.137,32.227,0
215255.641,23.438,25.879,27.344,18.066,13.184,0
215255.645,28.320,31.738,23.926,17.090,19.043,0
215255.649,30.762,33.691,20.996,21.484,41.992,0
215255.652,32.715,39.062,32.227,33.691,57.617,0
215255.656,31.738,40.527,34.668,35.645,59.570,0
215255.660,20.996,28.809,22.461,25.391,69.336,0
215255.664,21.484,20.508,16.602,19.531,31.250,0
215255.668,35.645,33.691,24.414,24.902,36.621,0
215255.672,37.109,38.574,31.250,29.785,41.992,0
215255.676,25.879,27.832,39.062,30.762,9.766,0
215255.680,29.297,27.832,39.062,35.645,7.324,0
215255.684,34.180,28.809,25.391,32.715,17.578,0
215255.688,29.297,23.438,19.043,24.902,34.180,0
215255.692,41.016,32.227,29.785,36.621,29.297,0
215255.695,51.270,44.434,35.645,45.898,37.598,0
215255.699,39.551,40.527,20.508,41.016,35.156,0
215255.703,38.086,35.645,15.137,47.852,53.711,0
215255.707,48.340,42.480,37.109,58.105,43.945,0
215255.711,38.574,37.598,41.992,44.434,33.691,0
215255.715,27.344,18.555,37.598,27.832,34.180,0
215255.719,26.367,5.859,31.738,31.250,31.250,0
215255.723,25.391,13.184,29.785,37.109,14.160,0
215255.727,34.180,30.273,41.504,38.574,-1.953,0
215255.731,31.250,30.273,35.645,34.180,14.160,0
215255.735,18.066,20.020,22.461,26.367,31.250,0
215255.738,17.578,22.461,20.020,20.996,64.453,0
215255.742,20.996,22.461,22.461,22.949,89.844,0
215255.746,23.926,23.926,32.227,26.367,64.453,0
215255.750,26.855,33.691,30.273,24.902,16.113,0
215255.754,25.391,34.668,15.137,20.996,38.574,0
215255.758,25.391,21.973,27.832,26.367,45.898,0
215255.762,28.809,17.578,42.969,27.344,18.555,0
215255.766,25.879,27.344,29.785,19.531,48.340,0
215255.770,10.742,26.855,18.066,4.883,74.707,1
215255.774,3.906,17.578,18.555,-3.418,45.898,0
215255.777,10.254,11.230,14.160,5.371,55.664,0
215255.781,18.066,20.996,16.113,29.297,94.727,0
215255.785,24.902,42.480,24.902,41.504,84.473,0
215255.789,34.180,49.805,32.227,33.691,50.293,0
215255.793,36.133,46.387,40.527,28.320,55.176,0
215255.797,31.250,38.086,38.086,33.203,39.551,0
215255.801,34.180,32.715,28.809,34.180,8.301,0
215255.805,33.203,33.203,34.668,33.203,20.020,0
215255.809,25.879,26.367,35.156,31.738,24.414,0
215255.813,19.531,20.508,23.438,32.227,24.414,0
215255.817,23.438,19.531,19.531,32.715,20.508,0
215255.820,36.133,22.461,24.902,25.391,31.250,0
215255.824,41.016,30.273,33.691,30.762,58.594,0
215255.828,47.363,34.668,35.645,32.227,51.758,0
215255.832,47.363,34.668,32.227,32.715,25.879,0
215255.836,42.480,31.250,32.227,40.039,6.348,0
215255.840,39.551,25.391,31.738,37.109,-7.812,0
215255.844,30.273,21.973,25.391,25.879,22.949,0
215255.848,31.738,25.879,31.738,30.273,54.688,0
215255.852,34.180,33.691,39.551,34.180,21.973,0
215255.856,26.367,33.691,25.879,26.367,18.555,0
215255.860,15.137,26.855,19.043,17.578,20.996,0
215255.863,14.160,23.438,29.785,11.719,10.742,0
215255.867,18.555,27.344,35.156,17.578,36.133,0
215255.871,20.020,33.691,32.715,20.508,58.105,0
215255.875,18.066,39.062,29.785,11.719,38.574,0
215255.879,23.438,42.969,35.156,12.695,38.574,0
215255.883,33.203,42.969,38.086,25.879,25.879,0
215255.887,18.066,38.086,34.668,19.043,55.176,0
215255.891,-6.348,37.598,32.715,-6.348,62.500,0
215255.895,-12.695,40.527,37.598,-5.859,45.410,0
215255.899,-13.184,41.992,34.180,-0.977,56.641,0
215255.902,-19.043,40.527,32.715,-14.160,37.598,0
215255.906,-21.973,40.527,35.645,-18.555,20.508,0
215255.910,-24.902,41.016,29.785,-19.043,-20.020,0
215255.914,-32.227,41.504,24.414,-25.391,14.160,0
215255.918,-26.855,52.734,20.996,-26.367,54.688,0
215255.922,-15.625,59.570,31.738,-17.090,23.926,0
215255.926,-29.297,53.223,31.738,-23.438,45.410,0
215255.930,-40.039,41.016,19.043,-24.902,77.637,0
215255.934,-30.762,28.809,20.508,-30.273,72.266,0
215255.938,-21.973,40.527,28.809,-39.551,49.805,0
215255.942,-36.133,62.500,37.598,-53.223,50.293,0
215255.945,-56.152,56.152,27.832,-64.453,62.500,0
215255.949,-62.500,47.363,19.043,-53.711,25.879,0
215255.953,-53.223,59.082,19.043,-58.105,0.488,0
215255.957,-43.457,61.523,12.695,-64.453,20.508,0
215255.961,-46.387,49.805,13.184,-58.105,6.348,0
215255.965,-32.715,52.734,28.320,-35.156,13.184,0
215255.969,-19.531,62.012,41.992,-15.625,46.387,0
215255.973,-30.762,49.805,32.227,-23.926,32.227,0
215255.977,-31.738,42.480,29.785,-23.438,24.902,0
215255.981,-20.020,39.062,36.621,-15.625,-1.465,0
215255.985,-17.578,25.391,32.227,-18.066,-12.695,0
215255.988,-20.996,19.043,21.484,-17.578,43.945,0
215255.992,-15.625,31.250,28.320,-9.277,34.180,0
215255.996,-10.742,44.922,31.738,-4.883,-3.906,0
215256.000,-5.371,49.316,26.367,-1.465,4.883,0
215256.004,3.906,46.387,23.926,6.836,47.852,0
215256.008,7.812,37.598,24.902,14.648,52.246,0
215256.012,6.348,31.250,35.645,22.949,54.688,0
215256.016,14.160,30.762,34.668,24.414,51.758,0
215256.020,24.902,30.273,31.738,28.320,21.973,0
215256.024,17.578,21.973,30.762,29.297,27.832,0
215256.027,18.066,17.578,23.438,23.926,31.738,0
215256.031,22.949,16.113,27.832,13.184,26.367,0
215256.035,19.043,19.531,30.762,12.695,32.227,0
215256.039,21.973,32.715,25.391,16.113,25.391,0
215256.043,33.203,41.504,21.973,20.996,20.020,0
215256.047,39.551,38.574,29.297,30.762,8.301,0
215256.051,43.945,33.691,30.762,40.527,42.969,0
215256.055,48.340,34.180,16.602,48.340,57.617,0
215256.059,51.270,39.062,17.090,48.828,12.695,0
215256.063,52.246,40.039,17.578,49.316,20.020,0
215256.067,57.617,40.527,22.949,54.199,25.879,0
215256.070,56.152,32.715,37.598,57.129,-41.992,0
215256.074,41.016,14.648,31.250,52.246,-71.289,0
215256.078,37.598,15.137,24.902,45.898,5.371,0
215256.082,46.875,22.461,33.691,50.293,65.918,0
215256.086,58.105,27.344,33.203,59.570,28.320,0
215256.090,58.594,40.039,32.227,63.965,-7.812,0
215256.094,43.945,25.391,24.414,54.688,7.324,0
215256.098,30.762,3.418,21.484,50.293,71.289,0
215256.102,25.879,10.742,32.715,44.922,45.898,0
215256.106,24.902,25.391,24.414,31.250,-10.254,0
215256.110,29.785,25.879,22.949,36.133,29.785,0
215256.113,36.133,19.043,22.949,45.410,41.016,0
215256.117,42.480,13.672,24.902,56.152,7.812,0
215256.121,57.617,20.020,36.133,68.359,6.836,0
215256.125,55.176,28.320,31.250,70.312,1.465,0
215256.129,45.410,23.438,13.672,60.059,20.996,0
215256.133,49.805,31.250,9.766,50.781,20.508,0
215256.137,51.758,40.039,29.785,58.105,-4.395,0
215256.141,47.363,30.273,36.621,54.199,-5.859,0
215256.145,51.758,23.438,29.785,52.246,-5.371,0
215256.149,65.430,27.832,38.574,60.059,0.488,0
215256.152,67.383,23.926,40.039,62.988,0.000,0
215256.156,65.430,16.113,26.367,66.895,35.645,0
215256.160,63.477,16.113,19.531,56.152,57.617,0
215256.164,65.430,23.926,24.414,63.965,54.688,0
