timestamps,TP9,AF7,AF8,TP10,Right AUX,Marker0
37058.285,-16.602,-27.832,-26.367,-7.812,0.000,0
37058.289,-14.648,-24.902,-27.832,-16.113,0.000,0
37058.293,-17.090,-27.832,-27.832,-22.461,0.000,0
37058.297,-18.555,-30.762,-20.996,-21.973,0.000,0
37058.301,-20.996,-31.250,-21.484,-16.602,0.000,0
37058.305,-21.484,-25.879,-18.555,-8.301,0.000,0
37058.309,-17.090,-27.344,-22.949,-12.207,0.000,0
37058.312,-21.973,-27.344,-30.273,-26.855,0.000,0
37058.316,-20.020,-24.414,-18.066,-29.297,0.000,0
37058.320,-9.277,-16.113,-5.859,-17.090,0.000,0
37058.324,-15.625,-20.996,-20.020,-16.113,0.000,0
37058.328,-15.137,-30.762,-30.273,-18.555,0.000,0
37058.332,-7.324,-20.508,-16.602,-7.812,0.000,0
37058.336,-11.230,-14.648,-12.207,-19.531,0.000,0
37058.340,-10.254,-16.602,-22.949,-32.227,0.000,0
37058.344,-11.719,-17.578,-28.809,-25.879,0.000,0
37058.348,-19.043,-21.484,-29.297,-23.926,0.000,0
37058.351,-15.625,-19.531,-25.879,-16.113,0.000,0
37058.355,-14.160,-12.207,-22.461,-24.414,0.000,0
37058.359,-12.207,-18.555,-28.809,-30.273,0.000,0
37058.363,-10.254,-23.438,-21.484,-16.602,0.000,0
37058.367,-12.207,-25.879,-14.648,-14.648,0.000,0
37058.371,-12.207,-24.414,-25.391,-11.230,0.000,0
37058.375,-11.719,-15.137,-15.137,-5.859,0.000,0
37058.379,-14.160,-14.648,-14.648,-8.789,0.000,0
37058.383,-17.090,-20.508,-22.461,-13.184,0.000,0
37058.387,-17.578,-24.902,-18.555,-16.113,0.000,0
37058.391,-20.508,-23.926,-14.160,-17.090,0.000,0
37058.394,-20.508,-21.484,-7.812,-22.949,0.000,0
37058.398,-14.160,-23.926,-11.719,-18.555,0.000,0
37058.402,-16.113,-21.973,-21.484,-15.625,0.000,0
37058.406,-17.578,-14.160,-22.949,-23.438,0.000,0
37058.410,-19.531,-16.602,-18.066,-20.996,0.000,0
37058.414,-21.484,-24.414,-22.949,-25.879,0.000,0
37058.418,-15.137,-24.902,-24.414,-23.926,0.000,0
37058.422,-11.230,-18.555,-20.020,-10.254,0.000,0
37058.426,-11.230,-24.414,-26.367,-4.883,0.000,0
37058.430,-15.625,-26.367,-22.949,-9.766,0.000,0
37058.434,-21.973,-19.531,-11.719,-22.461,0.000,0
37058.437,-20.020,-25.391,-20.508,-27.832,0.000,0
37058.441,-14.160,-25.391,-28.320,-15.137,0.000,0
37058.445,-15.625,-25.391,-25.879,-3.906,0.000,0
37058.449,-26.367,-32.227,-34.668,-12.207,0.000,0
37058.453,-24.414,-27.344,-23.438,-31.250,0.000,0
37058.457,-19.531,-25.391,-18.555,-27.832,0.000,0
37058.461,-29.785,-30.273,-44.434,-22.461,0.000,0
37058.465,-32.715,-30.762,-41.992,-32.227,0.000,0
37058.469,-24.414,-26.367,-31.738,-23.438,0.000,0
37058.473,-22.949,-24.414,-27.832,-16.602,0.000,0
37058.476,-25.879,-24.414,-27.344,-19.531,0.000,0
37058.480,-28.320,-21.973,-26.367,-19.043,0.000,0
37058.484,-28.320,-16.602,-19.531,-14.648,0.000,0
37058.488,-26.367,-19.043,-20.996,-21.484,0.000,0
37058.492,-27.832,-23.438,-20.020,-27.832,0.000,0
37058.496,-28.320,-21.484,-24.414,-13.184,0.000,0
37058.500,-24.414,-27.832,-25.879,-18.555,0.000,0
37058.504,-18.555,-25.391,-23.926,-14.648,0.000,0
37058.508,-17.090,-23.438,-20.508,-7.812,0.000,0
37058.512,-15.625,-24.902,-10.742,-13.184,0.000,0
37058.516,-18.066,-16.113,-19.531,-17.090,0.000,0
37058.519,-18.555,-20.508,-33.203,-37.109,0.000,0
37058.523,-19.531,-22.949,-30.273,-29.297,0.000,0
37058.527,-16.602,-14.160,-20.020,-8.301,0.000,0
37058.531,-23.438,-16.113,-17.578,-29.297,0.000,0
37058.535,-30.762,-14.160,-21.484,-34.180,0.000,0
37058.539,-19.043,-19.043,-20.508,-20.508,0.000,0
37058.543,-20.020,-23.438,-13.672,-14.648,0.000,0
37058.547,-33.203,-19.531,-23.926,-21.484,0.000,0
37058.551,-32.715,-23.926,-25.879,-37.598,0.000,0
37058.555,-24.902,-24.414,-19.043,-31.738,0.000,0
37058.559,-28.320,-23.438,-20.508,-18.066,0.000,0
37058.562,-36.621,-29.297,-35.156,-16.602,0.000,0
37058.566,-30.273,-34.668,-40.527,-16.113,0.000,0
37058.570,-27.344,-32.227,-25.879,-14.648,0.000,0
37058.574,-35.156,-24.902,-27.344,-9.277,0.000,0
37058.578,-34.668,-28.320,-36.621,-27.832,0.000,0
37058.582,-33.691,-34.668,-36.133,-48.340,0.000,0
37058.586,-28.809,-30.273,-25.391,-36.133,0.000,0
37058.590,-26.855,-31.250,-22.461,-35.156,0.000,0
37058.594,-37.598,-37.109,-34.180,-38.086,0.000,0
37058.598,-35.156,-32.227,-27.832,-26.367,0.000,0
37058.601,-29.297,-24.414,-24.414,-26.855,0.000,0
37058.605,-33.203,-26.367,-29.297,-29.297,0.000,0
37058.609,-35.156,-25.879,-20.508,-32.227,0.000,0
37058.613,-27.832,-25.391,-18.555,-40.527,0.000,0
37058.617,-26.367,-20.508,-20.508,-34.180,0.000,0
37058.621,-26.855,-17.090,-25.391,-17.090,0.000,0
37058.625,-20.996,-19.043,-22.949,-14.160,0.000,0
37058.629,-27.344,-21.973,-15.137,-20.996,0.000,0
37058.633,-35.156,-21.973,-22.461,-13.184,0.000,0
37058.637,-32.227,-17.090,-25.879,-18.555,0.000,0
37058.641,-30.762,-15.625,-25.879,-22.461,0.000,0
37058.644,-29.785,-16.113,-13.672,-18.555,0.000,0
37058.648,-28.320,-16.113,-9.766,-29.785,0.000,0
37058.652,-25.879,-18.555,-23.926,-27.832,0.000,0
37058.656,-29.297,-21.484,-25.879,-23.926,0.000,0
37058.660,-31.738,-22.461,-24.414,-27.344,0.000,0
37058.664,-30.273,-20.508,-20.020,-29.785,0.000,0
37058.668,-27.832,-23.438,-19.531,-33.691,0.000,0
37058.672,-23.926,-23.926,-26.367,-35.645,0.000,0
37058.676,-23.926,-22.461,-25.391,-29.297,0.000,0
37058.680,-23.926,-25.879,-24.902,-22.949,0.000,0
37058.684,-26.367,-34.180,-27.832,-21.973,0.000,0
37058.687,-32.227,-38.574,-24.902,-29.297,0.000,0
37058.691,-43.945,-39.062,-20.996,-48.340,0.000,0
37058.695,-50.781,-37.598,-29.785,-52.246,0.000,0
37058.699,-45.410,-34.668,-32.227,-35.156,0.000,0
37058.703,-34.180,-28.320,-20.020,-24.414,0.000,0
37058.707,-33.691,-27.344,-21.973,-33.203,0.000,0
37058.711,-36.133,-32.227,-36.133,-44.434,0.000,0
37058.715,-30.273,-27.344,-30.273,-39.551,0.000,0
37058.719,-31.250,-24.902,-23.438,-36.621,0.000,0
37058.723,-29.297,-24.414,-24.902,-34.668,0.000,0
37058.726,-32.715,-24.414,-20.508,-35.645,0.000,0
37058.730,-33.203,-29.297,-17.090,-36.133,0.000,0
37058.734,-28.320,-21.484,-16.113,-26.367,0.000,0
37058.738,-27.344,-18.066,-23.926,-14.160,0.000,0
37058.742,-23.926,-28.320,-33.691,-6.348,0.000,0
37058.746,-27.832,-28.320,-30.273,-3.906,0.000,0
37058.750,-34.668,-24.414,-25.879,-22.949,0.000,0
37058.754,-33.203,-27.832,-29.785,-35.645,0.000,0
37058.758,-17.090,-21.484,-25.391,-31.738,0.000,0
37058.762,-14.648,-17.578,-16.602,-31.250,0.000,0
37058.766,-23.926,-23.438,-14.160,-30.273,0.000,0
37058.769,-16.113,-21.484,-14.648,-20.020,0.000,0
37058.773,-13.184,-18.066,-20.020,-8.789,0.000,0
37058.777,-22.461,-19.043,-23.438,-18.066,0.000,0
37058.781,-32.227,-20.508,-22.461,-33.691,0.000,0
37058.785,-31.250,-26.367,-22.949,-32.715,0.000,0
37058.789,-23.926,-25.879,-29.297,-24.414,0.000,0
37058.793,-25.391,-26.855,-28.809,-29.785,0.000,0
37058.797,-28.320,-32.715,-32.227,-36.133,0.000,0
37058.801,-23.438,-31.250,-43.457,-18.555,0.000,0
37058.805,-27.344,-31.738,-34.668,-17.578,0.000,0
37058.809,-31.250,-27.832,-24.414,-34.180,0.000,0
37058.812,-29.785,-18.555,-23.926,-30.762,0.000,0
37058.816,-27.832,-18.555,-22.461,-26.855,0.000,0
37058.820,-26.367,-20.508,-24.902,-24.414,0.000,0
37058.824,-27.344,-27.832,-23.438,-33.691,0.000,0
37058.828,-29.297,-31.738,-23.438,-31.250,0.000,0
37058.832,-33.691,-35.645,-39.551,-32.715,0.000,0
37058.836,-34.180,-34.668,-41.504,-43.457,0.000,0
37058.840,-29.785,-29.785,-41.016,-33.691,0.000,0
37058.844,-25.879,-30.273,-29.785,-28.809,0.000,0
37058.848,-24.414,-30.762,-23.926,-33.203,0.000,0
37058.851,-29.297,-28.809,-25.879,-20.020,0.000,0
37058.855,-26.367,-23.926,-19.531,-6.836,0.000,0
37058.859,-20.020,-18.555,-23.926,-20.996,0.000,0
37058.863,-22.461,-20.508,-22.949,-31.738,0.000,0
37058.867,-30.762,-19.531,-21.484,-35.156,0.000,0
37058.871,-36.133,-21.484,-25.391,-42.969,0.000,0
37058.875,-33.691,-23.438,-31.738,-34.180,0.000,0
37058.879,-32.227,-21.484,-41.016,-21.973,0.000,0
37058.883,-29.785,-26.367,-30.273,-25.879,0.000,0
37058.887,-26.367,-30.762,-20.996,-27.344,0.000,0
37058.891,-30.273,-23.438,-28.320,-23.926,0.000,0
37058.894,-26.367,-24.414,-25.391,-31.738,0.000,0
37058.898,-23.438,-22.949,-27.344,-28.320,0.000,0
37058.902,-23.926,-20.996,-27.344,-17.578,0.000,0
37058.906,-24.414,-26.367,-28.320,-34.180,0.000,0
37058.910,-20.508,-25.391,-29.785,-44.922,0.000,0
37058.914,-14.648,-20.996,-23.926,-26.367,0.000,0
37058.918,-19.043,-24.902,-35.156,-13.184,0.000,0
37058.922,-14.160,-25.879,-34.668,-21.484,0.000,0
37058.926,-3.418,-21.484,-23.926,-12.207,0.000,0
37058.930,-5.859,-20.020,-21.484,2.441,0.000,0
37058.934,-16.113,-20.996,-23.926,-8.789,0.000,0
37058.937,-24.902,-27.344,-30.273,-16.113,0.000,0
37058.941,-26.367,-25.879,-21.484,-19.531,0.000,0
37058.945,-22.949,-23.438,-14.160,-22.949,0.000,0
37058.949,-24.414,-25.879,-26.367,-18.066,0.000,0
37058.953,-26.855,-21.973,-27.832,-26.855,0.000,0
37058.957,-32.227,-23.438,-26.367,-45.410,0.000,0
37058.961,-26.855,-22.949,-22.461,-42.480,0.000,0
37058.965,-18.555,-22.461,-17.578,-28.809,0.000,0
37058.969,-23.438,-24.414,-26.855,-26.855,0.000,0
37058.973,-20.020,-23.438,-19.043,-23.438,0.000,0
37058.976,-7.812,-15.625,-6.348,-13.184,0.000,0
37058.980,-21.973,-23.438,-27.344,-20.996,0.000,0
37058.984,-26.855,-24.902,-33.691,-29.785,0.000,0
37058.988,-18.066,-14.160,-33.691,-18.555,0.000,0
37058.992,-23.438,-17.578,-40.039,-7.324,0.000,0
37058.996,-25.391,-22.949,-29.785,-15.625,0.000,0
37059.000,-25.879,-23.926,-24.414,-26.367,0.000,0
37059.004,-29.785,-21.484,-26.855,-24.414,0.000,0
37059.008,-23.926,-15.625,-25.391,-22.461,0.000,0
37059.012,-20.508,-12.695,-27.344,-18.066,0.000,0
37059.016,-18.555,-20.020,-36.621,-11.230,0.000,0
37059.019,-17.090,-19.531,-26.855,-14.648,0.000,0
37059.023,-20.020,-19.043,-18.066,-31.738,0.000,0
37059.027,-11.719,-22.949,-27.832,-29.297,0.000,0
37059.031,-8.301,-21.973,-23.926,-14.160,0.000,0
37059.035,-11.719,-20.996,-15.625,-21.484,0.000,0
37059.039,-12.695,-27.344,-21.973,-25.879,0.000,0
37059.043,-4.883,-30.762,-18.066,-17.578,0.000,0
37059.047,-14.160,-29.785,-16.113,-23.926,0.000,0
37059.051,-25.879,-30.273,-21.973,-21.973,0.000,0
37059.055,-21.973,-27.832,-21.973,-14.160,0.000,0
37059.059,-17.090,-29.785,-24.902,-18.555,0.000,0
37059.062,-10.742,-31.738,-14.648,-13.672,0.000,0
37059.066,-17.090,-23.926,-15.625,-11.230,0.000,0
37059.070,-21.484,-20.508,-29.297,-29.297,0.000,0
37059.074,-14.648,-18.555,-23.438,-26.855,0.000,0
37059.078,-17.090,-20.996,-25.391,-17.090,0.000,0
37059.082,-18.555,-15.625,-23.926,-20.996,0.000,0
37059.086,-20.996,-20.996,-27.344,-22.461,0.000,0
37059.090,-32.715,-27.832,-32.227,-25.391,0.000,0
37059.094,-31.738,-20.020,-29.785,-24.414,0.000,0
37059.098,-23.438,-25.391,-28.809,-25.879,0.000,0
37059.101,-20.508,-27.832,-28.809,-32.227,0.000,0
37059.105,-16.113,-21.973,-28.809,-23.438,0.000,0
37059.109,-16.113,-20.020,-20.996,-19.531,0.000,0
37059.113,-11.230,-20.996,-22.461,-13.672,0.000,0
37059.117,-9.277,-23.926,-26.855,-10.742,0.000,0
37059.121,-14.648,-26.855,-22.461,-17.090,0.000,0
37059.125,-11.719,-14.160,-22.461,-17.578,0.000,0
37059.129,-12.695,-15.625,-28.320,-6.836,0.000,0
37059.133,-19.043,-23.438,-28.809,-11.719,0.000,0
37059.137,-23.438,-25.879,-28.809,-23.926,0.000,0
37059.141,-21.973,-29.297,-24.902,-19.043,0.000,0
37059.144,-23.438,-29.297,-28.320,-18.555,0.000,0
37059.148,-24.902,-30.762,-30.762,-18.555,0.000,0
37059.152,-17.578,-22.461,-29.785,-1.465,0.000,0
37059.156,-12.207,-20.508,-36.133,-14.648,0.000,0
37059.160,-12.695,-24.414,-34.668,-19.531,0.000,0
37059.164,-19.531,-21.973,-28.809,-5.371,0.000,0
37059.168,-21.484,-20.996,-30.762,-16.602,0.000,0
37059.172,-14.160,-21.973,-29.785,-17.090,0.000,0
37059.176,-10.254,-29.785,-23.438,-9.277,0.000,0
37059.180,-20.020,-31.738,-21.973,-25.391,0.000,0
37059.184,-12.695,-28.320,-28.320,-25.879,0.000,0
37059.187,-1.953,-26.367,-28.320,-12.207,0.000,0
37059.191,-14.648,-22.949,-26.855,-9.766,0.000,0
37059.195,-16.113,-21.484,-27.832,-12.207,0.000,0
37059.199,-11.719,-16.113,-14.160,-16.602,0.000,0
37059.203,-14.648,-18.066,-21.484,-14.160,0.000,0
37059.207,-17.578,-30.762,-29.785,-16.113,0.000,0
37059.211,-20.020,-29.297,-17.578,-25.391,0.000,0
37059.215,-29.297,-28.809,-24.414,-22.461,0.000,0
37059.219,-20.508,-31.738,-25.391,-21.484,0.000,0
37059.223,-9.766,-23.926,-17.090,-13.672,0.000,0
37059.226,-13.184,-24.414,-14.160,-4.883,0.000,0
37059.230,-16.602,-32.715,-21.973,-7.324,0.000,0
37059.234,-21.484,-35.156,-29.785,-12.695,0.000,0
37059.238,-24.414,-37.109,-22.949,-15.137,0.000,0
37059.242,-21.484,-31.738,-24.414,-5.859,0.000,0
37059.246,-19.043,-27.832,-34.668,-8.301,0.000,0
37059.250,-25.391,-31.250,-36.621,-25.879,0.000,0
37059.254,-27.344,-34.668,-35.645,-26.367,0.000,0
37059.258,-29.297,-32.227,-24.902,-25.391,0.000,0
37059.262,-28.320,-25.391,-24.902,-33.691,0.000,0
37059.266,-23.438,-28.320,-35.156,-23.926,0.000,0
37059.269,-25.391,-23.438,-32.715,-20.508,0.000,0
37059.273,-25.391,-20.020,-23.926,-20.020,0.000,0
37059.277,-17.578,-26.367,-17.578,-24.414,0.000,0
37059.281,-17.578,-25.391,-20.020,-31.738,0.000,0
37059.285,-22.461,-22.949,-31.250,-29.785,0.000,0
37059.289,-24.414,-19.043,-28.320,-23.438,0.000,0
37059.293,-26.855,-22.949,-29.297,-26.855,0.000,0
37059.297,-20.508,-31.250,-31.250,-23.926,0.000,0
37059.301,-19.043,-20.996,-16.113,-18.555,0.000,0
37059.305,-15.625,-12.207,-10.742,-1.953,0.000,0
37059.309,-12.207,-15.625,-21.484,-4.883,0.000,0
37059.312,-16.113,-18.066,-17.090,-19.043,0.000,0
37059.316,-11.230,-9.766,-9.277,-9.766,0.000,0
37059.320,-4.883,-7.812,-12.695,-14.648,0.000,0
37059.324,-14.648,-17.578,-16.602,-23.438,0.000,0
37059.328,-19.531,-11.719,-5.859,-19.531,0.000,0
37059.332,-17.090,-9.277,-5.371,-6.836,0.000,0
37059.336,-19.531,-16.113,-22.949,-12.207,0.000,0
37059.340,-16.113,-12.207,-21.973,-14.648,0.000,0
37059.344,-20.020,-13.184,-20.020,-11.230,0.000,0
37059.348,-30.273,-20.996,-22.461,-17.090,0.000,0
37059.351,-23.926,-17.090,-17.578,-7.324,0.000,0
37059.355,-21.973,-17.090,-14.160,-11.230,0.000,0
37059.359,-17.090,-19.043,-8.789,-20.508,0.000,0
37059.363,-13.184,-15.625,-8.301,-16.113,0.000,0
37059.367,-15.625,-16.113,-16.602,-15.625,0.000,0
37059.371,-16.113,-17.090,-21.484,-8.301,0.000,0
37059.375,-18.555,-18.066,-19.531,-4.395,0.000,0
37059.379,-22.461,-21.973,-17.090,-20.996,0.000,0
37059.383,-27.344,-21.484,-21.973,-28.809,0.000,0
37059.387,-33.203,-19.531,-32.227,-27.344,0.000,0
37059.391,-32.715,-20.508,-25.879,-27.344,0.000,0
37059.394,-25.391,-15.625,-5.859,-20.508,0.000,0
37059.398,-28.320,-21.973,-16.602,-26.855,0.000,0
37059.402,-28.809,-19.531,-26.855,-32.715,0.000,0
37059.406,-27.832,-18.555,-24.414,-26.367,0.000,0
37059.410,-29.297,-28.809,-26.367,-17.578,0.000,0
37059.414,-28.809,-20.020,-20.996,-22.461,0.000,0
37059.418,-27.344,-16.602,-19.043,-24.414,0.000,0
37059.422,-23.438,-19.043,-21.484,-29.785,0.000,0
37059.426,-23.926,-20.020,-20.996,-33.691,0.000,0
37059.430,-27.832,-22.949,-26.855,-22.461,0.000,0
37059.434,-24.414,-20.996,-23.438,-17.578,0.000,0
37059.437,-16.602,-17.578,-11.719,-16.602,0.000,0
37059.441,-21.973,-9.766,-17.578,-16.113,0.000,0
37059.445,-27.344,-17.090,-28.320,-20.996,0.000,0
37059.449,-18.066,-12.695,-18.555,-15.137,0.000,0
37059.453,-16.113,-10.742,-9.766,-20.508,0.000,0
37059.457,-21.973,-14.648,-8.789,-22.949,0.000,0
37059.461,-11.230,-10.254,-9.277,-9.766,0.000,0
37059.465,-3.418,-14.648,-16.602,-7.324,0.000,0
37059.469,-5.371,-7.812,-15.625,4.883,0.000,0
37059.473,-11.230,-8.789,-14.160,5.371,0.000,0
37059.476,-22.949,-25.879,-20.020,-20.020,0.000,0
37059.480,-26.367,-26.855,-23.438,-20.508,0.000,0
37059.484,-28.809,-19.043,-24.902,-14.160,0.000,0
37059.488,-22.949,-14.160,-25.879,-14.648,0.000,0
37059.492,-20.508,-21.973,-24.414,-18.555,0.000,0
37059.496,-20.996,-28.320,-22.461,-23.926,0.000,0
37059.500,-12.207,-20.996,-24.902,-13.184,0.000,0
37059.504,-13.672,-24.414,-26.367,-9.277,0.000,0
37059.508,-17.578,-28.320,-25.391,-16.113,0.000,0
37059.512,-19.043,-26.367,-22.461,-11.230,0.000,0
37059.516,-21.484,-27.344,-16.113,-9.766,0.000,0
37059.519,-23.438,-28.320,-21.973,-0.488,0.000,0
37059.523,-17.578,-20.508,-31.738,-4.395,0.000,0
37059.527,-15.137,-18.066,-25.879,-13.672,0.000,0
37059.531,-17.090,-22.461,-22.461,-15.137,0.000,0
37059.535,-10.254,-21.973,-21.484,-18.555,0.000,0
37059.539,-19.043,-26.367,-26.367,-25.391,0.000,0
37059.543,-21.973,-30.273,-24.414,-24.414,0.000,0
37059.547,-10.742,-25.879,-16.602,-15.625,0.000,0
37059.551,-14.160,-26.367,-18.066,-28.809,0.000,0
37059.555,-10.254,-19.531,-10.742,-21.973,0.000,0
37059.559,-4.395,-19.043,-14.648,-5.371,0.000,0
37059.562,-7.812,-24.902,-22.461,-4.395,0.000,0
37059.566,-13.184,-24.414,-19.043,-4.395,0.000,0
37059.570,-17.090,-27.344,-19.043,-1.953,0.000,0
37059.574,-13.672,-29.785,-16.602,-11.230,0.000,0
37059.578,-12.695,-24.414,-23.438,-20.996,0.000,0
37059.582,-14.648,-25.391,-30.762,-22.461,0.000,0
37059.586,-17.090,-27.832,-33.203,-19.531,0.000,0
37059.590,-9.766,-25.879,-29.297,-13.672,0.000,0
37059.594,-8.301,-25.879,-22.949,-13.184,0.000,0
37059.598,-18.066,-26.367,-30.762,-14.160,0.000,0
37059.601,-27.832,-29.297,-36.621,-8.789,0.000,0
37059.605,-30.273,-25.879,-31.250,-10.254,0.000,0
37059.609,-29.297,-27.344,-30.273,-22.461,0.000,0
37059.613,-21.973,-25.879,-28.809,-24.902,0.000,0
37059.617,-21.973,-19.531,-26.367,-21.973,0.000,0
37059.621,-20.996,-17.090,-31.738,-21.973,0.000,0
37059.625,-15.625,-21.973,-41.016,-24.414,0.000,0
37059.629,-21.484,-24.414,-41.504,-27.344,0.000,0
37059.633,-20.508,-19.531,-19.531,-20.996,0.000,0
37059.637,-21.484,-21.973,-24.902,-23.926,0.000,0
37059.641,-22.461,-24.414,-40.527,-31.250,0.000,0
37059.644,-17.578,-16.113,-37.598,-21.973,0.000,0
37059.648,-12.207,-12.695,-30.273,-0.977,0.000,0
37059.652,-17.578,-21.484,-25.879,-2.930,0.000,0
37059.656,-25.879,-20.508,-28.320,-23.438,0.000,0
37059.660,-24.902,-12.695,-28.809,-18.066,0.000,0
37059.664,-30.273,-17.090,-27.832,-22.461,0.000,0
37059.668,-29.785,-20.996,-25.391,-27.344,0.000,0
37059.672,-27.832,-25.879,-34.668,-23.926,0.000,0
37059.676,-31.250,-25.879,-34.180,-19.043,0.000,0
37059.680,-31.250,-22.461,-20.020,-18.555,0.000,0
37059.684,-28.320,-26.855,-21.484,-34.180,0.000,0
37059.687,-25.879,-28.320,-30.273,-35.645,0.000,0
37059.691,-27.832,-24.414,-27.344,-31.250,0.000,0
37059.695,-35.645,-22.461,-20.508,-35.156,0.000,0
37059.699,-34.180,-23.926,-33.691,-35.645,0.000,0
37059.703,-30.273,-20.020,-32.715,-37.109,0.000,0
37059.707,-23.926,-15.625,-20.508,-27.344,0.000,0
37059.711,-24.902,-14.160,-24.902,-25.879,0.000,0
37059.715,-31.738,-14.648,-20.508,-38.574,0.000,0
37059.719,-32.715,-16.602,-20.020,-33.691,0.000,0
37059.723,-28.809,-12.695,-11.719,-22.461,0.000,0
37059.726,-20.020,-12.695,-10.742,-11.719,0.000,0
37059.730,-25.879,-19.043,-23.438,-15.625,0.000,0
37059.734,-32.715,-16.113,-17.578,-21.973,0.000,0
37059.738,-22.949,-16.602,-13.184,-13.184,0.000,0
37059.742,-28.320,-17.578,-17.090,-13.672,0.000,0
37059.746,-28.320,-12.207,-19.043,-17.090,0.000,0
37059.750,-20.508,-11.719,-17.090,-20.508,0.000,0
37059.754,-23.926,-11.719,-11.719,-29.297,0.000,0
37059.758,-28.809,-16.602,-16.113,-30.273,0.000,0
37059.762,-27.832,-20.996,-18.066,-26.367,0.000,0
37059.766,-19.531,-18.555,-16.113,-27.832,0.000,0
37059.769,-21.973,-13.184,-9.277,-30.273,0.000,0
37059.773,-24.414,-13.184,-14.648,-40.527,0.000,0
37059.777,-25.879,-14.160,-19.043,-36.621,0.000,0
37059.781,-25.879,-15.137,-12.207,-24.902,0.000,0
37059.785,-21.484,-13.672,-16.113,-21.973,0.000,0
37059.789,-20.020,-18.555,-21.973,-18.066,0.000,0
37059.793,-18.066,-24.414,-13.672,-21.484,0.000,0
37059.797,-14.160,-12.207,-10.254,-19.531,0.000,0
37059.801,-20.508,-12.207,-20.020,-19.043,0.000,0
37059.805,-22.949,-13.672,-18.555,-19.531,0.000,0
37059.809,-13.672,-13.184,-16.602,-13.184,0.000,0
37059.812,-18.555,-19.531,-20.508,-20.020,0.000,0
37059.816,-20.996,-18.555,-25.391,-22.949,0.000,0
37059.820,-20.508,-20.996,-25.879,-19.043,0.000,0
37059.824,-27.832,-24.414,-24.414,-16.602,0.000,0
37059.828,-25.391,-22.949,-28.809,-17.578,0.000,0
37059.832,-17.578,-21.973,-31.250,-21.973,0.000,0
37059.836,-12.207,-19.531,-26.855,-20.508,0.000,0
37059.840,-16.113,-18.066,-23.926,-9.766,0.000,0
37059.844,-20.020,-22.461,-24.902,-4.883,0.000,0
37059.848,-19.043,-23.438,-22.949,-10.254,0.000,0
37059.851,-16.113,-22.461,-19.531,-21.484,0.000,0
37059.855,-22.949,-24.414,-26.367,-22.949,0.000,0
37059.859,-30.273,-20.020,-24.414,-25.879,0.000,0
37059.863,-26.855,-19.531,-25.391,-17.578,0.000,0
37059.867,-27.344,-24.414,-29.297,-20.020,0.000,0
37059.871,-26.855,-27.832,-22.461,-30.762,0.000,0
37059.875,-18.555,-29.297,-23.438,-16.602,0.000,0
37059.879,-15.137,-27.832,-36.133,-19.043,0.000,0
37059.883,-22.461,-21.973,-35.156,-21.973,0.000,0
37059.887,-17.578,-12.207,-19.043,-14.648,0.000,0
37059.891,-16.113,-12.695,-10.254,-14.160,0.000,0
37059.894,-20.508,-12.695,-17.090,-11.230,0.000,0
37059.898,-13.184,-13.184,-21.484,-9.277,0.000,0
37059.902,-10.742,-20.508,-24.902,-17.090,0.000,0
37059.906,-16.602,-16.113,-28.320,-21.973,0.000,0
37059.910,-11.719,-13.672,-26.855,-14.160,0.000,0
37059.914,-6.348,-16.602,-25.879,-7.324,0.000,0
37059.918,-15.625,-18.555,-18.555,-13.184,0.000,0
37059.922,-27.832,-24.414,-23.438,-21.973,0.000,0
37059.926,-28.809,-22.461,-27.832,-25.879,0.000,0
37059.930,-25.391,-27.344,-17.578,-26.855,0.000,0
37059.934,-23.438,-31.250,-22.949,-16.602,0.000,0
37059.937,-25.391,-23.438,-32.715,-18.555,0.000,0
37059.941,-29.297,-20.020,-28.320,-24.414,0.000,0
37059.945,-24.902,-16.602,-16.113,-17.578,0.000,0
37059.949,-18.066,-17.578,-17.090,-25.391,0.000,0
37059.953,-18.066,-26.855,-23.926,-22.949,0.000,0
37059.957,-20.508,-28.320,-26.367,-23.438,0.000,0
37059.961,-28.809,-20.020,-26.855,-24.414,0.000,0
37059.965,-24.414,-19.531,-26.367,-14.160,0.000,0
37059.969,-15.137,-19.531,-20.996,-21.484,0.000,0
37059.973,-13.672,-15.137,-16.602,-15.137,0.000,0
37059.976,-13.184,-13.184,-20.996,-1.465,0.000,0
37059.980,-19.043,-16.602,-22.949,-5.371,0.000,0
37059.984,-15.137,-19.043,-21.484,-1.465,0.000,0
37059.988,-16.113,-15.625,-16.113,-15.137,0.000,0
37059.992,-22.949,-12.207,-15.137,-22.949,0.000,0
37059.996,-14.648,-19.531,-14.648,-18.066,0.000,0
37060.000,-14.648,-27.832,-26.855,-23.926,0.000,0
37060.004,-23.438,-27.344,-28.320,-25.879,0.000,0
37060.008,-19.043,-25.879,-10.742,-18.555,0.000,0
37060.012,-18.555,-28.809,-24.902,-22.461,0.000,0
37060.016,-22.461,-25.879,-36.133,-29.297,0.000,0
37060.019,-26.855,-20.996,-29.297,-32.715,0.000,0
37060.023,-26.367,-26.367,-27.344,-27.832,0.000,0
37060.027,-18.066,-29.785,-21.973,-26.855,0.000,0
37060.031,-22.949,-25.879,-21.973,-29.785,0.000,0
37060.035,-25.879,-27.832,-26.367,-17.090,0.000,0
37060.039,-17.090,-28.809,-25.391,-8.789,0.000,0
37060.043,-25.391,-31.738,-35.156,-7.812,0.000,0
37060.047,-33.691,-31.738,-34.180,-15.625,0.000,0
37060.051,-23.926,-20.996,-17.578,-14.648,0.000,0
37060.055,-21.484,-20.020,-18.555,-8.789,0.000,0
37060.059,-26.367,-23.926,-28.809,-14.648,0.000,0
37060.062,-21.973,-21.484,-20.996,-19.043,0.000,0
37060.066,-13.184,-24.414,-15.625,-15.625,0.000,0
37060.070,-17.090,-26.367,-23.926,-12.695,0.000,0
37060.074,-20.996,-21.973,-30.273,-11.719,0.000,0
37060.078,-20.020,-20.020,-28.809,-15.137,0.000,1
37060.082,-20.508,-21.484,-29.297,-19.043,0.000,0
37060.086,-20.996,-23.926,-27.832,-32.715,0.000,0
37060.090,-29.785,-26.367,-30.762,-31.738,0.000,0
37060.094,-24.902,-20.020,-29.785,-15.625,0.000,0
37060.098,-11.230,-16.113,-19.531,-10.254,0.000,0
37060.101,-15.137,-21.973,-26.855,-8.789,0.000,0
37060.105,-20.996,-29.785,-33.203,-15.137,0.000,0
37060.109,-20.508,-27.832,-25.879,-15.625,0.000,0
37060.113,-19.531,-21.484,-23.926,0.488,0.000,0
37060.117,-18.066,-22.949,-25.879,-10.742,0.000,0
37060.121,-18.066,-26.367,-29.785,-26.367,0.000,0
37060.125,-23.926,-26.855,-23.926,-25.879,0.000,0
37060.129,-23.438,-25.391,-20.020,-26.367,0.000,0
37060.133,-23.438,-26.855,-30.762,-27.344,0.000,0
37060.137,-18.066,-24.414,-29.785,-27.832,0.000,0
37060.141,-12.207,-23.438,-20.020,-10.254,0.000,0
37060.144,-18.066,-26.855,-19.043,-14.648,0.000,0
37060.148,-21.973,-30.273,-27.832,-31.738,0.000,0
37060.152,-24.414,-26.367,-24.902,-22.461,0.000,0
37060.156,-24.414,-26.855,-21.973,-13.184,0.000,0
37060.160,-20.020,-30.273,-34.668,-12.695,0.000,0
37060.164,-21.484,-26.367,-25.879,-23.926,0.000,0
37060.168,-27.832,-27.344,-20.508,-28.809,0.000,0
37060.172,-34.180,-31.738,-32.227,-35.156,0.000,0
37060.176,-31.250,-26.855,-26.367,-26.855,0.000,0
37060.180,-28.320,-31.250,-32.715,-14.648,0.000,0
37060.184,-24.414,-39.062,-37.598,-23.926,0.000,0
37060.187,-19.531,-32.227,-27.832,-23.438,0.000,0
37060.191,-27.832,-30.762,-38.086,-16.113,0.000,0
37060.195,-33.691,-34.668,-42.480,-20.508,0.000,0
37060.199,-34.180,-33.691,-36.621,-19.043,0.000,0
37060.203,-30.762,-27.832,-29.785,-23.438,0.000,0
37060.207,-28.809,-33.691,-30.762,-32.227,0.000,0
37060.211,-20.996,-34.668,-32.715,-26.367,0.000,0
37060.215,-22.949,-27.832,-28.809,-24.414,0.000,0
37060.219,-26.855,-28.320,-34.180,-15.625,0.000,0
37060.223,-18.555,-26.855,-37.109,-12.207,0.000,0
37060.226,-26.855,-29.785,-39.551,-25.391,0.000,0
37060.230,-31.250,-32.227,-38.086,-22.461,0.000,0
37060.234,-26.855,-31.250,-31.250,-8.789,0.000,0
37060.238,-28.809,-31.250,-43.457,-18.555,0.000,0
37060.242,-22.949,-27.344,-38.086,-32.715,0.000,0
37060.246,-23.926,-24.902,-25.879,-32.715,0.000,0
37060.250,-31.250,-28.809,-30.273,-30.273,0.000,0
37060.254,-40.039,-36.133,-39.062,-27.344,0.000,0
37060.258,-27.832,-32.227,-42.969,-12.207,0.000,0
37060.262,-10.254,-26.367,-38.574,-9.277,0.000,0
37060.266,-35.645,-20.996,-41.016,-38.086,0.000,0
37060.269,-47.363,-15.137,-37.109,-41.016,0.000,0
37060.273,-29.785,-16.602,-29.297,-27.344,0.000,0
37060.277,-27.832,-15.625,-38.086,-25.879,0.000,0
37060.281,-33.691,-14.648,-42.969,-33.691,0.000,0
37060.285,-33.691,-11.230,-29.785,-38.086,0.000,0
37060.289,-34.668,-12.695,-27.344,-27.832,0.000,0
37060.293,-28.320,-22.461,-37.109,-24.902,0.000,0
37060.297,-28.320,-24.414,-41.016,-37.598,0.000,0
37060.301,-29.297,-19.043,-36.133,-37.109,0.000,0
37060.305,-27.344,-18.066,-25.879,-26.367,0.000,0
37060.309,-32.715,-25.391,-28.320,-30.273,0.000,0
37060.312,-33.691,-29.297,-30.762,-38.086,0.000,0
37060.316,-34.668,-26.367,-28.320,-42.480,0.000,0
37060.320,-32.227,-20.996,-29.297,-29.785,0.000,0
37060.324,-23.438,-26.367,-30.273,-21.484,0.000,0
37060.328,-28.320,-32.227,-35.645,-27.344,0.000,0
37060.332,-28.809,-24.902,-32.715,-18.555,0.000,0
37060.336,-22.949,-20.020,-17.578,-13.184,0.000,0
37060.340,-24.414,-20.996,-16.602,-23.926,0.000,0
37060.344,-20.020,-21.973,-19.531,-27.832,0.000,0
37060.348,-25.391,-19.043,-24.902,-23.438,0.000,0
37060.351,-30.762,-27.832,-34.668,-21.973,0.000,0
37060.355,-26.855,-30.762,-34.180,-17.578,0.000,0
37060.359,-22.949,-19.531,-26.367,-21.484,0.000,0
37060.363,-32.715,-18.066,-15.625,-29.297,0.000,0
37060.367,-35.645,-16.602,-12.695,-26.855,0.000,0
37060.371,-26.855,-12.695,-20.020,-26.855,0.000,0
37060.375,-22.949,-13.184,-18.066,-30.273,0.000,0
37060.379,-17.578,-10.742,-7.812,-22.949,0.000,0
37060.383,-15.137,-9.766,-1.953,-20.996,0.000,0
37060.387,-19.531,-19.043,-13.184,-25.391,0.000,0
37060.391,-26.367,-25.879,-25.879,-25.391,0.000,0
37060.394,-23.438,-24.414,-24.414,-13.184,0.000,0
37060.398,-22.949,-22.461,-23.438,-17.578,0.000,0
37060.402,-24.414,-23.926,-23.926,-34.180,0.000,0
37060.406,-24.902,-20.996,-24.902,-25.391,0.000,0
37060.410,-20.996,-20.020,-30.762,-23.926,0.000,0
37060.414,-5.371,-21.484,-24.902,-18.066,0.000,0
37060.418,0.488,-12.207,-20.020,-12.695,0.000,0
37060.422,-9.766,-19.043,-32.715,-24.414,0.000,0
37060.426,-13.184,-27.832,-26.855,-18.066,0.000,0
37060.430,-15.625,-21.484,-20.020,-13.184,0.000,0
37060.434,-26.855,-29.785,-37.598,-27.344,0.000,0
37060.437,-28.809,-34.180,-31.738,-30.762,0.000,0
37060.441,-23.438,-31.250,-26.367,-22.461,0.000,0
37060.445,-23.438,-26.367,-35.645,-21.484,0.000,0
37060.449,-28.320,-20.996,-32.227,-26.855,0.000,0
37060.453,-33.691,-28.809,-31.250,-30.273,0.000,0
37060.457,-30.762,-32.227,-29.785,-21.973,0.000,0
37060.461,-28.809,-32.227,-21.484,-32.715,0.000,0
37060.465,-26.855,-29.297,-20.508,-38.086,0.000,0
37060.469,-22.461,-21.484,-22.461,-15.137,0.000,0
37060.473,-15.137,-21.484,-15.625,-8.301,0.000,0
37060.476,-15.625,-30.762,-21.484,-25.391,0.000,0
37060.480,-18.066,-27.832,-17.090,-30.273,0.000,0
37060.484,-15.625,-16.113,-8.789,-19.043,0.000,0
37060.488,-17.578,-15.625,-17.578,-24.902,0.000,0
37060.492,-17.090,-20.020,-13.672,-28.809,0.000,0
37060.496,-16.113,-16.602,-15.137,-26.855,0.000,0
37060.500,-16.113,-17.578,-13.672,-36.133,0.000,0
37060.504,-15.625,-18.066,-8.789,-28.809,0.000,0
37060.508,-20.996,-11.719,-21.484,-27.344,0.000,0
37060.512,-19.531,-14.160,-31.250,-26.367,0.000,0
37060.516,-19.531,-16.602,-20.996,-11.230,0.000,0
37060.519,-22.461,-18.555,-14.648,-15.137,0.000,0
37060.523,-15.625,-15.625,-15.625,-17.578,0.000,0
37060.527,-11.230,-12.695,-19.043,-6.836,0.000,0
37060.531,-9.277,-15.137,-19.531,2.930,0.000,0
37060.535,-6.836,-18.555,-26.855,5.371,0.000,0
37060.539,-11.230,-20.996,-33.691,-12.695,0.000,0
37060.543,-18.555,-17.578,-32.227,-17.578,0.000,0
37060.547,-20.020,-17.578,-32.715,-15.137,0.000,0
37060.551,-24.902,-24.902,-32.227,-25.391,0.000,0
37060.555,-25.879,-25.391,-33.691,-29.297,0.000,0
37060.559,-21.973,-19.531,-30.273,-29.785,0.000,0
37060.562,-15.137,-21.973,-32.227,-23.926,0.000,0
37060.566,-10.742,-20.996,-32.227,-29.297,0.000,0
37060.570,-7.812,-13.672,-25.391,-24.414,0.000,0
37060.574,-10.254,-17.578,-24.902,-20.996,0.000,0
37060.578,-19.531,-25.391,-24.414,-39.062,0.000,0
37060.582,-16.602,-21.973,-22.461,-29.785,0.000,0
37060.586,-14.648,-20.996,-30.762,-13.672,0.000,0
37060.590,-19.531,-21.973,-29.785,-20.996,0.000,0
37060.594,-10.254,-21.484,-24.902,-14.160,0.000,0
37060.598,-7.812,-20.508,-18.555,-11.230,0.000,0
37060.601,-15.625,-17.090,-16.113,-13.672,0.000,0
37060.605,-12.695,-13.672,-15.625,-11.719,0.000,0
37060.609,-10.742,-19.043,-23.438,-20.508,0.000,0
37060.613,-20.020,-25.391,-30.762,-26.855,0.000,0
37060.617,-19.043,-23.926,-20.508,-25.879,0.000,0
37060.621,-14.648,-23.926,-22.461,-26.855,0.000,0
37060.625,-14.160,-26.367,-34.668,-20.996,0.000,0
37060.629,-15.625,-30.762,-29.297,-14.160,0.000,0
37060.633,-17.578,-25.879,-25.879,-15.137,0.000,0
37060.637,-15.137,-21.484,-21.973,-17.578,0.000,0
37060.641,-15.137,-21.484,-13.184,-13.672,0.000,0
37060.644,-18.555,-22.949,-20.020,-17.090,0.000,0
37060.648,-22.461,-23.926,-30.273,-11.719,0.000,1
37060.652,-22.949,-24.414,-33.691,-8.301,0.000,0
37060.656,-20.508,-27.832,-29.785,-19.531,0.000,0
37060.660,-19.531,-28.809,-20.996,-26.367,0.000,0
37060.664,-15.137,-27.832,-11.230,-26.367,0.000,0
37060.668,-18.066,-25.879,-11.719,-30.762,0.000,0
37060.672,-18.066,-32.715,-29.297,-16.602,0.000,0
37060.676,-13.184,-31.250,-27.344,-14.648,0.000,0
37060.680,-8.789,-16.113,-8.301,-21.484,0.000,0
37060.684,-5.371,-14.160,-6.348,-7.324,0.000,0
37060.687,-7.812,-19.531,-13.184,-9.766,0.000,0
37060.691,-8.789,-17.578,-11.719,-20.020,0.000,0
37060.695,-20.508,-20.996,-13.672,-28.320,0.000,0
37060.699,-30.762,-33.203,-19.531,-37.598,0.000,0
37060.703,-19.043,-34.668,-19.043,-27.344,0.000,0
37060.707,-12.695,-25.391,-13.184,-18.066,0.000,0
37060.711,-15.625,-19.531,-13.672,-18.555,0.000,0
37060.715,-22.461,-21.973,-18.555,-26.855,0.000,0
37060.719,-20.508,-20.508,-14.160,-20.020,0.000,0
37060.723,-14.160,-16.602,-12.695,-6.348,0.000,0
37060.726,-19.531,-19.043,-18.066,-18.555,0.000,0
37060.730,-25.391,-24.414,-23.438,-24.414,0.000,0
37060.734,-18.555,-24.902,-18.555,-18.555,0.000,0
37060.738,-21.973,-25.391,-12.695,-19.043,0.000,0
37060.742,-32.227,-27.832,-20.020,-24.414,0.000,0
37060.746,-24.414,-30.762,-22.949,-28.320,0.000,0
37060.750,-26.367,-32.227,-28.809,-28.809,0.000,0
37060.754,-32.715,-31.738,-24.414,-28.809,0.000,0
37060.758,-24.902,-27.344,-15.625,-26.367,0.000,0
37060.762,-16.113,-27.832,-26.367,-21.484,0.000,0
37060.766,-21.973,-32.227,-36.133,-30.762,0.000,0
37060.769,-25.879,-23.926,-28.320,-24.902,0.000,0
37060.773,-21.973,-23.438,-22.461,-10.254,0.000,0
37060.777,-24.902,-34.180,-23.438,-26.367,0.000,0
37060.781,-25.879,-29.297,-20.996,-38.086,0.000,0
37060.785,-22.949,-19.043,-21.973,-21.973,0.000,0
37060.789,-27.832,-26.855,-29.297,-13.672,0.000,0
37060.793,-31.250,-29.297,-34.180,-23.438,0.000,0
37060.797,-32.715,-29.297,-26.855,-28.320,0.000,0
37060.801,-32.227,-21.484,-13.672,-22.949,0.000,0
37060.805,-26.855,-20.996,-21.484,-23.926,0.000,0
37060.809,-29.297,-30.762,-31.250,-23.438,0.000,0
37060.812,-30.762,-27.832,-24.902,-21.484,0.000,0
37060.816,-26.855,-20.996,-16.113,-17.578,0.000,0
37060.820,-28.809,-16.602,-20.996,-8.301,0.000,0
37060.824,-34.180,-24.414,-35.645,-18.066,0.000,0
37060.828,-35.156,-25.879,-29.785,-29.297,0.000,0
37060.832,-39.062,-24.414,-17.578,-31.250,0.000,0
37060.836,-45.898,-28.809,-19.043,-33.203,0.000,0
37060.840,-41.016,-28.320,-15.625,-31.250,0.000,0
37060.844,-37.109,-23.926,-13.184,-30.273,0.000,0
37060.848,-34.668,-24.414,-20.020,-16.602,0.000,0
37060.851,-37.598,-29.785,-30.273,-17.090,0.000,0
37060.855,-40.039,-32.715,-33.691,-44.434,0.000,0
37060.859,-31.250,-25.879,-24.902,-24.414,0.000,0
37060.863,-25.879,-24.902,-20.996,-8.301,0.000,0
37060.867,-28.809,-26.367,-22.949,-17.090,0.000,0
37060.871,-29.785,-24.902,-20.508,-12.695,0.000,0
37060.875,-23.438,-24.902,-18.066,-24.902,0.000,0
37060.879,-22.461,-19.531,-23.926,-31.738,0.000,0
37060.883,-24.902,-21.484,-25.391,-14.160,0.000,0
37060.887,-33.691,-24.414,-24.902,-12.695,0.000,0
37060.891,-31.250,-22.461,-20.996,-26.367,0.000,0
37060.894,-26.855,-28.320,-19.043,-35.156,0.000,0
37060.898,-26.367,-22.949,-18.555,-24.414,0.000,0
37060.902,-20.996,-17.578,-13.184,-18.066,0.000,0
37060.906,-33.691,-27.344,-19.043,-27.344,0.000,0
37060.910,-34.668,-28.809,-25.391,-25.391,0.000,0
37060.914,-20.020,-27.344,-17.578,-27.344,0.000,0
37060.918,-17.578,-28.320,-17.090,-26.367,0.000,0
37060.922,-18.555,-25.391,-19.531,-11.719,0.000,0
37060.926,-17.090,-25.391,-24.902,-7.324,0.000,0
37060.930,-14.160,-18.555,-26.855,-16.602,0.000,0
37060.934,-19.531,-13.184,-17.090,-27.344,0.000,0
37060.937,-25.879,-17.578,-20.508,-25.879,0.000,0
37060.941,-20.508,-15.137,-28.320,-24.902,0.000,0
37060.945,-13.672,-15.137,-17.578,-16.602,0.000,0
37060.949,-21.484,-19.531,-10.254,-20.996,0.000,0
37060.953,-31.250,-20.508,-14.648,-37.598,0.000,0
37060.957,-32.227,-19.043,-24.902,-40.039,0.000,0
37060.961,-27.344,-16.113,-22.461,-33.203,0.000,0
37060.965,-25.391,-18.066,-17.578,-25.391,0.000,0
37060.969,-20.996,-16.602,-19.043,-16.602,0.000,0
37060.973,-11.230,-11.230,-11.230,-15.625,0.000,0
37060.976,-11.719,-12.207,-10.742,-22.461,0.000,0
37060.980,-9.277,-15.137,-13.184,-20.020,0.000,0
37060.984,-8.301,-12.695,-7.812,-21.973,0.000,0
37060.988,-16.602,-11.719,-12.695,-24.902,0.000,0
37060.992,-19.531,-16.113,-19.531,-27.832,0.000,0
37060.996,-14.648,-15.137,-15.625,-15.137,0.000,0
37061.000,-11.230,-9.766,-22.949,-4.395,0.000,0
37061.004,-16.113,-19.043,-33.203,-23.438,0.000,0
37061.008,-13.672,-25.391,-20.996,-23.926,0.000,0
37061.012,-12.695,-17.090,-13.184,-20.508,0.000,0
37061.016,-19.043,-15.137,-18.555,-26.367,0.000,0
37061.019,-22.461,-18.555,-21.484,-18.066,0.000,0
37061.023,-27.832,-17.578,-20.020,-5.859,0.000,0
37061.027,-24.902,-16.113,-23.926,-5.371,0.000,0
37061.031,-20.996,-21.973,-26.367,-19.531,0.000,0
37061.035,-20.996,-23.926,-18.066,-24.902,0.000,0
37061.039,-20.996,-27.832,-19.043,-20.020,0.000,0
37061.043,-18.555,-24.414,-23.438,-20.508,0.000,0
37061.047,-21.484,-19.043,-26.855,-21.484,0.000,0
37061.051,-24.902,-20.996,-22.461,-17.578,0.000,0
37061.055,-19.043,-17.090,-10.742,-10.742,0.000,0
37061.059,-26.855,-20.508,-19.043,-18.555,0.000,0
37061.062,-28.809,-25.391,-21.484,-23.926,0.000,0
37061.066,-24.414,-17.578,-21.484,-8.301,0.000,0
37061.070,-29.297,-19.043,-20.508,-12.207,0.000,0
37061.074,-29.297,-25.879,-22.949,-11.230,0.000,0
37061.078,-31.738,-27.344,-29.785,-13.672,0.000,0
37061.082,-30.273,-24.414,-18.555,-17.090,0.000,0
37061.086,-27.832,-24.902,-18.066,-15.625,0.000,0
37061.090,-35.156,-35.156,-31.738,-25.879,0.000,0
37061.094,-32.227,-34.668,-33.203,-26.367,0.000,0
37061.098,-28.320,-26.855,-25.879,-19.531,0.000,0
37061.101,-36.133,-28.809,-27.344,-18.066,0.000,0
37061.105,-39.551,-35.156,-33.691,-21.973,0.000,0
37061.109,-29.297,-31.250,-23.926,-13.672,0.000,0
37061.113,-20.508,-22.949,-19.043,1.953,0.000,0
37061.117,-20.996,-24.414,-29.297,-13.184,0.000,0
37061.121,-22.949,-21.973,-32.715,-18.555,0.000,0
37061.125,-28.809,-20.996,-25.391,-15.625,0.000,0
37061.129,-26.367,-24.902,-11.719,-28.809,0.000,0
37061.133,-15.137,-25.391,-17.578,-26.855,0.000,0
37061.137,-17.090,-23.926,-22.949,-19.531,0.000,0
37061.141,-23.438,-25.391,-24.414,-13.672,0.000,0
37061.144,-18.555,-24.902,-36.621,-8.789,0.000,0
37061.148,-11.230,-25.391,-29.785,-11.719,0.000,0
37061.152,-3.418,-23.438,-18.555,-13.672,0.000,0
37061.156,-3.418,-20.996,-23.926,-9.766,0.000,0
37061.160,-6.348,-19.043,-22.949,-3.906,0.000,0
37061.164,-2.930,-15.137,-20.996,14.648,0.000,0
37061.168,-10.742,-20.020,-23.438,0.000,0.000,0
37061.172,-17.578,-24.414,-21.973,-17.090,0.000,0
37061.176,-11.719,-27.344,-22.949,-3.418,0.000,0
37061.180,-10.742,-28.809,-28.809,-5.859,0.000,0
37061.184,-6.836,-19.531,-20.020,-7.812,0.000,0
37061.187,-5.371,-16.602,-12.207,-9.277,0.000,0
37061.191,-3.906,-20.996,-13.672,-6.836,0.000,0
37061.195,-7.324,-21.973,-19.043,-6.348,0.000,0
37061.199,-18.066,-22.949,-20.020,-13.672,0.000,0
37061.203,-20.508,-28.320,-20.996,-11.719,0.000,0
37061.207,-20.996,-28.809,-19.531,-10.742,0.000,0
37061.211,-23.438,-25.879,-14.648,-9.277,0.000,0
37061.215,-19.531,-25.879,-17.090,-3.906,0.000,2
37061.219,-19.043,-27.344,-21.973,-11.719,0.000,0
37061.223,-24.414,-27.344,-23.438,-20.020,0.000,0
37061.226,-25.879,-31.250,-23.926,-22.461,0.000,0
37061.230,-27.832,-31.738,-25.391,-25.879,0.000,0
37061.234,-26.367,-23.438,-29.785,-26.855,0.000,0
37061.238,-24.414,-26.855,-35.156,-28.809,0.000,0
37061.242,-20.020,-30.762,-33.691,-22.461,0.000,0
37061.246,-17.578,-28.320,-24.902,-26.367,0.000,0
37061.250,-20.996,-26.855,-20.020,-25.879,0.000,0
37061.254,-24.902,-30.762,-24.902,-22.949,0.000,0
37061.258,-33.691,-28.809,-28.809,-31.738,0.000,0
37061.262,-37.109,-29.297,-28.809,-30.273,0.000,0
37061.266,-34.668,-29.297,-25.391,-29.785,0.000,0
37061.269,-33.691,-27.832,-24.414,-37.598,0.000,0
37061.273,-28.320,-30.273,-21.973,-37.598,0.000,0
37061.277,-19.043,-26.855,-16.113,-23.926,0.000,0
37061.281,-14.160,-25.879,-18.555,-16.113,0.000,0
37061.285,-16.113,-26.367,-19.043,-17.578,0.000,0
37061.289,-22.949,-22.461,-13.672,-26.855,0.000,0
37061.293,-22.461,-21.973,-18.066,-26.367,0.000,0
37061.297,-20.996,-24.902,-19.043,-26.855,0.000,0
37061.301,-25.391,-25.879,-15.137,-28.809,0.000,0
37061.305,-31.250,-25.879,-21.484,-26.855,0.000,0
37061.309,-33.203,-22.949,-24.902,-32.227,0.000,0
37061.312,-22.949,-24.414,-28.320,-28.320,0.000,0
37061.316,-20.996,-25.879,-32.715,-22.461,0.000,0
37061.320,-24.414,-16.113,-22.949,-21.973,0.000,0
37061.324,-20.996,-11.719,-15.137,-26.367,0.000,0
37061.328,-17.090,-20.020,-13.184,-31.250,0.000,0
37061.332,-20.996,-21.484,-16.602,-23.926,0.000,0
37061.336,-24.414,-20.020,-19.043,-22.949,0.000,0
37061.340,-20.508,-20.020,-23.438,-13.184,0.000,0
37061.344,-22.949,-19.531,-27.832,-11.719,0.000,0
37061.348,-27.344,-17.090,-24.902,-31.250,0.000,0
37061.351,-24.902,-21.973,-28.809,-30.762,0.000,0
37061.355,-20.996,-28.809,-32.227,-19.531,0.000,0
37061.359,-13.184,-23.438,-21.484,-23.438,0.000,0
37061.363,-14.648,-20.508,-20.020,-25.879,0.000,0
37061.367,-19.531,-21.973,-15.137,-25.391,0.000,0
37061.371,-17.578,-18.555,-20.020,-30.762,0.000,0
37061.375,-17.578,-19.043,-29.785,-29.785,0.000,0
37061.379,-16.602,-20.996,-21.973,-19.043,0.000,0
37061.383,-19.043,-18.555,-18.555,-15.625,0.000,0
37061.387,-22.461,-20.020,-17.578,-21.484,0.000,0
37061.391,-12.695,-27.344,-19.531,-17.578,0.000,0
37061.394,-15.137,-23.926,-20.508,-15.625,0.000,0
37061.398,-20.508,-20.508,-21.484,-20.020,0.000,0
37061.402,-20.508,-25.391,-24.414,-18.555,0.000,0
37061.406,-22.949,-26.367,-27.832,-22.461,0.000,0
37061.410,-19.531,-23.438,-24.414,-19.531,0.000,0
37061.414,-22.949,-21.973,-19.043,-17.090,0.000,0
37061.418,-21.484,-34.180,-25.391,-16.602,0.000,0
37061.422,-16.113,-36.621,-26.367,-11.719,0.000,0
37061.426,-17.090,-27.344,-13.184,-18.555,0.000,0
37061.430,-18.555,-25.391,-12.695,-24.414,0.000,0
37061.434,-19.531,-24.414,-24.902,-22.461,0.000,0
37061.437,-20.508,-26.367,-25.391,-27.832,0.000,0
37061.441,-24.902,-27.344,-27.832,-23.438,0.000,0
37061.445,-25.391,-22.461,-21.973,-18.066,0.000,0
37061.449,-28.809,-21.484,-21.484,-29.297,0.000,0
37061.453,-28.809,-25.391,-34.180,-28.809,0.000,0
37061.457,-22.461,-22.949,-26.367,-10.742,0.000,0
37061.461,-26.367,-27.344,-22.461,-10.742,0.000,0
37061.465,-28.809,-31.738,-36.133,-21.484,0.000,0
37061.469,-30.273,-32.227,-41.504,-21.484,0.000,0
37061.473,-32.227,-35.156,-38.086,-16.602,0.000,0
37061.476,-28.809,-28.809,-23.438,-23.926,0.000,0
37061.480,-20.996,-21.484,-17.090,-12.695,0.000,0
37061.484,-20.996,-26.855,-20.508,-6.836,0.000,0
37061.488,-21.973,-26.855,-21.484,-20.508,0.000,0
37061.492,-18.555,-16.113,-16.602,-17.090,0.000,0
37061.496,-18.555,-21.484,-20.508,-14.160,0.000,0
37061.500,-17.090,-21.484,-21.973,-16.113,0.000,0
37061.504,-7.324,-9.766,0.488,-9.766,0.000,0
37061.508,-8.301,-14.160,-6.836,-21.973,0.000,0
37061.512,-20.020,-19.043,-21.973,-28.809,0.000,0
37061.516,-20.020,-19.531,-17.090,-22.461,0.000,0
37061.519,-18.555,-25.391,-25.879,-17.090,0.000,0
37061.523,-17.578,-30.762,-27.832,-28.320,0.000,0
37061.527,-17.090,-26.855,-13.672,-32.227,0.000,0
37061.531,-20.508,-25.391,-13.672,-16.113,0.000,0
37061.535,-20.020,-20.996,-15.137,-14.160,0.000,0
37061.539,-21.973,-17.090,-17.578,-23.438,0.000,0
37061.543,-28.320,-24.414,-25.391,-33.691,0.000,0
37061.547,-29.785,-23.438,-20.996,-37.109,0.000,0
37061.551,-31.738,-23.926,-18.066,-34.180,0.000,0
37061.555,-26.855,-30.273,-22.461,-26.367,0.000,0
37061.559,-23.438,-24.902,-17.090,-12.695,0.000,0
37061.562,-26.855,-19.531,-9.766,-13.672,0.000,0
37061.566,-27.344,-19.043,-19.043,-23.438,0.000,0
37061.570,-24.902,-25.879,-25.391,-35.156,0.000,0
37061.574,-21.484,-18.555,-20.020,-32.715,0.000,0
37061.578,-20.508,-14.160,-20.020,-22.461,0.000,0
37061.582,-16.602,-23.926,-16.602,-30.762,0.000,0
37061.586,-12.207,-16.602,-11.719,-35.156,0.000,0
37061.590,-10.254,-15.625,-12.695,-22.949,0.000,0
37061.594,-14.648,-22.461,-14.648,-17.578,0.000,0
37061.598,-17.090,-20.996,-18.066,-21.973,0.000,0
37061.601,-8.301,-19.531,-15.137,-18.555,0.000,0
37061.605,-7.324,-16.602,-7.324,-4.883,0.000,0
37061.609,-9.766,-12.207,-6.836,-5.859,0.000,0
37061.613,-20.020,-14.648,-12.695,-18.555,0.000,0
37061.617,-26.855,-14.160,-14.160,-18.066,0.000,0
37061.621,-25.879,-15.137,-15.137,-15.137,0.000,0
37061.625,-21.484,-19.531,-16.602,-20.508,0.000,0
37061.629,-18.555,-18.066,-20.508,-18.555,0.000,0
37061.633,-21.973,-20.508,-22.949,-16.602,0.000,0
37061.637,-10.742,-21.973,-10.742,-9.766,0.000,0
37061.641,-4.883,-18.066,-12.695,-10.254,0.000,0
37061.644,-6.348,-19.043,-23.438,-3.418,0.000,0
37061.648,-11.719,-19.531,-24.414,6.348,0.000,0
37061.652,-15.625,-16.113,-21.973,-0.977,0.000,0
37061.656,-20.996,-19.531,-25.391,-13.184,0.000,0
37061.660,-29.785,-26.367,-22.461,-25.879,0.000,0
37061.664,-21.973,-23.438,-13.672,-31.250,0.000,0
37061.668,-17.578,-18.066,-19.531,-13.672,0.000,0
37061.672,-20.996,-19.531,-24.902,-13.184,0.000,0
37061.676,-18.066,-17.578,-19.043,-20.996,0.000,0
37061.680,-15.137,-17.090,-8.789,-6.348,0.000,0
37061.684,-15.137,-19.043,-14.648,-6.348,0.000,0
37061.687,-14.160,-21.973,-17.090,-20.996,0.000,0
37061.691,-14.160,-20.020,-7.324,-19.531,0.000,0
37061.695,-18.066,-14.648,-10.742,-7.812,0.000,0
37061.699,-17.090,-13.184,-11.230,-8.789,0.000,0
37061.703,-15.137,-16.113,-12.207,-13.672,0.000,0
37061.707,-23.926,-19.531,-20.996,-8.301,0.000,0
37061.711,-24.902,-20.508,-18.555,-7.324,0.000,0
37061.715,-18.555,-20.996,-18.555,-12.695,0.000,0
37061.719,-22.461,-25.879,-25.391,-19.043,0.000,0
37061.723,-27.832,-24.414,-27.832,-20.996,0.000,0
37061.726,-23.926,-20.996,-24.414,-20.508,0.000,0
37061.730,-26.367,-22.949,-25.391,-30.762,0.000,0
37061.734,-26.367,-21.973,-29.297,-29.785,0.000,0
37061.738,-14.160,-24.902,-15.137,-8.301,0.000,0
37061.742,-9.277,-26.367,-1.465,-6.836,0.000,0
37061.746,-19.531,-24.902,-15.137,-24.902,0.000,0
37061.750,-21.973,-26.855,-22.949,-22.461,0.000,1
37061.754,-17.578,-25.391,-19.043,-12.695,0.000,0
37061.758,-20.020,-21.484,-13.672,-25.391,0.000,0
37061.762,-21.484,-21.973,-14.648,-33.691,0.000,0
37061.766,-21.484,-23.926,-23.438,-25.879,0.000,0
37061.769,-19.043,-20.508,-31.738,-18.555,0.000,0
37061.773,-15.625,-19.531,-35.156,-10.742,0.000,0
37061.777,-13.184,-21.484,-26.367,-9.277,0.000,0
37061.781,-13.184,-18.555,-20.020,-12.695,0.000,0
37061.785,-8.789,-15.137,-20.020,-10.742,0.000,0
37061.789,-10.742,-20.508,-19.531,-17.090,0.000,0
37061.793,-16.113,-21.973,-23.926,-15.625,0.000,0
37061.797,-11.230,-22.461,-19.043,-6.836,0.000,0
37061.801,-9.766,-24.902,-17.578,-6.348,0.000,0
37061.805,-14.160,-24.902,-29.785,-9.766,0.000,0
37061.809,-13.184,-23.438,-32.227,-18.555,0.000,0
37061.812,-9.277,-21.973,-27.344,-26.855,0.000,0
37061.816,-15.625,-25.391,-29.297,-23.438,0.000,0
37061.820,-21.484,-26.367,-34.180,-17.090,0.000,0
37061.824,-20.996,-21.484,-29.297,-13.184,0.000,0
37061.828,-21.484,-24.902,-19.043,-18.555,0.000,0
37061.832,-23.926,-25.879,-21.973,-20.996,0.000,0
37061.836,-28.809,-27.832,-23.926,-28.809,0.000,0
37061.840,-27.832,-28.809,-17.090,-33.203,0.000,0
37061.844,-24.414,-25.391,-24.414,-26.367,0.000,0
37061.848,-29.297,-27.344,-27.344,-32.227,0.000,0
37061.851,-20.020,-26.855,-22.949,-23.438,0.000,0
37061.855,-7.812,-28.320,-17.578,-23.438,0.000,0
37061.859,-26.367,-26.367,-19.043,-38.574,0.000,0
37061.863,-37.598,-21.973,-21.484,-30.762,0.000,0
37061.867,-32.227,-26.855,-19.531,-20.508,0.000,0
37061.871,-35.645,-30.273,-27.832,-19.531,0.000,0
37061.875,-30.762,-32.227,-24.902,-22.461,0.000,0
37061.879,-29.297,-37.598,-19.531,-22.949,0.000,0
37061.883,-29.297,-33.691,-30.273,-19.531,0.000,0
37061.887,-23.438,-25.879,-26.855,-20.508,0.000,0
37061.891,-20.996,-22.949,-18.555,-12.207,0.000,0
37061.894,-23.926,-26.367,-20.020,-15.625,0.000,0
37061.898,-23.438,-27.832,-20.020,-17.090,0.000,0
37061.902,-20.996,-22.949,-22.949,-13.672,0.000,0
37061.906,-18.066,-26.855,-25.391,-15.625,0.000,0
37061.910,-9.766,-25.879,-25.879,-8.789,0.000,0
37061.914,-8.301,-15.137,-19.043,-12.695,0.000,0
37061.918,-3.906,-14.160,-12.207,-9.277,0.000,0
37061.922,4.395,-19.043,-17.090,9.277,0.000,0
37061.926,-8.789,-21.973,-25.391,-2.441,0.000,0
37061.930,-36.621,-21.484,-28.320,-20.996,0.000,0
37061.934,-43.457,-22.949,-23.926,-23.926,0.000,0
37061.937,-37.109,-25.879,-20.996,-28.809,0.000,0
37061.941,-21.973,-20.996,-26.367,-25.879,0.000,0
37061.945,-17.578,-16.113,-31.738,-21.484,0.000,0
37061.949,-19.531,-14.648,-22.461,-8.301,0.000,0
37061.953,-15.137,-14.160,-15.625,-10.254,0.000,0
37061.957,-15.137,-13.672,-20.996,-26.367,0.000,0
37061.961,-16.113,-15.137,-21.973,-21.973,0.000,0
37061.965,-21.484,-16.602,-24.414,-19.531,0.000,0
37061.969,-22.949,-16.602,-28.320,-14.648,0.000,0
37061.973,-16.602,-17.578,-20.996,-3.906,0.000,0
37061.976,-13.184,-11.230,-15.137,-7.812,0.000,0
37061.980,-18.066,-12.695,-14.648,-13.672,0.000,0
37061.984,-26.855,-19.531,-16.602,-20.996,0.000,0
37061.988,-30.273,-21.973,-20.508,-23.926,0.000,0
37061.992,-31.250,-20.508,-20.996,-18.066,0.000,0
37061.996,-31.738,-18.555,-20.996,-25.391,0.000,0
37062.000,-26.367,-18.555,-24.902,-25.391,0.000,0
37062.004,-21.973,-20.020,-21.484,-15.625,0.000,0
37062.008,-24.902,-20.020,-18.066,-8.789,0.000,0
37062.012,-31.250,-26.855,-28.809,-19.043,0.000,0
37062.016,-36.621,-32.715,-30.762,-33.691,0.000,0
37062.019,-33.203,-23.926,-25.391,-19.043,0.000,0
37062.023,-26.855,-22.949,-26.855,-13.184,0.000,0
37062.027,-28.320,-25.391,-26.855,-22.461,0.000,0
37062.031,-26.367,-26.855,-28.809,-20.508,0.000,0
37062.035,-22.949,-26.855,-23.926,-25.879,0.000,0
37062.039,-20.020,-26.855,-16.602,-22.461,0.000,0
37062.043,-12.695,-26.367,-11.230,-13.672,0.000,0
37062.047,-12.695,-23.926,-10.742,-10.742,0.000,0
37062.051,-15.625,-20.020,-11.719,-3.418,0.000,0
37062.055,-14.648,-23.438,-8.789,-3.418,0.000,0
37062.059,-15.625,-24.902,-12.695,-16.113,0.000,0
37062.062,-19.043,-20.020,-17.578,-20.996,0.000,0
37062.066,-13.672,-20.508,-19.043,-11.230,0.000,0
37062.070,-8.789,-20.996,-13.184,-7.324,0.000,0
37062.074,-19.043,-28.809,-20.020,-27.832,0.000,0
37062.078,-15.137,-22.949,-28.809,-27.344,0.000,0
37062.082,-15.137,-14.160,-20.020,-10.742,0.000,0
37062.086,-21.973,-19.043,-25.879,-11.230,0.000,0
37062.090,-20.508,-21.484,-27.344,-11.719,0.000,0
37062.094,-22.461,-20.508,-17.090,-2.930,0.000,0
37062.098,-21.484,-21.973,-23.438,-9.766,0.000,0
37062.101,-24.414,-27.344,-31.250,-25.391,0.000,0
37062.105,-31.738,-25.391,-35.645,-32.715,0.000,0
37062.109,-29.785,-22.949,-33.691,-33.203,0.000,0
37062.113,-19.043,-19.531,-11.719,-30.273,0.000,0
37062.117,-17.578,-18.555,-15.625,-29.297,0.000,0
37062.121,-18.555,-24.414,-26.855,-22.949,0.000,0
37062.125,-20.508,-22.949,-22.949,-20.508,0.000,0
37062.129,-20.996,-19.531,-14.160,-22.461,0.000,0
37062.133,-23.926,-24.902,-12.207,-19.531,0.000,0
37062.137,-30.273,-29.297,-22.949,-24.902,0.000,0
37062.141,-30.762,-21.484,-20.508,-35.645,0.000,0
37062.144,-27.832,-16.113,-18.066,-20.508,0.000,0
37062.148,-21.973,-20.508,-29.297,-5.371,0.000,0
37062.152,-21.973,-22.949,-29.297,-15.625,0.000,0
37062.156,-28.809,-18.555,-24.414,-20.508,0.000,0
37062.160,-25.391,-19.043,-25.391,-13.184,0.000,0
37062.164,-20.996,-30.273,-28.320,-21.973,0.000,0
37062.168,-25.879,-30.762,-24.414,-27.344,0.000,0
37062.172,-25.879,-29.297,-19.043,-29.785,0.000,0
37062.176,-21.484,-29.785,-20.508,-30.273,0.000,0
37062.180,-23.438,-24.902,-22.461,-26.855,0.000,0
37062.184,-30.273,-24.902,-30.762,-24.902,0.000,0
37062.187,-30.273,-28.320,-30.273,-23.438,0.000,0
37062.191,-24.902,-26.855,-16.113,-25.391,0.000,0
37062.195,-19.043,-24.414,-20.020,-16.113,0.000,0
37062.199,-16.113,-24.414,-22.949,-13.672,0.000,0
37062.203,-17.090,-22.461,-14.160,-21.973,0.000,0
37062.207,-17.090,-23.438,-23.438,-28.809,0.000,0
37062.211,-19.043,-24.414,-23.926,-32.715,0.000,0
37062.215,-23.926,-23.438,-20.996,-32.227,0.000,0
37062.219,-27.832,-22.461,-24.902,-34.180,0.000,0
37062.223,-25.391,-20.996,-26.855,-22.461,0.000,0
37062.226,-24.414,-27.832,-24.902,-19.043,0.000,0
37062.230,-27.832,-23.926,-17.090,-29.297,0.000,0
37062.234,-25.879,-20.508,-17.578,-19.531,0.000,0
37062.238,-29.785,-27.344,-26.855,-27.832,0.000,0
37062.242,-37.109,-28.320,-23.926,-31.250,0.000,0
37062.246,-32.715,-25.391,-20.508,-16.113,0.000,0
37062.250,-29.785,-28.320,-22.949,-30.762,0.000,0
37062.254,-37.598,-35.156,-32.715,-46.875,0.000,0
37062.258,-38.086,-36.133,-33.203,-41.504,0.000,0
37062.262,-38.574,-28.320,-27.344,-36.133,0.000,0
37062.266,-34.180,-22.949,-25.391,-28.809,0.000,0
37062.269,-26.855,-24.414,-16.113,-20.508,0.000,0
37062.273,-28.809,-22.949,-13.672,-17.578,0.000,0
37062.277,-28.320,-22.461,-11.719,-20.508,0.000,0
37062.281,-26.367,-23.926,-9.277,-24.414,0.000,0
37062.285,-29.785,-21.484,-19.043,-26.855,0.000,0
37062.289,-25.391,-24.902,-17.578,-27.344,0.000,0
37062.293,-16.602,-20.020,-13.672,-28.320,0.000,0
37062.297,-23.438,-17.090,-22.949,-31.738,0.000,0
37062.301,-31.738,-23.926,-29.297,-37.109,0.000,0
37062.305,-27.832,-21.484,-23.926,-33.203,0.000,0
37062.309,-29.297,-26.855,-19.531,-17.090,0.000,0
37062.312,-38.574,-32.715,-21.484,-32.715,0.000,0
37062.316,-39.551,-27.344,-22.461,-43.457,0.000,0
37062.320,-31.738,-22.461,-16.113,-25.391,0.000,2
37062.324,-25.879,-20.996,-15.137,-21.484,0.000,0
37062.328,-22.949,-22.949,-19.043,-27.832,0.000,0
37062.332,-25.879,-24.414,-18.066,-28.320,0.000,0
37062.336,-29.297,-26.855,-17.090,-18.555,0.000,0
37062.340,-34.668,-29.785,-19.531,-33.203,0.000,0
37062.344,-34.180,-27.344,-27.344,-39.551,0.000,0
37062.348,-34.180,-27.344,-26.855,-32.227,0.000,0
37062.351,-34.668,-25.879,-18.066,-34.668,0.000,0
37062.355,-29.297,-26.855,-25.391,-37.109,0.000,0
37062.359,-19.043,-25.879,-29.297,-29.785,0.000,0
37062.363,-21.973,-22.461,-23.438,-19.043,0.000,0
37062.367,-24.902,-22.949,-15.137,-10.742,0.000,0
37062.371,-23.926,-18.555,-16.602,-4.395,0.000,0
37062.375,-24.902,-13.184,-21.973,-13.184,0.000,0
37062.379,-26.367,-14.648,-22.949,-20.996,0.000,0
37062.383,-23.438,-14.648,-22.461,-17.578,0.000,0
37062.387,-28.320,-17.090,-19.531,-24.414,0.000,0
37062.391,-33.203,-20.508,-25.879,-33.203,0.000,0
37062.394,-20.508,-15.137,-22.461,-31.738,0.000,0
37062.398,-20.508,-6.836,-5.371,-19.531,0.000,0
37062.402,-25.879,-15.625,-18.555,-17.090,0.000,0
37062.406,-21.484,-22.461,-20.508,-20.020,0.000,0
37062.410,-21.484,-18.066,-12.207,-15.625,0.000,0
37062.414,-21.973,-17.090,-22.461,-6.348,0.000,0
37062.418,-17.090,-14.160,-20.020,-7.324,0.000,0
37062.422,-8.789,-20.020,-17.090,-11.719,0.000,0
37062.426,-15.137,-23.926,-19.531,-20.020,0.000,0
37062.430,-24.902,-16.113,-17.578,-20.020,0.000,0
37062.434,-24.414,-22.461,-29.297,-20.020,0.000,0
37062.437,-24.414,-23.926,-33.691,-25.391,0.000,0
37062.441,-20.508,-17.578,-23.438,-14.648,0.000,0
37062.445,-16.113,-21.973,-23.438,-19.043,0.000,0
37062.449,-18.555,-21.973,-27.832,-18.066,0.000,0
37062.453,-20.508,-18.555,-26.855,-12.695,0.000,0
37062.457,-19.531,-20.508,-19.531,-19.043,0.000,0
37062.461,-19.531,-25.391,-18.066,-18.066,0.000,0
37062.465,-22.949,-27.832,-17.090,-29.785,0.000,0
37062.469,-29.785,-27.344,-14.160,-36.133,0.000,0
37062.473,-35.645,-30.762,-23.926,-26.855,0.000,0
37062.476,-28.809,-31.250,-24.414,-17.090,0.000,0
37062.480,-22.949,-23.438,-29.785,-17.090,0.000,0
37062.484,-21.973,-24.414,-17.578,-23.438,0.000,0
37062.488,-20.996,-23.438,-5.371,-19.043,0.000,0
37062.492,-23.926,-24.414,-30.273,-18.555,0.000,0
37062.496,-19.531,-27.832,-30.762,-16.113,0.000,0
37062.500,-12.695,-24.414,-21.484,-7.812,0.000,0
37062.504,-15.137,-24.902,-12.207,-22.461,0.000,0
37062.508,-17.090,-22.461,-9.277,-28.809,0.000,0
37062.512,-15.137,-23.926,-17.090,-18.555,0.000,0
37062.516,-14.160,-23.926,-20.508,-17.578,0.000,0
37062.519,-9.277,-16.113,-21.973,-18.555,0.000,0
37062.523,-17.090,-20.020,-23.438,-15.137,0.000,0
37062.527,-24.414,-29.297,-22.461,-25.391,0.000,0
37062.531,-10.742,-29.297,-14.160,-23.926,0.000,0
37062.535,4.883,-20.996,-12.207,-6.348,0.000,0
37062.539,-12.695,-21.484,-20.996,-9.277,0.000,0
37062.543,-31.738,-19.043,-13.184,-32.715,0.000,0
37062.547,-26.855,-11.719,-10.742,-41.504,0.000,0
37062.551,-21.484,-16.602,-31.250,-24.902,0.000,0
37062.555,-17.578,-14.648,-29.297,-18.066,0.000,0
37062.559,-24.414,-16.602,-24.414,-20.020,0.000,0
37062.562,-24.902,-18.555,-17.090,-19.043,0.000,0
37062.566,-23.926,-13.184,-10.742,-21.484,0.000,0
37062.570,-21.484,-15.137,-19.043,-21.484,0.000,0
37062.574,-9.766,-14.648,-15.625,-2.930,0.000,0
37062.578,-8.789,-17.578,-16.113,-0.488,0.000,0
37062.582,-15.137,-24.414,-23.926,-19.531,0.000,0
37062.586,-26.855,-27.832,-21.973,-17.578,0.000,0
37062.590,-39.062,-29.297,-23.926,-7.812,0.000,0
37062.594,-40.527,-25.391,-27.832,-19.043,0.000,0
37062.598,-31.738,-24.902,-26.855,-28.320,0.000,0
37062.601,-23.438,-22.461,-15.625,-18.066,0.000,0
37062.605,-17.090,-19.043,-10.254,-15.137,0.000,0
37062.609,-13.184,-18.555,-17.090,-16.602,0.000,0
37062.613,-15.137,-20.020,-21.973,-10.742,0.000,0
37062.617,-10.254,-23.926,-14.160,-6.836,0.000,0
37062.621,-9.277,-21.484,-7.812,-12.207,0.000,0
37062.625,-14.160,-24.902,-15.137,-20.508,0.000,0
37062.629,-15.625,-23.926,-16.113,-22.949,0.000,0
37062.633,-11.719,-16.602,-7.812,-19.531,0.000,0
37062.637,-12.695,-16.602,-7.324,-13.184,0.000,0
37062.641,-21.484,-22.461,-20.996,-15.625,0.000,0
37062.644,-21.973,-26.367,-16.602,-15.137,0.000,0
37062.648,-18.066,-24.902,-9.277,-15.625,0.000,0
37062.652,-21.973,-21.973,-17.578,-16.602,0.000,0
37062.656,-22.949,-22.461,-27.344,-14.648,0.000,0
37062.660,-22.949,-21.973,-21.973,-18.555,0.000,0
37062.664,-24.902,-19.043,-15.137,-18.555,0.000,0
37062.668,-24.902,-20.996,-23.438,-26.367,0.000,0
37062.672,-28.320,-21.484,-23.438,-39.062,0.000,0
37062.676,-29.297,-20.996,-24.414,-33.203,0.000,0
37062.680,-28.320,-23.438,-25.879,-26.855,0.000,0
37062.684,-25.391,-18.555,-27.344,-28.320,0.000,0
37062.687,-22.461,-17.578,-27.344,-21.484,0.000,0
37062.691,-28.320,-20.020,-26.367,-20.508,0.000,0
37062.695,-28.809,-9.766,-20.996,-21.973,0.000,0
37062.699,-26.367,-9.766,-19.531,-20.020,0.000,0
37062.703,-24.414,-15.625,-18.555,-21.484,0.000,0
37062.707,-23.438,-17.578,-19.043,-20.996,0.000,0
37062.711,-33.203,-18.555,-26.367,-31.250,0.000,0
37062.715,-35.645,-22.461,-29.297,-20.996,0.000,0
37062.719,-25.391,-23.438,-31.250,-18.555,0.000,0
37062.723,-18.066,-19.531,-12.207,-39.062,0.000,0
37062.726,-20.508,-16.113,-5.859,-34.668,0.000,0
37062.730,-20.020,-21.484,-28.320,-27.344,0.000,0
37062.734,-13.672,-27.344,-23.438,-21.973,0.000,0
37062.738,-19.531,-19.043,-14.648,-16.602,0.000,0
37062.742,-17.578,-11.230,-13.672,-13.184,0.000,0
37062.746,-13.184,-18.066,-20.020,-22.949,0.000,0
37062.750,-20.508,-24.902,-21.973,-30.762,0.000,0
37062.754,-21.484,-24.414,-16.602,-20.996,0.000,0
37062.758,-21.973,-22.949,-23.438,-15.137,0.000,0
37062.762,-23.438,-31.250,-28.809,-20.508,0.000,0
37062.766,-14.648,-22.461,-19.043,-15.137,0.000,0
37062.769,-15.137,-15.137,-8.789,-9.277,0.000,0
37062.773,-24.902,-22.949,-19.531,-17.578,0.000,0
37062.777,-22.949,-26.367,-32.715,-20.020,0.000,0
37062.781,-24.902,-28.320,-26.367,-14.648,0.000,0
37062.785,-28.320,-29.785,-22.461,-19.043,0.000,0
37062.789,-29.297,-32.227,-31.250,-28.809,0.000,0
37062.793,-32.227,-34.668,-26.855,-21.484,0.000,0
37062.797,-29.297,-31.250,-25.391,-12.695,0.000,0
37062.801,-20.020,-30.273,-20.996,-18.555,0.000,0
37062.805,-17.090,-27.832,-18.555,-20.020,0.000,0
37062.809,-23.926,-31.250,-27.344,-31.250,0.000,0
37062.812,-17.578,-30.273,-25.879,-18.066,0.000,0
37062.816,-11.230,-27.344,-31.738,0.977,0.000,0
37062.820,-11.230,-31.738,-27.832,-10.254,0.000,0
37062.824,-11.230,-28.809,-24.902,-7.812,0.000,0
37062.828,-16.602,-29.297,-21.973,-0.488,0.000,0
37062.832,-20.508,-31.250,-23.926,-2.441,0.000,0
37062.836,-20.508,-29.297,-20.020,-10.742,0.000,0
37062.840,-28.320,-27.832,-11.719,-18.066,0.000,0
37062.844,-35.645,-27.344,-20.508,-20.996,0.000,0
37062.848,-32.227,-27.344,-20.508,-22.949,0.000,0
37062.851,-32.227,-24.414,-22.461,-11.230,0.000,0
37062.855,-36.133,-22.949,-26.367,-12.207,0.000,0
37062.859,-31.738,-22.949,-8.789,-32.227,0.000,0
37062.863,-20.996,-21.973,-15.625,-28.320,0.000,0
37062.867,-14.648,-24.414,-29.297,-14.648,0.000,0
37062.871,-21.973,-27.832,-23.438,-19.531,0.000,0
37062.875,-29.785,-31.250,-20.508,-27.344,0.000,0
37062.879,-24.414,-24.414,-20.020,-30.273,0.000,0
37062.883,-21.484,-14.160,-23.438,-25.391,0.000,0
37062.887,-26.367,-15.137,-28.320,-22.461,0.000,0
37062.891,-28.809,-21.973,-29.297,-23.926,0.000,0
37062.894,-27.344,-26.855,-25.879,-22.461,0.000,0
37062.898,-20.020,-27.832,-21.973,-17.578,0.000,0
37062.902,-12.695,-25.391,-22.461,-15.137,0.000,0
37062.906,-18.066,-25.391,-26.367,-20.996,0.000,1
37062.910,-26.367,-28.809,-31.250,-23.926,0.000,0
37062.914,-29.785,-28.320,-27.832,-24.902,0.000,0
37062.918,-32.715,-30.273,-26.855,-28.320,0.000,0
37062.922,-35.156,-33.691,-29.297,-26.855,0.000,0
37062.926,-30.273,-34.668,-25.879,-28.809,0.000,0
37062.930,-26.855,-29.297,-25.879,-25.391,0.000,0
37062.934,-27.344,-30.273,-29.297,-20.996,0.000,0
37062.937,-24.902,-31.738,-26.855,-23.438,0.000,0
37062.941,-24.902,-27.344,-23.926,-22.949,0.000,0
37062.945,-27.832,-20.508,-20.508,-25.391,0.000,0
37062.949,-26.367,-13.672,-14.648,-21.484,0.000,0
37062.953,-25.879,-25.879,-17.578,-20.996,0.000,0
37062.957,-32.227,-33.691,-21.973,-31.250,0.000,0
37062.961,-34.180,-28.320,-20.020,-34.180,0.000,0
37062.965,-32.715,-25.879,-16.113,-23.438,0.000,0
37062.969,-26.855,-26.367,-16.113,-17.578,0.000,0
37062.973,-17.578,-23.926,-7.324,-16.602,0.000,0
37062.976,-25.879,-25.391,-4.883,-20.996,0.000,0
37062.980,-32.715,-28.809,-15.137,-25.391,0.000,0
37062.984,-25.879,-28.809,-14.648,-20.508,0.000,0
37062.988,-22.461,-21.484,-11.719,-9.277,0.000,0
37062.992,-24.902,-20.020,-16.113,-18.555,0.000,0
37062.996,-24.902,-21.973,-20.020,-36.133,0.000,0
37063.000,-25.391,-24.902,-20.996,-33.691,0.000,0
37063.004,-24.902,-21.484,-17.090,-20.996,0.000,0
37063.008,-20.020,-19.043,-15.625,-13.184,0.000,0
37063.012,-14.648,-24.902,-16.602,-20.020,0.000,0
37063.016,-21.484,-26.367,-22.949,-29.785,0.000,0
37063.019,-22.949,-23.926,-23.438,-34.180,0.000,0
37063.023,-19.043,-25.879,-16.602,-27.832,0.000,0
37063.027,-20.996,-27.832,-23.926,-15.137,0.000,0
37063.031,-15.625,-26.855,-20.508,-18.555,0.000,0
37063.035,-5.371,-27.344,-11.719,-16.113,0.000,0
37063.039,-9.766,-21.973,-20.020,-13.184,0.000,0
37063.043,-12.695,-21.484,-23.926,-20.508,0.000,0
37063.047,-13.672,-20.996,-20.020,-18.066,0.000,0
37063.051,-13.184,-16.602,-5.859,-14.160,0.000,0
37063.055,-11.719,-18.555,-8.301,-19.531,0.000,0
37063.059,-18.555,-17.090,-12.695,-20.020,0.000,0
37063.062,-18.555,-17.578,-13.672,-16.602,0.000,0
37063.066,-13.672,-21.484,-19.043,-15.137,0.000,0
37063.070,-15.137,-21.973,-15.137,-20.508,0.000,0
37063.074,-21.973,-25.879,-16.602,-23.438,0.000,0
37063.078,-21.484,-22.949,-22.949,-14.648,0.000,0
37063.082,-9.277,-16.113,-16.113,-6.836,0.000,0
37063.086,-9.766,-16.113,-11.719,-15.625,0.000,0
37063.090,-19.043,-22.461,-13.672,-25.879,0.000,0
37063.094,-16.602,-23.926,-8.789,-23.926,0.000,0
37063.098,-20.020,-18.066,-13.672,-24.414,0.000,0
37063.101,-28.320,-23.926,-16.602,-32.227,0.000,0
37063.105,-33.203,-26.367,-17.090,-24.414,0.000,0
37063.109,-31.250,-21.484,-17.090,-12.207,0.000,0
37063.113,-33.203,-27.344,-16.113,-20.996,0.000,0
37063.117,-34.668,-30.762,-28.809,-27.344,0.000,0
37063.121,-38.086,-30.273,-36.621,-37.109,0.000,0
37063.125,-31.738,-23.438,-23.438,-33.691,0.000,0
37063.129,-28.809,-18.066,-13.672,-31.250,0.000,0
37063.133,-38.574,-26.367,-16.113,-41.016,0.000,0
37063.137,-40.527,-26.367,-18.555,-36.621,0.000,0
37063.141,-42.480,-20.996,-17.090,-37.109,0.000,0
37063.144,-45.410,-25.391,-28.809,-41.504,0.000,0
37063.148,-40.527,-30.762,-26.367,-40.527,0.000,0
37063.152,-34.180,-24.902,-11.230,-41.992,0.000,0
37063.156,-36.133,-20.508,-17.090,-34.668,0.000,0
37063.160,-37.598,-21.484,-24.414,-30.273,0.000,0
37063.164,-41.504,-25.391,-20.508,-34.668,0.000,0
37063.168,-45.898,-29.785,-21.484,-34.180,0.000,0
37063.172,-35.645,-29.785,-23.926,-24.902,0.000,0
37063.176,-34.180,-21.973,-23.926,-22.949,0.000,0
37063.180,-37.598,-20.508,-27.344,-27.832,0.000,0
37063.184,-28.320,-20.020,-21.973,-23.438,0.000,0
37063.187,-28.320,-22.461,-20.996,-28.320,0.000,0
37063.191,-32.227,-28.809,-20.020,-39.551,0.000,0
37063.195,-29.785,-31.250,-17.090,-29.297,0.000,0
37063.199,-32.715,-31.738,-22.949,-23.926,0.000,0
37063.203,-35.156,-30.762,-22.949,-27.344,0.000,0
37063.207,-25.391,-24.414,-18.555,-9.766,0.000,0
37063.211,-19.531,-16.113,-13.184,-13.184,0.000,0
37063.215,-15.137,-11.719,-6.348,-9.277,0.000,0
37063.219,-12.207,-15.137,-10.254,1.465,0.000,0
37063.223,-19.043,-21.973,-17.090,-14.160,0.000,0
37063.226,-28.809,-25.879,-16.602,-12.207,0.000,0
37063.230,-31.250,-24.902,-10.742,-5.371,0.000,0
37063.234,-24.902,-24.414,-17.578,-19.531,0.000,0
37063.238,-26.367,-28.320,-29.297,-35.156,0.000,0
37063.242,-23.438,-25.879,-29.297,-26.855,0.000,0
37063.246,-12.207,-16.602,-18.555,-9.766,0.000,0
37063.250,-22.461,-15.625,-13.672,-14.160,0.000,0
37063.254,-31.250,-19.531,-20.996,-15.137,0.000,0
37063.258,-22.461,-18.555,-19.531,-13.184,0.000,0
37063.262,-18.555,-15.625,-13.672,-16.602,0.000,0
37063.266,-16.602,-17.578,-19.043,-17.578,0.000,0
37063.269,-16.113,-17.578,-17.578,-23.438,0.000,0
37063.273,-13.672,-15.625,-10.742,-20.996,0.000,0
37063.277,-11.719,-15.137,-10.742,-14.648,0.000,0
37063.281,-19.043,-21.973,-22.461,-21.973,0.000,0
37063.285,-19.531,-26.855,-22.949,-22.949,0.000,0
37063.289,-21.973,-28.320,-13.672,-17.578,0.000,0
37063.293,-31.250,-28.809,-19.531,-24.902,0.000,0
37063.297,-24.414,-21.484,-24.902,-30.273,0.000,0
37063.301,-22.461,-19.531,-24.414,-26.855,0.000,0
37063.305,-25.879,-22.949,-15.137,-15.625,0.000,0
37063.309,-24.414,-24.902,-11.719,-9.277,0.000,0
37063.312,-29.297,-28.320,-20.996,-25.391,0.000,0
37063.316,-29.297,-27.344,-26.855,-34.668,0.000,0
37063.320,-27.344,-21.484,-22.949,-33.203,0.000,0
37063.324,-30.273,-24.414,-23.438,-38.574,0.000,0
37063.328,-29.785,-24.414,-27.344,-38.574,0.000,0
37063.332,-31.250,-21.484,-20.508,-38.086,0.000,0
37063.336,-25.879,-19.531,-7.812,-31.738,0.000,0
37063.340,-18.555,-22.949,-14.648,-33.691,0.000,0
37063.344,-24.902,-23.438,-27.832,-32.227,0.000,0
37063.348,-34.668,-27.832,-28.809,-32.227,0.000,0
37063.351,-34.180,-22.461,-20.020,-36.621,0.000,0
37063.355,-27.832,-19.531,-26.367,-28.320,0.000,0
37063.359,-29.785,-25.879,-30.273,-23.438,0.000,0
37063.363,-35.156,-24.414,-19.531,-27.832,0.000,0
37063.367,-34.668,-23.438,-15.137,-27.832,0.000,0
37063.371,-34.180,-27.344,-20.996,-32.227,0.000,0
37063.375,-32.227,-33.203,-31.250,-36.621,0.000,0
37063.379,-32.227,-33.203,-19.531,-34.668,0.000,0
37063.383,-30.762,-27.832,-16.602,-26.855,0.000,0
37063.387,-29.297,-31.250,-22.461,-29.297,0.000,0
37063.391,-22.949,-29.297,-17.578,-26.367,0.000,0
37063.394,-20.508,-22.461,-23.926,-19.043,0.000,0
37063.398,-28.320,-26.367,-27.344,-23.926,0.000,0
37063.402,-22.949,-27.832,-22.461,-13.184,0.000,0
37063.406,-22.949,-26.367,-15.137,-20.020,0.000,0
37063.410,-32.227,-31.250,-22.461,-28.809,0.000,0
37063.414,-26.367,-21.484,-21.484,-13.184,0.000,0
37063.418,-23.926,-20.020,-16.602,-18.555,0.000,0
37063.422,-32.715,-30.273,-20.020,-25.879,0.000,0
37063.426,-32.227,-31.250,-15.137,-30.273,0.000,0
37063.430,-32.715,-32.715,-26.367,-36.621,0.000,0
37063.434,-35.156,-36.133,-33.203,-30.762,0.000,0
37063.437,-26.855,-29.785,-19.531,-25.879,0.000,0
37063.441,-28.320,-25.391,-20.508,-32.715,0.000,0
37063.445,-34.668,-33.203,-22.949,-41.016,0.000,0
37063.449,-41.016,-38.086,-20.996,-45.410,0.000,0
37063.453,-38.086,-35.645,-23.926,-41.504,0.000,0
37063.457,-28.809,-28.320,-21.484,-33.691,0.000,0
37063.461,-30.762,-34.180,-25.879,-27.832,0.000,0
37063.465,-30.273,-31.738,-20.508,-34.668,0.000,0
37063.469,-28.320,-19.043,-12.207,-42.969,0.000,0
37063.473,-25.879,-19.531,-17.578,-41.016,0.000,0
37063.476,-18.066,-18.555,-12.207,-31.738,0.000,0
37063.480,-21.484,-17.090,-12.695,-14.648,0.000,0
37063.484,-23.438,-20.508,-14.160,-20.020,0.000,0
37063.488,-17.090,-22.949,-12.207,-27.832,0.000,0
37063.492,-16.113,-26.855,-23.926,-12.695,0.000,0
37063.496,-17.578,-27.832,-26.855,-13.184,0.000,0
37063.500,-20.508,-29.785,-28.320,-22.949,0.000,0
37063.504,-19.531,-31.250,-24.414,-22.461,0.000,0
37063.508,-18.066,-27.832,-15.625,-25.879,0.000,0
37063.512,-19.531,-26.855,-8.301,-29.785,0.000,0
37063.516,-25.391,-31.250,-12.695,-27.832,0.000,0
37063.519,-21.973,-33.691,-28.809,-24.414,0.000,0
37063.523,-19.043,-24.414,-16.113,-34.180,0.000,0
37063.527,-25.879,-21.973,-14.648,-42.480,0.000,0
37063.531,-20.020,-23.438,-27.832,-23.926,0.000,0
37063.535,-22.461,-27.344,-34.180,-20.508,0.000,0
37063.539,-29.785,-26.367,-30.762,-24.414,0.000,0
37063.543,-20.996,-21.973,-15.137,-12.695,0.000,0
37063.547,-22.461,-27.344,-19.531,-22.949,0.000,0
37063.551,-29.785,-27.832,-28.809,-27.344,0.000,1
37063.555,-25.391,-17.090,-18.066,-14.648,0.000,0
37063.559,-23.926,-14.160,-15.625,-7.812,0.000,0
37063.562,-29.297,-25.879,-24.414,-12.695,0.000,0
37063.566,-32.227,-28.320,-29.297,-18.555,0.000,0
37063.570,-39.062,-25.391,-35.156,-19.531,0.000,0
37063.574,-40.039,-29.785,-33.203,-20.020,0.000,0
37063.578,-33.691,-29.297,-25.879,-20.508,0.000,0
37063.582,-35.645,-30.273,-26.367,-34.180,0.000,0
37063.586,-36.621,-30.273,-22.949,-40.039,0.000,0
37063.590,-35.645,-28.809,-20.508,-31.738,0.000,0
37063.594,-43.945,-36.133,-35.645,-38.086,0.000,0
37063.598,-41.992,-38.086,-37.598,-30.273,0.000,0
37063.601,-26.855,-26.855,-19.043,-13.672,0.000,0
37063.605,-29.785,-31.738,-23.926,-21.973,0.000,0
37063.609,-28.320,-37.109,-36.133,-16.113,0.000,0
37063.613,-22.461,-29.785,-28.809,-14.160,0.000,0
37063.617,-24.414,-24.414,-24.902,-19.043,0.000,0
37063.621,-21.973,-20.020,-23.926,-18.066,0.000,0
37063.625,-21.973,-26.855,-26.367,-22.949,0.000,0
37063.629,-22.949,-29.785,-28.320,-20.020,0.000,0
37063.633,-19.531,-31.738,-23.926,-20.996,0.000,0
37063.637,-22.461,-33.203,-24.902,-28.320,0.000,0
37063.641,-24.414,-28.809,-23.438,-28.809,0.000,0
37063.644,-12.207,-25.879,-15.625,-14.648,0.000,0
37063.648,1.953,-24.414,-20.508,0.000,0.000,0
37063.652,-3.906,-26.367,-28.320,-5.371,0.000,0
37063.656,-35.645,-31.738,-32.227,-29.297,0.000,0
37063.660,-47.852,-24.414,-26.367,-34.180,0.000,0
37063.664,-41.504,-22.949,-11.719,-28.809,0.000,0
37063.668,-40.039,-24.902,-25.879,-33.203,0.000,0
37063.672,-33.691,-22.461,-31.738,-27.832,0.000,0
37063.676,-31.250,-24.902,-20.996,-26.855,0.000,0
37063.680,-34.180,-21.973,-18.066,-35.645,0.000,0
37063.684,-32.715,-15.137,-16.113,-35.156,0.000,0
37063.687,-32.715,-22.461,-22.949,-33.691,0.000,0
37063.691,-35.645,-28.320,-22.461,-36.133,0.000,0
37063.695,-31.250,-18.555,-18.555,-20.996,0.000,0
37063.699,-31.250,-22.949,-29.297,-19.531,0.000,0
37063.703,-33.691,-29.297,-30.762,-37.109,0.000,0
37063.707,-29.297,-24.414,-19.531,-22.949,0.000,0
37063.711,-25.879,-20.508,-15.625,-8.789,0.000,0
37063.715,-23.926,-26.855,-19.531,-21.973,0.000,0
37063.719,-26.855,-26.855,-22.461,-28.320,0.000,0
37063.723,-21.484,-17.578,-16.113,-28.809,0.000,0
37063.726,-17.578,-20.508,-20.020,-25.391,0.000,0
37063.730,-20.996,-22.461,-19.043,-25.391,0.000,0
37063.734,-23.926,-20.996,-13.184,-21.484,0.000,0
37063.738,-27.832,-21.973,-13.672,-14.160,0.000,0
37063.742,-22.461,-21.973,-13.672,-17.578,0.000,0
37063.746,-23.926,-21.484,-25.391,-13.184,0.000,0
37063.750,-21.973,-16.602,-20.508,-9.277,0.000,0
37063.754,-19.043,-19.531,-14.160,-9.766,0.000,0
37063.758,-11.719,-20.996,-16.113,-13.672,0.000,0
37063.762,-10.742,-23.926,-17.578,-18.066,0.000,0
37063.766,-15.137,-21.484,-21.973,-19.043,0.000,0
37063.769,-16.602,-19.043,-17.578,-12.207,0.000,0
37063.773,-23.438,-26.855,-21.484,-11.719,0.000,0
37063.777,-28.809,-23.926,-18.555,-21.973,0.000,0
37063.781,-35.645,-22.461,-13.184,-17.090,0.000,0
37063.785,-30.762,-21.973,-21.484,-7.324,0.000,0
37063.789,-27.832,-21.973,-21.973,-13.184,0.000,0
37063.793,-29.785,-21.484,-18.555,-18.555,0.000,0
37063.797,-21.973,-14.648,-11.230,-15.625,0.000,0
37063.801,-21.973,-24.902,-18.555,-33.691,0.000,0
37063.805,-20.508,-28.809,-22.949,-23.926,0.000,0
37063.809,-20.508,-23.438,-15.137,-9.277,0.000,0
37063.812,-23.438,-20.020,-15.625,-18.555,0.000,0
37063.816,-16.602,-17.578,-15.137,-20.996,0.000,0
37063.820,-20.996,-24.414,-10.254,-24.902,0.000,0
37063.824,-26.367,-20.508,-16.602,-15.137,0.000,0
37063.828,-18.066,-17.090,-17.090,-20.508,0.000,0
37063.832,-25.879,-24.414,-16.113,-36.133,0.000,0
37063.836,-29.785,-18.066,-21.973,-24.414,0.000,0
37063.840,-29.785,-20.020,-16.602,-29.297,0.000,0
37063.844,-41.992,-27.832,-24.414,-42.969,0.000,0
37063.848,-34.668,-25.879,-36.133,-35.156,0.000,0
37063.851,-16.113,-20.996,-29.297,-16.113,0.000,0
37063.855,-13.672,-17.090,-22.949,-13.184,0.000,0
37063.859,-20.020,-23.926,-20.996,-38.086,0.000,0
37063.863,-19.531,-26.855,-20.020,-40.527,0.000,0
37063.867,-15.625,-31.250,-19.531,-30.762,0.000,0
37063.871,-20.996,-27.344,-21.973,-28.320,0.000,0
37063.875,-27.832,-20.508,-24.902,-19.531,0.000,0
37063.879,-25.391,-24.902,-19.531,-24.902,0.000,0
37063.883,-29.785,-28.320,-23.926,-24.902,0.000,0
37063.887,-28.320,-26.367,-27.832,-16.113,0.000,0
37063.891,-24.414,-18.555,-24.902,-20.020,0.000,0
37063.894,-22.461,-16.602,-32.227,-24.414,0.000,0
37063.898,-16.113,-16.602,-16.602,-21.484,0.000,0
37063.902,-17.090,-18.066,-0.977,-21.484,0.000,0
37063.906,-11.719,-14.160,-15.625,-21.484,0.000,0
37063.910,-6.348,-14.648,-22.949,-7.812,0.000,0
37063.914,-12.695,-15.625,-23.926,-5.859,0.000,0
37063.918,-18.555,-17.090,-15.137,-21.973,0.000,0
37063.922,-16.602,-23.438,-12.207,-17.090,0.000,0
37063.926,-22.461,-27.832,-30.762,-9.766,0.000,0
37063.930,-28.809,-24.414,-23.926,-13.184,0.000,0
37063.934,-26.855,-18.066,-15.625,-21.973,0.000,0
37063.937,-30.762,-24.414,-25.391,-37.109,0.000,0
37063.941,-39.551,-27.344,-26.855,-46.387,0.000,0
37063.945,-35.156,-25.391,-24.902,-36.621,0.000,0
37063.949,-34.180,-26.855,-25.391,-24.902,0.000,0
37063.953,-35.645,-26.367,-28.809,-17.578,0.000,0
37063.957,-39.062,-27.344,-24.902,-23.438,0.000,0
37063.961,-41.992,-29.297,-24.902,-30.273,0.000,0
37063.965,-38.574,-31.250,-33.691,-28.809,0.000,0
37063.969,-33.691,-28.320,-29.785,-25.879,0.000,0
37063.973,-31.250,-26.367,-22.949,-27.344,0.000,0
37063.976,-30.273,-26.855,-20.020,-34.180,0.000,0
37063.980,-33.691,-22.461,-27.832,-36.133,0.000,0
37063.984,-35.156,-22.461,-36.621,-33.691,0.000,0
37063.988,-26.855,-20.996,-22.461,-16.113,0.000,0
37063.992,-24.414,-18.066,-18.066,-10.254,0.000,0
37063.996,-25.879,-20.508,-20.508,-27.832,0.000,0
37064.000,-26.855,-22.461,-17.578,-33.203,0.000,0
37064.004,-30.273,-28.320,-24.902,-28.809,0.000,0
37064.008,-30.762,-26.855,-23.438,-28.809,0.000,0
37064.012,-23.438,-23.438,-18.066,-20.020,0.000,0
37064.016,-15.137,-23.438,-12.207,-6.836,0.000,0
37064.019,-20.020,-18.555,-9.277,-14.648,0.000,0
37064.023,-20.996,-19.043,-17.090,-16.113,0.000,0
37064.027,-16.113,-25.391,-22.461,-8.789,0.000,0
37064.031,-19.531,-29.785,-18.555,-7.812,0.000,0
37064.035,-13.672,-27.344,-14.160,-11.719,0.000,0
37064.039,-7.324,-26.367,-20.996,-17.578,0.000,0
37064.043,-15.137,-23.438,-20.508,-30.273,0.000,0
37064.047,-14.160,-20.020,-10.254,-23.438,0.000,0
37064.051,-11.719,-23.926,-13.184,-11.719,0.000,0
37064.055,-20.996,-30.273,-20.996,-23.438,0.000,0
37064.059,-22.461,-28.320,-20.020,-22.461,0.000,0
37064.062,-23.926,-28.809,-24.902,-17.090,0.000,0
37064.066,-35.156,-29.297,-29.785,-22.949,0.000,0
37064.070,-40.527,-21.484,-28.809,-23.926,0.000,0
37064.074,-32.227,-23.926,-27.344,-26.367,0.000,0
37064.078,-18.555,-19.531,-18.066,-24.414,0.000,0
37064.082,-19.043,-15.137,-18.066,-22.949,0.000,0
37064.086,-25.879,-27.344,-28.320,-22.461,0.000,0
37064.090,-23.926,-29.297,-30.273,-18.555,0.000,0
37064.094,-29.785,-24.902,-18.555,-32.715,0.000,0
37064.098,-28.809,-24.902,-19.043,-34.668,0.000,0
37064.101,-21.484,-27.344,-29.297,-26.367,0.000,0
37064.105,-21.484,-29.297,-24.414,-13.672,0.000,0
37064.109,-28.320,-31.738,-27.344,-20.508,0.000,0
37064.113,-32.227,-30.762,-23.926,-42.480,0.000,0
37064.117,-31.250,-29.297,-22.949,-33.691,0.000,0
37064.121,-30.762,-30.762,-25.879,-20.996,0.000,0
37064.125,-29.785,-24.902,-17.090,-20.020,0.000,0
37064.129,-28.320,-23.438,-27.344,-27.832,0.000,0
37064.133,-24.902,-24.902,-28.809,-31.250,0.000,2
37064.137,-22.949,-22.461,-19.531,-22.949,0.000,0
37064.141,-19.531,-20.020,-23.926,-21.973,0.000,0
37064.144,-19.531,-20.020,-20.996,-20.996,0.000,0
37064.148,-20.508,-25.879,-21.484,-12.207,0.000,0
37064.152,-14.648,-23.438,-11.719,-9.766,0.000,0
37064.156,-18.066,-22.461,-9.766,-14.648,0.000,0
37064.160,-20.020,-28.809,-24.902,-15.137,0.000,0
37064.164,-19.531,-29.297,-25.879,-15.137,0.000,0
37064.168,-18.555,-22.949,-22.461,-12.695,0.000,0
37064.172,-25.391,-23.926,-19.531,-16.602,0.000,0
37064.176,-26.855,-28.809,-23.926,-23.438,0.000,0
37064.180,-24.902,-27.832,-33.691,-30.273,0.000,0
37064.184,-27.344,-25.391,-36.621,-38.574,0.000,0
37064.187,-20.020,-23.438,-31.738,-26.367,0.000,0
37064.191,-16.113,-23.926,-29.785,-28.320,0.000,0
37064.195,-14.160,-20.508,-26.367,-25.879,0.000,0
37064.199,-8.301,-14.648,-25.879,-11.230,0.000,0
37064.203,-12.695,-18.066,-25.879,-19.043,0.000,0
37064.207,-21.973,-19.043,-26.855,-20.508,0.000,0
37064.211,-17.578,-18.066,-32.227,-20.508,0.000,0
37064.215,-16.113,-21.973,-33.203,-23.438,0.000,0
37064.219,-15.137,-24.902,-36.133,-25.879,0.000,0
37064.223,-12.207,-25.879,-33.691,-24.902,0.000,0
37064.226,-13.672,-20.508,-22.461,-13.184,0.000,0
37064.230,-3.418,-16.602,-15.625,-2.441,0.000,0
37064.234,6.348,-19.531,-18.066,3.906,0.000,0
37064.238,-18.066,-19.043,-29.785,-1.953,0.000,0
37064.242,-31.250,-13.672,-27.832,-15.625,0.000,0
37064.246,-18.066,-2.441,-12.207,-13.672,0.000,0
37064.250,-25.879,-8.789,-17.578,-19.531,0.000,0
37064.254,-32.715,-15.137,-19.043,-32.715,0.000,0
37064.258,-31.250,-13.184,-16.602,-32.227,0.000,0
37064.262,-28.809,-16.602,-22.461,-16.602,0.000,0
37064.266,-27.832,-19.531,-28.320,-10.254,0.000,0
37064.269,-27.832,-21.973,-29.785,-14.648,0.000,0
37064.273,-20.996,-22.461,-25.391,-5.371,0.000,0
37064.277,-22.461,-18.555,-22.949,4.883,0.000,0
37064.281,-25.879,-18.066,-24.414,-1.465,0.000,0
37064.285,-28.809,-19.043,-20.020,-11.230,0.000,0
37064.289,-25.879,-20.020,-14.648,-6.836,0.000,0
37064.293,-23.438,-25.879,-11.719,-5.371,0.000,0
37064.297,-29.297,-25.391,-9.277,-15.137,0.000,0
37064.301,-29.297,-24.414,-19.043,-14.160,0.000,0
37064.305,-25.879,-23.438,-21.973,-3.906,0.000,0
37064.309,-27.344,-17.578,-16.602,-6.836,0.000,0
37064.312,-22.949,-15.625,-20.996,-16.602,0.000,0
37064.316,-20.996,-13.184,-22.949,-17.578,0.000,0
37064.320,-22.949,-15.137,-15.625,-12.207,0.000,0
37064.324,-25.391,-23.926,-18.555,-15.137,0.000,0
37064.328,-26.855,-27.832,-21.973,-22.461,0.000,0
37064.332,-23.438,-22.949,-20.020,-13.672,0.000,0
37064.336,-23.438,-23.438,-25.879,-5.371,0.000,0
37064.340,-33.203,-27.832,-33.203,-22.949,0.000,0
37064.344,-33.691,-25.391,-32.715,-24.414,0.000,0
37064.348,-29.297,-20.996,-24.902,-18.066,0.000,0
37064.351,-30.273,-27.344,-21.973,-20.508,0.000,0
37064.355,-28.809,-27.832,-30.273,-15.625,0.000,0
37064.359,-27.344,-19.043,-27.832,-9.277,0.000,0
37064.363,-23.926,-14.160,-20.996,-2.441,0.000,0
37064.367,-17.090,-14.160,-18.555,-6.836,0.000,0
37064.371,-12.695,-17.578,-13.672,-13.672,0.000,0
37064.375,-16.113,-17.090,-14.648,-11.719,0.000,0
37064.379,-15.137,-19.043,-20.020,-12.695,0.000,0
37064.383,-11.230,-22.461,-18.066,-7.812,0.000,0
37064.387,-20.996,-25.879,-10.742,-7.812,0.000,0
37064.391,-27.344,-30.273,-12.207,-24.902,0.000,0
37064.394,-25.879,-20.996,-14.648,-28.320,0.000,0
37064.398,-24.414,-16.113,-10.742,-19.043,0.000,0
37064.402,-22.461,-18.555,-16.602,-10.254,0.000,0
37064.406,-20.020,-15.137,-8.789,-16.113,0.000,0
37064.410,-32.715,-19.043,-11.230,-33.691,0.000,0
37064.414,-37.598,-28.320,-29.297,-22.949,0.000,0
37064.418,-30.273,-29.297,-27.344,-13.672,0.000,0
37064.422,-31.738,-27.832,-19.531,-15.625,0.000,0
37064.426,-29.785,-30.762,-14.648,-29.785,0.000,0
37064.430,-22.461,-22.461,-17.578,-34.180,0.000,0
37064.434,-24.902,-14.648,-19.531,-21.484,0.000,0
37064.437,-29.297,-21.484,-16.113,-26.855,0.000,0
37064.441,-24.902,-26.367,-17.578,-26.855,0.000,0
37064.445,-28.809,-27.344,-19.043,-23.926,0.000,0
37064.449,-30.762,-20.996,-11.719,-34.668,0.000,0
37064.453,-23.438,-16.602,-17.090,-37.109,0.000,0
37064.457,-14.160,-17.578,-24.414,-27.344,0.000,0
37064.461,-13.184,-20.020,-23.926,-21.484,0.000,0
37064.465,-8.789,-24.414,-21.973,-25.879,0.000,0
37064.469,-6.836,-26.367,-19.043,-23.926,0.000,0
37064.473,-20.996,-33.203,-37.109,-26.855,0.000,0
37064.476,-25.391,-33.691,-38.574,-23.438,0.000,0
37064.480,-24.414,-25.391,-23.438,-14.160,0.000,0
37064.484,-25.879,-23.438,-15.625,-31.250,0.000,0
37064.488,-26.855,-22.949,-14.648,-39.062,0.000,0
37064.492,-23.926,-17.578,-14.160,-32.227,0.000,0
37064.496,-20.996,-21.484,-17.090,-25.879,0.000,0
37064.500,-22.949,-25.391,-33.203,-18.555,0.000,0
37064.504,-23.926,-22.461,-31.738,-31.250,0.000,0
37064.508,-25.391,-22.949,-23.438,-37.109,0.000,0
37064.512,-25.391,-26.367,-26.855,-23.926,0.000,0
37064.516,-18.066,-24.902,-24.902,-17.090,0.000,0
37064.519,-15.137,-25.391,-20.020,-27.832,0.000,0
37064.523,-18.066,-27.344,-13.184,-32.227,0.000,0
37064.527,-15.625,-22.949,-14.648,-22.461,0.000,0
37064.531,-12.695,-27.344,-21.973,-25.879,0.000,0
37064.535,-9.766,-28.320,-22.949,-23.926,0.000,0
37064.539,-10.254,-22.461,-22.461,-12.207,0.000,0
37064.543,-17.578,-26.855,-24.414,-22.949,0.000,0
37064.547,-15.137,-27.344,-25.879,-31.250,0.000,0
37064.551,-6.348,-22.949,-27.344,-18.555,0.000,0
37064.555,-10.254,-24.414,-29.785,-18.555,0.000,0
37064.559,-12.207,-22.461,-24.902,-13.184,0.000,0
37064.562,-15.625,-27.344,-23.926,-15.625,0.000,0
37064.566,-19.531,-29.785,-25.391,-39.551,0.000,0
37064.570,-18.066,-21.484,-17.578,-45.410,0.000,0
37064.574,-23.438,-24.414,-18.555,-35.645,0.000,0
37064.578,-30.273,-27.832,-24.902,-35.156,0.000,0
37064.582,-30.273,-28.320,-22.461,-36.621,0.000,0
37064.586,-24.414,-28.809,-19.531,-17.578,0.000,0
37064.590,-23.926,-29.785,-22.461,-10.254,0.000,0
37064.594,-25.391,-26.855,-20.996,-21.973,0.000,0
37064.598,-26.367,-26.855,-18.555,-29.785,0.000,0
37064.601,-27.832,-21.973,-16.113,-31.738,0.000,0
37064.605,-34.668,-22.949,-19.531,-43.945,0.000,0
37064.609,-35.645,-22.949,-20.996,-41.504,0.000,0
37064.613,-27.832,-23.438,-18.066,-28.320,0.000,0
37064.617,-26.855,-28.320,-21.973,-35.156,0.000,0
37064.621,-32.715,-30.273,-27.832,-36.621,0.000,0
37064.625,-35.156,-35.156,-32.715,-23.926,0.000,0
37064.629,-35.645,-29.297,-26.855,-23.438,0.000,0
37064.633,-31.738,-23.926,-13.184,-29.297,0.000,0
37064.637,-25.391,-22.949,-9.277,-30.273,0.000,0
37064.641,-27.832,-23.926,-19.043,-37.598,0.000,0
37064.644,-30.273,-28.320,-16.602,-35.156,0.000,0
37064.648,-30.762,-19.531,-15.137,-28.320,0.000,0
37064.652,-26.855,-18.066,-28.809,-24.414,0.000,0
37064.656,-26.367,-21.973,-24.902,-19.531,0.000,0
37064.660,-32.715,-22.461,-18.066,-27.344,0.000,0
37064.664,-35.156,-26.367,-30.762,-27.344,0.000,0
37064.668,-30.762,-31.738,-35.645,-26.855,0.000,0
37064.672,-26.855,-28.320,-24.902,-27.832,0.000,0
37064.676,-28.320,-18.555,-18.066,-17.090,0.000,2
37064.680,-30.762,-20.996,-22.949,-7.324,0.000,0
37064.684,-26.855,-27.832,-21.484,-16.602,0.000,0
37064.687,-26.367,-27.832,-23.926,-18.555,0.000,0
37064.691,-25.879,-29.297,-25.879,-14.648,0.000,0
37064.695,-21.484,-30.273,-27.832,-25.879,0.000,0
37064.699,-22.461,-23.926,-27.832,-28.809,0.000,0
37064.703,-24.414,-25.879,-23.926,-28.320,0.000,0
37064.707,-26.367,-24.414,-36.621,-33.691,0.000,0
37064.711,-27.344,-21.484,-47.363,-41.992,0.000,0
37064.715,-17.578,-18.066,-35.156,-22.949,0.000,0
37064.719,-7.324,-12.207,-25.391,-12.207,0.000,0
37064.723,-10.742,-10.742,-14.648,-18.066,0.000,0
37064.726,-20.020,-13.184,-13.672,-12.695,0.000,0
37064.730,-29.785,-22.949,-29.297,-20.508,0.000,0
37064.734,-32.227,-22.461,-25.391,-29.297,0.000,0
37064.738,-27.344,-20.020,-15.625,-20.020,0.000,0
37064.742,-25.391,-23.926,-24.902,-22.461,0.000,0
37064.746,-21.484,-23.926,-25.391,-26.855,0.000,0
37064.750,-14.160,-16.113,-11.719,-14.648,0.000,0
37064.754,-17.578,-16.113,-10.254,-9.277,0.000,0
37064.758,-15.625,-22.949,-16.602,-17.090,0.000,0
37064.762,-22.461,-23.438,-13.672,-23.438,0.000,0
37064.766,-36.133,-25.879,-19.043,-28.809,0.000,0
37064.769,-26.367,-27.344,-29.297,-26.855,0.000,0
37064.773,-22.949,-27.832,-31.738,-27.832,0.000,0
37064.777,-32.227,-27.344,-23.926,-26.367,0.000,0
37064.781,-28.320,-23.926,-10.254,-23.926,0.000,0
37064.785,-29.297,-24.414,-17.578,-28.320,0.000,0
37064.789,-35.645,-30.762,-29.785,-26.367,0.000,0
37064.793,-41.992,-34.180,-28.809,-29.297,0.000,0
37064.797,-41.992,-25.879,-30.762,-34.180,0.000,0
37064.801,-41.504,-29.297,-26.855,-41.992,0.000,0
37064.805,-39.551,-31.250,-22.461,-33.203,0.000,0
37064.809,-32.715,-28.809,-23.438,-27.832,0.000,0
37064.812,-32.715,-31.250,-21.973,-41.016,0.000,0
37064.816,-31.250,-26.367,-20.508,-37.598,0.000,0
37064.820,-34.180,-31.738,-23.438,-39.062,0.000,0
37064.824,-45.410,-37.598,-28.320,-50.293,0.000,0
37064.828,-45.898,-29.297,-37.109,-41.016,0.000,0
37064.832,-36.133,-30.273,-37.109,-27.344,0.000,0
37064.836,-32.227,-30.762,-21.973,-33.203,0.000,0
37064.840,-31.250,-29.297,-17.090,-43.457,0.000,0
37064.844,-28.809,-27.344,-24.902,-35.645,0.000,0
37064.848,-20.996,-25.391,-23.438,-32.715,0.000,0
37064.851,-24.902,-30.762,-17.578,-28.809,0.000,0
37064.855,-28.809,-27.832,-18.066,-26.367,0.000,0
37064.859,-26.855,-25.879,-18.066,-33.203,0.000,0
37064.863,-19.043,-30.762,-21.973,-16.602,0.000,0
37064.867,-18.555,-32.715,-23.438,-10.742,0.000,0
37064.871,-24.414,-35.156,-30.762,-28.809,0.000,0
37064.875,-14.160,-30.273,-27.344,-25.879,0.000,0
37064.879,-9.277,-28.320,-13.184,-16.602,0.000,0
37064.883,-11.230,-20.996,-7.324,-9.766,0.000,0
37064.887,-13.184,-23.438,-17.090,-14.648,0.000,0
37064.891,-19.531,-36.133,-26.367,-19.043,0.000,0
37064.894,-17.090,-33.691,-25.879,-15.625,0.000,0
37064.898,-12.695,-31.738,-15.137,-20.020,0.000,0
37064.902,-15.625,-32.715,-19.531,-21.973,0.000,0
37064.906,-15.625,-30.273,-30.762,-15.625,0.000,0
37064.910,-19.043,-33.203,-31.250,-21.973,0.000,0
37064.914,-23.438,-35.645,-27.344,-20.996,0.000,0
37064.918,-26.855,-32.227,-24.902,-25.391,0.000,0
37064.922,-21.973,-28.809,-30.273,-36.133,0.000,0
37064.926,-15.137,-19.531,-21.973,-29.297,0.000,0
37064.930,-21.484,-20.996,-13.672,-9.277,0.000,0
37064.934,-24.902,-28.809,-23.438,-17.090,0.000,0
37064.937,-19.043,-27.344,-18.066,-34.668,0.000,0
37064.941,-15.625,-30.762,-12.695,-27.344,0.000,0
37064.945,-17.578,-30.762,-18.066,-24.414,0.000,0
37064.949,-20.508,-30.762,-25.879,-30.762,0.000,0
37064.953,-22.949,-30.273,-25.391,-37.109,0.000,0
37064.957,-23.926,-27.344,-16.113,-29.785,0.000,0
37064.961,-26.367,-24.902,-9.766,-29.785,0.000,0
37064.965,-28.809,-21.484,-13.184,-31.250,0.000,0
37064.969,-28.809,-28.809,-23.926,-28.320,0.000,0
37064.973,-26.855,-32.227,-17.578,-25.391,0.000,0
37064.976,-23.926,-20.508,-7.812,-28.809,0.000,0
37064.980,-31.250,-25.879,-20.996,-31.738,0.000,0
37064.984,-32.715,-30.762,-27.344,-34.668,0.000,0
37064.988,-24.902,-24.414,-17.578,-35.645,0.000,0
37064.992,-20.020,-25.391,-20.996,-20.020,0.000,0
37064.996,-23.438,-32.227,-27.344,-14.160,0.000,0
37065.000,-29.785,-36.133,-21.973,-22.461,0.000,0
37065.004,-32.227,-30.762,-20.508,-32.227,0.000,0
37065.008,-32.715,-23.438,-15.625,-31.738,0.000,0
37065.012,-32.227,-26.367,-20.020,-30.762,0.000,0
37065.016,-29.785,-27.344,-20.996,-28.809,0.000,0
37065.019,-20.020,-17.578,-8.789,-21.973,0.000,0
37065.023,-15.625,-15.625,-16.602,-21.484,0.000,0
37065.027,-16.113,-19.043,-18.066,-20.508,0.000,0
37065.031,-15.137,-22.949,-13.184,-11.230,0.000,0
37065.035,-26.855,-33.203,-15.625,-7.812,0.000,0
37065.039,-30.762,-28.809,-13.184,-19.531,0.000,0
37065.043,-25.391,-22.461,-15.137,-27.832,0.000,0
37065.047,-27.832,-23.438,-14.160,-27.832,0.000,0
37065.051,-31.250,-30.273,-26.367,-24.902,0.000,0
37065.055,-26.855,-30.273,-21.484,-23.926,0.000,0
37065.059,-24.414,-27.344,-8.789,-36.133,0.000,0
37065.062,-29.297,-29.785,-13.672,-26.855,0.000,0
37065.066,-25.391,-23.926,-14.648,-21.484,0.000,0
37065.070,-20.996,-27.832,-23.438,-16.113,0.000,0
37065.074,-22.949,-28.320,-19.043,-13.672,0.000,0
37065.078,-21.973,-24.414,-14.160,-33.691,0.000,0
37065.082,-18.066,-28.809,-25.391,-30.273,0.000,0
37065.086,-24.902,-29.785,-33.203,-21.484,0.000,0
37065.090,-35.645,-29.297,-31.738,-24.902,0.000,0
37065.094,-32.227,-30.762,-20.996,-21.484,0.000,0
37065.098,-29.297,-26.855,-20.508,-19.531,0.000,0
37065.101,-30.273,-21.973,-26.367,-27.344,0.000,0
37065.105,-25.879,-20.020,-19.531,-24.414,0.000,0
37065.109,-23.438,-17.578,-16.113,-10.254,0.000,0
37065.113,-22.949,-20.996,-24.902,-16.602,0.000,0
37065.117,-24.414,-21.484,-20.996,-25.391,0.000,0
37065.121,-21.484,-20.508,-24.414,-14.648,0.000,0
37065.125,-17.578,-27.344,-25.391,-17.578,0.000,0
37065.129,-16.113,-26.367,-20.996,-27.832,0.000,0
37065.133,-12.695,-24.902,-19.531,-24.414,0.000,0
37065.137,-11.719,-24.902,-17.578,-23.438,0.000,0
37065.141,-10.742,-21.484,-23.438,-18.066,0.000,0
37065.144,-8.301,-21.973,-23.926,-13.672,0.000,0
37065.148,-9.766,-23.926,-21.973,-12.207,0.000,0
37065.152,-12.695,-27.344,-17.090,-22.949,0.000,0
37065.156,-23.438,-32.227,-20.996,-26.855,0.000,0
37065.160,-24.414,-29.785,-30.273,-26.855,0.000,0
37065.164,-19.531,-24.414,-25.879,-27.832,0.000,0
37065.168,-21.484,-22.461,-22.461,-21.484,0.000,0
37065.172,-24.902,-25.879,-24.902,-11.719,0.000,0
37065.176,-14.648,-27.344,-17.578,-14.648,0.000,0
37065.180,-13.672,-20.508,-16.113,-24.902,0.000,0
37065.184,-23.438,-24.414,-20.996,-20.996,0.000,0
37065.187,-22.461,-27.344,-25.879,-14.160,0.000,0
37065.191,-20.020,-30.762,-25.391,-15.137,0.000,0
37065.195,-28.320,-36.621,-18.555,-25.879,0.000,0
37065.199,-35.156,-31.250,-23.438,-34.668,0.000,0
37065.203,-26.367,-23.438,-24.902,-31.738,0.000,0
37065.207,-16.113,-21.973,-19.043,-16.113,0.000,0
37065.211,-18.066,-20.020,-21.484,-9.277,0.000,0
37065.215,-22.461,-19.531,-19.531,-20.996,0.000,0
37065.219,-16.602,-17.578,-13.184,-10.254,0.000,0
37065.223,-17.090,-14.648,-13.672,-3.418,0.000,0
37065.226,-14.160,-21.484,-17.578,-17.090,0.000,0
37065.230,-14.648,-24.902,-23.438,-27.344,0.000,2
37065.234,-26.855,-22.949,-18.066,-28.320,0.000,0
37065.238,-27.344,-20.996,-15.137,-15.625,0.000,0
37065.242,-23.926,-22.461,-18.555,-17.090,0.000,0
37065.246,-20.020,-19.043,-11.719,-20.996,0.000,0
37065.250,-17.578,-17.090,-15.137,-17.090,0.000,0
37065.254,-18.066,-22.461,-12.695,-18.066,0.000,0
37065.258,-24.414,-21.484,-10.254,-10.742,0.000,0
37065.262,-32.227,-20.508,-21.973,-17.578,0.000,0
37065.266,-20.020,-17.578,-20.996,-18.066,0.000,0
37065.269,-13.672,-15.625,-19.531,-6.836,0.000,0
37065.273,-27.832,-21.484,-22.461,-13.672,0.000,0
37065.277,-23.926,-20.508,-19.043,-26.367,0.000,0
37065.281,-17.090,-21.973,-12.695,-26.855,0.000,0
37065.285,-26.367,-19.531,-7.812,-23.926,0.000,0
37065.289,-27.344,-12.207,-6.836,-19.531,0.000,0
37065.293,-25.879,-17.090,-10.254,-17.090,0.000,0
37065.297,-24.414,-20.020,-11.719,-7.324,0.000,0
37065.301,-13.672,-16.113,-12.207,4.395,0.000,0
37065.305,-2.441,-13.184,-10.254,7.324,0.000,0
37065.309,-5.371,-13.184,-13.672,2.441,0.000,0
37065.312,-12.207,-22.461,-20.996,-3.418,0.000,0
37065.316,-18.555,-24.902,-23.438,-9.766,0.000,0
37065.320,-27.344,-25.391,-22.461,-17.090,0.000,0
37065.324,-37.109,-33.691,-24.414,-16.113,0.000,0
37065.328,-41.504,-33.203,-26.855,-23.438,0.000,0
37065.332,-41.504,-27.832,-26.367,-33.691,0.000,0
37065.336,-40.527,-27.832,-21.973,-38.574,0.000,0
37065.340,-34.668,-27.832,-18.555,-35.156,0.000,0
37065.344,-25.391,-28.320,-24.902,-28.809,0.000,0
37065.348,-28.809,-25.879,-21.484,-17.090,0.000,0
37065.351,-36.621,-26.855,-24.414,-17.578,0.000,0
37065.355,-29.297,-31.250,-29.297,-21.484,0.000,0
37065.359,-20.508,-26.855,-23.926,-23.438,0.000,0
37065.363,-26.855,-26.367,-29.785,-21.973,0.000,0
37065.367,-30.273,-24.902,-36.621,-20.508,0.000,0
37065.371,-25.879,-26.855,-33.691,-35.645,0.000,0
37065.375,-27.344,-30.273,-30.273,-39.551,0.000,0
37065.379,-34.180,-25.879,-27.832,-34.180,0.000,0
37065.383,-36.621,-25.391,-30.273,-32.227,0.000,0
37065.387,-30.273,-28.320,-37.109,-23.926,0.000,0
37065.391,-28.320,-27.344,-29.785,-19.531,0.000,0
37065.394,-28.320,-20.996,-14.648,-15.137,0.000,0
37065.398,-26.367,-21.484,-25.879,-15.137,0.000,0
37065.402,-21.484,-23.926,-27.832,-15.625,0.000,0
37065.406,-16.113,-20.996,-21.973,-6.836,0.000,0
37065.410,-18.066,-20.020,-21.484,-21.484,0.000,0
37065.414,-19.531,-23.438,-19.043,-32.715,0.000,0
37065.418,-25.391,-22.949,-19.043,-25.879,0.000,0
37065.422,-29.297,-18.066,-19.531,-24.414,0.000,0
37065.426,-21.484,-14.160,-20.020,-15.137,0.000,0
37065.430,-23.926,-17.578,-17.578,-12.207,0.000,0
37065.434,-35.645,-24.902,-19.043,-34.180,0.000,0
37065.437,-33.203,-25.879,-20.508,-29.785,0.000,0
37065.441,-31.250,-18.066,-20.996,-25.391,0.000,0
37065.445,-31.738,-21.484,-23.438,-26.367,0.000,0
37065.449,-19.531,-23.926,-19.043,-22.461,0.000,0
37065.453,-18.555,-25.391,-16.113,-31.738,0.000,0
37065.457,-24.902,-30.273,-27.344,-33.203,0.000,0
37065.461,-23.926,-23.926,-24.414,-31.250,0.000,0
37065.465,-18.066,-18.066,-16.602,-20.996,0.000,0
37065.469,-14.648,-21.973,-18.555,-21.973,0.000,0
37065.473,-22.461,-24.902,-15.625,-35.156,0.000,0
37065.476,-20.996,-23.438,-17.090,-25.879,0.000,0
37065.480,-16.113,-24.902,-24.414,-25.391,0.000,0
37065.484,-19.043,-24.902,-22.461,-22.461,0.000,0
37065.488,-6.836,-21.484,-15.625,-12.695,0.000,0
37065.492,1.953,-20.996,-12.695,-14.160,0.000,0
37065.496,-7.812,-26.855,-16.602,-20.996,0.000,0
37065.500,-10.254,-21.484,-12.207,-15.625,0.000,0
37065.504,-9.766,-24.414,-13.672,-14.648,0.000,0
37065.508,-14.648,-27.832,-19.043,-24.414,0.000,0
37065.512,-19.043,-22.949,-14.648,-34.180,0.000,0
37065.516,-19.531,-25.391,-22.461,-37.598,0.000,0
37065.519,-18.555,-28.320,-26.855,-34.180,0.000,0
37065.523,-15.137,-28.320,-24.414,-26.855,0.000,0
37065.527,-19.043,-30.762,-26.367,-22.949,0.000,0
37065.531,-20.508,-33.691,-22.949,-31.250,0.000,0
37065.535,-23.438,-26.367,-25.879,-29.297,0.000,0
37065.539,-24.902,-24.902,-29.785,-20.508,0.000,0
37065.543,-15.137,-21.973,-16.113,-19.043,0.000,0
37065.547,-19.531,-24.902,-16.113,-23.438,0.000,0
37065.551,-23.438,-26.367,-19.043,-29.297,0.000,0
37065.555,-19.531,-14.648,-11.719,-22.949,0.000,0
37065.559,-28.320,-16.602,-16.113,-27.832,0.000,0
37065.562,-34.668,-20.508,-27.344,-33.203,0.000,0
37065.566,-22.461,-16.113,-26.367,-18.555,0.000,0
37065.570,-9.766,-18.066,-20.020,-7.324,0.000,0
37065.574,-13.184,-22.461,-16.602,-14.160,0.000,0
37065.578,-16.602,-26.855,-27.344,-25.391,0.000,0
37065.582,-15.137,-30.273,-29.785,-23.438,0.000,0
37065.586,-22.461,-24.414,-23.926,-29.785,0.000,0
37065.590,-25.391,-17.578,-15.625,-40.527,0.000,0
37065.594,-25.391,-19.043,-16.602,-37.598,0.000,0
37065.598,-32.227,-21.973,-29.297,-33.203,0.000,0
37065.601,-31.738,-27.344,-29.297,-26.855,0.000,0
37065.605,-31.250,-27.832,-26.855,-27.344,0.000,0
37065.609,-35.156,-25.391,-27.832,-37.109,0.000,0
37065.613,-32.715,-27.344,-22.949,-33.203,0.000,0
37065.617,-34.180,-24.414,-20.020,-21.484,0.000,0
37065.621,-36.621,-20.508,-24.902,-26.367,0.000,0
37065.625,-37.598,-22.461,-32.227,-31.738,0.000,0
37065.629,-40.527,-20.996,-34.180,-35.645,0.000,0
37065.633,-40.527,-21.484,-29.297,-44.434,0.000,0
37065.637,-36.133,-23.926,-25.879,-37.109,0.000,0
37065.641,-42.480,-25.879,-35.156,-31.738,0.000,0
37065.644,-39.062,-26.367,-37.109,-27.344,0.000,0
37065.648,-26.367,-27.832,-25.391,-18.555,0.000,0
37065.652,-23.926,-25.391,-24.414,-9.766,0.000,0
37065.656,-19.043,-29.297,-33.691,-5.371,0.000,0
37065.660,-42.480,-30.273,-32.227,-42.969,0.000,0
37065.664,-58.594,-17.578,-27.344,-39.551,0.000,0
37065.668,-44.922,-18.555,-31.738,-20.996,0.000,0
37065.672,-36.621,-25.391,-28.809,-39.551,0.000,0
37065.676,-38.574,-13.672,-21.973,-37.109,0.000,0
37065.680,-42.969,-12.695,-16.113,-36.621,0.000,0
37065.684,-28.809,-22.949,-23.438,-38.086,0.000,0
37065.687,-28.320,-24.414,-24.902,-40.039,0.000,0
37065.691,-37.109,-23.438,-24.902,-45.898,0.000,0
37065.695,-34.668,-21.973,-33.203,-44.434,0.000,0
37065.699,-28.320,-20.996,-29.785,-39.062,0.000,0
37065.703,-27.344,-18.555,-22.949,-29.297,0.000,0
37065.707,-32.715,-26.367,-21.973,-27.344,0.000,0
37065.711,-29.785,-25.879,-22.949,-24.902,0.000,0
37065.715,-26.367,-18.066,-29.785,-20.508,0.000,0
37065.719,-29.297,-17.578,-34.180,-20.020,0.000,0
37065.723,-24.414,-19.531,-24.414,-12.207,0.000,0
37065.726,-26.855,-25.879,-26.367,-17.090,0.000,0
37065.730,-27.832,-22.949,-31.738,-25.879,0.000,0
37065.734,-24.902,-24.414,-25.879,-23.926,0.000,0
37065.738,-25.879,-24.902,-23.438,-20.020,0.000,0
37065.742,-20.020,-20.996,-25.879,-25.391,0.000,0
37065.746,-12.695,-22.949,-13.672,-18.066,0.000,0
37065.750,-14.648,-20.020,-11.719,-5.859,0.000,0
37065.754,-15.137,-12.695,-21.484,-18.066,0.000,0
37065.758,-14.648,-15.137,-22.461,-23.926,0.000,0
37065.762,-26.367,-20.508,-23.438,-31.250,0.000,0
37065.766,-26.367,-18.066,-13.672,-31.250,0.000,0
37065.769,-19.531,-17.578,-9.277,-20.996,0.000,0
37065.773,-25.879,-18.066,-15.625,-28.320,0.000,0
37065.777,-28.809,-19.531,-24.414,-35.645,0.000,0
37065.781,-28.320,-22.949,-27.832,-35.645,0.000,0
37065.785,-23.926,-22.949,-17.578,-32.715,0.000,0
37065.789,-24.414,-23.438,-19.531,-31.738,0.000,0
37065.793,-28.809,-27.344,-21.973,-25.879,0.000,0
37065.797,-30.273,-31.250,-21.973,-33.691,0.000,0
37065.801,-23.438,-24.414,-21.484,-26.367,0.000,1
37065.805,-28.320,-26.367,-20.020,-27.832,0.000,0
37065.809,-34.180,-27.344,-24.414,-39.062,0.000,0
37065.812,-33.691,-21.973,-24.414,-26.367,0.000,0
37065.816,-32.715,-26.855,-33.203,-27.344,0.000,0
37065.820,-31.738,-38.086,-35.156,-28.320,0.000,0
37065.824,-32.227,-32.227,-20.996,-28.809,0.000,0
37065.828,-24.902,-20.020,-15.137,-30.273,0.000,0
37065.832,-27.832,-24.902,-24.414,-38.574,0.000,0
37065.836,-33.691,-26.367,-25.391,-42.969,0.000,0
37065.840,-30.762,-23.926,-22.949,-19.043,0.000,0
37065.844,-35.645,-29.297,-20.996,-22.949,0.000,0
37065.848,-37.598,-31.738,-21.973,-32.715,0.000,0
37065.851,-29.297,-30.273,-20.020,-21.973,0.000,0
37065.855,-31.738,-27.344,-19.531,-24.902,0.000,0
37065.859,-25.391,-24.902,-20.996,-26.855,0.000,0
37065.863,-20.508,-29.297,-16.113,-24.414,0.000,0
37065.867,-21.484,-30.273,-23.438,-19.043,0.000,0
37065.871,-12.695,-26.855,-20.996,-14.648,0.000,0
37065.875,-19.531,-23.438,-21.484,-16.602,0.000,0
37065.879,-33.203,-32.715,-41.016,-25.879,0.000,0
37065.883,-25.391,-35.156,-28.320,-32.227,0.000,0
37065.887,-24.414,-23.438,-20.020,-30.273,0.000,0
37065.891,-29.785,-24.902,-31.250,-30.762,0.000,0
37065.894,-29.785,-27.344,-32.715,-32.715,0.000,0
37065.898,-34.668,-26.855,-25.879,-32.227,0.000,0
37065.902,-29.785,-26.367,-21.484,-34.180,0.000,0
37065.906,-25.879,-25.391,-22.461,-44.434,0.000,0
37065.910,-27.832,-29.785,-22.461,-47.363,0.000,0
37065.914,-28.320,-28.809,-22.949,-30.762,0.000,0
37065.918,-29.297,-26.855,-27.344,-23.926,0.000,0
37065.922,-30.273,-30.762,-23.438,-37.598,0.000,0
37065.926,-41.016,-33.203,-20.020,-40.039,0.000,0
37065.930,-36.621,-26.855,-18.555,-26.367,0.000,0
37065.934,-22.461,-24.414,-19.043,-24.414,0.000,0
37065.937,-21.484,-26.855,-24.414,-26.855,0.000,0
37065.941,-28.320,-20.020,-21.484,-22.461,0.000,0
37065.945,-22.949,-17.090,-11.719,-19.531,0.000,0
37065.949,-18.066,-20.996,-13.672,-28.320,0.000,0
37065.953,-28.320,-26.855,-32.715,-26.855,0.000,0
37065.957,-27.832,-28.809,-39.062,-20.996,0.000,0
37065.961,-22.949,-23.926,-15.625,-23.926,0.000,0
37065.965,-26.855,-27.344,-21.973,-30.762,0.000,0
37065.969,-24.902,-31.250,-35.156,-31.738,0.000,0
37065.973,-20.508,-26.855,-20.020,-24.902,0.000,0
37065.976,-14.648,-20.508,-11.230,-13.672,0.000,0
37065.980,-15.137,-15.625,-19.531,-20.020,0.000,0
37065.984,-18.555,-21.484,-20.996,-29.297,0.000,0
37065.988,-22.461,-21.484,-19.531,-21.484,0.000,0
37065.992,-29.785,-20.508,-27.832,-19.043,0.000,0
37065.996,-29.297,-24.902,-37.598,-27.832,0.000,0
37066.000,-20.508,-22.949,-28.320,-34.668,0.000,0
37066.004,-19.531,-20.508,-17.578,-28.320,0.000,0
37066.008,-20.020,-20.020,-24.902,-24.902,0.000,0
37066.012,-24.902,-27.832,-33.691,-28.320,0.000,0
37066.016,-30.273,-27.832,-29.297,-24.414,0.000,0
37066.019,-28.809,-25.879,-23.926,-23.438,0.000,0
37066.023,-20.996,-25.879,-26.855,-18.555,0.000,0
37066.027,-20.508,-25.391,-33.203,-19.043,0.000,0
37066.031,-26.367,-31.738,-36.133,-32.715,0.000,0
37066.035,-34.668,-32.715,-31.738,-35.645,0.000,0
37066.039,-36.133,-30.762,-29.297,-34.668,0.000,0
37066.043,-29.297,-34.180,-26.367,-36.621,0.000,0
37066.047,-30.273,-27.832,-20.508,-32.227,0.000,0
37066.051,-37.109,-26.855,-21.973,-31.250,0.000,0
37066.055,-37.598,-33.691,-35.645,-32.227,0.000,0
37066.059,-30.762,-32.715,-35.645,-24.902,0.000,0
37066.062,-33.203,-29.297,-28.320,-21.484,0.000,0
37066.066,-41.504,-30.273,-33.691,-26.855,0.000,0
37066.070,-36.621,-30.762,-34.668,-27.832,0.000,0
37066.074,-33.203,-32.715,-32.227,-15.625,0.000,0
37066.078,-41.504,-29.785,-29.297,-20.020,0.000,0
37066.082,-43.945,-27.832,-27.832,-36.621,0.000,0
37066.086,-45.410,-25.879,-26.855,-40.527,0.000,0
37066.090,-42.969,-25.391,-33.203,-38.086,0.000,0
37066.094,-38.574,-26.855,-34.180,-26.367,0.000,0
37066.098,-36.133,-29.785,-25.879,-28.809,0.000,0
37066.101,-31.250,-35.156,-28.809,-45.410,0.000,0
37066.105,-34.180,-36.133,-36.133,-35.156,0.000,0
37066.109,-36.621,-33.691,-34.180,-27.344,0.000,0
37066.113,-33.203,-22.949,-33.691,-28.809,0.000,0
37066.117,-24.902,-16.602,-30.273,-25.391,0.000,0
37066.121,-31.738,-25.391,-25.391,-43.457,0.000,0
37066.125,-38.086,-31.250,-32.227,-49.316,0.000,0
37066.129,-27.344,-29.785,-30.762,-32.715,0.000,0
37066.133,-19.043,-29.297,-26.855,-22.461,0.000,0
37066.137,-19.531,-36.133,-28.809,-20.020,0.000,0
37066.141,-21.484,-30.273,-19.531,-6.348,0.000,0
37066.144,-11.719,-25.391,-26.367,-0.977,0.000,0
37066.148,-1.465,-23.438,-31.250,-6.348,0.000,0
37066.152,-13.672,-22.461,-29.297,-9.766,0.000,0
37066.156,-27.344,-30.762,-32.227,-15.625,0.000,0
37066.160,-25.391,-31.738,-21.973,-20.020,0.000,0
37066.164,-24.414,-24.414,-19.531,-21.973,0.000,0
37066.168,-20.996,-22.949,-20.508,-19.531,0.000,0
37066.172,-22.461,-22.461,-21.973,-17.578,0.000,0
37066.176,-29.785,-19.531,-24.902,-22.461,0.000,0
37066.180,-20.508,-12.695,-10.742,-11.719,0.000,0
37066.184,-23.438,-15.625,-10.254,-20.996,0.000,0
37066.187,-30.273,-24.414,-28.809,-40.527,0.000,0
37066.191,-25.391,-26.367,-43.945,-30.273,0.000,0
37066.195,-16.602,-27.832,-33.203,-25.391,0.000,0
37066.199,-14.648,-23.438,-16.602,-22.949,0.000,0
37066.203,-21.973,-18.555,-18.555,-23.438,0.000,0
37066.207,-21.973,-18.555,-22.461,-28.320,0.000,0
37066.211,-22.949,-20.508,-23.438,-23.926,0.000,0
37066.215,-27.344,-26.367,-21.973,-24.414,0.000,0
37066.219,-25.879,-26.855,-24.414,-36.133,0.000,0
37066.223,-23.926,-24.902,-23.926,-32.715,0.000,0
37066.226,-25.879,-23.926,-13.184,-25.391,0.000,0
37066.230,-25.879,-22.949,-14.648,-15.625,0.000,0
37066.234,-21.973,-24.414,-23.926,-18.555,0.000,0
37066.238,-21.484,-18.555,-19.043,-32.715,0.000,0
37066.242,-20.508,-15.137,-17.578,-24.414,0.000,0
37066.246,-20.996,-17.578,-18.066,-17.578,0.000,0
37066.250,-24.414,-20.020,-22.949,-30.273,0.000,0
37066.254,-20.508,-25.391,-28.320,-32.715,0.000,0
37066.258,-18.066,-22.949,-16.113,-29.785,0.000,0
37066.262,-15.137,-17.090,-18.066,-23.926,0.000,0
37066.266,-17.090,-18.066,-30.762,-18.066,0.000,0
37066.269,-21.484,-19.043,-31.250,-20.020,0.000,0
37066.273,-23.926,-18.066,-26.367,-17.578,0.000,0
37066.277,-34.180,-20.020,-31.250,-24.414,0.000,0
37066.281,-33.203,-17.578,-37.109,-23.926,0.000,0
37066.285,-23.926,-19.043,-23.438,-17.578,0.000,0
37066.289,-26.367,-26.367,-19.043,-22.949,0.000,0
37066.293,-25.879,-24.902,-31.738,-23.438,0.000,0
37066.297,-23.438,-21.973,-25.391,-23.926,0.000,0
37066.301,-27.832,-15.137,-17.090,-16.602,0.000,0
37066.305,-31.738,-17.578,-21.484,-10.742,0.000,0
37066.309,-26.855,-19.531,-28.320,-21.973,0.000,0
37066.312,-22.461,-20.020,-24.902,-27.832,0.000,0
37066.316,-30.762,-27.344,-24.414,-25.879,0.000,0
37066.320,-34.668,-27.832,-32.715,-30.273,0.000,0
37066.324,-35.156,-30.273,-34.180,-30.273,0.000,0
37066.328,-37.109,-29.297,-29.297,-31.738,0.000,0
37066.332,-27.344,-20.508,-19.531,-29.785,0.000,0
37066.336,-26.367,-16.113,-17.090,-24.414,0.000,0
37066.340,-33.203,-19.531,-28.809,-33.691,0.000,0
37066.344,-28.809,-25.391,-30.273,-27.832,0.000,0
37066.348,-22.949,-21.973,-23.438,-20.508,0.000,0
37066.351,-18.066,-13.184,-21.484,-18.066,0.000,0
37066.355,-12.695,-19.043,-26.855,-20.020,0.000,0
37066.359,-19.043,-24.902,-29.297,-25.391,0.000,0
37066.363,-20.020,-23.926,-26.367,-25.879,0.000,0
37066.367,-15.137,-23.438,-21.973,-14.648,0.000,0
37066.371,-16.113,-20.020,-26.855,-5.371,0.000,0
37066.375,-17.090,-21.973,-21.484,-18.555,0.000,0
37066.379,-16.602,-21.973,-15.625,-15.625,0.000,0
37066.383,-15.137,-19.043,-27.832,-10.742,0.000,0
37066.387,-16.113,-21.484,-30.762,-27.344,0.000,0
37066.391,-20.508,-25.879,-28.809,-26.855,0.000,0
37066.394,-20.996,-21.973,-24.414,-18.555,0.000,0
37066.398,-20.508,-17.090,-24.414,-27.832,0.000,0
37066.402,-16.113,-18.066,-20.508,-23.438,0.000,0
37066.406,-14.160,-20.508,-18.555,-13.184,0.000,0
37066.410,-26.855,-23.926,-20.996,-22.461,0.000,2
37066.414,-31.738,-26.367,-25.391,-25.391,0.000,0
37066.418,-24.414,-20.508,-30.762,-9.766,0.000,0
37066.422,-28.809,-18.555,-24.902,-12.695,0.000,0
37066.426,-33.203,-27.832,-33.203,-18.555,0.000,0
37066.430,-28.809,-32.715,-31.250,-21.973,0.000,0
37066.434,-33.691,-28.809,-17.090,-33.691,0.000,0
37066.437,-34.668,-28.320,-20.508,-30.762,0.000,0
37066.441,-29.297,-21.484,-21.973,-20.020,0.000,0
37066.445,-28.320,-17.578,-17.090,-6.836,0.000,0
37066.449,-24.414,-25.391,-17.578,-6.348,0.000,0
37066.453,-22.949,-29.297,-21.484,-24.414,0.000,0
37066.457,-20.020,-23.926,-28.809,-31.738,0.000,0
37066.461,-15.137,-19.531,-25.879,-27.832,0.000,0
37066.465,-22.949,-21.484,-24.902,-22.949,0.000,0
37066.469,-26.367,-24.902,-27.832,-20.508,0.000,0
37066.473,-25.879,-26.367,-23.926,-26.367,0.000,0
37066.476,-22.461,-22.949,-21.484,-16.113,0.000,0
37066.480,-19.043,-18.555,-22.949,-2.441,0.000,0
37066.484,-21.973,-18.555,-25.391,-10.742,0.000,0
37066.488,-8.789,-20.996,-21.973,-17.578,0.000,0
37066.492,0.977,-20.996,-17.578,-17.578,0.000,0
37066.496,5.859,-21.973,-25.879,-21.973,0.000,0
37066.500,3.418,-27.832,-28.320,-28.809,0.000,0
37066.504,-6.348,-32.227,-25.879,-20.508,0.000,0
37066.508,-32.715,-29.785,-32.715,-7.812,0.000,0
37066.512,-61.523,-31.738,-30.273,-26.367,0.000,0
37066.516,-50.781,-31.738,-32.227,-30.273,0.000,0
37066.519,-38.086,-24.902,-32.227,-19.043,0.000,0
37066.523,-45.898,-34.180,-33.691,-24.902,0.000,0
37066.527,-50.293,-37.598,-31.738,-35.645,0.000,0
37066.531,-50.293,-33.203,-21.484,-40.527,0.000,0
37066.535,-41.016,-33.691,-22.461,-32.715,0.000,0
37066.539,-30.273,-30.762,-22.461,-31.250,0.000,0
37066.543,-37.109,-30.762,-20.996,-30.762,0.000,0
37066.547,-36.133,-34.180,-25.879,-21.484,0.000,0
37066.551,-33.691,-30.273,-22.461,-28.320,0.000,0
37066.555,-34.668,-24.414,-17.578,-32.227,0.000,0
37066.559,-33.203,-25.879,-25.879,-27.344,0.000,0
37066.562,-33.691,-32.715,-32.227,-27.344,0.000,0
37066.566,-28.320,-35.645,-29.297,-20.996,0.000,0
37066.570,-26.367,-34.668,-18.066,-21.973,0.000,0
37066.574,-33.203,-36.621,-28.320,-36.621,0.000,0
37066.578,-32.227,-32.715,-38.574,-32.227,0.000,0
37066.582,-20.020,-21.484,-21.484,-14.160,0.000,0
37066.586,-16.602,-17.090,-12.207,-24.414,0.000,0
37066.590,-15.625,-23.438,-12.207,-30.273,0.000,0
37066.594,-18.555,-21.484,-20.020,-14.648,0.000,0
37066.598,-23.926,-27.832,-27.344,-20.020,0.000,0
37066.601,-21.973,-31.250,-21.484,-21.973,0.000,0
37066.605,-17.578,-19.043,-17.578,-22.949,0.000,0
37066.609,-24.902,-24.414,-27.832,-37.598,0.000,0
37066.613,-28.809,-29.785,-23.438,-33.203,0.000,0
37066.617,-26.855,-28.809,-18.066,-22.949,0.000,0
37066.621,-25.391,-32.715,-29.297,-20.996,0.000,0
37066.625,-25.879,-32.715,-26.855,-25.879,0.000,0
37066.629,-26.855,-28.809,-22.949,-30.762,0.000,0
37066.633,-28.809,-22.461,-22.949,-21.484,0.000,0
37066.637,-24.902,-21.484,-23.438,-16.602,0.000,0
37066.641,-18.555,-22.461,-24.902,-18.555,0.000,0
37066.644,-27.344,-21.973,-21.973,-21.484,0.000,0
37066.648,-29.785,-25.391,-28.320,-31.738,0.000,0
37066.652,-25.391,-22.949,-31.738,-34.180,0.000,0
37066.656,-24.414,-21.484,-24.414,-28.320,0.000,0
37066.660,-24.902,-21.973,-22.949,-25.391,0.000,0
37066.664,-22.461,-15.137,-29.297,-27.344,0.000,0
37066.668,-18.555,-16.113,-28.320,-24.414,0.000,0
37066.672,-20.996,-19.531,-27.832,-22.461,0.000,0
37066.676,-21.484,-19.531,-26.367,-28.809,0.000,0
37066.680,-20.996,-22.949,-25.391,-25.879,0.000,0
37066.684,-25.879,-23.926,-28.320,-23.438,0.000,0
37066.687,-22.461,-20.020,-26.855,-20.996,0.000,0
37066.691,-16.113,-10.254,-20.996,-5.859,0.000,0
37066.695,-22.949,-9.277,-30.762,-3.906,0.000,0
37066.699,-26.855,-14.160,-46.387,-4.883,0.000,0
37066.703,-29.297,-18.066,-35.156,7.812,0.000,0
37066.707,-23.926,-22.461,-23.438,-12.207,0.000,0
37066.711,-20.508,-20.508,-32.227,-32.715,0.000,0
37066.715,-26.855,-19.531,-38.086,-30.273,0.000,0
37066.719,-24.414,-20.508,-31.250,-30.273,0.000,0
37066.723,-25.879,-22.461,-29.297,-26.855,0.000,0
37066.726,-19.043,-19.531,-23.926,-15.625,0.000,0
37066.730,-3.906,-14.648,-18.066,6.348,0.000,0
37066.734,-14.648,-20.020,-20.996,0.000,0.000,0
37066.738,-39.551,-23.438,-22.949,-29.785,0.000,0
37066.742,-45.898,-17.090,-22.461,-41.016,0.000,0
37066.746,-28.320,-13.184,-10.254,-29.297,0.000,0
37066.750,-19.043,-10.254,-11.230,-19.043,0.000,0
37066.754,-18.066,-10.254,-19.043,-31.250,0.000,0
37066.758,-19.043,-16.113,-20.508,-32.715,0.000,0
37066.762,-16.602,-20.508,-21.973,-21.484,0.000,0
37066.766,-14.160,-15.625,-14.160,-25.391,0.000,0
37066.769,-20.020,-14.648,-16.602,-20.020,0.000,0
37066.773,-25.391,-18.555,-28.320,-26.855,0.000,0
37066.777,-21.973,-19.531,-25.391,-27.832,0.000,0
37066.781,-19.531,-17.090,-21.973,-7.324,0.000,0
37066.785,-17.090,-18.555,-22.461,-14.648,0.000,0
37066.789,-18.066,-24.902,-28.809,-35.156,0.000,0
37066.793,-20.996,-20.996,-31.250,-31.738,0.000,0
37066.797,-18.555,-18.555,-28.320,-21.973,0.000,0
37066.801,-17.578,-22.949,-35.156,-26.367,0.000,0
37066.805,-27.832,-24.902,-29.297,-34.180,0.000,0
37066.809,-23.926,-23.438,-27.344,-21.484,0.000,0
37066.812,-12.695,-19.043,-32.227,-13.672,0.000,0
37066.816,-14.160,-14.648,-28.320,-19.531,0.000,0
37066.820,-14.160,-19.043,-23.438,-17.578,0.000,0
37066.824,-21.484,-27.344,-22.949,-26.855,0.000,0
37066.828,-29.297,-22.461,-20.996,-34.180,0.000,0
37066.832,-20.508,-21.973,-23.926,-19.531,0.000,0
37066.836,-14.648,-17.578,-29.297,-6.348,0.000,0
37066.840,-11.230,-11.230,-21.973,-13.672,0.000,0
37066.844,-11.230,-19.043,-15.137,-23.438,0.000,0
37066.848,-20.020,-27.344,-20.020,-18.066,0.000,0
37066.851,-16.602,-18.066,-8.789,-13.184,0.000,0
37066.855,-17.578,-17.578,-6.348,-20.508,0.000,0
37066.859,-27.832,-27.832,-25.391,-23.438,0.000,0
37066.863,-23.926,-33.203,-27.344,-17.578,0.000,0
37066.867,-20.508,-31.738,-19.043,-29.297,0.000,0
37066.871,-18.555,-24.902,-19.043,-29.297,0.000,0
37066.875,-13.184,-26.855,-21.973,-17.578,0.000,0
37066.879,-19.531,-31.738,-23.926,-16.113,0.000,0
37066.883,-25.879,-30.273,-20.020,-18.555,0.000,0
37066.887,-25.879,-29.297,-23.438,-22.461,0.000,0
37066.891,-24.414,-26.367,-29.785,-35.645,0.000,0
37066.894,-26.367,-26.367,-24.414,-41.992,0.000,0
37066.898,-23.438,-28.809,-27.344,-29.297,0.000,0
37066.902,-22.461,-30.762,-25.391,-29.785,0.000,0
37066.906,-27.344,-32.715,-21.484,-27.344,0.000,0
37066.910,-24.902,-26.367,-21.484,-16.113,0.000,0
37066.914,-10.254,-23.438,-23.926,-6.348,0.000,0
37066.918,-8.789,-22.461,-22.461,-9.277,0.000,0
37066.922,-10.742,-23.926,-18.555,-14.648,0.000,0
37066.926,-8.789,-24.414,-25.879,-14.160,0.000,0
37066.930,-17.090,-24.414,-32.227,-16.602,0.000,0
37066.934,-4.395,-25.391,-33.203,1.465,0.000,0
37066.937,7.324,-20.996,-27.344,8.789,0.000,0
37066.941,-20.996,-17.578,-11.230,-18.066,0.000,0
37066.945,-35.156,-24.414,-13.672,-31.250,0.000,0
37066.949,-30.762,-32.227,-30.762,-26.367,0.000,0
37066.953,-37.598,-33.691,-31.250,-30.273,0.000,0
37066.957,-41.016,-29.785,-20.508,-37.109,0.000,0
37066.961,-46.387,-31.738,-21.484,-46.387,0.000,0
37066.965,-39.062,-24.902,-24.414,-46.387,0.000,0
37066.969,-22.949,-20.996,-18.555,-31.250,0.000,0
37066.973,-23.926,-28.320,-15.625,-24.414,0.000,0
37066.976,-26.367,-27.832,-19.043,-30.273,0.000,0
37066.980,-15.137,-22.461,-24.902,-27.832,0.000,0
37066.984,-8.789,-21.973,-19.531,-19.043,0.000,0
37066.988,-11.230,-16.113,-12.695,-14.648,0.000,0
37066.992,-14.648,-12.695,-20.996,-26.855,0.000,0
37066.996,-13.184,-20.020,-16.113,-34.180,0.000,0
37067.000,-15.137,-20.508,-12.695,-19.531,0.000,0
37067.004,-24.414,-22.461,-23.926,-25.391,0.000,0
37067.008,-21.973,-29.297,-39.062,-36.133,0.000,0
37067.012,-18.555,-30.762,-43.945,-34.668,0.000,0
37067.016,-27.832,-34.180,-38.574,-32.715,0.000,0
37067.019,-28.320,-26.855,-31.250,-36.621,0.000,0
37067.023,-24.414,-20.996,-23.926,-33.691,0.000,0
37067.027,-29.297,-26.855,-23.926,-26.367,0.000,0
37067.031,-37.598,-30.273,-26.367,-36.133,0.000,0
37067.035,-30.762,-30.273,-36.621,-28.809,0.000,0
37067.039,-26.367,-37.109,-41.992,-26.855,0.000,0
37067.043,-33.691,-37.598,-33.203,-25.391,0.000,0
37067.047,-31.738,-28.320,-28.809,-7.812,0.000,1
37067.051,-26.855,-30.762,-33.691,-16.113,0.000,0
37067.055,-28.320,-36.133,-36.621,-26.855,0.000,0
37067.059,-31.250,-35.645,-30.762,-25.879,0.000,0
37067.062,-34.668,-31.738,-26.367,-28.320,0.000,0
37067.066,-28.320,-27.832,-28.809,-20.508,0.000,0
37067.070,-23.926,-24.902,-27.832,-14.648,0.000,0
37067.074,-22.461,-19.531,-30.273,-12.695,0.000,0
37067.078,-17.578,-20.020,-27.832,-10.254,0.000,0
37067.082,-19.531,-25.391,-32.227,-22.949,0.000,0
37067.086,-19.531,-27.832,-36.621,-23.926,0.000,0
37067.090,-18.066,-30.273,-30.762,-21.973,0.000,0
37067.094,-14.160,-35.645,-38.086,-23.926,0.000,0
37067.098,-12.207,-34.668,-35.156,-24.414,0.000,0
37067.101,-15.625,-29.785,-28.809,-24.902,0.000,0
37067.105,-13.672,-27.832,-28.809,-20.020,0.000,0
37067.109,-15.625,-25.391,-25.879,-14.648,0.000,0
37067.113,-20.996,-31.250,-30.273,-15.625,0.000,0
37067.117,-20.508,-27.344,-26.855,-24.414,0.000,0
37067.121,-28.320,-24.414,-20.508,-37.109,0.000,0
37067.125,-25.879,-28.320,-25.391,-35.156,0.000,0
37067.129,-19.531,-28.809,-29.297,-33.691,0.000,0
37067.133,-19.043,-28.809,-20.508,-28.809,0.000,0
37067.137,-16.113,-24.414,-4.883,-21.484,0.000,0
37067.141,-14.648,-23.926,-7.812,-22.949,0.000,0
37067.144,-19.043,-34.668,-21.484,-20.996,0.000,0
37067.148,-28.320,-34.180,-18.066,-17.090,0.000,0
37067.152,-26.367,-28.320,-18.555,-18.555,0.000,0
37067.156,-20.996,-29.297,-19.043,-26.855,0.000,0
37067.160,-27.832,-30.762,-16.113,-40.039,0.000,0
37067.164,-25.391,-29.785,-16.602,-39.062,0.000,0
37067.168,-18.066,-21.484,-9.766,-23.926,0.000,0
37067.172,-17.578,-25.391,-20.508,-23.438,0.000,0
37067.176,-16.113,-37.109,-27.344,-19.531,0.000,0
37067.180,-20.508,-41.016,-21.484,-31.738,0.000,0
37067.184,-28.320,-39.062,-29.785,-32.227,0.000,0
37067.187,-30.762,-38.574,-35.645,-20.020,0.000,0
37067.191,-24.414,-40.039,-34.180,-23.438,0.000,0
37067.195,-14.160,-35.156,-29.297,-12.695,0.000,0
37067.199,-19.043,-32.715,-20.020,-19.043,0.000,0
37067.203,-30.273,-37.598,-29.785,-31.738,0.000,0
37067.207,-30.273,-35.645,-41.504,-30.273,0.000,0
37067.211,-34.668,-31.250,-32.227,-30.762,0.000,0
37067.215,-42.969,-32.227,-34.668,-26.855,0.000,0
37067.219,-36.133,-34.180,-30.762,-35.645,0.000,0
37067.223,-28.320,-29.297,-23.438,-33.203,0.000,0
37067.226,-35.156,-27.832,-29.297,-24.902,0.000,0
37067.230,-36.133,-31.738,-35.156,-30.273,0.000,0
37067.234,-28.809,-27.344,-35.156,-34.668,0.000,0
37067.238,-29.297,-23.926,-27.344,-34.180,0.000,0
37067.242,-22.949,-20.020,-18.066,-23.926,0.000,0
37067.246,-20.020,-20.020,-23.438,-23.926,0.000,0
37067.250,-28.320,-20.508,-26.367,-26.367,0.000,0
37067.254,-31.250,-22.949,-25.391,-21.973,0.000,0
37067.258,-29.297,-22.949,-18.066,-26.367,0.000,0
37067.262,-20.020,-15.137,-12.207,-16.113,0.000,0
37067.266,-24.902,-20.020,-23.438,-15.625,0.000,0
37067.269,-32.227,-20.508,-21.973,-29.785,0.000,0
37067.273,-21.484,-8.789,-3.906,-10.742,0.000,0
37067.277,-20.996,-9.766,-12.695,-12.695,0.000,0
37067.281,-27.832,-20.508,-22.949,-28.809,0.000,0
37067.285,-23.926,-23.926,-21.484,-19.531,0.000,0
37067.289,-22.949,-27.344,-23.926,-20.020,0.000,0
37067.293,-25.391,-27.344,-21.973,-25.391,0.000,0
37067.297,-18.066,-17.578,-16.113,-21.484,0.000,0
37067.301,-16.113,-15.625,-17.090,-20.020,0.000,0
37067.305,-30.273,-21.973,-21.973,-24.414,0.000,0
37067.309,-35.156,-29.297,-25.879,-28.809,0.000,0
37067.312,-26.855,-31.250,-32.715,-26.367,0.000,0
37067.316,-30.762,-23.438,-27.344,-20.508,0.000,0
37067.320,-26.855,-22.461,-20.996,-25.879,0.000,0
37067.324,-23.926,-30.273,-27.832,-27.832,0.000,0
37067.328,-32.715,-32.715,-30.273,-28.809,0.000,0
37067.332,-25.879,-28.809,-30.273,-24.414,0.000,0
37067.336,-22.461,-39.062,-34.180,-25.879,0.000,0
37067.340,-34.180,-42.969,-37.109,-36.621,0.000,0
37067.344,-33.691,-40.527,-38.086,-34.180,0.000,0
37067.348,-17.090,-37.109,-29.785,-29.785,0.000,0
37067.351,-16.113,-26.367,-25.879,-27.344,0.000,0
37067.355,-28.320,-24.414,-33.691,-39.062,0.000,0
37067.359,-28.320,-31.250,-28.320,-39.551,0.000,0
37067.363,-23.926,-22.461,-23.438,-25.879,0.000,0
37067.367,-23.438,-22.949,-36.133,-27.344,0.000,0
37067.371,-20.508,-29.785,-39.062,-28.320,0.000,0
37067.375,-17.090,-28.809,-25.879,-24.414,0.000,0
37067.379,-19.043,-29.785,-25.879,-29.785,0.000,0
37067.383,-20.508,-31.738,-40.527,-36.133,0.000,0
37067.387,-19.043,-29.297,-36.621,-30.762,0.000,0
37067.391,-16.113,-21.973,-23.438,-19.531,0.000,0
37067.394,-24.414,-23.926,-27.344,-18.066,0.000,0
37067.398,-30.762,-29.785,-35.156,-18.555,0.000,0
37067.402,-27.832,-22.949,-33.203,-17.578,0.000,0
37067.406,-29.297,-17.578,-29.785,-19.043,0.000,0
37067.410,-37.598,-27.344,-32.715,-20.020,0.000,0
37067.414,-40.039,-32.715,-30.762,-24.414,0.000,0
37067.418,-42.480,-32.715,-31.738,-29.785,0.000,0
37067.422,-46.875,-31.250,-34.668,-36.621,0.000,0
37067.426,-39.551,-20.996,-26.367,-32.227,0.000,0
37067.430,-35.156,-20.020,-28.809,-25.391,0.000,0
37067.434,-37.598,-19.531,-30.273,-28.809,0.000,0
37067.437,-36.133,-23.438,-23.926,-21.484,0.000,0
37067.441,-37.598,-23.438,-28.809,-18.555,0.000,0
37067.445,-34.668,-20.508,-28.809,-24.414,0.000,0
37067.449,-32.715,-23.926,-20.996,-29.785,0.000,0
37067.453,-26.855,-21.973,-9.277,-24.414,0.000,0
37067.457,-20.020,-27.344,-14.648,-24.414,0.000,0
37067.461,-23.438,-28.320,-26.855,-31.250,0.000,0
37067.465,-26.855,-28.320,-25.391,-24.414,0.000,0
37067.469,-23.926,-32.227,-26.367,-13.672,0.000,0
37067.473,-22.949,-23.926,-25.391,-21.973,0.000,0
37067.476,-25.391,-25.391,-18.066,-35.156,0.000,0
37067.480,-27.344,-28.809,-27.344,-35.645,0.000,0
37067.484,-22.949,-23.926,-30.273,-26.855,0.000,0
37067.488,-19.043,-27.344,-26.855,-25.879,0.000,0
37067.492,-24.414,-31.738,-27.344,-30.762,0.000,0
37067.496,-27.832,-30.273,-20.996,-35.156,0.000,0
37067.500,-33.203,-32.715,-24.414,-35.645,0.000,0
37067.504,-35.156,-36.621,-33.691,-35.645,0.000,0
37067.508,-31.250,-34.180,-34.668,-33.691,0.000,0
37067.512,-31.250,-25.391,-25.391,-26.855,0.000,0
37067.516,-33.691,-29.785,-20.996,-34.180,0.000,0
37067.519,-33.203,-35.645,-29.785,-31.738,0.000,0
37067.523,-27.344,-28.809,-31.250,-21.973,0.000,0
37067.527,-29.297,-24.902,-21.484,-23.926,0.000,0
37067.531,-30.762,-31.250,-27.344,-21.484,0.000,0
37067.535,-28.809,-32.715,-28.809,-26.367,0.000,0
37067.539,-26.367,-25.879,-26.855,-29.785,0.000,0
37067.543,-30.273,-22.461,-34.668,-25.879,0.000,0
37067.547,-32.227,-24.414,-37.109,-27.832,0.000,0
37067.551,-29.785,-27.344,-33.203,-24.414,0.000,0
37067.555,-23.438,-22.949,-16.602,-21.484,0.000,0
37067.559,-16.113,-22.949,-8.301,-16.602,0.000,0
37067.562,-19.531,-18.066,-22.461,-18.555,0.000,0
37067.566,-16.113,-11.230,-21.484,-6.836,0.000,0
37067.570,-12.207,-13.672,-20.020,0.000,0.000,0
37067.574,-14.648,-16.602,-26.367,-21.484,0.000,0
37067.578,-11.230,-12.207,-27.832,-15.137,0.000,0
37067.582,-20.020,-20.996,-33.203,-8.301,0.000,0
37067.586,-25.879,-23.438,-30.273,-18.555,0.000,0
37067.590,-20.020,-18.555,-26.855,-18.555,0.000,0
37067.594,-23.926,-22.949,-31.250,-27.832,0.000,0
37067.598,-22.461,-23.438,-28.809,-29.297,0.000,0
37067.601,-19.043,-22.461,-29.297,-21.484,0.000,0
37067.605,-20.020,-21.973,-33.203,-10.254,0.000,0
37067.609,-18.555,-27.344,-33.203,-7.812,0.000,0
37067.613,-23.438,-28.809,-28.320,-22.461,0.000,0
37067.617,-21.484,-23.926,-18.555,-28.320,0.000,0
37067.621,-19.043,-27.344,-28.809,-23.438,0.000,0
37067.625,-21.973,-30.273,-42.969,-25.879,0.000,0
37067.629,-30.273,-22.461,-35.156,-29.785,0.000,0
37067.633,-27.344,-16.602,-24.414,-21.484,0.000,0
37067.637,-19.043,-23.926,-31.738,-20.996,0.000,0
37067.641,-21.484,-27.344,-38.086,-21.484,0.000,0
37067.644,-22.461,-24.902,-29.297,-20.996,0.000,0
37067.648,-31.738,-20.996,-19.043,-28.809,0.000,0
37067.652,-30.273,-21.484,-24.414,-30.273,0.000,0
37067.656,-26.367,-25.879,-30.273,-27.832,0.000,0
37067.660,-26.367,-29.297,-29.785,-35.645,0.000,0
37067.664,-22.461,-27.832,-30.273,-19.531,0.000,0
37067.668,-18.555,-28.320,-27.344,-17.578,0.000,0
37067.672,-20.020,-26.855,-20.020,-30.273,0.000,0
37067.676,-25.391,-27.344,-19.531,-29.785,0.000,0
37067.680,-30.273,-28.809,-27.832,-26.855,0.000,0
37067.684,-27.344,-29.297,-30.273,-20.996,0.000,0
37067.687,-20.020,-28.809,-29.785,-23.438,0.000,0
