timestamps,TP9,AF7,AF8,TP10,Right AUX,Marker0
36797.894,-13.184,94.238,-32.715,-20.996,0.000,0
36797.898,-3.418,104.492,-23.438,7.324,0.000,0
36797.902,4.883,110.840,-21.973,15.625,0.000,0
36797.906,-2.930,121.094,-17.090,9.766,0.000,0
36797.910,-11.719,121.094,-4.883,-8.301,0.000,0
36797.914,-20.020,113.281,-14.160,-22.949,0.000,0
36797.918,-19.043,109.375,-17.578,-20.508,0.000,0
36797.922,2.441,105.957,-8.789,-12.695,0.000,0
36797.926,-18.066,87.891,-15.137,-4.395,0.000,0
36797.930,-44.434,69.336,-20.508,-20.508,0.000,0
36797.933,-28.809,68.359,-8.301,-36.133,0.000,0
36797.937,-40.527,53.711,-17.090,-29.785,0.000,0
36797.941,-53.223,36.621,-25.391,-34.668,0.000,0
36797.945,-32.227,39.062,0.000,-31.738,0.000,0
36797.949,-15.625,29.297,-6.836,-11.230,0.000,0
36797.953,-24.414,15.137,-20.996,-15.137,0.000,0
36797.957,-35.156,8.789,1.465,-29.297,0.000,0
36797.961,-37.109,-5.859,12.695,-30.273,0.000,0
36797.965,-53.223,-12.695,-8.301,-54.688,0.000,0
36797.969,-55.664,-16.113,-19.531,-54.199,0.000,0
36797.973,-42.480,-19.043,0.977,-35.156,0.000,0
36797.976,-41.504,-19.043,21.973,-35.645,0.000,0
36797.980,-43.945,-19.043,20.020,-42.480,0.000,0
36797.984,-50.293,-19.531,19.043,-36.621,0.000,0
36797.988,-51.270,-26.367,20.508,-18.555,0.000,0
36797.992,-22.949,-22.461,25.391,-8.789,0.000,0
36797.996,-10.254,-19.531,30.273,0.488,0.000,0
36798.000,-23.438,-23.438,28.320,-2.930,0.000,0
36798.004,-20.996,-27.344,17.090,-4.883,0.000,0
36798.008,-29.785,-33.691,15.137,-9.766,0.000,0
36798.012,-34.668,-41.992,4.883,-23.926,0.000,0
36798.016,-29.297,-52.246,4.395,-17.578,0.000,0
36798.019,-21.973,-57.129,22.949,-15.137,0.000,0
36798.023,-21.973,-55.176,18.066,1.465,0.000,0
36798.027,-32.715,-57.617,0.977,-11.230,0.000,0
36798.031,-40.039,-56.152,-4.395,-41.016,0.000,0
36798.035,-37.598,-56.152,1.465,-41.992,0.000,0
36798.039,-36.621,-64.941,-0.488,-22.461,0.000,0
36798.043,-49.316,-70.312,-16.602,-33.203,0.000,0
36798.047,-52.246,-73.242,-28.809,-45.898,0.000,0
36798.051,-57.617,-80.566,-20.020,-26.367,0.000,0
36798.055,-65.430,-87.402,-24.414,-36.133,0.000,0
36798.058,-58.594,-87.402,-31.738,-42.480,0.000,0
36798.062,-42.969,-77.637,-32.715,-18.555,0.000,0
36798.066,-39.551,-79.102,-27.832,-31.250,0.000,0
36798.070,-41.504,-97.168,-39.551,-48.340,0.000,0
36798.074,-53.223,-99.121,-42.969,-44.434,0.000,0
36798.078,-52.246,-88.379,-23.438,-55.176,0.000,0
36798.082,-45.410,-83.008,-17.090,-50.293,0.000,0
36798.086,-49.316,-87.402,-32.715,-54.688,0.000,0
36798.090,-45.898,-94.727,-41.992,-58.594,0.000,0
36798.094,-24.902,-90.332,-31.738,-35.645,0.000,0
36798.098,-20.996,-80.078,-18.066,-53.711,0.000,0
36798.101,-37.109,-71.289,-25.391,-33.691,0.000,0
36798.105,-48.828,-71.289,-31.250,-11.230,0.000,0
36798.109,-32.715,-61.523,-13.184,-14.648,0.000,0
36798.113,-16.113,-52.246,0.488,-5.859,0.000,0
36798.117,-10.254,-56.152,1.465,-12.207,0.000,0
36798.121,-0.488,-53.223,5.859,-12.695,0.000,0
36798.125,-12.695,-49.805,2.930,4.883,0.000,0
36798.129,-20.020,-52.246,-9.277,-1.953,0.000,0
36798.133,-14.648,-49.316,-12.695,-18.555,0.000,0
36798.137,-19.531,-47.852,0.977,-16.602,0.000,0
36798.141,-20.508,-41.016,4.395,-11.230,0.000,0
36798.144,-4.883,-38.086,0.000,-1.465,0.000,0
36798.148,1.465,-33.203,4.395,10.742,0.000,0
36798.152,5.859,-19.531,15.137,18.555,0.000,0
36798.156,0.488,-15.625,25.391,25.391,0.000,0
36798.160,-1.465,-19.531,11.719,11.230,0.000,0
36798.164,10.742,-18.555,6.348,-6.836,0.000,0
36798.168,6.836,-21.484,2.441,20.996,0.000,0
36798.172,0.488,-27.344,-0.977,10.742,0.000,0
36798.176,-3.418,-24.902,7.324,0.000,0.000,0
36798.180,-19.531,-27.832,-6.348,2.441,0.000,0
36798.183,-19.531,-34.668,-7.812,-2.930,0.000,0
36798.187,-11.230,-31.250,-1.465,4.883,0.000,0
36798.191,-13.184,-29.785,-4.395,-1.953,0.000,0
36798.195,-10.742,-33.203,6.348,-4.883,0.000,0
36798.199,-3.418,-21.973,14.160,5.859,0.000,0
36798.203,-4.395,-18.555,5.371,-2.441,0.000,0
36798.207,-11.719,-30.762,-7.812,-2.930,0.000,0
36798.211,-13.184,-32.227,-2.441,-12.207,0.000,0
36798.215,-1.953,-24.414,4.883,-11.719,0.000,0
36798.219,-13.672,-24.902,-3.906,0.000,0.000,0
36798.223,-20.996,-27.344,-12.207,-15.137,0.000,0
36798.226,-17.578,-18.066,-8.789,0.488,0.000,0
36798.230,-8.301,-13.184,3.906,12.695,0.000,0
36798.234,7.324,-14.648,7.324,-4.883,0.000,0
36798.238,-6.836,-13.672,3.418,-0.977,0.000,0
36798.242,-6.836,-8.301,5.859,-4.395,0.000,0
36798.246,-3.906,-6.836,7.324,2.441,0.000,0
36798.250,-14.648,-17.578,-4.395,1.465,0.000,0
36798.254,-1.465,-19.043,-2.441,-17.090,0.000,0
36798.258,1.465,-15.137,3.418,-20.020,0.000,0
36798.262,5.371,-14.160,4.395,-9.277,0.000,0
36798.266,2.930,-10.742,-3.906,-6.836,0.000,0
36798.269,-17.090,-21.973,-4.395,-37.109,0.000,0
36798.273,-12.695,-17.578,1.953,-20.996,0.000,0
36798.277,-20.996,-5.859,-15.625,6.348,0.000,0
36798.281,-17.090,-6.836,-25.879,-3.906,0.000,0
36798.285,-4.883,-9.277,-9.277,-6.836,0.000,0
36798.289,-13.672,-12.207,8.789,5.371,0.000,0
36798.293,-34.668,-18.555,-9.277,-27.832,0.000,0
36798.297,-44.922,-25.391,-33.203,-35.156,0.000,0
36798.301,-42.969,-20.996,-19.043,2.441,0.000,0
36798.305,-29.785,-18.066,-9.766,-7.324,0.000,0
36798.308,-17.578,-28.809,-18.555,-21.973,0.000,0
36798.312,-31.738,-31.250,-25.391,-25.391,0.000,0
36798.316,-25.879,-18.555,-18.555,-4.883,0.000,0
36798.320,-3.418,-19.043,-6.348,-8.301,0.000,0
36798.324,-19.043,-27.832,-19.531,-34.180,0.000,0
36798.328,-28.320,-25.879,-24.902,-25.879,0.000,0
36798.332,-21.484,-17.090,-10.742,-17.578,0.000,0
36798.336,-21.484,-10.254,-9.766,-5.859,0.000,0
36798.340,-21.973,-15.137,-18.066,-1.953,0.000,0
36798.344,-31.738,-20.996,-26.367,-31.250,0.000,0
36798.348,-32.227,-14.648,-4.395,-19.531,0.000,0
36798.351,-21.484,-12.207,-7.324,2.930,0.000,0
36798.355,-14.648,-8.789,-18.555,1.465,0.000,0
36798.359,-20.996,-18.066,-17.090,-11.230,0.000,0
36798.363,-16.602,-17.090,-12.207,-7.324,0.000,0
36798.367,-14.648,-8.789,-7.324,-13.184,0.000,0
36798.371,-19.531,-14.648,-6.348,-28.320,0.000,0
36798.375,-20.020,-19.531,-4.883,-7.324,0.000,0
36798.379,-20.508,-17.090,-5.371,10.254,0.000,0
36798.383,-26.367,-18.066,-8.301,-11.719,0.000,0
36798.387,-42.480,-33.203,-22.949,-40.527,0.000,0
36798.391,-38.574,-42.969,-28.809,-53.711,0.000,0
36798.394,-43.457,-38.574,-29.785,-50.293,0.000,0
36798.398,-49.316,-50.781,-42.480,-65.430,0.000,0
36798.402,-48.340,-59.570,-50.293,-57.129,0.000,0
36798.406,-50.781,-54.688,-38.574,-35.156,0.000,0
36798.410,-46.875,-60.059,-33.203,-49.316,0.000,0
36798.414,-55.176,-61.035,-44.922,-41.992,0.000,0
36798.418,-64.453,-62.012,-47.852,-27.832,0.000,0
36798.422,-57.617,-66.406,-39.551,-32.715,0.000,0
36798.426,-54.688,-65.430,-46.387,-51.758,0.000,0
36798.430,-49.805,-60.059,-47.363,-56.641,0.000,0
36798.433,-35.156,-52.734,-35.645,-35.645,0.000,0
36798.437,-33.691,-57.617,-33.691,-33.203,0.000,0
36798.441,-45.898,-65.430,-51.270,-42.480,0.000,0
36798.445,-58.105,-68.848,-58.105,-51.758,0.000,0
36798.449,-63.477,-72.266,-50.293,-72.266,0.000,0
36798.453,-76.660,-80.078,-67.383,-80.078,0.000,0
36798.457,-86.426,-93.750,-92.285,-75.195,0.000,0
36798.461,-85.938,-93.750,-96.680,-75.195,0.000,0
36798.465,-71.777,-80.566,-75.195,-63.477,0.000,0
36798.469,-58.105,-67.383,-49.805,-48.340,0.000,0
36798.473,-69.336,-61.523,-51.758,-48.828,0.000,0
36798.476,-68.359,-58.594,-57.129,-50.781,0.000,0
36798.480,-61.523,-56.152,-53.711,-43.945,0.000,0
36798.484,-69.824,-57.129,-47.363,-39.551,0.000,0
36798.488,-67.383,-64.941,-46.387,-70.801,0.000,0
36798.492,-64.453,-59.570,-49.805,-68.848,0.000,0
36798.496,-55.664,-53.223,-45.898,-42.480,0.000,0
36798.500,-41.992,-52.246,-43.945,-60.059,0.000,0
36798.504,-44.922,-49.805,-41.992,-60.059,0.000,0
36798.508,-44.434,-45.898,-29.297,-32.227,0.000,0
36798.512,-49.316,-38.574,-26.367,-33.203,0.000,0
36798.516,-45.898,-44.922,-42.969,-48.828,0.000,0
36798.519,-36.133,-44.434,-41.504,-41.016,0.000,0
36798.523,-36.133,-28.809,-18.555,-15.625,0.000,0
36798.527,-27.344,-29.785,-1.465,-30.273,0.000,0
36798.531,-25.391,-32.715,-20.996,-34.180,0.000,0
36798.535,-31.250,-26.855,-34.668,-21.484,0.000,0
36798.539,-26.367,-27.832,-23.438,-24.414,0.000,0
36798.543,-32.715,-30.273,-23.926,-20.508,0.000,0
36798.547,-41.504,-37.598,-34.180,-36.133,0.000,0
36798.551,-39.062,-44.922,-40.527,-42.480,0.000,0
36798.555,-40.527,-47.363,-40.527,-40.039,0.000,0
36798.558,-52.734,-50.781,-47.852,-43.457,0.000,0
36798.562,-53.223,-48.828,-46.387,-28.320,0.000,0
36798.566,-49.805,-50.781,-36.621,-36.133,0.000,0
36798.570,-37.109,-40.527,-35.156,-43.457,0.000,0
36798.574,-21.484,-25.391,-25.879,-30.762,0.000,0
36798.578,-28.809,-23.438,-16.602,-24.414,0.000,0
36798.582,-30.273,-23.926,-25.879,-21.973,0.000,0
36798.586,-29.297,-21.973,-13.672,-28.809,0.000,0
36798.590,-22.949,-15.625,0.000,-3.906,0.000,0
36798.594,-24.414,-18.555,-13.672,7.324,0.000,0
36798.598,-31.738,-21.484,-14.648,-20.020,0.000,0
36798.601,-35.156,-21.484,-11.719,-24.414,0.000,0
36798.605,-33.691,-27.344,-22.461,-33.203,0.000,0
36798.609,-39.551,-32.227,-35.156,-41.992,0.000,0
36798.613,-49.316,-28.320,-33.203,-47.852,0.000,0
36798.617,-54.688,-31.738,-28.809,-38.086,0.000,0
36798.621,-51.270,-37.598,-37.598,-35.645,0.000,0
36798.625,-29.297,-25.391,-30.762,-34.668,0.000,0
36798.629,-32.227,-15.137,-9.277,-31.738,0.000,0
36798.633,-28.809,-9.766,5.371,-3.418,0.000,0
36798.637,-4.395,-10.254,-2.930,-1.953,0.000,0
36798.641,-26.855,-20.020,-13.184,-22.461,0.000,0
36798.644,-40.527,-24.414,-17.090,-23.438,0.000,0
36798.648,-33.691,-26.855,-34.668,-38.086,0.000,0
36798.652,-49.805,-41.992,-52.734,-33.203,0.000,0
36798.656,-52.734,-52.246,-58.594,-20.508,0.000,0
36798.660,-45.410,-42.969,-53.711,-33.691,0.000,0
36798.664,-41.504,-39.551,-41.016,-43.457,0.000,0
36798.668,-41.504,-39.551,-37.598,-50.293,0.000,0
36798.672,-48.828,-34.180,-45.898,-50.293,0.000,0
36798.676,-29.785,-28.809,-33.203,-19.531,0.000,0
36798.680,-29.297,-30.762,-36.621,-9.766,0.000,0
36798.683,-57.617,-37.109,-41.504,-53.711,0.000,0
36798.687,-52.246,-28.809,-28.809,-52.734,0.000,0
36798.691,-35.156,-27.832,-35.645,-24.902,0.000,0
36798.695,-38.574,-36.133,-44.434,-45.898,0.000,0
36798.699,-46.875,-38.086,-44.434,-44.434,0.000,0
36798.703,-45.898,-32.227,-30.762,-35.645,0.000,0
36798.707,-37.109,-24.902,-23.926,-41.992,0.000,0
36798.711,-36.133,-33.203,-37.598,-35.156,0.000,0
36798.715,-51.270,-45.898,-54.199,-38.086,0.000,0
36798.719,-47.852,-43.457,-44.922,-8.789,0.000,0
36798.723,-38.574,-41.992,-34.668,-21.484,0.000,0
36798.726,-42.480,-42.969,-46.387,-61.523,0.000,0
36798.730,-28.320,-41.016,-39.062,-27.344,0.000,0
36798.734,-39.551,-39.062,-42.480,-19.043,0.000,0
36798.738,-49.316,-34.180,-41.016,-37.109,0.000,0
36798.742,-36.621,-32.227,-24.902,-34.180,0.000,0
36798.746,-26.367,-27.344,-19.043,-39.551,0.000,0
36798.750,-8.789,-28.320,-25.391,-41.504,0.000,0
36798.754,3.906,-32.227,-28.809,-9.277,0.000,0
36798.758,-19.531,-28.809,-31.250,-1.953,0.000,0
36798.762,-72.754,-31.250,-30.762,-82.520,0.000,0
36798.766,-64.453,-32.715,-19.531,-91.309,0.000,0
36798.769,-39.062,-31.250,-27.344,-28.320,0.000,0
36798.773,-45.410,-37.598,-39.551,-49.316,0.000,0
36798.777,-51.270,-39.062,-36.133,-48.828,0.000,0
36798.781,-72.266,-43.457,-36.133,-48.828,0.000,0
36798.785,-75.684,-50.293,-45.898,-70.801,0.000,0
36798.789,-53.223,-42.969,-45.410,-49.805,0.000,0
36798.793,-52.734,-37.598,-30.273,-21.484,0.000,0
36798.797,-51.270,-42.969,-32.715,-34.668,0.000,0
36798.801,-39.551,-44.922,-33.203,-42.480,0.000,0
36798.805,-43.457,-46.387,-29.785,-20.996,0.000,0
36798.808,-41.992,-43.457,-33.203,-20.996,0.000,0
36798.812,-35.156,-35.156,-30.762,-46.875,0.000,0
36798.816,-28.320,-37.109,-40.039,-56.152,0.000,0
36798.820,-25.879,-46.875,-35.156,-56.152,0.000,0
36798.824,-44.434,-52.734,-33.691,-55.176,0.000,0
36798.828,-55.176,-50.293,-46.875,-65.430,0.000,0
36798.832,-44.434,-60.547,-47.852,-72.266,0.000,0
36798.836,-58.594,-62.988,-56.641,-41.504,0.000,0
36798.840,-58.105,-62.500,-58.105,-43.945,0.000,0
36798.844,-55.176,-69.336,-50.293,-56.152,0.000,0
36798.848,-67.383,-73.730,-59.082,-46.875,0.000,0
36798.851,-59.082,-71.777,-56.641,-49.805,0.000,0
36798.855,-49.316,-65.430,-41.504,-40.527,0.000,0
36798.859,-41.016,-62.988,-37.598,-42.480,0.000,0
36798.863,-43.945,-61.035,-49.316,-64.453,0.000,0
36798.867,-46.875,-54.199,-50.293,-38.574,0.000,0
36798.871,-48.828,-52.246,-43.457,-24.902,0.000,0
36798.875,-46.387,-51.758,-45.898,-48.828,0.000,0
36798.879,-24.414,-47.363,-43.457,-51.270,0.000,1
36798.883,-18.555,-49.316,-35.156,-45.898,0.000,0
36798.887,-33.203,-55.176,-42.480,-32.715,0.000,0
36798.891,-33.691,-47.852,-39.062,-32.227,0.000,0
36798.894,-40.527,-44.922,-34.180,-37.598,0.000,0
36798.898,-40.527,-45.410,-27.832,-18.555,0.000,0
36798.902,-29.297,-44.922,-23.926,-37.109,0.000,0
36798.906,-42.480,-45.410,-37.109,-44.434,0.000,0
36798.910,-47.852,-39.062,-35.156,-33.203,0.000,0
36798.914,-25.879,-32.715,-30.273,-38.574,0.000,0
36798.918,-22.949,-27.832,-25.391,-23.926,0.000,0
36798.922,-23.438,-27.344,-21.484,-19.531,0.000,0
36798.926,-20.996,-22.461,-20.996,-18.066,0.000,0
36798.930,-14.648,-23.438,-27.832,-19.043,0.000,0
36798.933,-15.137,-32.715,-30.273,-42.969,0.000,0
36798.937,-43.457,-35.156,-31.738,-33.203,0.000,0
36798.941,-47.852,-30.762,-41.992,-29.297,0.000,0
36798.945,-26.855,-23.438,-28.809,-28.809,0.000,0
36798.949,-30.273,-26.367,-30.762,-12.695,0.000,0
36798.953,-33.203,-35.645,-44.434,-23.438,0.000,0
36798.957,-33.203,-34.180,-34.180,-19.531,0.000,0
36798.961,-34.180,-28.809,-21.484,-22.949,0.000,0
36798.965,-31.250,-29.785,-28.320,-30.762,0.000,0
36798.969,-35.156,-34.668,-32.227,-28.809,0.000,0
36798.973,-31.738,-29.297,-24.902,-22.461,0.000,0
36798.976,-28.809,-20.508,-22.461,-22.461,0.000,0
36798.980,-32.715,-23.926,-24.414,-29.297,0.000,0
36798.984,-35.156,-24.414,-33.691,-43.945,0.000,0
36798.988,-26.855,-22.461,-40.039,-32.715,0.000,0
36798.992,-20.996,-28.320,-31.250,-17.090,0.000,0
36798.996,-30.762,-30.273,-32.715,-24.902,0.000,0
36799.000,-30.273,-37.109,-40.527,-37.109,0.000,0
36799.004,-42.969,-39.551,-38.086,-51.270,0.000,0
36799.008,-46.387,-38.086,-32.227,-39.551,0.000,0
36799.012,-35.156,-42.480,-41.992,-33.203,0.000,0
36799.016,-41.992,-44.922,-48.828,-42.969,0.000,0
36799.019,-49.805,-47.363,-44.922,-25.391,0.000,0
36799.023,-53.711,-49.805,-52.734,-43.457,0.000,0
36799.027,-58.105,-54.199,-59.570,-65.430,0.000,0
36799.031,-64.453,-57.617,-56.152,-50.781,0.000,0
36799.035,-64.941,-58.594,-48.828,-50.781,0.000,0
36799.039,-58.594,-58.105,-38.574,-66.406,0.000,0
36799.043,-57.129,-57.129,-39.062,-67.871,0.000,0
36799.047,-51.758,-54.688,-40.039,-47.363,0.000,0
36799.051,-39.551,-49.805,-35.156,-40.527,0.000,0
36799.055,-42.480,-50.293,-49.805,-34.668,0.000,0
36799.058,-49.805,-60.059,-55.664,-59.082,0.000,0
36799.062,-50.293,-62.988,-51.758,-54.688,0.000,0
36799.066,-55.176,-64.453,-57.617,-49.805,0.000,0
36799.070,-59.082,-62.012,-62.500,-57.617,0.000,0
36799.074,-62.012,-58.105,-65.918,-54.688,0.000,0
36799.078,-60.547,-62.500,-57.617,-71.777,0.000,0
36799.082,-58.594,-61.523,-55.176,-68.848,0.000,0
36799.086,-61.523,-56.152,-59.570,-50.293,0.000,0
36799.090,-56.152,-55.176,-61.035,-52.734,0.000,0
36799.094,-51.758,-43.945,-44.922,-36.133,0.000,0
36799.098,-49.805,-33.203,-22.461,-35.156,0.000,0
36799.101,-44.434,-35.156,-27.344,-50.781,0.000,0
36799.105,-42.480,-38.574,-35.645,-42.969,0.000,0
36799.109,-33.203,-35.645,-36.621,-43.457,0.000,0
36799.113,-24.414,-25.391,-34.668,-33.691,0.000,0
36799.117,-26.855,-27.344,-32.715,-34.180,0.000,0
36799.121,-38.574,-29.785,-26.855,-33.691,0.000,0
36799.125,-45.898,-26.855,-29.297,-37.598,0.000,0
36799.129,-33.691,-25.391,-24.414,-41.992,0.000,0
36799.133,-30.273,-20.020,-22.949,-20.996,0.000,0
36799.137,-25.879,-15.625,-17.090,-35.645,0.000,0
36799.141,-15.625,-13.184,-0.977,-40.527,0.000,0
36799.144,-14.160,-10.254,-12.695,-23.926,0.000,0
36799.148,-13.184,-9.766,-20.996,-32.227,0.000,0
36799.152,-25.879,-11.230,-17.090,-24.414,0.000,0
36799.156,-37.598,-19.043,-22.461,-28.809,0.000,0
36799.160,-37.109,-26.855,-25.391,-49.316,0.000,0
36799.164,-40.527,-37.109,-42.480,-42.969,0.000,0
36799.168,-38.086,-43.945,-40.039,-33.203,0.000,0
36799.172,-27.832,-39.551,-28.809,-32.227,0.000,0
36799.176,-28.320,-44.434,-37.109,-39.062,0.000,0
36799.180,-38.574,-45.410,-38.574,-39.062,0.000,0
36799.183,-45.410,-37.109,-31.250,-21.973,0.000,0
36799.187,-42.969,-37.109,-31.250,-33.691,0.000,0
36799.191,-51.758,-48.828,-44.922,-56.152,0.000,0
36799.195,-60.059,-51.758,-41.504,-49.805,0.000,0
36799.199,-44.922,-47.363,-34.180,-44.922,0.000,0
36799.203,-32.715,-47.363,-40.039,-46.875,0.000,0
36799.207,-37.109,-51.270,-41.504,-53.223,0.000,0
36799.211,-48.828,-43.945,-36.133,-48.828,0.000,0
36799.215,-45.898,-34.180,-29.297,-42.480,0.000,0
36799.219,-44.434,-40.039,-31.250,-42.480,0.000,0
36799.223,-49.316,-45.898,-45.410,-36.621,0.000,0
36799.226,-46.875,-44.434,-51.758,-38.086,0.000,0
36799.230,-47.363,-40.527,-41.504,-34.668,0.000,0
36799.234,-42.969,-41.992,-43.945,-23.926,0.000,0
36799.238,-34.180,-46.875,-47.852,-41.992,0.000,0
36799.242,-37.109,-44.434,-41.016,-41.992,0.000,0
36799.246,-37.598,-40.039,-37.598,-21.973,0.000,0
36799.250,-39.062,-37.598,-36.621,-29.297,0.000,0
36799.254,-34.180,-34.180,-28.320,-15.625,0.000,0
36799.258,-12.207,-26.855,-20.996,-6.348,0.000,0
36799.262,-13.672,-22.461,-18.066,-21.973,0.000,0
36799.266,-22.949,-22.461,-25.391,-17.578,0.000,0
36799.269,-14.160,-21.973,-22.461,-6.836,0.000,0
36799.273,-12.207,-18.066,-6.836,18.066,0.000,0
36799.277,-30.273,-23.438,-9.277,4.395,0.000,0
36799.281,-30.762,-34.668,-31.738,-29.785,0.000,0
36799.285,-22.949,-30.273,-34.180,-24.414,0.000,0
36799.289,-18.555,-18.066,-13.184,-6.348,0.000,0
36799.293,-7.812,-18.066,-6.836,-5.371,0.000,0
36799.297,-7.324,-27.344,-15.625,-6.348,0.000,0
36799.301,-15.137,-29.297,-22.461,-11.719,0.000,0
36799.305,-20.020,-27.344,-25.391,-14.160,0.000,0
36799.308,-33.203,-27.832,-27.832,-20.996,0.000,0
36799.312,-39.062,-32.227,-31.738,-16.113,0.000,0
36799.316,-25.879,-32.715,-24.902,-28.320,0.000,0
36799.320,-22.949,-28.320,-20.020,-20.996,0.000,0
36799.324,-23.438,-27.344,-25.879,-3.418,0.000,0
36799.328,-26.367,-28.320,-30.762,-20.020,0.000,0
36799.332,-38.086,-35.156,-28.320,-29.297,0.000,0
36799.336,-37.109,-35.156,-9.766,-18.066,0.000,0
36799.340,-30.762,-25.879,-13.672,-9.277,0.000,0
36799.344,-24.414,-25.879,-28.320,-10.254,0.000,0
36799.348,-10.254,-22.461,-16.113,-0.488,0.000,0
36799.351,-3.418,-14.648,2.441,-1.953,0.000,0
36799.355,-15.137,-12.207,5.371,-10.254,0.000,0
36799.359,-21.973,-11.719,-5.859,16.113,0.000,0
36799.363,-20.508,-10.742,0.488,17.578,0.000,0
36799.367,-18.066,-0.488,9.277,3.418,0.000,0
36799.371,-14.160,-0.488,1.465,0.977,0.000,0
36799.375,-14.648,-5.371,1.953,-0.488,0.000,0
36799.379,-12.695,2.441,15.625,8.301,0.000,0
36799.383,-5.859,-1.465,5.859,-2.930,0.000,0
36799.387,-9.766,-7.324,-4.395,-5.859,0.000,0
36799.391,-5.371,-3.906,1.465,-0.977,0.000,0
36799.394,-4.395,-3.418,8.789,-6.836,0.000,0
36799.398,-4.395,5.371,13.672,20.996,0.000,0
36799.402,-0.488,2.930,-0.977,20.996,0.000,0
36799.406,-2.930,-6.348,-1.953,9.766,0.000,0
36799.410,2.441,-6.348,9.766,14.648,0.000,0
36799.414,-13.672,-17.090,-0.977,3.906,0.000,0
36799.418,-18.066,-24.902,-10.742,6.348,0.000,0
36799.422,-14.648,-26.367,-5.859,3.418,0.000,0
36799.426,-34.668,-23.926,-7.812,-7.324,0.000,0
36799.430,-33.203,-26.367,-21.973,-8.301,0.000,0
36799.433,-26.855,-29.785,-14.648,-36.133,0.000,0
36799.437,-33.691,-28.809,-16.113,-45.898,0.000,0
36799.441,-36.133,-29.785,-26.855,-4.395,0.000,0
36799.445,-30.273,-27.832,-28.809,-12.695,0.000,0
36799.449,-22.461,-25.879,-20.020,-24.902,0.000,0
36799.453,-33.203,-27.344,-11.230,-19.043,0.000,0
36799.457,-45.898,-21.973,-18.555,-27.832,0.000,0
36799.461,-36.621,-24.414,-26.367,-26.367,0.000,0
36799.465,-22.949,-24.902,-27.344,-17.090,0.000,0
36799.469,-10.742,-18.066,-21.484,-8.301,0.000,0
36799.473,-6.836,-28.809,-20.020,-15.625,0.000,0
36799.476,-27.832,-32.227,-27.344,-21.484,0.000,0
36799.480,-48.828,-26.855,-28.809,-43.457,0.000,0
36799.484,-41.504,-25.391,-18.066,-27.832,0.000,0
36799.488,-40.039,-27.344,-20.508,-17.090,0.000,0
36799.492,-39.551,-29.785,-13.184,-41.504,0.000,0
36799.496,-46.875,-28.320,-10.742,-45.898,0.000,0
36799.500,-50.781,-25.391,-11.719,-42.969,0.000,0
36799.504,-35.645,-18.555,-7.812,-29.785,0.000,0
36799.508,-22.461,-20.020,-13.672,-34.668,0.000,0
36799.512,-17.090,-31.738,-14.648,-38.086,0.000,0
36799.516,-31.250,-32.715,-21.484,-16.113,0.000,0
36799.519,-37.109,-35.156,-34.180,-22.461,0.000,0
36799.523,-31.250,-32.227,-25.879,-25.391,0.000,0
36799.527,-29.297,-16.602,-13.184,-6.836,0.000,0
36799.531,-23.926,-15.137,-10.742,-13.184,0.000,0
36799.535,-14.648,-11.719,-9.766,-13.184,0.000,0
36799.539,-21.973,-14.648,-14.160,-20.020,0.000,0
36799.543,-32.715,-28.809,-26.855,-32.227,0.000,0
36799.547,-38.086,-41.016,-41.992,-37.598,0.000,0
36799.551,-38.574,-54.199,-40.527,-41.016,0.000,0
36799.555,-37.109,-50.293,-40.527,-48.828,0.000,0
36799.558,-41.504,-38.086,-37.598,-52.734,0.000,0
36799.562,-44.434,-43.457,-47.363,-45.898,0.000,0
36799.566,-41.504,-44.434,-53.711,-36.133,0.000,0
36799.570,-37.109,-36.621,-42.969,-41.504,0.000,0
36799.574,-30.273,-32.715,-42.969,-34.180,0.000,0
36799.578,-28.809,-35.156,-49.805,-16.113,0.000,0
36799.582,-21.973,-34.668,-45.410,-27.344,0.000,0
36799.586,-10.742,-13.672,-20.996,-21.484,0.000,0
36799.590,-6.348,-8.301,-6.348,-9.277,0.000,1
36799.594,-16.602,-25.391,-19.043,-32.715,0.000,0
36799.598,-32.715,-31.738,-31.738,-44.922,0.000,0
36799.601,-21.973,-21.973,-23.438,-27.832,0.000,0
36799.605,-16.113,-15.137,-18.555,-15.137,0.000,0
36799.609,-31.738,-19.531,-26.367,-10.742,0.000,0
36799.613,-18.555,-19.043,-18.555,-19.043,0.000,0
36799.617,-14.648,-10.742,-17.090,-18.555,0.000,0
36799.621,-28.320,-12.695,-24.414,-9.277,0.000,0
36799.625,-25.391,-25.391,-35.156,-15.625,0.000,0
36799.629,-24.414,-34.180,-37.598,-32.227,0.000,0
36799.633,-33.691,-34.668,-27.832,-53.223,0.000,0
36799.637,-33.691,-41.016,-39.062,-51.758,0.000,0
36799.641,-31.738,-45.410,-50.293,-34.180,0.000,0
36799.644,-45.410,-50.781,-49.316,-44.922,0.000,0
36799.648,-45.898,-49.316,-42.969,-41.016,0.000,0
36799.652,-48.340,-47.363,-44.434,-38.086,0.000,0
36799.656,-58.594,-54.199,-65.430,-40.039,0.000,0
36799.660,-52.246,-45.898,-61.035,-43.945,0.000,0
36799.664,-45.410,-37.109,-37.598,-45.898,0.000,0
36799.668,-38.086,-44.922,-43.457,-33.691,0.000,0
36799.672,-36.133,-49.316,-50.781,-38.574,0.000,0
36799.676,-39.062,-41.504,-55.664,-36.621,0.000,0
36799.680,-35.645,-35.645,-44.922,-20.508,0.000,0
36799.683,-35.156,-31.250,-44.434,-24.414,0.000,0
36799.687,-27.344,-23.926,-31.738,-7.812,0.000,0
36799.691,-5.859,-20.020,-9.766,-4.395,0.000,0
36799.695,5.859,-5.859,-9.766,0.488,0.000,0
36799.699,0.488,6.348,-2.441,14.160,0.000,0
36799.703,-8.789,0.000,-12.695,20.508,0.000,0
36799.707,-13.672,-2.930,-3.906,18.066,0.000,0
36799.711,-17.578,-15.137,2.441,-12.207,0.000,0
36799.715,-26.855,-26.367,-26.855,-20.020,0.000,0
36799.719,-36.621,-27.832,-31.250,-13.184,0.000,0
36799.723,-33.203,-30.762,-26.855,-23.926,0.000,0
36799.726,-38.086,-33.203,-29.785,-35.156,0.000,0
36799.730,-25.391,-22.461,-16.602,-28.320,0.000,0
36799.734,-12.207,-7.324,-8.789,-14.160,0.000,0
36799.738,-20.020,-13.184,-11.230,-22.461,0.000,0
36799.742,-21.484,-15.137,-15.137,-20.020,0.000,0
36799.746,-27.344,-17.578,-22.949,-7.812,0.000,0
36799.750,-26.855,-25.879,-19.043,-45.410,0.000,0
36799.754,-19.531,-17.090,-6.836,-39.062,0.000,0
36799.758,-13.184,-17.578,-21.973,-23.438,0.000,0
36799.762,-19.043,-22.949,-31.250,-42.480,0.000,0
36799.766,-13.672,-21.484,-20.020,-30.273,0.000,0
36799.769,-11.719,-23.438,-10.742,-26.367,0.000,0
36799.773,-20.508,-28.809,-11.719,-30.762,0.000,0
36799.777,-20.996,-38.574,-33.691,-39.062,0.000,0
36799.781,-13.672,-42.480,-41.504,-51.270,0.000,0
36799.785,-15.625,-34.180,-24.902,-23.438,0.000,0
36799.789,-14.160,-33.691,-24.414,-11.230,0.000,0
36799.793,-17.578,-33.691,-36.133,-18.066,0.000,0
36799.797,-28.809,-25.391,-28.320,-6.348,0.000,0
36799.801,-25.391,-24.902,-28.809,-20.508,0.000,0
36799.805,-24.414,-33.203,-32.227,-42.480,0.000,0
36799.808,-28.809,-34.180,-30.273,-30.273,0.000,0
36799.812,-23.926,-27.344,-36.133,-26.855,0.000,0
36799.816,-18.555,-25.879,-34.668,-24.414,0.000,0
36799.820,-14.648,-34.180,-41.992,-26.855,0.000,0
36799.824,-24.902,-38.086,-30.762,-33.691,0.000,0
36799.828,-24.902,-38.086,-28.809,-34.180,0.000,0
36799.832,-9.766,-31.250,-34.668,-17.578,0.000,0
36799.836,-18.066,-30.762,-29.297,-12.695,0.000,0
36799.840,-7.812,-23.926,-22.949,-19.043,0.000,0
36799.844,-5.859,-17.090,-15.625,-18.555,0.000,0
36799.848,-12.695,-23.438,-22.949,-18.066,0.000,0
36799.851,-3.418,-14.160,-19.043,-12.695,0.000,0
36799.855,-9.766,-10.254,-12.207,16.113,0.000,0
36799.859,-12.207,-10.742,-16.113,9.277,0.000,0
36799.863,-3.418,-8.301,-10.742,-14.160,0.000,0
36799.867,-7.324,-12.695,-6.836,-3.906,0.000,0
36799.871,-17.090,-15.137,-13.672,-3.418,0.000,0
36799.875,-17.090,-23.438,-23.438,-22.461,0.000,0
36799.879,-12.207,-29.297,-34.668,-4.883,0.000,0
36799.883,-24.902,-26.367,-22.949,-19.043,0.000,0
36799.887,-37.109,-26.855,-14.160,-41.992,0.000,0
36799.891,-29.785,-29.785,-17.578,-37.109,0.000,0
36799.894,-32.227,-29.297,-23.926,-25.391,0.000,0
36799.898,-34.180,-25.879,-23.438,-11.230,0.000,0
36799.902,-29.785,-28.809,-19.531,-25.391,0.000,0
36799.906,-28.320,-32.227,-20.508,-32.227,0.000,0
36799.910,-35.645,-37.109,-29.785,-33.203,0.000,0
36799.914,-41.504,-40.039,-27.344,-33.691,0.000,0
36799.918,-40.527,-30.762,-23.438,-28.809,0.000,0
36799.922,-36.133,-33.203,-33.203,-34.180,0.000,0
36799.926,-29.297,-40.527,-31.738,-38.574,0.000,0
36799.930,-31.738,-40.527,-29.297,-19.043,0.000,0
36799.933,-38.086,-42.480,-35.156,-27.832,0.000,0
36799.937,-40.039,-40.527,-38.574,-41.504,0.000,0
36799.941,-44.434,-31.250,-35.156,-16.113,0.000,0
36799.945,-36.621,-18.555,-13.672,-5.859,0.000,0
36799.949,-35.645,-19.531,-16.602,-20.020,0.000,0
36799.953,-28.809,-24.414,-27.832,-32.227,0.000,0
36799.957,-9.277,-20.020,-15.625,-18.555,0.000,0
36799.961,-10.742,-21.484,-17.090,-12.207,0.000,0
36799.965,-16.113,-22.949,-23.438,-24.414,0.000,0
36799.969,-10.254,-21.973,-27.344,-31.250,0.000,0
36799.973,-17.578,-20.996,-24.414,-18.555,0.000,0
36799.976,-31.738,-20.020,-22.949,-9.766,0.000,0
36799.980,-28.809,-22.461,-26.367,-10.742,0.000,0
36799.984,-24.414,-23.926,-33.203,-26.367,0.000,0
36799.988,-18.555,-20.020,-22.461,-28.320,0.000,0
36799.992,-10.254,-21.484,-16.113,-8.789,0.000,0
36799.996,-16.602,-25.879,-26.367,-20.020,0.000,0
36800.000,-23.438,-30.273,-28.809,-15.625,0.000,0
36800.004,-28.809,-30.762,-24.414,-17.578,0.000,0
36800.008,-37.109,-30.273,-25.391,-22.461,0.000,0
36800.012,-34.668,-32.227,-32.227,-20.508,0.000,0
36800.016,-33.203,-33.203,-32.715,-30.273,0.000,0
36800.019,-41.016,-27.344,-26.855,-7.324,0.000,0
36800.023,-35.156,-29.297,-22.949,-14.160,0.000,0
36800.027,-26.367,-37.598,-30.762,-58.594,0.000,0
36800.031,-37.109,-31.738,-39.551,-40.039,0.000,0
36800.035,-40.039,-26.367,-25.879,-18.555,0.000,0
36800.039,-35.645,-28.809,-20.020,-15.137,0.000,0
36800.043,-34.180,-34.180,-27.344,-29.297,0.000,0
36800.047,-39.551,-35.156,-29.297,-47.363,0.000,0
36800.051,-51.270,-38.086,-40.039,-60.547,0.000,0
36800.055,-45.410,-41.504,-41.992,-58.594,0.000,0
36800.058,-37.109,-43.945,-44.922,-37.109,0.000,0
36800.062,-39.062,-41.016,-31.738,-43.945,0.000,0
36800.066,-43.945,-34.180,-20.508,-35.645,0.000,0
36800.070,-50.293,-36.621,-31.738,-21.973,0.000,0
36800.074,-55.176,-47.852,-48.828,-42.969,0.000,0
36800.078,-50.293,-44.922,-54.199,-49.316,0.000,0
36800.082,-46.387,-37.109,-24.414,-41.016,0.000,0
36800.086,-32.227,-38.574,-23.438,-41.504,0.000,0
36800.090,-28.809,-33.203,-35.645,-39.062,0.000,0
36800.094,-47.852,-25.391,-24.414,-29.297,0.000,0
36800.098,-39.551,-20.996,-21.484,-26.367,0.000,0
36800.101,-36.133,-26.855,-22.461,-38.086,0.000,0
36800.105,-47.363,-31.738,-25.879,-30.762,0.000,0
36800.109,-40.039,-33.691,-32.715,-20.020,0.000,0
36800.113,-40.527,-36.133,-36.621,-28.320,0.000,0
36800.117,-48.828,-39.551,-41.504,-27.344,0.000,0
36800.121,-49.316,-50.781,-47.852,-41.504,0.000,0
36800.125,-51.270,-40.527,-35.156,-49.316,0.000,0
36800.129,-43.945,-23.926,-25.879,-30.762,0.000,0
36800.133,-32.227,-30.762,-41.016,-25.391,0.000,0
36800.137,-36.133,-26.855,-37.598,-11.230,0.000,0
36800.141,-34.668,-24.902,-17.090,-18.066,0.000,0
36800.144,-18.555,-20.996,-10.742,-17.090,0.000,0
36800.148,-7.812,-11.719,-19.043,-6.836,0.000,0
36800.152,-14.648,-15.137,-17.578,-3.906,0.000,0
36800.156,-12.207,-16.602,-14.648,6.348,0.000,0
36800.160,-9.766,-15.625,-14.648,-0.977,0.000,1
36800.164,-14.160,-16.602,-13.184,-19.043,0.000,0
36800.168,-14.648,-13.184,-13.184,-18.555,0.000,0
36800.172,-9.766,-1.953,0.488,0.977,0.000,0
36800.176,0.977,3.906,4.395,4.883,0.000,0
36800.180,4.395,3.418,0.488,-7.812,0.000,0
36800.183,1.953,-0.977,5.859,0.977,0.000,0
36800.187,-5.371,-5.859,-11.230,0.000,0.000,0
36800.191,-8.301,-9.766,-20.996,-28.809,0.000,0
36800.195,-4.883,-10.254,-14.648,-0.488,0.000,0
36800.199,7.812,-3.906,-1.465,8.789,0.000,0
36800.203,13.184,-10.742,2.441,-6.348,0.000,0
36800.207,1.465,-15.137,-7.812,14.160,0.000,0
36800.211,-6.836,-11.230,-10.742,8.789,0.000,0
36800.215,-16.113,-19.531,-11.719,0.000,0.000,0
36800.219,-25.391,-30.762,-16.113,-7.324,0.000,0
36800.223,-36.621,-41.504,-32.715,-32.715,0.000,0
36800.226,-55.176,-48.828,-48.340,-54.199,0.000,0
36800.230,-69.336,-57.129,-58.105,-67.871,0.000,0
36800.234,-57.617,-59.082,-53.711,-71.777,0.000,0
36800.238,-48.340,-55.664,-48.340,-70.312,0.000,0
36800.242,-58.594,-55.664,-41.992,-77.637,0.000,0
36800.246,-47.363,-43.457,-35.645,-62.988,0.000,0
36800.250,-41.016,-36.621,-42.480,-54.199,0.000,0
36800.254,-51.270,-41.504,-45.410,-36.133,0.000,0
36800.258,-46.875,-43.457,-33.203,-27.832,0.000,0
36800.262,-33.203,-38.574,-20.996,-44.434,0.000,0
36800.266,-24.902,-30.273,-18.066,-31.738,0.000,0
36800.269,-17.090,-29.297,-21.484,-37.598,0.000,0
36800.273,-17.578,-29.297,-27.832,-39.551,0.000,0
36800.277,-27.344,-29.785,-31.250,-41.016,0.000,0
36800.281,-32.715,-26.367,-24.414,-48.828,0.000,0
36800.285,-35.156,-26.855,-23.926,-43.945,0.000,0
36800.289,-35.156,-31.738,-29.785,-41.504,0.000,0
36800.293,-32.715,-28.320,-30.273,-30.273,0.000,0
36800.297,-22.461,-31.738,-24.414,-30.762,0.000,0
36800.301,-32.227,-42.969,-23.438,-36.133,0.000,0
36800.305,-36.133,-37.598,-19.531,-29.785,0.000,0
36800.308,-25.879,-36.621,-22.949,-25.391,0.000,0
36800.312,-36.133,-43.945,-37.598,-33.691,0.000,0
36800.316,-43.945,-41.016,-30.762,-53.711,0.000,0
36800.320,-36.621,-39.551,-20.508,-55.176,0.000,0
36800.324,-33.203,-38.086,-31.738,-38.086,0.000,0
36800.328,-35.156,-36.133,-32.227,-23.438,0.000,0
36800.332,-25.391,-35.645,-23.926,-14.648,0.000,0
36800.336,-15.625,-39.551,-21.484,-16.113,0.000,0
36800.340,-23.926,-39.551,-20.996,-33.691,0.000,0
36800.344,-50.293,-42.480,-38.574,-53.711,0.000,0
36800.348,-50.781,-45.410,-45.410,-49.805,0.000,0
36800.351,-50.781,-44.434,-35.156,-46.387,0.000,0
36800.355,-60.547,-51.270,-48.828,-56.641,0.000,0
36800.359,-52.734,-54.199,-53.711,-54.199,0.000,0
36800.363,-53.223,-50.293,-48.340,-47.852,0.000,0
36800.367,-49.316,-45.410,-42.969,-61.035,0.000,0
36800.371,-51.270,-54.199,-46.387,-63.477,0.000,0
36800.375,-59.570,-61.523,-60.059,-83.008,0.000,0
36800.379,-59.570,-61.035,-53.223,-84.961,0.000,0
36800.383,-61.035,-56.152,-48.340,-62.012,0.000,0
36800.387,-63.477,-56.152,-50.781,-65.430,0.000,0
36800.391,-61.523,-59.570,-44.922,-58.594,0.000,0
36800.394,-50.293,-51.270,-48.340,-43.457,0.000,0
36800.398,-53.711,-51.270,-41.504,-50.293,0.000,0
36800.402,-58.105,-45.410,-27.832,-69.336,0.000,0
36800.406,-51.270,-40.039,-32.715,-59.570,0.000,0
36800.410,-50.781,-40.039,-31.738,-42.480,0.000,0
36800.414,-42.969,-38.574,-24.414,-41.504,0.000,0
36800.418,-52.246,-54.199,-36.621,-55.664,0.000,0
36800.422,-56.641,-55.176,-36.621,-61.035,0.000,0
36800.426,-58.105,-44.434,-37.598,-54.199,0.000,0
36800.430,-68.848,-47.363,-44.922,-54.688,0.000,0
36800.433,-46.387,-49.316,-39.551,-49.805,0.000,0
36800.437,-33.203,-50.293,-25.879,-53.223,0.000,0
36800.441,-48.828,-45.898,-21.973,-49.316,0.000,0
36800.445,-50.293,-36.621,-24.414,-40.039,0.000,0
36800.449,-39.551,-41.992,-35.645,-42.480,0.000,0
36800.453,-47.852,-43.945,-41.016,-39.551,0.000,0
36800.457,-42.480,-36.133,-14.160,-35.156,0.000,0
36800.461,-35.645,-41.016,-16.602,-30.762,0.000,0
36800.465,-38.086,-43.457,-35.645,-32.715,0.000,0
36800.469,-32.715,-34.668,-32.227,-20.996,0.000,0
36800.473,-24.414,-24.414,-24.902,-17.090,0.000,0
36800.476,-31.250,-27.344,-20.020,-37.598,0.000,0
36800.480,-45.410,-35.645,-26.367,-47.852,0.000,0
36800.484,-35.156,-24.902,-22.461,-31.738,0.000,0
36800.488,-24.414,-16.602,-9.766,-19.043,0.000,0
36800.492,-30.762,-26.855,-23.926,-28.809,0.000,0
36800.496,-34.180,-31.738,-30.762,-33.203,0.000,0
36800.500,-47.852,-23.926,-22.949,-19.531,0.000,0
36800.504,-56.152,-37.598,-39.062,-46.387,0.000,0
36800.508,-48.340,-47.363,-42.969,-53.223,0.000,0
36800.512,-43.457,-40.527,-28.809,-38.086,0.000,0
36800.516,-46.387,-40.039,-21.484,-32.715,0.000,0
36800.519,-51.758,-37.109,-26.367,-35.645,0.000,0
36800.523,-49.316,-31.738,-34.180,-40.527,0.000,0
36800.527,-38.574,-30.762,-28.320,-29.785,0.000,0
36800.531,-38.574,-28.809,-18.066,-10.254,0.000,0
36800.535,-41.992,-33.691,-11.230,-19.531,0.000,0
36800.539,-41.992,-35.156,-13.672,-22.949,0.000,0
36800.543,-37.109,-30.273,-18.555,-20.508,0.000,0
36800.547,-32.715,-25.391,-11.719,-17.578,0.000,0
36800.551,-26.855,-23.926,-16.113,-12.207,0.000,0
36800.555,-31.738,-31.250,-14.160,-33.691,0.000,0
36800.558,-34.668,-30.762,-12.695,-48.828,0.000,0
36800.562,-43.457,-24.414,-20.020,-35.156,0.000,0
36800.566,-30.273,-27.832,-23.926,-40.527,0.000,0
36800.570,-11.230,-24.414,-21.973,-28.320,0.000,0
36800.574,-24.902,-18.555,-4.883,-9.766,0.000,0
36800.578,-38.574,-16.602,-7.812,-17.090,0.000,0
36800.582,-36.133,-18.555,-24.414,-18.066,0.000,0
36800.586,-27.832,-18.555,-16.113,-23.926,0.000,0
36800.590,-30.273,-12.207,-9.766,-14.160,0.000,0
36800.594,-37.598,-21.484,-20.020,-30.762,0.000,0
36800.598,-41.504,-41.992,-26.855,-70.801,0.000,0
36800.601,-48.828,-50.781,-51.758,-45.898,0.000,0
36800.605,-51.270,-49.805,-56.641,-37.598,0.000,0
36800.609,-57.129,-52.734,-49.316,-41.504,0.000,0
36800.613,-58.105,-62.500,-51.758,-30.273,0.000,0
36800.617,-55.664,-61.035,-55.176,-58.594,0.000,0
36800.621,-66.895,-59.570,-60.059,-68.848,0.000,0
36800.625,-62.988,-59.082,-60.547,-56.152,0.000,0
36800.629,-48.828,-53.711,-58.594,-44.434,0.000,0
36800.633,-31.738,-46.387,-42.969,-32.227,0.000,0
36800.637,-41.504,-42.480,-29.785,-38.086,0.000,0
36800.641,-66.406,-40.527,-46.387,-48.340,0.000,0
36800.644,-49.805,-37.109,-44.434,-41.992,0.000,0
36800.648,-31.738,-22.949,-22.949,-2.441,0.000,0
36800.652,-35.156,-16.602,-20.996,-22.949,0.000,0
36800.656,-32.715,-19.043,-29.785,-52.246,0.000,0
36800.660,-26.367,-12.207,-26.367,-41.504,0.000,0
36800.664,-18.066,-15.137,-20.508,-29.297,0.000,0
36800.668,-25.391,-19.531,-29.297,-37.109,0.000,0
36800.672,-37.109,-19.531,-31.250,-45.410,0.000,0
36800.676,-42.480,-27.832,-31.738,-19.043,0.000,0
36800.680,-40.527,-17.578,-31.738,-13.184,0.000,0
36800.683,-21.973,-7.324,-22.949,-17.578,0.000,0
36800.687,-12.207,-12.695,-28.320,-28.809,0.000,0
36800.691,-4.395,-10.254,-22.949,-44.922,0.000,0
36800.695,9.277,-7.812,-3.906,-41.992,0.000,0
36800.699,-12.695,-26.855,-26.367,-42.969,0.000,0
36800.703,-49.316,-34.180,-51.758,-44.434,0.000,0
36800.707,-52.246,-25.879,-44.434,-29.297,0.000,0
36800.711,-43.457,-19.531,-27.832,-20.996,0.000,0
36800.715,-49.805,-27.344,-35.645,-28.320,0.000,0
36800.719,-49.805,-32.227,-41.992,-34.668,0.000,0
36800.723,-41.992,-37.109,-36.621,-39.062,0.000,0
36800.726,-48.828,-42.480,-41.016,-41.016,0.000,2
36800.730,-70.312,-57.129,-58.105,-64.941,0.000,0
36800.734,-76.172,-66.895,-66.406,-65.430,0.000,0
36800.738,-62.988,-48.828,-49.316,-49.316,0.000,0
36800.742,-45.898,-40.039,-39.062,-41.016,0.000,0
36800.746,-52.734,-43.457,-49.805,-51.270,0.000,0
36800.750,-60.059,-42.480,-43.945,-38.086,0.000,0
36800.754,-46.875,-42.969,-29.785,-38.574,0.000,0
36800.758,-41.504,-44.434,-39.062,-56.641,0.000,0
36800.762,-40.039,-49.316,-55.664,-69.336,0.000,0
36800.766,-52.246,-48.828,-53.223,-49.805,0.000,0
36800.769,-49.805,-44.922,-41.016,-33.691,0.000,0
36800.773,-37.598,-39.062,-31.738,-50.781,0.000,0
36800.777,-41.992,-30.762,-35.156,-31.250,0.000,0
36800.781,-43.457,-34.180,-48.340,-49.805,0.000,0
36800.785,-32.715,-22.949,-31.738,-45.410,0.000,0
36800.789,-21.973,-22.949,-23.926,-25.879,0.000,0
36800.793,-19.043,-26.855,-19.531,-41.016,0.000,0
36800.797,-3.906,-15.625,-8.789,-26.367,0.000,0
36800.801,2.441,-9.766,1.465,-19.531,0.000,0
36800.805,-11.230,-7.812,-11.719,-16.113,0.000,0
36800.808,-7.812,-16.602,-25.391,-24.902,0.000,0
36800.812,2.930,-17.090,-14.648,-26.855,0.000,0
36800.816,-0.977,-7.324,-11.230,-9.766,0.000,0
36800.820,-10.742,-8.789,-8.789,-1.953,0.000,0
36800.824,-11.719,-12.207,-19.043,-0.977,0.000,0
36800.828,-1.953,-4.883,-5.859,10.742,0.000,0
36800.832,-4.883,-3.906,17.090,-8.789,0.000,0
36800.836,-11.230,-9.766,-7.812,-32.227,0.000,0
36800.840,4.395,-13.184,-15.625,-36.621,0.000,0
36800.844,-9.277,-16.602,-13.184,-31.250,0.000,0
36800.848,-30.273,-24.902,-25.879,-14.160,0.000,0
36800.851,-30.273,-31.738,-25.879,-32.227,0.000,0
36800.855,-29.785,-34.180,-31.250,-24.902,0.000,0
36800.859,-42.969,-32.227,-35.645,-15.137,0.000,0
36800.863,-58.105,-36.621,-38.574,-33.691,0.000,0
36800.867,-49.316,-43.457,-40.039,-41.504,0.000,0
36800.871,-36.133,-38.086,-34.180,-24.414,0.000,0
36800.875,-33.203,-32.227,-27.344,-20.020,0.000,0
36800.879,-31.250,-34.668,-30.762,-24.902,0.000,0
36800.883,-27.344,-32.715,-34.180,-29.785,0.000,0
36800.887,-22.461,-25.391,-27.832,-40.039,0.000,0
36800.891,-30.273,-23.926,-18.555,-37.598,0.000,0
36800.894,-29.297,-20.508,-20.508,-38.574,0.000,0
36800.898,-14.160,-17.578,-20.996,-22.949,0.000,0
36800.902,-11.230,-16.113,-9.277,-2.930,0.000,0
36800.906,-21.484,-1.953,-2.930,5.371,0.000,0
36800.910,-4.883,3.906,-3.906,13.672,0.000,0
36800.914,15.625,4.883,-0.977,24.414,0.000,0
36800.918,8.789,0.977,-2.441,6.348,0.000,0
36800.922,-7.324,-10.254,-9.277,-3.418,0.000,0
36800.926,-11.230,-14.648,-19.531,-7.812,0.000,0
36800.930,-8.301,-22.461,-15.625,-14.160,0.000,0
36800.933,-14.160,-18.066,-8.789,-20.508,0.000,0
36800.937,-22.461,-12.207,-12.695,-15.137,0.000,0
36800.941,-20.508,-15.137,-20.020,-25.879,0.000,0
36800.945,-16.113,-15.625,-25.879,-39.551,0.000,0
36800.949,-11.719,-18.555,-16.113,-24.414,0.000,0
36800.953,-9.277,-22.461,-17.578,-21.973,0.000,0
36800.957,-0.977,-17.578,-19.531,-3.906,0.000,0
36800.961,-0.488,-10.254,-8.789,12.207,0.000,0
36800.965,-10.254,-1.465,1.465,2.441,0.000,0
36800.969,-0.488,2.441,6.348,-7.324,0.000,0
36800.973,4.883,2.441,-0.977,-16.113,0.000,0
36800.976,-8.301,1.953,-5.859,-23.438,0.000,0
36800.980,-4.395,0.000,-0.977,-3.906,0.000,0
36800.984,-12.207,-9.277,-8.789,-2.441,0.000,0
36800.988,-23.438,-15.137,-14.160,-14.648,0.000,0
36800.992,-24.902,-18.066,-15.137,-7.812,0.000,0
36800.996,-29.785,-21.484,-27.344,-5.371,0.000,0
36801.000,-25.879,-19.043,-24.902,-17.090,0.000,0
36801.004,-25.879,-14.648,-11.719,-17.090,0.000,0
36801.008,-26.367,-8.789,3.906,1.465,0.000,0
36801.012,-10.254,-4.395,11.230,2.930,0.000,0
36801.016,-1.465,-7.324,-5.371,-5.371,0.000,0
36801.019,-8.301,-9.277,-12.695,5.371,0.000,0
36801.023,-12.207,2.930,-1.953,0.488,0.000,0
36801.027,-17.090,0.488,3.418,-14.648,0.000,0
36801.031,-34.668,-12.207,-8.301,-11.230,0.000,0
36801.035,-24.414,-14.648,-18.555,-11.230,0.000,0
36801.039,-6.836,-5.371,-8.301,-8.789,0.000,0
36801.043,-14.160,-4.883,-8.789,-9.766,0.000,0
36801.047,-20.996,-14.648,-14.648,-14.648,0.000,0
36801.051,-24.414,-19.531,-10.254,-25.391,0.000,0
36801.055,-23.926,-19.043,-15.625,-24.414,0.000,0
36801.058,-27.832,-19.043,-22.949,-15.625,0.000,0
36801.062,-15.137,-24.414,-33.203,-23.926,0.000,0
36801.066,-0.488,-28.320,-22.949,-19.043,0.000,0
36801.070,-0.977,-9.277,12.695,-18.066,0.000,0
36801.074,-1.465,-8.789,-0.488,-12.207,0.000,0
36801.078,18.555,-13.672,-12.207,-3.418,0.000,0
36801.082,21.484,-8.789,-2.930,6.348,0.000,0
36801.086,-5.371,-11.230,-8.301,13.184,0.000,0
36801.090,0.000,-18.066,-7.324,2.930,0.000,0
36801.094,-2.441,-19.043,-8.301,-5.371,0.000,0
36801.098,-21.484,-14.160,-11.719,-9.277,0.000,0
36801.101,-28.809,-17.578,-16.113,-14.160,0.000,0
36801.105,-41.504,-23.438,-20.508,-35.645,0.000,0
36801.109,-40.527,-26.855,-21.484,-50.781,0.000,0
36801.113,-28.809,-20.508,-16.113,-9.277,0.000,0
36801.117,-25.391,-16.602,-10.254,1.953,0.000,0
36801.121,-14.648,-20.996,-23.926,-19.531,0.000,0
36801.125,-9.277,-14.648,-17.090,-15.625,0.000,0
36801.129,-11.719,-12.695,-1.465,-16.113,0.000,0
36801.133,-16.602,-18.555,-14.648,-17.578,0.000,0
36801.137,-21.973,-22.949,-22.461,-3.906,0.000,0
36801.141,-19.531,-20.508,-16.113,-17.090,0.000,0
36801.144,-19.043,-20.996,-11.719,-24.902,0.000,0
36801.148,-25.879,-25.391,-21.973,-25.391,0.000,0
36801.152,-24.414,-22.949,-35.156,-29.297,0.000,0
36801.156,-21.484,-23.926,-32.227,-30.273,0.000,0
36801.160,-26.367,-24.902,-16.113,-17.090,0.000,0
36801.164,-25.879,-29.297,-26.367,-19.531,0.000,0
36801.168,-36.621,-32.715,-27.344,-29.785,0.000,0
36801.172,-46.387,-28.809,-26.367,-20.020,0.000,0
36801.176,-30.762,-37.598,-40.039,-24.414,0.000,0
36801.180,-33.691,-41.504,-40.527,-37.598,0.000,0
36801.183,-46.387,-37.598,-36.621,-32.715,0.000,0
36801.187,-48.828,-38.086,-26.855,-43.457,0.000,0
36801.191,-30.762,-33.691,-27.344,-38.574,0.000,0
36801.195,-19.043,-27.832,-23.926,-26.367,0.000,0
36801.199,-41.016,-36.133,-34.668,-35.156,0.000,0
36801.203,-42.969,-38.086,-41.016,-29.297,0.000,0
36801.207,-31.250,-39.062,-22.949,-24.902,0.000,0
36801.211,-34.668,-45.898,-33.691,-23.438,0.000,0
36801.215,-44.922,-45.410,-54.688,-21.973,0.000,0
36801.219,-47.852,-53.711,-51.758,-34.668,0.000,0
36801.223,-48.828,-56.152,-47.363,-42.480,0.000,0
36801.226,-50.293,-62.988,-53.223,-49.316,0.000,0
36801.230,-48.828,-60.059,-55.664,-52.734,0.000,0
36801.234,-49.805,-53.711,-53.223,-51.758,0.000,0
36801.238,-42.480,-58.594,-52.246,-57.617,0.000,0
36801.242,-51.270,-53.223,-51.758,-43.457,0.000,0
36801.246,-57.617,-45.410,-49.316,-44.434,0.000,0
36801.250,-32.227,-39.551,-31.738,-60.059,0.000,0
36801.254,-31.738,-37.109,-29.785,-49.316,0.000,0
36801.258,-39.551,-33.203,-30.762,-23.926,0.000,0
36801.262,-23.438,-30.273,-24.414,-13.184,0.000,0
36801.266,-22.949,-31.250,-25.391,-31.250,0.000,0
36801.269,-34.180,-31.250,-31.738,-31.738,0.000,0
36801.273,-33.203,-30.273,-32.227,-33.203,0.000,0
36801.277,-25.391,-25.879,-28.320,-53.711,0.000,0
36801.281,-27.832,-25.391,-31.250,-52.734,0.000,0
36801.285,-38.086,-28.320,-27.832,-33.203,0.000,0
36801.289,-41.992,-33.203,-29.297,-29.297,0.000,0
36801.293,-47.852,-37.109,-30.762,-41.504,0.000,0
36801.297,-40.527,-32.227,-18.555,-33.203,0.000,0
36801.301,-32.227,-35.156,-24.414,-19.043,0.000,0
36801.305,-25.391,-34.668,-22.461,-24.902,0.000,0
36801.308,-9.277,-28.809,-13.184,-44.922,0.000,0
36801.312,-7.324,-33.203,-20.508,-41.504,0.000,0
36801.316,-20.996,-36.621,-38.574,-38.574,0.000,0
36801.320,-21.973,-26.855,-26.855,-41.504,0.000,0
36801.324,-11.719,-15.137,-1.953,-7.324,0.000,0
36801.328,-14.160,-21.484,-10.254,0.000,0.000,0
36801.332,-17.578,-21.484,-19.043,-12.695,0.000,0
36801.336,-29.297,-15.625,-14.160,-5.371,0.000,0
36801.340,-30.762,-17.578,-15.137,-9.277,0.000,2
36801.344,-26.855,-26.367,-23.926,-15.137,0.000,0
36801.348,-32.227,-29.297,-22.461,-18.555,0.000,0
36801.351,-16.602,-20.996,-22.949,-29.785,0.000,0
36801.355,-17.090,-24.902,-29.785,-16.113,0.000,0
36801.359,-32.715,-36.621,-39.551,-25.391,0.000,0
36801.363,-38.574,-48.340,-44.434,-38.574,0.000,0
36801.367,-44.434,-45.898,-36.133,-44.434,0.000,0
36801.371,-37.109,-41.016,-35.645,-46.875,0.000,0
36801.375,-30.762,-41.016,-36.133,-30.762,0.000,0
36801.379,-28.809,-33.203,-30.762,-16.113,0.000,0
36801.383,-15.625,-14.648,-12.695,-6.836,0.000,0
36801.387,-10.254,-12.695,-9.277,-13.184,0.000,0
36801.391,-14.648,-20.020,-26.367,-19.531,0.000,0
36801.394,-8.789,-10.742,-17.578,-20.508,0.000,0
36801.398,-4.395,5.859,5.859,-12.207,0.000,0
36801.402,-5.371,0.488,3.906,0.000,0.000,0
36801.406,-1.465,-5.371,-0.977,-2.930,0.000,0
36801.410,4.395,0.977,0.000,4.883,0.000,0
36801.414,-3.418,-5.371,3.418,1.953,0.000,0
36801.418,-7.324,-10.254,-9.766,15.137,0.000,0
36801.422,-1.465,-6.836,-15.137,13.672,0.000,0
36801.426,7.324,-5.859,0.977,-1.465,0.000,0
36801.430,2.930,-1.953,7.812,0.977,0.000,0
36801.433,-16.113,-5.859,-5.859,12.207,0.000,0
36801.437,-16.602,-9.277,-13.184,1.953,0.000,0
36801.441,-10.742,-13.184,-8.789,-12.207,0.000,0
36801.445,-12.695,-21.484,0.488,-17.578,0.000,0
36801.449,-14.160,-16.113,-5.859,-18.066,0.000,0
36801.453,-10.742,-11.719,-13.184,-6.836,0.000,0
36801.457,-13.672,-12.695,-14.160,-11.230,0.000,0
36801.461,-11.230,-15.625,-12.695,-22.461,0.000,0
36801.465,-9.277,-17.578,-8.789,-14.160,0.000,0
36801.469,-20.508,-15.137,-24.414,-16.602,0.000,0
36801.473,-23.926,-23.438,-37.109,-36.133,0.000,0
36801.476,-29.297,-24.414,-24.414,-3.906,0.000,0
36801.480,-35.645,-24.902,-25.879,-3.906,0.000,0
36801.484,-20.508,-29.785,-21.484,-32.715,0.000,0
36801.488,-5.859,-23.926,-6.836,-5.371,0.000,0
36801.492,-27.344,-16.602,-2.930,9.277,0.000,0
36801.496,-29.785,-20.508,-13.184,-10.254,0.000,0
36801.500,-11.230,-19.531,-12.207,1.953,0.000,0
36801.504,-0.977,-11.719,4.395,12.207,0.000,0
36801.508,-5.371,-12.695,-0.488,-6.836,0.000,0
36801.512,-16.602,-15.137,-13.184,-32.715,0.000,0
36801.516,-7.812,-18.066,-10.254,-29.785,0.000,0
36801.519,-14.160,-19.531,-9.766,-17.090,0.000,0
36801.523,-27.832,-26.367,-20.508,-27.832,0.000,0
36801.527,-29.785,-34.180,-37.109,-13.672,0.000,0
36801.531,-31.250,-29.785,-25.879,-12.207,0.000,0
36801.535,-37.598,-33.691,-24.902,-25.391,0.000,0
36801.539,-42.969,-39.551,-35.645,-24.414,0.000,0
36801.543,-29.785,-37.109,-25.391,-22.949,0.000,0
36801.547,-20.996,-36.133,-30.762,-32.715,0.000,0
36801.551,-38.086,-41.992,-40.527,-38.574,0.000,0
36801.555,-45.410,-43.945,-42.969,-38.574,0.000,0
36801.558,-35.645,-38.086,-36.133,-28.320,0.000,0
36801.562,-25.391,-34.180,-29.297,-31.250,0.000,0
36801.566,-34.668,-38.086,-35.156,-44.922,0.000,0
36801.570,-61.523,-46.387,-39.551,-40.039,0.000,0
36801.574,-65.430,-50.781,-49.316,-27.344,0.000,0
36801.578,-61.035,-51.270,-44.434,-16.113,0.000,0
36801.582,-59.082,-57.617,-40.527,-46.875,0.000,0
36801.586,-52.734,-58.105,-58.105,-67.871,0.000,0
36801.590,-50.293,-59.082,-62.988,-62.500,0.000,0
36801.594,-49.316,-60.059,-51.758,-55.176,0.000,0
36801.598,-47.363,-56.152,-45.410,-50.781,0.000,0
36801.601,-49.316,-55.664,-44.434,-58.105,0.000,0
36801.605,-56.152,-52.246,-44.434,-55.664,0.000,0
36801.609,-63.477,-49.316,-44.922,-49.805,0.000,0
36801.613,-56.152,-51.758,-48.828,-42.969,0.000,0
36801.617,-52.246,-48.340,-46.387,-39.062,0.000,0
36801.621,-50.293,-47.852,-29.297,-53.223,0.000,0
36801.625,-44.434,-47.852,-27.832,-33.203,0.000,0
36801.629,-42.480,-43.945,-43.945,-21.484,0.000,0
36801.633,-35.156,-38.574,-39.062,-24.414,0.000,0
36801.637,-30.762,-30.762,-21.973,-20.508,0.000,0
36801.641,-37.598,-30.273,-14.160,-37.109,0.000,0
36801.644,-34.180,-32.715,-18.066,-48.828,0.000,0
36801.648,-30.273,-27.832,-20.996,-32.715,0.000,0
36801.652,-30.762,-23.438,-27.832,-10.742,0.000,0
36801.656,-24.414,-28.809,-30.273,-29.785,0.000,0
36801.660,-32.715,-27.832,-23.926,-36.621,0.000,0
36801.664,-37.598,-26.855,-20.996,-20.020,0.000,0
36801.668,-35.156,-23.926,-21.484,-30.273,0.000,0
36801.672,-34.180,-24.414,-20.996,-43.457,0.000,0
36801.676,-41.016,-23.438,-21.484,-32.715,0.000,0
36801.680,-41.992,-19.043,-15.625,-39.551,0.000,0
36801.683,-25.879,-17.578,-20.020,-48.340,0.000,0
36801.687,-15.625,-16.113,-27.344,-26.855,0.000,0
36801.691,-20.508,-20.508,-31.250,-7.324,0.000,0
36801.695,-21.484,-24.902,-24.414,-12.695,0.000,0
36801.699,-20.020,-24.902,-12.695,-27.344,0.000,0
36801.703,-34.668,-22.949,-19.531,-34.180,0.000,0
36801.707,-25.879,-20.996,-25.879,-35.645,0.000,0
36801.711,-18.066,-13.672,-16.113,-28.320,0.000,0
36801.715,-17.090,-9.766,-4.883,-19.531,0.000,0
36801.719,-7.324,-18.066,-5.859,-24.414,0.000,0
36801.723,-3.418,-17.578,-9.766,-32.715,0.000,0
36801.726,-5.859,-12.207,-5.371,-33.203,0.000,0
36801.730,1.465,-8.789,-5.371,-12.207,0.000,0
36801.734,-5.859,-7.812,-6.348,-1.465,0.000,0
36801.738,-9.277,-14.160,0.488,-3.418,0.000,0
36801.742,0.977,-4.883,9.766,5.859,0.000,0
36801.746,-10.254,-0.977,8.301,-6.836,0.000,0
36801.750,2.930,-0.488,8.301,-11.719,0.000,0
36801.754,20.508,10.742,9.766,14.160,0.000,0
36801.758,-0.488,7.812,9.766,6.836,0.000,0
36801.762,-7.324,5.371,7.324,-7.812,0.000,0
36801.766,6.348,2.930,0.488,0.977,0.000,0
36801.769,2.441,-3.906,-3.906,14.160,0.000,0
36801.773,-2.441,-0.488,2.930,28.809,0.000,0
36801.777,-0.488,-5.859,6.348,10.742,0.000,0
36801.781,-2.930,-15.137,-6.348,-6.836,0.000,0
36801.785,-16.113,-19.043,-14.160,-8.301,0.000,0
36801.789,-30.273,-25.391,-19.531,-17.090,0.000,0
36801.793,-26.855,-33.203,-34.668,-24.414,0.000,0
36801.797,-28.320,-41.016,-29.297,-43.457,0.000,0
36801.801,-40.527,-38.574,-20.996,-48.828,0.000,0
36801.805,-48.828,-37.109,-25.391,-36.133,0.000,0
36801.808,-44.434,-44.922,-38.086,-38.574,0.000,0
36801.812,-46.387,-48.828,-48.340,-41.992,0.000,0
36801.816,-43.945,-46.387,-24.902,-41.016,0.000,0
36801.820,-32.715,-43.945,-20.020,-47.852,0.000,0
36801.824,-27.344,-49.316,-45.898,-41.504,0.000,0
36801.828,-29.785,-54.688,-43.457,-26.367,0.000,0
36801.832,-33.691,-55.664,-45.898,-24.902,0.000,0
36801.836,-33.203,-59.570,-44.434,-28.320,0.000,0
36801.840,-35.645,-65.918,-48.340,-32.227,0.000,0
36801.844,-46.875,-68.359,-57.129,-53.223,0.000,0
36801.848,-64.941,-67.383,-53.711,-72.754,0.000,0
36801.851,-66.895,-59.570,-56.641,-73.242,0.000,0
36801.855,-61.523,-63.477,-54.199,-67.871,0.000,0
36801.859,-52.246,-66.406,-55.176,-65.430,0.000,0
36801.863,-47.852,-53.223,-44.922,-41.992,0.000,0
36801.867,-41.992,-51.270,-41.504,-30.762,0.000,0
36801.871,-34.180,-54.688,-55.176,-50.781,0.000,0
36801.875,-45.898,-56.641,-48.340,-54.199,0.000,0
36801.879,-52.246,-51.758,-38.086,-48.340,0.000,0
36801.883,-47.852,-49.316,-45.898,-38.574,0.000,0
36801.887,-38.574,-50.781,-52.246,-27.832,0.000,0
36801.891,-35.645,-46.387,-42.480,-19.043,0.000,0
36801.894,-44.922,-43.945,-37.109,-26.367,0.000,0
36801.898,-56.152,-56.641,-50.293,-42.480,0.000,0
36801.902,-50.781,-60.059,-51.758,-62.988,0.000,0
36801.906,-43.945,-46.875,-39.551,-52.734,0.000,0
36801.910,-42.969,-32.715,-33.691,-14.160,0.000,0
36801.914,-32.715,-30.762,-34.180,-32.715,0.000,0
36801.918,-20.996,-33.691,-18.066,-47.852,0.000,0
36801.922,-20.020,-28.809,-16.113,-19.531,0.000,0
36801.926,-17.578,-25.391,-24.414,-23.926,0.000,0
36801.930,-27.344,-29.785,-22.461,-28.320,0.000,0
36801.933,-35.156,-29.297,-25.391,-31.250,0.000,0
36801.937,-15.625,-18.555,-17.578,-33.691,0.000,0
36801.941,-4.883,-4.883,-6.836,2.441,0.000,0
36801.945,0.977,3.418,0.488,12.695,0.000,0
36801.949,12.695,9.766,0.977,20.996,0.000,0
36801.953,-3.418,5.371,0.488,17.578,0.000,0
36801.957,-13.184,-1.953,-1.953,-11.230,0.000,0
36801.961,-2.930,1.953,-15.137,-10.254,0.000,0
36801.965,-5.371,3.906,-10.742,-2.441,0.000,0
36801.969,-18.066,0.488,-8.301,10.254,0.000,0
36801.973,-19.531,-0.977,-9.277,13.672,0.000,0
36801.976,-15.137,-1.465,-3.418,-2.930,0.000,0
36801.980,-7.812,0.488,4.883,-5.859,0.000,0
36801.984,-5.371,1.953,7.324,14.160,0.000,0
36801.988,-15.137,2.930,0.977,15.137,0.000,0
36801.992,-21.484,3.906,-4.883,-8.789,0.000,0
36801.996,-9.277,0.488,2.930,-11.230,0.000,0
36802.000,-10.742,-0.488,6.348,-12.207,0.000,0
36802.004,-17.578,-3.418,-5.859,-12.207,0.000,0
36802.008,-16.602,-9.277,-11.719,2.441,0.000,0
36802.012,-27.344,-11.719,-13.184,-2.930,0.000,0
36802.016,-21.484,-16.602,-13.184,-16.113,0.000,0
36802.019,-24.414,-24.414,-26.367,-17.090,0.000,0
36802.023,-37.598,-28.320,-32.227,0.488,0.000,0
36802.027,-39.551,-31.250,-24.414,-8.789,0.000,0
36802.031,-41.504,-35.645,-22.461,-36.621,0.000,1
36802.035,-43.457,-37.109,-26.367,-25.391,0.000,0
36802.039,-42.480,-26.367,-30.273,-31.250,0.000,0
36802.043,-41.504,-17.578,-23.438,-20.020,0.000,0
36802.047,-40.039,-22.461,-24.414,-10.254,0.000,0
36802.051,-34.180,-27.344,-24.414,-16.602,0.000,0
36802.055,-27.344,-24.414,-6.348,5.371,0.000,0
36802.058,-28.320,-18.066,-10.742,0.000,0.000,0
36802.062,-41.992,-22.949,-27.344,-22.461,0.000,0
36802.066,-48.340,-28.809,-29.785,-20.508,0.000,0
36802.070,-34.668,-18.555,-18.066,-16.113,0.000,0
36802.074,-33.691,-15.625,-1.465,-6.836,0.000,0
36802.078,-25.879,-16.602,-6.836,-0.488,0.000,0
36802.082,-24.414,-6.836,-9.277,10.742,0.000,0
36802.086,-29.297,-9.277,-2.930,1.953,0.000,0
36802.090,-16.602,-11.230,-4.883,-17.090,0.000,0
36802.094,-18.066,-15.137,-7.324,-26.855,0.000,0
36802.098,-23.926,-20.996,-9.766,-27.344,0.000,0
36802.101,-24.414,-22.461,-17.090,-16.602,0.000,0
36802.105,-29.297,-24.414,-20.508,-21.973,0.000,0
36802.109,-31.250,-22.461,-20.020,-11.719,0.000,0
36802.113,-32.715,-18.555,-6.836,-24.414,0.000,0
36802.117,-26.367,-15.625,-0.977,-23.438,0.000,0
36802.121,-17.090,-13.184,-14.160,-11.719,0.000,0
36802.125,-33.691,-18.555,-21.484,-37.109,0.000,0
36802.129,-35.645,-13.672,-11.230,-17.090,0.000,0
36802.133,-31.738,-13.184,-2.441,7.812,0.000,0
36802.137,-40.039,-22.949,-0.977,-27.344,0.000,0
36802.141,-35.645,-22.949,-13.672,-38.086,0.000,0
36802.144,-41.992,-20.020,-25.879,-26.367,0.000,0
36802.148,-44.922,-18.555,-12.695,-25.391,0.000,0
36802.152,-43.457,-19.043,-5.371,-17.090,0.000,0
36802.156,-26.367,-9.766,-0.488,-8.789,0.000,0
36802.160,-12.207,1.465,3.418,-15.137,0.000,0
36802.164,-7.324,0.488,6.348,-22.461,0.000,0
36802.168,-7.324,-0.488,3.906,-19.531,0.000,0
36802.172,-21.484,-4.883,1.953,-12.207,0.000,0
36802.176,-21.973,-14.160,-0.488,-21.484,0.000,0
36802.180,-18.555,-13.184,-8.789,-35.156,0.000,0
36802.183,-24.414,-16.113,-12.207,-23.926,0.000,0
36802.187,-37.109,-22.461,-28.809,-10.254,0.000,0
36802.191,-30.273,-23.438,-15.137,-13.672,0.000,0
36802.195,-41.992,-22.949,-2.930,-18.555,0.000,0
36802.199,-64.453,-26.855,-26.855,-33.203,0.000,0
36802.203,-56.641,-32.715,-28.809,-25.879,0.000,0
36802.207,-57.617,-35.156,-23.926,-30.273,0.000,0
36802.211,-63.477,-38.086,-28.809,-46.387,0.000,0
36802.215,-56.641,-39.062,-34.180,-54.199,0.000,0
36802.219,-50.781,-36.621,-33.691,-46.875,0.000,0
36802.223,-40.527,-33.203,-33.691,-45.410,0.000,0
36802.226,-39.062,-24.902,-32.227,-40.039,0.000,0
36802.230,-46.875,-29.297,-39.062,-38.086,0.000,0
36802.234,-33.691,-29.297,-32.715,-31.738,0.000,0
36802.238,-37.109,-20.996,-13.672,-35.156,0.000,0
36802.242,-44.434,-23.438,-22.461,-35.645,0.000,0
36802.246,-39.551,-14.160,-32.715,-1.465,0.000,0
36802.250,-33.691,-2.441,-11.719,-7.812,0.000,0
36802.254,-23.926,-3.906,5.371,-19.531,0.000,0
36802.258,-7.324,-0.488,6.836,-17.090,0.000,0
36802.262,-1.953,3.906,1.953,-12.695,0.000,0
36802.266,-15.625,-5.859,0.000,7.812,0.000,0
36802.269,-25.391,-15.137,-0.977,0.000,0.000,0
36802.273,-41.992,-22.461,-10.254,-34.180,0.000,0
36802.277,-56.152,-22.461,-23.926,-33.203,0.000,0
36802.281,-43.945,-16.602,-22.461,-16.113,0.000,0
36802.285,-26.367,-18.066,-16.602,4.395,0.000,0
36802.289,-25.879,-20.020,-21.484,-0.977,0.000,0
36802.293,-12.695,-10.254,-8.301,-33.203,0.000,0
36802.297,1.465,-7.324,-4.883,-16.602,0.000,0
36802.301,-3.418,-8.789,-9.277,9.766,0.000,0
36802.305,-12.207,-14.160,-10.742,14.160,0.000,0
36802.308,-17.090,-18.555,-12.207,4.395,0.000,0
36802.312,-17.578,-18.066,-13.672,-21.973,0.000,0
36802.316,-18.066,-17.090,-19.531,-24.414,0.000,0
36802.320,-29.785,-15.137,-14.648,-19.043,0.000,0
36802.324,-32.715,-17.090,-19.043,-15.137,0.000,0
36802.328,-18.066,-6.836,-8.301,10.254,0.000,0
36802.332,-9.277,-1.465,8.301,22.461,0.000,0
36802.336,-21.484,-6.836,-8.301,8.789,0.000,0
36802.340,-22.461,-7.324,-11.230,-10.254,0.000,0
36802.344,-10.742,-13.184,-9.277,-24.902,0.000,0
36802.348,-13.184,-9.766,-18.066,-2.930,0.000,0
36802.351,-16.602,-10.254,-8.789,1.953,0.000,0
36802.355,-18.555,-5.859,-1.465,-2.441,0.000,0
36802.359,-22.949,0.977,-1.953,4.395,0.000,0
36802.363,-2.441,5.859,9.277,20.996,0.000,0
36802.367,8.301,7.324,12.207,18.555,0.000,0
36802.371,4.395,3.418,20.508,4.883,0.000,0
36802.375,6.348,7.812,16.602,17.090,0.000,0
36802.379,4.395,3.906,0.488,11.719,0.000,0
36802.383,1.953,3.906,5.371,3.418,0.000,0
36802.387,4.395,5.371,5.859,12.207,0.000,0
36802.391,1.465,-0.488,3.418,3.906,0.000,0
36802.394,-5.859,-5.859,-3.906,-20.508,0.000,0
36802.398,0.977,-10.742,-8.301,-17.578,0.000,0
36802.402,10.254,-5.859,-3.906,1.465,0.000,0
36802.406,-1.953,-2.930,-4.883,4.395,0.000,0
36802.410,-18.555,-11.719,-0.977,8.301,0.000,0
36802.414,-4.395,-6.836,1.465,0.977,0.000,0
36802.418,0.977,-2.441,-6.348,-20.996,0.000,0
36802.422,-20.996,-14.160,-19.043,-22.461,0.000,0
36802.426,-15.137,-19.043,-21.973,0.488,0.000,0
36802.430,0.000,-13.184,-4.883,2.930,0.000,0
36802.433,0.977,-6.348,8.789,9.277,0.000,0
36802.437,0.000,-5.859,-0.977,7.812,0.000,0
36802.441,-4.395,-8.301,-8.789,-21.484,0.000,0
36802.445,-8.789,-4.883,-0.977,-12.695,0.000,0
36802.449,-10.254,-4.395,4.883,2.441,0.000,0
36802.453,0.977,-8.301,0.977,-4.883,0.000,0
36802.457,-7.812,-8.301,-2.441,-12.207,0.000,0
36802.461,-13.184,-4.883,5.371,-21.973,0.000,0
36802.465,0.977,-3.906,4.395,15.625,0.000,0
36802.469,-9.766,-6.836,1.465,-2.441,0.000,0
36802.473,1.465,-9.277,6.836,-18.555,0.000,0
36802.476,10.254,-3.418,2.930,9.277,0.000,0
36802.480,5.371,1.953,-3.418,6.836,0.000,0
36802.484,15.625,-1.465,-6.348,2.930,0.000,0
36802.488,15.137,-6.836,0.000,-7.812,0.000,0
36802.492,12.207,-12.695,0.488,-11.230,0.000,0
36802.496,19.043,-10.254,-6.348,-3.906,0.000,0
36802.500,10.742,-9.766,-6.836,-9.766,0.000,0
36802.504,-7.812,-16.113,-7.812,6.348,0.000,0
36802.508,-8.789,-12.207,1.465,3.418,0.000,0
36802.512,-6.348,-5.371,-7.324,-8.301,0.000,0
36802.516,-13.184,-4.395,-17.090,4.395,0.000,0
36802.519,2.441,3.906,-5.859,10.742,0.000,0
36802.523,26.855,12.695,6.348,2.441,0.000,0
36802.527,15.137,-1.953,5.859,-1.465,0.000,0
36802.531,-4.395,-16.113,1.465,-14.648,0.000,0
36802.535,-8.301,-17.578,-7.324,-49.316,0.000,0
36802.539,-17.578,-24.902,-23.438,-32.227,0.000,0
36802.543,-26.855,-28.320,-30.273,-8.301,0.000,0
36802.547,-21.973,-24.902,-18.066,-23.926,0.000,0
36802.551,-12.207,-20.996,-13.672,-15.137,0.000,0
36802.555,-10.742,-21.484,-16.602,2.930,0.000,0
36802.558,-14.160,-28.320,-20.996,-18.555,0.000,0
36802.562,-10.254,-30.762,-24.902,-22.461,0.000,0
36802.566,-1.465,-18.555,-1.465,12.695,0.000,0
36802.570,-5.859,-7.324,9.766,10.742,0.000,0
36802.574,-7.812,-8.789,-0.488,-5.859,0.000,0
36802.578,-20.508,-18.066,-13.184,-10.742,0.000,0
36802.582,-12.207,-14.648,-15.625,-3.418,0.000,0
36802.586,3.418,-2.441,-1.953,4.883,0.000,0
36802.590,-2.930,-5.859,-0.977,0.000,0.000,0
36802.594,-13.672,-6.348,-7.324,-21.973,0.000,0
36802.598,-15.137,-3.906,-11.230,-25.391,0.000,0
36802.601,-5.371,-6.836,-8.301,-5.859,0.000,0
36802.605,-20.508,-17.090,-19.531,-8.789,0.000,0
36802.609,-26.855,-19.531,-23.438,-26.855,0.000,0
36802.613,-16.602,-8.301,-5.371,-26.855,0.000,0
36802.617,-20.996,-8.789,-5.859,-9.277,0.000,0
36802.621,-19.043,-12.695,-20.020,-3.418,0.000,0
36802.625,-23.926,-9.277,-10.254,-10.254,0.000,0
36802.629,-30.762,-13.184,-7.812,-22.949,0.000,0
36802.633,-27.344,-15.625,-20.020,-36.133,0.000,0
36802.637,-24.902,-12.695,-14.648,-34.180,0.000,0
36802.641,-21.973,-15.137,-8.301,-36.133,0.000,0
36802.644,-30.273,-18.066,-12.207,-29.297,0.000,0
36802.648,-33.203,-23.926,-14.648,-35.156,0.000,0
36802.652,-26.367,-32.227,-24.414,-22.461,0.000,0
36802.656,-25.879,-30.762,-20.508,-22.949,0.000,0
36802.660,-33.203,-22.949,-7.324,-23.926,0.000,0
36802.664,-49.316,-26.855,-33.691,-15.625,0.000,0
36802.668,-50.781,-39.062,-43.945,-40.527,0.000,0
36802.672,-37.598,-32.227,-27.344,-36.621,0.000,0
36802.676,-35.645,-31.250,-26.855,-26.855,0.000,0
36802.680,-46.875,-33.691,-32.715,-30.762,0.000,0
36802.683,-54.688,-39.062,-39.062,-32.715,0.000,0
36802.687,-53.223,-49.316,-33.203,-41.016,0.000,0
36802.691,-52.734,-43.945,-34.668,-47.363,0.000,0
36802.695,-56.152,-45.898,-47.363,-53.711,0.000,0
36802.699,-53.711,-53.223,-52.734,-54.688,0.000,0
36802.703,-47.363,-48.828,-38.574,-41.016,0.000,0
36802.707,-44.922,-48.340,-28.809,-49.316,0.000,0
36802.711,-40.527,-52.734,-40.039,-59.570,0.000,0
36802.715,-55.176,-48.340,-46.387,-51.758,0.000,0
36802.719,-55.664,-40.527,-41.992,-38.086,0.000,1
36802.723,-44.434,-41.504,-38.086,-49.805,0.000,0
36802.726,-43.945,-44.434,-28.809,-52.246,0.000,0
36802.730,-31.738,-35.156,-15.625,-10.254,0.000,0
36802.734,-20.020,-31.738,-19.531,-9.766,0.000,0
36802.738,-28.320,-35.156,-23.438,-20.996,0.000,0
36802.742,-38.574,-27.344,-19.531,-17.090,0.000,0
36802.746,-35.156,-27.344,-11.719,-18.066,0.000,0
36802.750,-36.621,-25.391,-11.230,-19.531,0.000,0
36802.754,-36.133,-24.414,-20.020,-25.879,0.000,0
36802.758,-23.438,-20.508,-12.695,-11.719,0.000,0
36802.762,-33.691,-13.672,-4.883,-11.230,0.000,0
36802.766,-27.832,-22.461,-3.418,-15.625,0.000,0
36802.769,-12.695,-20.996,-6.348,-22.949,0.000,0
36802.773,-5.371,-13.184,-19.043,-30.273,0.000,0
36802.777,2.930,-13.184,-14.160,-22.461,0.000,0
36802.781,3.418,-15.625,-7.324,-4.883,0.000,0
36802.785,0.000,-23.438,-7.812,0.000,0.000,0
36802.789,-11.719,-18.555,-4.395,-2.930,0.000,0
36802.793,-29.785,-13.672,-7.812,-2.441,0.000,0
36802.797,-34.180,-23.926,-19.531,-18.066,0.000,0
36802.801,-26.855,-26.855,-25.879,8.301,0.000,0
36802.805,-32.227,-23.926,-13.672,-14.648,0.000,0
36802.808,-31.250,-20.996,-12.695,-41.992,0.000,0
36802.812,-21.484,-18.066,-16.113,-5.859,0.000,0
36802.816,-39.062,-18.066,-12.207,-15.625,0.000,0
36802.820,-43.945,-12.207,-10.254,-20.508,0.000,0
36802.824,-30.762,-12.695,-2.441,-25.879,0.000,0
36802.828,-24.902,-9.277,0.000,-16.602,0.000,0
36802.832,-20.996,-10.254,-15.137,-11.719,0.000,0
36802.836,-26.367,-15.137,-13.672,-27.832,0.000,0
36802.840,-34.668,-9.766,-7.812,-5.371,0.000,0
36802.844,-36.133,-18.555,-19.531,-6.836,0.000,0
36802.848,-30.273,-19.531,-17.090,-22.461,0.000,0
36802.851,-16.602,-3.418,-5.371,-19.531,0.000,0
36802.855,-0.977,2.441,1.465,-5.371,0.000,0
36802.859,13.184,4.395,4.883,9.277,0.000,0
36802.863,16.113,10.742,12.207,11.230,0.000,0
36802.867,4.395,12.207,13.672,5.859,0.000,0
36802.871,6.836,9.277,3.906,-9.766,0.000,0
36802.875,0.977,7.324,-2.930,-8.301,0.000,0
36802.879,-0.977,7.812,7.812,22.461,0.000,0
36802.883,1.953,1.465,10.254,2.930,0.000,0
36802.887,3.906,-3.418,-0.488,-26.855,0.000,0
36802.891,-6.348,-3.418,-7.812,-24.902,0.000,0
36802.894,-18.555,-1.465,-2.930,-10.254,0.000,0
36802.898,-10.254,-1.465,4.395,-16.113,0.000,0
36802.902,-7.324,0.488,8.301,-23.438,0.000,0
36802.906,-7.812,9.277,10.254,-7.812,0.000,0
36802.910,-5.371,13.672,12.207,-2.930,0.000,0
36802.914,-7.812,3.418,11.719,0.977,0.000,0
36802.918,-9.277,-6.348,1.953,-2.441,0.000,0
36802.922,-11.230,-7.324,1.465,1.953,0.000,0
36802.926,-12.207,-6.348,3.418,-8.301,0.000,0
36802.930,-10.742,-2.441,0.977,-7.812,0.000,0
36802.933,-17.090,-6.836,-7.324,-0.977,0.000,0
36802.937,-18.555,-13.672,-16.113,-17.578,0.000,0
36802.941,1.465,-7.324,3.906,-14.160,0.000,0
36802.945,-5.371,-9.277,-3.906,-23.926,0.000,0
36802.949,-24.414,-24.414,-34.180,-48.340,0.000,0
36802.953,-23.438,-27.344,-22.949,-41.992,0.000,0
36802.957,-16.113,-15.625,-3.906,-22.949,0.000,0
36802.961,0.488,-18.066,-2.930,-20.508,0.000,0
36802.965,1.465,-22.949,-4.395,-28.809,0.000,0
36802.969,-6.836,-14.160,-20.020,-9.766,0.000,0
36802.973,-5.859,-11.230,-14.648,-15.625,0.000,0
36802.976,-18.066,-18.066,-12.695,-20.996,0.000,0
36802.980,-28.809,-25.879,-30.762,-26.367,0.000,0
36802.984,-19.531,-26.855,-30.273,-34.180,0.000,0
36802.988,-14.648,-24.414,-17.578,-22.461,0.000,0
36802.992,-30.762,-35.645,-34.180,-29.785,0.000,0
36802.996,-20.508,-36.133,-39.062,-26.855,0.000,0
36803.000,-9.277,-32.227,-23.926,-20.020,0.000,0
36803.004,-24.902,-33.203,-23.438,-44.922,0.000,0
36803.008,-36.621,-37.109,-40.527,-36.621,0.000,0
36803.012,-32.715,-41.992,-44.922,-30.762,0.000,0
36803.016,-20.020,-33.691,-27.832,-17.578,0.000,0
36803.019,-15.625,-34.668,-22.949,-13.184,0.000,0
36803.023,-24.414,-44.922,-27.832,-38.574,0.000,0
36803.027,-32.715,-37.109,-24.414,-37.109,0.000,0
36803.031,-26.367,-29.785,-16.113,-41.992,0.000,0
36803.035,-22.461,-34.668,-29.297,-36.621,0.000,0
36803.039,-28.809,-39.062,-34.668,-40.039,0.000,0
36803.043,-35.156,-45.410,-31.738,-47.363,0.000,0
36803.047,-39.551,-50.781,-40.527,-34.180,0.000,0
36803.051,-32.715,-48.828,-42.969,-35.156,0.000,0
36803.055,-31.250,-47.363,-43.945,-24.414,0.000,0
36803.058,-44.434,-51.270,-41.016,-45.898,0.000,0
36803.062,-56.152,-54.199,-37.598,-66.895,0.000,0
36803.066,-49.316,-49.805,-46.387,-40.527,0.000,0
36803.070,-43.457,-43.945,-48.340,-36.621,0.000,0
36803.074,-44.922,-45.898,-35.645,-41.992,0.000,0
36803.078,-49.316,-47.852,-28.809,-34.180,0.000,0
36803.082,-38.086,-47.852,-33.203,-39.062,0.000,0
36803.086,-25.391,-48.340,-40.039,-42.969,0.000,0
36803.090,-42.480,-47.363,-42.480,-45.410,0.000,0
36803.094,-57.129,-47.363,-42.969,-39.062,0.000,0
36803.098,-44.922,-52.246,-41.992,-32.227,0.000,0
36803.101,-44.922,-61.035,-41.504,-24.414,0.000,0
36803.105,-47.363,-58.105,-42.480,-32.227,0.000,0
36803.109,-26.855,-54.688,-45.898,-41.992,0.000,0
36803.113,-29.297,-58.594,-48.828,-42.969,0.000,0
36803.117,-44.922,-55.176,-42.480,-46.875,0.000,0
36803.121,-46.387,-48.828,-30.762,-34.180,0.000,0
36803.125,-53.711,-48.340,-45.410,-42.480,0.000,0
36803.129,-52.734,-54.688,-61.035,-45.898,0.000,0
36803.133,-38.574,-47.852,-44.922,-23.926,0.000,0
36803.137,-41.992,-43.457,-39.062,-38.086,0.000,0
36803.141,-47.852,-47.363,-37.598,-58.594,0.000,0
36803.144,-22.461,-40.039,-36.621,-49.805,0.000,0
36803.148,-25.879,-34.180,-39.551,-43.457,0.000,0
36803.152,-31.738,-31.738,-30.273,-35.156,0.000,0
36803.156,-19.531,-29.297,-20.996,-30.273,0.000,0
36803.160,-21.484,-32.227,-18.555,-38.574,0.000,0
36803.164,-31.250,-25.391,-24.414,-40.039,0.000,0
36803.168,-34.668,-24.414,-26.855,-27.344,0.000,0
36803.172,-34.668,-39.062,-40.527,-31.250,0.000,0
36803.176,-42.969,-51.758,-46.387,-54.199,0.000,0
36803.180,-46.875,-52.734,-41.504,-54.199,0.000,0
36803.183,-59.570,-57.617,-61.523,-48.340,0.000,0
36803.187,-78.125,-72.754,-78.613,-59.570,0.000,0
36803.191,-68.848,-66.406,-70.312,-77.637,0.000,0
36803.195,-58.105,-64.453,-56.152,-50.293,0.000,0
36803.199,-56.152,-75.195,-56.152,-41.504,0.000,0
36803.203,-60.059,-74.219,-69.336,-64.453,0.000,0
36803.207,-59.570,-73.730,-72.266,-74.219,0.000,0
36803.211,-61.035,-73.242,-68.359,-67.383,0.000,0
36803.215,-76.172,-78.613,-75.195,-73.242,0.000,0
36803.219,-79.590,-90.820,-88.379,-86.426,0.000,0
36803.223,-70.801,-92.773,-86.426,-86.914,0.000,0
36803.226,-65.430,-80.566,-66.895,-65.430,0.000,0
36803.230,-69.824,-77.148,-66.895,-68.848,0.000,0
36803.234,-69.824,-78.125,-73.730,-71.289,0.000,0
36803.238,-63.477,-71.777,-63.477,-71.289,0.000,0
36803.242,-64.453,-63.965,-54.688,-83.008,0.000,0
36803.246,-61.523,-55.664,-52.734,-55.664,0.000,0
36803.250,-60.059,-50.781,-55.664,-47.852,0.000,0
36803.254,-62.500,-51.270,-47.852,-44.434,0.000,0
36803.258,-59.082,-52.246,-33.203,-38.574,0.000,0
36803.262,-62.012,-52.734,-37.598,-59.082,0.000,0
36803.266,-57.617,-61.035,-43.945,-70.312,0.000,0
36803.269,-52.734,-47.363,-41.504,-36.133,0.000,0
36803.273,-53.711,-44.434,-42.969,-30.273,0.000,0
36803.277,-54.688,-55.664,-45.898,-56.641,0.000,0
36803.281,-56.152,-52.246,-51.758,-49.805,0.000,0
36803.285,-58.594,-56.641,-54.688,-48.340,0.000,0
36803.289,-59.082,-54.688,-49.316,-61.523,0.000,0
36803.293,-54.688,-43.945,-36.621,-58.594,0.000,0
36803.297,-47.363,-46.875,-37.598,-54.688,0.000,0
36803.301,-42.969,-51.270,-52.246,-49.316,0.000,0
36803.305,-41.504,-46.875,-44.922,-51.270,0.000,0
36803.308,-34.668,-43.457,-42.480,-43.945,0.000,0
36803.312,-43.457,-39.551,-27.832,-41.016,0.000,0
36803.316,-46.875,-35.645,-24.414,-57.129,0.000,0
36803.320,-31.738,-34.180,-39.062,-40.527,0.000,0
36803.324,-38.086,-36.133,-38.574,-30.273,0.000,0
36803.328,-42.969,-39.551,-38.086,-32.227,0.000,1
36803.332,-31.250,-44.434,-35.156,-38.086,0.000,0
36803.336,-43.457,-47.363,-36.621,-58.105,0.000,0
36803.340,-56.641,-51.758,-43.945,-59.082,0.000,0
36803.344,-53.711,-57.129,-42.969,-56.152,0.000,0
36803.348,-68.848,-55.176,-49.805,-57.129,0.000,0
36803.351,-69.824,-51.758,-54.688,-47.852,0.000,0
36803.355,-56.641,-53.223,-46.875,-47.363,0.000,0
36803.359,-51.270,-45.410,-46.875,-30.762,0.000,0
36803.363,-39.551,-43.457,-57.617,-39.062,0.000,0
36803.367,-35.156,-51.270,-55.664,-60.059,0.000,0
36803.371,-43.945,-53.711,-43.457,-47.852,0.000,0
36803.375,-44.922,-51.270,-36.621,-59.570,0.000,0
36803.379,-47.363,-50.781,-43.457,-61.035,0.000,0
36803.383,-57.129,-56.152,-58.105,-40.039,0.000,0
36803.387,-44.434,-48.340,-51.270,-39.062,0.000,0
36803.391,-40.527,-41.016,-38.086,-42.969,0.000,0
36803.394,-51.270,-51.270,-38.574,-38.574,0.000,0
36803.398,-53.223,-49.805,-50.293,-33.203,0.000,0
36803.402,-45.410,-40.039,-44.434,-27.344,0.000,0
36803.406,-45.898,-42.969,-46.875,-41.016,0.000,0
36803.410,-50.781,-53.223,-58.105,-63.965,0.000,0
36803.414,-55.664,-55.664,-51.758,-78.613,0.000,0
36803.418,-47.363,-46.875,-48.340,-52.246,0.000,0
36803.422,-28.809,-45.898,-52.734,-39.551,0.000,0
36803.426,-37.109,-43.945,-55.176,-55.176,0.000,0
36803.430,-45.410,-41.016,-42.480,-31.250,0.000,0
36803.433,-34.668,-40.527,-23.926,-29.297,0.000,0
36803.437,-38.574,-38.574,-35.156,-40.039,0.000,0
36803.441,-21.973,-33.203,-36.621,-41.992,0.000,0
36803.445,-22.949,-20.996,-17.578,-14.160,0.000,0
36803.449,-27.832,-19.531,-11.230,1.465,0.000,0
36803.453,1.953,-23.438,-14.648,-20.508,0.000,0
36803.457,0.000,-14.648,-14.648,-21.973,0.000,0
36803.461,-10.742,-13.672,-11.719,-18.555,0.000,0
36803.465,-4.883,-14.648,-14.160,1.465,0.000,0
36803.469,5.859,-9.277,-12.695,0.488,0.000,0
36803.473,2.930,-4.883,0.977,-17.090,0.000,0
36803.476,5.859,0.488,0.977,10.742,0.000,0
36803.480,15.137,-7.812,-6.836,-2.441,0.000,0
36803.484,0.488,-18.555,-20.020,-16.113,0.000,0
36803.488,-11.230,-10.742,-17.578,-11.230,0.000,0
36803.492,-11.230,-6.836,2.930,-6.348,0.000,0
36803.496,-12.695,-11.719,-4.395,-6.348,0.000,0
36803.500,-12.207,-13.672,-20.996,-32.227,0.000,0
36803.504,-5.859,-7.812,-8.301,-20.996,0.000,0
36803.508,8.301,2.441,16.113,12.207,0.000,0
36803.512,14.160,-1.953,16.602,-6.348,0.000,0
36803.516,10.742,-3.906,0.977,-2.441,0.000,0
36803.519,6.836,4.883,4.395,23.438,0.000,0
36803.523,4.883,1.465,4.883,35.156,0.000,0
36803.527,-4.395,-6.348,-5.859,9.766,0.000,0
36803.531,-5.859,-8.789,1.953,-28.320,0.000,0
36803.535,1.465,-10.742,0.000,-5.371,0.000,0
36803.539,-13.672,-17.090,-17.578,-7.324,0.000,0
36803.543,-25.391,-25.879,-27.344,-18.555,0.000,0
36803.547,-13.184,-29.297,-27.832,-6.348,0.000,0
36803.551,-20.996,-20.996,-14.648,-12.207,0.000,0
36803.555,-20.508,-18.066,-11.719,-17.090,0.000,0
36803.558,-16.602,-31.738,-28.320,-18.555,0.000,0
36803.562,-32.715,-36.133,-34.668,-21.484,0.000,0
36803.566,-27.832,-25.391,-24.414,-4.883,0.000,0
36803.570,-19.531,-22.949,-17.090,-1.465,0.000,0
36803.574,-16.113,-25.391,-28.809,-13.184,0.000,0
36803.578,-16.113,-32.227,-31.738,-26.367,0.000,0
36803.582,-26.367,-38.574,-23.438,-35.645,0.000,0
36803.586,-31.250,-34.180,-28.320,-17.578,0.000,0
36803.590,-28.809,-41.992,-37.109,-20.996,0.000,0
36803.594,-22.949,-41.504,-37.598,-20.020,0.000,0
36803.598,-31.250,-36.621,-32.227,-19.531,0.000,0
36803.601,-46.875,-48.340,-47.363,-36.133,0.000,0
36803.605,-37.109,-54.199,-57.129,-50.781,0.000,0
36803.609,-28.320,-50.293,-38.086,-35.156,0.000,0
36803.613,-41.992,-51.758,-35.156,-32.715,0.000,0
36803.617,-54.199,-47.852,-46.875,-42.480,0.000,0
36803.621,-39.551,-43.945,-42.969,-29.297,0.000,0
36803.625,-30.762,-41.992,-38.086,-15.137,0.000,0
36803.629,-38.574,-43.457,-36.621,-32.715,0.000,0
36803.633,-46.387,-46.875,-40.527,-52.246,0.000,0
36803.637,-49.316,-43.945,-45.898,-32.715,0.000,0
36803.641,-42.480,-46.875,-44.434,-32.715,0.000,0
36803.644,-41.016,-44.922,-39.062,-41.016,0.000,0
36803.648,-40.039,-37.598,-41.504,-54.199,0.000,0
36803.652,-43.457,-38.574,-37.598,-57.617,0.000,0
36803.656,-37.109,-42.969,-31.250,-49.805,0.000,0
36803.660,-26.855,-45.410,-43.457,-31.738,0.000,0
36803.664,-37.109,-52.734,-58.594,-28.320,0.000,0
36803.668,-47.852,-49.805,-54.688,-22.461,0.000,0
36803.672,-50.293,-46.387,-41.992,1.465,0.000,0
36803.676,-47.363,-53.711,-49.805,-12.207,0.000,0
36803.680,-55.664,-52.246,-52.734,-45.898,0.000,0
36803.683,-60.547,-46.875,-42.480,-39.062,0.000,0
36803.687,-47.852,-37.598,-26.855,-20.020,0.000,0
36803.691,-45.410,-37.109,-30.273,-38.086,0.000,0
36803.695,-51.270,-42.969,-41.016,-44.922,0.000,0
36803.699,-44.922,-34.668,-28.320,-31.250,0.000,0
36803.703,-33.691,-29.297,-26.855,-31.738,0.000,0
36803.707,-35.645,-32.227,-32.227,-29.297,0.000,0
36803.711,-31.250,-27.832,-22.949,-41.016,0.000,0
36803.715,-20.996,-21.484,-22.949,-26.367,0.000,0
36803.719,-26.367,-25.391,-30.762,-0.977,0.000,0
36803.723,-34.668,-24.902,-31.738,-22.949,0.000,0
36803.726,-37.598,-23.438,-25.391,-28.320,0.000,0
36803.730,-30.762,-27.832,-15.625,-25.391,0.000,0
36803.734,-25.391,-20.508,-12.207,-23.926,0.000,0
36803.738,-18.555,-20.996,-21.973,-15.137,0.000,0
36803.742,-14.160,-21.484,-22.949,-30.762,0.000,0
36803.746,-20.996,-22.949,-17.090,-30.762,0.000,0
36803.750,-14.160,-22.461,-7.324,-18.555,0.000,0
36803.754,-9.766,-16.113,-9.277,-19.531,0.000,0
36803.758,-15.137,-13.184,-14.648,-16.113,0.000,0
36803.762,-16.113,-11.230,-8.789,0.000,0.000,0
36803.766,-13.184,-11.719,-6.348,-7.812,0.000,0
36803.769,-8.301,-18.066,-3.418,-15.625,0.000,0
36803.773,-1.953,-9.277,-4.395,-3.418,0.000,0
36803.777,-14.648,-11.230,-9.277,-9.766,0.000,0
36803.781,-16.113,-20.996,-16.602,-11.230,0.000,0
36803.785,-14.160,-20.996,-18.555,-11.230,0.000,0
36803.789,-24.902,-23.926,-15.137,-13.672,0.000,0
36803.793,-28.320,-26.367,-21.973,-12.207,0.000,0
36803.797,-31.250,-21.973,-20.996,-16.602,0.000,0
36803.801,-25.391,-19.043,-21.484,-2.930,0.000,0
36803.805,-27.832,-24.414,-27.832,-19.043,0.000,0
36803.808,-26.367,-27.832,-20.020,-56.152,0.000,0
36803.812,-14.160,-28.320,-17.578,-25.879,0.000,0
36803.816,-19.043,-25.879,-20.020,-5.859,0.000,0
36803.820,-18.555,-13.672,-14.160,-20.020,0.000,0
36803.824,-6.836,-9.277,-0.488,-20.508,0.000,0
36803.828,-1.465,-10.742,0.488,-19.043,0.000,0
36803.832,1.953,-11.719,-16.113,-21.484,0.000,0
36803.836,-7.324,-21.973,-27.344,-32.227,0.000,0
36803.840,-18.555,-29.297,-24.414,-24.414,0.000,0
36803.844,-20.508,-32.227,-34.180,-27.832,0.000,0
36803.848,-18.555,-44.922,-33.691,-56.641,0.000,0
36803.851,-12.207,-42.969,-25.391,-35.156,0.000,0
36803.855,-14.160,-38.574,-27.344,5.371,0.000,0
36803.859,-42.969,-43.945,-32.715,-27.344,0.000,0
36803.863,-61.523,-39.062,-36.621,-70.801,0.000,0
36803.867,-42.969,-35.645,-23.926,-41.992,0.000,0
36803.871,-41.016,-48.340,-29.785,-38.574,0.000,0
36803.875,-53.711,-52.246,-45.410,-54.199,0.000,0
36803.879,-46.875,-41.504,-40.527,-38.086,0.000,0
36803.883,-41.016,-32.227,-20.996,-34.668,0.000,0
36803.887,-38.574,-34.180,-18.066,-35.156,0.000,0
36803.891,-36.621,-41.992,-28.809,-24.902,0.000,0
36803.894,-37.109,-38.574,-27.832,-36.621,0.000,0
36803.898,-39.062,-28.809,-30.273,-34.668,0.000,0
36803.902,-36.621,-27.344,-26.367,-27.832,0.000,0
36803.906,-31.738,-32.715,-21.484,-42.480,0.000,0
36803.910,-23.926,-32.715,-24.902,-46.875,0.000,0
36803.914,-29.297,-30.273,-31.738,-16.602,0.000,0
36803.918,-28.809,-31.250,-34.180,-12.695,0.000,0
36803.922,-20.020,-33.691,-34.180,-22.949,0.000,0
36803.926,-25.879,-27.344,-20.020,-12.695,0.000,0
36803.930,-35.156,-19.531,-5.859,-21.484,0.000,0
36803.933,-25.879,-24.902,-19.043,-35.156,0.000,0
36803.937,-16.602,-23.926,-17.578,-20.996,0.000,0
36803.941,-11.230,-18.066,-9.766,2.441,0.000,0
36803.945,-14.160,-22.461,-8.301,-15.625,0.000,0
36803.949,-10.254,-17.090,-1.953,-10.254,0.000,0
36803.953,-8.789,-17.578,-9.766,-3.906,0.000,0
36803.957,-18.555,-19.043,-7.324,-8.789,0.000,0
36803.961,-13.672,-11.230,3.418,5.859,0.000,0
36803.965,-17.090,-16.602,-6.836,-2.441,0.000,0
36803.969,-14.648,-17.578,-16.602,-26.855,0.000,0
36803.973,-6.836,-8.789,0.488,-20.996,0.000,0
36803.976,-20.508,-15.137,-5.371,-25.879,0.000,1
36803.980,-33.691,-26.855,-25.391,-16.113,0.000,0
36803.984,-30.273,-27.832,-17.090,-3.418,0.000,0
36803.988,-16.113,-25.879,-8.301,-18.555,0.000,0
36803.992,-26.367,-26.855,-19.043,-15.137,0.000,0
36803.996,-29.785,-29.297,-14.648,-19.043,0.000,0
36804.000,-24.902,-20.996,-13.672,-11.230,0.000,0
36804.004,-22.949,-16.602,-6.348,-10.742,0.000,0
36804.008,-28.320,-22.461,-4.395,-18.066,0.000,0
36804.012,-31.250,-22.461,-12.695,-17.090,0.000,0
36804.016,-24.414,-21.973,-10.742,-29.297,0.000,0
36804.019,-22.949,-20.996,-12.695,-11.230,0.000,0
36804.023,-17.090,-20.996,-20.020,-10.742,0.000,0
36804.027,-7.812,-19.531,-14.160,-21.484,0.000,0
36804.031,-12.695,-11.230,-8.789,-22.461,0.000,0
36804.035,-11.719,-10.254,-14.648,-22.461,0.000,0
36804.039,-11.719,-11.230,-16.602,-13.672,0.000,0
36804.043,-18.066,-14.160,-9.766,-19.531,0.000,0
36804.047,-13.184,-20.508,-8.301,-29.785,0.000,0
36804.051,-19.531,-22.461,-16.602,-22.461,0.000,0
36804.055,-36.133,-28.809,-20.020,-20.020,0.000,0
36804.058,-41.016,-38.574,-31.250,-29.785,0.000,0
36804.062,-31.250,-41.504,-25.879,-29.785,0.000,0
36804.066,-28.809,-35.645,-14.648,-22.461,0.000,0
36804.070,-42.480,-32.227,-34.668,-35.645,0.000,0
36804.074,-44.922,-47.363,-54.688,-53.711,0.000,0
36804.078,-50.781,-51.270,-42.969,-27.832,0.000,0
36804.082,-57.129,-51.758,-44.434,-24.414,0.000,0
36804.086,-55.176,-62.012,-53.223,-59.570,0.000,0
36804.090,-62.500,-61.035,-53.711,-62.012,0.000,0
36804.094,-49.316,-62.012,-55.176,-57.617,0.000,0
36804.098,-54.199,-70.312,-52.734,-60.547,0.000,0
36804.101,-67.383,-69.336,-59.082,-50.781,0.000,0
36804.105,-56.641,-62.012,-57.617,-61.035,0.000,0
36804.109,-56.641,-54.199,-43.945,-55.664,0.000,0
36804.113,-50.781,-54.199,-53.223,-57.617,0.000,0
36804.117,-44.434,-54.688,-57.129,-62.988,0.000,0
36804.121,-46.387,-53.711,-41.504,-65.918,0.000,0
36804.125,-49.316,-54.199,-36.133,-58.105,0.000,0
36804.129,-55.664,-49.805,-46.387,-48.340,0.000,0
36804.133,-53.223,-44.922,-46.875,-53.223,0.000,0
36804.137,-55.664,-41.992,-37.109,-37.598,0.000,0
36804.141,-43.945,-38.086,-28.320,-12.207,0.000,0
36804.144,-28.320,-33.203,-22.461,-24.414,0.000,0
36804.148,-34.180,-25.879,-25.391,-30.762,0.000,0
36804.152,-39.551,-26.367,-30.273,-22.949,0.000,0
36804.156,-41.504,-33.691,-38.086,-30.762,0.000,0
36804.160,-36.133,-39.551,-41.992,-29.297,0.000,0
36804.164,-34.180,-44.434,-32.227,-37.598,0.000,0
36804.168,-50.293,-49.805,-33.691,-47.852,0.000,0
36804.172,-50.781,-53.223,-52.246,-48.828,0.000,0
36804.176,-41.504,-44.922,-50.293,-40.527,0.000,0
36804.180,-41.992,-39.062,-39.062,-34.668,0.000,0
36804.183,-36.133,-41.504,-33.691,-45.410,0.000,0
36804.187,-45.410,-45.410,-40.039,-44.434,0.000,0
36804.191,-52.246,-41.504,-48.828,-41.016,0.000,0
36804.195,-40.039,-27.832,-34.180,-19.043,0.000,0
36804.199,-42.969,-31.738,-21.973,-13.184,0.000,0
36804.203,-37.109,-39.551,-33.691,-39.062,0.000,0
36804.207,-32.715,-33.691,-46.875,-39.551,0.000,0
36804.211,-35.645,-31.250,-42.480,-23.438,0.000,0
36804.215,-38.086,-33.203,-30.762,-18.066,0.000,0
36804.219,-37.598,-32.715,-27.344,-16.113,0.000,0
36804.223,-32.227,-39.062,-27.344,-31.738,0.000,0
36804.226,-35.156,-46.875,-33.203,-42.969,0.000,0
36804.230,-43.457,-42.969,-37.109,-40.527,0.000,0
36804.234,-50.293,-36.621,-38.086,-34.668,0.000,0
36804.238,-40.527,-31.250,-36.621,-30.762,0.000,0
36804.242,-35.645,-29.785,-26.367,-37.109,0.000,0
36804.246,-40.527,-34.180,-25.879,-49.316,0.000,0
36804.250,-43.457,-36.621,-36.133,-38.086,0.000,0
36804.254,-41.504,-39.062,-41.992,-31.250,0.000,0
36804.258,-32.715,-31.250,-23.926,-13.672,0.000,0
36804.262,-26.855,-25.391,-13.672,-14.648,0.000,0
36804.266,-30.762,-18.555,-17.578,-20.508,0.000,0
36804.269,-20.996,-9.277,-15.137,-10.254,0.000,0
36804.273,1.465,-6.348,-4.395,-5.371,0.000,0
36804.277,5.859,-2.930,-3.418,-0.488,0.000,0
36804.281,-5.859,-7.324,-5.371,-1.953,0.000,0
36804.285,-12.695,-10.254,-3.906,-4.883,0.000,0
36804.289,-16.113,-9.277,-7.812,-13.672,0.000,0
36804.293,-17.578,-16.113,-23.438,-18.555,0.000,0
36804.297,-14.160,-18.555,-37.598,-27.832,0.000,0
36804.301,-20.020,-11.230,-12.207,-21.484,0.000,0
36804.305,-28.809,-9.277,3.418,-19.043,0.000,0
36804.308,-31.250,-11.230,-20.020,-7.324,0.000,0
36804.312,-34.180,-15.625,-29.297,-12.207,0.000,0
36804.316,-22.949,-9.277,-13.184,-23.438,0.000,0
36804.320,-11.230,-3.418,3.906,1.465,0.000,0
36804.324,-10.742,-8.789,-5.859,-3.906,0.000,0
36804.328,-19.531,-10.742,-17.578,-18.066,0.000,0
36804.332,-33.691,-6.348,-9.766,-10.254,0.000,0
36804.336,-25.879,-11.719,-6.836,2.441,0.000,0
36804.340,-23.926,-15.137,-12.207,-7.812,0.000,0
36804.344,-28.320,-11.230,-14.648,-34.180,0.000,0
36804.348,-22.461,-3.906,-1.953,-8.789,0.000,0
36804.351,-23.438,-6.348,-3.418,10.742,0.000,0
36804.355,-19.531,-15.137,-18.066,-10.742,0.000,0
36804.359,-13.184,-15.625,-11.230,-14.160,0.000,0
36804.363,-24.414,-16.113,-3.418,-26.367,0.000,0
36804.367,-29.785,-19.043,-16.602,-37.109,0.000,0
36804.371,-17.578,-20.508,-22.461,-30.273,0.000,0
36804.375,-7.324,-18.066,-18.066,-8.789,0.000,0
36804.379,-11.230,-18.066,-12.695,-8.789,0.000,0
36804.383,-19.531,-22.461,-9.766,-24.902,0.000,0
36804.387,-22.461,-21.484,-19.531,-15.137,0.000,0
36804.391,-11.230,-26.367,-22.949,-11.719,0.000,0
36804.394,-10.254,-20.996,-6.348,-22.949,0.000,0
36804.398,-32.715,-25.879,-21.484,-25.391,0.000,0
36804.402,-33.203,-39.551,-34.668,-43.945,0.000,0
36804.406,-30.273,-38.086,-34.668,-59.082,0.000,0
36804.410,-37.598,-37.109,-40.039,-28.320,0.000,0
36804.414,-39.551,-39.062,-42.480,-16.602,0.000,0
36804.418,-41.016,-37.598,-31.738,-32.715,0.000,0
36804.422,-41.016,-38.574,-20.020,-23.926,0.000,0
36804.426,-43.457,-38.574,-26.855,-10.254,0.000,0
36804.430,-39.062,-39.062,-35.156,-11.719,0.000,0
36804.433,-37.598,-38.574,-41.504,-33.691,0.000,0
36804.437,-27.832,-33.691,-22.949,-18.555,0.000,0
36804.441,-22.461,-33.203,-13.672,-23.438,0.000,0
36804.445,-16.113,-30.273,-30.273,-43.945,0.000,0
36804.449,-14.160,-28.320,-28.809,-16.602,0.000,0
36804.453,-26.367,-29.297,-21.973,-17.090,0.000,0
36804.457,-27.344,-30.762,-26.855,-28.320,0.000,0
36804.461,-14.160,-32.227,-19.531,-26.367,0.000,0
36804.465,-20.996,-34.180,-23.926,-37.109,0.000,0
36804.469,-28.809,-34.180,-30.273,-41.016,0.000,0
36804.473,-30.273,-32.227,-25.879,-29.297,0.000,0
36804.476,-40.039,-25.879,-25.879,-12.207,0.000,0
36804.480,-29.785,-15.137,-14.160,6.348,0.000,0
36804.484,-25.391,-14.648,-2.441,5.859,0.000,0
36804.488,-30.762,-19.043,-24.414,-7.812,0.000,0
36804.492,-19.043,-16.602,-23.438,-5.859,0.000,0
36804.496,-12.695,-17.090,-7.812,-3.906,0.000,0
36804.500,-10.742,-16.602,-2.441,-14.160,0.000,0
36804.504,-1.465,-15.625,-3.418,-3.906,0.000,0
36804.508,-6.348,-9.766,2.441,2.930,0.000,0
36804.512,-10.742,3.418,-0.977,-2.930,0.000,0
36804.516,-3.906,1.953,-7.812,-4.883,0.000,0
36804.519,-10.254,-7.324,0.488,-11.719,0.000,0
36804.523,-15.625,-9.766,-2.930,-15.625,0.000,0
36804.527,-0.977,-9.277,-7.812,-3.418,0.000,0
36804.531,0.977,-7.812,-6.348,7.812,0.000,0
36804.535,-8.301,-9.277,-11.719,-10.254,0.000,0
36804.539,-18.555,-17.578,-7.812,-11.230,0.000,0
36804.543,-21.973,-13.672,-6.836,-12.695,0.000,0
36804.547,-14.160,-12.695,-14.648,-21.973,0.000,0
36804.551,-4.395,-14.160,-20.020,0.977,0.000,0
36804.555,-5.371,-9.277,-13.184,13.672,0.000,0
36804.558,-5.859,-8.789,9.277,7.812,0.000,0
36804.562,0.000,-0.977,11.719,6.836,0.000,0
36804.566,-0.488,0.977,0.977,-2.930,0.000,0
36804.570,-23.438,-7.812,-0.977,-12.695,0.000,0
36804.574,-28.320,-10.254,2.441,-4.883,0.000,0
36804.578,-2.441,-9.766,0.000,-5.371,0.000,0
36804.582,0.000,-14.160,-8.789,-25.391,0.000,0
36804.586,-0.488,-12.207,-7.812,-6.836,0.000,0
36804.590,3.418,-3.906,-4.395,5.859,0.000,0
36804.594,0.488,-6.348,-8.301,-5.371,0.000,0
36804.598,-12.207,-17.090,-11.230,-17.578,0.000,0
36804.601,-30.273,-20.996,-18.066,-4.395,0.000,0
36804.605,-31.738,-26.367,-23.926,-20.996,0.000,0
36804.609,-5.859,-29.297,-21.484,-14.160,0.000,0
36804.613,-13.184,-22.949,-29.785,5.859,0.000,0
36804.617,-54.199,-20.508,-20.020,-22.461,0.000,0
36804.621,-47.852,-15.137,-6.836,-40.039,0.000,0
36804.625,-29.785,-12.695,-13.672,-44.434,0.000,0
36804.629,-32.227,-13.184,-18.066,-23.926,0.000,0
36804.633,-32.227,-11.719,-15.625,-16.113,0.000,0
36804.637,-37.598,-20.020,-22.461,-39.551,0.000,0
36804.641,-36.133,-25.879,-24.902,-46.387,0.000,0
36804.644,-34.668,-23.926,-23.438,-25.879,0.000,0
36804.648,-40.039,-26.367,-23.438,-21.973,0.000,0
36804.652,-41.016,-21.973,-28.320,-21.973,0.000,0
36804.656,-36.133,-22.461,-23.926,-38.086,0.000,0
36804.660,-28.809,-28.320,-20.020,-37.598,0.000,0
36804.664,-26.367,-22.461,-30.762,-28.809,0.000,0
36804.668,-35.645,-20.508,-32.227,-24.414,0.000,0
36804.672,-40.527,-30.273,-38.086,-25.391,0.000,0
36804.676,-38.086,-40.039,-40.527,-32.227,0.000,0
36804.680,-31.738,-32.227,-21.484,-17.578,0.000,1
36804.683,-23.438,-27.344,-32.227,-17.090,0.000,0
36804.687,-27.832,-29.297,-40.039,-32.227,0.000,0
36804.691,-26.367,-30.273,-35.156,-25.879,0.000,0
36804.695,-22.461,-31.738,-27.832,-25.391,0.000,0
36804.699,-29.785,-34.668,-29.297,-44.434,0.000,0
36804.703,-37.109,-32.715,-35.645,-34.668,0.000,0
36804.707,-26.855,-26.367,-27.344,-12.695,0.000,0
36804.711,-30.762,-23.438,-24.902,-13.672,0.000,0
36804.715,-43.457,-32.715,-26.367,-25.879,0.000,0
36804.719,-41.016,-36.621,-32.227,-28.320,0.000,0
36804.723,-34.180,-20.508,-24.902,-24.414,0.000,0
36804.726,-19.531,-15.137,-20.996,-15.137,0.000,0
36804.730,-11.719,-22.949,-31.738,0.977,0.000,0
36804.734,-17.090,-19.531,-22.949,0.000,0.000,0
36804.738,-20.508,-20.508,-14.160,-18.066,0.000,0
36804.742,-18.555,-24.414,-28.320,-20.996,0.000,0
36804.746,-12.207,-23.926,-30.273,-18.555,0.000,0
36804.750,-16.113,-22.461,-24.414,-16.113,0.000,0
36804.754,-16.602,-20.508,-22.949,-22.949,0.000,0
36804.758,-17.090,-23.926,-22.461,-34.668,0.000,0
36804.762,-21.484,-27.832,-28.809,-27.344,0.000,0
36804.766,-24.414,-26.367,-31.738,-17.090,0.000,0
36804.769,-24.414,-19.531,-19.043,-20.508,0.000,0
36804.773,-19.531,-25.879,-19.043,-21.973,0.000,0
36804.777,-24.414,-31.250,-16.113,-21.973,0.000,0
36804.781,-25.391,-20.996,-23.926,-14.648,0.000,0
36804.785,-14.160,-12.695,-20.996,-2.930,0.000,0
36804.789,-16.113,-15.137,-17.090,-8.789,0.000,0
36804.793,-3.906,-20.508,-20.508,-14.648,0.000,0
36804.797,-11.230,-22.461,-9.766,-20.020,0.000,0
36804.801,-24.902,-20.508,-16.113,-13.184,0.000,0
36804.805,-16.113,-21.484,-20.508,3.906,0.000,0
36804.808,-17.578,-25.879,-29.785,0.000,0.000,0
36804.812,-21.973,-19.531,-19.043,-13.672,0.000,0
36804.816,-15.137,-19.043,-0.977,-25.391,0.000,0
36804.820,-6.348,-18.555,-21.973,-18.066,0.000,0
36804.824,-8.789,-12.207,-20.020,-14.160,0.000,0
36804.828,0.488,0.488,7.324,-4.395,0.000,0
36804.832,-2.441,-1.953,2.441,0.488,0.000,0
36804.836,-3.906,-10.254,4.395,-0.488,0.000,0
36804.840,1.953,-9.277,1.465,-1.465,0.000,0
36804.844,-1.953,-12.207,-15.625,-3.418,0.000,0
36804.848,-2.930,-13.184,-13.184,2.930,0.000,0
36804.851,-10.254,-13.672,-10.742,-4.395,0.000,0
36804.855,-15.625,-20.996,-15.137,-20.996,0.000,0
36804.859,-3.906,-15.137,-6.836,-11.719,0.000,0
36804.863,-19.531,-18.555,-20.020,-6.836,0.000,0
36804.867,-15.625,-24.414,-32.227,-3.906,0.000,0
36804.871,1.465,-20.020,-22.461,-4.395,0.000,0
36804.875,-14.160,-24.902,-19.531,-34.668,0.000,0
36804.879,-32.227,-27.344,-29.785,-25.391,0.000,0
36804.883,-33.691,-31.738,-33.203,-16.602,0.000,0
36804.887,-28.320,-29.297,-20.996,-35.645,0.000,0
36804.891,-29.785,-22.461,-18.066,-22.949,0.000,0
36804.894,-24.902,-23.438,-18.555,-21.484,0.000,0
36804.898,-23.438,-22.461,-16.602,-34.180,0.000,0
36804.902,-28.809,-20.020,-15.625,-31.250,0.000,0
36804.906,-25.879,-20.508,-19.531,-14.648,0.000,0
36804.910,-23.438,-28.809,-31.250,-11.230,0.000,0
36804.914,-24.902,-25.879,-24.902,-17.578,0.000,0
36804.918,-20.508,-17.578,-6.836,-21.973,0.000,0
36804.922,-22.461,-19.043,-15.137,-17.090,0.000,0
36804.926,-34.668,-29.297,-33.691,-20.020,0.000,0
36804.930,-30.273,-38.086,-34.180,-24.902,0.000,0
36804.933,-29.297,-36.133,-24.902,-25.879,0.000,0
36804.937,-30.273,-35.645,-23.438,-37.109,0.000,0
36804.941,-20.508,-35.645,-28.809,-46.875,0.000,0
36804.945,-25.879,-28.809,-27.344,-40.039,0.000,0
36804.949,-44.922,-25.879,-26.855,-33.691,0.000,0
36804.953,-46.387,-34.180,-34.668,-44.922,0.000,0
36804.957,-45.410,-36.133,-34.180,-32.227,0.000,0
36804.961,-37.598,-29.297,-29.297,-36.133,0.000,0
36804.965,-27.832,-24.414,-22.949,-41.992,0.000,0
36804.969,-27.832,-21.484,-24.902,-21.973,0.000,0
36804.973,-23.926,-22.461,-27.832,-22.461,0.000,0
36804.976,-25.391,-23.438,-22.461,-21.973,0.000,0
36804.980,-37.598,-28.809,-33.203,-21.973,0.000,0
36804.984,-43.945,-38.086,-41.992,-33.203,0.000,0
36804.988,-41.992,-37.109,-33.691,-24.902,0.000,0
36804.992,-42.969,-31.738,-23.926,-34.668,0.000,0
36804.996,-29.785,-38.574,-33.203,-40.039,0.000,0
36805.000,-30.273,-39.062,-40.527,-42.480,0.000,0
36805.004,-45.898,-33.691,-30.273,-36.621,0.000,0
36805.008,-37.598,-27.344,-19.043,-9.766,0.000,0
36805.012,-31.738,-28.809,-21.973,-24.414,0.000,0
36805.016,-42.969,-27.832,-20.020,-45.898,0.000,0
36805.019,-42.480,-31.250,-18.555,-36.133,0.000,0
36805.023,-36.133,-33.691,-23.438,-22.461,0.000,0
36805.027,-27.344,-20.996,-20.508,-25.391,0.000,0
36805.031,-18.555,-19.531,-9.277,-34.180,0.000,0
36805.035,-18.555,-21.973,-6.836,-9.277,0.000,0
36805.039,-18.555,-16.113,-10.254,-14.160,0.000,0
36805.043,-14.648,-8.789,-6.348,-15.137,0.000,0
36805.047,-16.602,-13.184,-19.043,-5.859,0.000,0
36805.051,-20.020,-20.996,-19.531,-18.555,0.000,0
36805.055,-22.461,-15.625,0.000,-14.160,0.000,0
36805.058,-33.691,-14.160,-17.578,-13.184,0.000,0
36805.062,-33.691,-17.578,-26.367,-26.367,0.000,0
36805.066,-16.113,-20.020,-19.043,-14.160,0.000,0
36805.070,-14.648,-25.391,-20.996,-12.207,0.000,0
36805.074,-28.809,-29.297,-14.160,-6.348,0.000,0
36805.078,-30.273,-25.879,-17.578,-28.320,0.000,0
36805.082,-26.855,-30.762,-25.391,-31.738,0.000,0
36805.086,-33.203,-33.203,-24.902,-13.672,0.000,0
36805.090,-32.715,-33.691,-30.273,-36.621,0.000,0
36805.094,-36.621,-40.039,-29.297,-43.457,0.000,0
36805.098,-32.227,-28.809,-18.555,-15.625,0.000,0
36805.101,-18.555,-24.902,-20.996,-11.230,0.000,0
36805.105,-31.250,-32.715,-31.738,-16.113,0.000,0
36805.109,-39.062,-29.785,-33.691,-22.949,0.000,0
36805.113,-31.250,-30.762,-22.949,-23.926,0.000,0
36805.117,-42.480,-27.832,-27.344,-21.973,0.000,0
36805.121,-38.574,-30.762,-39.551,-23.438,0.000,0
36805.125,-26.855,-32.715,-31.738,-10.742,0.000,0
36805.129,-37.109,-30.273,-35.156,-20.996,0.000,0
36805.133,-52.246,-44.922,-45.410,-50.781,0.000,0
36805.137,-51.758,-49.805,-49.316,-36.621,0.000,0
36805.141,-49.316,-43.945,-47.852,-43.945,0.000,0
36805.144,-59.082,-46.875,-44.922,-40.527,0.000,0
36805.148,-54.688,-57.617,-59.570,-18.555,0.000,0
36805.152,-48.340,-56.152,-49.316,-66.895,0.000,0
36805.156,-61.035,-50.293,-44.922,-67.871,0.000,0
36805.160,-65.430,-50.781,-57.129,-51.758,0.000,0
36805.164,-61.523,-55.176,-58.105,-68.359,0.000,0
36805.168,-57.129,-53.711,-50.293,-40.527,0.000,0
36805.172,-64.941,-51.758,-39.062,-39.551,0.000,0
36805.176,-58.594,-51.270,-42.969,-53.223,0.000,0
36805.180,-39.062,-42.969,-46.387,-45.898,0.000,0
36805.183,-44.434,-42.969,-51.270,-41.016,0.000,0
36805.187,-52.246,-38.086,-40.039,-33.203,0.000,0
36805.191,-43.457,-35.645,-20.996,-41.016,0.000,0
36805.195,-44.434,-42.969,-36.621,-25.879,0.000,0
36805.199,-35.645,-35.156,-46.875,-19.043,0.000,0
36805.203,-29.297,-28.320,-31.250,-50.293,0.000,0
36805.207,-35.156,-20.020,-22.949,-22.949,0.000,0
36805.211,-37.598,-17.090,-16.602,-18.066,0.000,0
36805.215,-28.320,-24.902,-19.043,-33.203,0.000,0
36805.219,-25.391,-28.809,-23.438,-19.043,0.000,0
36805.223,-9.277,-30.762,-23.926,2.441,0.000,0
36805.226,-4.883,-27.344,-21.484,7.324,0.000,0
36805.230,-30.762,-18.555,-12.695,-33.203,0.000,0
36805.234,-42.969,-13.184,-10.742,-39.062,0.000,0
36805.238,-24.902,-15.137,-30.273,-16.113,0.000,0
36805.242,-23.438,-20.020,-40.039,-24.902,0.000,0
36805.246,-26.855,-23.926,-35.645,-38.574,0.000,0
36805.250,-19.531,-25.879,-30.762,-30.273,0.000,0
36805.254,-26.855,-30.762,-35.645,-27.344,0.000,0
36805.258,-25.391,-34.180,-47.852,-39.062,0.000,0
36805.262,-38.086,-38.086,-53.711,-46.387,0.000,0
36805.266,-50.293,-39.551,-50.293,-38.086,0.000,0
36805.269,-51.270,-42.480,-49.316,-37.109,0.000,0
36805.273,-59.570,-43.457,-47.852,-31.738,0.000,0
36805.277,-61.035,-42.480,-46.875,-34.668,0.000,0
36805.281,-51.758,-42.480,-48.340,-54.199,0.000,0
36805.285,-46.875,-46.875,-53.223,-32.715,0.000,0
36805.289,-41.992,-42.480,-44.922,-32.227,0.000,0
36805.293,-31.738,-38.086,-39.062,-50.293,0.000,0
36805.297,-39.062,-36.133,-46.387,-37.598,0.000,0
36805.301,-48.340,-38.086,-53.223,-38.086,0.000,0
36805.305,-47.852,-42.969,-47.852,-44.434,0.000,1
36805.308,-48.828,-39.062,-38.574,-37.598,0.000,0
36805.312,-44.922,-37.109,-40.527,-39.551,0.000,0
36805.316,-33.203,-38.574,-47.852,-44.434,0.000,0
36805.320,-30.273,-33.691,-39.062,-30.762,0.000,0
36805.324,-25.879,-22.461,-21.973,-11.230,0.000,0
36805.328,-6.348,-21.484,-32.715,-15.625,0.000,0
36805.332,-17.090,-20.996,-30.762,-32.715,0.000,0
36805.336,-34.668,-18.066,-21.973,-13.672,0.000,0
36805.340,-21.484,-20.020,-28.809,3.418,0.000,0
36805.344,-24.902,-23.438,-29.297,-15.137,0.000,0
36805.348,-34.180,-24.902,-27.344,-22.461,0.000,0
36805.351,-38.574,-25.391,-26.367,-29.297,0.000,0
36805.355,-31.738,-28.320,-31.738,-36.621,0.000,0
36805.359,-15.137,-24.902,-27.344,-20.996,0.000,0
36805.363,-19.531,-20.508,-28.809,-5.859,0.000,0
36805.367,-25.391,-20.020,-27.832,-16.602,0.000,0
36805.371,-24.414,-17.090,-16.602,-20.508,0.000,0
36805.375,-31.738,-22.949,-33.203,-5.371,0.000,0
36805.379,-30.762,-26.367,-40.039,-5.859,0.000,0
36805.383,-9.766,-13.672,-16.602,-5.859,0.000,0
36805.387,4.395,-19.043,-20.996,-10.254,0.000,0
36805.391,-15.625,-30.273,-33.203,-18.066,0.000,0
36805.394,-34.668,-33.691,-34.180,-30.273,0.000,0
36805.398,-39.062,-30.273,-32.715,-29.785,0.000,0
36805.402,-34.180,-32.227,-39.551,-24.414,0.000,0
36805.406,-22.461,-40.039,-38.574,-28.809,0.000,0
36805.410,-26.855,-39.062,-28.809,-26.855,0.000,0
36805.414,-41.504,-32.715,-38.086,-20.020,0.000,0
36805.418,-31.738,-31.738,-43.457,-35.645,0.000,0
36805.422,-32.715,-40.527,-44.922,-39.551,0.000,0
36805.426,-41.992,-45.410,-40.039,-30.762,0.000,0
36805.430,-28.809,-38.086,-18.555,-31.738,0.000,0
36805.433,-21.973,-36.621,-30.273,-37.109,0.000,0
36805.437,-28.320,-43.457,-44.434,-25.391,0.000,0
36805.441,-27.832,-39.551,-45.410,-11.230,0.000,0
36805.445,-21.973,-36.621,-33.691,-13.672,0.000,0
36805.449,-36.133,-37.109,-26.855,-36.133,0.000,0
36805.453,-40.039,-38.086,-34.668,-30.273,0.000,0
36805.457,-34.180,-32.715,-27.344,-12.695,0.000,0
36805.461,-33.203,-23.438,-28.320,-7.324,0.000,0
36805.465,-33.691,-35.645,-41.504,-32.227,0.000,0
36805.469,-31.250,-35.156,-28.809,-54.688,0.000,0
36805.473,-26.855,-22.949,-10.254,-29.297,0.000,0
36805.476,-28.320,-25.879,-20.508,-20.508,0.000,0
36805.480,-31.250,-31.738,-29.297,-45.410,0.000,0
36805.484,-38.086,-34.668,-24.902,-54.688,0.000,0
36805.488,-36.621,-33.203,-15.137,-49.316,0.000,0
36805.492,-35.156,-31.250,-25.879,-45.898,0.000,0
36805.496,-42.969,-39.062,-43.945,-51.270,0.000,0
36805.500,-32.227,-38.086,-31.250,-41.992,0.000,0
36805.504,-24.414,-29.785,-19.043,-3.418,0.000,0
36805.508,-23.438,-32.715,-20.508,-15.625,0.000,0
36805.512,-20.020,-33.203,-24.414,-44.434,0.000,0
36805.516,-29.785,-33.691,-31.250,-43.457,0.000,0
36805.519,-39.062,-36.133,-24.414,-41.992,0.000,0
36805.523,-33.203,-37.598,-23.926,-36.621,0.000,0
36805.527,-40.527,-40.039,-24.414,-49.805,0.000,0
36805.531,-43.945,-37.598,-29.785,-43.945,0.000,0
36805.535,-35.156,-39.062,-36.133,-43.457,0.000,0
36805.539,-34.180,-42.480,-31.250,-44.434,0.000,0
36805.543,-39.062,-41.016,-43.457,-20.996,0.000,0
36805.547,-36.133,-41.504,-35.645,-31.738,0.000,0
36805.551,-36.621,-37.109,-26.367,-34.668,0.000,0
36805.555,-41.992,-36.621,-38.086,-25.879,0.000,0
36805.558,-43.945,-41.504,-41.992,-26.367,0.000,0
36805.562,-41.016,-37.109,-28.320,-20.020,0.000,0
36805.566,-40.039,-36.133,-19.531,-29.297,0.000,0
36805.570,-26.855,-39.062,-34.180,-34.668,0.000,0
36805.574,-10.254,-26.855,-28.809,-23.926,0.000,0
36805.578,-17.578,-23.438,-22.461,-15.625,0.000,0
36805.582,-27.344,-27.344,-29.785,-10.254,0.000,0
36805.586,-20.020,-29.297,-22.949,-22.461,0.000,0
36805.590,-20.996,-24.902,-15.625,-18.066,0.000,0
36805.594,-23.926,-23.438,-20.996,-10.742,0.000,0
36805.598,-24.414,-30.762,-22.949,-26.855,0.000,0
36805.601,-27.344,-33.691,-15.137,-43.457,0.000,0
36805.605,-33.203,-32.715,-13.184,-42.480,0.000,0
36805.609,-24.414,-26.855,-10.742,-32.227,0.000,0
36805.613,-15.625,-25.879,-20.996,-33.691,0.000,0
36805.617,-21.484,-31.738,-27.832,-14.160,0.000,0
36805.621,-30.762,-32.227,-23.438,-11.719,0.000,0
36805.625,-33.691,-31.250,-20.020,-38.574,0.000,0
36805.629,-34.180,-41.016,-26.855,-60.547,0.000,0
36805.633,-31.250,-48.828,-32.715,-56.641,0.000,0
36805.637,-38.574,-44.922,-27.832,-50.781,0.000,0
36805.641,-42.969,-45.898,-26.367,-61.523,0.000,0
36805.644,-37.598,-52.734,-38.086,-38.086,0.000,0
36805.648,-43.945,-42.969,-42.480,-33.203,0.000,0
36805.652,-48.340,-37.109,-41.016,-39.062,0.000,0
36805.656,-38.574,-50.293,-45.898,-38.086,0.000,0
36805.660,-28.320,-48.340,-39.551,-34.668,0.000,0
36805.664,-35.645,-41.016,-36.133,-36.621,0.000,0
36805.668,-41.992,-43.945,-41.016,-42.480,0.000,0
36805.672,-41.016,-49.805,-45.898,-51.758,0.000,0
36805.676,-35.645,-55.176,-50.781,-52.734,0.000,0
36805.680,-30.273,-51.270,-48.340,-41.504,0.000,0
36805.683,-44.434,-48.340,-37.598,-45.410,0.000,0
36805.687,-51.270,-44.922,-36.133,-45.898,0.000,0
36805.691,-33.203,-33.203,-30.762,-21.973,0.000,0
36805.695,-31.738,-26.855,-24.902,-14.648,0.000,0
36805.699,-34.180,-22.461,-22.461,-20.508,0.000,0
36805.703,-29.297,-18.555,-21.484,-37.598,0.000,0
36805.707,-24.414,-17.578,-20.996,-34.180,0.000,0
36805.711,-22.949,-16.602,-14.160,-18.555,0.000,0
36805.715,-29.297,-18.555,-16.602,-26.855,0.000,0
36805.719,-44.922,-22.461,-20.020,-20.996,0.000,0
36805.723,-44.922,-20.508,-9.277,-20.996,0.000,0
36805.726,-30.762,-14.160,-10.254,-22.949,0.000,0
36805.730,-39.062,-17.090,-20.020,-7.812,0.000,0
36805.734,-41.992,-22.949,-22.949,-22.461,0.000,0
36805.738,-29.785,-29.785,-20.020,-23.926,0.000,0
36805.742,-24.414,-31.250,-12.207,-14.648,0.000,0
36805.746,-34.668,-27.832,-17.090,-31.738,0.000,0
36805.750,-36.621,-29.785,-27.832,-37.598,0.000,0
36805.754,-22.949,-23.926,-23.438,-16.602,0.000,0
36805.758,-39.551,-24.414,-23.926,-23.926,0.000,0
36805.762,-62.012,-42.969,-33.203,-59.570,0.000,0
36805.766,-46.875,-41.504,-32.227,-41.016,0.000,0
36805.769,-27.832,-29.785,-29.297,-19.531,0.000,0
36805.773,-35.645,-25.391,-24.902,-20.508,0.000,0
36805.777,-37.598,-23.438,-26.855,-19.531,0.000,0
36805.781,-29.785,-24.902,-22.461,-24.414,0.000,0
36805.785,-34.668,-23.926,-15.625,-28.809,0.000,0
36805.789,-37.109,-21.973,-21.973,-23.926,0.000,0
36805.793,-22.461,-25.391,-27.832,-15.137,0.000,0
36805.797,-19.531,-25.879,-33.203,-30.273,0.000,0
36805.801,-28.809,-14.648,-4.883,-15.137,0.000,0
36805.805,-11.719,-6.348,5.859,-11.230,0.000,0
36805.808,-2.930,-13.184,-19.531,-39.062,0.000,0
36805.812,-11.719,-19.043,-20.020,-24.902,0.000,0
36805.816,-11.230,-16.602,-21.973,-6.836,0.000,0
36805.820,-20.508,-25.879,-24.902,-10.254,0.000,0
36805.824,-31.250,-28.809,-22.949,-22.461,0.000,0
36805.828,-29.785,-23.438,-31.738,-15.137,0.000,0
36805.832,-19.531,-21.484,-23.438,-15.625,0.000,0
36805.836,-20.020,-19.531,-14.160,-22.949,0.000,0
36805.840,-35.156,-33.691,-31.250,-19.043,0.000,0
36805.844,-36.133,-34.180,-34.668,-26.855,0.000,0
36805.848,-21.484,-24.902,-23.926,-12.207,0.000,0
36805.851,-17.090,-32.715,-21.484,-6.836,0.000,0
36805.855,-27.344,-30.273,-33.691,-18.066,0.000,0
36805.859,-23.438,-23.926,-28.320,-32.715,0.000,0
36805.863,-20.020,-23.438,-12.207,-30.273,0.000,0
36805.867,-23.438,-24.902,-26.367,-12.695,0.000,0
36805.871,-16.113,-29.297,-36.133,-23.438,0.000,0
36805.875,-27.344,-35.645,-35.645,-21.973,0.000,0
36805.879,-27.832,-34.180,-33.691,-41.016,0.000,0
36805.883,-20.508,-35.645,-29.785,-67.383,0.000,0
36805.887,-29.785,-35.156,-33.691,-36.133,0.000,0
36805.891,-33.691,-31.738,-28.809,-22.949,0.000,0
36805.894,-39.551,-36.621,-29.785,-30.762,0.000,0
36805.898,-45.898,-41.992,-45.410,-35.156,0.000,0
36805.902,-49.805,-40.527,-36.621,-30.762,0.000,0
36805.906,-41.992,-37.598,-39.062,-34.180,0.000,0
36805.910,-34.180,-34.180,-45.898,-45.898,0.000,0
36805.914,-30.273,-29.297,-37.598,-31.738,0.000,0
36805.918,-29.297,-28.809,-29.297,-36.133,0.000,0
36805.922,-31.738,-34.180,-27.344,-46.387,0.000,0
36805.926,-28.809,-34.668,-31.250,-31.738,0.000,0
36805.930,-38.574,-35.156,-35.645,-20.996,0.000,0
36805.933,-43.945,-33.691,-38.086,-22.461,0.000,0
36805.937,-36.621,-31.250,-27.832,-26.855,0.000,0
36805.941,-35.645,-37.598,-30.273,-19.043,0.000,0
36805.945,-36.133,-39.551,-39.062,-22.461,0.000,2
36805.949,-42.480,-32.227,-34.180,-28.320,0.000,0
36805.953,-35.645,-40.527,-27.832,-26.855,0.000,0
36805.957,-30.273,-47.363,-38.086,-38.086,0.000,0
36805.961,-33.691,-38.086,-40.527,-59.082,0.000,0
36805.965,-41.992,-37.109,-30.762,-42.969,0.000,0
36805.969,-41.016,-46.387,-41.016,-15.137,0.000,0
36805.973,-35.156,-49.805,-41.016,-22.949,0.000,0
36805.976,-33.203,-47.363,-32.715,-33.691,0.000,0
36805.980,-29.297,-38.574,-20.508,-28.809,0.000,0
36805.984,-35.156,-39.062,-27.344,-42.480,0.000,0
36805.988,-31.738,-41.992,-40.039,-41.016,0.000,0
36805.992,-26.367,-41.016,-35.645,-22.461,0.000,0
36805.996,-22.461,-33.203,-32.227,-23.926,0.000,0
36806.000,-22.949,-27.344,-24.902,-38.086,0.000,0
36806.004,-30.762,-37.109,-28.320,-26.855,0.000,0
36806.008,-29.785,-36.133,-30.273,-4.395,0.000,0
36806.012,-21.484,-34.180,-29.785,-20.996,0.000,0
36806.016,-33.203,-34.668,-29.785,-31.738,0.000,0
36806.019,-42.480,-31.250,-26.367,-40.039,0.000,0
36806.023,-41.504,-32.227,-35.645,-36.621,0.000,0
36806.027,-37.598,-29.785,-34.180,-35.645,0.000,0
36806.031,-31.250,-25.879,-27.832,-37.598,0.000,0
36806.035,-29.297,-21.484,-25.391,-21.973,0.000,0
36806.039,-14.160,-21.973,-9.766,-14.160,0.000,0
36806.043,-12.207,-18.066,-7.324,-3.418,0.000,0
36806.047,-19.531,-20.020,-22.949,-10.742,0.000,0
36806.051,-22.949,-28.320,-32.227,-25.391,0.000,0
36806.055,-22.949,-24.902,-12.695,-33.203,0.000,0
36806.058,-23.926,-22.949,-5.859,-36.133,0.000,0
36806.062,-30.273,-21.973,-34.180,-40.039,0.000,0
36806.066,-23.438,-19.531,-26.855,-34.668,0.000,0
36806.070,-6.836,-15.625,0.977,0.977,0.000,0
36806.074,-21.484,-13.184,-8.301,-1.953,0.000,0
36806.078,-29.785,-17.090,-17.578,-32.715,0.000,0
36806.082,-22.461,-18.555,-10.254,-18.555,0.000,0
36806.086,-34.668,-19.043,-19.043,-20.996,0.000,0
36806.090,-31.738,-22.461,-21.484,-30.273,0.000,0
36806.094,-18.555,-21.973,-17.090,-14.648,0.000,0
36806.098,-14.160,-22.461,-14.648,-18.066,0.000,0
36806.101,-19.531,-16.602,-15.625,-21.973,0.000,0
36806.105,-27.344,-21.484,-23.926,-29.297,0.000,0
36806.109,-28.320,-30.273,-27.344,-31.250,0.000,0
36806.113,-30.273,-29.297,-31.738,-15.625,0.000,0
36806.117,-36.621,-36.621,-36.621,-24.414,0.000,0
36806.121,-35.156,-40.527,-47.852,-53.223,0.000,0
36806.125,-29.785,-43.457,-52.734,-66.406,0.000,0
36806.129,-36.133,-44.434,-38.574,-67.383,0.000,0
36806.133,-52.246,-40.527,-36.133,-53.711,0.000,0
36806.137,-47.363,-42.480,-38.086,-45.410,0.000,0
36806.141,-34.668,-42.969,-31.738,-44.434,0.000,0
36806.144,-37.598,-35.156,-32.715,-37.598,0.000,0
36806.148,-29.785,-34.180,-33.203,-30.762,0.000,0
36806.152,-28.320,-34.668,-35.156,-32.715,0.000,0
36806.156,-33.203,-31.738,-24.414,-45.898,0.000,0
36806.160,-40.039,-32.715,-23.438,-35.645,0.000,0
36806.164,-40.039,-30.273,-37.598,-32.715,0.000,0
36806.168,-38.574,-33.203,-36.133,-41.504,0.000,0
36806.172,-44.434,-39.551,-48.340,-36.621,0.000,0
36806.176,-35.156,-41.016,-35.645,-33.691,0.000,0
36806.180,-34.180,-38.086,-24.902,-38.574,0.000,0
36806.183,-37.109,-37.598,-45.410,-38.086,0.000,0
36806.187,-39.062,-35.645,-35.156,-35.645,0.000,0
36806.191,-24.414,-34.668,-27.344,-38.086,0.000,0
36806.195,-30.273,-39.551,-33.691,-37.598,0.000,0
36806.199,-49.316,-38.574,-34.180,-50.293,0.000,0
36806.203,-42.480,-37.109,-31.250,-68.359,0.000,0
36806.207,-34.668,-39.062,-28.809,-43.457,0.000,0
36806.211,-41.504,-31.738,-26.367,1.465,0.000,0
36806.215,-46.875,-32.715,-24.902,-26.367,0.000,0
36806.219,-44.922,-29.785,-18.555,-42.969,0.000,0
36806.223,-33.203,-20.508,-10.254,-15.625,0.000,0
36806.226,-20.020,-26.367,-20.996,-18.066,0.000,0
36806.230,-16.113,-24.902,-27.832,-28.320,0.000,0
36806.234,-21.484,-26.855,-20.508,-29.297,0.000,0
36806.238,-25.391,-30.273,-21.484,-44.922,0.000,0
36806.242,-28.809,-23.926,-35.156,-47.363,0.000,0
36806.246,-29.297,-25.391,-32.715,-29.785,0.000,0
36806.250,-18.066,-23.438,-25.391,-21.484,0.000,0
36806.254,-17.578,-19.043,-21.973,-2.930,0.000,0
36806.258,-15.625,-16.113,-14.648,-5.371,0.000,0
36806.262,-2.441,-14.648,-17.578,-18.555,0.000,0
36806.266,14.648,-13.672,-9.277,-12.207,0.000,0
36806.269,19.531,-2.441,-1.953,19.043,0.000,0
36806.273,15.137,5.859,-6.348,23.438,0.000,0
36806.277,17.090,7.324,5.371,13.672,0.000,0
36806.281,21.484,15.137,16.602,19.531,0.000,0
36806.285,18.066,20.020,18.066,12.695,0.000,0
36806.289,20.020,22.949,19.043,14.160,0.000,0
36806.293,26.367,23.438,26.855,30.762,0.000,0
36806.297,15.625,22.949,27.832,31.250,0.000,0
36806.301,8.789,26.855,16.602,8.301,0.000,0
36806.305,18.066,29.297,21.484,4.883,0.000,0
36806.308,15.625,30.273,30.762,15.137,0.000,0
36806.312,13.672,32.227,28.320,24.414,0.000,0
36806.316,27.344,34.668,29.785,19.531,0.000,0
36806.320,27.344,33.203,27.344,12.695,0.000,0
36806.324,31.250,30.762,21.484,23.438,0.000,0
36806.328,28.320,28.809,20.020,10.742,0.000,0
36806.332,17.090,23.926,12.207,10.742,0.000,0
36806.336,22.949,21.484,19.043,26.367,0.000,0
36806.340,13.184,22.461,20.020,11.719,0.000,0
36806.344,9.766,15.625,14.648,6.348,0.000,0
36806.348,14.160,10.254,13.184,17.578,0.000,0
36806.351,-3.418,12.695,6.836,19.043,0.000,0
36806.355,-10.742,4.883,10.742,1.465,0.000,0
36806.359,-6.348,0.000,6.348,-7.812,0.000,0
36806.363,-13.672,-4.883,-14.648,-6.348,0.000,0
36806.367,-12.695,-13.672,-12.207,-20.996,0.000,0
36806.371,-14.648,-14.648,-11.719,-17.090,0.000,0
36806.375,-20.508,-18.555,-19.043,-21.484,0.000,0
36806.379,-19.043,-16.602,-17.578,-30.762,0.000,0
36806.383,-20.996,-12.207,-16.602,-11.719,0.000,0
36806.387,-8.789,-20.996,-16.602,-4.395,0.000,0
36806.391,-9.277,-19.043,-17.090,0.000,0.000,0
36806.394,-24.414,-15.625,-11.719,-19.043,0.000,0
36806.398,-25.391,-21.973,-20.020,-25.879,0.000,0
36806.402,-27.344,-27.344,-27.344,-3.418,0.000,0
36806.406,-25.879,-32.715,-24.414,-19.043,0.000,0
36806.410,-36.133,-40.039,-34.180,-32.227,0.000,0
36806.414,-42.969,-43.457,-31.738,-12.695,0.000,0
36806.418,-40.039,-43.457,-32.227,-27.344,0.000,0
36806.422,-28.320,-41.992,-41.992,-25.391,0.000,0
36806.426,-35.156,-46.387,-43.457,-22.461,0.000,0
36806.430,-44.434,-44.922,-38.574,-42.480,0.000,0
36806.433,-45.410,-45.898,-29.297,-46.875,0.000,0
36806.437,-45.898,-42.480,-34.668,-42.969,0.000,0
36806.441,-44.434,-41.504,-45.898,-36.133,0.000,0
36806.445,-45.898,-40.039,-32.227,-27.832,0.000,0
36806.449,-35.645,-28.809,-26.367,-20.996,0.000,0
36806.453,-16.113,-30.273,-24.414,-30.762,0.000,0
36806.457,-10.742,-27.832,-18.555,-27.344,0.000,0
36806.461,-21.973,-17.090,-16.602,-14.160,0.000,0
36806.465,-25.879,-19.531,-15.137,-9.766,0.000,0
36806.469,-21.484,-27.344,-17.090,-25.879,0.000,0
36806.473,-29.297,-28.320,-7.324,-33.691,0.000,0
36806.476,-31.250,-23.926,-9.766,-27.832,0.000,0
36806.480,-22.949,-23.438,-19.043,-19.531,0.000,0
36806.484,-26.855,-24.902,-18.066,-20.020,0.000,0
36806.488,-28.320,-24.902,-14.160,-27.344,0.000,0
36806.492,-25.391,-28.809,-10.742,-22.949,0.000,0
36806.496,-29.785,-32.715,-15.625,-29.785,0.000,0
36806.500,-28.320,-36.621,-30.273,-21.973,0.000,0
36806.504,-16.602,-27.832,-21.973,-12.207,0.000,0
36806.508,-25.879,-21.973,-15.625,-12.207,0.000,0
36806.512,-31.738,-39.062,-23.438,-42.969,0.000,0
36806.516,-15.137,-36.133,-27.344,-45.898,0.000,0
36806.519,-25.879,-27.344,-23.438,-35.645,0.000,0
36806.523,-42.480,-27.344,-25.391,-22.461,0.000,0
36806.527,-21.484,-20.996,-28.809,6.348,0.000,0
36806.531,-10.254,-22.461,-19.043,0.488,0.000,0
36806.535,-32.227,-28.809,-28.809,-24.902,0.000,0
36806.539,-38.086,-36.133,-41.992,-37.598,0.000,0
36806.543,-36.133,-45.410,-51.758,-37.109,0.000,0
36806.547,-50.293,-43.945,-53.711,-44.922,0.000,0
36806.551,-53.711,-35.156,-20.020,-42.969,0.000,0
36806.555,-43.457,-38.574,-20.508,-38.574,0.000,0
36806.558,-40.527,-46.387,-39.062,-47.852,0.000,0
36806.562,-35.645,-47.363,-34.668,-35.156,0.000,0
36806.566,-39.062,-47.363,-32.715,-25.879,0.000,0
36806.570,-48.828,-47.852,-28.809,-47.363,0.000,0
36806.574,-50.781,-44.922,-36.621,-46.875,0.000,0
36806.578,-39.062,-44.434,-42.480,-26.855,0.000,0
36806.582,-34.668,-48.340,-41.016,-24.414,0.000,0
36806.586,-54.688,-56.152,-46.875,-50.781,0.000,0
36806.590,-77.637,-64.453,-52.246,-70.801,0.000,0
36806.594,-72.266,-65.430,-55.176,-54.688,0.000,0
36806.598,-61.035,-64.453,-61.523,-44.434,0.000,0
36806.601,-58.105,-65.918,-66.406,-50.293,0.000,0
36806.605,-50.781,-64.941,-60.547,-67.383,0.000,0
36806.609,-58.594,-60.547,-55.664,-82.031,0.000,0
36806.613,-65.918,-60.059,-66.406,-63.477,0.000,0
36806.617,-66.406,-65.918,-73.242,-48.340,0.000,1
36806.621,-59.570,-61.523,-54.199,-41.504,0.000,0
36806.625,-62.012,-63.477,-44.434,-54.688,0.000,0
36806.629,-68.848,-68.848,-52.734,-74.219,0.000,0
36806.633,-64.941,-62.500,-56.641,-60.059,0.000,0
36806.637,-56.641,-55.176,-48.828,-48.828,0.000,0
36806.641,-42.969,-49.316,-41.504,-48.828,0.000,0
36806.644,-38.574,-47.852,-44.434,-39.551,0.000,0
36806.648,-35.645,-43.945,-35.645,-32.715,0.000,0
36806.652,-45.410,-38.086,-33.203,-44.922,0.000,0
36806.656,-39.062,-35.156,-27.344,-49.316,0.000,0
36806.660,-40.527,-35.645,-28.809,-33.203,0.000,0
36806.664,-58.105,-36.621,-44.922,-33.203,0.000,0
36806.668,-36.621,-33.691,-31.738,-18.555,0.000,0
36806.672,-24.414,-25.879,-17.090,-20.020,0.000,0
36806.676,-34.180,-20.508,-27.344,-23.926,0.000,0
36806.680,-30.762,-21.484,-31.250,-15.137,0.000,0
36806.683,-36.133,-28.320,-26.367,-25.879,0.000,0
36806.687,-37.598,-38.574,-33.691,-36.621,0.000,0
36806.691,-28.809,-41.504,-41.992,-41.992,0.000,0
36806.695,-35.156,-38.086,-41.992,-49.316,0.000,0
36806.699,-41.992,-40.527,-45.898,-41.016,0.000,0
36806.703,-36.621,-50.293,-49.805,-33.691,0.000,0
36806.707,-29.297,-49.805,-41.992,-52.246,0.000,0
36806.711,-31.738,-39.062,-37.598,-46.387,0.000,0
36806.715,-23.926,-41.992,-41.992,-26.367,0.000,0
36806.719,-24.902,-52.246,-51.758,-34.180,0.000,0
36806.723,-40.527,-50.781,-45.898,-46.875,0.000,0
36806.726,-44.434,-45.410,-33.691,-51.270,0.000,0
36806.730,-46.875,-52.734,-51.270,-52.734,0.000,0
36806.734,-60.059,-55.176,-66.895,-51.758,0.000,0
36806.738,-57.129,-41.016,-49.805,-41.016,0.000,0
36806.742,-38.086,-34.668,-26.855,-29.297,0.000,0
36806.746,-37.109,-35.156,-26.855,-29.297,0.000,0
36806.750,-38.574,-32.227,-32.715,-24.902,0.000,0
36806.754,-35.645,-34.180,-30.762,-17.090,0.000,0
36806.758,-41.016,-36.133,-33.691,-32.227,0.000,0
36806.762,-43.457,-35.645,-30.762,-33.203,0.000,0
36806.766,-41.504,-38.086,-26.855,-39.062,0.000,0
36806.769,-45.898,-34.180,-33.691,-49.805,0.000,0
36806.773,-38.574,-33.691,-33.203,-41.504,0.000,0
36806.777,-25.391,-34.668,-31.250,-44.922,0.000,0
36806.781,-33.203,-30.273,-30.273,-41.016,0.000,0
36806.785,-40.039,-26.367,-17.090,-30.762,0.000,0
36806.789,-43.945,-29.785,-32.715,-29.297,0.000,0
36806.793,-49.316,-43.457,-49.316,-30.273,0.000,0
36806.797,-53.711,-52.734,-52.734,-50.781,0.000,0
36806.801,-54.688,-46.387,-50.293,-58.105,0.000,0
36806.805,-50.781,-46.387,-43.457,-47.852,0.000,0
36806.808,-41.016,-46.387,-45.410,-38.086,0.000,0
36806.812,-45.898,-43.945,-48.340,-39.062,0.000,0
36806.816,-50.293,-41.504,-43.457,-43.457,0.000,0
36806.820,-44.434,-34.180,-39.062,-43.945,0.000,0
36806.824,-48.828,-40.527,-45.410,-48.828,0.000,0
36806.828,-55.664,-44.434,-47.852,-54.199,0.000,0
36806.832,-46.387,-29.297,-25.879,-45.898,0.000,0
36806.836,-34.180,-27.832,-27.832,-37.109,0.000,0
36806.840,-25.391,-33.203,-32.715,-27.832,0.000,0
36806.844,-33.203,-37.598,-24.414,-38.574,0.000,0
36806.848,-47.363,-36.621,-36.133,-41.016,0.000,0
36806.851,-44.922,-41.016,-55.664,-40.527,0.000,0
36806.855,-42.969,-39.062,-48.828,-41.992,0.000,0
36806.859,-38.086,-31.738,-27.832,-33.691,0.000,0
36806.863,-32.227,-31.250,-20.508,-45.410,0.000,0
36806.867,-39.062,-26.855,-28.320,-33.691,0.000,0
36806.871,-46.387,-28.320,-35.645,-25.879,0.000,0
36806.875,-34.180,-30.273,-29.785,-33.691,0.000,0
36806.879,-33.691,-38.574,-27.344,-38.574,0.000,0
36806.883,-39.551,-41.504,-38.574,-43.457,0.000,0
36806.887,-39.062,-36.621,-42.480,-41.992,0.000,0
36806.891,-33.691,-29.297,-26.367,-32.715,0.000,0
36806.894,-31.250,-24.414,-24.414,-30.762,0.000,0
36806.898,-33.691,-29.297,-35.645,-21.484,0.000,0
36806.902,-40.527,-35.156,-36.621,-28.320,0.000,0
36806.906,-59.082,-37.598,-39.551,-48.340,0.000,0
36806.910,-69.336,-41.016,-53.711,-59.570,0.000,0
36806.914,-61.035,-41.016,-56.641,-56.152,0.000,0
36806.918,-59.082,-42.969,-57.617,-58.594,0.000,0
36806.922,-58.105,-36.621,-51.270,-52.734,0.000,0
36806.926,-58.594,-26.367,-47.852,-41.016,0.000,0
36806.930,-60.059,-28.809,-55.664,-35.156,0.000,0
36806.933,-49.805,-19.043,-41.504,-30.273,0.000,0
36806.937,-34.668,-2.441,-26.367,-29.297,0.000,0
36806.941,-30.762,-0.977,-38.086,-34.668,0.000,0
36806.945,-25.391,6.348,-38.574,-25.879,0.000,0
36806.949,-20.508,20.020,-28.809,0.488,0.000,0
36806.953,-39.551,22.949,-38.574,-29.297,0.000,0
36806.957,-42.969,21.973,-45.898,-37.109,0.000,0
36806.961,-30.273,29.785,-44.434,-18.066,0.000,0
36806.965,-21.973,31.738,-43.457,-31.250,0.000,0
36806.969,-17.578,35.645,-34.180,-31.738,0.000,0
36806.973,-12.207,45.410,-34.668,-20.996,0.000,0
36806.976,-8.301,50.781,-31.738,-4.883,0.000,0
36806.980,-5.859,61.523,-18.555,-8.301,0.000,0
36806.984,8.301,74.707,-21.484,-3.906,0.000,0
36806.988,2.930,76.172,-33.691,9.766,0.000,0
36806.992,-6.836,82.520,-17.578,24.414,0.000,0
36806.996,0.488,88.867,-5.859,28.320,0.000,0
36807.000,7.812,89.844,-7.324,7.812,0.000,0
36807.004,0.000,92.285,-8.301,0.000,0.000,0
36807.008,-16.113,87.891,-4.395,-6.836,0.000,0
36807.012,-9.766,86.426,-7.324,-8.301,0.000,0
36807.016,-2.441,72.266,-23.926,-5.859,0.000,0
36807.019,-13.184,55.176,-17.578,-8.301,0.000,0
36807.023,-15.137,54.199,-12.207,3.418,0.000,0
36807.027,-24.902,46.387,-24.902,-7.812,0.000,0
36807.031,-29.785,38.574,-26.367,-18.555,0.000,0
36807.035,-8.301,38.574,-15.137,-7.812,0.000,0
36807.039,-12.695,34.668,0.000,-18.555,0.000,0
36807.043,-25.879,25.879,-10.742,-28.809,0.000,0
36807.047,-27.832,17.578,-18.066,-31.250,0.000,0
36807.051,-21.973,13.184,-12.695,-19.531,0.000,0
36807.055,-30.762,9.277,-15.137,-2.441,0.000,0
36807.058,-39.062,-3.418,-16.113,-23.926,0.000,0
36807.062,-27.832,-12.695,-25.879,-30.762,0.000,0
36807.066,-22.461,-8.789,-17.578,-0.488,0.000,0
36807.070,-17.578,-7.324,0.977,0.977,0.000,0
36807.074,-3.906,-10.254,-8.789,-20.996,0.000,0
36807.078,-4.883,-11.230,-4.883,-21.973,0.000,0
36807.082,-19.531,-13.184,1.953,-14.160,0.000,0
36807.086,-15.137,-12.207,-0.977,-8.789,0.000,0
36807.090,-6.836,-16.602,-13.672,10.742,0.000,0
36807.094,-1.465,-22.461,-21.484,7.812,0.000,0
36807.098,0.488,-25.391,3.906,-1.465,0.000,0
36807.101,-4.395,-24.414,8.301,20.996,0.000,0
36807.105,-12.207,-29.785,-14.160,11.230,0.000,0
36807.109,-12.207,-34.668,-20.020,-28.809,0.000,0
36807.113,-8.301,-30.273,-5.371,-0.488,0.000,0
36807.117,-7.812,-36.621,6.836,9.766,0.000,0
36807.121,-5.371,-34.668,-0.977,-14.160,0.000,0
36807.125,10.254,-24.414,0.977,-2.930,0.000,0
36807.129,21.484,-23.438,10.742,8.789,0.000,0
36807.133,25.391,-20.020,7.812,13.184,0.000,0
36807.137,26.855,-19.531,12.207,-3.906,0.000,0
36807.141,7.812,-13.184,20.020,-7.324,0.000,0
36807.144,3.418,-14.160,6.348,9.277,0.000,0
36807.148,4.883,-21.973,7.812,-1.953,0.000,0
36807.152,-3.906,-23.926,0.488,13.184,0.000,0
36807.156,-8.301,-21.973,6.348,12.695,0.000,0
36807.160,6.836,-7.324,33.203,-1.465,0.000,0
36807.164,8.301,-3.418,16.113,4.395,0.000,0
36807.168,-7.812,-16.113,4.883,4.395,0.000,0
36807.172,0.000,-15.137,17.578,4.395,0.000,0
36807.176,15.625,-3.906,30.273,8.789,0.000,0
36807.180,16.602,-1.465,30.273,5.859,0.000,0
36807.183,15.137,-0.977,22.949,22.949,0.000,0
36807.187,11.719,-5.371,22.949,26.855,0.000,0
36807.191,8.301,-9.766,12.207,5.859,0.000,0
36807.195,6.348,-14.648,5.371,0.000,0.000,0
36807.199,7.324,-23.926,6.348,2.930,0.000,0
36807.203,1.953,-20.508,6.836,2.441,0.000,0
36807.207,-7.812,-15.625,4.395,0.977,0.000,0
36807.211,-12.207,-26.367,-5.859,-14.648,0.000,0
36807.215,-6.836,-30.273,-1.953,-13.184,0.000,0
36807.219,-0.977,-24.902,6.348,-11.230,0.000,0
36807.223,-5.371,-24.414,0.977,-13.672,0.000,0
36807.226,-4.883,-29.297,-6.836,3.906,0.000,0
36807.230,-4.395,-35.645,-9.766,1.953,0.000,0
36807.234,-4.395,-35.645,-9.766,-12.695,0.000,0
36807.238,4.395,-24.902,0.000,-12.207,0.000,0
36807.242,-11.719,-20.996,-7.324,-5.371,0.000,0
36807.246,-14.648,-28.320,-14.648,-0.488,0.000,0
36807.250,4.395,-21.973,1.465,18.066,0.000,0
36807.254,8.789,-23.926,-0.488,13.672,0.000,0
36807.258,4.883,-26.855,-2.441,0.000,0.000,0
36807.262,-0.488,-14.160,5.371,9.766,0.000,0
36807.266,12.695,-11.719,7.812,12.207,0.000,0
36807.269,24.902,-13.184,7.324,0.000,0.000,0
36807.273,16.113,-8.301,14.648,28.320,0.000,0
36807.277,8.301,-5.859,21.973,47.363,0.000,0
36807.281,15.137,-9.277,9.766,32.715,0.000,0
36807.285,17.578,-9.277,6.836,11.230,0.000,0
36807.289,7.324,-15.137,12.695,7.324,0.000,2
36807.293,0.000,-19.043,13.672,25.879,0.000,0
36807.297,7.812,-11.230,18.066,15.625,0.000,0
36807.301,14.160,-11.719,6.348,-4.883,0.000,0
36807.305,9.766,-11.719,4.395,1.465,0.000,0
36807.308,7.812,-13.672,6.348,7.812,0.000,0
36807.312,3.418,-22.461,3.418,0.977,0.000,0
36807.316,-0.488,-26.855,2.930,-1.465,0.000,0
36807.320,-2.930,-23.438,-0.488,-9.277,0.000,0
36807.324,2.930,-23.438,-4.883,-13.672,0.000,0
36807.328,10.254,-30.762,-15.625,-16.113,0.000,0
36807.332,-3.418,-29.785,-22.949,-1.953,0.000,0
36807.336,-27.832,-38.574,-15.625,-2.930,0.000,0
36807.340,-43.457,-45.898,-22.461,-27.344,0.000,0
36807.344,-35.645,-44.434,-35.156,-10.742,0.000,0
36807.348,-27.832,-42.969,-32.715,-20.020,0.000,0
36807.351,-31.738,-35.156,-23.926,-23.438,0.000,0
36807.355,-29.297,-41.016,-18.066,-8.301,0.000,0
36807.359,-13.672,-46.387,-27.832,-29.785,0.000,0
36807.363,-15.137,-38.086,-29.297,-37.109,0.000,0
36807.367,-16.602,-33.691,-20.508,-16.602,0.000,0
36807.371,-17.578,-32.715,-17.578,0.488,0.000,0
36807.375,-25.391,-35.156,-20.020,-23.438,0.000,0
36807.379,-27.344,-38.086,-26.367,-26.367,0.000,0
36807.383,-24.414,-41.992,-28.809,-16.113,0.000,0
36807.387,-25.879,-48.828,-40.039,-29.785,0.000,0
36807.391,-29.785,-62.988,-54.199,-18.555,0.000,0
36807.394,-34.668,-71.289,-46.875,-34.668,0.000,0
36807.398,-58.105,-63.965,-51.270,-60.547,0.000,0
36807.402,-63.477,-65.430,-57.129,-50.781,0.000,0
36807.406,-47.363,-61.035,-52.246,-36.133,0.000,0
36807.410,-41.992,-57.617,-41.016,-33.203,0.000,0
36807.414,-40.527,-57.129,-25.879,-31.738,0.000,0
36807.418,-34.180,-43.945,-25.879,-26.855,0.000,0
36807.422,-30.762,-41.504,-30.273,-24.414,0.000,0
36807.426,-37.109,-49.316,-37.109,-23.438,0.000,0
36807.430,-45.898,-50.781,-45.898,-34.668,0.000,0
36807.433,-58.105,-55.176,-49.805,-66.895,0.000,0
36807.437,-53.711,-50.781,-43.457,-52.246,0.000,0
36807.441,-47.852,-42.969,-32.715,-27.344,0.000,0
